DTS Sentinel unit serial number:	SN410029Multiplexer serial number:	ORYXHardware model number:	OX2-SRSoftware version number:	ORYX F/W v4,00 Oryx Data Collector v3.7.2.0data status	okinstallation	B3 Nyhavnadifferential loss correction	single-endedforward channel	channel 1reverse channel	N/Adate	2023/11/30time	23:57:30forward acquisition time	300,00reverse acquisition time	0,00gamma	499,1914k internal	0,3210k external	0,3210temperature offset calibration	1,0000default loss term (dB/km)	0,3820temperature slope calibration	1,0000multiplexer offset coefficient	1,0000multiplexer slope coefficient	1,0000fibre end	0,00T internal ref (°C)	9,41T ext. ref 1 (°C)	-5,59T ext. ref 2 (°C)	-5,72length (m)	temperature (°C)	Stokes	anti-Stokes-744,400	-59,300	-0,316	-0,098
-743,385	314,704	-0,244	0,334
-742,371	262,005	-0,103	-0,129
-741,356	-200,000	0,001	0,339
-740,342	800,000	-0,063	-0,177
-739,327	800,000	-0,106	0,239
-738,312	-37,795	-0,202	-0,077
-737,298	-200,000	-0,053	0,357
-736,283	17,672	-0,280	-0,161
-735,269	-200,000	0,025	0,265
-734,254	178,070	-0,155	-0,164
-733,239	383,135	-0,141	0,211
-732,225	516,232	-0,125	-0,212
-731,210	800,000	0,078	0,244
-730,196	-140,293	-0,072	-0,005
-729,181	-200,000	0,023	-0,176
-728,167	397,111	0,015	0,022
-727,152	110,317	-0,025	0,022
-726,137	299,102	-0,036	0,048
-725,123	800,000	-0,041	-0,122
-724,108	-200,000	-0,024	-0,178
-723,094	-200,000	-0,013	-0,074
-722,079	-138,743	-0,083	0,006
-721,064	-200,000	0,020	0,141
-720,050	532,383	-0,061	0,106
-719,035	140,986	-0,076	-0,073
-718,021	-200,000	-0,006	0,107
-717,006	800,000	-0,117	-0,292
-715,991	7,360	-0,089	-0,048
-714,977	800,000	-0,027	-0,066
-713,962	-200,000	-0,001	-0,014
-712,948	127,653	-0,055	0,050
-711,933	135,488	0,036	-0,034
-710,918	198,949	-0,096	-0,107
-709,904	-60,425	-0,105	0,032
-708,889	-20,556	-0,064	-0,029
-707,875	4,376	-0,134	0,071
-706,860	-20,031	-0,069	0,031
-705,845	313,099	0,044	-0,060
-704,831	163,133	0,050	-0,051
-703,816	-113,140	0,140	0,020
-702,802	-6,593	-0,087	-0,043
-701,787	174,856	-0,025	-0,026
-700,772	-55,031	-0,099	-0,032
-699,758	-200,000	-0,003	0,085
-698,743	-31,872	0,088	0,035
-697,729	184,198	0,179	0,192
-696,714	440,372	0,043	0,068
-695,699	-22,809	0,024	-0,010
-694,685	-103,884	-0,029	-0,005
-693,670	-142,375	-0,115	-0,008
-692,656	41,685	-0,060	0,040
-691,641	183,366	0,070	0,075
-690,627	123,942	-0,120	-0,109
-689,612	4,092	-0,088	-0,046
-688,597	14,632	-0,158	-0,089
-687,583	42,366	0,153	0,100
-686,568	-80,732	-0,128	0,031
-685,554	-85,163	-0,079	0,018
-684,539	-45,773	0,098	0,035
-683,524	270,742	-0,070	-0,090
-682,510	-84,100	-0,063	0,014
-681,495	-156,925	0,159	0,007
-680,481	108,822	-0,082	0,071
-679,466	207,289	-0,100	-0,113
-678,451	44,033	-0,078	-0,051
-677,437	-77,350	-0,101	-0,025
-676,422	-200,000	0,033	0,105
-675,408	-200,000	0,020	0,116
-674,393	-117,602	-0,144	-0,019
-673,378	-200,000	0,006	0,091
-672,364	450,853	-0,020	0,032
-671,349	-87,692	-0,067	-0,015
-670,335	23,571	0,044	0,026
-669,320	61,144	0,122	0,088
-668,305	27,048	-0,122	0,074
-667,291	-200,000	0,034	0,190
-666,276	-65,095	-0,086	0,025
-665,262	330,949	-0,029	0,041
-664,247	-200,000	-0,009	0,042
-663,232	207,955	-0,057	-0,065
-662,218	40,956	-0,067	0,043
-661,203	800,000	0,016	0,049
-660,189	-44,648	0,033	0,012
-659,174	85,643	-0,053	-0,042
-658,159	732,236	-0,008	0,016
-657,145	-200,000	0,003	0,034
-656,130	-75,378	-0,114	0,029
-655,116	340,387	-0,016	0,023
-654,101	274,572	0,006	-0,008
-653,086	314,360	-0,100	-0,137
-652,072	180,970	-0,030	0,032
-651,057	-200,000	-0,002	-0,073
-650,043	288,265	0,045	-0,059
-649,028	-36,802	0,064	0,025
-648,014	-157,331	-0,135	-0,006
-646,999	800,000	0,029	0,079
-645,984	481,187	-0,076	0,125
-644,970	-200,000	0,042	-0,179
-643,955	157,665	-0,058	-0,058
-642,941	109,360	-0,044	0,038
-641,926	147,902	-0,044	0,043
-640,911	33,452	0,054	0,034
-639,897	-200,000	-0,003	-0,076
-638,882	325,862	-0,028	0,038
-637,868	-200,000	0,017	0,227
-636,853	1,369	0,073	-0,038
-635,838	-200,000	-0,032	-0,218
-634,824	-59,314	0,033	-0,010
-633,809	201,517	0,065	-0,072
-632,795	-200,000	0,021	0,168
-631,780	-200,000	0,001	0,076
-630,765	800,000	0,021	0,057
-629,751	-44,326	-0,141	0,051
-628,736	800,000	0,014	-0,039
-627,722	-200,000	-0,031	-0,135
-626,707	262,474	-0,027	-0,034
-625,692	162,632	0,058	0,059
-624,678	3,282	0,049	-0,026
-623,663	800,000	0,033	0,088
-622,649	-200,000	0,016	-0,118
-621,634	-88,952	-0,132	0,028
-620,619	415,869	0,021	0,033
-619,605	501,087	-0,032	0,054
-618,590	800,000	0,045	-0,093
-617,576	120,556	0,068	0,061
-616,561	784,673	-0,056	-0,112
-615,546	353,461	-0,061	-0,087
-614,532	133,386	-0,072	-0,067
-613,517	-200,000	0,033	-0,113
-612,503	-6,803	-0,037	0,018
-611,488	77,238	0,164	0,126
-610,474	-200,000	0,007	0,034
-609,459	-24,650	0,178	0,076
-608,444	800,000	0,018	-0,052
-607,430	-200,000	0,006	-0,051
-606,415	16,114	-0,083	0,047
-605,401	24,649	-0,108	0,065
-604,386	-107,315	0,080	-0,013
-603,371	800,000	0,051	0,104
-602,357	18,350	-0,094	-0,054
-601,342	-200,000	-0,014	-0,104
-600,328	256,444	-0,054	-0,067
-599,313	324,996	-0,095	-0,131
-598,298	-175,491	0,113	0,002
-597,284	-200,000	0,000	0,157
-596,269	-108,746	0,099	0,015
-595,255	-78,305	-0,048	-0,012
-594,240	165,240	-0,018	-0,018
-593,225	800,000	-0,063	-0,133
-592,211	333,970	0,017	-0,024
-591,196	-200,000	0,002	0,043
-590,182	192,468	0,049	-0,054
-589,167	15,406	0,090	-0,051
-588,152	5,881	-0,082	-0,043
-587,138	-200,000	0,004	0,106
-586,123	493,585	0,072	-0,120
-585,109	348,076	0,151	-0,215
-584,094	59,252	0,074	-0,052
-583,079	50,117	-0,096	0,065
-582,065	-200,000	-0,015	-0,058
-581,050	-33,528	-0,076	0,030
-580,036	-71,329	0,055	0,015
-579,021	113,175	-0,026	-0,023
-578,006	-45,910	-0,108	-0,038
-576,992	-4,732	-0,022	-0,011
-575,977	-10,719	-0,070	0,033
-574,963	526,729	-0,040	0,069
-573,948	109,848	-0,066	-0,057
-572,934	-200,000	0,008	-0,034
-571,919	-155,955	0,058	-0,003
-570,904	-182,485	-0,096	0,001
-569,890	-131,170	0,066	-0,006
-568,875	-57,466	0,124	0,039
-567,861	-46,335	-0,050	-0,018
-566,846	130,796	0,053	-0,049
-565,831	-200,000	-0,009	0,037
-564,817	154,248	-0,081	-0,080
-563,802	-82,752	0,167	0,039
-562,788	123,809	-0,061	-0,055
-561,773	-74,516	-0,041	0,010
-560,758	-200,000	0,003	-0,069
-559,744	-13,372	0,145	-0,068
-558,729	-94,853	-0,079	-0,015
-557,715	379,581	0,108	-0,159
-556,700	-200,000	-0,032	-0,133
-555,685	700,106	-0,040	-0,075
-554,671	-200,000	0,001	-0,064
-553,656	800,000	-0,019	-0,041
-552,642	30,410	0,112	-0,069
-551,627	800,000	-0,014	-0,032
-550,612	-200,000	-0,026	0,159
-549,598	-200,000	0,018	-0,058
-548,583	-200,000	-0,027	-0,255
-547,569	-200,000	-0,003	0,058
-546,554	800,000	-0,034	0,070
-545,539	-160,633	0,103	0,004
-544,525	-200,000	-0,017	-0,060
-543,510	145,387	-0,011	0,011
-542,496	322,059	0,070	-0,097
-541,481	-165,317	0,104	-0,003
-540,466	-143,589	0,091	0,006
-539,452	-40,623	-0,095	0,035
-538,437	-57,166	-0,137	-0,043
-537,423	248,623	-0,055	-0,067
-536,408	89,953	0,035	-0,028
-535,393	-30,258	-0,031	0,013
-534,379	-200,000	-0,019	-0,105
-533,364	74,921	0,028	-0,021
-532,350	-88,427	0,068	-0,014
-531,335	-200,000	-0,016	0,127
-530,321	114,379	0,042	0,037
-529,306	707,503	0,012	-0,024
-528,291	-65,340	-0,014	0,004
-527,277	-61,234	0,016	0,005
-526,262	-200,000	0,008	0,106
-525,248	-9,738	0,046	-0,022
-524,233	800,000	0,010	-0,030
-523,218	-200,000	-0,015	-0,055
-522,204	204,839	0,065	0,073
-521,189	800,000	-0,059	-0,129
-520,175	71,549	-0,070	-0,052
-519,160	283,131	0,042	0,054
-518,145	-200,000	-0,006	-0,076
-517,131	800,000	0,024	-0,049
-516,116	-200,000	0,009	-0,087
-515,102	221,334	-0,040	0,047
-514,087	54,172	0,082	0,057
-513,072	131,860	-0,055	-0,050
-512,058	390,343	0,060	-0,090
-511,043	-200,000	0,002	0,120
-510,029	16,886	0,129	0,073
-509,014	-200,000	-0,005	0,121
-507,999	362,050	-0,015	0,021
-506,985	-103,440	0,034	-0,006
-505,970	800,000	-0,021	-0,062
-504,956	260,679	-0,033	-0,041
-503,941	128,227	-0,013	0,012
-502,926	-200,000	0,015	-0,077
-501,912	-104,866	0,087	0,014
-500,897	-38,063	-0,037	0,014
-499,883	-29,996	0,214	0,087
-498,868	-40,684	-0,095	-0,035
-497,853	800,000	-0,049	-0,104
-496,839	581,301	0,051	0,091
-495,824	800,000	-0,045	0,123
-494,810	-171,202	0,105	0,002
-493,795	-200,000	-0,011	-0,085
-492,781	18,576	-0,155	-0,089
-491,766	-200,000	-0,005	-0,121
-490,751	163,512	-0,063	0,064
-489,737	-119,818	-0,171	0,021
-488,722	678,106	0,070	-0,131
-487,708	132,924	-0,060	-0,056
-486,693	-165,662	0,106	0,003
-485,678	-87,461	0,092	-0,020
-484,664	139,989	-0,137	0,130
-483,649	-132,511	0,136	-0,012
-482,635	507,818	0,047	-0,078
-481,620	-200,000	0,027	-0,115
-480,605	-70,554	0,104	-0,028
-479,591	53,004	-0,110	0,076
-478,576	-197,104	-0,073	0,000
-477,562	58,238	-0,092	-0,065
-476,547	-200,000	0,019	-0,105
-475,532	164,592	-0,088	0,089
-474,518	-200,000	0,009	0,097
-473,503	-10,840	0,159	-0,075
-472,489	177,647	0,124	-0,130
-471,474	75,175	-0,123	0,093
-470,459	-200,000	-0,002	0,087
-469,445	-200,000	-0,006	-0,065
-468,430	148,338	-0,125	-0,121
-467,416	246,645	0,052	0,063
-466,401	-200,000	0,020	-0,107
-465,386	-200,000	0,001	0,099
-464,372	-58,348	-0,098	0,030
-463,357	93,169	0,016	0,013
-462,343	718,240	0,022	0,042
-461,328	22,520	-0,146	-0,085
-460,313	35,131	0,085	-0,053
-459,299	7,872	0,067	0,036
-458,284	800,000	0,003	-0,007
-457,270	633,941	-0,045	-0,082
-456,255	-200,000	-0,013	-0,092
-455,241	238,443	-0,099	-0,118
-454,226	461,082	0,043	0,069
-453,211	-49,070	-0,035	0,012
-452,197	-200,000	0,011	0,069
-451,182	-130,543	0,117	0,011
-450,168	-200,000	0,008	0,108
-449,153	197,677	0,086	-0,094
-448,138	800,000	0,035	-0,075
-447,124	-149,436	-0,113	0,006
-446,109	32,545	0,094	0,058
-445,095	-32,777	-0,074	0,029
-444,080	-51,365	0,110	0,037
-443,065	596,996	0,036	0,065
-442,051	323,923	-0,052	-0,071
-441,036	-200,000	-0,008	-0,103
-440,022	-51,283	-0,074	0,025
-439,007	-200,000	0,014	0,076
-437,992	-200,000	-0,029	-0,131
-436,978	14,695	0,044	0,025
-435,963	0,849	0,087	0,045
-434,949	86,595	-0,126	0,099
-433,934	-44,546	0,025	0,009
-432,919	800,000	-0,038	-0,094
-431,905	-95,862	-0,056	0,011
-430,890	344,879	0,042	-0,059
-429,876	38,679	-0,125	0,080
-428,861	50,478	0,098	0,066
-427,846	637,762	0,039	-0,072
-426,832	-200,000	0,055	-0,174
-425,817	87,116	-0,177	0,140
-424,803	-57,080	-0,012	0,004
-423,788	-200,000	0,006	0,048
-422,773	35,410	0,009	0,006
-421,759	35,410	0,054	-0,034
-420,744	-79,000	0,117	-0,028
-419,730	-200,000	0,021	0,116
-418,715	152,988	-0,034	0,034
-417,701	136,279	-0,082	-0,076
-416,686	179,586	0,051	0,054
-415,671	-200,000	-0,007	-0,139
-414,657	-127,432	0,131	-0,013
-413,642	-200,000	-0,001	0,031
-412,628	-200,000	-0,047	-0,197
-411,613	-108,575	-0,082	0,012
-410,598	-200,000	-0,001	0,027
-409,584	670,222	0,020	0,037
-408,569	237,198	0,043	0,051
-407,555	-30,482	0,040	-0,016
-406,540	-200,000	-0,037	0,183
-405,525	800,000	-0,048	-0,131
-404,511	143,084	-0,046	-0,044
-403,496	198,186	0,043	-0,047
-402,482	-141,465	-0,008	0,001
-401,467	-200,000	-0,020	-0,084
-400,452	293,172	-0,010	0,014
-399,438	800,000	-0,012	0,033
-398,423	281,606	0,043	-0,056
-397,409	-119,375	-0,079	-0,010
-396,394	213,829	-0,054	-0,061
-395,379	178,722	-0,054	-0,056
-394,365	491,739	0,072	0,118
-393,350	-8,627	0,078	0,037
-392,336	-200,000	-0,009	0,092
-391,321	149,608	-0,042	0,040
-390,306	-34,209	-0,072	0,028
-389,292	-200,000	0,013	-0,075
-388,277	259,895	0,103	0,128
-387,263	-39,459	0,122	0,045
-386,248	159,118	0,035	0,034
-385,233	795,185	0,013	0,025
-384,219	237,454	0,041	-0,048
-383,204	-75,521	-0,140	-0,035
-382,190	-89,448	-0,159	0,033
-381,175	49,703	-0,185	-0,124
-380,160	27,412	0,062	0,037
-379,146	405,391	0,048	-0,073
-378,131	110,294	-0,072	0,062
-377,117	-200,000	0,007	-0,053
-376,102	-83,372	-0,030	-0,007
-375,088	127,620	-0,056	-0,051
-374,073	-144,108	-0,075	0,005
-373,058	158,153	0,096	0,095
-372,044	800,000	0,039	0,080
-371,029	200,164	0,017	0,019
-370,015	81,594	0,226	0,174
-369,000	151,344	-0,101	-0,098
-367,985	-116,365	0,087	0,011
-366,971	-76,984	-0,041	0,010
-365,956	-200,000	0,029	0,158
-364,942	187,162	0,061	-0,065
-363,927	225,948	0,039	-0,045
-362,912	-200,000	0,007	-0,099
-361,898	174,358	0,094	-0,097
-360,883	-200,000	-0,003	-0,031
-359,869	-200,000	0,012	-0,111
-358,854	800,000	-0,027	0,076
-357,839	-200,000	0,028	0,124
-356,825	-124,198	-0,100	-0,011
-355,810	69,401	0,018	-0,013
-354,796	-200,000	-0,019	-0,118
-353,781	-200,000	0,055	-0,215
-352,766	31,345	-0,073	0,045
-351,752	800,000	0,058	0,128
-350,737	-200,000	0,020	0,099
-349,723	76,890	0,082	0,062
-348,708	201,334	0,070	0,077
-347,693	468,640	-0,014	-0,022
-346,679	-37,181	-0,128	-0,049
-345,664	-200,000	0,014	-0,045
-344,650	-124,601	0,108	0,012
-343,635	773,326	0,071	-0,139
-342,620	-200,000	-0,010	0,093
-341,606	11,962	0,033	-0,018
-340,591	-200,000	-0,002	0,094
-339,577	160,036	0,014	-0,014
-338,562	-71,554	0,035	-0,009
-337,548	-200,000	0,010	-0,054
-336,533	-200,000	0,013	0,084
-335,518	-37,505	0,041	-0,016
-334,504	239,774	0,038	0,045
-333,489	756,894	-0,022	0,044
-332,475	101,479	-0,025	-0,021
-331,460	117,083	-0,030	-0,026
-330,445	120,731	-0,063	-0,056
-329,431	-77,001	0,098	-0,024
-328,416	800,000	0,041	0,111
-327,402	800,000	-0,044	-0,090
-326,387	800,000	-0,025	-0,066
-325,372	-27,420	0,022	0,009
-324,358	-96,804	0,063	-0,012
-323,343	49,236	0,053	0,035
-322,329	120,658	0,073	0,064
-321,314	-200,000	0,012	0,091
-320,299	-200,000	-0,012	0,061
-319,285	-200,000	0,016	-0,060
-318,270	-200,000	-0,002	0,014
-317,256	79,631	-0,105	-0,081
-316,241	-153,983	0,106	0,005
-315,226	491,317	0,026	0,042
-314,212	361,835	-0,028	0,040
-313,197	136,482	0,054	0,050
-312,183	-200,000	-0,017	0,085
-311,168	-200,000	0,027	-0,088
-310,153	-10,757	-0,188	0,088
-309,139	-200,000	0,004	-0,014
-308,124	800,000	0,052	0,121
-307,110	298,310	0,052	-0,068
-306,095	-200,000	-0,029	0,118
-305,080	-191,361	-0,100	0,001
-304,066	-36,914	0,062	-0,024
-303,051	-200,000	0,013	0,074
-302,037	254,967	-0,087	0,107
-301,022	-200,000	-0,072	-0,232
-300,008	-200,000	-0,011	0,200
-298,993	-200,000	-0,006	0,084
-297,978	-33,238	-0,023	-0,009
-296,964	-200,000	0,003	-0,047
-295,949	800,000	-0,048	-0,110
-294,935	800,000	-0,079	0,162
-293,920	-200,000	-0,007	-0,050
-292,905	61,987	-0,041	0,029
-291,891	31,670	-0,023	-0,014
-290,876	-200,000	-0,045	0,165
-289,862	467,142	0,025	0,041
-288,847	-47,674	-0,026	0,009
-287,832	103,825	-0,102	-0,085
-286,818	25,328	-0,092	-0,055
-285,803	-103,740	0,120	0,020
-284,789	250,686	0,058	0,070
-283,774	172,312	0,024	-0,025
-282,759	-200,000	0,005	-0,062
-281,745	-116,604	-0,107	0,014
-280,730	-200,000	0,018	-0,117
-279,716	93,614	-0,119	-0,096
-278,701	-200,000	-0,011	-0,091
-277,686	168,271	-0,031	-0,031
-276,672	-81,558	0,116	-0,027
-275,657	-109,588	0,126	0,019
-274,643	-118,630	-0,109	-0,014
-273,628	486,244	0,037	0,060
-272,613	-37,465	-0,059	-0,022
-271,599	-113,572	0,100	-0,014
-270,584	145,064	-0,108	0,103
-269,570	-69,751	0,075	-0,020
-268,555	-91,803	-0,094	-0,019
-267,540	-101,823	-0,065	-0,011
-266,526	7,007	0,026	0,014
-265,511	-200,000	-0,016	-0,100
-264,497	800,000	-0,033	0,094
-263,482	560,455	-0,080	0,137
-262,467	-20,303	-0,113	0,049
-261,453	-200,000	-0,009	0,058
-260,438	-62,671	-0,164	0,048
-259,424	225,321	0,020	-0,023
-258,409	-181,835	0,110	-0,001
-257,395	-138,909	-0,136	-0,010
-256,380	317,728	0,079	0,107
-255,365	412,837	-0,009	0,013
-254,351	524,411	0,038	-0,064
-253,336	243,127	-0,106	0,126
-252,322	272,057	-0,065	0,082
-251,307	120,834	0,093	0,082
-250,292	39,238	-0,076	-0,048
-249,278	-200,000	-0,039	0,122
-248,263	-158,273	-0,036	-0,001
-247,249	-80,766	0,118	0,028
-246,234	79,527	0,036	-0,028
-245,219	800,000	-0,019	-0,051
-244,205	-200,000	-0,026	-0,104
-243,190	-72,414	0,087	0,023
-242,176	-115,887	0,132	0,017
-241,161	191,698	0,034	0,036
-240,146	800,000	-0,045	0,101
-239,132	800,000	0,029	-0,087
-238,117	-23,220	-0,102	-0,043
-237,103	-200,000	0,008	-0,060
-236,088	-11,543	-0,072	0,034
-235,073	800,000	0,044	0,110
-234,059	72,305	0,116	0,086
-233,044	-0,039	-0,027	0,014
-232,030	53,825	0,053	0,036
-231,015	-200,000	0,003	-0,021
-230,000	1,541	-0,072	-0,037
-228,986	78,287	-0,056	0,042
-227,971	15,846	0,085	0,047
-226,957	-88,406	0,049	-0,010
-225,942	161,261	0,089	0,088
-224,927	-45,424	-0,096	0,033
-223,913	-137,157	0,071	0,006
-222,898	-122,237	-0,103	-0,012
-221,884	-84,565	0,168	0,037
-220,869	-200,000	0,015	0,102
-219,855	-154,002	-0,040	0,002
-218,840	334,449	0,048	0,066
-217,825	-53,149	0,107	0,035
-216,811	-97,454	0,112	0,021
-215,796	-200,000	-0,025	-0,126
-214,782	789,320	0,012	0,024
-213,767	800,000	0,089	0,199
-212,752	-200,000	-0,003	0,170
-211,738	117,337	-0,060	0,052
-210,723	-40,396	-0,059	0,022
-209,709	391,024	0,044	-0,065
-208,694	204,197	-0,029	0,032
-207,679	-200,000	-0,009	-0,067
-206,665	-96,121	0,039	-0,007
-205,650	-200,000	-0,001	0,031
-204,636	-44,729	0,139	0,049
-203,621	-200,000	-0,011	-0,072
-202,606	-109,900	0,123	-0,018
-201,592	-153,701	-0,107	-0,005
-200,577	-66,705	0,052	-0,015
-199,563	120,201	-0,021	0,019
-198,548	-200,000	-0,006	0,056
-197,533	101,644	-0,041	0,034
-196,519	-200,000	-0,007	-0,037
-195,504	-200,000	-0,031	-0,115
-194,490	345,576	0,055	0,076
-193,475	172,680	-0,041	-0,042
-192,460	-101,658	-0,162	-0,028
-191,446	-161,142	0,064	0,002
-190,431	87,589	0,023	0,018
-189,417	158,266	0,041	0,040
-188,402	245,934	-0,033	-0,040
-187,387	9,559	-0,056	0,030
-186,373	54,129	-0,085	-0,058
-185,358	-200,000	0,029	0,096
-184,344	462,772	0,016	0,026
-183,329	-200,000	0,021	0,082
-182,315	-74,201	-0,063	-0,016
-181,300	-153,898	-0,126	0,006
-180,285	68,848	-0,067	-0,049
-179,271	-200,000	0,035	-0,137
-178,256	248,112	0,040	0,048
-177,242	800,000	0,036	-0,078
-176,227	54,337	0,063	0,043
-175,212	-113,661	-0,086	-0,012
-174,198	626,391	0,020	0,036
-173,183	-44,107	-0,125	0,044
-172,169	-126,062	-0,178	0,019
-171,154	27,781	0,124	0,074
-170,139	-200,000	-0,002	0,067
-169,125	43,881	0,003	-0,002
-168,110	-200,000	-0,007	0,131
-167,096	-67,167	-0,004	-0,001
-166,081	71,170	-0,105	-0,077
-165,066	403,037	-0,024	0,036
-164,052	81,490	0,107	0,082
-163,037	-98,336	0,036	-0,007
-162,023	-44,515	0,182	-0,064
-161,008	800,000	-0,067	0,148
-159,993	114,001	0,018	0,016
-158,979	261,296	0,027	0,034
-157,964	-200,000	0,033	-0,118
-156,950	-107,702	-0,084	-0,013
-155,935	168,910	-0,114	-0,115
-154,920	563,942	-0,104	0,180
-153,906	-200,000	0,006	0,047
-152,891	800,000	-0,009	0,025
-151,877	-109,998	-0,145	0,021
-150,862	222,977	-0,054	-0,062
-149,847	-35,478	-0,021	-0,008
-148,833	-27,464	0,099	-0,041
-147,818	-200,000	0,014	0,072
-146,804	-3,592	0,131	0,065
-145,789	573,894	-0,022	0,038
-144,775	652,393	-0,059	0,108
-143,760	-200,000	0,011	0,035
-142,745	637,225	-0,016	-0,029
-141,731	212,868	-0,080	-0,089
-140,716	-112,272	-0,120	0,017
-139,702	800,000	0,045	0,114
-138,687	74,973	0,055	0,041
-137,672	-104,075	-0,153	-0,025
-136,658	-200,000	-0,008	-0,138
-135,643	-200,000	-0,000	-0,104
-134,629	-52,422	-0,054	-0,018
-133,614	86,946	0,155	0,121
-132,599	-27,204	0,134	-0,055
-131,585	-200,000	-0,028	0,260
-130,570	-200,000	0,029	0,121
-129,556	670,558	0,051	-0,094
-128,541	-200,000	-0,039	-0,136
-127,526	-169,473	0,119	0,003
-126,512	56,348	0,087	0,060
-125,497	173,017	-0,048	0,049
-124,483	-8,667	0,134	0,063
-123,468	-85,892	-0,049	-0,011
-122,453	800,000	-0,047	0,093
-121,439	-200,000	-0,021	-0,067
-120,424	-200,000	-0,017	-0,064
-119,410	-200,000	0,003	0,052
-118,395	-54,774	0,024	-0,008
-117,380	351,260	0,053	0,075
-116,366	-122,076	0,140	0,016
-115,351	33,255	-0,088	-0,054
-114,337	800,000	-0,057	-0,143
-113,322	-82,653	0,051	0,012
-112,307	-59,928	-0,022	0,007
-111,293	465,362	0,052	0,083
-110,278	-50,121	0,106	0,035
-109,264	-200,000	-0,016	-0,062
-108,249	-200,000	0,033	-0,143
-107,234	60,252	0,072	-0,050
-106,220	-200,000	0,001	-0,015
-105,205	588,670	-0,076	-0,133
-104,191	-110,200	-0,028	0,004
-103,176	135,162	0,055	0,051
-102,162	254,756	0,048	-0,059
-101,147	-59,341	-0,135	-0,041
-100,132	308,081	-0,058	-0,077
-99,118	-200,000	0,027	0,139
-98,103	-200,000	-0,005	-0,034
-97,089	63,237	-0,054	0,038
-96,074	800,000	0,053	-0,156
-95,059	-200,000	-0,002	0,083
-94,045	250,337	0,052	-0,062
-93,030	-24,024	-0,075	-0,032
-92,016	-1,659	0,061	0,030
-91,001	-112,912	0,021	0,003
-89,986	-60,917	0,055	-0,016
-88,972	257,892	0,071	0,086
-87,957	157,948	0,119	0,116
-86,943	143,220	-0,067	0,063
-85,928	86,495	0,011	-0,009
-84,913	653,829	0,078	-0,142
-83,899	-46,311	0,075	-0,026
-82,884	554,218	0,066	0,113
-81,870	-200,000	-0,046	0,147
-80,855	3,539	0,162	-0,083
-79,840	345,464	0,116	0,161
-78,826	-188,617	-0,089	0,001
-77,811	-200,000	0,007	-0,150
-76,797	185,295	0,019	-0,020
-75,782	34,322	0,082	0,050
-74,767	-200,000	0,044	0,169
-73,753	-4,088	-0,137	0,067
-72,738	-200,000	-0,003	-0,022
-71,724	-96,473	-0,131	-0,024
-70,709	-200,000	-0,006	0,063
-69,694	-17,591	-0,183	-0,081
-68,680	17,782	0,049	0,027
-67,665	800,000	0,025	0,073
-66,651	800,000	0,071	0,162
-65,636	-200,000	-0,005	0,121
-64,622	-122,227	-0,054	0,006
-63,607	-200,000	0,025	-0,114
-62,592	53,915	-0,074	-0,050
-61,578	-200,000	0,010	-0,131
-60,563	-200,000	0,006	-0,042
-59,549	237,337	-0,030	0,035
-58,534	51,402	-1,879	-1,258
-57,519	516,787	-1,101	-1,825
-56,505	-200,000	-0,366	-4,455
-55,490	393,928	0,998	1,471
-54,476	800,000	5,410	12,032
-53,461	-200,000	21,796	342,627
-52,446	800,000	762,648	2325,321
-51,432	540,392	1660,809	2802,093
-50,417	70,677	1657,326	1209,204
-49,403	17,098	1531,468	854,645
-48,388	11,188	1455,559	783,729
-47,373	19,267	1446,948	817,783
-46,359	14,621	1436,250	789,637
-45,344	9,540	1432,070	763,141
-44,330	9,473	1430,156	761,772
-43,315	9,407	1428,550	760,569
-42,300	9,438	1426,692	759,696
-41,286	9,505	1425,280	759,236
-40,271	9,462	1424,164	758,404
-39,257	9,474	1422,964	757,794
-38,242	9,522	1421,713	757,323
-37,227	9,450	1420,715	756,424
-36,213	9,527	1419,376	756,043
-35,198	9,517	1418,245	755,363
-34,184	9,536	1417,328	754,935
-33,169	9,442	1416,001	753,753
-32,154	9,467	1415,032	753,328
-31,140	9,470	1413,847	752,679
-30,125	9,498	1412,520	752,075
-29,111	9,529	1411,319	751,553
-28,096	9,502	1410,064	750,725
-27,082	9,444	1408,882	749,794
-26,067	9,439	1408,116	749,336
-25,052	9,435	1407,062	748,725
-24,038	9,471	1405,856	748,224
-23,023	9,416	1405,151	747,561
-22,009	9,370	1404,145	746,780
-20,994	9,420	1403,032	746,391
-19,979	9,432	1401,969	745,853
-18,965	9,419	1401,076	745,289
-17,950	9,365	1400,264	744,577
-16,936	9,354	1399,342	744,003
-15,921	9,311	1398,491	743,321
-14,906	9,395	1397,427	743,116
-13,892	9,422	1396,199	742,562
-12,877	9,346	1395,798	741,967
-11,863	9,327	1395,093	741,472
-10,848	9,341	1393,941	740,897
-9,833	9,316	1392,984	740,242
-8,819	9,260	1392,297	739,588
-7,804	9,226	1391,331	738,887
-6,790	9,224	1390,409	738,361
-5,775	9,287	1389,100	737,927
-4,760	9,277	1388,089	737,314
-3,746	9,278	1387,325	736,886
-2,731	9,252	1386,552	736,325
-1,717	9,218	1385,631	735,648
-0,702	9,241	1383,802	734,756
0,313	13,326	1295,520	706,507
1,327	29,543	686,139	410,762
2,342	46,401	118,438	77,342
3,356	0,893	16,535	8,330
4,371	1,620	3,565	1,804
5,386	-34,996	1,292	0,494
6,400	-200,000	0,133	0,603
7,415	273,729	-0,147	-0,184
8,429	181,742	-0,208	-0,217
9,444	122,564	-0,235	-0,207
10,459	-47,002	-0,351	-0,120
11,473	154,537	-0,202	-0,195
12,488	-97,452	-0,330	-0,060
13,502	664,460	-0,161	-0,293
14,517	53,680	-0,305	-0,206
15,531	126,088	-0,284	-0,253
16,546	-0,749	-0,392	-0,195
17,561	216,510	-0,246	-0,276
18,575	-128,699	-0,191	0,019
19,590	612,990	-0,149	-0,264
20,604	-155,912	-0,292	0,013
21,619	248,726	-0,264	-0,316
22,634	110,309	-0,387	-0,328
23,648	111,184	-0,317	-0,269
24,663	32,105	-0,375	-0,227
25,677	208,625	-0,280	-0,309
26,692	58,202	-0,262	-0,181
27,707	-79,277	-0,442	-0,105
28,721	264,214	-0,256	-0,314
29,736	5,461	-0,366	-0,190
30,750	143,073	-0,424	-0,397
31,765	25,230	-0,414	-0,241
32,780	-108,897	-0,312	-0,046
33,794	112,649	-0,303	-0,258
34,809	70,589	-0,294	-0,214
35,823	111,856	-0,323	-0,275
36,838	7,185	-0,337	-0,176
37,853	12,110	-0,505	-0,272
38,867	48,808	-0,333	-0,219
39,882	-29,416	-0,412	-0,165
40,896	-67,377	-0,397	-0,109
41,911	-72,370	-0,466	-0,120
42,926	81,684	-0,274	-0,208
43,940	34,548	-0,323	-0,198
44,955	-51,211	-0,304	-0,099
45,969	99,664	-0,439	-0,357
46,984	84,165	-0,306	-0,235
47,999	104,462	-0,412	-0,340
49,013	140,092	-0,294	-0,273
50,028	172,478	-0,343	-0,347
51,042	255,147	-0,306	-0,369
52,057	6,865	-0,395	-0,206
53,071	180,904	-0,371	-0,383
54,086	245,965	-0,248	-0,293
55,101	124,966	-0,205	-0,182
56,115	12,127	-0,365	-0,196
57,130	110,735	-0,338	-0,285
58,144	20,869	-0,315	-0,179
59,159	-6,027	-0,406	-0,194
60,174	258,883	-0,354	-0,429
61,188	169,977	-0,271	-0,273
62,203	127,881	-0,293	-0,261
63,217	67,327	-0,281	-0,201
64,232	74,332	-0,385	-0,284
65,247	12,224	-0,247	-0,133
66,261	29,192	-0,369	-0,219
67,276	-52,767	-0,308	-0,099
68,290	54,738	-0,289	-0,196
69,305	-50,748	-0,475	-0,156
70,320	-200,000	-0,042	-0,136
71,334	9,977	-0,265	-0,140
72,349	147,780	-0,259	-0,245
73,363	-63,823	-0,425	-0,121
74,378	46,517	-0,270	-0,175
75,393	52,522	-0,370	-0,247
76,407	80,684	-0,208	-0,157
77,422	81,592	-0,242	-0,183
78,436	551,683	-0,152	-0,257
79,451	130,764	-0,090	-0,080
80,466	120,890	-0,219	-0,191
81,480	-29,643	-0,410	-0,163
82,495	-153,811	-0,363	-0,017
83,509	81,245	-0,211	-0,160
84,524	481,232	-0,168	-0,269
85,539	-146,673	-0,311	-0,019
86,553	119,274	-0,317	-0,275
87,568	-47,662	-0,254	-0,086
88,582	0,684	-0,298	-0,149
89,597	267,142	-0,229	-0,280
90,611	411,291	-0,172	-0,256
91,626	800,000	-0,110	-0,237
92,641	49,302	-0,299	-0,197
93,655	-200,000	0,025	-0,108
94,670	167,940	-0,232	-0,231
95,684	-19,865	-0,456	-0,196
96,699	42,041	-0,420	-0,266
97,714	100,424	-0,215	-0,174
98,728	-6,968	-0,268	-0,127
99,743	33,509	-0,230	-0,139
100,757	120,027	-0,225	-0,195
101,772	226,898	-0,252	-0,286
102,787	-73,245	-0,311	-0,079
103,801	-5,729	-0,394	-0,188
104,816	-48,973	-0,258	-0,086
105,830	51,963	-0,210	-0,140
106,845	-55,202	-0,374	-0,117
107,860	74,749	-0,288	-0,211
108,874	181,870	-0,249	-0,256
109,889	335,111	-0,237	-0,322
110,903	6,035	-0,223	-0,115
111,918	133,459	-0,227	-0,205
112,933	-37,690	-0,266	-0,098
113,947	50,403	-0,275	-0,181
114,962	82,966	-0,210	-0,159
115,976	13,218	-0,370	-0,199
116,991	151,995	-0,229	-0,218
118,006	42,823	-0,181	-0,115
119,020	2,909	-0,187	-0,094
120,035	-200,000	-0,033	-0,172
121,049	31,631	-0,235	-0,141
122,064	-123,527	-0,355	-0,039
123,079	102,911	-0,287	-0,234
124,093	800,000	-0,138	-0,302
125,108	700,424	-0,139	-0,256
126,122	218,732	-0,197	-0,220
127,137	-11,728	-0,236	-0,108
128,151	110,824	-0,193	-0,162
129,166	22,663	-0,214	-0,122
130,181	-28,836	-0,301	-0,120
131,195	75,767	-0,253	-0,186
132,210	203,424	-0,229	-0,247
133,224	65,610	-0,218	-0,154
134,239	-84,012	-0,281	-0,062
135,254	-135,224	-0,338	-0,028
136,268	106,031	-0,238	-0,197
137,283	794,978	-0,169	-0,326
138,297	35,883	-0,223	-0,136
139,312	97,986	-0,182	-0,146
140,327	-0,079	-0,227	-0,112
141,341	-101,562	-0,383	-0,064
142,356	20,191	-0,155	-0,087
143,370	239,599	-0,230	-0,267
144,385	147,616	-0,099	-0,093
145,400	189,403	-0,214	-0,223
146,414	131,647	-0,194	-0,174
147,429	275,813	-0,226	-0,280
148,443	51,695	-0,228	-0,151
149,458	376,257	-0,170	-0,243
150,473	177,732	-0,249	-0,253
151,487	92,758	-0,198	-0,155
152,502	110,214	-0,243	-0,203
153,516	149,559	-0,238	-0,225
154,531	458,766	-0,293	-0,456
155,546	106,220	-0,210	-0,173
156,560	-1,773	-0,230	-0,112
157,575	217,264	-0,124	-0,138
158,589	-88,734	-0,196	0,040
159,604	-56,895	-0,218	-0,067
160,619	135,937	-0,198	-0,179
161,633	71,710	-0,228	-0,165
162,648	15,237	-0,131	-0,071
163,662	519,542	-0,160	-0,261
164,677	-99,210	-0,159	-0,028
165,692	65,491	-0,319	-0,224
166,706	153,772	-0,191	-0,182
167,721	159,065	-0,247	-0,238
168,735	187,894	-0,279	-0,290
169,750	-62,487	-0,264	-0,076
170,764	-115,900	-0,212	0,027
171,779	368,912	-0,109	-0,153
172,794	443,649	-0,144	-0,221
173,808	387,748	-0,137	-0,197
174,823	-60,018	-0,287	-0,085
175,837	309,655	-0,167	-0,217
176,852	232,978	-0,188	-0,215
177,867	794,083	-0,154	-0,297
178,881	3,694	-0,261	-0,132
179,896	-10,021	-0,162	-0,075
180,910	21,763	-0,273	-0,154
181,925	318,610	-0,247	-0,326
182,940	140,098	-0,287	-0,263
183,954	246,768	-0,241	-0,283
184,969	255,838	-0,166	-0,198
185,983	-77,881	-0,289	-0,069
186,998	-29,446	-0,207	-0,082
188,013	-163,468	-0,195	-0,006
189,027	-20,858	-0,268	-0,114
190,042	184,511	-0,188	-0,193
191,056	213,578	-0,105	-0,116
192,071	289,191	-0,094	-0,118
193,086	177,387	-0,062	-0,062
194,100	14,956	-0,229	-0,124
195,115	97,574	-0,161	-0,128
196,129	358,693	-0,236	-0,328
197,144	-30,195	-0,274	-0,107
198,159	55,155	-0,191	-0,128
199,173	-28,513	-0,242	-0,096
200,188	6,934	-0,118	-0,061
201,202	153,795	-0,148	-0,140
202,217	196,640	-0,168	-0,177
203,232	199,944	-0,205	-0,219
204,246	-101,426	-0,117	-0,020
205,261	193,709	-0,161	-0,169
206,275	-43,764	-0,074	-0,026
207,290	-10,296	-0,226	-0,104
208,304	226,101	-0,143	-0,161
209,319	599,481	-0,117	-0,202
210,334	142,722	-0,253	-0,233
211,348	209,660	-0,235	-0,256
212,363	215,498	-0,190	-0,209
213,377	-86,158	-0,248	-0,052
214,392	-200,000	-0,038	-0,124
215,407	145,484	-0,115	-0,107
216,421	-164,674	-0,090	0,003
217,436	260,868	-0,110	-0,132
218,450	-131,050	-0,369	-0,034
219,465	57,420	-0,220	-0,149
220,480	-200,000	-0,099	-0,318
221,494	282,816	-0,178	-0,221
222,509	728,671	-0,088	-0,163
223,523	108,127	-0,174	-0,144
224,538	-200,000	-0,053	-0,207
225,553	625,591	-0,106	-0,186
226,567	319,421	-0,165	-0,217
227,582	179,892	-0,130	-0,131
228,596	-46,191	-0,115	-0,039
229,611	-200,000	-0,223	0,001
230,626	-22,790	-0,234	-0,097
231,640	-32,015	-0,178	-0,068
232,655	341,787	-0,109	-0,147
233,669	10,710	-0,163	-0,086
234,684	256,841	-0,164	-0,195
235,699	28,950	-0,219	-0,128
236,713	171,597	-0,120	-0,119
237,728	3,307	-0,181	-0,091
238,742	96,091	-0,175	-0,139
239,757	76,431	-0,208	-0,152
240,772	800,000	-0,080	-0,159
241,786	349,089	-0,116	-0,159
242,801	74,602	-0,132	-0,096
243,815	261,179	-0,171	-0,205
244,830	800,000	-0,099	-0,210
245,844	-200,000	-0,089	-0,276
246,859	657,926	-0,145	-0,259
247,874	40,885	-0,141	-0,088
248,888	102,323	-0,220	-0,177
249,903	-200,000	-0,014	-0,159
250,917	-4,814	-0,038	-0,018
251,932	-39,242	-0,177	-0,064
252,947	128,077	-0,112	-0,098
253,961	-32,296	-0,223	-0,086
254,976	67,836	-0,263	-0,185
255,990	271,186	-0,160	-0,194
257,005	-19,372	-0,270	-0,115
258,020	231,955	-0,242	-0,274
259,034	570,114	-0,075	-0,126
260,049	-126,764	-0,253	-0,025
261,063	48,027	-0,177	-0,114
262,078	64,592	-0,125	-0,087
263,093	482,225	-0,138	-0,216
264,107	-200,000	-0,001	-0,167
265,122	84,732	-0,170	-0,128
266,136	-30,695	-0,255	-0,099
267,151	444,253	-0,133	-0,201
268,166	135,781	-0,213	-0,191
269,180	8,168	-0,191	-0,098
270,195	49,351	-0,209	-0,135
271,209	492,541	-0,136	-0,216
272,224	-21,474	-0,133	-0,056
273,239	800,000	-0,060	-0,140
274,253	398,644	-0,131	-0,190
275,268	-105,528	-0,260	-0,040
276,282	84,126	-0,248	-0,186
277,297	478,006	-0,123	-0,193
278,312	252,655	-0,058	-0,068
279,326	18,839	-0,196	-0,108
280,341	800,000	-0,054	0,109
281,355	206,951	-0,129	-0,138
282,370	37,630	-0,115	-0,070
283,384	56,102	-0,224	-0,149
284,399	348,046	-0,173	-0,236
285,414	55,879	-0,079	0,053
286,428	-86,657	-0,249	-0,052
287,443	-8,406	-0,146	-0,067
288,457	800,000	-0,061	-0,169
289,472	-94,623	-0,134	0,025
290,487	800,000	-0,073	-0,172
291,501	72,613	-0,126	-0,090
292,516	25,458	-0,211	-0,121
293,530	-125,145	-0,038	-0,004
294,545	201,919	-0,075	-0,079
295,560	205,543	-0,170	-0,182
296,574	-200,000	0,002	-0,070
297,589	43,987	-0,109	-0,068
298,603	192,246	-0,178	-0,184
299,618	18,954	-0,342	-0,188
300,633	-20,898	-0,170	-0,071
301,647	-130,983	-0,135	0,012
302,662	-105,516	-0,077	0,012
303,676	-200,000	0,010	-0,105
304,691	-103,932	-0,207	-0,033
305,706	87,271	-0,085	-0,064
306,720	183,027	-0,109	-0,111
307,735	-200,000	-0,001	-0,080
308,749	-200,000	-0,070	-0,228
309,764	-19,988	-0,101	0,042
310,779	-200,000	-0,020	-0,119
311,793	41,443	-0,128	-0,080
312,808	61,763	-0,153	-0,104
313,822	263,145	-0,152	-0,181
314,837	163,063	-0,102	-0,098
315,852	181,342	-0,137	-0,138
316,866	61,316	-0,110	-0,075
317,881	-200,000	-0,033	-0,151
318,895	372,889	-0,146	-0,205
319,910	250,001	-0,161	-0,187
320,925	-200,000	0,006	-0,092
321,939	218,422	-0,114	-0,125
322,954	-6,929	-0,160	-0,074
323,968	163,917	-0,079	-0,077
324,983	391,593	-0,110	-0,157
325,997	164,448	-0,137	-0,132
327,012	60,130	-0,187	-0,127
328,027	487,134	-0,152	-0,238
329,041	-200,000	-0,024	-0,245
330,056	575,647	-0,096	-0,161
331,070	208,271	-0,095	-0,102
332,085	-200,000	-0,021	-0,175
333,100	431,193	-0,077	-0,115
334,114	365,706	-0,124	-0,172
335,129	129,315	-0,131	-0,115
336,143	-176,141	-0,169	-0,003
337,158	800,000	-0,053	-0,125
338,173	446,701	-0,125	-0,189
339,187	-200,000	-0,031	-0,135
340,202	161,964	-0,186	-0,178
341,216	443,249	-0,091	-0,137
342,231	573,369	-0,205	-0,343
343,246	47,943	-0,120	-0,077
344,260	564,738	-0,111	-0,186
345,275	-200,000	-0,009	-0,141
346,289	111,300	-0,112	-0,092
347,304	97,758	-0,115	-0,090
348,319	-81,993	-0,093	-0,021
349,333	-200,000	0,008	-0,090
350,348	140,244	-0,159	-0,143
351,362	-21,778	-0,205	-0,085
352,377	800,000	-0,062	0,131
353,392	499,793	-0,066	-0,105
354,406	-23,596	-0,196	-0,080
355,421	207,506	1310,954	1400,943
356,435	159,625	1471,184	1401,391
