DTS Sentinel unit serial number:	SN410029Multiplexer serial number:	ORYXHardware model number:	OX2-SRSoftware version number:	ORYX F/W v4,00 Oryx Data Collector v3.7.2.0data status	okinstallation	B3 Nyhavnadifferential loss correction	single-endedforward channel	channel 1reverse channel	N/Adate	2023/11/30time	03:47:30forward acquisition time	300,00reverse acquisition time	0,00gamma	499,1914k internal	0,3211k external	0,3211temperature offset calibration	1,0000default loss term (dB/km)	0,3820temperature slope calibration	1,0000multiplexer offset coefficient	1,0000multiplexer slope coefficient	1,0000fibre end	0,00T internal ref (°C)	10,16T ext. ref 1 (°C)	-5,34T ext. ref 2 (°C)	-5,42length (m)	temperature (°C)	Stokes	anti-Stokes-744,400	236,131	-0,145	-0,174
-743,385	-200,000	-0,035	0,250
-742,371	232,794	-0,119	-0,142
-741,356	-200,000	0,009	0,445
-740,342	113,357	-0,167	-0,147
-739,327	-200,000	0,024	0,269
-738,312	284,972	-0,212	-0,278
-737,298	-200,000	0,041	0,221
-736,283	323,164	-0,146	-0,202
-735,269	-200,000	-0,028	0,291
-734,254	307,745	-0,182	-0,247
-733,239	-70,934	-0,230	0,062
-732,225	261,294	-0,192	-0,241
-731,210	-128,609	0,114	0,012
-730,196	173,421	-0,025	-0,027
-729,181	-100,140	-0,127	-0,023
-728,167	-200,000	-0,025	-0,122
-727,152	-200,000	0,005	0,054
-726,137	33,394	0,028	-0,017
-725,123	714,795	-0,085	-0,165
-724,108	-200,000	0,008	-0,063
-723,094	373,132	-0,140	-0,207
-722,079	-77,113	0,110	0,028
-721,064	-200,000	0,014	-0,094
-720,050	449,467	-0,013	0,021
-719,035	94,973	-0,092	-0,076
-718,021	361,944	0,083	-0,121
-717,006	-14,219	-0,062	0,029
-715,991	-200,000	-0,012	-0,089
-714,977	696,132	0,022	-0,042
-713,962	-65,233	-0,077	-0,022
-712,948	-200,000	-0,035	0,148
-711,933	445,988	-0,041	-0,066
-710,918	14,948	-0,044	0,025
-709,904	-200,000	-0,024	0,114
-708,889	-69,459	-0,050	0,014
-707,875	232,952	-0,077	-0,092
-706,860	-91,983	-0,112	-0,023
-705,845	107,716	-0,022	0,019
-704,831	642,477	-0,011	0,020
-703,816	-200,000	0,014	0,055
-702,802	154,393	-0,095	-0,094
-701,787	5,290	-0,058	-0,031
-700,772	-200,000	0,002	-0,050
-699,758	800,000	-0,054	0,141
-698,743	800,000	0,022	0,053
-697,729	800,000	0,029	-0,066
-696,714	800,000	0,025	0,078
-695,699	800,000	0,012	-0,036
-694,685	-100,301	-0,067	0,012
-693,670	214,409	-0,110	-0,127
-692,656	-45,662	0,125	0,045
-691,641	167,446	-0,033	-0,034
-690,627	800,000	0,074	0,150
-689,612	-141,142	0,033	0,002
-688,597	-105,566	0,096	0,016
-687,583	800,000	-0,038	-0,099
-686,568	-200,000	0,003	0,016
-685,554	-2,909	-0,083	-0,042
-684,539	-200,000	0,007	0,066
-683,524	86,611	0,065	-0,052
-682,510	800,000	-0,036	-0,078
-681,495	-81,625	-0,093	0,022
-680,481	-65,391	0,037	-0,011
-679,466	-200,000	-0,061	-0,197
-678,451	800,000	-0,030	-0,093
-677,437	22,193	0,090	-0,053
-676,422	93,232	-0,101	-0,083
-675,408	-55,459	0,051	0,016
-674,393	673,475	0,051	-0,097
-673,378	106,794	-0,076	-0,065
-672,364	-200,000	-0,005	-0,120
-671,349	144,242	-0,028	-0,028
-670,335	160,334	0,043	-0,044
-669,320	627,382	-0,012	0,022
-668,305	199,953	-0,061	0,068
-667,291	278,414	0,024	-0,031
-666,276	190,776	-0,072	0,079
-665,262	26,728	-0,203	-0,122
-664,247	76,038	-0,023	-0,017
-663,232	192,721	-0,027	-0,029
-662,218	4,597	-0,117	0,062
-661,203	-78,355	-0,076	0,019
-660,189	-153,011	-0,066	-0,003
-659,174	203,775	0,034	-0,038
-658,159	-200,000	-0,057	-0,225
-657,145	-200,000	-0,045	-0,172
-656,130	-200,000	-0,019	0,145
-655,116	-50,427	-0,035	0,012
-654,101	-153,270	-0,108	0,005
-653,086	-139,865	0,185	0,014
-652,072	-25,205	-0,103	0,044
-651,057	-144,186	-0,069	0,005
-650,043	-200,000	0,027	0,106
-649,028	134,228	0,058	0,054
-648,014	800,000	-0,017	0,043
-646,999	-55,280	-0,128	0,041
-645,984	-200,000	0,004	-0,062
-644,970	-188,529	-0,126	0,001
-643,955	-54,358	-0,004	-0,001
-642,941	69,402	-0,149	-0,110
-641,926	-2,295	0,112	-0,056
-640,911	800,000	-0,041	0,107
-639,897	-82,166	0,136	0,032
-638,882	800,000	0,028	-0,056
-637,868	-200,000	-0,019	-0,151
-636,853	427,835	-0,012	0,018
-635,838	447,535	0,036	-0,057
-634,824	-104,583	-0,145	0,024
-633,809	800,000	0,032	-0,069
-632,795	112,827	-0,020	0,018
-631,780	169,013	0,084	0,086
-630,765	180,845	0,049	0,052
-629,751	-54,114	-0,154	-0,050
-628,736	390,753	0,026	-0,039
-627,722	290,512	-0,062	0,082
-626,707	800,000	-0,061	0,129
-625,692	-200,000	-0,021	0,075
-624,678	655,734	0,108	0,201
-623,663	84,620	-0,036	0,028
-622,649	-32,546	0,098	0,039
-621,634	-200,000	0,024	-0,101
-620,619	-200,000	0,008	-0,166
-619,605	-38,176	-0,110	0,042
-618,590	-200,000	-0,010	-0,082
-617,576	800,000	0,053	0,109
-616,561	-200,000	-0,020	0,087
-615,546	800,000	-0,036	-0,079
-614,532	99,215	-0,115	0,096
-613,517	4,741	-0,087	-0,046
-612,503	-189,688	-0,011	0,000
-611,488	275,836	0,026	0,033
-610,474	-177,003	-0,013	0,000
-609,459	159,158	-0,034	-0,034
-608,444	-200,000	0,003	0,024
-607,430	53,548	-0,160	-0,110
-606,415	-39,915	-0,074	-0,028
-605,401	192,932	0,067	0,073
-604,386	-200,000	-0,017	0,122
-603,371	-200,000	0,000	0,069
-602,357	116,296	-0,106	0,094
-601,342	29,123	-0,199	-0,122
-600,328	-200,000	-0,018	-0,120
-599,313	800,000	-0,024	-0,048
-598,298	123,025	0,044	0,040
-597,284	510,377	0,017	0,029
-596,269	-34,603	-0,091	0,036
-595,255	-200,000	-0,045	-0,157
-594,240	-195,218	-0,037	-0,000
-593,225	-200,000	-0,017	0,089
-592,211	-20,920	-0,064	0,028
-591,196	800,000	0,033	-0,089
-590,182	-35,044	0,102	0,040
-589,167	800,000	0,036	-0,077
-588,152	-130,727	-0,118	0,011
-587,138	181,510	0,043	-0,046
-586,123	-200,000	-0,010	-0,045
-585,109	-24,557	0,014	0,006
-584,094	310,351	0,098	-0,132
-583,079	277,722	-0,041	-0,052
-582,065	-36,543	0,090	-0,035
-581,050	800,000	-0,042	-0,108
-580,036	-92,379	0,040	0,008
-579,021	-75,998	0,066	-0,017
-578,006	-200,000	0,032	-0,128
-576,992	-200,000	-0,030	0,150
-575,977	375,832	0,008	0,012
-574,963	-200,000	0,035	0,134
-573,948	-77,397	-0,033	0,008
-572,934	-200,000	0,005	0,073
-571,919	-62,552	-0,052	0,015
-570,904	286,723	0,088	-0,115
-569,890	254,562	-0,030	0,037
-568,875	-18,959	0,070	0,031
-567,861	-120,346	-0,094	0,011
-566,846	344,531	0,059	0,084
-565,831	164,984	0,029	-0,029
-564,817	-200,000	0,004	-0,060
-563,802	-200,000	0,013	0,076
-562,788	134,649	-0,130	-0,122
-561,773	-115,159	-0,113	-0,015
-560,758	-111,385	0,047	0,007
-559,744	-200,000	-0,004	-0,087
-558,729	353,172	0,034	0,049
-557,715	800,000	0,010	-0,031
-556,700	408,845	-0,040	-0,061
-555,685	-200,000	0,015	0,112
-554,671	-129,444	0,060	0,006
-553,656	37,062	0,068	0,043
-552,642	-200,000	0,006	0,229
-551,627	-200,000	0,035	0,140
-550,612	-200,000	-0,002	-0,127
-549,598	-5,106	-0,028	-0,014
-548,583	-20,279	-0,050	0,022
-547,569	-200,000	-0,007	-0,055
-546,554	-200,000	0,034	0,108
-545,539	-103,589	-0,024	-0,004
-544,525	252,801	0,081	-0,099
-543,510	-200,000	-0,022	-0,091
-542,496	800,000	-0,024	-0,053
-541,481	313,270	-0,084	-0,114
-540,466	-48,378	0,025	0,009
-539,452	-110,097	0,072	-0,011
-538,437	91,927	0,023	0,019
-537,423	-43,786	0,021	0,007
-536,408	-139,808	0,113	-0,008
-535,393	-124,117	-0,135	0,015
-534,379	-15,429	-0,048	-0,022
-533,364	-58,192	-0,070	-0,022
-532,350	-200,000	-0,020	0,073
-531,335	-200,000	0,001	0,046
-530,321	163,812	0,049	0,049
-529,306	113,306	-0,021	-0,019
-528,291	-0,452	-0,046	-0,023
-527,277	-200,000	0,010	0,082
-526,262	-49,926	0,175	-0,059
-525,248	253,803	0,052	0,064
-524,233	445,806	-0,081	0,129
-523,218	579,864	-0,052	0,092
-522,204	-21,652	-0,062	-0,027
-521,189	310,483	0,054	0,073
-520,175	-200,000	-0,004	0,060
-519,160	-200,000	-0,013	0,155
-518,145	187,092	0,109	-0,117
-517,131	-66,732	0,159	0,045
-516,116	-200,000	-0,011	0,051
-515,102	-192,925	0,014	0,000
-514,087	-20,478	-0,095	-0,042
-513,072	135,312	0,048	-0,045
-512,058	-121,863	-0,056	0,007
-511,043	-14,755	-0,118	-0,054
-510,029	83,234	0,054	-0,042
-509,014	-81,453	-0,103	-0,024
-507,999	-110,847	-0,081	-0,012
-506,985	300,017	-0,083	0,110
-505,970	3,324	-0,075	-0,039
-504,956	-200,000	0,000	0,033
-503,941	-74,874	0,098	-0,025
-502,926	-200,000	0,009	-0,117
-501,912	-153,298	0,069	0,003
-500,897	-93,902	0,072	0,014
-499,883	4,743	-0,037	0,019
-498,868	84,422	0,061	0,048
-497,853	1,169	-0,119	-0,061
-496,839	528,044	0,050	0,085
-495,824	72,073	-0,113	0,084
-494,810	308,681	0,024	0,032
-493,795	102,345	0,073	-0,061
-492,781	-85,417	-0,042	0,009
-491,766	-116,246	-0,082	0,011
-490,751	666,070	0,013	0,025
-489,737	-200,000	-0,016	-0,056
-488,722	-200,000	0,017	-0,072
-487,708	800,000	-0,045	-0,131
-486,693	-137,091	-0,030	-0,002
-485,678	-200,000	-0,007	-0,119
-484,664	349,008	-0,111	-0,158
-483,649	-135,064	-0,069	-0,006
-482,635	47,588	-0,183	-0,122
-481,620	52,114	0,058	0,040
-480,605	60,484	-0,044	0,031
-479,591	-200,000	-0,022	-0,116
-478,576	800,000	-0,021	0,046
-477,562	-200,000	-0,013	0,079
-476,547	800,000	-0,074	-0,156
-475,532	-9,488	-0,147	-0,070
-474,518	-37,667	0,092	0,035
-473,503	800,000	0,038	0,105
-472,489	369,916	-0,081	0,117
-471,474	155,150	0,037	-0,037
-470,459	-200,000	0,002	-0,080
-469,445	357,662	0,024	0,034
-468,430	-20,138	0,025	0,011
-467,416	-58,579	0,205	0,063
-466,401	375,390	0,001	0,002
-465,386	800,000	-0,013	0,040
-464,372	-200,000	-0,028	0,135
-463,357	800,000	0,006	0,017
-462,343	-167,919	-0,075	0,002
-461,328	-29,469	-0,146	-0,060
-460,313	454,749	0,049	0,078
-459,299	383,041	0,111	0,165
-458,284	-200,000	-0,007	0,111
-457,270	38,846	0,180	-0,115
-456,255	-48,896	0,062	0,021
-455,241	-38,864	-0,068	-0,025
-454,226	32,483	0,070	-0,043
-453,211	-6,343	-0,044	0,021
-452,197	128,540	-0,103	0,094
-451,182	-178,983	-0,024	-0,000
-450,168	208,067	0,017	0,019
-449,153	800,000	0,062	0,139
-448,138	90,529	0,006	-0,005
-447,124	-200,000	-0,051	-0,168
-446,109	-200,000	-0,035	0,137
-445,095	-67,692	0,096	0,027
-444,080	-13,170	0,074	-0,034
-443,065	-200,000	-0,015	-0,120
-442,051	-200,000	-0,002	0,013
-441,036	15,829	-0,031	0,017
-440,022	293,960	0,071	-0,093
-439,007	-200,000	-0,005	-0,069
-437,992	238,496	-0,036	-0,043
-436,978	-151,493	0,018	0,001
-435,963	-33,607	-0,074	0,029
-434,949	800,000	-0,060	0,125
-433,934	-200,000	0,001	0,074
-432,919	800,000	0,010	0,020
-431,905	-148,003	0,091	0,005
-430,890	-200,000	0,023	0,076
-429,876	800,000	-0,031	0,061
-428,861	-99,899	0,072	0,013
-427,846	-200,000	-0,021	0,164
-426,832	37,997	0,085	-0,054
-425,817	800,000	-0,013	0,037
-424,803	777,896	-0,055	-0,108
-423,788	7,848	0,075	-0,040
-422,773	-20,384	-0,028	-0,012
-421,759	199,322	0,027	-0,030
-420,744	-39,561	-0,121	0,045
-419,730	32,415	-0,153	-0,094
-418,715	-15,211	-0,113	-0,052
-417,701	-161,844	0,134	0,005
-416,686	286,574	-0,018	0,023
-415,671	-174,101	0,244	0,005
-414,657	-200,000	0,001	-0,017
-413,642	-200,000	0,013	0,075
-412,628	718,919	0,052	0,099
-411,613	-98,778	0,070	-0,013
-410,598	211,301	-0,084	0,095
-409,584	-200,000	0,003	-0,129
-408,569	-126,020	-0,047	-0,005
-407,555	-200,000	-0,021	0,079
-406,540	800,000	-0,048	0,126
-405,525	800,000	-0,047	-0,095
-404,511	-200,000	0,001	0,027
-403,496	-125,298	0,031	0,003
-402,482	338,397	0,037	-0,051
-401,467	800,000	0,043	0,131
-400,452	305,718	0,116	0,154
-399,438	-35,963	-0,066	0,025
-398,423	309,211	0,023	-0,031
-397,409	800,000	0,064	-0,169
-396,394	-146,162	-0,067	-0,004
-395,379	800,000	0,082	-0,188
-394,365	-200,000	-0,010	0,043
-393,350	-180,484	0,017	0,000
-392,336	-200,000	-0,008	-0,048
-391,321	158,654	-0,082	0,082
-390,306	82,696	0,129	0,100
-389,292	-169,287	-0,051	0,001
-388,277	27,211	0,153	-0,092
-387,263	-200,000	0,037	0,131
-386,248	-200,000	0,043	-0,162
-385,233	-35,181	0,147	-0,057
-384,219	800,000	-0,013	-0,026
-383,204	-200,000	0,009	-0,070
-382,190	-200,000	0,010	-0,037
-381,175	322,645	0,060	-0,082
-380,160	167,134	0,121	-0,123
-379,146	185,420	-0,037	0,039
-378,131	495,809	-0,035	-0,057
-377,117	-200,000	0,027	-0,116
-376,102	38,059	-0,017	-0,011
-375,088	254,126	-0,033	-0,041
-374,073	20,166	-0,073	0,042
-373,058	99,917	0,147	-0,122
-372,044	-8,509	0,092	0,044
-371,029	-191,959	0,035	0,000
-370,015	-17,644	-0,090	0,040
-369,000	-200,000	-0,002	0,127
-367,985	287,599	-0,051	-0,066
-366,971	-200,000	0,020	-0,065
-365,956	-200,000	0,012	-0,053
-364,942	73,612	-0,081	0,060
-363,927	-200,000	-0,048	0,175
-362,912	-200,000	0,007	0,133
-361,898	-200,000	0,018	-0,080
-360,883	417,104	0,104	-0,159
-359,869	646,506	-0,047	-0,085
-358,854	-200,000	-0,002	-0,108
-357,839	-77,418	0,123	0,030
-356,825	159,769	0,007	-0,007
-355,810	-102,643	0,108	0,018
-354,796	-28,825	-0,114	0,047
-353,781	36,190	-0,065	-0,041
-352,766	238,601	-0,057	-0,067
-351,752	-91,061	0,066	0,013
-350,737	537,926	-0,075	0,128
-349,723	-200,000	-0,009	0,049
-348,708	-25,780	-0,114	-0,048
-347,693	-85,986	0,049	0,011
-346,679	-200,000	-0,013	-0,043
-345,664	-200,000	-0,003	0,075
-344,650	-200,000	-0,011	0,046
-343,635	-135,604	0,058	0,005
-342,620	800,000	-0,005	-0,016
-341,606	-200,000	0,040	0,159
-340,591	206,417	-0,013	0,014
-339,577	199,888	-0,074	-0,081
-338,562	34,970	-0,058	-0,036
-337,548	800,000	-0,092	0,203
-336,533	800,000	-0,033	0,092
-335,518	-200,000	0,014	0,066
-334,504	800,000	-0,025	-0,076
-333,489	-176,684	-0,081	-0,001
-332,475	552,130	-0,041	-0,070
-331,460	800,000	0,030	-0,086
-330,445	-200,000	0,007	0,073
-329,431	430,928	0,048	-0,074
-328,416	464,395	0,101	0,161
-327,402	318,476	0,032	0,043
-326,387	800,000	-0,047	0,102
-325,372	34,705	-0,153	-0,095
-324,358	-55,672	-0,065	0,021
-323,343	259,219	0,060	0,074
-322,329	800,000	0,076	-0,168
-321,314	333,430	0,037	0,051
-320,299	133,327	0,046	-0,043
-319,285	-69,246	-0,015	0,004
-318,270	-29,101	-0,043	0,017
-317,256	-37,631	0,071	0,027
-316,241	21,017	0,037	0,021
-315,226	18,113	-0,038	0,021
-314,212	362,005	0,045	0,064
-313,197	127,042	0,140	0,127
-312,183	-4,764	-0,166	0,081
-311,168	-47,398	0,103	0,035
-310,153	213,134	-0,092	-0,104
-309,139	-111,727	0,143	0,020
-308,124	443,158	-0,015	0,023
-307,110	28,771	0,050	0,030
-306,095	132,601	0,062	0,057
-305,080	-155,152	-0,030	0,001
-304,066	-200,000	0,014	-0,071
-303,051	-200,000	-0,049	-0,166
-302,037	-41,944	-0,194	-0,071
-301,022	800,000	0,066	0,166
-300,008	-166,453	0,052	0,002
-298,993	-91,649	-0,019	-0,004
-297,978	-200,000	-0,015	-0,151
-296,964	-79,585	-0,120	-0,029
-295,949	295,357	-0,018	0,024
-294,935	-200,000	-0,030	-0,116
-293,920	-200,000	0,056	-0,227
-292,905	76,977	0,025	-0,019
-291,891	800,000	-0,044	-0,123
-290,876	396,166	0,014	0,021
-289,862	146,083	-0,039	0,037
-288,847	-200,000	0,011	-0,067
-287,832	644,539	0,002	0,003
-286,818	-19,764	0,118	-0,052
-285,803	201,051	0,078	0,085
-284,789	800,000	-0,041	0,123
-283,774	255,043	-0,094	0,115
-282,759	-57,460	-0,079	0,025
-281,745	681,421	-0,018	0,033
-280,730	800,000	0,051	-0,115
-279,716	-82,320	0,107	-0,025
-278,701	108,482	0,106	0,090
-277,686	520,111	-0,016	-0,026
-276,672	-200,000	-0,003	0,050
-275,657	-136,042	-0,271	-0,022
-274,643	391,549	-0,051	0,076
-273,628	-168,208	0,041	0,001
-272,613	-39,051	-0,105	0,039
-271,599	755,937	0,052	-0,101
-270,584	-20,263	0,042	-0,019
-269,570	744,615	0,070	0,135
-268,555	800,000	-0,009	-0,028
-267,540	204,568	0,012	0,014
-266,526	96,776	-0,097	-0,079
-265,511	-200,000	-0,002	-0,041
-264,497	144,811	-0,082	0,078
-263,482	677,792	-0,045	-0,084
-262,467	-200,000	0,023	0,083
-261,453	372,447	0,099	-0,144
-260,438	399,682	0,031	-0,046
-259,424	-200,000	0,000	0,093
-258,409	-101,111	0,104	-0,018
-257,395	-98,462	0,036	-0,007
-256,380	-47,068	-0,127	-0,044
-255,365	40,284	0,107	-0,068
-254,351	244,335	-0,051	0,061
-253,336	316,939	-0,037	-0,049
-252,322	403,003	-0,055	-0,083
-251,307	185,301	0,074	0,078
-250,292	-9,308	-0,056	-0,026
-249,278	171,017	0,114	-0,116
-248,263	193,900	-0,028	-0,030
-247,249	-93,689	0,048	-0,009
-246,234	800,000	-0,025	-0,075
-245,219	-200,000	-0,030	-0,109
-244,205	0,154	0,124	0,063
-243,190	192,916	0,049	-0,053
-242,176	66,002	-0,081	0,058
-241,161	9,384	0,085	0,046
-240,146	800,000	-0,059	-0,140
-239,132	-15,836	0,052	0,023
-238,117	25,199	-0,088	-0,052
-237,103	-155,762	0,015	0,001
-236,088	27,674	-0,050	-0,030
-235,073	-149,004	0,071	0,004
-234,059	431,849	-0,026	0,040
-233,044	-200,000	-0,001	-0,025
-232,030	557,323	-0,067	0,116
-231,015	-200,000	0,012	-0,102
-230,000	-200,000	-0,030	-0,119
-228,986	-88,122	0,084	0,018
-227,971	-142,476	-0,079	-0,005
-226,957	383,623	0,066	0,096
-225,942	-200,000	0,013	0,077
-224,927	-200,000	0,003	-0,096
-223,913	-200,000	-0,011	-0,180
-222,898	-200,000	0,059	-0,231
-221,884	151,804	0,018	0,017
-220,869	-200,000	-0,043	-0,166
-219,855	24,126	0,103	0,060
-218,840	-72,067	0,204	0,053
-217,825	800,000	-0,060	0,131
-216,811	-59,177	0,116	-0,035
-215,796	638,949	-0,052	-0,095
-214,782	50,797	-0,071	0,048
-213,767	157,773	0,058	-0,057
-212,752	-92,111	-0,018	0,004
-211,738	-130,933	-0,027	0,003
-210,723	-155,260	0,086	0,004
-209,709	-67,141	-0,063	0,017
-208,694	178,503	0,046	0,047
-207,679	454,199	0,101	-0,160
-206,665	-124,165	0,061	-0,007
-205,650	-77,244	0,130	-0,032
-204,636	171,021	0,024	0,024
-203,621	183,120	-0,118	0,124
-202,606	-200,000	0,028	0,103
-201,592	-200,000	0,018	-0,120
-200,577	800,000	0,083	-0,180
-199,563	-200,000	0,005	0,038
-198,548	-200,000	-0,021	-0,084
-197,533	-126,048	0,092	0,010
-196,519	-200,000	0,035	0,132
-195,504	653,540	-0,054	-0,099
-194,490	800,000	-0,076	-0,174
-193,475	-200,000	-0,018	-0,118
-192,460	25,487	-0,060	-0,035
-191,446	92,117	0,076	0,061
-190,431	11,527	-0,107	0,058
-189,417	-144,094	-0,133	0,009
-188,402	74,560	-0,027	-0,020
-187,387	-93,409	0,070	-0,014
-186,373	1,421	-0,112	-0,057
-185,358	322,128	0,094	0,128
-184,344	-200,000	0,005	0,115
-183,329	-81,923	-0,115	0,026
-182,315	-200,000	0,021	0,087
-181,300	220,285	-0,093	0,106
-180,285	279,688	-0,080	-0,101
-179,271	-200,000	0,017	-0,062
-178,256	310,759	-0,050	0,066
-177,242	53,053	0,141	-0,096
-176,227	247,179	0,183	0,219
-175,212	-200,000	0,019	0,103
-174,198	-164,287	-0,091	-0,003
-173,183	-200,000	0,002	-0,012
-172,169	800,000	-0,036	0,090
-171,154	-63,065	0,043	0,013
-170,139	-133,079	0,130	-0,012
-169,125	-200,000	-0,016	0,111
-168,110	-200,000	0,014	-0,087
-167,096	-200,000	0,004	0,156
-166,081	-68,347	0,038	0,010
-165,066	83,206	-0,067	-0,052
-164,052	-93,115	0,157	-0,031
-163,037	-200,000	-0,018	-0,127
-162,023	800,000	0,075	0,147
-161,008	131,157	0,087	0,079
-159,993	7,257	-0,058	0,030
-158,979	800,000	0,059	0,143
-157,964	-48,562	-0,153	0,052
-156,950	-122,916	-0,047	0,005
-155,935	47,425	0,058	-0,038
-154,920	-200,000	0,030	0,140
-153,906	467,800	0,072	-0,115
-152,891	315,296	0,023	0,030
-151,877	-200,000	-0,001	-0,064
-150,862	-200,000	0,004	0,020
-149,847	-28,135	0,124	-0,051
-148,833	11,639	0,070	-0,038
-147,818	-131,348	0,193	0,018
-146,804	424,328	0,060	0,091
-145,789	-200,000	-0,001	0,066
-144,775	238,794	0,015	-0,018
-143,760	-59,585	-0,049	-0,015
-142,745	-88,205	-0,082	0,017
-141,731	147,651	-0,053	-0,051
-140,716	-200,000	-0,005	-0,021
-139,702	604,420	0,092	0,162
-138,687	-18,580	-0,212	0,093
-137,672	316,421	-0,042	-0,057
-136,658	-147,490	-0,054	-0,003
-135,643	648,296	-0,025	0,046
-134,629	167,326	-0,102	-0,102
-133,614	-100,290	0,058	0,010
-132,599	-78,870	0,043	-0,010
-131,585	-56,246	-0,075	0,023
-130,570	601,981	-0,075	-0,132
-129,556	-110,137	-0,131	-0,019
-128,541	-200,000	-0,018	0,094
-127,526	542,619	-0,043	-0,073
-126,512	336,441	0,057	0,079
-125,497	65,349	-0,106	0,076
-124,483	63,684	0,088	0,062
-123,468	-200,000	0,011	0,071
-122,453	-1,356	-0,192	-0,096
-121,439	17,941	-0,130	-0,073
-120,424	87,953	0,083	-0,065
-119,410	-65,138	-0,140	-0,040
-118,395	800,000	0,021	0,063
-117,380	-32,765	0,080	-0,032
-116,366	-200,000	0,010	0,066
-115,351	800,000	-0,062	-0,139
-114,337	-200,000	0,011	0,054
-113,322	-29,417	-0,039	-0,016
-112,307	21,963	0,077	-0,045
-111,293	99,938	0,026	0,022
-110,278	-61,803	0,125	-0,037
-109,264	-200,000	0,015	0,159
-108,249	393,214	-0,052	0,077
-107,234	-200,000	0,018	-0,130
-106,220	800,000	0,008	0,016
-105,205	-46,854	0,069	-0,024
-104,191	-34,486	0,082	0,032
-103,176	151,700	0,111	0,107
-102,162	759,597	-0,006	-0,011
-101,147	-200,000	0,022	-0,114
-100,132	532,628	0,047	-0,079
-99,118	-200,000	-0,012	-0,153
-98,103	117,000	-0,083	-0,072
-97,089	418,434	0,036	0,055
-96,074	-200,000	-0,014	-0,089
-95,059	-152,805	-0,075	0,004
-94,045	-64,707	-0,118	-0,034
-93,030	26,772	-0,098	-0,058
-92,016	-200,000	-0,012	-0,085
-91,001	145,137	0,110	0,104
-89,986	800,000	0,019	0,050
-88,972	800,000	-0,045	0,129
-87,957	-200,000	0,001	0,104
-86,943	-200,000	-0,006	0,034
-85,928	732,423	-0,014	-0,027
-84,913	81,710	0,055	-0,042
-83,899	-92,536	-0,089	0,017
-82,884	-25,325	0,020	0,008
-81,870	50,237	-0,030	-0,020
-80,855	332,981	-0,106	-0,146
-79,840	-200,000	-0,020	-0,086
-78,826	-42,545	0,089	-0,032
-77,811	-200,000	-0,025	0,188
-76,797	478,570	-0,026	0,042
-75,782	800,000	-0,032	-0,080
-74,767	-96,606	-0,145	0,027
-73,753	800,000	0,035	0,103
-72,738	117,786	-0,040	0,035
-71,724	-119,826	-0,158	0,019
-70,709	-82,641	-0,107	0,024
-69,694	800,000	0,031	-0,083
-68,680	-59,944	0,043	0,013
-67,665	-26,633	0,019	0,008
-66,651	641,448	0,014	-0,025
-65,636	321,255	0,085	-0,115
-64,622	392,066	0,069	-0,102
-63,607	-6,442	-0,030	-0,015
-62,592	-200,000	0,004	-0,023
-61,578	-200,000	0,009	0,066
-60,563	6,724	-0,183	0,096
-59,549	-44,829	0,083	-0,029
-58,534	23,169	-2,110	-1,220
-57,519	428,185	-1,294	-1,979
-56,505	-200,000	-0,329	-4,361
-55,490	529,853	0,946	1,583
-54,476	800,000	5,066	11,292
-53,461	-200,000	21,370	342,282
-52,446	800,000	760,468	2362,045
-51,432	559,510	1662,997	2845,307
-50,417	73,571	1662,024	1227,292
-49,403	18,040	1535,454	861,567
-48,388	11,994	1458,938	789,378
-47,373	19,519	1450,009	820,636
-46,359	15,469	1439,350	795,305
-45,344	10,269	1435,221	768,222
-44,330	10,240	1433,178	766,961
-43,315	10,187	1431,487	765,773
-42,300	10,184	1429,644	764,741
-41,286	10,169	1428,679	764,125
-40,271	10,187	1427,220	763,400
-39,257	10,146	1426,320	762,691
-38,242	10,251	1424,916	762,411
-37,227	10,235	1423,869	761,742
-36,213	10,220	1422,548	760,937
-35,198	10,255	1421,249	760,375
-34,184	10,257	1420,459	759,931
-33,169	10,174	1419,176	758,826
-32,154	10,230	1418,159	758,514
-31,140	10,287	1416,749	757,997
-30,125	10,299	1415,560	757,388
-29,111	10,232	1414,644	756,554
-28,096	10,267	1413,311	755,977
-27,082	10,206	1412,171	755,047
-26,067	10,210	1411,217	754,530
-25,052	10,211	1410,238	753,977
-24,038	10,184	1409,115	753,221
-23,023	10,232	1408,257	752,960
-22,009	10,217	1407,105	752,243
-20,994	10,135	1406,260	751,376
-19,979	10,168	1405,193	750,931
-18,965	10,160	1404,347	750,414
-17,950	10,172	1403,323	749,891
-16,936	10,115	1402,619	749,219
-15,921	10,059	1401,891	748,542
-14,906	10,083	1400,731	748,004
-13,892	10,142	1399,509	747,595
-12,877	10,109	1399,006	747,145
-11,863	10,124	1397,897	746,591
-10,848	10,087	1397,232	746,037
-9,833	10,074	1396,272	745,431
-8,819	10,031	1395,379	744,729
-7,804	10,024	1394,570	744,233
-6,790	10,034	1393,567	743,713
-5,775	10,036	1392,387	743,063
-4,760	10,002	1391,411	742,358
-3,746	10,038	1390,588	742,056
-2,731	10,018	1389,419	741,310
-1,717	10,013	1388,936	740,998
-0,702	10,032	1386,939	739,992
0,313	14,036	1299,832	711,845
1,327	30,342	690,017	414,839
2,342	47,384	119,251	78,239
3,356	1,859	16,508	8,369
4,371	4,455	3,486	1,797
5,386	46,956	1,005	0,657
6,400	800,000	0,255	0,542
7,415	-19,339	-0,259	-0,113
8,429	-85,254	-0,232	-0,051
9,444	18,326	-0,312	-0,175
10,459	91,216	-0,326	-0,258
11,473	407,392	-0,171	-0,256
12,488	-200,000	-0,358	0,000
13,502	-20,850	-0,352	-0,152
14,517	-32,647	-0,284	-0,111
15,531	134,625	-0,276	-0,253
16,546	71,183	-0,294	-0,215
17,561	202,654	-0,281	-0,306
18,575	-87,510	-0,291	-0,061
19,590	727,308	-0,100	-0,188
20,604	800,000	-0,167	-0,328
21,619	166,283	-0,380	-0,380
22,634	78,646	-0,390	-0,294
23,648	70,340	-0,502	-0,365
24,663	2,095	-0,455	-0,230
25,677	17,687	-0,317	-0,177
26,692	55,143	-0,397	-0,270
27,707	26,906	-0,352	-0,207
28,721	121,718	-0,330	-0,290
29,736	26,985	-0,471	-0,277
30,750	10,377	-0,281	-0,150
31,765	55,801	-0,319	-0,217
32,780	404,960	-0,207	-0,308
33,794	4,195	-0,373	-0,191
34,809	53,972	-0,421	-0,284
35,823	-36,226	-0,388	-0,146
36,838	426,232	-0,285	-0,433
37,853	168,015	-0,375	-0,376
38,867	203,893	-0,298	-0,325
39,882	22,631	-0,278	-0,160
40,896	58,880	-0,254	-0,175
41,911	38,609	-0,157	-0,098
42,926	-58,541	-0,412	-0,125
43,940	16,155	-0,239	-0,132
44,955	32,594	-0,413	-0,250
45,969	74,141	-0,343	-0,253
46,984	261,113	-0,239	-0,292
47,999	-41,213	-0,294	-0,106
49,013	96,579	-0,388	-0,312
50,028	37,232	-0,330	-0,205
51,042	118,945	-0,363	-0,315
52,057	68,201	-0,368	-0,265
53,071	78,624	-0,345	-0,259
54,086	28,650	-0,297	-0,176
55,101	59,907	-0,308	-0,213
56,115	-23,873	-0,326	-0,136
57,130	-7,422	-0,301	-0,143
58,144	-17,394	-0,335	-0,147
59,159	64,888	-0,389	-0,275
60,174	37,641	-0,375	-0,233
61,188	16,487	-0,406	-0,224
62,203	75,101	-0,347	-0,256
63,217	126,818	-0,321	-0,286
64,232	61,371	-0,284	-0,198
65,247	8,566	-0,409	-0,215
66,261	23,387	-0,283	-0,163
67,276	69,115	-0,228	-0,164
68,290	-18,851	-0,381	-0,165
69,305	-11,036	-0,316	-0,145
70,320	30,270	-0,264	-0,158
71,334	-92,049	-0,285	-0,056
72,349	47,486	-0,218	-0,142
73,363	28,375	-0,461	-0,272
74,378	80,707	-0,295	-0,223
75,393	-19,820	-0,229	-0,099
76,407	129,739	-0,205	-0,184
77,422	-46,275	-0,293	-0,101
78,436	330,363	-0,202	-0,273
79,451	-48,500	-0,258	-0,086
80,466	-17,713	-0,435	-0,190
81,480	314,127	-0,252	-0,333
82,495	151,882	-0,298	-0,285
83,509	239,651	-0,273	-0,318
84,524	56,016	-0,244	-0,165
85,539	126,502	-0,151	-0,134
86,553	-50,456	-0,362	-0,119
87,568	566,485	-0,239	-0,407
88,582	49,770	-0,274	-0,180
89,597	13,972	-0,283	-0,154
90,611	132,931	-0,211	-0,190
91,626	34,408	-0,188	-0,115
92,641	260,717	-0,204	-0,248
93,655	351,657	-0,206	-0,286
94,670	223,906	-0,211	-0,239
95,684	160,388	-0,229	-0,223
96,699	94,170	-0,337	-0,267
97,714	40,368	-0,325	-0,205
98,728	-76,578	-0,290	-0,071
99,743	175,344	-0,244	-0,247
100,757	-70,698	-0,272	-0,071
101,772	77,549	-0,300	-0,223
102,787	-5,320	-0,292	-0,140
103,801	-13,654	-0,330	-0,149
104,816	3,074	-0,315	-0,159
105,830	-23,609	-0,228	-0,095
106,845	20,787	-0,282	-0,159
107,860	151,840	-0,193	-0,184
108,874	37,444	-0,155	-0,096
109,889	-49,550	-0,248	-0,082
110,903	160,949	-0,240	-0,235
111,918	213,844	-0,287	-0,317
112,933	13,102	-0,222	-0,120
113,947	-83,765	-0,268	-0,059
114,962	-129,550	-0,304	0,029
115,976	51,539	-0,346	-0,229
116,991	123,987	-0,274	-0,240
118,006	170,544	-0,270	-0,270
119,020	12,030	-0,207	-0,111
120,035	-9,041	-0,360	-0,168
121,049	-92,690	-0,215	-0,042
122,064	-33,346	-0,218	-0,084
123,079	37,657	-0,270	-0,167
124,093	82,745	-0,329	-0,250
125,108	-52,927	-0,342	-0,109
126,122	160,365	-0,313	-0,305
127,137	44,582	-0,316	-0,203
128,151	800,000	-0,110	-0,221
129,166	112,222	-0,229	-0,193
130,181	-12,780	-0,275	-0,125
131,195	165,942	-0,170	-0,168
132,210	114,248	-0,344	-0,292
133,224	36,623	-0,200	-0,123
134,239	334,672	-0,162	-0,219
135,254	-68,060	-0,255	-0,069
136,268	202,724	-0,208	-0,224
137,283	56,241	-0,218	-0,147
138,297	37,023	-0,361	-0,222
139,312	-51,851	-0,320	-0,103
140,327	110,874	-0,266	-0,223
141,341	335,013	-0,184	-0,248
142,356	143,369	-0,200	-0,186
143,370	2,721	-0,284	-0,143
144,385	196,442	-0,251	-0,267
145,400	278,330	-0,236	-0,294
146,414	-63,998	-0,262	-0,074
147,429	33,832	-0,323	-0,195
148,443	33,577	-0,244	-0,147
149,458	37,550	-0,412	-0,254
150,473	-67,941	-0,224	-0,061
151,487	83,125	-0,216	-0,164
152,502	220,066	-0,170	-0,189
153,516	105,990	-0,378	-0,311
154,531	42,112	-0,330	-0,208
155,546	26,762	-0,249	-0,145
156,560	86,149	-0,248	-0,190
157,575	-13,922	-0,238	-0,107
158,589	17,812	-0,188	-0,104
159,604	119,671	-0,276	-0,238
160,619	91,030	-0,343	-0,268
161,633	33,321	-0,238	-0,144
162,648	236,651	-0,139	-0,161
163,662	155,648	-0,209	-0,200
164,677	122,898	-0,177	-0,154
165,692	28,095	-0,223	-0,130
166,706	-97,775	-0,262	-0,047
167,721	113,844	-0,235	-0,199
168,735	-17,649	-0,336	-0,146
169,750	45,891	-0,275	-0,176
170,764	-101,928	-0,168	-0,028
171,779	-162,996	-0,178	0,006
172,794	-19,672	-0,221	-0,094
173,808	-52,862	-0,276	-0,088
174,823	16,760	-0,362	-0,198
175,837	88,576	-0,271	-0,209
176,852	54,055	-0,251	-0,168
177,867	147,539	-0,107	-0,100
178,881	-131,658	-0,166	-0,015
179,896	102,287	-0,159	-0,129
180,910	80,396	-0,236	-0,177
181,925	800,000	-0,101	-0,201
182,940	5,237	-0,261	-0,133
183,954	40,492	-0,237	-0,148
184,969	-104,063	-0,246	-0,039
185,983	60,532	-0,200	-0,137
186,998	32,263	-0,186	-0,111
188,013	195,240	-0,148	-0,156
189,027	66,619	-0,222	-0,157
190,042	-200,000	-0,061	-0,208
191,056	11,261	-0,157	-0,083
192,071	-111,153	-0,190	-0,027
193,086	148,961	-0,230	-0,216
194,100	175,058	-0,175	-0,176
195,115	-106,148	-0,181	-0,028
196,129	381,209	-0,147	-0,209
197,144	251,092	-0,192	-0,227
198,159	41,491	-0,227	-0,142
199,173	-37,899	-0,292	-0,107
200,188	-19,899	-0,272	-0,116
201,202	229,668	-0,157	-0,178
202,217	-73,227	-0,116	-0,029
203,232	117,983	-0,248	-0,212
204,246	267,082	-0,164	-0,199
205,261	-0,121	-0,204	-0,100
206,275	102,814	-0,217	-0,176
207,290	19,358	-0,210	-0,116
208,304	40,373	-0,140	-0,087
209,319	-159,008	-0,162	-0,006
210,334	-89,422	-0,176	-0,036
211,348	-37,939	-0,245	-0,090
212,363	192,317	-0,215	-0,225
213,377	180,814	-0,198	-0,202
214,392	800,000	-0,069	-0,157
215,407	-41,507	-0,088	-0,031
216,421	35,009	-0,198	0,120
217,436	448,299	-0,171	-0,261
218,450	-100,843	-0,291	-0,049
219,465	35,014	-0,220	-0,133
220,480	86,033	-0,133	-0,101
221,494	20,457	-0,135	-0,075
222,509	800,000	-0,072	-0,143
223,523	-23,017	-0,181	-0,075
224,538	34,292	-0,153	-0,092
225,553	51,787	-0,188	-0,123
226,567	259,481	-0,174	-0,208
227,582	247,514	-0,130	-0,152
228,596	179,798	-0,225	-0,228
229,611	-26,607	-0,181	0,073
230,626	800,000	-0,045	-0,129
231,640	256,774	-0,136	-0,162
232,655	111,225	-0,215	-0,179
233,669	604,811	-0,118	-0,204
234,684	111,177	-0,130	-0,108
235,699	-200,000	-0,047	-0,251
236,713	18,830	-0,084	-0,046
237,728	351,114	-0,157	-0,215
238,742	167,081	-0,211	-0,207
239,757	390,267	-0,134	-0,193
240,772	26,523	-0,296	-0,171
241,786	75,689	-0,196	-0,143
242,801	33,342	-0,180	-0,107
243,815	170,538	-0,147	-0,145
244,830	203,293	-0,130	-0,139
245,844	85,811	-0,165	-0,125
246,859	430,976	-0,127	-0,190
247,874	301,652	-0,160	-0,204
248,888	5,511	-0,249	-0,126
249,903	800,000	-0,095	-0,267
250,917	143,215	-0,165	-0,152
251,932	75,837	-0,211	-0,153
252,947	30,334	-0,213	-0,125
253,961	-24,040	-0,281	-0,115
254,976	435,585	-0,188	-0,283
255,990	-105,465	-0,271	-0,042
257,005	401,147	-0,104	-0,151
258,020	222,461	-0,086	-0,096
259,034	-116,067	-0,250	-0,032
260,049	-1,878	-0,258	-0,125
261,063	-15,500	-0,233	-0,102
262,078	-200,000	-0,030	-0,197
263,093	42,791	-0,268	-0,168
264,107	635,588	-0,146	-0,257
265,122	246,959	-0,104	-0,121
266,136	88,666	-0,165	-0,126
267,151	-49,913	-0,105	-0,034
268,166	-115,099	-0,207	0,027
269,180	-30,817	-0,179	-0,069
270,195	365,918	-0,164	-0,229
271,209	453,958	-0,163	-0,250
272,224	-200,000	-0,055	-0,174
273,239	-45,182	-0,154	-0,052
274,253	297,859	-0,103	-0,130
275,268	74,868	-0,221	-0,160
276,282	645,187	-0,104	-0,183
277,297	224,297	-0,161	-0,179
278,312	354,251	-0,104	-0,143
279,326	-187,468	-0,260	0,002
280,341	89,339	-0,228	-0,175
281,355	62,135	-0,108	-0,074
282,370	40,815	-0,224	-0,139
283,384	-42,659	-0,104	0,036
284,399	-160,548	-0,206	-0,007
285,414	7,136	-0,215	-0,110
286,428	68,299	-0,183	-0,129
287,443	126,265	-0,120	-0,104
288,457	-39,480	-0,177	0,063
289,472	92,073	-0,074	-0,057
290,487	31,970	-0,150	-0,089
291,501	176,386	-0,181	-0,181
292,516	442,330	-0,109	-0,164
293,530	432,660	-0,081	-0,121
294,545	-98,555	-0,164	-0,029
295,560	-68,304	-0,057	-0,015
296,574	-128,732	-0,182	0,017
297,589	-35,804	-0,122	-0,045
298,603	-81,888	-0,221	-0,049
299,618	-94,463	-0,206	-0,038
300,633	30,594	-0,155	-0,091
301,647	-7,001	-0,186	-0,086
302,662	-76,801	-0,196	-0,047
303,676	800,000	-0,084	-0,206
304,691	252,692	-0,113	-0,133
305,706	308,650	-0,117	-0,150
306,720	-152,236	-0,068	-0,003
307,735	45,874	-0,272	-0,172
308,749	165,373	-0,050	-0,049
309,764	-200,000	0,007	0,187
310,779	9,181	-0,134	-0,069
311,793	108,680	-0,136	-0,111
312,808	38,842	-0,150	-0,092
313,822	-18,389	-0,243	-0,104
314,837	-159,536	-0,173	-0,006
315,852	257,157	-0,074	-0,087
316,866	-161,017	-0,195	-0,007
317,881	-136,498	-0,175	-0,014
318,895	26,455	-0,284	-0,162
319,910	-61,578	-0,144	-0,041
320,925	80,187	-0,181	-0,134
321,939	-19,392	-0,131	-0,056
322,954	127,931	-0,240	-0,209
323,968	-74,107	-0,104	-0,026
324,983	-111,109	-0,089	0,012
325,997	-35,328	-0,103	-0,038
327,012	18,111	-0,219	-0,119
328,027	-150,961	-0,232	-0,012
329,041	-154,534	-0,170	-0,008
330,056	225,077	-0,086	-0,096
331,070	41,113	-0,142	-0,088
332,085	-26,885	-0,143	-0,057
333,100	-28,040	-0,169	-0,067
334,114	-113,836	-0,121	-0,016
335,129	-132,484	-0,187	-0,016
336,143	77,579	-0,161	-0,117
337,158	231,468	-0,136	-0,153
338,173	-85,740	0,044	-0,009
339,187	98,107	-0,057	0,045
340,202	-200,000	-0,021	-0,112
341,216	-76,279	-0,186	-0,044
342,231	-134,959	-0,167	-0,014
343,246	60,046	-0,138	-0,093
344,260	800,000	-0,100	-0,216
345,275	-200,000	-0,024	-0,166
346,289	-26,139	-0,116	-0,046
347,304	-38,744	-0,183	0,066
348,319	-48,209	-0,122	-0,040
349,333	514,581	-0,139	-0,222
350,348	151,727	-0,203	-0,190
351,362	116,453	-0,217	-0,182
352,377	-200,000	0,001	-0,164
353,392	-200,000	-0,052	-0,162
354,406	71,426	-0,044	-0,031
355,421	206,923	1310,288	1398,326
356,435	159,160	1470,443	1398,810
