DTS Sentinel unit serial number:	SN410029Multiplexer serial number:	ORYXHardware model number:	OX2-SRSoftware version number:	ORYX F/W v4,00 Oryx Data Collector v3.7.2.0data status	okinstallation	B3 Nyhavnadifferential loss correction	single-endedforward channel	channel 1reverse channel	N/Adate	2023/12/04time	01:47:30forward acquisition time	300,00reverse acquisition time	0,00gamma	499,1914k internal	0,3205k external	0,3205temperature offset calibration	1,0000default loss term (dB/km)	0,3820temperature slope calibration	1,0000multiplexer offset coefficient	1,0000multiplexer slope coefficient	1,0000fibre end	0,00T internal ref (°C)	12,38T ext. ref 1 (°C)	-2,89T ext. ref 2 (°C)	-2,93length (m)	temperature (°C)	Stokes	anti-Stokes-744,400	156,640	-0,244	-0,245
-743,385	-200,000	-0,045	0,158
-742,371	146,497	-0,230	-0,225
-741,356	800,000	0,090	0,225
-740,342	109,271	-0,239	-0,208
-739,327	-200,000	0,038	0,294
-738,312	311,924	-0,199	-0,272
-737,298	-200,000	-0,005	0,351
-736,283	114,370	-0,236	-0,209
-735,269	800,000	0,103	0,241
-734,254	-57,322	-0,203	-0,064
-733,239	151,290	-0,143	0,141
-732,225	91,473	-0,236	-0,193
-731,210	-200,000	0,029	0,163
-730,196	-200,000	-0,001	-0,021
-729,181	226,609	0,082	-0,097
-728,167	-46,779	-0,071	0,025
-727,152	-200,000	0,013	0,083
-726,137	196,069	0,077	0,085
-725,123	-117,350	-0,103	0,013
-724,108	93,482	0,156	-0,128
-723,094	-131,268	-0,165	-0,016
-722,079	-131,643	-0,044	0,004
-721,064	87,764	-0,074	0,060
-720,050	80,898	0,056	-0,044
-719,035	-184,147	-0,096	-0,001
-718,021	3,529	0,094	-0,050
-717,006	-179,565	-0,115	-0,002
-715,991	48,816	-0,134	-0,091
-714,977	-49,691	0,038	0,013
-713,962	-123,399	-0,183	0,021
-712,948	-41,205	0,068	0,025
-711,933	-156,565	-0,040	0,002
-710,918	109,289	-0,079	0,069
-709,904	-200,000	-0,003	0,100
-708,889	-51,201	-0,122	-0,041
-707,875	-115,728	0,021	0,003
-706,860	-200,000	-0,024	0,188
-705,845	-188,888	-0,033	0,000
-704,831	-200,000	-0,000	0,025
-703,816	98,656	-0,135	0,113
-702,802	-11,759	-0,073	0,035
-701,787	15,139	-0,108	0,061
-700,772	-121,432	-0,075	0,009
-699,758	800,000	-0,010	0,024
-698,743	-19,582	0,090	0,040
-697,729	559,484	0,023	-0,041
-696,714	-118,308	0,043	-0,005
-695,699	800,000	-0,057	-0,115
-694,685	235,976	-0,021	-0,025
-693,670	-59,651	-0,076	0,023
-692,656	800,000	-0,017	-0,041
-691,641	58,243	-0,101	-0,072
-690,627	800,000	-0,024	0,075
-689,612	800,000	0,021	-0,059
-688,597	-99,374	-0,104	-0,019
-687,583	145,457	-0,002	0,002
-686,568	800,000	-0,025	0,061
-685,554	-200,000	0,002	0,037
-684,539	-200,000	0,038	0,121
-683,524	-126,246	0,139	0,015
-682,510	-98,215	-0,067	0,012
-681,495	-82,482	-0,220	-0,051
-680,481	85,852	0,108	-0,086
-679,466	-111,123	-0,204	-0,030
-678,451	-58,536	-0,224	0,070
-677,437	-121,213	0,030	-0,004
-676,422	-25,781	0,130	-0,055
-675,408	800,000	0,004	-0,008
-674,393	605,084	-0,052	-0,095
-673,378	-200,000	-0,007	0,027
-672,364	800,000	0,041	-0,085
-671,349	-200,000	0,009	-0,153
-670,335	34,308	0,002	0,001
-669,320	477,916	0,089	-0,147
-668,305	-200,000	-0,027	0,094
-667,291	259,458	-0,031	0,038
-666,276	-68,058	-0,098	-0,027
-665,262	121,296	-0,157	-0,142
-664,247	-200,000	0,000	0,046
-663,232	367,761	-0,023	0,034
-662,218	800,000	0,021	-0,057
-661,203	12,779	0,030	-0,017
-660,189	-101,901	0,057	0,010
-659,174	-200,000	-0,006	0,093
-658,159	-200,000	0,016	-0,084
-657,145	279,292	0,106	-0,137
-656,130	-200,000	0,001	-0,015
-655,116	800,000	-0,022	-0,046
-654,101	0,962	-0,100	0,052
-653,086	2,399	0,162	-0,085
-652,072	32,743	-0,090	-0,056
-651,057	212,962	-0,145	-0,166
-650,043	800,000	-0,063	-0,167
-649,028	-162,532	0,017	-0,001
-648,014	-77,136	-0,091	0,023
-646,999	-105,293	0,148	-0,024
-645,984	-95,802	0,049	0,009
-644,970	-200,000	-0,038	-0,125
-643,955	-200,000	-0,017	-0,071
-642,941	3,921	-0,071	-0,037
-641,926	8,074	0,018	-0,010
-640,911	800,000	0,022	-0,065
-639,897	-200,000	0,029	0,093
-638,882	-200,000	0,025	-0,142
-637,868	69,607	0,091	-0,068
-636,853	412,019	0,080	-0,124
-635,838	37,593	-0,138	-0,088
-634,824	41,180	-0,013	-0,008
-633,809	-103,768	-0,072	-0,012
-632,795	-200,000	-0,022	0,084
-631,780	-200,000	0,004	0,261
-630,765	-162,216	-0,069	0,002
-629,751	-75,435	-0,061	-0,016
-628,736	-166,950	-0,088	0,003
-627,722	183,210	0,063	-0,067
-626,707	-79,455	-0,071	-0,017
-625,692	330,291	-0,011	-0,015
-624,678	-46,766	-0,148	0,052
-623,663	-42,961	-0,032	-0,012
-622,649	-199,394	-0,100	-0,000
-621,634	-94,506	-0,142	0,028
-620,619	349,743	0,070	-0,101
-619,605	-200,000	-0,014	0,058
-618,590	51,820	0,048	0,033
-617,576	-138,112	-0,115	-0,009
-616,561	800,000	-0,037	-0,090
-615,546	-200,000	-0,013	-0,133
-614,532	-6,539	-0,133	0,065
-613,517	-200,000	0,004	0,022
-612,503	20,101	0,083	0,049
-611,488	428,904	0,044	-0,069
-610,474	-135,259	-0,141	0,012
-609,459	488,987	-0,016	0,026
-608,444	115,403	0,038	-0,034
-607,430	-125,242	0,071	0,008
-606,415	-27,539	-0,090	-0,038
-605,401	176,047	0,035	-0,037
-604,386	800,000	0,017	-0,034
-603,371	31,650	0,021	0,013
-602,357	89,658	-0,136	0,110
-601,342	420,062	-0,039	0,061
-600,328	800,000	0,033	-0,074
-599,313	800,000	-0,011	-0,024
-598,298	-69,723	-0,099	0,027
-597,284	369,959	-0,018	-0,026
-596,269	112,331	0,100	0,088
-595,255	-70,770	0,017	0,005
-594,240	-39,073	-0,162	-0,061
-593,225	92,195	-0,068	-0,055
-592,211	-200,000	-0,020	-0,126
-591,196	800,000	0,039	0,084
-590,182	47,711	-0,027	0,018
-589,167	236,649	0,065	-0,078
-588,152	279,036	0,025	0,033
-587,138	2,232	-0,067	-0,035
-586,123	28,472	-0,096	-0,058
-585,109	603,019	-0,054	-0,097
-584,094	627,437	0,017	-0,031
-583,079	-1,222	0,122	0,062
-582,065	800,000	0,041	0,085
-581,050	800,000	0,035	0,080
-580,036	800,000	0,069	0,160
-579,021	800,000	-0,022	0,052
-578,006	-53,902	0,016	-0,005
-576,992	160,450	-0,036	-0,036
-575,977	204,355	-0,016	-0,017
-574,963	-118,735	0,033	-0,004
-573,948	800,000	0,025	-0,060
-572,934	-153,324	-0,043	0,002
-571,919	-200,000	0,035	0,181
-570,904	484,343	-0,051	-0,085
-569,890	248,166	0,150	-0,184
-568,875	800,000	-0,039	-0,094
-567,861	800,000	-0,023	-0,070
-566,846	-200,000	-0,024	-0,091
-565,831	44,157	0,147	-0,097
-564,817	800,000	-0,023	0,066
-563,802	247,752	0,015	-0,019
-562,788	800,000	-0,030	0,095
-561,773	268,332	-0,058	-0,073
-560,758	54,987	0,092	-0,064
-559,744	-200,000	-0,001	-0,009
-558,729	3,895	0,012	-0,007
-557,715	765,396	-0,041	-0,081
-556,700	-62,975	-0,095	-0,028
-555,685	275,796	-0,067	-0,086
-554,671	-165,294	-0,078	0,002
-553,656	71,987	0,093	0,070
-552,642	408,584	0,040	0,061
-551,627	585,046	0,036	0,065
-550,612	800,000	0,040	-0,100
-549,598	-61,391	0,040	-0,012
-548,583	-200,000	-0,020	0,148
-547,569	488,398	0,077	0,127
-546,554	800,000	0,058	0,155
-545,539	20,989	0,114	0,066
-544,525	-200,000	0,002	0,085
-543,510	-50,971	-0,076	0,026
-542,496	-43,904	0,014	-0,005
-541,481	-200,000	0,003	-0,127
-540,466	-99,032	-0,059	0,011
-539,452	46,601	-0,136	0,091
-538,437	258,281	0,067	0,084
-537,423	114,274	0,046	-0,041
-536,408	-66,470	-0,037	-0,011
-535,393	-200,000	0,023	-0,097
-534,379	346,105	0,077	-0,110
-533,364	-41,424	0,065	0,024
-532,350	16,405	0,092	-0,052
-531,335	-200,000	0,001	0,011
-530,321	-97,954	0,066	0,012
-529,306	-118,579	-0,108	-0,014
-528,291	-128,874	-0,058	-0,006
-527,277	29,261	0,063	-0,038
-526,262	-93,978	0,021	-0,004
-525,248	-70,441	0,133	0,036
-524,233	150,728	0,003	0,003
-523,218	96,265	0,069	0,057
-522,204	800,000	0,025	0,053
-521,189	-63,990	-0,118	-0,034
-520,175	-200,000	-0,003	-0,065
-519,160	-7,377	-0,075	-0,036
-518,145	26,022	0,060	0,036
-517,131	142,295	0,028	-0,027
-516,116	189,846	0,024	-0,026
-515,102	-200,000	-0,005	-0,045
-514,087	194,543	-0,040	0,044
-513,072	-94,441	-0,181	-0,035
-512,058	249,133	-0,076	-0,092
-511,043	-200,000	0,028	0,118
-510,029	-200,000	0,019	0,168
-509,014	313,564	0,085	0,116
-507,999	800,000	-0,032	0,069
-506,985	5,726	0,023	-0,012
-505,970	295,380	0,048	0,064
-504,956	30,436	0,033	-0,020
-503,941	-200,000	-0,018	0,076
-502,926	-112,907	-0,023	0,003
-501,912	-54,050	0,114	-0,037
-500,897	17,948	0,034	-0,019
-499,883	-85,435	0,034	0,008
-498,868	-158,184	-0,048	-0,002
-497,853	624,322	0,026	-0,048
-496,839	-137,318	0,018	0,001
-495,824	93,723	0,204	0,167
-494,810	68,338	0,046	0,034
-493,795	-68,016	0,081	-0,023
-492,781	478,099	0,017	-0,028
-491,766	15,319	0,136	-0,077
-490,751	-40,408	-0,174	-0,065
-489,737	636,568	0,036	-0,066
-488,722	-200,000	0,031	0,133
-487,708	434,717	0,081	0,126
-486,693	82,588	-0,060	0,047
-485,678	-200,000	0,006	0,102
-484,664	-124,443	-0,196	0,022
-483,649	-14,649	-0,080	-0,037
-482,635	99,762	-0,152	0,126
-481,620	-159,653	0,137	-0,005
-480,605	-200,000	-0,003	0,078
-479,591	-23,391	-0,046	0,020
-478,576	-200,000	-0,010	0,130
-477,562	-200,000	0,008	-0,079
-476,547	4,649	0,121	-0,064
-475,532	-157,787	0,042	-0,002
-474,518	590,454	-0,076	0,135
-473,503	94,687	0,030	-0,025
-472,489	-29,325	0,040	0,017
-471,474	94,797	-0,124	0,101
-470,459	-106,871	0,133	-0,021
-469,445	-200,000	0,001	-0,115
-468,430	800,000	0,061	-0,145
-467,416	-200,000	0,029	-0,142
-466,401	-57,697	0,015	-0,005
-465,386	-200,000	0,002	0,016
-464,372	-74,244	-0,114	-0,029
-463,357	71,539	-0,058	0,043
-462,343	-85,349	0,055	0,012
-461,328	-200,000	0,010	-0,100
-460,313	-200,000	-0,019	0,068
-459,299	-41,198	-0,085	0,031
-458,284	-200,000	-0,006	0,050
-457,270	-200,000	0,001	0,133
-456,255	-176,010	-0,153	-0,003
-455,241	481,672	0,057	-0,094
-454,226	518,089	-0,024	-0,040
-453,211	-200,000	0,025	0,089
-452,197	-139,577	0,151	0,011
-451,182	15,263	-0,040	-0,023
-450,168	218,252	-0,097	0,111
-449,153	800,000	-0,018	0,052
-448,138	-58,897	-0,124	0,038
-447,124	-200,000	0,013	-0,138
-446,109	79,238	-0,089	-0,068
-445,095	-200,000	-0,020	0,124
-444,080	51,669	0,180	0,123
-443,065	800,000	0,059	0,153
-442,051	800,000	0,060	0,139
-441,036	-200,000	-0,003	0,017
-440,022	800,000	0,016	-0,037
-439,007	-200,000	-0,017	-0,067
-437,992	800,000	0,002	-0,004
-436,978	75,546	-0,090	0,069
-435,963	62,199	0,069	0,049
-434,949	-200,000	0,012	0,081
-433,934	60,128	0,077	-0,054
-432,919	784,200	-0,066	-0,130
-431,905	-200,000	-0,003	-0,027
-430,890	-200,000	0,034	-0,254
-429,876	443,195	-0,082	-0,129
-428,861	123,250	0,053	-0,048
-427,846	-159,965	0,091	0,004
-426,832	800,000	0,046	-0,125
-425,817	376,915	-0,107	-0,157
-424,803	26,221	-0,084	-0,050
-423,788	-32,782	0,152	0,060
-422,773	569,902	0,041	0,072
-421,759	-176,667	0,118	0,002
-420,744	18,973	0,051	-0,029
-419,730	693,888	-0,059	-0,111
-418,715	-200,000	0,001	-0,070
-417,701	345,643	-0,017	0,024
-416,686	180,757	0,044	-0,047
-415,671	800,000	0,034	0,074
-414,657	-200,000	0,032	0,108
-413,642	3,112	-0,089	-0,046
-412,628	585,296	-0,029	-0,051
-411,613	800,000	-0,054	-0,134
-410,598	0,265	-0,032	-0,017
-409,584	-200,000	0,023	-0,116
-408,569	106,043	-0,051	0,043
-407,555	800,000	-0,059	0,157
-406,540	800,000	0,051	0,139
-405,525	161,010	-0,099	-0,099
-404,511	-117,874	-0,177	-0,023
-403,496	24,544	0,081	-0,048
-402,482	2,946	-0,196	0,102
-401,467	154,138	0,050	0,049
-400,452	-200,000	0,010	0,126
-399,438	800,000	0,047	0,099
-398,423	-200,000	0,004	-0,016
-397,409	69,910	-0,039	-0,029
-396,394	127,146	0,059	-0,054
-395,379	-200,000	-0,020	-0,110
-394,365	115,517	0,036	0,032
-393,350	-200,000	0,023	0,117
-392,336	7,117	-0,059	-0,031
-391,321	-200,000	0,009	0,218
-390,306	-200,000	-0,014	0,048
-389,292	-91,698	-0,127	-0,026
-388,277	288,516	0,055	-0,072
-387,263	-93,935	0,053	0,010
-386,248	-69,891	0,196	0,053
-385,233	-126,720	0,099	0,010
-384,219	-200,000	-0,008	-0,105
-383,204	229,590	0,025	0,029
-382,190	234,093	-0,104	0,122
-381,175	-200,000	0,001	0,033
-380,160	-200,000	0,007	0,066
-379,146	147,707	-0,024	-0,023
-378,131	800,000	0,049	-0,134
-377,117	-104,974	0,111	-0,018
-376,102	-110,313	-0,126	-0,019
-375,088	-127,045	-0,152	0,016
-374,073	-3,531	-0,089	-0,044
-373,058	800,000	0,026	0,068
-372,044	-200,000	-0,023	0,113
-371,029	208,622	0,017	-0,019
-370,015	448,965	-0,052	0,082
-369,000	420,367	0,090	-0,139
-367,985	102,564	0,030	-0,025
-366,971	-76,934	0,068	-0,017
-365,956	282,913	0,060	0,077
-364,942	166,381	-0,032	0,033
-363,927	-200,000	0,016	0,097
-362,912	-20,886	-0,135	-0,059
-361,898	-200,000	0,028	-0,227
-360,883	800,000	0,027	-0,074
-359,869	800,000	-0,055	-0,141
-358,854	800,000	0,064	0,136
-357,839	216,459	-0,034	0,038
-356,825	800,000	-0,046	0,099
-355,810	333,558	0,077	0,107
-354,796	-90,324	-0,206	0,043
-353,781	-200,000	0,016	-0,070
-352,766	48,066	-0,054	0,036
-351,752	785,737	0,071	-0,140
-350,737	-200,000	0,008	0,054
-349,723	48,630	0,156	0,104
-348,708	-200,000	-0,007	0,105
-347,693	57,845	-0,089	0,062
-346,679	71,738	-0,055	0,041
-345,664	-8,072	-0,025	-0,012
-344,650	-39,557	-0,087	-0,032
-343,635	-200,000	-0,007	0,101
-342,620	-171,944	0,107	0,002
-341,606	-200,000	0,011	0,122
-340,591	-200,000	-0,002	-0,043
-339,577	34,513	0,034	0,021
-338,562	-200,000	-0,006	-0,046
-337,548	-200,000	-0,008	-0,087
-336,533	634,913	0,033	-0,060
-335,518	-22,016	-0,035	0,015
-334,504	148,129	0,048	0,046
-333,489	496,288	-0,022	-0,036
-332,475	-104,191	-0,071	-0,012
-331,460	-7,074	-0,022	0,011
-330,445	-200,000	0,011	-0,086
-329,431	-128,941	0,100	0,010
-328,416	110,221	0,029	-0,025
-327,402	-200,000	-0,036	0,133
-326,387	-200,000	0,021	-0,095
-325,372	62,486	0,068	-0,049
-324,358	280,754	-0,044	0,056
-323,343	626,648	0,025	0,045
-322,329	465,025	0,050	-0,080
-321,314	800,000	0,050	0,131
-320,299	-200,000	-0,002	0,113
-319,285	-200,000	0,012	-0,049
-318,270	502,649	0,038	-0,064
-317,256	141,205	-0,178	-0,168
-316,241	-160,661	0,036	0,001
-315,226	290,143	0,034	0,044
-314,212	533,260	0,027	0,046
-313,197	-132,506	0,175	0,016
-312,183	-200,000	0,006	0,098
-311,168	35,201	0,110	0,069
-310,153	448,197	-0,009	-0,014
-309,139	800,000	0,021	0,064
-308,124	108,070	0,097	0,082
-307,110	800,000	-0,022	0,066
-306,095	-58,789	-0,121	0,037
-305,080	-87,309	-0,061	0,013
-304,066	-200,000	0,001	-0,089
-303,051	-200,000	-0,013	-0,212
-302,037	82,022	-0,047	-0,036
-301,022	315,046	0,075	-0,101
-300,008	-29,136	0,123	0,050
-298,993	-200,000	-0,009	0,065
-297,978	142,137	0,104	-0,099
-296,964	-114,622	-0,061	0,008
-295,949	-200,000	0,024	-0,151
-294,935	250,086	-0,086	-0,104
-293,920	269,309	-0,057	0,071
-292,905	800,000	-0,009	0,021
-291,891	86,392	0,127	-0,099
-290,876	800,000	-0,050	0,120
-289,862	-200,000	0,010	-0,116
-288,847	50,514	0,060	-0,041
-287,832	-200,000	-0,012	0,085
-286,818	286,208	0,044	-0,057
-285,803	-71,794	-0,056	0,015
-284,789	733,442	0,013	0,025
-283,774	-200,000	-0,004	0,087
-282,759	-56,665	-0,046	-0,014
-281,745	158,535	0,019	-0,019
-280,730	-68,353	-0,124	0,034
-279,716	374,272	0,054	-0,079
-278,701	-91,591	0,110	0,022
-277,686	-200,000	0,032	0,151
-276,672	167,238	0,081	0,082
-275,657	52,438	0,045	-0,030
-274,643	58,204	-0,126	-0,088
-273,628	135,454	-0,066	-0,061
-272,613	-106,097	-0,123	0,019
-271,599	-145,384	0,049	0,003
-270,584	266,331	0,101	-0,126
-269,570	-114,707	-0,213	-0,029
-268,555	-104,023	0,084	0,014
-267,540	-120,640	0,083	0,010
-266,526	-200,000	0,003	-0,068
-265,511	-130,568	0,079	0,008
-264,497	-56,897	-0,093	0,029
-263,482	-27,407	0,061	0,025
-262,467	72,329	0,014	0,011
-261,453	8,824	-0,113	0,060
-260,438	783,369	0,031	-0,060
-259,424	-200,000	-0,019	-0,166
-258,409	-50,457	-0,141	0,047
-257,395	81,733	-0,025	0,019
-256,380	800,000	0,048	0,148
-255,365	4,314	-0,008	0,004
-254,351	-200,000	-0,019	0,071
-253,336	-200,000	0,009	-0,052
-252,322	54,712	0,048	-0,033
-251,307	181,332	-0,021	-0,022
-250,292	-46,760	0,049	0,017
-249,278	-120,216	0,095	0,011
-248,263	-42,450	-0,080	0,029
-247,249	-200,000	0,006	-0,077
-246,234	-200,000	-0,003	0,042
-245,219	-200,000	-0,003	-0,165
-244,205	-153,300	0,050	0,002
-243,190	800,000	-0,022	-0,052
-242,176	-64,837	0,118	-0,034
-241,161	-200,000	0,003	0,208
-240,146	-200,000	-0,016	0,089
-239,132	267,648	-0,042	-0,052
-238,117	395,743	-0,017	-0,025
-237,103	58,820	-0,148	-0,103
-236,088	103,212	-0,086	0,072
-235,073	108,737	0,114	0,097
-234,059	107,155	0,099	0,084
-233,044	-182,880	0,118	0,001
-232,030	60,990	-0,078	0,055
-231,015	-19,095	-0,076	0,034
-230,000	106,537	-0,067	0,056
-228,986	348,239	0,053	-0,075
-227,971	55,744	-0,083	0,057
-226,957	144,362	0,047	0,045
-225,942	-200,000	-0,018	-0,131
-224,927	521,650	0,079	-0,133
-223,913	521,842	-0,036	-0,061
-222,898	-97,814	-0,098	-0,018
-221,884	-200,000	-0,034	-0,130
-220,869	-200,000	0,023	-0,121
-219,855	300,378	0,079	0,104
-218,840	-200,000	0,024	-0,094
-217,825	-200,000	0,025	0,082
-216,811	-49,711	-0,115	-0,039
-215,796	211,701	-0,090	-0,101
-214,782	-200,000	-0,012	0,080
-213,767	303,471	-0,082	0,109
-212,752	684,610	-0,039	0,073
-211,738	82,629	-0,048	0,037
-210,723	800,000	-0,019	0,052
-209,709	800,000	-0,033	-0,074
-208,694	-200,000	0,001	0,003
-207,679	203,017	0,097	0,106
-206,665	171,755	-0,096	-0,099
-205,650	74,570	-0,082	-0,061
-204,636	800,000	-0,020	0,047
-203,621	172,070	-0,132	0,135
-202,606	336,821	-0,038	0,052
-201,592	339,297	0,011	0,015
-200,577	-80,271	0,026	-0,006
-199,563	-155,035	0,065	-0,003
-198,548	-200,000	-0,016	0,189
-197,533	800,000	-0,021	-0,052
-196,519	-1,099	-0,033	-0,016
-195,504	-59,944	0,149	0,045
-194,490	-200,000	0,002	0,022
-193,475	164,942	-0,038	0,038
-192,460	-49,489	0,193	-0,065
-191,446	309,406	0,128	-0,171
-190,431	-56,933	0,064	0,020
-189,417	800,000	0,030	-0,060
-188,402	-200,000	0,009	-0,128
-187,387	393,511	0,029	-0,043
-186,373	-200,000	0,007	0,027
-185,358	-184,544	-0,101	0,001
-184,344	218,642	0,070	0,079
-183,329	-200,000	-0,007	-0,029
-182,315	-193,263	-0,082	0,000
-181,300	-200,000	0,006	-0,049
-180,285	-200,000	-0,015	-0,129
-179,271	79,247	-0,020	-0,015
-178,256	-8,770	0,053	0,025
-177,242	-38,061	-0,049	-0,019
-176,227	238,606	0,072	0,086
-175,212	10,111	0,028	0,015
-174,198	-200,000	-0,010	0,048
-173,183	20,159	-0,118	0,067
-172,169	696,844	0,034	0,064
-171,154	93,794	0,105	-0,084
-170,139	-143,237	0,124	-0,008
-169,125	-200,000	0,026	-0,119
-168,110	610,986	0,056	0,100
-167,096	41,193	-0,014	0,009
-166,081	-200,000	-0,008	-0,056
-165,066	-200,000	0,019	-0,191
-164,052	-200,000	-0,013	0,106
-163,037	-200,000	-0,006	-0,056
-162,023	166,854	0,061	0,061
-161,008	111,729	0,047	-0,041
-159,993	162,064	-0,012	0,012
-158,979	800,000	-0,051	-0,116
-157,964	250,906	0,142	0,171
-156,950	353,366	0,031	-0,043
-155,935	317,212	-0,068	0,091
-154,920	-200,000	-0,007	-0,026
-153,906	390,949	-0,058	-0,086
-152,891	214,477	-0,047	-0,053
-151,877	158,136	0,089	0,088
-150,862	616,105	-0,040	-0,072
-149,847	82,677	0,065	-0,050
-148,833	141,690	0,043	0,040
-147,818	660,081	0,050	-0,091
-146,804	1,856	0,074	0,038
-145,789	411,802	0,020	0,030
-144,775	466,252	0,038	-0,060
-143,760	-200,000	-0,014	-0,124
-142,745	-7,773	-0,103	-0,049
-141,731	648,978	0,039	-0,072
-140,716	139,207	0,056	-0,053
-139,702	-200,000	-0,017	-0,086
-138,687	-112,580	-0,110	0,015
-137,672	-200,000	0,034	0,124
-136,658	147,346	0,045	-0,043
-135,643	-138,449	-0,144	-0,011
-134,629	27,595	0,162	0,096
-133,614	-200,000	-0,011	-0,051
-132,599	48,999	-0,008	-0,005
-131,585	398,644	0,055	0,082
-130,570	17,219	0,116	0,065
-129,556	-200,000	0,017	-0,059
-128,541	140,215	-0,114	0,106
-127,526	36,966	-0,047	-0,029
-126,512	800,000	-0,019	0,044
-125,497	378,179	-0,067	0,098
-124,483	197,238	0,138	0,149
-123,468	-33,424	0,079	-0,031
-122,453	92,204	-0,098	0,078
-121,439	95,730	0,010	0,008
-120,424	474,924	0,024	0,038
-119,410	182,116	-0,098	-0,102
-118,395	-200,000	0,008	-0,036
-117,380	160,260	0,054	0,053
-116,366	-200,000	0,002	0,028
-115,351	-200,000	-0,008	0,068
-114,337	46,504	-0,130	-0,085
-113,322	454,138	-0,043	-0,067
-112,307	-200,000	0,019	0,132
-111,293	722,844	0,033	-0,062
-110,278	439,732	0,016	0,025
-109,264	-80,425	0,140	-0,033
-108,249	-200,000	0,009	-0,129
-107,234	606,196	0,035	0,063
-106,220	58,131	-0,046	0,032
-105,205	444,362	-0,022	-0,034
-104,191	800,000	0,015	0,045
-103,176	74,009	0,079	-0,058
-102,162	-49,619	-0,102	-0,034
-101,147	2,478	-0,153	0,078
-100,132	-17,663	0,033	-0,014
-99,118	800,000	-0,044	0,092
-98,103	800,000	-0,024	0,047
-97,089	-35,364	-0,080	-0,031
-96,074	-13,063	0,097	0,045
-95,059	51,790	0,057	0,038
-94,045	-27,341	-0,043	0,018
-93,030	-23,376	-0,105	-0,045
-92,016	-200,000	-0,017	-0,094
-91,001	-200,000	0,007	0,053
-89,986	154,819	-0,060	-0,058
-88,972	800,000	-0,005	-0,011
-87,957	800,000	0,030	0,088
-86,943	-1,934	0,068	0,034
-85,928	-157,161	-0,134	0,006
-84,913	-128,756	0,043	0,004
-83,899	-106,691	-0,097	0,015
-82,884	350,839	0,040	-0,056
-81,870	-111,822	0,209	-0,030
-80,855	-19,745	-0,067	0,029
-79,840	800,000	-0,063	0,123
-78,826	84,880	0,046	0,035
-77,811	239,300	0,040	-0,047
-76,797	-200,000	-0,023	-0,085
-75,782	-16,085	-0,042	0,019
-74,767	-200,000	-0,020	0,085
-73,753	-200,000	0,007	0,068
-72,738	75,230	-0,023	0,017
-71,724	-145,488	-0,118	-0,007
-70,709	-32,372	0,055	0,022
-69,694	91,736	0,099	-0,079
-68,680	-200,000	0,003	0,124
-67,665	-70,684	0,026	0,007
-66,651	59,089	0,026	0,018
-65,636	-74,787	0,110	0,028
-64,622	77,686	-0,115	0,087
-63,607	-97,851	-0,062	-0,011
-62,592	-71,340	0,174	0,046
-61,578	-200,000	-0,002	0,035
-60,563	800,000	-0,073	0,177
-59,549	-79,983	-0,171	0,040
-58,534	6,142	-1,639	-0,857
-57,519	452,444	-1,297	-2,035
-56,505	-200,000	-0,574	-4,614
-55,490	279,555	0,976	1,234
-54,476	800,000	5,010	11,276
-53,461	-200,000	20,103	323,820
-52,446	800,000	750,655	2316,356
-51,432	552,992	1662,510	2836,472
-50,417	75,627	1671,899	1247,488
-49,403	20,261	1545,046	879,951
-48,388	14,253	1467,309	806,447
-47,373	18,268	1457,208	820,261
-46,359	16,402	1446,919	805,492
-45,344	12,477	1442,739	784,331
-44,330	12,367	1440,722	782,675
-43,315	12,417	1438,901	781,899
-42,300	12,444	1437,154	781,043
-41,286	12,456	1435,817	780,343
-40,271	12,426	1434,610	779,516
-39,257	12,410	1433,270	778,678
-38,242	12,452	1432,173	778,255
-37,227	12,489	1430,956	777,738
-36,213	12,452	1429,699	776,847
-35,198	12,484	1428,430	776,279
-34,184	12,537	1427,366	775,920
-33,169	12,487	1425,839	774,821
-32,154	12,557	1424,740	774,527
-31,140	12,512	1423,526	773,622
-30,125	12,515	1422,445	773,021
-29,111	12,494	1421,291	772,259
-28,096	12,434	1420,487	771,512
-27,082	12,448	1419,252	770,873
-26,067	12,367	1418,483	770,045
-25,052	12,407	1417,251	769,533
-24,038	12,413	1416,200	768,963
-23,023	12,375	1415,454	768,347
-22,009	12,381	1414,097	767,609
-20,994	12,340	1413,310	766,957
-19,979	12,392	1412,254	766,596
-18,965	12,401	1411,316	766,101
-17,950	12,368	1410,371	765,404
-16,936	12,398	1409,277	764,919
-15,921	12,363	1408,455	764,281
-14,906	12,329	1407,649	763,652
-13,892	12,322	1406,448	762,937
-12,877	12,334	1405,868	762,648
-11,863	12,299	1404,886	761,923
-10,848	12,269	1404,011	761,279
-9,833	12,272	1403,028	760,730
-8,819	12,214	1402,309	760,038
-7,804	12,210	1401,475	759,535
-6,790	12,264	1400,316	759,129
-5,775	12,227	1399,204	758,326
-4,760	12,246	1398,291	757,890
-3,746	12,228	1397,373	757,279
-2,731	12,197	1396,623	756,698
-1,717	12,233	1395,458	756,204
-0,702	12,194	1394,071	755,242
0,313	16,049	1309,140	727,060
1,327	32,136	700,677	426,152
2,342	49,363	122,312	81,173
3,356	1,462	16,424	8,320
4,371	0,237	3,237	1,627
5,386	-74,539	0,536	0,135
6,400	800,000	0,139	0,285
7,415	-52,973	-0,249	-0,080
8,429	-32,164	-0,382	-0,150
9,444	-38,416	-0,372	-0,138
10,459	-71,597	-0,417	-0,109
11,473	38,463	-0,356	-0,224
12,488	-110,728	-0,197	0,028
13,502	31,185	-0,408	-0,246
14,517	83,760	-0,447	-0,344
15,531	-37,678	-0,465	-0,174
16,546	36,593	-0,514	-0,320
17,561	100,180	-0,332	-0,272
18,575	310,577	-0,188	-0,249
19,590	63,082	-0,258	-0,182
20,604	-36,804	-0,324	-0,122
21,619	84,155	-0,443	-0,341
22,634	800,000	-0,211	-0,436
23,648	234,821	-0,411	-0,479
24,663	38,988	-0,523	-0,329
25,677	75,976	-0,317	-0,236
26,692	-2,882	-0,419	-0,206
27,707	-41,852	-0,432	-0,155
28,721	38,756	-0,272	-0,171
29,736	102,806	-0,380	-0,313
30,750	143,601	-0,455	-0,428
31,765	-1,942	-0,428	-0,211
32,780	86,726	-0,298	-0,232
33,794	92,038	-0,305	-0,242
34,809	119,560	-0,269	-0,235
35,823	10,971	-0,358	-0,192
36,838	334,133	-0,309	-0,422
37,853	41,117	-0,505	-0,321
38,867	220,388	-0,280	-0,317
39,882	319,476	-0,245	-0,328
40,896	-47,957	-0,411	-0,139
41,911	98,511	-0,310	-0,252
42,926	232,292	-0,382	-0,442
43,940	62,389	-0,492	-0,346
44,955	23,332	-0,449	-0,259
45,969	117,278	-0,370	-0,320
46,984	111,709	-0,389	-0,330
47,999	88,244	-0,369	-0,288
49,013	-18,428	-0,412	-0,180
50,028	-85,709	-0,418	-0,091
51,042	14,986	-0,409	-0,225
52,057	30,032	-0,373	-0,223
53,071	69,487	-0,351	-0,254
54,086	-76,887	-0,318	-0,078
55,101	-9,525	-0,304	-0,142
56,115	88,429	-0,196	-0,153
57,130	5,213	-0,464	-0,240
58,144	56,282	-0,333	-0,227
59,159	106,455	-0,271	-0,226
60,174	129,425	-0,450	-0,404
61,188	415,299	-0,245	-0,369
62,203	97,048	-0,367	-0,296
63,217	25,472	-0,409	-0,239
64,232	122,380	-0,263	-0,231
65,247	42,464	-0,241	-0,154
66,261	46,400	-0,511	-0,333
67,276	143,836	-0,371	-0,348
68,290	105,186	-0,320	-0,265
69,305	-145,725	-0,382	-0,024
70,320	-24,974	-0,269	-0,111
71,334	299,019	-0,175	-0,226
72,349	-47,371	-0,247	-0,084
73,363	-0,241	-0,368	-0,183
74,378	-5,221	-0,439	-0,211
75,393	284,627	-0,228	-0,289
76,407	81,418	-0,326	-0,247
77,422	298,772	-0,288	-0,372
78,436	-63,918	-0,248	-0,071
79,451	10,519	-0,353	-0,188
80,466	32,274	-0,350	-0,212
81,480	311,829	-0,202	-0,267
82,495	43,749	-0,243	-0,156
83,509	391,051	-0,189	-0,276
84,524	27,828	-0,216	-0,127
85,539	202,851	-0,199	-0,216
86,553	-75,853	-0,270	-0,067
87,568	58,435	-0,403	-0,277
88,582	241,420	-0,227	-0,266
89,597	79,543	-0,264	-0,199
90,611	-83,396	-0,389	-0,087
91,626	-55,728	-0,293	-0,091
92,641	-66,202	-0,176	-0,049
93,655	-60,164	-0,330	-0,098
94,670	57,902	-0,244	-0,167
95,684	44,788	-0,296	-0,190
96,699	101,713	-0,309	-0,253
97,714	-51,293	-0,285	-0,093
98,728	107,752	-0,229	-0,191
99,743	-45,745	-0,352	-0,121
100,757	82,175	-0,314	-0,238
101,772	-106,422	-0,297	-0,046
102,787	-47,146	-0,312	-0,106
103,801	381,919	-0,207	-0,298
104,816	-11,061	-0,283	-0,130
105,830	-85,950	-0,323	-0,069
106,845	37,378	-0,320	-0,198
107,860	-96,144	-0,256	-0,047
108,874	82,677	-0,274	-0,208
109,889	225,799	-0,276	-0,314
110,903	209,919	-0,228	-0,251
111,918	122,482	-0,257	-0,225
112,933	188,974	-0,108	-0,113
113,947	-60,081	-0,241	-0,071
114,962	-77,487	-0,348	-0,084
115,976	-9,210	-0,270	-0,126
116,991	25,490	-0,233	-0,135
118,006	-51,121	-0,356	-0,116
119,020	348,510	-0,153	-0,211
120,035	278,446	-0,224	-0,280
121,049	239,090	-0,221	-0,257
122,064	-37,406	-0,221	-0,082
123,079	-6,152	-0,242	-0,115
124,093	25,907	-0,300	-0,174
125,108	59,420	-0,278	-0,191
126,122	-70,802	-0,339	-0,089
127,137	34,348	-0,341	-0,207
128,151	5,751	-0,268	-0,138
129,166	92,703	-0,269	-0,212
130,181	356,900	-0,114	-0,159
131,195	540,987	-0,156	-0,261
132,210	28,771	-0,348	-0,205
133,224	37,042	-0,272	-0,168
134,239	234,823	-0,219	-0,253
135,254	57,068	-0,195	-0,132
136,268	452,216	-0,137	-0,212
137,283	-11,362	-0,303	-0,139
138,297	-8,149	-0,367	-0,172
139,312	20,260	-0,232	-0,131
140,327	-51,023	-0,196	-0,064
141,341	56,426	-0,304	-0,206
142,356	198,786	-0,219	-0,234
143,370	109,061	-0,333	-0,278
144,385	368,037	-0,276	-0,390
145,400	40,236	-0,276	-0,173
146,414	44,160	-0,310	-0,198
147,429	118,619	-0,303	-0,261
148,443	130,402	-0,178	-0,159
149,458	100,133	-0,304	-0,246
150,473	55,137	-0,272	-0,183
151,487	151,654	-0,269	-0,256
152,502	8,832	-0,253	-0,132
153,516	-46,655	-0,184	-0,062
154,531	114,953	-0,252	-0,214
155,546	-10,000	-0,273	-0,126
156,560	667,819	-0,128	-0,232
157,575	41,971	-0,185	-0,117
158,589	196,576	-0,176	-0,187
159,604	30,093	-0,338	-0,201
160,619	-6,466	-0,413	-0,195
161,633	223,470	-0,156	-0,176
162,648	118,605	-0,304	-0,262
163,662	38,247	-0,157	-0,097
164,677	221,819	-0,179	-0,201
165,692	31,413	-0,282	-0,169
166,706	135,620	-0,218	-0,198
167,721	461,907	-0,126	-0,196
168,735	-57,648	-0,284	-0,086
169,750	-147,655	-0,179	-0,010
170,764	-25,876	-0,244	-0,100
171,779	70,635	-0,118	-0,085
172,794	103,232	-0,215	-0,175
173,808	800,000	-0,025	-0,071
174,823	-65,867	-0,373	-0,103
175,837	241,709	-0,269	-0,314
176,852	68,097	-0,259	-0,184
177,867	-34,226	-0,286	-0,109
178,881	343,478	-0,169	-0,231
179,896	-115,021	-0,290	-0,038
180,910	-17,530	-0,175	-0,076
181,925	178,947	-0,216	-0,220
182,940	174,075	-0,303	-0,305
183,954	219,688	-0,174	-0,194
184,969	-10,714	-0,160	-0,073
185,983	49,756	-0,144	-0,094
186,998	482,999	-0,122	-0,194
188,013	125,764	-0,161	-0,142
189,027	173,908	-0,213	-0,214
190,042	3,149	-0,305	-0,154
191,056	96,387	-0,190	-0,151
192,071	258,950	-0,204	-0,245
193,086	117,248	-0,282	-0,241
194,100	33,951	-0,221	-0,134
195,115	178,917	-0,171	-0,174
196,129	-25,178	-0,278	-0,114
197,144	237,698	-0,200	-0,231
198,159	418,517	-0,087	-0,129
199,173	213,713	-0,107	-0,118
200,188	-10,712	-0,195	-0,089
201,202	180,920	-0,200	-0,204
202,217	205,765	-0,183	-0,198
203,232	234,758	-0,184	-0,211
204,246	73,835	-0,236	-0,171
205,261	226,205	-0,211	-0,238
206,275	-8,776	-0,171	0,079
207,290	105,536	-0,216	-0,177
208,304	-71,218	-0,194	-0,050
209,319	280,142	-0,160	-0,199
210,334	-96,300	-0,307	-0,056
211,348	62,412	-0,262	-0,181
212,363	70,815	-0,220	-0,158
213,377	171,071	-0,208	-0,207
214,392	-29,329	-0,211	-0,084
215,407	-200,000	-0,188	0,000
216,421	-141,454	-0,301	0,021
217,436	3,776	-0,247	-0,125
218,450	325,843	-0,231	-0,308
219,465	60,063	-0,293	-0,200
220,480	4,836	-0,249	-0,126
221,494	115,675	-0,155	-0,132
222,509	-134,982	-0,118	0,010
223,523	8,529	-0,136	-0,071
224,538	256,943	-0,133	-0,159
225,553	442,581	-0,204	-0,311
226,567	334,626	-0,249	-0,335
227,582	80,045	-0,123	-0,092
228,596	281,113	-0,158	-0,197
229,611	154,309	-0,120	-0,114
230,626	-16,929	-0,097	-0,042
231,640	800,000	-0,075	-0,153
232,655	-87,087	-0,193	-0,040
233,669	80,898	-0,232	-0,173
234,684	100,377	-0,223	-0,179
235,699	203,793	-0,195	-0,210
236,713	35,891	-0,269	-0,164
237,728	-28,951	-0,184	-0,073
238,742	-63,129	-0,193	-0,055
239,757	162,632	-0,111	-0,108
240,772	-116,412	-0,246	-0,031
241,786	38,384	-0,223	-0,137
242,801	186,312	-0,128	-0,131
243,815	95,581	-0,166	-0,131
244,830	588,854	-0,113	-0,193
245,844	13,158	-0,224	-0,120
246,859	360,550	-0,116	-0,162
247,874	113,184	-0,217	-0,182
248,888	182,318	-0,173	-0,177
249,903	-200,000	-0,023	-0,086
250,917	-34,440	-0,200	-0,075
251,932	16,068	-0,216	-0,117
252,947	-91,504	-0,205	-0,040
253,961	674,424	-0,163	-0,294
254,976	6,796	-0,146	-0,075
255,990	272,551	-0,203	-0,249
257,005	-30,681	-0,293	-0,114
258,020	-46,234	-0,291	-0,099
259,034	108,107	-0,156	-0,129
260,049	33,308	-0,235	-0,140
261,063	98,424	-0,236	-0,188
262,078	200,086	-0,151	-0,160
263,093	-4,836	-0,289	-0,137
264,107	122,366	-0,113	-0,098
265,122	-200,000	-0,067	-0,229
266,136	15,871	-0,178	-0,097
267,151	149,598	-0,101	-0,095
268,166	196,167	-0,152	-0,160
269,180	10,384	-0,274	-0,144
270,195	28,600	-0,169	-0,099
271,209	800,000	-0,064	-0,169
272,224	349,629	-0,171	-0,233
273,239	661,536	-0,097	-0,173
274,253	72,165	-0,100	-0,071
275,268	246,655	-0,158	-0,184
276,282	140,825	-0,194	-0,177
277,297	374,747	-0,102	-0,143
278,312	47,634	-0,226	-0,145
279,326	-26,983	-0,178	-0,071
280,341	42,413	-0,186	-0,116
281,355	4,838	-0,060	-0,030
282,370	125,870	-0,086	-0,075
283,384	148,542	-0,216	-0,201
284,399	-23,943	-0,291	-0,119
285,414	14,517	-0,136	-0,073
286,428	800,000	-0,064	-0,157
287,443	27,236	-0,093	0,054
288,457	455,890	-0,098	-0,150
289,472	66,250	-0,164	-0,115
290,487	800,000	-0,066	-0,184
291,501	65,840	-0,185	-0,129
292,516	80,305	-0,183	-0,135
293,530	613,758	-0,091	-0,158
294,545	49,215	-0,111	-0,072
295,560	-43,203	-0,065	-0,022
296,574	-200,000	-0,016	0,067
297,589	48,620	-0,162	-0,105
298,603	63,971	-0,152	-0,105
299,618	41,045	-0,157	-0,098
300,633	-78,430	-0,102	-0,024
301,647	253,967	-0,061	-0,072
302,662	311,628	-0,096	-0,124
303,676	-200,000	0,014	0,045
304,691	-131,665	-0,295	-0,026
305,706	-114,609	-0,150	-0,020
306,720	-130,681	-0,164	-0,015
307,735	199,756	-0,063	-0,067
308,749	-200,000	0,020	-0,203
309,764	193,860	-0,154	-0,160
310,779	12,100	-0,181	-0,095
311,793	-116,503	-0,118	-0,015
312,808	-70,709	-0,227	-0,059
313,822	73,763	-0,164	-0,118
314,837	176,891	-0,118	-0,118
315,852	-40,011	-0,184	-0,066
316,866	-200,000	-0,026	-0,188
317,881	-200,000	-0,041	-0,284
318,895	51,735	-0,223	-0,145
319,910	103,409	-0,211	-0,170
320,925	6,251	-0,193	0,098
321,939	-200,000	0,007	-0,134
322,954	800,000	-0,046	-0,128
323,968	-95,586	-0,121	-0,022
324,983	-121,771	-0,147	-0,016
325,997	67,096	-0,179	-0,125
327,012	800,000	-0,072	-0,164
328,027	243,890	-0,085	-0,098
329,041	-200,000	-0,035	-0,216
330,056	800,000	-0,037	-0,106
331,070	800,000	-0,060	-0,127
332,085	43,848	-0,087	-0,055
333,100	-37,823	-0,133	0,048
334,114	-120,256	-0,133	0,015
335,129	-52,476	-0,225	-0,071
336,143	-56,983	-0,304	-0,092
337,158	126,482	-0,140	-0,121
338,173	-200,000	-0,004	0,055
339,187	121,638	-0,152	-0,130
340,202	800,000	-0,077	-0,184
341,216	280,912	-0,195	-0,240
342,231	93,852	-0,178	-0,138
343,246	-175,697	-0,170	-0,003
344,260	-25,476	-0,135	-0,054
345,275	-200,000	0,001	-0,092
346,289	-14,584	-0,070	0,031
347,304	378,659	-0,125	-0,176
348,319	-108,291	-0,252	-0,037
349,333	161,290	-0,117	-0,112
350,348	-156,485	-0,143	0,006
351,362	58,491	-0,116	-0,078
352,377	-73,266	-0,216	-0,054
353,392	800,000	-0,056	-0,145
354,406	135,715	-0,158	-0,141
355,421	209,199	1315,463	1413,455
356,435	160,997	1476,278	1413,940
