DTS Sentinel unit serial number:	SN410029Multiplexer serial number:	ORYXHardware model number:	OX2-SRSoftware version number:	ORYX F/W v4,00 Oryx Data Collector v3.7.2.0data status	okinstallation	B3 Nyhavnadifferential loss correction	single-endedforward channel	channel 1reverse channel	N/Adate	2023/11/30time	19:42:30forward acquisition time	300,00reverse acquisition time	0,00gamma	499,1914k internal	0,3206k external	0,3206temperature offset calibration	1,0000default loss term (dB/km)	0,3820temperature slope calibration	1,0000multiplexer offset coefficient	1,0000multiplexer slope coefficient	1,0000fibre end	0,00T internal ref (°C)	11,81T ext. ref 1 (°C)	-3,53T ext. ref 2 (°C)	-3,65length (m)	temperature (°C)	Stokes	anti-Stokes-744,400	379,109	-0,106	-0,157
-743,385	-200,000	0,049	0,341
-742,371	2,890	-0,192	-0,101
-741,356	-200,000	0,007	0,162
-740,342	470,903	-0,129	-0,212
-739,327	-200,000	-0,053	0,321
-738,312	790,448	-0,112	-0,224
-737,298	800,000	-0,085	0,186
-736,283	800,000	-0,072	-0,170
-735,269	-200,000	0,031	0,300
-734,254	94,465	-0,163	-0,134
-733,239	96,032	-0,178	0,148
-732,225	5,465	-0,173	-0,092
-731,210	699,842	-0,047	0,091
-730,196	-200,000	0,010	0,092
-729,181	-75,365	0,050	-0,013
-728,167	550,544	0,021	-0,037
-727,152	288,859	-0,017	-0,022
-726,137	-200,000	-0,018	0,111
-725,123	-91,647	-0,057	-0,012
-724,108	-200,000	0,001	-0,098
-723,094	800,000	-0,075	-0,174
-722,079	-80,733	-0,120	-0,029
-721,064	-153,850	-0,052	-0,003
-720,050	-161,257	-0,064	0,002
-719,035	37,229	0,023	-0,015
-718,021	59,140	-0,063	-0,045
-717,006	-200,000	0,032	-0,239
-715,991	800,000	-0,016	-0,037
-714,977	-158,726	-0,075	-0,003
-713,962	-48,707	-0,145	-0,050
-712,948	-22,100	0,139	-0,061
-711,933	-57,422	-0,042	-0,013
-710,918	-85,811	-0,077	-0,017
-709,904	800,000	-0,043	-0,128
-708,889	-115,006	-0,101	-0,014
-707,875	501,589	-0,081	-0,137
-706,860	800,000	-0,004	0,013
-705,845	-29,008	0,213	-0,088
-704,831	-200,000	0,001	0,038
-703,816	-200,000	0,005	0,051
-702,802	178,272	-0,026	-0,027
-701,787	-18,083	-0,194	-0,088
-700,772	599,632	-0,095	-0,172
-699,758	343,707	0,014	0,021
-698,743	582,468	0,052	-0,094
-697,729	-200,000	0,019	-0,127
-696,714	104,783	0,051	-0,043
-695,699	280,488	0,046	-0,060
-694,685	-141,220	-0,117	0,008
-693,670	67,509	-0,025	-0,018
-692,656	-119,962	0,009	0,001
-691,641	243,450	-0,043	0,052
-690,627	171,334	-0,052	0,054
-689,612	31,592	-0,016	0,010
-688,597	-166,489	0,082	0,002
-687,583	78,022	-0,123	-0,095
-686,568	-56,605	0,002	-0,001
-685,554	-102,780	0,121	0,021
-684,539	77,694	0,114	-0,088
-683,524	132,363	-0,101	-0,094
-682,510	-200,000	-0,015	0,082
-681,495	800,000	0,026	-0,064
-680,481	82,767	-0,155	-0,122
-679,466	-50,956	0,072	0,024
-678,451	-57,717	0,096	-0,030
-677,437	-170,642	-0,097	0,002
-676,422	-53,246	0,080	-0,026
-675,408	-7,063	0,076	0,037
-674,393	174,372	-0,016	-0,017
-673,378	800,000	0,043	-0,109
-672,364	-200,000	-0,012	-0,084
-671,349	162,089	-0,010	0,010
-670,335	224,843	-0,045	0,052
-669,320	-200,000	0,004	0,020
-668,305	652,146	0,065	0,121
-667,291	70,879	0,087	-0,065
-666,276	49,662	-0,019	-0,013
-665,262	7,829	-0,118	-0,064
-664,247	-81,828	0,040	0,009
-663,232	28,721	-0,009	-0,006
-662,218	800,000	0,067	-0,182
-661,203	-123,535	0,154	-0,017
-660,189	44,403	0,027	-0,018
-659,174	-200,000	-0,028	0,149
-658,159	-67,571	-0,170	-0,048
-657,145	410,117	-0,029	-0,045
-656,130	-52,221	-0,120	0,040
-655,116	-97,226	0,028	-0,005
-654,101	81,358	0,132	0,103
-653,086	-200,000	-0,025	-0,118
-652,072	-200,000	-0,013	-0,100
-651,057	238,844	-0,094	-0,113
-650,043	-157,621	0,118	-0,005
-649,028	-106,744	-0,162	0,026
-648,014	-82,094	0,112	-0,026
-646,999	-114,313	0,060	-0,008
-645,984	347,948	0,021	0,029
-644,970	-200,000	0,007	0,032
-643,955	-160,539	-0,119	0,004
-642,941	200,863	-0,040	-0,045
-641,926	-127,133	-0,126	0,013
-640,911	-108,926	-0,100	0,015
-639,897	-200,000	-0,024	0,111
-638,882	-122,433	0,079	-0,009
-637,868	657,414	-0,036	0,067
-636,853	236,578	-0,103	-0,123
-635,838	-114,549	0,058	-0,008
-634,824	-57,710	-0,109	-0,034
-633,809	-28,261	-0,004	0,002
-632,795	77,525	-0,138	-0,106
-631,780	-200,000	-0,002	-0,161
-630,765	354,490	-0,084	-0,121
-629,751	276,601	-0,009	-0,011
-628,736	-99,823	-0,163	-0,029
-627,722	142,823	0,101	-0,097
-626,707	-200,000	-0,008	-0,175
-625,692	800,000	0,043	0,119
-624,678	400,633	-0,031	0,047
-623,663	-200,000	-0,003	0,117
-622,649	4,437	0,045	0,024
-621,634	441,715	-0,083	0,132
-620,619	-102,367	-0,096	-0,017
-619,605	800,000	0,012	0,026
-618,590	-200,000	-0,001	0,195
-617,576	-86,287	0,092	-0,020
-616,561	472,833	-0,071	-0,116
-615,546	67,227	-0,128	-0,094
-614,532	33,701	-0,081	-0,051
-613,517	588,515	0,025	0,045
-612,503	800,000	-0,066	-0,178
-611,488	134,734	0,112	-0,105
-610,474	800,000	-0,019	-0,052
-609,459	2,638	-0,035	0,018
-608,444	687,328	-0,048	-0,091
-607,430	800,000	0,032	-0,077
-606,415	151,232	0,022	0,021
-605,401	800,000	-0,025	-0,077
-604,386	-200,000	0,000	-0,025
-603,371	-162,179	0,066	0,002
-602,357	800,000	-0,047	-0,096
-601,342	800,000	-0,056	0,136
-600,328	602,500	-0,074	-0,133
-599,313	-34,419	-0,095	-0,037
-598,298	-125,923	-0,095	0,010
-597,284	-200,000	0,027	0,158
-596,269	800,000	0,054	0,132
-595,255	-200,000	0,024	0,078
-594,240	653,831	0,049	0,091
-593,225	46,418	-0,031	0,021
-592,211	-64,546	-0,091	0,026
-591,196	-200,000	0,036	-0,129
-590,182	615,434	0,076	0,138
-589,167	282,170	0,080	0,104
-588,152	566,142	-0,051	0,089
-587,138	-135,046	0,041	0,004
-586,123	-54,581	-0,035	0,011
-585,109	800,000	-0,028	-0,070
-584,094	-55,771	-0,106	0,034
-583,079	90,091	0,070	-0,057
-582,065	-200,000	0,007	0,061
-581,050	-116,126	-0,064	0,008
-580,036	15,959	0,094	0,053
-579,021	-97,531	0,100	0,019
-578,006	-50,521	-0,126	0,043
-576,992	278,531	0,089	-0,114
-575,977	-197,941	0,051	-0,000
-574,963	-200,000	0,008	-0,066
-573,948	800,000	0,049	0,117
-572,934	-46,763	-0,032	0,011
-571,919	800,000	0,054	-0,157
-570,904	-115,303	0,094	-0,013
-569,890	-200,000	0,036	-0,257
-568,875	6,625	0,066	0,035
-567,861	-200,000	-0,046	0,155
-566,846	-132,739	-0,154	0,014
-565,831	436,558	-0,053	0,083
-564,817	492,841	-0,002	0,003
-563,802	-78,901	-0,186	0,045
-562,788	340,362	-0,059	-0,083
-561,773	-200,000	0,003	0,098
-560,758	30,012	0,136	0,083
-559,744	126,164	0,046	0,042
-558,729	800,000	0,039	-0,090
-557,715	13,762	-0,083	-0,046
-556,700	800,000	-0,056	-0,115
-555,685	-200,000	0,009	-0,091
-554,671	-31,722	0,094	0,038
-553,656	-55,526	0,097	0,031
-552,642	-200,000	-0,010	0,092
-551,627	-111,007	-0,035	-0,005
-550,612	-200,000	0,012	-0,073
-549,598	-200,000	0,025	-0,142
-548,583	-0,054	-0,106	-0,054
-547,569	308,111	-0,018	-0,025
-546,554	156,863	-0,078	0,078
-545,539	211,169	-0,056	-0,064
-544,525	-200,000	0,014	-0,057
-543,510	249,456	0,059	-0,072
-542,496	-57,596	-0,078	-0,025
-541,481	193,592	-0,089	-0,097
-540,466	-44,657	0,068	-0,024
-539,452	98,198	0,039	-0,033
-538,437	800,000	0,021	0,067
-537,423	153,576	0,079	0,078
-536,408	800,000	0,026	0,074
-535,393	56,822	-0,021	0,015
-534,379	800,000	-0,006	0,015
-533,364	735,157	0,024	0,046
-532,350	32,180	-0,082	0,051
-531,335	-19,921	0,067	0,030
-530,321	453,105	0,027	0,043
-529,306	800,000	0,037	-0,094
-528,291	70,070	-0,094	-0,070
-527,277	-51,531	-0,175	-0,059
-526,262	-200,000	-0,003	-0,083
-525,248	-143,969	0,113	-0,008
-524,233	800,000	-0,056	0,133
-523,218	-200,000	-0,037	0,118
-522,204	-200,000	-0,014	-0,060
-521,189	-73,922	-0,093	0,024
-520,175	-171,007	-0,204	-0,005
-519,160	4,613	-0,029	0,015
-518,145	-200,000	0,015	-0,100
-517,131	-60,880	0,090	0,027
-516,116	-16,007	0,041	-0,019
-515,102	800,000	0,031	0,068
-514,087	79,795	0,066	0,051
-513,072	204,902	0,061	-0,068
-512,058	-125,539	0,159	-0,017
-511,043	-200,000	-0,022	0,165
-510,029	-41,789	0,196	0,072
-509,014	-117,589	0,046	-0,006
-507,999	-156,051	0,117	-0,005
-506,985	-200,000	-0,003	0,199
-505,970	394,407	0,062	0,093
-504,956	528,577	-0,033	-0,056
-503,941	-51,102	-0,066	0,022
-502,926	197,484	-0,058	0,064
-501,912	233,694	-0,072	0,085
-500,897	145,655	-0,041	0,040
-499,883	-56,042	0,126	0,040
-498,868	365,463	0,019	0,027
-497,853	-146,217	-0,105	0,007
-496,839	-200,000	-0,000	-0,043
-495,824	-22,656	0,155	-0,067
-494,810	440,987	-0,015	0,023
-493,795	114,423	-0,100	-0,087
-492,781	-200,000	-0,004	-0,131
-491,766	241,210	-0,039	-0,047
-490,751	93,868	0,095	-0,078
-489,737	739,319	-0,034	-0,066
-488,722	-64,145	0,161	-0,047
-487,708	260,193	0,094	0,116
-486,693	-200,000	-0,014	-0,077
-485,678	800,000	-0,050	0,147
-484,664	-91,787	0,116	0,023
-483,649	800,000	0,031	0,069
-482,635	800,000	0,031	0,089
-481,620	15,296	-0,041	0,023
-480,605	193,855	0,066	0,072
-479,591	221,214	-0,062	-0,071
-478,576	162,017	-0,063	-0,063
-477,562	-117,403	-0,126	0,016
-476,547	-200,000	-0,027	-0,137
-475,532	126,125	0,069	0,062
-474,518	-46,530	0,060	-0,021
-473,503	466,212	-0,048	0,078
-472,489	-56,441	0,143	-0,045
-471,474	-200,000	-0,000	0,005
-470,459	60,376	0,053	0,038
-469,445	116,638	-0,099	-0,087
-468,430	259,800	-0,101	-0,126
-467,416	-116,259	0,203	-0,027
-466,401	355,875	0,101	-0,145
-465,386	-46,256	0,111	0,039
-464,372	800,000	0,053	0,106
-463,357	-200,000	-0,019	0,133
-462,343	55,293	0,073	0,050
-461,328	45,625	-0,013	-0,008
-460,313	-115,877	0,094	-0,013
-459,299	16,411	-0,041	-0,023
-458,284	-131,558	0,041	0,004
-457,270	800,000	-0,056	-0,176
-456,255	-57,128	-0,148	-0,046
-455,241	237,570	-0,064	0,076
-454,226	44,415	0,067	-0,044
-453,211	63,875	-0,119	0,086
-452,197	-118,690	-0,014	-0,002
-451,182	-50,734	0,101	0,034
-450,168	800,000	0,083	-0,176
-449,153	37,300	-0,136	-0,086
-448,138	-200,000	-0,000	0,050
-447,124	800,000	0,044	-0,109
-446,109	-107,890	-0,101	-0,016
-445,095	-9,738	-0,106	-0,050
-444,080	800,000	0,044	-0,094
-443,065	-83,302	-0,064	-0,015
-442,051	-2,856	0,088	-0,044
-441,036	800,000	0,026	0,081
-440,022	151,482	-0,119	0,117
-439,007	-200,000	-0,007	0,161
-437,992	800,000	-0,018	0,038
-436,978	-1,527	0,228	0,115
-435,963	-87,797	0,091	-0,020
-434,949	255,371	-0,029	0,036
-433,934	98,058	0,077	-0,064
-432,919	800,000	-0,045	-0,110
-431,905	800,000	-0,046	0,122
-430,890	-21,844	0,056	0,024
-429,876	800,000	0,034	0,073
-428,861	-200,000	-0,012	-0,076
-427,846	12,845	-0,019	-0,010
-426,832	648,157	0,017	-0,032
-425,817	265,781	-0,048	0,060
-424,803	101,146	0,083	0,070
-423,788	-200,000	0,001	0,026
-422,773	22,728	0,087	0,051
-421,759	310,753	0,040	0,054
-420,744	-200,000	-0,005	0,183
-419,730	504,112	0,050	0,083
-418,715	-200,000	0,016	0,058
-417,701	-125,658	0,030	-0,003
-416,686	-200,000	0,000	-0,046
-415,671	800,000	0,020	0,041
-414,657	440,553	0,040	0,062
-413,642	-66,826	0,018	-0,005
-412,628	-13,624	0,097	0,045
-411,613	10,342	-0,040	-0,022
-410,598	-200,000	0,001	-0,042
-409,584	800,000	-0,032	0,067
-408,569	122,855	-0,060	0,054
-407,555	495,742	-0,063	0,105
-406,540	-200,000	0,016	0,070
-405,525	-64,093	-0,204	-0,059
-404,511	11,864	0,057	-0,031
-403,496	800,000	-0,043	-0,099
-402,482	-97,469	-0,147	0,027
-401,467	278,422	0,029	-0,037
-400,452	81,960	-0,064	-0,050
-399,438	69,202	0,048	-0,036
-398,423	73,908	0,023	0,017
-397,409	-17,936	0,052	-0,023
-396,394	-200,000	-0,021	0,096
-395,379	800,000	0,011	0,034
-394,365	110,913	0,035	-0,030
-393,350	-200,000	0,044	0,156
-392,336	-142,305	-0,141	0,010
-391,321	-200,000	0,004	-0,068
-390,306	-200,000	-0,009	-0,161
-389,292	534,679	-0,043	-0,073
-388,277	-8,773	0,118	-0,057
-387,263	-123,390	-0,137	-0,015
-386,248	-5,641	0,047	0,023
-385,233	14,704	0,108	-0,060
-384,219	137,414	-0,077	0,072
-383,204	520,958	0,094	-0,159
-382,190	800,000	-0,066	-0,161
-381,175	72,443	0,056	-0,042
-380,160	107,950	-0,103	-0,088
-379,146	116,978	0,116	-0,102
-378,131	533,555	0,043	0,073
-377,117	8,239	0,040	0,021
-376,102	-120,573	-0,060	-0,007
-375,088	-200,000	0,026	0,102
-374,073	-63,134	0,032	-0,009
-373,058	93,459	0,156	0,126
-372,044	800,000	-0,021	0,057
-371,029	-16,813	0,098	0,044
-370,015	-14,097	-0,028	-0,013
-369,000	48,528	0,087	0,058
-367,985	206,343	-0,099	-0,111
-366,971	-200,000	0,003	-0,064
-365,956	-120,183	0,098	-0,012
-364,942	558,632	0,031	0,055
-363,927	66,972	0,054	0,040
-362,912	122,398	0,042	0,038
-361,898	-134,689	-0,060	0,005
-360,883	648,705	-0,037	-0,069
-359,869	800,000	0,026	-0,054
-358,854	120,917	0,047	0,042
-357,839	800,000	0,017	0,041
-356,825	800,000	0,070	-0,174
-355,810	33,705	0,199	0,124
-354,796	80,133	-0,047	0,036
-353,781	1,791	-0,024	0,012
-352,766	253,898	0,051	-0,062
-351,752	-80,298	-0,124	0,029
-350,737	66,420	0,051	0,037
-349,723	-116,672	0,063	-0,008
-348,708	221,687	0,143	0,164
-347,693	800,000	0,015	-0,031
-346,679	32,867	0,046	-0,029
-345,664	-200,000	0,010	-0,062
-344,650	32,131	-0,026	0,016
-343,635	-7,293	-0,109	0,053
-342,620	-27,181	0,147	-0,061
-341,606	-73,127	-0,080	-0,021
-340,591	800,000	-0,053	0,121
-339,577	-89,312	0,112	0,023
-338,562	-200,000	-0,026	-0,199
-337,548	130,073	0,025	0,023
-336,533	-200,000	0,033	0,129
-335,518	353,851	0,089	0,127
-334,504	-200,000	-0,047	0,179
-333,489	193,197	-0,083	-0,090
-332,475	160,159	0,082	-0,082
-331,460	395,110	-0,051	-0,077
-330,445	-200,000	0,001	0,045
-329,431	-200,000	0,010	0,066
-328,416	800,000	0,074	0,176
-327,402	-80,266	0,130	0,031
-326,387	177,604	-0,045	-0,046
-325,372	-200,000	0,050	-0,164
-324,358	59,732	0,049	-0,035
-323,343	-67,124	-0,058	-0,016
-322,329	-30,065	-0,095	0,039
-321,314	-200,000	0,044	0,143
-320,299	-200,000	-0,024	0,154
-319,285	-200,000	-0,051	0,205
-318,270	-200,000	-0,004	-0,079
-317,256	800,000	0,059	-0,185
-316,241	21,621	-0,148	-0,086
-315,226	-200,000	0,007	0,053
-314,212	-200,000	-0,029	0,101
-313,197	800,000	0,037	0,105
-312,183	-112,304	0,086	-0,012
-311,168	655,042	0,041	-0,075
-310,153	-77,043	-0,036	-0,009
-309,139	118,023	-0,021	0,019
-308,124	-77,771	0,127	0,031
-307,110	-200,000	0,005	-0,040
-306,095	-136,535	-0,048	0,004
-305,080	-173,212	-0,145	0,003
-304,066	800,000	-0,023	-0,071
-303,051	128,722	-0,044	0,040
-302,037	-25,950	0,031	0,013
-301,022	-109,851	-0,191	-0,028
-300,008	165,597	0,040	0,040
-298,993	39,630	0,067	-0,043
-297,978	512,732	-0,071	0,119
-296,964	107,709	-0,019	-0,016
-295,949	19,768	-0,022	-0,012
-294,935	-200,000	-0,006	-0,089
-293,920	336,519	0,064	-0,089
-292,905	-200,000	-0,012	-0,066
-291,891	464,513	0,075	0,120
-290,876	110,082	0,026	0,022
-289,862	187,963	0,114	-0,122
-288,847	709,248	-0,023	0,044
-287,832	-200,000	0,016	0,093
-286,818	-200,000	-0,018	-0,082
-285,803	-200,000	0,014	0,126
-284,789	-200,000	0,019	0,087
-283,774	-147,593	-0,144	0,009
-282,759	139,928	-0,083	0,078
-281,745	79,451	0,191	0,146
-280,730	-200,000	0,027	-0,120
-279,716	-9,894	0,082	-0,039
-278,701	-37,403	0,057	0,022
-277,686	354,527	0,035	-0,050
-276,672	302,650	0,034	0,045
-275,657	-176,670	-0,170	-0,003
-274,643	-200,000	0,024	-0,262
-273,628	51,240	-0,117	-0,079
-272,613	107,699	0,139	-0,118
-271,599	251,487	-0,068	-0,083
-270,584	-132,233	-0,192	-0,018
-269,570	79,211	0,075	-0,058
-268,555	-26,756	0,009	0,004
-267,540	51,784	-0,096	-0,065
-266,526	-200,000	0,040	-0,148
-265,511	363,880	0,036	-0,052
-264,497	650,018	0,044	0,081
-263,482	800,000	-0,034	0,093
-262,467	169,885	0,099	0,101
-261,453	240,895	-0,061	0,072
-260,438	274,767	-0,042	-0,053
-259,424	71,063	0,035	0,026
-258,409	-9,629	-0,052	0,025
-257,395	-200,000	0,020	-0,089
-256,380	-6,909	-0,011	-0,005
-255,365	111,935	-0,039	-0,034
-254,351	75,782	-0,069	-0,052
-253,336	800,000	-0,029	0,083
-252,322	162,910	-0,119	-0,119
-251,307	-109,447	0,047	0,007
-250,292	47,218	-0,035	0,023
-249,278	-39,024	0,101	0,038
-248,263	61,033	0,048	0,034
-247,249	383,226	-0,101	0,149
-246,234	800,000	0,080	-0,164
-245,219	800,000	-0,077	-0,176
-244,205	444,914	-0,038	-0,059
-243,190	353,980	0,013	-0,019
-242,176	800,000	-0,010	-0,027
-241,161	543,440	0,139	0,238
-240,146	-200,000	0,015	-0,182
-239,132	-46,893	-0,111	0,039
-238,117	142,399	-0,008	-0,007
-237,103	800,000	-0,062	-0,146
-236,088	-20,120	0,053	-0,023
-235,073	-200,000	-0,008	0,077
-234,059	302,441	0,046	0,061
-233,044	143,860	-0,052	0,050
-232,030	358,285	0,040	0,058
-231,015	-125,638	-0,130	0,014
-230,000	800,000	-0,051	-0,157
-228,986	121,565	0,096	0,085
-227,971	244,959	-0,053	-0,063
-226,957	800,000	0,047	-0,145
-225,942	-50,467	0,086	-0,029
-224,927	-123,873	0,056	0,006
-223,913	22,971	-0,079	0,046
-222,898	800,000	0,067	-0,210
-221,884	800,000	0,014	-0,028
-220,869	-200,000	0,007	-0,062
-219,855	-95,202	-0,065	0,012
-218,840	270,413	0,030	-0,037
-217,825	-200,000	-0,019	-0,062
-216,811	-79,665	-0,105	-0,025
-215,796	-42,533	-0,008	-0,003
-214,782	-175,834	-0,174	0,003
-213,767	102,335	-0,092	0,077
-212,752	-200,000	0,002	0,160
-211,738	800,000	-0,013	-0,028
-210,723	-109,427	0,120	-0,018
-209,709	344,421	0,081	0,113
-208,694	-104,077	-0,081	0,013
-207,679	83,766	0,056	0,044
-206,665	269,782	-0,075	-0,094
-205,650	274,117	-0,032	-0,041
-204,636	338,929	0,107	0,149
-203,621	-200,000	0,003	-0,051
-202,606	87,134	-0,087	-0,069
-201,592	-124,282	-0,135	0,015
-200,577	-200,000	0,035	0,136
-199,563	44,754	0,066	-0,043
-198,548	295,168	0,038	0,050
-197,533	-200,000	0,025	0,160
-196,519	253,670	-0,037	0,045
-195,504	-200,000	0,002	0,035
-194,490	-54,959	0,098	-0,031
-193,475	-123,093	-0,159	0,018
-192,460	-200,000	0,019	0,077
-191,446	-174,777	0,031	0,001
-190,431	800,000	-0,055	0,145
-189,417	220,023	0,083	0,095
-188,402	16,935	-0,097	0,055
-187,387	-200,000	-0,012	0,114
-186,373	-200,000	0,010	-0,079
-185,358	87,180	0,074	-0,058
-184,344	-130,913	0,216	0,020
-183,329	-94,425	0,036	0,007
-182,315	-200,000	-0,001	0,030
-181,300	-32,134	-0,086	-0,034
-180,285	35,552	0,089	-0,056
-179,271	146,509	-0,054	0,051
-178,256	-48,704	-0,168	-0,057
-177,242	-97,833	0,067	-0,012
-176,227	-121,052	-0,018	-0,002
-175,212	234,837	-0,055	0,065
-174,198	50,787	0,055	0,037
-173,183	-89,477	-0,054	-0,011
-172,169	-200,000	-0,004	-0,121
-171,154	-139,609	-0,215	-0,016
-170,139	395,852	-0,039	0,058
-169,125	142,398	0,036	0,034
-168,110	-44,663	0,077	-0,027
-167,096	34,854	0,110	0,068
-166,081	-41,035	-0,111	0,041
-165,066	753,925	0,064	-0,124
-164,052	-200,000	0,012	-0,126
-163,037	-200,000	-0,036	-0,122
-162,023	364,818	0,012	0,017
-161,008	5,784	0,127	-0,066
-159,993	7,019	-0,040	0,021
-158,979	107,347	0,078	0,066
-157,964	71,331	-0,148	-0,109
-156,950	800,000	-0,021	-0,047
-155,935	-200,000	0,007	-0,109
-154,920	-33,679	-0,017	0,007
-153,906	-200,000	0,002	0,109
-152,891	553,062	0,034	0,058
-151,877	133,019	0,038	0,035
-150,862	509,902	-0,015	-0,024
-149,847	800,000	0,024	-0,058
-148,833	-7,661	0,076	0,036
-147,818	-63,151	0,023	0,007
-146,804	-200,000	-0,017	0,096
-145,789	-35,614	0,075	0,029
-144,775	748,216	0,033	-0,063
-143,760	417,869	-0,026	-0,040
-142,745	142,249	0,070	0,066
-141,731	313,426	-0,016	0,021
-140,716	83,403	0,133	0,102
-139,702	-18,766	0,103	0,045
-138,687	112,368	-0,061	0,052
-137,672	683,870	0,068	-0,126
-136,658	-200,000	-0,024	-0,159
-135,643	-200,000	-0,030	-0,105
-134,629	-83,347	0,087	-0,020
-133,614	279,785	0,073	0,092
-132,599	-55,836	0,127	0,040
-131,585	119,829	0,146	0,129
-130,570	94,925	0,054	-0,043
-129,556	-40,615	0,098	-0,036
-128,541	-161,375	-0,154	-0,006
-127,526	-200,000	-0,001	0,095
-126,512	-200,000	0,012	-0,056
-125,497	444,517	0,059	0,093
-124,483	-200,000	-0,045	-0,145
-123,468	63,521	-0,082	0,058
-122,453	-200,000	0,007	-0,089
-121,439	26,997	-0,046	0,027
-120,424	800,000	-0,012	-0,037
-119,410	333,492	0,048	0,067
-118,395	-13,148	0,043	-0,020
-117,380	-98,218	0,119	0,021
-116,366	-200,000	-0,030	-0,108
-115,351	-132,424	-0,084	-0,008
-114,337	63,919	0,104	0,074
-113,322	297,488	-0,056	0,073
-112,307	-36,073	0,141	0,054
-111,293	-140,734	0,069	0,005
-110,278	-200,000	-0,019	0,105
-109,264	-200,000	0,013	0,046
-108,249	-109,508	-0,096	-0,014
-107,234	-71,998	-0,041	0,011
-106,220	-200,000	-0,011	-0,124
-105,205	461,775	-0,054	0,086
-104,191	-200,000	0,015	0,061
-103,176	135,864	0,070	0,065
-102,162	-22,193	0,100	0,043
-101,147	285,176	0,022	0,028
-100,132	158,220	-0,129	0,127
-99,118	-11,972	-0,018	0,008
-98,103	18,452	-0,072	0,041
-97,089	0,480	0,047	0,024
-96,074	-200,000	-0,002	0,159
-95,059	800,000	-0,065	0,146
-94,045	-5,348	0,162	0,079
-93,030	-200,000	-0,038	-0,152
-92,016	-47,361	0,013	0,004
-91,001	-200,000	0,031	0,145
-89,986	-200,000	0,018	0,151
-88,972	461,996	-0,006	-0,009
-87,957	-82,543	0,067	0,015
-86,943	249,548	-0,057	-0,069
-85,928	271,902	-0,092	-0,115
-84,913	-200,000	0,001	-0,015
-83,899	-14,387	0,055	-0,025
-82,884	-200,000	0,020	-0,104
-81,870	258,926	-0,094	0,115
-80,855	-107,279	-0,046	0,007
-79,840	-42,332	0,145	0,052
-78,826	0,253	-0,109	-0,055
-77,811	114,050	0,094	-0,081
-76,797	-119,630	-0,038	0,005
-75,782	-144,242	0,178	-0,012
-74,767	-200,000	0,026	-0,102
-73,753	800,000	0,039	0,076
-72,738	-200,000	-0,002	-0,036
-71,724	83,103	0,050	-0,038
-70,709	-200,000	-0,000	-0,093
-69,694	800,000	-0,030	-0,072
-68,680	-50,379	0,127	0,042
-67,665	-200,000	-0,003	0,014
-66,651	429,715	0,064	-0,098
-65,636	44,587	0,027	0,018
-64,622	-200,000	-0,016	0,063
-63,607	-200,000	-0,057	0,183
-62,592	690,937	-0,060	-0,111
-61,578	800,000	0,088	-0,194
-60,563	800,000	0,042	0,098
-59,549	800,000	-0,048	0,144
-58,534	-12,886	-1,856	-0,851
-57,519	387,001	-1,333	-1,953
-56,505	-200,000	-0,236	-4,356
-55,490	270,647	0,906	1,128
-54,476	800,000	5,044	11,486
-53,461	-200,000	20,421	328,252
-52,446	800,000	752,089	2314,079
-51,432	549,260	1659,880	2822,538
-50,417	74,501	1667,093	1237,409
-49,403	19,643	1540,132	873,484
-48,388	13,640	1462,775	800,497
-47,373	18,886	1453,187	820,475
-46,359	16,513	1442,397	803,027
-45,344	11,991	1437,990	778,958
-44,330	11,841	1436,331	777,313
-43,315	11,826	1434,489	776,212
-42,300	11,914	1432,661	775,613
-41,286	11,861	1431,729	774,827
-40,271	11,838	1430,220	773,867
-39,257	11,820	1428,992	773,088
-38,242	11,854	1427,947	772,655
-37,227	11,871	1426,691	772,021
-36,213	11,856	1425,360	771,200
-35,198	11,919	1424,152	770,816
-34,184	11,902	1423,300	770,241
-33,169	11,888	1421,621	769,238
-32,154	11,903	1420,683	768,769
-31,140	11,913	1419,590	768,198
-30,125	11,958	1418,423	767,747
-29,111	11,936	1417,238	766,972
-28,096	11,931	1416,102	766,301
-27,082	11,864	1415,074	765,400
-26,067	11,825	1414,081	764,650
-25,052	11,830	1412,864	763,983
-24,038	11,830	1411,896	763,431
-23,023	11,825	1410,904	762,840
-22,009	11,837	1409,682	762,204
-20,994	11,823	1408,811	761,640
-19,979	11,817	1408,262	761,283
-18,965	11,769	1407,427	760,578
-17,950	11,811	1406,212	760,088
-16,936	11,811	1405,339	759,586
-15,921	11,812	1404,330	759,016
-14,906	11,769	1403,460	758,312
-13,892	11,750	1402,699	757,784
-12,877	11,750	1401,728	757,229
-11,863	11,773	1400,635	756,716
-10,848	11,712	1399,901	756,006
-9,833	11,696	1399,093	755,466
-8,819	11,633	1398,195	754,658
-7,804	11,597	1397,404	754,033
-6,790	11,623	1396,237	753,493
-5,775	11,638	1395,284	753,019
-4,760	11,661	1394,169	752,494
-3,746	11,609	1393,306	751,756
-2,731	11,619	1392,479	751,326
-1,717	11,635	1391,491	750,837
-0,702	11,638	1389,823	749,921
0,313	15,531	1304,695	721,919
1,327	31,757	696,610	422,567
2,342	49,759	121,160	80,513
3,356	-0,938	16,597	8,269
4,371	1,518	3,373	1,708
5,386	-4,851	0,760	0,369
6,400	-200,000	0,051	0,397
7,415	100,875	-0,178	-0,146
8,429	-133,082	-0,391	-0,035
9,444	78,347	-0,334	-0,251
10,459	82,800	-0,191	-0,146
11,473	81,047	-0,190	-0,145
12,488	51,754	-0,284	-0,190
13,502	167,012	-0,256	-0,256
14,517	-96,155	-0,222	-0,041
15,531	231,430	-0,269	-0,312
16,546	133,350	-0,397	-0,362
17,561	163,912	-0,318	-0,316
18,575	-62,356	-0,200	0,058
19,590	88,870	-0,243	-0,191
20,604	-139,111	-0,237	-0,018
21,619	224,693	-0,398	-0,454
22,634	67,593	-0,345	-0,248
23,648	7,051	-0,353	-0,185
24,663	163,846	-0,337	-0,334
25,677	210,766	-0,253	-0,281
26,692	158,333	-0,242	-0,237
27,707	61,088	-0,442	-0,309
28,721	122,643	-0,312	-0,275
29,736	94,733	-0,449	-0,359
30,750	65,902	-0,354	-0,253
31,765	100,371	-0,378	-0,309
32,780	505,665	-0,263	-0,431
33,794	115,008	-0,354	-0,304
34,809	241,965	-0,302	-0,356
35,823	64,624	-0,404	-0,287
36,838	173,388	-0,292	-0,296
37,853	25,310	-0,448	-0,261
38,867	377,380	-0,186	-0,268
39,882	116,872	-0,432	-0,374
40,896	82,101	-0,326	-0,249
41,911	13,251	-0,382	-0,208
42,926	30,319	-0,280	-0,168
43,940	113,173	-0,294	-0,251
44,955	-7,723	-0,474	-0,225
45,969	145,630	-0,213	-0,201
46,984	217,010	-0,247	-0,277
47,999	11,427	-0,283	-0,152
49,013	79,266	-0,365	-0,275
50,028	10,199	-0,356	-0,190
51,042	385,715	-0,262	-0,381
52,057	62,030	-0,333	-0,233
53,071	270,078	-0,281	-0,348
54,086	-1,178	-0,262	-0,130
55,101	9,453	-0,283	-0,150
56,115	48,741	-0,357	-0,235
57,130	23,081	-0,417	-0,240
58,144	-21,446	-0,332	-0,142
59,159	111,481	-0,377	-0,320
60,174	48,581	-0,372	-0,244
61,188	106,758	-0,320	-0,267
62,203	336,776	-0,299	-0,409
63,217	155,943	-0,295	-0,286
64,232	-46,484	-0,383	-0,131
65,247	100,590	-0,279	-0,227
66,261	80,380	-0,281	-0,212
67,276	170,639	-0,253	-0,254
68,290	97,478	-0,310	-0,250
69,305	-2,884	-0,222	-0,108
70,320	87,450	-0,262	-0,204
71,334	-4,311	-0,286	-0,138
72,349	72,230	-0,286	-0,209
73,363	108,093	-0,296	-0,248
74,378	47,541	-0,348	-0,227
75,393	321,454	-0,182	-0,244
76,407	-12,572	-0,323	-0,147
77,422	-13,783	-0,285	-0,129
78,436	34,167	-0,387	-0,236
79,451	13,510	-0,279	-0,152
80,466	-173,836	-0,273	-0,006
81,480	170,478	-0,257	-0,258
82,495	184,521	-0,238	-0,247
83,509	193,477	-0,193	-0,205
84,524	115,876	-0,258	-0,221
85,539	-101,920	-0,305	-0,051
86,553	-28,434	-0,338	-0,136
87,568	22,181	-0,320	-0,183
88,582	-3,360	-0,250	-0,122
89,597	18,476	-0,250	-0,139
90,611	20,786	-0,207	-0,117
91,626	-66,685	-0,248	-0,068
92,641	-163,735	-0,239	-0,008
93,655	-18,993	-0,375	-0,163
94,670	126,650	-0,261	-0,231
95,684	151,427	-0,274	-0,261
96,699	348,080	-0,211	-0,293
97,714	78,182	-0,274	-0,205
98,728	6,130	-0,488	-0,252
99,743	108,259	-0,284	-0,237
100,757	237,072	-0,258	-0,300
101,772	442,755	-0,173	-0,266
102,787	10,773	-0,212	-0,113
103,801	69,684	-0,330	-0,238
104,816	64,679	-0,162	-0,114
105,830	289,342	-0,125	-0,159
106,845	-115,096	-0,314	0,041
107,860	52,727	-0,288	-0,192
108,874	8,872	-0,325	-0,171
109,889	44,733	-0,269	-0,173
110,903	177,872	-0,280	-0,286
111,918	-128,719	-0,213	-0,021
112,933	-57,384	-0,324	0,099
113,947	42,097	-0,227	-0,144
114,962	442,137	-0,116	-0,179
115,976	131,089	-0,191	-0,171
116,991	93,969	-0,256	-0,203
118,006	265,908	-0,186	-0,228
119,020	41,847	-0,249	-0,158
120,035	195,856	-0,191	-0,203
121,049	-77,445	-0,177	-0,043
122,064	-132,642	-0,282	0,025
123,079	-184,141	-0,251	-0,003
124,093	-187,253	-0,258	0,002
125,108	-2,746	-0,301	-0,146
126,122	-7,614	-0,255	-0,120
127,137	126,764	-0,228	-0,202
128,151	61,778	-0,157	-0,109
129,166	-11,899	-0,222	-0,101
130,181	-120,671	-0,198	0,023
131,195	75,988	-0,385	-0,284
132,210	237,382	-0,337	-0,391
133,224	183,282	-0,160	-0,166
134,239	800,000	-0,080	-0,204
135,254	74,085	-0,151	-0,110
136,268	211,145	-0,208	-0,229
137,283	199,323	-0,222	-0,237
138,297	139,345	-0,302	-0,278
139,312	188,962	-0,258	-0,270
140,327	-46,216	-0,277	-0,095
141,341	-32,010	-0,286	-0,111
142,356	379,465	-0,142	-0,204
143,370	95,514	-0,257	-0,205
144,385	-52,765	-0,204	-0,065
145,400	40,542	-0,212	-0,133
146,414	105,769	-0,270	-0,223
147,429	173,552	-0,159	-0,160
148,443	-30,451	-0,359	-0,141
149,458	30,051	-0,233	-0,138
150,473	28,901	-0,163	-0,096
151,487	82,402	-0,254	-0,192
152,502	-27,619	-0,219	-0,088
153,516	-60,221	-0,356	-0,105
154,531	28,034	-0,393	-0,230
155,546	189,493	-0,113	-0,118
156,560	800,000	-0,072	-0,145
157,575	-10,749	-0,226	-0,104
158,589	80,460	-0,211	-0,158
159,604	6,026	-0,256	-0,132
160,619	-32,713	-0,321	-0,124
161,633	298,326	-0,210	-0,269
162,648	72,702	-0,300	-0,218
163,662	-92,239	-0,262	0,051
164,677	220,150	-0,096	-0,108
165,692	-0,211	-0,187	-0,092
166,706	73,667	-0,218	-0,159
167,721	51,316	-0,037	-0,024
168,735	53,431	-0,285	-0,190
169,750	367,559	-0,161	-0,227
170,764	-48,605	-0,246	-0,082
171,779	278,933	-0,105	-0,131
172,794	-4,529	-0,183	-0,088
173,808	210,642	-0,207	-0,226
174,823	-18,435	-0,315	-0,136
175,837	-88,419	-0,283	-0,058
176,852	173,346	-0,222	-0,223
177,867	-56,514	-0,191	-0,059
178,881	24,142	-0,217	-0,124
179,896	602,039	-0,075	-0,130
180,910	73,072	-0,202	-0,146
181,925	-27,904	-0,233	-0,093
182,940	89,211	-0,203	-0,157
183,954	117,519	-0,093	-0,079
184,969	-9,576	-0,213	-0,098
185,983	29,276	-0,141	-0,083
186,998	159,322	-0,170	-0,165
188,013	-25,671	-0,245	-0,100
189,027	13,631	-0,181	-0,097
190,042	134,453	-0,116	-0,104
191,056	147,550	-0,225	-0,210
192,071	131,440	-0,219	-0,196
193,086	27,542	-0,188	-0,110
194,100	-9,107	-0,219	-0,102
195,115	-7,263	-0,320	-0,150
196,129	-9,278	-0,167	-0,077
197,144	83,529	-0,234	-0,177
198,159	-35,752	-0,192	-0,072
199,173	-99,396	-0,227	0,039
200,188	108,873	-0,161	-0,134
201,202	330,140	-0,127	-0,170
202,217	103,497	-0,196	-0,160
203,232	45,962	-0,282	-0,181
204,246	-46,367	-0,323	-0,110
205,261	-29,554	-0,180	-0,071
206,275	141,226	-0,083	-0,076
207,290	-53,768	-0,275	-0,086
208,304	50,924	-0,167	-0,110
209,319	-88,315	-0,172	-0,035
210,334	46,569	-0,157	-0,101
211,348	-32,576	-0,211	-0,081
212,363	137,252	-0,131	-0,119
213,377	-87,483	-0,229	-0,048
214,392	329,854	-0,079	-0,106
215,407	-200,000	-0,002	-0,025
216,421	-117,704	-0,160	-0,020
217,436	114,212	-0,212	-0,179
218,450	-74,498	-0,224	-0,056
219,465	314,895	-0,138	-0,180
220,480	-119,215	-0,206	-0,025
221,494	-98,365	-0,110	-0,019
222,509	-28,737	-0,210	-0,083
223,523	94,173	-0,173	-0,136
224,538	312,277	-0,146	-0,191
225,553	288,523	-0,207	-0,261
226,567	234,925	-0,131	-0,150
227,582	-200,000	-0,048	-0,205
228,596	800,000	-0,035	0,072
229,611	-45,091	-0,322	-0,110
230,626	64,713	-0,207	-0,145
231,640	396,372	-0,123	-0,179
232,655	125,402	-0,168	-0,147
233,669	71,006	-0,212	-0,152
234,684	59,387	-0,227	-0,154
235,699	-109,543	-0,225	-0,033
236,713	-156,395	-0,128	-0,005
237,728	548,811	-0,130	-0,216
238,742	10,862	-0,222	-0,117
239,757	2,472	-0,124	-0,062
240,772	45,655	-0,243	-0,155
241,786	-71,786	-0,067	-0,017
242,801	-114,771	-0,221	-0,029
243,815	-40,203	-0,215	-0,077
244,830	-148,102	-0,198	-0,011
245,844	24,416	-0,110	0,063
246,859	86,414	-0,212	-0,161
247,874	299,530	-0,159	-0,203
248,888	697,179	-0,118	-0,215
249,903	32,236	-0,282	-0,168
250,917	-25,821	-0,155	-0,063
251,932	-19,821	-0,225	-0,096
252,947	115,302	-0,227	-0,191
253,961	28,220	-0,207	-0,121
254,976	88,499	-0,203	-0,156
255,990	64,636	-0,146	-0,102
257,005	548,701	-0,090	-0,149
258,020	343,453	-0,085	-0,115
259,034	-172,224	-0,111	-0,002
260,049	12,826	-0,166	-0,089
261,063	-49,198	-0,180	-0,059
262,078	-200,000	-0,051	-0,192
263,093	-114,962	-0,070	0,009
264,107	90,819	-0,193	-0,149
265,122	-125,316	-0,251	0,026
266,136	103,781	-0,062	-0,050
267,151	800,000	-0,038	-0,102
268,166	156,277	-0,195	-0,186
269,180	-6,118	-0,267	-0,125
270,195	133,670	-0,204	-0,182
271,209	241,396	-0,148	-0,171
272,224	455,060	-0,141	-0,216
273,239	231,732	-0,224	-0,254
274,253	178,626	-0,155	-0,156
275,268	47,068	-0,183	-0,117
276,282	800,000	-0,106	-0,208
277,297	130,433	-0,140	-0,124
278,312	38,935	-0,165	-0,102
279,326	92,379	-0,155	-0,120
280,341	-105,336	-0,173	0,027
281,355	88,141	-0,036	0,028
282,370	89,427	-0,103	-0,079
283,384	241,388	-0,168	-0,194
284,399	146,133	-0,102	-0,094
285,414	347,062	-0,119	-0,162
286,428	-11,323	-0,210	-0,095
287,443	77,971	-0,188	-0,138
288,457	404,690	-0,100	-0,145
289,472	534,177	-0,130	-0,212
290,487	121,812	-0,178	-0,153
291,501	-30,676	-0,225	-0,087
292,516	-125,089	-0,229	-0,024
293,530	-53,650	-0,086	-0,027
294,545	72,653	-0,160	-0,115
295,560	93,699	-0,155	-0,120
296,574	-4,555	-0,184	-0,087
297,589	-39,024	-0,197	-0,071
298,603	167,929	-0,131	-0,128
299,618	-18,375	-0,125	-0,053
300,633	94,275	-0,087	-0,068
301,647	54,603	-0,079	-0,052
302,662	562,285	-0,018	-0,030
303,676	800,000	-0,041	-0,091
304,691	800,000	-0,087	-0,249
305,706	74,873	-0,275	-0,199
306,720	129,336	-0,061	-0,054
307,735	-153,276	-0,067	-0,003
308,749	-200,000	-0,002	0,111
309,764	22,140	-0,092	-0,051
310,779	800,000	-0,117	-0,259
311,793	-5,852	-0,120	-0,056
312,808	800,000	-0,116	-0,239
313,822	232,105	-0,166	-0,188
314,837	-200,000	-0,033	-0,160
315,852	-88,532	-0,151	-0,031
316,866	-1,032	-0,105	-0,051
317,881	-74,314	-0,173	-0,043
318,895	-129,552	-0,150	-0,014
319,910	118,909	-0,221	-0,188
320,925	81,127	-0,137	-0,101
321,939	-31,454	-0,069	-0,026
322,954	783,536	-0,090	-0,170
323,968	-179,490	-0,108	0,002
324,983	-200,000	0,002	-0,194
325,997	412,764	-0,223	-0,326
327,012	-111,078	-0,133	-0,019
328,027	-200,000	-0,011	-0,183
329,041	-18,220	-0,174	-0,074
330,056	-41,907	-0,066	0,023
331,070	28,507	-0,084	-0,049
332,085	237,831	-0,094	-0,107
333,100	-104,897	-0,220	-0,034
334,114	-157,112	-0,186	0,008
335,129	-99,059	-0,196	-0,034
336,143	-200,000	0,001	-0,039
337,158	18,778	-0,099	-0,054
338,173	155,817	-0,120	-0,114
339,187	-98,068	-0,041	-0,007
340,202	-200,000	0,016	-0,125
341,216	554,476	-0,130	-0,216
342,231	349,465	-0,107	-0,145
343,246	800,000	-0,078	-0,154
344,260	-120,487	-0,289	-0,033
345,275	-200,000	0,023	-0,141
346,289	196,878	-0,073	-0,076
347,304	143,490	-0,098	-0,089
348,319	-200,000	-0,044	-0,155
349,333	573,734	-0,090	-0,151
350,348	-50,458	-0,223	-0,072
351,362	-83,455	-0,189	-0,041
352,377	617,207	-0,108	-0,187
353,392	800,000	-0,056	-0,126
354,406	6,729	-0,144	-0,073
355,421	207,134	1312,669	1403,352
356,435	159,328	1473,140	1403,847
