DTS Sentinel unit serial number:	SN410029Multiplexer serial number:	ORYXHardware model number:	OX2-SRSoftware version number:	ORYX F/W v4,00 Oryx Data Collector v3.7.2.0data status	okinstallation	B3 Nyhavnadifferential loss correction	single-endedforward channel	channel 1reverse channel	N/Adate	2023/12/01time	16:12:30forward acquisition time	300,00reverse acquisition time	0,00gamma	499,1914k internal	0,3207k external	0,3207temperature offset calibration	1,0000default loss term (dB/km)	0,3820temperature slope calibration	1,0000multiplexer offset coefficient	1,0000multiplexer slope coefficient	1,0000fibre end	0,00T internal ref (°C)	12,92T ext. ref 1 (°C)	-0,61T ext. ref 2 (°C)	-0,63length (m)	temperature (°C)	Stokes	anti-Stokes-744,400	2,507	-0,259	-0,136
-743,385	-200,000	0,034	0,315
-742,371	-200,000	-0,045	-0,238
-741,356	-200,000	0,046	0,199
-740,342	121,566	-0,197	-0,178
-739,327	-200,000	-0,013	0,353
-738,312	800,000	-0,044	-0,103
-737,298	800,000	0,132	0,303
-736,283	243,462	-0,219	-0,267
-735,269	-200,000	-0,013	0,444
-734,254	137,328	-0,154	-0,146
-733,239	-5,302	-0,241	0,120
-732,225	-200,000	0,018	-0,275
-731,210	217,809	0,067	-0,077
-730,196	-7,208	-0,117	-0,057
-729,181	800,000	-0,054	0,121
-728,167	800,000	0,024	0,061
-727,152	34,158	-0,016	0,010
-726,137	-108,403	-0,201	-0,031
-725,123	126,587	-0,096	-0,088
-724,108	-2,410	-0,101	0,051
-723,094	21,238	-0,096	-0,056
-722,079	79,653	-0,097	0,076
-721,064	-106,943	0,016	0,002
-720,050	43,658	-0,070	0,046
-719,035	165,575	-0,072	0,074
-718,021	614,742	0,087	0,158
-717,006	-156,013	-0,093	0,004
-715,991	-151,718	-0,051	-0,003
-714,977	-28,496	0,087	-0,036
-713,962	800,000	-0,058	-0,132
-712,948	579,475	-0,022	-0,039
-711,933	51,518	-0,023	0,016
-710,918	367,910	-0,033	-0,048
-709,904	800,000	-0,012	-0,036
-708,889	-17,962	0,056	-0,025
-707,875	37,208	-0,090	-0,058
-706,860	21,814	0,073	-0,043
-705,845	-31,478	0,025	0,010
-704,831	54,993	0,032	-0,022
-703,816	-200,000	-0,016	-0,089
-702,802	794,017	-0,060	-0,121
-701,787	-200,000	0,007	-0,050
-700,772	156,846	-0,075	0,075
-699,758	-200,000	-0,010	0,106
-698,743	-200,000	-0,001	-0,045
-697,729	245,952	0,049	0,060
-696,714	33,223	-0,049	0,031
-695,699	24,630	0,047	0,028
-694,685	-200,000	0,032	0,156
-693,670	180,485	-0,093	-0,099
-692,656	-101,424	0,113	-0,020
-691,641	716,032	0,054	-0,103
-690,627	800,000	-0,058	-0,137
-689,612	8,431	-0,071	0,038
-688,597	168,670	-0,080	-0,083
-687,583	-200,000	0,031	-0,213
-686,568	-90,328	-0,098	-0,020
-685,554	533,149	-0,028	-0,048
-684,539	-92,786	0,076	-0,015
-683,524	0,468	-0,104	0,054
-682,510	347,014	-0,093	-0,134
-681,495	-113,172	-0,047	0,007
-680,481	-38,786	0,045	0,017
-679,466	476,027	-0,071	0,117
-678,451	-200,000	-0,019	-0,108
-677,437	-200,000	0,004	-0,019
-676,422	-49,809	0,127	-0,044
-675,408	9,656	-0,161	0,088
-674,393	-23,997	-0,142	-0,061
-673,378	-49,065	0,157	-0,054
-672,364	429,644	-0,085	-0,134
-671,349	-200,000	0,001	-0,208
-670,335	221,198	-0,022	0,026
-669,320	263,263	0,067	0,084
-668,305	-200,000	-0,016	-0,066
-667,291	87,917	0,020	0,016
-666,276	133,453	0,085	0,079
-665,262	776,037	-0,021	-0,042
-664,247	800,000	0,028	0,067
-663,232	119,599	0,089	0,080
-662,218	365,310	0,086	0,126
-661,203	141,884	0,078	-0,075
-660,189	-200,000	-0,007	0,045
-659,174	191,091	-0,034	-0,037
-658,159	-200,000	-0,021	-0,124
-657,145	-8,463	0,062	-0,030
-656,130	-62,069	-0,046	0,014
-655,116	800,000	0,016	0,033
-654,101	214,098	-0,060	0,069
-653,086	202,068	0,089	0,099
-652,072	319,482	-0,106	-0,145
-651,057	112,111	0,052	-0,045
-650,043	-200,000	-0,029	-0,175
-649,028	-16,856	0,029	0,013
-648,014	-200,000	0,042	0,177
-646,999	-200,000	0,009	0,124
-645,984	666,360	0,050	0,093
-644,970	-200,000	-0,002	-0,063
-643,955	772,442	-0,015	0,030
-642,941	74,349	-0,141	-0,107
-641,926	-200,000	-0,021	-0,218
-640,911	684,865	0,023	0,044
-639,897	-200,000	-0,016	-0,119
-638,882	45,933	-0,119	0,080
-637,868	-200,000	-0,003	-0,071
-636,853	-200,000	0,031	-0,190
-635,838	-200,000	-0,014	-0,089
-634,824	44,222	-0,061	-0,040
-633,809	154,497	0,042	-0,041
-632,795	463,704	-0,026	-0,042
-631,780	-69,421	-0,102	-0,028
-630,765	9,856	-0,055	-0,030
-629,751	205,643	0,041	0,046
-628,736	725,327	0,020	0,040
-627,722	271,172	-0,100	-0,128
-626,707	-200,000	0,005	0,050
-625,692	-200,000	0,014	-0,056
-624,678	-200,000	0,009	-0,052
-623,663	517,335	-0,010	0,017
-622,649	72,877	-0,036	0,027
-621,634	128,843	-0,017	-0,015
-620,619	-200,000	-0,014	-0,047
-619,605	-200,000	0,017	0,058
-618,590	800,000	-0,065	0,170
-617,576	-123,085	0,072	-0,008
-616,561	94,749	0,108	0,088
-615,546	393,421	-0,147	-0,222
-614,532	120,479	-0,035	-0,032
-613,517	-73,431	0,022	0,006
-612,503	-35,699	-0,074	-0,029
-611,488	-103,999	0,111	0,018
-610,474	-200,000	0,004	0,091
-609,459	-200,000	-0,018	0,075
-608,444	8,142	-0,121	-0,065
-607,430	53,361	-0,114	-0,079
-606,415	467,344	-0,051	0,083
-605,401	89,622	0,083	0,067
-604,386	-14,311	0,056	0,026
-603,371	-60,485	-0,126	0,038
-602,357	195,932	0,019	-0,021
-601,342	129,988	-0,090	0,083
-600,328	-200,000	0,005	0,091
-599,313	216,947	-0,035	0,041
-598,298	408,665	-0,098	0,150
-597,284	-58,051	-0,086	0,027
-596,269	-41,273	0,084	-0,031
-595,255	314,303	-0,073	0,100
-594,240	-200,000	0,011	-0,110
-593,225	-200,000	0,032	-0,157
-592,211	800,000	0,044	-0,121
-591,196	-42,611	0,108	-0,040
-590,182	-187,328	0,098	-0,001
-589,167	134,952	-0,070	0,066
-588,152	297,141	-0,048	0,063
-587,138	-12,351	0,071	-0,033
-586,123	72,855	-0,145	-0,109
-585,109	165,530	-0,075	0,077
-584,094	51,494	0,095	-0,065
-583,079	55,844	0,079	-0,055
-582,065	80,529	-0,122	0,095
-581,050	-159,248	-0,109	-0,004
-580,036	115,492	-0,074	0,065
-579,021	-161,281	-0,129	0,005
-578,006	-96,399	-0,081	0,015
-576,992	402,152	-0,041	-0,062
-575,977	55,593	0,113	0,079
-574,963	2,735	0,019	-0,010
-573,948	-200,000	0,014	-0,066
-572,934	-100,924	-0,137	0,024
-571,919	-147,126	-0,084	0,005
-570,904	24,165	0,068	0,041
-569,890	-115,220	0,097	-0,013
-568,875	800,000	0,047	-0,108
-567,861	-200,000	0,032	0,126
-566,846	-200,000	0,016	0,079
-565,831	12,015	-0,041	0,022
-564,817	688,910	-0,046	-0,088
-563,802	-156,603	0,068	-0,003
-562,788	-106,975	-0,068	-0,011
-561,773	91,992	0,081	0,066
-560,758	800,000	-0,048	-0,105
-559,744	354,487	-0,039	-0,056
-558,729	-200,000	-0,001	0,003
-557,715	-200,000	0,004	0,018
-556,700	-200,000	0,012	-0,074
-555,685	56,027	0,101	-0,071
-554,671	-50,202	-0,033	0,011
-553,656	-200,000	0,000	-0,075
-552,642	228,771	0,026	0,031
-551,627	-116,766	-0,095	-0,012
-550,612	624,141	0,040	0,073
-549,598	-10,577	-0,027	0,013
-548,583	511,530	-0,091	-0,153
-547,569	246,567	0,055	0,067
-546,554	-129,025	-0,075	-0,007
-545,539	-79,483	0,082	-0,020
-544,525	204,413	-0,058	-0,065
-543,510	547,980	0,036	0,061
-542,496	-200,000	-0,012	-0,106
-541,481	-200,000	-0,004	-0,098
-540,466	-200,000	-0,001	0,003
-539,452	-200,000	-0,013	0,065
-538,437	800,000	0,065	0,157
-537,423	-73,850	0,044	0,011
-536,408	-200,000	-0,001	0,075
-535,393	329,321	-0,045	0,062
-534,379	-200,000	-0,013	-0,114
-533,364	281,216	-0,036	-0,046
-532,350	-111,551	0,107	-0,015
-531,335	-67,133	0,101	-0,029
-530,321	35,462	-0,104	0,066
-529,306	136,443	-0,049	-0,046
-528,291	-200,000	-0,015	0,055
-527,277	42,736	0,128	0,084
-526,262	-174,954	0,098	0,002
-525,248	57,689	-0,108	0,076
-524,233	32,272	0,088	0,054
-523,218	-33,204	0,040	-0,016
-522,204	39,811	0,115	-0,074
-521,189	-156,964	-0,143	0,006
-520,175	-2,941	-0,062	-0,031
-519,160	800,000	0,025	-0,070
-518,145	-200,000	-0,058	0,186
-517,131	-33,857	0,053	0,021
-516,116	19,542	-0,117	0,068
-515,102	-62,587	0,111	0,033
-514,087	-79,646	-0,057	-0,014
-513,072	-87,180	0,118	-0,026
-512,058	-200,000	0,021	-0,170
-511,043	24,538	-0,110	0,065
-510,029	-200,000	0,000	-0,060
-509,014	155,180	0,036	-0,036
-507,999	12,688	-0,122	-0,068
-506,985	496,561	-0,081	-0,135
-505,970	532,025	0,034	0,059
-504,956	-200,000	-0,000	-0,020
-503,941	800,000	-0,038	0,078
-502,926	75,859	-0,105	-0,080
-501,912	53,137	0,022	-0,015
-500,897	-21,917	0,144	0,063
-499,883	-200,000	-0,004	-0,081
-498,868	800,000	-0,009	0,024
-497,853	5,394	-0,114	-0,060
-496,839	78,831	0,078	-0,060
-495,824	800,000	0,028	0,058
-494,810	-49,478	-0,154	-0,052
-493,795	800,000	0,033	0,082
-492,781	431,221	-0,063	-0,098
-491,766	133,666	-0,018	0,017
-490,751	-114,110	-0,125	-0,017
-489,737	-20,162	0,039	-0,017
-488,722	-200,000	-0,007	0,057
-487,708	231,829	0,077	-0,090
-486,693	237,848	-0,008	0,009
-485,678	-18,504	0,083	-0,037
-484,664	-200,000	0,003	-0,042
-483,649	-112,189	-0,056	0,008
-482,635	-200,000	0,012	-0,049
-481,620	119,101	0,189	0,168
-480,605	-200,000	0,002	-0,030
-479,591	800,000	-0,040	0,084
-478,576	-51,579	-0,076	0,025
-477,562	800,000	0,052	-0,115
-476,547	186,195	0,040	-0,042
-475,532	144,654	-0,019	-0,019
-474,518	-200,000	0,025	0,136
-473,503	72,495	-0,098	-0,074
-472,489	42,634	0,107	0,070
-471,474	60,359	0,048	-0,034
-470,459	-155,394	-0,098	-0,004
-469,445	165,294	-0,038	0,039
-468,430	-96,474	0,038	-0,007
-467,416	173,225	0,087	-0,090
-466,401	-200,000	0,013	0,082
-465,386	-23,765	0,115	0,049
-464,372	130,390	0,072	-0,066
-463,357	130,237	-0,043	-0,040
-462,343	800,000	0,038	-0,077
-461,328	800,000	0,042	-0,090
-460,313	-79,469	0,024	0,006
-459,299	-200,000	0,002	0,173
-458,284	800,000	-0,036	-0,094
-457,270	12,008	-0,021	0,011
-456,255	70,346	0,119	-0,088
-455,241	800,000	-0,019	0,054
-454,226	-200,000	-0,006	-0,132
-453,211	121,962	0,027	-0,024
-452,197	63,970	0,014	0,010
-451,182	12,163	0,109	-0,060
-450,168	800,000	-0,019	-0,044
-449,153	39,304	0,031	-0,020
-448,138	800,000	-0,051	0,122
-447,124	266,937	-0,071	-0,090
-446,109	57,464	-0,044	0,031
-445,095	-200,000	-0,004	-0,031
-444,080	-200,000	0,007	0,109
-443,065	800,000	0,052	0,105
-442,051	-200,000	0,008	0,030
-441,036	-200,000	-0,014	-0,044
-440,022	-18,228	-0,083	-0,037
-439,007	-200,000	-0,054	-0,259
-437,992	800,000	0,017	-0,036
-436,978	-171,176	0,115	-0,003
-435,963	800,000	-0,039	0,116
-434,949	-200,000	0,010	0,044
-433,934	-200,000	0,003	-0,086
-432,919	-200,000	0,003	0,048
-431,905	82,179	0,114	-0,089
-430,890	-17,082	0,018	-0,008
-429,876	66,641	0,085	0,062
-428,861	226,454	0,102	0,119
-427,846	124,586	0,034	0,030
-426,832	-110,284	-0,110	0,016
-425,817	159,466	-0,044	-0,044
-424,803	-25,875	-0,030	-0,013
-423,788	58,480	0,076	0,053
-422,773	71,945	-0,039	-0,029
-421,759	-43,092	0,127	-0,046
-420,744	181,894	0,039	-0,041
-419,730	800,000	-0,017	-0,039
-418,715	-200,000	0,005	0,088
-417,701	499,696	0,058	-0,096
-416,686	16,350	0,065	0,036
-415,671	61,725	0,041	-0,029
-414,657	-112,779	0,028	0,004
-413,642	160,831	-0,016	0,016
-412,628	-144,329	-0,062	0,004
-411,613	800,000	-0,017	0,036
-410,598	-200,000	0,007	-0,103
-409,584	-108,723	0,036	-0,005
-408,569	-123,677	0,125	0,014
-407,555	-200,000	0,001	0,013
-406,540	202,592	0,050	0,056
-405,525	-200,000	-0,004	-0,074
-404,511	257,736	-0,071	0,088
-403,496	-72,620	-0,129	0,034
-402,482	-200,000	-0,012	0,089
-401,467	800,000	-0,043	0,119
-400,452	101,706	0,118	0,099
-399,438	-11,133	-0,138	0,065
-398,423	-75,968	-0,020	0,005
-397,409	-3,059	-0,115	-0,058
-396,394	107,645	-0,130	-0,110
-395,379	-200,000	0,002	0,047
-394,365	32,226	0,147	0,090
-393,350	-200,000	0,017	0,120
-392,336	75,242	0,043	0,032
-391,321	26,997	-0,047	-0,028
-390,306	-58,216	-0,101	0,031
-389,292	496,901	-0,059	-0,098
-388,277	157,186	0,091	-0,090
-387,263	471,887	0,020	-0,032
-386,248	342,564	-0,101	-0,142
-385,233	707,417	-0,090	-0,172
-384,219	33,448	-0,015	-0,009
-383,204	-200,000	-0,009	-0,060
-382,190	-200,000	0,043	-0,153
-381,175	416,736	-0,032	-0,050
-380,160	136,281	0,097	-0,091
-379,146	-158,620	0,055	-0,002
-378,131	800,000	-0,030	-0,085
-377,117	-200,000	0,001	-0,046
-376,102	800,000	-0,050	0,106
-375,088	-148,086	0,147	0,009
-374,073	-200,000	-0,016	0,055
-373,058	-196,634	-0,103	0,000
-372,044	-200,000	-0,012	0,062
-371,029	-146,155	0,036	-0,002
-370,015	411,803	-0,033	0,051
-369,000	-63,202	-0,132	0,039
-367,985	-131,673	0,065	-0,006
-366,971	16,118	-0,131	-0,073
-365,956	7,369	-0,040	0,021
-364,942	-44,475	0,099	0,035
-363,927	800,000	0,059	0,131
-362,912	-200,000	0,040	0,170
-361,898	-9,702	-0,019	-0,009
-360,883	-85,612	0,155	-0,034
-359,869	-31,272	-0,039	0,016
-358,854	-200,000	-0,027	0,089
-357,839	183,761	0,034	-0,036
-356,825	108,453	0,084	-0,072
-355,810	800,000	0,023	0,057
-354,796	-119,369	-0,106	-0,013
-353,781	-165,181	-0,042	-0,001
-352,766	279,220	-0,043	0,055
-351,752	-200,000	-0,009	0,078
-350,737	-14,715	0,082	-0,038
-349,723	18,378	-0,057	-0,033
-348,708	560,717	-0,039	0,068
-347,693	261,787	0,020	0,024
-346,679	115,591	-0,047	0,041
-345,664	192,071	-0,058	0,063
-344,650	-171,002	-0,039	-0,001
-343,635	-53,044	0,202	0,066
-342,620	55,758	0,101	-0,070
-341,606	-9,666	-0,092	0,044
-340,591	410,014	0,043	-0,066
-339,577	-146,078	0,101	0,006
-338,562	432,301	-0,011	0,017
-337,548	800,000	0,020	0,055
-336,533	686,656	0,039	-0,073
-335,518	-200,000	-0,023	0,077
-334,504	-81,683	0,117	0,027
-333,489	800,000	-0,044	0,121
-332,475	-200,000	-0,024	-0,080
-331,460	388,542	0,084	-0,125
-330,445	-200,000	-0,019	0,129
-329,431	486,563	0,007	0,011
-328,416	39,528	-0,077	0,049
-327,402	-26,421	0,064	0,027
-326,387	-8,959	-0,049	-0,023
-325,372	-200,000	-0,000	-0,053
-324,358	256,736	-0,050	-0,062
-323,343	-22,799	0,014	0,006
-322,329	215,414	-0,054	0,061
-321,314	-14,330	0,041	0,019
-320,299	56,607	0,223	0,155
-319,285	-200,000	-0,024	0,083
-318,270	196,093	-0,106	-0,115
-317,256	185,399	0,024	-0,025
-316,241	-200,000	0,000	0,040
-315,226	-71,425	-0,151	-0,040
-314,212	246,654	0,087	0,105
-313,197	145,228	-0,074	0,071
-312,183	-113,611	0,031	0,004
-311,168	-71,562	-0,109	-0,029
-310,153	-200,000	-0,000	-0,047
-309,139	22,449	0,043	-0,025
-308,124	54,087	-0,017	0,012
-307,110	323,175	0,087	0,118
-306,095	800,000	-0,051	0,104
-305,080	-143,558	-0,062	-0,004
-304,066	-61,992	0,072	-0,021
-303,051	2,118	-0,119	0,061
-302,037	-200,000	0,003	0,043
-301,022	-200,000	0,012	0,171
-300,008	98,346	0,118	-0,097
-298,993	101,586	0,071	0,059
-297,978	-142,075	-0,130	0,009
-296,964	44,978	0,050	-0,033
-295,949	-150,618	0,098	0,005
-294,935	-129,333	-0,056	0,005
-293,920	121,878	0,141	0,125
-292,905	297,861	0,029	0,038
-291,891	800,000	-0,036	0,097
-290,876	-105,063	-0,079	0,013
-289,862	58,120	-0,035	0,024
-288,847	-200,000	0,007	0,025
-287,832	169,832	-0,087	-0,089
-286,818	67,571	0,074	-0,054
-285,803	800,000	0,028	0,060
-284,789	800,000	0,097	0,221
-283,774	-200,000	-0,016	0,163
-282,759	-89,798	0,162	0,034
-281,745	800,000	-0,036	-0,072
-280,730	81,266	-0,112	-0,086
-279,716	-67,760	0,127	0,035
-278,701	-200,000	-0,037	0,118
-277,686	34,247	0,088	0,055
-276,672	-200,000	-0,012	0,085
-275,657	-70,735	0,106	-0,028
-274,643	-200,000	0,003	0,123
-273,628	800,000	0,041	-0,110
-272,613	-92,805	-0,063	0,013
-271,599	418,509	0,060	0,092
-270,584	351,447	0,062	0,088
-269,570	30,253	-0,096	0,058
-268,555	-56,597	0,080	0,025
-267,540	-200,000	0,001	-0,080
-266,526	701,995	-0,037	-0,070
-265,511	-200,000	0,004	0,102
-264,497	-158,377	0,091	-0,004
-263,482	-200,000	0,010	0,070
-262,467	-146,348	0,169	-0,010
-261,453	800,000	0,034	0,067
-260,438	243,889	-0,120	0,144
-259,424	281,633	-0,055	0,070
-258,409	-123,462	-0,068	-0,008
-257,395	-16,626	0,036	0,016
-256,380	800,000	-0,046	0,103
-255,365	-200,000	0,032	0,267
-254,351	372,959	0,060	-0,087
-253,336	505,252	-0,088	-0,145
-252,322	427,355	0,047	-0,072
-251,307	119,276	-0,038	-0,033
-250,292	174,947	0,071	0,073
-249,278	-80,471	-0,057	0,014
-248,263	95,762	0,044	0,036
-247,249	164,883	0,069	-0,070
-246,234	-200,000	-0,017	-0,097
-245,219	-139,088	0,085	-0,006
-244,205	312,257	0,031	0,041
-243,190	356,858	-0,014	-0,019
-242,176	63,941	0,089	-0,064
-241,161	-80,353	-0,005	0,001
-240,146	-50,458	-0,111	-0,037
-239,132	-109,540	0,138	-0,021
-238,117	-200,000	-0,008	-0,149
-237,103	800,000	0,023	-0,048
-236,088	-200,000	-0,014	-0,201
-235,073	-200,000	0,026	0,163
-234,059	12,171	-0,106	0,058
-233,044	-200,000	0,014	0,117
-232,030	-37,733	-0,107	-0,040
-231,015	800,000	-0,047	-0,099
-230,000	-177,811	-0,079	-0,001
-228,986	702,134	0,051	-0,096
-227,971	20,690	0,100	-0,057
-226,957	800,000	0,055	0,156
-225,942	61,700	0,044	0,031
-224,927	69,118	0,124	-0,091
-223,913	-43,538	0,022	0,008
-222,898	-116,285	-0,087	-0,011
-221,884	-125,690	0,044	-0,005
-220,869	-200,000	0,017	0,137
-219,855	-200,000	0,035	0,111
-218,840	-200,000	0,018	0,071
-217,825	280,783	-0,030	0,038
-216,811	-50,825	-0,107	-0,036
-215,796	-88,860	0,085	-0,018
-214,782	4,873	0,044	-0,023
-213,767	800,000	-0,046	0,116
-212,752	-107,449	0,211	0,033
-211,738	562,619	-0,033	0,057
-210,723	57,426	0,044	0,030
-209,709	-200,000	0,001	-0,127
-208,694	-14,566	-0,130	-0,059
-207,679	-62,130	-0,015	-0,004
-206,665	251,286	-0,070	-0,085
-205,650	239,939	0,033	-0,039
-204,636	800,000	0,050	-0,126
-203,621	-42,641	0,034	0,012
-202,606	-200,000	-0,009	-0,040
-201,592	-166,908	-0,095	-0,003
-200,577	-200,000	0,000	-0,140
-199,563	89,503	0,064	-0,051
-198,548	-200,000	-0,007	0,030
-197,533	463,238	0,059	-0,094
-196,519	-200,000	-0,015	0,066
-195,504	800,000	-0,038	0,107
-194,490	-32,599	-0,131	-0,052
-193,475	800,000	0,061	0,121
-192,460	19,018	-0,132	-0,075
-191,446	181,553	0,100	0,105
-190,431	682,884	-0,052	0,097
-189,417	-16,401	0,092	0,041
-188,402	122,513	-0,047	0,042
-187,387	-200,000	0,018	-0,089
-186,373	263,784	-0,046	-0,056
-185,358	-30,024	-0,188	-0,076
-184,344	-200,000	0,000	0,004
-183,329	-94,201	0,080	-0,015
-182,315	53,474	0,103	0,070
-181,300	-37,211	0,077	-0,029
-180,285	-200,000	-0,013	-0,090
-179,271	800,000	-0,039	-0,112
-178,256	800,000	-0,034	-0,069
-177,242	-25,234	0,039	0,016
-176,227	-200,000	0,011	0,064
-175,212	-200,000	0,048	0,150
-174,198	-111,709	-0,094	-0,013
-173,183	-88,891	-0,038	-0,008
-172,169	308,098	-0,081	-0,107
-171,154	-43,749	-0,131	-0,046
-170,139	123,963	-0,110	-0,098
-169,125	-111,946	0,102	0,014
-168,110	-200,000	-0,017	-0,120
-167,096	800,000	-0,058	-0,124
-166,081	-200,000	0,030	-0,123
-165,066	-200,000	-0,020	-0,160
-164,052	-200,000	-0,003	-0,043
-163,037	-200,000	-0,005	-0,051
-162,023	728,504	0,052	-0,098
-161,008	173,517	-0,135	-0,138
-159,993	800,000	-0,013	0,032
-158,979	111,808	-0,072	-0,062
-157,964	592,133	-0,018	0,032
-156,950	-25,392	0,053	-0,022
-155,935	45,334	0,030	-0,019
-154,920	-3,839	-0,027	0,013
-153,906	45,852	0,116	0,076
-152,891	-200,000	0,016	-0,051
-151,877	290,632	-0,076	-0,098
-150,862	25,196	-0,099	0,058
-149,847	-77,620	-0,194	0,047
-148,833	-107,583	0,084	0,013
-147,818	57,260	0,061	0,042
-146,804	105,524	0,044	0,037
-145,789	30,990	-0,102	-0,062
-144,775	-62,592	0,056	0,016
-143,760	-71,806	-0,133	-0,035
-142,745	-156,957	0,051	-0,002
-141,731	800,000	-0,053	0,113
-140,716	-200,000	0,003	0,053
-139,702	474,108	0,048	-0,076
-138,687	-200,000	-0,003	-0,012
-137,672	-200,000	0,001	0,087
-136,658	-200,000	-0,020	-0,090
-135,643	192,294	-0,110	-0,118
-134,629	438,018	0,059	-0,092
-133,614	-200,000	0,048	0,181
-132,599	-29,346	-0,136	0,055
-131,585	-200,000	-0,011	0,042
-130,570	-200,000	-0,001	-0,041
-129,556	-58,108	-0,132	0,040
-128,541	215,674	0,024	-0,027
-127,526	800,000	0,021	-0,050
-126,512	75,146	0,071	-0,053
-125,497	800,000	-0,074	0,207
-124,483	-92,113	0,058	-0,012
-123,468	-101,738	-0,108	0,018
-122,453	338,358	-0,053	-0,074
-121,439	262,897	-0,098	-0,121
-120,424	-200,000	0,015	0,138
-119,410	-200,000	-0,003	0,071
-118,395	227,344	0,079	0,092
-117,380	-48,060	-0,088	-0,030
-116,366	-200,000	0,013	-0,087
-115,351	10,896	-0,084	0,046
-114,337	800,000	-0,029	0,067
-113,322	232,399	0,037	-0,043
-112,307	496,984	0,042	-0,068
-111,293	-200,000	-0,007	0,043
-110,278	-124,321	0,105	0,011
-109,264	-200,000	-0,006	0,040
-108,249	373,491	-0,061	0,088
-107,234	-55,002	-0,162	0,051
-106,220	-200,000	-0,007	0,091
-105,205	-200,000	-0,018	0,109
-104,191	-91,015	-0,101	0,020
-103,176	-99,927	-0,199	-0,035
-102,162	182,475	0,082	-0,086
-101,147	-23,133	0,107	0,046
-100,132	-67,482	-0,094	-0,026
-99,118	746,694	0,012	-0,022
-98,103	113,984	-0,015	-0,013
-97,089	800,000	0,033	-0,072
-96,074	41,154	0,085	0,055
-95,059	-200,000	-0,003	0,077
-94,045	-153,341	0,049	0,002
-93,030	-200,000	0,002	-0,097
-92,016	-129,713	-0,045	-0,004
-91,001	-89,179	0,084	-0,017
-89,986	491,256	0,024	0,039
-88,972	110,089	-0,020	0,017
-87,957	5,167	0,045	-0,024
-86,943	800,000	0,018	-0,049
-85,928	800,000	-0,050	-0,125
-84,913	-187,196	0,145	-0,001
-83,899	-200,000	0,009	-0,039
-82,884	-31,062	0,055	-0,022
-81,870	-46,747	0,097	-0,033
-80,855	-200,000	0,002	0,063
-79,840	-2,368	0,048	0,024
-78,826	-3,158	-0,086	0,042
-77,811	160,801	-0,032	0,032
-76,797	587,178	-0,013	-0,023
-75,782	800,000	0,021	0,045
-74,767	-200,000	0,017	0,086
-73,753	97,068	0,068	0,055
-72,738	139,434	0,054	0,050
-71,724	-6,217	-0,099	0,048
-70,709	151,324	-0,102	-0,098
-69,694	184,611	0,034	-0,036
-68,680	163,058	0,098	0,098
-67,665	248,753	0,056	0,067
-66,651	67,009	0,011	0,008
-65,636	356,557	-0,090	0,127
-64,622	164,958	-0,166	0,166
-63,607	-200,000	-0,041	-0,139
-62,592	-200,000	-0,024	0,075
-61,578	-92,051	-0,160	0,032
-60,563	48,196	-0,022	0,015
-59,549	-200,000	-0,026	0,157
-58,534	8,869	-1,615	-0,858
-57,519	405,179	-1,418	-2,120
-56,505	-200,000	-0,243	-4,465
-55,490	249,174	0,921	1,105
-54,476	800,000	4,958	11,313
-53,461	-200,000	19,323	324,218
-52,446	-200,000	739,581	2334,048
-51,432	572,872	1651,387	2855,774
-50,417	77,700	1666,525	1253,162
-49,403	20,934	1539,723	879,723
-48,388	14,779	1462,505	805,795
-47,373	18,207	1452,576	816,782
-46,359	16,712	1442,448	803,922
-45,344	13,040	1437,898	783,841
-44,330	12,971	1435,988	782,441
-43,315	12,944	1434,401	781,414
-42,300	12,954	1432,444	780,367
-41,286	13,007	1431,343	779,986
-40,271	12,935	1430,044	778,905
-39,257	12,918	1428,833	778,136
-38,242	12,979	1427,340	777,579
-37,227	12,971	1426,405	777,004
-36,213	13,024	1424,749	776,320
-35,198	13,005	1423,655	775,605
-34,184	13,033	1422,838	775,260
-33,169	12,995	1421,353	774,241
-32,154	13,031	1420,282	773,796
-31,140	13,024	1419,090	773,082
-30,125	13,104	1417,991	772,832
-29,111	13,039	1416,935	771,919
-28,096	12,997	1415,958	771,159
-27,082	12,935	1414,982	770,306
-26,067	12,961	1413,913	769,815
-25,052	12,955	1412,721	769,106
-24,038	12,945	1411,593	768,413
-23,023	12,943	1410,691	767,884
-22,009	12,924	1409,703	767,226
-20,994	12,874	1408,898	766,523
-19,979	12,922	1407,933	766,193
-18,965	12,871	1406,978	765,406
-17,950	12,857	1406,033	764,794
-16,936	12,903	1405,136	764,489
-15,921	12,889	1404,006	763,779
-14,906	12,876	1403,167	763,232
-13,892	12,851	1402,222	762,573
-12,877	12,875	1401,457	762,240
-11,863	12,827	1400,470	761,449
-10,848	12,827	1399,656	760,975
-9,833	12,824	1398,876	760,506
-8,819	12,785	1397,901	759,766
-7,804	12,770	1397,145	759,256
-6,790	12,750	1395,953	758,485
-5,775	12,787	1394,802	758,002
-4,760	12,773	1393,937	757,436
-3,746	12,785	1392,998	756,952
-2,731	12,745	1392,273	756,341
-1,717	12,715	1391,404	755,699
-0,702	12,728	1389,479	754,687
0,313	16,834	1306,056	728,233
1,327	33,338	700,796	428,667
2,342	51,686	122,586	82,203
3,356	1,591	16,736	8,479
4,371	13,164	3,137	1,710
5,386	28,143	0,667	0,397
6,400	-200,000	-0,067	0,249
7,415	179,099	-0,195	-0,202
8,429	38,809	-0,291	-0,183
9,444	19,919	-0,302	-0,171
10,459	-9,142	-0,314	-0,148
11,473	-139,268	-0,168	-0,013
12,488	84,953	-0,229	-0,177
13,502	189,585	-0,259	-0,275
14,517	-67,364	-0,379	-0,104
15,531	163,357	-0,374	-0,371
16,546	141,678	-0,387	-0,362
17,561	56,258	-0,305	-0,209
18,575	32,724	-0,095	-0,058
19,590	57,115	-0,249	-0,171
20,604	-1,394	-0,155	-0,077
21,619	41,796	-0,539	-0,344
22,634	72,725	-0,537	-0,394
23,648	101,411	-0,394	-0,324
24,663	250,001	-0,289	-0,346
25,677	86,909	-0,301	-0,234
26,692	257,046	-0,311	-0,377
27,707	29,507	-0,324	-0,194
28,721	193,140	-0,300	-0,320
29,736	39,977	-0,408	-0,257
30,750	76,861	-0,464	-0,346
31,765	276,581	-0,249	-0,312
32,780	122,580	-0,341	-0,300
33,794	98,279	-0,266	-0,215
34,809	19,564	-0,392	-0,222
35,823	285,751	-0,231	-0,293
36,838	11,081	-0,325	-0,174
37,853	165,304	-0,325	-0,323
38,867	64,677	-0,364	-0,258
39,882	148,711	-0,299	-0,284
40,896	68,213	-0,373	-0,269
41,911	408,694	-0,219	-0,327
42,926	130,359	-0,281	-0,253
43,940	89,621	-0,314	-0,246
44,955	46,649	-0,434	-0,283
45,969	196,171	-0,313	-0,335
46,984	82,408	-0,440	-0,335
47,999	660,344	-0,140	-0,255
49,013	-3,235	-0,395	-0,193
50,028	44,667	-0,223	-0,144
51,042	-4,433	-0,332	-0,161
52,057	-27,841	-0,506	-0,205
53,071	269,477	-0,267	-0,331
54,086	84,811	-0,322	-0,248
55,101	20,717	-0,270	-0,153
56,115	102,478	-0,202	-0,166
57,130	-17,838	-0,417	-0,183
58,144	165,868	-0,375	-0,373
59,159	39,881	-0,512	-0,323
60,174	314,119	-0,303	-0,402
61,188	56,912	-0,375	-0,256
62,203	29,404	-0,378	-0,225
63,217	-57,387	-0,409	-0,125
64,232	-66,855	-0,317	-0,087
65,247	2,426	-0,455	-0,230
66,261	220,530	-0,287	-0,323
67,276	83,684	-0,313	-0,239
68,290	-61,878	-0,435	-0,127
69,305	2,364	-0,513	-0,260
70,320	42,381	-0,365	-0,232
71,334	-16,168	-0,312	-0,138
72,349	-73,285	-0,299	-0,076
73,363	53,351	-0,384	-0,258
74,378	90,698	-0,366	-0,288
75,393	91,059	-0,363	-0,286
76,407	176,603	-0,256	-0,261
77,422	-2,763	-0,268	-0,131
78,436	-0,944	-0,328	-0,162
79,451	261,601	-0,281	-0,343
80,466	112,476	-0,356	-0,302
81,480	18,593	-0,380	-0,213
82,495	-92,966	-0,472	-0,091
83,509	-135,514	-0,335	-0,028
84,524	-57,010	-0,320	-0,098
85,539	-82,816	-0,278	-0,062
86,553	-109,158	-0,314	-0,046
87,568	75,694	-0,290	-0,214
88,582	111,724	-0,349	-0,296
89,597	-24,800	-0,305	-0,126
90,611	73,623	-0,316	-0,231
91,626	511,156	-0,128	-0,210
92,641	57,628	-0,333	-0,228
93,655	147,345	-0,162	-0,153
94,670	93,620	-0,233	-0,185
95,684	65,146	-0,297	-0,210
96,699	-62,241	-0,278	-0,081
97,714	-9,511	-0,215	-0,100
98,728	291,449	-0,235	-0,301
99,743	-13,866	-0,274	-0,123
100,757	-127,267	-0,308	-0,031
101,772	85,173	-0,205	-0,157
102,787	101,946	-0,233	-0,190
103,801	-57,771	-0,512	-0,156
104,816	116,177	-0,344	-0,295
105,830	105,020	-0,200	-0,165
106,845	55,818	-0,134	-0,091
107,860	-7,276	-0,298	-0,141
108,874	143,314	-0,291	-0,271
109,889	96,383	-0,369	-0,295
110,903	-32,799	-0,208	-0,081
111,918	49,811	-0,304	-0,200
112,933	326,385	-0,141	-0,190
113,947	51,168	-0,130	-0,086
114,962	16,520	-0,246	-0,136
115,976	6,583	-0,381	-0,198
116,991	23,683	-0,259	-0,149
118,006	17,915	-0,271	-0,150
119,020	336,767	-0,111	-0,152
120,035	44,088	-0,222	-0,142
121,049	5,406	-0,229	-0,117
122,064	-122,807	-0,222	-0,025
123,079	-133,799	-0,295	-0,025
124,093	25,602	-0,222	-0,129
125,108	124,237	-0,267	-0,235
126,122	-112,283	-0,180	-0,025
127,137	351,706	-0,142	-0,197
128,151	-104,639	-0,191	0,030
129,166	265,873	-0,102	0,125
130,181	-47,499	-0,316	-0,107
131,195	60,126	-0,410	-0,283
132,210	94,152	-0,325	-0,257
133,224	322,432	-0,192	-0,256
134,239	111,435	-0,279	-0,235
135,254	800,000	-0,069	-0,181
136,268	83,846	-0,078	-0,060
137,283	42,407	-0,222	-0,141
138,297	-32,224	-0,267	-0,103
139,312	59,845	-0,208	-0,143
140,327	-30,023	-0,257	-0,102
141,341	-80,449	-0,100	0,023
142,356	127,487	-0,194	-0,172
143,370	53,909	-0,235	-0,157
144,385	216,286	-0,208	-0,231
145,400	11,911	-0,287	-0,153
146,414	63,206	-0,266	-0,185
147,429	199,161	-0,274	-0,293
148,443	-68,377	-0,218	-0,059
149,458	59,543	-0,251	-0,172
150,473	123,078	-0,177	-0,154
151,487	282,454	-0,194	-0,243
152,502	296,861	-0,274	-0,352
153,516	62,431	-0,235	-0,163
154,531	-98,925	-0,244	-0,043
155,546	175,624	-0,229	-0,231
156,560	33,749	-0,270	-0,163
157,575	82,687	-0,169	-0,128
158,589	-57,316	-0,263	-0,080
159,604	8,981	-0,267	-0,140
160,619	13,078	-0,380	-0,204
161,633	140,815	-0,176	-0,162
162,648	152,802	-0,237	-0,226
163,662	-63,316	-0,228	-0,065
164,677	205,884	-0,172	-0,187
165,692	-50,052	-0,225	-0,074
166,706	252,914	-0,177	-0,210
167,721	100,574	-0,282	-0,228
168,735	15,712	-0,246	-0,134
169,750	327,436	-0,085	-0,114
170,764	63,408	-0,250	-0,174
171,779	-49,730	-0,232	-0,076
172,794	163,330	-0,226	-0,222
173,808	139,494	-0,181	-0,166
174,823	21,384	-0,166	-0,094
175,837	177,727	-0,159	-0,161
176,852	-0,419	-0,290	-0,143
177,867	77,110	-0,292	-0,215
178,881	127,102	-0,279	-0,246
179,896	510,713	-0,043	-0,070
180,910	800,000	-0,101	-0,224
181,925	800,000	-0,108	-0,271
182,940	458,380	-0,170	-0,264
183,954	66,026	-0,257	-0,181
184,969	-23,979	-0,187	-0,078
185,983	141,453	-0,153	-0,141
186,998	-55,351	-0,225	0,070
188,013	-25,159	-0,204	-0,083
189,027	800,000	-0,210	-0,423
190,042	-59,392	-0,284	-0,084
191,056	133,032	-0,358	-0,321
192,071	260,450	-0,097	-0,117
193,086	-200,000	0,000	-0,041
194,100	800,000	-0,064	-0,153
195,115	125,748	-0,090	-0,079
196,129	-72,330	-0,214	-0,055
197,144	166,918	-0,221	-0,217
198,159	112,452	-0,227	-0,191
199,173	177,398	-0,244	-0,246
200,188	494,138	-0,104	-0,166
201,202	70,718	-0,238	-0,171
202,217	144,146	-0,120	-0,111
203,232	330,650	-0,126	-0,169
204,246	164,738	-0,190	-0,186
205,261	800,000	-0,167	-0,335
206,275	-53,647	-0,330	-0,104
207,290	-12,567	-0,178	-0,080
208,304	-35,051	-0,190	-0,071
209,319	54,761	-0,195	-0,130
210,334	68,710	-0,263	-0,187
211,348	-68,301	-0,333	-0,089
212,363	68,006	-0,278	-0,197
213,377	-134,399	-0,226	0,019
214,392	-64,515	-0,179	-0,050
215,407	75,609	-0,193	-0,141
216,421	-125,802	-0,211	-0,022
217,436	146,813	-0,281	-0,262
218,450	207,224	-0,182	-0,197
219,465	140,447	-0,118	-0,108
220,480	675,042	-0,148	-0,268
221,494	216,595	-0,101	-0,111
222,509	-200,000	0,036	-0,181
223,523	-36,557	-0,249	-0,092
224,538	-126,226	-0,160	0,016
225,553	199,156	-0,274	-0,291
226,567	17,238	-0,257	-0,141
227,582	-200,000	-0,039	-0,247
228,596	800,000	-0,087	-0,169
229,611	-139,722	-0,153	-0,011
230,626	30,492	-0,170	-0,100
231,640	103,832	-0,137	-0,111
232,655	46,896	-0,295	-0,190
233,669	-11,810	-0,364	-0,165
234,684	57,485	-0,261	-0,176
235,699	54,154	-0,224	-0,149
236,713	84,167	-0,156	-0,118
237,728	21,024	-0,177	-0,099
238,742	-200,000	-0,037	-0,165
239,757	45,345	-0,267	-0,170
240,772	-40,201	-0,258	-0,092
241,786	92,953	-0,263	-0,205
242,801	41,307	-0,128	-0,080
243,815	6,745	-0,111	-0,057
244,830	-133,519	-0,163	-0,014
245,844	292,943	-0,139	-0,176
246,859	76,575	-0,171	-0,125
247,874	350,335	-0,093	-0,127
248,888	162,399	-0,162	-0,157
249,903	293,377	-0,120	-0,152
250,917	-128,452	-0,286	-0,028
251,932	-135,381	-0,243	-0,020
252,947	49,277	-0,134	-0,087
253,961	800,000	-0,082	-0,164
254,976	191,077	-0,214	-0,222
255,990	-110,192	-0,182	-0,026
257,005	-168,665	-0,194	-0,005
258,020	-11,713	-0,163	-0,073
259,034	46,858	-0,075	-0,048
260,049	-83,686	-0,222	-0,049
261,063	-76,402	-0,139	-0,034
262,078	365,278	-0,206	-0,288
263,093	-38,452	-0,162	-0,059
264,107	-85,601	-0,247	-0,053
265,122	247,356	-0,180	-0,210
266,136	20,959	-0,126	-0,070
267,151	-1,533	-0,274	-0,133
268,166	24,643	-0,098	-0,056
269,180	28,871	-0,198	-0,115
270,195	-151,550	-0,182	-0,009
271,209	800,000	-0,118	-0,273
272,224	-53,844	-0,146	-0,046
273,239	20,397	-0,171	-0,095
274,253	-122,790	-0,057	0,006
275,268	-25,264	-0,243	-0,099
276,282	-116,138	-0,243	-0,031
277,297	-140,243	-0,176	-0,013
278,312	237,060	-0,138	-0,157
279,326	-199,490	-0,161	-0,001
280,341	800,000	-0,082	-0,176
281,355	-4,642	-0,183	-0,087
282,370	-20,616	-0,204	-0,086
283,384	112,767	-0,167	-0,140
284,399	-156,971	-0,236	-0,010
285,414	200,351	-0,256	-0,271
286,428	258,259	-0,177	-0,211
287,443	55,347	-0,134	-0,089
288,457	16,319	-0,218	-0,118
289,472	-103,474	-0,156	-0,025
290,487	-114,797	-0,155	-0,020
291,501	271,212	-0,146	-0,178
292,516	169,009	-0,140	-0,138
293,530	82,964	-0,166	-0,124
294,545	38,431	-0,178	-0,109
295,560	72,255	-0,079	-0,056
296,574	-78,879	-0,103	-0,024
297,589	-6,932	-0,201	-0,094
298,603	41,319	-0,146	-0,091
299,618	800,000	-0,080	-0,173
300,633	686,184	-0,062	-0,111
301,647	-200,000	-0,041	-0,168
302,662	-114,261	-0,089	-0,012
303,676	280,185	-0,083	-0,103
304,691	501,610	-0,079	-0,126
305,706	170,714	-0,141	-0,139
306,720	345,114	-0,177	-0,240
307,735	800,000	-0,131	-0,254
308,749	-69,971	-0,287	-0,075
309,764	240,590	-0,143	-0,164
310,779	227,867	-0,137	-0,154
311,793	262,952	-0,077	-0,092
312,808	-61,537	-0,085	-0,024
313,822	176,921	-0,179	-0,179
314,837	284,169	-0,134	-0,166
315,852	499,932	-0,036	-0,056
316,866	71,638	-0,157	-0,112
317,881	-200,000	-0,002	-0,076
318,895	257,223	-0,133	-0,157
319,910	-200,000	-0,060	-0,226
320,925	164,998	-0,183	-0,178
321,939	-200,000	-0,062	-0,206
322,954	800,000	-0,106	-0,212
323,968	-96,511	-0,158	-0,028
324,983	8,006	-0,187	-0,096
325,997	314,293	-0,075	-0,097
327,012	80,401	-0,188	-0,139
328,027	117,718	-0,089	0,076
329,041	-200,000	-0,195	-0,000
330,056	375,560	-0,081	-0,114
331,070	-152,419	-0,106	0,005
332,085	800,000	-0,100	-0,216
333,100	800,000	-0,067	-0,131
334,114	-200,000	-0,198	0,000
335,129	237,232	-0,116	-0,132
336,143	505,384	-0,042	-0,067
337,158	800,000	-0,023	-0,046
338,173	-200,000	-0,036	-0,186
339,187	-6,222	-0,208	-0,097
340,202	200,648	-0,122	-0,129
341,216	-88,266	-0,129	0,026
342,231	124,081	-0,134	-0,116
343,246	-28,860	-0,188	-0,074
344,260	-90,556	-0,160	0,032
345,275	-93,285	-0,091	0,017
346,289	-150,286	-0,207	0,011
347,304	-44,990	-0,258	0,088
348,319	74,794	-0,202	-0,145
349,333	250,031	-0,172	-0,200
350,348	294,840	-0,113	-0,142
351,362	13,046	-0,111	0,059
352,377	95,801	-0,030	-0,023
353,392	-35,346	-0,097	-0,036
354,406	-19,939	-0,151	-0,064
355,421	209,418	1313,979	1411,530
356,435	161,178	1474,621	1412,035
