DTS Sentinel unit serial number:	SN410029Multiplexer serial number:	ORYXHardware model number:	OX2-SRSoftware version number:	ORYX F/W v4,00 Oryx Data Collector v3.7.2.0data status	okinstallation	B3 Nyhavnadifferential loss correction	single-endedforward channel	channel 1reverse channel	N/Adate	2023/12/04time	16:52:30forward acquisition time	300,00reverse acquisition time	0,00gamma	499,1914k internal	0,3200k external	0,3200temperature offset calibration	1,0000default loss term (dB/km)	0,3820temperature slope calibration	1,0000multiplexer offset coefficient	1,0000multiplexer slope coefficient	1,0000fibre end	0,00T internal ref (°C)	15,18T ext. ref 1 (°C)	0,13T ext. ref 2 (°C)	0,13length (m)	temperature (°C)	Stokes	anti-Stokes-744,400	-200,000	-0,064	-0,340
-743,385	-200,000	0,003	0,311
-742,371	-69,527	-0,247	-0,068
-741,356	-200,000	0,006	0,323
-740,342	85,702	-0,283	-0,226
-739,327	583,592	0,083	0,150
-738,312	154,426	-0,198	-0,198
-737,298	800,000	-0,101	0,229
-736,283	55,192	-0,256	-0,180
-735,269	800,000	0,140	0,291
-734,254	142,592	-0,233	-0,225
-733,239	220,261	-0,137	0,160
-732,225	800,000	-0,137	-0,287
-731,210	-200,000	0,005	0,175
-730,196	90,663	-0,076	0,061
-729,181	-37,131	-0,101	-0,039
-728,167	-200,000	0,002	-0,028
-727,152	264,695	0,075	0,095
-726,137	707,095	-0,036	-0,069
-725,123	-4,940	0,065	0,032
-724,108	-121,402	0,073	0,009
-723,094	-200,000	0,009	-0,125
-722,079	49,926	-0,119	-0,081
-721,064	190,186	-0,093	0,101
-720,050	-200,000	0,003	-0,079
-719,035	3,865	-0,026	0,014
-718,021	-163,479	-0,061	0,002
-717,006	175,565	-0,043	-0,045
-715,991	28,719	-0,118	-0,073
-714,977	61,606	0,036	-0,026
-713,962	-4,744	-0,094	0,047
-712,948	-137,715	-0,193	0,015
-711,933	339,936	-0,107	-0,152
-710,918	800,000	0,004	0,009
-709,904	-200,000	-0,004	-0,032
-708,889	-200,000	0,016	-0,093
-707,875	-72,618	-0,090	0,024
-706,860	-200,000	0,001	-0,003
-705,845	800,000	-0,033	0,070
-704,831	-77,593	-0,093	0,023
-703,816	258,085	0,119	-0,150
-702,802	-155,443	0,053	-0,002
-701,787	682,972	0,057	-0,109
-700,772	-200,000	0,003	-0,077
-699,758	-200,000	0,018	0,056
-698,743	232,603	0,022	0,027
-697,729	10,667	-0,099	0,055
-696,714	33,720	0,044	-0,028
-695,699	800,000	0,043	0,134
-694,685	470,649	-0,004	0,006
-693,670	800,000	-0,036	-0,076
-692,656	319,268	0,067	-0,093
-691,641	112,142	-0,110	-0,096
-690,627	59,687	0,155	0,111
-689,612	138,479	0,055	0,052
-688,597	25,815	-0,085	0,051
-687,583	-200,000	-0,028	-0,117
-686,568	-200,000	-0,032	-0,163
-685,554	-122,405	-0,006	-0,001
-684,539	-200,000	-0,002	-0,030
-683,524	-134,322	0,038	0,003
-682,510	-16,678	0,094	0,043
-681,495	-200,000	-0,013	-0,101
-680,481	652,608	0,028	-0,052
-679,466	103,864	-0,054	-0,046
-678,451	-200,000	0,057	0,248
-677,437	-166,006	0,168	0,005
-676,422	800,000	-0,012	-0,037
-675,408	-120,625	0,155	0,019
-674,393	-2,112	0,123	-0,062
-673,378	106,510	-0,068	0,058
-672,364	154,484	-0,149	-0,149
-671,349	800,000	-0,031	0,080
-670,335	62,991	0,114	0,082
-669,320	-200,000	-0,019	0,093
-668,305	241,642	-0,057	0,069
-667,291	-50,895	-0,053	-0,018
-666,276	800,000	0,015	-0,047
-665,262	404,121	0,130	-0,200
-664,247	-7,290	-0,084	0,041
-663,232	-6,675	0,069	0,034
-662,218	-200,000	-0,006	-0,094
-661,203	-200,000	-0,003	0,033
-660,189	-2,574	0,116	0,059
-659,174	-200,000	0,039	-0,148
-658,159	-69,557	-0,087	-0,024
-657,145	800,000	-0,077	-0,160
-656,130	9,375	-0,144	-0,079
-655,116	11,242	0,064	-0,035
-654,101	-104,242	0,110	-0,018
-653,086	800,000	-0,028	0,059
-652,072	561,281	0,003	-0,005
-651,057	-79,782	0,047	-0,011
-650,043	800,000	-0,057	-0,154
-649,028	-200,000	0,003	-0,058
-648,014	145,714	-0,017	0,016
-646,999	382,616	0,110	-0,165
-645,984	-36,938	0,076	-0,029
-644,970	-200,000	-0,008	-0,058
-643,955	165,927	-0,133	0,137
-642,941	253,229	0,061	-0,075
-641,926	580,496	-0,029	-0,053
-640,911	-200,000	0,009	0,093
-639,897	88,270	0,011	-0,009
-638,882	800,000	0,027	0,056
-637,868	654,133	-0,021	-0,040
-636,853	673,733	-0,016	-0,030
-635,838	800,000	0,031	0,081
-634,824	800,000	-0,047	-0,099
-633,809	463,203	-0,069	-0,112
-632,795	295,098	0,089	0,118
-631,780	-111,655	-0,095	-0,014
-630,765	-95,217	-0,056	-0,011
-629,751	-200,000	0,026	-0,104
-628,736	-84,293	0,062	0,014
-627,722	-200,000	0,008	0,067
-626,707	15,997	0,107	-0,061
-625,692	-200,000	-0,017	0,134
-624,678	-99,425	0,121	0,022
-623,663	-120,246	0,096	-0,012
-622,649	-71,757	-0,149	-0,040
-621,634	-14,166	-0,053	-0,024
-620,619	-90,665	-0,114	0,024
-619,605	800,000	-0,027	0,080
-618,590	132,126	0,126	0,118
-617,576	353,392	0,074	0,107
-616,561	-18,186	0,082	-0,037
-615,546	-163,025	-0,052	-0,002
-614,532	-142,757	-0,160	-0,011
-613,517	800,000	-0,025	-0,056
-612,503	-200,000	-0,004	0,091
-611,488	-56,530	-0,029	-0,009
-610,474	-200,000	0,030	0,227
-609,459	109,127	0,026	-0,023
-608,444	-124,813	0,051	0,006
-607,430	84,310	-0,063	-0,050
-606,415	-200,000	0,005	0,083
-605,401	-14,813	-0,108	0,050
-604,386	-46,908	0,049	0,017
-603,371	323,209	-0,059	0,081
-602,357	-200,000	-0,028	0,120
-601,342	151,548	-0,042	0,041
-600,328	-200,000	-0,002	-0,224
-599,313	-90,099	-0,154	-0,032
-598,298	214,678	-0,006	-0,007
-597,284	-133,539	0,065	-0,006
-596,269	-200,000	-0,045	0,187
-595,255	-23,814	0,085	-0,037
-594,240	-26,531	0,106	0,045
-593,225	-141,678	-0,168	-0,012
-592,211	-132,077	-0,136	0,013
-591,196	-200,000	-0,012	-0,068
-590,182	800,000	-0,049	-0,102
-589,167	158,948	-0,108	0,109
-588,152	-200,000	-0,022	0,140
-587,138	362,780	0,087	0,126
-586,123	800,000	-0,031	0,082
-585,109	-30,641	0,032	-0,013
-584,094	-66,255	0,141	0,040
-583,079	52,768	-0,043	-0,029
-582,065	-142,703	0,149	0,010
-581,050	-155,272	0,071	0,003
-580,036	-121,025	-0,196	0,023
-579,021	-60,210	-0,217	-0,067
-578,006	146,438	0,052	-0,051
-576,992	-15,785	-0,072	-0,033
-575,977	84,418	0,059	0,047
-574,963	-25,317	0,048	0,020
-573,948	161,160	-0,089	0,090
-572,934	-59,005	-0,063	0,019
-571,919	-119,498	-0,137	0,017
-570,904	84,433	-0,118	-0,093
-569,890	-86,881	-0,061	0,013
-568,875	-128,601	0,055	-0,006
-567,861	109,864	0,077	0,066
-566,846	-117,674	0,041	0,005
-565,831	165,635	0,069	0,070
-564,817	79,298	0,092	-0,072
-563,802	293,324	-0,055	-0,073
-562,788	179,543	-0,031	0,032
-561,773	196,768	0,045	0,049
-560,758	41,698	-0,071	-0,046
-559,744	-171,167	0,076	-0,002
-558,729	-112,800	-0,105	0,015
-557,715	207,563	-0,125	0,141
-556,700	800,000	-0,029	-0,075
-555,685	-44,848	-0,099	-0,036
-554,671	800,000	0,045	0,118
-553,656	268,555	0,127	0,161
-552,642	800,000	0,025	-0,070
-551,627	-0,085	-0,093	-0,048
-550,612	411,137	0,061	-0,093
-549,598	100,614	-0,173	-0,145
-548,583	-200,000	0,001	0,041
-547,569	800,000	0,027	-0,078
-546,554	50,724	-0,073	0,050
-545,539	9,655	-0,005	0,003
-544,525	188,841	0,057	-0,062
-543,510	-165,128	0,023	-0,001
-542,496	-153,862	-0,079	0,004
-541,481	700,358	-0,044	-0,085
-540,466	58,929	-0,047	0,033
-539,452	152,696	0,087	0,086
-538,437	304,786	-0,043	-0,058
-537,423	-200,000	0,007	-0,062
-536,408	-33,583	-0,052	0,020
-535,393	-200,000	-0,026	-0,101
-534,379	800,000	0,116	-0,350
-533,364	258,651	-0,144	-0,180
-532,350	-88,287	0,076	-0,016
-531,335	343,073	-0,035	-0,050
-530,321	-200,000	-0,009	-0,083
-529,306	274,937	0,019	-0,025
-528,291	-116,179	-0,113	0,015
-527,277	-109,673	-0,187	-0,028
-526,262	800,000	0,062	-0,128
-525,248	304,384	0,061	0,082
-524,233	800,000	0,021	0,051
-523,218	-200,000	-0,006	0,137
-522,204	-21,691	-0,063	0,027
-521,189	-200,000	-0,000	-0,003
-520,175	-195,205	-0,194	-0,001
-519,160	55,562	-0,087	-0,061
-518,145	-11,447	0,016	-0,008
-517,131	0,649	0,101	0,052
-516,116	-133,699	0,119	-0,011
-515,102	-85,099	0,101	0,023
-514,087	293,798	-0,096	-0,126
-513,072	-200,000	0,009	-0,078
-512,058	-1,340	0,007	0,003
-511,043	204,946	0,064	0,072
-510,029	-200,000	-0,014	-0,075
-509,014	-200,000	0,012	-0,088
-507,999	67,060	0,110	0,081
-506,985	800,000	0,011	0,023
-505,970	130,671	-0,046	-0,043
-504,956	-108,009	0,082	0,013
-503,941	6,201	0,139	0,074
-502,926	151,492	0,157	-0,154
-501,912	-117,921	0,080	-0,010
-500,897	-200,000	-0,015	-0,070
-499,883	35,221	-0,052	0,033
-498,868	-94,490	0,132	0,026
-497,853	143,159	0,062	0,060
-496,839	-31,507	-0,108	-0,044
-495,824	30,144	0,049	0,030
-494,810	-200,000	0,020	0,072
-493,795	29,243	0,127	0,078
-492,781	60,296	-0,109	0,078
-491,766	416,062	-0,032	-0,049
-490,751	800,000	0,056	-0,115
-489,737	-200,000	0,013	-0,180
-488,722	-109,639	0,050	-0,008
-487,708	490,767	-0,047	0,077
-486,693	-16,864	0,007	0,003
-485,678	410,747	0,046	0,070
-484,664	39,916	0,031	0,020
-483,649	-200,000	-0,013	-0,193
-482,635	161,175	0,160	-0,162
-481,620	569,378	-0,037	0,065
-480,605	-200,000	0,048	0,178
-479,591	-113,675	0,042	0,006
-478,576	-118,964	-0,123	-0,015
-477,562	-200,000	0,023	-0,088
-476,547	800,000	-0,032	-0,093
-475,532	-24,667	-0,070	0,030
-474,518	744,864	0,032	-0,062
-473,503	-200,000	-0,013	0,125
-472,489	-69,814	0,082	-0,022
-471,474	-200,000	0,018	-0,106
-470,459	-98,979	-0,134	-0,024
-469,445	371,640	-0,038	0,056
-468,430	800,000	-0,005	-0,012
-467,416	800,000	-0,059	0,121
-466,401	309,176	0,054	0,072
-465,386	800,000	0,017	0,038
-464,372	701,079	0,015	0,029
-463,357	26,230	-0,128	-0,077
-462,343	468,324	0,053	-0,087
-461,328	-200,000	-0,007	-0,091
-460,313	28,942	0,142	-0,086
-459,299	-196,558	-0,103	-0,000
-458,284	248,248	0,088	-0,107
-457,270	-200,000	-0,019	-0,091
-456,255	-53,367	-0,055	0,018
-455,241	-200,000	-0,003	-0,120
-454,226	800,000	0,068	-0,146
-453,211	31,133	0,136	-0,084
-452,197	-200,000	0,024	0,085
-451,182	800,000	-0,049	0,141
-450,168	-200,000	0,184	-0,000
-449,153	349,557	-0,068	-0,097
-448,138	-196,985	-0,196	0,001
-447,124	-200,000	-0,027	0,134
-446,109	196,057	0,025	-0,027
-445,095	65,928	0,140	0,102
-444,080	-90,374	-0,015	0,003
-443,065	-186,929	-0,039	0,000
-442,051	800,000	-0,013	0,027
-441,036	672,387	-0,046	-0,086
-440,022	-32,252	-0,024	-0,010
-439,007	800,000	0,004	0,011
-437,992	-58,820	0,073	0,023
-436,978	551,498	0,051	0,088
-435,963	56,103	-0,106	-0,074
-434,949	49,014	0,095	-0,064
-433,934	-74,240	-0,135	-0,035
-432,919	28,416	-0,010	0,006
-431,905	-200,000	0,019	0,064
-430,890	44,718	0,094	0,062
-429,876	271,198	0,045	-0,057
-428,861	73,207	0,054	-0,041
-427,846	250,354	-0,030	-0,037
-426,832	-95,927	0,111	-0,021
-425,817	800,000	-0,036	-0,097
-424,803	58,235	0,147	0,103
-423,788	680,414	0,020	-0,037
-422,773	15,034	-0,087	0,049
-421,759	320,727	0,062	0,084
-420,744	-200,000	0,022	0,124
-419,730	-200,000	0,001	-0,030
-418,715	36,871	-0,092	-0,059
-417,701	-34,359	-0,066	0,026
-416,686	527,964	0,077	-0,131
-415,671	218,863	0,011	0,013
-414,657	-25,366	-0,083	-0,035
-413,642	-61,669	-0,067	0,020
-412,628	-159,668	-0,087	-0,003
-411,613	305,753	-0,045	-0,060
-410,598	-170,181	0,098	-0,002
-409,584	0,025	-0,077	0,039
-408,569	800,000	-0,045	0,109
-407,555	-160,250	0,067	-0,003
-406,540	800,000	-0,063	0,126
-405,525	-200,000	0,018	0,072
-404,511	-146,013	-0,072	-0,004
-403,496	76,911	0,077	-0,058
-402,482	-107,625	0,081	0,013
-401,467	-200,000	-0,002	-0,058
-400,452	-200,000	-0,015	-0,083
-399,438	217,619	0,078	-0,090
-398,423	-9,114	0,083	0,040
-397,409	312,049	-0,075	-0,102
-396,394	-84,341	0,080	-0,018
-395,379	-87,907	0,022	0,005
-394,365	140,316	0,061	-0,058
-393,350	800,000	0,018	-0,046
-392,336	-71,303	0,026	-0,007
-391,321	-200,000	-0,019	-0,060
-390,306	157,362	-0,040	-0,040
-389,292	800,000	0,034	0,098
-388,277	-128,610	0,167	0,017
-387,263	-200,000	-0,023	0,141
-386,248	-200,000	0,027	0,151
-385,233	63,713	-0,070	0,050
-384,219	-6,593	0,086	0,042
-383,204	768,104	0,058	-0,113
-382,190	-68,147	-0,002	0,001
-381,175	31,555	-0,095	-0,058
-380,160	800,000	0,004	-0,012
-379,146	-14,426	0,092	0,042
-378,131	174,778	-0,068	0,071
-377,117	335,016	0,058	-0,081
-376,102	-100,046	-0,118	0,021
-375,088	-118,057	-0,165	0,021
-374,073	175,247	0,006	-0,007
-373,058	-75,863	0,081	-0,020
-372,044	469,031	0,049	0,079
-371,029	-77,802	0,043	-0,011
-370,015	800,000	0,050	0,105
-369,000	80,806	-0,079	-0,061
-367,985	723,806	0,017	0,032
-366,971	41,941	-0,016	0,010
-365,956	611,133	-0,027	0,049
-364,942	-65,353	0,079	0,023
-363,927	235,927	-0,071	0,085
-362,912	-200,000	0,006	-0,020
-361,898	-61,438	-0,047	0,014
-360,883	-62,159	-0,067	-0,020
-359,869	-200,000	0,014	-0,094
-358,854	-34,999	0,132	0,052
-357,839	-200,000	0,032	0,144
-356,825	-178,103	0,162	-0,003
-355,810	98,962	-0,089	-0,074
-354,796	537,453	-0,051	-0,088
-353,781	-200,000	0,049	-0,178
-352,766	-109,861	-0,150	0,022
-351,752	-36,993	0,053	-0,020
-350,737	-200,000	-0,035	0,144
-349,723	645,473	0,008	-0,014
-348,708	-60,723	0,075	-0,023
-347,693	330,528	-0,057	-0,079
-346,679	800,000	-0,050	-0,109
-345,664	-157,744	-0,179	0,008
-344,650	-200,000	-0,002	0,033
-343,635	-142,845	0,190	0,013
-342,620	-200,000	-0,013	0,218
-341,606	3,573	-0,150	0,078
-340,591	297,207	-0,059	-0,077
-339,577	704,999	-0,079	-0,149
-338,562	134,999	-0,123	-0,115
-337,548	144,461	0,049	-0,047
-336,533	-200,000	-0,017	-0,143
-335,518	-69,622	0,104	-0,028
-334,504	383,980	0,007	-0,011
-333,489	316,432	-0,100	-0,136
-332,475	-200,000	-0,015	-0,107
-331,460	26,795	-0,042	0,025
-330,445	342,453	-0,094	0,132
-329,431	-200,000	0,004	-0,029
-328,416	800,000	0,045	-0,134
-327,402	673,098	0,043	0,080
-326,387	-131,662	-0,024	-0,002
-325,372	-116,277	-0,069	0,009
-324,358	-88,420	-0,118	0,025
-323,343	800,000	0,012	0,038
-322,329	-102,376	-0,020	-0,003
-321,314	-200,000	0,018	0,083
-320,299	-200,000	-0,030	0,098
-319,285	299,993	-0,117	0,155
-318,270	-154,674	-0,134	0,006
-317,256	-200,000	-0,011	0,089
-316,241	383,975	-0,032	-0,047
-315,226	-82,568	0,048	0,011
-314,212	595,143	0,100	0,178
-313,197	-200,000	-0,038	0,136
-312,183	-57,471	-0,079	0,025
-311,168	-112,964	0,088	0,012
-310,153	-200,000	-0,006	-0,072
-309,139	800,000	0,022	-0,063
-308,124	285,148	0,046	0,060
-307,110	49,234	0,017	-0,012
-306,095	137,794	0,109	0,102
-305,080	800,000	0,015	-0,033
-304,066	-200,000	-0,019	-0,118
-303,051	277,930	0,045	-0,057
-302,037	-178,274	-0,107	0,002
-301,022	-200,000	0,013	0,064
-300,008	37,753	0,060	-0,038
-298,993	-200,000	0,020	-0,064
-297,978	-86,175	-0,059	0,013
-296,964	252,632	-0,066	-0,080
-295,949	-80,205	-0,120	-0,029
-294,935	-6,402	0,050	0,024
-293,920	-61,342	-0,078	0,023
-292,905	185,189	0,046	-0,049
-291,891	-200,000	0,003	0,027
-290,876	-70,993	-0,052	0,014
-289,862	-200,000	-0,016	0,126
-288,847	-200,000	-0,014	-0,046
-287,832	-148,207	0,068	-0,004
-286,818	-200,000	-0,013	0,110
-285,803	-154,778	0,139	-0,006
-284,789	-200,000	-0,055	-0,177
-283,774	800,000	0,034	0,068
-282,759	-129,016	0,085	-0,008
-281,745	128,549	-0,095	-0,086
-280,730	-200,000	0,002	-0,077
-279,716	257,636	0,045	-0,056
-278,701	79,114	0,125	-0,095
-277,686	800,000	0,018	0,056
-276,672	151,660	0,073	-0,071
-275,657	-200,000	0,006	0,043
-274,643	-200,000	0,024	-0,160
-273,628	186,662	-0,124	-0,132
-272,613	278,298	-0,077	-0,098
-271,599	800,000	-0,011	-0,033
-270,584	16,576	0,091	0,051
-269,570	-200,000	0,019	0,104
-268,555	-200,000	0,019	-0,130
-267,540	-200,000	-0,003	-0,068
-266,526	800,000	-0,051	-0,152
-265,511	800,000	0,033	0,068
-264,497	-44,787	0,154	-0,054
-263,482	-200,000	0,007	0,050
-262,467	-200,000	-0,008	0,057
-261,453	75,473	0,050	0,038
-260,438	-200,000	0,011	-0,058
-259,424	-200,000	0,024	-0,126
-258,409	-200,000	-0,002	-0,013
-257,395	106,916	-0,085	-0,072
-256,380	332,644	-0,054	0,074
-255,365	-200,000	-0,022	0,143
-254,351	656,394	0,052	0,096
-253,336	347,794	-0,045	0,064
-252,322	-53,515	0,205	0,066
-251,307	-23,386	-0,021	0,009
-250,292	-200,000	-0,033	0,148
-249,278	126,819	0,036	-0,033
-248,263	-158,692	-0,085	0,003
-247,249	338,336	0,080	0,112
-246,234	800,000	-0,049	-0,124
-245,219	-104,278	-0,138	-0,023
-244,205	-70,847	-0,063	-0,017
-243,190	686,884	0,080	-0,151
-242,176	437,846	0,049	-0,077
-241,161	-200,000	0,023	0,180
-240,146	-200,000	-0,002	0,231
-239,132	-84,976	0,084	-0,019
-238,117	800,000	-0,045	-0,113
-237,103	800,000	0,004	-0,013
-236,088	-14,122	0,170	0,078
-235,073	692,481	-0,067	0,126
-234,059	142,052	-0,059	0,056
-233,044	800,000	0,028	0,068
-232,030	137,442	-0,090	0,084
-231,015	65,282	0,040	-0,029
-230,000	-200,000	0,009	-0,104
-228,986	82,010	-0,020	0,015
-227,971	76,707	0,074	0,056
-226,957	-200,000	0,011	0,120
-225,942	127,989	0,136	-0,124
-224,927	-31,143	0,095	0,038
-223,913	-156,256	-0,104	-0,005
-222,898	231,490	-0,094	-0,109
-221,884	800,000	0,031	-0,067
-220,869	-6,371	0,109	-0,053
-219,855	-131,030	-0,059	0,006
-218,840	800,000	0,051	0,132
-217,825	-78,749	-0,175	-0,042
-216,811	800,000	0,027	0,066
-215,796	-200,000	0,025	0,093
-214,782	446,983	0,051	0,080
-213,767	-31,693	0,051	0,020
-212,752	-200,000	0,024	0,143
-211,738	-200,000	0,015	0,100
-210,723	-200,000	-0,009	0,126
-209,709	-200,000	0,004	0,052
-208,694	145,987	-0,042	0,040
-207,679	121,689	0,083	0,074
-206,665	-68,498	-0,022	0,006
-205,650	800,000	0,055	0,124
-204,636	-95,563	0,036	0,007
-203,621	800,000	0,056	0,142
-202,606	-200,000	0,017	-0,072
-201,592	-200,000	0,015	0,131
-200,577	601,589	-0,055	-0,097
-199,563	-200,000	0,017	-0,055
-198,548	-200,000	-0,004	0,048
-197,533	-200,000	-0,030	0,163
-196,519	35,968	-0,056	0,035
-195,504	-200,000	0,004	-0,102
-194,490	-200,000	-0,018	0,071
-193,475	179,169	0,079	-0,083
-192,460	800,000	-0,105	-0,243
-191,446	37,666	0,117	0,074
-190,431	660,240	-0,021	0,038
-189,417	-91,517	0,073	-0,015
-188,402	-200,000	0,011	0,064
-187,387	115,423	0,015	-0,013
-186,373	-200,000	-0,043	-0,172
-185,358	81,983	0,108	-0,083
-184,344	-200,000	-0,004	-0,030
-183,329	450,880	0,050	0,079
-182,315	-200,000	-0,019	0,150
-181,300	-51,395	-0,120	0,040
-180,285	-175,739	0,051	-0,001
-179,271	-200,000	-0,002	-0,050
-178,256	-63,190	0,115	-0,033
-177,242	-200,000	-0,030	0,108
-176,227	-200,000	-0,034	-0,115
-175,212	-83,880	0,191	-0,043
-174,198	31,485	-0,050	-0,030
-173,183	-104,864	-0,157	0,025
-172,169	10,408	0,082	-0,044
-171,154	617,635	-0,038	-0,068
-170,139	-31,134	-0,070	0,028
-169,125	-1,540	0,054	-0,027
-168,110	-43,947	-0,049	-0,017
-167,096	-144,018	-0,083	0,005
-166,081	608,210	0,035	-0,062
-165,066	20,929	0,063	0,036
-164,052	-87,142	0,102	-0,022
-163,037	-141,908	-0,070	-0,005
-162,023	302,303	0,083	0,110
-161,008	297,347	-0,018	-0,023
-159,993	67,045	-0,050	-0,036
-158,979	-200,000	-0,005	0,030
-157,964	-127,615	-0,096	0,010
-156,950	-112,255	-0,115	-0,016
-155,935	458,949	0,074	-0,118
-154,920	-200,000	0,014	0,121
-153,906	-200,000	-0,002	0,111
-152,891	-48,091	0,032	-0,011
-151,877	-200,000	-0,002	0,146
-150,862	-98,656	-0,075	0,014
-149,847	514,648	-0,043	-0,072
-148,833	-115,911	-0,051	0,007
-147,818	-87,072	-0,032	0,007
-146,804	800,000	-0,046	0,094
-145,789	634,725	-0,025	-0,045
-144,775	-200,000	0,013	0,082
-143,760	45,516	0,066	-0,043
-142,745	-200,000	0,025	-0,096
-141,731	271,435	0,031	-0,039
-140,716	-200,000	-0,013	0,102
-139,702	-16,972	0,089	0,040
-138,687	202,998	0,033	-0,036
-137,672	648,481	0,002	-0,004
-136,658	45,279	0,105	-0,069
-135,643	-136,319	-0,154	-0,013
-134,629	800,000	0,052	-0,144
-133,614	800,000	-0,018	-0,042
-132,599	-59,908	0,122	-0,037
-131,585	291,713	-0,036	-0,047
-130,570	-195,651	-0,076	0,000
-129,556	248,209	-0,063	-0,076
-128,541	185,222	-0,132	-0,139
-127,526	-119,817	0,017	0,002
-126,512	-2,358	0,132	-0,065
-125,497	800,000	0,029	-0,077
-124,483	67,818	-0,063	0,045
-123,468	-69,240	0,080	-0,022
-122,453	-200,000	-0,019	-0,182
-121,439	67,791	-0,114	0,083
-120,424	503,593	-0,077	-0,127
-119,410	529,505	-0,052	-0,087
-118,395	223,242	0,158	0,181
-117,380	-115,652	0,007	-0,001
-116,366	-200,000	0,023	0,163
-115,351	-200,000	-0,010	-0,046
-114,337	-200,000	0,002	-0,016
-113,322	-3,382	-0,091	-0,045
-112,307	-19,319	0,185	0,081
-111,293	358,109	-0,019	-0,027
-110,278	315,567	0,070	0,094
-109,264	-200,000	-0,015	-0,098
-108,249	-65,132	0,053	-0,015
-107,234	800,000	-0,028	0,066
-106,220	7,088	0,185	0,098
-105,205	452,877	0,067	0,106
-104,191	-200,000	0,013	0,045
-103,176	-137,425	0,077	0,006
-102,162	-81,897	-0,062	-0,014
-101,147	138,513	-0,125	0,116
-100,132	393,720	0,040	-0,059
-99,118	-52,651	0,122	-0,040
-98,103	800,000	-0,037	-0,089
-97,089	63,002	0,146	-0,103
-96,074	362,700	0,042	0,061
-95,059	-20,141	-0,162	0,071
-94,045	-200,000	-0,026	-0,108
-93,030	-126,152	-0,072	-0,008
-92,016	800,000	0,014	0,039
-91,001	-39,783	-0,045	0,017
-89,986	-200,000	-0,042	-0,155
-88,972	-82,538	0,093	0,021
-87,957	328,795	0,070	0,096
-86,943	-21,513	-0,218	0,094
-85,928	-200,000	0,007	-0,040
-84,913	128,070	0,024	-0,022
-83,899	800,000	-0,060	-0,156
-82,884	120,905	0,070	-0,062
-81,870	-63,041	-0,056	0,016
-80,855	296,034	-0,075	0,098
-79,840	-88,421	0,100	0,021
-78,826	44,583	0,118	-0,077
-77,811	143,785	-0,028	0,027
-76,797	-200,000	0,015	0,099
-75,782	-98,058	-0,053	-0,010
-74,767	52,651	0,023	0,015
-73,753	-200,000	0,011	-0,039
-72,738	-2,023	-0,038	-0,019
-71,724	-200,000	0,015	0,068
-70,709	-113,316	0,052	-0,007
-69,694	72,473	0,102	-0,076
-68,680	244,211	0,054	0,064
-67,665	-106,526	0,096	0,015
-66,651	800,000	0,036	0,093
-65,636	-97,723	-0,051	-0,009
-64,622	360,301	-0,088	-0,125
-63,607	182,326	-0,082	0,086
-62,592	-51,399	-0,060	-0,020
-61,578	-11,339	0,018	0,009
-60,563	-139,262	0,063	-0,005
-59,549	167,995	-0,046	0,046
-58,534	-93,681	-1,372	-0,266
-57,519	390,197	-1,473	-2,171
-56,505	-200,000	-0,544	-4,597
-55,490	120,156	0,896	0,787
-54,476	800,000	4,896	11,298
-53,461	-200,000	18,105	285,399
-52,446	800,000	726,477	2221,745
-51,432	554,176	1642,015	2807,771
-50,417	79,534	1664,426	1263,493
-49,403	23,084	1538,471	891,749
-48,388	17,057	1461,810	818,143
-47,373	17,881	1451,584	816,353
-46,359	17,285	1442,170	808,174
-45,344	15,298	1437,440	796,013
-44,330	15,248	1435,514	794,677
-43,315	15,258	1433,672	793,672
-42,300	15,235	1432,350	792,800
-41,286	15,274	1431,043	792,231
-40,271	15,267	1429,707	791,427
-39,257	15,254	1428,632	790,738
-38,242	15,289	1427,142	790,049
-37,227	15,343	1425,873	789,569
-36,213	15,319	1424,628	788,737
-35,198	15,221	1423,742	787,749
-34,184	15,351	1422,430	787,606
-33,169	15,219	1421,338	786,346
-32,154	15,221	1420,565	785,900
-31,140	15,301	1419,150	785,460
-30,125	15,309	1417,932	784,792
-29,111	15,267	1416,723	783,895
-28,096	15,278	1415,830	783,423
-27,082	15,245	1414,673	782,595
-26,067	15,205	1413,579	781,771
-25,052	15,245	1412,430	781,292
-24,038	15,209	1411,210	780,419
-23,023	15,194	1410,354	779,846
-22,009	15,179	1409,460	779,249
-20,994	15,141	1408,500	778,508
-19,979	15,170	1407,560	778,094
-18,965	15,139	1406,607	777,393
-17,950	15,171	1405,431	776,862
-16,936	15,142	1404,623	776,246
-15,921	15,155	1403,422	775,612
-14,906	15,122	1402,591	774,971
-13,892	15,141	1401,715	774,545
-12,877	15,120	1400,953	773,995
-11,863	15,092	1399,839	773,218
-10,848	15,078	1399,065	772,695
-9,833	15,059	1398,105	772,045
-8,819	15,071	1397,102	771,518
-7,804	15,018	1396,317	770,807
-6,790	15,014	1395,340	770,220
-5,775	15,018	1394,272	769,619
-4,760	14,993	1393,521	769,055
-3,746	15,013	1392,376	768,485
-2,731	15,006	1391,759	768,082
-1,717	15,016	1390,742	767,538
-0,702	15,030	1388,902	766,557
0,313	18,827	1308,544	739,777
1,327	35,208	707,704	438,097
2,342	54,089	125,076	85,000
3,356	2,068	16,783	8,548
4,371	9,531	3,103	1,658
5,386	-57,511	0,703	0,217
6,400	265,018	0,095	0,118
7,415	283,957	-0,192	-0,245
8,429	129,605	-0,315	-0,285
9,444	-6,908	-0,351	-0,168
10,459	-49,934	-0,326	-0,109
11,473	-19,232	-0,387	-0,169
12,488	0,831	-0,385	-0,194
13,502	29,949	-0,320	-0,192
14,517	78,990	-0,216	-0,163
15,531	39,656	-0,310	-0,196
16,546	6,026	-0,344	-0,179
17,561	87,812	-0,492	-0,385
18,575	191,183	-0,205	-0,218
19,590	800,000	-0,102	-0,257
20,604	79,905	-0,338	-0,257
21,619	170,286	-0,356	-0,360
22,634	57,206	-0,437	-0,301
23,648	84,708	-0,450	-0,348
24,663	131,052	-0,399	-0,362
25,677	23,881	-0,421	-0,245
26,692	92,599	-0,363	-0,289
27,707	88,452	-0,193	-0,151
28,721	245,210	-0,363	-0,432
29,736	274,805	-0,304	-0,381
30,750	42,638	-0,344	-0,221
31,765	14,818	-0,417	-0,230
32,780	26,146	-0,400	-0,235
33,794	36,450	-0,348	-0,216
34,809	116,788	-0,438	-0,379
35,823	123,787	-0,376	-0,333
36,838	124,712	-0,402	-0,357
37,853	190,758	-0,315	-0,335
38,867	-46,641	-0,497	-0,171
39,882	71,703	-0,299	-0,219
40,896	85,411	-0,422	-0,326
41,911	-4,795	-0,336	-0,163
42,926	305,683	-0,266	-0,350
43,940	113,021	-0,363	-0,311
44,955	-17,465	-0,379	-0,167
45,969	237,290	-0,269	-0,314
46,984	66,574	-0,355	-0,254
47,999	15,957	-0,353	-0,196
49,013	99,621	-0,195	-0,159
50,028	219,898	-0,277	-0,313
51,042	55,296	-0,315	-0,215
52,057	5,998	-0,440	-0,229
53,071	53,936	-0,341	-0,230
54,086	65,194	-0,425	-0,302
55,101	105,436	-0,280	-0,233
56,115	55,749	-0,326	-0,223
57,130	86,556	-0,388	-0,301
58,144	120,796	-0,419	-0,366
59,159	162,497	-0,290	-0,287
60,174	40,878	-0,349	-0,221
61,188	0,391	-0,458	-0,230
62,203	139,505	-0,326	-0,302
63,217	31,679	-0,285	-0,172
64,232	77,791	-0,264	-0,198
65,247	65,938	-0,356	-0,254
66,261	143,351	-0,305	-0,286
67,276	13,375	-0,260	-0,142
68,290	163,103	-0,253	-0,250
69,305	223,590	-0,232	-0,264
70,320	-76,468	-0,251	-0,062
71,334	236,532	-0,263	-0,307
72,349	47,391	-0,331	-0,217
73,363	33,879	-0,260	-0,159
74,378	106,076	-0,351	-0,292
75,393	142,463	-0,326	-0,305
76,407	266,450	-0,214	-0,263
77,422	-12,051	-0,292	-0,134
78,436	162,518	-0,219	-0,216
79,451	38,468	-0,311	-0,194
80,466	-67,192	-0,475	-0,131
81,480	297,958	-0,291	-0,377
82,495	-27,898	-0,416	-0,168
83,509	-96,312	-0,306	-0,056
84,524	189,294	-0,242	-0,255
85,539	-27,737	-0,164	-0,067
86,553	112,374	-0,297	-0,252
87,568	-38,056	-0,302	-0,112
88,582	110,091	-0,250	-0,211
89,597	-53,191	-0,485	-0,155
90,611	67,403	-0,282	-0,202
91,626	267,190	-0,148	-0,182
92,641	190,988	-0,154	-0,162
93,655	151,564	-0,262	-0,251
94,670	75,809	-0,274	-0,203
95,684	67,037	-0,331	-0,236
96,699	-16,614	-0,251	-0,111
97,714	401,072	-0,288	-0,425
98,728	168,264	-0,266	-0,266
99,743	361,126	-0,187	-0,263
100,757	149,711	-0,195	-0,185
101,772	800,000	-0,132	-0,362
102,787	102,952	-0,287	-0,235
103,801	146,063	-0,290	-0,273
104,816	161,794	-0,245	-0,241
105,830	71,318	-0,344	-0,250
106,845	57,124	-0,307	-0,209
107,860	46,057	-0,337	-0,218
108,874	-61,558	-0,348	-0,102
109,889	65,679	-0,378	-0,268
110,903	86,948	-0,269	-0,208
111,918	156,772	-0,247	-0,239
112,933	155,523	-0,216	-0,209
113,947	-39,644	-0,362	-0,132
114,962	22,743	-0,227	-0,130
115,976	106,781	-0,294	-0,244
116,991	382,193	-0,171	-0,247
118,006	-10,730	-0,370	-0,171
119,020	101,948	-0,217	-0,177
120,035	-44,422	-0,159	-0,055
121,049	112,465	-0,112	-0,095
122,064	-14,608	-0,283	-0,127
123,079	-13,712	-0,327	-0,148
124,093	573,387	-0,145	-0,249
125,108	371,767	-0,278	-0,396
126,122	57,182	-0,212	-0,145
127,137	32,276	-0,274	-0,165
128,151	-153,622	-0,214	-0,010
129,166	82,334	-0,215	-0,163
130,181	20,418	-0,287	-0,162
131,195	51,805	-0,224	-0,149
132,210	45,198	-0,379	-0,244
133,224	111,714	-0,367	-0,310
134,239	273,461	-0,175	-0,217
135,254	34,755	-0,200	-0,122
136,268	-5,660	-0,253	-0,121
137,283	88,259	-0,269	-0,208
138,297	143,290	-0,207	-0,193
139,312	353,797	-0,186	-0,259
140,327	8,539	-0,206	-0,108
141,341	465,895	-0,137	-0,215
142,356	34,006	-0,320	-0,194
143,370	-73,471	-0,249	-0,063
144,385	132,491	-0,265	-0,239
145,400	320,570	-0,122	-0,163
146,414	170,615	-0,208	-0,208
147,429	-48,281	-0,309	-0,104
148,443	17,127	-0,278	-0,154
149,458	6,791	-0,158	-0,082
150,473	135,671	-0,104	-0,094
151,487	243,499	-0,184	-0,215
152,502	70,155	-0,318	-0,229
153,516	-20,025	-0,324	-0,139
154,531	-153,417	-0,156	-0,007
155,546	-200,000	-0,220	-0,001
156,560	286,436	-0,235	-0,297
157,575	380,526	-0,133	-0,191
158,589	217,064	-0,203	-0,226
159,604	133,493	-0,304	-0,275
160,619	77,451	-0,257	-0,190
161,633	54,323	-0,251	-0,169
162,648	128,001	-0,156	-0,139
163,662	331,340	-0,211	-0,284
164,677	86,482	-0,221	-0,170
165,692	582,487	-0,054	-0,094
166,706	-6,922	-0,342	-0,162
167,721	7,100	-0,242	-0,126
168,735	-45,466	-0,260	-0,090
169,750	165,028	-0,317	-0,313
170,764	360,581	-0,204	-0,285
171,779	95,201	-0,163	-0,129
172,794	0,728	-0,138	-0,069
173,808	263,743	-0,129	-0,157
174,823	128,228	-0,244	-0,216
175,837	-16,374	-0,343	-0,151
176,852	175,126	-0,197	-0,199
177,867	20,181	-0,254	-0,142
178,881	242,870	-0,075	-0,087
179,896	91,972	-0,117	-0,092
180,910	307,460	-0,163	-0,212
181,925	304,041	-0,259	-0,336
182,940	68,137	-0,259	-0,185
183,954	2,928	-0,352	-0,177
184,969	480,630	-0,153	-0,243
185,983	307,095	-0,179	-0,233
186,998	75,559	-0,200	-0,147
188,013	309,984	-0,171	-0,223
189,027	-19,706	-0,251	-0,107
190,042	2,874	-0,208	-0,105
191,056	50,216	-0,206	-0,136
192,071	93,883	-0,177	-0,139
193,086	296,856	-0,171	-0,219
194,100	88,105	-0,226	-0,175
195,115	104,812	-0,181	-0,148
196,129	224,349	-0,202	-0,228
197,144	47,758	-0,242	-0,157
198,159	104,037	-0,187	-0,153
199,173	14,483	-0,277	-0,150
200,188	-76,250	-0,220	-0,054
201,202	411,095	-0,156	-0,232
202,217	-200,000	-0,003	0,052
203,232	800,000	-0,086	-0,223
204,246	800,000	-0,147	-0,288
205,261	21,506	-0,191	-0,107
206,275	153,584	-0,260	-0,247
207,290	178,176	-0,131	-0,133
208,304	19,839	-0,165	-0,092
209,319	33,912	-0,115	-0,070
210,334	800,000	-0,119	-0,257
211,348	182,972	-0,154	-0,158
212,363	0,851	-0,148	-0,074
213,377	105,851	-0,144	-0,118
214,392	-180,361	-0,111	-0,002
215,407	153,828	-0,200	-0,190
216,421	201,074	-0,128	-0,137
217,436	-169,949	-0,212	-0,005
218,450	21,806	-0,175	-0,099
219,465	60,302	-0,226	-0,155
220,480	66,942	-0,230	-0,162
221,494	-123,599	-0,197	-0,021
222,509	70,579	-0,186	-0,134
223,523	-125,244	-0,117	-0,012
224,538	235,202	-0,143	-0,165
225,553	275,964	-0,173	-0,213
226,567	197,146	-0,175	-0,186
227,582	74,733	-0,154	-0,113
228,596	472,464	-0,107	-0,168
229,611	573,457	-0,093	-0,159
230,626	-122,773	-0,122	0,014
231,640	105,470	-0,138	-0,113
232,655	-57,518	-0,202	-0,061
233,669	232,387	-0,162	-0,185
234,684	31,012	-0,236	-0,140
235,699	487,578	-0,083	-0,131
236,713	-141,676	-0,185	-0,013
237,728	35,390	-0,161	-0,098
238,742	757,110	-0,159	-0,301
239,757	44,487	-0,235	-0,150
240,772	154,254	-0,232	-0,221
241,786	174,796	-0,171	-0,171
242,801	148,316	-0,137	-0,128
243,815	-9,624	-0,169	-0,078
244,830	82,995	-0,079	-0,059
245,844	224,761	-0,216	-0,242
246,859	191,098	-0,171	-0,178
247,874	800,000	-0,094	-0,280
248,888	-50,008	-0,190	-0,062
249,903	-17,989	-0,300	-0,130
250,917	-90,553	-0,391	-0,078
251,932	-75,059	-0,200	-0,049
252,947	45,050	-0,306	-0,195
253,961	167,405	-0,206	-0,203
254,976	-12,598	-0,217	-0,098
255,990	215,316	-0,261	-0,287
257,005	136,675	-0,145	-0,131
258,020	74,229	-0,168	-0,122
259,034	800,000	-0,115	-0,242
260,049	-117,241	-0,233	-0,029
261,063	318,158	-0,093	-0,122
262,078	800,000	-0,103	-0,221
263,093	11,834	-0,192	-0,102
264,107	94,162	-0,231	-0,181
265,122	-200,000	-0,039	-0,139
266,136	639,707	-0,101	-0,179
267,151	265,810	-0,071	-0,085
268,166	116,679	-0,209	-0,177
269,180	231,724	-0,118	-0,134
270,195	145,954	-0,104	-0,097
271,209	367,946	-0,111	-0,155
272,224	31,496	-0,224	-0,133
273,239	-106,149	-0,229	0,035
274,253	-102,713	-0,280	0,046
275,268	11,712	-0,152	-0,081
276,282	128,845	-0,171	-0,151
277,297	35,543	-0,256	-0,155
278,312	112,403	-0,082	-0,069
279,326	-77,229	-0,132	-0,032
280,341	124,006	-0,124	-0,108
281,355	62,163	-0,105	-0,072
282,370	492,718	-0,110	-0,175
283,384	-35,809	-0,114	-0,042
284,399	176,986	-0,195	-0,196
285,414	271,470	-0,149	-0,182
286,428	800,000	0,037	-0,099
287,443	-78,160	-0,122	-0,029
288,457	68,981	-0,117	-0,083
289,472	45,279	-0,190	-0,121
290,487	17,381	-0,155	-0,085
291,501	9,596	-0,209	-0,109
292,516	800,000	-0,064	-0,184
293,530	11,321	-0,138	-0,073
294,545	-85,866	-0,094	0,020
295,560	230,874	-0,016	0,018
296,574	-24,862	-0,168	-0,068
297,589	-50,903	-0,093	0,030
298,603	-144,119	-0,222	-0,014
299,618	-15,614	-0,241	-0,105
300,633	387,789	-0,134	-0,192
301,647	658,253	-0,102	-0,182
302,662	28,875	-0,156	-0,091
303,676	-78,733	-0,064	-0,015
304,691	-156,043	-0,168	-0,007
305,706	800,000	-0,078	-0,187
306,720	37,409	-0,147	-0,090
307,735	800,000	-0,065	-0,152
308,749	800,000	-0,040	-0,120
309,764	-19,736	-0,125	-0,053
310,779	-46,798	-0,146	0,049
311,793	-45,980	-0,269	-0,091
312,808	154,767	-0,151	-0,143
313,822	-154,953	-0,200	-0,009
314,837	87,348	-0,064	0,049
315,852	465,870	-0,063	-0,098
316,866	-200,000	-0,073	-0,229
317,881	-77,298	-0,063	-0,015
318,895	272,418	-0,097	-0,118
319,910	471,602	0,017	-0,027
320,925	5,965	-0,224	-0,114
321,939	49,497	-0,190	-0,123
322,954	86,361	-0,114	-0,087
323,968	-200,000	-0,015	-0,105
324,983	-0,927	-0,225	-0,109
325,997	92,649	-0,107	-0,083
327,012	800,000	-0,072	-0,176
328,027	629,161	-0,109	-0,191
329,041	576,566	-0,094	-0,159
330,056	-55,423	-0,134	-0,041
331,070	-110,005	-0,101	-0,014
332,085	-161,890	-0,090	0,003
333,100	493,430	-0,168	-0,267
334,114	88,028	-0,138	-0,105
335,129	-90,662	-0,174	-0,034
336,143	591,718	-0,072	-0,122
337,158	187,131	-0,109	-0,111
338,173	-100,318	-0,223	0,038
339,187	52,681	-0,087	-0,057
340,202	-200,000	-0,037	-0,131
341,216	17,249	-0,118	-0,064
342,231	197,476	-0,136	-0,143
343,246	144,893	-0,187	-0,172
344,260	586,953	-0,049	-0,083
345,275	119,478	-0,139	-0,118
346,289	242,569	0,022	0,025
347,304	56,224	-0,122	-0,081
348,319	169,636	-0,129	-0,126
349,333	-100,579	-0,130	-0,022
350,348	11,237	-0,188	-0,098
351,362	67,415	-0,098	-0,068
352,377	-200,000	0,004	0,099
353,392	-97,625	-0,077	-0,014
354,406	21,560	-0,163	-0,091
355,421	208,140	1319,743	1416,769
356,435	160,135	1481,112	1417,270
