DTS Sentinel unit serial number:	SN410029Multiplexer serial number:	ORYXHardware model number:	OX2-SRSoftware version number:	ORYX F/W v4,00 Oryx Data Collector v3.7.2.0data status	okinstallation	B3 Nyhavnadifferential loss correction	single-endedforward channel	channel 1reverse channel	N/Adate	2023/12/03time	01:57:30forward acquisition time	300,00reverse acquisition time	0,00gamma	499,1914k internal	0,3200k external	0,3200temperature offset calibration	1,0000default loss term (dB/km)	0,3820temperature slope calibration	1,0000multiplexer offset coefficient	1,0000multiplexer slope coefficient	1,0000fibre end	0,00T internal ref (°C)	13,33T ext. ref 1 (°C)	-1,71T ext. ref 2 (°C)	-1,74length (m)	temperature (°C)	Stokes	anti-Stokes-744,400	141,429	-0,182	-0,176
-743,385	-200,000	0,009	0,127
-742,371	451,965	-0,148	-0,238
-741,356	-200,000	-0,077	0,339
-740,342	117,506	-0,099	-0,089
-739,327	-200,000	0,029	0,314
-738,312	504,955	-0,186	-0,315
-737,298	800,000	-0,127	0,372
-736,283	-200,000	-0,047	-0,245
-735,269	800,000	-0,070	0,183
-734,254	-102,331	-0,268	-0,046
-733,239	46,412	-0,161	0,108
-732,225	601,159	-0,133	-0,241
-731,210	-155,192	0,099	-0,005
-730,196	-151,474	0,039	0,002
-729,181	800,000	0,026	-0,082
-728,167	76,560	-0,022	-0,017
-727,152	76,511	-0,018	0,014
-726,137	-200,000	-0,004	-0,112
-725,123	12,635	-0,070	-0,039
-724,108	206,381	-0,068	-0,077
-723,094	16,616	-0,099	0,057
-722,079	-57,677	0,055	0,018
-721,064	171,660	-0,048	0,050
-720,050	113,563	0,034	-0,030
-719,035	-200,000	-0,009	0,109
-718,021	106,471	0,020	0,017
-717,006	591,433	-0,042	-0,075
-715,991	103,883	-0,200	-0,171
-714,977	-200,000	0,037	-0,132
-713,962	-200,000	-0,023	-0,088
-712,948	228,184	-0,095	-0,112
-711,933	549,767	-0,018	0,031
-710,918	800,000	0,023	0,059
-709,904	-143,927	0,008	-0,001
-708,889	-200,000	0,004	0,045
-707,875	3,282	-0,132	-0,070
-706,860	-89,370	-0,147	0,031
-705,845	-60,729	0,113	0,034
-704,831	131,807	0,083	-0,077
-703,816	-33,401	-0,146	0,058
-702,802	13,609	0,086	-0,049
-701,787	800,000	0,024	-0,056
-700,772	463,364	-0,081	-0,132
-699,758	56,955	0,055	0,039
-698,743	424,045	-0,037	-0,058
-697,729	-55,313	-0,209	0,068
-696,714	69,754	-0,068	0,051
-695,699	-134,861	0,108	0,009
-694,685	-121,489	-0,071	0,008
-693,670	294,210	-0,069	-0,092
-692,656	800,000	0,010	-0,024
-691,641	7,270	-0,106	-0,057
-690,627	800,000	-0,073	-0,151
-689,612	-166,287	-0,039	-0,001
-688,597	-157,995	0,043	-0,002
-687,583	-138,573	-0,110	-0,009
-686,568	228,345	-0,076	-0,090
-685,554	390,258	-0,070	-0,106
-684,539	-100,164	0,065	0,012
-683,524	-92,422	-0,080	-0,016
-682,510	800,000	0,050	-0,114
-681,495	800,000	0,008	0,021
-680,481	-74,103	-0,140	-0,037
-679,466	800,000	0,024	-0,064
-678,451	800,000	0,056	-0,147
-677,437	-90,696	0,048	-0,010
-676,422	-6,495	-0,028	0,014
-675,408	-48,665	-0,022	-0,008
-674,393	717,897	-0,027	0,053
-673,378	800,000	0,029	0,077
-672,364	-53,585	-0,045	0,015
-671,349	83,264	0,077	-0,061
-670,335	-6,795	0,116	-0,057
-669,320	-10,901	-0,062	-0,029
-668,305	216,247	0,091	0,105
-667,291	693,133	-0,083	0,159
-666,276	-200,000	-0,003	0,022
-665,262	-200,000	0,018	0,076
-664,247	-200,000	-0,015	0,056
-663,232	302,932	-0,088	0,118
-662,218	-1,815	0,124	-0,063
-661,203	-18,032	-0,031	0,014
-660,189	-72,812	-0,059	-0,016
-659,174	-200,000	-0,027	-0,105
-658,159	-106,324	-0,038	0,006
-657,145	108,070	-0,028	-0,024
-656,130	67,623	-0,089	-0,066
-655,116	-200,000	0,000	-0,033
-654,101	-51,309	-0,064	-0,021
-653,086	800,000	-0,021	0,066
-652,072	-80,791	-0,149	-0,036
-651,057	126,570	-0,035	0,032
-650,043	153,665	-0,026	-0,026
-649,028	-200,000	0,007	-0,086
-648,014	10,107	-0,051	-0,028
-646,999	-160,425	0,003	0,000
-645,984	-200,000	-0,011	0,100
-644,970	-200,000	-0,003	-0,010
-643,955	800,000	0,005	0,010
-642,941	-104,022	-0,023	-0,004
-641,926	-148,930	-0,163	-0,009
-640,911	800,000	-0,052	-0,106
-639,897	364,799	-0,131	0,191
-638,882	-200,000	-0,057	0,249
-637,868	-11,637	-0,050	0,024
-636,853	-200,000	-0,048	-0,201
-635,838	37,981	0,064	-0,041
-634,824	800,000	0,054	0,112
-633,809	67,581	-0,073	0,054
-632,795	119,931	-0,064	0,058
-631,780	800,000	-0,034	0,074
-630,765	-61,880	0,177	-0,053
-629,751	-200,000	0,008	0,118
-628,736	7,682	-0,105	-0,057
-627,722	-200,000	0,005	0,162
-626,707	-200,000	-0,006	0,021
-625,692	416,802	-0,026	0,041
-624,678	-87,427	0,065	-0,014
-623,663	800,000	0,021	-0,047
-622,649	-84,725	0,061	-0,014
-621,634	-82,333	-0,040	-0,009
-620,619	800,000	-0,040	-0,086
-619,605	40,906	0,052	-0,034
-618,590	-155,921	-0,101	0,005
-617,576	-104,828	0,101	-0,017
-616,561	-52,986	-0,235	-0,078
-615,546	23,856	0,020	-0,012
-614,532	-32,414	-0,111	-0,045
-613,517	-200,000	-0,018	-0,170
-612,503	-124,507	-0,089	0,010
-611,488	22,332	-0,037	-0,022
-610,474	-200,000	0,007	0,030
-609,459	-79,741	-0,067	0,016
-608,444	-200,000	-0,002	0,006
-607,430	-200,000	0,033	-0,195
-606,415	800,000	-0,035	-0,094
-605,401	-160,287	-0,154	-0,006
-604,386	379,009	0,045	0,067
-603,371	-138,244	0,123	-0,010
-602,357	39,526	0,056	-0,036
-601,342	-6,014	-0,143	-0,071
-600,328	800,000	-0,039	-0,108
-599,313	-200,000	0,000	-0,088
-598,298	-11,402	-0,092	-0,044
-597,284	161,724	-0,028	-0,028
-596,269	-117,834	-0,042	-0,005
-595,255	233,307	0,062	0,074
-594,240	-141,113	-0,089	0,006
-593,225	800,000	0,023	-0,065
-592,211	-200,000	-0,024	-0,165
-591,196	-200,000	-0,001	0,027
-590,182	409,943	-0,032	0,050
-589,167	-95,341	-0,035	0,007
-588,152	-200,000	0,006	0,212
-587,138	-59,492	-0,111	0,034
-586,123	73,499	-0,077	-0,058
-585,109	-179,914	-0,320	-0,005
-584,094	-200,000	-0,014	-0,057
-583,079	-27,216	0,095	0,040
-582,065	-200,000	-0,004	-0,067
-581,050	-200,000	-0,006	-0,086
-580,036	641,742	-0,080	-0,148
-579,021	27,063	-0,093	-0,056
-578,006	800,000	0,032	-0,095
-576,992	33,738	-0,032	-0,020
-575,977	800,000	0,031	-0,094
-574,963	606,670	-0,044	0,080
-573,948	-200,000	-0,003	-0,063
-572,934	-155,078	0,085	-0,004
-571,919	5,966	0,038	0,021
-570,904	-200,000	0,025	-0,114
-569,890	786,162	-0,013	0,027
-568,875	-96,491	0,073	-0,014
-567,861	165,566	0,065	-0,067
-566,846	-200,000	-0,015	-0,097
-565,831	-178,472	0,052	-0,001
-564,817	-46,567	-0,040	-0,014
-563,802	120,084	-0,144	-0,129
-562,788	800,000	0,082	-0,222
-561,773	800,000	0,020	-0,056
-560,758	800,000	-0,047	0,100
-559,744	185,385	0,083	0,089
-558,729	-23,608	-0,108	-0,046
-557,715	-49,216	0,045	-0,015
-556,700	343,556	0,076	0,108
-555,685	800,000	-0,016	-0,049
-554,671	491,560	-0,065	0,109
-553,656	213,861	-0,112	0,128
-552,642	800,000	0,079	-0,207
-551,627	-102,681	-0,048	0,008
-550,612	144,044	0,075	0,072
-549,598	-186,240	-0,107	0,001
-548,583	-80,541	0,085	-0,020
-547,569	521,093	0,035	-0,060
-546,554	119,755	0,079	0,071
-545,539	515,807	0,017	0,029
-544,525	800,000	0,025	0,072
-543,510	-152,429	0,077	0,004
-542,496	-168,775	-0,100	-0,003
-541,481	170,821	0,106	-0,110
-540,466	16,478	0,020	-0,011
-539,452	-200,000	-0,005	-0,069
-538,437	80,240	0,092	0,071
-537,423	800,000	0,056	0,165
-536,408	-200,000	-0,002	0,015
-535,393	-200,000	0,008	-0,070
-534,379	-166,692	-0,093	0,003
-533,364	358,418	-0,040	0,058
-532,350	800,000	0,043	0,087
-531,335	800,000	0,037	0,088
-530,321	110,662	-0,036	0,031
-529,306	-47,325	0,023	0,008
-528,291	346,968	0,020	-0,028
-527,277	54,615	-0,109	-0,076
-526,262	341,641	-0,028	0,040
-525,248	-25,248	0,054	-0,023
-524,233	-200,000	0,008	0,051
-523,218	-200,000	-0,010	-0,036
-522,204	475,519	-0,088	-0,143
-521,189	800,000	-0,063	0,150
-520,175	-29,119	-0,095	-0,039
-519,160	246,101	-0,066	-0,080
-518,145	612,443	-0,040	0,072
-517,131	-15,488	-0,073	-0,033
-516,116	65,163	0,178	0,130
-515,102	170,928	0,090	0,093
-514,087	-38,874	-0,082	-0,031
-513,072	399,102	0,052	0,078
-512,058	189,833	0,020	0,022
-511,043	-36,905	-0,059	0,023
-510,029	800,000	0,041	0,107
-509,014	-200,000	-0,007	0,073
-507,999	-104,324	-0,128	-0,021
-506,985	-200,000	0,020	-0,102
-505,970	-200,000	-0,014	-0,134
-504,956	81,530	-0,042	-0,033
-503,941	298,873	0,015	-0,020
-502,926	-200,000	0,007	0,033
-501,912	693,571	0,034	-0,064
-500,897	166,297	-0,013	0,013
-499,883	-107,346	0,058	0,009
-498,868	-74,850	-0,097	0,025
-497,853	12,984	-0,071	-0,039
-496,839	-153,895	-0,034	0,002
-495,824	800,000	0,020	0,044
-494,810	273,234	0,107	0,136
-493,795	-200,000	0,004	-0,022
-492,781	241,436	-0,054	-0,065
-491,766	99,808	0,104	0,087
-490,751	-200,000	-0,017	-0,070
-489,737	355,648	0,022	-0,032
-488,722	800,000	0,026	-0,078
-487,708	800,000	0,047	0,137
-486,693	-200,000	-0,008	0,109
-485,678	-26,703	-0,090	0,038
-484,664	-94,777	-0,118	0,023
-483,649	-162,606	-0,096	-0,003
-482,635	27,973	0,068	0,041
-481,620	264,908	0,089	0,112
-480,605	31,380	0,159	-0,098
-479,591	521,597	-0,043	0,073
-478,576	-149,084	0,082	0,005
-477,562	113,690	-0,123	0,108
-476,547	722,833	0,079	0,153
-475,532	-77,840	0,022	0,005
-474,518	-42,801	0,176	-0,064
-473,503	800,000	0,012	0,028
-472,489	-36,651	-0,125	0,048
-471,474	800,000	0,051	-0,125
-470,459	-154,148	-0,036	0,002
-469,445	85,505	-0,055	-0,043
-468,430	194,735	-0,040	-0,043
-467,416	-16,301	0,127	-0,058
-466,401	-200,000	0,019	0,179
-465,386	89,135	-0,003	0,003
-464,372	93,198	-0,065	-0,053
-463,357	87,542	-0,032	0,025
-462,343	470,569	-0,072	0,117
-461,328	-124,653	-0,025	0,003
-460,313	-12,776	-0,084	0,039
-459,299	-117,276	0,069	-0,009
-458,284	-200,000	0,034	0,113
-457,270	-200,000	0,002	0,152
-456,255	-200,000	0,007	0,080
-455,241	-60,032	-0,033	0,010
-454,226	326,684	-0,066	-0,091
-453,211	192,076	-0,043	0,046
-452,197	-24,915	0,075	-0,032
-451,182	536,584	-0,019	-0,032
-450,168	320,817	0,031	-0,043
-449,153	-94,247	-0,075	-0,015
-448,138	-107,166	-0,031	0,005
-447,124	-200,000	-0,034	0,114
-446,109	-200,000	-0,045	0,224
-445,095	-63,606	-0,082	-0,024
-444,080	498,370	0,034	-0,057
-443,065	166,129	-0,074	0,076
-442,051	-200,000	-0,017	0,057
-441,036	-178,512	-0,068	0,001
-440,022	-200,000	-0,038	-0,141
-439,007	800,000	0,006	0,017
-437,992	800,000	0,039	0,097
-436,978	290,562	-0,116	0,152
-435,963	538,734	-0,038	-0,065
-434,949	48,499	0,094	0,063
-433,934	-111,645	-0,069	0,010
-432,919	-200,000	-0,028	0,103
-431,905	-83,379	0,040	0,009
-430,890	-48,817	-0,063	0,022
-429,876	127,480	0,077	0,070
-428,861	-157,822	-0,050	0,002
-427,846	12,603	-0,144	-0,080
-426,832	47,804	0,069	-0,046
-425,817	29,423	-0,065	0,039
-424,803	-5,917	-0,031	0,015
-423,788	800,000	-0,040	-0,096
-422,773	79,639	0,060	0,047
-421,759	800,000	-0,034	0,088
-420,744	-200,000	0,020	0,069
-419,730	-52,567	0,135	-0,044
-418,715	-173,847	-0,175	-0,004
-417,701	760,287	-0,050	-0,098
-416,686	739,194	-0,035	0,067
-415,671	-108,924	0,016	0,002
-414,657	469,942	-0,047	-0,076
-413,642	-63,164	-0,106	0,031
-412,628	339,959	-0,061	-0,086
-411,613	-200,000	0,009	0,076
-410,598	0,968	0,077	-0,040
-409,584	-40,870	-0,089	-0,033
-408,569	-200,000	0,039	0,185
-407,555	521,769	-0,021	0,035
-406,540	231,420	0,080	0,094
-405,525	678,859	-0,057	0,107
-404,511	-141,279	-0,125	0,009
-403,496	-200,000	0,006	-0,098
-402,482	116,867	-0,022	0,019
-401,467	-72,964	0,028	0,007
-400,452	-101,820	0,138	0,024
-399,438	-200,000	0,033	0,126
-398,423	217,571	0,062	-0,070
-397,409	96,376	-0,099	-0,081
-396,394	163,026	0,099	-0,099
-395,379	-80,454	-0,061	0,014
-394,365	194,489	0,124	-0,136
-393,350	-200,000	-0,013	0,053
-392,336	-200,000	-0,072	0,232
-391,321	87,755	-0,050	0,039
-390,306	118,346	-0,109	-0,096
-389,292	800,000	-0,032	-0,089
-388,277	-200,000	0,053	-0,179
-387,263	800,000	0,079	-0,175
-386,248	-24,827	0,125	-0,053
-385,233	-131,819	-0,029	-0,003
-384,219	710,005	0,025	-0,047
-383,204	183,967	0,031	0,033
-382,190	439,201	0,084	-0,132
-381,175	-73,440	-0,150	0,039
-380,160	-139,874	0,114	-0,009
-379,146	-7,094	0,053	-0,025
-378,131	136,190	0,097	-0,090
-377,117	398,027	0,084	-0,126
-376,102	115,592	-0,033	-0,029
-375,088	-24,887	0,099	0,042
-374,073	225,737	0,061	-0,071
-373,058	106,343	0,035	-0,030
-372,044	-106,483	0,130	0,021
-371,029	800,000	0,075	0,160
-370,015	-200,000	-0,012	0,041
-369,000	800,000	-0,040	-0,104
-367,985	-200,000	-0,030	-0,114
-366,971	-11,624	-0,051	-0,024
-365,956	-160,177	0,030	-0,001
-364,942	-200,000	0,005	0,021
-363,927	-200,000	0,035	-0,116
-362,912	63,700	-0,131	-0,094
-361,898	6,028	-0,011	0,006
-360,883	97,247	0,047	0,039
-359,869	-200,000	0,015	-0,069
-358,854	46,748	0,074	0,049
-357,839	53,484	-0,038	-0,026
-356,825	-50,588	0,077	-0,026
-355,810	-115,676	0,134	0,018
-354,796	120,914	-0,053	0,047
-353,781	360,078	0,024	0,035
-352,766	-135,093	0,109	0,009
-351,752	5,609	-0,106	-0,056
-350,737	164,869	0,116	0,117
-349,723	-55,564	-0,071	0,023
-348,708	-159,640	0,200	0,008
-347,693	-167,002	-0,020	0,001
-346,679	-200,000	0,029	-0,176
-345,664	-59,034	0,111	-0,034
-344,650	-62,490	0,089	-0,026
-343,635	-46,570	0,051	-0,018
-342,620	-200,000	-0,001	0,112
-341,606	400,844	-0,034	0,051
-340,591	800,000	-0,040	-0,087
-339,577	800,000	-0,017	-0,034
-338,562	-104,935	0,029	0,005
-337,548	-72,943	0,121	0,032
-336,533	32,334	-0,081	0,050
-335,518	-200,000	0,021	-0,105
-334,504	-200,000	-0,014	0,083
-333,489	800,000	0,075	-0,202
-332,475	-103,733	0,111	-0,018
-331,460	-200,000	0,025	-0,146
-330,445	208,789	0,121	-0,136
-329,431	-200,000	0,013	0,055
-328,416	800,000	-0,038	0,093
-327,402	492,141	-0,049	0,081
-326,387	-200,000	0,000	-0,059
-325,372	800,000	-0,016	-0,048
-324,358	-21,298	-0,159	-0,069
-323,343	699,969	0,037	0,070
-322,329	-200,000	0,011	0,120
-321,314	145,857	0,066	0,063
-320,299	-161,426	0,075	0,003
-319,285	800,000	-0,025	-0,072
-318,270	-105,916	0,093	-0,015
-317,256	131,134	-0,011	-0,010
-316,241	199,982	0,053	-0,058
-315,226	-200,000	0,025	-0,139
-314,212	391,984	0,060	0,090
-313,197	-60,863	0,107	-0,032
-312,183	800,000	0,013	-0,033
-311,168	200,005	-0,060	-0,066
-310,153	-200,000	-0,009	-0,183
-309,139	-200,000	0,011	0,039
-308,124	-4,811	0,095	0,047
-307,110	-200,000	-0,013	-0,085
-306,095	257,023	0,056	-0,069
-305,080	800,000	-0,023	0,052
-304,066	-47,402	0,027	-0,009
-303,051	-108,897	-0,163	0,025
-302,037	249,183	-0,060	-0,073
-301,022	-200,000	0,011	-0,039
-300,008	80,927	0,112	0,087
-298,993	-200,000	0,008	0,152
-297,978	297,562	0,063	-0,083
-296,964	84,267	-0,022	-0,017
-295,949	-7,023	-0,039	-0,019
-294,935	-200,000	0,021	-0,116
-293,920	568,108	0,038	-0,066
-292,905	-200,000	-0,001	0,005
-291,891	800,000	0,078	0,159
-290,876	800,000	0,041	0,112
-289,862	407,264	-0,041	0,062
-288,847	-83,784	0,095	-0,022
-287,832	-55,368	0,091	-0,029
-286,818	199,322	-0,063	-0,069
-285,803	374,584	-0,023	-0,033
-284,789	-41,355	0,052	-0,019
-283,774	-200,000	-0,012	0,230
-282,759	65,400	0,132	0,096
-281,745	237,065	-0,138	-0,164
-280,730	-200,000	-0,009	0,035
-279,716	82,588	0,088	0,068
-278,701	-200,000	0,003	0,023
-277,686	250,967	-0,086	-0,105
-276,672	-13,573	0,167	-0,077
-275,657	-73,391	-0,026	0,007
-274,643	-16,274	0,094	0,042
-273,628	298,641	-0,070	-0,093
-272,613	-200,000	0,045	-0,205
-271,599	117,490	0,097	0,085
-270,584	557,022	-0,106	0,183
-269,570	259,273	0,076	0,094
-268,555	-148,975	-0,104	-0,006
-267,540	529,411	0,036	-0,061
-266,526	449,527	0,025	0,040
-265,511	-103,013	-0,234	-0,039
-264,497	-200,000	0,012	-0,041
-263,482	15,904	0,129	0,072
-262,467	-200,000	-0,029	0,118
-261,453	564,520	-0,018	-0,031
-260,438	219,144	-0,070	-0,081
-259,424	-110,275	-0,054	-0,008
-258,409	-200,000	-0,016	-0,062
-257,395	293,943	0,072	-0,094
-256,380	-200,000	-0,018	0,101
-255,365	800,000	0,053	0,113
-254,351	-103,797	-0,023	0,004
-253,336	511,472	-0,023	-0,038
-252,322	-200,000	-0,018	-0,058
-251,307	45,686	-0,128	0,084
-250,292	-200,000	-0,009	-0,037
-249,278	-112,035	0,158	-0,022
-248,263	-160,753	-0,043	-0,002
-247,249	154,273	0,044	0,043
-246,234	77,296	0,054	-0,041
-245,219	-61,536	-0,071	-0,021
-244,205	147,566	-0,108	-0,104
-243,190	345,374	-0,038	-0,054
-242,176	-44,000	0,081	-0,029
-241,161	-105,431	0,108	0,017
-240,146	-92,057	0,042	-0,008
-239,132	800,000	-0,012	-0,035
-238,117	159,836	-0,102	-0,102
-237,103	-200,000	-0,004	0,049
-236,088	437,875	-0,062	-0,097
-235,073	-27,108	0,122	-0,050
-234,059	2,367	0,060	-0,031
-233,044	3,797	0,103	-0,053
-232,030	312,447	-0,043	0,058
-231,015	800,000	0,021	0,045
-230,000	-200,000	0,019	0,095
-228,986	750,358	0,059	0,114
-227,971	-200,000	-0,003	0,046
-226,957	-200,000	-0,035	-0,129
-225,942	164,095	0,078	0,079
-224,927	-39,039	-0,174	0,065
-223,913	-200,000	-0,008	-0,045
-222,898	277,259	0,060	-0,076
-221,884	28,542	-0,089	0,054
-220,869	800,000	0,024	-0,070
-219,855	-87,833	0,060	0,013
-218,840	-200,000	0,013	0,048
-217,825	72,561	-0,093	0,069
-216,811	407,347	0,055	0,084
-215,796	-112,714	-0,119	-0,017
-214,782	-200,000	-0,004	-0,020
-213,767	465,915	0,021	-0,034
-212,752	76,857	0,088	0,066
-211,738	-107,234	0,011	0,002
-210,723	163,711	0,016	-0,016
-209,709	123,978	-0,099	-0,089
-208,694	-143,900	0,042	-0,003
-207,679	178,388	0,106	0,111
-206,665	163,025	-0,042	0,042
-205,650	550,651	0,047	0,081
-204,636	135,442	-0,110	0,102
-203,621	113,162	-0,014	0,012
-202,606	-200,000	0,020	-0,151
-201,592	193,160	0,021	-0,022
-200,577	800,000	0,041	0,106
-199,563	677,592	-0,041	0,076
-198,548	-200,000	0,027	0,155
-197,533	17,899	0,124	0,070
-196,519	227,844	0,048	0,056
-195,504	-178,704	0,039	-0,001
-194,490	-116,487	-0,172	0,022
-193,475	469,060	-0,047	-0,075
-192,460	-72,417	-0,080	-0,021
-191,446	-111,350	-0,046	0,007
-190,431	47,820	-0,057	0,038
-189,417	800,000	0,047	0,136
-188,402	800,000	0,048	0,129
-187,387	-200,000	-0,027	0,098
-186,373	277,110	0,062	-0,079
-185,358	-200,000	-0,017	0,071
-184,344	36,135	0,118	0,074
-183,329	74,368	0,132	-0,099
-182,315	210,491	0,037	0,041
-181,300	396,118	0,031	-0,047
-180,285	-77,133	-0,112	0,028
-179,271	564,944	0,083	0,143
-178,256	800,000	-0,025	0,058
-177,242	20,204	0,055	-0,032
-176,227	800,000	-0,034	-0,073
-175,212	82,364	0,167	0,128
-174,198	-200,000	-0,012	0,116
-173,183	430,087	-0,035	-0,054
-172,169	-200,000	-0,024	-0,100
-171,154	284,256	0,040	-0,051
-170,139	-200,000	-0,012	0,052
-169,125	-200,000	0,009	0,032
-168,110	93,388	0,054	0,043
-167,096	-33,888	-0,042	-0,016
-166,081	228,281	0,092	-0,107
-165,066	-171,353	0,159	0,004
-164,052	-50,931	-0,088	-0,029
-163,037	-200,000	0,009	-0,085
-162,023	134,147	-0,057	0,053
-161,008	-6,735	-0,081	-0,039
-159,993	77,061	0,076	-0,058
-158,979	448,300	-0,023	-0,036
-157,964	-200,000	0,017	-0,167
-156,950	77,713	-0,074	-0,056
-155,935	-200,000	0,019	0,165
-154,920	800,000	-0,011	-0,027
-153,906	-136,321	0,066	0,005
-152,891	218,058	-0,061	0,069
-151,877	315,730	0,046	-0,061
-150,862	587,951	-0,068	-0,120
-149,847	408,555	0,083	-0,126
-148,833	-181,115	0,150	0,002
-147,818	-104,421	0,158	0,026
-146,804	-200,000	-0,011	0,121
-145,789	-69,986	-0,109	-0,029
-144,775	-39,113	-0,144	0,053
-143,760	-74,539	-0,184	0,047
-142,745	800,000	-0,012	0,039
-141,731	353,973	-0,072	0,101
-140,716	-30,283	0,077	0,031
-139,702	783,792	0,068	0,133
-138,687	218,877	0,016	0,018
-137,672	610,195	0,012	0,022
-136,658	-54,798	-0,051	0,016
-135,643	-200,000	-0,019	-0,113
-134,629	-10,115	-0,088	0,041
-133,614	-25,453	0,115	0,048
-132,599	-30,296	0,092	-0,037
-131,585	-200,000	0,013	0,063
-130,570	-107,179	0,062	0,010
-129,556	-30,998	-0,126	0,050
-128,541	99,005	-0,048	0,039
-127,526	31,429	-0,098	0,059
-126,512	800,000	-0,056	0,131
-125,497	800,000	0,016	0,050
-124,483	-131,412	0,060	-0,006
-123,468	4,126	0,052	-0,027
-122,453	143,159	0,069	-0,065
-121,439	800,000	-0,033	-0,100
-120,424	-200,000	0,011	-0,086
-119,410	44,850	-0,171	-0,111
-118,395	800,000	0,027	-0,071
-117,380	-98,830	-0,008	-0,001
-116,366	111,091	-0,043	-0,037
-115,351	798,522	-0,037	-0,073
-114,337	800,000	-0,032	-0,064
-113,322	37,315	-0,061	-0,038
-112,307	-54,194	0,063	-0,020
-111,293	61,211	-0,192	0,135
-110,278	109,850	0,092	0,078
-109,264	800,000	-0,036	0,072
-108,249	-200,000	-0,027	-0,149
-107,234	228,007	0,028	0,032
-106,220	-200,000	0,020	0,070
-105,205	800,000	0,030	0,081
-104,191	83,500	0,109	-0,084
-103,176	800,000	0,059	0,124
-102,162	-25,091	-0,070	-0,029
-101,147	38,583	0,071	-0,045
-100,132	-200,000	-0,002	0,048
-99,118	-200,000	-0,015	0,094
-98,103	-110,718	-0,154	0,022
-97,089	-200,000	-0,045	0,159
-96,074	-195,553	-0,102	-0,001
-95,059	800,000	0,062	0,193
-94,045	-24,402	-0,069	-0,029
-93,030	800,000	0,046	-0,092
-92,016	-200,000	0,014	-0,122
-91,001	-103,502	-0,073	-0,012
-89,986	92,476	0,075	0,060
-88,972	528,431	0,055	0,092
-87,957	-138,806	-0,044	0,003
-86,943	800,000	0,021	-0,046
-85,928	-1,790	-0,137	-0,068
-84,913	68,355	0,065	0,047
-83,899	-138,994	-0,050	0,004
-82,884	244,774	-0,066	0,079
-81,870	228,829	0,031	0,036
-80,855	267,902	0,082	-0,102
-79,840	-4,120	-0,085	0,042
-78,826	360,115	-0,073	-0,103
-77,811	-200,000	-0,015	-0,123
-76,797	-200,000	-0,164	-0,000
-75,782	-86,719	0,107	0,023
-74,767	74,754	-0,029	0,022
-73,753	22,491	0,101	0,058
-72,738	800,000	0,041	0,108
-71,724	800,000	0,042	-0,089
-70,709	204,908	-0,103	-0,113
-69,694	-200,000	0,017	-0,106
-68,680	-28,070	0,074	-0,030
-67,665	59,596	0,037	-0,026
-66,651	-43,934	-0,034	0,012
-65,636	40,059	-0,133	0,085
-64,622	-200,000	-0,006	-0,045
-63,607	-100,410	-0,126	-0,022
-62,592	-200,000	0,001	-0,077
-61,578	249,520	0,040	0,048
-60,563	3,127	0,040	0,020
-59,549	-200,000	-0,023	0,138
-58,534	-31,379	-1,658	-0,658
-57,519	506,039	-1,297	-2,136
-56,505	-200,000	-0,414	-4,336
-55,490	201,483	0,915	0,999
-54,476	800,000	5,068	11,336
-53,461	-200,000	19,184	319,549
-52,446	-200,000	740,371	2334,564
-51,432	573,765	1655,393	2870,089
-50,417	78,353	1670,929	1262,260
-49,403	21,335	1544,023	885,950
-48,388	15,246	1466,319	811,754
-47,373	17,906	1456,548	819,166
-46,359	16,624	1446,437	807,299
-45,344	13,479	1441,755	789,590
-44,330	13,361	1439,870	787,960
-43,315	13,404	1437,966	787,093
-42,300	13,420	1436,438	786,300
-41,286	13,400	1435,201	785,496
-40,271	13,403	1433,845	784,738
-39,257	13,394	1432,576	783,971
-38,242	13,425	1431,429	783,455
-37,227	13,413	1430,103	782,646
-36,213	13,445	1428,616	781,953
-35,198	13,448	1427,487	781,317
-34,184	13,490	1426,647	781,024
-33,169	13,419	1425,282	779,912
-32,154	13,457	1424,212	779,473
-31,140	13,454	1422,947	778,736
-30,125	13,474	1421,885	778,217
-29,111	13,471	1420,700	777,525
-28,096	13,410	1419,689	776,655
-27,082	13,390	1418,371	775,805
-26,067	13,369	1417,402	775,147
-25,052	13,393	1416,191	774,566
-24,038	13,360	1415,362	773,928
-23,023	13,324	1414,344	773,169
-22,009	13,345	1413,332	772,684
-20,994	13,326	1412,485	772,104
-19,979	13,286	1411,649	771,428
-18,965	13,349	1410,477	771,051
-17,950	13,314	1409,542	770,346
-16,936	13,291	1408,829	769,817
-15,921	13,272	1407,528	768,987
-14,906	13,258	1406,788	768,487
-13,892	13,310	1405,713	768,112
-12,877	13,272	1405,005	767,518
-11,863	13,246	1404,178	766,914
-10,848	13,249	1403,215	766,373
-9,833	13,205	1402,272	765,620
-8,819	13,142	1401,648	764,956
-7,804	13,190	1400,410	764,476
-6,790	13,148	1399,422	763,709
-5,775	13,170	1398,558	763,312
-4,760	13,175	1397,493	762,723
-3,746	13,172	1396,843	762,324
-2,731	13,157	1395,803	761,653
-1,717	13,108	1395,097	761,014
-0,702	13,113	1393,144	759,940
0,313	16,988	1310,061	732,566
1,327	33,210	703,925	431,129
2,342	51,289	123,293	82,682
3,356	4,102	16,673	8,604
4,371	5,783	3,316	1,730
5,386	-58,443	0,499	0,152
6,400	800,000	-0,109	0,292
7,415	128,256	-0,352	-0,317
8,429	60,900	-0,320	-0,224
9,444	800,000	-0,183	-0,374
10,459	-181,428	-0,311	-0,004
11,473	710,890	-0,112	-0,211
12,488	71,189	-0,208	-0,152
13,502	80,149	-0,267	-0,203
14,517	-44,971	-0,466	-0,163
15,531	-64,231	-0,456	-0,130
16,546	101,353	-0,350	-0,288
17,561	94,307	-0,368	-0,295
18,575	-23,726	-0,233	-0,098
19,590	50,443	-0,348	-0,232
20,604	-186,876	-0,283	0,003
21,619	-29,242	-0,516	-0,208
22,634	-32,449	-0,555	-0,218
23,648	134,355	-0,474	-0,434
24,663	87,336	-0,392	-0,306
25,677	74,954	-0,219	-0,163
26,692	-26,603	-0,385	-0,159
27,707	165,609	-0,338	-0,338
28,721	255,799	-0,396	-0,481
29,736	26,943	-0,438	-0,259
30,750	75,472	-0,390	-0,290
31,765	-0,451	-0,454	-0,227
32,780	224,914	-0,288	-0,330
33,794	71,564	-0,364	-0,266
34,809	-0,138	-0,426	-0,213
35,823	-40,529	-0,398	-0,145
36,838	116,080	-0,479	-0,414
37,853	141,958	-0,197	-0,184
38,867	112,699	-0,300	-0,256
39,882	800,000	-0,229	-0,474
40,896	167,893	-0,311	-0,312
41,911	-6,151	-0,345	-0,166
42,926	98,228	-0,309	-0,251
43,940	277,269	-0,209	-0,263
44,955	102,783	-0,325	-0,268
45,969	149,722	-0,281	-0,269
46,984	-5,962	-0,413	-0,199
47,999	-28,189	-0,293	-0,119
49,013	-108,243	-0,347	-0,052
50,028	146,279	-0,273	-0,259
51,042	49,608	-0,367	-0,243
52,057	82,977	-0,329	-0,252
53,071	52,086	-0,303	-0,203
54,086	95,209	-0,287	-0,230
55,101	39,578	-0,354	-0,223
56,115	481,915	-0,132	-0,212
57,130	12,219	-0,362	-0,196
58,144	46,139	-0,425	-0,276
59,159	26,945	-0,416	-0,245
60,174	-66,279	-0,366	-0,102
61,188	21,132	-0,316	-0,180
62,203	65,013	-0,323	-0,229
63,217	87,237	-0,355	-0,276
64,232	-23,857	-0,341	-0,143
65,247	-62,830	-0,369	-0,107
66,261	115,343	-0,359	-0,308
67,276	-75,274	-0,358	-0,089
68,290	59,823	-0,330	-0,229
69,305	30,886	-0,366	-0,220
70,320	67,269	-0,168	-0,121
71,334	-111,892	-0,314	-0,044
72,349	-18,378	-0,313	-0,137
73,363	0,454	-0,330	-0,165
74,378	119,534	-0,326	-0,284
75,393	234,458	-0,226	-0,262
76,407	-45,360	-0,257	-0,089
77,422	-74,148	-0,389	-0,098
78,436	0,668	-0,335	-0,168
79,451	21,242	-0,319	-0,182
80,466	-26,548	-0,462	-0,189
81,480	-0,527	-0,298	-0,148
82,495	-1,526	-0,272	-0,134
83,509	53,842	-0,233	-0,157
84,524	140,384	-0,324	-0,300
85,539	43,069	-0,352	-0,225
86,553	-27,706	-0,278	-0,113
87,568	65,744	-0,247	-0,176
88,582	158,783	-0,275	-0,269
89,597	137,747	-0,355	-0,326
90,611	800,000	-0,092	-0,263
91,626	25,254	-0,206	-0,120
92,641	-166,975	-0,264	-0,007
93,655	103,480	-0,296	-0,243
94,670	-30,872	-0,377	-0,149
95,684	-26,048	-0,295	-0,121
96,699	-42,657	-0,329	-0,117
97,714	-7,102	-0,328	-0,155
98,728	38,156	-0,257	-0,160
99,743	-16,654	-0,332	-0,147
100,757	110,085	-0,180	-0,152
101,772	-2,393	-0,302	-0,148
102,787	-46,337	-0,327	-0,112
103,801	332,846	-0,194	-0,264
104,816	152,302	-0,369	-0,353
105,830	-42,883	-0,160	-0,057
106,845	45,373	-0,246	-0,159
107,860	200,124	-0,133	-0,143
108,874	-17,172	-0,282	-0,124
109,889	39,125	-0,248	-0,155
110,903	-50,358	-0,456	-0,150
111,918	-1,467	-0,358	-0,176
112,933	192,025	-0,266	-0,282
113,947	3,046	-0,288	-0,146
114,962	170,626	-0,188	-0,189
115,976	254,789	-0,230	-0,276
116,991	0,135	-0,409	-0,204
118,006	-6,227	-0,325	-0,155
119,020	86,096	-0,280	-0,216
120,035	31,584	-0,341	-0,205
121,049	-90,690	-0,269	-0,054
122,064	103,725	-0,151	-0,124
123,079	800,000	-0,053	-0,149
124,093	-186,305	-0,221	0,002
125,108	54,923	-0,283	-0,191
126,122	6,521	-0,208	-0,108
127,137	53,708	-0,262	-0,175
128,151	-28,219	-0,299	-0,120
129,166	-91,259	-0,390	-0,077
130,181	-60,697	-0,292	-0,086
131,195	205,482	-0,230	-0,250
132,210	622,398	-0,088	-0,156
133,224	-62,892	-0,218	-0,063
134,239	3,435	-0,267	-0,136
135,254	-60,255	-0,329	-0,097
136,268	-130,016	-0,298	0,028
137,283	90,446	-0,265	-0,207
138,297	167,633	-0,211	-0,210
139,312	73,198	-0,344	-0,251
140,327	-114,578	-0,352	-0,047
141,341	286,206	-0,245	-0,309
142,356	153,433	-0,278	-0,267
143,370	64,772	-0,218	-0,154
144,385	47,490	-0,258	-0,168
145,400	21,575	-0,168	-0,095
146,414	180,635	-0,217	-0,223
147,429	-6,904	-0,303	-0,144
148,443	604,385	-0,111	-0,193
149,458	608,943	-0,112	-0,195
150,473	22,878	-0,241	-0,138
151,487	-62,265	-0,217	-0,063
152,502	211,905	-0,222	-0,245
153,516	36,012	-0,439	-0,269
154,531	115,798	-0,412	-0,352
155,546	18,749	-0,329	-0,183
156,560	-36,063	-0,216	-0,081
157,575	-47,722	-0,312	-0,105
158,589	800,000	-0,072	-0,181
159,604	252,932	-0,188	-0,225
160,619	800,000	-0,153	-0,320
161,633	-18,602	-0,161	-0,070
162,648	-46,080	-0,378	-0,129
163,662	24,283	-0,198	-0,114
164,677	67,905	-0,203	-0,145
165,692	266,674	-0,099	-0,121
166,706	108,699	-0,353	-0,294
167,721	296,173	-0,221	-0,283
168,735	350,043	-0,218	-0,301
169,750	286,738	-0,273	-0,345
170,764	39,953	-0,208	-0,130
171,779	-55,601	-0,246	-0,076
172,794	24,863	-0,285	-0,164
173,808	4,679	-0,210	-0,107
174,823	98,058	-0,253	-0,203
175,837	-85,062	-0,305	-0,066
176,852	156,874	-0,171	-0,165
177,867	531,347	-0,171	-0,282
178,881	235,045	-0,178	-0,205
179,896	-109,300	-0,392	-0,057
180,910	775,669	-0,180	-0,344
181,925	3,755	-0,134	-0,068
182,940	800,000	-0,120	-0,272
183,954	140,094	-0,143	-0,131
184,969	254,358	-0,239	-0,285
185,983	-115,178	-0,256	0,033
186,998	800,000	-0,117	-0,286
188,013	19,860	-0,237	-0,133
189,027	-10,364	-0,291	-0,134
190,042	73,451	-0,300	-0,218
191,056	109,135	-0,168	-0,140
192,071	136,718	-0,242	-0,220
193,086	-192,840	-0,178	0,001
194,100	-20,981	-0,149	-0,063
195,115	-70,854	-0,236	-0,061
196,129	259,144	-0,178	-0,214
197,144	177,948	-0,207	-0,211
198,159	-41,597	-0,162	-0,057
199,173	-27,238	-0,324	-0,130
200,188	126,539	-0,106	-0,094
201,202	243,068	-0,115	-0,134
202,217	800,000	-0,116	-0,263
203,232	197,951	-0,173	-0,184
204,246	8,868	-0,364	-0,190
205,261	800,000	-0,103	-0,224
206,275	39,642	-0,150	-0,094
207,290	232,768	-0,129	-0,148
208,304	406,583	-0,147	-0,217
209,319	119,779	-0,229	-0,197
210,334	91,758	-0,158	-0,123
211,348	245,829	-0,186	-0,218
212,363	57,932	-0,262	-0,178
213,377	2,494	-0,246	-0,123
214,392	129,515	-0,110	-0,097
215,407	157,593	-0,097	-0,094
216,421	55,129	-0,169	-0,113
217,436	-11,374	-0,310	-0,141
218,450	132,011	-0,319	-0,285
219,465	73,605	-0,183	-0,133
220,480	55,083	-0,283	-0,190
221,494	-23,743	-0,208	-0,086
222,509	800,000	-0,084	-0,246
223,523	-113,982	-0,191	0,025
224,538	-14,722	-0,160	-0,071
225,553	246,113	-0,175	-0,204
226,567	19,347	-0,277	-0,154
227,582	221,821	-0,181	-0,202
228,596	171,159	-0,125	-0,125
229,611	-128,892	-0,129	0,012
230,626	99,653	-0,211	-0,169
231,640	800,000	-0,131	-0,267
232,655	-70,052	-0,345	-0,090
233,669	473,720	-0,156	-0,245
234,684	219,492	-0,117	-0,130
235,699	99,739	-0,216	-0,173
236,713	-134,769	-0,187	-0,016
237,728	106,795	-0,156	-0,128
238,742	-54,073	-0,103	-0,032
239,757	276,090	-0,115	-0,141
240,772	112,028	-0,151	-0,126
241,786	-46,458	-0,289	-0,098
242,801	61,056	-0,145	-0,100
243,815	196,888	-0,138	-0,146
244,830	49,526	-0,154	-0,101
245,844	-151,992	-0,131	0,006
246,859	226,718	-0,153	-0,173
247,874	184,775	-0,235	-0,242
248,888	138,943	-0,153	-0,140
249,903	161,415	-0,097	-0,094
250,917	-53,280	-0,176	-0,056
251,932	377,230	-0,064	-0,091
252,947	-15,150	-0,174	-0,077
253,961	477,417	-0,052	-0,081
254,976	81,219	-0,131	-0,098
255,990	91,716	-0,158	-0,123
257,005	-83,635	-0,246	-0,054
258,020	-94,798	-0,195	-0,036
259,034	344,670	-0,085	-0,116
260,049	4,080	-0,184	-0,093
261,063	-20,736	-0,155	-0,066
262,078	224,538	-0,228	-0,256
263,093	107,849	-0,118	-0,097
264,107	20,515	-0,245	-0,136
265,122	800,000	-0,029	-0,072
266,136	-200,000	-0,015	-0,138
267,151	299,455	-0,068	-0,087
268,166	-55,326	-0,173	0,053
269,180	212,120	-0,223	-0,243
270,195	-200,000	-0,094	-0,315
271,209	-84,697	-0,224	-0,048
272,224	176,948	-0,140	-0,141
273,239	-53,853	-0,065	-0,020
274,253	800,000	-0,076	-0,178
275,268	800,000	-0,064	-0,150
276,282	4,730	-0,223	-0,113
277,297	508,772	-0,101	-0,163
278,312	-64,668	-0,126	-0,035
279,326	89,178	-0,198	-0,152
280,341	-145,804	-0,200	-0,012
281,355	-63,595	-0,077	-0,022
282,370	51,224	-0,213	-0,139
283,384	152,061	-0,046	-0,043
284,399	-3,377	-0,117	0,056
285,414	800,000	-0,028	-0,081
286,428	30,266	-0,156	-0,091
287,443	226,560	-0,142	-0,160
288,457	-12,323	-0,136	-0,061
289,472	-133,260	-0,210	-0,018
290,487	-83,715	-0,191	0,042
291,501	78,253	-0,135	-0,099
292,516	322,091	-0,099	-0,130
293,530	-17,375	-0,186	-0,081
294,545	84,202	-0,087	-0,066
295,560	800,000	-0,116	-0,226
296,574	58,587	-0,214	-0,145
297,589	-50,834	-0,199	-0,064
298,603	-89,706	-0,141	-0,028
299,618	414,689	-0,080	-0,117
300,633	-200,000	-0,058	-0,259
301,647	24,239	-0,114	-0,065
302,662	90,357	-0,158	-0,121
303,676	-16,746	-0,220	-0,095
304,691	-177,162	-0,199	-0,003
305,706	-26,349	-0,246	-0,099
306,720	505,911	-0,084	-0,135
307,735	-16,261	-0,187	-0,081
308,749	23,898	-0,116	-0,066
309,764	-62,962	-0,192	-0,054
310,779	-55,435	-0,113	-0,035
311,793	-20,751	-0,146	-0,061
312,808	-126,726	-0,213	0,021
313,822	232,943	-0,027	-0,030
314,837	-12,212	-0,107	-0,048
315,852	10,971	-0,122	-0,064
316,866	-113,150	-0,252	-0,034
317,881	-80,155	-0,149	0,034
318,895	18,023	-0,122	-0,067
319,910	-48,544	-0,130	0,043
320,925	25,454	-0,200	-0,114
321,939	197,806	-0,151	-0,159
322,954	-110,484	-0,101	0,014
323,968	800,000	-0,043	0,095
324,983	-89,582	-0,165	-0,033
325,997	-89,618	-0,113	-0,023
327,012	779,228	-0,125	-0,236
328,027	-4,564	-0,145	0,068
329,041	-115,217	-0,170	-0,022
330,056	-47,831	-0,064	-0,021
331,070	480,903	-0,104	-0,163
332,085	-92,519	-0,049	-0,009
333,100	-118,518	-0,077	-0,009
334,114	55,556	-0,231	-0,154
335,129	-19,874	-0,221	-0,094
336,143	145,041	-0,173	-0,159
337,158	67,474	-0,178	-0,125
338,173	-98,749	-0,158	0,027
339,187	-1,596	-0,087	-0,042
340,202	-136,110	-0,099	-0,008
341,216	800,000	-0,133	-0,256
342,231	58,152	-0,142	-0,095
343,246	200,242	-0,138	-0,146
344,260	-95,617	-0,176	0,032
345,275	-200,000	-0,017	-0,168
346,289	-25,390	-0,131	-0,053
347,304	-14,843	-0,195	-0,085
348,319	-30,817	-0,177	-0,068
349,333	527,593	-0,131	-0,212
350,348	161,264	-0,142	-0,137
351,362	-98,141	-0,135	-0,024
352,377	746,492	-0,120	-0,223
353,392	-91,546	-0,230	0,045
354,406	31,023	-0,063	0,037
355,421	209,449	1314,390	1414,830
356,435	161,204	1475,065	1415,322
