DTS Sentinel unit serial number:	SN410029Multiplexer serial number:	ORYXHardware model number:	OX2-SRSoftware version number:	ORYX F/W v4,00 Oryx Data Collector v3.7.2.0data status	okinstallation	B3 Nyhavnadifferential loss correction	single-endedforward channel	channel 1reverse channel	N/Adate	2023/11/29time	20:47:30forward acquisition time	300,00reverse acquisition time	0,00gamma	499,1914k internal	0,3209k external	0,3209temperature offset calibration	1,0000default loss term (dB/km)	0,3820temperature slope calibration	1,0000multiplexer offset coefficient	1,0000multiplexer slope coefficient	1,0000fibre end	0,00T internal ref (°C)	10,83T ext. ref 1 (°C)	-4,24T ext. ref 2 (°C)	-4,33length (m)	temperature (°C)	Stokes	anti-Stokes-744,400	440,870	-0,204	-0,325
-743,385	800,000	-0,146	0,299
-742,371	41,724	-0,121	-0,079
-741,356	-200,000	-0,075	0,353
-740,342	559,854	-0,155	-0,273
-739,327	-200,000	-0,023	0,423
-738,312	800,000	-0,098	-0,234
-737,298	-200,000	-0,083	0,305
-736,283	800,000	-0,087	-0,247
-735,269	-200,000	0,042	0,262
-734,254	65,002	-0,165	-0,120
-733,239	230,568	-0,191	0,227
-732,225	193,468	-0,199	-0,218
-731,210	531,356	0,094	0,162
-730,196	-35,665	0,045	-0,018
-729,181	-200,000	-0,009	-0,218
-728,167	219,112	-0,102	-0,118
-727,152	178,053	0,042	0,044
-726,137	-82,912	-0,145	-0,034
-725,123	-200,000	0,002	-0,109
-724,108	800,000	-0,047	-0,147
-723,094	-200,000	-0,064	-0,207
-722,079	-200,000	-0,004	0,052
-721,064	35,526	-0,091	-0,058
-720,050	-99,376	-0,079	-0,014
-719,035	-37,769	0,163	-0,062
-718,021	-200,000	0,009	0,148
-717,006	26,387	-0,061	0,037
-715,991	800,000	-0,068	-0,192
-714,977	-200,000	-0,030	-0,174
-713,962	770,339	0,013	-0,025
-712,948	-24,218	-0,056	-0,024
-711,933	-40,026	0,084	-0,031
-710,918	-200,000	0,040	0,145
-709,904	85,454	-0,116	-0,092
-708,889	98,343	-0,088	-0,073
-707,875	800,000	0,015	-0,043
-706,860	159,695	0,027	-0,027
-705,845	-14,010	0,109	0,051
-704,831	151,683	-0,090	0,089
-703,816	579,571	0,040	0,071
-702,802	-65,023	-0,114	-0,033
-701,787	-99,906	-0,049	-0,009
-700,772	-200,000	0,029	-0,094
-699,758	-63,686	0,064	-0,019
-698,743	-153,166	0,137	-0,007
-697,729	-17,910	0,042	-0,019
-696,714	-2,790	-0,076	0,038
-695,699	-200,000	0,006	0,052
-694,685	207,513	-0,043	-0,049
-693,670	800,000	0,018	-0,056
-692,656	800,000	-0,020	0,055
-691,641	-200,000	0,017	-0,091
-690,627	-108,961	0,095	-0,015
-689,612	14,360	-0,143	0,081
-688,597	-148,836	0,006	-0,000
-687,583	-200,000	0,002	-0,006
-686,568	-71,764	-0,165	-0,044
-685,554	800,000	-0,031	0,065
-684,539	-200,000	-0,001	0,011
-683,524	-200,000	0,055	0,192
-682,510	-200,000	-0,016	-0,105
-681,495	319,581	-0,042	-0,058
-680,481	-31,414	-0,003	-0,001
-679,466	39,174	-0,177	-0,115
-678,451	216,620	0,038	0,044
-677,437	221,829	-0,134	0,156
-676,422	478,243	-0,033	0,055
-675,408	-85,962	0,087	0,019
-674,393	800,000	-0,050	-0,148
-673,378	486,538	-0,055	0,091
-672,364	-200,000	-0,006	-0,103
-671,349	159,496	-0,159	-0,160
-670,335	5,977	0,058	0,031
-669,320	-200,000	-0,010	0,083
-668,305	78,306	0,064	0,050
-667,291	500,428	-0,077	-0,130
-666,276	-200,000	0,023	-0,080
-665,262	-200,000	-0,010	-0,101
-664,247	-188,769	-0,058	0,001
-663,232	-200,000	0,021	-0,076
-662,218	800,000	0,043	0,099
-661,203	-110,731	0,158	-0,023
-660,189	-18,559	0,098	-0,044
-659,174	-151,473	-0,057	-0,003
-658,159	83,278	0,066	-0,052
-657,145	-108,742	-0,156	-0,024
-656,130	-2,036	-0,083	-0,042
-655,116	-200,000	-0,030	0,127
-654,101	607,363	-0,048	0,087
-653,086	24,585	-0,106	0,063
-652,072	206,125	0,116	-0,130
-651,057	-199,406	-0,061	0,000
-650,043	-200,000	-0,027	0,108
-649,028	310,953	0,045	0,061
-648,014	800,000	-0,049	0,136
-646,999	437,568	0,026	0,041
-645,984	73,738	-0,034	-0,026
-644,970	-200,000	-0,038	0,122
-643,955	51,506	-0,023	0,016
-642,941	524,008	0,054	-0,091
-641,926	-142,615	-0,075	-0,005
-640,911	-67,847	-0,101	-0,028
-639,897	-200,000	-0,018	-0,090
-638,882	-22,368	-0,023	0,010
-637,868	-112,664	-0,037	-0,005
-636,853	-95,396	0,100	-0,019
-635,838	262,058	0,009	0,011
-634,824	-200,000	0,004	-0,034
-633,809	98,820	-0,052	-0,044
-632,795	-132,637	0,043	0,004
-631,780	108,815	0,040	0,035
-630,765	-176,549	0,048	0,001
-629,751	9,086	-0,074	-0,040
-628,736	10,351	-0,037	-0,020
-627,722	510,334	0,043	-0,072
-626,707	58,678	0,068	-0,048
-625,692	45,964	-0,003	-0,002
-624,678	16,450	0,082	0,047
-623,663	-200,000	-0,019	0,138
-622,649	-80,447	0,062	-0,015
-621,634	701,833	0,006	-0,011
-620,619	-32,730	-0,095	-0,038
-619,605	800,000	0,010	-0,027
-618,590	182,487	-0,038	-0,040
-617,576	-111,182	-0,095	-0,014
-616,561	633,191	0,026	-0,048
-615,546	-50,282	-0,175	-0,059
-614,532	-131,875	-0,146	-0,014
-613,517	800,000	0,035	-0,081
-612,503	-16,028	-0,025	0,011
-611,488	-144,625	-0,141	0,009
-610,474	281,232	0,053	-0,069
-609,459	-149,092	-0,037	0,002
-608,444	-132,172	0,027	0,002
-607,430	-96,258	-0,116	-0,022
-606,415	40,347	0,094	-0,061
-605,401	669,675	0,055	0,104
-604,386	-200,000	-0,011	-0,037
-603,371	3,040	0,052	-0,027
-602,357	-200,000	-0,053	-0,207
-601,342	115,389	0,057	-0,050
-600,328	-200,000	-0,031	-0,108
-599,313	-102,052	-0,033	-0,006
-598,298	-68,160	0,072	-0,020
-597,284	-200,000	-0,063	0,000
-596,269	86,743	-0,041	-0,032
-595,255	209,742	0,082	-0,093
-594,240	-200,000	-0,001	0,007
-593,225	-200,000	-0,007	-0,123
-592,211	-12,843	-0,092	0,043
-591,196	800,000	0,025	0,069
-590,182	-200,000	0,003	0,040
-589,167	306,862	-0,050	0,067
-588,152	-200,000	-0,023	0,124
-587,138	-200,000	0,009	0,045
-586,123	-128,379	-0,173	0,018
-585,109	210,306	0,043	0,049
-584,094	-91,609	-0,174	0,035
-583,079	145,517	-0,047	-0,045
-582,065	-200,000	0,025	0,089
-581,050	723,260	0,035	0,068
-580,036	800,000	0,055	-0,123
-579,021	-116,706	-0,131	0,017
-578,006	48,987	0,099	-0,067
-576,992	421,800	0,030	0,046
-575,977	65,627	0,057	-0,042
-574,963	800,000	-0,015	-0,044
-573,948	45,612	-0,115	0,077
-572,934	-64,828	-0,087	0,025
-571,919	169,604	0,060	-0,062
-570,904	-47,363	-0,145	0,051
-569,890	765,890	-0,006	0,013
-568,875	-102,806	-0,058	0,010
-567,861	771,261	0,015	0,030
-566,846	800,000	-0,014	0,037
-565,831	-13,480	-0,057	0,027
-564,817	57,055	-0,059	-0,042
-563,802	-145,567	-0,131	-0,008
-562,788	-200,000	-0,002	0,012
-561,773	-22,982	-0,112	0,049
-560,758	441,241	0,068	-0,107
-559,744	36,196	-0,098	-0,062
-558,729	230,105	-0,016	-0,019
-557,715	-21,599	0,064	-0,028
-556,700	-200,000	0,007	-0,081
-555,685	-200,000	0,005	0,043
-554,671	-96,129	0,113	0,021
-553,656	-66,261	-0,069	0,020
-552,642	178,663	0,046	0,049
-551,627	800,000	-0,032	0,082
-550,612	-56,017	-0,146	-0,046
-549,598	-31,194	-0,121	-0,049
-548,583	22,381	-0,180	-0,106
-547,569	380,038	-0,059	0,088
-546,554	-51,295	0,088	0,030
-545,539	-173,506	0,031	0,001
-544,525	171,569	-0,118	-0,122
-543,510	800,000	0,037	0,075
-542,496	-81,024	-0,062	0,015
-541,481	103,932	-0,061	0,051
-540,466	-78,092	-0,075	-0,019
-539,452	-200,000	0,002	-0,080
-538,437	-200,000	-0,015	-0,053
-537,423	-118,417	0,132	-0,017
-536,408	37,709	-0,099	0,063
-535,393	194,803	-0,059	-0,064
-534,379	-200,000	0,036	-0,127
-533,364	352,638	0,072	-0,104
-532,350	800,000	-0,021	0,046
-531,335	685,008	0,035	0,066
-530,321	-61,753	0,030	0,009
-529,306	137,374	0,090	0,085
-528,291	57,045	0,079	-0,055
-527,277	329,652	0,033	-0,046
-526,262	409,536	-0,020	0,030
-525,248	800,000	0,023	0,073
-524,233	-200,000	0,011	0,126
-523,218	-200,000	-0,038	0,223
-522,204	4,671	0,119	0,062
-521,189	-102,853	-0,139	0,024
-520,175	-200,000	0,028	-0,155
-519,160	-200,000	0,016	0,114
-518,145	-200,000	0,023	-0,109
-517,131	195,392	-0,048	0,053
-516,116	800,000	-0,064	0,192
-515,102	-55,815	0,098	-0,031
-514,087	-200,000	-0,018	-0,182
-513,072	-200,000	-0,021	-0,081
-512,058	64,305	-0,089	0,065
-511,043	-121,413	0,079	-0,009
-510,029	271,967	0,095	0,120
-509,014	142,082	0,060	0,058
-507,999	800,000	-0,025	0,053
-506,985	191,895	-0,043	-0,047
-505,970	-92,150	0,074	0,015
-504,956	800,000	-0,067	0,136
-503,941	-83,863	0,122	-0,028
-502,926	-84,497	0,048	-0,011
-501,912	-77,048	0,124	0,031
-500,897	800,000	0,013	0,033
-499,883	-36,893	-0,019	-0,007
-498,868	657,086	0,064	-0,119
-497,853	-14,378	-0,017	0,008
-496,839	121,070	-0,146	0,130
-495,824	23,023	0,088	-0,052
-494,810	-43,896	-0,089	-0,032
-493,795	131,594	-0,063	0,058
-492,781	-200,000	-0,011	-0,069
-491,766	231,306	-0,062	-0,073
-490,751	149,266	0,115	-0,112
-489,737	-39,406	0,038	0,014
-488,722	-200,000	0,036	0,000
-487,708	-162,326	-0,064	0,002
-486,693	-200,000	0,033	0,230
-485,678	-157,725	-0,087	0,004
-484,664	-200,000	-0,001	0,015
-483,649	48,895	-0,029	-0,020
-482,635	-200,000	-0,019	0,088
-481,620	30,794	-0,063	0,039
-480,605	-200,000	0,004	-0,072
-479,591	800,000	0,096	0,243
-478,576	-200,000	0,030	0,109
-477,562	-14,201	0,161	0,074
-476,547	-19,481	-0,114	0,051
-475,532	-200,000	0,003	-0,097
-474,518	85,895	0,152	-0,120
-473,503	128,384	-0,068	0,062
-472,489	-200,000	0,017	0,118
-471,474	-7,891	-0,024	0,012
-470,459	-200,000	-0,007	0,079
-469,445	-11,483	-0,098	0,046
-468,430	800,000	0,073	-0,161
-467,416	-200,000	-0,019	0,102
-466,401	167,743	0,026	0,027
-465,386	2,517	-0,089	-0,046
-464,372	16,958	0,097	-0,055
-463,357	46,285	-0,077	-0,051
-462,343	191,195	-0,037	-0,040
-461,328	-103,614	0,020	-0,003
-460,313	318,819	-0,049	0,067
-459,299	324,433	-0,084	0,115
-458,284	800,000	-0,016	0,036
-457,270	406,906	-0,031	-0,048
-456,255	-200,000	0,002	0,014
-455,241	-68,753	0,048	0,013
-454,226	-0,880	-0,045	0,023
-453,211	103,831	-0,032	0,027
-452,197	-34,322	0,086	-0,034
-451,182	-200,000	0,005	-0,030
-450,168	-67,843	-0,152	-0,042
-449,153	-126,481	-0,101	0,011
-448,138	-99,321	0,034	0,006
-447,124	151,953	0,062	0,060
-446,109	800,000	-0,049	-0,123
-445,095	-126,246	0,112	-0,012
-444,080	-113,079	0,019	-0,003
-443,065	-151,396	-0,114	-0,006
-442,051	-13,096	-0,058	-0,027
-441,036	-200,000	-0,022	-0,122
-440,022	-200,000	-0,023	-0,182
-439,007	-46,224	-0,108	-0,038
-437,992	800,000	-0,025	-0,052
-436,978	187,130	0,105	0,112
-435,963	800,000	-0,038	0,115
-434,949	-200,000	0,016	-0,053
-433,934	-12,047	0,108	0,051
-432,919	583,426	-0,079	0,139
-431,905	800,000	-0,032	0,072
-430,890	-62,389	-0,049	0,015
-429,876	-200,000	-0,024	-0,149
-428,861	352,768	0,058	0,083
-427,846	-30,024	-0,005	0,002
-426,832	147,467	-0,086	-0,083
-425,817	-200,000	0,011	-0,082
-424,803	-200,000	0,011	-0,123
-423,788	292,268	0,091	0,119
-422,773	216,380	0,026	0,029
-421,759	-115,464	-0,113	0,015
-420,744	800,000	0,040	-0,097
-419,730	139,148	-0,067	0,063
-418,715	-200,000	-0,005	-0,064
-417,701	46,089	-0,065	-0,043
-416,686	-200,000	-0,015	0,065
-415,671	-68,888	0,060	0,016
-414,657	-174,371	0,100	0,002
-413,642	-154,177	0,095	0,005
-412,628	800,000	-0,007	0,019
-411,613	-200,000	0,013	-0,081
-410,598	-5,354	0,086	0,042
-409,584	106,960	0,131	0,111
-408,569	-134,678	-0,041	0,004
-407,555	78,521	0,102	-0,078
-406,540	35,875	0,023	-0,014
-405,525	-200,000	0,008	0,072
-404,511	81,374	0,054	-0,042
-403,496	-64,314	-0,015	0,004
-402,482	527,407	0,045	-0,076
-401,467	-80,515	-0,058	0,014
-400,452	119,275	-0,092	0,081
-399,438	-132,119	0,049	-0,005
-398,423	-55,999	-0,080	-0,025
-397,409	-200,000	0,006	-0,045
-396,394	-146,167	-0,046	0,003
-395,379	110,922	0,114	-0,098
-394,365	-200,000	-0,004	0,140
-393,350	99,169	0,049	0,041
-392,336	-81,549	0,100	-0,023
-391,321	-200,000	-0,007	-0,088
-390,306	219,941	-0,055	0,063
-389,292	-39,134	0,094	-0,035
-388,277	-200,000	0,015	-0,153
-387,263	142,549	0,043	0,041
-386,248	-200,000	-0,023	0,103
-385,233	480,206	0,053	0,086
-384,219	318,586	0,010	-0,014
-383,204	-88,353	0,053	-0,011
-382,190	148,364	0,066	-0,064
-381,175	-104,511	-0,103	0,017
-380,160	30,480	0,092	-0,056
-379,146	650,680	0,014	0,026
-378,131	-200,000	0,016	-0,063
-377,117	-200,000	-0,010	-0,121
-376,102	723,356	-0,024	-0,047
-375,088	90,465	-0,121	-0,097
-374,073	-200,000	0,003	-0,038
-373,058	314,929	0,050	0,068
-372,044	800,000	0,069	0,184
-371,029	-200,000	0,022	0,106
-370,015	34,993	0,138	0,086
-369,000	-21,082	-0,148	-0,064
-367,985	-200,000	-0,016	-0,142
-366,971	74,661	-0,116	-0,087
-365,956	119,571	0,050	-0,044
-364,942	192,422	0,068	0,073
-363,927	-200,000	0,019	0,108
-362,912	800,000	-0,070	-0,142
-361,898	211,245	-0,012	-0,014
-360,883	-200,000	-0,001	0,007
-359,869	153,167	-0,098	-0,096
-358,854	375,512	-0,088	-0,129
-357,839	104,193	-0,049	0,041
-356,825	-58,853	0,101	-0,031
-355,810	669,863	0,028	0,053
-354,796	131,836	-0,039	-0,036
-353,781	800,000	0,049	-0,106
-352,766	-41,159	-0,122	-0,045
-351,752	-200,000	0,010	-0,116
-350,737	-55,487	0,126	0,040
-349,723	800,000	0,026	0,067
-348,708	800,000	-0,025	0,053
-347,693	157,989	-0,062	0,062
-346,679	-124,916	-0,161	0,018
-345,664	200,349	-0,031	-0,034
-344,650	103,776	-0,045	0,038
-343,635	-66,522	0,072	-0,020
-342,620	-200,000	-0,007	-0,036
-341,606	800,000	0,021	0,062
-340,591	-0,147	-0,032	-0,016
-339,577	-200,000	0,019	-0,068
-338,562	-200,000	-0,025	-0,119
-337,548	-200,000	-0,016	-0,109
-336,533	-200,000	-0,001	0,057
-335,518	-88,813	0,082	0,017
-334,504	-94,039	-0,024	-0,005
-333,489	-200,000	-0,027	0,095
-332,475	341,181	-0,021	-0,030
-331,460	-200,000	-0,010	-0,050
-330,445	45,734	-0,053	0,035
-329,431	-200,000	-0,027	0,125
-328,416	186,939	-0,050	0,053
-327,402	-45,744	0,140	-0,049
-326,387	781,590	-0,059	-0,115
-325,372	171,083	-0,046	-0,047
-324,358	-153,338	-0,221	-0,011
-323,343	790,845	0,042	0,083
-322,329	194,265	0,064	0,069
-321,314	-19,689	0,054	0,024
-320,299	-200,000	0,019	0,087
-319,285	-14,310	0,121	0,056
-318,270	237,355	-0,036	-0,043
-317,256	-120,540	-0,120	-0,014
-316,241	3,417	0,030	0,016
-315,226	-200,000	0,030	0,123
-314,212	-51,899	0,133	0,044
-313,197	-43,704	0,152	0,054
-312,183	-200,000	0,018	-0,137
-311,168	-200,000	-0,001	-0,108
-310,153	-200,000	-0,007	-0,058
-309,139	117,868	-0,113	-0,100
-308,124	527,564	0,067	-0,113
-307,110	167,979	0,093	-0,095
-306,095	-37,581	0,022	-0,008
-305,080	-200,000	0,040	0,137
-304,066	800,000	-0,042	-0,111
-303,051	171,110	-0,015	-0,016
-302,037	-200,000	0,020	-0,190
-301,022	-200,000	0,015	-0,050
-300,008	353,895	-0,047	0,067
-298,993	329,228	0,089	0,122
-297,978	-147,069	0,039	-0,002
-296,964	423,691	-0,067	-0,103
-295,949	-18,745	-0,153	-0,068
-294,935	-200,000	-0,014	-0,118
-293,920	487,652	0,018	-0,030
-292,905	52,360	0,091	0,062
-291,891	-187,727	0,191	0,002
-290,876	6,825	-0,107	-0,057
-289,862	-128,147	0,055	-0,005
-288,847	223,277	0,067	-0,077
-287,832	-167,846	-0,102	-0,003
-286,818	-200,000	0,002	0,047
-285,803	-58,113	0,139	0,043
-284,789	457,819	-0,063	0,100
-283,774	-200,000	0,012	0,066
-282,759	46,975	-0,055	0,036
-281,745	169,445	-0,047	-0,048
-280,730	-95,644	-0,073	-0,014
-279,716	-200,000	-0,022	0,089
-278,701	800,000	-0,051	0,118
-277,686	-122,107	0,095	-0,011
-276,672	19,813	0,106	0,060
-275,657	-200,000	-0,017	0,073
-274,643	-200,000	-0,002	-0,030
-273,628	800,000	0,044	0,108
-272,613	800,000	0,035	-0,079
-271,599	414,945	-0,059	0,090
-270,584	800,000	0,064	0,142
-269,570	-5,708	-0,105	0,051
-268,555	-87,928	0,109	0,023
-267,540	-30,551	-0,059	0,024
-266,526	49,222	-0,069	0,046
-265,511	-200,000	0,005	0,042
-264,497	-114,856	0,074	-0,010
-263,482	-125,099	0,068	0,007
-262,467	-173,476	-0,060	0,001
-261,453	207,220	-0,071	-0,079
-260,438	-200,000	0,009	0,154
-259,424	800,000	0,014	-0,042
-258,409	-142,011	0,043	0,003
-257,395	-50,345	0,079	0,026
-256,380	152,519	-0,034	-0,033
-255,365	25,090	0,071	0,042
-254,351	375,359	-0,051	0,075
-253,336	800,000	-0,034	-0,104
-252,322	-33,145	-0,031	0,012
-251,307	31,291	0,109	0,066
-250,292	317,207	0,047	-0,063
-249,278	187,215	0,075	0,079
-248,263	800,000	-0,011	-0,022
-247,249	-200,000	0,027	-0,100
-246,234	-95,047	-0,135	0,026
-245,219	-200,000	-0,013	-0,042
-244,205	800,000	-0,032	-0,095
-243,190	224,130	0,054	-0,063
-242,176	283,231	0,066	-0,084
-241,161	-24,108	0,035	0,015
-240,146	800,000	0,011	0,027
-239,132	-200,000	0,001	0,023
-238,117	372,579	0,022	-0,031
-237,103	501,945	-0,053	0,087
-236,088	-200,000	0,001	-0,147
-235,073	111,880	0,139	0,119
-234,059	-124,642	0,251	0,027
-233,044	162,011	0,101	0,101
-232,030	-200,000	-0,019	0,066
-231,015	35,805	0,020	-0,012
-230,000	800,000	-0,014	-0,044
-228,986	-200,000	0,038	0,204
-227,971	78,061	0,083	0,063
-226,957	-20,089	-0,018	-0,008
-225,942	-200,000	0,018	0,062
-224,927	-7,549	0,182	-0,087
-223,913	-16,011	-0,141	0,064
-222,898	800,000	0,025	-0,068
-221,884	-63,473	-0,101	-0,029
-220,869	248,555	-0,100	-0,120
-219,855	-82,002	0,119	-0,027
-218,840	179,428	-0,123	0,128
-217,825	260,253	0,068	0,083
-216,811	800,000	-0,015	0,035
-215,796	283,702	0,026	-0,034
-214,782	-200,000	0,008	-0,099
-213,767	-56,896	0,107	-0,034
-212,752	261,615	0,068	0,083
-211,738	-71,939	-0,036	-0,009
-210,723	-200,000	-0,002	-0,079
-209,709	800,000	0,051	-0,133
-208,694	-151,777	-0,137	-0,007
-207,679	-36,622	0,165	-0,063
-206,665	26,831	-0,048	-0,028
-205,650	271,994	0,123	0,155
-204,636	216,786	-0,068	0,077
-203,621	800,000	0,034	0,086
-202,606	-200,000	-0,016	-0,065
-201,592	800,000	-0,041	-0,096
-200,577	-0,366	-0,039	0,020
-199,563	92,397	0,068	-0,055
-198,548	800,000	-0,044	0,106
-197,533	800,000	0,036	0,099
-196,519	84,990	-0,118	0,091
-195,504	-93,135	0,048	-0,009
-194,490	478,630	0,018	-0,030
-193,475	254,707	-0,043	-0,052
-192,460	31,663	0,040	0,024
-191,446	368,465	0,055	-0,079
-190,431	-58,361	-0,052	0,016
-189,417	-200,000	-0,014	0,153
-188,402	-67,879	0,074	0,020
-187,387	207,969	0,018	0,020
-186,373	235,770	-0,063	-0,074
-185,358	108,243	-0,093	-0,079
-184,344	-158,383	0,011	0,000
-183,329	-86,965	0,005	0,001
-182,315	-200,000	-0,018	-0,074
-181,300	215,334	0,050	-0,057
-180,285	-200,000	0,010	-0,136
-179,271	800,000	0,051	-0,131
-178,256	179,355	0,088	0,091
-177,242	78,904	-0,033	0,025
-176,227	-63,144	0,130	0,038
-175,212	-135,459	0,096	-0,008
-174,198	184,956	-0,016	0,017
-173,183	119,612	-0,090	-0,079
-172,169	-200,000	-0,022	-0,092
-171,154	-200,000	0,003	-0,038
-170,139	18,378	0,118	0,067
-169,125	-186,077	0,057	-0,001
-168,110	-99,934	0,165	0,029
-167,096	800,000	0,042	0,099
-166,081	-76,982	0,023	0,006
-165,066	-200,000	-0,004	-0,046
-164,052	-17,968	-0,081	-0,036
-163,037	18,282	0,065	-0,037
-162,023	204,353	0,056	0,062
-161,008	326,943	-0,043	0,059
-159,993	800,000	-0,052	0,128
-158,979	524,250	-0,015	0,025
-157,964	251,217	0,044	0,053
-156,950	9,910	-0,141	-0,076
-155,935	321,215	-0,016	0,022
-154,920	682,169	-0,061	0,113
-153,906	800,000	0,031	-0,065
-152,891	536,234	0,037	-0,063
-151,877	645,510	0,086	0,156
-150,862	283,798	-0,045	-0,058
-149,847	-50,131	-0,074	-0,025
-148,833	21,755	-0,023	-0,013
-147,818	-200,000	0,023	-0,097
-146,804	614,275	-0,046	0,082
-145,789	78,472	0,072	0,055
-144,775	377,506	-0,081	0,117
-143,760	-156,214	0,121	0,005
-142,745	-27,522	-0,087	-0,035
-141,731	-86,548	0,108	0,023
-140,716	17,437	-0,009	-0,005
-139,702	-200,000	0,008	-0,061
-138,687	-17,330	-0,031	0,014
-137,672	49,228	0,054	0,036
-136,658	-16,886	-0,107	0,048
-135,643	243,254	0,106	-0,126
-134,629	800,000	-0,017	-0,034
-133,614	-68,963	0,067	-0,018
-132,599	-200,000	-0,035	-0,118
-131,585	449,702	-0,038	0,059
-130,570	-84,436	0,102	0,023
-129,556	128,824	-0,058	-0,052
-128,541	476,506	-0,086	-0,137
-127,526	307,252	-0,060	-0,079
-126,512	-55,877	-0,045	-0,014
-125,497	800,000	0,043	0,118
-124,483	-200,000	-0,002	-0,011
-123,468	79,885	-0,054	0,041
-122,453	-40,663	-0,093	0,034
-121,439	-200,000	0,002	0,021
-120,424	114,692	-0,082	-0,070
-119,410	151,757	0,140	0,135
-118,395	180,917	0,093	-0,097
-117,380	135,499	0,030	0,028
-116,366	224,275	0,036	-0,041
-115,351	-105,469	0,076	-0,012
-114,337	513,188	-0,045	0,075
-113,322	255,782	-0,104	-0,127
-112,307	528,369	0,083	0,139
-111,293	155,419	0,042	0,041
-110,278	769,040	-0,077	0,150
-109,264	-200,000	-0,014	0,136
-108,249	386,914	-0,123	-0,180
-107,234	146,350	-0,153	-0,145
-106,220	12,398	0,044	-0,024
-105,205	-200,000	-0,007	0,113
-104,191	-200,000	-0,020	-0,105
-103,176	-65,500	0,029	-0,008
-102,162	800,000	-0,030	0,094
-101,147	-86,151	0,114	0,025
-100,132	154,790	-0,141	-0,137
-99,118	391,057	-0,074	-0,109
-98,103	-134,772	-0,100	-0,008
-97,089	314,935	0,053	0,071
-96,074	-57,876	0,116	-0,036
-95,059	800,000	0,035	0,099
-94,045	-43,828	-0,095	0,034
-93,030	-200,000	-0,001	-0,049
-92,016	-129,940	-0,093	-0,009
-91,001	81,749	0,036	-0,027
-89,986	-200,000	-0,002	0,099
-88,972	69,061	0,086	-0,062
-87,957	401,396	-0,103	-0,153
-86,943	-31,560	0,100	-0,039
-85,928	347,156	-0,030	0,042
-84,913	-40,575	-0,085	-0,031
-83,899	-200,000	-0,001	0,051
-82,884	-200,000	-0,005	0,075
-81,870	-171,815	0,054	-0,001
-80,855	-200,000	0,014	0,076
-79,840	-76,795	0,046	-0,011
-78,826	449,481	0,075	-0,117
-77,811	74,410	-0,043	-0,032
-76,797	-65,749	0,096	-0,027
-75,782	-109,877	-0,047	0,007
-74,767	-64,008	0,178	-0,051
-73,753	-200,000	-0,026	0,081
-72,738	687,920	0,041	-0,077
-71,724	-80,674	0,052	-0,012
-70,709	108,508	-0,090	-0,076
-69,694	48,307	-0,050	0,033
-68,680	20,216	0,090	-0,051
-67,665	120,511	0,121	-0,106
-66,651	-200,000	-0,013	0,103
-65,636	20,758	0,128	0,073
-64,622	-128,292	-0,164	0,016
-63,607	673,622	0,044	0,080
-62,592	348,326	-0,129	-0,181
-61,578	49,014	0,170	0,113
-60,563	800,000	0,031	0,087
-59,549	-200,000	-0,002	0,280
-58,534	5,562	-1,923	-1,000
-57,519	438,873	-1,282	-1,984
-56,505	-200,000	-0,206	-4,357
-55,490	451,118	0,955	1,494
-54,476	800,000	4,962	11,128
-53,461	-200,000	21,013	329,411
-52,446	800,000	757,470	2324,197
-51,432	549,724	1662,727	2825,683
-50,417	73,439	1663,843	1228,417
-49,403	18,671	1537,084	866,004
-48,388	12,679	1459,933	793,530
-47,373	19,035	1450,824	819,082
-46,359	15,830	1440,175	797,779
-45,344	10,915	1436,163	772,097
-44,330	10,876	1434,142	770,797
-43,315	10,842	1432,180	769,550
-42,300	10,872	1430,503	768,760
-41,286	10,918	1429,067	768,177
-40,271	10,814	1428,097	767,132
-39,257	10,839	1426,777	766,508
-38,242	10,901	1425,605	766,143
-37,227	10,879	1424,507	765,420
-36,213	10,913	1423,095	764,791
-35,198	10,911	1422,138	764,236
-34,184	10,963	1421,168	763,929
-33,169	10,899	1419,841	762,886
-32,154	10,937	1418,790	762,471
-31,140	10,931	1417,649	761,798
-30,125	11,017	1416,413	761,509
-29,111	10,940	1415,416	760,578
-28,096	10,922	1414,387	759,910
-27,082	10,866	1413,065	758,906
-26,067	10,897	1411,824	758,359
-25,052	10,871	1410,992	757,758
-24,038	10,904	1409,888	757,292
-23,023	10,829	1409,094	756,483
-22,009	10,881	1408,011	756,115
-20,994	10,846	1406,897	755,324
-19,979	10,860	1406,078	754,919
-18,965	10,821	1405,160	754,213
-17,950	10,812	1404,205	753,630
-16,936	10,794	1403,250	753,003
-15,921	10,746	1402,491	752,342
-14,906	10,758	1401,689	751,936
-13,892	10,799	1400,477	751,446
-12,877	10,793	1399,571	750,906
-11,863	10,719	1399,023	750,237
-10,848	10,719	1397,959	749,633
-9,833	10,716	1396,991	749,074
-8,819	10,655	1396,270	748,375
-7,804	10,652	1395,279	747,800
-6,790	10,700	1394,360	747,497
-5,775	10,708	1393,203	746,887
-4,760	10,735	1392,135	746,409
-3,746	10,715	1391,291	745,833
-2,731	10,648	1390,555	745,099
-1,717	10,659	1389,726	744,678
-0,702	10,660	1387,922	743,687
0,313	14,716	1301,372	715,890
1,327	31,020	692,710	418,143
2,342	48,137	120,118	79,126
3,356	1,785	16,420	8,323
4,371	7,175	3,358	1,762
5,386	16,528	0,865	0,481
6,400	800,000	0,182	0,415
7,415	14,752	-0,201	-0,111
8,429	-45,955	-0,365	-0,126
9,444	134,521	-0,306	-0,280
10,459	-6,131	-0,247	-0,119
11,473	-31,638	-0,349	-0,137
12,488	105,244	-0,256	-0,213
13,502	2,419	-0,325	-0,165
14,517	133,124	-0,263	-0,240
15,531	239,003	-0,328	-0,385
16,546	124,537	-0,272	-0,241
17,561	212,226	-0,262	-0,292
18,575	-101,554	-0,223	-0,038
19,590	74,863	-0,213	-0,158
20,604	-26,778	-0,135	-0,056
21,619	83,606	-0,455	-0,349
22,634	3,337	-0,464	-0,237
23,648	277,222	-0,293	-0,368
24,663	30,086	-0,496	-0,297
25,677	-40,830	-0,387	-0,140
26,692	66,413	-0,317	-0,227
27,707	38,673	-0,492	-0,309
28,721	41,437	-0,326	-0,208
29,736	144,743	-0,401	-0,377
30,750	143,746	-0,417	-0,391
31,765	124,850	-0,302	-0,267
32,780	-57,107	-0,308	-0,095
33,794	49,476	-0,247	-0,163
34,809	150,784	-0,296	-0,283
35,823	183,344	-0,282	-0,294
36,838	134,589	-0,394	-0,360
37,853	154,634	-0,234	-0,226
38,867	32,274	-0,405	-0,245
39,882	70,557	-0,281	-0,204
40,896	124,021	-0,276	-0,244
41,911	159,245	-0,209	-0,205
42,926	141,122	-0,299	-0,278
43,940	33,222	-0,378	-0,230
44,955	72,011	-0,359	-0,262
45,969	55,034	-0,269	-0,183
46,984	177,045	-0,295	-0,302
47,999	87,024	-0,307	-0,238
49,013	226,344	-0,198	-0,227
50,028	102,607	-0,261	-0,214
51,042	281,407	-0,263	-0,332
52,057	239,903	-0,264	-0,310
53,071	63,766	-0,273	-0,193
54,086	26,626	-0,320	-0,187
55,101	88,560	-0,334	-0,261
56,115	99,732	-0,219	-0,178
57,130	-53,568	-0,498	-0,159
58,144	-10,643	-0,366	-0,170
59,159	5,647	-0,281	-0,145
60,174	4,362	-0,449	-0,230
61,188	4,149	-0,401	-0,206
62,203	-16,165	-0,344	-0,153
63,217	248,146	-0,191	-0,227
64,232	-38,104	-0,329	-0,122
65,247	64,942	-0,444	-0,314
66,261	310,510	-0,323	-0,426
67,276	80,892	-0,421	-0,319
68,290	-8,220	-0,271	-0,128
69,305	-6,767	-0,453	-0,215
70,320	-112,625	-0,241	0,033
71,334	-61,065	-0,260	-0,077
72,349	336,233	-0,166	-0,227
73,363	28,677	-0,256	-0,152
74,378	102,685	-0,285	-0,234
75,393	143,654	-0,298	-0,279
76,407	-4,080	-0,262	-0,127
77,422	159,113	-0,243	-0,237
78,436	304,807	-0,190	-0,248
79,451	-133,543	-0,375	-0,032
80,466	79,065	-0,249	-0,187
81,480	407,882	-0,122	-0,182
82,495	-63,978	-0,414	-0,118
83,509	-3,510	-0,294	-0,143
84,524	-31,699	-0,369	-0,144
85,539	111,380	-0,340	-0,287
86,553	-45,275	-0,423	-0,146
87,568	71,061	-0,228	-0,166
88,582	47,991	-0,341	-0,223
89,597	88,101	-0,272	-0,211
90,611	22,307	-0,276	-0,158
91,626	-102,632	-0,260	-0,043
92,641	-26,587	-0,321	-0,131
93,655	27,730	-0,256	-0,151
94,670	86,953	-0,323	-0,250
95,684	354,806	-0,187	-0,262
96,699	-2,221	-0,390	-0,191
97,714	-10,403	-0,225	-0,104
98,728	-36,957	-0,251	-0,094
99,743	134,232	-0,208	-0,189
100,757	481,566	-0,128	-0,205
101,772	416,252	-0,169	-0,254
102,787	102,418	-0,294	-0,240
103,801	182,331	-0,200	-0,206
104,816	14,351	-0,234	-0,127
105,830	254,832	-0,097	-0,117
106,845	-6,866	-0,182	-0,086
107,860	60,851	-0,266	-0,184
108,874	26,885	-0,225	-0,131
109,889	167,067	-0,238	-0,236
110,903	239,216	-0,221	-0,257
111,918	343,595	-0,256	-0,351
112,933	227,820	-0,251	-0,285
113,947	64,876	-0,176	-0,124
114,962	-27,845	-0,297	-0,120
115,976	-20,279	-0,299	-0,128
116,991	-18,078	-0,311	-0,135
118,006	307,092	-0,207	-0,270
119,020	800,000	-0,108	-0,214
120,035	193,201	-0,119	-0,126
121,049	243,474	-0,136	-0,159
122,064	596,803	-0,070	-0,121
123,079	800,000	-0,046	-0,122
124,093	-21,001	-0,336	-0,143
125,108	87,693	-0,256	-0,198
126,122	175,154	-0,265	-0,269
127,137	-75,821	-0,195	-0,048
128,151	70,918	-0,174	-0,126
129,166	-67,749	-0,247	-0,067
130,181	15,362	-0,302	-0,165
131,195	-36,723	-0,353	-0,132
132,210	-41,186	-0,210	-0,075
133,224	499,922	-0,161	-0,261
134,239	17,103	-0,268	-0,148
135,254	177,370	-0,202	-0,205
136,268	-106,967	-0,255	0,039
137,283	-50,801	-0,256	-0,084
138,297	-23,627	-0,383	-0,160
139,312	300,874	-0,205	-0,265
140,327	-125,390	-0,205	-0,021
141,341	40,595	-0,229	-0,144
142,356	205,917	-0,211	-0,229
143,370	800,000	-0,142	-0,313
144,385	52,484	-0,241	-0,160
145,400	72,030	-0,206	-0,149
146,414	28,919	-0,307	-0,181
147,429	-5,847	-0,256	-0,121
148,443	-35,898	-0,171	-0,064
149,458	-63,447	-0,236	-0,067
150,473	-135,327	-0,113	-0,009
151,487	-192,519	-0,280	-0,002
152,502	139,825	-0,210	-0,193
153,516	-85,615	-0,368	-0,079
154,531	-200,000	-0,047	-0,206
155,546	-11,114	-0,266	-0,122
156,560	5,195	-0,147	-0,075
157,575	-168,078	-0,165	0,004
158,589	167,678	-0,190	-0,188
159,604	89,493	-0,313	-0,243
160,619	161,376	-0,294	-0,286
161,633	351,901	-0,087	-0,121
162,648	-10,960	-0,170	-0,078
163,662	-25,948	-0,281	-0,115
164,677	-120,135	-0,237	-0,028
165,692	281,380	-0,267	-0,333
166,706	60,580	-0,137	-0,094
167,721	71,294	-0,133	-0,096
168,735	-137,607	-0,319	-0,025
169,750	9,258	-0,307	-0,161
170,764	5,733	-0,198	-0,102
171,779	-18,914	-0,270	-0,116
172,794	82,796	-0,150	-0,113
173,808	-86,272	-0,240	-0,051
174,823	29,686	-0,203	-0,120
175,837	147,161	-0,321	-0,300
176,852	108,340	-0,233	-0,193
177,867	-64,890	-0,172	-0,048
178,881	34,691	-0,137	0,083
179,896	439,550	-0,118	-0,179
180,910	-115,823	-0,251	-0,032
181,925	182,031	-0,213	-0,218
182,940	-137,159	-0,171	-0,013
183,954	-62,911	-0,272	-0,077
184,969	251,218	-0,179	-0,212
185,983	-6,906	-0,286	-0,135
186,998	566,401	-0,164	-0,277
188,013	-4,156	-0,243	-0,117
189,027	177,451	-0,124	-0,125
190,042	-142,148	-0,260	-0,018
191,056	-18,811	-0,297	-0,128
192,071	-125,100	-0,195	-0,021
193,086	800,000	-0,076	-0,197
194,100	-49,346	-0,133	-0,044
195,115	234,551	-0,163	-0,187
196,129	800,000	-0,096	-0,269
197,144	641,134	-0,148	-0,262
198,159	56,447	-0,155	-0,105
199,173	258,662	-0,096	-0,115
200,188	94,010	-0,182	-0,143
201,202	-178,452	-0,185	-0,003
202,217	50,565	-0,169	-0,111
203,232	78,361	-0,220	-0,162
204,246	251,541	-0,158	-0,186
205,261	211,785	-0,215	-0,235
206,275	415,274	-0,119	-0,176
207,290	84,229	-0,157	-0,119
208,304	-115,713	-0,203	-0,026
209,319	245,949	-0,194	-0,227
210,334	173,121	-0,220	-0,220
211,348	29,695	-0,307	-0,181
212,363	248,904	-0,194	-0,228
213,377	363,037	-0,170	-0,237
214,392	297,015	-0,131	-0,166
215,407	337,085	-0,102	-0,138
216,421	800,000	-0,034	-0,091
217,436	-74,013	-0,304	-0,076
218,450	26,764	-0,137	0,079
219,465	-24,982	-0,144	-0,059
220,480	655,823	-0,130	-0,233
221,494	800,000	-0,094	-0,274
222,509	800,000	-0,078	-0,201
223,523	-45,463	-0,087	0,030
224,538	-66,367	-0,304	-0,083
225,553	-22,336	-0,252	-0,105
226,567	547,146	-0,200	-0,332
227,582	255,349	-0,227	-0,269
228,596	-200,000	-0,053	-0,245
229,611	242,567	-0,078	-0,090
230,626	-78,902	-0,049	-0,011
231,640	204,805	-0,161	-0,172
232,655	165,162	-0,249	-0,244
233,669	125,368	-0,182	-0,159
234,684	188,238	-0,207	-0,214
235,699	222,343	-0,109	-0,121
236,713	225,918	-0,177	-0,199
237,728	-115,559	-0,228	-0,029
238,742	-20,794	-0,218	-0,092
239,757	-85,937	-0,186	0,039
240,772	-175,862	-0,122	-0,002
241,786	-40,214	-0,222	-0,079
242,801	800,000	-0,083	-0,184
243,815	180,527	-0,154	-0,156
244,830	-174,437	-0,241	-0,005
245,844	-14,154	-0,159	0,070
246,859	130,624	-0,173	-0,154
247,874	99,052	-0,160	-0,127
248,888	257,680	-0,173	-0,206
249,903	-62,751	-0,270	-0,077
250,917	186,763	-0,178	-0,184
251,932	313,575	-0,135	-0,176
252,947	269,906	-0,167	-0,203
253,961	10,162	-0,352	-0,184
254,976	79,559	-0,259	-0,191
255,990	800,000	-0,087	-0,219
257,005	-52,450	-0,209	-0,066
258,020	149,777	-0,072	-0,067
259,034	16,085	-0,160	-0,087
260,049	41,464	-0,163	-0,102
261,063	539,469	-0,139	-0,228
262,078	225,039	-0,091	-0,102
263,093	-3,830	-0,105	-0,050
264,107	190,323	-0,137	-0,143
265,122	565,646	-0,126	-0,211
266,136	16,935	-0,037	-0,020
267,151	-170,816	-0,227	0,005
268,166	412,727	-0,123	-0,181
269,180	55,764	-0,221	-0,147
270,195	-200,000	-0,076	-0,278
271,209	72,990	-0,219	-0,157
272,224	61,467	-0,194	-0,133
273,239	30,331	-0,101	-0,059
274,253	15,891	-0,119	0,064
275,268	15,809	-0,271	-0,146
276,282	325,410	-0,199	-0,263
277,297	-117,843	-0,250	-0,030
278,312	-89,922	-0,304	-0,061
279,326	588,081	-0,083	-0,141
280,341	-110,522	-0,082	-0,012
281,355	150,926	-0,141	-0,132
282,370	322,457	-0,114	-0,149
283,384	-152,455	-0,150	-0,007
284,399	571,855	-0,073	-0,123
285,414	175,590	-0,126	-0,125
286,428	-126,028	-0,077	-0,008
287,443	-200,000	-0,030	-0,180
288,457	-200,000	-0,053	-0,179
289,472	204,007	-0,173	-0,185
290,487	19,192	-0,224	-0,124
291,501	155,879	-0,090	-0,086
292,516	-200,000	-0,046	-0,218
293,530	-200,000	-0,001	-0,046
294,545	-200,000	0,003	-0,016
295,560	-1,637	-0,117	-0,057
296,574	-75,185	-0,124	0,030
297,589	135,419	-0,194	-0,173
298,603	230,306	-0,160	-0,180
299,618	-17,593	-0,233	-0,100
300,633	-123,746	-0,172	-0,018
301,647	800,000	-0,063	-0,178
302,662	-200,000	-0,025	-0,118
303,676	26,408	-0,190	-0,109
304,691	66,382	-0,179	-0,125
305,706	222,756	-0,141	-0,156
306,720	-78,227	-0,224	-0,052
307,735	220,300	-0,129	-0,143
308,749	-137,254	-0,143	-0,011
309,764	-113,786	-0,115	-0,015
310,779	641,907	-0,105	-0,185
311,793	89,175	-0,151	-0,115
312,808	336,393	-0,198	-0,264
313,822	503,539	-0,096	-0,153
314,837	800,000	-0,088	-0,198
315,852	800,000	-0,078	-0,155
316,866	-102,655	-0,142	-0,023
317,881	-78,262	-0,175	-0,041
318,895	-36,789	-0,084	-0,031
319,910	17,003	-0,269	-0,146
320,925	561,659	-0,123	-0,205
321,939	533,754	-0,102	-0,166
322,954	-106,649	-0,043	-0,006
323,968	80,942	-0,180	-0,133
324,983	291,833	-0,203	-0,254
325,997	511,752	-0,055	-0,088
327,012	282,736	-0,071	-0,087
328,027	6,465	-0,182	-0,093
329,041	487,265	-0,087	-0,137
330,056	478,909	-0,071	-0,111
331,070	-46,631	-0,198	-0,066
332,085	-181,985	-0,150	0,002
333,100	800,000	-0,093	-0,247
334,114	372,712	-0,144	-0,202
335,129	-70,766	-0,199	-0,051
336,143	-89,017	-0,054	0,011
337,158	432,215	-0,139	-0,208
338,173	431,640	-0,068	-0,102
339,187	-3,685	-0,156	-0,074
340,202	291,106	-0,075	-0,093
341,216	104,648	-0,123	-0,099
342,231	-3,177	-0,173	-0,082
343,246	-200,000	-0,042	-0,161
344,260	53,366	-0,119	-0,078
345,275	-45,222	-0,129	-0,044
346,289	387,225	-0,063	0,089
347,304	-119,782	-0,065	0,008
348,319	-115,855	-0,103	0,013
349,333	381,342	-0,107	-0,151
350,348	-39,125	-0,153	-0,055
351,362	-184,995	-0,186	0,002
352,377	-200,000	-0,011	-0,129
353,392	140,257	-0,088	-0,079
354,406	-69,082	-0,165	-0,043
355,421	207,061	1308,786	1397,661
356,435	159,270	1468,767	1398,143
