DTS Sentinel unit serial number:	SN410029Multiplexer serial number:	ORYXHardware model number:	OX2-SRSoftware version number:	ORYX F/W v4,00 Oryx Data Collector v3.7.2.0data status	okinstallation	B3 Nyhavnadifferential loss correction	single-endedforward channel	channel 1reverse channel	N/Adate	2023/12/03time	13:32:30forward acquisition time	300,00reverse acquisition time	0,00gamma	499,1914k internal	0,3200k external	0,3200temperature offset calibration	1,0000default loss term (dB/km)	0,3820temperature slope calibration	1,0000multiplexer offset coefficient	1,0000multiplexer slope coefficient	1,0000fibre end	0,00T internal ref (°C)	15,09T ext. ref 1 (°C)	1,33T ext. ref 2 (°C)	1,31length (m)	temperature (°C)	Stokes	anti-Stokes-744,400	-200,000	-0,084	-0,353
-743,385	-200,000	-0,050	0,317
-742,371	800,000	-0,145	-0,339
-741,356	-200,000	-0,015	0,333
-740,342	-53,069	-0,158	-0,053
-739,327	-200,000	0,028	0,384
-738,312	276,026	-0,195	-0,253
-737,298	800,000	0,112	0,290
-736,283	424,207	-0,065	-0,102
-735,269	-200,000	0,063	0,263
-734,254	151,771	-0,194	-0,193
-733,239	667,935	-0,070	0,132
-732,225	199,508	-0,184	-0,206
-731,210	183,310	0,093	0,100
-730,196	-30,540	-0,065	-0,026
-729,181	-136,595	-0,177	0,015
-728,167	-194,200	0,032	0,000
-727,152	-43,791	-0,163	-0,059
-726,137	324,878	-0,059	-0,083
-725,123	-200,000	-0,008	-0,114
-724,108	-105,019	-0,099	-0,016
-723,094	-6,302	-0,085	0,042
-722,079	-41,133	0,134	0,050
-721,064	21,186	0,030	-0,018
-720,050	339,601	-0,041	0,058
-719,035	-200,000	-0,026	-0,089
-718,021	10,795	-0,068	-0,037
-717,006	-31,223	-0,098	-0,040
-715,991	31,259	-0,176	-0,110
-714,977	-95,649	-0,122	0,023
-713,962	159,174	-0,122	0,123
-712,948	-179,220	0,020	0,000
-711,933	800,000	0,028	-0,083
-710,918	65,501	-0,033	-0,024
-709,904	-181,629	0,123	0,002
-708,889	-200,000	0,002	-0,154
-707,875	520,415	-0,048	0,082
-706,860	48,867	-0,078	-0,053
-705,845	-109,338	0,080	0,012
-704,831	10,404	-0,132	-0,073
-703,816	-200,000	0,019	-0,100
-702,802	-107,861	-0,171	-0,027
-701,787	123,808	-0,098	-0,089
-700,772	37,544	-0,125	-0,080
-699,758	230,023	-0,055	-0,065
-698,743	800,000	0,042	0,112
-697,729	21,382	0,146	0,086
-696,714	-200,000	-0,009	-0,111
-695,699	-52,785	0,125	-0,042
-694,685	169,643	-0,133	-0,138
-693,670	-200,000	0,002	-0,083
-692,656	8,373	-0,024	0,013
-691,641	-200,000	-0,024	0,126
-690,627	-200,000	-0,024	0,094
-689,612	-200,000	0,006	0,062
-688,597	4,343	-0,018	-0,010
-687,583	52,123	-0,127	-0,088
-686,568	-200,000	0,019	-0,077
-685,554	-200,000	-0,007	-0,091
-684,539	112,338	0,092	-0,081
-683,524	-200,000	-0,018	0,114
-682,510	-141,454	-0,064	0,005
-681,495	-200,000	-0,002	-0,103
-680,481	800,000	-0,059	-0,185
-679,466	-200,000	-0,006	-0,127
-678,451	800,000	0,073	-0,164
-677,437	186,668	0,093	0,101
-676,422	800,000	-0,030	0,074
-675,408	433,493	-0,016	0,025
-674,393	-18,531	-0,134	0,061
-673,378	-200,000	0,060	-0,195
-672,364	-142,317	-0,121	-0,009
-671,349	32,617	-0,159	0,100
-670,335	121,380	0,090	-0,081
-669,320	-200,000	0,013	0,072
-668,305	-39,607	0,083	-0,032
-667,291	800,000	-0,011	-0,030
-666,276	628,505	0,037	-0,069
-665,262	800,000	-0,103	-0,215
-664,247	117,434	0,003	-0,003
-663,232	794,507	-0,061	0,123
-662,218	-76,333	0,032	-0,008
-661,203	9,049	-0,038	0,021
-660,189	800,000	0,021	-0,054
-659,174	143,050	0,057	-0,055
-658,159	-159,410	0,024	0,001
-657,145	-40,928	-0,162	-0,061
-656,130	478,026	0,030	0,049
-655,116	295,551	-0,045	0,060
-654,101	-86,636	0,102	-0,023
-653,086	800,000	-0,022	0,068
-652,072	-63,646	-0,121	-0,036
-651,057	284,656	0,074	-0,097
-650,043	247,562	-0,092	-0,113
-649,028	75,384	0,022	-0,017
-648,014	59,999	0,051	-0,037
-646,999	-200,000	-0,017	0,126
-645,984	95,525	-0,112	-0,093
-644,970	-200,000	0,004	-0,020
-643,955	-156,865	-0,141	-0,006
-642,941	716,432	-0,047	-0,092
-641,926	8,125	0,051	-0,028
-640,911	800,000	0,055	-0,124
-639,897	380,753	-0,047	-0,070
-638,882	-200,000	0,001	0,145
-637,868	293,407	-0,017	-0,022
-636,853	159,074	0,006	-0,006
-635,838	800,000	-0,041	0,107
-634,824	727,691	0,023	-0,045
-633,809	800,000	0,007	0,016
-632,795	800,000	-0,029	-0,061
-631,780	275,383	0,059	-0,076
-630,765	-100,714	-0,035	-0,006
-629,751	-200,000	0,019	0,110
-628,736	-126,188	-0,157	0,017
-627,722	3,470	-0,033	-0,017
-626,707	-200,000	0,052	0,185
-625,692	-54,674	0,105	0,034
-624,678	800,000	0,052	0,106
-623,663	38,421	-0,027	0,017
-622,649	413,685	-0,099	-0,153
-621,634	-200,000	0,003	-0,242
-620,619	-169,463	-0,024	0,001
-619,605	-200,000	-0,004	0,058
-618,590	401,523	-0,095	0,144
-617,576	-157,686	0,041	-0,002
-616,561	212,245	0,137	0,157
-615,546	116,131	0,016	-0,014
-614,532	-200,000	-0,015	-0,125
-613,517	191,276	-0,037	-0,040
-612,503	-21,479	0,075	-0,033
-611,488	-200,000	0,018	0,143
-610,474	460,405	0,062	0,100
-609,459	-14,899	0,057	-0,027
-608,444	-200,000	0,018	-0,123
-607,430	-52,285	0,039	-0,013
-606,415	-200,000	0,007	0,045
-605,401	215,348	-0,101	-0,116
-604,386	-44,620	0,029	-0,010
-603,371	231,350	-0,045	0,053
-602,357	-176,641	-0,103	-0,002
-601,342	-200,000	0,006	0,165
-600,328	800,000	0,031	-0,068
-599,313	800,000	-0,019	0,052
-598,298	-200,000	0,005	0,078
-597,284	800,000	0,044	0,106
-596,269	-17,901	-0,057	0,026
-595,255	-200,000	0,010	-0,043
-594,240	-200,000	-0,004	-0,092
-593,225	800,000	-0,017	0,041
-592,211	-200,000	-0,022	-0,104
-591,196	800,000	0,040	-0,099
-590,182	178,257	-0,066	0,070
-589,167	56,034	0,113	-0,079
-588,152	-97,642	-0,081	-0,015
-587,138	800,000	-0,034	-0,076
-586,123	110,586	-0,092	0,080
-585,109	800,000	0,104	-0,216
-584,094	800,000	-0,016	-0,042
-583,079	-76,606	0,136	0,034
-582,065	109,618	0,057	0,049
-581,050	-200,000	0,015	-0,054
-580,036	82,853	0,041	-0,032
-579,021	177,808	0,065	-0,068
-578,006	-53,068	-0,202	0,067
-576,992	-102,791	0,103	-0,017
-575,977	-26,682	0,019	-0,008
-574,963	465,844	-0,119	-0,193
-573,948	-200,000	0,009	-0,047
-572,934	-118,750	-0,064	0,008
-571,919	66,603	-0,099	-0,072
-570,904	33,092	-0,095	-0,059
-569,890	56,828	-0,072	-0,050
-568,875	-32,803	0,088	-0,035
-567,861	-73,523	0,029	-0,007
-566,846	-122,500	0,058	0,007
-565,831	97,310	0,085	-0,070
-564,817	-94,768	-0,067	-0,013
-563,802	456,259	0,077	-0,125
-562,788	250,810	-0,062	-0,076
-561,773	50,232	-0,143	-0,097
-560,758	-14,619	0,092	0,043
-559,744	105,885	0,098	-0,083
-558,729	-200,000	-0,057	0,000
-557,715	-134,331	-0,019	-0,002
-556,700	293,076	-0,156	-0,206
-555,685	-103,619	-0,064	0,011
-554,671	355,326	-0,038	0,055
-553,656	-155,400	-0,086	0,004
-552,642	178,113	0,043	-0,046
-551,627	-22,477	-0,141	0,062
-550,612	800,000	0,020	0,046
-549,598	-200,000	0,020	-0,076
-548,583	-176,978	-0,073	-0,001
-547,569	457,487	-0,060	0,096
-546,554	-200,000	-0,006	0,039
-545,539	800,000	0,059	0,144
-544,525	800,000	0,056	0,125
-543,510	-200,000	-0,010	-0,087
-542,496	8,348	0,111	-0,060
-541,481	-81,373	-0,057	0,013
-540,466	760,323	0,022	-0,044
-539,452	-37,638	-0,032	0,012
-538,437	192,092	-0,086	0,093
-537,423	800,000	-0,022	0,048
-536,408	53,308	0,086	0,059
-535,393	611,366	0,019	-0,035
-534,379	-200,000	-0,003	-0,132
-533,364	-93,030	0,074	-0,015
-532,350	-99,878	0,016	0,003
-531,335	45,303	-0,003	0,002
-530,321	800,000	-0,068	0,166
-529,306	684,494	-0,036	-0,067
-528,291	-69,389	0,041	-0,011
-527,277	37,986	0,039	-0,025
-526,262	-200,000	-0,003	0,052
-525,248	-200,000	-0,032	-0,104
-524,233	522,363	0,040	0,069
-523,218	800,000	0,037	0,101
-522,204	-103,367	0,064	0,011
-521,189	7,604	-0,113	0,061
-520,175	-200,000	-0,001	-0,159
-519,160	-131,638	-0,039	0,004
-518,145	44,516	0,042	0,028
-517,131	140,672	0,061	-0,058
-516,116	55,296	0,063	-0,044
-515,102	133,783	0,026	0,025
-514,087	-200,000	-0,005	-0,112
-513,072	51,767	0,046	-0,031
-512,058	-200,000	0,001	0,004
-511,043	-147,320	0,217	-0,013
-510,029	-94,934	-0,071	-0,014
-509,014	226,204	-0,009	0,011
-507,999	221,191	-0,034	0,039
-506,985	-200,000	-0,012	-0,065
-505,970	-37,552	-0,101	-0,038
-504,956	39,493	-0,002	-0,001
-503,941	-37,888	0,060	0,023
-502,926	488,156	0,106	0,176
-501,912	70,871	-0,054	0,040
-500,897	-112,732	0,142	0,020
-499,883	-200,000	-0,017	0,107
-498,868	-41,760	-0,058	-0,021
-497,853	800,000	0,030	0,067
-496,839	-200,000	-0,013	-0,126
-495,824	-124,823	-0,060	0,007
-494,810	800,000	-0,009	-0,018
-493,795	-86,435	-0,035	0,008
-492,781	800,000	-0,036	-0,079
-491,766	-200,000	-0,003	-0,012
-490,751	-200,000	0,007	-0,061
-489,737	-4,100	-0,060	-0,030
-488,722	-47,392	0,153	-0,053
-487,708	-79,519	0,092	0,022
-486,693	-119,859	-0,079	0,010
-485,678	-65,556	-0,044	0,013
-484,664	-66,816	0,053	-0,015
-483,649	569,281	0,016	0,028
-482,635	-200,000	0,005	0,074
-481,620	164,688	-0,117	-0,119
-480,605	-7,769	0,061	0,030
-479,591	-52,509	0,059	-0,020
-478,576	-200,000	0,044	-0,149
-477,562	556,047	0,022	0,039
-476,547	11,278	0,101	0,055
-475,532	488,954	-0,064	-0,105
-474,518	266,858	0,101	0,127
-473,503	-195,852	-0,087	-0,000
-472,489	-21,652	-0,071	0,031
-471,474	-200,000	0,009	0,085
-470,459	203,510	-0,096	-0,107
-469,445	191,524	-0,101	0,110
-468,430	-77,415	-0,189	-0,047
-467,416	703,835	0,051	-0,097
-466,401	-200,000	0,016	-0,128
-465,386	252,388	-0,092	0,113
-464,372	800,000	-0,031	0,093
-463,357	200,306	-0,082	0,091
-462,343	449,527	-0,023	-0,037
-461,328	-3,759	-0,051	-0,026
-460,313	363,364	0,034	0,049
-459,299	-200,000	0,019	0,183
-458,284	-200,000	-0,025	0,104
-457,270	368,121	0,058	0,085
-456,255	-200,000	-0,008	0,066
-455,241	-47,391	-0,160	-0,056
-454,226	-77,489	-0,056	-0,014
-453,211	-20,304	0,115	0,051
-452,197	213,822	-0,156	0,177
-451,182	19,051	0,108	0,062
-450,168	120,417	-0,134	-0,120
-449,153	53,148	-0,187	-0,129
-448,138	49,879	0,035	-0,024
-447,124	-68,497	0,134	0,037
-446,109	-200,000	0,009	0,121
-445,095	148,412	0,061	0,059
-444,080	800,000	0,068	0,182
-443,065	30,295	-0,065	-0,040
-442,051	33,163	-0,071	0,044
-441,036	-97,939	-0,185	0,034
-440,022	800,000	-0,020	-0,044
-439,007	-200,000	-0,020	-0,105
-437,992	-155,908	0,100	0,005
-436,978	208,590	-0,048	-0,054
-435,963	-40,928	0,130	0,048
-434,949	-5,758	0,035	0,017
-433,934	256,664	0,080	-0,099
-432,919	141,285	-0,053	-0,051
-431,905	-200,000	-0,003	-0,052
-430,890	-200,000	-0,023	0,104
-429,876	800,000	0,048	0,133
-428,861	514,438	-0,018	0,030
-427,846	214,951	-0,048	0,055
-426,832	-200,000	0,002	-0,097
-425,817	150,760	0,022	-0,021
-424,803	8,706	0,075	0,040
-423,788	337,280	0,043	-0,060
-422,773	204,037	-0,069	0,077
-421,759	-34,741	0,144	0,056
-420,744	39,581	0,133	0,085
-419,730	-8,598	0,095	-0,046
-418,715	38,469	-0,095	0,061
-417,701	-172,192	-0,089	0,002
-416,686	800,000	0,036	0,091
-415,671	-80,967	-0,040	0,009
-414,657	-28,634	-0,065	0,027
-413,642	-50,248	0,033	-0,011
-412,628	54,084	-0,155	-0,107
-411,613	111,683	-0,110	0,096
-410,598	-200,000	0,002	0,076
-409,584	-48,059	0,215	0,074
-408,569	800,000	0,049	0,105
-407,555	-200,000	-0,019	-0,083
-406,540	-114,456	-0,036	-0,005
-405,525	-200,000	-0,024	-0,079
-404,511	523,935	0,040	-0,068
-403,496	446,217	-0,036	-0,057
-402,482	-148,684	0,058	-0,003
-401,467	735,321	-0,020	0,038
-400,452	137,556	0,047	-0,044
-399,438	-200,000	-0,010	0,057
-398,423	-59,998	-0,090	0,028
-397,409	42,148	-0,074	-0,048
-396,394	-200,000	0,012	0,072
-395,379	-3,174	0,010	-0,005
-394,365	-200,000	0,005	0,067
-393,350	-97,297	0,124	-0,023
-392,336	-147,647	-0,180	0,011
-391,321	-200,000	-0,007	-0,100
-390,306	-121,956	-0,068	-0,008
-389,292	800,000	0,035	-0,090
-388,277	-7,000	0,097	0,047
-387,263	-54,784	-0,109	0,035
-386,248	800,000	-0,018	0,039
-385,233	-60,818	0,101	-0,031
-384,219	153,915	-0,034	0,033
-383,204	51,975	0,085	0,058
-382,190	-98,139	-0,051	0,009
-381,175	-142,361	-0,099	0,007
-380,160	158,935	-0,081	0,080
-379,146	-83,783	0,040	0,009
-378,131	-200,000	0,001	0,044
-377,117	-35,528	0,111	0,043
-376,102	392,126	-0,085	-0,128
-375,088	711,325	0,026	-0,050
-374,073	800,000	-0,034	0,071
-373,058	-200,000	-0,011	-0,036
-372,044	42,888	0,108	0,071
-371,029	800,000	0,061	0,161
-370,015	739,728	0,020	-0,038
-369,000	201,760	-0,110	-0,122
-367,985	-163,878	-0,003	0,000
-366,971	-45,157	-0,008	0,003
-365,956	-15,836	0,100	0,046
-364,942	56,880	0,037	-0,026
-363,927	40,366	0,109	-0,070
-362,912	800,000	-0,016	0,047
-361,898	-200,000	0,017	-0,075
-360,883	-200,000	-0,015	-0,067
-359,869	-200,000	-0,002	-0,112
-358,854	25,412	-0,004	0,002
-357,839	307,292	0,005	0,007
-356,825	800,000	0,053	0,128
-355,810	-60,530	0,059	-0,018
-354,796	331,578	-0,046	0,063
-353,781	-150,992	-0,120	0,006
-352,766	-5,727	-0,039	0,019
-351,752	-75,163	-0,104	0,026
-350,737	-126,212	0,139	-0,015
-349,723	-93,712	0,011	0,002
-348,708	-200,000	0,001	0,145
-347,693	-200,000	-0,012	0,112
-346,679	-200,000	0,017	-0,072
-345,664	800,000	-0,057	-0,164
-344,650	-200,000	-0,012	-0,096
-343,635	-183,964	0,184	-0,002
-342,620	-200,000	0,047	0,179
-341,606	23,303	-0,048	-0,028
-340,591	-144,843	-0,026	-0,002
-339,577	575,596	0,041	-0,071
-338,562	47,210	-0,166	-0,110
-337,548	-200,000	0,029	-0,127
-336,533	-138,101	0,044	0,003
-335,518	139,964	0,157	0,148
-334,504	800,000	-0,064	0,131
-333,489	-200,000	0,027	0,178
-332,475	131,241	-0,068	-0,063
-331,460	-200,000	-0,039	-0,125
-330,445	351,826	0,068	-0,097
-329,431	-200,000	-0,006	0,092
-328,416	-200,000	-0,003	0,076
-327,402	303,166	0,093	0,124
-326,387	-200,000	0,011	-0,085
-325,372	-200,000	0,019	-0,138
-324,358	-200,000	-0,016	0,075
-323,343	-200,000	0,020	-0,101
-322,329	-200,000	0,032	0,112
-321,314	-200,000	0,002	0,127
-320,299	41,267	-0,095	0,061
-319,285	299,645	0,037	0,049
-318,270	78,361	0,021	-0,016
-317,256	246,309	-0,016	0,019
-316,241	800,000	-0,014	-0,039
-315,226	-63,170	0,056	-0,017
-314,212	-200,000	-0,003	0,052
-313,197	-88,230	-0,079	-0,017
-312,183	-59,460	0,031	-0,009
-311,168	-200,000	-0,014	0,077
-310,153	639,337	0,065	0,119
-309,139	-67,891	-0,136	-0,038
-308,124	-200,000	-0,002	0,017
-307,110	-30,781	0,091	-0,037
-306,095	-45,414	0,065	0,023
-305,080	-27,971	0,076	-0,031
-304,066	800,000	0,021	-0,055
-303,051	-108,116	-0,223	-0,034
-302,037	800,000	-0,050	-0,140
-301,022	-102,670	0,171	-0,029
-300,008	149,686	-0,049	-0,047
-298,993	-133,934	0,135	-0,012
-297,978	800,000	-0,055	-0,164
-296,964	23,455	-0,030	-0,018
-295,949	-200,000	0,003	-0,122
-294,935	-200,000	-0,010	0,046
-293,920	-17,436	-0,092	0,041
-292,905	9,553	0,070	0,038
-291,891	37,663	-0,033	0,021
-290,876	-200,000	0,006	-0,052
-289,862	146,852	0,088	-0,085
-288,847	-116,320	-0,106	0,014
-287,832	-200,000	-0,007	-0,022
-286,818	205,399	0,050	0,056
-285,803	-200,000	0,028	0,092
-284,789	-200,000	0,033	0,104
-283,774	211,520	0,047	-0,053
-282,759	373,848	-0,066	0,096
-281,745	343,683	-0,044	-0,062
-280,730	-50,989	-0,025	-0,008
-279,716	-126,431	0,088	0,009
-278,701	662,373	-0,022	0,041
-277,686	199,715	-0,044	0,048
-276,672	-88,881	-0,073	0,015
-275,657	265,168	-0,038	-0,047
-274,643	761,237	-0,038	-0,074
-273,628	-194,364	-0,083	-0,000
-272,613	244,645	0,041	0,049
-271,599	221,415	0,079	0,091
-270,584	-200,000	-0,010	0,075
-269,570	-200,000	0,032	0,184
-268,555	2,912	0,112	0,058
-267,540	-200,000	-0,001	-0,099
-266,526	-70,672	0,098	0,026
-265,511	-135,818	0,063	-0,005
-264,497	414,214	-0,048	-0,073
-263,482	-200,000	-0,015	0,126
-262,467	-90,235	-0,083	-0,017
-261,453	-41,362	0,140	-0,051
-260,438	48,161	0,014	-0,009
-259,424	-200,000	0,002	0,031
-258,409	-200,000	0,014	-0,162
-257,395	-158,809	0,128	-0,005
-256,380	-56,433	0,117	-0,037
-255,365	621,199	0,055	0,099
-254,351	262,157	-0,071	0,088
-253,336	-65,924	-0,067	0,019
-252,322	0,145	0,030	-0,015
-251,307	49,386	-0,138	0,093
-250,292	-89,282	0,106	-0,022
-249,278	-122,817	0,032	0,004
-248,263	-200,000	-0,017	-0,114
-247,249	178,641	0,011	-0,011
-246,234	-200,000	-0,013	0,089
-245,219	556,450	-0,029	-0,051
-244,205	-200,000	-0,015	0,126
-243,190	3,942	0,069	0,036
-242,176	-200,000	-0,008	0,061
-241,161	-200,000	0,001	-0,087
-240,146	281,310	-0,018	0,023
-239,132	289,649	-0,059	0,077
-238,117	155,814	-0,052	-0,051
-237,103	800,000	-0,072	-0,218
-236,088	158,181	0,095	0,094
-235,073	199,338	-0,086	0,094
-234,059	800,000	0,048	0,096
-233,044	-24,357	0,210	0,089
-232,030	213,452	0,043	0,048
-231,015	-200,000	-0,017	0,062
-230,000	116,249	0,023	0,020
-228,986	-155,749	0,075	-0,003
-227,971	411,603	0,029	-0,044
-226,957	-200,000	0,017	0,074
-225,942	212,530	0,052	0,059
-224,927	-200,000	-0,002	-0,038
-223,913	5,699	-0,026	-0,014
-222,898	110,706	-0,052	-0,045
-221,884	-37,251	0,076	0,029
-220,869	126,669	0,103	0,093
-219,855	485,026	-0,082	0,134
-218,840	37,847	-0,103	0,065
-217,825	307,901	0,013	0,017
-216,811	-200,000	0,006	0,054
-215,796	245,703	-0,073	-0,088
-214,782	-200,000	0,004	0,108
-213,767	155,821	0,031	0,031
-212,752	29,793	0,019	-0,012
-211,738	800,000	0,018	0,057
-210,723	800,000	-0,045	0,107
-209,709	65,196	0,124	-0,089
-208,694	-200,000	0,024	-0,275
-207,679	3,804	0,084	-0,044
-206,665	-200,000	-0,008	-0,029
-205,650	-200,000	0,032	-0,194
-204,636	752,823	0,023	-0,045
-203,621	-29,889	-0,092	0,037
-202,606	68,439	-0,104	-0,076
-201,592	503,160	0,014	-0,023
-200,577	-200,000	-0,017	0,183
-199,563	-11,544	-0,032	0,015
-198,548	154,766	0,071	-0,069
-197,533	146,873	-0,041	-0,039
-196,519	-200,000	-0,038	-0,149
-195,504	-135,248	-0,071	0,006
-194,490	501,538	-0,130	-0,214
-193,475	6,160	0,096	-0,051
-192,460	-93,058	0,124	0,024
-191,446	109,120	0,012	-0,010
-190,431	559,744	0,056	0,097
-189,417	-200,000	-0,015	0,087
-188,402	92,459	-0,139	-0,112
-187,387	681,802	0,026	-0,049
-186,373	135,634	-0,037	0,035
-185,358	-200,000	0,024	-0,083
-184,344	188,517	-0,074	-0,079
-183,329	47,903	-0,047	-0,031
-182,315	-200,000	0,000	0,085
-181,300	553,234	0,033	-0,056
-180,285	173,965	0,047	-0,048
-179,271	5,625	-0,087	-0,046
-178,256	44,759	0,149	-0,098
-177,242	800,000	0,044	0,097
-176,227	-41,806	0,073	0,026
-175,212	-159,234	0,091	0,004
-174,198	318,563	0,035	0,048
-173,183	76,545	-0,092	-0,070
-172,169	235,547	0,022	0,026
-171,154	194,195	-0,099	-0,107
-170,139	29,483	-0,044	0,027
-169,125	64,514	0,119	-0,086
-168,110	-2,941	-0,104	-0,051
-167,096	92,536	-0,059	-0,048
-166,081	-119,223	-0,082	-0,010
-165,066	-14,795	-0,143	-0,065
-164,052	247,662	0,097	-0,116
-163,037	205,912	-0,008	-0,009
-162,023	250,109	-0,094	0,113
-161,008	154,179	0,064	0,062
-159,993	-118,325	0,063	0,008
-158,979	198,559	0,088	-0,096
-157,964	800,000	-0,010	0,025
-156,950	800,000	0,039	-0,098
-155,935	800,000	-0,036	-0,085
-154,920	303,346	0,106	0,141
-153,906	753,807	0,023	0,045
-152,891	-106,483	-0,056	-0,009
-151,877	542,332	0,038	0,064
-150,862	-102,148	-0,105	0,018
-149,847	-200,000	0,019	-0,064
-148,833	-200,000	0,002	-0,025
-147,818	-108,149	0,074	-0,011
-146,804	-200,000	-0,003	-0,105
-145,789	-200,000	-0,021	0,172
-144,775	174,509	-0,019	0,019
-143,760	-200,000	-0,024	-0,090
-142,745	800,000	-0,028	-0,064
-141,731	505,722	0,022	-0,036
-140,716	800,000	0,060	-0,125
-139,702	-68,649	0,020	0,005
-138,687	-84,930	0,136	0,030
-137,672	-200,000	-0,003	-0,012
-136,658	-200,000	0,003	-0,027
-135,643	-33,881	0,013	0,005
-134,629	-135,623	-0,009	0,001
-133,614	-57,522	0,075	0,023
-132,599	-140,545	0,129	-0,009
-131,585	-200,000	-0,023	0,110
-130,570	800,000	-0,019	-0,059
-129,556	-23,889	0,013	-0,005
-128,541	33,478	0,121	-0,074
-127,526	2,577	-0,078	-0,040
-126,512	268,674	-0,034	-0,042
-125,497	-119,492	-0,097	-0,012
-124,483	-7,919	0,086	-0,041
-123,468	671,351	-0,079	-0,147
-122,453	236,550	0,083	-0,098
-121,439	-200,000	-0,004	-0,093
-120,424	800,000	-0,061	-0,122
-119,410	-200,000	0,012	-0,103
-118,395	-200,000	0,033	-0,106
-117,380	-131,902	-0,113	-0,010
-116,366	50,224	0,065	-0,044
-115,351	-34,514	-0,023	0,009
-114,337	388,897	-0,052	-0,077
-113,322	199,044	0,065	-0,071
-112,307	-102,435	0,064	0,011
-111,293	44,256	-0,079	-0,051
-110,278	316,890	0,089	0,120
-109,264	550,110	0,045	-0,077
-108,249	118,921	-0,075	-0,066
-107,234	504,064	0,155	-0,256
-106,220	116,793	-0,071	-0,062
-105,205	-200,000	0,005	-0,139
-104,191	78,838	0,085	-0,064
-103,176	-84,960	0,135	0,030
-102,162	625,333	-0,080	0,144
-101,147	800,000	-0,012	-0,028
-100,132	-58,554	-0,147	-0,045
-99,118	800,000	0,030	-0,082
-98,103	-48,513	-0,119	-0,040
-97,089	3,643	-0,080	-0,041
-96,074	800,000	0,012	-0,030
-95,059	-101,139	0,232	-0,040
-94,045	185,538	-0,059	0,063
-93,030	800,000	-0,047	-0,118
-92,016	-49,495	-0,082	-0,027
-91,001	-91,229	0,103	0,021
-89,986	468,352	0,109	0,174
-88,972	-39,677	0,107	0,039
-87,957	100,600	-0,066	-0,054
-86,943	-24,237	0,037	-0,016
-85,928	-126,617	0,118	-0,012
-84,913	-200,000	-0,006	-0,104
-83,899	92,540	0,072	0,057
-82,884	4,135	0,084	-0,043
-81,870	116,597	-0,044	0,038
-80,855	-200,000	-0,018	0,098
-79,840	-200,000	0,014	-0,101
-78,826	483,934	-0,033	0,054
-77,811	-123,008	0,041	-0,005
-76,797	-13,806	0,039	0,018
-75,782	-53,941	-0,064	0,021
-74,767	-51,207	0,043	-0,014
-73,753	42,760	0,145	0,094
-72,738	580,673	-0,004	0,008
-71,724	232,250	-0,056	-0,065
-70,709	-200,000	0,018	-0,074
-69,694	488,118	0,028	-0,045
-68,680	432,370	0,036	-0,056
-67,665	-16,023	0,097	-0,044
-66,651	-103,869	0,070	0,012
-65,636	-200,000	0,009	0,046
-64,622	800,000	-0,057	-0,167
-63,607	-154,817	-0,115	0,005
-62,592	-15,935	0,074	0,033
-61,578	198,393	0,056	0,061
-60,563	90,698	0,160	0,127
-59,549	70,016	-0,170	0,124
-58,534	-45,168	-1,528	-0,535
-57,519	403,778	-1,533	-2,293
-56,505	-200,000	-0,587	-4,539
-55,490	139,005	1,134	1,056
-54,476	800,000	4,817	10,850
-53,461	-200,000	18,123	285,276
-52,446	800,000	725,465	2222,372
-51,432	556,240	1640,589	2809,413
-50,417	79,440	1663,114	1261,958
-49,403	22,973	1536,920	890,248
-48,388	16,976	1460,256	816,839
-47,373	17,829	1450,017	815,181
-46,359	17,245	1440,560	807,045
-45,344	15,203	1435,937	794,689
-44,330	15,141	1433,901	793,236
-43,315	15,161	1432,180	792,345
-42,300	15,195	1430,538	791,568
-41,286	15,230	1429,235	790,981
-40,271	15,192	1428,300	790,255
-39,257	15,162	1427,032	789,377
-38,242	15,140	1425,703	788,508
-37,227	15,200	1424,320	787,997
-36,213	15,213	1423,146	787,374
-35,198	15,201	1422,089	786,702
-34,184	15,249	1421,048	786,323
-33,169	15,161	1419,848	785,212
-32,154	15,250	1418,824	785,033
-31,140	15,247	1417,555	784,289
-30,125	15,231	1416,509	783,601
-29,111	15,220	1415,194	782,790
-28,096	15,151	1414,064	781,811
-27,082	15,147	1413,030	781,189
-26,067	15,099	1411,956	780,342
-25,052	15,132	1410,874	779,865
-24,038	15,115	1410,064	779,306
-23,023	15,084	1408,857	778,465
-22,009	15,062	1407,924	777,817
-20,994	15,072	1407,088	777,372
-19,979	15,071	1406,034	776,752
-18,965	15,027	1405,110	776,006
-17,950	15,083	1404,074	775,663
-16,936	15,061	1403,278	775,089
-15,921	15,007	1402,135	774,175
-14,906	15,001	1401,031	773,510
-13,892	15,045	1400,112	773,175
-12,877	15,054	1399,377	772,780
-11,863	15,013	1398,291	771,960
-10,848	15,037	1397,696	771,711
-9,833	14,982	1396,647	770,849
-8,819	14,963	1395,817	770,272
-7,804	14,975	1394,938	769,812
-6,790	14,938	1393,727	768,942
-5,775	14,939	1392,837	768,424
-4,760	14,927	1392,058	767,906
-3,746	14,942	1391,080	767,406
-2,731	14,898	1390,411	766,804
-1,717	14,912	1389,289	766,220
-0,702	14,942	1387,477	765,327
0,313	18,846	1307,379	739,166
1,327	35,317	707,169	437,994
2,342	54,193	125,028	85,004
3,356	1,959	16,601	8,449
4,371	4,073	3,145	1,623
5,386	6,760	0,538	0,283
6,400	-200,000	0,069	0,224
7,415	185,141	-0,098	-0,103
8,429	-50,358	-0,215	-0,071
9,444	451,657	-0,249	-0,390
10,459	-59,316	-0,278	-0,084
11,473	91,849	-0,251	-0,200
12,488	254,557	-0,235	-0,285
13,502	76,505	-0,350	-0,262
14,517	125,361	-0,260	-0,232
15,531	-49,381	-0,417	-0,140
16,546	107,594	-0,368	-0,309
17,561	309,192	-0,392	-0,518
18,575	-111,948	-0,284	-0,040
19,590	511,252	-0,187	-0,308
20,604	-79,923	-0,179	-0,042
21,619	19,081	-0,366	-0,207
22,634	159,180	-0,327	-0,321
23,648	63,787	-0,492	-0,349
24,663	18,588	-0,422	-0,238
25,677	195,314	-0,315	-0,338
26,692	127,180	-0,292	-0,262
27,707	246,563	-0,261	-0,311
28,721	67,522	-0,312	-0,224
29,736	362,786	-0,247	-0,351
30,750	10,623	-0,590	-0,316
31,765	343,795	-0,311	-0,432
32,780	209,729	-0,352	-0,390
33,794	105,002	-0,298	-0,248
34,809	266,541	-0,287	-0,355
35,823	42,365	-0,361	-0,231
36,838	-1,321	-0,340	-0,169
37,853	127,289	-0,399	-0,357
38,867	26,351	-0,373	-0,219
39,882	57,711	-0,339	-0,234
40,896	602,062	-0,245	-0,432
41,911	98,796	-0,367	-0,299
42,926	98,375	-0,312	-0,253
43,940	88,024	-0,312	-0,244
44,955	90,795	-0,411	-0,324
45,969	106,256	-0,293	-0,245
46,984	50,518	-0,407	-0,271
47,999	88,862	-0,331	-0,260
49,013	-130,955	-0,256	-0,024
50,028	18,615	-0,251	-0,141
51,042	1,471	-0,386	-0,195
52,057	5,951	-0,383	-0,199
53,071	89,753	-0,366	-0,288
54,086	71,913	-0,257	-0,188
55,101	47,611	-0,317	-0,208
56,115	-2,181	-0,321	-0,158
57,130	-16,133	-0,367	-0,164
58,144	77,911	-0,392	-0,294
59,159	20,978	-0,410	-0,234
60,174	69,615	-0,329	-0,238
61,188	87,995	-0,348	-0,272
62,203	149,637	-0,365	-0,348
63,217	17,781	-0,410	-0,229
64,232	-67,528	-0,187	-0,051
65,247	51,768	-0,346	-0,231
66,261	-139,448	-0,352	-0,026
67,276	16,628	-0,435	-0,241
68,290	30,255	-0,419	-0,251
69,305	179,229	-0,219	-0,226
70,320	59,556	-0,233	-0,161
71,334	175,250	-0,273	-0,278
72,349	15,054	-0,405	-0,222
73,363	397,597	-0,199	-0,293
74,378	104,513	-0,411	-0,340
75,393	-122,267	-0,318	-0,036
76,407	50,414	-0,212	-0,141
77,422	1,368	-0,260	-0,131
78,436	-53,450	-0,207	-0,066
79,451	-11,165	-0,401	-0,185
80,466	84,898	-0,336	-0,259
81,480	8,169	-0,322	-0,169
82,495	-47,699	-0,329	-0,111
83,509	-34,766	-0,366	-0,140
84,524	37,406	-0,177	-0,110
85,539	55,839	-0,262	-0,178
86,553	33,339	-0,256	-0,156
87,568	104,697	-0,337	-0,279
88,582	0,611	-0,382	-0,191
89,597	39,629	-0,247	-0,155
90,611	130,565	-0,234	-0,211
91,626	88,731	-0,301	-0,235
92,641	-17,353	-0,232	-0,102
93,655	68,359	-0,294	-0,211
94,670	91,919	-0,284	-0,224
95,684	198,651	-0,251	-0,270
96,699	116,415	-0,238	-0,205
97,714	159,029	-0,287	-0,280
98,728	124,572	-0,261	-0,230
99,743	-89,786	-0,283	-0,058
100,757	32,749	-0,218	-0,132
101,772	222,313	-0,279	-0,315
102,787	5,466	-0,341	-0,176
103,801	193,311	-0,281	-0,299
104,816	173,374	-0,249	-0,252
105,830	91,451	-0,316	-0,249
106,845	-22,062	-0,229	-0,097
107,860	13,576	-0,292	-0,159
108,874	-19,039	-0,253	-0,110
109,889	83,996	-0,319	-0,244
110,903	79,655	-0,369	-0,278
111,918	-29,950	-0,374	-0,148
112,933	153,759	-0,159	-0,153
113,947	46,759	-0,293	-0,191
114,962	46,886	-0,248	-0,161
115,976	482,100	-0,192	-0,307
116,991	147,716	-0,199	-0,188
118,006	75,064	-0,268	-0,198
119,020	188,624	-0,269	-0,282
120,035	99,088	-0,282	-0,228
121,049	136,437	-0,180	-0,165
122,064	482,289	-0,101	-0,161
123,079	43,475	-0,234	-0,150
124,093	39,116	-0,248	-0,155
125,108	-63,057	-0,227	-0,065
126,122	11,534	-0,123	-0,066
127,137	86,398	-0,189	-0,146
128,151	504,642	-0,116	-0,188
129,166	118,703	-0,159	-0,137
130,181	-47,700	-0,308	-0,104
131,195	-28,031	-0,372	-0,150
132,210	-62,474	-0,377	-0,109
133,224	-25,153	-0,323	-0,133
134,239	99,319	-0,216	-0,175
135,254	-45,441	-0,300	-0,104
136,268	27,638	-0,250	-0,147
137,283	-109,700	-0,298	-0,043
138,297	-56,830	-0,259	-0,079
139,312	61,410	-0,363	-0,252
140,327	146,971	-0,308	-0,290
141,341	800,000	-0,173	-0,350
142,356	141,385	-0,221	-0,204
143,370	319,539	-0,118	-0,157
144,385	106,525	-0,182	-0,151
145,400	96,784	-0,325	-0,260
146,414	189,864	-0,227	-0,239
147,429	138,667	-0,184	-0,168
148,443	25,975	-0,305	-0,177
149,458	77,341	-0,197	-0,146
150,473	492,633	-0,121	-0,194
151,487	95,605	-0,260	-0,207
152,502	598,039	-0,164	-0,284
153,516	322,328	-0,218	-0,290
154,531	73,709	-0,255	-0,186
155,546	230,017	-0,197	-0,225
156,560	-10,688	-0,177	-0,082
157,575	107,355	-0,227	-0,188
158,589	138,884	-0,209	-0,192
159,604	-26,053	-0,287	-0,117
160,619	184,069	-0,283	-0,292
161,633	259,708	-0,139	-0,168
162,648	114,535	-0,225	-0,192
163,662	-200,000	-0,018	-0,265
164,677	46,822	-0,222	-0,143
165,692	-19,691	-0,258	-0,111
166,706	6,466	-0,208	-0,107
167,721	103,266	-0,270	-0,220
168,735	166,437	-0,199	-0,196
169,750	81,201	-0,199	-0,150
170,764	800,000	-0,129	-0,264
171,779	287,656	-0,144	-0,183
172,794	-10,991	-0,228	-0,105
173,808	11,554	-0,208	-0,111
174,823	250,686	-0,262	-0,311
175,837	-99,852	-0,316	-0,055
176,852	147,668	-0,077	-0,072
177,867	342,773	-0,183	-0,251
178,881	-200,000	-0,058	-0,200
179,896	-2,845	-0,239	-0,116
180,910	-160,837	-0,235	0,008
181,925	-46,436	-0,239	-0,081
182,940	35,851	-0,285	-0,174
183,954	36,133	-0,415	-0,254
184,969	114,047	-0,229	-0,194
185,983	169,611	-0,053	-0,053
186,998	70,775	-0,216	-0,155
188,013	103,725	-0,188	-0,153
189,027	800,000	-0,137	-0,345
190,042	489,671	-0,193	-0,309
191,056	42,057	-0,246	-0,155
192,071	-8,872	-0,234	-0,109
193,086	29,110	-0,253	-0,149
194,100	10,993	-0,225	-0,119
195,115	84,018	-0,204	-0,155
196,129	84,971	-0,243	-0,185
197,144	103,658	-0,203	-0,166
198,159	779,380	-0,172	-0,328
199,173	-84,868	-0,235	-0,051
200,188	200,591	-0,247	-0,265
201,202	142,085	-0,208	-0,192
202,217	572,716	-0,112	-0,191
203,232	654,405	-0,117	-0,209
204,246	195,239	-0,231	-0,244
205,261	258,076	-0,228	-0,274
206,275	762,416	-0,127	-0,241
207,290	194,875	-0,101	-0,107
208,304	-128,895	-0,207	-0,020
209,319	-54,864	-0,310	-0,096
210,334	169,642	-0,119	-0,118
211,348	770,019	-0,097	-0,184
212,363	30,126	-0,341	-0,202
213,377	175,550	-0,134	-0,135
214,392	800,000	-0,060	-0,169
215,407	4,462	-0,283	-0,144
216,421	-9,062	-0,266	-0,123
217,436	67,883	-0,199	-0,141
218,450	487,762	-0,167	-0,265
219,465	800,000	-0,099	-0,241
220,480	243,034	-0,185	-0,216
221,494	800,000	-0,110	-0,236
222,509	-27,139	-0,151	-0,061
223,523	46,717	-0,215	-0,139
224,538	-81,599	-0,288	-0,065
225,553	173,692	-0,177	-0,178
226,567	-63,448	-0,379	-0,107
227,582	105,389	-0,244	-0,199
228,596	-200,000	-0,035	-0,242
229,611	365,952	-0,165	-0,232
230,626	2,475	-0,189	-0,094
231,640	65,877	-0,167	-0,117
232,655	-165,663	-0,117	0,003
233,669	-98,546	-0,207	-0,036
234,684	229,916	-0,182	-0,206
235,699	89,107	-0,235	-0,182
236,713	123,322	-0,070	-0,061
237,728	190,520	-0,151	-0,157
238,742	101,413	-0,156	-0,126
239,757	118,660	-0,100	-0,086
240,772	558,110	-0,133	-0,224
241,786	236,891	-0,204	-0,234
242,801	800,000	-0,067	-0,175
243,815	530,061	-0,121	-0,199
244,830	4,940	-0,097	-0,049
245,844	73,373	-0,327	-0,237
246,859	102,334	-0,270	-0,219
247,874	568,296	-0,143	-0,241
248,888	337,549	-0,179	-0,241
249,903	200,432	-0,117	-0,125
250,917	101,571	-0,206	-0,166
251,932	746,525	-0,075	-0,141
252,947	-38,745	-0,228	-0,083
253,961	475,236	-0,102	-0,159
254,976	419,994	-0,152	-0,225
255,990	195,757	-0,190	-0,200
257,005	-23,118	-0,252	-0,104
258,020	28,573	-0,104	-0,061
259,034	800,000	-0,041	-0,114
260,049	-37,736	-0,143	-0,052
261,063	-111,371	-0,233	-0,033
262,078	-33,370	-0,113	-0,043
263,093	31,075	-0,118	-0,070
264,107	212,102	-0,191	-0,208
265,122	327,641	-0,159	-0,212
266,136	-20,181	-0,050	0,021
267,151	-82,897	-0,196	-0,043
268,166	136,408	-0,261	-0,236
269,180	-3,327	-0,193	-0,093
270,195	-92,166	-0,211	-0,041
271,209	159,964	-0,211	-0,203
272,224	170,791	-0,075	-0,074
273,239	-10,074	-0,073	-0,033
274,253	615,579	-0,081	-0,140
275,268	-45,337	-0,143	-0,049
276,282	800,000	-0,118	-0,234
277,297	148,858	-0,160	-0,149
278,312	538,761	-0,133	-0,218
279,326	-200,000	-0,049	-0,235
280,341	-200,000	-0,033	-0,115
281,355	800,000	-0,087	-0,172
282,370	-200,000	-0,089	-0,294
283,384	173,009	-0,264	-0,263
284,399	437,431	-0,148	-0,224
285,414	-39,938	-0,094	-0,034
286,428	800,000	-0,080	-0,158
287,443	-200,000	-0,002	-0,212
288,457	-200,000	-0,022	-0,076
289,472	689,037	-0,039	-0,071
290,487	128,192	-0,184	-0,161
291,501	74,522	-0,236	-0,171
292,516	389,973	-0,115	-0,165
293,530	-51,447	-0,092	-0,029
294,545	-21,965	-0,075	-0,031
295,560	-165,909	-0,194	-0,006
296,574	-121,504	-0,140	-0,016
297,589	58,354	-0,126	-0,085
298,603	-70,236	-0,204	-0,053
299,618	-12,160	-0,094	-0,042
300,633	96,056	-0,149	-0,117
301,647	-76,108	-0,205	-0,050
302,662	-26,192	-0,103	0,042
303,676	-15,411	-0,184	-0,081
304,691	54,039	-0,237	-0,157
305,706	24,078	-0,175	-0,099
306,720	370,310	-0,165	-0,231
307,735	-132,354	-0,156	0,014
308,749	85,274	-0,202	-0,153
309,764	-45,059	-0,132	-0,045
310,779	-56,983	-0,092	-0,028
311,793	350,470	-0,153	-0,209
312,808	91,526	-0,193	-0,149
313,822	36,376	-0,030	-0,018
314,837	216,745	-0,189	-0,207
315,852	165,283	-0,096	-0,094
316,866	800,000	-0,063	-0,187
317,881	416,399	0,064	-0,094
318,895	-200,000	-0,046	-0,184
319,910	-200,000	-0,047	-0,201
320,925	518,121	-0,088	-0,142
321,939	48,739	-0,145	-0,093
322,954	-29,462	-0,181	-0,071
323,968	6,432	-0,121	0,062
324,983	308,921	-0,058	-0,075
325,997	127,753	-0,140	0,122
327,012	-87,111	-0,145	-0,030
328,027	800,000	-0,089	-0,222
329,041	119,498	-0,172	-0,146
330,056	-158,704	-0,033	0,001
331,070	-200,000	-0,018	-0,059
332,085	44,784	-0,085	-0,054
333,100	-183,120	-0,203	-0,002
334,114	-147,756	-0,156	0,009
335,129	15,294	-0,193	-0,104
336,143	4,475	-0,174	-0,087
337,158	276,986	-0,093	-0,114
338,173	-46,791	-0,060	0,020
339,187	-94,899	0,013	0,002
340,202	742,059	-0,053	-0,098
341,216	-137,297	-0,140	0,011
342,231	-200,000	-0,014	-0,118
343,246	-81,813	-0,148	-0,033
344,260	464,177	-0,064	-0,098
345,275	800,000	-0,023	0,052
346,289	643,562	-0,019	-0,033
347,304	46,660	-0,162	-0,103
348,319	117,137	-0,185	-0,156
349,333	800,000	-0,116	-0,291
350,348	-200,000	-0,022	-0,228
351,362	256,888	-0,092	-0,109
352,377	-119,822	-0,178	-0,021
353,392	250,139	-0,093	-0,109
354,406	38,291	-0,141	-0,086
355,421	210,448	1314,045	1417,583
356,435	162,008	1474,714	1418,094
