DTS Sentinel unit serial number:	SN410029Multiplexer serial number:	ORYXHardware model number:	OX2-SRSoftware version number:	ORYX F/W v4,00 Oryx Data Collector v3.7.2.0data status	okinstallation	B3 Nyhavnadifferential loss correction	single-endedforward channel	channel 1reverse channel	N/Adate	2023/11/29time	23:17:30forward acquisition time	300,00reverse acquisition time	0,00gamma	499,1914k internal	0,3210k external	0,3210temperature offset calibration	1,0000default loss term (dB/km)	0,3820temperature slope calibration	1,0000multiplexer offset coefficient	1,0000multiplexer slope coefficient	1,0000fibre end	0,00T internal ref (°C)	10,88T ext. ref 1 (°C)	-3,87T ext. ref 2 (°C)	-3,97length (m)	temperature (°C)	Stokes	anti-Stokes-744,400	518,807	-0,204	-0,349
-743,385	-200,000	0,022	0,300
-742,371	-200,000	-0,024	-0,184
-741,356	800,000	0,126	0,318
-740,342	137,560	-0,264	-0,251
-739,327	-200,000	0,083	0,274
-738,312	340,624	-0,226	-0,321
-737,298	-200,000	0,036	0,294
-736,283	113,595	-0,280	-0,246
-735,269	-200,000	0,062	0,312
-734,254	11,816	-0,334	-0,186
-733,239	800,000	-0,067	0,168
-732,225	358,621	-0,157	-0,227
-731,210	212,486	0,095	0,108
-730,196	-147,245	-0,137	-0,008
-729,181	43,765	-0,047	0,031
-728,167	-200,000	0,010	0,046
-727,152	53,260	0,096	0,066
-726,137	7,076	-0,057	-0,031
-725,123	251,034	0,059	-0,073
-724,108	210,244	-0,099	-0,113
-723,094	207,654	-0,053	-0,060
-722,079	-17,088	-0,164	0,074
-721,064	800,000	-0,022	0,044
-720,050	97,173	-0,164	0,136
-719,035	-200,000	-0,007	-0,076
-718,021	-53,568	0,039	0,013
-717,006	132,964	0,008	-0,007
-715,991	-81,562	-0,036	0,009
-714,977	-147,768	-0,095	-0,006
-713,962	-66,572	0,110	-0,031
-712,948	-70,888	-0,036	0,010
-711,933	24,260	0,115	-0,069
-710,918	13,308	-0,023	-0,013
-709,904	800,000	0,089	-0,202
-708,889	56,762	-0,063	-0,044
-707,875	-200,000	0,006	-0,051
-706,860	2,620	-0,067	0,035
-705,845	-72,612	0,036	0,010
-704,831	-89,667	0,056	0,012
-703,816	-121,028	-0,071	0,009
-702,802	-82,146	-0,161	-0,038
-701,787	800,000	-0,020	0,055
-700,772	800,000	-0,032	-0,081
-699,758	81,171	-0,040	-0,031
-698,743	-105,482	0,153	0,025
-697,729	43,631	-0,083	0,055
-696,714	59,078	0,108	-0,077
-695,699	-92,814	0,159	-0,032
-694,685	22,126	0,041	-0,024
-693,670	93,486	-0,044	0,036
-692,656	121,726	0,122	0,110
-691,641	320,175	0,027	0,037
-690,627	105,207	0,151	0,129
-689,612	-35,096	-0,074	-0,029
-688,597	1,067	-0,095	0,049
-687,583	186,737	-0,084	-0,091
-686,568	-200,000	-0,013	-0,079
-685,554	-6,827	0,094	0,046
-684,539	-111,472	-0,146	0,021
-683,524	268,308	-0,024	-0,031
-682,510	608,616	-0,093	0,168
-681,495	197,140	-0,146	0,162
-680,481	449,394	-0,069	-0,110
-679,466	-65,202	-0,080	0,023
-678,451	26,544	-0,065	-0,039
-677,437	400,520	-0,046	-0,070
-676,422	105,628	-0,037	0,031
-675,408	387,457	0,051	-0,077
-674,393	-158,464	0,114	0,005
-673,378	144,899	-0,014	-0,014
-672,364	-200,000	0,005	-0,015
-671,349	111,265	-0,040	-0,035
-670,335	-200,000	0,009	0,055
-669,320	-106,519	-0,100	-0,016
-668,305	-103,927	0,009	0,001
-667,291	588,104	-0,050	-0,089
-666,276	-200,000	-0,012	0,102
-665,262	-47,756	-0,145	-0,051
-664,247	-111,233	-0,091	0,013
-663,232	800,000	-0,022	0,064
-662,218	84,178	-0,096	-0,076
-661,203	-34,367	-0,042	-0,017
-660,189	-163,116	0,023	0,001
-659,174	30,071	-0,125	-0,077
-658,159	-140,252	0,018	0,001
-657,145	-200,000	0,001	-0,019
-656,130	-28,070	0,037	-0,016
-655,116	-19,937	-0,065	0,029
-654,101	-65,639	0,069	-0,020
-653,086	-33,621	0,074	0,030
-652,072	214,359	0,035	0,041
-651,057	516,491	-0,029	-0,049
-650,043	281,863	-0,082	0,107
-649,028	-200,000	-0,004	-0,097
-648,014	-200,000	0,002	0,085
-646,999	410,335	-0,018	-0,027
-645,984	-200,000	0,032	0,127
-644,970	-200,000	-0,020	0,124
-643,955	-62,239	-0,154	-0,046
-642,941	23,990	-0,230	-0,137
-641,926	-108,936	0,193	0,029
-640,911	202,314	0,102	0,113
-639,897	-200,000	-0,007	0,144
-638,882	141,801	-0,132	0,126
-637,868	55,400	0,086	-0,060
-636,853	331,527	-0,109	0,152
-635,838	-200,000	-0,002	0,045
-634,824	-103,584	-0,059	-0,010
-633,809	-69,811	0,139	0,038
-632,795	-200,000	0,006	-0,038
-631,780	68,885	0,035	0,026
-630,765	-200,000	0,002	-0,047
-629,751	-200,000	0,000	0,014
-628,736	-200,000	0,009	0,045
-627,722	39,291	0,016	0,011
-626,707	-84,903	-0,026	0,006
-625,692	307,784	0,093	0,126
-624,678	-65,828	-0,185	0,053
-623,663	-200,000	0,006	0,029
-622,649	27,162	0,046	-0,028
-621,634	81,151	-0,077	-0,060
-620,619	285,789	-0,056	0,073
-619,605	-200,000	-0,030	0,097
-618,590	-75,995	-0,093	0,024
-617,576	800,000	0,024	0,074
-616,561	209,097	-0,124	-0,141
-615,546	118,243	0,031	0,028
-614,532	-107,648	-0,114	-0,018
-613,517	517,495	0,037	-0,063
-612,503	175,892	0,036	0,038
-611,488	373,231	-0,041	0,060
-610,474	186,327	-0,018	-0,020
-609,459	-200,000	-0,012	-0,052
-608,444	-160,454	-0,247	0,009
-607,430	800,000	-0,016	-0,052
-606,415	-200,000	-0,015	-0,105
-605,401	-200,000	-0,012	0,049
-604,386	38,525	0,084	0,054
-603,371	-134,771	0,094	0,008
-602,357	-200,000	0,003	0,024
-601,342	126,247	-0,073	0,067
-600,328	-200,000	-0,013	-0,081
-599,313	312,666	-0,084	-0,114
-598,298	-200,000	0,001	0,025
-597,284	321,213	0,021	0,029
-596,269	-79,534	0,027	-0,007
-595,255	-36,723	0,048	0,018
-594,240	315,558	0,072	0,098
-593,225	39,791	-0,077	0,050
-592,211	-200,000	0,032	-0,122
-591,196	-186,063	-0,066	0,001
-590,182	-55,721	0,055	-0,018
-589,167	-200,000	-0,028	0,156
-588,152	-200,000	-0,022	-0,139
-587,138	-200,000	0,015	-0,051
-586,123	57,498	-0,020	-0,014
-585,109	-119,110	-0,112	-0,014
-584,094	-200,000	-0,000	-0,060
-583,079	-138,009	-0,071	-0,006
-582,065	796,913	0,031	0,063
-581,050	18,233	0,062	-0,035
-580,036	155,125	-0,069	-0,069
-579,021	-200,000	-0,002	-0,075
-578,006	-142,143	-0,133	0,009
-576,992	800,000	-0,034	0,098
-575,977	800,000	-0,013	-0,028
-574,963	-200,000	-0,018	0,088
-573,948	496,054	0,027	0,045
-572,934	-7,684	0,036	0,017
-571,919	-97,756	0,021	0,004
-570,904	-87,580	0,037	0,008
-569,890	-176,892	0,026	-0,000
-568,875	-30,387	0,054	-0,022
-567,861	800,000	0,051	-0,107
-566,846	800,000	0,055	0,131
-565,831	223,502	-0,109	-0,126
-564,817	38,440	0,068	-0,044
-563,802	-73,445	-0,021	-0,005
-562,788	174,718	0,053	0,055
-561,773	-44,474	-0,128	0,046
-560,758	268,096	0,050	-0,064
-559,744	93,249	-0,053	-0,043
-558,729	184,053	0,065	-0,070
-557,715	12,340	0,129	-0,071
-556,700	-85,543	-0,206	0,046
-555,685	-200,000	0,035	-0,114
-554,671	-200,000	0,021	-0,070
-553,656	240,230	0,082	0,098
-552,642	800,000	-0,030	0,085
-551,627	-165,286	-0,112	-0,003
-550,612	-153,049	-0,159	0,008
-549,598	-156,356	0,015	-0,001
-548,583	152,597	-0,026	-0,026
-547,569	171,718	-0,015	-0,015
-546,554	153,969	-0,017	-0,016
-545,539	-200,000	0,019	-0,123
-544,525	800,000	0,059	0,171
-543,510	-200,000	-0,010	-0,045
-542,496	150,002	-0,161	-0,157
-541,481	255,701	0,053	-0,066
-540,466	99,106	0,071	-0,059
-539,452	-200,000	-0,004	0,016
-538,437	-200,000	-0,008	0,068
-537,423	-200,000	0,032	0,123
-536,408	169,216	0,015	0,016
-535,393	-7,425	-0,037	0,018
-534,379	62,561	-0,037	-0,027
-533,364	-36,528	-0,062	0,024
-532,350	158,036	-0,096	-0,096
-531,335	-90,184	0,122	0,025
-530,321	613,589	0,062	0,112
-529,306	370,811	0,061	-0,089
-528,291	-23,521	-0,063	-0,027
-527,277	422,755	0,053	0,083
-526,262	-200,000	0,011	-0,040
-525,248	72,093	0,151	-0,113
-524,233	800,000	-0,066	0,193
-523,218	129,636	0,108	0,099
-522,204	800,000	0,052	-0,124
-521,189	54,599	-0,088	0,061
-520,175	-200,000	-0,015	-0,201
-519,160	800,000	-0,011	-0,030
-518,145	-200,000	-0,016	-0,076
-517,131	645,827	0,054	0,100
-516,116	-200,000	-0,017	-0,108
-515,102	247,424	-0,111	-0,135
-514,087	-200,000	0,030	0,113
-513,072	-80,309	-0,155	-0,037
-512,058	800,000	-0,016	-0,033
-511,043	408,287	0,103	-0,157
-510,029	54,671	0,009	-0,006
-509,014	-16,689	-0,042	-0,019
-507,999	-51,754	-0,133	0,044
-506,985	69,515	-0,081	-0,060
-505,970	-200,000	-0,020	-0,081
-504,956	-12,133	-0,069	-0,032
-503,941	-62,898	0,136	-0,040
-502,926	800,000	0,059	0,139
-501,912	759,931	-0,021	-0,042
-500,897	267,910	-0,019	-0,024
-499,883	12,365	-0,099	0,055
-498,868	-53,155	0,042	0,014
-497,853	-33,143	0,065	0,026
-496,839	-5,191	-0,098	0,048
-495,824	12,072	0,053	0,029
-494,810	320,037	0,125	-0,171
-493,795	26,493	-0,057	0,034
-492,781	35,485	-0,067	-0,042
-491,766	494,299	-0,060	-0,099
-490,751	-55,225	-0,162	0,052
-489,737	197,878	-0,032	-0,035
-488,722	533,740	0,089	0,152
-487,708	-200,000	-0,000	0,063
-486,693	-200,000	0,016	0,124
-485,678	800,000	-0,046	0,137
-484,664	-200,000	-0,029	-0,182
-483,649	-82,081	-0,110	-0,026
-482,635	-103,414	-0,048	0,008
-481,620	-200,000	-0,013	0,066
-480,605	9,473	0,093	-0,050
-479,591	-200,000	0,010	-0,096
-478,576	-67,072	-0,189	-0,053
-477,562	133,142	-0,046	-0,043
-476,547	800,000	0,014	-0,043
-475,532	39,340	-0,081	-0,052
-474,518	20,632	0,086	0,050
-473,503	39,219	-0,022	0,014
-472,489	-106,445	-0,114	-0,018
-471,474	106,760	0,124	-0,106
-470,459	-200,000	-0,016	-0,066
-469,445	-155,519	-0,180	-0,008
-468,430	53,132	-0,123	0,085
-467,416	5,397	0,109	0,058
-466,401	-82,177	0,074	0,017
-465,386	-200,000	-0,007	0,065
-464,372	800,000	-0,056	0,173
-463,357	-200,000	0,023	0,106
-462,343	-194,668	-0,084	-0,000
-461,328	-117,593	-0,112	0,014
-460,313	800,000	-0,019	0,058
-459,299	24,030	0,064	0,038
-458,284	800,000	0,028	0,072
-457,270	110,233	-0,047	-0,040
-456,255	-54,571	0,189	0,061
-455,241	455,073	-0,017	-0,027
-454,226	-52,720	0,054	-0,018
-453,211	1,163	0,116	-0,060
-452,197	800,000	0,033	0,078
-451,182	-162,459	-0,019	0,001
-450,168	-122,815	0,036	-0,004
-449,153	-108,716	0,060	-0,009
-448,138	-200,000	-0,012	-0,132
-447,124	-144,227	-0,146	0,010
-446,109	40,801	-0,070	-0,045
-445,095	125,959	0,099	0,090
-444,080	-200,000	0,021	-0,083
-443,065	19,041	-0,029	-0,017
-442,051	-78,987	0,103	0,025
-441,036	-67,525	-0,154	0,043
-440,022	-200,000	-0,007	0,048
-439,007	144,829	0,052	0,050
-437,992	-200,000	-0,003	-0,093
-436,978	-200,000	-0,008	-0,041
-435,963	13,058	0,027	0,015
-434,949	144,729	0,101	0,096
-433,934	800,000	-0,015	-0,039
-432,919	24,994	-0,097	0,057
-431,905	800,000	-0,029	0,087
-430,890	-106,528	0,103	-0,016
-429,876	-200,000	0,002	-0,015
-428,861	800,000	0,013	0,041
-427,846	204,724	0,114	0,127
-426,832	255,238	-0,022	-0,027
-425,817	-50,172	0,070	-0,023
-424,803	800,000	0,020	-0,062
-423,788	25,303	0,104	-0,062
-422,773	527,177	-0,061	-0,104
-421,759	117,329	-0,050	-0,044
-420,744	68,943	-0,077	0,056
-419,730	-158,951	0,091	0,004
-418,715	-200,000	-0,003	-0,037
-417,701	-200,000	0,018	0,075
-416,686	20,404	0,102	0,059
-415,671	-41,812	0,079	-0,029
-414,657	187,603	-0,067	-0,071
-413,642	342,440	0,093	0,131
-412,628	39,510	0,115	-0,074
-411,613	86,686	-0,059	-0,046
-410,598	800,000	0,024	-0,056
-409,584	-74,029	-0,055	-0,014
-408,569	800,000	-0,041	0,097
-407,555	86,715	0,149	0,118
-406,540	-200,000	-0,025	0,107
-405,525	-200,000	0,022	-0,127
-404,511	-200,000	0,036	-0,164
-403,496	800,000	0,063	-0,146
-402,482	-4,880	0,062	0,031
-401,467	-200,000	0,018	0,091
-400,452	18,200	0,084	0,048
-399,438	261,529	0,052	0,065
-398,423	644,679	-0,040	0,073
-397,409	-200,000	0,010	0,037
-396,394	126,710	-0,041	0,037
-395,379	-200,000	0,007	0,050
-394,365	800,000	0,025	-0,066
-393,350	-81,257	0,102	-0,024
-392,336	278,103	0,031	-0,040
-391,321	528,539	-0,006	0,010
-390,306	51,816	-0,181	0,123
-389,292	154,992	0,104	-0,102
-388,277	-200,000	-0,003	0,064
-387,263	43,099	0,114	-0,074
-386,248	-70,802	-0,071	0,019
-385,233	175,321	-0,047	0,049
-384,219	-73,387	-0,087	0,022
-383,204	800,000	-0,058	-0,135
-382,190	800,000	-0,023	-0,056
-381,175	-106,759	-0,066	-0,010
-380,160	800,000	0,024	0,076
-379,146	123,643	0,076	0,069
-378,131	-144,764	0,084	0,005
-377,117	81,905	0,039	-0,030
-376,102	81,891	-0,015	-0,011
-375,088	151,568	0,052	-0,050
-374,073	96,244	-0,043	-0,035
-373,058	-200,000	-0,007	-0,072
-372,044	-14,205	-0,039	-0,018
-371,029	530,767	0,008	-0,013
-370,015	173,169	-0,068	0,070
-369,000	-200,000	0,040	-0,149
-367,985	705,139	0,020	-0,039
-366,971	153,872	-0,103	0,101
-365,956	-96,962	0,014	-0,003
-364,942	130,124	0,009	0,008
-363,927	125,370	0,068	0,061
-362,912	800,000	-0,052	0,144
-361,898	800,000	-0,008	0,018
-360,883	166,843	-0,077	0,078
-359,869	-68,405	-0,090	-0,025
-358,854	-184,005	-0,164	0,002
-357,839	130,502	0,129	-0,118
-356,825	-76,103	-0,031	0,008
-355,810	-77,113	-0,120	-0,030
-354,796	-186,788	-0,014	-0,000
-353,781	4,285	-0,052	-0,027
-352,766	-92,694	0,055	-0,011
-351,752	-186,982	0,160	0,002
-350,737	-12,889	0,092	-0,043
-349,723	622,284	0,022	-0,040
-348,708	129,146	-0,012	0,011
-347,693	-163,826	-0,016	-0,001
-346,679	183,964	-0,087	-0,092
-345,664	77,918	0,033	-0,025
-344,650	-171,943	0,122	0,003
-343,635	800,000	-0,013	0,042
-342,620	-59,164	0,021	-0,006
-341,606	103,183	-0,061	-0,051
-340,591	118,985	-0,116	0,102
-339,577	-200,000	0,004	-0,177
-338,562	130,658	0,050	-0,046
-337,548	192,601	0,068	0,074
-336,533	81,420	0,084	-0,065
-335,518	135,894	0,071	0,066
-334,504	17,679	0,064	-0,036
-333,489	-22,369	-0,105	-0,045
-332,475	-100,558	-0,047	0,008
-331,460	-86,845	-0,093	0,020
-330,445	520,001	0,065	-0,108
-329,431	188,310	0,019	0,020
-328,416	-72,292	0,099	-0,026
-327,402	-200,000	-0,005	0,147
-326,387	-151,706	-0,020	0,001
-325,372	152,882	0,108	0,106
-324,358	23,778	-0,153	-0,089
-323,343	410,060	0,037	-0,056
-322,329	-110,342	0,050	0,007
-321,314	800,000	-0,028	0,079
-320,299	188,408	0,035	0,038
-319,285	-45,677	0,060	0,021
-318,270	238,818	-0,014	-0,016
-317,256	169,227	0,045	0,046
-316,241	-48,225	-0,034	-0,011
-315,226	-142,217	0,049	-0,003
-314,212	11,380	0,057	-0,031
-313,197	90,910	-0,025	-0,020
-312,183	381,529	0,042	0,061
-311,168	-32,066	-0,114	-0,045
-310,153	-50,676	0,085	-0,028
-309,139	29,145	-0,161	0,097
-308,124	-200,000	0,011	0,112
-307,110	800,000	0,066	-0,143
-306,095	187,024	-0,066	0,071
-305,080	-107,954	0,144	-0,022
-304,066	-87,648	-0,080	-0,017
-303,051	534,776	0,037	-0,062
-302,037	800,000	-0,039	-0,094
-301,022	-200,000	0,039	-0,161
-300,008	-19,897	0,074	-0,033
-298,993	509,822	0,026	-0,044
-297,978	-46,220	-0,096	-0,034
-296,964	6,449	0,014	0,007
-295,949	-200,000	-0,013	0,049
-294,935	800,000	0,055	-0,122
-293,920	-136,622	0,063	0,005
-292,905	-161,278	0,045	0,002
-291,891	-142,662	-0,088	0,006
-290,876	-200,000	0,004	-0,055
-289,862	26,674	-0,062	0,037
-288,847	587,169	0,022	0,038
-287,832	-200,000	-0,003	-0,076
-286,818	800,000	-0,038	0,078
-285,803	153,288	0,023	-0,023
-284,789	137,356	-0,092	-0,086
-283,774	53,488	0,038	0,026
-282,759	57,174	0,072	-0,050
-281,745	-82,315	-0,107	-0,025
-280,730	675,959	0,119	-0,221
-279,716	81,615	-0,123	-0,094
-278,701	-103,828	0,129	0,021
-277,686	-200,000	0,014	-0,080
-276,672	-116,693	0,120	0,015
-275,657	-31,777	-0,117	-0,046
-274,643	0,536	0,118	-0,060
-273,628	-200,000	0,004	-0,019
-272,613	192,017	-0,074	0,080
-271,599	-78,214	0,062	0,015
-270,584	-200,000	0,006	0,136
-269,570	-71,564	0,041	-0,011
-268,555	-117,130	0,071	-0,009
-267,540	-131,434	-0,054	-0,005
-266,526	232,980	0,024	0,028
-265,511	189,890	0,054	-0,058
-264,497	774,780	-0,031	0,061
-263,482	-177,887	0,118	-0,002
-262,467	3,374	0,117	0,060
-261,453	35,922	-0,068	0,042
-260,438	275,131	-0,026	0,033
-259,424	430,539	0,028	0,044
-258,409	-112,953	-0,011	-0,001
-257,395	201,346	0,061	0,067
-256,380	-110,290	0,071	-0,010
-255,365	7,954	0,128	0,068
-254,351	-118,256	-0,104	-0,013
-253,336	51,139	-0,081	0,055
-252,322	-200,000	-0,013	0,053
-251,307	-54,378	-0,139	-0,045
-250,292	84,021	0,082	-0,064
-249,278	-200,000	-0,010	0,073
-248,263	800,000	0,057	0,131
-247,249	800,000	-0,012	0,031
-246,234	519,831	0,022	0,037
-245,219	-200,000	0,000	-0,077
-244,205	169,353	-0,040	-0,041
-243,190	-43,114	0,098	-0,035
-242,176	-122,717	0,065	0,007
-241,161	171,079	0,043	0,044
-240,146	268,454	-0,069	0,086
-239,132	141,879	-0,119	0,112
-238,117	524,141	-0,069	-0,116
-237,103	-200,000	0,033	-0,225
-236,088	800,000	0,052	-0,153
-235,073	-200,000	0,013	0,159
-234,059	-196,561	-0,064	-0,000
-233,044	54,761	0,056	0,038
-232,030	-200,000	0,003	0,091
-231,015	-161,296	0,040	-0,001
-230,000	78,561	0,119	-0,090
-228,986	243,660	-0,033	0,039
-227,971	340,730	0,058	-0,081
-226,957	163,466	0,097	0,097
-225,942	-200,000	0,010	0,070
-224,927	156,724	0,035	0,035
-223,913	58,331	-0,080	0,056
-222,898	135,278	-0,084	0,077
-221,884	-48,925	-0,158	0,053
-220,869	-0,420	0,105	0,053
-219,855	734,019	0,061	-0,116
-218,840	-200,000	0,038	0,191
-217,825	10,856	-0,037	-0,020
-216,811	227,839	0,086	0,100
-215,796	800,000	0,061	-0,181
-214,782	-73,206	-0,079	0,020
-213,767	800,000	-0,030	-0,091
-212,752	69,799	0,105	-0,077
-211,738	-200,000	-0,022	0,086
-210,723	-200,000	0,001	0,119
-209,709	800,000	0,020	-0,042
-208,694	800,000	-0,021	0,048
-207,679	800,000	0,068	-0,149
-206,665	694,208	0,037	0,070
-205,650	-75,645	0,117	0,029
-204,636	-200,000	-0,009	0,145
-203,621	454,615	-0,039	-0,061
-202,606	194,839	0,052	-0,056
-201,592	-102,109	-0,107	-0,018
-200,577	-177,504	0,126	0,002
-199,563	-200,000	-0,021	-0,125
-198,548	800,000	-0,052	0,128
-197,533	-59,307	0,138	-0,042
-196,519	-151,406	-0,189	0,010
-195,504	-103,478	0,160	0,026
-194,490	800,000	0,051	0,153
-193,475	-32,953	-0,031	0,012
-192,460	45,209	-0,024	0,015
-191,446	46,187	-0,095	-0,062
-190,431	-200,000	-0,025	0,122
-189,417	-200,000	0,008	0,166
-188,402	-200,000	0,032	-0,110
-187,387	-177,127	-0,120	0,002
-186,373	-47,282	-0,116	-0,040
-185,358	-200,000	-0,011	-0,198
-184,344	800,000	0,040	0,092
-183,329	163,324	-0,085	0,084
-182,315	250,028	0,058	-0,070
-181,300	-200,000	-0,008	0,156
-180,285	800,000	-0,044	0,104
-179,271	-200,000	-0,016	0,090
-178,256	-72,469	0,069	-0,018
-177,242	-200,000	0,025	0,083
-176,227	-144,292	-0,039	-0,003
-175,212	81,447	0,110	0,084
-174,198	613,673	0,037	0,065
-173,183	-200,000	-0,034	-0,143
-172,169	-200,000	-0,023	-0,086
-171,154	800,000	0,024	-0,072
-170,139	800,000	-0,015	0,041
-169,125	-92,548	0,074	0,015
-168,110	509,395	-0,024	0,040
-167,096	800,000	-0,015	0,041
-166,081	800,000	-0,002	-0,004
-165,066	-83,011	-0,041	-0,009
-164,052	78,382	0,190	-0,144
-163,037	126,287	-0,053	0,047
-162,023	-200,000	-0,002	0,005
-161,008	178,839	0,036	-0,037
-159,993	-200,000	0,106	0,000
-158,979	-200,000	0,010	-0,069
-157,964	-200,000	-0,064	-0,218
-156,950	800,000	-0,032	-0,069
-155,935	615,725	0,041	-0,073
-154,920	250,703	-0,090	-0,109
-153,906	134,233	-0,030	0,028
-152,891	224,582	-0,052	0,060
-151,877	-170,801	-0,058	0,001
-150,862	72,094	0,052	-0,038
-149,847	-200,000	0,004	-0,135
-148,833	-56,560	0,089	0,028
-147,818	-68,348	0,083	-0,023
-146,804	164,511	0,054	0,054
-145,789	350,706	0,038	0,053
-144,775	381,914	0,085	-0,125
-143,760	657,633	0,042	0,077
-142,745	-200,000	-0,004	-0,019
-141,731	-125,372	0,071	-0,008
-140,716	800,000	0,056	0,112
-139,702	394,790	-0,060	0,089
-138,687	38,541	-0,109	-0,069
-137,672	71,950	0,051	0,038
-136,658	307,856	-0,034	-0,045
-135,643	-140,715	-0,142	0,010
-134,629	-200,000	0,016	0,065
-133,614	-74,485	-0,019	0,005
-132,599	-102,650	0,088	-0,015
-131,585	178,422	-0,096	0,100
-130,570	123,139	0,080	0,071
-129,556	274,704	-0,121	-0,152
-128,541	-40,259	-0,134	0,049
-127,526	-75,448	-0,058	-0,014
-126,512	800,000	0,068	0,147
-125,497	800,000	-0,023	0,062
-124,483	20,258	0,056	0,032
-123,468	383,130	0,056	0,082
-122,453	95,686	-0,099	-0,080
-121,439	372,135	0,048	0,070
-120,424	-160,721	0,029	-0,001
-119,410	-86,191	0,040	0,009
-118,395	-200,000	-0,061	0,202
-117,380	35,892	0,023	-0,014
-116,366	98,512	-0,033	-0,027
-115,351	128,465	0,082	-0,074
-114,337	-200,000	-0,032	0,106
-113,322	119,806	-0,050	-0,044
-112,307	-200,000	-0,045	0,171
-111,293	44,242	0,112	0,073
-110,278	-4,447	-0,035	0,017
-109,264	-200,000	-0,015	-0,078
-108,249	-200,000	-0,031	0,100
-107,234	326,195	0,102	-0,138
-106,220	-42,199	0,030	-0,011
-105,205	-46,054	-0,099	0,034
-104,191	-200,000	0,008	0,148
-103,176	-15,981	-0,068	0,030
-102,162	-200,000	-0,005	-0,108
-101,147	800,000	0,048	0,110
-100,132	143,586	0,031	-0,029
-99,118	-117,976	-0,144	0,018
-98,103	-15,309	0,062	0,028
-97,089	-200,000	0,003	0,066
-96,074	527,499	-0,051	-0,086
-95,059	525,001	0,043	-0,072
-94,045	-127,702	-0,094	-0,009
-93,030	-39,000	0,132	0,049
-92,016	287,127	0,029	-0,038
-91,001	-200,000	-0,000	-0,048
-89,986	-44,067	0,043	0,015
-88,972	280,159	0,034	0,043
-87,957	800,000	0,012	-0,027
-86,943	0,269	-0,118	-0,059
-85,928	800,000	-0,020	-0,042
-84,913	-200,000	0,019	-0,107
-83,899	50,990	-0,141	-0,094
-82,884	800,000	0,037	0,082
-81,870	-200,000	-0,053	0,197
-80,855	800,000	0,041	0,082
-79,840	301,712	-0,028	-0,036
-78,826	-200,000	-0,001	-0,188
-77,811	199,468	-0,102	-0,110
-76,797	800,000	-0,040	-0,094
-75,782	361,759	-0,091	0,129
-74,767	-200,000	0,035	0,121
-73,753	-7,318	-0,068	0,033
-72,738	284,399	-0,050	-0,064
-71,724	-200,000	0,015	0,076
-70,709	-200,000	-0,011	0,051
-69,694	800,000	0,059	0,117
-68,680	-48,678	0,112	0,038
-67,665	-99,012	0,131	0,023
-66,651	104,387	0,009	0,007
-65,636	800,000	-0,054	0,147
-64,622	-61,682	0,050	-0,015
-63,607	-6,495	-0,027	0,013
-62,592	-200,000	-0,019	-0,076
-61,578	800,000	0,035	-0,094
-60,563	-97,361	0,100	-0,018
-59,549	-200,000	-0,010	0,203
-58,534	14,790	-1,968	-1,084
-57,519	374,903	-1,352	-1,951
-56,505	-200,000	-0,314	-4,397
-55,490	573,166	0,828	1,432
-54,476	800,000	4,938	11,053
-53,461	-200,000	20,809	329,243
-52,446	800,000	757,187	2322,743
-51,432	550,519	1662,227	2825,870
-50,417	73,581	1664,171	1229,117
-49,403	18,753	1537,257	866,329
-48,388	12,755	1459,994	793,757
-47,373	18,956	1450,872	818,553
-46,359	15,845	1440,243	797,715
-45,344	11,025	1435,865	772,297
-44,330	10,862	1434,309	770,648
-43,315	10,911	1432,249	769,746
-42,300	10,941	1430,245	768,782
-41,286	10,932	1429,321	768,212
-40,271	10,916	1427,878	767,331
-39,257	10,892	1426,909	766,663
-38,242	10,940	1425,829	766,282
-37,227	10,986	1424,468	765,739
-36,213	10,922	1423,320	764,788
-35,198	10,946	1422,259	764,298
-34,184	10,973	1421,294	763,881
-33,169	10,929	1419,934	762,912
-32,154	10,947	1418,996	762,458
-31,140	11,034	1417,642	762,113
-30,125	11,084	1416,511	761,711
-29,111	11,036	1415,421	760,867
-28,096	10,994	1414,214	759,989
-27,082	10,924	1413,234	759,104
-26,067	10,919	1412,053	758,419
-25,052	10,957	1410,924	757,962
-24,038	10,925	1409,957	757,261
-23,023	10,922	1409,179	756,800
-22,009	10,916	1407,852	756,028
-20,994	10,908	1406,884	755,440
-19,979	10,875	1406,210	754,892
-18,965	10,831	1405,200	754,114
-17,950	10,829	1404,374	753,634
-16,936	10,851	1403,464	753,217
-15,921	10,796	1402,435	752,381
-14,906	10,812	1401,401	751,870
-13,892	10,843	1400,539	751,521
-12,877	10,837	1399,800	751,068
-11,863	10,834	1398,802	750,490
-10,848	10,777	1397,999	749,762
-9,833	10,782	1397,037	749,238
-8,819	10,729	1396,216	748,523
-7,804	10,719	1395,491	748,062
-6,790	10,702	1394,427	747,379
-5,775	10,739	1393,179	746,854
-4,760	10,744	1392,347	746,403
-3,746	10,773	1391,461	746,032
-2,731	10,757	1390,692	745,513
-1,717	10,706	1389,971	744,861
-0,702	10,721	1387,953	743,821
0,313	14,835	1301,652	716,399
1,327	31,170	693,129	418,644
2,342	48,663	120,234	79,386
3,356	1,717	16,499	8,357
4,371	13,663	3,286	1,795
5,386	3,388	0,907	0,465
6,400	-200,000	0,085	0,386
7,415	-36,210	-0,232	-0,088
8,429	25,198	-0,290	-0,170
9,444	46,325	-0,210	-0,137
10,459	-7,973	-0,282	-0,134
11,473	344,200	-0,114	-0,158
12,488	-48,677	-0,322	-0,109
13,502	-47,306	-0,329	-0,112
14,517	-29,918	-0,263	-0,105
15,531	143,747	-0,326	-0,306
16,546	-32,670	-0,477	-0,186
17,561	155,179	-0,332	-0,322
18,575	-52,319	-0,251	-0,082
19,590	3,175	-0,210	-0,107
20,604	207,404	-0,114	-0,126
21,619	81,790	-0,410	-0,312
22,634	63,941	-0,519	-0,367
23,648	36,253	-0,346	-0,215
24,663	-11,777	-0,464	-0,213
25,677	195,340	-0,216	-0,231
26,692	-11,302	-0,284	-0,131
27,707	113,614	-0,320	-0,274
28,721	58,694	-0,355	-0,245
29,736	-20,301	-0,349	-0,151
30,750	182,584	-0,328	-0,341
31,765	41,542	-0,406	-0,258
32,780	145,625	-0,292	-0,276
33,794	304,906	-0,264	-0,346
34,809	-8,437	-0,408	-0,192
35,823	-6,441	-0,306	-0,146
36,838	-6,065	-0,413	-0,198
37,853	161,289	-0,324	-0,318
38,867	292,896	-0,301	-0,386
39,882	190,899	-0,281	-0,297
40,896	17,408	-0,378	-0,210
41,911	37,089	-0,224	-0,139
42,926	210,405	-0,241	-0,266
43,940	131,827	-0,345	-0,312
44,955	-52,750	-0,402	-0,129
45,969	-26,745	-0,409	-0,167
46,984	101,204	-0,371	-0,303
47,999	-72,666	-0,258	-0,066
49,013	-14,437	-0,275	-0,124
50,028	82,328	-0,267	-0,204
51,042	119,531	-0,271	-0,235
52,057	-18,068	-0,317	-0,139
53,071	46,686	-0,418	-0,272
54,086	166,340	-0,257	-0,256
55,101	34,852	-0,325	-0,199
56,115	-108,807	-0,283	-0,042
57,130	-27,794	-0,370	-0,150
58,144	-49,337	-0,436	-0,145
59,159	102,460	-0,276	-0,226
60,174	92,947	-0,359	-0,284
61,188	-24,706	-0,402	-0,167
62,203	105,760	-0,303	-0,252
63,217	-6,194	-0,388	-0,185
64,232	154,137	-0,324	-0,312
65,247	58,357	-0,347	-0,238
66,261	109,257	-0,282	-0,237
67,276	69,531	-0,319	-0,230
68,290	27,153	-0,486	-0,286
69,305	21,632	-0,236	-0,135
70,320	-74,679	-0,344	-0,086
71,334	800,000	-0,079	-0,179
72,349	16,718	-0,240	-0,133
73,363	22,047	-0,375	-0,214
74,378	229,673	-0,237	-0,272
75,393	500,116	-0,155	-0,251
76,407	-48,291	-0,380	-0,128
77,422	9,558	-0,215	-0,114
78,436	-27,240	-0,348	-0,142
79,451	22,239	-0,334	-0,191
80,466	167,270	-0,302	-0,300
81,480	100,983	-0,313	-0,255
82,495	-61,159	-0,258	-0,076
83,509	-66,310	-0,319	-0,088
84,524	98,479	-0,261	-0,211
85,539	86,005	-0,259	-0,199
86,553	250,832	-0,156	-0,186
87,568	-24,822	-0,323	-0,134
88,582	99,202	-0,176	-0,142
89,597	84,706	-0,346	-0,265
90,611	-73,163	-0,259	-0,066
91,626	88,805	-0,323	-0,251
92,641	-190,204	-0,205	0,002
93,655	-88,117	-0,196	-0,041
94,670	13,399	-0,250	-0,135
95,684	151,863	-0,321	-0,307
96,699	-28,557	-0,260	-0,104
97,714	-35,978	-0,258	-0,097
98,728	14,052	-0,183	-0,099
99,743	25,241	-0,314	-0,182
100,757	173,285	-0,295	-0,298
101,772	29,830	-0,179	-0,106
102,787	122,228	-0,325	-0,284
103,801	12,317	-0,248	-0,133
104,816	86,121	-0,217	-0,167
105,830	-200,000	-0,043	-0,181
106,845	150,815	-0,194	-0,185
107,860	-66,520	-0,177	-0,049
108,874	4,112	-0,266	-0,136
109,889	82,398	-0,215	-0,163
110,903	47,321	-0,192	-0,125
111,918	-101,801	-0,361	-0,061
112,933	-35,155	-0,219	-0,083
113,947	195,116	-0,240	-0,255
114,962	55,996	-0,338	-0,229
115,976	-50,510	-0,193	-0,063
116,991	-3,151	-0,363	-0,176
118,006	371,047	-0,223	-0,317
119,020	6,848	-0,213	-0,110
120,035	51,191	-0,218	-0,144
121,049	137,042	-0,153	-0,139
122,064	-70,432	-0,247	-0,065
123,079	83,166	-0,252	-0,191
124,093	67,164	-0,291	-0,207
125,108	195,358	-0,222	-0,236
126,122	146,703	-0,407	-0,382
127,137	186,597	-0,126	-0,131
128,151	146,029	-0,202	-0,189
129,166	713,677	-0,105	-0,194
130,181	72,090	-0,249	-0,180
131,195	102,267	-0,283	-0,231
132,210	-9,013	-0,388	-0,180
133,224	-76,112	-0,356	-0,087
134,239	81,035	-0,239	-0,180
135,254	165,650	-0,145	-0,143
136,268	-38,558	-0,327	-0,120
137,283	-95,264	-0,168	-0,031
138,297	23,089	-0,265	-0,151
139,312	-11,565	-0,294	-0,134
140,327	29,251	-0,215	-0,127
141,341	47,093	-0,281	-0,182
142,356	30,831	-0,208	-0,124
143,370	-101,606	-0,372	-0,062
144,385	-200,000	-0,023	-0,110
145,400	-43,991	-0,371	-0,129
146,414	252,851	-0,219	-0,261
147,429	69,435	-0,303	-0,217
148,443	269,419	-0,222	-0,272
149,458	138,318	-0,211	-0,193
150,473	214,620	-0,214	-0,236
151,487	-45,592	-0,231	-0,079
152,502	252,911	-0,327	-0,389
153,516	15,726	-0,301	-0,164
154,531	149,416	-0,257	-0,242
155,546	800,000	-0,162	-0,333
156,560	-98,054	-0,244	-0,043
157,575	12,049	-0,172	-0,092
158,589	-160,600	-0,162	0,006
159,604	-1,592	-0,258	-0,126
160,619	158,532	-0,296	-0,286
161,633	79,413	-0,135	-0,101
162,648	-36,535	-0,396	-0,148
163,662	217,781	-0,175	-0,194
164,677	-67,158	-0,274	-0,075
165,692	-77,978	-0,242	-0,058
166,706	25,642	-0,312	-0,180
167,721	15,525	-0,263	-0,143
168,735	-82,465	-0,266	-0,060
169,750	-8,191	-0,234	-0,109
170,764	2,844	-0,251	-0,126
171,779	49,832	-0,131	-0,086
172,794	12,281	-0,331	-0,177
173,808	262,633	-0,101	-0,123
174,823	266,798	-0,151	-0,184
175,837	136,799	-0,109	-0,099
176,852	113,249	-0,186	-0,157
177,867	14,901	-0,161	-0,087
178,881	10,460	-0,190	-0,100
179,896	163,901	-0,162	-0,158
180,910	250,680	-0,180	-0,213
181,925	79,792	-0,147	-0,110
182,940	104,213	-0,233	-0,191
183,954	295,011	-0,147	-0,188
184,969	116,951	-0,305	-0,260
185,983	23,813	-0,256	-0,146
186,998	125,139	-0,224	-0,196
188,013	237,218	-0,198	-0,228
189,027	79,110	-0,283	-0,210
190,042	118,146	-0,286	-0,245
191,056	-5,916	-0,361	-0,171
192,071	95,550	-0,181	-0,143
193,086	88,342	-0,164	-0,126
194,100	72,773	-0,210	-0,152
195,115	147,207	-0,132	-0,123
196,129	113,507	-0,292	-0,246
197,144	163,926	-0,194	-0,189
198,159	16,444	-0,223	-0,122
199,173	5,658	-0,151	-0,077
200,188	191,856	-0,061	-0,064
201,202	24,624	-0,150	-0,086
202,217	120,395	-0,141	-0,121
203,232	15,316	-0,302	-0,164
204,246	231,048	-0,214	-0,243
205,261	207,735	-0,220	-0,238
206,275	75,238	-0,140	-0,102
207,290	53,631	-0,149	-0,099
208,304	130,036	-0,174	-0,155
209,319	50,989	-0,221	-0,145
210,334	377,101	-0,104	-0,147
211,348	36,380	-0,298	-0,182
212,363	91,954	-0,270	-0,211
213,377	-41,900	-0,198	-0,070
214,392	-85,606	-0,262	-0,056
215,407	-8,485	-0,190	-0,088
216,421	800,000	-0,058	-0,131
217,436	289,023	-0,133	-0,167
218,450	7,090	-0,240	-0,123
219,465	2,373	-0,221	-0,110
220,480	48,202	-0,186	-0,120
221,494	25,205	-0,090	-0,052
222,509	262,554	-0,190	-0,228
223,523	-200,000	-0,065	-0,311
224,538	78,547	-0,321	-0,237
225,553	65,455	-0,224	-0,156
226,567	144,032	-0,247	-0,228
227,582	422,610	-0,175	-0,260
228,596	193,233	-0,052	-0,055
229,611	289,548	-0,183	-0,230
230,626	222,958	-0,125	-0,140
231,640	-3,363	-0,238	-0,114
232,655	305,022	-0,191	-0,246
233,669	269,720	-0,313	-0,381
234,684	59,741	-0,233	-0,159
235,699	233,739	-0,183	-0,208
236,713	305,291	-0,209	-0,269
237,728	-5,982	-0,111	-0,052
238,742	-44,026	-0,258	-0,089
239,757	-54,461	-0,319	-0,099
240,772	122,121	-0,210	-0,181
241,786	78,895	-0,219	-0,162
242,801	-146,961	-0,046	-0,003
243,815	30,570	-0,188	-0,111
244,830	40,469	-0,108	-0,067
245,844	84,248	-0,116	-0,088
246,859	-102,631	-0,261	-0,043
247,874	596,123	-0,114	-0,195
248,888	408,030	-0,178	-0,260
249,903	-52,652	-0,143	-0,045
250,917	-39,186	-0,148	-0,053
251,932	-134,446	-0,248	0,021
252,947	-159,004	-0,214	0,008
253,961	99,716	-0,207	-0,165
254,976	800,000	-0,091	-0,253
255,990	-42,484	-0,348	-0,122
257,005	-81,788	-0,172	-0,039
258,020	114,536	-0,147	-0,124
259,034	-42,954	-0,177	-0,062
260,049	184,067	-0,210	-0,215
261,063	47,496	-0,195	-0,125
262,078	465,183	-0,127	-0,196
263,093	800,000	-0,126	-0,344
264,107	-63,086	-0,185	-0,052
265,122	-19,039	-0,133	-0,057
266,136	370,446	-0,129	-0,181
267,151	710,956	-0,047	-0,086
268,166	-11,347	-0,178	-0,080
269,180	-44,254	-0,089	-0,031
270,195	36,420	-0,175	-0,106
271,209	-6,479	-0,220	-0,103
272,224	-17,013	-0,070	0,030
273,239	261,750	-0,123	0,147
274,253	50,811	-0,179	-0,116
275,268	-102,678	-0,176	-0,029
276,282	86,625	-0,184	-0,139
277,297	85,987	-0,178	-0,135
278,312	64,912	-0,133	-0,092
279,326	626,518	-0,068	-0,119
280,341	-17,326	-0,152	-0,065
281,355	-43,353	-0,233	-0,081
282,370	7,452	-0,230	-0,118
283,384	-8,784	-0,159	-0,073
284,399	270,059	-0,174	-0,211
285,414	800,000	-0,095	-0,215
286,428	106,134	-0,261	-0,213
287,443	142,671	-0,063	-0,058
288,457	-134,936	-0,168	-0,014
289,472	-56,551	-0,203	-0,061
290,487	87,592	-0,161	-0,122
291,501	174,898	-0,181	-0,180
292,516	-69,936	-0,277	-0,072
293,530	800,000	-0,080	-0,172
294,545	12,556	-0,040	0,021
295,560	69,094	-0,256	-0,180
296,574	13,597	-0,136	-0,072
297,589	14,492	-0,233	-0,125
298,603	513,017	-0,107	-0,172
299,618	31,589	-0,234	-0,138
300,633	4,333	-0,108	-0,054
301,647	-200,000	-0,026	-0,139
302,662	252,089	-0,035	-0,041
303,676	229,591	-0,139	-0,156
304,691	-98,916	-0,196	-0,034
305,706	89,628	-0,180	-0,138
306,720	-41,484	-0,199	-0,070
307,735	800,000	-0,004	0,010
308,749	113,277	-0,198	-0,165
309,764	44,841	-0,081	-0,051
310,779	-72,300	-0,079	0,020
311,793	55,009	-0,119	-0,079
312,808	-157,431	-0,290	0,012
313,822	155,969	-0,218	-0,206
314,837	-9,866	-0,195	-0,089
315,852	-105,194	-0,013	0,002
316,866	-200,000	-0,008	-0,141
317,881	39,575	-0,178	-0,109
318,895	247,304	-0,133	-0,155
319,910	362,126	-0,110	-0,151
320,925	-33,256	-0,139	-0,052
321,939	-81,607	-0,098	-0,022
322,954	63,006	-0,082	-0,056
323,968	-126,197	-0,212	-0,021
324,983	-200,000	0,007	-0,112
325,997	-195,478	-0,160	0,001
327,012	-82,889	-0,158	-0,035
328,027	800,000	-0,041	-0,099
329,041	-200,000	0,017	-0,131
330,056	800,000	-0,071	-0,160
331,070	655,944	-0,053	-0,094
332,085	170,550	-0,059	-0,058
333,100	-54,375	-0,138	-0,043
334,114	171,716	-0,116	-0,115
335,129	135,673	-0,192	-0,171
336,143	122,299	-0,168	-0,144
337,158	-96,692	-0,094	-0,017
338,173	28,030	-0,149	-0,086
339,187	-160,956	-0,198	0,007
340,202	335,954	-0,065	-0,087
341,216	12,716	-0,177	-0,094
342,231	4,752	-0,236	-0,119
343,246	-90,527	-0,133	0,026
344,260	615,083	-0,075	-0,129
345,275	98,192	-0,175	-0,138
346,289	800,000	-0,016	0,046
347,304	-96,732	-0,233	-0,041
348,319	83,575	-0,098	-0,073
349,333	-29,338	-0,210	-0,082
350,348	11,106	-0,084	-0,044
351,362	-72,934	-0,111	0,028
352,377	31,064	-0,137	0,080
353,392	-93,473	-0,138	0,026
354,406	-74,739	-0,135	-0,033
355,421	206,892	1310,889	1399,090
356,435	159,133	1471,138	1399,582
