DTS Sentinel unit serial number:	SN410029Multiplexer serial number:	ORYXHardware model number:	OX2-SRSoftware version number:	ORYX F/W v4,00 Oryx Data Collector v3.7.2.0data status	okinstallation	B3 Nyhavnadifferential loss correction	single-endedforward channel	channel 1reverse channel	N/Adate	2023/12/04time	17:12:30forward acquisition time	300,00reverse acquisition time	0,00gamma	499,1914k internal	0,3200k external	0,3200temperature offset calibration	1,0000default loss term (dB/km)	0,3820temperature slope calibration	1,0000multiplexer offset coefficient	1,0000multiplexer slope coefficient	1,0000fibre end	0,00T internal ref (°C)	15,13T ext. ref 1 (°C)	0,05T ext. ref 2 (°C)	0,04length (m)	temperature (°C)	Stokes	anti-Stokes-744,400	170,018	-0,140	-0,146
-743,385	-200,000	0,050	0,309
-742,371	75,386	-0,325	-0,249
-741,356	-200,000	0,031	0,174
-740,342	6,837	-0,172	-0,093
-739,327	800,000	-0,088	0,206
-738,312	275,211	-0,165	-0,213
-737,298	-200,000	0,023	0,142
-736,283	26,981	-0,294	-0,179
-735,269	-200,000	0,039	0,257
-734,254	-200,000	-0,033	-0,182
-733,239	201,078	-0,237	0,266
-732,225	170,984	-0,240	-0,250
-731,210	-200,000	-0,036	0,144
-730,196	-172,905	0,065	-0,001
-729,181	27,720	0,038	0,023
-728,167	-200,000	0,010	0,066
-727,152	181,764	-0,069	-0,074
-726,137	64,044	-0,014	0,010
-725,123	108,320	0,054	-0,047
-724,108	800,000	-0,063	-0,128
-723,094	800,000	0,049	-0,106
-722,079	412,612	-0,029	0,045
-721,064	8,268	-0,035	0,019
-720,050	-200,000	-0,021	0,070
-719,035	800,000	-0,029	-0,067
-718,021	-200,000	-0,010	0,094
-717,006	33,155	-0,222	-0,140
-715,991	48,804	-0,102	-0,069
-714,977	590,550	0,032	-0,057
-713,962	8,090	0,124	0,068
-712,948	-200,000	0,022	0,122
-711,933	800,000	-0,061	-0,178
-710,918	-200,000	-0,003	-0,028
-709,904	48,305	0,001	0,001
-708,889	10,094	-0,092	0,050
-707,875	71,510	-0,176	0,133
-706,860	119,484	-0,076	-0,069
-705,845	513,224	0,033	-0,056
-704,831	111,997	0,043	-0,038
-703,816	800,000	-0,012	0,033
-702,802	15,499	0,057	-0,033
-701,787	-59,180	-0,156	0,049
-700,772	82,672	-0,027	-0,021
-699,758	444,809	0,054	-0,086
-698,743	-200,000	-0,002	-0,063
-697,729	-200,000	0,004	-0,028
-696,714	-200,000	0,005	0,066
-695,699	264,587	-0,068	0,086
-694,685	77,841	-0,085	0,066
-693,670	45,450	-0,088	0,059
-692,656	-164,652	-0,050	0,002
-691,641	206,276	-0,017	0,020
-690,627	-200,000	-0,020	0,082
-689,612	-57,907	0,103	-0,032
-688,597	-200,000	-0,040	-0,137
-687,583	800,000	0,023	-0,063
-686,568	192,495	-0,047	-0,051
-685,554	-200,000	-0,050	-0,163
-684,539	0,081	0,045	-0,023
-683,524	-127,325	-0,044	-0,005
-682,510	-200,000	0,017	0,064
-681,495	-200,000	0,028	-0,138
-680,481	129,153	-0,100	-0,093
-679,466	-45,557	-0,171	-0,061
-678,451	350,219	-0,071	-0,102
-677,437	228,372	-0,039	0,047
-676,422	-73,961	-0,142	-0,037
-675,408	-49,128	-0,063	0,022
-674,393	-200,000	0,018	-0,081
-673,378	800,000	-0,025	-0,070
-672,364	-155,979	0,136	0,006
-671,349	800,000	0,011	-0,027
-670,335	-200,000	0,004	-0,119
-669,320	-62,420	-0,132	-0,039
-668,305	-122,941	0,120	0,014
-667,291	-100,809	0,007	-0,001
-666,276	5,793	0,146	-0,078
-665,262	-91,409	-0,103	-0,021
-664,247	2,820	-0,083	-0,044
-663,232	217,631	0,078	-0,090
-662,218	-181,702	-0,119	0,002
-661,203	571,087	0,048	-0,085
-660,189	-41,668	-0,073	-0,027
-659,174	75,826	0,037	0,028
-658,159	-200,000	-0,005	-0,059
-657,145	800,000	0,040	-0,103
-656,130	-81,481	-0,027	0,006
-655,116	11,548	0,059	0,032
-654,101	-200,000	0,003	0,086
-653,086	79,042	-0,027	-0,021
-652,072	226,029	-0,078	-0,092
-651,057	-144,522	-0,211	-0,014
-650,043	800,000	-0,062	-0,133
-649,028	-35,172	-0,023	0,009
-648,014	768,671	-0,049	-0,098
-646,999	398,721	-0,108	-0,165
-645,984	193,887	-0,083	-0,091
-644,970	800,000	-0,021	0,058
-643,955	-89,370	0,060	0,013
-642,941	324,031	-0,116	-0,160
-641,926	-179,135	-0,082	0,001
-640,911	800,000	0,051	-0,154
-639,897	800,000	0,026	0,075
-638,882	-6,305	-0,120	0,059
-637,868	800,000	0,020	0,040
-636,853	69,724	-0,059	0,044
-635,838	111,843	-0,107	0,094
-634,824	-94,039	-0,060	-0,012
-633,809	-58,066	-0,056	0,018
-632,795	-200,000	-0,007	0,084
-631,780	132,123	0,031	0,029
-630,765	-67,909	0,093	0,026
-629,751	-200,000	-0,012	-0,072
-628,736	34,447	-0,044	0,028
-627,722	800,000	0,074	-0,150
-626,707	-4,064	0,004	0,002
-625,692	312,346	0,025	0,034
-624,678	203,612	0,029	0,033
-623,663	-74,441	-0,172	-0,044
-622,649	-47,526	-0,060	0,021
-621,634	-200,000	-0,016	-0,068
-620,619	341,219	0,152	0,215
-619,605	-141,948	-0,076	0,005
-618,590	-200,000	0,021	-0,102
-617,576	-92,277	0,102	0,021
-616,561	229,757	-0,125	-0,148
-615,546	800,000	-0,025	-0,054
-614,532	-62,839	0,043	0,013
-613,517	106,045	-0,045	0,039
-612,503	-63,240	0,099	-0,029
-611,488	800,000	0,042	0,095
-610,474	221,294	0,073	-0,086
-609,459	-200,000	0,002	0,071
-608,444	-200,000	0,009	-0,126
-607,430	-200,000	-0,017	-0,093
-606,415	227,514	0,086	0,101
-605,401	800,000	-0,024	0,049
-604,386	800,000	0,028	0,086
-603,371	327,069	-0,056	-0,077
-602,357	-131,961	-0,065	0,006
-601,342	365,352	-0,050	0,073
-600,328	78,353	-0,099	-0,076
-599,313	800,000	-0,032	-0,065
-598,298	-83,982	0,009	0,002
-597,284	49,593	0,019	0,013
-596,269	11,726	-0,009	0,005
-595,255	-15,356	-0,103	-0,047
-594,240	338,328	-0,084	-0,118
-593,225	-53,652	-0,090	-0,030
-592,211	319,978	-0,068	-0,094
-591,196	-200,000	-0,011	0,035
-590,182	-112,945	-0,031	-0,004
-589,167	-113,658	-0,111	0,015
-588,152	-97,350	-0,088	-0,016
-587,138	800,000	0,050	0,148
-586,123	258,866	0,037	-0,046
-585,109	-51,583	-0,080	0,027
-584,094	800,000	0,013	0,030
-583,079	-90,973	0,072	-0,015
-582,065	-132,294	0,093	-0,009
-581,050	-200,000	-0,012	0,138
-580,036	373,368	-0,069	0,102
-579,021	-42,640	-0,029	0,011
-578,006	-200,000	-0,017	0,065
-576,992	203,184	0,041	0,046
-575,977	186,855	-0,018	-0,019
-574,963	-200,000	0,001	-0,070
-573,948	130,515	-0,097	-0,090
-572,934	800,000	-0,059	0,120
-571,919	-200,000	0,014	0,131
-570,904	552,090	-0,123	0,214
-569,890	800,000	0,032	-0,090
-568,875	2,720	-0,022	-0,011
-567,861	68,063	-0,047	-0,035
-566,846	-88,311	0,061	-0,013
-565,831	445,460	0,009	-0,014
-564,817	77,632	0,096	-0,074
-563,802	319,133	-0,083	-0,114
-562,788	-46,770	0,114	0,040
-561,773	-200,000	-0,038	-0,165
-560,758	-200,000	0,010	0,134
-559,744	-200,000	-0,028	0,096
-558,729	757,763	0,027	0,053
-557,715	154,494	-0,084	0,083
-556,700	-200,000	-0,009	-0,065
-555,685	187,648	-0,047	-0,051
-554,671	122,744	-0,116	-0,104
-553,656	-27,513	0,094	-0,039
-552,642	131,619	0,102	0,094
-551,627	-45,628	-0,066	-0,023
-550,612	-69,533	-0,070	-0,019
-549,598	-200,000	-0,018	-0,082
-548,583	231,841	0,045	0,053
-547,569	800,000	0,030	0,062
-546,554	286,420	-0,015	0,020
-545,539	321,412	0,058	0,079
-544,525	-200,000	0,009	-0,070
-543,510	-200,000	-0,005	0,099
-542,496	-64,945	-0,172	-0,050
-541,481	800,000	-0,017	-0,037
-540,466	165,538	-0,020	-0,020
-539,452	210,098	0,011	0,013
-538,437	-1,770	-0,050	-0,025
-537,423	28,011	0,086	0,052
-536,408	-200,000	-0,036	0,117
-535,393	-107,666	-0,154	-0,024
-534,379	134,318	-0,130	-0,121
-533,364	-200,000	0,008	-0,083
-532,350	716,783	-0,032	-0,061
-531,335	800,000	-0,015	-0,037
-530,321	111,357	0,117	-0,102
-529,306	345,020	-0,065	-0,093
-528,291	233,986	-0,071	0,085
-527,277	800,000	-0,036	-0,112
-526,262	46,625	-0,202	-0,135
-525,248	-170,872	0,050	-0,001
-524,233	-200,000	-0,004	0,028
-523,218	504,284	-0,009	0,015
-522,204	800,000	0,027	-0,073
-521,189	446,216	0,048	0,076
-520,175	-200,000	-0,010	-0,050
-519,160	325,135	0,016	0,023
-518,145	-200,000	0,009	0,130
-517,131	800,000	0,091	0,224
-516,116	134,317	0,033	0,031
-515,102	196,357	0,019	-0,021
-514,087	800,000	-0,035	-0,092
-513,072	-200,000	-0,003	-0,163
-512,058	-9,970	-0,063	-0,030
-511,043	-43,315	0,096	0,035
-510,029	420,935	0,032	0,050
-509,014	587,630	0,098	0,174
-507,999	376,526	0,022	0,032
-506,985	145,660	-0,102	0,099
-505,970	75,863	-0,089	0,068
-504,956	84,364	-0,053	-0,041
-503,941	-41,759	-0,134	0,049
-502,926	-139,418	-0,034	0,003
-501,912	75,939	0,071	0,054
-500,897	-200,000	-0,017	0,113
-499,883	-200,000	0,007	-0,230
-498,868	-200,000	-0,054	-0,207
-497,853	30,653	-0,041	-0,025
-496,839	-83,597	-0,064	0,015
-495,824	-67,958	0,234	-0,065
-494,810	-100,436	-0,194	0,034
-493,795	-66,105	-0,109	-0,031
-492,781	240,796	-0,030	-0,036
-491,766	48,384	0,060	-0,041
-490,751	470,483	0,071	-0,116
-489,737	-200,000	-0,011	-0,097
-488,722	-14,457	0,093	0,043
-487,708	28,406	-0,037	-0,022
-486,693	38,498	0,056	-0,036
-485,678	310,253	-0,076	-0,103
-484,664	-200,000	0,011	0,190
-483,649	800,000	0,020	-0,050
-482,635	-200,000	0,002	-0,083
-481,620	-11,069	0,068	-0,032
-480,605	-200,000	-0,017	0,092
-479,591	800,000	0,047	0,101
-478,576	15,094	-0,023	-0,013
-477,562	9,713	0,034	-0,019
-476,547	-200,000	-0,043	-0,232
-475,532	800,000	0,034	-0,097
-474,518	-145,769	-0,062	-0,004
-473,503	11,359	0,033	0,018
-472,489	-200,000	-0,007	0,075
-471,474	-200,000	-0,026	-0,105
-470,459	-200,000	-0,010	-0,038
-469,445	315,727	0,053	-0,072
-468,430	-200,000	0,009	-0,088
-467,416	78,069	-0,058	0,044
-466,401	627,493	0,103	0,188
-465,386	-36,343	0,101	-0,039
-464,372	-200,000	-0,014	0,073
-463,357	-99,221	-0,137	0,025
-462,343	659,641	-0,039	-0,073
-461,328	68,984	0,079	-0,058
-460,313	6,970	0,020	-0,011
-459,299	-37,309	0,077	0,029
-458,284	-200,000	0,006	0,111
-457,270	-200,000	0,015	-0,130
-456,255	46,862	0,040	-0,027
-455,241	78,969	-0,063	0,048
-454,226	655,796	0,041	-0,076
-453,211	-33,873	0,040	-0,016
-452,197	536,276	0,079	0,135
-451,182	282,888	-0,049	0,064
-450,168	-200,000	-0,005	-0,072
-449,153	800,000	-0,034	0,084
-448,138	-200,000	-0,010	-0,081
-447,124	-130,188	0,103	-0,010
-446,109	12,335	0,019	0,010
-445,095	478,962	0,095	0,155
-444,080	-45,334	0,052	-0,019
-443,065	-200,000	0,034	0,199
-442,051	-62,403	-0,175	-0,052
-441,036	-200,000	-0,012	0,084
-440,022	-26,069	-0,105	0,044
-439,007	-129,477	-0,019	-0,002
-437,992	92,089	0,049	0,040
-436,978	-53,228	0,254	0,083
-435,963	800,000	-0,013	-0,035
-434,949	206,917	0,034	-0,038
-433,934	79,934	0,066	0,051
-432,919	800,000	-0,036	-0,075
-431,905	-3,051	-0,059	0,029
-430,890	-83,637	0,068	-0,015
-429,876	218,182	0,147	0,169
-428,861	-121,330	0,119	0,014
-427,846	-47,470	0,055	-0,019
-426,832	-200,000	-0,037	-0,145
-425,817	800,000	-0,021	-0,044
-424,803	107,844	-0,100	-0,085
-423,788	231,042	0,121	-0,142
-422,773	31,969	0,105	-0,065
-421,759	800,000	0,008	0,021
-420,744	-57,034	0,062	0,020
-419,730	-108,327	-0,054	-0,008
-418,715	800,000	-0,067	-0,136
-417,701	-148,641	-0,094	-0,005
-416,686	800,000	0,014	-0,037
-415,671	-53,481	0,114	-0,037
-414,657	31,464	-0,066	-0,041
-413,642	-19,152	-0,067	0,030
-412,628	-134,963	-0,077	-0,007
-411,613	-108,095	-0,210	-0,032
-410,598	80,734	0,073	0,057
-409,584	-200,000	-0,020	0,102
-408,569	-200,000	-0,021	0,080
-407,555	750,246	0,011	-0,022
-406,540	353,853	0,079	0,113
-405,525	90,755	-0,058	-0,047
-404,511	228,061	0,043	-0,050
-403,496	106,400	-0,102	-0,086
-402,482	12,039	0,125	0,069
-401,467	-61,543	-0,061	0,018
-400,452	88,137	0,099	-0,079
-399,438	0,134	0,085	0,044
-398,423	800,000	-0,048	-0,152
-397,409	-200,000	-0,007	0,027
-396,394	-159,533	-0,105	-0,004
-395,379	-42,560	-0,136	0,049
-394,365	800,000	0,029	-0,085
-393,350	-200,000	0,032	0,198
-392,336	-200,000	-0,000	0,081
-391,321	-189,315	0,056	-0,000
-390,306	-66,425	-0,150	0,043
-389,292	-200,000	0,002	-0,009
-388,277	-200,000	0,006	0,024
-387,263	-200,000	-0,000	-0,019
-386,248	-136,434	0,070	-0,006
-385,233	800,000	0,041	0,083
-384,219	-48,831	0,033	0,011
-383,204	-121,746	-0,071	-0,008
-382,190	465,951	-0,061	0,098
-381,175	-179,754	0,034	0,001
-380,160	-147,194	0,111	0,007
-379,146	-54,577	0,045	0,014
-378,131	800,000	-0,020	-0,050
-377,117	-12,476	-0,087	0,041
-376,102	243,420	-0,023	0,028
-375,088	-76,079	-0,028	-0,007
-374,073	133,757	-0,023	-0,021
-373,058	-57,246	0,087	-0,027
-372,044	157,394	-0,033	0,033
-371,029	621,425	0,047	0,084
-370,015	-139,616	0,136	0,010
-369,000	-200,000	-0,021	-0,099
-367,985	-200,000	0,027	-0,158
-366,971	-116,430	-0,082	0,011
-365,956	330,237	-0,036	-0,050
-364,942	800,000	0,015	0,035
-363,927	-11,555	0,065	0,031
-362,912	80,686	-0,114	-0,088
-361,898	-200,000	-0,005	-0,052
-360,883	-7,940	0,062	-0,030
-359,869	158,519	-0,125	-0,124
-358,854	-49,044	0,207	0,071
-357,839	-30,190	0,151	0,061
-356,825	-200,000	0,019	0,129
-355,810	800,000	0,020	0,048
-354,796	133,435	0,127	-0,118
-353,781	-54,554	-0,102	-0,033
-352,766	800,000	-0,071	-0,154
-351,752	-75,557	-0,064	-0,016
-350,737	800,000	0,012	0,027
-349,723	96,827	0,091	0,075
-348,708	68,653	0,154	-0,113
-347,693	-200,000	0,010	0,050
-346,679	359,782	-0,092	-0,133
-345,664	-200,000	-0,007	-0,111
-344,650	-54,388	-0,095	-0,031
-343,635	-200,000	0,012	0,153
-342,620	248,823	0,086	0,105
-341,606	-200,000	0,019	-0,121
-340,591	45,724	-0,086	0,057
-339,577	-100,913	-0,037	0,006
-338,562	595,213	-0,032	0,057
-337,548	-75,629	-0,072	0,018
-336,533	531,097	0,051	0,087
-335,518	77,281	-0,064	0,049
-334,504	-165,456	0,050	-0,002
-333,489	460,577	-0,046	-0,074
-332,475	-70,474	0,035	-0,009
-331,460	800,000	0,029	-0,058
-330,445	349,221	0,058	-0,082
-329,431	-6,780	0,061	-0,030
-328,416	-83,704	0,180	-0,041
-327,402	800,000	-0,042	0,107
-326,387	100,032	0,073	0,061
-325,372	-146,766	-0,122	-0,007
-324,358	-200,000	-0,031	-0,181
-323,343	386,555	-0,067	-0,099
-322,329	-20,070	0,067	0,029
-321,314	800,000	0,045	0,134
-320,299	800,000	0,047	0,133
-319,285	800,000	-0,014	-0,037
-318,270	720,638	-0,033	-0,063
-317,256	-125,571	-0,113	-0,012
-316,241	430,303	-0,081	0,126
-315,226	100,792	-0,044	0,036
-314,212	800,000	-0,006	-0,013
-313,197	-74,504	0,109	0,028
-312,183	800,000	0,053	-0,116
-311,168	800,000	0,017	-0,049
-310,153	-13,425	0,041	0,019
-309,139	-200,000	0,006	0,082
-308,124	43,420	0,109	-0,071
-307,110	-200,000	0,022	0,107
-306,095	30,770	0,107	0,065
-305,080	240,220	0,046	0,055
-304,066	-171,780	0,020	-0,000
-303,051	-200,000	-0,023	-0,079
-302,037	468,455	-0,040	-0,065
-301,022	800,000	-0,033	0,090
-300,008	36,387	0,011	0,007
-298,993	119,363	0,042	-0,037
-297,978	-12,170	0,158	-0,074
-296,964	301,215	0,046	-0,061
-295,949	9,033	-0,198	0,106
-294,935	-89,890	-0,121	-0,025
-293,920	514,237	0,024	0,039
-292,905	-200,000	0,014	0,067
-291,891	-172,501	-0,060	-0,001
-290,876	-7,709	0,048	-0,023
-289,862	252,351	0,074	0,090
-288,847	-73,316	-0,090	0,023
-287,832	800,000	0,043	-0,114
-286,818	-200,000	-0,010	-0,033
-285,803	-94,638	0,188	0,036
-284,789	-106,961	0,163	0,025
-283,774	-41,725	0,138	-0,050
-282,759	34,942	0,025	0,016
-281,745	327,082	0,037	-0,051
-280,730	-92,887	-0,102	0,020
-279,716	-200,000	-0,016	0,083
-278,701	133,574	0,066	-0,061
-277,686	-84,817	0,159	-0,035
-276,672	-88,915	0,020	0,004
-275,657	-200,000	0,023	0,172
-274,643	-118,026	-0,118	-0,015
-273,628	800,000	-0,054	0,115
-272,613	28,843	-0,087	0,052
-271,599	-173,171	-0,047	-0,001
-270,584	-200,000	0,018	0,172
-269,570	800,000	0,018	0,051
-268,555	585,493	0,020	0,036
-267,540	4,264	-0,133	0,069
-266,526	137,281	-0,054	-0,051
-265,511	57,913	-0,055	-0,038
-264,497	226,351	0,088	-0,102
-263,482	-142,153	-0,078	-0,005
-262,467	251,838	0,131	0,159
-261,453	-68,905	-0,208	-0,057
-260,438	-125,668	0,058	-0,006
-259,424	595,528	-0,040	0,071
-258,409	800,000	0,044	-0,110
-257,395	800,000	-0,013	-0,026
-256,380	266,599	0,070	-0,087
-255,365	230,602	-0,101	0,118
-254,351	-45,734	0,203	0,071
-253,336	309,681	0,038	-0,051
-252,322	-106,534	-0,014	-0,002
-251,307	-47,988	0,099	-0,034
-250,292	-57,918	0,104	0,032
-249,278	-60,053	0,126	0,038
-248,263	69,923	0,058	0,043
-247,249	-108,545	-0,175	0,027
-246,234	-198,697	0,055	0,000
-245,219	-200,000	-0,008	0,032
-244,205	-30,829	-0,100	-0,040
-243,190	-130,024	0,019	-0,002
-242,176	-81,289	-0,025	0,006
-241,161	15,640	-0,104	0,058
-240,146	-200,000	0,021	0,105
-239,132	499,616	0,048	-0,080
-238,117	155,316	-0,141	-0,139
-237,103	-200,000	-0,046	0,000
-236,088	-172,798	0,099	-0,002
-235,073	313,865	-0,118	-0,158
-234,059	141,426	0,103	0,097
-233,044	-27,462	0,176	-0,073
-232,030	49,013	-0,104	0,069
-231,015	-200,000	0,001	-0,046
-230,000	244,706	-0,089	0,107
-228,986	738,435	-0,069	-0,133
-227,971	-200,000	0,017	-0,115
-226,957	800,000	0,035	0,105
-225,942	-70,582	-0,070	-0,019
-224,927	188,915	0,085	0,091
-223,913	-127,796	-0,127	0,013
-222,898	524,396	-0,017	-0,029
-221,884	70,214	-0,027	-0,020
-220,869	-72,458	0,067	-0,017
-219,855	303,077	0,066	-0,088
-218,840	-200,000	0,040	0,138
-217,825	-95,406	0,042	0,008
-216,811	-81,170	-0,114	0,027
-215,796	193,172	0,071	-0,077
-214,782	132,783	-0,102	-0,093
-213,767	-200,000	0,012	0,052
-212,752	81,735	0,028	0,022
-211,738	-200,000	0,020	0,111
-210,723	63,853	0,141	-0,101
-209,709	800,000	-0,020	-0,041
-208,694	87,014	-0,078	-0,061
-207,679	-200,000	-0,000	-0,003
-206,665	800,000	0,025	0,071
-205,650	23,800	0,126	0,074
-204,636	77,631	0,087	0,066
-203,621	35,495	-0,085	0,053
-202,606	-34,194	-0,062	-0,024
-201,592	-112,760	-0,058	-0,008
-200,577	-200,000	-0,013	0,060
-199,563	-200,000	-0,001	-0,074
-198,548	-117,338	0,097	0,012
-197,533	269,112	0,031	-0,039
-196,519	628,396	-0,036	-0,065
-195,504	50,113	-0,046	-0,031
-194,490	-200,000	0,001	0,017
-193,475	139,520	-0,033	0,031
-192,460	-200,000	-0,025	-0,123
-191,446	338,869	-0,060	0,083
-190,431	-87,801	0,170	0,036
-189,417	800,000	-0,043	0,095
-188,402	-200,000	-0,024	0,137
-187,387	31,209	0,053	-0,032
-186,373	-110,685	-0,077	-0,011
-185,358	-200,000	-0,002	0,030
-184,344	728,587	0,063	0,121
-183,329	800,000	0,026	-0,052
-182,315	800,000	-0,028	0,080
-181,300	-2,461	-0,020	-0,010
-180,285	759,302	-0,048	-0,093
-179,271	-84,653	0,079	0,018
-178,256	-30,161	-0,099	0,040
-177,242	500,274	0,050	0,083
-176,227	-9,699	0,150	0,071
-175,212	59,135	-0,092	0,064
-174,198	-9,398	-0,073	0,035
-173,183	-158,091	0,174	-0,007
-172,169	-198,877	0,036	-0,000
-171,154	-200,000	0,007	0,047
-170,139	800,000	0,035	0,071
-169,125	-83,794	0,109	0,025
-168,110	-200,000	0,008	-0,077
-167,096	-51,147	-0,141	0,047
-166,081	-119,589	-0,111	-0,014
-165,066	-200,000	-0,004	-0,079
-164,052	-26,127	-0,093	-0,039
-163,037	-61,772	-0,136	-0,040
-162,023	-125,145	0,189	-0,020
-161,008	-74,568	0,103	0,026
-159,993	-200,000	0,029	0,121
-158,979	-36,578	0,081	-0,031
-157,964	-200,000	-0,024	-0,190
-156,950	-32,649	0,095	-0,037
-155,935	-22,045	0,062	0,027
-154,920	26,933	0,089	-0,053
-153,906	24,545	0,070	0,041
-152,891	-26,503	-0,033	0,014
-151,877	800,000	0,035	-0,086
-150,862	3,901	-0,102	-0,053
-149,847	37,961	-0,054	-0,034
-148,833	800,000	0,043	-0,098
-147,818	235,771	0,052	0,061
-146,804	-157,926	0,168	0,007
-145,789	800,000	0,030	-0,074
-144,775	194,654	-0,041	-0,044
-143,760	800,000	0,033	-0,075
-142,745	351,367	-0,104	-0,147
-141,731	-24,806	-0,048	0,020
-140,716	-127,058	0,106	0,011
-139,702	-200,000	0,021	0,103
-138,687	-200,000	0,015	0,096
-137,672	800,000	-0,033	-0,098
-136,658	-200,000	-0,020	-0,146
-135,643	343,801	-0,067	0,094
-134,629	158,304	-0,111	-0,109
-133,614	-17,116	0,092	0,041
-132,599	-11,004	0,246	0,115
-131,585	-12,076	0,077	0,036
-130,570	229,319	-0,083	-0,096
-129,556	97,732	0,041	0,033
-128,541	-200,000	0,019	0,118
-127,526	164,731	-0,027	-0,027
-126,512	97,589	0,104	-0,085
-125,497	800,000	-0,061	0,139
-124,483	150,514	0,074	0,071
-123,468	243,987	0,004	-0,005
-122,453	402,212	-0,025	-0,038
-121,439	-200,000	-0,022	-0,164
-120,424	83,324	0,061	0,047
-119,410	-75,565	0,111	0,028
-118,395	60,350	0,043	0,030
-117,380	800,000	-0,049	0,111
-116,366	-58,036	0,063	0,020
-115,351	54,001	-0,053	-0,036
-114,337	-5,423	0,105	-0,051
-113,322	-95,248	0,077	0,015
-112,307	-145,506	-0,139	-0,009
-111,293	153,854	0,052	0,051
-110,278	-76,095	0,063	-0,016
-109,264	-200,000	0,009	0,183
-108,249	-200,000	0,013	-0,050
-107,234	-200,000	-0,007	-0,054
-106,220	68,203	-0,135	-0,098
-105,205	277,774	0,147	0,187
-104,191	-200,000	-0,020	0,063
-103,176	24,487	0,187	0,110
-102,162	93,094	0,035	-0,028
-101,147	99,255	-0,081	-0,066
-100,132	117,703	0,100	-0,087
-99,118	136,187	-0,155	-0,143
-98,103	-200,000	-0,010	-0,130
-97,089	-200,000	-0,001	-0,226
-96,074	-12,392	-0,113	0,052
-95,059	-94,651	-0,088	-0,017
-94,045	-200,000	-0,018	-0,106
-93,030	349,129	-0,045	-0,063
-92,016	749,437	-0,058	-0,112
-91,001	-200,000	-0,020	0,192
-89,986	-200,000	-0,009	0,075
-88,972	412,806	0,084	0,127
-87,957	65,045	0,043	0,031
-86,943	-190,855	0,011	0,000
-85,928	800,000	0,016	0,035
-84,913	-200,000	0,021	-0,091
-83,899	-0,924	0,034	-0,017
-82,884	9,955	-0,072	-0,039
-81,870	48,943	0,079	0,053
-80,855	800,000	0,021	-0,049
-79,840	-164,147	-0,161	0,005
-78,826	800,000	-0,052	-0,125
-77,811	-26,019	-0,027	-0,011
-76,797	800,000	0,005	-0,010
-75,782	-68,047	-0,056	-0,015
-74,767	244,584	-0,035	-0,042
-73,753	-200,000	-0,012	-0,117
-72,738	-166,903	0,081	-0,002
-71,724	564,656	-0,159	0,274
-70,709	800,000	-0,027	0,068
-69,694	70,887	-0,053	-0,039
-68,680	135,064	0,108	0,099
-67,665	118,243	-0,100	-0,088
-66,651	-41,789	-0,055	-0,020
-65,636	-147,283	0,120	-0,007
-64,622	-117,188	-0,079	0,010
-63,607	16,559	-0,047	0,026
-62,592	-76,460	0,024	0,006
-61,578	83,596	0,072	-0,056
-60,563	800,000	0,047	0,127
-59,549	-200,000	0,000	0,070
-58,534	-54,836	-1,444	-0,459
-57,519	440,452	-1,391	-2,162
-56,505	-200,000	-0,533	-4,623
-55,490	168,295	0,861	0,869
-54,476	800,000	4,817	11,301
-53,461	-200,000	18,192	285,942
-52,446	800,000	726,903	2223,187
-51,432	553,464	1642,767	2807,772
-50,417	79,360	1664,844	1263,006
-49,403	22,992	1538,681	891,461
-48,388	16,983	1461,950	817,914
-47,373	17,866	1451,828	816,470
-46,359	17,264	1442,480	808,299
-45,344	15,264	1437,759	796,077
-44,330	15,194	1435,723	794,585
-43,315	15,173	1433,971	793,484
-42,300	15,208	1432,507	792,806
-41,286	15,210	1431,352	792,148
-40,271	15,175	1430,162	791,292
-39,257	15,181	1428,883	790,579
-38,242	15,242	1427,459	790,048
-37,227	15,254	1426,247	789,404
-36,213	15,256	1424,985	788,683
-35,198	15,181	1424,018	787,762
-34,184	15,289	1422,892	787,621
-33,169	15,242	1421,537	786,617
-32,154	15,242	1420,624	786,079
-31,140	15,209	1419,392	785,209
-30,125	15,236	1418,290	784,697
-29,111	15,247	1417,128	784,073
-28,096	15,202	1416,042	783,233
-27,082	15,211	1414,766	782,538
-26,067	15,184	1413,748	781,816
-25,052	15,191	1412,504	781,131
-24,038	15,175	1411,754	780,608
-23,023	15,112	1410,618	779,655
-22,009	15,137	1409,804	779,289
-20,994	15,149	1408,659	778,682
-19,979	15,090	1407,818	777,911
-18,965	15,095	1406,974	777,438
-17,950	15,099	1405,815	776,785
-16,936	15,125	1404,999	776,424
-15,921	15,061	1403,590	775,317
-14,906	15,075	1402,928	774,984
-13,892	15,103	1402,026	774,589
-12,877	15,068	1401,154	773,910
-11,863	15,035	1400,235	773,222
-10,848	15,021	1399,390	772,658
-9,833	15,031	1398,331	772,089
-8,819	14,944	1397,587	771,246
-7,804	14,968	1396,772	770,874
-6,790	15,009	1395,451	770,306
-5,775	14,949	1394,570	769,510
-4,760	14,989	1393,609	769,133
-3,746	14,951	1392,871	768,521
-2,731	14,968	1392,099	768,145
-1,717	14,960	1391,058	767,502
-0,702	14,963	1389,287	766,507
0,313	18,740	1308,732	739,552
1,327	35,032	707,318	437,481
2,342	53,739	125,013	84,824
3,356	4,687	16,684	8,644
4,371	5,150	3,260	1,694
5,386	-29,965	0,515	0,206
6,400	-200,000	-0,057	0,205
7,415	-58,572	-0,263	-0,080
8,429	-49,619	-0,231	-0,077
9,444	-26,821	-0,329	-0,136
10,459	51,457	-0,342	-0,230
11,473	-28,376	-0,234	-0,095
12,488	41,747	-0,419	-0,268
13,502	149,067	-0,349	-0,334
14,517	32,918	-0,382	-0,233
15,531	288,682	-0,223	-0,287
16,546	44,381	-0,481	-0,312
17,561	187,647	-0,309	-0,327
18,575	19,891	-0,184	-0,105
19,590	90,212	-0,306	-0,242
20,604	-24,645	-0,227	-0,095
21,619	92,420	-0,398	-0,317
22,634	99,121	-0,512	-0,417
23,648	28,420	-0,570	-0,339
24,663	152,723	-0,397	-0,384
25,677	111,014	-0,342	-0,291
26,692	62,351	-0,295	-0,208
27,707	31,128	-0,354	-0,214
28,721	69,461	-0,303	-0,220
29,736	36,514	-0,469	-0,292
30,750	50,969	-0,323	-0,216
31,765	112,125	-0,349	-0,297
32,780	94,888	-0,360	-0,289
33,794	140,703	-0,287	-0,268
34,809	-37,286	-0,443	-0,166
35,823	73,737	-0,443	-0,328
36,838	241,721	-0,315	-0,372
37,853	148,975	-0,386	-0,368
38,867	113,324	-0,325	-0,278
39,882	-59,693	-0,429	-0,129
40,896	21,064	-0,271	-0,155
41,911	57,321	-0,335	-0,230
42,926	30,863	-0,427	-0,258
43,940	68,385	-0,427	-0,308
44,955	79,367	-0,434	-0,328
45,969	-27,628	-0,359	-0,146
46,984	402,424	-0,259	-0,385
47,999	2,505	-0,363	-0,185
49,013	151,810	-0,270	-0,260
50,028	-22,546	-0,350	-0,149
51,042	12,695	-0,354	-0,192
52,057	65,208	-0,406	-0,289
53,071	86,020	-0,337	-0,261
54,086	-4,229	-0,458	-0,223
55,101	367,875	-0,246	-0,351
56,115	-37,618	-0,291	-0,109
57,130	-40,038	-0,315	-0,115
58,144	110,394	-0,263	-0,222
59,159	99,901	-0,353	-0,288
60,174	-52,056	-0,529	-0,172
61,188	63,458	-0,371	-0,262
62,203	100,641	-0,372	-0,304
63,217	-26,126	-0,384	-0,158
64,232	173,295	-0,228	-0,232
65,247	-18,190	-0,420	-0,184
66,261	216,923	-0,282	-0,316
67,276	117,344	-0,342	-0,296
68,290	284,146	-0,234	-0,297
69,305	80,808	-0,297	-0,225
70,320	-110,209	-0,166	-0,024
71,334	-51,640	-0,288	-0,094
72,349	127,711	-0,270	-0,241
73,363	20,225	-0,297	-0,168
74,378	37,948	-0,353	-0,220
75,393	65,993	-0,342	-0,243
76,407	32,527	-0,352	-0,213
77,422	33,999	-0,391	-0,239
78,436	0,173	-0,307	-0,153
79,451	-21,795	-0,317	-0,135
80,466	460,631	-0,262	-0,411
81,480	3,534	-0,250	-0,128
82,495	205,312	-0,310	-0,339
83,509	48,342	-0,262	-0,172
84,524	78,579	-0,231	-0,173
85,539	-99,310	-0,294	-0,052
86,553	-81,893	-0,226	-0,052
87,568	199,193	-0,195	-0,210
88,582	65,336	-0,369	-0,262
89,597	62,609	-0,405	-0,284
90,611	1,730	-0,304	-0,153
91,626	129,049	-0,216	-0,194
92,641	48,125	-0,263	-0,172
93,655	-61,025	-0,254	-0,075
94,670	-80,519	-0,185	-0,043
95,684	114,830	-0,279	-0,239
96,699	52,652	-0,268	-0,179
97,714	40,440	-0,308	-0,194
98,728	218,858	-0,184	-0,207
99,743	-99,984	-0,234	-0,041
100,757	37,613	-0,336	-0,209
101,772	52,520	-0,333	-0,223
102,787	60,954	-0,275	-0,191
103,801	73,283	-0,265	-0,194
104,816	52,401	-0,209	-0,140
105,830	124,739	-0,209	-0,184
106,845	13,094	-0,156	-0,084
107,860	-58,399	-0,293	-0,089
108,874	-11,634	-0,330	-0,151
109,889	42,422	-0,222	-0,141
110,903	-72,866	-0,326	-0,083
111,918	46,241	-0,433	-0,281
112,933	18,458	-0,174	-0,097
113,947	-35,612	-0,327	-0,124
114,962	35,698	-0,257	-0,158
115,976	-20,055	-0,234	-0,101
116,991	64,677	-0,289	-0,204
118,006	8,485	-0,326	-0,171
119,020	270,244	-0,197	-0,243
120,035	61,796	-0,161	-0,112
121,049	241,966	-0,124	-0,145
122,064	-41,275	-0,288	-0,103
123,079	-89,786	-0,259	0,053
124,093	104,737	-0,215	-0,177
125,108	-79,017	-0,315	-0,075
126,122	-46,079	-0,309	-0,106
127,137	84,938	-0,180	-0,138
128,151	238,229	-0,132	-0,153
129,166	108,423	-0,168	-0,140
130,181	361,940	-0,174	-0,245
131,195	115,106	-0,249	-0,213
132,210	87,298	-0,207	-0,160
133,224	162,238	-0,273	-0,268
134,239	8,967	-0,285	-0,150
135,254	98,783	-0,267	-0,216
136,268	497,975	-0,143	-0,232
137,283	166,851	-0,216	-0,214
138,297	112,933	-0,294	-0,249
139,312	55,448	-0,303	-0,205
140,327	134,912	-0,291	-0,264
141,341	8,763	-0,332	-0,174
142,356	34,454	-0,158	-0,096
143,370	21,694	-0,230	-0,131
144,385	-12,462	-0,286	-0,130
145,400	409,653	-0,182	-0,270
146,414	269,472	-0,166	-0,205
147,429	181,504	-0,306	-0,315
148,443	31,324	-0,309	-0,185
149,458	-8,083	-0,314	-0,147
150,473	18,690	-0,324	-0,181
151,487	108,722	-0,191	-0,160
152,502	209,860	-0,269	-0,295
153,516	25,328	-0,241	-0,139
154,531	143,619	-0,262	-0,244
155,546	112,410	-0,278	-0,235
156,560	-20,361	-0,227	-0,097
157,575	-44,572	-0,273	-0,095
158,589	81,671	-0,155	-0,117
159,604	10,513	-0,153	-0,081
160,619	24,288	-0,251	-0,144
161,633	34,284	-0,264	-0,161
162,648	796,376	-0,113	-0,218
163,662	139,195	-0,102	-0,093
164,677	36,565	-0,143	-0,088
165,692	100,406	-0,262	-0,212
166,706	25,882	-0,283	-0,164
167,721	101,219	-0,231	-0,187
168,735	9,601	-0,349	-0,184
169,750	139,312	-0,162	-0,149
170,764	68,564	-0,116	-0,083
171,779	-10,009	-0,236	-0,109
172,794	342,655	-0,159	-0,218
173,808	221,707	-0,205	-0,230
174,823	-42,517	-0,314	-0,111
175,837	68,628	-0,238	-0,170
176,852	557,814	-0,109	-0,184
177,867	800,000	-0,106	-0,242
178,881	-36,366	-0,226	-0,084
179,896	147,854	-0,195	-0,183
180,910	320,865	-0,129	-0,171
181,925	284,824	-0,128	-0,161
182,940	19,223	-0,318	-0,178
183,954	-2,815	-0,328	-0,159
184,969	27,186	-0,194	-0,113
185,983	77,547	-0,187	-0,138
186,998	232,150	-0,238	-0,273
188,013	123,998	-0,124	-0,109
189,027	18,547	-0,382	-0,212
190,042	34,391	-0,329	-0,199
191,056	-29,859	-0,169	-0,067
192,071	800,000	-0,119	-0,230
193,086	754,550	-0,103	-0,194
194,100	99,960	-0,235	-0,190
195,115	6,664	-0,238	-0,123
196,129	-33,377	-0,303	-0,116
197,144	107,321	-0,181	-0,149
198,159	184,471	-0,246	-0,253
199,173	-30,840	-0,152	-0,060
200,188	-52,598	-0,174	-0,056
201,202	96,555	-0,171	-0,136
202,217	357,020	-0,163	-0,227
203,232	37,229	-0,264	-0,162
204,246	155,306	-0,175	-0,167
205,261	353,022	-0,111	-0,154
206,275	70,300	-0,194	-0,139
207,290	30,538	-0,166	-0,098
208,304	-57,069	-0,329	-0,100
209,319	164,338	-0,145	-0,142
210,334	800,000	-0,082	-0,161
211,348	-80,428	-0,311	-0,072
212,363	-181,864	-0,159	-0,002
213,377	78,314	-0,241	-0,178
214,392	800,000	-0,090	-0,197
215,407	85,376	-0,251	-0,191
216,421	134,897	-0,114	0,103
217,436	94,737	-0,088	0,069
218,450	-142,584	-0,208	-0,014
219,465	61,588	-0,149	-0,103
220,480	-200,000	-0,037	-0,211
221,494	204,817	-0,134	-0,144
222,509	-9,343	-0,177	-0,082
223,523	383,087	-0,099	-0,141
224,538	526,504	-0,072	-0,119
225,553	176,048	-0,185	-0,186
226,567	-101,322	-0,217	-0,036
227,582	-121,071	-0,331	-0,038
228,596	119,670	-0,133	-0,114
229,611	-2,221	-0,129	-0,062
230,626	-200,000	-0,033	-0,146
231,640	81,457	-0,183	-0,137
232,655	189,080	-0,275	-0,286
233,669	42,631	-0,355	-0,224
234,684	-48,354	-0,245	-0,081
235,699	-200,000	-0,015	-0,145
236,713	-200,000	-0,002	-0,059
237,728	12,061	-0,175	-0,093
238,742	34,282	-0,192	-0,116
239,757	241,788	-0,182	-0,211
240,772	101,083	-0,215	-0,173
241,786	-26,050	-0,187	-0,076
242,801	-37,607	-0,222	-0,082
243,815	560,913	-0,084	-0,141
244,830	20,522	-0,194	-0,108
245,844	-47,541	-0,212	-0,071
246,859	42,722	-0,189	-0,119
247,874	356,020	-0,164	-0,227
248,888	256,359	-0,230	-0,274
249,903	126,899	-0,129	-0,113
250,917	180,390	-0,136	-0,139
251,932	46,416	-0,156	-0,100
252,947	322,173	-0,167	-0,220
253,961	-46,084	-0,123	-0,042
254,976	190,653	-0,255	-0,266
255,990	240,674	-0,208	-0,240
257,005	267,814	-0,129	-0,156
258,020	3,651	-0,229	-0,115
259,034	800,000	-0,056	-0,112
260,049	-61,788	-0,168	-0,048
261,063	55,573	-0,155	-0,104
262,078	800,000	-0,138	-0,266
263,093	800,000	-0,088	-0,211
264,107	263,760	-0,162	-0,195
265,122	-4,713	-0,113	-0,054
266,136	327,489	-0,146	-0,194
267,151	72,437	-0,156	-0,112
268,166	-75,804	-0,128	-0,031
269,180	510,569	-0,098	-0,158
270,195	274,641	-0,168	-0,206
271,209	-200,000	-0,042	-0,234
272,224	800,000	-0,098	-0,195
273,239	-41,267	-0,148	-0,053
274,253	45,025	-0,059	-0,038
275,268	16,183	-0,290	-0,158
276,282	186,601	-0,191	-0,196
277,297	86,783	-0,178	-0,136
278,312	-4,982	-0,176	-0,083
279,326	121,651	-0,247	-0,213
280,341	140,972	-0,195	-0,178
281,355	800,000	-0,038	-0,106
282,370	-128,383	-0,264	-0,026
283,384	-6,354	-0,218	-0,102
284,399	800,000	-0,124	-0,255
285,414	288,391	-0,142	-0,178
286,428	404,253	-0,133	-0,194
287,443	34,682	-0,074	0,044
288,457	-200,000	-0,002	-0,056
289,472	88,745	-0,129	-0,099
290,487	64,835	-0,125	-0,087
291,501	18,605	-0,253	-0,139
292,516	307,878	-0,152	-0,197
293,530	332,597	-0,139	-0,186
294,545	-42,722	-0,311	-0,108
295,560	0,916	-0,079	-0,039
296,574	-180,625	-0,146	0,002
297,589	16,986	-0,112	-0,061
298,603	135,238	-0,249	-0,223
299,618	656,056	-0,159	-0,282
300,633	191,282	-0,089	-0,092
301,647	344,941	-0,102	-0,139
302,662	129,216	-0,166	-0,146
303,676	-155,285	-0,103	-0,005
304,691	-93,191	-0,135	-0,026
305,706	800,000	-0,135	-0,259
306,720	108,212	-0,127	-0,104
307,735	28,144	-0,155	-0,090
308,749	-79,867	-0,131	-0,030
309,764	-81,632	-0,054	0,012
310,779	1,196	-0,103	-0,051
311,793	-72,459	-0,134	-0,034
312,808	-7,394	-0,175	-0,081
313,822	-31,184	-0,102	-0,039
314,837	-200,000	-0,046	-0,204
315,852	-23,436	-0,028	-0,012
316,866	502,370	-0,045	-0,072
317,881	170,118	-0,105	-0,104
318,895	-200,000	-0,025	-0,198
319,910	62,761	-0,070	-0,048
320,925	23,419	-0,235	-0,133
321,939	-200,000	-0,011	-0,098
322,954	-101,868	-0,107	-0,018
323,968	-1,279	-0,124	0,060
324,983	181,361	-0,054	-0,055
325,997	205,825	-0,191	-0,205
327,012	165,641	-0,157	-0,153
328,027	119,661	-0,226	-0,193
329,041	152,209	-0,146	-0,137
330,056	228,413	-0,065	-0,073
331,070	-40,932	-0,136	0,048
332,085	-200,000	-0,005	-0,049
333,100	-97,034	-0,129	0,023
334,114	-97,679	-0,239	-0,042
335,129	585,586	-0,151	-0,257
336,143	-6,192	-0,152	-0,071
337,158	-150,821	-0,077	0,004
338,173	129,942	-0,090	-0,079
339,187	144,959	-0,151	-0,139
340,202	45,527	-0,110	-0,069
341,216	-106,383	-0,224	0,034
342,231	27,168	-0,121	-0,070
343,246	68,061	-0,138	-0,097
344,260	542,603	-0,042	0,070
345,275	207,040	-0,136	-0,146
346,289	-78,211	-0,175	-0,041
347,304	-57,010	-0,157	-0,047
348,319	800,000	-0,087	-0,189
349,333	622,008	-0,126	-0,219
350,348	-114,109	-0,104	-0,014
351,362	-92,018	-0,284	-0,055
352,377	2,357	-0,104	-0,051
353,392	800,000	-0,099	-0,226
354,406	-200,000	0,023	0,099
355,421	208,412	1316,798	1414,523
356,435	160,361	1477,779	1415,018
