DTS Sentinel unit serial number:	SN410029Multiplexer serial number:	ORYXHardware model number:	OX2-SRSoftware version number:	ORYX F/W v4,00 Oryx Data Collector v3.7.2.0data status	okinstallation	B3 Nyhavnadifferential loss correction	single-endedforward channel	channel 1reverse channel	N/Adate	2023/11/29time	09:22:30forward acquisition time	300,00reverse acquisition time	0,00gamma	499,1914k internal	0,3212k external	0,3212temperature offset calibration	1,0000default loss term (dB/km)	0,3820temperature slope calibration	1,0000multiplexer offset coefficient	1,0000multiplexer slope coefficient	1,0000fibre end	0,00T internal ref (°C)	9,11T ext. ref 1 (°C)	-5,43T ext. ref 2 (°C)	-5,55length (m)	temperature (°C)	Stokes	anti-Stokes-744,400	735,994	-0,126	-0,246
-743,385	-200,000	-0,073	0,309
-742,371	-200,000	0,029	-0,150
-741,356	-200,000	-0,047	0,235
-740,342	174,421	-0,181	-0,190
-739,327	-200,000	0,031	0,337
-738,312	225,668	-0,110	-0,130
-737,298	-200,000	-0,056	0,191
-736,283	-200,000	0,018	-0,311
-735,269	-200,000	0,027	0,252
-734,254	672,233	-0,118	-0,222
-733,239	23,046	-0,183	0,108
-732,225	250,743	-0,121	-0,149
-731,210	34,880	0,130	0,082
-730,196	284,913	-0,061	-0,079
-729,181	83,123	-0,119	-0,094
-728,167	-200,000	0,006	-0,025
-727,152	-200,000	0,054	0,203
-726,137	165,865	-0,081	0,083
-725,123	5,859	-0,101	0,054
-724,108	-200,000	0,044	-0,200
-723,094	-200,000	-0,009	-0,066
-722,079	127,208	-0,132	-0,122
-721,064	800,000	0,028	-0,056
-720,050	-134,359	-0,093	-0,008
-719,035	-102,794	-0,058	0,010
-718,021	-133,545	-0,099	0,009
-717,006	-110,195	-0,071	-0,011
-715,991	782,527	-0,121	-0,241
-714,977	116,749	-0,111	-0,099
-713,962	-60,896	0,057	-0,017
-712,948	447,541	0,125	0,200
-711,933	-147,701	-0,187	-0,011
-710,918	282,810	-0,033	0,043
-709,904	478,532	-0,143	-0,235
-708,889	58,137	-0,127	-0,090
-707,875	158,476	0,101	-0,101
-706,860	-133,093	0,053	0,005
-705,845	800,000	-0,020	-0,041
-704,831	740,173	-0,074	0,144
-703,816	-1,798	-0,007	0,003
-702,802	-80,388	-0,011	-0,003
-701,787	-158,752	-0,034	0,001
-700,772	-200,000	-0,000	-0,012
-699,758	-128,780	0,089	0,009
-698,743	772,309	-0,045	0,088
-697,729	-3,199	0,166	0,083
-696,714	800,000	0,021	-0,053
-695,699	-200,000	-0,005	-0,023
-694,685	-115,726	-0,108	-0,015
-693,670	181,886	-0,012	-0,013
-692,656	19,109	-0,121	-0,070
-691,641	800,000	0,061	0,144
-690,627	-200,000	0,001	-0,085
-689,612	49,311	0,103	0,070
-688,597	594,016	-0,042	0,075
-687,583	662,456	-0,039	0,074
-686,568	-63,814	-0,038	0,011
-685,554	-114,920	0,127	0,017
-684,539	800,000	-0,015	-0,032
-683,524	800,000	0,047	0,134
-682,510	-160,151	0,141	0,005
-681,495	313,251	-0,175	0,238
-680,481	-200,000	0,038	0,179
-679,466	800,000	-0,009	0,029
-678,451	800,000	0,022	0,057
-677,437	800,000	0,022	0,048
-676,422	-200,000	-0,003	-0,084
-675,408	-200,000	0,028	0,099
-674,393	359,344	0,104	0,151
-673,378	800,000	-0,092	-0,196
-672,364	800,000	0,022	-0,056
-671,349	85,618	-0,002	0,002
-670,335	800,000	-0,052	-0,140
-669,320	401,427	-0,055	-0,084
-668,305	-22,567	-0,089	0,039
-667,291	312,849	0,033	0,045
-666,276	621,904	0,016	0,029
-665,262	169,683	0,042	-0,043
-664,247	-48,302	-0,089	-0,031
-663,232	-122,408	-0,075	-0,009
-662,218	269,264	-0,059	0,074
-661,203	182,635	0,076	-0,081
-660,189	39,144	-0,089	0,057
-659,174	-200,000	-0,035	-0,118
-658,159	800,000	-0,050	-0,124
-657,145	-200,000	-0,027	-0,262
-656,130	390,637	-0,028	-0,043
-655,116	614,846	0,043	0,079
-654,101	-67,577	-0,145	0,041
-653,086	123,883	0,088	0,080
-652,072	281,770	-0,142	-0,185
-651,057	-200,000	-0,039	-0,178
-650,043	-150,237	0,072	0,004
-649,028	-9,406	-0,028	-0,013
-648,014	481,018	0,071	-0,117
-646,999	56,019	0,012	-0,008
-645,984	66,777	0,133	0,098
-644,970	-200,000	-0,040	0,149
-643,955	-15,701	0,117	-0,054
-642,941	-32,513	0,076	-0,031
-641,926	-200,000	-0,004	-0,012
-640,911	800,000	0,057	0,120
-639,897	-196,633	-0,037	-0,000
-638,882	-185,344	-0,077	0,001
-637,868	800,000	-0,094	-0,224
-636,853	-200,000	0,027	-0,085
-635,838	155,796	0,042	-0,041
-634,824	39,593	-0,062	0,040
-633,809	-200,000	-0,020	0,069
-632,795	800,000	-0,032	0,100
-631,780	324,745	0,085	-0,118
-630,765	768,286	-0,049	0,097
-629,751	-24,056	0,072	-0,031
-628,736	128,904	-0,126	0,116
-627,722	18,114	-0,098	0,056
-626,707	-200,000	-0,007	-0,042
-625,692	-158,562	0,086	-0,004
-624,678	800,000	-0,041	-0,088
-623,663	156,980	-0,056	0,056
-622,649	596,085	-0,050	0,090
-621,634	800,000	-0,055	0,132
-620,619	596,020	-0,043	0,076
-619,605	-43,780	0,105	-0,038
-618,590	-200,000	0,000	0,107
-617,576	56,938	0,095	-0,067
-616,561	-53,672	-0,159	-0,052
-615,546	-200,000	0,017	-0,136
-614,532	93,953	-0,139	-0,113
-613,517	800,000	-0,111	-0,236
-612,503	52,893	-0,028	0,019
-611,488	75,357	-0,024	0,019
-610,474	800,000	0,053	-0,135
-609,459	453,586	-0,057	-0,092
-608,444	-45,705	-0,057	0,020
-607,430	-200,000	-0,056	-0,217
-606,415	-200,000	0,021	-0,122
-605,401	91,040	0,051	-0,041
-604,386	-200,000	-0,002	0,102
-603,371	53,079	-0,108	-0,074
-602,357	-200,000	-0,022	-0,095
-601,342	115,202	0,050	-0,044
-600,328	800,000	-0,068	-0,142
-599,313	-155,315	0,053	0,002
-598,298	-200,000	-0,038	0,127
-597,284	239,859	-0,044	0,053
-596,269	29,814	0,065	0,040
-595,255	36,554	0,128	0,081
-594,240	-118,723	-0,168	0,021
-593,225	270,770	-0,096	-0,122
-592,211	-173,498	-0,164	-0,003
-591,196	43,644	0,054	-0,036
-590,182	336,388	0,031	-0,044
-589,167	800,000	0,062	0,139
-588,152	39,832	0,021	0,014
-587,138	-163,373	-0,040	0,001
-586,123	-200,000	-0,007	0,025
-585,109	-200,000	-0,011	-0,173
-584,094	-46,135	-0,050	0,017
-583,079	-200,000	-0,008	0,136
-582,065	406,383	0,013	0,020
-581,050	-68,538	0,143	-0,040
-580,036	-110,956	-0,127	0,019
-579,021	-49,905	-0,109	0,037
-578,006	-200,000	0,011	-0,044
-576,992	-200,000	-0,027	-0,141
-575,977	800,000	0,040	0,125
-574,963	67,944	-0,075	0,055
-573,948	-84,965	0,153	-0,034
-572,934	800,000	-0,065	0,190
-571,919	83,931	0,046	-0,036
-570,904	-8,873	-0,104	-0,050
-569,890	-130,344	-0,132	0,013
-568,875	-38,614	0,069	0,026
-567,861	-200,000	0,011	0,037
-566,846	-200,000	0,014	0,104
-565,831	800,000	-0,024	-0,060
-564,817	-200,000	-0,039	-0,183
-563,802	318,247	0,042	-0,057
-562,788	157,988	-0,066	0,066
-561,773	761,638	0,060	-0,118
-560,758	302,351	-0,035	0,047
-559,744	244,522	0,071	-0,086
-558,729	800,000	-0,063	0,186
-557,715	59,770	0,062	-0,044
-556,700	619,381	-0,065	-0,119
-555,685	63,668	0,035	-0,026
-554,671	-29,083	-0,128	-0,053
-553,656	34,175	0,143	0,090
-552,642	-200,000	0,004	-0,029
-551,627	217,894	0,082	-0,095
-550,612	317,129	-0,117	-0,159
-549,598	279,115	-0,057	-0,073
-548,583	-83,695	-0,118	0,027
-547,569	800,000	-0,022	0,063
-546,554	800,000	0,088	0,210
-545,539	-200,000	-0,004	0,097
-544,525	800,000	-0,032	-0,067
-543,510	-200,000	0,015	-0,095
-542,496	800,000	-0,033	-0,068
-541,481	-80,720	-0,123	0,029
-540,466	-200,000	-0,003	-0,034
-539,452	701,845	-0,074	0,140
-538,437	-200,000	0,038	0,144
-537,423	246,009	-0,025	-0,030
-536,408	3,624	-0,077	0,040
-535,393	204,857	0,057	0,063
-534,379	289,470	-0,037	-0,048
-533,364	300,324	-0,050	0,067
-532,350	285,532	0,060	0,078
-531,335	463,058	0,063	0,101
-530,321	-73,233	-0,094	0,024
-529,306	800,000	0,014	0,032
-528,291	-133,928	-0,074	0,007
-527,277	74,402	-0,121	-0,091
-526,262	196,357	-0,064	0,070
-525,248	-200,000	-0,006	-0,117
-524,233	-49,429	0,126	0,043
-523,218	232,115	-0,050	0,059
-522,204	-200,000	-0,006	0,038
-521,189	-200,000	0,023	-0,092
-520,175	8,663	-0,102	-0,055
-519,160	-200,000	-0,007	-0,107
-518,145	800,000	0,054	0,123
-517,131	-81,198	0,208	0,049
-516,116	183,747	-0,054	0,058
-515,102	-200,000	-0,033	0,164
-514,087	405,665	0,099	-0,151
-513,072	7,668	-0,048	-0,026
-512,058	800,000	-0,041	0,115
-511,043	-200,000	0,008	0,115
-510,029	15,044	0,074	0,041
-509,014	-200,000	-0,004	0,045
-507,999	800,000	-0,043	-0,115
-506,985	108,790	0,185	-0,159
-505,970	269,395	0,043	-0,054
-504,956	145,758	-0,055	0,053
-503,941	109,881	0,025	-0,021
-502,926	-83,870	-0,102	-0,023
-501,912	-63,560	0,175	0,051
-500,897	-200,000	0,032	0,133
-499,883	17,799	-0,008	-0,004
-498,868	-200,000	0,029	-0,194
-497,853	17,627	0,024	0,014
-496,839	427,567	-0,049	-0,077
-495,824	-164,618	-0,140	0,004
-494,810	-77,349	0,148	0,037
-493,795	307,406	-0,004	-0,005
-492,781	-38,749	-0,018	-0,007
-491,766	248,920	-0,011	-0,013
-490,751	-200,000	0,002	0,008
-489,737	249,319	-0,050	-0,061
-488,722	-20,925	-0,046	0,020
-487,708	-158,669	-0,132	0,005
-486,693	800,000	-0,103	0,232
-485,678	-200,000	-0,007	-0,023
-484,664	712,329	-0,091	-0,174
-483,649	-200,000	0,002	-0,039
-482,635	-200,000	0,014	-0,068
-481,620	-132,935	0,118	0,011
-480,605	800,000	0,043	0,128
-479,591	-200,000	0,001	0,035
-478,576	-162,512	0,023	-0,001
-477,562	-5,963	-0,142	-0,070
-476,547	-88,683	-0,059	-0,013
-475,532	800,000	0,043	-0,097
-474,518	14,048	0,056	0,031
-473,503	430,105	0,023	-0,037
-472,489	-28,235	-0,076	0,031
-471,474	84,298	-0,027	0,022
-470,459	-76,053	-0,151	-0,038
-469,445	361,598	0,032	0,046
-468,430	800,000	0,023	-0,054
-467,416	800,000	0,050	-0,112
-466,401	-200,000	0,016	0,064
-465,386	-136,502	-0,162	0,013
-464,372	-200,000	-0,016	0,124
-463,357	142,288	0,054	0,051
-462,343	800,000	-0,051	-0,133
-461,328	800,000	-0,030	0,079
-460,313	23,587	-0,037	-0,022
-459,299	-200,000	0,012	-0,083
-458,284	531,925	0,049	0,083
-457,270	-11,579	0,012	0,006
-456,255	-200,000	-0,012	0,058
-455,241	-100,009	-0,055	0,010
-454,226	800,000	-0,031	0,062
-453,211	340,320	0,035	0,049
-452,197	56,442	0,031	-0,022
-451,182	442,230	0,012	0,019
-450,168	25,093	0,136	0,080
-449,153	-120,909	-0,091	0,011
-448,138	800,000	-0,074	-0,222
-447,124	563,259	-0,038	-0,066
-446,109	81,836	-0,055	0,043
-445,095	-200,000	0,073	0,235
-444,080	1,017	0,180	-0,092
-443,065	-146,716	0,056	0,003
-442,051	391,021	0,017	-0,026
-441,036	-200,000	0,000	-0,077
-440,022	-200,000	-0,004	-0,037
-439,007	329,765	0,049	0,067
-437,992	-32,507	-0,073	0,029
-436,978	-89,192	0,041	0,009
-435,963	-200,000	-0,047	0,186
-434,949	800,000	-0,034	-0,106
-433,934	233,621	0,027	-0,032
-432,919	-133,329	0,019	-0,002
-431,905	67,740	-0,012	0,009
-430,890	504,106	0,023	0,038
-429,876	545,165	0,062	0,106
-428,861	-154,788	0,141	-0,007
-427,846	-200,000	0,007	-0,051
-426,832	-165,943	0,034	0,001
-425,817	800,000	-0,033	-0,071
-424,803	124,123	0,098	0,088
-423,788	226,164	0,043	0,050
-422,773	-128,271	0,147	0,015
-421,759	119,760	0,013	-0,011
-420,744	41,531	0,087	-0,056
-419,730	751,398	-0,075	-0,145
-418,715	278,696	-0,107	-0,137
-417,701	800,000	0,045	-0,107
-416,686	-200,000	-0,011	-0,053
-415,671	238,480	0,130	0,155
-414,657	-1,320	0,097	0,049
-413,642	23,270	-0,027	0,016
-412,628	50,285	-0,092	-0,062
-411,613	203,897	-0,091	0,101
-410,598	3,987	0,103	-0,054
-409,584	-67,447	0,049	0,014
-408,569	42,761	0,095	-0,062
-407,555	20,942	-0,085	-0,049
-406,540	221,364	-0,007	0,008
-405,525	480,678	0,115	0,187
-404,511	-21,424	-0,091	-0,040
-403,496	800,000	0,006	0,013
-402,482	-28,180	0,108	-0,044
-401,467	69,627	0,116	0,085
-400,452	-106,481	-0,073	0,011
-399,438	-46,801	0,054	0,019
-398,423	-200,000	0,011	0,094
-397,409	-129,082	0,066	0,007
-396,394	26,065	-0,070	0,042
-395,379	20,641	0,062	-0,036
-394,365	426,491	-0,027	0,042
-393,350	-200,000	-0,007	0,046
-392,336	-200,000	-0,004	0,051
-391,321	-128,363	-0,074	-0,007
-390,306	-124,911	0,062	-0,007
-389,292	-200,000	0,026	0,096
-388,277	800,000	-0,020	0,061
-387,263	-123,557	0,147	-0,016
-386,248	60,490	-0,092	0,065
-385,233	-200,000	-0,036	0,153
-384,219	98,091	-0,087	0,072
-383,204	-62,362	-0,039	-0,011
-382,190	-200,000	0,062	-0,201
-381,175	353,916	-0,085	-0,121
-380,160	373,204	0,117	0,171
-379,146	800,000	-0,054	0,133
-378,131	-167,132	-0,051	0,001
-377,117	1,673	0,076	-0,039
-376,102	143,414	-0,027	-0,025
-375,088	178,967	-0,127	-0,133
-374,073	22,455	0,115	-0,067
-373,058	-98,384	0,027	0,005
-372,044	704,775	0,022	-0,041
-371,029	85,061	0,088	0,069
-370,015	182,529	-0,125	0,132
-369,000	-117,077	0,154	0,020
-367,985	-200,000	-0,052	0,184
-366,971	359,544	-0,078	0,111
-365,956	-84,375	-0,057	-0,013
-364,942	-10,663	0,127	0,060
-363,927	-40,246	-0,090	-0,033
-362,912	-200,000	-0,033	0,112
-361,898	-118,064	0,105	0,013
-360,883	-200,000	-0,031	-0,151
-359,869	-200,000	0,006	-0,070
-358,854	-200,000	-0,009	-0,061
-357,839	-115,357	0,098	0,013
-356,825	800,000	-0,052	-0,128
-355,810	360,533	0,086	0,123
-354,796	-91,525	-0,148	0,030
-353,781	157,027	0,068	-0,067
-352,766	-200,000	0,018	-0,097
-351,752	-96,262	-0,041	0,008
-350,737	-200,000	-0,009	0,098
-349,723	-11,352	0,156	-0,073
-348,708	-200,000	-0,006	0,037
-347,693	800,000	-0,051	0,115
-346,679	-159,354	-0,074	0,003
-345,664	-200,000	0,040	0,145
-344,650	-200,000	-0,010	-0,049
-343,635	800,000	-0,026	-0,076
-342,620	800,000	0,035	-0,103
-341,606	-200,000	0,013	0,066
-340,591	-200,000	-0,004	0,016
-339,577	41,889	0,081	0,052
-338,562	-55,175	-0,058	0,019
-337,548	111,895	-0,030	-0,026
-336,533	-168,274	0,091	0,002
-335,518	144,478	0,081	0,077
-334,504	-126,532	0,090	0,009
-333,489	313,961	-0,079	-0,106
-332,475	-97,839	-0,157	-0,029
-331,460	7,269	-0,055	-0,029
-330,445	97,096	0,124	-0,102
-329,431	-170,425	-0,087	-0,002
-328,416	-2,699	0,036	0,018
-327,402	-200,000	-0,020	-0,068
-326,387	-200,000	0,010	-0,085
-325,372	490,773	-0,061	0,100
-324,358	-72,777	-0,085	0,022
-323,343	-200,000	0,128	-0,000
-322,329	-111,109	0,048	-0,007
-321,314	-200,000	-0,012	0,161
-320,299	721,389	-0,036	0,068
-319,285	404,210	0,024	-0,037
-318,270	445,431	-0,078	-0,123
-317,256	316,107	0,118	-0,159
-316,241	460,151	-0,088	-0,140
-315,226	291,339	0,106	0,138
-314,212	-2,947	0,093	-0,046
-313,197	800,000	-0,006	0,020
-312,183	-200,000	0,000	0,030
-311,168	370,727	-0,084	-0,122
-310,153	-200,000	0,009	-0,233
-309,139	-200,000	-0,023	-0,071
-308,124	83,510	0,080	-0,062
-307,110	361,186	0,026	0,037
-306,095	185,617	0,099	0,104
-305,080	-200,000	0,003	0,069
-304,066	204,581	0,012	-0,013
-303,051	37,456	-0,075	0,048
-302,037	96,271	0,034	0,027
-301,022	120,459	0,056	0,050
-300,008	-200,000	0,011	-0,039
-298,993	-85,508	-0,033	-0,007
-297,978	40,702	0,084	-0,054
-296,964	800,000	-0,054	0,124
-295,949	-200,000	0,006	0,024
-294,935	-178,736	-0,050	0,001
-293,920	8,539	0,065	-0,034
-292,905	99,240	0,038	0,031
-291,891	800,000	-0,008	0,020
-290,876	19,499	-0,082	0,047
-289,862	-180,345	0,106	-0,002
-288,847	50,924	0,051	-0,034
-287,832	679,382	-0,016	-0,029
-286,818	249,190	0,062	0,075
-285,803	-200,000	0,030	-0,118
-284,789	800,000	-0,056	0,143
-283,774	-200,000	0,011	0,085
-282,759	28,435	-0,131	0,079
-281,745	-141,154	0,098	-0,007
-280,730	-6,107	-0,075	-0,036
-279,716	800,000	-0,014	-0,034
-278,701	-154,934	-0,081	0,004
-277,686	309,025	0,035	0,047
-276,672	745,024	0,061	0,117
-275,657	4,416	0,019	0,010
-274,643	-200,000	0,010	-0,149
-273,628	-200,000	-0,045	-0,285
-272,613	42,068	0,081	-0,052
-271,599	226,526	0,086	0,099
-270,584	12,914	-0,105	0,057
-269,570	-200,000	0,009	0,155
-268,555	-200,000	-0,049	0,207
-267,540	761,852	-0,090	-0,175
-266,526	800,000	0,045	-0,104
-265,511	800,000	-0,013	0,040
-264,497	297,279	-0,022	-0,029
-263,482	-200,000	0,005	0,066
-262,467	-200,000	0,013	0,056
-261,453	-117,952	-0,067	0,008
-260,438	-200,000	0,030	-0,128
-259,424	-50,754	-0,167	-0,056
-258,409	-151,604	0,058	-0,003
-257,395	-41,186	0,089	-0,033
-256,380	-200,000	-0,023	0,110
-255,365	684,933	-0,033	0,062
-254,351	98,595	0,079	0,065
-253,336	26,904	-0,085	0,051
-252,322	104,347	-0,057	-0,048
-251,307	246,481	0,017	-0,020
-250,292	-200,000	-0,009	-0,096
-249,278	51,842	0,101	-0,068
-248,263	370,333	-0,033	0,048
-247,249	-200,000	-0,029	0,112
-246,234	-59,269	0,095	0,029
-245,219	-200,000	0,023	0,079
-244,205	-129,470	-0,098	-0,010
-243,190	800,000	0,021	-0,050
-242,176	800,000	-0,010	0,032
-241,161	10,860	0,011	-0,006
-240,146	-113,837	0,177	0,024
-239,132	158,919	-0,148	-0,146
-238,117	-200,000	0,005	-0,021
-237,103	-102,185	0,050	0,009
-236,088	326,584	-0,052	-0,070
-235,073	43,502	0,085	-0,055
-234,059	80,441	0,021	0,016
-233,044	-44,931	-0,115	0,041
-232,030	800,000	0,078	-0,171
-231,015	-28,299	-0,061	0,025
-230,000	-1,101	-0,112	0,056
-228,986	60,978	-0,086	0,061
-227,971	211,303	0,104	-0,116
-226,957	178,864	0,103	0,107
-225,942	-200,000	0,001	0,111
-224,927	12,710	0,121	0,066
-223,913	-200,000	0,012	-0,059
-222,898	800,000	-0,061	-0,169
-221,884	-150,621	0,109	-0,006
-220,869	25,928	0,038	0,023
-219,855	-75,635	-0,073	0,018
-218,840	-200,000	0,001	-0,055
-217,825	-73,203	0,060	0,015
-216,811	-200,000	-0,018	0,080
-215,796	59,889	0,050	-0,035
-214,782	800,000	-0,071	-0,208
-213,767	-200,000	-0,002	0,051
-212,752	-65,952	0,163	0,046
-211,738	709,021	0,006	-0,011
-210,723	-200,000	0,006	0,156
-209,709	800,000	-0,029	-0,087
-208,694	-200,000	-0,015	-0,174
-207,679	-200,000	-0,010	-0,150
-206,665	441,755	-0,049	0,076
-205,650	-200,000	-0,001	0,117
-204,636	15,880	-0,043	-0,024
-203,621	30,084	0,041	0,025
-202,606	-200,000	-0,024	-0,232
-201,592	-5,240	-0,172	-0,083
-200,577	447,422	-0,067	-0,105
-199,563	461,898	-0,063	-0,100
-198,548	-108,738	0,144	-0,022
-197,533	253,123	-0,008	0,010
-196,519	800,000	-0,005	-0,014
-195,504	41,451	0,065	-0,042
-194,490	279,086	0,031	-0,039
-193,475	-4,558	-0,035	0,017
-192,460	-78,285	0,157	0,038
-191,446	78,694	0,065	-0,050
-190,431	-148,977	0,156	-0,009
-189,417	-200,000	-0,031	0,105
-188,402	-103,193	0,079	-0,013
-187,387	736,150	0,019	-0,037
-186,373	-200,000	-0,022	-0,153
-185,358	35,217	0,136	0,084
-184,344	-200,000	-0,013	0,080
-183,329	-7,074	0,113	0,054
-182,315	451,151	0,033	0,051
-181,300	-83,474	0,054	-0,012
-180,285	414,718	0,055	0,084
-179,271	110,760	-0,066	-0,056
-178,256	-105,033	-0,060	0,010
-177,242	10,320	-0,112	-0,060
-176,227	800,000	-0,004	0,010
-175,212	-200,000	-0,021	0,113
-174,198	-42,053	-0,126	-0,045
-173,183	-173,325	-0,161	0,003
-172,169	-200,000	-0,035	0,127
-171,154	-117,997	-0,057	-0,007
-170,139	60,349	0,112	-0,079
-169,125	-200,000	0,024	0,125
-168,110	275,351	0,091	0,115
-167,096	-200,000	0,047	0,168
-166,081	-103,051	-0,091	0,015
-165,066	439,802	-0,042	-0,066
-164,052	-142,522	-0,071	-0,005
-163,037	-200,000	0,027	-0,098
-162,023	-46,487	0,063	0,022
-161,008	27,625	0,023	0,014
-159,993	-134,930	-0,090	0,008
-158,979	-59,182	0,075	0,023
-157,964	-200,000	-0,006	0,085
-156,950	793,047	-0,029	-0,057
-155,935	-200,000	0,014	0,088
-154,920	-127,678	-0,081	0,008
-153,906	-200,000	0,007	0,038
-152,891	800,000	0,044	-0,094
-151,877	-200,000	-0,004	-0,060
-150,862	-140,239	-0,047	-0,003
-149,847	800,000	-0,083	-0,162
-148,833	305,634	0,087	-0,115
-147,818	120,965	0,099	-0,087
-146,804	80,696	-0,133	0,101
-145,789	-155,420	0,116	-0,005
-144,775	213,161	-0,043	-0,049
-143,760	-200,000	0,022	-0,082
-142,745	-200,000	0,008	0,116
-141,731	-107,860	0,109	-0,017
-140,716	800,000	0,042	0,084
-139,702	-34,538	0,221	0,085
-138,687	-25,736	-0,062	0,026
-137,672	78,394	0,029	0,022
-136,658	-200,000	0,027	0,089
-135,643	36,032	0,075	-0,046
-134,629	88,381	-0,091	0,071
-133,614	-200,000	0,007	-0,031
-132,599	338,675	0,109	0,150
-131,585	195,851	0,048	0,051
-130,570	-68,633	-0,137	0,037
-129,556	760,714	-0,024	0,047
-128,541	-170,142	-0,120	0,003
-127,526	-95,895	0,069	-0,013
-126,512	212,987	-0,065	-0,072
-125,497	66,199	0,071	0,051
-124,483	-200,000	-0,014	0,083
-123,468	58,657	-0,091	-0,063
-122,453	-200,000	-0,021	0,189
-121,439	800,000	-0,047	-0,113
-120,424	-200,000	0,003	0,015
-119,410	-200,000	0,008	0,090
-118,395	-56,956	0,052	0,016
-117,380	53,536	0,030	-0,020
-116,366	-10,671	-0,105	0,049
-115,351	73,035	0,051	0,038
-114,337	-73,040	-0,131	0,034
-113,322	-111,382	0,081	0,012
-112,307	173,292	0,038	-0,038
-111,293	246,743	0,055	0,066
-110,278	-200,000	0,012	0,071
-109,264	17,639	0,176	0,099
-108,249	-33,893	-0,160	0,062
-107,234	-200,000	0,006	-0,049
-106,220	40,588	-0,107	-0,068
-105,205	-200,000	0,000	0,057
-104,191	37,740	0,096	0,060
-103,176	768,416	-0,029	0,057
-102,162	188,344	-0,046	0,049
-101,147	-200,000	-0,014	-0,048
-100,132	455,233	-0,120	0,188
-99,118	-105,576	-0,157	-0,025
-98,103	-33,507	0,131	0,051
-97,089	187,977	-0,040	0,043
-96,074	800,000	0,026	0,063
-95,059	-17,690	0,084	0,037
-94,045	383,693	-0,059	0,086
-93,030	349,392	0,058	-0,081
-92,016	-183,549	0,085	0,001
-91,001	56,401	0,033	0,023
-89,986	-200,000	-0,013	-0,080
-88,972	22,347	0,165	0,095
-87,957	-59,045	0,039	-0,012
-86,943	163,870	0,037	0,037
-85,928	-13,056	-0,075	0,034
-84,913	-200,000	0,017	-0,069
-83,899	-200,000	0,005	-0,042
-82,884	800,000	0,057	0,158
-81,870	295,176	0,027	0,035
-80,855	112,021	0,054	0,046
-79,840	-22,275	-0,099	0,042
-78,826	-200,000	0,003	-0,044
-77,811	131,425	-0,016	-0,015
-76,797	-88,880	0,196	0,041
-75,782	-200,000	0,011	0,083
-74,767	-82,800	0,182	0,041
-73,753	800,000	-0,077	0,175
-72,738	-200,000	0,015	0,107
-71,724	58,320	-0,029	-0,020
-70,709	-82,339	-0,153	0,035
-69,694	800,000	0,019	-0,054
-68,680	-52,722	0,096	-0,031
-67,665	63,638	0,097	0,069
-66,651	800,000	0,017	-0,035
-65,636	122,586	0,026	-0,023
-64,622	596,359	-0,021	-0,037
-63,607	227,584	0,048	-0,055
-62,592	-200,000	0,019	-0,061
-61,578	-102,612	0,022	-0,004
-60,563	235,032	0,052	0,061
-59,549	-86,300	0,029	-0,006
-58,534	56,570	-1,996	-1,368
-57,519	675,654	-1,051	-1,935
-56,505	-200,000	-0,365	-4,330
-55,490	800,000	0,853	1,690
-54,476	800,000	5,157	11,445
-53,461	-200,000	21,735	338,429
-52,446	800,000	760,591	2308,237
-51,432	537,277	1655,757	2785,151
-50,417	69,890	1652,761	1201,070
-49,403	16,821	1526,922	850,152
-48,388	10,957	1451,238	779,772
-47,373	19,066	1443,051	814,086
-46,359	14,351	1432,119	785,568
-45,344	9,255	1428,099	759,169
-44,330	9,170	1426,233	757,741
-43,315	9,163	1424,509	756,765
-42,300	9,146	1422,616	755,647
-41,286	9,221	1421,203	755,220
-40,271	9,141	1420,201	754,281
-39,257	9,187	1418,859	753,757
-38,242	9,180	1418,098	753,286
-37,227	9,174	1416,908	752,598
-36,213	9,170	1415,644	751,876
-35,198	9,162	1414,243	751,066
-34,184	9,242	1413,161	750,835
-33,169	9,125	1411,860	749,568
-32,154	9,187	1411,012	749,379
-31,140	9,164	1409,677	748,532
-30,125	9,252	1408,300	748,181
-29,111	9,220	1407,341	747,493
-28,096	9,182	1406,184	746,673
-27,082	9,172	1404,923	745,926
-26,067	9,112	1404,018	745,135
-25,052	9,180	1402,967	744,865
-24,038	9,196	1401,924	744,356
-23,023	9,087	1401,303	743,488
-22,009	9,169	1399,840	743,065
-20,994	9,145	1399,113	742,540
-19,979	9,137	1397,932	741,845
-18,965	9,100	1397,277	741,295
-17,950	9,084	1396,164	740,603
-16,936	9,061	1395,241	739,977
-15,921	9,020	1394,365	739,291
-14,906	9,048	1393,500	738,931
-13,892	9,106	1392,305	738,541
-12,877	9,049	1391,698	737,924
-11,863	9,043	1390,836	737,412
-10,848	9,065	1389,939	737,008
-9,833	8,968	1388,979	736,021
-8,819	8,976	1388,141	735,585
-7,804	8,956	1387,178	734,955
-6,790	8,990	1386,081	734,501
-5,775	8,953	1385,078	733,770
-4,760	8,957	1384,122	733,251
-3,746	8,987	1383,138	732,838
-2,731	9,013	1382,261	732,462
-1,717	8,934	1381,661	731,756
-0,702	8,985	1379,604	730,870
0,313	12,908	1291,630	702,129
1,327	28,906	683,737	407,634
2,342	44,670	118,037	76,377
3,356	0,776	16,373	8,236
4,371	14,969	3,554	1,956
5,386	-11,447	1,125	0,520
6,400	800,000	0,197	0,590
7,415	34,001	-0,103	0,063
8,429	-98,282	-0,325	-0,058
9,444	255,100	-0,248	-0,300
10,459	292,679	-0,147	-0,189
11,473	205,036	-0,198	-0,216
12,488	-164,725	-0,301	0,009
13,502	70,609	-0,266	-0,194
14,517	93,068	-0,284	-0,226
15,531	112,738	-0,340	-0,290
16,546	24,190	-0,277	-0,160
17,561	10,586	-0,402	-0,215
18,575	-62,623	-0,104	-0,030
19,590	443,828	-0,166	-0,258
20,604	-138,685	-0,250	0,019
21,619	-35,025	-0,576	-0,220
22,634	18,707	-0,546	-0,307
23,648	33,684	-0,425	-0,259
24,663	228,528	-0,242	-0,278
25,677	21,369	-0,337	-0,192
26,692	634,519	-0,167	-0,299
27,707	181,823	-0,235	-0,244
28,721	17,685	-0,343	-0,192
29,736	60,780	-0,390	-0,272
30,750	55,346	-0,408	-0,277
31,765	96,586	-0,367	-0,295
32,780	42,678	-0,332	-0,212
33,794	30,022	-0,385	-0,230
34,809	50,124	-0,358	-0,237
35,823	83,443	-0,332	-0,254
36,838	132,606	-0,289	-0,262
37,853	137,035	-0,381	-0,350
38,867	38,375	-0,370	-0,231
39,882	81,024	-0,389	-0,295
40,896	144,666	-0,327	-0,307
41,911	-38,828	-0,345	-0,127
42,926	199,428	-0,335	-0,361
43,940	54,553	-0,338	-0,228
44,955	14,445	-0,336	-0,184
45,969	80,976	-0,258	-0,195
46,984	157,329	-0,333	-0,324
47,999	78,461	-0,300	-0,225
49,013	55,486	-0,292	-0,198
50,028	8,755	-0,296	-0,156
51,042	114,341	-0,295	-0,252
52,057	39,443	-0,412	-0,258
53,071	-14,643	-0,345	-0,155
54,086	347,470	-0,216	-0,300
55,101	18,788	-0,265	-0,149
56,115	56,467	-0,294	-0,201
57,130	5,290	-0,311	-0,161
58,144	18,988	-0,356	-0,200
59,159	340,872	-0,280	-0,384
60,174	76,729	-0,378	-0,281
61,188	426,169	-0,207	-0,313
62,203	7,915	-0,309	-0,162
63,217	88,701	-0,331	-0,258
64,232	107,380	-0,260	-0,217
65,247	368,898	-0,224	-0,319
66,261	30,950	-0,358	-0,215
67,276	426,397	-0,222	-0,336
68,290	-54,542	-0,466	-0,147
69,305	114,921	-0,327	-0,279
70,320	-88,839	-0,333	-0,069
71,334	-43,913	-0,265	-0,093
72,349	105,038	-0,336	-0,278
73,363	320,616	-0,290	-0,387
74,378	77,185	-0,400	-0,298
75,393	153,280	-0,338	-0,324
76,407	86,911	-0,288	-0,223
77,422	122,328	-0,256	-0,224
78,436	-9,665	-0,311	-0,145
79,451	78,632	-0,282	-0,211
80,466	94,925	-0,336	-0,267
81,480	74,707	-0,336	-0,247
82,495	83,910	-0,358	-0,274
83,509	540,628	-0,240	-0,402
84,524	80,663	-0,190	-0,143
85,539	186,940	-0,304	-0,317
86,553	275,670	-0,139	-0,173
87,568	394,102	-0,198	-0,289
88,582	29,289	-0,152	-0,090
89,597	-15,331	-0,489	-0,218
90,611	76,996	-0,286	-0,212
91,626	621,411	-0,196	-0,346
92,641	-46,842	-0,215	-0,073
93,655	148,955	-0,236	-0,223
94,670	626,117	-0,140	-0,248
95,684	-42,773	-0,278	-0,098
96,699	-7,020	-0,282	-0,133
97,714	316,906	-0,138	-0,183
98,728	-15,323	-0,287	-0,128
99,743	121,604	-0,369	-0,321
100,757	-48,046	-0,212	-0,071
101,772	-32,634	-0,284	-0,110
102,787	-13,712	-0,382	-0,172
103,801	51,329	-0,199	-0,132
104,816	-7,537	-0,233	-0,110
105,830	45,207	-0,194	-0,125
106,845	50,244	-0,118	-0,078
107,860	49,371	-0,256	-0,168
108,874	-61,154	-0,292	-0,085
109,889	-6,769	-0,347	-0,164
110,903	139,670	-0,238	-0,219
111,918	57,378	-0,161	-0,110
112,933	112,841	-0,250	-0,212
113,947	105,697	-0,220	-0,182
114,962	241,253	-0,171	-0,200
115,976	90,836	-0,341	-0,266
116,991	38,498	-0,354	-0,220
118,006	139,571	-0,215	-0,197
119,020	285,504	-0,242	-0,305
120,035	308,940	-0,185	-0,242
121,049	54,363	-0,171	-0,115
122,064	-28,335	-0,345	-0,138
123,079	-120,420	-0,280	-0,033
124,093	315,840	-0,198	-0,261
125,108	-3,669	-0,295	-0,142
126,122	25,006	-0,126	-0,072
127,137	-30,387	-0,186	-0,073
128,151	-106,852	-0,226	-0,035
129,166	71,803	-0,232	-0,168
130,181	800,000	-0,112	-0,276
131,195	101,137	-0,277	-0,225
132,210	45,542	-0,364	-0,234
133,224	-49,097	-0,280	-0,093
134,239	-143,780	-0,264	0,017
135,254	-89,747	-0,183	-0,037
136,268	139,947	-0,159	-0,146
137,283	7,687	-0,188	-0,098
138,297	800,000	-0,089	-0,198
139,312	30,263	-0,297	-0,176
140,327	511,855	-0,248	-0,404
141,341	137,439	-0,189	-0,173
142,356	7,674	-0,270	-0,140
143,370	-119,651	-0,353	-0,042
144,385	391,922	-0,236	-0,342
145,400	-28,632	-0,310	-0,124
146,414	800,000	-0,161	-0,355
147,429	102,336	-0,183	-0,149
148,443	44,556	-0,269	-0,172
149,458	471,243	-0,142	-0,224
150,473	-1,440	-0,309	-0,151
151,487	-168,834	-0,099	-0,003
152,502	125,228	-0,275	-0,241
153,516	132,334	-0,187	-0,167
154,531	134,124	-0,253	-0,228
155,546	59,777	-0,249	-0,171
156,560	208,491	-0,182	-0,198
157,575	-15,152	-0,193	-0,086
158,589	90,377	-0,190	-0,148
159,604	109,645	-0,250	-0,208
160,619	98,813	-0,246	-0,197
161,633	7,441	-0,294	-0,153
162,648	24,864	-0,327	-0,188
163,662	219,441	-0,127	-0,142
164,677	137,856	-0,237	-0,216
165,692	-9,528	-0,215	-0,099
166,706	-13,997	-0,192	-0,086
167,721	595,939	-0,160	-0,276
168,735	229,514	-0,232	-0,264
169,750	152,213	-0,165	-0,157
170,764	-87,324	-0,280	-0,058
171,779	213,696	-0,239	-0,262
172,794	206,325	-0,235	-0,254
173,808	32,573	-0,200	-0,120
174,823	447,299	-0,107	-0,164
175,837	-2,191	-0,258	-0,125
176,852	800,000	-0,091	-0,274
177,867	213,268	-0,233	-0,256
178,881	-134,806	-0,232	-0,019
179,896	6,170	-0,290	-0,149
180,910	350,213	-0,148	-0,204
181,925	-114,122	-0,154	-0,020
182,940	152,670	-0,204	-0,193
183,954	65,387	-0,249	-0,174
184,969	800,000	-0,087	-0,182
185,983	-27,595	-0,223	-0,090
186,998	39,589	-0,271	-0,168
188,013	-9,144	-0,185	-0,085
189,027	-152,146	-0,329	0,016
190,042	167,795	-0,218	-0,215
191,056	248,596	-0,177	-0,209
192,071	97,159	-0,216	-0,172
193,086	-4,836	-0,139	-0,066
194,100	800,000	-0,071	-0,201
195,115	-142,869	-0,270	0,018
196,129	-60,022	-0,289	-0,085
197,144	14,033	-0,181	-0,097
198,159	69,074	-0,283	-0,201
199,173	800,000	-0,073	-0,187
200,188	-200,000	0,014	-0,049
201,202	95,304	-0,131	-0,104
202,217	-41,969	-0,188	-0,066
203,232	234,162	-0,136	-0,156
204,246	275,224	-0,197	-0,242
205,261	800,000	-0,123	-0,317
206,275	182,938	-0,161	-0,165
207,290	-41,261	-0,174	0,062
208,304	122,555	-0,129	-0,111
209,319	-80,560	-0,244	-0,056
210,334	15,982	-0,258	-0,140
211,348	211,036	-0,196	-0,213
212,363	-151,437	-0,138	-0,007
213,377	89,071	-0,236	-0,181
214,392	-58,765	-0,076	-0,023
215,407	14,614	-0,095	-0,051
216,421	97,636	-0,193	-0,154
217,436	32,513	-0,118	-0,070
218,450	153,334	-0,220	-0,208
219,465	800,000	-0,116	-0,250
220,480	-108,884	-0,128	-0,019
221,494	-37,260	-0,241	-0,088
222,509	-200,000	-0,026	-0,113
223,523	800,000	-0,085	-0,180
224,538	-60,332	-0,183	-0,053
225,553	48,562	-0,265	-0,171
226,567	-200,000	-0,057	-0,211
227,582	67,694	-0,177	-0,125
228,596	52,502	-0,239	-0,158
229,611	209,556	-0,073	-0,079
230,626	-130,426	-0,264	0,024
231,640	-115,666	-0,197	-0,025
232,655	2,911	-0,225	-0,113
233,669	123,063	-0,302	-0,262
234,684	-11,062	-0,208	-0,094
235,699	350,337	-0,165	-0,226
236,713	-11,722	-0,212	-0,096
237,728	800,000	-0,107	-0,241
238,742	25,138	-0,181	-0,104
239,757	146,087	-0,160	-0,148
240,772	-27,667	-0,257	-0,102
241,786	-127,588	-0,141	0,014
242,801	39,877	-0,186	-0,115
243,815	-200,000	-0,035	-0,203
244,830	289,717	-0,073	-0,091
245,844	180,136	-0,210	-0,212
246,859	-109,724	-0,295	-0,042
247,874	195,211	-0,184	-0,193
248,888	-22,656	-0,213	-0,089
249,903	64,974	-0,170	-0,118
250,917	-117,032	-0,201	-0,025
251,932	-7,539	-0,217	-0,101
252,947	-200,000	0,001	-0,047
253,961	512,773	-0,118	-0,191
254,976	-65,442	-0,251	-0,069
255,990	-66,585	-0,228	-0,062
257,005	176,540	-0,107	-0,107
258,020	202,514	-0,026	-0,028
259,034	190,724	-0,146	-0,152
260,049	325,849	-0,164	-0,217
261,063	336,665	-0,146	-0,196
262,078	165,295	-0,207	-0,201
263,093	336,575	-0,165	-0,221
264,107	-200,000	0,006	-0,208
265,122	45,563	-0,132	-0,084
266,136	104,821	-0,139	-0,113
267,151	-157,314	-0,121	-0,005
268,166	212,497	-0,135	-0,147
269,180	120,560	-0,133	-0,113
270,195	112,866	-0,169	-0,141
271,209	665,212	-0,116	-0,207
272,224	-200,000	-0,051	-0,174
273,239	47,170	-0,149	-0,095
274,253	125,081	-0,226	-0,196
275,268	-37,424	-0,112	-0,041
276,282	279,531	-0,128	-0,157
277,297	211,185	-0,088	-0,095
278,312	96,237	-0,217	-0,171
279,326	-71,620	-0,307	-0,078
280,341	227,794	-0,132	-0,149
281,355	-104,326	-0,133	-0,021
282,370	-79,122	-0,235	-0,054
283,384	151,715	-0,188	-0,176
284,399	-99,032	-0,263	0,045
285,414	629,140	-0,091	-0,160
286,428	114,415	-0,053	-0,045
287,443	-200,000	-0,162	0,000
288,457	355,880	-0,043	-0,059
289,472	-49,217	-0,167	-0,055
290,487	132,542	-0,203	-0,180
291,501	1,864	-0,177	-0,088
292,516	449,329	-0,101	-0,154
293,530	-35,102	-0,167	-0,062
294,545	7,831	-0,194	-0,099
295,560	-135,193	-0,161	-0,013
296,574	800,000	-0,069	-0,151
297,589	-108,536	-0,156	-0,023
298,603	130,028	-0,149	-0,131
299,618	177,355	-0,105	0,105
300,633	-175,636	-0,243	0,004
301,647	-125,030	-0,091	-0,009
302,662	57,752	-0,125	-0,084
303,676	15,460	-0,098	0,052
304,691	197,835	-0,145	-0,152
305,706	800,000	-0,105	-0,217
306,720	420,890	-0,124	-0,182
307,735	-127,196	-0,204	-0,020
308,749	-200,000	0,039	-0,209
309,764	175,962	-0,107	-0,107
310,779	-200,000	-0,021	-0,142
311,793	22,487	-0,125	-0,070
312,808	222,835	-0,167	-0,185
313,822	-75,732	-0,154	-0,037
314,837	-200,000	0,023	-0,084
315,852	-200,000	-0,031	-0,208
316,866	110,084	-0,136	-0,112
317,881	-200,000	0,011	-0,039
318,895	-76,960	-0,171	0,041
319,910	-104,269	-0,224	-0,035
320,925	800,000	-0,094	-0,281
321,939	317,375	-0,029	-0,038
322,954	-192,768	-0,156	0,001
323,968	205,060	-0,058	-0,062
324,983	-176,689	-0,245	0,004
325,997	800,000	-0,033	-0,065
327,012	800,000	-0,064	-0,151
328,027	-0,941	-0,218	-0,105
329,041	206,754	-0,149	-0,159
330,056	54,421	-0,121	-0,080
331,070	221,488	-0,125	-0,138
332,085	75,979	-0,135	-0,098
333,100	46,665	-0,155	-0,098
334,114	408,384	-0,088	-0,128
335,129	-0,568	-0,263	-0,127
336,143	120,954	-0,245	-0,208
337,158	-200,000	-0,028	-0,222
338,173	-16,000	-0,192	-0,083
339,187	-134,654	-0,180	-0,015
340,202	-200,000	-0,032	-0,099
341,216	800,000	-0,067	-0,158
342,231	69,180	-0,196	-0,138
343,246	-200,000	0,058	-0,222
344,260	47,145	-0,130	-0,082
345,275	-82,856	-0,094	0,021
346,289	-200,000	0,006	-0,075
347,304	28,984	-0,225	-0,130
348,319	-150,766	-0,196	-0,010
349,333	33,362	-0,141	-0,083
350,348	429,311	-0,148	-0,220
351,362	153,994	-0,169	-0,158
352,377	15,696	-0,114	0,061
353,392	66,376	-0,172	-0,119
354,406	-29,995	-0,215	-0,083
355,421	208,718	1305,248	1397,575
356,435	160,620	1464,773	1398,059
