DTS Sentinel unit serial number:	SN410029Multiplexer serial number:	ORYXHardware model number:	OX2-SRSoftware version number:	ORYX F/W v4,00 Oryx Data Collector v3.7.2.0data status	okinstallation	B3 Nyhavnadifferential loss correction	single-endedforward channel	channel 1reverse channel	N/Adate	2023/12/01time	23:42:30forward acquisition time	300,00reverse acquisition time	0,00gamma	499,1914k internal	0,3197k external	0,3197temperature offset calibration	1,0000default loss term (dB/km)	0,3820temperature slope calibration	1,0000multiplexer offset coefficient	1,0000multiplexer slope coefficient	1,0000fibre end	0,00T internal ref (°C)	15,98T ext. ref 1 (°C)	1,49T ext. ref 2 (°C)	1,47length (m)	temperature (°C)	Stokes	anti-Stokes-744,400	228,500	-0,268	-0,319
-743,385	99,323	0,242	0,203
-742,371	86,807	-0,259	-0,208
-741,356	-200,000	0,098	0,326
-740,342	267,151	-0,141	-0,180
-739,327	-200,000	0,079	0,255
-738,312	800,000	-0,121	-0,335
-737,298	-200,000	0,006	0,275
-736,283	70,974	-0,200	-0,150
-735,269	-200,000	0,006	0,346
-734,254	-65,151	-0,286	-0,083
-733,239	133,676	-0,185	0,175
-732,225	800,000	-0,189	-0,390
-731,210	-200,000	0,022	0,102
-730,196	-123,952	-0,050	0,006
-729,181	158,515	-0,038	0,039
-728,167	-200,000	0,034	-0,114
-727,152	800,000	0,033	-0,099
-726,137	7,976	-0,150	-0,082
-725,123	-74,412	-0,030	0,008
-724,108	-82,661	-0,140	0,033
-723,094	800,000	-0,054	-0,154
-722,079	594,853	-0,046	-0,083
-721,064	-80,317	0,142	-0,034
-720,050	800,000	-0,019	-0,060
-719,035	300,751	-0,034	0,046
-718,021	-200,000	-0,010	0,099
-717,006	61,192	0,079	-0,057
-715,991	-200,000	-0,031	-0,113
-714,977	118,081	0,023	0,020
-713,962	-200,000	0,052	-0,191
-712,948	427,624	-0,033	-0,052
-711,933	9,993	-0,204	-0,112
-710,918	72,833	-0,041	0,031
-709,904	-200,000	-0,000	-0,110
-708,889	133,275	-0,025	0,024
-707,875	-200,000	0,018	-0,207
-706,860	169,653	-0,062	0,064
-705,845	-36,261	0,120	-0,047
-704,831	46,644	0,045	0,030
-703,816	-200,000	-0,011	0,120
-702,802	-200,000	0,006	0,025
-701,787	117,400	0,131	-0,117
-700,772	61,110	0,117	-0,084
-699,758	96,205	-0,078	0,065
-698,743	-9,411	0,208	0,101
-697,729	-104,179	0,153	0,026
-696,714	800,000	0,047	-0,139
-695,699	162,643	-0,021	0,021
-694,685	-200,000	-0,014	0,175
-693,670	54,795	0,138	-0,097
-692,656	166,144	0,058	-0,059
-691,641	800,000	0,058	-0,139
-690,627	164,668	-0,078	0,080
-689,612	-29,756	-0,051	-0,021
-688,597	-200,000	-0,010	-0,140
-687,583	800,000	-0,022	-0,067
-686,568	-200,000	-0,004	-0,165
-685,554	-200,000	0,010	-0,052
-684,539	-31,691	-0,046	-0,019
-683,524	-61,511	0,049	0,015
-682,510	158,805	0,055	-0,055
-681,495	-200,000	0,000	0,031
-680,481	800,000	-0,023	-0,057
-679,466	744,326	0,007	-0,014
-678,451	-200,000	0,024	-0,146
-677,437	61,443	-0,030	-0,021
-676,422	-51,460	-0,080	0,027
-675,408	458,377	-0,019	-0,030
-674,393	800,000	0,032	-0,067
-673,378	-146,651	0,041	-0,003
-672,364	36,519	-0,053	0,034
-671,349	626,604	0,021	-0,038
-670,335	-145,696	-0,131	0,008
-669,320	800,000	0,032	0,078
-668,305	-5,440	0,036	0,018
-667,291	-200,000	0,001	0,057
-666,276	-200,000	-0,005	-0,017
-665,262	-200,000	-0,029	0,151
-664,247	23,225	-0,051	-0,030
-663,232	125,750	-0,042	-0,038
-662,218	800,000	-0,022	0,050
-661,203	38,775	0,129	0,084
-660,189	-141,563	0,140	-0,010
-659,174	-200,000	-0,031	-0,100
-658,159	386,756	-0,062	-0,093
-657,145	800,000	-0,059	-0,170
-656,130	6,773	-0,069	-0,037
-655,116	-133,133	0,107	0,010
-654,101	-32,731	0,112	0,045
-653,086	800,000	-0,075	0,204
-652,072	800,000	0,043	-0,125
-651,057	592,919	-0,076	-0,137
-650,043	285,129	-0,074	-0,097
-649,028	695,278	0,037	-0,070
-648,014	420,732	-0,025	0,039
-646,999	148,550	0,045	-0,044
-645,984	-184,224	0,070	0,001
-644,970	6,500	-0,077	-0,041
-643,955	-200,000	0,007	-0,043
-642,941	-200,000	-0,043	-0,182
-641,926	213,648	-0,038	-0,044
-640,911	-43,493	0,105	-0,038
-639,897	-200,000	0,011	0,053
-638,882	-122,915	-0,052	0,006
-637,868	140,047	-0,008	-0,008
-636,853	-27,802	-0,125	0,052
-635,838	-200,000	0,010	-0,048
-634,824	-200,000	-0,007	-0,023
-633,809	5,726	0,152	-0,081
-632,795	-178,923	0,011	0,000
-631,780	-200,000	-0,003	0,029
-630,765	-46,570	-0,054	0,019
-629,751	547,137	-0,018	0,031
-628,736	-174,182	-0,181	0,004
-627,722	-200,000	-0,004	-0,055
-626,707	-29,438	0,097	0,040
-625,692	-200,000	-0,019	0,085
-624,678	65,245	0,043	0,032
-623,663	-157,728	-0,037	0,002
-622,649	348,363	-0,051	0,073
-621,634	432,732	0,048	-0,076
-620,619	-200,000	-0,020	-0,144
-619,605	-200,000	0,009	-0,041
-618,590	-61,544	0,190	-0,057
-617,576	800,000	-0,011	-0,028
-616,561	-150,954	-0,071	-0,004
-615,546	-200,000	-0,052	-0,178
-614,532	-200,000	-0,000	0,056
-613,517	69,325	-0,014	0,010
-612,503	-200,000	-0,007	-0,158
-611,488	800,000	-0,027	-0,057
-610,474	-9,248	-0,061	-0,030
-609,459	60,209	0,074	-0,053
-608,444	-200,000	0,009	-0,042
-607,430	168,711	-0,064	0,066
-606,415	21,157	0,103	-0,061
-605,401	36,027	0,054	-0,034
-604,386	-126,976	-0,030	0,003
-603,371	-200,000	0,009	0,087
-602,357	-200,000	-0,007	0,143
-601,342	251,109	-0,042	-0,052
-600,328	41,545	-0,139	-0,091
-599,313	731,898	0,024	-0,048
-598,298	19,973	0,093	-0,054
-597,284	800,000	-0,052	-0,111
-596,269	800,000	-0,039	0,095
-595,255	-74,481	-0,145	-0,038
-594,240	92,447	-0,104	-0,085
-593,225	800,000	-0,044	-0,105
-592,211	-200,000	-0,013	-0,138
-591,196	-4,622	-0,111	-0,055
-590,182	-94,127	-0,087	0,017
-589,167	10,763	-0,022	-0,012
-588,152	665,643	0,040	0,075
-587,138	-200,000	-0,007	0,102
-586,123	800,000	0,047	-0,124
-585,109	-118,951	-0,031	0,004
-584,094	800,000	0,097	-0,235
-583,079	-135,079	0,107	-0,009
-582,065	291,127	0,102	0,134
-581,050	355,949	0,040	0,058
-580,036	800,000	0,061	-0,149
-579,021	357,587	0,141	-0,205
-578,006	73,286	-0,159	-0,120
-576,992	800,000	0,026	0,068
-575,977	562,341	-0,029	-0,052
-574,963	383,328	0,026	-0,039
-573,948	800,000	-0,038	-0,078
-572,934	377,956	-0,073	0,109
-571,919	-200,000	-0,021	-0,134
-570,904	-200,000	-0,007	-0,226
-569,890	-200,000	-0,015	-0,083
-568,875	15,152	-0,100	0,057
-567,861	-147,814	0,139	0,008
-566,846	800,000	0,034	-0,082
-565,831	-95,798	-0,066	0,013
-564,817	-200,000	-0,003	0,014
-563,802	800,000	-0,024	-0,071
-562,788	162,121	-0,036	-0,036
-561,773	89,366	-0,048	-0,039
-560,758	-97,433	-0,134	0,025
-559,744	-200,000	-0,001	0,077
-558,729	63,621	-0,058	-0,042
-557,715	262,313	-0,038	0,048
-556,700	408,433	0,078	-0,119
-555,685	533,888	0,069	-0,118
-554,671	-93,815	0,099	0,020
-553,656	-200,000	0,001	0,093
-552,642	-200,000	0,000	0,122
-551,627	75,091	0,054	-0,041
-550,612	192,756	0,046	-0,051
-549,598	800,000	-0,035	-0,083
-548,583	155,313	0,040	0,040
-547,569	45,701	-0,224	-0,150
-546,554	57,930	0,076	0,054
-545,539	566,857	0,045	0,079
-544,525	417,163	0,085	0,132
-543,510	372,915	0,011	-0,016
-542,496	101,997	-0,068	0,057
-541,481	76,652	0,104	-0,079
-540,466	-101,379	0,081	0,014
-539,452	-120,330	0,147	-0,018
-538,437	-56,107	-0,061	0,020
-537,423	-200,000	-0,008	-0,095
-536,408	800,000	-0,028	-0,082
-535,393	73,536	0,085	0,064
-534,379	-63,483	0,060	0,018
-533,364	-200,000	0,022	0,091
-532,350	-200,000	0,007	-0,034
-531,335	-10,626	0,055	0,026
-530,321	272,528	-0,071	0,090
-529,306	800,000	-0,060	0,149
-528,291	61,342	0,124	-0,089
-527,277	-13,240	0,116	-0,054
-526,262	800,000	0,067	0,159
-525,248	800,000	0,041	0,087
-524,233	357,989	-0,030	-0,043
-523,218	-200,000	0,006	0,123
-522,204	800,000	-0,063	0,137
-521,189	114,115	0,137	0,120
-520,175	116,454	-0,060	-0,054
-519,160	-200,000	0,005	0,045
-518,145	-53,082	0,047	0,015
-517,131	98,612	0,163	-0,136
-516,116	253,865	0,091	-0,113
-515,102	-200,000	-0,004	-0,026
-514,087	-20,767	-0,137	-0,060
-513,072	636,723	-0,062	-0,114
-512,058	800,000	0,028	0,073
-511,043	116,281	0,110	0,097
-510,029	-200,000	0,024	0,093
-509,014	273,258	0,060	0,077
-507,999	112,800	0,080	0,070
-506,985	-99,399	-0,043	0,008
-505,970	555,929	0,045	-0,078
-504,956	-60,192	0,074	-0,023
-503,941	349,346	-0,012	-0,016
-502,926	48,686	-0,089	0,060
-501,912	257,085	0,019	0,023
-500,897	-86,060	-0,094	-0,021
-499,883	-89,969	0,076	-0,016
-498,868	-200,000	-0,013	-0,097
-497,853	527,254	-0,075	-0,128
-496,839	-149,221	0,054	0,003
-495,824	-200,000	0,025	0,097
-494,810	603,121	0,093	0,168
-493,795	800,000	-0,038	0,102
-492,781	-200,000	-0,014	0,055
-491,766	-39,416	-0,057	-0,021
-490,751	-19,127	-0,042	0,019
-489,737	800,000	0,032	-0,065
-488,722	25,041	0,099	0,059
-487,708	-74,937	0,088	-0,023
-486,693	-32,276	0,153	0,061
-485,678	98,003	-0,013	0,011
-484,664	-130,771	-0,178	0,017
-483,649	123,027	-0,056	-0,050
-482,635	2,401	0,039	-0,020
-481,620	-44,861	0,200	0,071
-480,605	35,967	0,090	0,057
-479,591	45,740	0,108	-0,072
-478,576	692,910	-0,095	0,181
-477,562	-200,000	-0,033	0,117
-476,547	-74,205	-0,024	-0,006
-475,532	77,681	-0,058	0,044
-474,518	-200,000	-0,001	0,107
-473,503	-200,000	0,023	0,156
-472,489	-13,502	-0,119	0,055
-471,474	486,561	-0,036	0,060
-470,459	-21,241	-0,016	0,007
-469,445	37,838	-0,029	-0,018
-468,430	-200,000	0,029	0,100
-467,416	-200,000	0,007	-0,028
-466,401	32,829	-0,092	0,057
-465,386	386,873	-0,033	-0,049
-464,372	-200,000	-0,021	0,073
-463,357	800,000	0,024	-0,060
-462,343	173,512	-0,064	-0,066
-461,328	-0,464	-0,063	0,032
-460,313	-200,000	-0,013	-0,081
-459,299	-103,014	0,067	-0,011
-458,284	-116,495	0,099	-0,013
-457,270	-200,000	0,016	0,109
-456,255	34,450	-0,125	0,079
-455,241	1,732	-0,148	-0,076
-454,226	800,000	-0,052	0,112
-453,211	-42,570	0,122	-0,045
-452,197	-200,000	0,031	-0,136
-451,182	800,000	0,031	0,065
-450,168	1,425	-0,034	-0,018
-449,153	205,075	0,042	-0,047
-448,138	-147,539	0,041	0,002
-447,124	258,422	0,045	-0,056
-446,109	785,695	0,069	-0,136
-445,095	-149,314	-0,145	0,008
-444,080	-74,903	0,135	0,035
-443,065	12,499	0,131	0,072
-442,051	-200,000	0,018	0,100
-441,036	91,649	-0,070	0,056
-440,022	-61,130	-0,089	-0,027
-439,007	-153,008	-0,023	0,001
-437,992	-200,000	0,008	-0,037
-436,978	-200,000	0,000	0,212
-435,963	-113,300	-0,114	-0,016
-434,949	-126,825	0,028	0,003
-433,934	-176,650	-0,134	-0,002
-432,919	393,671	-0,024	0,035
-431,905	-6,315	-0,054	-0,027
-430,890	136,695	0,128	0,121
-429,876	228,008	0,053	0,062
-428,861	-200,000	0,020	0,176
-427,846	102,352	-0,102	0,085
-426,832	-147,289	-0,102	0,006
-425,817	182,507	0,117	-0,124
-424,803	3,614	0,074	-0,039
-423,788	800,000	-0,015	0,040
-422,773	-89,733	-0,055	-0,011
-421,759	-51,513	-0,096	-0,032
-420,744	800,000	0,008	0,024
-419,730	555,956	-0,053	0,093
-418,715	-200,000	-0,043	-0,213
-417,701	-92,502	0,044	-0,009
-416,686	-99,722	0,143	-0,026
-415,671	184,232	0,056	0,060
-414,657	-200,000	-0,012	-0,055
-413,642	-90,758	-0,133	0,027
-412,628	90,683	-0,127	0,103
-411,613	20,080	0,120	0,069
-410,598	800,000	0,051	0,126
-409,584	-200,000	0,006	-0,029
-408,569	269,392	0,073	-0,093
-407,555	197,641	0,043	0,047
-406,540	-200,000	-0,007	0,079
-405,525	88,059	-0,056	-0,045
-404,511	800,000	0,029	-0,065
-403,496	398,499	-0,047	-0,072
-402,482	-200,000	0,009	-0,125
-401,467	-159,669	0,076	-0,003
-400,452	-163,088	0,109	-0,004
-399,438	94,577	0,057	0,047
-398,423	509,562	-0,031	0,051
-397,409	800,000	-0,062	0,124
-396,394	168,757	0,056	-0,058
-395,379	-200,000	0,083	0,000
-394,365	-108,716	0,098	-0,015
-393,350	160,239	-0,087	0,087
-392,336	-200,000	0,062	0,215
-391,321	-200,000	-0,015	0,204
-390,306	30,470	-0,140	0,086
-389,292	-60,124	-0,176	-0,054
-388,277	-75,241	0,048	0,012
-387,263	800,000	-0,008	-0,016
-386,248	-95,049	0,172	-0,033
-385,233	226,479	-0,108	-0,126
-384,219	-108,140	-0,140	0,022
-383,204	61,420	0,096	-0,068
-382,190	-73,372	0,077	-0,020
-381,175	-200,000	-0,009	-0,068
-380,160	-200,000	-0,022	0,072
-379,146	800,000	0,056	-0,175
-378,131	-151,775	0,141	0,007
-377,117	107,580	0,088	0,075
-376,102	-99,096	0,058	-0,010
-375,088	-95,879	-0,119	-0,023
-374,073	-74,789	0,106	0,027
-373,058	-191,007	-0,098	0,001
-372,044	-32,248	-0,121	-0,048
-371,029	800,000	-0,013	0,027
-370,015	800,000	-0,017	-0,043
-369,000	800,000	0,039	0,090
-367,985	134,103	-0,048	-0,045
-366,971	-70,377	0,082	-0,022
-365,956	-61,503	0,052	0,016
-364,942	-152,980	0,197	0,010
-363,927	514,566	-0,088	0,148
-362,912	800,000	-0,036	0,083
-361,898	95,062	0,156	0,127
-360,883	-115,376	-0,050	-0,007
-359,869	202,281	-0,011	0,012
-358,854	800,000	-0,045	0,118
-357,839	129,980	0,004	0,003
-356,825	624,377	-0,018	-0,033
-355,810	-200,000	-0,016	0,075
-354,796	285,162	-0,052	-0,068
-353,781	-150,170	-0,122	0,007
-352,766	14,165	-0,129	-0,072
-351,752	162,916	0,112	0,113
-350,737	135,697	0,086	0,081
-349,723	-115,211	-0,068	-0,009
-348,708	-103,579	0,056	0,009
-347,693	-75,063	-0,159	-0,041
-346,679	-51,416	0,122	-0,041
-345,664	-200,000	-0,033	-0,107
-344,650	174,841	0,042	0,044
-343,635	800,000	0,030	-0,071
-342,620	-25,520	0,105	0,044
-341,606	-120,611	0,101	0,012
-340,591	-200,000	-0,044	-0,179
-339,577	-200,000	0,003	0,085
-338,562	58,946	0,052	0,037
-337,548	31,526	-0,175	-0,108
-336,533	-200,000	0,000	0,008
-335,518	138,262	0,050	0,047
-334,504	800,000	0,011	-0,021
-333,489	454,992	0,036	0,058
-332,475	-200,000	0,002	-0,075
-331,460	-40,731	-0,093	-0,034
-330,445	-77,272	0,051	-0,013
-329,431	800,000	-0,065	0,139
-328,416	756,972	-0,062	0,122
-327,402	-200,000	-0,038	-0,172
-326,387	111,850	-0,119	0,103
-325,372	327,446	-0,064	0,088
-324,358	134,966	-0,050	-0,047
-323,343	800,000	0,026	0,060
-322,329	151,094	0,012	0,012
-321,314	800,000	-0,030	0,077
-320,299	-200,000	-0,015	0,067
-319,285	429,007	-0,039	-0,061
-318,270	-200,000	0,012	0,043
-317,256	-153,059	-0,108	0,005
-316,241	9,522	-0,119	0,064
-315,226	15,562	-0,043	-0,024
-314,212	-200,000	-0,023	0,089
-313,197	-19,740	-0,063	-0,028
-312,183	352,018	-0,045	0,064
-311,168	205,824	-0,201	-0,224
-310,153	541,001	0,025	-0,043
-309,139	-200,000	-0,008	-0,069
-308,124	-200,000	-0,001	0,020
-307,110	-200,000	0,017	-0,100
-306,095	-178,508	-0,064	0,001
-305,080	67,027	-0,014	-0,011
-304,066	333,575	-0,109	-0,152
-303,051	45,695	0,078	-0,051
-302,037	800,000	-0,007	0,018
-301,022	-12,029	0,037	-0,017
-300,008	4,808	0,046	0,024
-298,993	635,156	0,077	0,141
-297,978	104,887	-0,065	0,055
-296,964	-156,488	-0,023	-0,001
-295,949	-200,000	0,001	0,141
-294,935	-155,678	0,097	0,004
-293,920	6,842	0,057	0,030
-292,905	800,000	0,027	0,080
-291,891	-200,000	0,015	0,240
-290,876	447,022	0,014	0,023
-289,862	9,701	-0,013	0,007
-288,847	-78,860	-0,065	0,016
-287,832	800,000	-0,036	-0,079
-286,818	-200,000	-0,004	0,017
-285,803	-196,268	0,099	-0,000
-284,789	-200,000	-0,002	-0,040
-283,774	143,880	-0,115	0,110
-282,759	-43,132	0,119	0,043
-281,745	24,382	0,086	0,051
-280,730	770,835	-0,048	-0,095
-279,716	594,337	0,064	-0,113
-278,701	133,251	0,040	0,037
-277,686	24,579	-0,027	0,016
-276,672	-165,288	-0,085	-0,003
-275,657	-200,000	-0,013	0,129
-274,643	80,146	-0,125	-0,096
-273,628	475,999	-0,010	-0,017
-272,613	785,548	-0,024	0,048
-271,599	306,666	0,065	0,087
-270,584	211,366	0,123	0,139
-269,570	307,391	0,073	0,098
-268,555	-88,253	0,184	0,039
-267,540	419,182	-0,081	-0,124
-266,526	-119,029	0,130	-0,016
-265,511	-112,703	-0,101	-0,014
-264,497	-177,388	0,123	0,002
-263,482	461,619	0,104	0,166
-262,467	-200,000	0,023	0,114
-261,453	536,060	0,016	-0,027
-260,438	-200,000	0,046	-0,177
-259,424	-200,000	-0,012	-0,060
-258,409	3,917	-0,152	-0,079
-257,395	-200,000	0,007	0,134
-256,380	261,776	0,047	-0,058
-255,365	-12,061	-0,071	0,033
-254,351	-200,000	0,001	0,054
-253,336	-35,993	-0,085	0,033
-252,322	-120,302	-0,069	-0,008
-251,307	-33,518	0,045	-0,018
-250,292	-35,508	-0,050	0,019
-249,278	-200,000	0,001	-0,030
-248,263	576,218	0,037	0,064
-247,249	-200,000	0,030	0,101
-246,234	303,215	0,026	-0,035
-245,219	9,996	0,051	0,028
-244,205	71,385	-0,050	-0,037
-243,190	-200,000	-0,029	-0,104
-242,176	309,637	0,100	0,134
-241,161	34,998	0,069	0,043
-240,146	-200,000	-0,015	0,109
-239,132	31,357	0,059	0,036
-238,117	-151,618	-0,140	-0,007
-237,103	-200,000	0,031	0,177
-236,088	-200,000	-0,006	-0,060
-235,073	45,003	0,069	-0,045
-234,059	445,582	0,035	0,055
-233,044	195,495	0,007	-0,008
-232,030	800,000	-0,032	0,101
-231,015	-55,714	0,052	-0,017
-230,000	-37,675	-0,125	0,047
-228,986	-200,000	-0,015	0,058
-227,971	-37,407	0,150	0,057
-226,957	113,849	0,072	-0,062
-225,942	-200,000	-0,005	0,053
-224,927	-200,000	-0,014	-0,045
-223,913	800,000	-0,016	-0,052
-222,898	149,540	-0,119	-0,115
-221,884	-39,210	-0,126	-0,047
-220,869	-141,895	0,124	0,009
-219,855	-200,000	-0,051	0,255
-218,840	-162,241	0,064	0,002
-217,825	791,756	-0,034	-0,066
-216,811	-200,000	-0,003	-0,075
-215,796	-28,003	-0,091	0,037
-214,782	-200,000	0,006	0,034
-213,767	-164,128	-0,075	-0,002
-212,752	52,706	0,100	0,068
-211,738	-116,121	-0,117	0,015
-210,723	-200,000	0,043	-0,213
-209,709	-17,618	-0,208	-0,093
-208,694	-200,000	-0,009	-0,140
-207,679	-200,000	0,008	-0,056
-206,665	261,722	0,079	-0,098
-205,650	-11,896	0,078	-0,037
-204,636	-5,846	-0,143	-0,070
-203,621	-200,000	0,004	-0,095
-202,606	-26,033	0,064	-0,027
-201,592	-21,319	-0,084	-0,036
-200,577	-200,000	0,003	-0,123
-199,563	604,075	-0,090	-0,160
-198,548	800,000	0,027	0,068
-197,533	-200,000	-0,027	0,127
-196,519	-24,476	-0,140	-0,059
-195,504	87,347	0,059	-0,046
-194,490	196,854	-0,077	-0,084
-193,475	-200,000	0,028	-0,119
-192,460	-25,420	-0,057	0,024
-191,446	87,422	-0,029	-0,023
-190,431	-200,000	-0,014	0,058
-189,417	85,114	0,054	0,042
-188,402	-26,260	0,103	0,043
-187,387	-111,702	-0,067	-0,010
-186,373	35,525	0,003	0,002
-185,358	800,000	-0,007	0,014
-184,344	125,862	0,069	0,062
-183,329	-3,742	0,084	-0,041
-182,315	-13,831	-0,040	0,018
-181,300	-200,000	0,021	-0,083
-180,285	79,328	-0,052	0,040
-179,271	218,923	-0,070	-0,080
-178,256	68,047	0,099	0,072
-177,242	800,000	0,043	0,113
-176,227	672,787	0,048	-0,089
-175,212	800,000	0,054	0,111
-174,198	-200,000	-0,001	0,005
-173,183	-200,000	-0,042	-0,146
-172,169	-200,000	-0,002	-0,131
-171,154	800,000	-0,025	-0,055
-170,139	800,000	-0,015	-0,035
-169,125	-200,000	0,005	0,140
-168,110	152,184	0,089	0,086
-167,096	728,663	-0,067	-0,128
-166,081	11,825	-0,172	-0,094
-165,066	661,624	0,048	-0,089
-164,052	-200,000	-0,030	-0,121
-163,037	800,000	-0,016	0,044
-162,023	800,000	0,027	0,081
-161,008	27,119	0,045	0,027
-159,993	254,074	0,021	0,025
-158,979	800,000	0,027	-0,067
-157,964	-200,000	-0,024	-0,160
-156,950	-200,000	0,007	-0,087
-155,935	50,517	-0,024	0,016
-154,920	800,000	-0,017	-0,038
-153,906	62,700	-0,041	-0,029
-152,891	48,752	0,065	-0,043
-151,877	800,000	-0,024	-0,061
-150,862	-25,540	0,033	0,014
-149,847	408,921	0,053	0,080
-148,833	-102,532	-0,189	0,032
-147,818	350,534	0,016	-0,023
-146,804	-90,081	0,147	0,030
-145,789	-200,000	0,012	0,094
-144,775	-111,073	-0,062	-0,009
-143,760	400,708	-0,013	0,019
-142,745	275,042	-0,022	-0,028
-141,731	17,933	0,093	0,053
-140,716	745,139	-0,045	0,086
-139,702	493,308	-0,017	0,029
-138,687	-47,151	-0,082	-0,028
-137,672	135,237	0,082	-0,076
-136,658	-64,468	-0,070	-0,020
-135,643	-193,011	-0,112	-0,001
-134,629	-77,762	-0,064	0,016
-133,614	-60,368	0,046	-0,014
-132,599	-65,589	-0,077	-0,022
-131,585	124,928	0,038	0,034
-130,570	-52,487	0,068	-0,022
-129,556	-50,626	0,088	0,029
-128,541	800,000	-0,056	-0,121
-127,526	-200,000	-0,010	0,058
-126,512	-200,000	-0,001	-0,021
-125,497	47,246	0,016	-0,011
-124,483	168,183	0,036	0,037
-123,468	-167,473	0,052	-0,001
-122,453	-200,000	-0,023	-0,084
-121,439	145,179	-0,130	-0,124
-120,424	-200,000	0,007	-0,158
-119,410	-200,000	0,005	-0,042
-118,395	-51,845	0,082	-0,027
-117,380	800,000	-0,066	-0,158
-116,366	17,592	-0,053	-0,030
-115,351	241,147	0,075	-0,089
-114,337	-200,000	0,004	-0,066
-113,322	-125,693	0,096	-0,010
-112,307	-121,165	-0,058	0,007
-111,293	0,150	-0,035	-0,017
-110,278	-200,000	-0,007	-0,038
-109,264	800,000	-0,024	0,067
-108,249	239,392	-0,102	-0,121
-107,234	61,122	0,094	-0,066
-106,220	-200,000	0,039	0,124
-105,205	-200,000	-0,029	0,115
-104,191	800,000	0,054	0,109
-103,176	-84,121	-0,106	-0,024
-102,162	327,498	0,100	-0,137
-101,147	-180,273	-0,166	-0,002
-100,132	106,031	-0,079	-0,067
-99,118	2,441	0,028	-0,014
-98,103	-25,716	0,089	-0,037
-97,089	-200,000	0,015	0,148
-96,074	400,495	0,059	-0,088
-95,059	-64,637	0,058	0,017
-94,045	800,000	-0,081	0,202
-93,030	394,681	-0,115	-0,171
-92,016	235,495	0,021	0,024
-91,001	-200,000	0,038	0,145
-89,986	-56,354	-0,009	0,003
-88,972	71,875	0,032	0,024
-87,957	-200,000	0,005	0,129
-86,943	85,210	-0,029	0,023
-85,928	-200,000	-0,041	-0,152
-84,913	-102,518	-0,136	-0,023
-83,899	-200,000	-0,028	0,099
-82,884	27,788	0,163	0,097
-81,870	-200,000	-0,003	-0,041
-80,855	-150,440	0,081	-0,004
-79,840	-143,594	0,121	-0,008
-78,826	-99,363	-0,133	0,024
-77,811	-169,185	-0,208	0,005
-76,797	51,192	0,048	-0,032
-75,782	-200,000	0,005	0,020
-74,767	800,000	-0,003	0,006
-73,753	-200,000	0,023	0,111
-72,738	225,783	0,093	-0,107
-71,724	93,720	-0,066	-0,053
-70,709	529,233	0,037	-0,063
-69,694	432,970	0,137	-0,211
-68,680	-42,045	0,145	-0,052
-67,665	-93,996	-0,067	-0,013
-66,651	110,887	-0,103	-0,088
-65,636	-200,000	0,005	-0,135
-64,622	-166,713	0,077	0,002
-63,607	178,607	-0,099	0,102
-62,592	-60,437	-0,043	0,013
-61,578	47,337	0,148	-0,098
-60,563	143,763	0,105	0,099
-59,549	-200,000	-0,002	0,276
-58,534	-97,173	-1,420	-0,261
-57,519	431,538	-1,442	-2,223
-56,505	-200,000	-0,405	-4,485
-55,490	164,030	0,833	0,832
-54,476	800,000	4,801	11,126
-53,461	-200,000	17,628	280,489
-52,446	800,000	719,828	2220,278
-51,432	562,127	1634,208	2813,600
-50,417	81,123	1658,043	1268,051
-49,403	23,866	1532,183	893,031
-48,388	17,824	1455,637	819,286
-47,373	18,261	1445,395	815,588
-46,359	17,885	1436,075	808,501
-45,344	16,126	1431,131	797,327
-44,330	16,031	1429,088	795,707
-43,315	16,019	1427,619	794,800
-42,300	16,025	1426,090	793,946
-41,286	16,090	1424,657	793,424
-40,271	16,067	1423,280	792,517
-39,257	16,075	1422,090	791,862
-38,242	16,162	1420,652	791,442
-37,227	16,078	1419,708	790,485
-36,213	16,119	1418,168	789,791
-35,198	16,059	1416,962	788,804
-34,184	16,123	1415,892	788,477
-33,169	16,024	1414,985	787,477
-32,154	16,100	1414,023	787,269
-31,140	16,104	1412,414	786,359
-30,125	16,141	1411,112	785,779
-29,111	16,067	1410,188	784,885
-28,096	16,062	1409,074	784,211
-27,082	15,996	1407,979	783,262
-26,067	16,001	1406,988	782,700
-25,052	16,039	1405,787	782,182
-24,038	15,994	1405,043	781,523
-23,023	15,946	1403,991	780,684
-22,009	15,965	1402,926	780,150
-20,994	15,931	1401,945	779,415
-19,979	15,937	1401,016	778,897
-18,965	15,935	1400,056	778,323
-17,950	15,904	1399,202	777,675
-16,936	15,917	1398,120	777,102
-15,921	15,933	1396,791	776,407
-14,906	15,912	1395,927	775,796
-13,892	15,929	1395,114	775,391
-12,877	15,928	1394,118	774,805
-11,863	15,943	1393,086	774,268
-10,848	15,897	1392,359	773,621
-9,833	15,862	1391,558	772,984
-8,819	15,851	1390,397	772,257
-7,804	15,826	1389,408	771,563
-6,790	15,829	1388,552	771,072
-5,775	15,814	1387,498	770,386
-4,760	15,798	1386,614	769,792
-3,746	15,815	1385,980	769,485
-2,731	15,795	1385,136	768,894
-1,717	15,763	1383,928	768,046
-0,702	15,759	1382,320	767,104
0,313	19,629	1303,157	741,002
1,327	36,162	706,832	440,229
2,342	55,166	125,397	85,739
3,356	2,420	16,413	8,388
4,371	14,165	2,986	1,643
5,386	69,796	0,412	0,301
6,400	580,393	-0,124	0,215
7,415	119,405	-0,291	-0,255
8,429	187,690	-0,285	-0,301
9,444	-68,762	-0,325	-0,088
10,459	45,144	-0,298	-0,194
11,473	84,086	-0,219	-0,169
12,488	-60,845	-0,331	-0,098
13,502	303,048	-0,218	-0,287
14,517	167,199	-0,220	-0,221
15,531	89,683	-0,375	-0,296
16,546	99,249	-0,364	-0,298
17,561	88,228	-0,256	-0,201
18,575	34,317	-0,336	-0,207
19,590	237,466	-0,186	-0,219
20,604	36,002	-0,218	-0,135
21,619	268,136	-0,368	-0,457
22,634	172,132	-0,435	-0,442
23,648	73,126	-0,469	-0,346
24,663	118,523	-0,382	-0,333
25,677	510,200	-0,213	-0,351
26,692	41,947	-0,300	-0,192
27,707	755,315	-0,164	-0,316
28,721	-31,496	-0,416	-0,165
29,736	23,687	-0,391	-0,227
30,750	169,356	-0,368	-0,372
31,765	165,337	-0,394	-0,394
32,780	395,090	-0,304	-0,449
33,794	184,487	-0,258	-0,270
34,809	141,179	-0,284	-0,265
35,823	86,173	-0,381	-0,296
36,838	91,696	-0,350	-0,278
37,853	150,016	-0,380	-0,364
38,867	162,929	-0,395	-0,392
39,882	49,441	-0,304	-0,201
40,896	-32,681	-0,311	-0,122
41,911	175,228	-0,303	-0,310
42,926	52,384	-0,288	-0,193
43,940	36,907	-0,420	-0,262
44,955	122,777	-0,375	-0,331
45,969	203,487	-0,255	-0,279
46,984	531,775	-0,221	-0,370
47,999	133,292	-0,278	-0,254
49,013	271,044	-0,221	-0,275
50,028	51,704	-0,341	-0,228
51,042	49,293	-0,437	-0,290
52,057	5,342	-0,318	-0,165
53,071	76,351	-0,388	-0,289
54,086	85,049	-0,386	-0,298
55,101	137,065	-0,323	-0,298
56,115	39,090	-0,376	-0,236
57,130	113,261	-0,289	-0,247
58,144	-3,908	-0,424	-0,207
59,159	107,904	-0,479	-0,402
60,174	-59,205	-0,453	-0,137
61,188	-5,355	-0,287	-0,139
62,203	68,190	-0,262	-0,189
63,217	13,241	-0,343	-0,187
64,232	20,039	-0,376	-0,213
65,247	61,410	-0,322	-0,225
66,261	49,505	-0,413	-0,274
67,276	168,902	-0,361	-0,363
68,290	-79,716	-0,367	-0,086
69,305	235,157	-0,158	-0,184
70,320	44,558	-0,363	-0,234
71,334	64,782	-0,358	-0,254
72,349	41,467	-0,285	-0,181
73,363	88,987	-0,382	-0,299
74,378	116,597	-0,273	-0,236
75,393	7,372	-0,252	-0,132
76,407	60,142	-0,329	-0,229
77,422	175,603	-0,259	-0,265
78,436	138,239	-0,268	-0,247
79,451	231,928	-0,219	-0,254
80,466	254,131	-0,278	-0,335
81,480	117,931	-0,343	-0,297
82,495	2,216	-0,416	-0,211
83,509	468,754	-0,117	-0,186
84,524	-18,122	-0,298	-0,131
85,539	41,871	-0,275	-0,175
86,553	-31,930	-0,346	-0,135
87,568	-48,774	-0,294	-0,099
88,582	-33,566	-0,467	-0,181
89,597	-20,023	-0,332	-0,143
90,611	55,966	-0,294	-0,200
91,626	-4,097	-0,237	-0,115
92,641	87,461	-0,332	-0,258
93,655	-137,422	-0,312	-0,024
94,670	-38,119	-0,402	-0,149
95,684	6,832	-0,179	-0,093
96,699	335,480	-0,171	-0,234
97,714	89,368	-0,236	-0,184
98,728	50,919	-0,333	-0,222
99,743	87,546	-0,258	-0,201
100,757	45,100	-0,301	-0,195
101,772	27,257	-0,361	-0,213
102,787	39,947	-0,326	-0,205
103,801	172,451	-0,207	-0,209
104,816	165,124	-0,202	-0,200
105,830	800,000	-0,088	-0,230
106,845	185,759	-0,238	-0,248
107,860	239,254	-0,186	-0,218
108,874	97,110	-0,213	-0,171
109,889	45,843	-0,271	-0,176
110,903	86,460	-0,230	-0,178
111,918	-58,842	-0,267	-0,081
112,933	224,889	-0,206	-0,234
113,947	-3,389	-0,184	-0,089
114,962	-49,384	-0,261	-0,087
115,976	32,724	-0,260	-0,157
116,991	1,223	-0,375	-0,188
118,006	62,674	-0,257	-0,180
119,020	36,818	-0,272	-0,168
120,035	61,978	-0,293	-0,205
121,049	8,428	-0,181	-0,095
122,064	32,901	-0,243	-0,147
123,079	47,697	-0,276	-0,180
124,093	84,233	-0,243	-0,186
125,108	-33,917	-0,454	-0,174
126,122	85,988	-0,354	-0,273
127,137	17,682	-0,193	-0,107
128,151	800,000	-0,101	-0,250
129,166	57,252	-0,270	-0,184
130,181	2,382	-0,207	-0,105
131,195	53,119	-0,188	-0,126
132,210	98,842	-0,320	-0,258
133,224	263,120	-0,284	-0,347
134,239	441,221	-0,180	-0,276
135,254	90,628	-0,255	-0,200
136,268	-33,635	-0,200	-0,077
137,283	-122,843	-0,315	-0,035
138,297	138,838	-0,218	-0,201
139,312	-123,231	-0,318	-0,035
140,327	267,961	-0,211	-0,259
141,341	-111,906	-0,264	-0,037
142,356	160,015	-0,197	-0,192
143,370	89,383	-0,157	-0,122
144,385	78,981	-0,228	-0,170
145,400	112,972	-0,309	-0,262
146,414	86,961	-0,354	-0,273
147,429	83,005	-0,309	-0,235
148,443	14,209	-0,262	-0,142
149,458	184,540	-0,269	-0,279
150,473	-71,668	-0,252	-0,065
151,487	1,706	-0,377	-0,189
152,502	-72,478	-0,275	-0,071
153,516	48,005	-0,207	-0,135
154,531	25,607	-0,207	-0,120
155,546	208,612	-0,141	-0,154
156,560	142,518	-0,191	-0,177
157,575	24,501	-0,235	-0,135
158,589	218,759	-0,221	-0,247
159,604	-9,290	-0,366	-0,170
160,619	-14,524	-0,355	-0,159
161,633	172,078	-0,262	-0,263
162,648	-132,468	-0,385	-0,034
163,662	692,697	-0,092	-0,170
164,677	150,255	-0,215	-0,204
165,692	-38,969	-0,165	-0,061
166,706	-25,171	-0,256	-0,105
167,721	-30,662	-0,231	-0,091
168,735	51,172	-0,312	-0,207
169,750	-17,088	-0,176	-0,077
170,764	225,623	-0,199	-0,225
171,779	121,703	-0,207	-0,180
172,794	269,464	-0,223	-0,273
173,808	-57,696	-0,309	-0,094
174,823	359,119	-0,209	-0,292
175,837	259,894	-0,205	-0,247
176,852	-52,562	-0,315	-0,101
177,867	29,948	-0,169	-0,100
178,881	169,040	-0,167	-0,166
179,896	471,120	-0,129	-0,203
180,910	141,603	-0,255	-0,236
181,925	18,922	-0,217	-0,121
182,940	68,234	-0,259	-0,185
183,954	-9,267	-0,296	-0,137
184,969	15,466	-0,267	-0,146
185,983	70,414	-0,133	-0,096
186,998	169,500	-0,232	-0,232
188,013	800,000	-0,099	-0,221
189,027	349,211	-0,149	-0,206
190,042	800,000	-0,079	-0,226
191,056	800,000	-0,077	-0,195
192,071	-82,992	-0,142	0,032
193,086	33,751	-0,181	-0,110
194,100	32,699	-0,239	-0,144
195,115	16,874	-0,244	-0,134
196,129	153,002	-0,248	-0,236
197,144	-4,419	-0,236	-0,113
198,159	-117,190	-0,221	-0,028
199,173	-17,125	-0,295	-0,129
200,188	315,925	-0,144	-0,189
201,202	800,000	-0,056	-0,131
202,217	582,944	-0,140	-0,240
203,232	49,785	-0,284	-0,186
204,246	47,103	-0,292	-0,189
205,261	187,664	-0,235	-0,245
206,275	685,724	-0,174	-0,318
207,290	326,403	-0,129	-0,173
208,304	182,277	-0,192	-0,197
209,319	-29,832	-0,166	-0,066
210,334	104,831	-0,212	-0,174
211,348	161,740	-0,243	-0,236
212,363	150,302	-0,133	-0,125
213,377	800,000	-0,065	-0,142
214,392	439,817	-0,094	-0,143
215,407	37,178	-0,293	-0,180
216,421	-18,293	-0,180	-0,078
217,436	33,412	-0,335	-0,202
218,450	108,430	-0,237	-0,196
219,465	34,445	-0,205	-0,124
220,480	264,619	-0,151	-0,183
221,494	92,163	-0,152	-0,119
222,509	161,026	-0,096	-0,093
223,523	541,101	-0,139	-0,231
224,538	800,000	-0,067	-0,129
225,553	258,046	-0,242	-0,290
226,567	68,387	-0,212	-0,151
227,582	800,000	-0,125	-0,297
228,596	45,874	-0,175	-0,112
229,611	124,458	-0,186	-0,162
230,626	188,242	-0,140	-0,145
231,640	225,927	-0,173	-0,195
232,655	-6,062	-0,225	-0,107
233,669	-48,176	-0,295	-0,098
234,684	106,268	-0,245	-0,202
235,699	463,385	-0,139	-0,216
236,713	9,686	-0,209	-0,110
237,728	-8,234	-0,292	-0,136
238,742	-48,818	-0,219	-0,072
239,757	-82,647	-0,286	-0,064
240,772	142,604	-0,194	-0,179
241,786	196,693	-0,127	-0,135
242,801	91,788	-0,159	-0,124
243,815	540,635	-0,093	-0,154
244,830	-72,105	-0,173	-0,044
245,844	80,154	-0,180	-0,134
246,859	-129,592	-0,105	0,010
247,874	99,086	-0,166	-0,133
248,888	-1,240	-0,156	-0,076
249,903	54,466	-0,232	-0,155
250,917	-115,155	-0,164	0,021
251,932	-166,023	-0,192	-0,006
252,947	-3,036	-0,195	0,094
253,961	46,792	-0,291	-0,187
254,976	180,861	-0,241	-0,246
255,990	204,885	-0,199	-0,214
257,005	567,738	-0,083	-0,141
258,020	188,699	-0,075	0,077
259,034	-200,000	-0,002	-0,012
260,049	800,000	-0,091	-0,209
261,063	32,878	-0,178	-0,106
262,078	511,612	-0,179	-0,290
263,093	-91,666	-0,168	-0,033
264,107	-96,415	-0,130	0,024
265,122	-136,212	-0,228	0,018
266,136	86,200	-0,113	-0,086
267,151	-103,970	-0,101	0,016
268,166	-84,779	-0,281	0,061
269,180	-200,000	0,007	-0,347
270,195	154,291	-0,121	-0,115
271,209	-58,924	-0,187	-0,056
272,224	-17,044	-0,108	-0,047
273,239	142,401	-0,137	-0,126
274,253	188,482	-0,133	-0,138
275,268	32,589	-0,176	-0,105
276,282	79,707	-0,196	-0,145
277,297	11,206	-0,223	-0,118
278,312	177,595	-0,165	-0,166
279,326	415,220	-0,141	-0,208
280,341	-72,305	-0,109	-0,028
281,355	343,324	-0,081	-0,110
282,370	-200,000	-0,075	-0,307
283,384	4,512	-0,235	-0,119
284,399	800,000	-0,089	-0,206
285,414	229,519	-0,173	-0,195
286,428	253,408	-0,179	-0,211
287,443	-91,596	-0,079	-0,015
288,457	-200,000	0,015	-0,051
289,472	-104,431	-0,196	-0,031
290,487	-132,784	-0,076	0,007
291,501	56,498	-0,220	-0,148
292,516	-104,088	-0,226	-0,036
293,530	248,170	-0,127	-0,149
294,545	-182,364	-0,126	0,002
295,560	-102,754	-0,105	-0,017
296,574	130,650	-0,162	-0,143
297,589	41,431	-0,220	-0,137
298,603	-77,736	-0,128	-0,030
299,618	139,187	-0,231	-0,210
300,633	-83,889	-0,184	-0,040
301,647	-140,999	-0,202	0,014
302,662	-13,890	-0,165	-0,073
303,676	-200,000	-0,033	-0,112
304,691	322,380	-0,204	-0,269
305,706	800,000	-0,093	-0,181
306,720	417,903	-0,190	-0,281
307,735	800,000	-0,062	-0,163
308,749	-200,000	-0,044	-0,141
309,764	-6,768	-0,089	-0,041
310,779	800,000	-0,048	-0,109
311,793	800,000	-0,127	-0,292
312,808	108,465	-0,154	-0,127
313,822	-30,146	-0,196	-0,076
314,837	-39,579	-0,208	-0,075
315,852	-200,000	-0,050	-0,184
316,866	18,562	-0,080	-0,044
317,881	579,877	0,027	-0,045
318,895	-200,000	0,007	-0,032
319,910	800,000	-0,066	-0,141
320,925	398,274	-0,098	-0,142
321,939	198,994	-0,106	0,112
322,954	470,431	0,052	-0,080
323,968	38,284	-0,143	0,088
324,983	-39,278	-0,130	0,047
325,997	25,299	-0,190	-0,108
327,012	371,466	-0,109	-0,152
328,027	1,705	-0,143	-0,071
329,041	69,480	-0,099	-0,070
330,056	-82,165	-0,074	-0,017
331,070	-200,000	-0,020	-0,062
332,085	800,000	-0,046	-0,109
333,100	99,091	-0,152	-0,121
334,114	247,227	-0,109	-0,127
335,129	-41,805	-0,159	-0,056
336,143	491,166	0,037	-0,058
337,158	-97,466	-0,087	-0,015
338,173	-200,000	-0,002	-0,104
339,187	13,239	-0,178	-0,095
340,202	62,814	-0,186	-0,128
341,216	-5,636	-0,157	-0,074
342,231	-200,000	-0,022	-0,127
343,246	-41,317	-0,204	-0,072
344,260	-125,298	-0,144	-0,015
345,275	176,649	-0,158	-0,158
346,289	455,508	-0,095	-0,146
347,304	108,440	-0,059	0,048
348,319	-176,791	-0,180	-0,003
349,333	234,446	-0,137	-0,155
350,348	-97,022	-0,167	-0,030
351,362	-68,459	-0,250	-0,066
352,377	57,029	-0,100	-0,067
353,392	-95,997	-0,170	-0,031
354,406	-200,000	0,008	-0,042
355,421	210,941	1313,495	1420,105
356,435	162,414	1474,091	1420,635
