DTS Sentinel unit serial number:	SN410029Multiplexer serial number:	ORYXHardware model number:	OX2-SRSoftware version number:	ORYX F/W v4,00 Oryx Data Collector v3.7.2.0data status	okinstallation	B3 Nyhavnadifferential loss correction	single-endedforward channel	channel 1reverse channel	N/Adate	2023/12/02time	01:12:30forward acquisition time	300,00reverse acquisition time	0,00gamma	499,1914k internal	0,3196k external	0,3196temperature offset calibration	1,0000default loss term (dB/km)	0,3820temperature slope calibration	1,0000multiplexer offset coefficient	1,0000multiplexer slope coefficient	1,0000fibre end	0,00T internal ref (°C)	16,43T ext. ref 1 (°C)	1,93T ext. ref 2 (°C)	1,91length (m)	temperature (°C)	Stokes	anti-Stokes-744,400	276,754	-0,229	-0,298
-743,385	800,000	-0,120	0,299
-742,371	216,846	-0,144	-0,168
-741,356	800,000	0,162	0,365
-740,342	47,229	-0,200	-0,135
-739,327	-200,000	0,083	0,287
-738,312	185,282	-0,280	-0,303
-737,298	-200,000	-0,012	0,259
-736,283	-25,230	-0,308	-0,132
-735,269	800,000	0,155	0,488
-734,254	36,560	-0,270	-0,173
-733,239	263,467	-0,133	0,169
-732,225	-91,972	-0,162	-0,033
-731,210	725,718	0,046	0,089
-730,196	800,000	0,044	-0,106
-729,181	-70,111	-0,182	0,050
-728,167	-200,000	-0,032	0,115
-727,152	-6,581	0,040	0,020
-726,137	38,340	-0,138	-0,089
-725,123	800,000	-0,032	0,075
-724,108	-200,000	0,009	-0,111
-723,094	-103,916	-0,084	0,014
-722,079	800,000	-0,021	-0,062
-721,064	-17,568	0,018	-0,008
-720,050	124,559	0,137	0,126
-719,035	-8,093	-0,037	-0,018
-718,021	297,261	-0,022	0,030
-717,006	159,136	-0,099	0,101
-715,991	83,825	-0,216	-0,172
-714,977	-102,810	-0,152	0,026
-713,962	800,000	0,063	-0,133
-712,948	800,000	-0,014	-0,030
-711,933	-62,461	-0,077	0,023
-710,918	148,238	-0,058	0,057
-709,904	-98,981	0,104	-0,019
-708,889	-200,000	-0,013	-0,069
-707,875	-31,980	-0,050	-0,020
-706,860	-200,000	0,004	-0,150
-705,845	261,959	-0,018	0,022
-704,831	58,044	-0,078	-0,056
-703,816	-200,000	0,013	-0,081
-702,802	-200,000	-0,021	0,073
-701,787	39,364	-0,085	-0,055
-700,772	26,912	-0,096	0,059
-699,758	-171,835	-0,062	0,001
-698,743	-200,000	0,011	-0,056
-697,729	-150,520	0,104	-0,006
-696,714	-173,618	-0,024	0,001
-695,699	-62,691	-0,006	0,002
-694,685	800,000	0,003	-0,008
-693,670	-200,000	-0,013	0,052
-692,656	800,000	-0,030	-0,095
-691,641	448,752	-0,073	0,117
-690,627	53,202	-0,092	0,064
-689,612	800,000	-0,029	-0,069
-688,597	-200,000	0,001	-0,035
-687,583	321,470	-0,066	-0,091
-686,568	109,046	0,071	0,062
-685,554	-154,224	0,122	-0,006
-684,539	236,240	0,039	-0,047
-683,524	-200,000	0,025	0,081
-682,510	-6,901	-0,066	0,033
-681,495	-100,890	0,192	0,034
-680,481	32,043	-0,131	0,082
-679,466	345,282	-0,074	-0,106
-678,451	7,249	-0,016	-0,009
-677,437	-200,000	-0,011	-0,090
-676,422	-46,711	-0,090	0,032
-675,408	-91,422	0,131	-0,027
-674,393	-128,394	-0,130	-0,013
-673,378	-200,000	-0,007	-0,043
-672,364	-88,566	0,082	-0,018
-671,349	-200,000	-0,001	-0,013
-670,335	239,321	0,040	-0,048
-669,320	-127,506	0,073	0,008
-668,305	-200,000	-0,016	0,084
-667,291	66,629	-0,034	0,025
-666,276	-200,000	0,007	0,041
-665,262	-121,233	0,011	-0,001
-664,247	174,715	0,047	-0,049
-663,232	-131,632	0,105	0,010
-662,218	387,233	0,076	0,114
-661,203	-200,000	0,015	0,086
-660,189	-5,050	-0,050	-0,025
-659,174	-200,000	0,018	-0,087
-658,159	-12,464	-0,066	0,031
-657,145	169,201	-0,059	0,061
-656,130	-200,000	0,015	0,085
-655,116	9,941	0,043	0,024
-654,101	576,714	-0,021	0,037
-653,086	47,949	0,103	-0,070
-652,072	-71,953	-0,113	-0,030
-651,057	-163,345	0,112	0,004
-650,043	-200,000	0,007	0,112
-649,028	789,713	0,040	0,080
-648,014	97,759	0,149	0,124
-646,999	-153,757	0,030	-0,001
-645,984	-200,000	0,002	0,060
-644,970	800,000	-0,023	0,049
-643,955	-79,478	0,032	-0,008
-642,941	-200,000	0,001	-0,040
-641,926	800,000	0,062	-0,134
-640,911	191,806	0,074	-0,081
-639,897	800,000	0,028	0,061
-638,882	-19,341	-0,091	0,041
-637,868	-200,000	0,005	-0,141
-636,853	63,318	-0,089	-0,065
-635,838	567,112	-0,092	-0,163
-634,824	-124,597	-0,040	-0,004
-633,809	-200,000	0,009	-0,032
-632,795	-200,000	0,000	-0,038
-631,780	-101,102	-0,129	0,023
-630,765	172,476	0,018	0,018
-629,751	105,243	0,070	0,060
-628,736	-200,000	-0,006	-0,110
-627,722	339,068	0,096	0,136
-626,707	197,015	0,095	-0,105
-625,692	-22,675	-0,160	-0,070
-624,678	800,000	0,072	0,187
-623,663	-33,727	-0,145	0,058
-622,649	327,635	-0,094	0,131
-621,634	727,107	-0,044	-0,086
-620,619	280,631	-0,117	-0,152
-619,605	536,903	0,060	0,104
-618,590	148,928	0,083	0,082
-617,576	21,154	0,125	-0,073
-616,561	-87,006	0,074	-0,016
-615,546	-86,850	-0,114	-0,025
-614,532	-200,000	-0,001	-0,079
-613,517	-200,000	0,016	-0,184
-612,503	18,552	0,026	-0,015
-611,488	-200,000	-0,002	0,132
-610,474	-92,432	-0,077	0,016
-609,459	283,815	0,028	-0,037
-608,444	38,985	-0,082	0,053
-607,430	572,236	-0,109	-0,193
-606,415	-200,000	-0,020	-0,066
-605,401	800,000	0,041	0,113
-604,386	-200,000	0,007	0,029
-603,371	192,021	0,061	0,067
-602,357	-200,000	0,011	0,180
-601,342	618,598	-0,032	0,058
-600,328	-200,000	-0,000	-0,112
-599,313	-200,000	0,008	-0,031
-598,298	400,063	0,054	-0,082
-597,284	55,783	-0,088	0,061
-596,269	-157,788	0,104	-0,004
-595,255	224,988	-0,037	-0,044
-594,240	94,119	-0,036	0,029
-593,225	174,666	-0,029	-0,030
-592,211	800,000	-0,069	-0,161
-591,196	-200,000	-0,007	-0,112
-590,182	-39,842	0,115	0,043
-589,167	-200,000	-0,002	-0,085
-588,152	295,874	-0,033	0,044
-587,138	-106,970	0,050	-0,008
-586,123	800,000	-0,045	-0,091
-585,109	80,957	0,054	-0,042
-584,094	-93,241	-0,086	-0,017
-583,079	357,813	0,063	0,091
-582,065	-200,000	-0,014	0,075
-581,050	68,953	0,150	0,111
-580,036	80,542	-0,116	0,091
-579,021	117,652	-0,073	-0,065
-578,006	74,743	-0,060	-0,046
-576,992	225,096	-0,011	-0,013
-575,977	121,006	0,022	0,020
-574,963	143,963	-0,111	0,107
-573,948	6,586	0,078	0,042
-572,934	-200,000	-0,037	-0,124
-571,919	780,757	-0,077	-0,154
-570,904	800,000	-0,034	0,101
-569,890	-200,000	0,003	0,022
-568,875	163,861	-0,087	0,089
-567,861	-32,858	0,087	0,035
-566,846	335,796	0,115	0,162
-565,831	800,000	-0,082	0,170
-564,817	-34,257	0,166	-0,066
-563,802	100,919	-0,108	-0,091
-562,788	-69,877	0,060	-0,016
-561,773	-81,975	0,105	-0,025
-560,758	800,000	0,059	0,129
-559,744	177,703	-0,046	-0,049
-558,729	-174,607	-0,052	0,001
-557,715	-18,444	0,035	0,016
-556,700	376,502	0,119	-0,176
-555,685	800,000	-0,053	-0,136
-554,671	627,339	-0,012	-0,023
-553,656	-121,373	0,049	0,006
-552,642	-200,000	0,033	0,133
-551,627	-28,756	0,015	-0,006
-550,612	344,045	0,007	0,010
-549,598	-200,000	0,031	0,163
-548,583	-70,551	-0,092	-0,025
-547,569	-200,000	0,023	0,203
-546,554	-93,962	0,062	0,012
-545,539	-36,210	0,052	-0,020
-544,525	106,054	-0,131	-0,112
-543,510	-4,084	0,093	0,046
-542,496	800,000	-0,015	0,044
-541,481	-200,000	-0,026	-0,164
-540,466	-200,000	-0,006	-0,056
-539,452	613,599	0,052	0,094
-538,437	552,446	0,066	0,115
-537,423	254,493	0,060	0,074
-536,408	98,516	-0,045	0,037
-535,393	307,475	-0,098	0,132
-534,379	-200,000	-0,021	0,068
-533,364	-138,735	0,093	0,007
-532,350	-200,000	-0,012	0,069
-531,335	-108,755	0,054	-0,008
-530,321	-61,486	-0,102	-0,031
-529,306	-200,000	0,017	0,066
-528,291	-127,013	-0,116	-0,012
-527,277	150,709	-0,066	0,065
-526,262	-77,473	0,104	0,026
-525,248	800,000	-0,015	0,036
-524,233	34,492	-0,125	0,079
-523,218	50,654	0,068	-0,047
-522,204	-111,795	0,123	0,018
-521,189	136,946	-0,050	0,047
-520,175	188,109	-0,042	-0,045
-519,160	800,000	-0,024	0,052
-518,145	3,784	0,199	0,105
-517,131	-42,025	-0,092	-0,034
-516,116	207,302	0,079	0,089
-515,102	800,000	-0,032	0,079
-514,087	800,000	0,036	-0,082
-513,072	800,000	-0,038	0,090
-512,058	316,440	-0,030	0,040
-511,043	-200,000	0,060	0,196
-510,029	-200,000	-0,025	0,101
-509,014	-200,000	0,050	0,205
-507,999	177,543	-0,036	0,038
-506,985	-200,000	-0,011	0,039
-505,970	769,076	-0,104	-0,206
-504,956	90,615	-0,063	0,051
-503,941	-200,000	-0,007	-0,067
-502,926	578,868	-0,015	0,026
-501,912	372,084	0,094	-0,138
-500,897	284,376	-0,063	-0,082
-499,883	-200,000	0,006	0,098
-498,868	-200,000	0,059	-0,204
-497,853	-147,082	-0,114	-0,007
-496,839	-16,106	-0,032	-0,015
-495,824	-4,888	-0,031	0,016
-494,810	800,000	-0,043	0,132
-493,795	-200,000	-0,007	-0,084
-492,781	-200,000	0,002	-0,090
-491,766	800,000	-0,015	-0,043
-490,751	800,000	-0,034	-0,079
-489,737	-200,000	0,007	-0,031
-488,722	-200,000	0,004	0,120
-487,708	198,685	0,094	0,104
-486,693	263,600	0,039	0,049
-485,678	175,506	-0,081	-0,085
-484,664	-200,000	0,063	-0,216
-483,649	49,353	-0,103	-0,070
-482,635	800,000	-0,053	0,121
-481,620	206,209	0,038	0,043
-480,605	-141,795	0,068	-0,005
-479,591	-200,000	0,004	0,136
-478,576	-153,501	-0,035	-0,002
-477,562	158,731	-0,055	-0,055
-476,547	-19,315	-0,184	-0,082
-475,532	800,000	-0,024	0,065
-474,518	800,000	0,029	-0,063
-473,503	161,480	-0,036	-0,036
-472,489	-96,949	0,033	0,006
-471,474	53,468	-0,068	-0,047
-470,459	373,164	0,082	-0,120
-469,445	800,000	-0,015	-0,032
-468,430	-13,734	-0,111	-0,051
-467,416	345,272	0,051	-0,072
-466,401	194,192	0,064	0,070
-465,386	-200,000	0,040	0,138
-464,372	141,408	-0,037	0,036
-463,357	-200,000	-0,006	-0,170
-462,343	505,715	0,090	-0,150
-461,328	-57,178	-0,087	-0,027
-460,313	93,290	-0,040	-0,033
-459,299	-17,074	0,098	-0,044
-458,284	-200,000	-0,003	0,038
-457,270	444,119	-0,042	0,067
-456,255	105,566	-0,093	0,079
-455,241	-145,105	0,143	-0,009
-454,226	204,395	-0,073	0,082
-453,211	103,075	0,040	-0,034
-452,197	713,630	-0,025	0,047
-451,182	409,517	-0,014	-0,022
-450,168	-80,470	0,112	-0,027
-449,153	321,793	-0,037	0,051
-448,138	74,507	-0,061	-0,046
-447,124	33,938	-0,026	0,016
-446,109	688,787	0,025	-0,048
-445,095	315,881	0,091	0,123
-444,080	-200,000	0,039	0,223
-443,065	-200,000	-0,006	0,089
-442,051	60,780	0,044	0,031
-441,036	-66,221	-0,242	0,069
-440,022	-200,000	-0,019	-0,145
-439,007	-111,772	-0,041	-0,006
-437,992	-200,000	0,015	0,064
-436,978	-200,000	-0,002	-0,014
-435,963	-82,287	-0,060	-0,014
-434,949	-200,000	0,064	-0,212
-433,934	-11,257	0,046	-0,022
-432,919	-55,393	-0,069	-0,022
-431,905	800,000	-0,033	-0,090
-430,890	-28,553	0,044	0,018
-429,876	800,000	0,040	0,125
-428,861	99,187	0,153	0,127
-427,846	9,660	0,084	-0,046
-426,832	3,023	-0,108	-0,056
-425,817	375,637	0,120	-0,176
-424,803	236,466	0,103	0,123
-423,788	-9,953	0,022	-0,011
-422,773	0,772	0,035	-0,018
-421,759	-200,000	0,010	-0,035
-420,744	405,131	0,070	-0,106
-419,730	21,226	-0,068	0,040
-418,715	800,000	0,003	-0,007
-417,701	-101,012	-0,042	0,007
-416,686	-87,736	-0,074	-0,016
-415,671	290,544	-0,025	-0,032
-414,657	-200,000	-0,006	0,126
-413,642	-29,253	-0,106	-0,043
-412,628	-200,000	-0,021	-0,085
-411,613	261,177	0,042	-0,053
-410,598	-200,000	0,006	-0,049
-409,584	253,985	-0,078	-0,096
-408,569	38,067	-0,050	0,032
-407,555	-200,000	-0,008	0,039
-406,540	-110,810	0,186	0,027
-405,525	-120,573	-0,041	0,005
-404,511	-158,276	0,028	0,001
-403,496	-140,605	0,069	-0,005
-402,482	-56,643	-0,065	-0,021
-401,467	-153,908	0,073	-0,004
-400,452	151,167	0,102	0,100
-399,438	-42,021	-0,109	0,040
-398,423	800,000	0,051	-0,152
-397,409	343,214	-0,071	-0,101
-396,394	-108,509	0,036	0,005
-395,379	545,464	-0,039	-0,066
-394,365	-200,000	-0,024	-0,250
-393,350	800,000	0,030	0,083
-392,336	64,435	-0,050	0,036
-391,321	-150,472	0,080	0,004
-390,306	-38,306	0,091	0,034
-389,292	-200,000	-0,009	0,102
-388,277	-13,303	-0,105	0,049
-387,263	800,000	0,075	0,178
-386,248	-200,000	0,032	0,107
-385,233	-200,000	0,001	-0,080
-384,219	550,805	0,019	-0,034
-383,204	-128,972	0,135	-0,013
-382,190	-182,313	-0,218	-0,003
-381,175	120,934	0,153	-0,137
-380,160	-200,000	-0,032	-0,204
-379,146	-118,639	-0,050	0,006
-378,131	-83,080	-0,014	0,003
-377,117	-200,000	0,001	-0,126
-376,102	196,239	-0,038	-0,041
-375,088	59,103	-0,018	-0,013
-374,073	646,855	0,070	-0,130
-373,058	800,000	0,038	0,101
-372,044	-200,000	0,031	0,205
-371,029	26,786	0,076	0,045
-370,015	-200,000	0,022	-0,074
-369,000	-200,000	-0,003	0,011
-367,985	-40,516	-0,095	-0,035
-366,971	-200,000	0,036	-0,146
-365,956	522,175	-0,096	0,162
-364,942	197,919	-0,084	0,092
-363,927	-200,000	-0,011	0,044
-362,912	133,413	0,105	0,097
-361,898	17,774	-0,106	0,061
-360,883	-142,656	-0,064	-0,004
-359,869	-33,714	-0,094	-0,037
-358,854	591,456	0,062	0,111
-357,839	50,386	0,145	0,098
-356,825	39,175	-0,057	-0,036
-355,810	-200,000	-0,010	-0,044
-354,796	85,736	0,065	-0,052
-353,781	730,161	-0,037	0,072
-352,766	-200,000	0,006	-0,071
-351,752	142,867	0,047	0,045
-350,737	-200,000	0,018	-0,073
-349,723	-15,355	-0,033	0,015
-348,708	216,044	-0,042	-0,048
-347,693	132,248	-0,070	-0,065
-346,679	103,272	-0,142	0,120
-345,664	350,629	0,031	-0,044
-344,650	-176,309	-0,079	0,001
-343,635	-124,936	-0,055	0,006
-342,620	447,122	0,102	0,162
-341,606	64,110	-0,076	0,055
-340,591	13,938	-0,089	0,049
-339,577	24,622	-0,048	-0,029
-338,562	800,000	-0,061	-0,149
-337,548	391,758	0,039	-0,058
-336,533	126,514	0,062	0,056
-335,518	84,378	-0,072	-0,056
-334,504	37,836	-0,038	0,024
-333,489	800,000	0,031	0,086
-332,475	146,885	-0,062	-0,060
-331,460	160,111	-0,136	-0,136
-330,445	800,000	-0,020	-0,052
-329,431	63,188	-0,043	-0,031
-328,416	152,852	0,081	0,080
-327,402	-200,000	0,004	-0,096
-326,387	-200,000	0,002	0,023
-325,372	311,853	0,073	0,099
-324,358	140,257	-0,081	0,077
-323,343	211,638	-0,072	-0,081
-322,329	800,000	-0,010	-0,031
-321,314	91,534	0,059	0,048
-320,299	170,818	0,057	-0,059
-319,285	-200,000	0,012	0,045
-318,270	282,980	-0,093	-0,120
-317,256	-200,000	0,006	0,075
-316,241	-200,000	-0,005	0,025
-315,226	17,239	0,089	-0,051
-314,212	-9,906	0,087	-0,041
-313,197	163,683	-0,087	-0,088
-312,183	800,000	0,024	0,066
-311,168	-30,591	0,178	0,072
-310,153	-200,000	-0,002	-0,067
-309,139	-200,000	-0,031	0,104
-308,124	-111,517	-0,072	-0,010
-307,110	-200,000	0,010	-0,051
-306,095	126,255	-0,020	0,018
-305,080	64,055	0,048	-0,035
-304,066	-200,000	0,002	-0,096
-303,051	22,137	-0,103	0,060
-302,037	-118,399	-0,106	-0,013
-301,022	-25,570	0,079	-0,033
-300,008	263,773	-0,062	-0,077
-298,993	162,222	0,048	0,048
-297,978	573,661	0,044	-0,077
-296,964	13,686	0,080	-0,044
-295,949	800,000	-0,071	0,164
-294,935	-200,000	0,044	-0,174
-293,920	288,870	0,075	-0,097
-292,905	760,831	0,048	0,093
-291,891	-112,840	-0,044	0,006
-290,876	-53,892	-0,023	0,008
-289,862	-50,178	-0,091	0,031
-288,847	-142,615	-0,124	-0,009
-287,832	-200,000	-0,030	-0,110
-286,818	-86,264	0,098	0,021
-285,803	23,527	-0,045	0,027
-284,789	124,857	-0,057	0,052
-283,774	225,462	0,112	0,130
-282,759	-200,000	0,010	0,058
-281,745	125,794	0,119	-0,108
-280,730	103,461	-0,108	-0,091
-279,716	21,286	-0,097	0,056
-278,701	-14,036	0,086	-0,039
-277,686	-73,772	0,209	0,054
-276,672	4,688	0,058	0,031
-275,657	180,686	-0,088	-0,092
-274,643	100,308	-0,055	0,046
-273,628	187,232	-0,040	0,043
-272,613	21,372	-0,060	-0,035
-271,599	-10,843	-0,038	0,018
-270,584	800,000	-0,034	0,079
-269,570	303,613	0,070	-0,092
-268,555	-23,261	0,067	0,028
-267,540	-200,000	-0,002	-0,008
-266,526	800,000	0,046	-0,132
-265,511	62,978	0,027	0,019
-264,497	-117,069	0,174	0,022
-263,482	167,832	-0,099	0,101
-262,467	-200,000	-0,013	0,090
-261,453	392,808	0,008	0,013
-260,438	-200,000	-0,031	0,113
-259,424	22,290	-0,009	-0,005
-258,409	54,857	0,114	0,078
-257,395	-200,000	0,011	0,202
-256,380	56,372	0,077	0,053
-255,365	54,955	-0,105	-0,073
-254,351	366,568	-0,050	-0,072
-253,336	-62,923	0,051	-0,015
-252,322	-73,066	-0,130	-0,034
-251,307	-83,869	0,080	0,018
-250,292	-200,000	-0,013	-0,082
-249,278	-114,583	0,073	0,010
-248,263	379,284	-0,035	0,052
-247,249	628,403	-0,023	-0,041
-246,234	593,747	-0,045	-0,080
-245,219	657,604	-0,044	-0,082
-244,205	94,122	-0,123	-0,100
-243,190	800,000	0,031	-0,085
-242,176	623,175	0,049	0,088
-241,161	280,871	0,045	0,057
-240,146	-23,497	0,071	0,030
-239,132	-148,210	-0,161	0,009
-238,117	-58,829	-0,051	-0,016
-237,103	-52,936	0,161	0,053
-236,088	-52,464	0,150	0,049
-235,073	-59,468	0,138	0,042
-234,059	4,319	-0,108	0,056
-233,044	100,019	-0,018	-0,015
-232,030	-200,000	-0,018	-0,118
-231,015	551,639	0,050	-0,086
-230,000	-151,643	-0,093	0,005
-228,986	-200,000	0,004	0,039
-227,971	-200,000	0,028	0,160
-226,957	474,038	0,040	0,064
-225,942	-15,724	0,030	0,014
-224,927	25,440	-0,083	-0,049
-223,913	-21,023	-0,114	-0,050
-222,898	-94,197	-0,097	-0,019
-221,884	-2,310	-0,085	0,043
-220,869	-200,000	0,037	-0,132
-219,855	800,000	-0,021	0,055
-218,840	-200,000	0,002	0,059
-217,825	76,652	-0,121	-0,092
-216,811	-200,000	-0,021	-0,102
-215,796	-200,000	-0,005	0,040
-214,782	800,000	-0,017	0,049
-213,767	706,340	0,041	-0,077
-212,752	-163,432	0,137	0,005
-211,738	8,627	-0,127	-0,068
-210,723	-2,627	0,153	-0,076
-209,709	96,108	-0,032	0,026
-208,694	224,844	0,048	-0,056
-207,679	-149,444	0,226	0,013
-206,665	464,585	0,037	-0,059
-205,650	-200,000	-0,040	0,139
-204,636	124,607	0,059	0,053
-203,621	800,000	-0,024	0,073
-202,606	800,000	0,019	-0,052
-201,592	-200,000	-0,002	0,057
-200,577	75,427	-0,063	-0,047
-199,563	707,365	0,057	0,108
-198,548	764,693	0,046	0,089
-197,533	800,000	0,041	-0,114
-196,519	-89,984	0,084	0,017
-195,504	800,000	-0,048	0,115
-194,490	-69,788	-0,093	0,025
-193,475	-200,000	0,021	-0,102
-192,460	9,017	-0,061	-0,033
-191,446	-88,694	0,070	0,015
-190,431	48,431	0,020	0,013
-189,417	-110,261	0,059	0,009
-188,402	-70,160	-0,156	-0,042
-187,387	800,000	0,007	0,022
-186,373	800,000	-0,010	0,029
-185,358	800,000	0,036	0,081
-184,344	133,040	-0,065	0,060
-183,329	-122,044	0,180	0,021
-182,315	76,200	-0,049	0,037
-181,300	154,845	-0,038	-0,037
-180,285	-37,766	0,008	0,003
-179,271	-95,023	-0,107	-0,020
-178,256	384,071	-0,013	-0,019
-177,242	438,708	0,097	-0,152
-176,227	-200,000	0,001	-0,038
-175,212	-8,035	0,183	0,087
-174,198	-17,738	-0,015	0,007
-173,183	722,250	0,010	0,019
-172,169	-10,524	0,131	0,061
-171,154	576,407	0,049	-0,086
-170,139	800,000	-0,075	-0,151
-169,125	-136,715	0,217	0,018
-168,110	-200,000	-0,025	0,118
-167,096	12,724	0,030	0,016
-166,081	-61,511	0,197	-0,059
-165,066	2,907	-0,272	-0,140
-164,052	327,984	0,022	0,030
-163,037	-200,000	-0,017	0,072
-162,023	-30,695	0,100	0,040
-161,008	468,122	0,085	-0,136
-159,993	362,094	0,012	0,018
-158,979	169,715	0,067	-0,068
-157,964	-24,082	-0,057	0,024
-156,950	249,269	-0,029	-0,035
-155,935	607,043	-0,089	-0,159
-154,920	-92,361	0,067	0,013
-153,906	-38,437	-0,041	0,015
-152,891	-137,824	-0,094	-0,007
-151,877	800,000	0,015	-0,042
-150,862	40,586	-0,126	-0,081
-149,847	87,360	-0,157	-0,123
-148,833	-200,000	0,001	-0,029
-147,818	158,015	0,125	0,124
-146,804	800,000	-0,043	0,111
-145,789	37,417	-0,060	0,038
-144,775	201,047	0,070	-0,076
-143,760	-200,000	0,042	-0,141
-142,745	14,519	-0,160	-0,089
-141,731	-88,067	0,119	-0,025
-140,716	-200,000	-0,022	0,108
-139,702	-56,114	0,090	0,028
-138,687	32,033	-0,016	-0,010
-137,672	-200,000	-0,010	0,118
-136,658	112,765	-0,098	0,084
-135,643	-200,000	-0,005	-0,040
-134,629	336,243	0,113	-0,156
-133,614	-85,545	-0,170	0,037
-132,599	-200,000	0,038	0,136
-131,585	-15,532	0,089	-0,040
-130,570	-67,602	-0,071	0,020
-129,556	124,212	-0,081	0,073
-128,541	800,000	-0,083	-0,167
-127,526	729,371	0,063	0,121
-126,512	202,653	0,018	0,020
-125,497	800,000	0,047	0,116
-124,483	-109,669	0,106	0,016
-123,468	792,830	-0,070	-0,138
-122,453	-107,685	-0,123	-0,019
-121,439	-30,577	-0,078	-0,031
-120,424	-2,403	-0,158	-0,079
-119,410	-24,415	0,046	-0,019
-118,395	-19,965	0,135	0,059
-117,380	-200,000	0,030	0,104
-116,366	134,168	-0,095	-0,087
-115,351	-37,115	0,084	-0,032
-114,337	138,327	-0,066	-0,061
-113,322	-78,973	0,076	-0,018
-112,307	-200,000	-0,010	-0,066
-111,293	-165,554	0,104	0,003
-110,278	-200,000	0,011	0,066
-109,264	212,088	0,049	0,055
-108,249	800,000	-0,043	-0,115
-107,234	186,101	-0,024	-0,025
-106,220	38,473	-0,047	-0,030
-105,205	-140,408	0,186	-0,014
-104,191	-104,847	0,009	-0,001
-103,176	-90,396	-0,103	0,021
-102,162	108,207	0,051	0,043
-101,147	800,000	0,013	0,042
-100,132	-200,000	0,042	-0,138
-99,118	107,814	-0,043	0,037
-98,103	-89,913	-0,097	0,020
-97,089	205,512	0,023	-0,026
-96,074	194,889	0,034	0,037
-95,059	-86,151	-0,041	-0,009
-94,045	751,957	0,042	-0,081
-93,030	-79,795	0,137	-0,033
-92,016	800,000	0,007	-0,018
-91,001	-118,545	-0,072	-0,009
-89,986	800,000	0,051	-0,135
-88,972	478,558	0,098	0,157
-87,957	-200,000	-0,024	0,075
-86,943	-56,827	-0,031	0,010
-85,928	74,015	0,055	-0,041
-84,913	-118,468	-0,070	-0,009
-83,899	-200,000	0,027	-0,093
-82,884	-200,000	-0,035	-0,112
-81,870	-200,000	0,027	0,105
-80,855	-200,000	0,014	0,047
-79,840	800,000	-0,056	0,130
-78,826	-74,921	-0,022	0,006
-77,811	172,695	-0,038	-0,039
-76,797	-200,000	0,006	-0,049
-75,782	800,000	0,059	-0,183
-74,767	-49,318	0,083	-0,028
-73,753	8,254	0,078	-0,041
-72,738	-120,789	-0,037	-0,004
-71,724	800,000	0,015	0,040
-70,709	800,000	0,025	0,052
-69,694	389,481	0,110	-0,162
-68,680	405,476	-0,100	0,150
-67,665	36,644	0,080	0,050
-66,651	-200,000	0,002	0,102
-65,636	-200,000	-0,028	0,091
-64,622	435,127	-0,010	0,015
-63,607	21,309	-0,110	-0,064
-62,592	368,765	0,031	0,045
-61,578	800,000	-0,066	0,175
-60,563	366,451	0,073	0,105
-59,549	800,000	-0,081	0,185
-58,534	-71,219	-1,328	-0,351
-57,519	341,929	-1,642	-2,284
-56,505	-200,000	-0,536	-4,398
-55,490	6,449	1,025	0,539
-54,476	800,000	4,790	11,361
-53,461	-200,000	17,308	270,378
-52,446	800,000	716,236	2185,823
-51,432	552,399	1630,533	2788,468
-50,417	81,248	1655,592	1267,213
-49,403	24,262	1529,931	894,007
-48,388	18,273	1453,483	820,501
-47,373	18,450	1442,784	815,280
-46,359	18,153	1433,711	808,705
-45,344	16,602	1428,737	798,513
-44,330	16,493	1427,041	797,014
-43,315	16,499	1425,341	796,059
-42,300	16,527	1423,659	795,222
-41,286	16,600	1422,485	794,879
-40,271	16,563	1421,186	793,949
-39,257	16,490	1419,948	792,880
-38,242	16,570	1418,721	792,541
-37,227	16,545	1417,542	791,733
-36,213	16,521	1416,333	790,913
-35,198	16,550	1415,036	790,295
-34,184	16,557	1414,135	789,793
-33,169	16,492	1412,984	788,814
-32,154	16,549	1411,685	788,325
-31,140	16,546	1410,490	787,612
-30,125	16,553	1409,466	787,044
-29,111	16,584	1407,994	786,335
-28,096	16,510	1407,248	785,538
-27,082	16,455	1406,047	784,583
-26,067	16,468	1404,824	783,927
-25,052	16,462	1403,794	783,292
-24,038	16,442	1402,929	782,686
-23,023	16,475	1401,685	782,114
-22,009	16,419	1400,858	781,364
-20,994	16,365	1399,989	780,598
-19,979	16,381	1399,072	780,130
-18,965	16,377	1398,051	779,510
-17,950	16,372	1397,147	778,951
-16,936	16,389	1396,131	778,432
-15,921	16,385	1394,742	777,611
-14,906	16,336	1393,809	776,830
-13,892	16,387	1392,964	776,565
-12,877	16,351	1392,248	775,968
-11,863	16,387	1391,227	775,534
-10,848	16,338	1390,378	774,807
-9,833	16,384	1389,198	774,327
-8,819	16,319	1388,429	773,572
-7,804	16,277	1387,451	772,799
-6,790	16,315	1386,228	772,264
-5,775	16,251	1385,400	771,477
-4,760	16,276	1384,666	771,155
-3,746	16,278	1383,869	770,689
-2,731	16,256	1383,026	770,086
-1,717	16,272	1382,086	769,606
-0,702	16,257	1380,129	768,416
0,313	20,162	1302,087	742,928
1,327	36,748	708,006	442,449
2,342	56,810	125,807	86,702
3,356	2,576	16,657	8,524
4,371	14,193	3,103	1,708
5,386	-55,253	0,662	0,210
6,400	800,000	-0,076	0,162
7,415	-42,780	-0,385	-0,138
8,429	-173,165	-0,355	-0,008
9,444	467,182	-0,296	-0,472
10,459	100,267	-0,229	-0,188
11,473	61,461	-0,307	-0,216
12,488	32,495	-0,281	-0,172
13,502	89,981	-0,211	-0,167
14,517	103,100	-0,338	-0,280
15,531	76,210	-0,369	-0,276
16,546	66,494	-0,305	-0,219
17,561	60,551	-0,328	-0,230
18,575	140,128	-0,233	-0,218
19,590	484,253	-0,105	-0,169
20,604	131,760	-0,331	-0,301
21,619	-9,541	-0,500	-0,235
22,634	96,242	-0,399	-0,323
23,648	-60,496	-0,488	-0,146
24,663	-53,811	-0,345	-0,111
25,677	-42,380	-0,447	-0,161
26,692	33,300	-0,285	-0,174
27,707	310,092	-0,210	-0,279
28,721	116,999	-0,281	-0,244
29,736	66,943	-0,352	-0,253
30,750	171,796	-0,436	-0,443
31,765	154,196	-0,339	-0,329
32,780	94,958	-0,437	-0,351
33,794	31,836	-0,363	-0,220
34,809	-7,993	-0,399	-0,189
35,823	791,186	-0,130	-0,254
36,838	136,449	-0,349	-0,321
37,853	-53,252	-0,387	-0,125
38,867	7,959	-0,351	-0,185
39,882	-79,758	-0,525	-0,124
40,896	-0,288	-0,240	-0,120
41,911	-2,222	-0,345	-0,170
42,926	3,123	-0,460	-0,235
43,940	40,054	-0,399	-0,252
44,955	56,934	-0,398	-0,274
45,969	4,124	-0,419	-0,216
46,984	-8,161	-0,462	-0,219
47,999	65,908	-0,257	-0,184
49,013	144,509	-0,344	-0,324
50,028	185,386	-0,228	-0,239
51,042	5,086	-0,432	-0,224
52,057	88,467	-0,479	-0,375
53,071	104,708	-0,289	-0,240
54,086	168,350	-0,334	-0,336
55,101	-9,418	-0,371	-0,174
56,115	16,525	-0,376	-0,209
57,130	76,882	-0,317	-0,237
58,144	-2,995	-0,526	-0,258
59,159	156,149	-0,345	-0,336
60,174	78,695	-0,323	-0,244
61,188	25,890	-0,322	-0,189
62,203	28,681	-0,266	-0,158
63,217	-53,382	-0,312	-0,100
64,232	55,460	-0,304	-0,207
65,247	-61,927	-0,317	-0,093
66,261	161,706	-0,261	-0,257
67,276	119,421	-0,315	-0,274
68,290	115,731	-0,367	-0,316
69,305	-61,342	-0,291	-0,086
70,320	23,033	-0,367	-0,212
71,334	33,685	-0,286	-0,175
72,349	800,000	-0,102	-0,293
73,363	-12,049	-0,363	-0,167
74,378	23,941	-0,321	-0,186
75,393	58,460	-0,255	-0,176
76,407	72,608	-0,255	-0,187
77,422	-18,983	-0,291	-0,127
78,436	270,159	-0,224	-0,277
79,451	282,681	-0,245	-0,310
80,466	319,133	-0,306	-0,409
81,480	72,019	-0,462	-0,338
82,495	37,450	-0,283	-0,176
83,509	0,791	-0,366	-0,184
84,524	153,038	-0,281	-0,271
85,539	-93,200	-0,227	-0,044
86,553	-53,066	-0,303	-0,098
87,568	40,889	-0,372	-0,235
88,582	575,266	-0,213	-0,367
89,597	35,363	-0,390	-0,240
90,611	5,280	-0,242	-0,125
91,626	-41,571	-0,238	0,086
92,641	-99,205	-0,282	-0,050
93,655	3,370	-0,230	-0,117
94,670	291,381	-0,281	-0,360
95,684	108,139	-0,321	-0,269
96,699	-2,632	-0,344	-0,168
97,714	280,313	-0,227	-0,286
98,728	36,982	-0,255	-0,158
99,743	-32,199	-0,248	-0,097
100,757	-10,434	-0,309	-0,143
101,772	154,315	-0,231	-0,223
102,787	155,104	-0,258	-0,249
103,801	44,256	-0,280	-0,180
104,816	4,405	-0,274	-0,140
105,830	485,180	-0,235	-0,377
106,845	-92,481	-0,233	-0,045
107,860	161,711	-0,234	-0,230
108,874	73,572	-0,196	-0,144
109,889	42,654	-0,213	-0,136
110,903	31,147	-0,305	-0,183
111,918	58,236	-0,301	-0,207
112,933	61,030	-0,278	-0,193
113,947	89,635	-0,209	-0,163
114,962	41,874	-0,193	-0,123
115,976	25,225	-0,331	-0,192
116,991	98,873	-0,224	-0,182
118,006	42,787	-0,241	-0,154
119,020	5,560	-0,303	-0,157
120,035	-159,701	-0,195	-0,007
121,049	-80,581	-0,238	-0,055
122,064	284,023	-0,053	-0,067
123,079	107,105	-0,285	-0,237
124,093	231,556	-0,180	-0,208
125,108	198,122	-0,197	-0,212
126,122	-6,518	-0,294	-0,140
127,137	-30,707	-0,251	-0,099
128,151	282,269	-0,199	-0,250
129,166	-86,781	-0,262	-0,056
130,181	86,231	-0,182	-0,141
131,195	115,989	-0,222	-0,190
132,210	17,573	-0,294	-0,163
133,224	163,389	-0,337	-0,332
134,239	14,533	-0,123	-0,067
135,254	-95,348	-0,201	-0,037
136,268	800,000	-0,050	-0,132
137,283	-86,720	-0,396	-0,084
138,297	476,631	-0,146	-0,233
139,312	35,837	-0,331	-0,203
140,327	309,135	-0,152	-0,199
141,341	99,384	-0,241	-0,195
142,356	29,925	-0,270	-0,161
143,370	33,872	-0,294	-0,179
144,385	15,799	-0,254	-0,140
145,400	403,958	-0,195	-0,288
146,414	210,678	-0,169	-0,186
147,429	29,143	-0,281	-0,167
148,443	46,576	-0,168	-0,109
149,458	163,103	-0,111	0,109
150,473	-15,631	-0,286	-0,127
151,487	42,165	-0,263	-0,167
152,502	103,676	-0,132	-0,108
153,516	171,130	-0,218	-0,219
154,531	251,679	-0,147	-0,175
155,546	86,076	-0,211	-0,162
156,560	800,000	-0,141	-0,305
157,575	29,690	-0,305	-0,181
158,589	-39,128	-0,359	-0,131
159,604	336,433	-0,126	-0,172
160,619	59,489	-0,262	-0,180
161,633	-28,572	-0,321	-0,129
162,648	-37,373	-0,219	-0,081
163,662	100,264	-0,162	-0,131
164,677	-47,620	-0,338	-0,114
165,692	-153,601	-0,326	-0,015
166,706	163,916	-0,294	-0,289
167,721	147,040	-0,263	-0,248
168,735	-42,658	-0,295	-0,104
169,750	326,472	-0,131	-0,176
170,764	-19,083	-0,205	-0,089
171,779	59,825	-0,088	-0,061
172,794	75,594	-0,165	-0,121
173,808	89,259	-0,248	-0,193
174,823	-22,274	-0,233	-0,098
175,837	50,717	-0,227	-0,149
176,852	-63,297	-0,289	-0,082
177,867	-102,040	-0,105	-0,018
178,881	-80,183	-0,288	-0,067
179,896	-146,497	-0,249	0,015
180,910	-139,211	-0,161	0,012
181,925	249,110	-0,165	-0,195
182,940	-19,083	-0,275	-0,119
183,954	-38,356	-0,232	-0,085
184,969	29,080	-0,277	-0,164
185,983	-36,698	-0,237	-0,088
186,998	287,914	-0,133	-0,168
188,013	-77,974	-0,214	-0,051
189,027	608,464	-0,111	-0,193
190,042	361,398	-0,147	-0,206
191,056	96,167	-0,276	-0,220
192,071	155,420	-0,209	-0,200
193,086	9,789	-0,287	-0,151
194,100	-52,378	-0,279	-0,089
195,115	495,787	-0,101	-0,163
196,129	-30,452	-0,319	-0,125
197,144	-117,617	-0,231	-0,029
198,159	-26,541	-0,251	-0,102
199,173	147,346	-0,154	-0,145
200,188	348,590	-0,098	-0,135
201,202	50,186	-0,218	-0,143
202,217	102,764	-0,194	-0,158
203,232	-116,844	-0,307	-0,039
204,246	-62,229	-0,282	-0,081
205,261	225,419	-0,165	-0,186
206,275	92,193	-0,161	-0,126
207,290	-200,000	0,005	-0,177
208,304	42,994	-0,155	-0,098
209,319	-85,324	-0,083	0,018
210,334	287,727	-0,154	-0,194
211,348	223,435	-0,114	-0,128
212,363	46,770	-0,149	-0,096
213,377	49,331	-0,195	-0,127
214,392	53,112	-0,197	-0,131
215,407	-200,000	-0,056	-0,209
216,421	-12,197	-0,106	-0,048
217,436	73,577	-0,159	-0,116
218,450	-45,265	-0,273	-0,094
219,465	487,318	-0,134	-0,213
220,480	100,355	-0,217	-0,175
221,494	86,036	-0,158	-0,121
222,509	-21,265	-0,184	-0,078
223,523	790,740	-0,086	-0,165
224,538	68,928	-0,140	-0,100
225,553	-78,846	-0,250	-0,059
226,567	202,236	-0,255	-0,274
227,582	-113,025	-0,240	-0,033
228,596	-200,000	0,025	-0,092
229,611	-51,336	-0,125	-0,040
230,626	-27,964	-0,134	-0,054
231,640	-110,832	-0,210	-0,030
232,655	-80,766	-0,278	-0,064
233,669	260,371	-0,215	-0,259
234,684	207,600	-0,182	-0,198
235,699	30,058	-0,174	-0,103
236,713	102,824	-0,135	-0,110
237,728	-58,025	-0,241	-0,073
238,742	225,127	-0,210	-0,236
239,757	5,685	-0,242	-0,124
240,772	595,544	-0,147	-0,253
241,786	800,000	-0,098	-0,234
242,801	13,911	-0,199	-0,107
243,815	-200,000	-0,021	-0,084
244,830	800,000	-0,027	-0,071
245,844	-56,603	-0,080	0,024
246,859	27,496	-0,109	-0,063
247,874	792,766	-0,128	-0,245
248,888	19,342	-0,240	-0,133
249,903	494,222	-0,094	-0,150
250,917	593,797	-0,147	-0,253
251,932	-118,510	-0,140	-0,017
252,947	36,827	-0,198	-0,121
253,961	-199,593	-0,178	-0,001
254,976	90,242	-0,244	-0,189
255,990	138,099	-0,191	-0,173
257,005	125,725	-0,092	-0,081
258,020	25,782	-0,185	-0,106
259,034	800,000	-0,039	-0,103
260,049	-7,883	-0,180	-0,084
261,063	70,869	-0,195	-0,139
262,078	-34,451	-0,265	-0,100
263,093	-42,742	-0,238	-0,083
264,107	258,073	-0,176	-0,210
265,122	384,151	-0,170	-0,243
266,136	662,678	-0,040	-0,072
267,151	-200,000	-0,073	-0,261
268,166	-62,765	-0,223	-0,064
269,180	-4,695	-0,237	-0,113
270,195	5,808	-0,122	-0,062
271,209	40,580	-0,145	-0,090
272,224	-41,870	-0,080	-0,028
273,239	800,000	-0,093	-0,192
274,253	-16,130	-0,206	-0,090
275,268	258,306	-0,142	-0,169
276,282	23,104	-0,225	-0,128
277,297	242,591	-0,163	-0,189
278,312	90,329	-0,198	-0,153
279,326	-26,697	-0,163	-0,066
280,341	-163,666	-0,117	-0,004
281,355	288,403	-0,056	0,071
282,370	506,568	-0,077	-0,125
283,384	-154,469	-0,221	-0,010
284,399	105,949	-0,231	-0,189
285,414	490,858	-0,182	-0,290
286,428	115,110	-0,128	-0,108
287,443	800,000	-0,052	-0,142
288,457	180,449	-0,137	-0,139
289,472	153,339	-0,177	-0,168
290,487	13,848	-0,251	-0,134
291,501	-52,478	-0,198	0,063
292,516	117,424	-0,256	-0,218
293,530	-158,829	-0,112	-0,004
294,545	66,004	-0,111	0,077
295,560	508,392	-0,054	-0,087
296,574	-24,508	-0,075	-0,031
297,589	-92,077	-0,159	-0,031
298,603	257,980	-0,155	-0,184
299,618	800,000	-0,121	-0,261
300,633	367,794	-0,093	-0,131
301,647	-14,055	-0,169	-0,075
302,662	-84,520	-0,159	-0,034
303,676	-16,981	-0,219	-0,095
304,691	-191,637	-0,190	-0,001
305,706	357,879	-0,136	-0,188
306,720	-40,359	-0,220	-0,078
307,735	-39,766	-0,295	-0,106
308,749	128,564	-0,122	-0,107
309,764	-59,232	-0,144	0,043
310,779	167,046	-0,167	-0,163
311,793	281,636	-0,147	-0,182
312,808	235,181	-0,147	-0,167
313,822	-147,526	-0,110	-0,006
314,837	21,412	-0,148	-0,083
315,852	291,969	-0,068	-0,086
316,866	478,997	-0,081	-0,127
317,881	254,580	-0,121	-0,142
318,895	-108,746	-0,110	-0,016
319,910	-67,457	-0,288	-0,077
320,925	-58,035	-0,142	-0,042
321,939	54,953	-0,186	-0,123
322,954	101,263	-0,154	-0,124
323,968	251,354	-0,142	-0,166
324,983	-200,000	-0,025	-0,097
325,997	800,000	-0,038	-0,113
327,012	-200,000	-0,008	-0,053
328,027	-45,722	-0,176	-0,059
329,041	-200,000	-0,004	-0,125
330,056	-76,488	-0,152	-0,037
331,070	-13,242	-0,110	-0,049
332,085	-21,047	-0,088	-0,037
333,100	85,350	-0,094	-0,071
334,114	-43,907	-0,260	-0,090
335,129	-80,459	-0,171	-0,039
336,143	262,058	-0,086	0,103
337,158	-55,267	-0,098	-0,030
338,173	-200,000	-0,024	-0,086
339,187	167,746	-0,083	-0,081
340,202	-11,522	-0,178	-0,080
341,216	800,000	-0,088	-0,242
342,231	-89,219	-0,142	-0,029
343,246	-200,000	-0,052	-0,189
344,260	-26,523	-0,136	-0,054
345,275	130,219	-0,084	-0,074
346,289	686,945	-0,086	-0,155
347,304	105,048	-0,041	-0,033
348,319	-200,000	-0,010	-0,032
349,333	261,225	-0,105	-0,126
350,348	32,050	-0,140	-0,083
351,362	348,857	-0,049	0,067
352,377	-7,993	-0,165	-0,076
353,392	85,958	-0,214	-0,162
354,406	-200,000	-0,011	-0,196
355,421	209,603	1312,703	1415,654
356,435	161,334	1473,192	1416,185
