DTS Sentinel unit serial number:	SN410029Multiplexer serial number:	ORYXHardware model number:	OX2-SRSoftware version number:	ORYX F/W v4,00 Oryx Data Collector v3.7.2.0data status	okinstallation	B3 Nyhavnadifferential loss correction	single-endedforward channel	channel 1reverse channel	N/Adate	2023/12/04time	03:02:30forward acquisition time	300,00reverse acquisition time	0,00gamma	499,1914k internal	0,3205k external	0,3205temperature offset calibration	1,0000default loss term (dB/km)	0,3820temperature slope calibration	1,0000multiplexer offset coefficient	1,0000multiplexer slope coefficient	1,0000fibre end	0,00T internal ref (°C)	12,19T ext. ref 1 (°C)	-3,02T ext. ref 2 (°C)	-3,04length (m)	temperature (°C)	Stokes	anti-Stokes-744,400	197,559	-0,237	-0,263
-743,385	-200,000	0,045	0,183
-742,371	157,096	-0,138	-0,139
-741,356	-200,000	0,056	0,285
-740,342	15,490	-0,238	-0,135
-739,327	-200,000	0,093	0,310
-738,312	172,488	-0,137	-0,144
-737,298	800,000	-0,082	0,221
-736,283	110,539	-0,201	-0,175
-735,269	-200,000	0,080	0,309
-734,254	244,213	-0,199	-0,243
-733,239	-78,609	-0,250	0,062
-732,225	-200,000	-0,010	-0,243
-731,210	38,514	0,131	0,085
-730,196	-62,080	-0,043	0,013
-729,181	-200,000	0,006	0,050
-728,167	-155,557	0,158	0,007
-727,152	-128,720	-0,146	0,015
-726,137	576,764	0,021	-0,038
-725,123	-200,000	-0,019	-0,071
-724,108	800,000	-0,058	-0,138
-723,094	-40,933	-0,063	0,024
-722,079	157,136	-0,088	-0,088
-721,064	-37,961	0,012	0,004
-720,050	190,079	-0,058	-0,063
-719,035	472,795	-0,043	-0,070
-718,021	-200,000	-0,029	0,106
-717,006	269,594	-0,055	-0,071
-715,991	673,745	-0,051	-0,096
-714,977	800,000	-0,038	-0,083
-713,962	-200,000	-0,018	-0,085
-712,948	-200,000	0,032	0,148
-711,933	-200,000	0,001	0,055
-710,918	27,506	0,022	-0,013
-709,904	-115,193	-0,139	-0,019
-708,889	76,616	-0,115	-0,088
-707,875	-59,231	-0,109	-0,034
-706,860	-61,108	-0,053	-0,016
-705,845	116,324	0,059	0,053
-704,831	400,266	0,062	-0,094
-703,816	-147,977	-0,074	-0,004
-702,802	-200,000	0,020	-0,075
-701,787	-75,163	-0,110	-0,028
-700,772	318,896	-0,023	-0,032
-699,758	-92,698	-0,114	0,023
-698,743	-200,000	-0,038	0,129
-697,729	800,000	-0,021	-0,058
-696,714	-159,440	0,065	-0,003
-695,699	-43,358	-0,064	-0,024
-694,685	-200,000	0,008	-0,054
-693,670	231,466	-0,028	-0,034
-692,656	-128,555	-0,142	-0,014
-691,641	-33,810	0,067	-0,027
-690,627	-200,000	-0,002	0,117
-689,612	205,862	-0,002	-0,003
-688,597	800,000	0,022	-0,065
-687,583	-173,762	0,116	-0,002
-686,568	743,128	0,037	-0,073
-685,554	76,863	-0,087	-0,067
-684,539	183,902	0,080	0,085
-683,524	690,637	0,013	0,026
-682,510	-200,000	0,001	-0,086
-681,495	-17,310	-0,110	-0,050
-680,481	166,852	-0,070	-0,072
-679,466	122,490	-0,115	-0,104
-678,451	800,000	0,033	-0,072
-677,437	-200,000	-0,015	-0,072
-676,422	718,491	0,076	0,147
-675,408	-200,000	-0,012	-0,105
-674,393	-127,977	-0,033	-0,003
-673,378	800,000	-0,020	0,045
-672,364	-90,032	-0,048	-0,010
-671,349	-76,835	0,068	-0,017
-670,335	-128,870	-0,164	-0,017
-669,320	-200,000	-0,014	0,091
-668,305	-200,000	-0,004	0,158
-667,291	-30,528	0,041	0,017
-666,276	21,353	0,151	-0,089
-665,262	140,593	-0,116	-0,111
-664,247	800,000	0,027	0,086
-663,232	134,729	-0,163	0,153
-662,218	-200,000	-0,005	-0,155
-661,203	800,000	0,056	0,120
-660,189	24,949	0,095	-0,057
-659,174	-163,790	-0,197	-0,007
-658,159	161,167	-0,048	-0,049
-657,145	5,036	0,044	-0,023
-656,130	457,546	0,037	-0,059
-655,116	800,000	-0,020	0,043
-654,101	376,936	-0,089	0,133
-653,086	-70,329	0,062	0,017
-652,072	-65,693	0,114	-0,033
-651,057	-52,544	-0,104	0,034
-650,043	-126,005	-0,055	-0,006
-649,028	15,919	-0,011	0,006
-648,014	-176,112	-0,006	-0,000
-646,999	72,427	0,140	0,105
-645,984	-151,084	0,099	0,005
-644,970	189,409	0,071	-0,077
-643,955	739,918	-0,084	-0,165
-642,941	269,247	-0,066	-0,084
-641,926	596,752	0,039	-0,070
-640,911	800,000	-0,028	-0,068
-639,897	-200,000	-0,010	0,046
-638,882	-200,000	-0,006	-0,103
-637,868	-121,738	0,091	0,011
-636,853	-200,000	-0,051	-0,207
-635,838	341,017	-0,084	-0,120
-634,824	-200,000	-0,011	-0,064
-633,809	-46,729	0,145	0,051
-632,795	-200,000	0,006	0,129
-631,780	-34,936	0,064	-0,025
-630,765	-45,913	-0,125	-0,044
-629,751	564,136	0,071	-0,124
-628,736	-25,459	-0,037	0,016
-627,722	137,963	-0,088	0,084
-626,707	-112,169	0,038	-0,005
-625,692	-14,750	-0,143	-0,066
-624,678	115,475	0,036	-0,031
-623,663	129,039	0,090	-0,083
-622,649	-200,000	-0,006	-0,023
-621,634	-35,908	0,072	0,028
-620,619	598,302	-0,054	-0,098
-619,605	456,072	0,047	-0,076
-618,590	63,443	0,081	-0,059
-617,576	-114,368	-0,056	-0,008
-616,561	503,146	0,027	-0,045
-615,546	-36,414	-0,123	-0,048
-614,532	38,112	-0,157	-0,101
-613,517	-111,455	-0,075	0,011
-612,503	140,355	-0,041	-0,039
-611,488	-140,373	0,045	-0,003
-610,474	-171,810	0,104	0,002
-609,459	-200,000	0,024	-0,095
-608,444	800,000	-0,033	-0,101
-607,430	171,489	-0,067	0,069
-606,415	461,995	-0,030	0,049
-605,401	176,662	-0,066	-0,070
-604,386	104,218	0,065	0,055
-603,371	-147,657	-0,027	0,002
-602,357	-200,000	0,004	0,018
-601,342	-200,000	-0,010	-0,156
-600,328	-200,000	0,014	0,088
-599,313	70,415	-0,207	0,155
-598,298	496,152	0,042	-0,070
-597,284	132,671	-0,094	0,088
-596,269	-92,571	-0,081	-0,016
-595,255	-200,000	0,004	-0,054
-594,240	-200,000	-0,033	-0,186
-593,225	800,000	-0,047	-0,109
-592,211	35,068	-0,039	0,025
-591,196	-200,000	-0,021	0,115
-590,182	-154,646	0,120	0,006
-589,167	212,459	0,075	0,085
-588,152	-90,394	-0,111	0,023
-587,138	130,528	-0,029	-0,027
-586,123	-79,591	0,099	-0,024
-585,109	-54,538	-0,152	0,049
-584,094	113,561	0,047	-0,041
-583,079	472,650	0,071	-0,117
-582,065	-200,000	0,009	0,050
-581,050	-200,000	0,048	0,156
-580,036	67,277	0,054	-0,040
-579,021	367,230	-0,097	-0,141
-578,006	130,725	-0,100	-0,092
-576,992	-35,843	-0,171	-0,067
-575,977	-15,491	0,094	-0,043
-574,963	-200,000	-0,003	0,044
-573,948	-173,567	-0,119	0,003
-572,934	780,484	0,043	-0,085
-571,919	-200,000	0,003	-0,032
-570,904	-200,000	0,015	-0,209
-569,890	800,000	-0,037	0,098
-568,875	-46,637	0,163	0,057
-567,861	-65,772	0,039	-0,011
-566,846	265,748	-0,036	0,046
-565,831	-200,000	0,006	-0,063
-564,817	800,000	-0,019	-0,040
-563,802	14,574	-0,128	0,072
-562,788	23,280	0,118	-0,070
-561,773	-86,429	-0,166	0,037
-560,758	-134,392	-0,040	0,003
-559,744	800,000	-0,097	0,215
-558,729	-2,594	-0,129	0,065
-557,715	800,000	-0,040	-0,094
-556,700	261,472	-0,093	-0,116
-555,685	-200,000	0,001	-0,164
-554,671	36,132	0,077	-0,049
-553,656	230,671	-0,064	0,075
-552,642	-41,974	0,061	0,023
-551,627	576,521	0,024	-0,042
-550,612	-200,000	0,036	-0,144
-549,598	-109,645	0,099	0,015
-548,583	-76,019	-0,149	0,038
-547,569	-75,974	0,165	0,042
-546,554	104,202	-0,110	0,093
-545,539	-76,418	0,128	-0,032
-544,525	-5,109	0,083	0,041
-543,510	325,988	-0,066	-0,091
-542,496	-159,738	-0,124	0,005
-541,481	800,000	0,017	-0,045
-540,466	322,677	-0,017	-0,024
-539,452	-200,000	-0,025	-0,135
-538,437	800,000	0,077	0,159
-537,423	-15,314	-0,059	-0,027
-536,408	320,332	0,080	-0,110
-535,393	800,000	-0,027	-0,079
-534,379	178,728	-0,034	-0,035
-533,364	-200,000	-0,009	-0,162
-532,350	-123,539	0,106	-0,012
-531,335	163,773	-0,104	0,105
-530,321	-52,480	0,010	-0,003
-529,306	-21,403	0,147	-0,065
-528,291	-82,083	-0,148	0,034
-527,277	439,204	-0,029	-0,046
-526,262	-51,826	0,086	0,029
-525,248	688,959	0,050	-0,094
-524,233	-102,885	0,124	-0,021
-523,218	800,000	-0,007	0,021
-522,204	-49,468	0,099	0,034
-521,189	2,234	-0,124	-0,064
-520,175	800,000	0,019	-0,042
-519,160	800,000	-0,041	-0,122
-518,145	240,291	-0,026	0,031
-517,131	-10,846	0,128	0,061
-516,116	-200,000	0,013	-0,074
-515,102	103,838	0,046	-0,039
-514,087	-113,703	0,062	0,009
-513,072	283,267	-0,019	-0,025
-512,058	-12,050	-0,083	0,039
-511,043	-53,442	-0,044	-0,014
-510,029	226,157	-0,021	-0,024
-509,014	233,394	-0,073	-0,087
-507,999	800,000	-0,027	-0,060
-506,985	-27,938	-0,123	0,051
-505,970	793,486	-0,039	-0,077
-504,956	166,884	0,031	0,032
-503,941	800,000	-0,031	0,090
-502,926	-1,282	0,078	0,040
-501,912	115,287	-0,102	0,090
-500,897	-200,000	0,000	-0,049
-499,883	231,925	-0,054	0,064
-498,868	-97,494	-0,159	-0,029
-497,853	46,776	0,073	0,048
-496,839	-132,741	-0,146	-0,013
-495,824	800,000	-0,009	0,022
-494,810	154,701	0,122	-0,120
-493,795	-200,000	0,008	0,054
-492,781	-9,462	0,044	-0,021
-491,766	-200,000	-0,009	-0,099
-490,751	41,847	-0,121	0,079
-489,737	175,713	0,032	0,034
-488,722	192,601	0,088	0,096
-487,708	-200,000	-0,011	-0,049
-486,693	149,638	-0,014	-0,014
-485,678	502,780	0,072	0,121
-484,664	-180,407	-0,106	0,002
-483,649	328,910	0,080	-0,111
-482,635	289,112	-0,072	0,094
-481,620	-2,726	-0,080	-0,040
-480,605	111,603	0,047	-0,040
-479,591	77,007	0,136	0,104
-478,576	344,168	-0,025	0,035
-477,562	226,047	-0,053	-0,061
-476,547	-200,000	0,014	-0,132
-475,532	220,198	-0,035	-0,040
-474,518	230,982	0,165	0,195
-473,503	-200,000	-0,029	0,107
-472,489	800,000	-0,003	-0,007
-471,474	-200,000	0,005	0,031
-470,459	212,823	-0,055	-0,063
-469,445	-200,000	-0,004	-0,057
-468,430	326,613	0,049	-0,068
-467,416	800,000	0,023	0,053
-466,401	292,233	0,067	0,088
-465,386	117,190	0,101	0,090
-464,372	800,000	-0,044	0,124
-463,357	155,296	-0,064	-0,063
-462,343	45,734	-0,032	0,021
-461,328	-200,000	-0,051	0,195
-460,313	-200,000	0,005	0,090
-459,299	-200,000	0,013	0,062
-458,284	-119,394	0,154	-0,019
-457,270	-200,000	0,013	0,050
-456,255	36,323	-0,115	0,072
-455,241	800,000	-0,039	-0,089
-454,226	800,000	0,017	-0,053
-453,211	-46,853	0,073	-0,025
-452,197	-200,000	-0,027	0,135
-451,182	-13,381	-0,025	0,011
-450,168	-200,000	-0,005	-0,023
-449,153	-52,423	-0,054	0,018
-448,138	102,477	-0,083	-0,070
-447,124	87,626	0,165	0,131
-446,109	-100,774	-0,134	-0,024
-445,095	302,027	-0,082	0,110
-444,080	-105,115	0,140	0,023
-443,065	-129,716	0,074	-0,007
-442,051	-200,000	-0,021	-0,072
-441,036	180,647	-0,117	-0,124
-440,022	-200,000	-0,024	-0,099
-439,007	800,000	-0,012	0,033
-437,992	79,937	0,124	0,096
-436,978	15,444	0,119	0,067
-435,963	-168,127	0,068	0,002
-434,949	800,000	-0,030	0,086
-433,934	-165,032	-0,065	-0,002
-432,919	15,739	-0,121	0,068
-431,905	128,462	0,133	0,122
-430,890	154,348	-0,040	0,040
-429,876	-200,000	0,002	0,077
-428,861	800,000	0,060	0,120
-427,846	179,436	-0,070	0,073
-426,832	8,861	-0,055	0,030
-425,817	86,959	0,045	0,036
-424,803	-200,000	-0,005	0,021
-423,788	-200,000	0,024	0,122
-422,773	-110,296	-0,093	0,014
-421,759	137,844	0,022	-0,021
-420,744	-200,000	0,020	0,117
-419,730	-200,000	0,016	0,058
-418,715	486,689	-0,077	-0,127
-417,701	-200,000	-0,003	0,099
-416,686	-144,900	0,002	0,000
-415,671	99,326	0,073	-0,061
-414,657	-200,000	-0,004	-0,112
-413,642	-200,000	-0,006	0,041
-412,628	800,000	-0,035	0,106
-411,613	374,210	0,049	-0,072
-410,598	31,477	0,106	0,065
-409,584	-200,000	0,002	0,014
-408,569	-167,859	0,137	0,004
-407,555	84,580	-0,183	0,144
-406,540	-50,619	0,062	-0,021
-405,525	474,755	-0,038	0,062
-404,511	-200,000	0,036	-0,140
-403,496	-70,781	-0,060	0,016
-402,482	-200,000	-0,015	-0,145
-401,467	10,515	-0,049	-0,027
-400,452	-168,334	0,020	-0,001
-399,438	-200,000	-0,028	0,128
-398,423	-64,097	-0,105	0,030
-397,409	56,838	-0,109	-0,076
-396,394	148,367	0,030	0,029
-395,379	243,174	-0,028	0,033
-394,365	800,000	-0,014	-0,033
-393,350	-200,000	-0,003	-0,024
-392,336	-46,119	-0,028	0,010
-391,321	-85,756	0,165	0,036
-390,306	268,261	-0,092	-0,115
-389,292	800,000	-0,048	-0,111
-388,277	-119,293	0,066	0,008
-387,263	-108,449	0,039	0,006
-386,248	800,000	0,047	0,103
-385,233	148,358	0,073	0,070
-384,219	-200,000	0,039	0,155
-383,204	37,099	0,055	-0,035
-382,190	-200,000	-0,012	-0,119
-381,175	-78,737	0,021	0,005
-380,160	-120,033	0,030	0,004
-379,146	-9,330	0,082	0,039
-378,131	-200,000	0,024	0,151
-377,117	572,556	-0,118	0,206
-376,102	800,000	-0,032	-0,073
-375,088	373,281	-0,083	-0,121
-374,073	-22,912	0,087	0,037
-373,058	20,799	0,046	-0,026
-372,044	199,626	-0,029	-0,032
-371,029	-109,980	0,062	-0,009
-370,015	24,134	0,109	0,064
-369,000	-200,000	0,008	-0,115
-367,985	800,000	-0,028	-0,076
-366,971	-200,000	-0,007	-0,148
-365,956	168,818	-0,034	0,034
-364,942	11,045	0,111	-0,060
-363,927	-200,000	-0,001	-0,030
-362,912	800,000	0,057	0,120
-361,898	-200,000	0,007	0,116
-360,883	-91,041	-0,106	-0,022
-359,869	192,528	-0,100	-0,108
-358,854	439,489	-0,060	0,095
-357,839	800,000	0,016	-0,044
-356,825	158,133	-0,088	0,088
-355,810	-107,326	-0,227	0,035
-354,796	-145,530	0,041	0,003
-353,781	-117,361	-0,088	-0,011
-352,766	-200,000	-0,011	0,048
-351,752	-12,596	0,106	-0,049
-350,737	-38,066	0,085	-0,032
-349,723	267,968	-0,055	0,069
-348,708	-166,891	-0,134	-0,004
-347,693	-90,815	0,104	0,021
-346,679	-200,000	-0,007	-0,078
-345,664	800,000	0,041	-0,096
-344,650	93,777	-0,054	0,044
-343,635	31,131	-0,059	-0,036
-342,620	32,634	0,050	-0,031
-341,606	800,000	-0,056	0,140
-340,591	-200,000	0,019	0,075
-339,577	117,740	0,003	-0,003
-338,562	-16,345	0,140	-0,063
-337,548	-60,043	0,081	-0,025
-336,533	74,630	0,018	-0,013
-335,518	800,000	0,047	0,096
-334,504	800,000	-0,019	0,056
-333,489	179,933	0,140	0,147
-332,475	800,000	0,015	0,038
-331,460	-168,151	0,215	-0,006
-330,445	-200,000	-0,025	-0,083
-329,431	800,000	-0,023	0,046
-328,416	240,441	0,038	0,045
-327,402	325,247	-0,054	-0,073
-326,387	126,503	-0,036	0,033
-325,372	800,000	-0,014	0,040
-324,358	379,209	-0,035	-0,051
-323,343	-200,000	-0,001	-0,146
-322,329	-200,000	0,009	-0,031
-321,314	-200,000	-0,011	0,161
-320,299	-200,000	-0,010	0,183
-319,285	-177,937	0,090	0,002
-318,270	112,398	0,057	-0,049
-317,256	-200,000	-0,012	-0,110
-316,241	-179,308	0,023	0,000
-315,226	800,000	0,023	0,058
-314,212	800,000	-0,027	0,073
-313,197	-200,000	-0,019	0,075
-312,183	800,000	0,046	0,140
-311,168	1,230	-0,161	-0,082
-310,153	-55,212	0,020	-0,006
-309,139	-12,407	-0,037	-0,017
-308,124	218,873	-0,062	0,071
-307,110	-189,593	0,094	0,001
-306,095	-85,583	-0,027	-0,006
-305,080	800,000	0,025	0,062
-304,066	800,000	0,037	0,101
-303,051	-200,000	0,013	-0,102
-302,037	-200,000	-0,002	-0,077
-301,022	77,431	-0,055	-0,042
-300,008	380,789	0,061	0,089
-298,993	281,928	0,097	-0,124
-297,978	-119,001	-0,032	-0,004
-296,964	-72,466	-0,180	-0,047
-295,949	800,000	0,073	-0,155
-294,935	-200,000	-0,059	-0,229
-293,920	-103,970	-0,053	0,009
-292,905	-27,169	0,068	-0,028
-291,891	6,478	0,073	0,038
-290,876	81,136	0,059	-0,045
-289,862	-69,319	0,108	-0,029
-288,847	-127,618	-0,075	-0,008
-287,832	260,611	0,083	-0,103
-286,818	-79,704	-0,015	0,004
-285,803	-65,079	0,041	0,012
-284,789	800,000	-0,020	0,040
-283,774	-200,000	-0,007	0,033
-282,759	-200,000	0,013	0,049
-281,745	-4,129	-0,047	0,023
-280,730	-200,000	-0,035	0,125
-279,716	-18,814	0,076	0,034
-278,701	-127,769	0,104	0,011
-277,686	280,287	0,032	0,041
-276,672	800,000	0,052	0,103
-275,657	-19,201	-0,134	-0,059
-274,643	-200,000	0,006	-0,026
-273,628	222,417	-0,081	0,093
-272,613	-154,817	-0,074	0,003
-271,599	-200,000	0,016	0,106
-270,584	422,760	0,019	-0,029
-269,570	-200,000	0,018	-0,085
-268,555	-34,956	-0,068	-0,026
-267,540	800,000	-0,056	-0,118
-266,526	65,490	0,030	-0,021
-265,511	20,441	-0,123	-0,071
-264,497	-40,468	0,026	-0,010
-263,482	800,000	0,026	0,065
-262,467	800,000	0,033	0,075
-261,453	311,319	-0,028	-0,038
-260,438	546,008	-0,024	0,041
-259,424	-58,733	-0,098	0,030
-258,409	-11,121	0,085	-0,040
-257,395	-33,892	0,041	0,016
-256,380	330,962	-0,037	-0,051
-255,365	-200,000	-0,001	-0,036
-254,351	-94,280	-0,050	-0,010
-253,336	800,000	-0,024	-0,058
-252,322	211,545	0,070	-0,079
-251,307	524,504	0,044	0,075
-250,292	82,533	-0,004	-0,003
-249,278	248,827	0,049	-0,060
-248,263	-56,311	0,079	-0,025
-247,249	620,404	0,053	0,095
-246,234	800,000	0,022	-0,053
-245,219	800,000	-0,067	-0,153
-244,205	47,500	0,046	0,031
-243,190	800,000	-0,036	-0,091
-242,176	-90,385	0,142	0,029
-241,161	132,711	0,038	0,035
-240,146	-200,000	-0,011	-0,127
-239,132	-200,000	0,011	-0,090
-238,117	-200,000	0,011	0,102
-237,103	-88,502	-0,153	0,032
-236,088	-146,883	0,059	-0,004
-235,073	302,985	0,058	0,076
-234,059	-107,626	-0,037	-0,006
-233,044	519,238	0,059	0,098
-232,030	119,869	-0,041	0,036
-231,015	-200,000	0,001	0,009
-230,000	-26,637	-0,010	0,004
-228,986	15,412	-0,115	0,064
-227,971	17,254	0,090	-0,051
-226,957	77,656	-0,040	0,030
-225,942	-200,000	-0,038	0,199
-224,927	118,821	-0,043	-0,038
-223,913	61,107	-0,072	-0,051
-222,898	-94,169	-0,091	0,018
-221,884	270,841	-0,094	-0,118
-220,869	137,201	0,060	-0,056
-219,855	800,000	0,042	0,088
-218,840	460,544	-0,065	0,103
-217,825	-48,215	-0,082	0,028
-216,811	-23,696	0,008	-0,003
-215,796	37,172	-0,107	0,068
-214,782	-200,000	0,016	0,076
-213,767	800,000	0,047	0,104
-212,752	-200,000	0,012	0,057
-211,738	-200,000	-0,020	0,123
-210,723	654,110	-0,024	0,044
-209,709	753,595	0,024	-0,047
-208,694	352,978	0,061	0,087
-207,679	-200,000	-0,048	-0,188
-206,665	800,000	-0,018	0,053
-205,650	-95,885	0,091	0,017
-204,636	1,471	-0,084	0,043
-203,621	800,000	0,015	0,036
-202,606	800,000	-0,049	0,115
-201,592	452,931	-0,047	-0,075
-200,577	-200,000	0,018	-0,109
-199,563	-200,000	-0,003	-0,029
-198,548	283,761	-0,032	0,041
-197,533	676,524	0,048	-0,090
-196,519	142,532	0,037	0,035
-195,504	173,519	-0,087	0,090
-194,490	800,000	0,004	0,011
-193,475	-200,000	0,001	-0,164
-192,460	150,340	0,018	0,017
-191,446	109,803	0,045	0,039
-190,431	-153,524	0,196	-0,009
-189,417	233,411	0,042	0,050
-188,402	-180,024	0,097	0,001
-187,387	-26,611	-0,100	-0,042
-186,373	30,785	-0,030	0,018
-185,358	560,213	-0,054	0,094
-184,344	-178,031	0,179	0,003
-183,329	-200,000	0,036	0,124
-182,315	-58,938	-0,078	0,024
-181,300	800,000	0,091	0,217
-180,285	-87,859	-0,192	-0,041
-179,271	-200,000	0,009	-0,074
-178,256	-31,177	0,104	-0,041
-177,242	9,254	0,081	-0,043
-176,227	800,000	0,020	0,044
-175,212	800,000	0,053	-0,110
-174,198	-78,141	0,090	0,022
-173,183	-6,324	-0,007	-0,003
-172,169	37,918	-0,087	0,055
-171,154	165,874	-0,083	0,083
-170,139	-105,539	0,115	0,018
-169,125	83,362	0,073	0,056
-168,110	-200,000	0,019	-0,134
-167,096	800,000	-0,040	-0,083
-166,081	800,000	0,010	0,021
-165,066	-200,000	-0,018	-0,087
-164,052	-61,898	0,052	0,015
-163,037	800,000	0,045	-0,101
-162,023	-200,000	0,001	-0,073
-161,008	800,000	0,034	0,079
-159,993	345,714	0,058	0,081
-158,979	133,601	-0,014	0,013
-157,964	-62,145	0,051	-0,015
-156,950	-12,802	-0,022	-0,010
-155,935	-165,978	0,110	0,003
-154,920	-188,334	0,112	-0,001
-153,906	-200,000	-0,001	-0,062
-152,891	-200,000	-0,016	0,107
-151,877	-200,000	-0,018	-0,095
-150,862	-185,305	0,060	0,001
-149,847	-79,635	-0,202	-0,048
-148,833	28,271	0,070	-0,042
-147,818	412,126	0,054	0,082
-146,804	-153,908	0,104	-0,005
-145,789	800,000	-0,036	-0,086
-144,775	88,055	-0,129	0,101
-143,760	-174,801	-0,062	0,001
-142,745	64,645	-0,185	-0,132
-141,731	-115,554	0,137	0,018
-140,716	800,000	0,035	-0,102
-139,702	800,000	-0,030	-0,087
-138,687	183,755	0,088	0,093
-137,672	178,744	-0,064	0,066
-136,658	-200,000	-0,028	0,124
-135,643	-200,000	-0,010	-0,178
-134,629	-200,000	-0,043	-0,135
-133,614	-168,628	0,150	-0,004
-132,599	-40,058	-0,072	0,027
-131,585	-103,333	-0,041	0,007
-130,570	24,700	-0,110	-0,065
-129,556	-200,000	-0,012	-0,133
-128,541	-73,776	-0,071	-0,018
-127,526	163,326	-0,109	-0,109
-126,512	418,690	0,081	0,124
-125,497	526,987	0,066	-0,110
-124,483	106,786	0,060	0,050
-123,468	33,543	0,128	-0,078
-122,453	800,000	-0,038	-0,103
-121,439	573,320	-0,072	-0,126
-120,424	19,004	-0,078	-0,044
-119,410	413,036	-0,059	-0,089
-118,395	110,981	0,166	0,141
-117,380	-15,003	-0,092	-0,042
-116,366	-101,066	0,043	0,007
-115,351	-200,000	0,019	-0,122
-114,337	101,602	0,092	-0,076
-113,322	533,139	0,056	-0,094
-112,307	-16,383	-0,164	-0,073
-111,293	-200,000	-0,007	0,076
-110,278	412,224	-0,078	0,118
-109,264	177,711	-0,050	-0,051
-108,249	-136,164	-0,123	0,010
-107,234	2,966	-0,072	0,037
-106,220	28,331	0,073	-0,044
-105,205	35,552	0,062	0,039
-104,191	800,000	0,025	-0,067
-103,176	-200,000	-0,000	0,089
-102,162	84,491	0,025	0,019
-101,147	-200,000	-0,004	-0,077
-100,132	-3,364	-0,099	0,049
-99,118	-59,229	-0,029	0,009
-98,103	-200,000	-0,003	0,079
-97,089	-161,498	0,049	0,002
-96,074	800,000	-0,036	-0,082
-95,059	800,000	0,020	0,057
-94,045	190,907	0,039	-0,042
-93,030	546,360	-0,062	-0,105
-92,016	-188,128	-0,160	-0,001
-91,001	56,911	0,103	-0,071
-89,986	730,702	0,040	0,076
-88,972	622,673	0,046	0,082
-87,957	-90,395	0,063	-0,013
-86,943	106,136	-0,080	-0,067
-85,928	45,945	0,033	0,022
-84,913	149,252	-0,064	-0,061
-83,899	6,535	-0,032	0,017
-82,884	-150,307	0,062	-0,003
-81,870	800,000	-0,022	0,054
-80,855	800,000	-0,032	0,073
-79,840	-122,743	0,058	-0,007
-78,826	-84,542	-0,114	0,025
-77,811	204,723	-0,056	-0,062
-76,797	-25,856	-0,084	-0,035
-75,782	-50,420	0,120	-0,040
-74,767	800,000	0,021	-0,065
-73,753	800,000	0,037	0,078
-72,738	162,854	-0,053	0,052
-71,724	-115,481	-0,029	0,004
-70,709	-200,000	-0,003	0,092
-69,694	800,000	-0,045	0,089
-68,680	-77,187	0,055	-0,013
-67,665	-200,000	0,039	0,166
-66,651	223,642	0,004	-0,005
-65,636	-200,000	0,011	0,037
-64,622	-112,596	-0,077	0,011
-63,607	112,318	-0,132	-0,113
-62,592	90,231	-0,045	-0,036
-61,578	91,858	-0,055	0,043
-60,563	10,667	0,157	0,085
-59,549	800,000	0,052	0,137
-58,534	-28,931	-1,798	-0,727
-57,519	421,462	-1,349	-2,053
-56,505	-200,000	-0,527	-4,590
-55,490	419,088	0,905	1,374
-54,476	800,000	4,963	11,241
-53,461	-200,000	20,113	324,545
-52,446	800,000	752,788	2313,513
-51,432	548,358	1663,969	2829,202
-50,417	74,985	1672,107	1244,313
-49,403	20,066	1544,865	878,821
-48,388	14,025	1467,416	805,367
-47,373	18,375	1457,223	820,753
-46,359	16,346	1446,929	805,202
-45,344	12,319	1442,503	783,418
-44,330	12,233	1440,647	781,967
-43,315	12,274	1438,879	781,175
-42,300	12,240	1437,093	780,008
-41,286	12,287	1436,014	779,617
-40,271	12,208	1434,732	778,512
-39,257	12,252	1433,494	778,021
-38,242	12,307	1431,960	777,417
-37,227	12,244	1430,922	776,524
-36,213	12,241	1429,675	775,803
-35,198	12,251	1428,472	775,167
-34,184	12,343	1427,560	775,080
-33,169	12,272	1426,022	773,875
-32,154	12,284	1425,113	773,410
-31,140	12,332	1423,722	772,850
-30,125	12,337	1422,676	772,275
-29,111	12,293	1421,518	771,406
-28,096	12,311	1420,550	770,937
-27,082	12,232	1419,423	769,923
-26,067	12,224	1418,343	769,266
-25,052	12,211	1417,109	768,506
-24,038	12,188	1416,171	767,858
-23,023	12,211	1415,037	767,322
-22,009	12,212	1414,063	766,770
-20,994	12,203	1413,145	766,200
-19,979	12,203	1412,124	765,613
-18,965	12,137	1411,528	764,951
-17,950	12,166	1410,667	764,590
-16,936	12,180	1409,725	764,115
-15,921	12,125	1408,640	763,240
-14,906	12,158	1407,698	762,852
-13,892	12,137	1406,732	762,202
-12,877	12,086	1405,945	761,504
-11,863	12,094	1404,927	760,961
-10,848	12,071	1404,162	760,410
-9,833	12,078	1403,113	759,844
-8,819	11,992	1402,542	759,106
-7,804	12,012	1401,484	758,593
-6,790	12,078	1400,393	758,281
-5,775	12,043	1399,409	757,554
-4,760	12,045	1398,403	756,991
-3,746	12,023	1397,526	756,384
-2,731	12,033	1396,621	755,907
-1,717	12,005	1395,830	755,320
-0,702	12,030	1393,974	754,401
0,313	16,065	1308,573	726,787
1,327	32,434	699,394	426,037
2,342	50,541	121,891	81,347
3,356	2,380	16,427	8,372
4,371	5,660	3,247	1,690
5,386	-12,416	0,611	0,281
6,400	-200,000	-0,090	0,367
7,415	-171,736	-0,262	-0,006
8,429	3,384	-0,191	-0,098
9,444	-3,965	-0,403	-0,197
10,459	349,736	-0,259	-0,363
11,473	28,387	-0,290	-0,173
12,488	-111,417	-0,306	-0,043
13,502	152,342	-0,205	-0,198
14,517	53,639	-0,427	-0,289
15,531	104,010	-0,378	-0,313
16,546	82,963	-0,261	-0,200
17,561	386,390	-0,252	-0,368
18,575	33,592	-0,251	-0,154
19,590	119,158	-0,252	-0,220
20,604	15,644	-0,292	-0,162
21,619	-28,420	-0,439	-0,178
22,634	82,036	-0,447	-0,341
23,648	76,918	-0,445	-0,333
24,663	26,878	-0,368	-0,217
25,677	89,357	-0,356	-0,280
26,692	116,333	-0,330	-0,285
27,707	94,435	-0,324	-0,259
28,721	187,021	-0,269	-0,283
29,736	55,199	-0,439	-0,299
30,750	115,066	-0,383	-0,330
31,765	48,796	-0,308	-0,203
32,780	20,851	-0,299	-0,170
33,794	108,256	-0,346	-0,291
34,809	167,779	-0,303	-0,304
35,823	20,754	-0,473	-0,269
36,838	82,261	-0,334	-0,255
37,853	101,257	-0,423	-0,347
38,867	-11,931	-0,445	-0,205
39,882	92,760	-0,327	-0,260
40,896	31,137	-0,311	-0,188
41,911	324,634	-0,261	-0,352
42,926	7,824	-0,511	-0,269
43,940	-65,738	-0,418	-0,117
44,955	314,486	-0,254	-0,337
45,969	281,917	-0,276	-0,349
46,984	84,535	-0,469	-0,361
47,999	800,000	-0,130	-0,289
49,013	198,144	-0,233	-0,251
50,028	119,466	-0,282	-0,246
51,042	-25,890	-0,372	-0,154
52,057	119,818	-0,381	-0,332
53,071	284,758	-0,263	-0,334
54,086	90,658	-0,342	-0,269
55,101	-76,667	-0,360	-0,088
56,115	-22,035	-0,205	-0,087
57,130	46,993	-0,380	-0,248
58,144	141,120	-0,364	-0,338
59,159	68,468	-0,334	-0,240
60,174	199,580	-0,364	-0,393
61,188	-4,930	-0,328	-0,158
62,203	-6,431	-0,377	-0,180
63,217	18,716	-0,437	-0,245
64,232	119,140	-0,292	-0,254
65,247	9,315	-0,461	-0,244
66,261	55,527	-0,217	-0,148
67,276	121,366	-0,395	-0,346
68,290	204,626	-0,366	-0,400
69,305	43,470	-0,255	-0,163
70,320	117,517	-0,291	-0,252
71,334	34,704	-0,341	-0,209
72,349	145,395	-0,334	-0,314
73,363	286,013	-0,207	-0,262
74,378	103,972	-0,387	-0,320
75,393	86,443	-0,256	-0,198
76,407	231,054	-0,235	-0,270
77,422	101,975	-0,235	-0,192
78,436	83,692	-0,233	-0,179
79,451	183,690	-0,291	-0,302
80,466	243,238	-0,230	-0,271
81,480	124,314	-0,330	-0,291
82,495	-19,459	-0,264	-0,114
83,509	85,132	-0,203	-0,156
84,524	-21,873	-0,399	-0,170
85,539	80,441	-0,233	-0,176
86,553	5,134	-0,399	-0,205
87,568	34,836	-0,380	-0,233
88,582	-2,828	-0,329	-0,161
89,597	52,043	-0,286	-0,190
90,611	252,849	-0,205	-0,246
91,626	112,339	-0,349	-0,296
92,641	-6,671	-0,293	-0,139
93,655	174,016	-0,269	-0,273
94,670	312,405	-0,256	-0,338
95,684	57,381	-0,358	-0,245
96,699	153,640	-0,297	-0,285
97,714	85,238	-0,231	-0,177
98,728	92,886	-0,171	-0,135
99,743	88,648	-0,238	-0,186
100,757	128,488	-0,291	-0,260
101,772	800,000	-0,113	-0,241
102,787	87,394	-0,137	-0,106
103,801	-17,482	-0,431	-0,189
104,816	76,350	-0,377	-0,279
105,830	34,279	-0,299	-0,182
106,845	-92,156	-0,257	-0,050
107,860	-59,402	-0,243	-0,073
108,874	390,839	-0,177	-0,258
109,889	420,999	-0,169	-0,254
110,903	93,422	-0,250	-0,198
111,918	216,312	-0,213	-0,237
112,933	78,630	-0,322	-0,241
113,947	-28,370	-0,356	-0,143
114,962	130,756	-0,251	-0,226
115,976	39,805	-0,217	-0,136
116,991	-47,630	-0,284	-0,096
118,006	-47,516	-0,325	-0,110
119,020	277,558	-0,208	-0,260
120,035	298,067	-0,105	-0,136
121,049	26,219	-0,250	-0,146
122,064	538,599	-0,151	-0,252
123,079	15,507	-0,275	-0,151
124,093	-53,007	-0,352	-0,113
125,108	173,914	-0,217	-0,219
126,122	111,245	-0,253	-0,213
127,137	685,766	-0,138	-0,253
128,151	-75,984	-0,190	-0,047
129,166	321,064	-0,093	-0,124
130,181	136,087	-0,230	-0,210
131,195	133,801	-0,307	-0,278
132,210	37,738	-0,181	-0,112
133,224	719,698	-0,073	-0,135
134,239	93,266	-0,237	-0,187
135,254	186,738	-0,222	-0,231
136,268	312,115	-0,129	-0,169
137,283	217,535	-0,163	-0,182
138,297	181,471	-0,260	-0,267
139,312	82,411	-0,281	-0,213
140,327	-1,454	-0,351	-0,172
141,341	112,164	-0,167	-0,141
142,356	-93,344	-0,197	0,038
143,370	437,599	-0,128	-0,195
144,385	138,095	-0,220	-0,201
145,400	214,066	-0,211	-0,233
146,414	-50,225	-0,232	-0,076
147,429	137,340	-0,274	-0,250
148,443	90,241	-0,247	-0,192
149,458	-15,052	-0,311	-0,138
150,473	275,997	-0,200	-0,248
151,487	66,137	-0,271	-0,192
152,502	146,835	-0,165	-0,155
153,516	30,543	-0,250	-0,149
154,531	232,116	-0,258	-0,296
155,546	263,720	-0,136	-0,165
156,560	31,344	-0,260	-0,155
157,575	-25,888	-0,240	-0,098
158,589	149,577	-0,184	-0,174
159,604	-7,635	-0,270	-0,127
160,619	58,066	-0,289	-0,197
161,633	22,576	-0,166	-0,095
162,648	75,623	-0,331	-0,244
163,662	114,457	-0,303	-0,257
164,677	-0,747	-0,186	-0,091
165,692	461,995	-0,101	-0,158
166,706	190,302	-0,210	-0,220
167,721	22,995	-0,372	-0,212
168,735	74,080	-0,304	-0,222
169,750	49,572	-0,146	-0,095
170,764	93,961	-0,173	-0,136
171,779	225,142	-0,127	-0,144
172,794	3,705	-0,341	-0,173
173,808	-5,508	-0,269	-0,128
174,823	257,076	-0,226	-0,271
175,837	256,196	-0,223	-0,267
176,852	45,205	-0,310	-0,198
177,867	100,027	-0,203	-0,163
178,881	96,924	-0,178	-0,142
179,896	-14,783	-0,191	-0,085
180,910	247,330	-0,160	-0,188
181,925	47,477	-0,171	-0,111
182,940	-21,743	-0,343	-0,144
183,954	50,733	-0,302	-0,199
184,969	15,519	-0,220	-0,120
185,983	52,893	-0,231	-0,153
186,998	800,000	-0,083	-0,231
188,013	92,385	-0,270	-0,212
189,027	95,547	-0,194	-0,154
190,042	77,420	-0,129	-0,095
191,056	58,204	-0,278	-0,189
192,071	84,119	-0,196	-0,149
193,086	-104,922	-0,299	-0,047
194,100	10,555	-0,210	-0,111
195,115	113,022	-0,291	-0,245
196,129	2,735	-0,279	-0,140
197,144	-200,000	-0,035	-0,266
198,159	105,588	-0,106	-0,087
199,173	46,817	-0,202	-0,130
200,188	21,268	-0,212	-0,119
201,202	338,103	-0,175	-0,237
202,217	-38,393	-0,219	-0,080
203,232	-200,000	0,004	-0,157
204,246	-16,216	-0,346	-0,152
205,261	107,901	-0,132	-0,109
206,275	772,860	-0,080	-0,153
207,290	139,730	-0,238	-0,218
208,304	195,649	-0,145	-0,153
209,319	257,848	-0,194	-0,233
210,334	800,000	-0,111	-0,230
211,348	114,221	-0,182	-0,154
212,363	18,104	-0,253	-0,139
213,377	-44,211	-0,206	-0,071
214,392	-26,888	-0,085	-0,034
215,407	54,338	-0,109	-0,073
216,421	-40,790	-0,210	-0,075
217,436	71,931	-0,202	-0,146
218,450	187,873	-0,211	-0,218
219,465	92,266	-0,184	-0,143
220,480	102,783	-0,271	-0,220
221,494	481,382	-0,137	-0,216
222,509	214,467	-0,079	0,087
223,523	84,110	-0,170	-0,129
224,538	-200,000	-0,047	-0,231
225,553	115,752	-0,283	-0,240
226,567	-5,990	-0,330	-0,156
227,582	102,797	-0,119	-0,097
228,596	-123,576	-0,191	0,021
229,611	68,563	-0,258	-0,183
230,626	25,032	-0,198	-0,113
231,640	48,443	-0,196	-0,127
232,655	53,544	-0,224	-0,149
233,669	149,801	-0,258	-0,242
234,684	-129,304	-0,259	-0,025
235,699	-7,095	-0,164	-0,077
236,713	39,903	-0,091	-0,057
237,728	-57,946	-0,176	0,053
238,742	-99,762	-0,228	-0,039
239,757	247,657	-0,211	-0,247
240,772	404,857	-0,228	-0,334
241,786	103,679	-0,251	-0,204
242,801	-200,000	-0,049	-0,250
243,815	168,720	-0,209	-0,206
244,830	-34,400	-0,279	0,105
245,844	-50,730	-0,222	-0,072
246,859	81,239	-0,214	-0,159
247,874	238,014	-0,199	-0,229
248,888	19,118	-0,195	-0,108
249,903	-23,903	-0,229	-0,094
250,917	-69,225	-0,098	-0,026
251,932	-12,218	-0,202	-0,091
252,947	-75,892	-0,133	-0,032
253,961	24,464	-0,282	-0,161
254,976	331,964	-0,145	-0,194
255,990	290,106	-0,116	-0,146
257,005	-89,369	-0,204	-0,041
258,020	102,679	-0,156	-0,126
259,034	-29,386	-0,190	0,075
260,049	32,929	-0,226	-0,135
261,063	64,793	-0,187	-0,130
262,078	439,258	-0,146	-0,221
263,093	-151,349	-0,213	-0,011
264,107	344,060	-0,143	-0,194
265,122	435,514	-0,100	-0,150
266,136	-95,547	-0,297	-0,054
267,151	800,000	-0,047	-0,118
268,166	196,311	-0,138	-0,145
269,180	-111,185	-0,160	-0,022
270,195	246,355	-0,085	-0,099
271,209	800,000	-0,053	-0,157
272,224	624,838	-0,060	-0,105
273,239	344,067	-0,145	-0,197
274,253	102,509	-0,173	-0,140
275,268	-57,221	-0,159	-0,048
276,282	11,225	-0,258	-0,136
277,297	123,849	-0,185	-0,160
278,312	750,325	-0,106	-0,197
279,326	90,255	-0,201	-0,155
280,341	-37,777	-0,161	-0,059
281,355	475,412	-0,097	-0,152
282,370	800,000	-0,052	-0,139
283,384	152,398	-0,165	-0,156
284,399	233,089	-0,100	-0,113
285,414	-127,929	-0,227	-0,022
286,428	-55,896	-0,119	-0,036
287,443	-121,714	-0,145	-0,016
288,457	-50,048	-0,078	0,025
289,472	-128,707	-0,179	-0,017
290,487	-2,670	-0,264	-0,127
291,501	187,769	-0,130	-0,134
292,516	26,762	-0,112	-0,064
293,530	179,802	-0,077	-0,078
294,545	22,250	-0,151	-0,085
295,560	-81,859	-0,042	0,009
296,574	291,723	-0,169	-0,212
297,589	156,015	-0,147	-0,140
298,603	52,342	-0,295	-0,193
299,618	572,942	-0,118	-0,199
300,633	165,229	-0,157	-0,152
301,647	76,668	-0,136	-0,099
302,662	-200,000	-0,075	-0,247
303,676	-44,327	-0,194	-0,067
304,691	521,304	-0,131	-0,213
305,706	106,459	-0,103	-0,084
306,720	53,930	-0,265	-0,175
307,735	800,000	-0,105	-0,215
308,749	3,414	-0,072	0,036
309,764	-185,551	-0,117	-0,001
310,779	16,430	-0,243	-0,131
311,793	-68,653	-0,176	-0,046
312,808	92,902	-0,180	-0,140
313,822	282,986	-0,115	-0,142
314,837	-200,000	-0,035	-0,280
315,852	71,785	-0,116	-0,083
316,866	800,000	-0,057	-0,169
317,881	-152,314	-0,095	0,005
318,895	-12,546	-0,195	-0,087
319,910	-5,383	-0,141	-0,066
320,925	217,892	-0,172	-0,189
321,939	116,473	-0,148	-0,125
322,954	8,858	-0,150	0,077
323,968	-33,206	-0,085	-0,032
324,983	-146,070	-0,106	-0,006
325,997	-60,312	-0,106	0,031
327,012	121,224	-0,241	-0,206
328,027	131,342	-0,137	-0,121
329,041	36,387	-0,102	-0,062
330,056	-0,287	-0,046	-0,023
331,070	259,530	-0,180	-0,213
332,085	-180,555	-0,140	0,002
333,100	288,707	-0,100	-0,124
334,114	800,000	-0,087	-0,177
335,129	395,102	-0,148	-0,212
336,143	0,873	-0,158	-0,078
337,158	-98,138	-0,087	0,015
338,173	699,754	-0,033	-0,059
339,187	-85,938	0,057	0,012
340,202	250,984	-0,066	-0,077
341,216	-52,126	-0,138	0,044
342,231	56,834	-0,233	-0,155
343,246	35,191	-0,135	-0,081
344,260	-200,000	-0,000	-0,126
345,275	-106,262	-0,129	0,020
346,289	8,341	-0,146	-0,075
347,304	-39,393	-0,174	-0,062
348,319	531,499	-0,100	-0,163
349,333	-79,676	-0,179	-0,041
350,348	-200,000	-0,045	-0,201
351,362	101,303	-0,190	-0,152
352,377	-173,582	-0,204	0,004
353,392	-1,732	-0,243	-0,117
354,406	452,571	-0,115	-0,174
355,421	208,380	1313,164	1408,455
356,435	160,338	1473,678	1408,935
