DTS Sentinel unit serial number:	SN410029Multiplexer serial number:	ORYXHardware model number:	OX2-SRSoftware version number:	ORYX F/W v4,00 Oryx Data Collector v3.7.2.0data status	okinstallation	B3 Nyhavnadifferential loss correction	single-endedforward channel	channel 1reverse channel	N/Adate	2023/12/02time	03:37:30forward acquisition time	300,00reverse acquisition time	0,00gamma	499,1914k internal	0,3193k external	0,3193temperature offset calibration	1,0000default loss term (dB/km)	0,3820temperature slope calibration	1,0000multiplexer offset coefficient	1,0000multiplexer slope coefficient	1,0000fibre end	0,00T internal ref (°C)	16,63T ext. ref 1 (°C)	1,61T ext. ref 2 (°C)	1,59length (m)	temperature (°C)	Stokes	anti-Stokes-744,400	800,000	-0,184	-0,436
-743,385	-200,000	0,025	0,354
-742,371	345,093	-0,204	-0,292
-741,356	-200,000	-0,012	0,373
-740,342	454,365	-0,175	-0,284
-739,327	-200,000	-0,035	0,238
-738,312	159,709	-0,232	-0,236
-737,298	-200,000	0,074	0,310
-736,283	281,494	-0,226	-0,296
-735,269	800,000	0,154	0,346
-734,254	87,786	-0,299	-0,241
-733,239	2,155	-0,183	0,096
-732,225	800,000	-0,067	-0,186
-731,210	-200,000	-0,004	0,119
-730,196	800,000	-0,012	0,027
-729,181	107,840	-0,046	-0,040
-728,167	800,000	-0,015	-0,043
-727,152	-74,877	-0,192	-0,050
-726,137	-21,400	-0,094	-0,042
-725,123	676,956	-0,103	-0,197
-724,108	453,032	-0,019	-0,030
-723,094	-76,905	0,069	-0,017
-722,079	34,620	-0,100	-0,063
-721,064	378,185	0,080	-0,120
-720,050	260,811	0,027	-0,034
-719,035	800,000	0,036	-0,077
-718,021	38,650	0,094	-0,061
-717,006	-111,315	-0,146	-0,022
-715,991	-105,507	0,031	0,005
-714,977	-200,000	0,006	-0,088
-713,962	130,334	0,058	-0,054
-712,948	41,854	0,070	-0,046
-711,933	114,718	-0,137	-0,121
-710,918	136,314	-0,023	0,022
-709,904	800,000	0,042	-0,099
-708,889	-2,091	-0,138	-0,070
-707,875	610,443	0,101	-0,184
-706,860	53,299	-0,064	-0,045
-705,845	800,000	0,026	-0,077
-704,831	-200,000	0,003	0,051
-703,816	-200,000	-0,038	0,179
-702,802	-159,103	-0,048	-0,002
-701,787	26,662	-0,073	0,045
-700,772	-134,931	-0,068	0,006
-699,758	800,000	0,045	0,137
-698,743	-148,680	-0,061	-0,004
-697,729	-123,185	0,152	0,017
-696,714	-101,211	0,064	-0,011
-695,699	-156,029	-0,066	0,003
-694,685	200,769	0,029	-0,033
-693,670	-200,000	0,020	-0,162
-692,656	-180,515	-0,155	-0,002
-691,641	-75,574	-0,042	0,011
-690,627	10,738	0,062	-0,034
-689,612	-200,000	-0,009	-0,089
-688,597	-129,149	-0,092	0,009
-687,583	203,863	0,046	-0,052
-686,568	64,893	-0,044	0,032
-685,554	270,777	-0,076	-0,098
-684,539	-200,000	-0,000	-0,030
-683,524	-172,862	0,091	0,002
-682,510	-57,956	-0,039	-0,012
-681,495	-44,380	-0,077	0,028
-680,481	3,316	0,081	-0,043
-679,466	317,438	-0,124	-0,171
-678,451	-141,605	-0,030	-0,002
-677,437	-34,038	-0,062	-0,025
-676,422	213,049	0,076	-0,087
-675,408	-113,162	-0,050	-0,007
-674,393	-200,000	0,010	-0,072
-673,378	59,731	0,045	-0,032
-672,364	-34,037	-0,142	0,056
-671,349	-200,000	0,008	0,047
-670,335	-87,164	-0,150	-0,033
-669,320	-200,000	0,020	-0,069
-668,305	-168,359	-0,044	-0,001
-667,291	-8,994	0,050	0,024
-666,276	-200,000	-0,051	-0,256
-665,262	120,937	0,030	-0,027
-664,247	-97,187	-0,156	0,029
-663,232	-200,000	0,017	-0,076
-662,218	-107,970	0,078	0,012
-661,203	-17,386	0,040	0,018
-660,189	-127,302	0,096	-0,010
-659,174	-129,906	-0,139	0,014
-658,159	657,088	-0,042	-0,078
-657,145	21,601	-0,030	-0,018
-656,130	598,804	-0,061	-0,111
-655,116	-200,000	-0,025	0,127
-654,101	385,140	-0,048	0,072
-653,086	-200,000	-0,004	0,049
-652,072	11,000	0,046	-0,025
-651,057	85,232	-0,122	-0,097
-650,043	-62,993	-0,105	-0,031
-649,028	68,235	-0,053	-0,039
-648,014	344,859	-0,023	-0,033
-646,999	-200,000	0,012	-0,063
-645,984	800,000	-0,032	0,096
-644,970	221,964	-0,082	0,096
-643,955	22,194	-0,168	0,099
-642,941	-200,000	-0,006	0,108
-641,926	-132,666	-0,041	-0,004
-640,911	-200,000	0,009	-0,031
-639,897	800,000	0,047	0,114
-638,882	-200,000	0,006	0,043
-637,868	-175,334	0,050	-0,001
-636,853	-3,162	0,024	-0,012
-635,838	-200,000	0,025	-0,120
-634,824	-3,854	-0,052	-0,026
-633,809	-200,000	0,032	0,108
-632,795	-40,819	-0,039	-0,015
-631,780	-200,000	0,016	0,112
-630,765	48,424	0,087	-0,059
-629,751	-200,000	-0,005	-0,175
-628,736	-155,614	-0,058	0,003
-627,722	650,934	-0,022	0,041
-626,707	-111,624	0,068	0,010
-625,692	-79,298	-0,071	0,017
-624,678	-129,988	-0,050	0,005
-623,663	114,194	0,124	0,110
-622,649	-128,440	-0,079	0,008
-621,634	-200,000	0,032	-0,110
-620,619	-200,000	-0,008	0,058
-619,605	-200,000	-0,006	0,030
-618,590	-45,116	0,132	-0,047
-617,576	95,325	-0,046	-0,038
-616,561	513,768	0,033	0,055
-615,546	-200,000	0,008	-0,073
-614,532	800,000	-0,012	-0,030
-613,517	-32,674	0,080	0,032
-612,503	-15,127	0,035	-0,016
-611,488	3,600	-0,084	-0,045
-610,474	-200,000	-0,029	0,097
-609,459	-200,000	-0,007	-0,058
-608,444	-200,000	0,018	-0,088
-607,430	-200,000	0,020	-0,092
-606,415	94,274	0,020	-0,017
-605,401	-200,000	0,021	0,071
-604,386	-200,000	0,002	-0,026
-603,371	800,000	0,042	-0,100
-602,357	-106,658	-0,144	0,023
-601,342	800,000	0,054	0,161
-600,328	171,695	-0,121	0,126
-599,313	800,000	-0,027	0,056
-598,298	354,261	-0,073	-0,105
-597,284	604,797	0,036	-0,066
-596,269	11,785	0,020	0,011
-595,255	128,408	0,040	0,037
-594,240	488,686	-0,043	-0,072
-593,225	120,470	-0,071	-0,064
-592,211	800,000	-0,025	-0,054
-591,196	614,378	-0,059	0,107
-590,182	800,000	-0,015	-0,047
-589,167	-58,458	-0,108	0,034
-588,152	-76,950	-0,034	-0,009
-587,138	38,137	-0,012	-0,008
-586,123	728,792	0,006	0,012
-585,109	800,000	0,051	-0,133
-584,094	-200,000	-0,007	-0,027
-583,079	182,384	-0,047	0,051
-582,065	-200,000	-0,015	0,129
-581,050	-200,000	0,024	0,098
-580,036	800,000	-0,019	-0,053
-579,021	313,200	-0,058	0,079
-578,006	800,000	-0,012	-0,036
-576,992	-97,327	0,118	-0,022
-575,977	48,421	-0,038	0,026
-574,963	684,666	0,016	0,031
-573,948	800,000	-0,014	0,039
-572,934	-200,000	0,003	0,010
-571,919	-2,913	-0,144	-0,073
-570,904	565,737	-0,061	0,108
-569,890	157,035	0,047	-0,047
-568,875	51,110	-0,018	-0,012
-567,861	304,156	0,067	0,090
-566,846	-200,000	0,030	-0,153
-565,831	-65,814	0,082	-0,024
-564,817	-200,000	0,012	0,064
-563,802	-115,866	-0,051	0,007
-562,788	-117,875	0,079	0,010
-561,773	-200,000	-0,013	-0,061
-560,758	-114,104	0,051	0,007
-559,744	800,000	0,045	0,120
-558,729	1,583	-0,051	0,027
-557,715	-42,768	-0,222	0,081
-556,700	-200,000	-0,022	0,077
-555,685	58,572	0,005	-0,003
-554,671	800,000	0,010	0,029
-553,656	-87,750	0,103	-0,022
-552,642	395,343	0,066	0,100
-551,627	-23,234	0,131	-0,057
-550,612	-200,000	0,003	0,037
-549,598	13,725	-0,109	0,061
-548,583	800,000	-0,029	-0,057
-547,569	407,564	-0,068	-0,104
-546,554	0,194	-0,131	-0,067
-545,539	551,498	-0,048	-0,084
-544,525	168,443	-0,095	0,098
-543,510	276,922	0,033	-0,043
-542,496	-200,000	-0,005	-0,149
-541,481	166,978	-0,076	0,078
-540,466	142,479	0,076	0,073
-539,452	800,000	-0,024	-0,048
-538,437	-200,000	0,009	0,076
-537,423	-200,000	-0,014	0,070
-536,408	-100,435	0,084	-0,015
-535,393	371,127	0,026	0,039
-534,379	800,000	-0,021	-0,064
-533,364	-28,820	-0,077	-0,032
-532,350	-51,605	0,021	0,007
-531,335	98,883	0,039	-0,032
-530,321	-200,000	-0,018	0,092
-529,306	-98,120	-0,121	0,022
-528,291	-200,000	0,009	0,115
-527,277	-30,461	-0,079	-0,032
-526,262	-200,000	-0,024	0,095
-525,248	106,717	0,154	0,132
-524,233	-47,835	-0,051	0,018
-523,218	-200,000	-0,003	0,097
-522,204	-65,222	0,060	-0,017
-521,189	329,158	-0,060	-0,084
-520,175	-18,987	-0,128	-0,057
-519,160	-200,000	-0,134	-0,000
-518,145	48,650	0,107	0,072
-517,131	8,217	0,071	-0,038
-516,116	-76,167	-0,062	0,016
-515,102	14,554	0,081	0,046
-514,087	-200,000	0,000	-0,120
-513,072	800,000	-0,083	-0,192
-512,058	-58,576	-0,109	-0,034
-511,043	699,642	-0,043	-0,081
-510,029	-200,000	-0,022	0,090
-509,014	-200,000	0,015	0,100
-507,999	-110,896	0,012	-0,002
-506,985	-69,946	-0,124	-0,034
-505,970	-200,000	-0,005	-0,120
-504,956	-86,618	-0,059	0,013
-503,941	-200,000	-0,008	-0,059
-502,926	98,396	0,080	0,066
-501,912	-156,287	-0,082	0,004
-500,897	174,867	-0,068	0,071
-499,883	-0,435	-0,037	-0,019
-498,868	762,062	-0,032	0,063
-497,853	800,000	0,001	-0,002
-496,839	122,352	-0,022	0,020
-495,824	-200,000	-0,008	0,081
-494,810	-110,037	0,079	0,012
-493,795	-200,000	-0,004	0,084
-492,781	800,000	-0,026	0,076
-491,766	-200,000	-0,013	-0,087
-490,751	-122,377	0,054	0,006
-489,737	37,904	0,169	0,108
-488,722	356,993	-0,079	-0,114
-487,708	-200,000	0,020	-0,092
-486,693	-200,000	0,014	0,093
-485,678	128,371	-0,034	0,031
-484,664	-200,000	0,002	-0,070
-483,649	-200,000	0,011	0,059
-482,635	13,464	0,035	-0,020
-481,620	-121,549	0,079	-0,009
-480,605	318,381	0,073	-0,101
-479,591	-1,065	0,027	0,014
-478,576	8,672	0,041	-0,022
-477,562	-200,000	0,003	-0,120
-476,547	83,679	-0,118	-0,093
-475,532	84,270	-0,101	-0,079
-474,518	-200,000	-0,007	-0,074
-473,503	-141,781	0,089	0,006
-472,489	-11,908	0,137	0,065
-471,474	800,000	-0,060	0,140
-470,459	376,482	-0,042	0,062
-469,445	515,394	-0,082	-0,138
-468,430	358,680	-0,069	-0,099
-467,416	119,313	0,113	-0,101
-466,401	-144,977	0,133	0,009
-465,386	206,642	-0,033	0,037
-464,372	36,198	0,147	0,093
-463,357	39,162	0,031	-0,020
-462,343	648,529	-0,071	0,132
-461,328	-200,000	0,028	-0,130
-460,313	56,210	-0,064	0,045
-459,299	23,871	0,043	0,025
-458,284	162,099	0,047	-0,048
-457,270	27,829	0,082	-0,050
-456,255	785,871	-0,046	-0,092
-455,241	87,184	-0,093	-0,074
-454,226	128,169	-0,096	0,089
-453,211	405,167	-0,017	-0,026
-452,197	713,556	0,067	0,128
-451,182	184,784	-0,141	0,151
-450,168	-44,764	0,128	-0,046
-449,153	209,528	0,081	-0,092
-448,138	193,884	-0,044	-0,048
-447,124	-4,427	0,118	0,059
-446,109	-78,751	0,025	0,006
-445,095	36,987	-0,015	-0,010
-444,080	-180,904	0,082	0,001
-443,065	43,637	-0,072	0,047
-442,051	738,624	-0,051	0,099
-441,036	-57,156	0,071	-0,022
-440,022	-200,000	0,017	-0,144
-439,007	800,000	0,031	-0,075
-437,992	800,000	-0,029	0,070
-436,978	87,299	0,088	-0,070
-435,963	-200,000	-0,002	0,043
-434,949	-37,732	0,036	-0,014
-433,934	-200,000	-0,029	0,101
-432,919	99,528	-0,059	-0,049
-431,905	215,648	0,042	0,048
-430,890	366,649	-0,044	0,064
-429,876	79,024	-0,055	-0,042
-428,861	43,477	0,050	0,033
-427,846	321,093	-0,026	0,036
-426,832	584,028	-0,036	-0,063
-425,817	-200,000	-0,025	-0,109
-424,803	43,961	0,074	-0,049
-423,788	299,407	0,113	0,150
-422,773	-142,790	0,088	-0,006
-421,759	-182,815	-0,181	-0,002
-420,744	-200,000	0,003	-0,114
-419,730	-124,340	0,099	0,011
-418,715	-6,252	-0,153	-0,075
-417,701	800,000	-0,077	0,197
-416,686	50,207	0,065	0,044
-415,671	-119,048	0,038	-0,005
-414,657	-200,000	-0,011	0,090
-413,642	-6,381	0,045	0,022
-412,628	-200,000	0,010	-0,071
-411,613	121,245	0,011	0,010
-410,598	136,765	0,087	-0,082
-409,584	-59,462	0,191	0,059
-408,569	-200,000	-0,029	0,152
-407,555	800,000	0,034	0,095
-406,540	409,316	0,089	0,136
-405,525	800,000	0,011	-0,030
-404,511	69,318	0,031	0,023
-403,496	-104,668	-0,119	-0,020
-402,482	172,877	0,033	0,034
-401,467	800,000	0,019	0,046
-400,452	78,976	-0,027	0,020
-399,438	392,241	-0,023	0,035
-398,423	791,499	0,018	0,035
-397,409	-200,000	-0,018	0,068
-396,394	-9,157	-0,019	-0,009
-395,379	-95,507	-0,088	-0,017
-394,365	-103,640	-0,056	-0,009
-393,350	432,015	-0,018	0,029
-392,336	-200,000	-0,006	-0,028
-391,321	10,174	0,128	-0,070
-390,306	389,706	-0,050	0,075
-389,292	11,920	0,069	-0,038
-388,277	-124,958	-0,118	-0,013
-387,263	800,000	0,016	0,048
-386,248	-200,000	-0,004	0,073
-385,233	25,766	0,009	-0,006
-384,219	-3,168	-0,155	-0,077
-383,204	-200,000	0,061	-0,219
-382,190	800,000	-0,035	0,076
-381,175	-153,696	-0,058	-0,003
-380,160	4,490	0,058	0,030
-379,146	-200,000	0,033	0,107
-378,131	-200,000	-0,011	0,041
-377,117	12,263	0,040	-0,022
-376,102	179,717	-0,074	-0,078
-375,088	-200,000	-0,028	-0,170
-374,073	-14,074	-0,067	-0,031
-373,058	800,000	0,022	0,048
-372,044	-200,000	-0,007	0,115
-371,029	-80,987	0,116	0,027
-370,015	22,389	0,090	0,053
-369,000	100,703	-0,092	-0,077
-367,985	-132,011	-0,058	0,005
-366,971	75,919	0,092	0,070
-365,956	18,477	-0,145	0,083
-364,942	800,000	0,013	0,028
-363,927	-55,372	-0,111	0,036
-362,912	238,813	-0,021	-0,025
-361,898	83,088	-0,032	0,025
-360,883	723,579	-0,098	0,189
-359,869	464,205	-0,040	-0,064
-358,854	-121,265	0,062	0,007
-357,839	161,045	0,086	0,087
-356,825	47,439	-0,028	0,019
-355,810	15,944	0,042	0,024
-354,796	-200,000	0,023	0,072
-353,781	178,023	-0,128	0,134
-352,766	74,644	0,144	0,109
-351,752	578,795	0,036	-0,063
-350,737	800,000	0,044	0,117
-349,723	-200,000	-0,002	0,050
-348,708	-33,359	-0,011	0,004
-347,693	-62,792	0,202	0,060
-346,679	466,092	-0,058	-0,093
-345,664	-41,769	0,103	-0,038
-344,650	342,598	-0,027	0,038
-343,635	-200,000	-0,000	-0,060
-342,620	275,410	0,044	0,056
-341,606	-200,000	-0,004	0,017
-340,591	800,000	0,035	-0,071
-339,577	402,355	-0,073	-0,110
-338,562	-159,881	0,040	-0,002
-337,548	-106,156	0,124	-0,020
-336,533	-163,282	0,036	-0,001
-335,518	-200,000	0,036	0,119
-334,504	800,000	0,055	0,155
-333,489	-200,000	-0,021	0,124
-332,475	-200,000	0,000	0,065
-331,460	-200,000	0,008	-0,061
-330,445	800,000	-0,044	-0,103
-329,431	-85,036	0,150	-0,033
-328,416	382,863	0,058	0,086
-327,402	-89,297	-0,056	-0,012
-326,387	-102,885	-0,195	0,033
-325,372	33,516	-0,102	0,063
-324,358	27,368	-0,048	0,029
-323,343	161,490	-0,070	-0,070
-322,329	-2,688	0,073	0,036
-321,314	-200,000	-0,055	0,193
-320,299	178,299	-0,065	-0,068
-319,285	-142,342	0,058	-0,004
-318,270	50,085	-0,095	-0,064
-317,256	-200,000	0,001	-0,157
-316,241	201,276	0,046	-0,051
-315,226	-90,646	0,117	0,024
-314,212	422,806	0,052	0,080
-313,197	-200,000	-0,016	0,123
-312,183	160,770	-0,013	0,013
-311,168	21,386	-0,177	-0,103
-310,153	22,109	-0,027	-0,015
-309,139	751,778	-0,037	-0,071
-308,124	52,544	-0,039	0,027
-307,110	440,388	0,076	0,119
-306,095	-200,000	-0,032	0,115
-305,080	416,765	-0,039	0,061
-304,066	-155,329	-0,223	-0,010
-303,051	-126,171	-0,064	0,007
-302,037	-200,000	0,004	0,186
-301,022	13,840	-0,157	-0,087
-300,008	257,506	0,120	-0,148
-298,993	181,287	0,029	-0,030
-297,978	428,034	0,022	0,034
-296,964	-200,000	0,005	-0,077
-295,949	-200,000	-0,004	-0,027
-294,935	690,860	-0,038	0,072
-293,920	43,471	-0,055	0,036
-292,905	96,107	0,092	0,076
-291,891	42,924	0,106	0,069
-290,876	-200,000	-0,001	-0,018
-289,862	-63,024	-0,034	-0,010
-288,847	169,718	0,083	-0,085
-287,832	-31,888	0,087	-0,035
-286,818	-200,000	-0,005	-0,033
-285,803	-200,000	-0,009	-0,029
-284,789	229,931	0,060	-0,070
-283,774	-8,488	0,089	0,043
-282,759	103,507	-0,038	0,032
-281,745	-73,614	0,028	0,007
-280,730	249,852	0,025	-0,030
-279,716	565,332	0,076	-0,133
-278,701	800,000	-0,045	0,117
-277,686	34,885	0,076	-0,048
-276,672	168,436	-0,086	0,088
-275,657	158,279	0,038	-0,037
-274,643	-139,896	0,036	-0,003
-273,628	-200,000	-0,006	-0,023
-272,613	-73,841	-0,089	-0,023
-271,599	800,000	0,025	0,072
-270,584	191,009	-0,091	0,098
-269,570	-200,000	-0,001	0,054
-268,555	416,308	0,019	0,029
-267,540	800,000	-0,016	-0,046
-266,526	186,062	-0,108	-0,116
-265,511	-74,796	0,147	0,038
-264,497	454,604	-0,030	-0,047
-263,482	-76,868	0,055	-0,014
-262,467	-3,441	0,033	-0,016
-261,453	-200,000	0,018	-0,115
-260,438	762,371	0,030	-0,059
-259,424	146,032	-0,117	-0,112
-258,409	251,734	0,038	0,046
-257,395	-200,000	0,015	0,095
-256,380	-33,955	0,133	-0,052
-255,365	102,088	0,080	0,066
-254,351	-173,917	-0,041	0,001
-253,336	800,000	-0,025	-0,064
-252,322	800,000	0,031	-0,076
-251,307	17,955	-0,016	-0,009
-250,292	421,663	0,095	-0,146
-249,278	177,601	0,017	-0,018
-248,263	446,967	0,014	-0,021
-247,249	117,208	-0,070	-0,061
-246,234	-200,000	-0,006	-0,049
-245,219	800,000	0,029	-0,061
-244,205	-164,663	-0,147	-0,005
-243,190	-200,000	0,042	-0,139
-242,176	-200,000	-0,026	0,098
-241,161	81,617	0,156	0,120
-240,146	-169,070	-0,041	0,001
-239,132	800,000	0,052	-0,113
-238,117	-95,148	-0,109	-0,021
-237,103	800,000	-0,046	0,095
-236,088	800,000	0,062	-0,149
-235,073	-3,515	-0,168	0,083
-234,059	68,612	0,154	0,113
-233,044	47,455	-0,026	-0,017
-232,030	185,560	0,058	-0,062
-231,015	800,000	-0,070	-0,203
-230,000	119,669	-0,010	-0,009
-228,986	-200,000	0,023	-0,166
-227,971	-200,000	0,004	-0,021
-226,957	-26,798	0,184	0,077
-225,942	52,273	-0,019	-0,013
-224,927	271,017	0,049	-0,062
-223,913	-53,444	-0,062	-0,020
-222,898	502,466	0,013	-0,022
-221,884	800,000	0,055	-0,141
-220,869	800,000	-0,057	-0,134
-219,855	800,000	-0,019	-0,048
-218,840	-15,733	0,042	-0,019
-217,825	-200,000	0,023	-0,073
-216,811	229,850	-0,134	0,156
-215,796	146,235	0,067	-0,064
-214,782	46,001	0,116	-0,077
-213,767	-82,624	0,138	0,032
-212,752	-200,000	-0,008	-0,053
-211,738	215,382	-0,127	-0,144
-210,723	-200,000	0,008	-0,147
-209,709	302,938	-0,092	-0,122
-208,694	-200,000	0,013	-0,099
-207,679	-200,000	0,002	-0,082
-206,665	-108,582	0,118	-0,018
-205,650	43,527	0,039	0,025
-204,636	6,748	0,058	0,031
-203,621	230,344	-0,069	-0,081
-202,606	-200,000	0,008	0,040
-201,592	-21,450	-0,052	-0,023
-200,577	-200,000	-0,007	-0,038
-199,563	-81,224	0,095	-0,022
-198,548	-200,000	0,044	-0,146
-197,533	-200,000	-0,019	0,143
-196,519	800,000	0,034	0,084
-195,504	-200,000	-0,001	0,189
-194,490	44,459	-0,085	-0,056
-193,475	467,014	0,015	-0,025
-192,460	137,783	-0,031	0,029
-191,446	-101,994	0,053	-0,009
-190,431	72,274	-0,045	0,034
-189,417	-200,000	0,001	0,013
-188,402	-153,164	-0,089	-0,004
-187,387	370,634	0,045	-0,065
-186,373	412,540	0,068	-0,103
-185,358	-200,000	-0,010	0,162
-184,344	-119,423	0,019	0,002
-183,329	452,596	0,069	-0,109
-182,315	160,454	0,071	0,070
-181,300	233,990	-0,069	-0,081
-180,285	167,974	0,019	-0,020
-179,271	-93,217	-0,115	0,023
-178,256	29,049	-0,087	0,052
-177,242	-111,905	0,131	-0,019
-176,227	-81,500	-0,157	-0,037
-175,212	103,449	-0,092	-0,077
-174,198	45,428	0,100	-0,066
-173,183	-127,623	-0,087	0,009
-172,169	800,000	0,043	-0,122
-171,154	198,913	0,054	0,059
-170,139	6,956	0,062	0,033
-169,125	396,670	0,071	-0,107
-168,110	800,000	-0,011	0,025
-167,096	-66,143	0,023	-0,007
-166,081	2,296	0,086	-0,044
-165,066	-200,000	0,006	0,076
-164,052	259,838	-0,152	-0,187
-163,037	-15,687	0,159	-0,072
-162,023	-180,189	-0,031	-0,000
-161,008	208,227	-0,051	0,057
-159,993	498,247	0,070	0,116
-158,979	44,842	0,046	0,030
-157,964	72,276	-0,069	0,051
-156,950	37,032	0,146	0,092
-155,935	7,446	-0,153	-0,081
-154,920	51,047	0,100	0,067
-153,906	99,672	0,114	0,094
-152,891	-200,000	0,024	-0,120
-151,877	-68,855	-0,164	0,045
-150,862	325,581	0,108	-0,147
-149,847	276,668	-0,071	-0,090
-148,833	-3,100	-0,019	0,009
-147,818	97,481	0,054	0,044
-146,804	-90,385	0,063	0,013
-145,789	-200,000	0,009	-0,040
-144,775	51,076	-0,041	0,028
-143,760	800,000	-0,044	-0,100
-142,745	410,993	0,054	-0,082
-141,731	6,255	0,115	-0,061
-140,716	-66,631	0,141	-0,040
-139,702	34,123	0,117	0,072
-138,687	-138,616	-0,049	-0,004
-137,672	-200,000	-0,014	0,053
-136,658	71,939	-0,027	-0,020
-135,643	-86,785	-0,094	0,020
-134,629	-50,830	-0,012	-0,004
-133,614	-200,000	0,000	0,030
-132,599	34,719	0,100	0,062
-131,585	778,706	-0,052	-0,103
-130,570	76,684	-0,074	-0,056
-129,556	557,858	0,015	-0,027
-128,541	-78,208	-0,048	0,012
-127,526	428,319	-0,083	-0,128
-126,512	-200,000	0,027	-0,263
-125,497	761,750	0,021	-0,041
-124,483	-79,247	0,041	0,010
-123,468	87,854	-0,030	0,024
-122,453	-200,000	0,002	-0,054
-121,439	537,809	-0,021	-0,036
-120,424	448,828	-0,084	-0,132
-119,410	-200,000	0,000	0,060
-118,395	-78,287	0,142	0,034
-117,380	-200,000	0,017	0,064
-116,366	22,201	0,086	-0,050
-115,351	-133,932	-0,208	-0,018
-114,337	-200,000	0,018	0,080
-113,322	70,328	0,211	-0,155
-112,307	-134,008	-0,186	0,016
-111,293	-200,000	-0,000	0,004
-110,278	-200,000	-0,038	0,176
-109,264	-137,651	-0,106	0,008
-108,249	-99,062	-0,058	-0,010
-107,234	93,312	-0,119	-0,095
-106,220	-35,702	0,094	0,036
-105,205	555,064	-0,038	-0,065
-104,191	-200,000	-0,024	0,077
-103,176	72,269	0,052	0,039
-102,162	423,484	0,054	0,083
-101,147	-126,641	-0,130	-0,014
-100,132	51,969	0,020	-0,014
-99,118	-200,000	-0,003	-0,044
-98,103	800,000	0,051	-0,120
-97,089	75,840	-0,055	-0,041
-96,074	355,260	-0,058	-0,082
-95,059	-110,424	0,095	-0,014
-94,045	-200,000	0,000	0,027
-93,030	94,639	-0,095	-0,077
-92,016	-33,181	-0,055	-0,021
-91,001	-200,000	-0,012	-0,049
-89,986	-200,000	-0,018	-0,120
-88,972	89,024	-0,036	-0,029
-87,957	-14,224	0,087	-0,040
-86,943	76,716	0,057	-0,043
-85,928	-32,290	-0,149	0,059
-84,913	215,371	0,056	-0,063
-83,899	370,945	-0,068	-0,098
-82,884	-200,000	-0,013	0,220
-81,870	800,000	0,051	0,117
-80,855	34,811	-0,078	-0,049
-79,840	137,440	0,024	-0,022
-78,826	-200,000	0,017	-0,053
-77,811	82,000	0,071	-0,054
-76,797	-48,103	0,040	0,014
-75,782	88,825	0,093	-0,073
-74,767	242,670	0,038	0,045
-73,753	-126,231	0,178	0,019
-72,738	462,706	0,097	-0,155
-71,724	198,592	0,025	-0,027
-70,709	-200,000	0,003	-0,121
-69,694	-59,146	0,075	0,023
-68,680	-36,807	0,031	-0,012
-67,665	9,341	0,048	0,025
-66,651	-150,972	-0,124	0,007
-65,636	-121,230	-0,077	0,009
-64,622	782,018	-0,075	-0,147
-63,607	-109,331	-0,092	0,014
-62,592	170,200	0,119	0,121
-61,578	-200,000	0,009	0,137
-60,563	-200,000	-0,012	0,060
-59,549	22,581	-0,082	0,047
-58,534	-79,456	-1,243	-0,296
-57,519	490,032	-1,474	-2,402
-56,505	-200,000	-0,504	-4,277
-55,490	23,612	0,921	0,537
-54,476	800,000	4,783	11,202
-53,461	-200,000	17,242	268,843
-52,446	800,000	714,532	2180,590
-51,432	552,466	1629,107	2787,993
-50,417	81,428	1655,132	1268,600
-49,403	24,393	1529,720	895,131
-48,388	18,429	1452,939	821,488
-47,373	18,567	1442,254	816,072
-46,359	18,266	1433,368	809,582
-45,344	16,741	1428,625	799,633
-44,330	16,717	1426,525	798,312
-43,315	16,680	1425,129	797,324
-42,300	16,726	1423,422	796,555
-41,286	16,742	1422,388	796,019
-40,271	16,722	1420,775	794,989
-39,257	16,700	1419,704	794,257
-38,242	16,782	1418,152	793,744
-37,227	16,701	1417,192	792,791
-36,213	16,748	1415,880	792,247
-35,198	16,718	1414,459	791,280
-34,184	16,755	1413,725	791,011
-33,169	16,649	1412,479	789,788
-32,154	16,706	1411,634	789,551
-31,140	16,747	1409,993	788,793
-30,125	16,792	1409,046	788,441
-29,111	16,788	1407,746	787,666
-28,096	16,736	1406,828	786,877
-27,082	16,683	1405,584	785,900
-26,067	16,678	1404,428	785,201
-25,052	16,655	1403,573	784,585
-24,038	16,674	1402,365	783,966
-23,023	16,634	1401,323	783,166
-22,009	16,598	1400,428	782,467
-20,994	16,595	1399,444	781,873
-19,979	16,613	1398,642	781,478
-18,965	16,545	1397,704	780,609
-17,950	16,585	1396,643	780,171
-16,936	16,575	1395,728	779,580
-15,921	16,564	1394,349	778,730
-14,906	16,570	1393,658	778,339
-13,892	16,599	1392,769	777,947
-12,877	16,548	1391,969	777,235
-11,863	16,620	1390,770	776,867
-10,848	16,576	1389,909	776,149
-9,833	16,537	1389,135	775,507
-8,819	16,473	1388,212	774,665
-7,804	16,417	1387,413	773,932
-6,790	16,486	1386,194	773,537
-5,775	16,464	1385,060	772,776
-4,760	16,388	1384,510	772,085
-3,746	16,425	1383,488	771,659
-2,731	16,404	1382,902	771,204
-1,717	16,426	1381,720	770,612
-0,702	16,359	1380,025	769,329
0,313	20,176	1301,731	743,272
1,327	36,587	707,808	442,245
2,342	56,327	125,626	86,442
3,356	1,946	16,599	8,465
4,371	5,792	3,085	1,613
5,386	-75,151	0,530	0,133
6,400	334,887	0,059	0,082
7,415	55,861	-0,290	-0,199
8,429	-140,842	-0,290	-0,021
9,444	84,559	-0,425	-0,330
10,459	66,293	-0,324	-0,233
11,473	-30,957	-0,264	-0,105
12,488	-58,254	-0,283	-0,087
13,502	32,066	-0,327	-0,199
14,517	38,307	-0,346	-0,218
15,531	162,671	-0,330	-0,328
16,546	190,177	-0,253	-0,270
17,561	25,237	-0,319	-0,187
18,575	-1,205	-0,247	-0,123
19,590	87,706	-0,229	-0,180
20,604	-82,980	-0,343	-0,078
21,619	152,315	-0,326	-0,315
22,634	46,977	-0,468	-0,308
23,648	148,895	-0,367	-0,352
24,663	47,369	-0,349	-0,230
25,677	3,774	-0,413	-0,213
26,692	37,423	-0,320	-0,201
27,707	-18,559	-0,489	-0,215
28,721	169,484	-0,320	-0,324
29,736	138,653	-0,358	-0,333
30,750	114,681	-0,368	-0,317
31,765	228,054	-0,224	-0,258
32,780	207,432	-0,262	-0,289
33,794	152,205	-0,333	-0,321
34,809	89,836	-0,270	-0,213
35,823	55,664	-0,398	-0,272
36,838	138,159	-0,377	-0,350
37,853	93,683	-0,420	-0,336
38,867	49,589	-0,542	-0,360
39,882	33,846	-0,390	-0,240
40,896	35,467	-0,385	-0,238
41,911	22,100	-0,373	-0,215
42,926	60,336	-0,266	-0,185
43,940	273,046	-0,175	-0,219
44,955	126,603	-0,220	-0,197
45,969	47,670	-0,353	-0,232
46,984	114,404	-0,379	-0,326
47,999	6,202	-0,255	-0,133
49,013	105,862	-0,335	-0,280
50,028	38,278	-0,426	-0,267
51,042	72,541	-0,275	-0,203
52,057	46,221	-0,253	-0,165
53,071	46,820	-0,339	-0,222
54,086	13,005	-0,457	-0,249
55,101	449,698	-0,162	-0,253
56,115	24,913	-0,316	-0,185
57,130	118,405	-0,372	-0,324
58,144	3,789	-0,373	-0,192
59,159	29,246	-0,370	-0,221
60,174	167,270	-0,434	-0,435
61,188	166,789	-0,316	-0,317
62,203	800,000	-0,212	-0,423
63,217	10,999	-0,330	-0,177
64,232	327,361	-0,172	-0,233
65,247	63,215	-0,376	-0,265
66,261	-12,049	-0,368	-0,169
67,276	112,484	-0,381	-0,325
68,290	128,894	-0,235	-0,212
69,305	168,660	-0,242	-0,243
70,320	332,263	-0,161	-0,220
71,334	57,842	-0,348	-0,240
72,349	125,489	-0,289	-0,257
73,363	-49,692	-0,406	-0,135
74,378	118,233	-0,327	-0,284
75,393	33,808	-0,316	-0,193
76,407	242,309	-0,266	-0,315
77,422	-1,164	-0,281	-0,139
78,436	-4,846	-0,400	-0,194
79,451	105,877	-0,289	-0,241
80,466	70,922	-0,292	-0,212
81,480	48,745	-0,327	-0,215
82,495	10,118	-0,275	-0,147
83,509	46,409	-0,332	-0,217
84,524	800,000	-0,134	-0,282
85,539	-36,520	-0,280	-0,106
86,553	5,039	-0,286	-0,148
87,568	159,986	-0,200	-0,196
88,582	19,827	-0,350	-0,198
89,597	28,553	-0,378	-0,224
90,611	-21,754	-0,282	-0,120
91,626	-6,613	-0,244	-0,117
92,641	-64,179	-0,207	-0,059
93,655	-95,357	-0,336	-0,063
94,670	-42,618	-0,310	-0,110
95,684	542,421	-0,216	-0,364
96,699	160,557	-0,240	-0,236
97,714	410,623	-0,230	-0,344
98,728	237,064	-0,269	-0,314
99,743	-58,316	-0,246	-0,075
100,757	-8,074	-0,316	-0,149
101,772	175,286	-0,244	-0,249
102,787	370,805	-0,197	-0,282
103,801	357,495	-0,215	-0,303
104,816	161,998	-0,159	-0,156
105,830	68,121	-0,219	-0,157
106,845	3,726	-0,219	-0,112
107,860	-64,680	-0,385	-0,109
108,874	19,994	-0,278	-0,157
109,889	15,512	-0,357	-0,196
110,903	305,799	-0,218	-0,286
111,918	52,619	-0,273	-0,183
112,933	320,636	-0,138	-0,185
113,947	90,627	-0,233	-0,183
114,962	-51,733	-0,298	-0,097
115,976	21,607	-0,362	-0,206
116,991	100,202	-0,256	-0,209
118,006	320,944	-0,235	-0,315
119,020	800,000	-0,142	-0,329
120,035	-200,000	0,001	-0,186
121,049	36,902	-0,290	-0,179
122,064	-70,190	-0,261	-0,069
123,079	291,466	-0,225	-0,288
124,093	158,589	-0,353	-0,344
125,108	800,000	-0,177	-0,406
126,122	647,123	-0,125	-0,225
127,137	378,593	-0,197	-0,283
128,151	241,722	-0,238	-0,280
129,166	510,136	-0,203	-0,333
130,181	-9,143	-0,318	-0,149
131,195	45,645	-0,352	-0,227
132,210	662,293	-0,194	-0,352
133,224	21,408	-0,277	-0,157
134,239	386,888	-0,141	-0,205
135,254	-17,305	-0,208	-0,091
136,268	-74,407	-0,244	-0,061
137,283	146,580	-0,145	-0,136
138,297	157,142	-0,227	-0,220
139,312	277,273	-0,234	-0,292
140,327	253,569	-0,146	-0,175
141,341	53,248	-0,230	-0,154
142,356	33,429	-0,234	-0,142
143,370	15,369	-0,266	-0,146
144,385	123,971	-0,220	-0,194
145,400	61,170	-0,200	-0,139
146,414	176,072	-0,248	-0,252
147,429	182,174	-0,293	-0,303
148,443	158,412	-0,174	-0,169
149,458	-107,314	-0,211	-0,032
150,473	9,015	-0,219	-0,116
151,487	257,279	-0,266	-0,320
152,502	179,980	-0,184	-0,189
153,516	59,750	-0,219	-0,151
154,531	183,354	-0,234	-0,242
155,546	145,565	-0,207	-0,194
156,560	165,455	-0,094	-0,093
157,575	235,824	-0,180	-0,208
158,589	77,969	-0,312	-0,232
159,604	20,135	-0,306	-0,172
160,619	-0,399	-0,189	-0,093
161,633	-15,142	-0,341	-0,152
162,648	-34,350	-0,272	-0,104
163,662	734,015	-0,099	-0,186
164,677	58,838	-0,156	-0,107
165,692	800,000	-0,104	-0,236
166,706	131,807	-0,221	-0,199
167,721	342,235	-0,151	-0,207
168,735	487,255	-0,094	-0,151
169,750	71,537	-0,297	-0,215
170,764	138,593	-0,256	-0,235
171,779	139,319	-0,203	-0,187
172,794	267,115	-0,207	-0,253
173,808	29,505	-0,255	-0,151
174,823	467,990	-0,240	-0,377
175,837	179,623	-0,268	-0,274
176,852	-5,493	-0,185	-0,088
177,867	111,886	-0,256	-0,216
178,881	800,000	-0,095	-0,202
179,896	394,898	-0,092	-0,134
180,910	185,996	-0,115	-0,119
181,925	37,115	-0,268	-0,165
182,940	208,917	-0,182	-0,199
183,954	471,429	-0,203	-0,319
184,969	86,262	-0,215	-0,165
185,983	-23,744	-0,167	-0,070
186,998	-16,850	-0,231	-0,101
188,013	-83,298	-0,155	-0,034
189,027	245,266	-0,207	-0,244
190,042	178,789	-0,219	-0,223
191,056	285,255	-0,212	-0,267
192,071	47,714	-0,185	-0,120
193,086	328,633	-0,138	-0,185
194,100	-159,520	-0,179	-0,007
195,115	53,630	-0,299	-0,200
196,129	378,553	-0,134	-0,191
197,144	-0,714	-0,393	-0,194
198,159	188,975	-0,174	-0,181
199,173	-145,561	-0,120	-0,007
200,188	54,389	-0,124	-0,083
201,202	18,437	-0,149	-0,083
202,217	-19,060	-0,090	-0,039
203,232	392,853	-0,132	-0,191
204,246	215,271	-0,207	-0,229
205,261	103,079	-0,142	-0,116
206,275	212,565	-0,250	-0,276
207,290	109,388	-0,178	-0,148
208,304	275,585	-0,120	-0,148
209,319	44,078	-0,258	-0,164
210,334	56,877	-0,165	-0,112
211,348	31,043	-0,216	-0,128
212,363	-19,970	-0,310	-0,133
213,377	-83,767	-0,116	-0,026
214,392	279,605	-0,154	-0,192
215,407	70,041	-0,149	-0,107
216,421	800,000	-0,065	-0,193
217,436	620,390	-0,144	-0,252
218,450	451,509	-0,145	-0,223
219,465	335,709	-0,137	-0,185
220,480	45,498	-0,211	-0,135
221,494	-99,772	-0,213	-0,037
222,509	-21,981	-0,211	-0,089
223,523	87,469	-0,192	-0,148
224,538	105,547	-0,252	-0,207
225,553	30,044	-0,263	-0,156
226,567	3,089	-0,259	-0,131
227,582	227,902	-0,189	-0,214
228,596	76,358	-0,120	-0,088
229,611	148,090	-0,179	-0,168
230,626	149,806	-0,101	-0,095
231,640	45,854	-0,244	-0,157
232,655	-50,462	-0,210	-0,068
233,669	53,302	-0,271	-0,180
234,684	-110,620	-0,223	-0,032
235,699	-58,848	-0,130	-0,039
236,713	-79,184	-0,232	-0,054
237,728	12,968	-0,288	-0,154
238,742	250,435	-0,156	-0,185
239,757	199,280	-0,113	-0,120
240,772	-62,947	-0,296	-0,084
241,786	-90,623	-0,235	-0,047
242,801	43,801	-0,193	-0,123
243,815	48,434	-0,042	0,027
244,830	76,039	-0,159	-0,117
245,844	514,123	-0,170	-0,276
246,859	470,726	-0,127	-0,199
247,874	-200,000	-0,010	-0,137
248,888	169,395	-0,145	-0,144
249,903	-200,000	-0,239	0,000
250,917	200,826	-0,214	-0,229
251,932	-61,520	-0,193	-0,056
252,947	-57,671	-0,100	-0,030
253,961	17,939	-0,232	-0,128
254,976	381,362	-0,191	-0,273
255,990	37,388	-0,151	-0,093
257,005	316,788	-0,158	-0,207
258,020	104,255	-0,154	-0,126
259,034	-87,665	-0,330	-0,068
260,049	-200,000	-0,069	-0,240
261,063	-102,310	-0,167	-0,027
262,078	123,790	-0,148	-0,129
263,093	260,034	-0,092	-0,110
264,107	-62,658	-0,182	-0,052
265,122	-1,514	-0,147	-0,072
266,136	159,189	-0,157	-0,152
267,151	-23,010	-0,252	-0,105
268,166	-127,211	-0,184	-0,018
269,180	-101,141	-0,304	-0,051
270,195	89,608	-0,218	-0,168
271,209	52,874	-0,130	-0,086
272,224	800,000	-0,103	-0,208
273,239	26,950	-0,135	-0,078
274,253	-33,689	-0,191	-0,073
275,268	5,997	-0,096	-0,049
276,282	36,356	-0,100	-0,061
277,297	60,983	-0,172	-0,118
278,312	417,907	-0,157	-0,233
279,326	303,637	-0,104	-0,133
280,341	-200,000	-0,044	-0,145
281,355	83,359	-0,107	-0,080
282,370	1,766	-0,144	-0,072
283,384	800,000	-0,094	-0,228
284,399	127,193	-0,216	-0,190
285,414	115,705	-0,105	-0,089
286,428	-66,569	-0,249	-0,068
287,443	34,987	-0,185	-0,112
288,457	209,640	-0,104	-0,113
289,472	123,468	-0,147	-0,128
290,487	119,702	-0,209	-0,179
291,501	-131,565	-0,233	0,021
292,516	135,937	-0,122	-0,110
293,530	800,000	-0,053	-0,140
294,545	-101,276	-0,138	-0,023
295,560	101,707	-0,070	-0,057
296,574	235,736	-0,093	-0,106
297,589	251,499	-0,152	-0,179
298,603	800,000	-0,088	-0,179
299,618	-188,853	-0,104	0,001
300,633	63,012	-0,132	-0,091
301,647	16,336	-0,135	-0,073
302,662	466,669	-0,102	-0,158
303,676	267,969	-0,130	-0,158
304,691	56,200	-0,135	-0,090
305,706	110,626	-0,205	-0,170
306,720	-173,863	-0,115	-0,002
307,735	664,448	-0,130	-0,232
308,749	-200,000	-0,041	-0,263
309,764	800,000	-0,069	-0,147
310,779	-189,575	-0,149	0,001
311,793	-200,000	-0,014	-0,205
312,808	124,888	-0,186	-0,162
313,822	371,145	-0,051	-0,072
314,837	-43,519	-0,083	-0,029
315,852	468,916	-0,067	-0,104
316,866	51,945	-0,151	-0,099
317,881	54,985	-0,170	-0,113
318,895	-26,893	-0,157	-0,063
319,910	99,075	-0,209	-0,166
320,925	98,367	-0,119	-0,095
321,939	477,955	-0,101	-0,157
322,954	-200,000	0,027	-0,086
323,968	-200,000	-0,038	-0,130
324,983	43,402	-0,063	0,040
325,997	800,000	-0,037	-0,111
327,012	162,271	-0,050	-0,048
328,027	22,459	-0,221	-0,124
329,041	800,000	-0,083	-0,245
330,056	20,190	-0,147	-0,081
331,070	-200,000	-0,052	-0,164
332,085	-200,000	-0,023	-0,124
333,100	-59,959	-0,092	-0,027
334,114	317,063	-0,100	-0,130
335,129	367,331	-0,165	-0,230
336,143	-127,249	-0,171	0,017
337,158	-103,480	-0,291	0,047
338,173	-98,127	-0,155	-0,027
339,187	-149,238	-0,128	-0,007
340,202	264,044	-0,028	0,034
341,216	-28,016	-0,307	-0,122
342,231	111,503	-0,182	-0,151
343,246	91,446	-0,193	-0,149
344,260	112,848	-0,047	0,039
345,275	-111,947	-0,132	-0,018
346,289	79,180	-0,100	-0,074
347,304	405,827	-0,091	-0,133
348,319	101,963	-0,102	-0,082
349,333	71,824	-0,175	-0,125
350,348	415,977	-0,117	-0,172
351,362	800,000	0,046	-0,088
352,377	-200,000	-0,030	-0,108
353,392	374,901	-0,069	-0,097
354,406	-87,203	-0,124	-0,026
355,421	210,530	1315,354	1422,257
356,435	162,072	1476,214	1422,790
