DTS Sentinel unit serial number:	SN410029Multiplexer serial number:	ORYXHardware model number:	OX2-SRSoftware version number:	ORYX F/W v4,00 Oryx Data Collector v3.7.2.0data status	okinstallation	B3 Nyhavnadifferential loss correction	single-endedforward channel	channel 1reverse channel	N/Adate	2023/11/30time	03:17:30forward acquisition time	300,00reverse acquisition time	0,00gamma	499,1914k internal	0,3210k external	0,3210temperature offset calibration	1,0000default loss term (dB/km)	0,3820temperature slope calibration	1,0000multiplexer offset coefficient	1,0000multiplexer slope coefficient	1,0000fibre end	0,00T internal ref (°C)	10,24T ext. ref 1 (°C)	-5,43T ext. ref 2 (°C)	-5,56length (m)	temperature (°C)	Stokes	anti-Stokes-744,400	578,869	-0,123	-0,218
-743,385	-200,000	-0,077	0,264
-742,371	174,954	-0,147	-0,155
-741,356	-200,000	-0,040	0,306
-740,342	314,309	-0,106	-0,144
-739,327	-200,000	-0,044	0,283
-738,312	135,533	-0,228	-0,215
-737,298	424,589	-0,163	0,256
-736,283	203,359	-0,254	-0,285
-735,269	720,615	-0,125	0,243
-734,254	400,591	-0,194	-0,296
-733,239	202,056	-0,146	0,163
-732,225	654,402	-0,131	-0,245
-731,210	123,484	0,180	0,163
-730,196	-200,000	0,005	0,030
-729,181	-200,000	0,019	0,080
-728,167	150,441	-0,068	-0,067
-727,152	-10,108	-0,022	0,011
-726,137	70,272	-0,079	-0,059
-725,123	242,007	-0,062	-0,075
-724,108	515,593	0,017	0,029
-723,094	-115,138	-0,242	-0,033
-722,079	52,098	-0,257	-0,177
-721,064	-49,125	0,090	0,031
-720,050	800,000	-0,029	0,063
-719,035	800,000	-0,023	0,065
-718,021	-200,000	0,019	-0,107
-717,006	-200,000	-0,011	-0,084
-715,991	245,862	-0,084	-0,103
-714,977	-200,000	-0,043	-0,176
-713,962	230,289	-0,084	-0,100
-712,948	51,415	-0,119	0,082
-711,933	-200,000	-0,014	-0,071
-710,918	-41,342	-0,009	0,003
-709,904	-200,000	0,001	-0,031
-708,889	35,937	0,122	-0,078
-707,875	-80,964	-0,051	-0,012
-706,860	-200,000	0,021	0,161
-705,845	100,796	0,097	-0,082
-704,831	57,094	-0,069	0,049
-703,816	82,274	0,110	-0,086
-702,802	800,000	-0,044	-0,108
-701,787	-45,017	0,087	-0,031
-700,772	116,011	0,110	-0,097
-699,758	204,407	-0,096	-0,108
-698,743	-200,000	-0,040	0,144
-697,729	182,965	-0,057	0,061
-696,714	-200,000	-0,008	0,110
-695,699	53,904	0,109	0,076
-694,685	332,745	-0,038	-0,054
-693,670	720,589	0,083	-0,160
-692,656	384,270	-0,055	0,082
-691,641	-42,336	-0,041	0,015
-690,627	-200,000	0,016	0,114
-689,612	-76,332	-0,027	0,007
-688,597	79,339	0,061	-0,048
-687,583	-200,000	0,003	0,047
-686,568	145,249	-0,114	-0,110
-685,554	-200,000	-0,014	-0,091
-684,539	-44,223	0,056	0,020
-683,524	108,835	0,065	-0,057
-682,510	-156,684	0,064	0,003
-681,495	800,000	0,045	-0,105
-680,481	708,279	-0,062	-0,119
-679,466	-8,131	-0,116	-0,056
-678,451	-200,000	-0,024	-0,081
-677,437	-200,000	-0,031	0,150
-676,422	-200,000	0,001	-0,091
-675,408	-200,000	-0,013	-0,068
-674,393	800,000	-0,078	0,161
-673,378	-200,000	0,009	0,073
-672,364	-77,972	-0,168	0,041
-671,349	-96,169	0,044	0,008
-670,335	115,245	0,036	-0,031
-669,320	28,409	0,086	0,053
-668,305	800,000	-0,002	0,006
-667,291	-118,621	0,074	0,009
-666,276	195,309	-0,093	-0,103
-665,262	173,180	-0,071	-0,074
-664,247	-75,618	0,108	-0,028
-663,232	43,155	0,118	-0,078
-662,218	-200,000	-0,004	-0,044
-661,203	505,306	0,022	-0,037
-660,189	-114,960	-0,047	-0,006
-659,174	-200,000	0,005	-0,067
-658,159	266,609	-0,034	0,042
-657,145	279,161	-0,094	-0,121
-656,130	-200,000	0,029	0,094
-655,116	-200,000	0,036	0,131
-654,101	-200,000	-0,047	-0,170
-653,086	224,301	0,039	-0,045
-652,072	-46,803	-0,100	0,035
-651,057	339,346	0,074	-0,105
-650,043	187,352	0,089	-0,097
-649,028	800,000	-0,043	-0,109
-648,014	-200,000	0,022	-0,115
-646,999	-18,714	0,111	0,050
-645,984	-200,000	0,044	0,140
-644,970	222,452	0,067	-0,079
-643,955	-27,845	0,073	0,031
-642,941	33,216	-0,090	0,056
-641,926	-200,000	-0,020	-0,131
-640,911	754,728	0,093	-0,183
-639,897	758,028	0,012	-0,024
-638,882	-102,265	0,136	-0,023
-637,868	17,685	-0,063	0,036
-636,853	-200,000	0,008	0,084
-635,838	86,369	-0,064	0,051
-634,824	186,736	-0,051	-0,055
-633,809	-19,574	0,047	-0,021
-632,795	-108,135	0,085	0,013
-631,780	-28,618	-0,050	0,021
-630,765	438,725	0,133	-0,211
-629,751	-6,874	-0,075	0,037
-628,736	-35,065	-0,230	-0,090
-627,722	-200,000	-0,018	-0,152
-626,707	-135,009	-0,039	-0,003
-625,692	800,000	-0,028	-0,069
-624,678	-200,000	0,032	0,173
-623,663	-24,269	-0,112	-0,048
-622,649	8,365	-0,079	-0,043
-621,634	800,000	0,018	0,051
-620,619	-200,000	-0,010	-0,069
-619,605	182,609	0,103	-0,109
-618,590	121,714	-0,059	0,053
-617,576	800,000	0,024	0,067
-616,561	168,209	-0,017	-0,017
-615,546	-139,779	-0,050	-0,004
-614,532	-52,400	-0,038	0,013
-613,517	90,907	-0,087	0,070
-612,503	128,218	-0,101	-0,093
-611,488	-62,710	0,074	-0,022
-610,474	-200,000	0,058	0,188
-609,459	37,208	0,062	0,040
-608,444	160,259	0,049	-0,049
-607,430	211,194	-0,052	-0,060
-606,415	-134,808	-0,018	-0,002
-605,401	-200,000	0,018	0,130
-604,386	76,558	0,100	0,077
-603,371	800,000	0,046	0,138
-602,357	48,535	-0,051	0,034
-601,342	166,578	-0,038	-0,039
-600,328	-79,008	-0,131	0,032
-599,313	800,000	-0,052	-0,117
-598,298	111,597	-0,079	-0,068
-597,284	469,532	0,090	-0,146
-596,269	-1,643	-0,088	0,045
-595,255	232,349	-0,031	-0,037
-594,240	-200,000	0,016	-0,101
-593,225	175,683	-0,079	-0,083
-592,211	-126,202	-0,118	-0,013
-591,196	800,000	0,026	0,068
-590,182	282,100	0,079	0,103
-589,167	-200,000	0,007	0,047
-588,152	-200,000	0,012	0,124
-587,138	800,000	0,039	0,112
-586,123	529,331	-0,057	-0,098
-585,109	800,000	0,070	0,150
-584,094	-200,000	-0,026	0,123
-583,079	272,987	-0,033	0,042
-582,065	-20,594	-0,099	-0,044
-581,050	800,000	0,062	-0,138
-580,036	-45,456	-0,126	0,045
-579,021	-52,266	-0,111	0,037
-578,006	-29,540	-0,041	0,017
-576,992	-200,000	-0,001	-0,104
-575,977	800,000	-0,023	-0,049
-574,963	97,466	-0,079	-0,066
-573,948	-45,454	-0,102	0,036
-572,934	158,489	-0,097	0,097
-571,919	-7,077	0,132	-0,064
-570,904	-200,000	-0,016	0,083
-569,890	-200,000	-0,011	-0,133
-568,875	-200,000	0,020	-0,073
-567,861	747,143	-0,036	-0,071
-566,846	14,342	-0,159	0,089
-565,831	800,000	0,036	0,100
-564,817	519,659	0,064	0,109
-563,802	-200,000	0,017	-0,119
-562,788	192,921	0,059	-0,064
-561,773	-62,851	0,083	0,025
-560,758	380,373	-0,021	-0,031
-559,744	65,337	0,072	-0,052
-558,729	-200,000	-0,024	0,106
-557,715	-36,881	-0,072	0,028
-556,700	-200,000	0,000	-0,056
-555,685	-58,505	-0,056	0,017
-554,671	800,000	-0,038	-0,099
-553,656	321,209	0,039	0,054
-552,642	84,378	-0,090	0,071
-551,627	304,938	0,024	-0,032
-550,612	422,852	0,066	-0,103
-549,598	800,000	-0,014	-0,035
-548,583	-133,652	-0,071	0,006
-547,569	-70,489	0,091	0,025
-546,554	-84,794	-0,110	0,025
-545,539	-25,194	0,051	0,022
-544,525	-157,957	0,120	0,005
-543,510	457,622	0,086	-0,139
-542,496	276,517	-0,037	-0,047
-541,481	127,705	0,092	-0,084
-540,466	-200,000	0,033	-0,128
-539,452	-18,519	0,082	0,037
-538,437	-200,000	0,029	-0,116
-537,423	-38,208	-0,147	0,056
-536,408	-128,653	0,069	0,007
-535,393	-200,000	-0,000	-0,027
-534,379	98,000	0,085	-0,070
-533,364	800,000	-0,035	-0,084
-532,350	800,000	-0,020	-0,046
-531,335	169,357	-0,060	-0,062
-530,321	372,452	0,057	0,084
-529,306	-200,000	-0,012	-0,087
-528,291	65,412	0,136	-0,099
-527,277	-116,610	-0,088	0,011
-526,262	800,000	-0,034	-0,105
-525,248	30,873	0,058	-0,036
-524,233	-200,000	-0,026	0,133
-523,218	-200,000	0,001	0,078
-522,204	-200,000	-0,039	-0,149
-521,189	-86,931	-0,069	-0,015
-520,175	800,000	0,103	-0,211
-519,160	129,852	-0,044	-0,040
-518,145	-4,689	0,073	-0,036
-517,131	336,450	-0,027	-0,037
-516,116	29,737	-0,065	0,040
-515,102	97,475	-0,123	-0,102
-514,087	38,344	-0,047	-0,030
-513,072	63,620	-0,174	-0,126
-512,058	-15,241	0,041	-0,019
-511,043	105,427	0,056	-0,047
-510,029	673,747	0,012	0,023
-509,014	-56,496	0,124	0,039
-507,999	-148,927	-0,199	0,011
-506,985	-94,102	-0,090	-0,018
-505,970	-200,000	0,003	-0,071
-504,956	-167,204	0,067	-0,002
-503,941	-200,000	0,056	-0,195
-502,926	-200,000	-0,012	-0,040
-501,912	-73,494	0,182	0,047
-500,897	-153,801	-0,062	-0,003
-499,883	49,997	0,082	-0,055
-498,868	-2,258	-0,073	-0,036
-497,853	-200,000	-0,003	0,039
-496,839	53,622	0,029	0,020
-495,824	790,064	0,041	0,082
-494,810	132,373	-0,050	0,046
-493,795	280,845	0,075	0,097
-492,781	-200,000	-0,000	-0,063
-491,766	-89,058	-0,035	0,007
-490,751	-63,858	-0,098	-0,028
-489,737	-20,602	0,064	0,028
-488,722	-175,695	0,139	0,003
-487,708	800,000	0,040	0,089
-486,693	392,608	-0,036	-0,054
-485,678	-200,000	0,035	-0,157
-484,664	179,316	-0,079	0,084
-483,649	800,000	-0,041	-0,109
-482,635	8,862	0,077	-0,042
-481,620	-200,000	-0,028	0,106
-480,605	684,545	0,038	0,072
-479,591	116,403	0,019	0,017
-478,576	167,001	0,081	0,083
-477,562	792,641	0,017	0,033
-476,547	-58,089	-0,126	-0,039
-475,532	200,800	0,024	0,027
-474,518	-117,696	0,159	-0,020
-473,503	-36,312	-0,104	-0,040
-472,489	-38,910	0,105	0,040
-471,474	129,684	-0,159	-0,146
-470,459	-200,000	-0,003	0,035
-469,445	-200,000	0,004	-0,059
-468,430	-106,726	0,117	0,019
-467,416	800,000	-0,025	0,066
-466,401	-38,403	0,121	0,046
-465,386	-200,000	-0,000	0,087
-464,372	-200,000	-0,010	0,060
-463,357	-200,000	0,004	0,046
-462,343	-200,000	0,016	-0,067
-461,328	103,579	0,061	0,051
-460,313	38,897	0,046	0,029
-459,299	230,872	-0,083	-0,098
-458,284	205,091	-0,086	0,096
-457,270	800,000	0,035	0,074
-456,255	250,148	-0,157	-0,191
-455,241	-74,328	0,152	-0,039
-454,226	-25,466	0,111	0,047
-453,211	158,424	-0,012	0,012
-452,197	-38,894	-0,039	0,015
-451,182	800,000	0,019	-0,040
-450,168	-4,680	0,086	0,042
-449,153	-200,000	-0,015	-0,113
-448,138	-59,254	-0,123	0,038
-447,124	-55,878	-0,126	-0,040
-446,109	548,770	0,005	0,008
-445,095	-118,691	0,015	0,002
-444,080	126,001	-0,066	0,059
-443,065	-5,898	0,106	0,052
-442,051	-24,583	-0,092	0,039
-441,036	800,000	-0,019	-0,038
-440,022	800,000	-0,011	0,032
-439,007	222,499	0,061	-0,071
-437,992	-33,742	-0,077	0,030
-436,978	52,987	0,086	0,059
-435,963	490,639	0,090	0,148
-434,949	-30,792	-0,058	-0,023
-433,934	-65,402	-0,051	0,015
-432,919	43,292	-0,128	0,083
-431,905	-200,000	-0,001	-0,106
-430,890	55,813	0,020	0,014
-429,876	-200,000	0,003	0,131
-428,861	720,614	0,039	-0,074
-427,846	-1,739	0,100	0,050
-426,832	800,000	-0,073	-0,147
-425,817	626,618	-0,045	-0,081
-424,803	-83,830	-0,098	0,022
-423,788	145,461	-0,013	0,013
-422,773	-164,448	0,173	0,006
-421,759	-200,000	-0,027	0,159
-420,744	-200,000	-0,002	0,135
-419,730	-33,402	0,088	0,035
-418,715	66,117	-0,038	0,028
-417,701	-79,312	-0,029	0,007
-416,686	800,000	0,019	0,042
-415,671	-31,834	0,148	0,059
-414,657	-200,000	0,035	0,155
-413,642	607,023	-0,042	0,076
-412,628	173,028	0,065	-0,067
-411,613	323,056	-0,053	-0,073
-410,598	-135,271	-0,102	-0,009
-409,584	-38,513	0,140	-0,053
-408,569	503,047	0,035	0,057
-407,555	160,240	0,121	0,121
-406,540	106,836	-0,038	0,032
-405,525	-136,665	0,066	-0,005
-404,511	-84,789	-0,113	0,025
-403,496	-32,436	0,053	-0,021
-402,482	-200,000	0,012	0,063
-401,467	12,896	0,050	-0,028
-400,452	-55,465	0,067	-0,021
-399,438	-200,000	-0,060	-0,212
-398,423	-21,839	0,074	0,032
-397,409	-29,228	-0,184	0,075
-396,394	12,514	0,156	0,086
-395,379	-200,000	-0,015	-0,056
-394,365	315,932	0,054	0,073
-393,350	109,623	0,024	0,021
-392,336	20,685	0,089	-0,051
-391,321	9,140	-0,067	-0,036
-390,306	-200,000	0,017	-0,135
-389,292	800,000	-0,032	-0,070
-388,277	800,000	-0,024	-0,064
-387,263	-49,481	-0,082	-0,028
-386,248	-31,149	0,106	-0,043
-385,233	172,716	-0,135	-0,140
-384,219	592,017	0,038	-0,068
-383,204	44,930	-0,078	-0,051
-382,190	-30,509	0,088	0,036
-381,175	63,703	0,020	0,014
-380,160	664,407	-0,015	-0,028
-379,146	251,476	0,137	0,168
-378,131	243,671	-0,043	0,051
-377,117	-129,253	0,113	-0,011
-376,102	447,459	-0,067	0,107
-375,088	723,841	0,029	0,055
-374,073	-45,922	0,091	-0,032
-373,058	-159,388	-0,027	-0,001
-372,044	227,113	0,041	-0,048
-371,029	111,137	0,059	0,050
-370,015	328,123	0,009	0,012
-369,000	187,611	-0,078	0,083
-367,985	-156,296	-0,073	-0,003
-366,971	330,594	0,050	-0,069
-365,956	310,530	0,014	-0,018
-364,942	-7,820	-0,022	0,010
-363,927	226,343	-0,015	0,018
-362,912	-18,707	0,133	-0,059
-361,898	-200,000	0,003	0,031
-360,883	-16,006	0,068	-0,031
-359,869	-60,354	-0,051	0,015
-358,854	-11,585	0,012	0,006
-357,839	424,139	0,060	0,093
-356,825	-167,567	0,115	-0,003
-355,810	-84,348	-0,113	0,025
-354,796	-145,718	-0,080	-0,005
-353,781	-63,685	-0,150	-0,044
-352,766	98,286	0,019	0,016
-351,752	638,812	-0,023	0,043
-350,737	14,532	0,089	-0,050
-349,723	64,426	0,136	0,098
-348,708	130,760	0,131	0,120
-347,693	-161,718	-0,146	0,005
-346,679	-200,000	0,012	-0,185
-345,664	-200,000	0,010	-0,034
-344,650	166,521	0,059	-0,060
-343,635	-94,488	-0,120	0,023
-342,620	650,435	0,033	-0,060
-341,606	800,000	0,038	0,110
-340,591	56,866	-0,109	-0,076
-339,577	113,419	-0,080	-0,069
-338,562	-91,376	-0,079	-0,016
-337,548	732,516	-0,038	-0,072
-336,533	-91,869	-0,156	0,031
-335,518	1,591	0,076	0,039
-334,504	472,952	0,036	0,058
-333,489	-96,658	0,143	-0,027
-332,475	800,000	-0,044	0,137
-331,460	-70,166	-0,064	-0,017
-330,445	-200,000	0,013	0,126
-329,431	-200,000	-0,008	0,152
-328,416	163,076	0,055	0,056
-327,402	-200,000	-0,016	0,058
-326,387	-200,000	0,027	-0,101
-325,372	-152,453	0,058	0,003
-324,358	471,096	0,084	-0,135
-323,343	-9,730	-0,039	0,019
-322,329	11,211	0,153	0,084
-321,314	-145,083	-0,112	0,007
-320,299	319,798	0,044	0,060
-319,285	800,000	-0,028	0,066
-318,270	-200,000	-0,036	0,127
-317,256	-99,861	-0,158	-0,028
-316,241	93,676	0,028	0,023
-315,226	89,672	0,031	0,025
-314,212	-71,333	0,148	0,039
-313,197	-137,154	0,140	-0,011
-312,183	118,605	-0,068	0,060
-311,168	336,342	-0,057	0,079
-310,153	-200,000	-0,010	-0,042
-309,139	-156,226	-0,018	0,001
-308,124	518,345	-0,009	0,016
-307,110	-200,000	-0,024	0,092
-306,095	208,185	-0,037	0,042
-305,080	-200,000	0,033	0,125
-304,066	67,429	-0,006	0,004
-303,051	-124,244	-0,115	0,013
-302,037	694,342	-0,063	-0,119
-301,022	137,383	0,124	0,116
-300,008	-13,003	0,048	0,022
-298,993	-200,000	-0,003	0,146
-297,978	800,000	-0,026	0,079
-296,964	-20,079	-0,032	-0,014
-295,949	94,713	-0,068	0,055
-294,935	767,749	-0,042	-0,082
-293,920	-200,000	-0,004	0,047
-292,905	271,466	0,043	0,055
-291,891	-58,970	-0,042	0,013
-290,876	-12,704	0,055	-0,025
-289,862	-200,000	0,014	0,077
-288,847	-200,000	-0,041	-0,138
-287,832	800,000	-0,016	-0,038
-286,818	124,823	0,103	0,093
-285,803	800,000	0,060	0,130
-284,789	-200,000	-0,025	0,101
-283,774	800,000	0,029	0,068
-282,759	49,517	-0,069	-0,046
-281,745	791,572	-0,077	-0,151
-280,730	-11,961	-0,134	-0,063
-279,716	800,000	-0,066	-0,146
-278,701	194,266	0,144	-0,156
-277,686	70,846	-0,071	-0,052
-276,672	251,921	0,096	0,116
-275,657	-4,148	-0,081	0,040
-274,643	9,187	-0,067	-0,036
-273,628	327,980	0,064	-0,088
-272,613	153,520	0,064	-0,063
-271,599	-185,002	-0,106	-0,001
-270,584	119,288	0,123	0,108
-269,570	204,229	0,067	0,074
-268,555	197,853	-0,010	0,011
-267,540	-47,401	-0,068	-0,023
-266,526	-81,238	-0,146	-0,034
-265,511	-200,000	-0,012	-0,045
-264,497	538,675	-0,068	-0,116
-263,482	800,000	0,035	0,108
-262,467	800,000	0,033	0,076
-261,453	-200,000	0,007	0,047
-260,438	-31,130	0,130	-0,052
-259,424	-200,000	-0,018	0,107
-258,409	199,684	-0,109	-0,119
-257,395	174,110	0,036	0,037
-256,380	-138,048	-0,045	-0,004
-255,365	-47,998	0,091	0,031
-254,351	800,000	-0,043	-0,087
-253,336	-19,704	0,058	0,025
-252,322	-52,285	-0,097	-0,032
-251,307	41,198	-0,175	0,112
-250,292	644,674	0,037	0,067
-249,278	624,116	0,062	-0,112
-248,263	-116,478	0,017	0,002
-247,249	-200,000	0,004	0,068
-246,234	-45,469	-0,112	0,039
-245,219	56,649	-0,152	-0,105
-244,205	-200,000	-0,009	-0,081
-243,190	-200,000	-0,010	0,044
-242,176	-169,656	-0,076	-0,002
-241,161	76,651	0,067	-0,051
-240,146	-200,000	0,011	0,072
-239,132	774,278	0,023	-0,044
-238,117	800,000	-0,019	-0,041
-237,103	-200,000	0,019	0,147
-236,088	91,776	0,018	0,015
-235,073	-200,000	-0,004	0,094
-234,059	65,655	-0,021	-0,015
-233,044	800,000	0,089	-0,183
-232,030	8,407	0,074	0,039
-231,015	-200,000	0,040	-0,157
-230,000	6,787	-0,059	-0,031
-228,986	-200,000	0,010	-0,102
-227,971	4,582	-0,038	-0,020
-226,957	133,524	-0,041	-0,038
-225,942	0,352	0,047	0,024
-224,927	36,995	-0,077	-0,048
-223,913	-200,000	0,040	-0,126
-222,898	-172,949	-0,082	0,002
-221,884	-88,751	0,117	0,024
-220,869	-169,695	0,050	-0,001
-219,855	-36,310	0,120	0,046
-218,840	418,853	-0,058	0,088
-217,825	-84,151	0,078	0,018
-216,811	-8,728	0,059	-0,028
-215,796	800,000	-0,039	-0,083
-214,782	-73,241	-0,125	0,032
-213,767	188,905	0,058	-0,061
-212,752	800,000	0,026	-0,062
-211,738	150,568	-0,034	-0,033
-210,723	443,956	0,073	-0,114
-209,709	-152,804	-0,085	0,004
-208,694	70,489	-0,092	0,067
-207,679	-200,000	-0,008	0,117
-206,665	800,000	0,027	0,058
-205,650	-145,260	0,145	0,009
-204,636	78,131	-0,171	0,129
-203,621	-110,445	-0,032	-0,005
-202,606	107,998	0,070	0,059
-201,592	-83,024	-0,100	0,023
-200,577	800,000	-0,006	0,013
-199,563	-102,938	0,120	0,020
-198,548	6,377	0,131	0,069
-197,533	-169,754	0,104	0,003
-196,519	-176,489	0,104	0,002
-195,504	-4,943	0,024	-0,012
-194,490	-200,000	0,007	-0,077
-193,475	14,482	-0,129	-0,071
-192,460	800,000	0,034	0,082
-191,446	-200,000	-0,021	0,109
-190,431	725,207	-0,018	-0,035
-189,417	789,655	0,059	0,116
-188,402	442,312	-0,016	0,025
-187,387	751,928	-0,031	-0,060
-186,373	-200,000	-0,022	-0,164
-185,358	545,385	-0,078	-0,132
-184,344	-20,843	0,078	0,034
-183,329	582,787	-0,029	0,050
-182,315	-66,647	0,061	-0,017
-181,300	-36,808	0,085	-0,032
-180,285	647,732	0,049	-0,089
-179,271	263,098	-0,089	-0,110
-178,256	428,195	-0,027	0,042
-177,242	-200,000	-0,004	-0,016
-176,227	111,328	0,128	0,110
-175,212	94,320	-0,055	-0,044
-174,198	-200,000	0,001	0,004
-173,183	641,587	0,023	-0,041
-172,169	-89,459	-0,048	-0,010
-171,154	-200,000	0,007	0,109
-170,139	-27,007	0,094	0,039
-169,125	199,073	0,115	0,126
-168,110	480,969	0,054	-0,087
-167,096	293,077	0,042	0,054
-166,081	364,650	-0,040	-0,057
-165,066	-16,587	-0,088	0,040
-164,052	306,059	0,060	0,080
-163,037	800,000	-0,005	-0,014
-162,023	800,000	0,017	0,041
-161,008	-153,844	-0,141	0,007
-159,993	99,091	-0,083	-0,068
-158,979	168,513	0,018	0,018
-157,964	228,941	-0,060	-0,069
-156,950	-200,000	-0,005	-0,050
-155,935	800,000	-0,056	0,175
-154,920	-200,000	-0,016	0,155
-153,906	-200,000	0,020	0,070
-152,891	-75,996	0,058	0,014
-151,877	218,458	0,015	-0,017
-150,862	-95,779	0,085	-0,016
-149,847	368,886	0,064	0,091
-148,833	369,203	0,055	-0,080
-147,818	202,834	0,025	0,028
-146,804	-200,000	0,008	0,089
-145,789	-200,000	-0,010	0,238
-144,775	-200,000	-0,011	0,181
-143,760	-39,862	-0,193	0,071
-142,745	447,740	0,060	0,094
-141,731	800,000	0,044	-0,138
-140,716	-55,883	-0,080	-0,025
-139,702	88,946	0,124	0,098
-138,687	800,000	-0,004	0,011
-137,672	-200,000	0,014	-0,078
-136,658	800,000	0,025	-0,053
-135,643	-200,000	-0,022	-0,071
-134,629	287,746	-0,034	-0,044
-133,614	6,808	0,143	0,075
-132,599	-61,979	0,039	-0,012
-131,585	101,806	0,058	0,048
-130,570	789,080	0,065	-0,128
-129,556	800,000	-0,053	-0,108
-128,541	-200,000	-0,005	-0,028
-127,526	475,267	0,021	-0,034
-126,512	-100,500	-0,067	-0,012
-125,497	585,884	0,060	0,105
-124,483	-200,000	-0,005	-0,059
-123,468	800,000	0,051	-0,100
-122,453	800,000	0,029	0,086
-121,439	191,778	-0,019	0,020
-120,424	-58,844	-0,050	-0,015
-119,410	-200,000	0,022	0,068
-118,395	800,000	-0,007	0,014
-117,380	675,615	0,062	-0,114
-116,366	-200,000	-0,014	-0,100
-115,351	-148,321	-0,109	-0,006
-114,337	-200,000	0,026	0,120
-113,322	-200,000	-0,004	0,055
-112,307	378,572	-0,034	-0,050
-111,293	143,810	0,012	0,011
-110,278	62,202	-0,102	-0,072
-109,264	-200,000	0,009	-0,151
-108,249	649,676	-0,042	0,077
-107,234	620,113	-0,092	0,164
-106,220	6,042	-0,115	0,060
-105,205	-200,000	-0,010	-0,078
-104,191	526,070	-0,008	-0,014
-103,176	84,280	0,074	-0,057
-102,162	191,821	0,062	0,067
-101,147	-29,480	0,096	0,039
-100,132	-119,159	-0,152	-0,019
-99,118	-64,356	0,063	-0,018
-98,103	800,000	0,067	-0,168
-97,089	800,000	0,012	-0,027
-96,074	-200,000	-0,011	0,048
-95,059	255,668	0,035	-0,042
-94,045	-153,828	-0,032	0,002
-93,030	235,116	-0,066	0,077
-92,016	48,289	0,077	0,051
-91,001	-200,000	0,024	-0,087
-89,986	143,231	-0,089	-0,084
-88,972	6,047	-0,037	-0,019
-87,957	-200,000	0,010	0,054
-86,943	110,023	-0,074	-0,063
-85,928	-200,000	-0,005	-0,062
-84,913	800,000	0,028	-0,057
-83,899	419,419	-0,008	-0,013
-82,884	800,000	-0,008	-0,021
-81,870	22,675	0,055	-0,032
-80,855	-200,000	0,003	0,062
-79,840	-200,000	0,011	-0,078
-78,826	143,650	-0,048	0,046
-77,811	752,308	-0,033	-0,064
-76,797	-119,662	0,023	0,003
-75,782	-200,000	-0,009	0,149
-74,767	-200,000	-0,004	0,110
-73,753	160,127	-0,086	0,084
-72,738	-103,694	0,029	-0,005
-71,724	-11,853	-0,084	-0,039
-70,709	-200,000	-0,030	0,104
-69,694	-160,882	0,056	-0,002
-68,680	800,000	0,031	0,092
-67,665	800,000	0,037	-0,093
-66,651	315,310	0,110	0,147
-65,636	324,971	-0,068	0,092
-64,622	84,293	-0,050	-0,039
-63,607	219,574	0,097	-0,110
-62,592	-179,536	-0,062	-0,001
-61,578	335,009	-0,074	0,102
-60,563	-19,640	0,150	-0,065
-59,549	69,635	0,113	0,082
-58,534	43,268	-1,915	-1,233
-57,519	594,298	-1,161	-2,036
-56,505	-200,000	-0,388	-4,417
-55,490	395,854	1,015	1,501
-54,476	800,000	5,106	11,170
-53,461	-200,000	21,237	339,192
-52,446	800,000	759,409	2356,217
-51,432	559,362	1662,113	2843,781
-50,417	73,656	1661,580	1227,524
-49,403	18,130	1535,204	861,969
-48,388	12,089	1458,616	789,744
-47,373	19,370	1449,631	819,791
-46,359	15,477	1439,039	795,251
-45,344	10,336	1434,759	768,374
-44,330	10,315	1432,799	767,195
-43,315	10,235	1431,234	765,946
-42,300	10,278	1429,314	765,090
-41,286	10,281	1428,113	764,432
-40,271	10,311	1426,728	763,801
-39,257	10,280	1425,730	763,091
-38,242	10,323	1424,581	762,649
-37,227	10,334	1423,511	762,098
-36,213	10,309	1421,902	761,086
-35,198	10,357	1420,861	760,729
-34,184	10,302	1420,241	760,104
-33,169	10,317	1418,526	759,229
-32,154	10,309	1417,850	758,799
-31,140	10,334	1416,444	758,133
-30,125	10,350	1415,359	757,600
-29,111	10,386	1414,129	757,077
-28,096	10,311	1413,082	756,135
-27,082	10,300	1411,848	755,393
-26,067	10,219	1411,075	754,571
-25,052	10,298	1409,801	754,229
-24,038	10,276	1408,828	753,577
-23,023	10,289	1407,954	753,138
-22,009	10,276	1406,992	752,536
-20,994	10,285	1405,797	751,907
-19,979	10,253	1404,867	751,233
-18,965	10,270	1404,008	750,821
-17,950	10,172	1403,193	749,898
-16,936	10,181	1402,528	749,553
-15,921	10,176	1401,310	748,849
-14,906	10,180	1400,563	748,443
-13,892	10,228	1399,309	747,965
-12,877	10,173	1398,561	747,278
-11,863	10,159	1397,920	746,843
-10,848	10,147	1397,019	746,276
-9,833	10,116	1396,122	745,625
-8,819	10,158	1395,067	745,226
-7,804	10,095	1394,080	744,378
-6,790	10,096	1393,312	743,942
-5,775	10,068	1392,262	743,223
-4,760	10,052	1391,143	742,522
-3,746	10,056	1390,059	741,928
-2,731	10,121	1389,225	741,758
-1,717	10,092	1388,495	741,204
-0,702	10,044	1386,731	740,011
0,313	14,166	1299,428	712,257
1,327	30,450	690,080	415,161
2,342	47,531	119,395	78,397
3,356	0,537	16,476	8,280
4,371	9,586	3,478	1,853
5,386	-21,374	1,017	0,436
6,400	-200,000	0,165	0,598
7,415	-16,269	-0,230	-0,103
8,429	49,100	-0,236	-0,156
9,444	86,169	-0,313	-0,243
10,459	104,290	-0,171	-0,142
11,473	18,744	-0,248	-0,139
12,488	31,503	-0,372	-0,225
13,502	286,325	-0,203	-0,259
14,517	36,163	-0,411	-0,255
15,531	38,075	-0,309	-0,193
16,546	29,153	-0,384	-0,229
17,561	45,392	-0,385	-0,250
18,575	87,256	-0,148	-0,115
19,590	170,823	-0,204	-0,206
20,604	29,795	-0,150	-0,090
21,619	268,514	-0,394	-0,487
22,634	58,524	-0,477	-0,329
23,648	99,992	-0,423	-0,345
24,663	47,083	-0,497	-0,325
25,677	19,260	-0,411	-0,232
26,692	115,222	-0,401	-0,345
27,707	321,495	-0,186	-0,249
28,721	-22,489	-0,354	-0,150
29,736	-1,192	-0,299	-0,148
30,750	337,181	-0,354	-0,486
31,765	-21,807	-0,436	-0,186
32,780	196,021	-0,209	-0,224
33,794	86,873	-0,340	-0,264
34,809	-11,618	-0,370	-0,170
35,823	30,118	-0,372	-0,222
36,838	-14,033	-0,405	-0,183
37,853	5,589	-0,441	-0,228
38,867	122,522	-0,300	-0,263
39,882	172,934	-0,301	-0,305
40,896	-65,371	-0,370	-0,104
41,911	-15,655	-0,254	-0,113
42,926	281,200	-0,284	-0,358
43,940	12,434	-0,353	-0,191
44,955	9,058	-0,355	-0,188
45,969	103,166	-0,391	-0,322
46,984	194,917	-0,371	-0,397
47,999	58,518	-0,293	-0,202
49,013	146,965	-0,243	-0,229
50,028	79,544	-0,218	-0,164
51,042	154,295	-0,333	-0,321
52,057	115,900	-0,315	-0,271
53,071	93,696	-0,330	-0,263
54,086	8,548	-0,479	-0,252
55,101	-62,284	-0,437	-0,127
56,115	33,086	-0,382	-0,232
57,130	52,318	-0,457	-0,306
58,144	25,301	-0,319	-0,186
59,159	131,150	-0,403	-0,363
60,174	113,357	-0,378	-0,322
61,188	-17,574	-0,343	-0,151
62,203	36,659	-0,325	-0,201
63,217	80,613	-0,283	-0,213
64,232	-52,796	-0,349	-0,112
65,247	-14,598	-0,324	-0,145
66,261	100,852	-0,329	-0,268
67,276	-42,328	-0,402	-0,143
68,290	73,064	-0,363	-0,266
69,305	55,529	-0,265	-0,180
70,320	-109,097	-0,382	-0,056
71,334	470,290	-0,192	-0,304
72,349	29,610	-0,387	-0,230
73,363	9,097	-0,325	-0,171
74,378	27,824	-0,267	-0,157
75,393	226,708	-0,227	-0,259
76,407	100,442	-0,285	-0,232
77,422	-51,659	-0,243	-0,079
78,436	-63,576	-0,326	-0,093
79,451	52,485	-0,241	-0,161
80,466	34,384	-0,345	-0,211
81,480	-4,861	-0,335	-0,161
82,495	-55,194	-0,347	-0,109
83,509	-1,953	-0,354	-0,174
84,524	47,931	-0,179	-0,117
85,539	127,903	-0,226	-0,201
86,553	6,457	-0,237	-0,123
87,568	227,189	-0,241	-0,274
88,582	104,263	-0,202	-0,166
89,597	137,642	-0,250	-0,229
90,611	128,650	-0,248	-0,221
91,626	-97,398	-0,381	-0,069
92,641	14,979	-0,270	-0,147
93,655	217,117	-0,227	-0,254
94,670	74,606	-0,265	-0,195
95,684	10,454	-0,223	-0,119
96,699	169,387	-0,268	-0,268
97,714	47,313	-0,260	-0,169
98,728	-47,722	-0,226	-0,076
99,743	141,001	-0,178	-0,165
100,757	24,332	-0,271	-0,156
101,772	-51,265	-0,230	-0,075
102,787	43,118	-0,248	-0,158
103,801	38,601	-0,383	-0,238
104,816	85,840	-0,259	-0,199
105,830	296,026	-0,162	-0,208
106,845	-43,867	-0,298	-0,104
107,860	59,622	-0,341	-0,235
108,874	209,826	-0,135	-0,148
109,889	-65,217	-0,344	-0,096
110,903	133,428	-0,326	-0,295
111,918	39,550	-0,240	-0,150
112,933	263,155	-0,138	-0,167
113,947	-136,632	-0,282	-0,022
114,962	133,956	-0,134	-0,121
115,976	148,022	-0,245	-0,230
116,991	-44,064	-0,365	-0,127
118,006	67,460	-0,354	-0,252
119,020	20,077	-0,192	-0,108
120,035	-121,508	-0,201	-0,023
121,049	33,431	-0,220	-0,133
122,064	-9,239	-0,232	-0,108
123,079	230,068	-0,260	-0,297
124,093	174,679	-0,221	-0,224
125,108	57,749	-0,271	-0,185
126,122	43,488	-0,267	-0,170
127,137	193,321	-0,177	-0,187
128,151	34,029	-0,246	-0,149
129,166	45,232	-0,225	-0,145
130,181	166,568	-0,145	-0,144
131,195	-81,802	-0,291	-0,066
132,210	12,880	-0,206	-0,111
133,224	31,778	-0,275	-0,165
134,239	-44,232	-0,255	-0,089
135,254	-0,899	-0,169	-0,083
136,268	74,111	-0,197	-0,144
137,283	15,127	-0,204	-0,111
138,297	-0,024	-0,235	-0,116
139,312	-75,220	-0,272	-0,067
140,327	41,422	-0,259	-0,163
141,341	79,265	-0,199	-0,149
142,356	254,252	-0,130	-0,156
143,370	-11,028	-0,293	-0,134
144,385	177,132	-0,216	-0,219
145,400	169,255	-0,260	-0,258
146,414	-42,155	-0,314	-0,111
147,429	212,885	-0,162	-0,179
148,443	46,744	-0,172	-0,111
149,458	-77,139	-0,319	-0,077
150,473	-111,688	-0,227	-0,032
151,487	73,654	-0,218	-0,159
152,502	389,680	-0,173	-0,251
153,516	164,181	-0,228	-0,223
154,531	145,129	-0,288	-0,269
155,546	307,770	-0,228	-0,297
156,560	-93,631	-0,203	-0,039
157,575	-132,967	-0,166	0,014
158,589	-200,000	-0,019	-0,068
159,604	23,247	-0,306	-0,175
160,619	498,350	-0,268	-0,431
161,633	207,524	-0,158	-0,171
162,648	251,581	-0,162	-0,192
163,662	31,361	-0,228	-0,136
164,677	-70,025	-0,317	-0,083
165,692	219,441	-0,225	-0,251
166,706	-51,013	-0,336	-0,109
167,721	-42,866	-0,207	-0,073
168,735	249,666	-0,163	-0,193
169,750	-48,346	-0,321	-0,107
170,764	438,219	-0,131	-0,199
171,779	105,406	-0,152	-0,125
172,794	-28,185	-0,121	-0,048
173,808	179,569	-0,220	-0,224
174,823	145,523	-0,218	-0,203
175,837	56,658	-0,107	-0,072
176,852	-106,920	-0,112	0,017
177,867	-65,289	-0,238	0,066
178,881	182,457	-0,121	-0,124
179,896	118,579	-0,321	-0,275
180,910	51,517	-0,235	-0,155
181,925	567,310	-0,084	-0,141
182,940	257,197	-0,338	-0,404
183,954	71,552	-0,234	-0,168
184,969	246,126	-0,203	-0,238
185,983	179,589	-0,145	-0,147
186,998	259,860	-0,148	-0,178
188,013	328,847	-0,262	-0,351
189,027	379,160	-0,132	-0,188
190,042	70,694	-0,228	-0,163
191,056	59,793	-0,302	-0,207
192,071	-5,669	-0,235	-0,111
193,086	166,546	-0,047	-0,046
194,100	243,474	-0,146	-0,170
195,115	152,637	-0,231	-0,219
196,129	67,908	-0,229	-0,162
197,144	-105,891	-0,208	-0,032
198,159	800,000	-0,061	-0,119
199,173	800,000	-0,107	-0,231
200,188	800,000	-0,090	-0,173
201,202	681,313	-0,172	-0,312
202,217	59,016	-0,144	-0,098
203,232	-26,537	-0,132	-0,053
204,246	191,444	-0,196	-0,205
205,261	319,431	-0,272	-0,358
206,275	124,588	-0,275	-0,240
207,290	94,028	-0,128	-0,101
208,304	211,957	-0,184	-0,201
209,319	81,592	-0,329	-0,246
210,334	147,808	-0,193	-0,181
211,348	194,904	-0,169	-0,178
212,363	62,362	-0,195	-0,134
213,377	-190,911	-0,102	-0,001
214,392	140,935	-0,207	-0,190
215,407	514,251	-0,104	-0,168
216,421	63,490	-0,188	-0,131
217,436	-31,585	-0,283	-0,109
218,450	-36,104	-0,275	-0,102
219,465	381,651	-0,207	-0,294
220,480	505,101	-0,196	-0,316
221,494	20,171	-0,166	-0,092
222,509	-60,069	-0,173	-0,051
223,523	-48,045	-0,278	-0,092
224,538	150,486	-0,174	-0,164
225,553	266,821	-0,164	-0,199
226,567	418,538	-0,071	-0,105
227,582	145,891	-0,195	-0,181
228,596	162,064	-0,172	-0,167
229,611	155,692	-0,160	-0,152
230,626	225,362	-0,115	-0,129
231,640	-166,489	-0,238	0,007
232,655	52,214	-0,263	-0,173
233,669	338,963	-0,153	-0,207
234,684	-191,390	-0,267	-0,002
235,699	21,045	-0,118	-0,066
236,713	-152,597	-0,183	0,009
237,728	129,375	-0,265	-0,234
238,742	112,338	-0,199	-0,166
239,757	166,821	-0,142	-0,139
240,772	-200,000	-0,077	-0,243
241,786	588,886	-0,122	-0,209
242,801	800,000	-0,061	-0,182
243,815	160,966	-0,108	-0,105
244,830	-23,323	-0,234	-0,097
245,844	284,798	-0,163	-0,204
246,859	-137,179	-0,109	0,008
247,874	256,500	-0,067	-0,079
248,888	252,953	-0,167	-0,197
249,903	14,512	-0,248	-0,133
250,917	-143,224	-0,238	-0,016
251,932	-93,245	-0,262	-0,050
252,947	-84,206	-0,192	-0,042
253,961	800,000	-0,122	-0,336
254,976	170,426	-0,250	-0,247
255,990	51,645	-0,200	-0,131
257,005	110,889	-0,050	-0,041
258,020	130,049	-0,155	-0,137
259,034	-59,786	-0,279	-0,082
260,049	78,993	-0,157	-0,116
261,063	36,010	-0,287	-0,174
262,078	115,908	-0,196	-0,166
263,093	-6,759	-0,173	-0,081
264,107	66,817	-0,162	-0,114
265,122	39,870	-0,204	-0,126
266,136	-44,526	-0,212	-0,073
267,151	-49,719	-0,140	0,046
268,166	109,675	-0,170	-0,140
269,180	-49,120	-0,194	-0,064
270,195	183,938	-0,158	-0,162
271,209	-116,918	-0,119	-0,015
272,224	506,133	-0,158	-0,253
273,239	164,524	-0,168	-0,163
274,253	-155,939	-0,082	-0,004
275,268	-42,482	-0,156	-0,055
276,282	-15,659	-0,243	-0,106
277,297	15,891	-0,272	-0,147
278,312	121,367	-0,179	-0,153
279,326	48,727	-0,218	-0,140
280,341	515,400	-0,155	-0,250
281,355	-200,000	0,009	-0,084
282,370	-8,198	-0,169	-0,078
283,384	-200,000	-0,042	-0,231
284,399	5,755	-0,187	-0,095
285,414	388,772	-0,191	-0,273
286,428	754,336	-0,068	-0,127
287,443	27,603	-0,073	-0,042
288,457	-73,515	-0,175	0,044
289,472	35,355	-0,217	-0,130
290,487	-0,221	-0,161	-0,078
291,501	-131,389	-0,257	-0,023
292,516	402,861	-0,124	-0,180
293,530	20,065	-0,139	-0,077
294,545	434,884	-0,113	-0,169
295,560	18,372	-0,136	-0,074
296,574	-78,973	-0,138	0,032
297,589	800,000	-0,162	-0,312
298,603	208,645	-0,151	-0,162
299,618	-38,573	-0,209	-0,075
300,633	-200,000	-0,047	-0,230
301,647	206,413	-0,123	-0,131
302,662	-133,417	-0,093	0,008
303,676	800,000	-0,052	-0,106
304,691	143,849	-0,146	-0,134
305,706	-26,120	-0,149	-0,060
306,720	116,741	-0,101	-0,085
307,735	-35,877	-0,230	-0,085
308,749	-86,785	-0,179	-0,037
309,764	283,971	-0,067	-0,083
310,779	115,905	-0,073	-0,062
311,793	479,655	-0,117	-0,183
312,808	281,874	-0,176	-0,217
313,822	31,144	-0,174	-0,102
314,837	-27,821	-0,165	-0,065
315,852	705,870	-0,095	-0,173
316,866	-93,205	-0,054	-0,010
317,881	48,143	-0,095	-0,061
318,895	800,000	-0,085	-0,168
319,910	611,704	-0,182	-0,314
320,925	770,346	-0,135	-0,252
321,939	108,691	-0,177	-0,145
322,954	205,574	-0,133	-0,142
323,968	-97,855	-0,076	-0,013
324,983	682,363	-0,076	-0,136
325,997	170,719	-0,208	-0,205
327,012	66,676	-0,095	-0,066
328,027	41,709	-0,189	-0,117
329,041	90,969	-0,133	-0,102
330,056	698,958	-0,084	-0,152
331,070	50,478	-0,062	0,040
332,085	800,000	-0,050	-0,117
333,100	93,502	-0,147	-0,114
334,114	201,622	-0,148	-0,157
335,129	248,513	-0,105	-0,122
336,143	49,050	-0,175	-0,112
337,158	74,381	-0,160	-0,115
338,173	800,000	-0,014	-0,040
339,187	-16,372	-0,044	-0,019
340,202	-114,569	-0,101	-0,013
341,216	87,011	-0,104	-0,079
342,231	20,708	-0,182	-0,100
343,246	-14,066	-0,180	-0,079
344,260	-200,000	-0,003	-0,092
345,275	482,780	-0,163	-0,255
346,289	-200,000	-0,048	-0,148
347,304	-107,681	-0,099	-0,015
348,319	-56,513	-0,150	-0,045
349,333	372,196	-0,148	-0,206
350,348	-200,000	-0,006	-0,232
351,362	316,317	-0,147	-0,191
352,377	-200,000	-0,013	-0,049
353,392	288,518	-0,060	-0,075
354,406	123,803	-0,055	0,047
355,421	208,098	1309,251	1400,914
356,435	160,114	1469,269	1401,391
