DTS Sentinel unit serial number:	SN410029Multiplexer serial number:	ORYXHardware model number:	OX2-SRSoftware version number:	ORYX F/W v4,00 Oryx Data Collector v3.7.2.0data status	okinstallation	B3 Nyhavnadifferential loss correction	single-endedforward channel	channel 1reverse channel	N/Adate	2023/12/03time	02:07:30forward acquisition time	300,00reverse acquisition time	0,00gamma	499,1914k internal	0,3201k external	0,3201temperature offset calibration	1,0000default loss term (dB/km)	0,3820temperature slope calibration	1,0000multiplexer offset coefficient	1,0000multiplexer slope coefficient	1,0000fibre end	0,00T internal ref (°C)	13,32T ext. ref 1 (°C)	-1,75T ext. ref 2 (°C)	-1,78length (m)	temperature (°C)	Stokes	anti-Stokes-744,400	25,626	-0,332	-0,201
-743,385	-200,000	-0,015	0,260
-742,371	800,000	-0,077	-0,186
-741,356	-200,000	0,067	0,351
-740,342	48,678	-0,196	-0,134
-739,327	-200,000	0,055	0,255
-738,312	343,699	-0,266	-0,380
-737,298	-200,000	0,018	0,209
-736,283	34,895	-0,306	-0,195
-735,269	-200,000	0,064	0,397
-734,254	122,689	-0,229	-0,208
-733,239	-73,678	-0,254	0,067
-732,225	123,993	-0,080	-0,073
-731,210	88,679	0,164	0,133
-730,196	75,502	0,057	-0,044
-729,181	-200,000	-0,012	-0,077
-728,167	-30,122	-0,115	-0,047
-727,152	386,938	-0,047	-0,071
-726,137	21,384	-0,023	0,014
-725,123	-35,060	-0,297	-0,117
-724,108	18,489	-0,160	0,093
-723,094	249,186	-0,070	0,087
-722,079	-200,000	-0,037	-0,131
-721,064	-200,000	-0,009	-0,152
-720,050	-2,221	-0,165	-0,084
-719,035	-167,331	-0,124	0,004
-718,021	181,905	0,048	-0,051
-717,006	9,472	-0,111	-0,061
-715,991	-200,000	0,002	-0,061
-714,977	-200,000	-0,013	0,107
-713,962	-90,847	-0,055	-0,012
-712,948	-55,925	0,084	0,027
-711,933	-26,745	-0,045	-0,019
-710,918	194,409	0,017	0,019
-709,904	800,000	0,019	-0,052
-708,889	10,654	-0,107	-0,059
-707,875	-166,548	-0,031	0,001
-706,860	-200,000	0,008	0,162
-705,845	55,210	-0,129	-0,091
-704,831	-22,608	-0,021	0,009
-703,816	-101,424	-0,082	-0,014
-702,802	800,000	0,041	0,118
-701,787	307,792	-0,132	-0,179
-700,772	-200,000	-0,001	-0,029
-699,758	36,459	0,115	0,074
-698,743	-94,087	0,057	0,011
-697,729	-98,569	-0,047	-0,009
-696,714	800,000	-0,021	-0,061
-695,699	282,167	-0,014	-0,018
-694,685	-200,000	0,018	-0,069
-693,670	62,108	-0,070	-0,051
-692,656	-146,895	0,140	0,009
-691,641	-200,000	-0,014	-0,081
-690,627	507,409	0,026	-0,044
-689,612	149,149	0,060	-0,059
-688,597	800,000	0,032	0,075
-687,583	-200,000	0,021	-0,068
-686,568	94,879	-0,103	-0,085
-685,554	339,477	0,073	-0,104
-684,539	-200,000	0,022	0,136
-683,524	58,109	-0,090	0,064
-682,510	-67,756	-0,038	0,011
-681,495	236,948	0,092	-0,110
-680,481	289,154	-0,076	-0,101
-679,466	175,705	-0,064	-0,068
-678,451	-75,820	-0,097	0,025
-677,437	-91,696	0,056	-0,011
-676,422	800,000	-0,033	-0,106
-675,408	-200,000	0,017	0,077
-674,393	-200,000	-0,008	-0,034
-673,378	25,860	-0,091	-0,055
-672,364	239,718	-0,046	0,056
-671,349	216,643	-0,058	0,067
-670,335	521,820	-0,065	-0,111
-669,320	-200,000	0,003	0,037
-668,305	523,986	-0,032	0,054
-667,291	147,258	0,068	-0,066
-666,276	219,087	-0,036	0,042
-665,262	-200,000	0,000	-0,058
-664,247	800,000	-0,033	-0,067
-663,232	117,083	-0,057	-0,050
-662,218	15,081	0,119	0,067
-661,203	46,841	0,099	0,067
-660,189	-200,000	0,005	0,096
-659,174	-147,976	-0,048	0,003
-658,159	800,000	0,025	-0,078
-657,145	-142,961	-0,035	-0,002
-656,130	-166,370	0,098	0,003
-655,116	800,000	0,045	-0,101
-654,101	539,997	0,045	0,078
-653,086	-200,000	0,049	0,164
-652,072	-33,851	-0,209	0,083
-651,057	800,000	-0,066	-0,197
-650,043	-200,000	-0,023	-0,108
-649,028	-200,000	-0,009	-0,034
-648,014	-200,000	-0,037	-0,145
-646,999	-110,997	0,107	0,016
-645,984	73,151	0,016	0,012
-644,970	-200,000	-0,004	-0,035
-643,955	800,000	-0,068	-0,148
-642,941	-200,000	-0,012	-0,102
-641,926	-65,225	-0,029	-0,008
-640,911	800,000	-0,025	-0,068
-639,897	800,000	0,047	0,115
-638,882	800,000	-0,032	0,087
-637,868	800,000	-0,019	-0,041
-636,853	-200,000	-0,038	0,260
-635,838	4,142	0,089	-0,047
-634,824	-165,921	-0,126	-0,004
-633,809	-32,700	0,043	-0,017
-632,795	619,806	0,022	-0,040
-631,780	1,400	0,048	0,025
-630,765	289,775	-0,020	0,026
-629,751	-200,000	0,007	-0,100
-628,736	-200,000	0,017	-0,096
-627,722	14,223	0,102	-0,057
-626,707	467,404	0,080	-0,131
-625,692	18,308	0,039	0,022
-624,678	-64,472	0,012	0,004
-623,663	9,248	-0,047	0,026
-622,649	-92,083	0,065	-0,013
-621,634	666,401	-0,116	-0,218
-620,619	-150,878	-0,057	0,003
-619,605	-85,468	0,137	0,031
-618,590	2,168	0,069	0,036
-617,576	-200,000	0,001	-0,125
-616,561	406,137	-0,063	-0,096
-615,546	-56,463	-0,112	0,036
-614,532	-143,152	0,041	0,003
-613,517	800,000	-0,050	-0,135
-612,503	800,000	-0,021	-0,068
-611,488	-200,000	0,039	0,172
-610,474	-15,158	0,054	0,025
-609,459	-147,546	0,054	-0,003
-608,444	-200,000	-0,006	0,044
-607,430	-21,034	-0,043	-0,019
-606,415	-200,000	-0,029	0,103
-605,401	100,830	-0,029	-0,024
-604,386	218,991	-0,032	-0,037
-603,371	286,902	-0,102	0,134
-602,357	-93,862	0,018	0,004
-601,342	-200,000	-0,012	0,082
-600,328	105,560	-0,096	0,082
-599,313	73,390	0,018	-0,014
-598,298	229,844	-0,075	-0,089
-597,284	402,730	0,094	0,144
-596,269	87,725	-0,086	0,069
-595,255	127,369	-0,090	0,083
-594,240	381,519	0,023	-0,035
-593,225	-200,000	-0,000	-0,018
-592,211	-200,000	-0,008	-0,042
-591,196	375,507	0,063	-0,094
-590,182	-41,334	0,116	0,043
-589,167	-66,989	-0,083	-0,024
-588,152	356,249	-0,025	0,036
-587,138	178,138	0,087	-0,092
-586,123	-134,082	-0,094	0,008
-585,109	800,000	0,030	0,065
-584,094	189,362	-0,033	0,035
-583,079	-200,000	-0,011	0,056
-582,065	800,000	0,012	-0,028
-581,050	295,261	-0,046	0,061
-580,036	653,006	0,018	-0,033
-579,021	-200,000	0,116	-0,000
-578,006	-80,230	-0,135	0,032
-576,992	-24,159	-0,088	0,038
-575,977	-73,119	0,116	-0,031
-574,963	-112,751	0,033	-0,005
-573,948	-80,976	0,092	0,022
-572,934	108,938	0,014	0,012
-571,919	329,386	0,028	0,039
-570,904	178,601	-0,013	-0,014
-569,890	-6,944	-0,079	0,039
-568,875	-200,000	-0,016	0,087
-567,861	8,782	-0,163	-0,088
-566,846	281,135	-0,019	0,024
-565,831	800,000	0,101	-0,214
-564,817	800,000	0,014	0,030
-563,802	-8,369	-0,043	-0,021
-562,788	54,416	0,077	-0,054
-561,773	-63,148	0,021	-0,006
-560,758	721,605	0,040	-0,078
-559,744	52,138	0,030	-0,021
-558,729	796,584	-0,031	0,061
-557,715	-200,000	0,001	-0,057
-556,700	239,190	-0,144	-0,173
-555,685	-159,672	-0,158	0,006
-554,671	-200,000	-0,007	-0,085
-553,656	-200,000	-0,009	0,088
-552,642	-200,000	0,006	-0,033
-551,627	-146,249	0,089	-0,006
-550,612	-200,000	-0,019	-0,092
-549,598	-200,000	-0,023	-0,077
-548,583	-186,138	-0,084	-0,001
-547,569	-37,255	-0,085	-0,032
-546,554	206,590	0,056	-0,063
-545,539	253,044	0,052	0,064
-544,525	381,616	0,085	0,127
-543,510	167,661	-0,056	-0,057
-542,496	185,020	-0,051	0,055
-541,481	-93,601	0,084	-0,017
-540,466	20,386	-0,040	-0,023
-539,452	38,179	0,177	-0,113
-538,437	296,357	0,039	0,052
-537,423	-200,000	0,010	0,142
-536,408	-200,000	0,039	0,148
-535,393	206,691	-0,044	-0,049
-534,379	130,253	-0,097	0,090
-533,364	-39,954	0,046	0,017
-532,350	646,867	0,009	-0,016
-531,335	-84,589	0,148	0,033
-530,321	72,702	0,067	-0,051
-529,306	800,000	0,039	0,101
-528,291	800,000	0,029	-0,071
-527,277	-200,000	-0,023	-0,175
-526,262	149,911	-0,081	-0,079
-525,248	-16,168	-0,081	-0,037
-524,233	-151,175	0,142	-0,008
-523,218	-150,678	-0,087	-0,005
-522,204	-200,000	0,001	0,056
-521,189	-149,139	0,045	-0,003
-520,175	5,549	-0,108	0,057
-519,160	-127,212	0,198	-0,021
-518,145	93,891	0,058	0,048
-517,131	342,314	0,121	0,172
-516,116	56,409	0,090	0,063
-515,102	800,000	0,030	0,075
-514,087	800,000	0,025	0,055
-513,072	366,787	0,051	-0,074
-512,058	225,067	0,023	-0,027
-511,043	35,807	0,069	-0,044
-510,029	80,081	-0,048	-0,037
-509,014	-4,444	0,038	0,019
-507,999	-147,191	-0,141	0,009
-506,985	-145,304	-0,090	0,006
-505,970	-16,951	0,066	-0,030
-504,956	62,637	-0,078	-0,056
-503,941	-200,000	0,005	0,155
-502,926	-200,000	-0,007	0,065
-501,912	12,684	-0,136	-0,075
-500,897	-130,709	0,134	-0,013
-499,883	-99,679	-0,102	0,018
-498,868	274,426	-0,054	-0,069
-497,853	800,000	-0,008	-0,023
-496,839	-200,000	0,005	-0,087
-495,824	-200,000	-0,043	0,190
-494,810	-100,797	0,124	0,022
-493,795	306,527	-0,055	0,074
-492,781	188,483	-0,048	0,051
-491,766	51,024	0,050	0,034
-490,751	207,829	-0,116	0,130
-489,737	-200,000	-0,009	-0,096
-488,722	-106,056	-0,095	0,015
-487,708	-200,000	0,026	0,165
-486,693	800,000	0,059	-0,153
-485,678	-5,091	0,026	-0,013
-484,664	84,344	-0,107	-0,084
-483,649	-200,000	-0,022	-0,132
-482,635	800,000	0,069	-0,218
-481,620	483,784	-0,056	0,092
-480,605	256,717	0,084	0,104
-479,591	-200,000	0,001	-0,018
-478,576	-81,840	-0,138	0,032
-477,562	71,287	0,083	0,062
-476,547	41,119	0,065	-0,042
-475,532	-2,486	-0,145	0,073
-474,518	-117,913	0,037	0,005
-473,503	135,724	0,062	-0,058
-472,489	335,495	-0,013	0,018
-471,474	122,351	0,062	-0,056
-470,459	285,492	-0,048	0,062
-469,445	800,000	-0,050	-0,111
-468,430	-20,476	-0,017	0,008
-467,416	-39,650	0,069	0,026
-466,401	-131,316	0,059	0,006
-465,386	-152,710	-0,144	-0,007
-464,372	199,263	0,061	-0,068
-463,357	137,260	0,026	0,024
-462,343	800,000	-0,068	-0,140
-461,328	133,926	-0,094	-0,087
-460,313	-200,000	0,011	-0,050
-459,299	59,260	0,131	-0,092
-458,284	38,428	0,069	0,044
-457,270	-200,000	0,004	-0,129
-456,255	422,297	-0,055	0,086
-455,241	295,769	-0,012	-0,016
-454,226	49,450	-0,017	-0,012
-453,211	-98,925	0,109	0,020
-452,197	-184,250	-0,041	0,000
-451,182	116,461	0,085	0,075
-450,168	228,472	-0,085	-0,100
-449,153	151,236	-0,068	-0,066
-448,138	164,372	-0,074	-0,075
-447,124	262,089	-0,045	-0,056
-446,109	-50,376	-0,119	0,040
-445,095	205,890	0,058	0,065
-444,080	800,000	0,044	-0,100
-443,065	85,664	-0,030	0,024
-442,051	-110,742	0,031	-0,005
-441,036	12,398	-0,026	0,014
-440,022	172,095	-0,040	0,041
-439,007	-101,647	0,165	0,029
-437,992	-39,127	0,044	-0,016
-436,978	-167,449	0,168	-0,005
-435,963	-200,000	-0,002	0,119
-434,949	-108,099	-0,029	-0,004
-433,934	-200,000	-0,013	0,042
-432,919	-47,692	-0,170	-0,059
-431,905	481,971	0,109	-0,178
-430,890	63,399	0,114	0,082
-429,876	-21,743	0,079	0,034
-428,861	137,915	-0,013	-0,012
-427,846	-125,885	-0,070	0,007
-426,832	-89,994	-0,122	-0,025
-425,817	-66,519	-0,151	-0,043
-424,803	-200,000	-0,010	-0,068
-423,788	256,470	0,015	-0,018
-422,773	-145,025	0,074	-0,005
-421,759	-131,688	0,016	-0,001
-420,744	-6,349	0,096	-0,047
-419,730	800,000	0,042	-0,131
-418,715	800,000	-0,065	-0,143
-417,701	-61,508	-0,069	-0,021
-416,686	-48,327	-0,085	0,029
-415,671	246,617	0,039	0,047
-414,657	-200,000	0,026	0,088
-413,642	32,773	0,097	0,060
-412,628	-109,692	0,087	0,013
-411,613	-200,000	-0,013	-0,075
-410,598	405,378	0,057	-0,087
-409,584	-122,715	0,089	0,010
-408,569	800,000	0,037	0,094
-407,555	223,952	0,107	0,124
-406,540	-200,000	-0,007	0,038
-405,525	232,248	-0,046	0,054
-404,511	138,835	-0,096	-0,090
-403,496	85,037	-0,002	-0,001
-402,482	-200,000	0,026	-0,161
-401,467	-74,841	0,067	-0,017
-400,452	65,080	0,088	-0,064
-399,438	-89,693	-0,018	-0,004
-398,423	-200,000	0,004	-0,094
-397,409	800,000	0,083	-0,189
-396,394	-200,000	-0,049	-0,160
-395,379	5,983	0,066	0,035
-394,365	800,000	0,069	0,146
-393,350	-200,000	-0,031	0,136
-392,336	-120,006	0,072	-0,009
-391,321	2,117	0,036	-0,018
-390,306	2,297	-0,038	-0,019
-389,292	-67,007	-0,039	-0,011
-388,277	-153,068	0,081	0,004
-387,263	51,051	-0,082	-0,055
-386,248	-134,744	0,095	0,008
-385,233	800,000	-0,034	0,090
-384,219	800,000	0,022	-0,067
-383,204	-64,769	-0,069	-0,020
-382,190	-28,870	-0,029	0,012
-381,175	-35,289	-0,180	-0,070
-380,160	-200,000	0,005	0,077
-379,146	73,802	0,046	0,034
-378,131	-134,397	0,086	-0,007
-377,117	-41,690	-0,048	0,018
-376,102	-200,000	0,026	-0,168
-375,088	-139,303	-0,050	0,004
-374,073	48,007	-0,122	0,082
-373,058	-10,338	0,043	-0,020
-372,044	138,564	0,113	-0,106
-371,029	-200,000	-0,024	0,094
-370,015	661,179	0,040	0,075
-369,000	-200,000	0,014	-0,086
-367,985	-49,438	0,017	-0,006
-366,971	-200,000	0,010	0,076
-365,956	11,249	0,145	-0,079
-364,942	-45,523	0,037	-0,013
-363,927	291,530	-0,051	-0,067
-362,912	328,210	0,047	-0,065
-361,898	-21,959	-0,048	-0,021
-360,883	-10,149	-0,165	0,078
-359,869	-200,000	0,013	-0,145
-358,854	800,000	0,055	0,124
-357,839	-200,000	0,023	0,108
-356,825	800,000	0,065	0,132
-355,810	124,744	-0,076	0,069
-354,796	279,410	-0,041	-0,052
-353,781	-63,577	0,103	-0,030
-352,766	-102,158	0,055	-0,009
-351,752	-29,131	0,034	-0,014
-350,737	800,000	-0,027	0,078
-349,723	-11,759	0,159	0,075
-348,708	-86,812	-0,109	-0,024
-347,693	-200,000	0,007	0,149
-346,679	-56,355	-0,092	-0,029
-345,664	-200,000	0,015	-0,050
-344,650	-144,849	0,101	-0,007
-343,635	89,968	-0,071	-0,056
-342,620	78,045	0,073	-0,056
-341,606	800,000	0,028	-0,080
-340,591	-200,000	-0,004	0,025
-339,577	800,000	-0,011	-0,036
-338,562	-200,000	-0,011	-0,050
-337,548	-200,000	0,007	0,048
-336,533	211,807	-0,077	-0,087
-335,518	-200,000	0,006	0,023
-334,504	-200,000	0,013	-0,103
-333,489	-132,332	-0,062	-0,006
-332,475	29,757	0,022	-0,013
-331,460	800,000	-0,026	0,052
-330,445	-200,000	0,005	0,053
-329,431	-200,000	-0,014	-0,055
-328,416	431,624	0,091	-0,141
-327,402	577,262	-0,085	0,149
-326,387	439,657	0,094	-0,148
-325,372	-100,465	-0,106	-0,019
-324,358	522,636	0,037	0,062
-323,343	-135,343	-0,084	-0,007
-322,329	302,512	0,031	-0,041
-321,314	275,808	-0,068	0,087
-320,299	676,172	0,063	0,117
-319,285	800,000	-0,012	0,038
-318,270	338,780	0,058	0,081
-317,256	-200,000	0,006	0,072
-316,241	462,717	0,064	-0,102
-315,226	366,670	-0,091	0,131
-314,212	-7,993	0,128	-0,062
-313,197	135,620	0,088	0,082
-312,183	800,000	0,030	0,091
-311,168	-23,574	0,082	-0,035
-310,153	-37,186	-0,063	0,024
-309,139	67,219	0,068	0,049
-308,124	-200,000	-0,011	0,046
-307,110	800,000	-0,029	0,065
-306,095	-200,000	-0,010	-0,031
-305,080	-200,000	-0,010	0,047
-304,066	800,000	0,039	-0,100
-303,051	-23,169	-0,035	-0,015
-302,037	-0,626	-0,054	-0,027
-301,022	-114,404	-0,034	0,005
-300,008	-7,834	-0,075	-0,036
-298,993	-113,218	-0,042	-0,006
-297,978	800,000	-0,006	0,012
-296,964	18,151	-0,122	0,070
-295,949	156,274	-0,142	-0,140
-294,935	-10,463	-0,144	-0,068
-293,920	-200,000	-0,011	0,055
-292,905	93,494	0,036	-0,029
-291,891	237,037	0,097	-0,115
-290,876	5,563	0,173	0,091
-289,862	-200,000	-0,021	0,083
-288,847	-200,000	0,005	-0,061
-287,832	103,238	0,019	-0,016
-286,818	755,203	0,046	-0,089
-285,803	341,629	-0,093	0,130
-284,789	314,962	-0,062	0,084
-283,774	-13,550	0,050	-0,023
-282,759	-98,607	0,065	-0,012
-281,745	1,602	0,079	0,041
-280,730	-19,543	-0,081	-0,036
-279,716	-2,089	-0,014	0,007
-278,701	12,334	0,027	0,015
-277,686	800,000	0,006	-0,016
-276,672	-130,915	-0,038	-0,004
-275,657	137,412	0,023	-0,021
-274,643	800,000	0,008	-0,022
-273,628	57,909	-0,079	-0,055
-272,613	76,139	-0,020	-0,015
-271,599	49,206	0,024	-0,016
-270,584	-83,259	-0,102	-0,023
-269,570	69,553	0,111	0,082
-268,555	199,590	0,083	0,091
-267,540	-25,603	-0,223	-0,093
-266,526	-200,000	0,018	-0,125
-265,511	581,386	-0,040	-0,070
-264,497	-200,000	-0,038	0,124
-263,482	156,183	0,058	0,057
-262,467	-200,000	0,005	0,098
-261,453	526,716	-0,078	0,132
-260,438	144,587	-0,080	-0,076
-259,424	800,000	-0,018	-0,043
-258,409	659,059	0,026	-0,049
-257,395	-18,344	-0,105	0,046
-256,380	-90,470	-0,130	0,027
-255,365	-200,000	0,000	0,093
-254,351	107,780	0,081	0,069
-253,336	800,000	0,029	0,089
-252,322	22,712	-0,176	0,103
-251,307	442,574	-0,078	-0,122
-250,292	299,416	-0,012	0,016
-249,278	-20,321	0,053	-0,023
-248,263	-102,642	0,132	-0,022
-247,249	-30,007	-0,048	-0,020
-246,234	339,099	-0,036	-0,050
-245,219	723,369	0,036	0,068
-244,205	800,000	-0,056	-0,127
-243,190	-135,651	-0,036	-0,003
-242,176	78,805	-0,039	-0,029
-241,161	-200,000	-0,000	0,170
-240,146	-14,363	0,219	0,100
-239,132	108,003	-0,048	-0,040
-238,117	192,152	-0,125	-0,134
-237,103	-84,009	0,036	-0,008
-236,088	7,419	0,035	-0,018
-235,073	-200,000	0,034	0,112
-234,059	109,535	0,045	-0,039
-233,044	200,142	0,122	0,134
-232,030	-103,878	0,083	0,014
-231,015	-38,687	-0,130	-0,049
-230,000	506,031	-0,042	-0,069
-228,986	800,000	0,046	-0,102
-227,971	46,681	-0,132	0,087
-226,957	-200,000	0,024	-0,100
-225,942	281,544	-0,073	-0,093
-224,927	-200,000	-0,035	0,199
-223,913	-103,249	-0,048	-0,008
-222,898	-140,273	-0,107	-0,008
-221,884	203,303	0,090	-0,099
-220,869	0,112	0,064	0,032
-219,855	535,902	0,035	0,059
-218,840	460,694	0,068	0,108
-217,825	163,337	0,045	-0,045
-216,811	113,304	-0,027	0,024
-215,796	-200,000	-0,012	-0,136
-214,782	29,919	-0,054	0,032
-213,767	-200,000	-0,022	0,124
-212,752	-160,792	0,071	0,003
-211,738	-200,000	0,003	-0,023
-210,723	5,580	0,027	0,014
-209,709	101,605	-0,019	0,016
-208,694	-87,093	-0,164	0,035
-207,679	-12,629	0,090	-0,042
-206,665	-200,000	-0,059	0,214
-205,650	-107,729	0,042	0,006
-204,636	90,632	0,161	0,128
-203,621	-200,000	-0,003	-0,070
-202,606	800,000	0,033	0,095
-201,592	-109,845	0,022	-0,003
-200,577	-58,153	-0,113	-0,035
-199,563	115,051	0,072	0,062
-198,548	44,332	0,054	0,035
-197,533	-36,076	0,090	-0,035
-196,519	800,000	-0,053	-0,112
-195,504	671,400	-0,076	0,140
-194,490	-58,403	-0,099	-0,030
-193,475	-162,813	0,060	-0,002
-192,460	-161,514	0,142	0,005
-191,446	-19,047	0,047	-0,021
-190,431	502,820	-0,069	0,114
-189,417	-12,821	-0,150	0,069
-188,402	260,329	-0,043	0,053
-187,387	-1,506	-0,202	-0,101
-186,373	800,000	-0,005	0,014
-185,358	-200,000	0,015	-0,054
-184,344	-149,491	0,021	-0,001
-183,329	81,939	0,161	0,124
-182,315	800,000	-0,048	0,100
-181,300	800,000	-0,060	0,185
-180,285	-161,499	-0,077	-0,003
-179,271	-200,000	0,000	-0,166
-178,256	31,154	-0,082	-0,050
-177,242	-200,000	0,016	0,112
-176,227	-54,880	0,136	0,043
-175,212	516,030	-0,030	0,051
-174,198	99,968	-0,065	-0,054
-173,183	-41,089	0,038	0,014
-172,169	354,566	0,065	-0,093
-171,154	32,292	-0,023	0,014
-170,139	77,610	0,056	0,042
-169,125	341,376	-0,057	0,079
-168,110	4,682	-0,064	-0,033
-167,096	-76,572	-0,099	0,025
-166,081	356,744	0,013	-0,019
-165,066	-25,422	0,026	-0,011
-164,052	656,471	0,065	0,119
-163,037	-101,682	0,066	-0,011
-162,023	-169,734	0,093	-0,002
-161,008	-142,839	-0,197	-0,013
-159,993	58,699	-0,056	-0,039
-158,979	64,742	0,101	0,072
-157,964	-160,800	-0,104	-0,004
-156,950	-200,000	-0,024	0,077
-155,935	-113,066	0,119	-0,016
-154,920	60,863	0,074	-0,052
-153,906	-76,389	0,118	0,029
-152,891	-200,000	-0,022	0,090
-151,877	-79,293	-0,111	-0,027
-150,862	228,644	-0,018	-0,021
-149,847	582,559	-0,007	0,011
-148,833	800,000	-0,074	-0,222
-147,818	3,833	0,011	0,006
-146,804	240,394	0,099	-0,117
-145,789	-120,691	0,147	0,017
-144,775	-200,000	-0,004	0,155
-143,760	-200,000	0,005	-0,061
-142,745	156,840	-0,031	-0,031
-141,731	788,166	0,060	0,117
-140,716	-200,000	-0,002	-0,021
-139,702	-200,000	0,043	0,251
-138,687	107,181	0,091	0,077
-137,672	-200,000	0,002	0,033
-136,658	55,027	-0,124	-0,085
-135,643	-200,000	-0,005	-0,069
-134,629	-200,000	-0,014	-0,106
-133,614	-125,432	0,137	-0,015
-132,599	-0,342	0,070	0,035
-131,585	231,915	-0,092	0,108
-130,570	-200,000	-0,001	-0,076
-129,556	800,000	0,068	-0,159
-128,541	143,530	-0,082	-0,078
-127,526	-125,216	0,120	0,013
-126,512	41,273	0,049	0,031
-125,497	379,429	0,073	0,107
-124,483	-200,000	0,021	0,163
-123,468	-200,000	-0,028	-0,159
-122,453	800,000	-0,015	-0,040
-121,439	-49,943	-0,165	-0,055
-120,424	-4,345	-0,102	0,050
-119,410	-146,330	0,087	0,005
-118,395	-13,840	-0,153	0,070
-117,380	-0,040	-0,085	0,043
-116,366	800,000	0,025	0,062
-115,351	-112,348	0,100	-0,014
-114,337	-130,099	-0,098	-0,009
-113,322	-133,307	0,139	-0,012
-112,307	376,663	0,025	-0,037
-111,293	800,000	-0,034	0,087
-110,278	-62,206	-0,050	0,015
-109,264	-148,172	0,061	0,003
-108,249	345,880	-0,104	-0,145
-107,234	-200,000	0,001	-0,113
-106,220	-93,868	-0,113	-0,022
-105,205	494,138	0,081	-0,132
-104,191	251,638	0,068	0,082
-103,176	800,000	0,012	-0,025
-102,162	-107,030	0,081	0,013
-101,147	-37,818	-0,137	0,051
-100,132	-200,000	0,020	-0,077
-99,118	800,000	-0,025	-0,061
-98,103	6,699	-0,006	-0,003
-97,089	-200,000	0,039	0,123
-96,074	228,031	0,039	0,045
-95,059	-142,313	-0,032	-0,002
-94,045	210,173	-0,100	-0,111
-93,030	-55,471	-0,066	0,021
-92,016	256,704	0,024	0,029
-91,001	330,448	-0,040	0,055
-89,986	-72,555	0,152	-0,040
-88,972	-200,000	0,002	0,085
-87,957	365,527	-0,043	-0,062
-86,943	29,071	-0,126	0,075
-85,928	-200,000	-0,006	-0,065
-84,913	33,898	0,088	-0,054
-83,899	194,559	0,055	-0,059
-82,884	221,151	0,097	-0,110
-81,870	179,176	-0,091	0,094
-80,855	-12,145	-0,019	0,009
-79,840	13,072	-0,084	0,046
-78,826	-18,533	-0,063	-0,028
-77,811	320,924	-0,075	-0,102
-76,797	-21,596	-0,065	0,028
-75,782	-139,321	0,269	0,020
-74,767	800,000	0,047	-0,137
-73,753	26,586	0,126	-0,075
-72,738	44,477	-0,078	-0,051
-71,724	-51,571	-0,103	-0,034
-70,709	59,621	0,083	0,058
-69,694	18,504	-0,111	0,063
-68,680	247,319	0,043	0,052
-67,665	332,474	0,082	0,112
-66,651	-200,000	0,004	0,067
-65,636	800,000	0,024	0,070
-64,622	-200,000	-0,020	0,140
-63,607	41,056	0,038	-0,024
-62,592	199,717	0,054	-0,059
-61,578	74,940	0,050	-0,038
-60,563	466,594	0,020	0,032
-59,549	-137,876	-0,129	0,010
-58,534	-16,915	-1,667	-0,743
-57,519	346,106	-1,455	-2,032
-56,505	-200,000	-0,615	-4,431
-55,490	169,546	0,919	0,930
-54,476	800,000	4,959	11,509
-53,461	-200,000	19,085	319,383
-52,446	-200,000	740,335	2334,237
-51,432	573,873	1655,293	2870,120
-50,417	78,380	1670,764	1262,270
-49,403	21,311	1543,903	885,756
-48,388	15,177	1466,450	811,484
-47,373	17,939	1456,472	819,281
-46,359	16,683	1446,451	807,588
-45,344	13,447	1441,696	789,398
-44,330	13,376	1439,822	788,003
-43,315	13,344	1438,161	786,910
-42,300	13,342	1436,481	785,950
-41,286	13,392	1435,300	785,508
-40,271	13,386	1433,912	784,690
-39,257	13,329	1432,491	783,610
-38,242	13,395	1431,351	783,270
-37,227	13,406	1430,023	782,562
-36,213	13,412	1428,931	781,966
-35,198	13,415	1427,579	781,206
-34,184	13,443	1426,761	780,862
-33,169	13,383	1425,349	779,775
-32,154	13,475	1424,178	779,538
-31,140	13,450	1422,903	778,688
-30,125	13,443	1421,718	777,976
-29,111	13,480	1420,734	777,585
-28,096	13,386	1419,735	776,564
-27,082	13,392	1418,605	775,943
-26,067	13,383	1417,325	775,168
-25,052	13,350	1416,321	774,434
-24,038	13,343	1415,269	773,793
-23,023	13,343	1414,355	773,262
-22,009	13,342	1413,279	772,638
-20,994	13,357	1412,327	772,159
-19,979	13,297	1411,565	771,432
-18,965	13,292	1410,731	770,918
-17,950	13,258	1409,851	770,250
-16,936	13,300	1408,782	769,830
-15,921	13,274	1407,702	769,089
-14,906	13,221	1406,901	768,372
-13,892	13,260	1405,752	767,897
-12,877	13,291	1404,890	767,541
-11,863	13,260	1404,104	766,937
-10,848	13,244	1403,198	766,335
-9,833	13,242	1402,299	765,807
-8,819	13,167	1401,433	764,951
-7,804	13,152	1400,667	764,434
-6,790	13,162	1399,557	763,845
-5,775	13,135	1398,679	763,210
-4,760	13,158	1397,496	762,639
-3,746	13,160	1396,606	762,134
-2,731	13,183	1395,829	761,789
-1,717	13,119	1395,105	761,064
-0,702	13,156	1392,973	760,044
0,313	16,952	1309,933	732,333
1,327	33,268	703,914	431,254
2,342	50,903	123,398	82,602
3,356	4,111	16,489	8,510
4,371	1,432	3,239	1,642
5,386	-15,791	0,568	0,255
6,400	-200,000	-0,068	0,236
7,415	200,417	-0,233	-0,254
8,429	64,439	-0,388	-0,276
9,444	209,512	-0,248	-0,275
10,459	129,544	-0,242	-0,219
11,473	224,211	-0,206	-0,236
12,488	59,104	-0,305	-0,212
13,502	156,686	-0,245	-0,240
14,517	-18,962	-0,442	-0,193
15,531	152,312	-0,303	-0,292
16,546	36,902	-0,390	-0,243
17,561	-18,830	-0,390	-0,171
18,575	-86,887	-0,176	-0,038
19,590	115,495	-0,248	-0,214
20,604	24,139	-0,200	-0,117
21,619	73,735	-0,348	-0,258
22,634	44,754	-0,473	-0,307
23,648	79,706	-0,455	-0,345
24,663	52,151	-0,369	-0,248
25,677	-110,422	-0,409	-0,059
26,692	77,391	-0,354	-0,266
27,707	45,056	-0,349	-0,226
28,721	30,761	-0,357	-0,215
29,736	169,695	-0,327	-0,330
30,750	26,930	-0,350	-0,206
31,765	432,664	-0,247	-0,379
32,780	15,647	-0,308	-0,170
33,794	-4,555	-0,365	-0,177
34,809	123,194	-0,331	-0,293
35,823	288,596	-0,278	-0,356
36,838	337,974	-0,328	-0,451
37,853	118,310	-0,394	-0,343
38,867	42,772	-0,421	-0,270
39,882	244,454	-0,320	-0,379
40,896	44,415	-0,313	-0,202
41,911	43,166	-0,333	-0,214
42,926	309,961	-0,246	-0,325
43,940	118,142	-0,375	-0,326
44,955	40,829	-0,363	-0,230
45,969	67,810	-0,330	-0,238
46,984	113,094	-0,236	-0,202
47,999	67,885	-0,339	-0,244
49,013	-59,975	-0,419	-0,125
50,028	47,555	-0,392	-0,257
51,042	48,320	-0,361	-0,237
52,057	79,073	-0,299	-0,226
53,071	56,015	-0,433	-0,295
54,086	439,955	-0,190	-0,294
55,101	-26,140	-0,426	-0,176
56,115	152,912	-0,235	-0,227
57,130	-67,604	-0,527	-0,144
58,144	-19,587	-0,460	-0,200
59,159	99,034	-0,357	-0,290
60,174	271,797	-0,294	-0,366
61,188	87,635	-0,262	-0,204
62,203	-26,944	-0,351	-0,144
63,217	-128,835	-0,292	-0,029
64,232	-5,767	-0,463	-0,222
65,247	19,224	-0,468	-0,264
66,261	-8,134	-0,372	-0,176
67,276	44,425	-0,442	-0,285
68,290	43,639	-0,422	-0,271
69,305	170,855	-0,225	-0,227
70,320	-2,440	-0,339	-0,166
71,334	177,161	-0,224	-0,230
72,349	-55,328	-0,301	-0,095
73,363	182,234	-0,294	-0,305
74,378	173,716	-0,305	-0,309
75,393	-5,777	-0,287	-0,138
76,407	-53,009	-0,250	-0,080
77,422	71,876	-0,325	-0,237
78,436	-46,860	-0,305	-0,104
79,451	229,131	-0,275	-0,316
80,466	-14,765	-0,373	-0,168
81,480	-15,544	-0,354	-0,158
82,495	39,139	-0,320	-0,201
83,509	18,259	-0,273	-0,152
84,524	8,165	-0,357	-0,188
85,539	205,341	-0,203	-0,222
86,553	102,499	-0,242	-0,198
87,568	46,406	-0,337	-0,219
88,582	10,854	-0,264	-0,141
89,597	-28,141	-0,399	-0,161
90,611	24,709	-0,352	-0,204
91,626	36,852	-0,287	-0,178
92,641	71,918	-0,313	-0,228
93,655	52,010	-0,171	-0,114
94,670	-8,104	-0,291	-0,137
95,684	242,112	-0,276	-0,324
96,699	-39,000	-0,364	-0,134
97,714	33,250	-0,278	-0,169
98,728	-92,535	-0,276	-0,054
99,743	75,164	-0,268	-0,198
100,757	50,391	-0,258	-0,171
101,772	51,440	-0,377	-0,251
102,787	138,947	-0,260	-0,239
103,801	-65,167	-0,307	-0,086
104,816	314,852	-0,166	-0,219
105,830	-100,397	-0,378	-0,065
106,845	-124,287	-0,156	0,017
107,860	39,735	-0,197	-0,124
108,874	186,634	-0,245	-0,256
109,889	26,262	-0,250	-0,146
110,903	-94,066	-0,248	-0,047
111,918	130,133	-0,268	-0,240
112,933	158,963	-0,200	-0,195
113,947	-30,801	-0,158	-0,062
114,962	61,597	-0,334	-0,232
115,976	234,841	-0,194	-0,225
116,991	152,239	-0,202	-0,193
118,006	-43,108	-0,361	-0,127
119,020	-65,007	-0,369	-0,104
120,035	410,107	-0,198	-0,295
121,049	-101,312	-0,239	-0,040
122,064	38,499	-0,291	-0,181
123,079	-102,569	-0,318	0,053
124,093	-112,716	-0,306	0,042
125,108	144,721	-0,359	-0,336
126,122	84,020	-0,329	-0,251
127,137	-36,543	-0,221	-0,083
128,151	200,531	-0,147	-0,158
129,166	-158,968	-0,174	-0,007
130,181	-84,394	-0,369	-0,081
131,195	-46,222	-0,351	-0,120
132,210	485,785	-0,126	-0,201
133,224	-6,397	-0,304	-0,145
134,239	70,729	-0,181	-0,131
135,254	-113,707	-0,120	-0,016
136,268	-98,516	-0,245	-0,043
137,283	800,000	-0,079	-0,207
138,297	674,028	-0,182	-0,332
139,312	82,358	-0,335	-0,254
140,327	257,011	-0,170	-0,205
141,341	156,875	-0,183	-0,177
142,356	-47,856	-0,248	-0,083
143,370	35,016	-0,306	-0,187
144,385	26,368	-0,239	-0,139
145,400	-51,152	-0,295	-0,096
146,414	80,444	-0,362	-0,272
147,429	19,818	-0,256	-0,143
148,443	24,366	-0,185	-0,107
149,458	26,865	-0,238	-0,139
150,473	350,044	-0,138	-0,191
151,487	-14,212	-0,181	-0,081
152,502	-20,732	-0,298	-0,127
153,516	66,748	-0,227	-0,161
154,531	153,483	-0,309	-0,296
155,546	707,254	-0,199	-0,369
156,560	116,796	-0,319	-0,274
157,575	800,000	-0,069	-0,163
158,589	-51,057	-0,236	-0,077
159,604	50,534	-0,352	-0,232
160,619	13,087	-0,247	-0,133
161,633	121,511	-0,329	-0,286
162,648	-61,810	-0,360	-0,104
163,662	21,950	-0,206	-0,117
164,677	626,342	-0,068	-0,120
165,692	-8,060	-0,284	-0,133
166,706	6,196	-0,254	-0,131
167,721	77,133	-0,250	-0,185
168,735	93,793	-0,210	-0,166
169,750	61,295	-0,286	-0,198
170,764	-128,773	-0,199	-0,019
171,779	37,447	-0,189	-0,117
172,794	800,000	-0,079	-0,190
173,808	40,543	-0,262	-0,164
174,823	537,503	-0,202	-0,335
175,837	119,591	-0,157	-0,136
176,852	-53,917	-0,325	-0,103
177,867	-83,240	-0,274	-0,061
178,881	35,309	-0,158	-0,096
179,896	5,001	-0,285	-0,146
180,910	263,086	-0,148	-0,180
181,925	-46,100	-0,259	-0,088
182,940	-51,744	-0,220	-0,071
183,954	800,000	-0,112	-0,246
184,969	-110,931	-0,250	-0,035
185,983	282,842	-0,136	-0,171
186,998	431,771	-0,107	-0,162
188,013	639,634	-0,195	-0,348
189,027	220,368	-0,220	-0,246
190,042	-160,190	-0,385	-0,014
191,056	124,567	-0,198	-0,173
192,071	110,000	-0,162	-0,135
193,086	114,241	-0,158	-0,134
194,100	-30,495	-0,184	0,072
195,115	43,425	-0,224	-0,142
196,129	-140,435	-0,213	-0,015
197,144	800,000	-0,171	-0,356
198,159	-179,754	-0,258	-0,004
199,173	48,658	-0,253	-0,165
200,188	228,968	-0,139	-0,158
201,202	96,914	-0,209	-0,167
202,217	107,933	-0,256	-0,212
203,232	-63,196	-0,166	-0,047
204,246	32,573	-0,194	-0,116
205,261	96,150	-0,383	-0,304
206,275	-200,000	-0,010	-0,092
207,290	800,000	-0,059	-0,129
208,304	-36,391	-0,233	-0,087
209,319	-97,876	-0,302	-0,054
210,334	-52,366	-0,207	-0,066
211,348	190,206	-0,262	-0,274
212,363	550,312	-0,095	-0,159
213,377	108,547	-0,165	-0,137
214,392	55,898	-0,201	-0,135
215,407	304,048	-0,143	-0,185
216,421	-17,809	-0,224	-0,097
217,436	-104,640	-0,172	-0,027
218,450	71,877	-0,206	-0,148
219,465	285,776	-0,219	-0,275
220,480	1,909	-0,329	-0,164
221,494	-129,824	-0,320	-0,030
222,509	2,675	-0,152	-0,076
223,523	214,545	-0,175	-0,192
224,538	93,436	-0,118	-0,093
225,553	20,339	-0,137	-0,076
226,567	45,927	-0,157	-0,100
227,582	67,439	-0,250	-0,177
228,596	254,393	-0,207	-0,246
229,611	-28,379	-0,203	-0,081
230,626	103,211	-0,181	-0,147
231,640	156,425	-0,163	-0,156
232,655	-70,969	-0,249	-0,065
233,669	301,147	-0,152	-0,194
234,684	112,840	-0,129	-0,108
235,699	-200,000	-0,061	-0,218
236,713	-118,456	-0,147	-0,018
237,728	-200,000	-0,003	-0,067
238,742	-44,840	-0,271	-0,093
239,757	90,179	-0,287	-0,222
240,772	222,225	-0,179	-0,200
241,786	254,887	-0,138	-0,164
242,801	-200,000	0,006	-0,091
243,815	117,444	-0,177	-0,151
244,830	-84,672	-0,194	-0,042
245,844	-63,150	-0,223	0,063
246,859	56,105	-0,159	-0,107
247,874	561,304	-0,078	-0,131
248,888	263,051	-0,163	-0,197
249,903	-66,764	-0,211	-0,057
250,917	66,070	-0,162	-0,114
251,932	171,796	-0,119	-0,119
252,947	7,537	-0,170	-0,088
253,961	-91,304	-0,194	0,038
254,976	-110,897	-0,318	-0,045
255,990	80,375	-0,253	-0,189
257,005	-111,513	-0,115	0,016
258,020	-200,000	0,008	-0,161
259,034	-45,663	-0,151	-0,051
260,049	0,889	-0,203	-0,100
261,063	-3,053	-0,238	-0,114
262,078	179,684	-0,130	-0,131
263,093	2,852	-0,158	-0,079
264,107	-103,482	-0,269	-0,043
265,122	-200,000	-0,061	-0,211
266,136	54,462	-0,202	-0,134
267,151	-35,221	-0,153	-0,057
268,166	240,555	-0,126	-0,145
269,180	106,839	-0,179	-0,147
270,195	748,127	-0,110	-0,206
271,209	379,141	-0,078	-0,111
272,224	-200,000	0,000	-0,034
273,239	-108,028	-0,116	0,017
274,253	-82,959	-0,255	-0,056
275,268	-163,523	-0,151	0,005
276,282	-79,546	-0,282	-0,065
277,297	85,339	-0,256	-0,194
278,312	325,834	-0,165	-0,219
279,326	-91,854	-0,068	-0,013
280,341	-48,426	-0,181	-0,060
281,355	-105,355	-0,142	0,022
282,370	-137,215	-0,122	-0,009
283,384	-74,195	-0,161	-0,040
284,399	800,000	-0,075	-0,185
285,414	-51,623	-0,256	-0,082
286,428	-144,928	-0,159	0,010
287,443	-0,179	-0,164	-0,080
288,457	203,425	-0,151	-0,161
289,472	79,777	-0,207	-0,153
290,487	-5,047	-0,279	-0,132
291,501	212,123	-0,180	-0,195
292,516	107,443	-0,228	-0,187
293,530	194,192	-0,096	-0,100
294,545	264,126	-0,155	-0,186
295,560	65,367	-0,128	-0,090
296,574	222,640	-0,147	-0,163
297,589	39,172	-0,256	-0,158
298,603	-200,000	-0,013	-0,107
299,618	-24,894	-0,103	-0,042
300,633	64,114	-0,115	-0,079
301,647	0,557	-0,106	-0,052
302,662	307,111	-0,043	-0,056
303,676	374,416	-0,112	-0,158
304,691	8,716	-0,097	-0,050
305,706	33,393	-0,142	-0,085
306,720	288,503	-0,098	0,123
307,735	800,000	-0,110	-0,223
308,749	-200,000	-0,050	-0,167
309,764	-25,083	-0,106	-0,043
310,779	-67,648	-0,071	-0,019
311,793	186,501	-0,117	-0,120
312,808	204,595	-0,106	-0,113
313,822	129,855	-0,149	-0,132
314,837	-23,674	-0,200	-0,082
315,852	800,000	-0,073	-0,181
316,866	-200,000	-0,050	-0,165
317,881	-23,956	-0,096	-0,040
318,895	18,402	-0,153	-0,084
319,910	-108,525	-0,165	-0,024
320,925	534,741	-0,059	-0,096
321,939	190,353	-0,106	-0,110
322,954	21,446	-0,155	-0,086
323,968	-80,103	-0,175	-0,040
324,983	7,683	-0,062	-0,032
325,997	-51,671	-0,158	-0,050
327,012	99,682	-0,210	-0,167
328,027	798,798	-0,072	-0,137
329,041	-200,000	-0,039	-0,179
330,056	-85,820	-0,212	-0,045
331,070	188,166	-0,136	-0,140
332,085	-178,424	-0,145	0,002
333,100	800,000	-0,058	-0,133
334,114	-149,323	-0,209	0,011
335,129	-1,440	-0,167	-0,081
336,143	800,000	-0,069	-0,150
337,158	298,674	-0,090	-0,115
338,173	-118,121	-0,127	-0,015
339,187	36,722	-0,147	-0,089
340,202	286,673	-0,121	-0,151
341,216	7,913	-0,273	-0,140
342,231	-10,890	-0,124	-0,056
343,246	410,702	-0,122	-0,178
344,260	349,746	-0,148	-0,201
345,275	93,389	-0,154	-0,120
346,289	78,505	-0,091	-0,067
347,304	800,000	-0,113	-0,218
348,319	-200,000	-0,062	-0,230
349,333	160,365	-0,227	-0,217
350,348	204,678	-0,139	-0,148
351,362	263,314	-0,080	-0,095
352,377	96,631	-0,107	-0,084
353,392	800,000	-0,082	-0,226
354,406	-138,168	-0,164	-0,012
355,421	209,120	1314,520	1413,966
356,435	160,933	1475,228	1414,458
