DTS Sentinel unit serial number:	SN410029Multiplexer serial number:	ORYXHardware model number:	OX2-SRSoftware version number:	ORYX F/W v4,00 Oryx Data Collector v3.7.2.0data status	okinstallation	B3 Nyhavnadifferential loss correction	single-endedforward channel	channel 1reverse channel	N/Adate	2023/12/02time	11:22:30forward acquisition time	300,00reverse acquisition time	0,00gamma	499,1914k internal	0,3197k external	0,3197temperature offset calibration	1,0000default loss term (dB/km)	0,3820temperature slope calibration	1,0000multiplexer offset coefficient	1,0000multiplexer slope coefficient	1,0000fibre end	0,00T internal ref (°C)	14,10T ext. ref 1 (°C)	-1,34T ext. ref 2 (°C)	-1,37length (m)	temperature (°C)	Stokes	anti-Stokes-744,400	675,912	-0,144	-0,273
-743,385	-27,245	0,065	0,028
-742,371	364,401	-0,203	-0,299
-741,356	-200,000	-0,035	0,273
-740,342	800,000	-0,083	-0,245
-739,327	-200,000	0,003	0,354
-738,312	800,000	-0,150	-0,327
-737,298	-200,000	-0,041	0,237
-736,283	140,155	-0,238	-0,228
-735,269	256,136	0,129	0,161
-734,254	72,514	-0,289	-0,219
-733,239	404,242	-0,154	0,236
-732,225	49,576	-0,156	-0,107
-731,210	-66,703	0,121	0,035
-730,196	800,000	-0,045	-0,095
-729,181	800,000	0,055	-0,137
-728,167	-69,714	-0,085	-0,023
-727,152	-79,395	0,092	0,022
-726,137	-200,000	-0,003	-0,044
-725,123	31,196	0,126	-0,079
-724,108	464,902	-0,065	-0,106
-723,094	800,000	-0,024	-0,071
-722,079	-74,316	-0,071	0,018
-721,064	-200,000	0,017	-0,056
-720,050	-118,396	-0,087	-0,011
-719,035	396,399	0,043	-0,066
-718,021	-200,000	0,005	-0,050
-717,006	498,282	-0,040	0,068
-715,991	-200,000	0,008	-0,057
-714,977	214,393	-0,156	-0,180
-713,962	28,029	-0,038	-0,023
-712,948	239,481	-0,053	-0,064
-711,933	-140,548	-0,102	-0,008
-710,918	-107,277	-0,083	-0,013
-709,904	264,540	-0,036	-0,046
-708,889	-200,000	-0,007	-0,025
-707,875	-6,813	-0,135	0,066
-706,860	56,412	-0,110	-0,078
-705,845	-152,965	0,088	0,004
-704,831	-200,000	0,022	0,184
-703,816	489,341	-0,044	0,073
-702,802	800,000	0,033	-0,079
-701,787	-200,000	0,022	-0,096
-700,772	60,891	0,045	0,033
-699,758	-186,588	0,085	0,001
-698,743	-80,453	0,061	0,015
-697,729	180,343	-0,046	0,049
-696,714	-45,071	-0,060	-0,022
-695,699	370,711	-0,027	-0,039
-694,685	-31,630	-0,112	-0,046
-693,670	800,000	-0,069	0,175
-692,656	800,000	0,047	-0,113
-691,641	800,000	-0,047	0,117
-690,627	800,000	-0,028	-0,074
-689,612	-14,572	0,041	0,019
-688,597	83,760	0,090	0,071
-687,583	-200,000	-0,035	-0,124
-686,568	773,848	0,045	-0,090
-685,554	-80,978	0,073	0,017
-684,539	-75,991	-0,083	-0,021
-683,524	-162,659	-0,145	-0,005
-682,510	100,541	0,064	-0,054
-681,495	-200,000	0,006	-0,090
-680,481	226,868	-0,144	-0,170
-679,466	-200,000	-0,027	-0,102
-678,451	8,136	0,099	-0,054
-677,437	-200,000	-0,003	-0,011
-676,422	-200,000	0,014	0,058
-675,408	665,056	0,026	0,049
-674,393	-160,860	-0,248	-0,009
-673,378	-89,236	-0,093	-0,020
-672,364	6,382	-0,112	-0,060
-671,349	-133,854	-0,116	0,010
-670,335	800,000	0,047	-0,100
-669,320	-200,000	0,002	0,058
-668,305	-200,000	-0,008	0,117
-667,291	9,983	-0,050	-0,028
-666,276	28,178	-0,116	-0,071
-665,262	-140,249	-0,138	0,010
-664,247	-7,066	0,090	-0,044
-663,232	157,243	-0,046	-0,047
-662,218	291,398	0,024	0,032
-661,203	56,890	0,121	-0,085
-660,189	-200,000	-0,040	-0,133
-659,174	36,582	-0,047	0,030
-658,159	249,101	-0,059	0,073
-657,145	366,588	0,021	-0,032
-656,130	235,306	-0,057	-0,068
-655,116	4,908	0,091	-0,049
-654,101	-200,000	-0,000	0,021
-653,086	91,318	0,031	-0,025
-652,072	21,818	-0,060	0,036
-651,057	-200,000	0,015	0,051
-650,043	-200,000	0,022	-0,107
-649,028	49,792	0,069	0,047
-648,014	350,046	0,056	0,081
-646,999	213,001	-0,035	-0,040
-645,984	663,274	-0,043	-0,080
-644,970	-94,388	-0,066	0,013
-643,955	-200,000	-0,009	0,049
-642,941	699,967	-0,110	-0,210
-641,926	-27,716	-0,141	-0,059
-640,911	545,860	0,081	0,141
-639,897	114,263	0,022	-0,020
-638,882	-86,248	-0,088	0,019
-637,868	800,000	0,027	-0,085
-636,853	-79,265	-0,126	-0,031
-635,838	-200,000	0,014	-0,083
-634,824	-23,690	-0,135	-0,058
-633,809	-171,374	-0,054	0,001
-632,795	311,793	0,021	0,029
-631,780	-200,000	-0,008	0,056
-630,765	100,618	-0,053	0,045
-629,751	800,000	0,070	-0,161
-628,736	353,336	-0,110	-0,159
-627,722	44,943	-0,066	0,044
-626,707	257,344	0,030	-0,037
-625,692	461,332	0,058	-0,094
-624,678	800,000	0,047	-0,136
-623,663	-200,000	-0,005	0,053
-622,649	12,161	0,022	-0,012
-621,634	800,000	-0,058	-0,135
-620,619	-23,667	-0,090	-0,039
-619,605	800,000	0,066	0,207
-618,590	120,973	-0,062	-0,056
-617,576	-200,000	-0,002	-0,182
-616,561	-200,000	-0,006	-0,046
-615,546	552,851	0,029	-0,050
-614,532	800,000	-0,074	-0,151
-613,517	-42,873	-0,030	-0,011
-612,503	133,505	0,093	0,087
-611,488	56,980	0,110	-0,077
-610,474	142,682	0,087	0,084
-609,459	800,000	0,038	0,077
-608,444	-200,000	0,015	-0,061
-607,430	-173,915	-0,234	-0,005
-606,415	800,000	0,004	-0,010
-605,401	157,456	0,082	0,082
-604,386	28,761	0,113	0,069
-603,371	800,000	0,016	0,038
-602,357	2,847	-0,063	0,033
-601,342	-91,862	0,034	-0,007
-600,328	-42,304	0,032	-0,012
-599,313	-67,426	0,067	-0,019
-598,298	302,096	-0,013	-0,017
-597,284	109,156	0,099	0,086
-596,269	-87,451	0,052	-0,011
-595,255	-26,102	0,105	0,044
-594,240	-91,700	-0,081	0,017
-593,225	63,958	-0,058	-0,042
-592,211	-200,000	-0,021	-0,111
-591,196	392,447	0,013	0,019
-590,182	70,810	0,066	-0,049
-589,167	-101,135	-0,060	0,010
-588,152	57,252	0,136	0,096
-587,138	-56,055	-0,065	0,021
-586,123	800,000	-0,034	-0,105
-585,109	-200,000	-0,006	-0,080
-584,094	47,197	-0,069	-0,047
-583,079	-15,752	0,060	0,027
-582,065	53,964	-0,093	0,064
-581,050	-23,104	0,117	0,051
-580,036	107,687	-0,072	0,062
-579,021	-103,718	-0,091	-0,015
-578,006	200,457	0,065	-0,072
-576,992	-73,155	0,089	-0,023
-575,977	-151,851	0,100	-0,005
-574,963	800,000	-0,048	0,100
-573,948	62,950	0,069	0,050
-572,934	-74,846	-0,086	-0,022
-571,919	-200,000	-0,010	0,058
-570,904	-200,000	0,013	-0,084
-569,890	-200,000	0,016	-0,091
-568,875	800,000	-0,025	-0,063
-567,861	-89,252	0,185	-0,039
-566,846	294,481	0,061	-0,081
-565,831	-20,751	-0,068	0,030
-564,817	-21,560	-0,134	-0,059
-563,802	180,458	-0,070	-0,074
-562,788	752,118	0,030	-0,059
-561,773	-67,990	0,203	0,057
-560,758	225,369	0,056	0,066
-559,744	-48,600	0,046	0,016
-558,729	-200,000	-0,019	0,123
-557,715	-38,609	-0,126	-0,048
-556,700	261,419	-0,027	0,034
-555,685	-200,000	-0,029	0,143
-554,671	2,481	-0,052	0,027
-553,656	-200,000	0,041	0,186
-552,642	-200,000	0,005	-0,032
-551,627	-62,691	0,192	0,057
-550,612	-39,174	-0,069	0,026
-549,598	-72,382	-0,120	0,032
-548,583	26,699	-0,042	0,025
-547,569	-200,000	-0,016	0,103
-546,554	-59,741	0,058	-0,018
-545,539	241,399	0,078	0,094
-544,525	86,855	0,130	0,104
-543,510	-187,006	-0,068	-0,001
-542,496	607,995	-0,088	-0,159
-541,481	99,438	0,033	0,027
-540,466	-85,177	0,112	0,025
-539,452	261,510	0,078	-0,097
-538,437	-109,040	0,095	-0,014
-537,423	79,159	0,044	-0,034
-536,408	800,000	0,038	-0,103
-535,393	800,000	-0,041	-0,109
-534,379	-200,000	0,020	-0,092
-533,364	-200,000	-0,031	-0,122
-532,350	-200,000	-0,002	-0,059
-531,335	800,000	0,069	0,157
-530,321	-120,029	-0,120	0,015
-529,306	800,000	0,025	-0,060
-528,291	10,261	-0,079	-0,043
-527,277	800,000	-0,058	-0,144
-526,262	82,916	-0,089	-0,070
-525,248	-143,734	-0,060	-0,004
-524,233	-39,081	0,100	-0,038
-523,218	194,317	0,037	-0,041
-522,204	-4,906	-0,138	-0,069
-521,189	216,555	-0,073	-0,084
-520,175	-89,175	0,043	0,009
-519,160	-200,000	-0,003	-0,103
-518,145	-130,255	-0,099	0,010
-517,131	63,408	0,102	-0,074
-516,116	-87,249	0,146	0,032
-515,102	-200,000	0,014	-0,169
-514,087	150,807	-0,075	0,073
-513,072	800,000	0,030	0,091
-512,058	-200,000	-0,021	-0,103
-511,043	-200,000	-0,011	0,092
-510,029	368,713	0,046	-0,067
-509,014	-179,732	0,072	-0,001
-507,999	-71,528	-0,161	0,043
-506,985	-5,942	0,044	-0,022
-505,970	-44,466	-0,163	-0,058
-504,956	-31,373	0,116	-0,047
-503,941	340,706	0,041	-0,057
-502,926	-129,848	0,087	0,009
-501,912	-200,000	0,012	0,087
-500,897	-6,587	-0,181	0,089
-499,883	-200,000	0,001	0,041
-498,868	-200,000	0,006	-0,160
-497,853	127,636	-0,092	-0,084
-496,839	52,634	-0,058	-0,040
-495,824	31,402	0,071	0,044
-494,810	-11,807	0,068	0,032
-493,795	-63,131	0,046	-0,014
-492,781	-76,662	0,018	0,005
-491,766	194,487	0,043	0,047
-490,751	565,194	-0,045	0,079
-489,737	337,675	0,078	-0,110
-488,722	293,159	-0,008	0,011
-487,708	133,906	0,125	0,117
-486,693	143,440	0,046	0,044
-485,678	623,768	-0,042	0,077
-484,664	426,792	-0,039	-0,061
-483,649	-200,000	0,025	-0,107
-482,635	-40,984	0,061	0,022
-481,620	800,000	-0,024	-0,061
-480,605	-200,000	-0,022	0,105
-479,591	69,588	-0,152	-0,113
-478,576	-73,904	-0,134	0,035
-477,562	-172,081	0,127	0,003
-476,547	-200,000	-0,017	-0,074
-475,532	77,958	-0,034	-0,026
-474,518	580,643	0,048	0,086
-473,503	38,727	0,153	0,098
-472,489	211,236	-0,131	0,149
-471,474	-86,715	0,076	-0,017
-470,459	-13,004	-0,095	0,044
-469,445	800,000	0,054	-0,111
-468,430	-69,597	0,046	0,013
-467,416	-200,000	0,010	0,069
-466,401	31,875	0,067	0,041
-465,386	-48,796	0,129	0,044
-464,372	153,899	0,008	-0,007
-463,357	800,000	-0,035	-0,082
-462,343	-105,083	-0,143	-0,023
-461,328	-200,000	-0,023	-0,108
-460,313	-200,000	-0,040	-0,164
-459,299	323,191	0,075	0,103
-458,284	112,823	-0,070	-0,061
-457,270	81,479	-0,074	-0,057
-456,255	800,000	0,037	-0,090
-455,241	-200,000	0,017	-0,056
-454,226	-200,000	-0,029	-0,144
-453,211	-200,000	0,022	0,093
-452,197	-200,000	-0,003	-0,054
-451,182	800,000	0,065	0,140
-450,168	800,000	-0,034	-0,099
-449,153	89,562	-0,119	0,095
-448,138	-15,353	-0,033	-0,015
-447,124	800,000	0,020	-0,047
-446,109	-108,446	-0,143	-0,022
-445,095	59,362	-0,068	0,048
-444,080	-200,000	0,009	0,072
-443,065	84,394	0,128	0,101
-442,051	-123,019	0,076	-0,009
-441,036	415,325	0,017	0,026
-440,022	-24,936	0,025	0,011
-439,007	-200,000	0,001	0,101
-437,992	305,738	0,054	-0,072
-436,978	-55,289	0,024	0,008
-435,963	774,001	0,076	-0,150
-434,949	316,140	-0,045	-0,062
-433,934	-147,436	0,043	0,003
-432,919	37,563	-0,104	0,066
-431,905	-200,000	-0,008	-0,124
-430,890	800,000	0,074	-0,187
-429,876	-14,631	0,040	0,018
-428,861	-16,935	0,086	0,039
-427,846	193,546	-0,116	0,126
-426,832	-200,000	0,006	-0,033
-425,817	-200,000	-0,002	-0,084
-424,803	91,661	0,105	-0,085
-423,788	34,780	0,048	-0,030
-422,773	800,000	-0,048	0,131
-421,759	599,366	0,079	0,141
-420,744	-200,000	0,022	0,135
-419,730	360,987	0,032	-0,046
-418,715	-11,950	-0,062	-0,029
-417,701	217,934	0,067	0,077
-416,686	-47,060	-0,081	-0,028
-415,671	3,903	0,181	-0,095
-414,657	12,422	0,106	0,059
-413,642	789,111	-0,028	0,055
-412,628	744,068	-0,019	-0,036
-411,613	-47,484	-0,063	0,022
-410,598	-25,671	-0,024	-0,010
-409,584	800,000	0,065	-0,176
-408,569	800,000	0,006	0,017
-407,555	77,214	0,044	0,034
-406,540	-200,000	0,031	0,128
-405,525	-151,368	-0,078	0,004
-404,511	135,797	0,080	-0,075
-403,496	-30,166	-0,037	-0,015
-402,482	-26,724	0,130	0,055
-401,467	21,658	0,016	0,009
-400,452	-200,000	-0,027	0,096
-399,438	-200,000	0,013	0,143
-398,423	373,241	0,054	0,079
-397,409	-123,417	-0,091	-0,010
-396,394	800,000	0,016	-0,045
-395,379	621,192	0,052	0,095
-394,365	-35,753	0,041	0,016
-393,350	-200,000	-0,053	0,196
-392,336	122,441	-0,037	-0,034
-391,321	800,000	0,021	-0,044
-390,306	-119,475	-0,133	0,016
-389,292	-200,000	0,002	0,163
-388,277	-84,996	-0,211	0,047
-387,263	-36,455	0,043	-0,017
-386,248	340,727	-0,037	0,052
-385,233	544,752	-0,009	0,016
-384,219	16,980	0,109	-0,062
-383,204	-97,705	-0,217	-0,040
-382,190	-74,389	0,066	0,017
-381,175	462,194	0,065	-0,105
-380,160	120,614	0,096	0,085
-379,146	-88,575	0,141	-0,030
-378,131	800,000	0,041	0,083
-377,117	-200,000	0,006	-0,098
-376,102	-200,000	0,011	0,072
-375,088	800,000	0,009	0,019
-374,073	-200,000	0,011	-0,164
-373,058	-162,427	0,019	-0,001
-372,044	-200,000	0,011	0,043
-371,029	-200,000	-0,013	0,179
-370,015	-134,796	0,107	-0,009
-369,000	-56,585	0,033	-0,010
-367,985	180,163	-0,074	0,077
-366,971	52,698	0,026	0,018
-365,956	-21,429	-0,056	0,024
-364,942	800,000	0,059	0,158
-363,927	-200,000	-0,004	-0,039
-362,912	364,329	0,079	-0,114
-361,898	-72,484	-0,005	0,001
-360,883	-200,000	0,015	0,092
-359,869	94,132	-0,089	0,072
-358,854	106,396	-0,024	0,020
-357,839	104,055	-0,102	0,086
-356,825	5,322	0,043	0,023
-355,810	-42,123	0,076	-0,028
-354,796	232,004	0,047	-0,055
-353,781	-200,000	0,001	-0,005
-352,766	-140,634	0,046	-0,003
-351,752	111,434	0,081	0,070
-350,737	-200,000	-0,004	-0,030
-349,723	427,479	0,013	0,020
-348,708	-104,985	-0,070	0,011
-347,693	-102,711	-0,142	0,024
-346,679	-200,000	0,009	0,085
-345,664	6,922	-0,110	0,058
-344,650	626,231	0,031	0,056
-343,635	-44,856	-0,013	0,005
-342,620	-200,000	0,002	0,099
-341,606	800,000	0,081	0,171
-340,591	22,460	0,054	0,032
-339,577	241,800	-0,136	-0,163
-338,562	-31,653	0,125	-0,050
-337,548	406,357	-0,078	-0,119
-336,533	-200,000	-0,012	-0,096
-335,518	-200,000	-0,020	0,065
-334,504	-99,110	-0,185	-0,033
-333,489	217,334	0,031	-0,035
-332,475	609,298	-0,013	0,024
-331,460	-68,307	-0,043	0,012
-330,445	17,339	-0,137	-0,077
-329,431	-41,012	0,014	0,005
-328,416	368,058	-0,032	0,046
-327,402	-200,000	0,016	-0,089
-326,387	120,599	0,117	-0,104
-325,372	101,894	0,097	-0,081
-324,358	-43,079	-0,132	-0,048
-323,343	115,317	0,076	0,066
-322,329	176,362	0,015	0,016
-321,314	-200,000	0,000	0,065
-320,299	-200,000	-0,025	0,081
-319,285	310,483	0,013	-0,017
-318,270	-49,509	0,071	0,024
-317,256	-166,097	-0,044	-0,001
-316,241	-12,019	-0,053	-0,025
-315,226	80,401	0,081	0,062
-314,212	-200,000	0,005	0,106
-313,197	-184,311	-0,036	0,000
-312,183	-200,000	0,000	-0,007
-311,168	77,744	-0,079	-0,060
-310,153	-24,591	-0,021	0,009
-309,139	211,659	0,079	-0,089
-308,124	550,001	-0,022	-0,038
-307,110	-200,000	0,001	-0,083
-306,095	62,932	-0,018	-0,013
-305,080	8,894	0,116	0,062
-304,066	-200,000	-0,179	0,000
-303,051	-200,000	-0,023	-0,140
-302,037	65,203	0,027	0,019
-301,022	-200,000	0,002	0,086
-300,008	285,103	-0,075	0,097
-298,993	-200,000	-0,007	-0,069
-297,978	-200,000	0,019	0,110
-296,964	800,000	0,038	-0,116
-295,949	-68,164	-0,013	-0,003
-294,935	-200,000	0,013	-0,191
-293,920	105,591	-0,024	0,020
-292,905	452,921	-0,046	-0,074
-291,891	-36,221	-0,096	-0,037
-290,876	800,000	0,047	-0,110
-289,862	72,080	-0,077	0,057
-288,847	-31,169	-0,113	-0,045
-287,832	237,711	-0,041	-0,049
-286,818	-200,000	-0,004	-0,015
-285,803	90,590	0,122	-0,097
-284,789	506,680	0,054	0,091
-283,774	800,000	-0,046	0,094
-282,759	-200,000	0,032	-0,135
-281,745	-141,033	-0,171	-0,012
-280,730	-200,000	0,000	-0,023
-279,716	-139,376	-0,284	0,021
-278,701	-200,000	0,013	0,054
-277,686	52,914	0,010	-0,007
-276,672	18,653	0,090	0,051
-275,657	785,587	0,043	0,085
-274,643	-177,623	-0,037	0,001
-273,628	-12,308	0,069	-0,032
-272,613	-65,643	-0,115	-0,033
-271,599	665,322	0,043	-0,079
-270,584	800,000	-0,022	0,066
-269,570	52,404	0,072	0,049
-268,555	-200,000	0,014	-0,076
-267,540	52,725	-0,022	0,015
-266,526	361,268	-0,087	-0,125
-265,511	-44,769	-0,112	-0,040
-264,497	88,776	0,022	-0,017
-263,482	610,264	0,056	-0,100
-262,467	36,353	0,094	-0,059
-261,453	174,331	0,130	0,135
-260,438	-193,132	-0,014	0,000
-259,424	-200,000	-0,010	0,043
-258,409	183,349	-0,035	-0,038
-257,395	55,743	-0,028	-0,019
-256,380	35,015	0,128	0,080
-255,365	800,000	-0,025	-0,050
-254,351	-200,000	-0,044	0,163
-253,336	76,053	-0,098	0,074
-252,322	-200,000	0,013	-0,124
-251,307	768,034	-0,043	-0,084
-250,292	-200,000	-0,009	0,140
-249,278	30,438	0,018	0,011
-248,263	323,619	0,054	0,073
-247,249	-200,000	-0,033	0,158
-246,234	-200,000	0,019	0,062
-245,219	410,665	0,021	-0,031
-244,205	55,406	-0,056	0,039
-243,190	-155,220	0,092	-0,004
-242,176	800,000	-0,018	0,039
-241,161	-102,525	0,177	0,030
-240,146	112,467	-0,108	0,093
-239,132	-34,673	-0,086	0,034
-238,117	14,221	-0,143	-0,079
-237,103	477,561	0,044	-0,072
-236,088	-200,000	-0,006	-0,136
-235,073	120,283	0,028	-0,025
-234,059	-200,000	0,022	0,139
-233,044	-72,300	0,064	0,017
-232,030	154,723	0,047	-0,046
-231,015	98,202	-0,053	0,044
-230,000	800,000	-0,029	-0,069
-228,986	-200,000	0,024	-0,083
-227,971	198,740	-0,069	-0,075
-226,957	800,000	-0,071	0,205
-225,942	-93,722	0,097	-0,019
-224,927	-200,000	0,006	-0,045
-223,913	-0,019	-0,108	0,055
-222,898	-200,000	-0,036	-0,151
-221,884	161,211	-0,019	-0,019
-220,869	-200,000	-0,038	0,128
-219,855	204,854	-0,083	0,092
-218,840	110,443	0,054	-0,046
-217,825	136,297	0,122	0,114
-216,811	197,483	0,059	0,064
-215,796	-111,092	-0,169	-0,024
-214,782	-200,000	0,020	-0,068
-213,767	171,827	-0,039	0,040
-212,752	64,305	0,106	0,076
-211,738	-196,214	0,063	0,000
-210,723	531,448	-0,015	-0,026
-209,709	-200,000	-0,011	-0,115
-208,694	6,620	-0,067	0,036
-207,679	-102,216	0,123	-0,021
-206,665	145,263	0,043	0,041
-205,650	114,691	0,043	0,037
-204,636	85,028	0,106	0,083
-203,621	5,590	-0,075	0,040
-202,606	800,000	0,030	0,062
-201,592	-200,000	0,001	-0,084
-200,577	-200,000	-0,002	0,124
-199,563	-200,000	0,007	0,040
-198,548	-200,000	-0,012	-0,051
-197,533	-200,000	0,013	0,124
-196,519	218,239	0,152	0,173
-195,504	-200,000	0,026	0,091
-194,490	113,041	-0,014	0,012
-193,475	800,000	-0,044	-0,116
-192,460	48,938	0,114	0,076
-191,446	-200,000	0,046	0,155
-190,431	-200,000	0,004	-0,017
-189,417	12,161	-0,058	0,032
-188,402	5,576	-0,048	0,025
-187,387	-5,353	-0,049	-0,024
-186,373	800,000	-0,018	0,051
-185,358	800,000	0,031	0,081
-184,344	-23,463	0,116	0,049
-183,329	594,792	-0,035	-0,061
-182,315	-155,039	0,014	-0,001
-181,300	77,311	-0,057	0,043
-180,285	-124,801	-0,050	0,005
-179,271	-29,586	0,070	-0,028
-178,256	-200,000	0,006	-0,161
-177,242	160,116	0,094	0,093
-176,227	-200,000	-0,013	-0,065
-175,212	341,624	0,027	0,038
-174,198	800,000	-0,040	0,082
-173,183	-200,000	-0,005	0,095
-172,169	450,839	-0,091	-0,143
-171,154	-105,584	-0,136	0,022
-170,139	-78,721	-0,029	0,007
-169,125	-200,000	0,025	-0,100
-168,110	-18,802	0,121	-0,053
-167,096	210,516	0,136	0,152
-166,081	800,000	0,028	0,080
-165,066	-200,000	0,008	0,050
-164,052	259,830	-0,061	-0,075
-163,037	331,217	-0,034	0,047
-162,023	-37,163	0,079	0,030
-161,008	276,431	0,027	0,034
-159,993	-25,140	-0,125	-0,052
-158,979	-46,590	-0,081	0,028
-157,964	-200,000	-0,066	-0,207
-156,950	353,414	-0,112	-0,159
-155,935	191,101	0,075	0,080
-154,920	-200,000	-0,020	-0,092
-153,906	332,847	-0,030	0,041
-152,891	800,000	-0,020	0,046
-151,877	-74,725	0,075	0,019
-150,862	-200,000	-0,013	-0,190
-149,847	200,308	0,127	-0,139
-148,833	276,810	0,017	0,022
-147,818	-200,000	-0,014	0,091
-146,804	505,011	-0,020	0,034
-145,789	-11,317	0,038	-0,018
-144,775	149,917	-0,106	-0,102
-143,760	800,000	0,006	-0,018
-142,745	-200,000	0,028	-0,160
-141,731	191,272	0,027	0,029
-140,716	445,924	-0,056	-0,088
-139,702	-200,000	-0,043	0,158
-138,687	-99,163	-0,047	0,008
-137,672	-200,000	0,028	0,126
-136,658	171,227	-0,076	-0,077
-135,643	-8,099	0,076	-0,036
-134,629	157,837	-0,071	-0,070
-133,614	39,412	0,124	0,079
-132,599	677,743	-0,035	-0,066
-131,585	-200,000	0,016	-0,153
-130,570	-167,692	0,130	-0,004
-129,556	-182,113	0,084	-0,001
-128,541	800,000	0,020	0,051
-127,526	800,000	0,024	0,052
-126,512	-167,719	-0,007	0,000
-125,497	530,293	-0,057	0,096
-124,483	189,728	-0,097	0,103
-123,468	507,497	-0,075	0,125
-122,453	800,000	-0,026	0,056
-121,439	65,061	0,110	-0,079
-120,424	-182,231	-0,052	-0,001
-119,410	206,248	0,060	-0,067
-118,395	-21,983	-0,067	0,029
-117,380	-83,294	0,161	0,036
-116,366	800,000	-0,031	-0,063
-115,351	1,247	0,080	0,041
-114,337	-200,000	0,005	-0,016
-113,322	-154,722	-0,009	0,000
-112,307	-200,000	0,008	0,069
-111,293	-60,470	0,173	-0,052
-110,278	-200,000	-0,002	0,044
-109,264	800,000	0,036	-0,084
-108,249	800,000	0,013	-0,030
-107,234	-106,950	-0,117	-0,018
-106,220	352,977	-0,085	-0,120
-105,205	-0,188	0,043	0,022
-104,191	800,000	-0,102	0,206
-103,176	-16,862	0,001	0,001
-102,162	-200,000	-0,001	0,113
-101,147	3,197	-0,072	0,037
-100,132	-200,000	0,010	-0,130
-99,118	-26,828	0,067	-0,028
-98,103	-7,464	-0,031	0,015
-97,089	46,559	-0,066	0,044
-96,074	71,120	0,075	0,055
-95,059	-200,000	0,006	0,096
-94,045	347,733	0,064	0,090
-93,030	146,273	-0,162	-0,154
-92,016	-200,000	-0,009	-0,167
-91,001	-116,310	-0,074	0,010
-89,986	-62,457	0,032	0,009
-88,972	-200,000	-0,020	0,096
-87,957	-111,817	-0,072	0,010
-86,943	38,668	0,087	-0,055
-85,928	-5,993	-0,053	0,025
-84,913	-85,778	-0,096	0,021
-83,899	-200,000	0,026	-0,195
-82,884	-200,000	-0,006	-0,025
-81,870	-55,113	0,101	-0,032
-80,855	-200,000	-0,028	0,090
-79,840	-200,000	-0,030	-0,118
-78,826	-88,943	-0,063	0,013
-77,811	800,000	0,015	0,036
-76,797	395,324	-0,055	-0,081
-75,782	-37,511	0,125	0,047
-74,767	-108,808	0,069	-0,010
-73,753	125,926	-0,036	-0,032
-72,738	139,487	0,095	0,089
-71,724	-200,000	-0,032	-0,138
-70,709	-200,000	0,009	-0,052
-69,694	800,000	-0,033	0,090
-68,680	599,690	-0,108	0,191
-67,665	-115,963	0,009	0,001
-66,651	-200,000	0,010	0,068
-65,636	-100,555	-0,046	-0,008
-64,622	170,904	-0,051	-0,052
-63,607	-200,000	-0,012	0,051
-62,592	54,637	0,087	0,060
-61,578	-78,454	-0,077	-0,019
-60,563	100,492	-0,083	-0,069
-59,549	-14,813	0,088	0,040
-58,534	-26,403	-1,498	-0,620
-57,519	333,095	-1,411	-1,938
-56,505	-200,000	-0,507	-4,374
-55,490	191,629	0,986	1,054
-54,476	800,000	4,980	11,434
-53,461	-200,000	18,814	306,364
-52,446	800,000	737,984	2299,516
-51,432	567,947	1654,066	2858,825
-50,417	78,895	1669,577	1265,200
-49,403	22,036	1542,750	889,631
-48,388	15,975	1465,268	815,490
-47,373	17,842	1455,664	819,140
-46,359	16,927	1445,577	809,039
-45,344	14,192	1440,951	793,315
-44,330	14,152	1439,094	792,072
-43,315	14,149	1437,314	791,045
-42,300	14,185	1435,432	790,151
-41,286	14,163	1434,450	789,474
-40,271	14,195	1433,076	788,840
-39,257	14,159	1431,903	787,992
-38,242	14,197	1430,720	787,489
-37,227	14,190	1429,399	786,697
-36,213	14,186	1428,060	785,910
-35,198	14,181	1426,988	785,264
-34,184	14,212	1426,170	784,929
-33,169	14,214	1424,652	784,074
-32,154	14,246	1423,569	783,598
-31,140	14,205	1422,553	782,813
-30,125	14,263	1421,113	782,263
-29,111	14,213	1420,140	781,463
-28,096	14,145	1419,148	780,565
-27,082	14,140	1417,985	779,868
-26,067	14,169	1416,795	779,318
-25,052	14,108	1415,975	778,551
-24,038	14,118	1414,847	777,947
-23,023	14,111	1413,504	777,146
-22,009	14,142	1412,711	776,825
-20,994	14,088	1412,016	776,158
-19,979	14,056	1410,980	775,408
-18,965	14,048	1410,055	774,831
-17,950	14,095	1409,251	774,580
-16,936	14,057	1408,168	773,773
-15,921	14,011	1407,089	772,937
-14,906	13,987	1406,321	772,370
-13,892	14,028	1405,251	771,946
-12,877	14,030	1404,411	771,460
-11,863	14,027	1403,473	770,899
-10,848	14,041	1402,443	770,372
-9,833	14,009	1401,756	769,811
-8,819	13,946	1400,916	769,026
-7,804	13,890	1399,972	768,218
-6,790	13,951	1398,771	767,812
-5,775	13,974	1397,654	767,277
-4,760	13,905	1396,870	766,495
-3,746	13,890	1395,956	765,895
-2,731	13,881	1395,239	765,428
-1,717	13,932	1394,311	765,126
-0,702	13,875	1392,753	763,976
0,313	17,684	1310,700	736,641
1,327	33,843	705,914	434,214
2,342	52,094	123,972	83,534
3,356	2,976	16,571	8,497
4,371	-8,571	3,269	1,549
5,386	-35,570	0,609	0,233
6,400	-200,000	0,018	0,253
7,415	-37,392	-0,318	-0,120
8,429	29,489	-0,329	-0,197
9,444	144,484	-0,339	-0,321
10,459	21,772	-0,304	-0,175
11,473	25,232	-0,341	-0,200
12,488	68,759	-0,203	-0,147
13,502	173,983	-0,248	-0,253
14,517	73,237	-0,263	-0,195
15,531	102,852	-0,340	-0,281
16,546	132,289	-0,336	-0,306
17,561	142,522	-0,413	-0,388
18,575	-72,842	-0,095	-0,024
19,590	210,695	-0,297	-0,330
20,604	129,488	-0,186	-0,168
21,619	66,706	-0,435	-0,313
22,634	36,470	-0,518	-0,323
23,648	66,734	-0,457	-0,328
24,663	218,946	-0,326	-0,368
25,677	216,822	-0,222	-0,250
26,692	98,074	-0,311	-0,253
27,707	48,885	-0,241	-0,160
28,721	57,089	-0,425	-0,292
29,736	-51,436	-0,508	-0,167
30,750	-25,242	-0,501	-0,209
31,765	44,683	-0,346	-0,225
32,780	3,283	-0,402	-0,206
33,794	59,285	-0,354	-0,246
34,809	7,503	-0,397	-0,209
35,823	32,078	-0,311	-0,189
36,838	126,719	-0,414	-0,370
37,853	149,096	-0,331	-0,316
38,867	113,025	-0,396	-0,338
39,882	112,422	-0,325	-0,278
40,896	86,223	-0,351	-0,273
41,911	4,461	-0,485	-0,250
42,926	117,624	-0,342	-0,297
43,940	102,007	-0,262	-0,216
44,955	122,943	-0,274	-0,242
45,969	83,838	-0,423	-0,326
46,984	119,527	-0,336	-0,293
47,999	239,593	-0,191	-0,224
49,013	65,004	-0,394	-0,280
50,028	4,650	-0,363	-0,187
51,042	41,511	-0,317	-0,202
52,057	55,534	-0,342	-0,233
53,071	84,434	-0,322	-0,248
54,086	111,642	-0,282	-0,240
55,101	-6,106	-0,366	-0,176
56,115	16,707	-0,466	-0,259
57,130	91,331	-0,378	-0,299
58,144	18,530	-0,325	-0,182
59,159	103,773	-0,405	-0,335
60,174	120,282	-0,341	-0,298
61,188	79,910	-0,360	-0,272
62,203	104,277	-0,275	-0,228
63,217	156,981	-0,299	-0,292
64,232	89,087	-0,266	-0,208
65,247	72,358	-0,433	-0,317
66,261	95,510	-0,421	-0,338
67,276	109,231	-0,304	-0,256
68,290	-58,586	-0,349	-0,106
69,305	-27,297	-0,223	-0,091
70,320	159,791	-0,281	-0,276
71,334	232,553	-0,176	-0,203
72,349	101,588	-0,337	-0,277
73,363	251,466	-0,293	-0,352
74,378	93,715	-0,341	-0,271
75,393	-25,829	-0,316	-0,130
76,407	28,508	-0,415	-0,246
77,422	38,225	-0,338	-0,211
78,436	-89,151	-0,407	-0,084
79,451	136,054	-0,278	-0,255
80,466	141,662	-0,323	-0,301
81,480	99,886	-0,345	-0,281
82,495	86,603	-0,254	-0,197
83,509	131,435	-0,260	-0,235
84,524	-73,394	-0,324	-0,083
85,539	-53,193	-0,329	-0,105
86,553	124,245	-0,194	-0,171
87,568	542,250	-0,144	-0,242
88,582	72,800	-0,295	-0,216
89,597	223,856	-0,274	-0,311
90,611	-51,188	-0,322	-0,106
91,626	22,201	-0,230	-0,132
92,641	90,590	-0,306	-0,241
93,655	-96,840	-0,331	-0,060
94,670	-4,620	-0,373	-0,180
95,684	202,313	-0,306	-0,332
96,699	-106,690	-0,359	-0,056
97,714	-71,607	-0,347	-0,090
98,728	280,198	-0,226	-0,285
99,743	142,299	-0,304	-0,283
100,757	6,822	-0,184	-0,096
101,772	-25,239	-0,313	-0,130
102,787	14,205	-0,283	-0,154
103,801	-23,986	-0,350	-0,146
104,816	-0,796	-0,348	-0,173
105,830	281,572	-0,199	-0,250
106,845	4,077	-0,156	-0,080
107,860	87,432	-0,277	-0,215
108,874	-15,584	-0,244	-0,109
109,889	-79,133	-0,395	-0,093
110,903	187,370	-0,211	-0,221
111,918	-14,575	-0,242	-0,109
112,933	298,615	-0,194	-0,251
113,947	139,856	-0,264	-0,244
114,962	58,865	-0,180	-0,124
115,976	-160,672	-0,360	-0,013
116,991	291,084	-0,269	-0,344
118,006	19,890	-0,319	-0,180
119,020	60,488	-0,320	-0,222
120,035	252,481	-0,188	-0,225
121,049	318,301	-0,181	-0,241
122,064	248,824	-0,171	-0,203
123,079	60,673	-0,300	-0,208
124,093	230,388	-0,325	-0,373
125,108	135,410	-0,160	-0,146
126,122	-10,256	-0,333	-0,154
127,137	51,493	-0,290	-0,192
128,151	116,176	-0,305	-0,262
129,166	115,850	-0,244	-0,209
130,181	466,636	-0,195	-0,308
131,195	-54,066	-0,424	-0,134
132,210	131,162	-0,227	-0,204
133,224	152,334	-0,286	-0,273
134,239	22,148	-0,332	-0,189
135,254	800,000	-0,075	-0,201
136,268	125,372	-0,139	-0,122
137,283	19,821	-0,340	-0,191
138,297	-8,072	-0,237	-0,112
139,312	30,189	-0,350	-0,208
140,327	-42,270	-0,348	-0,124
141,341	330,451	-0,139	-0,187
142,356	-6,283	-0,243	-0,116
143,370	12,279	-0,199	-0,107
144,385	-174,105	-0,184	-0,004
145,400	288,355	-0,131	-0,166
146,414	244,034	-0,199	-0,235
147,429	548,051	-0,180	-0,303
148,443	48,568	-0,282	-0,184
149,458	-7,932	-0,257	-0,121
150,473	-42,515	-0,145	-0,051
151,487	-2,432	-0,254	-0,124
152,502	45,657	-0,215	-0,138
153,516	303,365	-0,151	-0,196
154,531	302,862	-0,185	-0,240
155,546	62,350	-0,115	-0,080
156,560	79,915	-0,160	-0,120
157,575	129,050	-0,274	-0,244
158,589	476,326	-0,119	-0,189
159,604	-22,143	-0,201	-0,085
160,619	247,669	-0,204	-0,241
161,633	217,860	-0,199	-0,222
162,648	120,068	-0,313	-0,272
163,662	-99,326	-0,329	-0,057
164,677	-109,431	-0,353	-0,052
165,692	-93,651	-0,212	-0,040
166,706	-128,141	-0,294	-0,029
167,721	62,381	-0,347	-0,241
168,735	800,000	-0,114	-0,239
169,750	289,671	-0,143	-0,182
170,764	-82,448	-0,163	-0,037
171,779	104,432	-0,148	-0,121
172,794	272,773	-0,193	-0,238
173,808	88,247	-0,193	-0,150
174,823	188,896	-0,279	-0,292
175,837	68,554	-0,251	-0,179
176,852	109,599	-0,175	-0,146
177,867	420,697	-0,220	-0,330
178,881	85,142	-0,179	-0,137
179,896	602,194	-0,103	-0,180
180,910	307,763	-0,154	-0,200
181,925	79,781	-0,397	-0,297
182,940	67,191	-0,317	-0,225
183,954	104,313	-0,196	-0,161
184,969	131,573	-0,189	-0,169
185,983	-42,807	-0,200	-0,071
186,998	-34,555	-0,197	-0,075
188,013	32,462	-0,290	-0,174
189,027	-2,961	-0,187	-0,091
190,042	179,835	-0,203	-0,207
191,056	430,014	-0,124	-0,188
192,071	488,218	-0,122	-0,194
193,086	38,101	-0,189	-0,117
194,100	15,244	-0,199	-0,108
195,115	480,415	-0,198	-0,313
196,129	-142,314	-0,113	0,008
197,144	111,057	-0,314	-0,263
198,159	800,000	-0,145	-0,288
199,173	58,286	-0,213	-0,145
200,188	37,750	-0,170	-0,105
201,202	-76,867	-0,189	-0,046
202,217	-43,143	-0,180	-0,063
203,232	67,891	-0,224	-0,160
204,246	9,893	-0,223	-0,118
205,261	35,773	-0,249	-0,152
206,275	14,977	-0,076	-0,041
207,290	-147,046	-0,330	-0,019
208,304	-42,697	-0,166	-0,059
209,319	41,067	-0,265	-0,166
210,334	229,342	-0,119	-0,135
211,348	-65,574	-0,214	-0,059
212,363	504,306	-0,135	-0,217
213,377	463,325	-0,140	-0,218
214,392	395,484	-0,147	-0,214
215,407	-30,511	-0,094	-0,037
216,421	609,897	-0,155	-0,270
217,436	800,000	-0,061	-0,165
218,450	-21,281	-0,271	-0,114
219,465	37,508	-0,310	-0,191
220,480	172,865	-0,145	-0,145
221,494	-200,000	0,042	-0,251
222,509	1,806	-0,049	-0,024
223,523	80,848	-0,098	-0,073
224,538	155,872	-0,164	-0,157
225,553	-6,635	-0,190	-0,090
226,567	-1,251	-0,248	-0,121
227,582	800,000	-0,075	-0,177
228,596	-104,288	-0,028	0,005
229,611	206,314	-0,111	-0,120
230,626	361,736	-0,172	-0,240
231,640	160,146	-0,248	-0,240
232,655	-100,698	-0,343	-0,058
233,669	90,956	-0,282	-0,219
234,684	63,104	-0,225	-0,156
235,699	9,725	-0,199	-0,104
236,713	80,597	-0,171	-0,127
237,728	117,591	-0,167	-0,142
238,742	21,896	-0,155	-0,087
239,757	70,278	-0,227	-0,162
240,772	-13,827	-0,256	-0,114
241,786	276,169	-0,138	-0,171
242,801	221,072	-0,111	-0,124
243,815	6,483	-0,178	-0,091
244,830	137,366	-0,105	-0,095
245,844	367,162	-0,127	-0,178
246,859	-3,637	-0,283	-0,136
247,874	-48,920	-0,221	-0,073
248,888	102,214	-0,159	-0,129
249,903	-60,096	-0,254	-0,075
250,917	226,668	-0,128	-0,145
251,932	-137,269	-0,133	0,010
252,947	-87,998	-0,202	-0,042
253,961	314,296	-0,185	-0,242
254,976	93,232	-0,161	-0,126
255,990	3,118	-0,167	-0,084
257,005	-8,028	-0,260	-0,121
258,020	14,121	-0,193	-0,104
259,034	50,517	-0,219	-0,143
260,049	800,000	-0,079	-0,207
261,063	800,000	-0,088	-0,169
262,078	176,440	-0,219	-0,221
263,093	650,366	-0,108	-0,193
264,107	-147,940	-0,204	-0,012
265,122	38,378	-0,195	-0,120
266,136	-83,586	-0,176	-0,039
267,151	110,676	-0,225	-0,187
268,166	800,000	-0,075	-0,179
269,180	176,741	-0,259	-0,261
270,195	111,578	-0,275	-0,229
271,209	139,872	-0,220	-0,201
272,224	127,494	-0,125	-0,110
273,239	-200,000	-0,079	-0,253
274,253	119,702	-0,144	-0,123
275,268	800,000	-0,102	-0,259
276,282	583,047	-0,127	-0,216
277,297	12,528	-0,298	-0,158
278,312	14,026	-0,153	-0,082
279,326	-109,387	-0,157	-0,023
280,341	-18,147	-0,165	0,071
281,355	-120,812	-0,118	-0,014
282,370	213,929	-0,139	-0,152
283,384	141,714	-0,135	-0,124
284,399	80,492	-0,258	-0,191
285,414	-127,042	-0,174	-0,017
286,428	-27,199	-0,226	-0,091
287,443	71,128	-0,125	0,089
288,457	-3,191	-0,174	-0,083
289,472	146,356	-0,084	-0,078
290,487	800,000	-0,024	-0,068
291,501	-200,000	0,019	-0,117
292,516	800,000	-0,109	-0,231
293,530	88,289	-0,049	-0,037
294,545	-86,068	-0,128	-0,027
295,560	2,273	-0,075	-0,037
296,574	-200,000	0,016	-0,136
297,589	280,198	-0,140	-0,173
298,603	800,000	-0,069	-0,156
299,618	-58,551	-0,240	-0,072
300,633	-56,457	-0,197	-0,060
301,647	-30,288	-0,179	-0,070
302,662	64,097	-0,154	-0,106
303,676	-135,439	-0,113	0,009
304,691	106,744	-0,189	-0,154
305,706	62,632	-0,209	-0,144
306,720	231,633	-0,190	-0,216
307,735	34,443	-0,154	-0,093
308,749	59,222	-0,087	-0,059
309,764	800,000	-0,031	-0,079
310,779	-166,904	-0,194	0,005
311,793	282,545	-0,116	-0,143
312,808	13,796	-0,221	-0,118
313,822	-36,282	-0,261	-0,096
314,837	395,661	-0,195	-0,281
315,852	41,723	-0,185	-0,115
316,866	-49,177	-0,103	-0,034
317,881	-43,304	-0,174	-0,060
318,895	368,424	-0,181	-0,252
319,910	-13,016	-0,118	-0,053
320,925	-200,000	-0,062	-0,196
321,939	531,910	-0,079	-0,129
322,954	258,051	-0,122	-0,145
323,968	-139,608	-0,125	0,009
324,983	68,778	-0,135	-0,095
325,997	800,000	-0,098	-0,191
327,012	-200,000	-0,089	-0,279
328,027	-98,058	-0,164	-0,029
329,041	104,589	-0,115	-0,094
330,056	-21,246	-0,114	0,048
331,070	517,591	-0,085	-0,137
332,085	471,921	-0,050	-0,078
333,100	-99,166	-0,211	0,036
334,114	140,808	-0,266	-0,242
335,129	406,534	-0,129	-0,188
336,143	800,000	0,070	-0,135
337,158	57,920	-0,092	-0,062
338,173	26,061	-0,214	-0,122
339,187	91,860	-0,070	0,054
340,202	216,844	-0,074	-0,081
341,216	51,951	-0,201	-0,131
342,231	-112,607	-0,240	0,032
343,246	-200,000	-0,039	-0,137
344,260	-200,000	-0,029	-0,191
345,275	7,150	-0,091	-0,046
346,289	5,881	-0,116	-0,059
347,304	-200,000	-0,030	-0,157
348,319	9,845	-0,249	-0,130
349,333	403,689	-0,147	-0,214
350,348	9,348	-0,164	-0,085
351,362	-200,000	0,011	-0,075
352,377	-200,000	0,001	-0,065
353,392	126,512	-0,062	-0,054
354,406	314,372	-0,110	-0,142
355,421	208,573	1312,183	1411,136
356,435	160,490	1472,611	1411,634
