DTS Sentinel unit serial number:	SN410029Multiplexer serial number:	ORYXHardware model number:	OX2-SRSoftware version number:	ORYX F/W v4,00 Oryx Data Collector v3.7.2.0data status	okinstallation	B3 Nyhavnadifferential loss correction	single-endedforward channel	channel 1reverse channel	N/Adate	2023/12/04time	09:27:30forward acquisition time	300,00reverse acquisition time	0,00gamma	499,1914k internal	0,3203k external	0,3203temperature offset calibration	1,0000default loss term (dB/km)	0,3820temperature slope calibration	1,0000multiplexer offset coefficient	1,0000multiplexer slope coefficient	1,0000fibre end	0,00T internal ref (°C)	13,16T ext. ref 1 (°C)	-1,21T ext. ref 2 (°C)	-1,24length (m)	temperature (°C)	Stokes	anti-Stokes-744,400	-9,996	-0,291	-0,140
-743,385	-200,000	0,072	0,240
-742,371	329,899	-0,190	-0,266
-741,356	-200,000	-0,038	0,314
-740,342	-20,830	-0,124	-0,055
-739,327	-200,000	0,028	0,336
-738,312	34,068	-0,337	-0,213
-737,298	-200,000	-0,015	0,265
-736,283	195,122	-0,155	-0,171
-735,269	-200,000	0,035	0,215
-734,254	43,019	-0,150	-0,099
-733,239	-75,529	-0,204	0,052
-732,225	-200,000	0,055	-0,279
-731,210	102,874	0,069	0,059
-730,196	-17,534	-0,045	-0,021
-729,181	800,000	0,040	-0,084
-728,167	-26,030	-0,111	-0,047
-727,152	1,580	-0,125	0,065
-726,137	133,673	0,035	0,033
-725,123	-123,221	-0,192	-0,022
-724,108	-200,000	-0,041	-0,170
-723,094	-200,000	-0,053	-0,174
-722,079	-189,216	-0,179	-0,002
-721,064	647,180	-0,051	0,095
-720,050	48,792	-0,006	0,004
-719,035	39,531	-0,102	-0,066
-718,021	69,750	-0,130	-0,097
-717,006	-5,803	-0,058	0,029
-715,991	800,000	-0,030	0,072
-714,977	308,481	-0,093	-0,127
-713,962	-120,710	-0,030	-0,004
-712,948	800,000	0,050	-0,146
-711,933	73,947	-0,085	0,064
-710,918	205,560	-0,018	0,021
-709,904	-2,615	-0,078	-0,040
-708,889	52,016	-0,107	-0,074
-707,875	93,100	-0,108	-0,088
-706,860	-1,488	0,020	-0,010
-705,845	-113,748	0,004	0,001
-704,831	-59,411	0,087	-0,027
-703,816	800,000	-0,079	-0,196
-702,802	800,000	-0,071	-0,145
-701,787	121,698	-0,176	-0,159
-700,772	239,574	-0,066	-0,080
-699,758	338,057	-0,102	-0,144
-698,743	115,131	0,080	-0,071
-697,729	800,000	0,081	0,223
-696,714	800,000	-0,018	-0,040
-695,699	611,731	-0,046	-0,083
-694,685	-200,000	0,021	-0,077
-693,670	83,145	-0,125	-0,099
-692,656	32,185	-0,120	0,075
-691,641	-140,283	-0,101	-0,008
-690,627	-34,078	0,145	-0,057
-689,612	90,375	-0,074	-0,060
-688,597	-200,000	-0,007	-0,085
-687,583	-200,000	-0,018	-0,089
-686,568	-200,000	-0,006	-0,064
-685,554	-52,713	-0,110	0,037
-684,539	-102,561	-0,026	0,004
-683,524	-36,952	-0,090	-0,035
-682,510	-98,868	-0,128	-0,023
-681,495	-79,409	-0,247	0,060
-680,481	-200,000	-0,017	-0,065
-679,466	-200,000	-0,047	-0,171
-678,451	-200,000	0,012	-0,075
-677,437	24,229	0,051	-0,030
-676,422	-96,992	0,054	0,010
-675,408	232,080	-0,074	-0,088
-674,393	393,004	0,035	0,052
-673,378	-74,296	-0,030	-0,008
-672,364	-39,838	-0,058	-0,022
-671,349	593,778	-0,034	-0,061
-670,335	-200,000	-0,027	-0,204
-669,320	-103,671	-0,115	0,019
-668,305	-200,000	0,003	0,021
-667,291	-138,324	-0,125	0,010
-666,276	-130,367	0,016	0,002
-665,262	-65,935	-0,142	0,041
-664,247	-118,237	0,024	-0,003
-663,232	158,405	-0,094	-0,094
-662,218	-46,598	0,032	-0,011
-661,203	-20,620	0,091	-0,040
-660,189	-200,000	-0,003	-0,117
-659,174	-82,168	0,100	0,023
-658,159	-200,000	-0,018	-0,122
-657,145	-27,242	-0,047	0,020
-656,130	-115,207	0,107	-0,015
-655,116	121,514	0,120	0,109
-654,101	350,873	0,037	0,053
-653,086	800,000	-0,042	0,086
-652,072	96,605	0,042	-0,035
-651,057	231,374	0,085	-0,101
-650,043	90,349	0,020	0,016
-649,028	263,328	0,081	-0,102
-648,014	800,000	0,010	-0,032
-646,999	800,000	-0,021	-0,046
-645,984	800,000	-0,062	-0,148
-644,970	-200,000	-0,018	-0,108
-643,955	-14,944	-0,116	-0,054
-642,941	-200,000	-0,009	0,129
-641,926	292,357	-0,021	0,027
-640,911	-38,115	-0,099	-0,038
-639,897	221,686	-0,088	-0,102
-638,882	25,612	0,093	0,056
-637,868	-12,335	-0,100	-0,047
-636,853	18,610	-0,123	-0,071
-635,838	25,479	-0,168	-0,101
-634,824	-80,069	0,139	-0,033
-633,809	27,307	0,058	0,035
-632,795	800,000	-0,046	-0,118
-631,780	-200,000	0,089	-0,000
-630,765	-132,505	0,091	0,008
-629,751	123,087	-0,012	0,011
-628,736	-200,000	-0,032	-0,119
-627,722	-200,000	-0,005	-0,117
-626,707	800,000	0,037	-0,089
-625,692	-115,352	0,083	0,011
-624,678	-111,740	-0,071	-0,010
-623,663	46,252	0,112	0,075
-622,649	-178,395	-0,163	-0,003
-621,634	233,421	-0,086	-0,103
-620,619	800,000	0,024	-0,070
-619,605	751,846	-0,007	0,013
-618,590	-139,223	0,080	-0,006
-617,576	800,000	0,026	0,074
-616,561	-30,301	0,023	0,010
-615,546	800,000	0,059	0,122
-614,532	58,275	-0,058	-0,041
-613,517	-101,660	0,060	0,010
-612,503	45,500	-0,103	-0,069
-611,488	-45,787	0,096	0,034
-610,474	19,474	-0,056	-0,032
-609,459	5,472	0,089	0,047
-608,444	-31,288	0,063	-0,026
-607,430	43,317	-0,142	-0,094
-606,415	-200,000	0,018	-0,100
-605,401	103,537	-0,094	0,080
-604,386	-47,228	0,041	-0,014
-603,371	-67,823	-0,074	-0,021
-602,357	-200,000	-0,024	0,127
-601,342	-152,439	0,019	-0,001
-600,328	490,741	-0,050	-0,082
-599,313	800,000	-0,049	-0,137
-598,298	-43,980	-0,079	-0,028
-597,284	-200,000	0,001	0,012
-596,269	-200,000	-0,001	0,119
-595,255	-200,000	0,064	0,277
-594,240	-200,000	0,001	-0,024
-593,225	168,569	-0,044	-0,046
-592,211	-74,189	-0,133	0,034
-591,196	-200,000	0,001	0,102
-590,182	17,896	-0,002	-0,001
-589,167	-200,000	0,039	0,169
-588,152	175,621	0,066	0,069
-587,138	490,826	0,045	0,075
-586,123	-127,522	0,170	0,018
-585,109	-123,963	-0,067	0,007
-584,094	256,354	0,079	0,098
-583,079	30,057	-0,091	-0,056
-582,065	28,928	-0,018	0,011
-581,050	22,958	-0,103	0,061
-580,036	4,746	0,099	-0,052
-579,021	259,687	-0,076	-0,095
-578,006	27,270	-0,143	-0,086
-576,992	414,202	0,016	0,024
-575,977	-200,000	-0,002	0,042
-574,963	-200,000	0,034	-0,119
-573,948	800,000	-0,017	0,044
-572,934	-200,000	0,001	0,074
-571,919	800,000	0,054	-0,147
-570,904	800,000	0,016	-0,040
-569,890	-128,599	-0,058	0,006
-568,875	-169,729	0,018	0,000
-567,861	133,918	0,031	0,029
-566,846	-200,000	0,003	-0,086
-565,831	-10,847	-0,054	-0,026
-564,817	-57,759	-0,053	0,017
-563,802	358,778	-0,052	-0,075
-562,788	33,581	-0,077	0,048
-561,773	-87,488	0,141	-0,030
-560,758	-200,000	-0,015	0,071
-559,744	139,687	0,065	0,062
-558,729	66,104	0,027	-0,019
-557,715	800,000	-0,037	0,080
-556,700	800,000	-0,047	0,136
-555,685	-132,339	0,115	-0,011
-554,671	-110,206	0,147	0,022
-553,656	41,612	0,127	0,083
-552,642	800,000	0,027	-0,060
-551,627	122,192	0,080	-0,072
-550,612	-200,000	0,003	0,049
-549,598	231,919	-0,063	-0,075
-548,583	-200,000	-0,008	-0,070
-547,569	-200,000	0,000	0,095
-546,554	161,774	0,061	-0,062
-545,539	64,395	0,040	-0,029
-544,525	-86,631	0,099	-0,022
-543,510	132,001	-0,103	-0,095
-542,496	513,748	-0,028	-0,047
-541,481	288,002	-0,082	-0,107
-540,466	290,916	0,107	0,141
-539,452	800,000	-0,031	0,084
-538,437	-143,761	0,090	0,006
-537,423	-119,729	0,069	-0,009
-536,408	-200,000	0,018	-0,079
-535,393	177,366	-0,142	-0,150
-534,379	800,000	-0,008	-0,025
-533,364	108,406	-0,103	-0,089
-532,350	800,000	-0,019	0,057
-531,335	-37,774	0,118	-0,045
-530,321	-84,747	0,055	-0,012
-529,306	89,260	0,106	-0,085
-528,291	-55,050	-0,026	0,008
-527,277	166,790	-0,109	-0,111
-526,262	-160,507	-0,083	0,003
-525,248	-153,117	0,091	-0,005
-524,233	-77,544	0,063	0,016
-523,218	195,001	-0,022	0,024
-522,204	800,000	0,013	0,037
-521,189	-200,000	-0,002	0,076
-520,175	800,000	-0,035	-0,096
-519,160	538,726	-0,031	0,053
-518,145	-49,606	0,117	0,040
-517,131	-71,139	-0,142	0,038
-516,116	-44,782	0,050	-0,018
-515,102	800,000	-0,038	0,081
-514,087	189,180	-0,055	0,059
-513,072	14,421	-0,105	-0,059
-512,058	-121,805	0,060	-0,007
-511,043	293,629	0,061	0,080
-510,029	489,861	0,085	0,141
-509,014	-125,280	-0,128	0,014
-507,999	-200,000	0,018	0,059
-506,985	800,000	0,030	-0,081
-505,970	239,306	-0,064	-0,077
-504,956	-200,000	-0,014	0,165
-503,941	15,078	0,098	0,055
-502,926	800,000	-0,037	0,082
-501,912	-28,108	0,034	0,014
-500,897	532,613	0,020	0,034
-499,883	800,000	0,010	0,025
-498,868	588,591	-0,011	-0,020
-497,853	-200,000	-0,023	-0,175
-496,839	800,000	0,031	0,093
-495,824	800,000	-0,046	0,134
-494,810	800,000	-0,020	0,054
-493,795	-67,237	-0,136	0,038
-492,781	-200,000	0,045	-0,170
-491,766	-78,372	-0,007	0,002
-490,751	237,822	-0,067	-0,081
-489,737	775,608	-0,045	-0,089
-488,722	504,879	0,034	0,057
-487,708	-121,677	0,048	0,006
-486,693	248,773	-0,131	0,160
-485,678	285,867	0,036	0,046
-484,664	197,829	-0,046	-0,051
-483,649	800,000	0,020	-0,057
-482,635	10,657	-0,141	0,077
-481,620	83,675	0,175	-0,137
-480,605	514,125	0,055	0,092
-479,591	-8,066	0,100	-0,048
-478,576	-182,629	-0,134	-0,002
-477,562	-22,278	0,049	-0,021
-476,547	-25,891	0,070	0,029
-475,532	800,000	0,032	-0,094
-474,518	800,000	0,044	-0,134
-473,503	-200,000	0,001	0,058
-472,489	800,000	0,047	0,133
-471,474	-200,000	-0,006	-0,029
-470,459	80,122	-0,084	-0,065
-469,445	475,663	-0,028	-0,045
-468,430	37,598	0,092	-0,059
-467,416	45,028	0,065	0,043
-466,401	-200,000	0,014	-0,098
-465,386	524,533	0,037	0,063
-464,372	-69,459	-0,045	0,012
-463,357	-41,586	-0,084	0,031
-462,343	-26,770	0,020	-0,009
-461,328	-36,765	0,100	0,038
-460,313	800,000	-0,014	-0,031
-459,299	-200,000	0,003	0,036
-458,284	-200,000	0,006	0,067
-457,270	-60,641	-0,062	-0,019
-456,255	-107,415	0,127	-0,020
-455,241	-186,294	-0,072	-0,001
-454,226	-150,757	-0,044	-0,002
-453,211	100,222	-0,025	0,021
-452,197	302,856	-0,026	0,035
-451,182	258,256	-0,037	0,046
-450,168	90,977	-0,054	0,043
-449,153	554,817	-0,087	-0,151
-448,138	-200,000	-0,028	-0,094
-447,124	25,738	-0,037	-0,022
-446,109	-123,032	0,034	0,004
-445,095	-75,016	-0,095	-0,024
-444,080	-112,414	0,136	0,019
-443,065	-40,737	0,060	-0,022
-442,051	117,603	-0,132	0,116
-441,036	21,338	0,085	0,050
-440,022	32,576	-0,092	0,057
-439,007	245,089	-0,121	-0,147
-437,992	-2,696	-0,122	0,061
-436,978	93,593	-0,105	0,085
-435,963	270,064	0,070	0,088
-434,949	240,063	0,010	-0,012
-433,934	262,818	-0,034	-0,043
-432,919	58,322	-0,106	-0,075
-431,905	6,656	-0,125	-0,067
-430,890	419,727	0,046	-0,071
-429,876	311,397	0,054	-0,074
-428,861	800,000	-0,018	-0,043
-427,846	-200,000	0,014	0,089
-426,832	-73,196	-0,021	-0,006
-425,817	572,490	-0,075	-0,132
-424,803	-200,000	-0,011	0,067
-423,788	-49,325	0,228	0,078
-422,773	-200,000	-0,041	0,000
-421,759	56,752	-0,060	-0,042
-420,744	-26,331	-0,163	0,068
-419,730	-44,329	0,089	-0,032
-418,715	-187,165	0,111	-0,001
-417,701	-160,541	-0,143	-0,005
-416,686	333,288	0,028	-0,038
-415,671	-200,000	-0,006	0,058
-414,657	365,267	0,036	0,052
-413,642	363,413	-0,043	0,063
-412,628	80,514	-0,114	0,088
-411,613	21,942	0,076	-0,045
-410,598	800,000	-0,055	-0,163
-409,584	201,250	0,056	-0,062
-408,569	-200,000	0,019	0,116
-407,555	649,271	0,019	0,036
-406,540	-13,813	0,069	0,032
-405,525	-200,000	-0,004	0,029
-404,511	146,689	-0,053	-0,051
-403,496	-9,977	0,066	0,031
-402,482	-200,000	0,056	0,214
-401,467	-29,411	-0,022	-0,009
-400,452	-53,913	0,245	-0,079
-399,438	-40,643	0,076	-0,028
-398,423	-34,196	-0,060	0,024
-397,409	-62,551	-0,075	-0,022
-396,394	97,638	-0,049	0,040
-395,379	-200,000	-0,005	-0,024
-394,365	264,856	0,080	0,100
-393,350	5,197	-0,120	-0,063
-392,336	19,960	-0,102	0,059
-391,321	800,000	-0,033	0,073
-390,306	84,895	-0,113	-0,089
-389,292	-200,000	-0,007	0,028
-388,277	30,807	0,076	0,046
-387,263	-200,000	0,005	-0,046
-386,248	776,747	0,042	-0,082
-385,233	-20,550	-0,142	0,062
-384,219	800,000	-0,060	-0,141
-383,204	-200,000	-0,007	-0,132
-382,190	81,831	-0,134	-0,104
-381,175	74,236	0,096	0,072
-380,160	688,848	0,020	-0,038
-379,146	-131,564	0,170	-0,016
-378,131	-200,000	0,008	0,087
-377,117	800,000	0,025	0,078
-376,102	300,966	-0,031	0,042
-375,088	-93,081	-0,049	-0,010
-374,073	-27,036	0,124	0,052
-373,058	-37,572	-0,047	-0,018
-372,044	201,071	0,077	0,085
-371,029	-45,938	0,066	-0,023
-370,015	-200,000	0,003	0,013
-369,000	-200,000	-0,040	-0,132
-367,985	59,936	-0,070	0,049
-366,971	46,678	-0,077	0,051
-365,956	-31,520	0,185	0,074
-364,942	140,876	0,148	0,140
-363,927	-111,888	-0,092	0,013
-362,912	-110,353	-0,063	0,009
-361,898	89,604	0,031	-0,025
-360,883	-169,031	-0,161	-0,004
-359,869	39,026	0,114	0,073
-358,854	159,321	-0,013	0,013
-357,839	14,708	0,105	0,058
-356,825	800,000	-0,052	-0,113
-355,810	83,022	0,067	0,053
-354,796	705,632	0,027	-0,051
-353,781	-78,339	0,085	-0,021
-352,766	-60,886	-0,053	-0,016
-351,752	-42,866	-0,074	-0,027
-350,737	30,925	-0,011	-0,007
-349,723	20,505	0,100	-0,058
-348,708	-200,000	0,028	-0,092
-347,693	-200,000	0,009	-0,084
-346,679	-200,000	0,001	0,106
-345,664	800,000	-0,023	-0,067
-344,650	-200,000	-0,019	-0,083
-343,635	-82,210	0,088	0,020
-342,620	283,278	-0,088	0,114
-341,606	386,052	0,058	0,086
-340,591	800,000	-0,027	0,064
-339,577	540,668	0,074	-0,127
-338,562	-124,050	-0,084	-0,009
-337,548	800,000	0,021	-0,045
-336,533	-200,000	0,029	-0,114
-335,518	-31,233	-0,141	0,057
-334,504	-160,409	0,132	0,005
-333,489	-200,000	0,009	-0,030
-332,475	-200,000	-0,005	-0,120
-331,460	388,663	-0,034	0,051
-330,445	-166,879	0,098	0,003
-329,431	308,925	0,032	-0,042
-328,416	144,601	0,094	0,090
-327,402	-200,000	-0,003	0,012
-326,387	-200,000	0,032	0,102
-325,372	8,491	-0,108	0,058
-324,358	800,000	-0,050	-0,116
-323,343	220,385	-0,070	-0,081
-322,329	-200,000	0,007	0,036
-321,314	-22,372	0,048	0,021
-320,299	-92,023	0,035	-0,007
-319,285	-111,258	0,062	0,009
-318,270	31,291	-0,069	-0,042
-317,256	-139,578	0,061	0,005
-316,241	-10,394	-0,061	0,029
-315,226	-33,966	0,062	0,024
-314,212	-200,000	0,009	0,033
-313,197	-200,000	0,009	0,122
-312,183	-200,000	0,000	0,033
-311,168	800,000	-0,057	-0,121
-310,153	-144,196	0,015	0,001
-309,139	585,902	0,077	-0,136
-308,124	307,343	0,025	0,033
-307,110	184,337	-0,054	0,058
-306,095	505,324	0,106	0,176
-305,080	-200,000	0,006	0,051
-304,066	800,000	0,019	-0,055
-303,051	178,504	0,066	-0,068
-302,037	-200,000	-0,000	-0,059
-301,022	15,072	0,124	0,069
-300,008	-99,344	-0,052	0,009
-298,993	-138,874	-0,062	-0,005
-297,978	-168,183	0,124	0,003
-296,964	800,000	-0,046	-0,091
-295,949	269,115	-0,045	-0,056
-294,935	231,256	-0,067	0,079
-293,920	238,991	0,048	0,057
-292,905	800,000	0,047	0,108
-291,891	-15,094	0,082	-0,038
-290,876	-200,000	0,004	0,055
-289,862	-51,673	-0,075	-0,025
-288,847	150,846	-0,134	-0,130
-287,832	-200,000	0,024	0,082
-286,818	-120,223	0,048	0,006
-285,803	-133,022	0,082	0,007
-284,789	800,000	0,012	0,028
-283,774	405,775	0,074	-0,113
-282,759	800,000	0,055	-0,121
-281,745	72,058	-0,063	0,047
-280,730	-49,283	-0,186	-0,063
-279,716	-70,999	0,053	0,014
-278,701	-200,000	0,002	0,140
-277,686	-200,000	0,017	0,110
-276,672	800,000	0,008	-0,023
-275,657	276,052	0,039	0,050
-274,643	-200,000	0,023	-0,157
-273,628	-200,000	0,041	-0,178
-272,613	-200,000	0,022	-0,161
-271,599	-0,283	0,168	0,085
-270,584	-200,000	-0,005	0,087
-269,570	33,789	0,035	-0,022
-268,555	-55,729	0,108	-0,034
-267,540	172,745	0,067	0,069
-266,526	-41,167	-0,130	0,047
-265,511	-200,000	-0,011	0,121
-264,497	-200,000	0,016	0,135
-263,482	-200,000	-0,006	0,045
-262,467	616,816	0,015	-0,027
-261,453	32,326	0,121	0,074
-260,438	-141,207	-0,076	0,005
-259,424	800,000	0,022	-0,056
-258,409	-3,481	-0,027	-0,013
-257,395	683,041	-0,016	-0,031
-256,380	800,000	-0,033	0,093
-255,365	-48,322	0,030	-0,010
-254,351	-153,009	-0,061	-0,003
-253,336	144,022	0,055	-0,052
-252,322	-111,787	-0,118	-0,017
-251,307	-133,581	0,123	-0,011
-250,292	-105,096	0,132	0,021
-249,278	-117,475	-0,024	0,003
-248,263	153,627	0,047	-0,046
-247,249	800,000	-0,024	0,058
-246,234	145,941	0,042	-0,040
-245,219	-200,000	0,007	-0,042
-244,205	-200,000	0,028	-0,123
-243,190	7,024	0,144	0,076
-242,176	426,138	0,051	0,079
-241,161	101,554	0,061	0,051
-240,146	-63,452	-0,164	0,048
-239,132	157,905	-0,080	-0,079
-238,117	178,230	-0,012	-0,012
-237,103	125,492	0,032	-0,029
-236,088	800,000	-0,031	0,071
-235,073	-200,000	-0,001	0,019
-234,059	-200,000	0,002	0,115
-233,044	515,658	0,010	-0,017
-232,030	-200,000	0,001	0,027
-231,015	-68,197	-0,161	-0,044
-230,000	-94,303	-0,060	-0,012
-228,986	108,314	-0,011	0,009
-227,971	10,324	0,034	-0,019
-226,957	800,000	0,058	-0,123
-225,942	-35,359	-0,102	-0,039
-224,927	236,316	-0,122	0,145
-223,913	-200,000	0,004	0,012
-222,898	-125,116	-0,103	-0,011
-221,884	-140,991	-0,121	-0,009
-220,869	-27,816	-0,048	0,020
-219,855	278,516	0,048	-0,061
-218,840	-200,000	-0,023	0,184
-217,825	-200,000	-0,008	-0,033
-216,811	-21,562	0,076	0,033
-215,796	-30,003	-0,066	0,027
-214,782	-51,520	-0,171	0,056
-213,767	458,122	0,009	-0,015
-212,752	-200,000	0,007	0,115
-211,738	273,957	0,089	0,113
-210,723	-200,000	-0,010	0,118
-209,709	-8,463	0,126	0,060
-208,694	-130,087	-0,155	-0,015
-207,679	660,596	-0,058	-0,106
-206,665	-200,000	0,005	0,055
-205,650	-200,000	0,009	0,076
-204,636	-115,007	0,042	0,006
-203,621	-151,374	0,145	-0,008
-202,606	-73,754	-0,169	0,043
-201,592	-44,224	-0,048	-0,017
-200,577	-200,000	0,010	-0,185
-199,563	800,000	0,032	-0,098
-198,548	-65,574	0,168	-0,048
-197,533	800,000	0,046	0,107
-196,519	122,785	-0,049	0,043
-195,504	800,000	0,019	0,054
-194,490	88,235	-0,091	0,072
-193,475	-124,982	-0,118	-0,013
-192,460	-167,812	0,023	-0,001
-191,446	-84,701	0,077	-0,017
-190,431	-122,681	0,042	0,005
-189,417	164,307	-0,049	-0,050
-188,402	517,822	0,070	0,116
-187,387	-82,256	-0,114	0,026
-186,373	800,000	0,042	-0,091
-185,358	600,507	0,029	0,051
-184,344	65,993	0,125	-0,090
-183,329	-200,000	0,030	-0,099
-182,315	-176,459	0,103	0,002
-181,300	241,193	-0,082	-0,097
-180,285	585,179	-0,044	-0,077
-179,271	599,331	-0,050	0,089
-178,256	-44,877	0,054	0,019
-177,242	69,157	0,045	0,033
-176,227	85,452	-0,042	-0,033
-175,212	-68,632	0,083	0,023
-174,198	303,618	0,047	-0,062
-173,183	-125,881	0,099	0,011
-172,169	-200,000	-0,040	-0,128
-171,154	800,000	0,032	-0,063
-170,139	800,000	0,078	0,194
-169,125	626,146	-0,030	0,053
-168,110	-132,815	0,032	-0,003
-167,096	-68,176	0,031	0,008
-166,081	91,169	0,034	-0,027
-165,066	-59,339	-0,086	0,026
-164,052	-80,626	-0,118	0,028
-163,037	-163,152	-0,113	0,004
-162,023	-200,000	0,023	-0,082
-161,008	-80,513	-0,094	-0,022
-159,993	38,951	-0,081	0,052
-158,979	-200,000	-0,018	-0,145
-157,964	-131,559	-0,081	0,007
-156,950	-200,000	0,003	-0,135
-155,935	800,000	0,044	0,089
-154,920	-200,000	0,012	0,041
-153,906	-120,505	0,133	0,016
-152,891	266,909	0,022	-0,028
-151,877	-200,000	-0,008	-0,134
-150,862	-103,628	-0,096	0,016
-149,847	328,635	-0,049	-0,066
-148,833	65,273	0,046	0,033
-147,818	-18,728	0,016	-0,007
-146,804	800,000	-0,022	0,053
-145,789	-83,318	0,066	0,015
-144,775	29,612	-0,126	0,076
-143,760	-200,000	-0,012	-0,092
-142,745	800,000	-0,072	-0,141
-141,731	729,917	0,008	-0,016
-140,716	31,015	0,043	-0,026
-139,702	-94,335	0,108	0,021
-138,687	-27,900	-0,102	0,042
-137,672	451,507	-0,044	-0,069
-136,658	175,112	0,052	-0,054
-135,643	-41,827	-0,065	0,023
-134,629	-149,890	-0,047	-0,003
-133,614	-70,041	-0,137	0,037
-132,599	-200,000	-0,001	-0,016
-131,585	800,000	-0,066	0,142
-130,570	800,000	0,024	-0,050
-129,556	-200,000	-0,026	-0,124
-128,541	2,343	-0,061	-0,031
-127,526	-200,000	-0,022	-0,087
-126,512	523,537	0,024	0,040
-125,497	10,340	-0,050	-0,027
-124,483	-81,706	-0,063	-0,014
-123,468	-100,602	0,099	-0,017
-122,453	-76,092	-0,172	-0,043
-121,439	-103,543	-0,132	0,022
-120,424	-200,000	0,003	-0,072
-119,410	232,441	-0,087	-0,102
-118,395	763,619	0,077	0,149
-117,380	264,053	-0,143	0,176
-116,366	243,466	-0,040	-0,048
-115,351	-200,000	-0,020	0,118
-114,337	59,788	-0,091	-0,063
-113,322	800,000	0,009	-0,025
-112,307	800,000	-0,069	0,152
-111,293	538,590	0,040	0,067
-110,278	-200,000	-0,012	-0,048
-109,264	-183,844	0,084	0,001
-108,249	546,692	-0,044	0,075
-107,234	29,766	0,124	0,075
-106,220	8,568	-0,108	-0,057
-105,205	-113,539	0,119	0,016
-104,191	-157,238	-0,054	0,002
-103,176	20,715	0,094	0,054
-102,162	-200,000	0,031	0,111
-101,147	-33,009	-0,105	-0,041
-100,132	257,806	-0,033	0,040
-99,118	-200,000	0,001	0,049
-98,103	-54,211	-0,045	0,014
-97,089	-200,000	0,002	0,034
-96,074	-200,000	-0,007	0,092
-95,059	800,000	0,041	0,096
-94,045	-200,000	0,015	-0,089
-93,030	-200,000	-0,000	-0,038
-92,016	249,306	-0,072	-0,087
-91,001	601,965	0,079	0,139
-89,986	257,578	0,026	0,032
-88,972	-154,578	0,200	-0,009
-87,957	33,572	0,025	-0,015
-86,943	28,379	-0,017	-0,010
-85,928	-200,000	0,028	-0,116
-84,913	735,557	-0,039	0,075
-83,899	-59,593	0,097	0,029
-82,884	-75,427	0,123	-0,031
-81,870	-119,859	-0,064	0,008
-80,855	-200,000	0,023	0,087
-79,840	-14,456	-0,094	0,043
-78,826	83,616	-0,153	-0,118
-77,811	-200,000	-0,010	0,081
-76,797	-6,218	0,103	-0,050
-75,782	519,655	0,015	-0,025
-74,767	-40,613	0,085	0,031
-73,753	-200,000	-0,002	0,015
-72,738	113,917	0,039	-0,033
-71,724	-200,000	0,030	-0,114
-70,709	20,988	-0,076	-0,044
-69,694	800,000	0,011	-0,024
-68,680	-200,000	0,003	0,114
-67,665	-200,000	0,028	0,111
-66,651	379,406	-0,006	-0,008
-65,636	-120,668	0,115	0,014
-64,622	-34,556	-0,055	-0,021
-63,607	99,857	0,077	-0,063
-62,592	-89,232	-0,070	-0,015
-61,578	-200,000	0,026	-0,113
-60,563	-200,000	-0,011	0,075
-59,549	-200,000	0,005	0,099
-58,534	-41,320	-1,719	-0,623
-57,519	437,551	-1,282	-1,984
-56,505	-200,000	-0,714	-4,665
-55,490	343,844	0,906	1,260
-54,476	800,000	4,783	11,112
-53,461	-200,000	19,406	320,872
-52,446	-200,000	741,705	2333,672
-51,432	572,355	1655,706	2865,704
-50,417	78,002	1670,830	1259,472
-49,403	21,121	1543,978	884,181
-48,388	15,041	1466,373	810,190
-47,373	17,937	1456,572	818,728
-46,359	16,555	1446,449	806,381
-45,344	13,249	1441,916	787,994
-44,330	13,170	1439,939	786,505
-43,315	13,212	1438,254	785,752
-42,300	13,222	1436,479	784,799
-41,286	13,207	1435,409	784,113
-40,271	13,217	1433,864	783,286
-39,257	13,183	1432,658	782,434
-38,242	13,279	1431,148	782,034
-37,227	13,225	1430,074	781,159
-36,213	13,256	1428,750	780,550
-35,198	13,257	1427,738	779,975
-34,184	13,318	1426,535	779,576
-33,169	13,217	1425,463	778,479
-32,154	13,267	1424,369	778,089
-31,140	13,250	1423,028	777,243
-30,125	13,318	1421,890	776,914
-29,111	13,287	1420,917	776,204
-28,096	13,278	1419,694	775,463
-27,082	13,202	1418,714	774,536
-26,067	13,179	1417,574	773,778
-25,052	13,172	1416,319	773,028
-24,038	13,205	1415,171	772,524
-23,023	13,161	1414,356	771,844
-22,009	13,117	1413,523	771,154
-20,994	13,164	1412,452	770,757
-19,979	13,150	1411,736	770,270
-18,965	13,115	1410,812	769,572
-17,950	13,109	1409,860	768,995
-16,936	13,118	1408,817	768,438
-15,921	13,113	1407,660	767,749
-14,906	13,102	1406,926	767,271
-13,892	13,117	1406,002	766,805
-12,877	13,118	1404,956	766,209
-11,863	13,114	1404,286	765,792
-10,848	13,103	1403,187	765,114
-9,833	13,056	1402,543	764,514
-8,819	13,036	1401,595	763,870
-7,804	13,032	1400,847	763,417
-6,790	13,043	1399,521	762,713
-5,775	13,003	1398,597	761,992
-4,760	13,028	1397,425	761,442
-3,746	13,015	1396,521	760,860
-2,731	13,001	1396,021	760,489
-1,717	12,964	1395,052	759,760
-0,702	12,959	1393,148	758,670
0,313	16,902	1309,529	731,357
1,327	33,334	702,754	430,378
2,342	51,943	122,993	82,676
3,356	4,633	16,447	8,511
4,371	2,400	3,195	1,629
5,386	-3,892	0,582	0,285
6,400	-200,000	0,071	0,253
7,415	144,470	-0,292	-0,276
8,429	-47,972	-0,289	-0,098
9,444	21,102	-0,326	-0,186
10,459	19,443	-0,244	-0,138
11,473	197,296	-0,137	-0,147
12,488	0,657	-0,231	-0,116
13,502	164,499	-0,245	-0,244
14,517	320,824	-0,284	-0,382
15,531	27,875	-0,405	-0,240
16,546	3,305	-0,418	-0,214
17,561	29,541	-0,411	-0,246
18,575	-135,778	-0,149	-0,012
19,590	123,474	-0,322	-0,285
20,604	-28,717	-0,216	-0,087
21,619	65,436	-0,411	-0,293
22,634	131,913	-0,455	-0,413
23,648	72,807	-0,407	-0,300
24,663	109,478	-0,342	-0,289
25,677	117,511	-0,356	-0,309
26,692	-83,851	-0,366	-0,082
27,707	162,980	-0,362	-0,359
28,721	-50,138	-0,459	-0,152
29,736	446,554	-0,254	-0,395
30,750	277,509	-0,324	-0,407
31,765	22,318	-0,360	-0,207
32,780	13,478	-0,289	-0,158
33,794	43,759	-0,321	-0,207
34,809	27,221	-0,336	-0,198
35,823	10,714	-0,315	-0,169
36,838	-0,487	-0,472	-0,235
37,853	74,438	-0,413	-0,306
38,867	74,643	-0,380	-0,281
39,882	100,533	-0,349	-0,285
40,896	69,787	-0,313	-0,227
41,911	153,034	-0,332	-0,320
42,926	89,503	-0,479	-0,376
43,940	2,986	-0,434	-0,222
44,955	46,753	-0,416	-0,272
45,969	247,451	-0,300	-0,357
46,984	38,774	-0,453	-0,284
47,999	38,464	-0,315	-0,197
49,013	-52,975	-0,343	-0,111
50,028	50,292	-0,255	-0,169
51,042	220,973	-0,243	-0,276
52,057	314,114	-0,267	-0,355
53,071	287,697	-0,236	-0,301
54,086	242,779	-0,269	-0,318
55,101	4,264	-0,282	-0,145
56,115	-20,043	-0,302	-0,130
57,130	-3,240	-0,439	-0,214
58,144	38,877	-0,465	-0,292
59,159	251,666	-0,312	-0,375
60,174	-32,240	-0,456	-0,178
61,188	175,115	-0,413	-0,421
62,203	177,490	-0,212	-0,218
63,217	84,252	-0,345	-0,265
64,232	-37,081	-0,377	-0,141
65,247	81,357	-0,348	-0,265
66,261	461,378	-0,192	-0,303
67,276	39,551	-0,415	-0,261
68,290	223,425	-0,240	-0,272
69,305	220,268	-0,265	-0,299
70,320	28,437	-0,334	-0,198
71,334	-55,858	-0,221	-0,069
72,349	35,771	-0,418	-0,258
73,363	29,874	-0,392	-0,234
74,378	14,110	-0,417	-0,228
75,393	273,296	-0,355	-0,441
76,407	22,910	-0,412	-0,236
77,422	24,227	-0,297	-0,172
78,436	258,299	-0,248	-0,301
79,451	204,845	-0,277	-0,302
80,466	-7,747	-0,377	-0,178
81,480	-44,763	-0,350	-0,122
82,495	-10,330	-0,407	-0,189
83,509	199,979	-0,281	-0,303
84,524	228,471	-0,160	-0,183
85,539	-72,506	-0,294	-0,076
86,553	-6,313	-0,274	-0,131
87,568	-9,505	-0,392	-0,183
88,582	69,391	-0,210	-0,151
89,597	56,207	-0,266	-0,181
90,611	25,532	-0,217	-0,126
91,626	-41,443	-0,295	-0,106
92,641	121,919	-0,290	-0,254
93,655	-73,631	-0,304	-0,077
94,670	104,451	-0,459	-0,379
95,684	100,728	-0,381	-0,311
96,699	42,229	-0,246	-0,156
97,714	-4,263	-0,343	-0,166
98,728	-13,317	-0,238	-0,108
99,743	-29,482	-0,281	-0,112
100,757	54,547	-0,285	-0,192
101,772	152,839	-0,315	-0,302
102,787	66,100	-0,277	-0,196
103,801	391,892	-0,159	-0,233
104,816	567,353	-0,207	-0,354
105,830	-10,538	-0,313	-0,145
106,845	1,271	-0,263	-0,132
107,860	-55,660	-0,244	-0,076
108,874	261,782	-0,240	-0,292
109,889	24,069	-0,365	-0,210
110,903	233,504	-0,252	-0,291
111,918	16,038	-0,361	-0,199
112,933	79,539	-0,223	-0,168
113,947	-77,250	-0,258	-0,062
114,962	43,663	-0,234	-0,150
115,976	-12,225	-0,278	-0,127
116,991	88,544	-0,273	-0,212
118,006	-54,045	-0,225	-0,071
119,020	39,275	-0,257	-0,161
120,035	43,722	-0,288	-0,184
121,049	73,561	-0,138	-0,101
122,064	-27,630	-0,235	-0,095
123,079	184,336	-0,253	-0,262
124,093	168,566	-0,232	-0,231
125,108	13,200	-0,467	-0,252
126,122	164,006	-0,215	-0,212
127,137	800,000	-0,081	-0,191
128,151	11,854	-0,289	-0,155
129,166	-2,595	-0,260	-0,127
130,181	800,000	-0,048	-0,108
131,195	202,236	-0,241	-0,261
132,210	360,335	-0,236	-0,332
133,224	519,702	-0,215	-0,354
134,239	73,076	-0,288	-0,210
135,254	121,516	-0,162	-0,141
136,268	142,821	-0,159	-0,147
137,283	484,391	-0,157	-0,251
138,297	65,309	-0,267	-0,188
139,312	76,723	-0,345	-0,255
140,327	49,990	-0,255	-0,168
141,341	16,725	-0,298	-0,164
142,356	-154,217	-0,198	0,009
143,370	408,088	-0,163	-0,241
144,385	5,397	-0,331	-0,170
145,400	236,520	-0,230	-0,267
146,414	328,035	-0,183	-0,246
147,429	134,399	-0,318	-0,288
148,443	85,579	-0,222	-0,170
149,458	21,128	-0,265	-0,150
150,473	80,385	-0,269	-0,202
151,487	195,597	-0,190	-0,202
152,502	50,218	-0,246	-0,162
153,516	-158,365	-0,256	0,010
154,531	250,706	-0,141	-0,167
155,546	-19,626	-0,270	-0,116
156,560	24,831	-0,231	-0,133
157,575	95,394	-0,235	-0,187
158,589	158,736	-0,215	-0,208
159,604	105,225	-0,128	-0,105
160,619	189,102	-0,219	-0,229
161,633	105,585	-0,196	-0,162
162,648	85,119	-0,297	-0,227
163,662	237,872	-0,206	-0,238
164,677	111,138	-0,222	-0,186
165,692	-27,643	-0,148	-0,060
166,706	-8,014	-0,416	-0,195
167,721	74,299	-0,204	-0,149
168,735	96,202	-0,277	-0,220
169,750	12,210	-0,283	-0,151
170,764	584,064	-0,123	-0,212
171,779	160,488	-0,177	-0,172
172,794	426,550	-0,046	-0,070
173,808	141,622	-0,142	-0,131
174,823	-154,985	-0,293	-0,013
175,837	-4,075	-0,335	-0,161
176,852	93,416	-0,233	-0,184
177,867	94,842	-0,110	-0,087
178,881	-0,672	-0,255	-0,125
179,896	-107,275	-0,187	0,028
180,910	62,686	-0,351	-0,244
181,925	200,464	-0,180	-0,193
182,940	-200,000	-0,067	-0,213
183,954	65,120	-0,319	-0,224
184,969	-0,298	-0,326	-0,161
185,983	76,242	-0,209	-0,154
186,998	9,770	-0,167	-0,088
188,013	218,025	-0,201	-0,224
189,027	-66,075	-0,371	-0,102
190,042	91,124	-0,201	-0,156
191,056	304,292	-0,194	-0,250
192,071	800,000	-0,108	-0,219
193,086	281,460	-0,137	-0,171
194,100	139,534	-0,119	-0,109
195,115	-44,301	-0,185	-0,064
196,129	21,952	-0,140	-0,079
197,144	-2,167	-0,314	-0,153
198,159	144,579	-0,161	-0,149
199,173	-126,634	-0,187	-0,019
200,188	425,936	-0,112	-0,168
201,202	800,000	-0,071	-0,213
202,217	169,798	-0,238	-0,236
203,232	208,237	-0,085	-0,092
204,246	18,947	-0,204	-0,113
205,261	120,339	-0,207	-0,178
206,275	212,433	-0,181	-0,198
207,290	77,574	-0,166	-0,123
208,304	451,142	-0,093	-0,143
209,319	-54,436	-0,096	-0,030
210,334	239,662	-0,109	-0,126
211,348	245,017	-0,124	-0,145
212,363	66,095	-0,407	-0,287
213,377	800,000	-0,082	-0,242
214,392	306,595	-0,114	-0,147
215,407	567,911	-0,115	-0,195
216,421	61,471	-0,073	-0,050
217,436	24,001	-0,190	-0,109
218,450	72,592	-0,163	-0,118
219,465	201,527	-0,167	-0,178
220,480	32,394	-0,161	-0,097
221,494	307,751	-0,088	-0,114
222,509	-176,772	-0,202	0,003
223,523	-39,817	-0,223	-0,080
224,538	-59,053	-0,229	-0,068
225,553	-7,397	-0,252	-0,118
226,567	455,986	-0,116	-0,180
227,582	773,490	-0,138	-0,263
228,596	92,182	-0,069	-0,054
229,611	132,715	-0,090	-0,081
230,626	97,485	-0,147	-0,117
231,640	-93,061	-0,285	-0,055
232,655	27,494	-0,245	-0,143
233,669	46,336	-0,241	-0,155
234,684	599,823	-0,164	-0,283
235,699	-200,000	-0,023	-0,236
236,713	475,456	-0,099	-0,155
237,728	-176,792	-0,258	0,004
238,742	65,322	-0,192	-0,134
239,757	56,072	-0,200	-0,134
240,772	-200,000	-0,114	-0,396
241,786	270,864	-0,168	-0,205
242,801	243,623	-0,201	-0,233
243,815	69,979	-0,260	-0,186
244,830	44,452	-0,149	-0,095
245,844	-150,409	-0,206	-0,011
246,859	-54,811	-0,193	-0,060
247,874	111,036	-0,125	-0,104
248,888	427,183	-0,085	-0,127
249,903	135,487	-0,056	-0,051
250,917	302,359	-0,091	-0,117
251,932	-49,301	-0,187	-0,061
252,947	371,551	-0,062	-0,087
253,961	200,172	-0,152	-0,162
254,976	800,000	-0,106	-0,208
255,990	79,337	-0,147	-0,109
257,005	145,568	-0,162	-0,151
258,020	122,508	-0,175	-0,151
259,034	-84,153	-0,236	-0,051
260,049	97,696	-0,195	0,155
261,063	178,101	-0,216	-0,218
262,078	800,000	-0,139	-0,415
263,093	-122,633	-0,171	-0,019
264,107	150,965	-0,183	-0,172
265,122	192,903	-0,158	-0,165
266,136	-200,000	-0,014	-0,098
267,151	-97,417	-0,192	0,034
268,166	-126,578	-0,317	0,032
269,180	106,717	-0,149	-0,122
270,195	800,000	-0,117	-0,272
271,209	250,981	-0,118	-0,139
272,224	-156,056	-0,091	0,004
273,239	-38,881	-0,146	-0,053
274,253	519,137	-0,134	-0,217
275,268	276,483	-0,177	-0,218
276,282	-2,692	-0,281	-0,135
277,297	282,482	-0,173	-0,215
278,312	-58,995	-0,091	-0,027
279,326	95,473	-0,160	-0,126
280,341	337,725	-0,102	-0,137
281,355	134,137	-0,210	-0,188
282,370	722,494	-0,113	-0,208
283,384	337,283	-0,099	-0,133
284,399	162,607	-0,196	-0,190
285,414	85,681	-0,281	-0,213
286,428	-200,000	-0,027	-0,090
287,443	-200,000	-0,040	-0,299
288,457	6,730	-0,068	0,035
289,472	339,548	-0,018	-0,024
290,487	711,159	-0,122	-0,223
291,501	166,909	-0,163	-0,160
292,516	56,073	-0,256	-0,171
293,530	748,492	-0,093	-0,173
294,545	-200,000	0,013	-0,118
295,560	-12,022	-0,182	-0,082
296,574	-199,704	-0,226	0,001
297,589	-200,000	0,037	-0,247
298,603	15,467	-0,273	-0,147
299,618	800,000	-0,113	-0,235
300,633	114,198	-0,135	-0,113
301,647	494,316	-0,109	-0,173
302,662	-118,250	-0,124	0,015
303,676	-131,072	-0,115	-0,010
304,691	-45,797	-0,093	0,031
305,706	173,208	-0,153	-0,152
306,720	9,899	-0,167	-0,087
307,735	595,866	-0,078	-0,133
308,749	-153,569	-0,113	-0,005
309,764	800,000	-0,015	-0,044
310,779	326,960	-0,081	-0,106
311,793	800,000	-0,102	-0,212
312,808	-57,750	-0,243	-0,073
313,822	-200,000	-0,049	-0,201
314,837	-200,000	-0,012	-0,117
315,852	120,607	-0,102	-0,087
316,866	198,573	-0,094	-0,099
317,881	-200,000	-0,040	-0,243
318,895	800,000	-0,085	-0,192
319,910	509,714	-0,081	-0,131
320,925	236,816	-0,109	-0,124
321,939	340,155	-0,141	-0,189
322,954	-110,259	-0,235	-0,033
323,968	-3,984	-0,115	-0,055
324,983	26,122	-0,183	-0,105
325,997	101,409	-0,201	-0,160
327,012	-94,589	-0,262	-0,048
328,027	26,415	-0,105	-0,060
329,041	-200,000	-0,026	-0,216
330,056	-200,000	-0,031	-0,146
331,070	-78,811	-0,245	-0,057
332,085	-61,499	-0,133	0,038
333,100	594,218	-0,039	-0,066
334,114	-57,292	-0,218	-0,066
335,129	-92,957	-0,258	-0,049
336,143	117,578	-0,221	-0,187
337,158	-57,821	-0,172	0,051
338,173	-110,170	-0,232	0,033
339,187	682,357	-0,008	-0,014
340,202	1,297	-0,176	-0,087
341,216	643,890	-0,166	-0,292
342,231	-10,626	-0,158	-0,072
343,246	204,134	-0,109	-0,116
344,260	47,016	-0,053	0,034
345,275	800,000	-0,069	-0,151
346,289	-106,710	-0,163	0,025
347,304	-200,000	0,018	-0,090
348,319	438,895	-0,139	-0,208
349,333	1,907	-0,289	-0,142
350,348	-49,574	-0,119	-0,039
351,362	158,018	-0,075	-0,071
352,377	647,614	-0,056	-0,098
353,392	-167,846	-0,200	-0,005
354,406	800,000	-0,083	-0,202
355,421	209,500	1315,791	1415,451
356,435	161,239	1476,641	1415,926
