DTS Sentinel unit serial number:	SN410029Multiplexer serial number:	ORYXHardware model number:	OX2-SRSoftware version number:	ORYX F/W v4,00 Oryx Data Collector v3.7.2.0data status	okinstallation	B3 Nyhavnadifferential loss correction	single-endedforward channel	channel 1reverse channel	N/Adate	2023/11/29time	14:32:30forward acquisition time	300,00reverse acquisition time	0,00gamma	499,1914k internal	0,3211k external	0,3211temperature offset calibration	1,0000default loss term (dB/km)	0,3820temperature slope calibration	1,0000multiplexer offset coefficient	1,0000multiplexer slope coefficient	1,0000fibre end	0,00T internal ref (°C)	10,93T ext. ref 1 (°C)	-3,25T ext. ref 2 (°C)	-3,36length (m)	temperature (°C)	Stokes	anti-Stokes-744,400	214,064	-0,197	-0,226
-743,385	199,110	-0,112	0,124
-742,371	800,000	-0,075	-0,190
-741,356	-200,000	-0,024	0,229
-740,342	50,656	-0,182	-0,125
-739,327	-200,000	0,032	0,439
-738,312	-200,000	-0,025	-0,266
-737,298	-200,000	-0,020	0,295
-736,283	800,000	-0,129	-0,287
-735,269	800,000	-0,142	0,357
-734,254	800,000	-0,111	-0,228
-733,239	37,604	-0,262	0,168
-732,225	-200,000	0,012	-0,177
-731,210	-200,000	-0,005	0,157
-730,196	506,406	-0,077	-0,129
-729,181	-200,000	0,003	-0,032
-728,167	150,363	-0,052	-0,051
-727,152	317,412	0,067	-0,092
-726,137	189,721	-0,030	-0,033
-725,123	7,831	-0,057	-0,031
-724,108	-69,502	-0,140	-0,039
-723,094	-24,355	-0,143	0,061
-722,079	-98,782	0,055	-0,010
-721,064	39,604	-0,036	0,024
-720,050	265,405	-0,066	-0,083
-719,035	103,842	-0,145	-0,123
-718,021	800,000	-0,018	0,049
-717,006	186,852	-0,084	0,090
-715,991	38,205	-0,127	-0,082
-714,977	-162,819	-0,034	-0,001
-713,962	96,939	-0,127	-0,105
-712,948	800,000	0,016	-0,042
-711,933	-33,108	-0,023	0,009
-710,918	256,783	-0,057	-0,071
-709,904	133,309	-0,146	-0,137
-708,889	39,342	-0,091	-0,059
-707,875	533,058	-0,033	-0,056
-706,860	-73,612	-0,112	-0,029
-705,845	-200,000	0,006	0,023
-704,831	-55,032	-0,027	0,009
-703,816	136,609	-0,108	-0,102
-702,802	-169,077	-0,086	0,002
-701,787	-200,000	0,035	-0,114
-700,772	-82,617	-0,115	-0,027
-699,758	16,209	-0,096	-0,055
-698,743	452,599	-0,035	-0,056
-697,729	-200,000	-0,037	0,133
-696,714	437,972	0,016	-0,025
-695,699	-91,151	-0,114	0,023
-694,685	800,000	0,009	0,023
-693,670	-150,640	-0,042	-0,002
-692,656	38,946	-0,087	0,056
-691,641	-7,935	-0,048	0,023
-690,627	736,047	0,057	0,112
-689,612	-82,503	-0,030	-0,007
-688,597	800,000	-0,058	-0,129
-687,583	-71,667	-0,046	-0,012
-686,568	279,193	-0,064	-0,083
-685,554	-200,000	0,015	-0,212
-684,539	51,393	0,091	-0,062
-683,524	-69,284	-0,041	0,011
-682,510	-68,293	0,039	-0,011
-681,495	-200,000	-0,006	0,021
-680,481	-140,169	-0,104	0,008
-679,466	647,063	0,015	0,028
-678,451	-200,000	-0,022	-0,106
-677,437	-200,000	-0,018	-0,070
-676,422	564,034	-0,045	0,078
-675,408	414,611	-0,027	-0,041
-674,393	-73,509	-0,197	-0,052
-673,378	-200,000	-0,009	-0,062
-672,364	800,000	-0,013	-0,034
-671,349	-200,000	0,033	-0,199
-670,335	49,656	0,087	0,059
-669,320	-181,674	0,093	0,001
-668,305	-200,000	-0,013	0,121
-667,291	285,153	0,024	-0,031
-666,276	-121,158	-0,031	-0,004
-665,262	-63,630	-0,203	-0,060
-664,247	226,787	-0,047	-0,056
-663,232	154,625	-0,008	-0,007
-662,218	-154,337	-0,009	-0,000
-661,203	474,493	0,022	0,036
-660,189	750,836	0,009	-0,018
-659,174	-45,067	-0,012	-0,004
-658,159	-31,853	-0,137	-0,055
-657,145	-200,000	-0,021	-0,097
-656,130	-200,000	0,008	0,046
-655,116	-200,000	-0,007	-0,053
-654,101	-200,000	0,024	-0,096
-653,086	29,663	0,043	0,026
-652,072	-98,082	-0,169	-0,031
-651,057	173,744	-0,073	-0,076
-650,043	800,000	0,019	-0,050
-649,028	32,366	-0,212	-0,132
-648,014	-29,910	-0,054	0,022
-646,999	800,000	0,045	0,115
-645,984	95,270	0,092	0,076
-644,970	15,475	-0,085	-0,048
-643,955	-137,177	-0,079	-0,006
-642,941	-74,777	-0,085	0,022
-641,926	-200,000	-0,028	-0,118
-640,911	800,000	0,002	-0,007
-639,897	125,082	0,106	0,097
-638,882	-200,000	-0,002	0,108
-637,868	-67,937	-0,040	0,011
-636,853	-47,739	-0,088	-0,030
-635,838	630,706	-0,044	-0,081
-634,824	34,965	-0,055	-0,035
-633,809	-200,000	-0,027	0,096
-632,795	800,000	0,061	0,175
-631,780	-140,797	-0,127	0,009
-630,765	-36,722	0,087	-0,033
-629,751	-87,445	-0,026	-0,006
-628,736	-200,000	0,006	-0,024
-627,722	379,991	-0,068	-0,101
-626,707	-129,622	0,034	-0,003
-625,692	-200,000	-0,003	0,151
-624,678	-200,000	0,005	0,016
-623,663	-200,000	0,023	-0,124
-622,649	204,838	-0,059	-0,066
-621,634	-51,027	-0,183	0,062
-620,619	-200,000	-0,034	-0,124
-619,605	800,000	0,022	-0,051
-618,590	-200,000	0,003	0,096
-617,576	-121,659	0,071	0,008
-616,561	-70,618	-0,076	0,020
-615,546	-59,045	0,049	0,015
-614,532	800,000	-0,009	-0,024
-613,517	120,295	-0,091	-0,081
-612,503	282,198	0,037	0,048
-611,488	375,291	0,028	0,041
-610,474	88,508	-0,116	0,093
-609,459	117,619	-0,063	0,056
-608,444	242,996	-0,045	-0,054
-607,430	343,191	-0,026	-0,037
-606,415	227,758	0,062	0,073
-605,401	-200,000	-0,004	0,043
-604,386	800,000	0,061	0,176
-603,371	800,000	0,034	0,083
-602,357	-153,539	0,078	-0,004
-601,342	-138,897	-0,113	-0,009
-600,328	269,970	-0,027	-0,034
-599,313	10,169	-0,026	0,014
-598,298	-200,000	0,001	-0,097
-597,284	800,000	-0,029	0,061
-596,269	-146,544	0,060	-0,004
-595,255	413,224	0,033	0,051
-594,240	-153,686	-0,175	-0,009
-593,225	794,541	-0,044	-0,087
-592,211	800,000	-0,045	-0,142
-591,196	283,466	0,052	-0,067
-590,182	25,233	-0,047	-0,028
-589,167	-200,000	-0,007	0,068
-588,152	98,957	0,093	-0,077
-587,138	85,484	-0,105	-0,083
-586,123	3,975	0,043	-0,023
-585,109	216,169	-0,046	-0,052
-584,094	-200,000	-0,007	-0,241
-583,079	38,664	-0,093	-0,060
-582,065	588,973	-0,064	-0,114
-581,050	-200,000	0,005	-0,023
-580,036	800,000	-0,011	0,030
-579,021	317,792	-0,030	-0,042
-578,006	-200,000	-0,000	0,022
-576,992	800,000	-0,057	-0,126
-575,977	-200,000	-0,026	-0,087
-574,963	749,700	-0,073	0,143
-573,948	800,000	-0,042	0,093
-572,934	783,149	0,040	0,080
-571,919	4,735	-0,109	-0,058
-570,904	-151,896	-0,054	-0,003
-569,890	69,274	-0,049	-0,036
-568,875	-114,179	0,041	-0,006
-567,861	323,211	-0,095	-0,130
-566,846	-153,075	0,050	-0,002
-565,831	7,125	0,044	-0,024
-564,817	-200,000	-0,026	-0,116
-563,802	525,506	-0,064	-0,110
-562,788	413,270	0,030	-0,047
-561,773	-200,000	0,010	0,080
-560,758	800,000	-0,029	0,084
-559,744	-72,668	-0,194	-0,051
-558,729	-16,208	0,079	-0,036
-557,715	-126,064	0,091	0,010
-556,700	800,000	0,021	-0,044
-555,685	800,000	0,037	-0,093
-554,671	-200,000	-0,001	-0,087
-553,656	-71,405	0,107	-0,029
-552,642	225,943	-0,049	0,057
-551,627	-21,438	0,061	0,027
-550,612	227,029	-0,041	-0,048
-549,598	19,804	0,065	0,038
-548,583	-73,547	-0,091	-0,024
-547,569	-167,118	0,101	0,003
-546,554	-200,000	0,003	0,097
-545,539	-11,095	-0,078	0,037
-544,525	800,000	-0,003	-0,010
-543,510	4,005	-0,048	0,025
-542,496	800,000	-0,025	-0,055
-541,481	-183,530	-0,034	0,000
-540,466	-200,000	0,015	-0,074
-539,452	614,360	0,052	-0,094
-538,437	-52,397	-0,176	-0,058
-537,423	11,987	-0,100	-0,055
-536,408	-81,253	-0,136	0,032
-535,393	-17,526	0,081	-0,036
-534,379	-200,000	0,014	-0,109
-533,364	800,000	0,020	0,055
-532,350	-110,392	-0,104	-0,015
-531,335	-200,000	0,020	-0,086
-530,321	23,899	-0,158	-0,093
-529,306	-0,977	-0,111	-0,056
-528,291	-147,336	-0,052	-0,003
-527,277	-200,000	0,013	-0,186
-526,262	593,205	0,087	0,156
-525,248	-59,720	0,158	-0,048
-524,233	245,003	0,071	-0,086
-523,218	-110,440	0,055	0,008
-522,204	-200,000	-0,012	0,085
-521,189	-200,000	-0,015	-0,162
-520,175	-200,000	-0,056	-0,298
-519,160	85,782	-0,050	0,040
-518,145	363,688	0,047	-0,069
-517,131	-200,000	-0,052	0,241
-516,116	-200,000	0,006	-0,051
-515,102	23,313	-0,083	-0,049
-514,087	586,103	-0,013	-0,023
-513,072	41,022	0,069	0,045
-512,058	-200,000	-0,005	0,071
-511,043	0,637	0,115	0,059
-510,029	133,754	0,169	-0,157
-509,014	97,015	-0,018	0,015
-507,999	-200,000	-0,004	0,156
-506,985	-40,783	0,151	0,056
-505,970	196,895	0,069	0,076
-504,956	-51,575	-0,028	-0,009
-503,941	-200,000	-0,010	0,077
-502,926	800,000	0,027	-0,081
-501,912	-157,227	-0,091	0,004
-500,897	-200,000	-0,005	0,030
-499,883	-28,569	0,047	-0,019
-498,868	4,634	-0,220	-0,116
-497,853	-200,000	-0,004	-0,083
-496,839	-154,165	0,043	-0,002
-495,824	-200,000	0,004	0,034
-494,810	287,405	0,031	0,041
-493,795	85,183	0,057	-0,045
-492,781	45,665	0,027	0,018
-491,766	-50,921	-0,114	-0,038
-490,751	424,947	0,061	-0,095
-489,737	-125,148	0,029	-0,003
-488,722	-200,000	0,020	-0,117
-487,708	800,000	-0,044	0,098
-486,693	-50,656	0,105	-0,035
-485,678	-200,000	0,002	0,066
-484,664	-200,000	-0,026	-0,106
-483,649	-28,071	-0,079	-0,033
-482,635	-200,000	0,031	0,115
-481,620	-111,542	0,077	0,011
-480,605	51,445	0,090	-0,061
-479,591	-200,000	0,005	0,026
-478,576	86,723	0,044	0,035
-477,562	340,027	-0,012	-0,017
-476,547	107,089	0,047	-0,040
-475,532	-8,081	0,081	-0,039
-474,518	436,468	0,070	-0,109
-473,503	-4,299	-0,101	0,050
-472,489	-133,586	0,114	-0,010
-471,474	-200,000	0,020	-0,179
-470,459	-93,987	-0,204	-0,040
-469,445	-167,108	0,072	-0,002
-468,430	526,857	0,026	-0,044
-467,416	-91,665	0,009	-0,002
-466,401	20,801	-0,098	0,057
-465,386	450,560	0,025	-0,039
-464,372	-68,599	0,113	-0,031
-463,357	-45,096	-0,114	0,041
-462,343	800,000	-0,024	-0,074
-461,328	-56,335	0,143	-0,045
-460,313	-200,000	0,027	0,277
-459,299	17,650	-0,021	-0,012
-458,284	586,603	-0,026	0,046
-457,270	-200,000	-0,006	-0,022
-456,255	183,857	0,054	-0,057
-455,241	-138,183	0,087	0,007
-454,226	-200,000	0,009	-0,105
-453,211	245,354	0,094	0,113
-452,197	-154,708	0,193	0,009
-451,182	-177,391	0,025	0,000
-450,168	-200,000	0,015	0,065
-449,153	133,366	-0,047	0,044
-448,138	7,693	-0,066	0,035
-447,124	-0,995	-0,031	0,016
-446,109	-200,000	-0,004	0,054
-445,095	-200,000	-0,059	0,278
-444,080	800,000	0,045	0,113
-443,065	-200,000	-0,008	-0,030
-442,051	-200,000	0,002	0,087
-441,036	214,661	-0,020	-0,023
-440,022	128,033	0,053	0,048
-439,007	29,281	0,027	0,016
-437,992	-200,000	0,004	0,036
-436,978	-200,000	-0,028	0,102
-435,963	800,000	-0,031	0,068
-434,949	674,652	0,023	0,044
-433,934	-200,000	0,011	0,116
-432,919	-56,852	-0,092	0,029
-431,905	800,000	-0,016	-0,042
-430,890	-122,136	0,116	0,013
-429,876	-200,000	0,011	-0,043
-428,861	800,000	0,035	-0,071
-427,846	209,518	0,055	0,062
-426,832	-200,000	0,002	-0,065
-425,817	-183,823	-0,194	-0,002
-424,803	16,666	0,140	0,079
-423,788	2,265	-0,053	0,028
-422,773	-200,000	0,031	0,135
-421,759	440,536	0,087	-0,136
-420,744	175,448	-0,037	0,038
-419,730	311,315	-0,080	-0,107
-418,715	-133,574	0,133	-0,012
-417,701	-45,942	0,095	-0,033
-416,686	180,543	0,056	-0,059
-415,671	-53,514	0,082	-0,027
-414,657	68,735	0,099	0,072
-413,642	-47,651	0,079	-0,027
-412,628	85,878	-0,051	0,040
-411,613	-73,754	0,098	0,025
-410,598	324,408	-0,083	-0,113
-409,584	-200,000	-0,011	-0,056
-408,569	-200,000	-0,011	-0,129
-407,555	-200,000	0,027	0,226
-406,540	395,931	-0,040	0,060
-405,525	-45,212	-0,078	-0,028
-404,511	92,224	-0,181	-0,145
-403,496	160,608	-0,082	-0,082
-402,482	-200,000	0,046	-0,148
-401,467	27,139	0,024	-0,014
-400,452	-120,769	0,130	0,016
-399,438	98,447	0,049	0,041
-398,423	32,288	-0,052	-0,032
-397,409	-200,000	0,001	0,021
-396,394	27,388	-0,088	0,053
-395,379	-97,098	-0,070	0,013
-394,365	178,699	0,013	0,014
-393,350	-200,000	-0,015	0,129
-392,336	-82,407	0,055	0,013
-391,321	61,686	-0,169	0,120
-390,306	800,000	0,056	0,134
-389,292	100,435	-0,070	0,058
-388,277	-200,000	0,017	-0,063
-387,263	301,310	0,019	0,025
-386,248	25,528	0,055	-0,033
-385,233	130,209	-0,047	0,043
-384,219	-104,345	0,099	0,016
-383,204	43,686	-0,106	0,069
-382,190	800,000	-0,055	-0,109
-381,175	800,000	-0,047	0,098
-380,160	402,133	0,040	0,060
-379,146	22,698	0,128	0,074
-378,131	405,985	-0,011	0,017
-377,117	47,849	0,039	0,026
-376,102	-128,827	0,103	0,010
-375,088	-200,000	0,004	-0,107
-374,073	-200,000	0,027	-0,085
-373,058	47,450	0,092	0,061
-372,044	800,000	-0,064	0,143
-371,029	84,658	0,053	-0,041
-370,015	-200,000	0,007	0,078
-369,000	-200,000	0,032	-0,228
-367,985	279,047	-0,073	-0,094
-366,971	-79,468	0,095	-0,023
-365,956	5,381	0,025	-0,013
-364,942	-16,524	0,133	0,060
-363,927	-200,000	0,010	0,180
-362,912	101,125	-0,036	0,030
-361,898	571,065	-0,056	0,098
-360,883	76,218	-0,150	0,113
-359,869	-200,000	0,041	-0,160
-358,854	-5,972	0,090	-0,044
-357,839	176,925	-0,019	0,020
-356,825	18,688	-0,112	-0,064
-355,810	-46,671	0,047	-0,016
-354,796	277,355	0,057	0,073
-353,781	4,751	-0,146	-0,076
-352,766	-200,000	-0,040	-0,173
-351,752	-200,000	0,023	-0,081
-350,737	332,965	-0,043	0,059
-349,723	800,000	0,045	0,117
-348,708	-3,980	0,104	0,051
-347,693	409,395	0,051	0,078
-346,679	-145,832	-0,067	0,004
-345,664	-200,000	0,000	-0,058
-344,650	-200,000	0,009	-0,112
-343,635	-138,057	0,103	0,008
-342,620	192,826	-0,071	0,076
-341,606	-200,000	-0,012	-0,106
-340,591	565,065	0,070	0,121
-339,577	-200,000	-0,001	0,073
-338,562	60,224	-0,051	0,036
-337,548	-200,000	0,001	0,046
-336,533	800,000	-0,052	-0,114
-335,518	241,673	0,014	-0,016
-334,504	63,892	0,065	-0,047
-333,489	30,273	0,053	-0,032
-332,475	800,000	-0,008	-0,016
-331,460	-85,537	-0,135	-0,030
-330,445	-200,000	-0,000	0,047
-329,431	-30,851	0,059	-0,024
-328,416	-112,905	0,049	-0,007
-327,402	800,000	0,026	0,064
-326,387	-200,000	0,001	-0,126
-325,372	-200,000	0,013	-0,089
-324,358	356,204	-0,025	-0,035
-323,343	129,054	-0,060	-0,054
-322,329	581,566	0,071	0,125
-321,314	-88,632	0,133	0,028
-320,299	-75,540	-0,097	0,024
-319,285	112,413	-0,045	0,039
-318,270	800,000	-0,079	-0,187
-317,256	-200,000	0,001	-0,065
-316,241	-200,000	-0,006	-0,131
-315,226	-21,215	0,093	0,040
-314,212	95,275	-0,051	-0,041
-313,197	127,816	-0,059	0,053
-312,183	-30,566	-0,248	-0,100
-311,168	-200,000	-0,010	-0,101
-310,153	-23,720	-0,056	-0,024
-309,139	-112,410	-0,092	0,013
-308,124	344,816	0,059	0,082
-307,110	-76,754	0,114	0,028
-306,095	18,862	0,046	0,026
-305,080	296,245	0,031	0,040
-304,066	26,796	0,086	-0,051
-303,051	-65,337	-0,050	0,014
-302,037	-200,000	0,003	0,138
-301,022	-200,000	-0,024	0,118
-300,008	-200,000	-0,011	0,058
-298,993	-122,676	0,173	-0,020
-297,978	489,813	0,044	-0,071
-296,964	-123,730	0,101	0,011
-295,949	338,767	-0,076	-0,106
-294,935	800,000	-0,049	0,138
-293,920	140,572	0,034	0,032
-292,905	-96,540	0,101	0,019
-291,891	800,000	0,061	0,131
-290,876	242,794	0,067	0,080
-289,862	-200,000	-0,051	0,212
-288,847	-200,000	0,004	-0,159
-287,832	800,000	0,055	0,111
-286,818	-154,090	0,052	-0,002
-285,803	100,913	0,033	0,027
-284,789	-200,000	0,012	0,044
-283,774	-93,489	0,071	-0,014
-282,759	502,748	0,050	-0,083
-281,745	12,089	0,031	0,017
-280,730	-121,652	-0,083	-0,010
-279,716	181,854	-0,112	-0,118
-278,701	800,000	-0,065	0,142
-277,686	-174,623	0,159	-0,003
-276,672	227,554	0,136	0,157
-275,657	-174,155	-0,143	0,003
-274,643	-69,345	-0,042	-0,011
-273,628	-200,000	0,005	-0,034
-272,613	37,253	0,187	-0,117
-271,599	5,243	-0,091	0,048
-270,584	-65,405	0,034	-0,010
-269,570	800,000	0,100	0,234
-268,555	1,565	0,081	-0,041
-267,540	800,000	0,035	0,103
-266,526	-200,000	-0,007	-0,039
-265,511	-10,191	0,002	-0,001
-264,497	-105,455	-0,100	-0,016
-263,482	473,748	0,011	0,018
-262,467	409,810	0,061	0,092
-261,453	150,757	0,007	-0,007
-260,438	-76,296	-0,189	-0,047
-259,424	-123,031	-0,054	0,006
-258,409	17,987	-0,071	0,040
-257,395	-200,000	-0,004	0,027
-256,380	-200,000	0,010	0,101
-255,365	333,170	0,037	-0,051
-254,351	2,433	-0,116	-0,059
-253,336	90,731	-0,104	-0,083
-252,322	800,000	-0,014	-0,032
-251,307	147,504	0,047	-0,045
-250,292	-12,932	0,163	0,075
-249,278	800,000	0,004	0,013
-248,263	123,005	0,025	0,022
-247,249	-200,000	-0,006	0,034
-246,234	54,590	0,118	-0,081
-245,219	-156,143	0,086	-0,004
-244,205	211,562	0,023	-0,026
-243,190	-200,000	0,041	-0,195
-242,176	-74,571	0,108	0,027
-241,161	16,082	-0,066	0,037
-240,146	-147,241	-0,047	0,003
-239,132	10,512	0,119	-0,064
-238,117	-200,000	0,013	-0,041
-237,103	237,790	-0,114	-0,135
-236,088	784,046	0,037	-0,071
-235,073	-86,162	0,096	-0,021
-234,059	-157,281	0,084	0,004
-233,044	-77,547	0,037	-0,009
-232,030	-16,620	-0,033	-0,015
-231,015	800,000	-0,041	-0,091
-230,000	365,555	-0,080	-0,115
-228,986	-26,225	0,128	0,053
-227,971	-137,947	-0,104	0,008
-226,957	-200,000	-0,019	0,098
-225,942	-69,575	0,100	0,027
-224,927	-200,000	-0,027	0,089
-223,913	-140,020	-0,176	-0,013
-222,898	800,000	-0,024	-0,062
-221,884	-200,000	0,007	0,028
-220,869	229,344	0,076	-0,088
-219,855	-200,000	0,010	0,052
-218,840	76,987	-0,078	-0,059
-217,825	182,787	0,034	0,036
-216,811	-200,000	0,008	0,167
-215,796	217,750	0,039	-0,044
-214,782	-200,000	-0,018	-0,107
-213,767	-200,000	0,012	0,067
-212,752	-28,796	0,034	0,014
-211,738	-200,000	0,034	0,126
-210,723	329,649	-0,016	0,021
-209,709	-4,094	-0,094	0,046
-208,694	-200,000	-0,016	0,078
-207,679	-200,000	-0,027	-0,214
-206,665	779,949	-0,040	-0,079
-205,650	-200,000	-0,024	0,078
-204,636	365,153	0,081	0,116
-203,621	92,887	0,093	-0,074
-202,606	58,695	0,052	0,036
-201,592	-96,708	0,093	-0,017
-200,577	800,000	-0,063	-0,127
-199,563	-200,000	-0,012	-0,058
-198,548	-12,479	0,098	0,045
-197,533	711,287	0,043	0,081
-196,519	800,000	-0,044	0,130
-195,504	298,045	0,057	-0,075
-194,490	800,000	0,103	0,226
-193,475	10,467	-0,132	-0,071
-192,460	-41,197	0,042	0,015
-191,446	-200,000	0,011	0,043
-190,431	800,000	-0,040	0,110
-189,417	498,917	-0,040	0,066
-188,402	-64,679	-0,144	-0,041
-187,387	-82,623	0,089	-0,020
-186,373	-200,000	0,011	-0,167
-185,358	-200,000	0,004	0,109
-184,344	-200,000	-0,001	0,063
-183,329	800,000	-0,005	0,012
-182,315	177,926	0,036	-0,037
-181,300	-47,674	-0,075	-0,026
-180,285	507,390	-0,034	0,057
-179,271	-136,297	0,061	0,005
-178,256	800,000	0,048	0,104
-177,242	120,562	-0,091	0,080
-176,227	-88,531	0,089	0,019
-175,212	-200,000	0,011	-0,035
-174,198	218,347	-0,087	0,099
-173,183	40,313	-0,072	-0,046
-172,169	-182,898	0,050	0,001
-171,154	-200,000	-0,013	-0,105
-170,139	281,530	0,052	0,066
-169,125	-103,287	0,072	-0,012
-168,110	-0,818	-0,083	0,042
-167,096	471,657	-0,015	0,024
-166,081	800,000	-0,081	0,174
-165,066	-200,000	-0,010	0,069
-164,052	-200,000	-0,012	-0,103
-163,037	-147,693	0,031	-0,002
-162,023	-55,077	-0,036	0,012
-161,008	800,000	0,077	0,172
-159,993	115,684	-0,035	0,030
-158,979	-200,000	-0,023	-0,141
-157,964	568,711	-0,023	-0,040
-156,950	800,000	0,013	-0,030
-155,935	98,773	0,058	-0,047
-154,920	240,494	-0,077	0,091
-153,906	-200,000	-0,016	-0,082
-152,891	-200,000	-0,011	0,077
-151,877	76,554	0,124	0,093
-150,862	-200,000	0,021	-0,094
-149,847	-99,357	0,065	-0,011
-148,833	192,922	-0,049	-0,052
-147,818	-200,000	0,030	-0,094
-146,804	-200,000	0,021	0,082
-145,789	185,660	0,039	0,041
-144,775	-60,891	-0,107	-0,032
-143,760	-200,000	-0,000	-0,198
-142,745	51,534	-0,076	0,051
-141,731	-124,152	-0,055	0,006
-140,716	354,120	0,060	0,084
-139,702	800,000	0,038	0,085
-138,687	-200,000	0,007	0,091
-137,672	-200,000	-0,009	-0,064
-136,658	354,857	0,028	-0,040
-135,643	800,000	0,054	-0,111
-134,629	-200,000	-0,005	-0,140
-133,614	-200,000	-0,001	0,007
-132,599	40,987	0,209	0,133
-131,585	-130,412	0,080	0,008
-130,570	-106,332	0,045	0,007
-129,556	800,000	0,025	0,057
-128,541	736,589	0,034	-0,065
-127,526	-70,766	0,097	-0,026
-126,512	-34,268	0,117	-0,045
-125,497	-125,709	0,156	-0,017
-124,483	37,895	0,063	-0,040
-123,468	-0,035	0,025	-0,013
-122,453	-84,413	-0,104	-0,023
-121,439	-74,900	-0,031	-0,008
-120,424	786,729	0,091	-0,177
-119,410	156,483	-0,119	0,117
-118,395	230,853	-0,088	0,103
-117,380	-200,000	0,046	0,176
-116,366	215,002	-0,046	-0,051
-115,351	-200,000	-0,016	-0,096
-114,337	800,000	0,042	-0,085
-113,322	-200,000	-0,007	-0,116
-112,307	-33,503	0,056	-0,022
-111,293	-200,000	-0,006	-0,050
-110,278	-200,000	0,024	0,138
-109,264	-152,339	0,087	-0,004
-108,249	-149,539	-0,135	0,007
-107,234	-89,844	-0,053	-0,011
-106,220	800,000	-0,050	-0,148
-105,205	272,765	0,157	0,197
-104,191	-200,000	0,049	0,181
-103,176	205,726	-0,095	0,105
-102,162	5,546	0,128	-0,067
-101,147	-61,950	0,108	-0,032
-100,132	51,002	-0,089	0,060
-99,118	-200,000	0,001	-0,039
-98,103	-10,120	-0,122	-0,057
-97,089	608,712	-0,033	0,059
-96,074	-200,000	-0,005	0,243
-95,059	800,000	0,049	0,143
-94,045	-97,257	-0,077	0,014
-93,030	240,323	0,071	0,084
-92,016	395,080	-0,058	-0,086
-91,001	-179,055	0,190	-0,003
-89,986	567,607	0,011	0,019
-88,972	76,171	-0,094	0,070
-87,957	-138,830	0,031	0,002
-86,943	-8,009	-0,067	-0,032
-85,928	670,422	0,050	-0,091
-84,913	-175,289	-0,058	-0,001
-83,899	-35,481	0,125	0,048
-82,884	800,000	-0,053	0,105
-81,870	-200,000	-0,005	-0,023
-80,855	-200,000	-0,000	-0,015
-79,840	251,915	-0,068	0,082
-78,826	11,650	0,079	-0,043
-77,811	-49,693	-0,105	0,035
-76,797	-200,000	-0,000	-0,080
-75,782	-78,121	0,089	-0,021
-74,767	32,335	-0,127	-0,077
-73,753	-200,000	0,131	-0,000
-72,738	492,049	0,030	0,048
-71,724	-200,000	0,002	-0,037
-70,709	-200,000	-0,027	-0,093
-69,694	-4,350	0,149	0,072
-68,680	-200,000	0,020	-0,063
-67,665	-33,805	0,056	0,022
-66,651	-112,060	0,088	0,012
-65,636	-4,247	0,043	0,021
-64,622	800,000	-0,075	-0,155
-63,607	-190,897	-0,135	-0,001
-62,592	-12,271	0,144	-0,066
-61,578	-107,111	-0,071	0,011
-60,563	-200,000	0,046	0,155
-59,549	89,390	-0,101	-0,079
-58,534	30,078	-1,903	-1,143
-57,519	361,711	-1,397	-1,983
-56,505	-200,000	-0,411	-4,443
-55,490	380,401	0,750	1,088
-54,476	800,000	5,082	11,649
-53,461	-200,000	20,958	328,108
-52,446	800,000	756,140	2319,142
-51,432	551,179	1660,797	2824,133
-50,417	73,552	1663,345	1228,064
-49,403	18,771	1536,603	865,846
-48,388	12,756	1459,443	793,273
-47,373	18,920	1449,988	817,687
-46,359	15,871	1439,154	797,044
-45,344	11,085	1434,917	771,889
-44,330	10,976	1433,171	770,400
-43,315	10,952	1431,478	769,341
-42,300	11,018	1429,448	768,535
-41,286	11,006	1428,237	767,798
-40,271	10,933	1427,158	766,840
-39,257	10,964	1425,990	766,331
-38,242	10,974	1424,606	765,600
-37,227	10,989	1423,554	765,079
-36,213	11,038	1422,263	764,583
-35,198	11,033	1421,234	763,976
-34,184	11,099	1420,148	763,676
-33,169	10,974	1419,004	762,441
-32,154	11,037	1417,901	762,112
-31,140	11,067	1416,624	761,538
-30,125	11,056	1415,696	760,959
-29,111	11,061	1414,449	760,280
-28,096	11,037	1413,318	759,530
-27,082	10,985	1412,196	758,654
-26,067	10,946	1411,227	757,921
-25,052	10,982	1410,105	757,454
-24,038	10,939	1409,348	756,819
-23,023	10,915	1408,163	756,038
-22,009	10,955	1407,138	755,647
-20,994	10,951	1406,069	755,024
-19,979	10,989	1405,234	754,720
-18,965	10,886	1404,241	753,678
-17,950	10,888	1403,373	753,191
-16,936	10,898	1402,449	752,713
-15,921	10,907	1401,320	752,117
-14,906	10,865	1400,609	751,510
-13,892	10,918	1399,643	751,211
-12,877	10,870	1398,683	750,443
-11,863	10,852	1397,878	749,896
-10,848	10,837	1397,102	749,382
-9,833	10,824	1396,150	748,782
-8,819	10,798	1395,180	748,109
-7,804	10,755	1394,755	747,654
-6,790	10,814	1393,414	747,176
-5,775	10,798	1392,542	746,606
-4,760	10,798	1391,637	746,093
-3,746	10,772	1390,689	745,432
-2,731	10,809	1389,591	744,988
-1,717	10,770	1388,718	744,307
-0,702	10,750	1386,961	743,246
0,313	14,772	1300,937	715,564
1,327	31,134	692,665	418,182
2,342	48,224	120,264	79,219
3,356	-1,196	16,463	8,177
4,371	8,908	3,354	1,779
5,386	27,922	0,746	0,443
6,400	800,000	0,139	0,382
7,415	-54,894	-0,324	-0,102
8,429	-43,738	-0,169	-0,060
9,444	2,248	-0,280	-0,142
10,459	3,953	-0,260	-0,133
11,473	110,656	-0,212	-0,179
12,488	85,256	-0,272	-0,210
13,502	-119,934	-0,362	-0,043
14,517	-3,874	-0,408	-0,199
15,531	310,428	-0,282	-0,373
16,546	55,256	-0,305	-0,207
17,561	5,713	-0,380	-0,197
18,575	149,870	-0,069	-0,066
19,590	-3,729	-0,290	-0,141
20,604	51,124	-0,224	-0,149
21,619	37,290	-0,560	-0,348
22,634	15,484	-0,486	-0,268
23,648	88,383	-0,328	-0,256
24,663	-0,713	-0,445	-0,221
25,677	324,403	-0,217	-0,293
26,692	32,850	-0,356	-0,216
27,707	137,669	-0,259	-0,239
28,721	154,680	-0,341	-0,329
29,736	28,293	-0,418	-0,248
30,750	1,182	-0,384	-0,194
31,765	86,916	-0,341	-0,265
32,780	26,847	-0,310	-0,182
33,794	72,997	-0,419	-0,307
34,809	315,218	-0,259	-0,344
35,823	-3,592	-0,273	-0,133
36,838	16,996	-0,369	-0,205
37,853	127,226	-0,245	-0,219
38,867	140,921	-0,349	-0,325
39,882	122,842	-0,281	-0,248
40,896	85,043	-0,237	-0,183
41,911	40,210	-0,361	-0,228
42,926	132,621	-0,421	-0,382
43,940	111,358	-0,345	-0,293
44,955	9,520	-0,468	-0,248
45,969	67,073	-0,287	-0,205
46,984	2,986	-0,301	-0,153
47,999	-27,472	-0,361	-0,147
49,013	211,100	-0,324	-0,359
50,028	55,519	-0,310	-0,210
51,042	175,844	-0,368	-0,375
52,057	-18,293	-0,394	-0,172
53,071	640,169	-0,184	-0,330
54,086	152,178	-0,290	-0,278
55,101	96,317	-0,305	-0,245
56,115	173,578	-0,268	-0,272
57,130	43,539	-0,265	-0,170
58,144	72,262	-0,389	-0,284
59,159	133,545	-0,363	-0,329
60,174	59,006	-0,283	-0,195
61,188	286,222	-0,168	-0,214
62,203	40,214	-0,227	-0,143
63,217	26,871	-0,278	-0,163
64,232	-4,550	-0,416	-0,201
65,247	65,461	-0,360	-0,256
66,261	13,384	-0,274	-0,149
67,276	163,443	-0,401	-0,396
68,290	-25,557	-0,302	-0,124
69,305	361,704	-0,124	-0,175
70,320	-28,060	-0,336	-0,136
71,334	21,982	-0,207	-0,118
72,349	-1,542	-0,383	-0,189
73,363	100,559	-0,338	-0,275
74,378	-44,804	-0,416	-0,145
75,393	116,863	-0,209	-0,180
76,407	162,102	-0,310	-0,305
77,422	-13,146	-0,244	-0,111
78,436	-103,231	-0,297	-0,049
79,451	123,014	-0,327	-0,287
80,466	-32,533	-0,468	-0,182
81,480	105,737	-0,329	-0,272
82,495	-79,045	-0,283	-0,067
83,509	83,636	-0,228	-0,174
84,524	389,141	-0,136	-0,198
85,539	90,401	-0,197	-0,155
86,553	118,298	-0,315	-0,272
87,568	77,250	-0,415	-0,309
88,582	97,412	-0,316	-0,254
89,597	87,133	-0,368	-0,284
90,611	234,360	-0,191	-0,220
91,626	152,098	-0,232	-0,222
92,641	-34,935	-0,334	-0,127
93,655	157,478	-0,204	-0,198
94,670	39,486	-0,236	-0,147
95,684	8,367	-0,350	-0,183
96,699	144,949	-0,221	-0,207
97,714	71,819	-0,245	-0,178
98,728	98,518	-0,254	-0,204
99,743	787,202	-0,110	-0,212
100,757	9,568	-0,427	-0,225
101,772	241,156	-0,187	-0,218
102,787	800,000	-0,141	-0,318
103,801	633,063	-0,165	-0,293
104,816	-19,244	-0,285	-0,123
105,830	219,041	-0,141	-0,158
106,845	45,602	-0,306	-0,197
107,860	25,077	-0,227	-0,131
108,874	337,185	-0,205	-0,279
109,889	176,087	-0,270	-0,274
110,903	53,526	-0,157	-0,105
111,918	125,831	-0,179	-0,158
112,933	58,702	-0,264	-0,181
113,947	-124,920	-0,285	-0,030
114,962	155,280	-0,221	-0,212
115,976	216,547	-0,264	-0,294
116,991	-23,541	-0,236	-0,098
118,006	134,161	-0,234	-0,211
119,020	-104,629	-0,361	-0,058
120,035	91,284	-0,188	-0,148
121,049	-200,000	-0,301	0,000
122,064	-25,509	-0,260	-0,107
123,079	-8,990	-0,329	-0,153
124,093	-1,287	-0,274	-0,135
125,108	88,277	-0,266	-0,206
126,122	469,033	-0,187	-0,294
127,137	40,273	-0,156	-0,098
128,151	800,000	-0,097	-0,253
129,166	-101,300	-0,286	-0,048
130,181	-153,306	-0,202	-0,010
131,195	88,709	-0,233	-0,180
132,210	28,146	-0,221	-0,130
133,224	44,885	-0,361	-0,232
134,239	76,055	-0,220	-0,162
135,254	-63,836	-0,433	-0,123
136,268	13,085	-0,218	-0,117
137,283	60,434	-0,297	-0,205
138,297	91,027	-0,247	-0,193
139,312	106,654	-0,275	-0,227
140,327	65,663	-0,288	-0,203
141,341	-69,561	-0,146	-0,039
142,356	313,115	-0,166	-0,218
143,370	-44,806	-0,368	-0,127
144,385	-20,409	-0,264	-0,113
145,400	157,545	-0,191	-0,184
146,414	-19,149	-0,317	-0,136
147,429	-140,263	-0,230	-0,017
148,443	800,000	-0,125	-0,347
149,458	68,391	-0,190	-0,135
150,473	-26,326	-0,230	-0,094
151,487	110,022	-0,201	-0,168
152,502	301,231	-0,338	-0,436
153,516	179,605	-0,239	-0,244
154,531	184,163	-0,281	-0,290
155,546	65,026	-0,145	-0,102
156,560	241,436	-0,212	-0,247
157,575	261,715	-0,110	-0,133
158,589	155,135	-0,196	-0,188
159,604	71,187	-0,146	-0,105
160,619	762,931	-0,206	-0,391
161,633	92,895	-0,229	-0,180
162,648	44,419	-0,300	-0,191
163,662	422,654	-0,068	-0,102
164,677	-71,193	-0,211	-0,055
165,692	132,858	-0,237	-0,213
166,706	169,029	-0,145	-0,144
167,721	-61,379	-0,214	-0,062
168,735	345,201	-0,252	-0,345
169,750	800,000	-0,140	-0,284
170,764	122,283	-0,263	-0,228
171,779	499,885	-0,148	-0,238
172,794	237,841	-0,162	-0,187
173,808	386,205	-0,184	-0,264
174,823	201,293	-0,169	-0,181
175,837	314,877	-0,211	-0,276
176,852	615,574	-0,146	-0,256
177,867	-92,028	-0,187	-0,037
178,881	17,644	-0,283	-0,156
179,896	-200,000	-0,040	-0,164
180,910	621,279	-0,119	-0,208
181,925	91,521	-0,163	-0,127
182,940	56,807	-0,263	-0,177
183,954	321,024	-0,152	-0,201
184,969	104,591	-0,149	-0,122
185,983	79,414	-0,189	-0,140
186,998	673,667	-0,104	-0,189
188,013	94,324	-0,150	-0,118
189,027	133,280	-0,315	-0,282
190,042	132,243	-0,262	-0,234
191,056	303,689	-0,215	-0,278
192,071	88,973	-0,247	-0,190
193,086	163,614	-0,143	-0,140
194,100	281,880	-0,201	-0,251
195,115	503,287	-0,148	-0,238
196,129	34,613	-0,287	-0,173
197,144	422,087	-0,069	-0,102
198,159	76,578	-0,245	-0,180
199,173	-13,010	-0,163	-0,073
200,188	67,859	-0,185	-0,131
201,202	86,183	-0,209	-0,159
202,217	138,843	-0,206	-0,187
203,232	70,934	-0,204	-0,146
204,246	71,985	-0,291	-0,210
205,261	119,569	-0,228	-0,196
206,275	190,702	-0,157	-0,163
207,290	-29,896	-0,200	-0,078
208,304	359,787	-0,088	-0,123
209,319	58,201	-0,228	-0,155
210,334	554,622	-0,102	-0,171
211,348	-54,734	-0,321	-0,100
212,363	168,090	-0,233	-0,230
213,377	30,107	-0,254	-0,150
214,392	-167,256	-0,154	-0,004
215,407	165,613	-0,160	-0,157
216,421	-124,965	-0,184	-0,019
217,436	165,931	-0,186	-0,182
218,450	354,983	-0,161	-0,222
219,465	-3,154	-0,280	-0,135
220,480	95,327	-0,236	-0,186
221,494	-63,194	-0,264	-0,075
222,509	-46,315	-0,224	-0,076
223,523	157,847	-0,153	-0,147
224,538	-31,996	-0,201	-0,077
225,553	-111,541	-0,146	-0,020
226,567	131,755	-0,143	-0,128
227,582	155,621	-0,305	-0,290
228,596	-108,345	-0,215	-0,032
229,611	800,000	-0,075	-0,212
230,626	77,753	-0,127	-0,094
231,640	103,048	-0,185	-0,150
232,655	18,860	-0,275	-0,152
233,669	-53,065	-0,153	-0,048
234,684	182,044	-0,110	-0,112
235,699	45,718	-0,104	-0,066
236,713	244,704	-0,076	-0,088
237,728	-200,000	-0,049	-0,200
238,742	54,881	-0,273	-0,182
239,757	-138,065	-0,257	-0,019
240,772	800,000	-0,054	-0,162
241,786	58,067	-0,199	-0,135
242,801	-0,015	-0,209	-0,102
243,815	16,676	-0,134	-0,073
244,830	100,268	-0,152	-0,122
245,844	27,134	-0,067	-0,039
246,859	184,116	-0,175	-0,179
247,874	148,710	-0,165	-0,154
248,888	193,285	-0,131	-0,137
249,903	-60,201	-0,090	0,026
250,917	238,263	-0,181	-0,207
251,932	-126,207	-0,219	-0,022
252,947	148,690	-0,089	-0,083
253,961	183,691	-0,146	-0,149
254,976	331,612	-0,168	-0,224
255,990	-200,000	-0,048	-0,212
257,005	280,643	-0,149	-0,184
258,020	308,671	-0,074	-0,096
259,034	-182,218	-0,120	0,002
260,049	7,840	-0,171	-0,088
261,063	800,000	-0,131	-0,288
262,078	202,221	-0,078	-0,083
263,093	113,226	-0,175	-0,146
264,107	-172,104	-0,229	-0,005
265,122	-200,000	-0,026	-0,152
266,136	-118,565	-0,182	0,022
267,151	-108,240	-0,127	-0,019
268,166	143,214	-0,179	-0,164
269,180	543,013	-0,091	-0,149
270,195	-200,000	0,039	-0,160
271,209	-62,677	-0,217	-0,061
272,224	442,952	-0,101	-0,152
273,239	332,693	-0,115	-0,153
274,253	-98,457	-0,156	0,027
275,268	41,375	-0,136	-0,085
276,282	33,767	-0,212	-0,127
277,297	-200,000	-0,054	-0,179
278,312	26,926	-0,175	-0,101
279,326	-85,653	-0,198	-0,042
280,341	-41,046	-0,091	-0,032
281,355	189,927	-0,160	-0,165
282,370	-200,000	-0,057	-0,199
283,384	-171,177	-0,180	0,004
284,399	-158,685	-0,194	0,008
285,414	-87,875	-0,174	-0,036
286,428	-171,342	-0,063	-0,001
287,443	116,143	-0,162	-0,136
288,457	-169,800	-0,177	0,004
289,472	800,000	-0,119	-0,251
290,487	105,714	-0,107	-0,087
291,501	-25,211	-0,277	-0,112
292,516	26,132	-0,190	-0,109
293,530	-97,663	-0,233	-0,041
294,545	800,000	-0,059	-0,129
295,560	246,081	-0,162	-0,188
296,574	34,798	-0,165	-0,099
297,589	338,817	-0,195	-0,262
298,603	50,484	-0,146	-0,095
299,618	198,471	-0,273	-0,287
300,633	-85,861	-0,173	0,037
301,647	48,806	-0,176	-0,113
302,662	800,000	-0,045	-0,097
303,676	-159,679	-0,087	0,003
304,691	182,151	-0,076	-0,077
305,706	432,951	-0,046	-0,069
306,720	-100,188	-0,157	0,027
307,735	282,695	-0,216	-0,267
308,749	32,662	-0,103	0,061
309,764	466,584	-0,025	-0,039
310,779	61,006	-0,206	-0,140
311,793	-89,440	-0,176	-0,035
312,808	800,000	-0,078	-0,205
313,822	109,874	-0,232	-0,191
314,837	-200,000	0,046	-0,183
315,852	68,314	-0,082	-0,057
316,866	109,973	-0,047	0,038
317,881	10,256	-0,089	-0,046
318,895	800,000	-0,060	-0,163
319,910	10,118	-0,100	-0,052
320,925	43,939	-0,320	-0,201
321,939	800,000	-0,105	-0,214
322,954	16,996	-0,080	-0,043
323,968	58,860	-0,105	0,070
324,983	-115,004	-0,163	0,021
325,997	12,196	-0,112	-0,059
327,012	83,294	-0,184	-0,137
328,027	199,447	-0,080	-0,085
329,041	120,078	-0,216	-0,183
330,056	-160,041	-0,188	0,007
331,070	-200,000	-0,013	-0,075
332,085	-178,581	-0,126	0,002
333,100	579,211	-0,146	-0,245
334,114	266,452	-0,173	-0,207
335,129	-35,534	-0,084	0,031
336,143	-23,390	-0,187	-0,077
337,158	-200,000	0,016	-0,050
338,173	63,594	-0,153	-0,105
339,187	196,872	-0,121	-0,126
340,202	290,541	-0,123	-0,153
341,216	800,000	-0,084	-0,205
342,231	125,578	-0,179	-0,154
343,246	233,132	-0,122	-0,137
344,260	-55,886	-0,180	0,055
345,275	-200,000	0,009	-0,098
346,289	10,945	-0,096	0,050
347,304	71,558	-0,144	-0,102
348,319	133,512	-0,215	-0,190
349,333	374,858	-0,150	-0,209
350,348	24,430	-0,216	-0,122
351,362	190,934	-0,063	-0,064
352,377	-115,965	-0,037	0,005
353,392	-31,379	-0,134	0,051
354,406	-47,292	-0,189	-0,062
355,421	209,967	1305,179	1401,909
356,435	161,627	1464,723	1402,407
