DTS Sentinel unit serial number:	SN410029Multiplexer serial number:	ORYXHardware model number:	OX2-SRSoftware version number:	ORYX F/W v4,00 Oryx Data Collector v3.7.2.0data status	okinstallation	B3 Nyhavnadifferential loss correction	single-endedforward channel	channel 1reverse channel	N/Adate	2023/12/03time	05:42:30forward acquisition time	300,00reverse acquisition time	0,00gamma	499,1914k internal	0,3201k external	0,3201temperature offset calibration	1,0000default loss term (dB/km)	0,3820temperature slope calibration	1,0000multiplexer offset coefficient	1,0000multiplexer slope coefficient	1,0000fibre end	0,00T internal ref (°C)	13,29T ext. ref 1 (°C)	-1,71T ext. ref 2 (°C)	-1,71length (m)	temperature (°C)	Stokes	anti-Stokes-744,400	148,555	-0,434	-0,427
-743,385	800,000	0,095	0,223
-742,371	58,480	-0,168	-0,119
-741,356	777,804	0,124	0,248
-740,342	-28,514	-0,259	-0,108
-739,327	-200,000	0,059	0,295
-738,312	309,087	-0,286	-0,390
-737,298	800,000	-0,105	0,255
-736,283	105,772	-0,175	-0,150
-735,269	800,000	0,092	0,287
-734,254	73,007	-0,252	-0,191
-733,239	33,205	-0,156	0,098
-732,225	148,062	-0,144	-0,142
-731,210	187,696	0,125	0,136
-730,196	-108,890	0,085	0,013
-729,181	-200,000	0,001	0,112
-728,167	47,710	-0,166	0,112
-727,152	385,701	0,042	0,063
-726,137	220,558	-0,015	-0,018
-725,123	-200,000	0,021	-0,078
-724,108	800,000	-0,051	-0,107
-723,094	4,666	0,074	-0,039
-722,079	-200,000	-0,018	-0,166
-721,064	800,000	0,055	-0,121
-720,050	-63,588	-0,122	-0,036
-719,035	-84,704	-0,077	-0,018
-718,021	8,383	-0,032	-0,017
-717,006	23,427	0,035	-0,021
-715,991	-66,951	-0,122	0,035
-714,977	-200,000	0,027	-0,212
-713,962	28,962	0,167	-0,103
-712,948	386,073	-0,046	0,070
-711,933	20,740	0,076	-0,045
-710,918	-200,000	-0,008	-0,165
-709,904	322,091	-0,042	0,058
-708,889	-200,000	-0,003	-0,101
-707,875	-48,023	-0,096	-0,033
-706,860	-37,850	0,125	-0,048
-705,845	-199,130	0,047	-0,000
-704,831	416,494	0,072	0,113
-703,816	66,628	-0,035	0,026
-702,802	-181,432	-0,049	-0,001
-701,787	573,481	-0,030	-0,053
-700,772	800,000	-0,041	-0,100
-699,758	562,273	-0,036	-0,064
-698,743	-200,000	-0,009	0,041
-697,729	800,000	-0,018	-0,045
-696,714	-57,271	0,065	0,020
-695,699	39,219	-0,124	0,081
-694,685	-200,000	0,002	-0,049
-693,670	-200,000	-0,021	-0,242
-692,656	-22,189	-0,030	0,013
-691,641	800,000	-0,009	-0,019
-690,627	-200,000	0,000	-0,032
-689,612	60,781	0,047	0,034
-688,597	206,662	-0,085	0,097
-687,583	-65,747	0,046	-0,013
-686,568	-65,984	0,033	-0,010
-685,554	800,000	0,074	0,154
-684,539	-200,000	0,001	-0,041
-683,524	-200,000	0,005	-0,130
-682,510	-77,134	0,116	0,029
-681,495	406,002	-0,105	-0,161
-680,481	-148,344	-0,063	-0,004
-679,466	-0,462	-0,044	0,023
-678,451	-122,244	0,202	0,024
-677,437	-119,998	-0,142	0,017
-676,422	-87,526	0,106	0,023
-675,408	471,505	0,050	0,081
-674,393	41,571	0,047	-0,031
-673,378	424,207	-0,046	-0,073
-672,364	468,462	-0,063	-0,102
-671,349	-51,664	0,108	-0,036
-670,335	-37,242	-0,092	0,035
-669,320	-200,000	-0,018	0,063
-668,305	152,003	0,104	0,102
-667,291	-200,000	-0,051	0,189
-666,276	30,234	-0,092	-0,057
-665,262	-200,000	-0,011	-0,056
-664,247	8,122	-0,045	-0,024
-663,232	800,000	-0,017	-0,039
-662,218	285,206	0,045	-0,058
-661,203	-178,699	-0,131	-0,002
-660,189	-200,000	0,003	0,027
-659,174	-200,000	-0,039	-0,129
-658,159	61,866	-0,158	-0,114
-657,145	-147,212	-0,085	-0,005
-656,130	654,785	0,049	-0,092
-655,116	168,029	0,051	0,052
-654,101	178,332	0,095	0,101
-653,086	800,000	0,022	0,066
-652,072	-119,496	-0,182	0,023
-651,057	184,496	-0,018	0,020
-650,043	17,880	-0,183	-0,105
-649,028	-13,931	-0,081	-0,038
-648,014	-53,121	-0,096	-0,032
-646,999	381,153	-0,016	0,024
-645,984	-200,000	0,000	-0,043
-644,970	31,709	-0,050	0,031
-643,955	-127,460	0,061	0,006
-642,941	160,044	0,014	-0,014
-641,926	213,065	0,014	-0,016
-640,911	46,268	-0,048	0,032
-639,897	-187,123	0,037	-0,000
-638,882	393,589	0,030	0,045
-637,868	-144,954	0,084	0,005
-636,853	-200,000	-0,005	0,042
-635,838	-200,000	0,013	0,069
-634,824	-200,000	-0,022	-0,189
-633,809	678,923	0,091	-0,172
-632,795	-200,000	-0,007	-0,025
-631,780	153,847	-0,073	0,072
-630,765	795,593	-0,052	0,104
-629,751	-200,000	-0,008	0,044
-628,736	-200,000	0,037	-0,153
-627,722	-87,367	-0,161	0,035
-626,707	352,406	0,089	0,128
-625,692	-73,483	0,097	-0,026
-624,678	-200,000	-0,027	0,269
-623,663	800,000	-0,003	-0,009
-622,649	-200,000	-0,215	0,000
-621,634	-200,000	-0,014	-0,171
-620,619	218,561	-0,040	-0,046
-619,605	57,086	0,007	0,005
-618,590	-200,000	-0,008	0,063
-617,576	-200,000	-0,003	-0,039
-616,561	690,741	-0,013	-0,025
-615,546	9,407	-0,040	-0,022
-614,532	-3,474	-0,193	-0,097
-613,517	-200,000	-0,006	-0,160
-612,503	202,885	0,062	-0,069
-611,488	-38,582	0,090	0,034
-610,474	-200,000	0,007	0,026
-609,459	-200,000	0,014	-0,092
-608,444	144,627	-0,050	0,049
-607,430	125,532	-0,062	0,056
-606,415	207,100	0,029	-0,032
-605,401	16,064	0,150	-0,085
-604,386	679,233	0,037	-0,071
-603,371	-38,678	0,114	-0,043
-602,357	-200,000	0,022	-0,069
-601,342	570,631	-0,044	-0,077
-600,328	-200,000	-0,011	-0,190
-599,313	800,000	-0,016	-0,039
-598,298	42,656	0,032	0,021
-597,284	-97,146	0,038	-0,007
-596,269	-200,000	-0,021	0,098
-595,255	-148,510	-0,179	0,010
-594,240	-200,000	0,001	-0,011
-593,225	45,991	-0,007	-0,005
-592,211	171,823	0,058	-0,061
-591,196	123,851	0,129	0,117
-590,182	-133,074	0,069	-0,006
-589,167	667,275	-0,017	-0,032
-588,152	-113,152	-0,027	-0,004
-587,138	-200,000	0,023	-0,159
-586,123	22,447	-0,224	-0,132
-585,109	238,784	-0,058	-0,070
-584,094	107,103	0,072	0,062
-583,079	131,786	-0,020	-0,019
-582,065	800,000	0,047	0,102
-581,050	800,000	0,075	0,200
-580,036	90,151	-0,037	0,030
-579,021	800,000	0,026	0,082
-578,006	23,563	-0,051	-0,030
-576,992	276,438	0,043	0,055
-575,977	-37,275	-0,040	-0,016
-574,963	588,154	0,114	0,204
-573,948	800,000	-0,020	0,045
-572,934	800,000	0,024	0,070
-571,919	474,934	-0,040	0,066
-570,904	0,039	-0,171	-0,088
-569,890	-200,000	0,067	0,276
-568,875	604,717	-0,027	-0,050
-567,861	-200,000	0,007	0,088
-566,846	399,424	0,025	0,038
-565,831	800,000	0,036	-0,099
-564,817	109,984	0,016	0,014
-563,802	2,372	-0,167	-0,087
-562,788	800,000	0,031	-0,066
-561,773	387,642	-0,063	0,094
-560,758	-200,000	0,025	0,108
-559,744	-59,897	0,067	-0,021
-558,729	-63,400	0,097	-0,029
-557,715	87,683	-0,107	-0,085
-556,700	-200,000	-0,038	-0,172
-555,685	-200,000	0,007	0,029
-554,671	39,045	-0,127	0,082
-553,656	348,848	0,059	-0,085
-552,642	193,586	0,044	-0,049
-551,627	-200,000	-0,010	-0,047
-550,612	-116,234	-0,074	0,010
-549,598	-97,381	0,091	-0,017
-548,583	800,000	-0,049	0,103
-547,569	-200,000	-0,011	-0,100
-546,554	-200,000	-0,032	0,195
-545,539	-18,407	0,169	0,076
-544,525	-122,681	0,022	-0,003
-543,510	-200,000	0,019	0,073
-542,496	391,204	-0,048	0,071
-541,481	-200,000	0,017	0,084
-540,466	87,672	0,054	-0,043
-539,452	-200,000	0,037	0,135
-538,437	517,156	-0,066	0,112
-537,423	-200,000	0,003	0,036
-536,408	800,000	0,024	-0,057
-535,393	269,150	-0,063	-0,081
-534,379	261,818	0,057	-0,071
-533,364	353,404	0,028	0,040
-532,350	561,104	0,013	-0,022
-531,335	139,269	0,049	0,046
-530,321	660,112	0,031	-0,057
-529,306	800,000	0,027	0,069
-528,291	-122,635	-0,020	-0,002
-527,277	24,469	-0,115	0,068
-526,262	-133,357	-0,096	-0,009
-525,248	-200,000	0,044	0,200
-524,233	-200,000	0,021	0,080
-523,218	800,000	0,015	-0,036
-522,204	25,535	0,108	0,065
-521,189	535,418	0,042	-0,072
-520,175	-200,000	0,035	-0,117
-519,160	-20,377	-0,037	-0,016
-518,145	-161,213	0,089	-0,003
-517,131	-128,430	-0,084	-0,008
-516,116	222,726	-0,012	-0,014
-515,102	800,000	0,007	0,018
-514,087	193,829	-0,079	-0,087
-513,072	-193,853	-0,135	0,001
-512,058	-200,000	0,016	-0,061
-511,043	-36,077	0,032	-0,012
-510,029	-200,000	0,039	-0,140
-509,014	800,000	-0,044	0,106
-507,999	-177,601	0,074	0,001
-506,985	800,000	-0,048	-0,106
-505,970	172,184	-0,055	-0,057
-504,956	-200,000	-0,037	-0,134
-503,941	64,089	-0,072	-0,052
-502,926	17,212	0,085	0,049
-501,912	525,740	0,019	-0,033
-500,897	235,208	0,032	0,038
-499,883	187,202	-0,117	0,125
-498,868	203,793	-0,104	-0,116
-497,853	133,851	-0,085	0,079
-496,839	-38,324	0,063	0,024
-495,824	-200,000	0,011	0,098
-494,810	-115,584	0,088	0,012
-493,795	587,329	0,021	0,038
-492,781	800,000	-0,002	-0,005
-491,766	-100,514	0,026	-0,005
-490,751	168,251	0,055	-0,057
-489,737	307,123	-0,030	0,041
-488,722	800,000	0,021	-0,062
-487,708	657,744	0,069	0,128
-486,693	-104,074	0,132	0,022
-485,678	800,000	-0,022	0,059
-484,664	243,514	-0,105	-0,127
-483,649	-10,258	0,090	-0,043
-482,635	800,000	-0,051	0,114
-481,620	328,870	0,054	0,075
-480,605	800,000	-0,045	0,118
-479,591	800,000	0,035	-0,102
-478,576	-200,000	-0,007	-0,081
-477,562	289,937	-0,034	-0,044
-476,547	199,411	-0,083	-0,092
-475,532	-200,000	-0,005	-0,137
-474,518	800,000	0,009	0,024
-473,503	-122,889	-0,079	0,009
-472,489	429,700	0,032	0,050
-471,474	-44,298	0,023	-0,008
-470,459	282,371	-0,028	0,036
-469,445	-107,568	-0,204	-0,032
-468,430	-200,000	0,009	0,129
-467,416	-200,000	0,015	0,057
-466,401	524,689	0,046	0,079
-465,386	231,586	-0,069	-0,082
-464,372	-200,000	0,025	-0,088
-463,357	73,468	-0,067	0,051
-462,343	-25,804	0,010	-0,004
-461,328	125,258	0,084	0,076
-460,313	-132,575	0,081	0,007
-459,299	687,134	-0,035	0,066
-458,284	-44,680	-0,030	-0,011
-457,270	-200,000	0,001	-0,108
-456,255	-39,780	-0,065	-0,024
-455,241	-6,432	0,100	-0,049
-454,226	30,364	0,062	-0,038
-453,211	800,000	0,058	-0,126
-452,197	-52,286	0,208	0,069
-451,182	-200,000	-0,023	0,098
-450,168	800,000	0,041	-0,117
-449,153	346,222	-0,033	0,047
-448,138	49,443	-0,048	0,032
-447,124	800,000	0,047	-0,133
-446,109	114,167	-0,095	-0,083
-445,095	-200,000	0,033	-0,152
-444,080	53,809	-0,173	0,119
-443,065	-200,000	0,014	-0,052
-442,051	800,000	0,065	-0,155
-441,036	-47,114	-0,028	0,010
-440,022	-200,000	0,015	-0,128
-439,007	158,423	-0,033	0,032
-437,992	-49,906	0,074	0,025
-436,978	-200,000	0,038	0,145
-435,963	3,420	0,089	-0,046
-434,949	423,350	0,047	-0,072
-433,934	-200,000	-0,011	0,042
-432,919	800,000	-0,028	0,071
-431,905	-116,563	-0,131	0,017
-430,890	-40,166	0,023	-0,009
-429,876	88,016	-0,080	-0,063
-428,861	-120,796	-0,031	-0,004
-427,846	-200,000	0,027	0,153
-426,832	214,435	-0,028	-0,032
-425,817	544,623	-0,049	0,084
-424,803	-200,000	-0,021	0,107
-423,788	-200,000	0,004	0,066
-422,773	800,000	0,051	0,109
-421,759	-51,937	0,092	-0,031
-420,744	-200,000	-0,006	-0,100
-419,730	-152,864	-0,111	0,006
-418,715	-200,000	0,012	0,116
-417,701	233,915	-0,122	-0,145
-416,686	-6,401	-0,093	-0,045
-415,671	-200,000	0,006	-0,067
-414,657	237,133	0,017	0,021
-413,642	800,000	0,035	-0,112
-412,628	-108,176	0,020	0,003
-411,613	190,463	0,058	0,063
-410,598	127,431	-0,111	-0,101
-409,584	47,287	0,072	0,048
-408,569	138,051	0,044	0,042
-407,555	-129,282	0,103	-0,010
-406,540	-10,268	-0,116	0,055
-405,525	-75,826	0,035	0,009
-404,511	-200,000	-0,031	-0,138
-403,496	-200,000	0,009	-0,044
-402,482	-11,710	-0,049	-0,023
-401,467	-30,701	-0,070	-0,028
-400,452	800,000	0,030	0,063
-399,438	-200,000	-0,010	0,038
-398,423	724,386	-0,034	-0,066
-397,409	-200,000	-0,001	-0,101
-396,394	226,388	-0,068	0,080
-395,379	13,098	0,094	-0,052
-394,365	214,443	-0,119	-0,135
-393,350	85,924	-0,016	0,012
-392,336	758,544	-0,052	0,101
-391,321	-8,668	0,035	-0,017
-390,306	168,227	0,067	-0,068
-389,292	-200,000	0,005	0,055
-388,277	-51,628	-0,073	-0,024
-387,263	-200,000	-0,009	-0,053
-386,248	460,556	0,035	-0,056
-385,233	-174,521	0,208	-0,004
-384,219	-200,000	-0,030	0,095
-383,204	-138,593	-0,072	0,006
-382,190	800,000	-0,021	-0,050
-381,175	-200,000	0,018	-0,064
-380,160	-200,000	0,008	0,103
-379,146	800,000	-0,055	0,137
-378,131	800,000	0,023	0,052
-377,117	226,626	-0,020	0,023
-376,102	74,424	-0,106	0,080
-375,088	-8,150	-0,056	-0,027
-374,073	800,000	0,092	-0,247
-373,058	-200,000	0,007	0,079
-372,044	204,392	0,013	-0,015
-371,029	32,846	0,026	-0,016
-370,015	7,572	-0,109	0,058
-369,000	-200,000	0,010	-0,043
-367,985	-200,000	-0,038	-0,162
-366,971	794,749	0,026	0,051
-365,956	800,000	0,064	0,166
-364,942	77,601	0,056	0,043
-363,927	-0,929	0,095	-0,048
-362,912	-200,000	-0,000	0,090
-361,898	800,000	-0,002	-0,005
-360,883	800,000	0,052	-0,141
-359,869	-10,989	0,180	0,085
-358,854	-200,000	-0,014	0,083
-357,839	-70,444	0,080	0,022
-356,825	-200,000	-0,014	0,055
-355,810	311,171	-0,005	-0,006
-354,796	-200,000	-0,028	0,138
-353,781	-200,000	0,022	-0,093
-352,766	348,909	-0,073	-0,104
-351,752	370,074	-0,051	0,075
-350,737	213,433	0,072	0,082
-349,723	225,252	-0,034	0,039
-348,708	237,052	-0,063	0,075
-347,693	800,000	-0,032	-0,096
-346,679	-80,140	-0,116	0,028
-345,664	-200,000	-0,038	-0,187
-344,650	200,154	0,095	0,105
-343,635	800,000	0,031	0,066
-342,620	342,949	-0,050	0,071
-341,606	-200,000	-0,026	0,202
-340,591	63,473	0,080	0,057
-339,577	625,104	0,056	-0,102
-338,562	217,086	-0,069	0,079
-337,548	118,552	0,071	0,063
-336,533	-171,348	0,077	-0,002
-335,518	11,836	0,023	0,013
-334,504	-173,934	0,056	-0,001
-333,489	65,063	-0,075	-0,054
-332,475	323,003	-0,043	-0,059
-331,460	-200,000	0,003	-0,144
-330,445	222,040	-0,086	-0,099
-329,431	107,332	0,071	0,060
-328,416	-28,463	-0,028	-0,011
-327,402	-200,000	-0,016	0,148
-326,387	-53,113	0,117	0,038
-325,372	12,961	-0,048	-0,027
-324,358	-113,178	-0,069	-0,010
-323,343	-200,000	-0,001	-0,048
-322,329	180,800	0,101	-0,106
-321,314	-110,110	0,075	-0,011
-320,299	25,496	0,150	0,089
-319,285	800,000	0,048	0,125
-318,270	-200,000	0,024	-0,154
-317,256	-200,000	-0,012	-0,154
-316,241	-200,000	0,029	-0,095
-315,226	796,915	0,081	0,161
-314,212	404,721	-0,102	0,154
-313,197	-200,000	-0,042	0,158
-312,183	-200,000	0,005	0,104
-311,168	2,506	0,073	-0,038
-310,153	76,831	0,178	-0,135
-309,139	800,000	0,006	0,018
-308,124	-200,000	-0,006	0,049
-307,110	231,863	-0,034	0,039
-306,095	244,444	0,030	-0,036
-305,080	370,405	0,017	0,025
-304,066	2,074	-0,124	-0,064
-303,051	800,000	0,020	-0,044
-302,037	108,298	0,004	-0,004
-301,022	-200,000	0,001	0,043
-300,008	756,280	0,014	0,026
-298,993	-200,000	0,011	-0,048
-297,978	352,462	0,064	0,091
-296,964	-68,965	-0,092	-0,025
-295,949	-200,000	-0,004	0,032
-294,935	13,260	0,068	0,038
-293,920	-48,735	-0,098	0,034
-292,905	21,715	0,076	0,044
-291,891	-37,553	0,046	0,018
-290,876	113,442	-0,049	-0,042
-289,862	-102,265	0,102	-0,017
-288,847	181,203	0,109	0,115
-287,832	-102,973	-0,067	0,011
-286,818	-1,793	0,137	-0,068
-285,803	-99,578	-0,086	-0,015
-284,789	-28,856	-0,131	0,054
-283,774	-200,000	-0,020	0,080
-282,759	-39,024	-0,082	0,031
-281,745	-200,000	0,000	0,053
-280,730	-91,043	0,063	0,013
-279,716	103,946	0,026	-0,022
-278,701	1,750	0,028	0,014
-277,686	800,000	0,018	0,058
-276,672	-200,000	0,007	0,155
-275,657	-78,784	-0,014	-0,003
-274,643	19,162	0,047	-0,027
-273,628	-200,000	-0,004	-0,073
-272,613	-99,534	-0,052	-0,009
-271,599	1,723	0,140	-0,072
-270,584	-200,000	-0,003	0,058
-269,570	-134,112	0,008	-0,001
-268,555	-114,001	0,061	0,008
-267,540	-200,000	0,011	-0,080
-266,526	800,000	0,021	-0,051
-265,511	800,000	0,059	-0,121
-264,497	800,000	-0,034	0,093
-263,482	-200,000	0,015	0,070
-262,467	800,000	0,022	-0,045
-261,453	800,000	0,034	0,087
-260,438	382,847	0,015	0,022
-259,424	-200,000	0,000	-0,022
-258,409	291,961	-0,065	-0,084
-257,395	-200,000	0,001	0,014
-256,380	81,952	-0,042	0,032
-255,365	-58,868	0,081	0,025
-254,351	262,249	0,082	-0,101
-253,336	169,441	0,084	-0,086
-252,322	64,526	-0,095	-0,068
-251,307	800,000	-0,035	-0,102
-250,292	787,532	-0,023	0,045
-249,278	10,348	-0,050	0,027
-248,263	17,045	-0,049	-0,028
-247,249	343,260	0,051	0,072
-246,234	800,000	-0,032	-0,094
-245,219	-200,000	0,010	-0,173
-244,205	392,055	0,031	-0,046
-243,190	800,000	-0,006	0,016
-242,176	800,000	-0,036	0,072
-241,161	28,594	0,063	0,038
-240,146	-200,000	0,001	0,194
-239,132	-200,000	-0,000	0,121
-238,117	-8,832	-0,065	-0,031
-237,103	288,101	0,055	-0,072
-236,088	-127,915	-0,051	0,005
-235,073	800,000	0,032	-0,071
-234,059	87,939	-0,070	0,055
-233,044	800,000	-0,041	-0,112
-232,030	-200,000	-0,073	0,000
-231,015	-200,000	0,001	0,073
-230,000	147,051	-0,064	-0,061
-228,986	-58,890	-0,177	-0,054
-227,971	195,111	-0,086	0,093
-226,957	800,000	0,045	0,095
-225,942	103,501	0,063	0,053
-224,927	-1,381	0,041	-0,020
-223,913	800,000	-0,036	-0,080
-222,898	232,987	-0,013	0,016
-221,884	800,000	0,012	-0,031
-220,869	201,801	0,068	0,075
-219,855	73,677	-0,116	-0,087
-218,840	20,634	0,155	0,089
-217,825	-5,978	-0,086	0,042
-216,811	307,574	0,025	-0,033
-215,796	-200,000	-0,039	0,134
-214,782	-200,000	-0,015	-0,059
-213,767	0,060	0,098	-0,050
-212,752	800,000	0,048	-0,102
-211,738	75,760	-0,129	0,097
-210,723	-72,757	0,013	0,003
-209,709	800,000	-0,035	-0,085
-208,694	-200,000	-0,032	-0,136
-207,679	-23,100	-0,115	-0,049
-206,665	800,000	-0,036	0,091
-205,650	-24,628	0,028	-0,012
-204,636	399,270	0,032	0,048
-203,621	176,478	0,068	-0,070
-202,606	392,244	-0,049	-0,073
-201,592	-200,000	0,001	-0,007
-200,577	-101,739	-0,056	-0,010
-199,563	-200,000	-0,000	-0,063
-198,548	-200,000	0,003	0,034
-197,533	800,000	-0,045	0,115
-196,519	190,700	0,032	0,034
-195,504	796,490	-0,007	0,014
-194,490	-200,000	-0,049	-0,160
-193,475	800,000	0,027	-0,082
-192,460	194,425	-0,060	-0,065
-191,446	387,517	0,049	0,072
-190,431	3,732	0,179	0,093
-189,417	-9,538	-0,042	0,020
-188,402	-200,000	0,022	-0,077
-187,387	477,085	0,017	0,028
-186,373	-86,994	-0,065	-0,014
-185,358	-200,000	0,015	0,055
-184,344	178,165	-0,078	0,082
-183,329	254,673	0,086	0,105
-182,315	53,518	-0,030	-0,021
-181,300	41,590	0,054	-0,035
-180,285	-27,530	-0,027	0,011
-179,271	-200,000	0,003	-0,128
-178,256	-200,000	0,008	0,056
-177,242	-32,022	0,091	-0,036
-176,227	-200,000	0,012	-0,052
-175,212	-78,472	0,143	-0,034
-174,198	-13,861	-0,069	0,032
-173,183	-81,573	0,052	0,012
-172,169	16,924	-0,100	0,056
-171,154	10,387	0,048	0,026
-170,139	-200,000	-0,030	-0,158
-169,125	-200,000	0,015	-0,073
-168,110	200,981	-0,026	-0,028
-167,096	-200,000	0,007	-0,041
-166,081	7,031	0,062	-0,033
-165,066	-66,538	-0,055	-0,015
-164,052	800,000	-0,036	0,073
-163,037	-200,000	-0,012	-0,042
-162,023	-200,000	0,003	-0,024
-161,008	150,151	0,042	-0,040
-159,993	57,926	0,024	0,016
-158,979	64,834	0,096	0,069
-157,964	-12,800	-0,188	-0,087
-156,950	-22,110	0,144	0,062
-155,935	800,000	0,053	-0,122
-154,920	-23,055	-0,133	0,057
-153,906	110,986	-0,097	0,083
-152,891	112,191	0,023	0,020
-151,877	-200,000	-0,003	-0,150
-150,862	800,000	-0,095	-0,219
-149,847	442,557	0,077	0,120
-148,833	121,294	-0,128	-0,113
-147,818	-63,263	0,051	-0,015
-146,804	-100,453	-0,077	-0,013
-145,789	-200,000	0,011	-0,039
-144,775	800,000	-0,039	-0,109
-143,760	234,627	0,066	0,077
-142,745	322,710	-0,096	-0,131
-141,731	-60,939	-0,051	0,015
-140,716	28,369	0,054	-0,033
-139,702	800,000	0,021	-0,049
-138,687	-157,213	0,122	0,005
-137,672	216,697	-0,123	0,140
-136,658	-200,000	-0,017	0,061
-135,643	233,053	-0,071	-0,083
-134,629	645,046	0,027	-0,048
-133,614	-200,000	-0,029	0,176
-132,599	80,727	0,101	0,077
-131,585	39,886	-0,044	0,028
-130,570	800,000	0,051	-0,111
-129,556	7,346	-0,124	0,065
-128,541	-200,000	0,012	-0,113
-127,526	174,550	-0,023	-0,023
-126,512	-20,065	0,090	-0,039
-125,497	800,000	-0,047	0,104
-124,483	800,000	0,059	-0,135
-123,468	-123,517	0,094	0,011
-122,453	800,000	-0,042	0,095
-121,439	105,058	-0,042	-0,035
-120,424	-200,000	0,021	-0,116
-119,410	-136,846	-0,017	0,001
-118,395	-60,474	0,067	0,020
-117,380	-58,998	0,198	-0,060
-116,366	19,280	0,075	0,043
-115,351	-200,000	0,018	-0,105
-114,337	800,000	-0,101	-0,283
-113,322	-36,793	0,097	-0,037
-112,307	-157,023	0,051	-0,002
-111,293	-84,235	0,149	0,033
-110,278	605,412	0,066	0,116
-109,264	-61,113	0,151	-0,045
-108,249	800,000	-0,042	-0,100
-107,234	-55,022	-0,103	-0,033
-106,220	-93,143	0,120	-0,023
-105,205	28,844	-0,024	0,015
-104,191	800,000	-0,057	0,127
-103,176	60,616	0,005	0,003
-102,162	-132,262	0,112	0,010
-101,147	202,639	0,057	-0,063
-100,132	621,921	-0,086	0,155
-99,118	-106,376	-0,164	0,026
-98,103	-13,429	-0,158	0,073
-97,089	3,808	0,068	0,035
-96,074	-200,000	-0,020	-0,103
-95,059	-9,710	-0,048	0,022
-94,045	-200,000	0,007	-0,049
-93,030	96,388	0,050	-0,041
-92,016	-149,332	-0,063	-0,003
-91,001	800,000	-0,066	0,156
-89,986	-200,000	0,001	0,078
-88,972	-200,000	-0,035	0,138
-87,957	-200,000	0,021	0,084
-86,943	800,000	0,020	0,063
-85,928	791,593	-0,059	0,116
-84,913	-108,191	-0,079	0,012
-83,899	481,873	-0,026	-0,043
-82,884	70,294	0,082	0,060
-81,870	362,089	-0,079	0,113
-80,855	-85,544	0,052	0,011
-79,840	-188,454	-0,104	-0,001
-78,826	-11,607	-0,093	-0,043
-77,811	288,018	-0,069	0,089
-76,797	49,218	0,078	-0,052
-75,782	251,357	-0,044	0,053
-74,767	35,981	0,096	0,060
-73,753	627,032	-0,008	-0,015
-72,738	-163,684	-0,022	-0,001
-71,724	212,202	-0,071	0,079
-70,709	-78,255	0,129	0,031
-69,694	146,742	-0,150	-0,143
-68,680	-200,000	0,029	0,176
-67,665	800,000	-0,025	0,074
-66,651	165,835	-0,132	0,132
-65,636	67,565	-0,027	-0,020
-64,622	54,090	-0,036	-0,024
-63,607	-98,334	-0,088	-0,016
-62,592	695,332	0,041	-0,076
-61,578	800,000	-0,037	-0,098
-60,563	-42,279	-0,114	0,041
-59,549	800,000	0,050	0,109
-58,534	-25,119	-1,720	-0,719
-57,519	525,037	-1,295	-2,166
-56,505	-200,000	-0,529	-4,631
-55,490	209,778	0,952	1,058
-54,476	800,000	4,950	11,393
-53,461	-200,000	19,215	319,918
-52,446	-200,000	740,508	2333,632
-51,432	573,312	1655,306	2868,462
-50,417	78,326	1671,187	1262,067
-49,403	21,275	1544,130	885,531
-48,388	15,170	1466,565	811,359
-47,373	17,893	1456,943	819,166
-46,359	16,688	1446,502	807,481
-45,344	13,399	1441,989	789,176
-44,330	13,336	1439,992	787,748
-43,315	13,341	1438,230	786,777
-42,300	13,336	1436,719	785,898
-41,286	13,402	1435,361	785,438
-40,271	13,309	1434,112	784,278
-39,257	13,306	1432,638	783,430
-38,242	13,353	1431,436	782,961
-37,227	13,341	1430,261	782,231
-36,213	13,384	1428,735	781,571
-35,198	13,403	1427,826	781,132
-34,184	13,428	1426,966	780,748
-33,169	13,392	1425,431	779,711
-32,154	13,472	1424,121	779,338
-31,140	13,443	1422,985	778,550
-30,125	13,389	1422,118	777,791
-29,111	13,428	1421,018	777,340
-28,096	13,394	1419,789	776,479
-27,082	13,319	1418,751	775,523
-26,067	13,351	1417,527	774,975
-25,052	13,325	1416,447	774,234
-24,038	13,296	1415,608	773,609
-23,023	13,282	1414,627	772,973
-22,009	13,316	1413,409	772,437
-20,994	13,283	1412,734	771,885
-19,979	13,298	1411,672	771,340
-18,965	13,279	1410,622	770,650
-17,950	13,223	1409,934	769,981
-16,936	13,262	1408,925	769,579
-15,921	13,215	1407,839	768,737
-14,906	13,218	1406,951	768,238
-13,892	13,250	1406,167	767,926
-12,877	13,251	1405,186	767,365
-11,863	13,280	1404,009	766,829
-10,848	13,210	1403,642	766,269
-9,833	13,189	1402,643	765,598
-8,819	13,132	1401,757	764,819
-7,804	13,157	1400,730	764,341
-6,790	13,146	1399,704	763,701
-5,775	13,114	1398,782	763,020
-4,760	13,119	1397,667	762,405
-3,746	13,114	1396,807	761,880
-2,731	13,121	1396,085	761,489
-1,717	13,098	1395,076	760,805
-0,702	13,072	1393,157	759,605
0,313	16,935	1310,273	732,306
1,327	33,124	704,133	430,974
2,342	50,876	123,577	82,694
3,356	0,018	16,525	8,300
4,371	-7,342	3,251	1,552
5,386	-18,457	0,579	0,254
6,400	-200,000	-0,056	0,227
7,415	48,520	-0,356	-0,235
8,429	2,457	-0,230	-0,117
9,444	176,837	-0,341	-0,351
10,459	252,655	-0,231	-0,280
11,473	62,674	-0,322	-0,227
12,488	61,437	-0,210	-0,147
13,502	118,761	-0,262	-0,229
14,517	116,409	-0,333	-0,288
15,531	26,286	-0,365	-0,215
16,546	-55,471	-0,340	-0,107
17,561	70,933	-0,342	-0,250
18,575	-200,000	-0,195	-0,001
19,590	146,413	-0,331	-0,314
20,604	283,572	-0,112	-0,142
21,619	58,089	-0,384	-0,265
22,634	321,020	-0,339	-0,456
23,648	112,131	-0,397	-0,338
24,663	21,002	-0,372	-0,213
25,677	49,001	-0,443	-0,294
26,692	125,937	-0,288	-0,257
27,707	83,438	-0,358	-0,275
28,721	328,195	-0,245	-0,333
29,736	156,868	-0,342	-0,334
30,750	35,690	-0,470	-0,291
31,765	38,228	-0,454	-0,285
32,780	106,138	-0,364	-0,304
33,794	31,546	-0,222	-0,134
34,809	-37,321	-0,523	-0,196
35,823	-58,388	-0,392	-0,120
36,838	54,838	-0,480	-0,326
37,853	173,672	-0,365	-0,372
38,867	-49,545	-0,403	-0,135
39,882	49,619	-0,330	-0,218
40,896	527,644	-0,281	-0,468
41,911	45,626	-0,373	-0,242
42,926	370,677	-0,190	-0,273
43,940	-9,373	-0,388	-0,182
44,955	142,783	-0,324	-0,304
45,969	117,176	-0,306	-0,265
46,984	-72,966	-0,395	-0,102
47,999	-62,005	-0,328	-0,096
49,013	202,919	-0,253	-0,276
50,028	163,688	-0,270	-0,268
51,042	-16,609	-0,459	-0,204
52,057	20,814	-0,352	-0,200
53,071	164,191	-0,320	-0,318
54,086	228,382	-0,160	-0,184
55,101	10,652	-0,256	-0,137
56,115	44,776	-0,338	-0,219
57,130	79,515	-0,322	-0,243
58,144	183,384	-0,221	-0,230
59,159	143,662	-0,377	-0,354
60,174	-9,280	-0,376	-0,176
61,188	37,379	-0,230	-0,143
62,203	111,804	-0,240	-0,204
63,217	-19,453	-0,270	-0,117
64,232	-4,124	-0,330	-0,160
65,247	95,205	-0,456	-0,365
66,261	19,954	-0,480	-0,271
67,276	44,051	-0,366	-0,235
68,290	86,071	-0,268	-0,207
69,305	-8,493	-0,270	-0,127
70,320	163,780	-0,111	-0,110
71,334	-77,002	-0,330	-0,081
72,349	-51,401	-0,384	-0,126
73,363	-69,720	-0,365	-0,097
74,378	94,054	-0,325	-0,259
75,393	-62,363	-0,294	-0,085
76,407	-80,164	-0,339	-0,079
77,422	246,909	-0,178	-0,212
78,436	89,045	-0,318	-0,249
79,451	139,362	-0,236	-0,219
80,466	226,045	-0,265	-0,303
81,480	-36,283	-0,295	-0,111
82,495	-16,398	-0,373	-0,165
83,509	707,761	-0,104	-0,193
84,524	-39,876	-0,209	-0,076
85,539	-81,265	-0,262	-0,060
86,553	94,792	-0,227	-0,181
87,568	-38,856	-0,245	-0,090
88,582	-21,642	-0,397	-0,169
89,597	35,819	-0,325	-0,200
90,611	143,841	-0,231	-0,216
91,626	-16,422	-0,327	-0,145
92,641	-46,234	-0,166	-0,057
93,655	33,161	-0,350	-0,212
94,670	0,749	-0,427	-0,214
95,684	258,730	-0,284	-0,344
96,699	138,021	-0,243	-0,224
97,714	320,750	-0,234	-0,312
98,728	124,172	-0,223	-0,196
99,743	203,742	-0,212	-0,230
100,757	131,578	-0,354	-0,319
101,772	137,610	-0,264	-0,242
102,787	170,352	-0,254	-0,255
103,801	-140,446	-0,340	-0,024
104,816	-116,656	-0,516	-0,066
105,830	135,288	-0,262	-0,239
106,845	-185,231	-0,248	-0,003
107,860	-94,282	-0,361	-0,069
108,874	-59,196	-0,380	-0,114
109,889	16,872	-0,378	-0,209
110,903	541,143	-0,180	-0,301
111,918	42,718	-0,245	-0,156
112,933	37,524	-0,324	-0,201
113,947	461,843	-0,162	-0,254
114,962	743,914	-0,064	-0,122
115,976	57,724	-0,225	-0,154
116,991	249,093	-0,180	-0,214
118,006	-36,329	-0,313	-0,118
119,020	2,691	-0,328	-0,166
120,035	118,756	-0,203	-0,176
121,049	-52,747	-0,206	-0,066
122,064	-64,914	-0,252	-0,071
123,079	246,618	-0,230	-0,272
124,093	-10,601	-0,296	-0,137
125,108	100,620	-0,279	-0,227
126,122	51,860	-0,256	-0,170
127,137	21,966	-0,192	-0,109
128,151	12,413	-0,329	-0,177
129,166	67,773	-0,293	-0,209
130,181	51,604	-0,331	-0,220
131,195	97,679	-0,246	-0,198
132,210	62,578	-0,319	-0,223
133,224	207,958	-0,202	-0,221
134,239	104,327	-0,308	-0,254
135,254	-25,459	-0,290	-0,119
136,268	-48,547	-0,192	-0,064
137,283	29,311	-0,242	-0,143
138,297	187,043	-0,203	-0,211
139,312	232,019	-0,271	-0,311
140,327	79,998	-0,270	-0,202
141,341	0,562	-0,289	-0,144
142,356	48,646	-0,206	-0,135
143,370	464,153	-0,110	-0,173
144,385	44,513	-0,177	-0,114
145,400	330,751	-0,220	-0,297
146,414	-75,909	-0,248	-0,061
147,429	-61,760	-0,260	-0,076
148,443	157,188	-0,211	-0,204
149,458	36,594	-0,280	-0,172
150,473	170,115	-0,160	-0,160
151,487	-122,130	-0,232	0,026
152,502	59,571	-0,239	-0,165
153,516	14,630	-0,319	-0,173
154,531	-82,886	-0,340	-0,076
155,546	800,000	-0,142	-0,279
156,560	-57,989	-0,219	-0,066
157,575	-85,471	-0,269	-0,058
158,589	118,088	-0,219	-0,188
159,604	8,394	-0,316	-0,165
160,619	-18,466	-0,326	-0,141
161,633	105,887	-0,260	-0,214
162,648	94,230	-0,213	-0,169
163,662	-21,956	-0,241	-0,102
164,677	271,751	-0,182	-0,224
165,692	188,672	-0,295	-0,308
166,706	428,732	-0,204	-0,308
167,721	15,255	-0,242	-0,132
168,735	68,867	-0,335	-0,240
169,750	-20,767	-0,330	-0,140
170,764	21,727	-0,174	-0,099
171,779	24,640	-0,204	-0,117
172,794	-3,780	-0,205	-0,099
173,808	-135,936	-0,294	-0,024
174,823	141,716	-0,126	-0,116
175,837	68,883	-0,289	-0,207
176,852	415,708	-0,129	-0,192
177,867	75,964	-0,215	-0,158
178,881	106,623	-0,184	-0,152
179,896	98,753	-0,163	-0,131
180,910	196,024	-0,207	-0,219
181,925	111,620	-0,294	-0,247
182,940	124,288	-0,256	-0,224
183,954	789,650	-0,135	-0,260
184,969	305,913	-0,155	-0,201
185,983	121,343	-0,238	-0,206
186,998	662,547	-0,131	-0,236
188,013	-113,018	-0,295	-0,040
189,027	-13,430	-0,391	-0,176
190,042	326,044	-0,141	-0,188
191,056	46,151	-0,223	-0,144
192,071	183,225	-0,118	-0,122
193,086	-200,000	-0,050	-0,243
194,100	-68,872	-0,213	0,057
195,115	294,971	-0,114	-0,145
196,129	-11,018	-0,158	-0,072
197,144	70,956	-0,227	-0,163
198,159	452,548	-0,202	-0,312
199,173	-15,336	-0,163	-0,072
200,188	421,626	-0,173	-0,259
201,202	-141,164	-0,140	-0,010
202,217	36,783	-0,154	-0,094
203,232	112,164	-0,231	-0,194
204,246	77,687	-0,305	-0,225
205,261	6,920	-0,416	-0,215
206,275	238,969	-0,212	-0,246
207,290	180,959	-0,171	-0,175
208,304	14,157	-0,253	-0,137
209,319	290,874	-0,112	-0,142
210,334	-83,424	-0,298	-0,066
211,348	120,024	-0,194	-0,167
212,363	100,866	-0,236	-0,190
213,377	435,941	-0,142	-0,216
214,392	800,000	-0,067	-0,150
215,407	460,841	-0,106	-0,165
216,421	244,814	-0,137	-0,160
217,436	118,300	-0,204	-0,174
218,450	-104,251	-0,213	-0,034
219,465	-31,592	-0,169	0,065
220,480	95,270	-0,209	-0,165
221,494	65,816	-0,229	-0,161
222,509	160,621	-0,175	-0,169
223,523	162,074	-0,115	-0,112
224,538	-35,015	-0,237	-0,089
225,553	-13,614	-0,319	-0,143
226,567	47,257	-0,287	-0,185
227,582	355,686	-0,195	-0,271
228,596	33,119	-0,250	-0,150
229,611	102,995	-0,113	-0,092
230,626	-37,648	-0,160	-0,059
231,640	31,793	-0,272	-0,162
232,655	25,246	-0,242	-0,139
233,669	-98,954	-0,175	-0,030
234,684	62,991	-0,199	-0,138
235,699	800,000	-0,031	-0,074
236,713	288,352	-0,139	-0,175
237,728	129,465	-0,188	-0,166
238,742	9,852	-0,150	-0,079
239,757	-85,105	-0,183	-0,039
240,772	16,589	-0,192	-0,105
241,786	115,407	-0,219	-0,185
242,801	288,902	-0,166	-0,209
243,815	-0,884	-0,273	-0,133
244,830	-12,464	-0,256	-0,115
245,844	-93,554	-0,241	-0,046
246,859	79,387	-0,315	-0,234
247,874	-4,299	-0,219	-0,105
248,888	-7,938	-0,234	-0,109
249,903	-104,235	-0,171	-0,027
250,917	-6,308	-0,120	-0,056
251,932	-87,296	-0,111	-0,023
252,947	260,276	-0,083	-0,099
253,961	5,824	-0,202	-0,103
254,976	19,925	-0,141	-0,078
255,990	169,203	-0,169	-0,167
257,005	-53,594	-0,258	-0,081
258,020	800,000	-0,121	-0,254
259,034	98,100	-0,140	-0,112
260,049	143,672	-0,146	-0,135
261,063	396,957	-0,064	-0,093
262,078	44,959	-0,159	-0,101
263,093	-54,908	-0,160	-0,049
264,107	55,564	-0,161	-0,108
265,122	-91,679	-0,180	-0,035
266,136	82,636	-0,152	-0,114
267,151	56,877	-0,208	-0,140
268,166	292,847	-0,128	-0,162
269,180	-20,959	-0,251	-0,106
270,195	-48,109	-0,214	-0,071
271,209	285,424	-0,098	-0,123
272,224	-19,688	-0,102	-0,043
273,239	-67,970	-0,254	-0,068
274,253	484,886	-0,108	-0,170
275,268	265,902	-0,168	-0,202
276,282	800,000	-0,091	-0,221
277,297	13,804	-0,189	-0,101
278,312	334,398	-0,116	-0,156
279,326	-108,244	-0,115	-0,017
280,341	272,730	-0,088	-0,108
281,355	300,173	-0,109	-0,139
282,370	280,862	-0,229	-0,284
283,384	-24,091	-0,236	-0,097
284,399	-40,884	-0,214	-0,076
285,414	87,228	-0,267	-0,204
286,428	-111,103	-0,206	-0,029
287,443	4,227	-0,147	-0,074
288,457	136,564	-0,042	-0,038
289,472	90,293	-0,120	-0,092
290,487	86,447	-0,147	-0,112
291,501	800,000	-0,090	-0,185
292,516	12,986	-0,277	-0,147
293,530	301,474	-0,086	-0,109
294,545	7,081	-0,146	-0,075
295,560	800,000	-0,084	-0,213
296,574	41,741	-0,172	-0,107
297,589	-116,378	-0,187	0,024
298,603	59,000	-0,193	-0,131
299,618	134,509	-0,172	-0,154
300,633	800,000	-0,083	-0,192
301,647	800,000	-0,057	-0,118
302,662	-113,275	-0,062	0,008
303,676	-7,475	-0,245	-0,114
304,691	233,311	-0,155	-0,176
305,706	275,511	-0,135	-0,165
306,720	-200,000	-0,027	-0,122
307,735	-76,053	-0,176	0,042
308,749	-2,539	-0,104	-0,050
309,764	-73,735	-0,206	-0,051
310,779	89,769	-0,193	-0,148
311,793	-81,340	-0,092	0,021
312,808	258,051	-0,125	-0,148
313,822	145,153	-0,138	-0,127
314,837	798,385	-0,056	-0,107
315,852	-112,366	-0,080	-0,011
316,866	280,821	-0,163	-0,201
317,881	12,060	-0,142	-0,075
318,895	68,170	-0,121	-0,085
319,910	-65,858	-0,107	-0,029
320,925	393,127	-0,084	-0,120
321,939	206,930	-0,125	-0,134
322,954	187,715	-0,058	-0,060
323,968	-48,282	-0,124	-0,041
324,983	106,169	-0,148	-0,121
325,997	38,139	-0,279	-0,171
327,012	-22,079	-0,144	-0,060
328,027	9,987	-0,168	-0,088
329,041	-200,000	-0,072	-0,242
330,056	572,167	-0,063	-0,106
331,070	167,390	-0,109	-0,106
332,085	370,233	-0,087	-0,122
333,100	800,000	-0,086	-0,191
334,114	-172,135	-0,198	0,004
335,129	-200,000	-0,036	-0,128
336,143	479,353	-0,141	-0,220
337,158	800,000	-0,055	-0,135
338,173	424,386	-0,112	-0,166
339,187	800,000	-0,037	-0,094
340,202	-2,047	-0,152	-0,073
341,216	337,851	-0,060	-0,080
342,231	226,540	-0,123	-0,138
343,246	31,818	-0,156	-0,092
344,260	800,000	-0,052	-0,106
345,275	-144,511	-0,160	-0,010
346,289	-120,622	-0,116	0,013
347,304	-186,949	-0,133	0,001
348,319	158,603	-0,124	-0,118
349,333	-120,778	-0,099	-0,011
350,348	-19,904	-0,119	-0,050
351,362	-69,078	-0,160	-0,042
352,377	-110,914	-0,103	-0,014
353,392	-135,020	-0,108	0,009
354,406	-200,000	0,016	-0,062
355,421	208,707	1312,561	1410,333
356,435	160,603	1473,003	1410,816
