DTS Sentinel unit serial number:	SN410029Multiplexer serial number:	ORYXHardware model number:	OX2-SRSoftware version number:	ORYX F/W v4,00 Oryx Data Collector v3.7.2.0data status	okinstallation	B3 Nyhavnadifferential loss correction	single-endedforward channel	channel 1reverse channel	N/Adate	2023/11/29time	05:37:30forward acquisition time	300,00reverse acquisition time	0,00gamma	499,1914k internal	0,3211k external	0,3211temperature offset calibration	1,0000default loss term (dB/km)	0,3820temperature slope calibration	1,0000multiplexer offset coefficient	1,0000multiplexer slope coefficient	1,0000fibre end	0,00T internal ref (°C)	9,06T ext. ref 1 (°C)	-6,38T ext. ref 2 (°C)	-6,51length (m)	temperature (°C)	Stokes	anti-Stokes-744,400	625,979	-0,167	-0,307
-743,385	-200,000	-0,001	0,108
-742,371	-200,000	-0,058	-0,234
-741,356	-200,000	0,030	0,326
-740,342	-86,760	-0,132	-0,029
-739,327	-200,000	-0,000	0,278
-738,312	-30,132	-0,257	-0,105
-737,298	-200,000	0,048	0,394
-736,283	171,737	-0,191	-0,199
-735,269	368,671	0,135	0,199
-734,254	800,000	-0,091	-0,238
-733,239	-121,464	-0,322	0,038
-732,225	800,000	-0,059	-0,143
-731,210	800,000	0,043	0,088
-730,196	-200,000	-0,016	0,098
-729,181	416,806	-0,097	-0,150
-728,167	-6,277	0,029	0,014
-727,152	28,594	0,055	-0,034
-726,137	-52,176	-0,021	-0,007
-725,123	38,564	-0,042	0,027
-724,108	-126,701	-0,036	-0,004
-723,094	269,299	0,016	-0,020
-722,079	713,320	-0,026	-0,049
-721,064	-129,605	0,143	-0,014
-720,050	-200,000	0,009	0,118
-719,035	-200,000	-0,015	0,138
-718,021	-200,000	-0,006	-0,056
-717,006	537,748	-0,119	-0,206
-715,991	-200,000	-0,022	-0,122
-714,977	73,993	-0,126	-0,096
-713,962	800,000	0,038	0,116
-712,948	40,944	-0,020	-0,013
-711,933	3,854	-0,145	0,077
-710,918	76,626	0,055	-0,042
-709,904	136,116	0,062	-0,058
-708,889	256,216	-0,123	-0,153
-707,875	-92,365	0,119	0,024
-706,860	87,282	-0,071	-0,057
-705,845	458,921	-0,030	-0,048
-704,831	-200,000	0,018	0,219
-703,816	-98,990	-0,122	-0,022
-702,802	63,437	-0,038	0,028
-701,787	-200,000	-0,015	-0,136
-700,772	-112,724	-0,062	0,009
-699,758	-23,889	-0,140	0,061
-698,743	-20,893	-0,059	0,026
-697,729	-49,798	-0,116	-0,040
-696,714	-121,082	-0,045	0,005
-695,699	153,030	-0,053	-0,052
-694,685	56,622	-0,181	-0,127
-693,670	-200,000	-0,012	0,070
-692,656	337,549	-0,068	0,096
-691,641	5,943	0,176	0,094
-690,627	631,115	0,036	-0,065
-689,612	113,548	-0,095	-0,083
-688,597	417,053	-0,082	0,127
-687,583	-24,903	-0,060	-0,026
-686,568	-159,948	-0,184	0,007
-685,554	117,753	0,129	-0,115
-684,539	49,937	0,078	-0,053
-683,524	-104,671	0,035	0,006
-682,510	800,000	-0,026	0,064
-681,495	-54,699	-0,170	-0,055
-680,481	121,381	-0,137	-0,124
-679,466	-200,000	-0,025	-0,125
-678,451	248,224	0,048	0,059
-677,437	800,000	0,044	0,109
-676,422	361,850	0,045	0,065
-675,408	71,666	0,119	0,089
-674,393	31,467	-0,062	-0,038
-673,378	-26,749	0,079	-0,033
-672,364	-68,855	0,086	-0,024
-671,349	-58,569	0,092	0,029
-670,335	69,914	-0,064	0,048
-669,320	404,679	0,080	0,122
-668,305	-200,000	0,023	0,120
-667,291	-40,377	-0,119	0,045
-666,276	186,817	-0,129	0,140
-665,262	-119,956	-0,029	0,004
-664,247	67,092	-0,150	-0,110
-663,232	-200,000	-0,007	-0,104
-662,218	-200,000	0,019	0,097
-661,203	-9,043	-0,088	0,043
-660,189	-200,000	-0,003	0,111
-659,174	-65,495	-0,123	-0,035
-658,159	-200,000	-0,046	-0,192
-657,145	-200,000	-0,025	0,128
-656,130	12,016	0,025	0,014
-655,116	384,641	0,032	-0,048
-654,101	145,108	-0,018	0,017
-653,086	800,000	0,016	-0,045
-652,072	233,122	-0,115	-0,137
-651,057	-200,000	0,044	-0,149
-650,043	-61,097	-0,082	-0,025
-649,028	437,398	0,040	0,063
-648,014	-200,000	0,105	0,000
-646,999	-200,000	0,019	0,132
-645,984	-25,733	-0,171	-0,072
-644,970	63,074	-0,063	-0,046
-643,955	-77,862	-0,099	-0,024
-642,941	107,156	0,012	0,011
-641,926	-41,296	0,053	0,020
-640,911	426,070	-0,036	0,056
-639,897	77,533	0,027	-0,021
-638,882	-200,000	0,003	-0,045
-637,868	800,000	0,044	-0,096
-636,853	719,700	-0,077	-0,148
-635,838	186,943	0,009	-0,010
-634,824	75,172	-0,118	-0,090
-633,809	-72,457	-0,095	-0,025
-632,795	-200,000	0,032	0,123
-631,780	89,639	0,123	0,099
-630,765	425,211	-0,016	-0,024
-629,751	-200,000	0,027	-0,114
-628,736	-200,000	0,009	-0,087
-627,722	581,826	0,087	-0,154
-626,707	21,000	0,080	-0,047
-625,692	44,532	0,155	0,103
-624,678	-47,766	0,075	-0,026
-623,663	458,194	-0,061	-0,098
-622,649	800,000	-0,022	0,047
-621,634	254,362	-0,025	0,031
-620,619	-139,137	-0,050	-0,004
-619,605	156,376	0,096	0,096
-618,590	800,000	0,027	0,074
-617,576	219,163	-0,099	0,114
-616,561	-50,216	0,204	-0,069
-615,546	162,856	-0,044	0,045
-614,532	-59,602	-0,129	-0,040
-613,517	-126,384	0,099	-0,011
-612,503	800,000	0,014	0,044
-611,488	20,764	-0,078	-0,046
-610,474	183,207	0,053	-0,057
-609,459	531,763	0,020	0,034
-608,444	-60,627	-0,108	0,033
-607,430	-88,887	-0,232	-0,049
-606,415	112,994	0,083	-0,073
-605,401	209,235	-0,022	0,025
-604,386	46,314	-0,096	0,064
-603,371	-200,000	-0,000	0,102
-602,357	-200,000	-0,028	-0,107
-601,342	420,486	-0,040	-0,062
-600,328	119,293	-0,071	0,063
-599,313	491,904	-0,054	-0,090
-598,298	-124,183	0,071	-0,008
-597,284	-4,581	-0,125	-0,062
-596,269	56,087	0,108	0,075
-595,255	299,656	-0,034	0,046
-594,240	-200,000	0,001	-0,027
-593,225	-34,073	-0,132	0,052
-592,211	102,278	-0,097	-0,081
-591,196	308,803	0,065	0,087
-590,182	33,395	-0,041	-0,025
-589,167	94,947	0,127	0,104
-588,152	65,192	-0,031	-0,022
-587,138	-200,000	-0,008	-0,149
-586,123	-61,344	0,039	-0,012
-585,109	800,000	-0,032	-0,082
-584,094	15,177	0,127	-0,071
-583,079	-0,923	-0,058	-0,029
-582,065	-73,421	-0,018	0,005
-581,050	-200,000	-0,000	0,010
-580,036	396,343	-0,073	-0,111
-579,021	248,868	0,070	0,086
-578,006	116,603	-0,039	-0,034
-576,992	-0,593	-0,131	0,067
-575,977	800,000	-0,026	-0,070
-574,963	-200,000	-0,006	0,041
-573,948	-143,524	-0,058	-0,004
-572,934	-200,000	0,015	0,081
-571,919	-200,000	-0,017	-0,075
-570,904	-24,579	0,041	0,017
-569,890	-108,564	0,120	0,018
-568,875	272,153	-0,097	0,123
-567,861	-200,000	0,013	-0,126
-566,846	730,204	0,014	-0,028
-565,831	-200,000	0,024	0,139
-564,817	185,365	-0,027	0,029
-563,802	-100,157	-0,041	-0,007
-562,788	-112,268	0,153	-0,022
-561,773	800,000	0,046	-0,140
-560,758	800,000	-0,029	0,076
-559,744	341,162	-0,068	0,096
-558,729	-200,000	0,013	0,181
-557,715	66,617	0,074	-0,054
-556,700	567,817	-0,057	-0,099
-555,685	-130,720	0,045	0,004
-554,671	-200,000	-0,014	0,077
-553,656	-200,000	0,008	0,080
-552,642	159,668	-0,105	0,105
-551,627	458,211	-0,050	0,080
-550,612	800,000	-0,039	0,089
-549,598	-119,818	-0,065	0,008
-548,583	-200,000	-0,001	-0,192
-547,569	-0,992	-0,156	0,079
-546,554	-200,000	-0,016	0,116
-545,539	800,000	-0,021	-0,051
-544,525	767,540	-0,038	0,075
-543,510	-11,795	0,125	0,059
-542,496	769,188	-0,028	-0,055
-541,481	498,285	-0,026	-0,043
-540,466	-200,000	0,023	-0,111
-539,452	336,477	0,015	-0,021
-538,437	800,000	-0,002	0,007
-537,423	33,551	-0,071	0,045
-536,408	388,751	0,015	0,022
-535,393	-200,000	-0,009	-0,108
-534,379	-75,526	0,116	-0,029
-533,364	-50,481	0,094	0,032
-532,350	409,710	-0,085	-0,130
-531,335	-200,000	-0,026	0,103
-530,321	-69,582	0,115	0,031
-529,306	-65,391	-0,195	-0,056
-528,291	800,000	-0,033	0,092
-527,277	17,718	-0,143	0,081
-526,262	-97,397	0,089	0,017
-525,248	800,000	0,016	0,043
-524,233	71,939	0,103	0,077
-523,218	800,000	-0,013	0,036
-522,204	-70,227	0,012	0,003
-521,189	-200,000	-0,040	-0,129
-520,175	-200,000	-0,030	-0,113
-519,160	266,902	-0,048	0,060
-518,145	-98,525	0,150	-0,027
-517,131	356,654	0,099	0,142
-516,116	685,853	0,054	0,102
-515,102	-133,089	-0,100	-0,009
-514,087	151,371	-0,025	-0,024
-513,072	313,691	-0,086	-0,116
-512,058	-200,000	0,016	-0,063
-511,043	-66,382	-0,087	-0,025
-510,029	-134,666	0,083	0,007
-509,014	201,184	-0,023	0,026
-507,999	-200,000	0,015	-0,053
-506,985	-200,000	-0,010	-0,071
-505,970	376,498	-0,043	-0,063
-504,956	-39,848	0,083	0,031
-503,941	800,000	0,022	-0,064
-502,926	41,465	0,046	-0,030
-501,912	122,645	0,061	0,055
-500,897	800,000	0,034	-0,092
-499,883	-104,482	0,129	-0,021
-498,868	-200,000	-0,010	0,039
-497,853	800,000	0,034	-0,071
-496,839	88,044	0,052	-0,041
-495,824	-200,000	-0,004	0,064
-494,810	-25,601	-0,023	-0,010
-493,795	386,832	-0,078	0,115
-492,781	448,729	0,054	0,086
-491,766	652,486	0,017	0,031
-490,751	-3,771	-0,076	0,038
-489,737	-87,887	-0,078	0,017
-488,722	418,316	-0,113	-0,174
-487,708	124,162	-0,057	0,051
-486,693	-44,671	0,152	0,054
-485,678	246,552	-0,043	0,052
-484,664	140,083	-0,093	-0,088
-483,649	-134,844	0,088	0,008
-482,635	-200,000	0,006	-0,054
-481,620	-125,386	0,073	0,008
-480,605	-56,519	-0,093	0,029
-479,591	-34,830	0,093	0,036
-478,576	-72,263	-0,151	0,040
-477,562	35,385	-0,031	-0,019
-476,547	179,002	-0,033	-0,035
-475,532	286,145	-0,074	0,096
-474,518	594,519	0,037	-0,066
-473,503	55,916	0,037	0,026
-472,489	-200,000	-0,004	-0,141
-471,474	-119,732	-0,061	0,007
-470,459	-200,000	0,004	-0,076
-469,445	-200,000	0,001	-0,016
-468,430	122,594	-0,179	0,161
-467,416	-200,000	-0,047	0,182
-466,401	-200,000	0,008	0,208
-465,386	800,000	-0,019	-0,042
-464,372	379,477	0,113	0,166
-463,357	-114,976	0,034	-0,005
-462,343	800,000	-0,047	-0,139
-461,328	-200,000	0,035	-0,134
-460,313	-116,093	0,051	-0,007
-459,299	-24,891	-0,033	-0,014
-458,284	58,478	0,076	0,053
-457,270	119,597	-0,052	-0,046
-456,255	800,000	-0,050	-0,113
-455,241	644,849	-0,036	0,066
-454,226	348,764	-0,096	-0,137
-453,211	-107,244	-0,172	0,027
-452,197	800,000	0,013	0,037
-451,182	-200,000	-0,003	0,051
-450,168	-200,000	0,038	0,130
-449,153	-117,621	-0,064	0,008
-448,138	82,677	-0,006	-0,005
-447,124	-200,000	-0,007	-0,119
-446,109	-50,185	0,122	-0,041
-445,095	-200,000	0,009	-0,148
-444,080	-200,000	0,040	0,161
-443,065	800,000	-0,027	0,073
-442,051	800,000	-0,034	-0,086
-441,036	-87,239	-0,046	0,010
-440,022	477,537	-0,035	-0,057
-439,007	-26,450	-0,032	0,013
-437,992	434,028	0,081	0,127
-436,978	-48,680	0,054	0,018
-435,963	800,000	0,031	-0,072
-434,949	-0,417	-0,090	-0,046
-433,934	-200,000	0,033	-0,109
-432,919	275,163	-0,056	-0,071
-431,905	293,112	0,079	-0,103
-430,890	45,828	0,068	-0,045
-429,876	-116,314	0,073	-0,010
-428,861	-200,000	0,001	0,031
-427,846	-200,000	0,004	0,071
-426,832	26,032	-0,021	0,013
-425,817	390,003	-0,094	-0,140
-424,803	800,000	-0,026	0,065
-423,788	-97,729	0,108	0,020
-422,773	284,280	-0,081	0,105
-421,759	162,375	0,021	-0,021
-420,744	-148,859	0,048	0,003
-419,730	703,662	0,087	-0,165
-418,715	27,449	0,112	-0,067
-417,701	343,874	0,003	-0,005
-416,686	70,113	0,053	0,039
-415,671	-54,863	0,133	0,043
-414,657	162,326	-0,115	0,115
-413,642	-163,078	-0,173	0,006
-412,628	-45,848	-0,079	0,028
-411,613	-132,302	-0,133	0,012
-410,598	-200,000	-0,019	-0,125
-409,584	71,580	-0,114	-0,085
-408,569	37,038	0,130	0,082
-407,555	-19,731	-0,016	-0,007
-406,540	-75,084	0,091	-0,023
-405,525	264,103	-0,076	-0,094
-404,511	-0,255	-0,089	0,045
-403,496	31,861	-0,039	-0,024
-402,482	260,904	0,030	-0,037
-401,467	-136,642	0,059	0,005
-400,452	-200,000	0,030	0,266
-399,438	298,329	0,110	0,146
-398,423	-200,000	-0,024	0,098
-397,409	83,537	0,059	-0,046
-396,394	-63,589	-0,022	-0,006
-395,379	157,995	-0,094	0,093
-394,365	43,950	0,138	0,091
-393,350	-41,093	0,076	0,028
-392,336	55,883	-0,152	-0,105
-391,321	-200,000	0,010	-0,104
-390,306	800,000	0,037	-0,100
-389,292	87,954	0,050	-0,040
-388,277	-122,331	0,097	-0,011
-387,263	800,000	-0,032	-0,085
-386,248	-124,097	-0,039	0,004
-385,233	-200,000	-0,032	-0,130
-384,219	-66,237	-0,029	-0,008
-383,204	-13,581	0,085	0,039
-382,190	69,757	-0,040	-0,029
-381,175	-98,662	-0,096	0,017
-380,160	142,994	0,087	-0,083
-379,146	440,257	-0,052	-0,082
-378,131	133,737	-0,011	-0,010
-377,117	800,000	0,028	0,086
-376,102	-14,322	-0,074	-0,034
-375,088	7,792	0,027	0,015
-374,073	-200,000	0,009	0,074
-373,058	-200,000	-0,020	0,132
-372,044	284,820	0,066	-0,085
-371,029	-77,192	0,045	0,011
-370,015	71,218	0,066	-0,049
-369,000	-200,000	0,020	-0,134
-367,985	18,623	0,009	-0,005
-366,971	-164,282	0,001	0,000
-365,956	-200,000	0,030	0,108
-364,942	12,700	0,107	0,059
-363,927	-200,000	0,030	0,109
-362,912	800,000	-0,029	-0,060
-361,898	214,316	-0,098	-0,111
-360,883	-132,971	-0,043	-0,004
-359,869	-200,000	-0,015	-0,062
-358,854	-101,820	0,176	0,030
-357,839	-21,621	0,011	0,005
-356,825	-102,426	-0,035	-0,006
-355,810	753,392	0,026	0,050
-354,796	-105,250	-0,138	-0,022
-353,781	800,000	-0,062	-0,149
-352,766	-150,829	0,102	0,005
-351,752	-85,030	-0,040	-0,009
-350,737	9,568	-0,054	0,029
-349,723	422,148	0,039	0,060
-348,708	-200,000	-0,006	0,070
-347,693	548,781	0,021	0,036
-346,679	-60,124	-0,188	-0,057
-345,664	-10,836	-0,076	0,036
-344,650	94,795	0,092	0,075
-343,635	-49,923	0,043	-0,014
-342,620	-200,000	-0,054	0,183
-341,606	-200,000	0,016	-0,106
-340,591	-200,000	0,017	-0,101
-339,577	-200,000	0,033	-0,125
-338,562	-200,000	-0,049	-0,161
-337,548	800,000	-0,008	-0,017
-336,533	69,661	-0,030	0,022
-335,518	70,219	-0,054	-0,040
-334,504	9,547	-0,161	0,087
-333,489	71,722	0,020	-0,015
-332,475	-64,619	-0,081	-0,023
-331,460	184,529	0,047	-0,050
-330,445	-66,237	-0,015	-0,004
-329,431	9,181	0,095	-0,051
-328,416	33,953	0,119	0,073
-327,402	133,430	-0,144	0,133
-326,387	-200,000	0,017	0,111
-325,372	-110,444	-0,026	-0,004
-324,358	-108,930	0,023	-0,003
-323,343	-156,703	0,097	-0,004
-322,329	-164,534	-0,107	0,003
-321,314	-200,000	0,030	0,119
-320,299	-13,004	-0,170	0,079
-319,285	-200,000	0,005	-0,069
-318,270	53,578	0,058	-0,039
-317,256	-2,196	-0,135	-0,067
-316,241	188,804	0,101	-0,108
-315,226	585,113	-0,076	-0,133
-314,212	-73,450	0,073	0,019
-313,197	-200,000	-0,007	0,082
-312,183	492,798	0,061	-0,100
-311,168	-64,948	-0,044	-0,013
-310,153	466,958	-0,076	-0,123
-309,139	250,744	0,031	0,038
-308,124	-173,385	0,099	0,002
-307,110	-47,747	0,201	0,069
-306,095	316,034	-0,056	0,076
-305,080	143,036	0,080	-0,076
-304,066	10,560	-0,075	0,040
-303,051	452,888	0,096	-0,152
-302,037	800,000	0,042	-0,125
-301,022	128,477	-0,045	0,041
-300,008	427,099	-0,033	0,051
-298,993	429,754	0,042	0,065
-297,978	-174,421	0,052	-0,001
-296,964	-149,042	-0,083	0,005
-295,949	176,374	-0,025	-0,026
-294,935	24,677	0,100	-0,059
-293,920	-154,920	-0,027	0,001
-292,905	-200,000	-0,013	0,147
-291,891	-200,000	0,034	0,121
-290,876	685,016	-0,004	-0,007
-289,862	267,253	0,052	0,064
-288,847	800,000	0,008	0,021
-287,832	-84,669	-0,076	-0,017
-286,818	140,967	-0,055	0,052
-285,803	-200,000	-0,019	0,127
-284,789	-200,000	-0,014	0,087
-283,774	800,000	0,050	0,142
-282,759	464,469	0,021	0,033
-281,745	43,721	0,155	-0,101
-280,730	-200,000	0,034	-0,138
-279,716	176,220	0,008	0,009
-278,701	14,814	0,124	-0,069
-277,686	-200,000	-0,007	-0,123
-276,672	-18,405	0,163	0,072
-275,657	-3,679	0,083	0,041
-274,643	-38,320	-0,133	0,050
-273,628	324,373	-0,059	-0,080
-272,613	85,139	0,113	-0,088
-271,599	154,235	0,043	-0,042
-270,584	-120,614	0,108	-0,013
-269,570	-50,066	0,065	0,022
-268,555	18,565	-0,017	0,009
-267,540	800,000	-0,016	0,035
-266,526	-200,000	-0,026	-0,113
-265,511	-143,400	-0,075	0,005
-264,497	-200,000	-0,009	0,041
-263,482	85,898	-0,061	0,048
-262,467	318,147	-0,082	-0,111
-261,453	6,831	0,083	0,044
-260,438	-200,000	0,021	0,069
-259,424	-200,000	-0,009	-0,071
-258,409	104,477	0,023	0,020
-257,395	-80,396	-0,100	-0,023
-256,380	426,202	0,061	0,094
-255,365	800,000	-0,029	0,063
-254,351	-140,438	-0,130	-0,009
-253,336	-200,000	0,001	0,022
-252,322	-129,089	0,104	0,010
-251,307	-65,598	-0,038	0,011
-250,292	276,604	0,091	-0,116
-249,278	-110,004	0,127	0,019
-248,263	-154,862	-0,019	0,001
-247,249	691,654	-0,051	-0,096
-246,234	-200,000	0,001	-0,024
-245,219	14,745	0,136	0,076
-244,205	-78,381	0,078	-0,019
-243,190	-200,000	-0,037	0,139
-242,176	-200,000	-0,013	0,146
-241,161	187,215	0,111	0,117
-240,146	152,402	-0,067	-0,065
-239,132	53,904	0,086	0,059
-238,117	516,658	-0,034	-0,057
-237,103	45,359	-0,067	0,044
-236,088	105,704	-0,044	0,037
-235,073	-80,327	0,119	0,028
-234,059	226,711	-0,082	0,095
-233,044	185,635	0,039	0,042
-232,030	-118,669	-0,002	-0,000
-231,015	-200,000	-0,005	-0,090
-230,000	-200,000	-0,002	-0,010
-228,986	-200,000	0,013	-0,111
-227,971	-43,874	0,128	-0,045
-226,957	800,000	0,029	-0,080
-225,942	49,743	-0,044	-0,029
-224,927	-83,129	-0,111	0,025
-223,913	-71,506	0,097	-0,026
-222,898	800,000	0,021	-0,047
-221,884	22,891	0,112	0,065
-220,869	-54,247	0,082	-0,026
-219,855	800,000	-0,027	-0,073
-218,840	-200,000	0,003	0,142
-217,825	441,508	-0,077	-0,120
-216,811	385,962	-0,022	0,032
-215,796	313,105	-0,044	-0,059
-214,782	230,529	0,058	0,068
-213,767	800,000	-0,078	-0,158
-212,752	-12,516	0,128	0,059
-211,738	-39,091	-0,021	0,008
-210,723	800,000	0,010	0,020
-209,709	477,152	0,019	0,030
-208,694	-200,000	0,002	0,089
-207,679	0,337	-0,052	-0,026
-206,665	800,000	0,060	-0,152
-205,650	11,254	-0,116	-0,063
-204,636	67,783	0,072	0,052
-203,621	44,228	-0,096	-0,062
-202,606	-200,000	0,013	0,096
-201,592	-200,000	0,049	-0,167
-200,577	4,287	-0,088	-0,046
-199,563	-200,000	-0,006	0,047
-198,548	-200,000	-0,013	0,099
-197,533	-24,512	0,061	-0,025
-196,519	182,583	-0,045	0,048
-195,504	-200,000	-0,019	0,114
-194,490	1,276	-0,077	0,039
-193,475	-53,305	-0,099	-0,032
-192,460	-83,052	0,030	0,007
-191,446	-72,616	-0,161	0,042
-190,431	800,000	0,039	0,111
-189,417	-200,000	-0,007	0,031
-188,402	800,000	-0,014	0,043
-187,387	-18,446	0,042	-0,019
-186,373	426,240	-0,037	-0,057
-185,358	43,261	0,065	0,042
-184,344	192,806	0,040	-0,043
-183,329	-105,592	0,051	0,008
-182,315	497,875	0,035	-0,057
-181,300	-200,000	0,012	-0,064
-180,285	138,603	-0,041	0,038
-179,271	111,648	-0,125	-0,107
-178,256	55,500	-0,085	0,058
-177,242	-200,000	0,014	0,120
-176,227	800,000	0,056	0,117
-175,212	800,000	-0,032	0,072
-174,198	246,820	0,048	-0,058
-173,183	-131,228	0,081	-0,008
-172,169	-200,000	0,008	-0,153
-171,154	-200,000	-0,003	0,125
-170,139	-66,747	0,169	0,047
-169,125	-200,000	-0,002	-0,053
-168,110	800,000	0,046	0,130
-167,096	800,000	-0,027	0,059
-166,081	3,252	-0,060	-0,031
-165,066	-200,000	-0,006	-0,037
-164,052	13,922	0,084	0,046
-163,037	307,695	-0,069	-0,091
-162,023	-200,000	0,007	-0,035
-161,008	-19,296	0,095	0,041
-159,993	195,437	0,081	0,087
-158,979	235,759	-0,057	-0,067
-157,964	-129,000	-0,117	-0,012
-156,950	-200,000	-0,005	-0,082
-155,935	161,290	0,090	-0,089
-154,920	43,833	0,129	0,084
-153,906	111,413	-0,061	0,052
-152,891	-47,760	0,085	0,029
-151,877	800,000	0,040	-0,111
-150,862	-200,000	-0,021	-0,129
-149,847	273,573	0,044	0,055
-148,833	-200,000	0,013	0,041
-147,818	52,412	0,161	0,109
-146,804	800,000	-0,029	0,065
-145,789	-76,846	0,164	0,040
-144,775	80,993	-0,012	0,009
-143,760	-200,000	0,009	0,044
-142,745	193,968	-0,031	-0,033
-141,731	157,931	-0,119	-0,117
-140,716	149,311	0,059	0,056
-139,702	66,057	-0,109	-0,078
-138,687	384,803	-0,020	0,030
-137,672	20,716	0,045	0,026
-136,658	-102,120	-0,106	0,018
-135,643	-25,712	0,137	0,057
-134,629	-7,255	-0,022	-0,011
-133,614	-167,779	0,109	-0,003
-132,599	-200,000	-0,008	0,084
-131,585	-200,000	0,001	0,079
-130,570	165,348	-0,018	-0,018
-129,556	-109,447	-0,016	0,002
-128,541	-74,838	0,074	-0,019
-127,526	-200,000	-0,017	-0,056
-126,512	25,190	0,160	0,094
-125,497	-200,000	0,009	0,072
-124,483	-200,000	0,009	0,151
-123,468	175,228	-0,046	-0,048
-122,453	-155,815	-0,126	-0,006
-121,439	70,011	-0,028	0,020
-120,424	376,155	-0,072	-0,104
-119,410	705,872	-0,060	0,113
-118,395	-63,476	0,209	0,060
-117,380	255,379	0,082	0,100
-116,366	-21,352	-0,005	0,002
-115,351	-117,633	0,013	-0,002
-114,337	-115,426	-0,089	0,012
-113,322	800,000	0,007	-0,014
-112,307	-5,631	-0,046	0,022
-111,293	49,148	-0,028	0,019
-110,278	11,396	0,031	-0,017
-109,264	800,000	0,031	-0,063
-108,249	-200,000	-0,005	0,020
-107,234	-200,000	0,009	0,070
-106,220	170,348	-0,046	0,047
-105,205	759,215	-0,042	-0,081
-104,191	-35,330	0,108	0,041
-103,176	-200,000	0,015	0,049
-102,162	67,223	0,137	0,099
-101,147	-45,396	-0,026	0,009
-100,132	-23,772	-0,081	-0,034
-99,118	113,375	-0,104	-0,089
-98,103	-200,000	0,000	-0,058
-97,089	-99,943	0,110	0,019
-96,074	-38,405	0,141	0,053
-95,059	-200,000	-0,000	0,069
-94,045	-200,000	-0,008	-0,062
-93,030	625,406	-0,074	-0,133
-92,016	800,000	0,043	0,106
-91,001	207,038	0,069	-0,076
-89,986	-200,000	0,021	0,125
-88,972	800,000	-0,050	0,112
-87,957	-85,739	0,055	0,012
-86,943	-200,000	-0,016	0,106
-85,928	-70,499	0,145	-0,038
-84,913	627,619	0,040	-0,072
-83,899	-200,000	0,003	-0,169
-82,884	-159,929	0,084	-0,003
-81,870	-166,413	0,057	0,002
-80,855	285,810	-0,105	0,134
-79,840	-19,671	0,153	0,067
-78,826	-200,000	0,011	-0,086
-77,811	-27,736	-0,076	-0,031
-76,797	-134,464	-0,069	-0,006
-75,782	153,953	0,072	-0,070
-74,767	666,626	0,037	0,068
-73,753	122,983	-0,084	-0,074
-72,738	65,059	-0,044	0,032
-71,724	652,169	0,025	-0,045
-70,709	-48,800	0,051	-0,017
-69,694	-185,934	-0,097	0,001
-68,680	-10,594	0,029	-0,014
-67,665	-200,000	0,001	0,087
-66,651	405,263	0,094	0,140
-65,636	-145,447	-0,104	0,007
-64,622	262,613	-0,028	-0,035
-63,607	-200,000	-0,031	-0,148
-62,592	-200,000	0,014	0,047
-61,578	800,000	0,026	0,074
-60,563	-60,751	0,148	0,044
-59,549	367,453	-0,114	0,163
-58,534	37,221	-2,097	-1,309
-57,519	738,272	-0,969	-1,843
-56,505	-200,000	-0,395	-4,303
-55,490	638,203	0,892	1,607
-54,476	800,000	5,158	11,338
-53,461	-200,000	21,809	337,385
-52,446	800,000	759,944	2301,706
-51,432	535,025	1654,121	2778,667
-50,417	69,570	1651,370	1198,881
-49,403	16,705	1525,949	849,340
-48,388	10,867	1450,630	779,302
-47,373	18,963	1442,217	813,429
-46,359	14,207	1431,180	784,662
-45,344	9,192	1427,274	758,711
-44,330	9,151	1425,211	757,390
-43,315	9,101	1423,417	756,173
-42,300	9,141	1421,854	755,500
-41,286	9,142	1420,500	754,756
-40,271	9,145	1419,138	754,018
-39,257	9,143	1418,020	753,382
-38,242	9,145	1416,885	752,762
-37,227	9,164	1415,737	752,208
-36,213	9,140	1414,533	751,425
-35,198	9,153	1413,214	750,757
-34,184	9,181	1412,451	750,455
-33,169	9,113	1411,075	749,373
-32,154	9,175	1410,006	749,069
-31,140	9,091	1408,859	748,036
-30,125	9,189	1407,605	747,798
-29,111	9,139	1406,490	746,941
-28,096	9,132	1405,318	746,256
-27,082	9,107	1404,005	745,415
-26,067	9,119	1402,760	744,777
-25,052	9,090	1402,016	744,221
-24,038	9,133	1401,015	743,858
-23,023	9,089	1400,060	743,116
-22,009	9,081	1399,144	742,565
-20,994	9,092	1398,220	742,095
-19,979	9,059	1397,282	741,413
-18,965	9,081	1396,160	740,894
-17,950	9,053	1395,271	740,263
-16,936	9,018	1394,467	739,643
-15,921	8,957	1393,467	738,802
-14,906	9,007	1392,534	738,506
-13,892	9,069	1391,385	738,156
-12,877	9,033	1390,671	737,582
-11,863	8,999	1390,024	737,053
-10,848	9,002	1389,049	736,520
-9,833	8,914	1388,231	735,651
-8,819	8,910	1387,253	735,083
-7,804	8,886	1386,393	734,491
-6,790	8,897	1385,302	733,933
-5,775	8,893	1384,398	733,408
-4,760	8,918	1383,377	732,951
-3,746	8,963	1382,281	732,550
-2,731	8,956	1381,365	732,002
-1,717	8,921	1380,530	731,368
-0,702	8,912	1378,949	730,462
0,313	12,811	1290,832	701,545
1,327	28,676	682,816	406,725
2,342	44,131	117,699	75,983
3,356	0,676	16,515	8,305
4,371	-0,089	3,770	1,886
5,386	-2,070	1,133	0,559
6,400	800,000	0,220	0,502
7,415	-5,421	-0,140	-0,068
8,429	81,693	-0,169	-0,129
9,444	152,365	-0,262	-0,252
10,459	-125,749	-0,340	-0,036
11,473	130,788	-0,252	-0,228
12,488	28,095	-0,258	-0,153
13,502	-110,695	-0,343	-0,049
14,517	64,031	-0,292	-0,207
15,531	66,835	-0,365	-0,262
16,546	59,175	-0,294	-0,204
17,561	70,837	-0,331	-0,241
18,575	-87,384	-0,176	-0,037
19,590	-11,110	-0,253	-0,117
20,604	-46,597	-0,247	-0,085
21,619	11,510	-0,533	-0,287
22,634	193,460	-0,336	-0,358
23,648	59,057	-0,337	-0,233
24,663	-20,735	-0,490	-0,211
25,677	1,836	-0,414	-0,209
26,692	-19,178	-0,388	-0,169
27,707	18,620	-0,305	-0,171
28,721	114,455	-0,367	-0,315
29,736	-9,543	-0,443	-0,207
30,750	68,628	-0,366	-0,264
31,765	-58,962	-0,417	-0,126
32,780	149,785	-0,332	-0,317
33,794	78,851	-0,304	-0,229
34,809	68,748	-0,304	-0,219
35,823	174,989	-0,355	-0,362
36,838	53,179	-0,380	-0,255
37,853	14,312	-0,449	-0,245
38,867	68,498	-0,393	-0,283
39,882	167,214	-0,268	-0,267
40,896	120,914	-0,265	-0,232
41,911	82,795	-0,360	-0,274
42,926	54,789	-0,418	-0,283
43,940	87,766	-0,313	-0,243
44,955	-9,876	-0,369	-0,172
45,969	156,277	-0,412	-0,399
46,984	182,828	-0,259	-0,269
47,999	95,105	-0,307	-0,245
49,013	-14,124	-0,419	-0,189
50,028	3,261	-0,291	-0,148
51,042	76,248	-0,287	-0,214
52,057	-49,730	-0,541	-0,180
53,071	82,801	-0,346	-0,264
54,086	129,391	-0,328	-0,294
55,101	52,551	-0,364	-0,244
56,115	23,529	-0,372	-0,214
57,130	-2,099	-0,261	-0,128
58,144	-12,221	-0,455	-0,208
59,159	144,369	-0,338	-0,317
60,174	-80,566	-0,421	-0,098
61,188	182,949	-0,346	-0,359
62,203	65,736	-0,300	-0,213
63,217	227,703	-0,192	-0,219
64,232	-118,813	-0,394	-0,048
65,247	-16,525	-0,336	-0,149
66,261	167,024	-0,303	-0,302
67,276	-24,534	-0,358	-0,149
68,290	-54,708	-0,477	-0,150
69,305	96,948	-0,184	-0,148
70,320	0,146	-0,370	-0,185
71,334	-122,291	-0,236	-0,027
72,349	151,024	-0,372	-0,355
73,363	218,256	-0,178	-0,199
74,378	-8,091	-0,467	-0,220
75,393	36,688	-0,423	-0,261
76,407	-74,861	-0,334	-0,083
77,422	-41,032	-0,357	-0,129
78,436	-35,775	-0,307	-0,116
79,451	76,761	-0,211	-0,157
80,466	39,120	-0,329	-0,206
81,480	-1,962	-0,268	-0,132
82,495	-2,362	-0,371	-0,182
83,509	30,442	-0,375	-0,224
84,524	54,337	-0,167	-0,113
85,539	340,554	-0,252	-0,346
86,553	-6,156	-0,315	-0,150
87,568	-9,220	-0,377	-0,176
88,582	98,988	-0,226	-0,183
89,597	256,693	-0,212	-0,255
90,611	88,516	-0,286	-0,223
91,626	-72,278	-0,289	-0,074
92,641	68,352	-0,195	-0,139
93,655	-46,073	-0,179	-0,061
94,670	-95,068	-0,402	-0,075
95,684	179,282	-0,196	-0,201
96,699	-61,675	-0,307	-0,089
97,714	-36,549	-0,320	-0,120
98,728	-15,855	-0,205	-0,091
99,743	40,328	-0,244	-0,153
100,757	-11,110	-0,277	-0,127
101,772	178,969	-0,270	-0,276
102,787	462,915	-0,172	-0,270
103,801	16,419	-0,330	-0,182
104,816	74,011	-0,269	-0,197
105,830	45,822	-0,249	-0,161
106,845	57,437	-0,228	-0,156
107,860	800,000	-0,124	-0,256
108,874	-14,435	-0,265	-0,119
109,889	63,236	-0,264	-0,184
110,903	-35,695	-0,295	-0,111
111,918	86,920	-0,242	-0,186
112,933	54,273	-0,258	-0,173
113,947	2,319	-0,178	-0,090
114,962	-3,246	-0,307	-0,149
115,976	81,786	-0,240	-0,181
116,991	-24,676	-0,338	-0,140
118,006	36,031	-0,257	-0,157
119,020	376,751	-0,158	-0,226
120,035	-2,155	-0,221	-0,108
121,049	167,285	-0,230	-0,229
122,064	444,126	-0,218	-0,334
123,079	26,491	-0,209	-0,122
124,093	16,800	-0,244	-0,135
125,108	-116,707	-0,321	-0,041
126,122	39,500	-0,251	-0,157
127,137	328,065	-0,110	-0,147
128,151	-57,780	-0,221	-0,067
129,166	-2,188	-0,302	-0,147
130,181	-56,530	-0,176	0,054
131,195	5,887	-0,268	-0,138
132,210	33,982	-0,229	-0,139
133,224	180,462	-0,158	-0,162
134,239	183,490	-0,148	-0,152
135,254	-6,804	-0,265	-0,125
136,268	149,640	-0,145	-0,137
137,283	-55,986	-0,314	-0,097
138,297	45,056	-0,260	-0,166
139,312	15,971	-0,363	-0,198
140,327	200,815	-0,210	-0,225
141,341	130,613	-0,259	-0,231
142,356	45,041	-0,181	-0,116
143,370	27,805	-0,215	-0,126
144,385	268,195	-0,158	-0,193
145,400	46,743	-0,274	-0,177
146,414	97,124	-0,288	-0,230
147,429	523,728	-0,157	-0,258
148,443	251,647	-0,244	-0,289
149,458	116,040	-0,143	-0,122
150,473	-62,736	-0,348	-0,100
151,487	3,450	-0,277	-0,140
152,502	-57,082	-0,334	-0,102
153,516	189,038	-0,206	-0,215
154,531	91,399	-0,141	-0,110
155,546	81,083	-0,199	-0,149
156,560	80,816	-0,138	-0,104
157,575	120,014	-0,026	-0,023
158,589	-119,400	-0,287	-0,034
159,604	-62,973	-0,185	-0,053
160,619	33,354	-0,309	-0,186
161,633	-60,708	-0,225	-0,066
162,648	-11,937	-0,322	-0,146
163,662	-200,000	-0,064	-0,243
164,677	-20,080	-0,353	-0,151
165,692	498,107	-0,123	-0,197
166,706	220,379	-0,294	-0,328
167,721	45,138	-0,318	-0,203
168,735	87,300	-0,277	-0,213
169,750	312,467	-0,222	-0,290
170,764	290,022	-0,183	-0,232
171,779	221,846	-0,220	-0,246
172,794	-76,277	-0,159	-0,039
173,808	44,622	-0,224	-0,143
174,823	-112,438	-0,215	0,030
175,837	-90,606	-0,289	-0,058
176,852	254,072	-0,227	-0,271
177,867	228,482	-0,196	-0,222
178,881	308,043	-0,184	-0,239
179,896	31,006	-0,199	-0,118
180,910	800,000	-0,154	-0,338
181,925	52,470	-0,189	-0,125
182,940	-26,718	-0,294	-0,119
183,954	-68,211	-0,265	0,071
184,969	-32,696	-0,171	-0,066
185,983	81,565	-0,270	-0,203
186,998	-59,522	-0,209	-0,062
188,013	-2,048	-0,178	-0,086
189,027	93,342	-0,252	-0,198
190,042	91,499	-0,210	-0,163
191,056	160,115	-0,228	-0,221
192,071	-17,452	-0,140	-0,061
193,086	-14,401	-0,248	-0,110
194,100	170,220	-0,102	-0,102
195,115	-82,689	-0,195	-0,043
196,129	-87,464	-0,101	-0,021
197,144	800,000	-0,086	-0,174
198,159	246,135	-0,199	-0,233
199,173	-25,539	-0,241	-0,098
200,188	-126,686	-0,139	0,014
201,202	-51,828	-0,197	-0,063
202,217	234,916	-0,254	-0,290
203,232	133,286	-0,238	-0,213
204,246	169,109	-0,088	-0,087
205,261	-142,510	-0,197	0,013
206,275	142,374	-0,205	-0,189
207,290	360,742	-0,097	-0,135
208,304	-93,325	-0,088	-0,017
209,319	348,534	-0,142	-0,195
210,334	800,000	-0,077	-0,169
211,348	414,645	-0,135	-0,200
212,363	107,932	-0,252	-0,208
213,377	497,299	-0,132	-0,211
214,392	5,427	-0,181	-0,092
215,407	7,184	-0,200	-0,103
216,421	98,559	-0,129	-0,103
217,436	10,238	-0,174	-0,091
218,450	277,426	-0,140	-0,172
219,465	-53,115	-0,295	-0,093
220,480	223,364	-0,124	-0,139
221,494	422,612	-0,093	-0,138
222,509	-0,672	-0,189	-0,093
223,523	251,097	-0,183	-0,215
224,538	-29,818	-0,159	-0,062
225,553	104,116	-0,251	-0,204
226,567	-68,250	-0,211	-0,056
227,582	72,381	-0,156	-0,112
228,596	53,772	-0,171	-0,113
229,611	165,164	-0,114	-0,111
230,626	118,302	-0,125	-0,107
231,640	501,980	-0,162	-0,259
232,655	118,576	-0,176	-0,150
233,669	323,039	-0,165	-0,219
234,684	234,927	-0,157	-0,179
235,699	149,936	-0,173	-0,162
236,713	800,000	-0,100	-0,228
237,728	22,019	-0,252	-0,142
238,742	-26,150	-0,161	-0,065
239,757	20,987	-0,316	-0,177
240,772	161,517	-0,200	-0,194
241,786	597,754	-0,168	-0,289
242,801	-105,349	-0,146	-0,023
243,815	28,217	-0,230	-0,134
244,830	800,000	-0,093	-0,182
245,844	70,114	-0,135	-0,096
246,859	55,112	-0,167	-0,111
247,874	67,762	-0,240	-0,169
248,888	46,292	-0,251	-0,160
249,903	-99,979	-0,150	-0,026
250,917	-70,575	-0,277	-0,072
251,932	-32,947	-0,157	-0,060
252,947	3,393	-0,156	-0,078
253,961	187,925	-0,180	-0,185
254,976	-50,944	-0,287	-0,093
255,990	-200,000	-0,068	-0,271
257,005	-175,527	-0,205	-0,004
258,020	-18,104	-0,114	0,049
259,034	221,674	-0,180	-0,199
260,049	18,967	-0,171	-0,094
261,063	-3,823	-0,246	-0,117
262,078	-116,995	-0,184	-0,023
263,093	-73,341	-0,192	-0,048
264,107	-96,228	-0,146	-0,027
265,122	-128,500	-0,037	-0,004
266,136	-3,403	-0,190	-0,091
267,151	56,676	-0,102	-0,069
268,166	26,231	-0,056	-0,032
269,180	157,536	-0,208	-0,198
270,195	19,118	-0,132	-0,073
271,209	-10,698	-0,239	-0,108
272,224	-200,000	0,000	-0,020
273,239	596,041	-0,086	-0,148
274,253	-40,069	-0,170	-0,061
275,268	-36,110	-0,222	-0,082
276,282	800,000	-0,096	-0,216
277,297	39,862	-0,176	-0,108
278,312	-43,447	-0,168	-0,058
279,326	60,387	-0,220	-0,149
280,341	800,000	-0,075	-0,160
281,355	-56,462	-0,230	-0,070
282,370	-107,323	-0,210	-0,031
283,384	-200,000	-0,008	-0,213
284,399	459,965	-0,109	-0,167
285,414	-70,344	-0,148	-0,038
286,428	-200,000	-0,130	0,000
287,443	-96,328	-0,100	0,018
288,457	-78,336	-0,126	-0,030
289,472	-104,384	-0,095	0,015
290,487	132,536	-0,192	-0,170
291,501	-200,000	-0,023	-0,164
292,516	116,410	-0,096	-0,081
293,530	322,113	-0,101	-0,133
294,545	-10,121	-0,246	-0,112
295,560	-25,473	-0,131	-0,053
296,574	-8,751	-0,102	-0,047
297,589	-85,667	-0,131	-0,028
298,603	-27,782	-0,291	-0,115
299,618	161,559	-0,170	-0,164
300,633	89,694	-0,104	-0,079
301,647	127,272	-0,173	-0,151
302,662	108,404	-0,264	-0,216
303,676	270,190	-0,078	-0,094
304,691	90,778	-0,122	-0,094
305,706	38,753	-0,102	-0,063
306,720	333,627	-0,107	-0,142
307,735	322,503	-0,073	-0,096
308,749	56,840	-0,214	-0,143
309,764	-84,130	-0,206	-0,044
310,779	637,453	-0,065	-0,113
311,793	347,214	-0,128	-0,173
312,808	-163,677	-0,298	0,009
313,822	-28,198	-0,121	0,048
314,837	800,000	-0,047	-0,112
315,852	-21,066	-0,053	0,022
316,866	6,044	-0,229	-0,116
317,881	17,961	-0,116	0,063
318,895	-86,459	-0,174	-0,036
319,910	267,739	-0,102	-0,122
320,925	-31,132	-0,176	-0,068
321,939	-24,533	-0,162	-0,066
322,954	4,998	-0,187	-0,094
323,968	78,985	-0,065	0,047
324,983	-200,000	-0,028	-0,158
325,997	-200,000	0,007	-0,127
327,012	337,640	-0,085	-0,113
328,027	118,396	-0,218	-0,185
329,041	-144,580	-0,074	-0,005
330,056	-41,879	-0,094	0,033
331,070	-200,000	0,045	-0,161
332,085	402,513	-0,088	-0,127
333,100	-200,000	0,000	-0,174
334,114	-82,000	-0,127	-0,028
335,129	800,000	-0,062	-0,173
336,143	-200,000	0,000	-0,225
337,158	129,506	-0,130	-0,114
338,173	-27,455	-0,036	0,014
339,187	-111,000	-0,226	-0,031
340,202	199,180	-0,103	-0,109
341,216	-85,170	-0,145	-0,031
342,231	800,000	-0,116	-0,235
343,246	79,672	-0,095	-0,069
344,260	517,448	-0,108	-0,173
345,275	57,988	-0,105	-0,070
346,289	79,384	-0,166	-0,122
347,304	-154,493	-0,126	0,006
348,319	-112,534	-0,177	-0,024
349,333	-60,423	-0,110	0,032
350,348	477,315	-0,172	-0,267
351,362	34,113	-0,124	-0,074
352,377	-200,000	-0,019	-0,194
353,392	-171,642	-0,051	0,001
354,406	325,822	-0,078	-0,102
355,421	206,929	1306,534	1394,081
356,435	159,166	1466,213	1394,551
