DTS Sentinel unit serial number:	SN410029Multiplexer serial number:	ORYXHardware model number:	OX2-SRSoftware version number:	ORYX F/W v4,00 Oryx Data Collector v3.7.2.0data status	okinstallation	B3 Nyhavnadifferential loss correction	single-endedforward channel	channel 1reverse channel	N/Adate	2023/12/04time	21:22:30forward acquisition time	300,00reverse acquisition time	0,00gamma	499,1914k internal	0,3201k external	0,3201temperature offset calibration	1,0000default loss term (dB/km)	0,3820temperature slope calibration	1,0000multiplexer offset coefficient	1,0000multiplexer slope coefficient	1,0000fibre end	0,00T internal ref (°C)	14,52T ext. ref 1 (°C)	-0,28T ext. ref 2 (°C)	-0,29length (m)	temperature (°C)	Stokes	anti-Stokes-744,400	162,687	-0,219	-0,223
-743,385	-200,000	0,079	0,306
-742,371	70,568	-0,211	-0,158
-741,356	-200,000	0,048	0,360
-740,342	491,877	-0,139	-0,233
-739,327	-200,000	-0,089	0,320
-738,312	565,268	-0,069	-0,121
-737,298	-200,000	0,075	0,340
-736,283	515,957	-0,127	-0,217
-735,269	-200,000	-0,004	0,469
-734,254	-41,881	-0,185	-0,069
-733,239	135,807	-0,189	0,179
-732,225	315,870	-0,158	-0,217
-731,210	-200,000	-0,007	0,095
-730,196	-200,000	-0,003	-0,104
-729,181	-200,000	0,012	-0,066
-728,167	83,270	-0,032	0,025
-727,152	121,423	0,043	0,039
-726,137	57,919	0,025	-0,017
-725,123	-46,976	0,060	-0,021
-724,108	800,000	-0,036	-0,078
-723,094	158,271	-0,021	-0,021
-722,079	800,000	-0,060	0,125
-721,064	-200,000	-0,021	0,074
-720,050	-108,909	-0,100	-0,015
-719,035	-49,107	-0,065	-0,022
-718,021	101,707	-0,111	-0,094
-717,006	-200,000	-0,005	-0,162
-715,991	87,425	0,036	0,029
-714,977	-49,422	-0,055	-0,019
-713,962	-71,100	-0,006	-0,002
-712,948	-200,000	-0,005	-0,069
-711,933	-200,000	-0,004	0,016
-710,918	411,839	-0,022	0,034
-709,904	-28,768	-0,170	-0,071
-708,889	140,539	-0,034	0,032
-707,875	-132,666	-0,156	-0,014
-706,860	73,554	-0,055	-0,042
-705,845	-200,000	-0,004	0,051
-704,831	-200,000	0,015	0,154
-703,816	574,657	-0,030	0,054
-702,802	-111,550	0,043	0,006
-701,787	45,906	-0,045	0,030
-700,772	-76,042	-0,127	-0,032
-699,758	-200,000	-0,010	-0,122
-698,743	-133,110	0,056	0,005
-697,729	-47,335	0,101	0,036
-696,714	800,000	0,009	0,022
-695,699	-128,273	-0,072	-0,007
-694,685	-200,000	0,004	0,050
-693,670	73,226	-0,111	-0,084
-692,656	800,000	0,036	-0,097
-691,641	-14,728	-0,035	0,016
-690,627	438,453	0,067	0,106
-689,612	-50,294	0,092	0,031
-688,597	131,757	-0,048	-0,045
-687,583	506,625	-0,092	0,155
-686,568	-200,000	-0,022	-0,120
-685,554	3,654	0,080	0,042
-684,539	-52,470	-0,124	-0,041
-683,524	-110,382	-0,088	-0,013
-682,510	-143,897	0,045	0,003
-681,495	78,829	0,027	-0,021
-680,481	-200,000	-0,035	-0,148
-679,466	126,448	-0,227	-0,208
-678,451	800,000	0,085	-0,180
-677,437	-128,703	-0,048	-0,005
-676,422	15,337	-0,046	0,026
-675,408	324,280	0,026	0,036
-674,393	-8,539	0,142	0,069
-673,378	-124,525	-0,097	-0,011
-672,364	-200,000	-0,009	-0,078
-671,349	436,125	-0,011	0,017
-670,335	524,919	0,047	-0,081
-669,320	172,574	0,072	0,076
-668,305	-138,759	-0,088	0,007
-667,291	-200,000	-0,012	-0,115
-666,276	9,412	-0,061	0,033
-665,262	-102,179	-0,258	0,045
-664,247	-38,582	-0,126	0,048
-663,232	-135,658	0,060	0,005
-662,218	-179,791	0,076	0,001
-661,203	-200,000	-0,016	-0,097
-660,189	-200,000	0,020	-0,065
-659,174	385,723	-0,016	-0,023
-658,159	800,000	-0,038	-0,108
-657,145	-200,000	0,022	-0,082
-656,130	-35,650	0,094	0,037
-655,116	-135,326	-0,096	0,008
-654,101	-200,000	-0,014	-0,054
-653,086	-117,154	0,129	0,017
-652,072	-93,885	-0,140	0,028
-651,057	218,443	0,092	-0,106
-650,043	800,000	-0,055	-0,134
-649,028	193,808	0,066	-0,072
-648,014	-200,000	-0,003	-0,059
-646,999	-144,380	0,120	-0,008
-645,984	302,387	0,048	0,065
-644,970	-10,728	-0,141	0,067
-643,955	101,568	-0,089	-0,075
-642,941	-69,866	-0,056	-0,015
-641,926	383,757	0,071	0,106
-640,911	-101,952	-0,152	-0,026
-639,897	-200,000	0,043	0,151
-638,882	42,752	-0,057	-0,038
-637,868	-161,353	-0,141	-0,005
-636,853	283,014	0,099	-0,129
-635,838	272,410	-0,056	-0,072
-634,824	-200,000	-0,012	-0,046
-633,809	800,000	-0,006	-0,012
-632,795	86,576	-0,036	-0,029
-631,780	-27,278	-0,040	-0,017
-630,765	-138,649	-0,158	-0,012
-629,751	697,377	-0,031	0,059
-628,736	-91,041	-0,059	-0,012
-627,722	-123,654	0,134	-0,015
-626,707	-40,424	0,087	-0,033
-625,692	-200,000	0,013	0,131
-624,678	-32,632	0,129	-0,052
-623,663	-200,000	-0,011	-0,073
-622,649	145,159	-0,098	-0,095
-621,634	102,170	-0,063	-0,053
-620,619	79,396	-0,031	0,024
-619,605	42,447	-0,088	-0,058
-618,590	308,248	0,045	0,060
-617,576	-200,000	-0,002	0,029
-616,561	-200,000	0,006	-0,072
-615,546	-114,731	-0,165	-0,023
-614,532	265,516	0,048	-0,060
-613,517	-71,610	0,048	0,013
-612,503	-200,000	-0,003	-0,060
-611,488	796,598	0,021	0,042
-610,474	-86,524	-0,103	-0,023
-609,459	-71,043	0,210	0,057
-608,444	24,745	0,188	0,113
-607,430	526,060	0,059	0,100
-606,415	-45,082	0,123	-0,044
-605,401	627,790	-0,036	-0,066
-604,386	-184,807	0,121	-0,001
-603,371	301,887	-0,027	0,036
-602,357	-159,283	-0,140	-0,006
-601,342	-92,796	0,173	-0,035
-600,328	-142,389	-0,201	-0,014
-599,313	443,955	0,033	-0,053
-598,298	118,445	0,066	0,059
-597,284	-6,748	0,039	0,019
-596,269	81,053	0,054	0,042
-595,255	-200,000	-0,044	-0,193
-594,240	247,427	-0,035	-0,043
-593,225	-65,713	0,085	-0,025
-592,211	800,000	0,051	-0,108
-591,196	800,000	0,003	0,007
-590,182	533,975	0,090	0,154
-589,167	-200,000	-0,018	-0,068
-588,152	-4,646	-0,032	-0,016
-587,138	233,738	0,026	0,031
-586,123	800,000	-0,037	-0,077
-585,109	43,876	-0,128	-0,085
-584,094	462,781	-0,013	-0,021
-583,079	133,399	-0,042	-0,039
-582,065	384,435	-0,035	0,053
-581,050	201,329	0,031	0,035
-580,036	532,142	-0,027	0,046
-579,021	780,714	-0,031	-0,061
-578,006	-49,161	-0,070	-0,024
-576,992	-63,017	0,081	-0,024
-575,977	-200,000	-0,026	-0,096
-574,963	-135,184	0,166	0,014
-573,948	-5,598	0,108	0,053
-572,934	635,513	0,035	-0,064
-571,919	800,000	0,062	-0,162
-570,904	106,567	-0,048	-0,041
-569,890	-89,701	0,052	0,011
-568,875	-200,000	0,030	0,137
-567,861	800,000	0,034	0,088
-566,846	-144,411	-0,075	0,005
-565,831	-200,000	0,027	0,108
-564,817	-66,838	-0,134	-0,038
-563,802	515,366	-0,025	-0,042
-562,788	-138,670	-0,028	-0,002
-561,773	-168,866	-0,157	-0,004
-560,758	-87,576	0,150	-0,033
-559,744	58,356	-0,100	0,071
-558,729	-126,651	-0,097	0,010
-557,715	213,126	-0,146	-0,167
-556,700	769,956	-0,079	-0,155
-555,685	-149,355	0,058	-0,003
-554,671	225,078	0,147	-0,172
-553,656	448,808	0,046	-0,073
-552,642	-117,280	-0,121	-0,016
-551,627	-72,706	-0,109	0,029
-550,612	-91,076	0,089	-0,018
-549,598	800,000	0,029	0,069
-548,583	800,000	-0,022	-0,065
-547,569	89,064	0,028	-0,023
-546,554	-200,000	-0,007	0,055
-545,539	-200,000	-0,028	0,094
-544,525	211,244	0,093	-0,105
-543,510	16,571	-0,082	0,046
-542,496	277,646	0,062	0,079
-541,481	-200,000	-0,018	0,069
-540,466	147,963	0,063	-0,061
-539,452	-200,000	-0,010	-0,081
-538,437	523,452	-0,069	0,118
-537,423	-200,000	0,000	0,150
-536,408	-159,685	-0,044	0,002
-535,393	213,286	-0,133	0,151
-534,379	-146,838	-0,136	-0,008
-533,364	-200,000	-0,012	-0,108
-532,350	-74,116	0,122	-0,032
-531,335	-100,027	0,083	-0,015
-530,321	-200,000	-0,006	-0,131
-529,306	-200,000	0,031	-0,122
-528,291	-30,209	-0,105	0,043
-527,277	-200,000	-0,001	-0,147
-526,262	-200,000	0,038	-0,211
-525,248	800,000	0,034	0,101
-524,233	54,120	-0,082	0,057
-523,218	-69,152	0,065	-0,018
-522,204	-44,079	-0,130	-0,047
-521,189	57,999	0,084	-0,059
-520,175	-200,000	0,015	-0,090
-519,160	194,545	-0,124	-0,136
-518,145	-21,783	0,029	-0,013
-517,131	800,000	0,053	0,164
-516,116	-61,839	0,107	-0,032
-515,102	30,213	-0,045	0,028
-514,087	-38,629	0,081	0,031
-513,072	-200,000	-0,004	-0,067
-512,058	-200,000	-0,004	-0,063
-511,043	-200,000	0,003	0,019
-510,029	331,088	0,080	0,112
-509,014	-98,149	0,094	-0,017
-507,999	-20,691	-0,045	0,020
-506,985	-200,000	0,008	-0,071
-505,970	-11,910	-0,092	0,043
-504,956	559,914	-0,030	0,052
-503,941	-200,000	0,000	0,061
-502,926	-200,000	-0,009	0,068
-501,912	-200,000	0,004	0,094
-500,897	-200,000	-0,025	0,114
-499,883	-200,000	0,009	0,086
-498,868	57,827	-0,046	0,033
-497,853	559,730	-0,035	0,060
-496,839	-93,205	0,144	0,029
-495,824	198,664	0,062	0,069
-494,810	-200,000	0,003	0,036
-493,795	-200,000	0,015	0,085
-492,781	85,901	0,050	-0,039
-491,766	-75,076	-0,136	-0,035
-490,751	218,353	-0,077	0,088
-489,737	370,067	-0,020	0,030
-488,722	616,884	0,032	-0,057
-487,708	77,540	0,082	-0,063
-486,693	-177,314	-0,034	0,001
-485,678	148,198	-0,038	0,037
-484,664	66,644	-0,089	-0,065
-483,649	-200,000	0,024	-0,210
-482,635	800,000	0,026	-0,071
-481,620	-200,000	-0,021	0,097
-480,605	312,583	0,047	0,063
-479,591	68,547	-0,005	0,004
-478,576	-200,000	-0,018	0,109
-477,562	-28,461	-0,049	-0,020
-476,547	-38,514	0,043	0,016
-475,532	-200,000	0,005	0,044
-474,518	532,450	0,015	0,026
-473,503	800,000	-0,062	0,143
-472,489	-200,000	0,009	0,112
-471,474	-108,992	-0,120	0,018
-470,459	800,000	0,019	-0,048
-469,445	800,000	0,045	-0,100
-468,430	155,002	-0,057	0,056
-467,416	-32,017	0,077	-0,031
-466,401	-200,000	0,017	0,110
-465,386	-200,000	0,007	-0,100
-464,372	90,912	-0,085	0,068
-463,357	-89,550	-0,092	0,019
-462,343	-147,223	-0,090	0,005
-461,328	-115,075	-0,093	0,013
-460,313	-29,454	0,096	0,039
-459,299	-200,000	-0,011	0,085
-458,284	-200,000	-0,002	0,061
-457,270	-144,590	-0,066	0,004
-456,255	364,596	-0,062	0,089
-455,241	67,384	0,069	-0,050
-454,226	-62,616	-0,132	-0,039
-453,211	-200,000	0,014	0,071
-452,197	269,758	0,081	0,102
-451,182	162,391	-0,039	0,039
-450,168	-200,000	0,017	0,065
-449,153	-134,727	0,025	0,002
-448,138	305,890	0,031	-0,041
-447,124	800,000	-0,015	-0,038
-446,109	-30,560	-0,031	0,013
-445,095	423,263	0,080	0,124
-444,080	800,000	0,035	0,076
-443,065	-91,737	0,038	-0,008
-442,051	-200,000	0,006	0,065
-441,036	679,103	0,063	-0,119
-440,022	-200,000	-0,026	-0,172
-439,007	-200,000	-0,004	-0,071
-437,992	31,442	0,161	-0,099
-436,978	2,499	-0,063	0,033
-435,963	443,340	0,077	0,121
-434,949	-99,982	-0,038	0,007
-433,934	209,750	0,124	0,139
-432,919	116,423	0,066	-0,058
-431,905	271,519	0,005	-0,006
-430,890	-200,000	-0,022	0,198
-429,876	-200,000	0,030	0,199
-428,861	-20,954	0,051	0,022
-427,846	800,000	0,013	-0,036
-426,832	190,217	-0,071	-0,077
-425,817	-40,382	0,083	-0,031
-424,803	106,474	0,063	0,054
-423,788	-135,637	-0,106	-0,009
-422,773	-72,175	0,101	0,027
-421,759	-200,000	-0,002	0,031
-420,744	348,205	0,060	0,085
-419,730	-101,907	-0,078	-0,013
-418,715	775,953	0,073	-0,143
-417,701	547,328	-0,087	-0,150
-416,686	-150,556	0,094	-0,005
-415,671	-200,000	0,022	0,120
-414,657	-200,000	0,000	-0,010
-413,642	-157,885	0,050	0,002
-412,628	517,530	-0,084	-0,141
-411,613	-99,111	-0,096	-0,017
-410,598	800,000	0,029	0,063
-409,584	267,785	0,096	-0,121
-408,569	-200,000	0,015	-0,062
-407,555	-95,282	0,051	0,010
-406,540	135,634	0,030	-0,028
-405,525	64,330	0,073	-0,053
-404,511	119,192	0,083	-0,074
-403,496	39,118	0,035	-0,022
-402,482	681,229	0,054	0,100
-401,467	-136,500	0,132	0,011
-400,452	-200,000	0,034	0,232
-399,438	206,712	-0,057	-0,064
-398,423	-200,000	0,026	0,122
-397,409	85,895	0,101	-0,079
-396,394	-90,498	0,073	0,015
-395,379	-21,015	0,125	0,055
-394,365	-200,000	-0,035	0,177
-393,350	472,184	-0,008	-0,012
-392,336	-58,374	-0,056	0,017
-391,321	-3,654	0,040	-0,020
-390,306	-200,000	-0,021	0,086
-389,292	-34,813	-0,092	-0,036
-388,277	800,000	-0,066	0,184
-387,263	-43,920	-0,016	-0,006
-386,248	182,437	0,114	0,121
-385,233	-200,000	-0,040	0,179
-384,219	-200,000	-0,008	-0,083
-383,204	-200,000	-0,005	-0,166
-382,190	507,676	0,040	0,067
-381,175	-200,000	0,028	-0,124
-380,160	-200,000	0,024	0,151
-379,146	-44,819	-0,129	-0,046
-378,131	23,586	0,065	0,038
-377,117	-200,000	0,010	0,100
-376,102	0,496	-0,051	0,026
-375,088	-134,658	-0,048	-0,004
-374,073	537,041	0,019	-0,033
-373,058	-85,078	0,035	0,008
-372,044	79,805	0,050	-0,039
-371,029	-102,008	-0,030	-0,005
-370,015	-64,688	0,070	-0,020
-369,000	800,000	-0,023	-0,049
-367,985	259,828	-0,145	-0,180
-366,971	-200,000	-0,006	0,024
-365,956	-200,000	0,012	0,040
-364,942	-109,366	0,208	0,031
-363,927	17,037	0,164	0,093
-362,912	244,624	0,028	-0,034
-361,898	-200,000	0,000	-0,061
-360,883	565,215	-0,021	-0,036
-359,869	800,000	0,042	-0,089
-358,854	800,000	0,033	0,089
-357,839	533,348	-0,022	0,037
-356,825	-200,000	-0,009	0,058
-355,810	-200,000	0,003	-0,022
-354,796	353,618	-0,053	-0,075
-353,781	-200,000	0,008	-0,042
-352,766	163,738	-0,059	-0,060
-351,752	800,000	-0,037	0,077
-350,737	600,986	0,031	-0,056
-349,723	-67,136	0,073	0,021
-348,708	-78,276	-0,017	0,004
-347,693	-200,000	-0,043	-0,153
-346,679	-200,000	-0,006	-0,037
-345,664	-200,000	-0,018	-0,117
-344,650	151,115	-0,048	0,047
-343,635	-164,875	-0,113	0,004
-342,620	28,771	0,022	0,013
-341,606	69,606	0,110	0,081
-340,591	-200,000	0,030	-0,142
-339,577	800,000	-0,045	-0,109
-338,562	-95,197	-0,067	0,013
-337,548	800,000	0,022	-0,047
-336,533	800,000	-0,040	-0,104
-335,518	-142,131	0,132	0,009
-334,504	248,920	-0,025	-0,030
-333,489	-44,617	-0,045	0,016
-332,475	-200,000	0,000	-0,107
-331,460	75,582	-0,096	-0,073
-330,445	236,419	-0,088	-0,104
-329,431	17,806	0,047	0,027
-328,416	631,394	0,045	0,082
-327,402	-200,000	-0,003	-0,034
-326,387	228,839	-0,113	-0,132
-325,372	-175,988	0,059	-0,001
-324,358	41,157	-0,123	-0,079
-323,343	66,739	-0,094	-0,068
-322,329	-124,480	0,015	-0,002
-321,314	-136,387	0,110	0,009
-320,299	459,308	0,026	0,042
-319,285	-200,000	0,010	0,057
-318,270	51,984	0,037	-0,025
-317,256	-200,000	-0,002	-0,117
-316,241	628,751	-0,076	-0,138
-315,226	800,000	-0,054	-0,136
-314,212	-200,000	-0,002	-0,032
-313,197	303,464	0,129	-0,171
-312,183	-200,000	-0,012	-0,041
-311,168	65,191	0,015	-0,011
-310,153	800,000	-0,042	-0,083
-309,139	471,060	-0,026	-0,042
-308,124	91,327	-0,108	-0,087
-307,110	337,431	-0,018	-0,026
-306,095	-38,767	-0,037	0,014
-305,080	-200,000	0,043	0,257
-304,066	-200,000	0,001	0,026
-303,051	-1,124	-0,127	-0,064
-302,037	150,988	0,083	-0,081
-301,022	800,000	0,053	-0,158
-300,008	312,980	0,086	-0,116
-298,993	800,000	0,031	0,084
-297,978	-159,323	0,199	-0,008
-296,964	437,202	-0,003	0,004
-295,949	-108,132	-0,110	-0,017
-294,935	-200,000	0,011	-0,093
-293,920	-200,000	0,004	-0,025
-292,905	12,350	0,054	0,030
-291,891	800,000	0,065	0,168
-290,876	-200,000	-0,013	0,093
-289,862	13,628	-0,096	-0,053
-288,847	49,043	-0,071	-0,048
-287,832	-200,000	0,002	-0,006
-286,818	-200,000	0,037	0,135
-285,803	-34,408	0,101	0,039
-284,789	-112,228	0,119	0,017
-283,774	-86,792	0,076	0,016
-282,759	-120,192	-0,092	-0,011
-281,745	-102,622	0,044	0,007
-280,730	157,896	-0,031	0,030
-279,716	49,739	-0,054	0,036
-278,701	800,000	0,029	0,083
-277,686	-25,480	0,177	0,074
-276,672	800,000	0,023	-0,065
-275,657	800,000	0,025	-0,060
-274,643	-200,000	-0,001	-0,039
-273,628	284,921	0,046	0,060
-272,613	-29,440	-0,043	0,017
-271,599	-67,498	0,058	-0,016
-270,584	290,482	-0,104	0,135
-269,570	33,514	0,095	0,059
-268,555	-200,000	0,027	0,127
-267,540	-136,819	-0,085	-0,007
-266,526	-97,878	0,037	-0,007
-265,511	800,000	0,025	0,054
-264,497	800,000	-0,045	0,099
-263,482	-200,000	-0,024	0,087
-262,467	299,604	-0,030	0,039
-261,453	174,392	0,056	-0,058
-260,438	-138,252	-0,033	0,003
-259,424	384,596	0,015	-0,023
-258,409	-200,000	-0,024	-0,080
-257,395	800,000	-0,024	0,060
-256,380	153,160	0,039	-0,038
-255,365	800,000	-0,037	-0,083
-254,351	-70,511	-0,156	-0,042
-253,336	-5,432	-0,135	-0,066
-252,322	-55,130	0,110	0,035
-251,307	5,919	-0,076	0,040
-250,292	337,875	0,049	0,068
-249,278	-200,000	-0,012	-0,065
-248,263	-106,509	0,070	0,011
-247,249	-200,000	-0,028	0,202
-246,234	64,382	-0,157	0,112
-245,219	-171,937	-0,126	0,003
-244,205	-200,000	0,009	0,137
-243,190	-200,000	0,003	0,118
-242,176	-200,000	-0,006	0,026
-241,161	80,126	0,078	0,060
-240,146	-23,077	-0,017	0,007
-239,132	-200,000	0,008	0,080
-238,117	-200,000	-0,004	-0,137
-237,103	-90,673	-0,201	-0,041
-236,088	249,651	0,062	0,075
-235,073	-89,272	0,042	-0,009
-234,059	-95,630	-0,110	-0,021
-233,044	239,201	0,045	-0,053
-232,030	264,309	-0,048	-0,059
-231,015	298,954	0,020	0,027
-230,000	-83,824	-0,053	-0,012
-228,986	-200,000	0,016	0,152
-227,971	800,000	0,009	0,027
-226,957	-176,471	0,051	0,001
-225,942	400,501	-0,060	-0,090
-224,927	-200,000	0,037	0,150
-223,913	-111,271	0,099	0,014
-222,898	-60,008	-0,183	-0,055
-221,884	143,062	0,047	-0,044
-220,869	800,000	-0,042	0,099
-219,855	92,258	0,089	-0,071
-218,840	800,000	-0,035	-0,088
-217,825	151,163	-0,089	0,087
-216,811	158,969	-0,073	-0,072
-215,796	-103,155	-0,064	-0,011
-214,782	492,970	0,017	0,027
-213,767	36,782	-0,109	-0,069
-212,752	43,725	0,101	0,066
-211,738	316,869	-0,052	0,070
-210,723	715,714	0,086	-0,164
-209,709	60,935	-0,060	0,042
-208,694	3,087	-0,038	0,019
-207,679	89,638	-0,045	-0,036
-206,665	800,000	-0,016	0,048
-205,650	-200,000	0,000	0,208
-204,636	366,689	0,051	0,073
-203,621	288,047	-0,033	-0,043
-202,606	201,818	0,061	0,067
-201,592	383,894	-0,091	-0,133
-200,577	216,615	-0,092	-0,105
-199,563	-200,000	-0,037	-0,129
-198,548	205,998	0,103	-0,114
-197,533	551,109	0,057	0,098
-196,519	800,000	-0,025	0,062
-195,504	718,634	-0,055	-0,104
-194,490	-75,103	-0,021	0,005
-193,475	67,548	0,054	-0,039
-192,460	215,489	-0,089	-0,101
-191,446	-49,195	0,044	-0,015
-190,431	94,355	0,140	0,113
-189,417	-141,096	0,094	-0,007
-188,402	-154,585	-0,138	-0,006
-187,387	-14,312	-0,081	0,037
-186,373	800,000	0,016	0,032
-185,358	-59,256	0,074	0,023
-184,344	800,000	0,029	0,059
-183,329	-56,759	-0,100	-0,031
-182,315	-27,154	0,158	0,065
-181,300	241,117	0,115	0,137
-180,285	653,112	-0,041	0,074
-179,271	80,796	-0,111	-0,085
-178,256	-200,000	-0,007	0,067
-177,242	362,869	0,046	0,066
-176,227	-91,925	0,019	0,004
-175,212	-159,764	-0,061	0,002
-174,198	107,159	-0,047	-0,040
-173,183	78,647	-0,096	-0,073
-172,169	800,000	0,010	0,027
-171,154	-200,000	-0,007	0,081
-170,139	524,506	0,060	0,101
-169,125	27,704	0,163	0,098
-168,110	318,784	0,050	0,068
-167,096	-112,862	0,081	-0,011
-166,081	-200,000	0,004	-0,165
-165,066	33,896	0,022	-0,014
-164,052	111,731	-0,043	-0,037
-163,037	165,389	0,061	0,061
-162,023	-128,548	0,095	-0,009
-161,008	-22,026	0,030	0,013
-159,993	-200,000	-0,035	0,257
-158,979	697,690	-0,077	-0,145
-157,964	448,304	-0,053	-0,083
-156,950	187,812	-0,161	-0,171
-155,935	375,680	-0,102	-0,149
-154,920	800,000	-0,037	0,091
-153,906	-106,448	0,097	0,015
-152,891	19,119	-0,082	-0,047
-151,877	-74,179	-0,074	-0,019
-150,862	-6,501	0,069	-0,033
-149,847	-200,000	0,033	-0,291
-148,833	193,729	0,049	-0,052
-147,818	113,243	0,073	0,063
-146,804	-48,649	0,099	-0,034
-145,789	800,000	-0,019	0,048
-144,775	127,492	0,031	0,028
-143,760	800,000	-0,030	-0,060
-142,745	-52,704	-0,096	-0,031
-141,731	41,137	0,108	-0,069
-140,716	160,126	-0,069	0,068
-139,702	45,661	-0,050	0,033
-138,687	-200,000	0,003	0,199
-137,672	-122,182	-0,042	-0,005
-136,658	-187,082	-0,116	-0,001
-135,643	258,407	0,129	-0,158
-134,629	800,000	0,043	-0,120
-133,614	800,000	-0,018	0,041
-132,599	314,520	0,015	0,020
-131,585	800,000	-0,039	0,119
-130,570	-200,000	-0,003	0,030
-129,556	800,000	-0,048	-0,142
-128,541	10,998	-0,058	-0,031
-127,526	360,715	-0,107	0,153
-126,512	182,118	0,085	0,089
-125,497	68,849	0,097	-0,071
-124,483	30,857	0,106	-0,064
-123,468	436,798	-0,056	0,087
-122,453	-200,000	0,013	-0,048
-121,439	364,204	-0,036	-0,051
-120,424	105,978	-0,059	-0,049
-119,410	148,441	0,050	-0,048
-118,395	-134,423	-0,111	-0,010
-117,380	77,715	0,100	-0,076
-116,366	79,376	0,130	0,099
-115,351	-200,000	-0,025	-0,089
-114,337	2,312	-0,134	-0,068
-113,322	-35,790	0,114	0,044
-112,307	-200,000	-0,015	0,108
-111,293	-200,000	-0,002	0,163
-110,278	-44,275	0,018	-0,006
-109,264	717,388	-0,019	-0,036
-108,249	79,125	-0,065	0,049
-107,234	800,000	-0,024	-0,052
-106,220	236,601	-0,043	0,051
-105,205	800,000	0,022	-0,046
-104,191	122,819	0,052	-0,046
-103,176	44,546	0,030	-0,019
-102,162	-1,089	-0,125	-0,063
-101,147	-36,800	-0,039	-0,015
-100,132	-16,136	-0,115	-0,052
-99,118	-137,175	-0,055	0,004
-98,103	81,628	-0,117	0,090
-97,089	800,000	-0,010	0,031
-96,074	-161,345	-0,056	0,002
-95,059	-170,939	-0,148	-0,004
-94,045	-169,735	-0,035	-0,001
-93,030	-91,052	-0,058	-0,012
-92,016	800,000	0,033	-0,095
-91,001	-200,000	-0,027	0,142
-89,986	664,234	0,021	-0,038
-88,972	180,321	0,113	-0,118
-87,957	-200,000	-0,004	0,127
-86,943	-96,046	-0,052	-0,010
-85,928	64,348	-0,066	-0,047
-84,913	800,000	-0,029	-0,074
-83,899	-200,000	-0,017	0,069
-82,884	50,200	0,019	-0,013
-81,870	352,243	0,033	0,046
-80,855	-34,428	-0,097	0,038
-79,840	-142,897	-0,153	0,010
-78,826	363,040	-0,125	-0,179
-77,811	-200,000	-0,012	-0,041
-76,797	-18,882	0,076	-0,033
-75,782	-79,035	-0,053	-0,013
-74,767	-97,088	0,151	-0,028
-73,753	189,862	-0,052	-0,055
-72,738	-200,000	0,006	-0,107
-71,724	123,812	-0,096	-0,085
-70,709	-130,560	-0,094	0,009
-69,694	-200,000	0,000	0,054
-68,680	-84,730	-0,048	-0,011
-67,665	800,000	0,015	0,031
-66,651	589,869	0,039	-0,069
-65,636	-200,000	0,014	-0,146
-64,622	81,994	0,052	0,040
-63,607	800,000	-0,060	-0,135
-62,592	666,338	0,022	0,040
-61,578	305,579	0,108	-0,143
-60,563	-200,000	0,006	-0,030
-59,549	-17,770	0,038	-0,017
-58,534	-55,548	-1,422	-0,449
-57,519	370,229	-1,544	-2,222
-56,505	-200,000	-0,406	-4,591
-55,490	143,297	1,012	0,954
-54,476	800,000	4,792	11,353
-53,461	-200,000	18,428	296,229
-52,446	800,000	731,076	2255,576
-51,432	558,968	1647,657	2826,784
-50,417	78,932	1668,069	1263,000
-49,403	22,430	1541,471	890,024
-48,388	16,414	1464,194	816,223
-47,373	17,796	1454,135	817,249
-46,359	17,048	1444,536	808,243
-45,344	14,636	1439,797	794,028
-44,330	14,598	1437,879	792,755
-43,315	14,602	1436,324	791,884
-42,300	14,583	1434,770	790,907
-41,286	14,620	1433,494	790,346
-40,271	14,571	1432,309	789,432
-39,257	14,541	1431,023	788,546
-38,242	14,647	1429,618	788,244
-37,227	14,664	1428,422	787,635
-36,213	14,696	1426,921	786,927
-35,198	14,605	1425,996	785,957
-34,184	14,684	1425,039	785,773
-33,169	14,604	1423,496	784,509
-32,154	14,626	1422,647	784,115
-31,140	14,675	1421,268	783,555
-30,125	14,678	1420,316	783,012
-29,111	14,615	1419,263	782,107
-28,096	14,604	1418,135	781,401
-27,082	14,597	1416,986	780,705
-26,067	14,556	1415,978	779,923
-25,052	14,532	1414,946	779,211
-24,038	14,536	1413,936	778,644
-23,023	14,534	1412,896	778,032
-22,009	14,534	1411,708	777,344
-20,994	14,463	1411,020	776,603
-19,979	14,537	1410,041	776,382
-18,965	14,469	1409,003	775,461
-17,950	14,473	1408,058	774,930
-16,936	14,494	1407,200	774,521
-15,921	14,466	1405,863	773,625
-14,906	14,460	1405,211	773,209
-13,892	14,457	1404,166	772,587
-12,877	14,426	1403,526	772,063
-11,863	14,413	1402,621	771,471
-10,848	14,410	1401,518	770,823
-9,833	14,447	1400,713	770,520
-8,819	14,384	1399,886	769,741
-7,804	14,344	1399,027	769,052
-6,790	14,400	1397,793	768,603
-5,775	14,322	1396,901	767,720
-4,760	14,383	1395,866	767,407
-3,746	14,330	1395,142	766,733
-2,731	14,356	1394,341	766,382
-1,717	14,362	1393,303	765,808
-0,702	14,357	1391,647	764,843
0,313	18,159	1310,223	737,712
1,327	34,541	706,322	435,640
2,342	52,753	124,246	83,896
3,356	4,283	16,706	8,631
4,371	7,186	3,203	1,686
5,386	-48,661	0,530	0,179
6,400	-200,000	0,045	0,200
7,415	450,629	-0,099	-0,155
8,429	48,553	-0,211	-0,139
9,444	102,261	-0,281	-0,232
10,459	149,548	-0,268	-0,256
11,473	-117,783	-0,254	-0,032
12,488	-78,892	-0,308	-0,074
13,502	14,929	-0,267	-0,148
14,517	143,183	-0,315	-0,297
15,531	122,986	-0,317	-0,281
16,546	67,731	-0,360	-0,260
17,561	22,568	-0,490	-0,283
18,575	-18,695	-0,191	-0,084
19,590	484,694	-0,154	-0,249
20,604	38,926	-0,315	-0,199
21,619	103,705	-0,286	-0,237
22,634	256,557	-0,375	-0,456
23,648	94,781	-0,458	-0,368
24,663	195,009	-0,310	-0,333
25,677	78,661	-0,392	-0,296
26,692	7,804	-0,377	-0,199
27,707	-80,631	-0,429	-0,100
28,721	183,980	-0,251	-0,262
29,736	140,311	-0,414	-0,385
30,750	89,421	-0,443	-0,348
31,765	112,218	-0,377	-0,321
32,780	33,540	-0,471	-0,288
33,794	160,802	-0,220	-0,217
34,809	139,392	-0,330	-0,306
35,823	90,547	-0,392	-0,309
36,838	167,768	-0,357	-0,358
37,853	182,093	-0,407	-0,423
38,867	109,632	-0,363	-0,307
39,882	156,005	-0,286	-0,279
40,896	119,820	-0,344	-0,300
41,911	29,917	-0,385	-0,231
42,926	29,995	-0,274	-0,164
43,940	39,226	-0,403	-0,254
44,955	67,927	-0,467	-0,336
45,969	88,584	-0,378	-0,296
46,984	150,538	-0,274	-0,262
47,999	1,106	-0,311	-0,157
49,013	136,998	-0,427	-0,394
50,028	95,730	-0,329	-0,265
51,042	118,884	-0,413	-0,359
52,057	109,205	-0,408	-0,344
53,071	136,662	-0,259	-0,238
54,086	317,032	-0,199	-0,265
55,101	28,556	-0,358	-0,213
56,115	136,333	-0,381	-0,350
57,130	-17,921	-0,328	-0,144
58,144	45,935	-0,237	-0,154
59,159	138,106	-0,307	-0,284
60,174	198,728	-0,337	-0,363
61,188	186,678	-0,381	-0,400
62,203	112,101	-0,319	-0,271
63,217	-21,694	-0,321	-0,137
64,232	34,723	-0,211	-0,129
65,247	103,317	-0,396	-0,327
66,261	158,523	-0,359	-0,350
67,276	284,691	-0,260	-0,330
68,290	75,927	-0,324	-0,241
69,305	8,717	-0,306	-0,162
70,320	11,443	-0,414	-0,223
71,334	-15,264	-0,430	-0,193
72,349	85,578	-0,299	-0,231
73,363	102,937	-0,353	-0,291
74,378	44,415	-0,410	-0,264
75,393	23,948	-0,387	-0,224
76,407	-7,467	-0,309	-0,147
77,422	-80,463	-0,309	-0,072
78,436	-137,001	-0,357	-0,028
79,451	15,724	-0,337	-0,186
80,466	800,000	-0,150	-0,346
81,480	44,018	-0,301	-0,194
82,495	90,276	-0,358	-0,281
83,509	104,924	-0,232	-0,192
84,524	54,236	-0,289	-0,195
85,539	5,821	-0,288	-0,149
86,553	-3,083	-0,282	-0,138
87,568	-67,155	-0,285	-0,078
88,582	-145,098	-0,340	-0,021
89,597	16,049	-0,362	-0,200
90,611	52,469	-0,291	-0,194
91,626	-61,971	-0,375	-0,109
92,641	93,106	-0,269	-0,213
93,655	-10,188	-0,318	-0,148
94,670	383,614	-0,185	-0,268
95,684	85,835	-0,231	-0,178
96,699	8,316	-0,346	-0,182
97,714	-112,518	-0,329	-0,046
98,728	16,559	-0,256	-0,142
99,743	720,927	-0,144	-0,271
100,757	264,026	-0,121	-0,148
101,772	249,584	-0,173	-0,207
102,787	72,081	-0,367	-0,267
103,801	129,862	-0,303	-0,272
104,816	-23,519	-0,285	-0,119
105,830	193,985	-0,134	-0,143
106,845	207,537	-0,230	-0,252
107,860	297,048	-0,298	-0,384
108,874	-53,410	-0,268	-0,085
109,889	-9,750	-0,319	-0,148
110,903	9,724	-0,302	-0,160
111,918	-2,285	-0,372	-0,182
112,933	243,803	-0,197	-0,232
113,947	-88,564	-0,300	-0,062
114,962	-36,261	-0,241	-0,091
115,976	-20,425	-0,355	-0,153
116,991	157,626	-0,299	-0,290
118,006	-22,084	-0,319	-0,135
119,020	-99,685	-0,438	-0,076
120,035	-9,721	-0,200	-0,093
121,049	-44,712	-0,160	-0,056
122,064	-70,118	-0,301	-0,080
123,079	-86,860	-0,234	-0,050
124,093	98,541	-0,325	-0,262
125,108	101,821	-0,278	-0,227
126,122	-116,395	-0,283	-0,036
127,137	31,880	-0,364	-0,219
128,151	-200,000	-0,002	-0,117
129,166	28,517	-0,333	-0,197
130,181	-17,533	-0,201	-0,088
131,195	-94,890	-0,291	-0,055
132,210	333,221	-0,253	-0,343
133,224	83,811	-0,169	-0,129
134,239	-31,152	-0,324	-0,127
135,254	8,095	-0,308	-0,161
136,268	9,597	-0,243	-0,129
137,283	90,691	-0,306	-0,239
138,297	89,347	-0,235	-0,183
139,312	75,244	-0,207	-0,153
140,327	213,029	-0,216	-0,239
141,341	-122,086	-0,277	-0,031
142,356	14,043	-0,158	-0,086
143,370	-99,251	-0,307	-0,054
144,385	96,332	-0,144	-0,115
145,400	118,823	-0,257	-0,222
146,414	98,450	-0,293	-0,236
147,429	-22,746	-0,311	-0,130
148,443	105,434	-0,288	-0,238
149,458	91,438	-0,160	-0,126
150,473	-116,562	-0,312	-0,040
151,487	123,616	-0,222	-0,195
152,502	-3,015	-0,178	-0,087
153,516	28,588	-0,271	-0,160
154,531	51,934	-0,185	-0,123
155,546	-200,000	-0,023	-0,240
156,560	-1,314	-0,320	-0,157
157,575	208,378	-0,114	-0,124
158,589	91,833	-0,175	-0,138
159,604	105,213	-0,252	-0,208
160,619	106,962	-0,283	-0,234
161,633	158,445	-0,186	-0,180
162,648	178,687	-0,238	-0,243
163,662	98,939	-0,295	-0,237
164,677	59,749	-0,300	-0,206
165,692	12,895	-0,171	-0,092
166,706	83,259	-0,232	-0,176
167,721	125,653	-0,284	-0,250
168,735	23,100	-0,235	-0,134
169,750	524,538	-0,171	-0,282
170,764	88,968	-0,226	-0,175
171,779	107,695	-0,315	-0,261
172,794	800,000	-0,085	-0,243
173,808	366,026	-0,186	-0,262
174,823	-99,050	-0,246	-0,043
175,837	389,483	-0,186	-0,270
176,852	218,875	-0,200	-0,224
177,867	64,890	-0,220	-0,155
178,881	-61,698	-0,223	-0,065
179,896	255,561	-0,178	-0,213
180,910	139,844	-0,249	-0,228
181,925	-31,974	-0,262	-0,102
182,940	-23,257	-0,245	-0,102
183,954	498,941	-0,170	-0,274
184,969	32,440	-0,322	-0,193
185,983	-116,371	-0,152	0,019
186,998	5,154	-0,266	-0,136
188,013	77,156	-0,221	-0,163
189,027	88,783	-0,296	-0,229
190,042	416,602	-0,108	-0,160
191,056	170,647	-0,351	-0,350
192,071	800,000	-0,105	-0,227
193,086	-200,000	-0,089	-0,276
194,100	24,646	-0,270	-0,155
195,115	66,996	-0,157	-0,111
196,129	87,686	-0,193	-0,148
197,144	76,102	-0,265	-0,195
198,159	61,905	-0,205	-0,142
199,173	87,356	-0,187	-0,144
200,188	37,476	-0,164	-0,101
201,202	-85,676	-0,078	-0,017
202,217	-17,815	-0,229	-0,100
203,232	30,512	-0,295	-0,175
204,246	-22,176	-0,241	-0,101
205,261	90,636	-0,325	-0,253
206,275	85,030	-0,305	-0,232
207,290	180,721	-0,185	-0,189
208,304	-103,964	-0,176	-0,028
209,319	86,779	-0,164	-0,126
210,334	-5,619	-0,138	-0,065
211,348	-49,117	-0,298	-0,098
212,363	351,563	-0,220	-0,304
213,377	32,165	-0,199	-0,119
214,392	800,000	-0,050	-0,133
215,407	261,239	-0,147	-0,177
216,421	31,138	-0,221	-0,131
217,436	227,021	-0,124	-0,140
218,450	88,440	-0,326	-0,251
219,465	123,062	-0,127	-0,111
220,480	498,792	-0,202	-0,325
221,494	-16,599	-0,150	-0,066
222,509	179,798	-0,163	-0,166
223,523	18,048	-0,159	-0,088
224,538	73,376	-0,240	-0,174
225,553	190,803	-0,220	-0,229
226,567	255,698	-0,212	-0,253
227,582	250,354	-0,238	-0,281
228,596	-200,000	-0,037	-0,134
229,611	122,168	-0,164	-0,142
230,626	-46,751	-0,118	-0,040
231,640	-200,000	-0,042	-0,171
232,655	12,677	-0,284	-0,152
233,669	69,208	-0,217	-0,154
234,684	512,129	-0,107	-0,173
235,699	-27,928	-0,195	-0,078
236,713	120,168	-0,109	-0,093
237,728	-200,000	-0,075	-0,267
238,742	285,501	-0,135	-0,169
239,757	657,570	-0,120	-0,215
240,772	-70,898	-0,267	-0,069
241,786	-42,960	-0,236	-0,082
242,801	120,928	-0,166	-0,143
243,815	-76,317	-0,174	-0,042
244,830	-8,563	-0,258	-0,119
245,844	403,118	-0,089	-0,130
246,859	173,018	-0,178	-0,178
247,874	-96,646	-0,295	-0,053
248,888	400,598	-0,177	-0,258
249,903	34,631	-0,294	-0,177
250,917	-91,475	-0,214	-0,042
251,932	102,082	-0,052	0,042
252,947	-97,133	-0,292	-0,052
253,961	-6,962	-0,214	-0,100
254,976	537,323	-0,174	-0,288
255,990	162,718	-0,201	-0,196
257,005	-11,411	-0,273	-0,124
258,020	-19,113	-0,215	-0,092
259,034	262,123	-0,116	-0,140
260,049	27,103	-0,118	-0,068
261,063	-41,312	-0,193	-0,068
262,078	-200,000	-0,182	0,000
263,093	212,320	-0,094	-0,102
264,107	490,793	-0,161	-0,255
265,122	155,415	-0,098	-0,094
266,136	-173,957	-0,225	0,004
267,151	213,468	-0,124	-0,136
268,166	628,102	-0,091	-0,159
269,180	-88,906	-0,151	-0,031
270,195	800,000	-0,073	-0,166
271,209	-200,000	-0,045	-0,194
272,224	-34,837	-0,122	-0,046
273,239	20,514	-0,089	0,049
274,253	-24,563	-0,093	-0,038
275,268	-56,824	-0,158	-0,048
276,282	800,000	-0,080	-0,184
277,297	97,154	-0,226	-0,179
278,312	193,549	-0,093	-0,097
279,326	55,605	-0,191	-0,127
280,341	800,000	-0,069	-0,139
281,355	29,781	-0,228	-0,134
282,370	253,254	-0,147	-0,173
283,384	-56,564	-0,267	-0,081
284,399	-14,325	-0,226	-0,100
285,414	248,162	-0,152	-0,177
286,428	120,220	-0,183	-0,157
287,443	126,877	-0,151	-0,132
288,457	210,591	-0,066	0,071
289,472	72,421	-0,118	-0,085
290,487	-64,035	-0,164	-0,046
291,501	23,109	-0,112	-0,063
292,516	-200,000	-0,039	-0,222
293,530	-49,352	-0,205	0,067
294,545	123,711	-0,148	-0,128
295,560	240,430	-0,093	-0,107
296,574	85,582	-0,197	-0,149
297,589	352,059	-0,091	-0,124
298,603	17,522	-0,224	-0,122
299,618	207,048	-0,092	-0,099
300,633	251,383	-0,164	-0,193
301,647	-63,515	-0,145	-0,041
302,662	239,900	-0,146	-0,168
303,676	218,718	-0,150	-0,165
304,691	420,287	-0,190	-0,282
305,706	-200,000	-0,040	-0,186
306,720	662,111	-0,108	-0,192
307,735	-200,000	-0,029	-0,157
308,749	-109,869	-0,078	-0,011
309,764	52,619	-0,080	-0,052
310,779	-91,427	-0,127	-0,025
311,793	-151,683	-0,195	-0,010
312,808	20,412	-0,071	-0,040
313,822	-9,230	-0,086	-0,039
314,837	-68,069	-0,285	-0,076
315,852	50,339	-0,042	-0,027
316,866	-155,882	-0,217	0,009
317,881	517,541	-0,100	-0,161
318,895	169,317	-0,075	-0,074
319,910	-152,352	-0,173	-0,008
320,925	40,913	-0,157	-0,097
321,939	-200,000	-0,075	-0,245
322,954	-57,101	-0,115	-0,035
323,968	67,258	-0,124	-0,087
324,983	83,311	-0,124	-0,092
325,997	-66,168	-0,161	-0,044
327,012	110,766	-0,108	-0,089
328,027	-119,784	-0,100	-0,012
329,041	-53,934	-0,207	-0,064
330,056	-120,135	-0,229	-0,027
331,070	141,678	-0,111	-0,101
332,085	800,000	-0,113	-0,224
333,100	22,897	-0,179	-0,101
334,114	222,585	-0,194	-0,215
335,129	-6,326	-0,186	-0,087
336,143	79,056	-0,090	-0,067
337,158	-200,000	-0,012	-0,073
338,173	800,000	-0,074	-0,160
339,187	153,424	-0,141	-0,132
340,202	800,000	-0,068	-0,166
341,216	92,662	-0,152	-0,118
342,231	371,215	-0,130	-0,182
343,246	413,058	-0,170	-0,249
344,260	-146,625	-0,196	-0,011
345,275	340,021	-0,120	-0,161
346,289	-139,050	-0,112	0,008
347,304	548,039	-0,092	-0,153
348,319	427,717	-0,076	-0,113
349,333	62,177	-0,173	-0,119
350,348	-134,136	-0,081	0,007
351,362	-200,000	-0,034	-0,138
352,377	118,682	-0,151	-0,128
353,392	133,398	-0,122	-0,108
354,406	78,063	-0,217	-0,159
355,421	208,478	1317,982	1415,685
356,435	160,411	1479,121	1416,179
