DTS Sentinel unit serial number:	SN410029Multiplexer serial number:	ORYXHardware model number:	OX2-SRSoftware version number:	ORYX F/W v4,00 Oryx Data Collector v3.7.2.0data status	okinstallation	B3 Nyhavnadifferential loss correction	single-endedforward channel	channel 1reverse channel	N/Adate	2023/11/29time	11:17:30forward acquisition time	300,00reverse acquisition time	0,00gamma	499,1914k internal	0,3211k external	0,3211temperature offset calibration	1,0000default loss term (dB/km)	0,3820temperature slope calibration	1,0000multiplexer offset coefficient	1,0000multiplexer slope coefficient	1,0000fibre end	0,00T internal ref (°C)	9,51T ext. ref 1 (°C)	-5,48T ext. ref 2 (°C)	-5,62length (m)	temperature (°C)	Stokes	anti-Stokes-744,400	198,052	-0,125	-0,139
-743,385	-200,000	-0,071	0,290
-742,371	83,861	-0,144	-0,114
-741,356	-200,000	-0,013	0,240
-740,342	-41,227	-0,186	-0,069
-739,327	-200,000	-0,044	0,331
-738,312	300,359	-0,323	-0,433
-737,298	-200,000	-0,002	0,263
-736,283	73,206	-0,241	-0,183
-735,269	800,000	0,087	0,215
-734,254	-71,611	-0,259	-0,070
-733,239	-83,317	-0,235	0,054
-732,225	800,000	-0,107	-0,263
-731,210	-182,689	0,234	-0,003
-730,196	-43,566	-0,212	0,077
-729,181	301,641	-0,056	-0,075
-728,167	-92,139	0,059	0,012
-727,152	-106,231	-0,065	0,010
-726,137	800,000	-0,039	-0,095
-725,123	714,834	-0,038	-0,074
-724,108	48,955	-0,061	-0,042
-723,094	-200,000	-0,022	-0,128
-722,079	-61,444	-0,105	0,032
-721,064	-91,277	-0,029	-0,006
-720,050	-24,907	0,055	0,023
-719,035	-9,369	-0,030	-0,015
-718,021	-200,000	0,007	-0,124
-717,006	-162,953	-0,207	0,007
-715,991	488,598	-0,067	-0,111
-714,977	800,000	-0,043	-0,118
-713,962	575,397	-0,088	-0,157
-712,948	-15,423	0,099	0,046
-711,933	100,259	0,148	-0,124
-710,918	463,120	0,035	-0,056
-709,904	-0,358	-0,059	0,030
-708,889	253,672	-0,076	0,094
-707,875	800,000	-0,033	-0,100
-706,860	-200,000	-0,019	-0,090
-705,845	-200,000	-0,030	0,235
-704,831	62,504	-0,110	0,079
-703,816	73,899	-0,087	-0,066
-702,802	-125,590	-0,105	-0,011
-701,787	665,952	-0,076	-0,142
-700,772	-200,000	-0,088	-0,327
-699,758	800,000	0,036	-0,112
-698,743	562,110	-0,036	-0,063
-697,729	229,119	-0,042	0,049
-696,714	-200,000	-0,012	-0,070
-695,699	-59,638	-0,139	-0,043
-694,685	-20,643	0,141	-0,063
-693,670	89,950	-0,083	-0,067
-692,656	-47,434	-0,112	0,039
-691,641	800,000	0,019	0,052
-690,627	800,000	-0,021	-0,068
-689,612	90,674	0,005	-0,004
-688,597	97,412	-0,035	0,029
-687,583	-3,710	-0,054	-0,027
-686,568	249,345	-0,051	-0,063
-685,554	800,000	-0,021	-0,064
-684,539	-200,000	-0,000	-0,141
-683,524	61,424	0,050	-0,036
-682,510	201,960	-0,085	-0,095
-681,495	-122,711	0,052	-0,006
-680,481	350,412	-0,038	-0,055
-679,466	-200,000	-0,006	-0,151
-678,451	-163,432	-0,068	0,002
-677,437	47,506	-0,090	-0,060
-676,422	538,709	-0,030	0,052
-675,408	-200,000	-0,001	-0,074
-674,393	800,000	0,028	0,060
-673,378	7,217	0,067	0,036
-672,364	208,608	0,029	-0,033
-671,349	36,084	-0,076	-0,048
-670,335	-48,486	0,052	-0,018
-669,320	-200,000	0,011	0,083
-668,305	-84,392	0,113	-0,026
-667,291	800,000	0,042	-0,090
-666,276	-200,000	-0,017	-0,145
-665,262	-200,000	0,011	-0,065
-664,247	21,865	-0,122	0,072
-663,232	-5,139	0,035	0,017
-662,218	-54,135	0,084	-0,027
-661,203	315,007	-0,041	0,056
-660,189	-118,228	0,060	-0,008
-659,174	117,762	-0,134	-0,119
-658,159	-85,432	-0,079	0,018
-657,145	198,345	-0,073	-0,081
-656,130	6,123	-0,036	-0,019
-655,116	27,476	-0,083	0,050
-654,101	15,837	0,072	-0,041
-653,086	-123,245	-0,142	0,016
-652,072	28,750	-0,117	-0,072
-651,057	182,009	0,076	-0,081
-650,043	-25,525	-0,098	0,042
-649,028	-48,797	-0,068	0,023
-648,014	800,000	0,017	-0,044
-646,999	-38,796	-0,221	-0,084
-645,984	527,899	-0,059	-0,101
-644,970	-34,553	-0,136	-0,054
-643,955	310,449	0,031	-0,041
-642,941	108,627	-0,081	-0,070
-641,926	-43,606	-0,067	-0,024
-640,911	238,412	0,043	0,051
-639,897	204,957	0,114	0,128
-638,882	132,307	-0,091	0,084
-637,868	800,000	-0,010	0,021
-636,853	-134,862	-0,067	-0,006
-635,838	259,938	-0,072	0,090
-634,824	-122,573	-0,066	-0,008
-633,809	51,188	-0,037	0,025
-632,795	8,041	0,084	0,045
-631,780	68,571	-0,029	-0,021
-630,765	451,239	0,109	-0,175
-629,751	-200,000	0,007	-0,131
-628,736	800,000	-0,019	-0,042
-627,722	372,384	0,114	-0,167
-626,707	-34,926	0,042	0,016
-625,692	-200,000	0,023	0,090
-624,678	-162,806	-0,127	-0,004
-623,663	-101,971	0,065	-0,011
-622,649	124,833	0,046	-0,042
-621,634	-200,000	-0,004	-0,064
-620,619	198,710	0,025	0,028
-619,605	-126,554	0,124	0,013
-618,590	369,425	0,046	0,068
-617,576	56,904	-0,088	0,062
-616,561	-76,045	-0,116	-0,029
-615,546	-122,727	-0,046	-0,005
-614,532	49,760	-0,039	-0,026
-613,517	-5,030	0,042	0,021
-612,503	-200,000	-0,030	-0,144
-611,488	295,780	-0,016	0,021
-610,474	800,000	0,024	0,061
-609,459	800,000	0,007	-0,021
-608,444	731,051	0,052	-0,101
-607,430	-118,470	-0,094	0,012
-606,415	800,000	-0,012	-0,033
-605,401	170,665	-0,080	0,083
-604,386	720,246	0,058	0,112
-603,371	269,509	0,059	0,075
-602,357	-127,517	-0,089	0,009
-601,342	94,828	-0,085	0,070
-600,328	-93,517	-0,075	-0,015
-599,313	-200,000	0,010	-0,177
-598,298	192,251	0,052	0,057
-597,284	800,000	-0,049	-0,137
-596,269	74,601	-0,053	0,040
-595,255	-137,742	0,092	0,007
-594,240	20,246	-0,066	-0,038
-593,225	-12,833	0,005	0,002
-592,211	-200,000	0,025	-0,089
-591,196	-200,000	-0,040	-0,144
-590,182	321,985	0,052	-0,072
-589,167	-200,000	0,051	0,189
-588,152	128,530	0,101	0,092
-587,138	-77,905	-0,145	0,036
-586,123	15,818	-0,054	0,030
-585,109	-200,000	-0,021	-0,080
-584,094	336,426	-0,105	-0,147
-583,079	37,214	-0,068	-0,043
-582,065	199,933	-0,013	0,014
-581,050	-200,000	-0,033	-0,162
-580,036	-150,188	-0,080	-0,004
-579,021	213,213	0,064	-0,073
-578,006	-90,457	-0,168	0,035
-576,992	-200,000	-0,023	0,100
-575,977	800,000	-0,024	-0,075
-574,963	-82,563	-0,071	0,017
-573,948	17,864	-0,045	-0,026
-572,934	-5,382	-0,062	-0,030
-571,919	-200,000	0,015	-0,066
-570,904	-200,000	0,035	-0,153
-569,890	-49,769	-0,090	0,031
-568,875	-52,500	0,101	-0,033
-567,861	-200,000	0,011	-0,080
-566,846	-128,926	-0,142	0,014
-565,831	119,199	0,032	-0,029
-564,817	161,409	0,092	-0,093
-563,802	-200,000	-0,031	0,101
-562,788	-200,000	-0,011	0,096
-561,773	800,000	-0,034	-0,093
-560,758	466,871	0,007	0,012
-559,744	67,714	0,129	0,095
-558,729	277,788	0,106	-0,136
-557,715	-101,168	-0,131	0,023
-556,700	-200,000	0,003	0,069
-555,685	323,604	0,124	-0,170
-554,671	-161,688	-0,072	0,003
-553,656	50,089	0,083	0,057
-552,642	-148,512	0,112	-0,006
-551,627	-144,549	-0,104	0,007
-550,612	791,661	-0,044	-0,087
-549,598	291,438	-0,070	-0,092
-548,583	-77,898	-0,116	0,029
-547,569	0,504	0,128	-0,066
-546,554	40,683	-0,049	-0,032
-545,539	800,000	0,039	-0,083
-544,525	782,932	0,012	0,024
-543,510	-62,544	-0,036	-0,011
-542,496	-114,289	0,150	0,021
-541,481	-77,596	-0,124	0,031
-540,466	800,000	-0,054	-0,129
-539,452	192,444	0,093	0,101
-538,437	248,190	0,036	0,044
-537,423	800,000	0,024	0,057
-536,408	-59,853	-0,086	-0,026
-535,393	389,265	-0,028	0,041
-534,379	502,385	-0,060	-0,100
-533,364	53,808	0,054	0,038
-532,350	800,000	0,008	-0,018
-531,335	164,235	0,060	0,061
-530,321	37,119	0,041	-0,026
-529,306	342,386	0,041	-0,058
-528,291	-118,356	-0,112	0,014
-527,277	10,832	0,054	0,029
-526,262	751,703	0,040	0,077
-525,248	800,000	-0,009	-0,023
-524,233	24,185	0,127	0,075
-523,218	18,886	0,030	-0,017
-522,204	-71,261	-0,098	-0,026
-521,189	-200,000	0,007	0,126
-520,175	176,790	-0,093	-0,097
-519,160	-76,467	0,060	0,015
-518,145	800,000	0,009	-0,018
-517,131	800,000	0,025	0,056
-516,116	-145,607	-0,097	0,006
-515,102	37,598	-0,110	-0,070
-514,087	258,429	-0,096	-0,119
-513,072	61,124	-0,069	-0,049
-512,058	581,996	-0,008	0,014
-511,043	-93,158	0,137	0,027
-510,029	21,717	-0,051	0,030
-509,014	-200,000	-0,005	0,055
-507,999	54,704	-0,044	0,030
-506,985	-95,041	-0,065	-0,012
-505,970	108,943	-0,084	-0,072
-504,956	-131,529	-0,044	-0,004
-503,941	-171,132	0,108	-0,003
-502,926	29,518	0,045	-0,028
-501,912	445,684	-0,025	0,040
-500,897	404,057	-0,028	-0,043
-499,883	232,190	-0,083	0,098
-498,868	75,043	-0,042	-0,032
-497,853	800,000	-0,039	-0,108
-496,839	620,230	-0,028	0,051
-495,824	-200,000	-0,001	-0,015
-494,810	800,000	0,049	0,154
-493,795	800,000	-0,017	-0,045
-492,781	260,905	0,029	0,036
-491,766	800,000	-0,018	-0,041
-490,751	106,956	-0,088	0,075
-489,737	800,000	0,059	-0,173
-488,722	-112,715	0,088	-0,012
-487,708	-26,879	0,082	0,034
-486,693	371,951	-0,058	0,084
-485,678	77,898	-0,056	0,043
-484,664	800,000	0,064	-0,134
-483,649	-31,416	-0,113	-0,045
-482,635	800,000	-0,037	0,102
-481,620	468,520	-0,046	0,074
-480,605	-69,779	0,123	-0,034
-479,591	800,000	-0,026	0,078
-478,576	141,095	-0,047	0,045
-477,562	-200,000	-0,005	-0,038
-476,547	-200,000	-0,032	-0,113
-475,532	-149,590	0,033	0,002
-474,518	528,167	0,069	-0,118
-473,503	-200,000	-0,022	-0,105
-472,489	121,943	0,034	0,031
-471,474	306,683	0,104	0,140
-470,459	-200,000	-0,009	-0,154
-469,445	327,432	0,108	-0,149
-468,430	68,171	-0,056	0,041
-467,416	-71,780	0,163	0,043
-466,401	-31,825	-0,069	0,028
-465,386	62,813	0,144	0,103
-464,372	139,510	0,030	0,028
-463,357	-21,897	-0,177	-0,077
-462,343	126,551	-0,042	-0,038
-461,328	377,028	-0,018	0,026
-460,313	333,670	-0,051	0,071
-459,299	-37,037	0,115	0,044
-458,284	800,000	-0,022	0,067
-457,270	440,629	-0,077	-0,121
-456,255	209,323	0,034	0,039
-455,241	79,890	0,029	-0,022
-454,226	166,292	0,054	-0,055
-453,211	-200,000	-0,009	-0,183
-452,197	-106,347	-0,114	-0,018
-451,182	-170,327	0,167	0,004
-450,168	-26,926	0,088	-0,037
-449,153	800,000	-0,013	-0,041
-448,138	42,595	-0,060	0,039
-447,124	60,550	0,023	0,016
-446,109	-200,000	0,013	0,077
-445,095	800,000	0,014	0,042
-444,080	33,970	0,038	0,024
-443,065	-40,433	-0,124	0,046
-442,051	55,248	0,036	-0,025
-441,036	549,290	0,025	0,043
-440,022	-89,783	0,014	0,003
-439,007	409,519	-0,077	-0,117
-437,992	91,835	-0,071	-0,057
-436,978	-200,000	-0,029	-0,093
-435,963	-200,000	-0,003	-0,025
-434,949	166,277	-0,090	-0,092
-433,934	-200,000	-0,016	-0,103
-432,919	800,000	-0,058	-0,166
-431,905	-32,253	-0,029	0,011
-430,890	-101,638	0,183	-0,032
-429,876	-95,622	0,154	-0,029
-428,861	-200,000	0,018	0,150
-427,846	219,021	-0,083	-0,096
-426,832	-200,000	0,000	-0,082
-425,817	800,000	0,032	-0,073
-424,803	-200,000	0,021	0,087
-423,788	800,000	0,060	0,161
-422,773	32,420	0,075	-0,047
-421,759	280,977	0,116	0,149
-420,744	421,467	0,084	0,130
-419,730	-4,996	0,144	-0,071
-418,715	303,313	-0,077	0,103
-417,701	-17,365	0,173	-0,077
-416,686	-81,390	-0,075	0,018
-415,671	96,414	0,123	0,101
-414,657	110,438	0,108	0,093
-413,642	-200,000	0,009	-0,117
-412,628	690,074	0,045	0,085
-411,613	21,930	0,060	-0,035
-410,598	17,556	-0,066	-0,038
-409,584	-200,000	-0,007	-0,144
-408,569	-136,064	0,047	-0,004
-407,555	-28,187	0,132	-0,054
-406,540	224,411	0,047	0,054
-405,525	-48,795	-0,051	0,017
-404,511	-110,249	-0,028	-0,004
-403,496	168,122	-0,084	0,085
-402,482	-155,167	0,132	0,006
-401,467	800,000	-0,023	0,062
-400,452	678,114	0,039	0,073
-399,438	-77,360	-0,084	0,021
-398,423	530,342	0,033	0,056
-397,409	316,001	-0,048	0,065
-396,394	800,000	-0,014	0,039
-395,379	-144,500	0,073	0,005
-394,365	800,000	0,013	0,037
-393,350	251,736	0,090	0,110
-392,336	-200,000	0,023	0,112
-391,321	-200,000	0,026	-0,083
-390,306	-55,656	-0,074	-0,023
-389,292	618,485	0,004	-0,007
-388,277	336,886	0,041	0,057
-387,263	-51,657	0,126	-0,042
-386,248	-200,000	0,012	0,059
-385,233	99,841	-0,069	0,057
-384,219	211,262	-0,054	0,061
-383,204	-50,451	-0,093	-0,031
-382,190	-200,000	-0,031	-0,116
-381,175	-200,000	0,010	0,051
-380,160	-200,000	0,011	-0,169
-379,146	-112,724	-0,117	-0,016
-378,131	772,684	0,091	0,177
-377,117	-200,000	-0,010	0,132
-376,102	175,637	-0,040	-0,042
-375,088	-200,000	0,008	-0,197
-374,073	567,466	-0,090	-0,157
-373,058	322,951	-0,050	0,068
-372,044	72,701	0,038	-0,028
-371,029	109,202	0,098	-0,084
-370,015	-200,000	0,016	0,062
-369,000	621,846	-0,087	0,156
-367,985	-200,000	-0,001	0,078
-366,971	800,000	-0,044	0,115
-365,956	601,596	0,009	0,015
-364,942	800,000	0,038	0,103
-363,927	-136,449	0,185	0,015
-362,912	-200,000	-0,008	-0,040
-361,898	-169,304	-0,113	-0,003
-360,883	-200,000	-0,009	-0,034
-359,869	24,238	-0,013	0,008
-358,854	-40,031	-0,108	-0,040
-357,839	-120,828	-0,087	0,010
-356,825	641,447	0,038	-0,070
-355,810	-200,000	-0,023	0,093
-354,796	800,000	0,021	0,066
-353,781	-200,000	0,020	-0,079
-352,766	-21,817	-0,067	-0,029
-351,752	-106,913	0,054	0,008
-350,737	23,397	0,072	0,042
-349,723	-65,337	0,111	0,032
-348,708	370,843	0,047	0,069
-347,693	101,887	0,102	0,085
-346,679	-200,000	0,023	-0,104
-345,664	142,845	0,133	-0,126
-344,650	8,582	-0,137	0,074
-343,635	-51,538	-0,076	-0,025
-342,620	-157,016	0,113	-0,005
-341,606	800,000	0,004	0,010
-340,591	800,000	-0,029	-0,071
-339,577	-104,065	-0,081	-0,013
-338,562	800,000	-0,022	0,051
-337,548	-34,028	0,156	0,061
-336,533	384,203	0,057	0,084
-335,518	-200,000	-0,001	0,078
-334,504	239,216	0,011	0,013
-333,489	97,257	-0,027	-0,022
-332,475	800,000	-0,035	-0,070
-331,460	171,576	-0,017	-0,018
-330,445	800,000	0,034	-0,103
-329,431	-200,000	-0,002	0,172
-328,416	160,484	-0,033	0,032
-327,402	180,837	0,066	0,069
-326,387	73,886	0,106	0,079
-325,372	-200,000	-0,004	-0,036
-324,358	-200,000	0,025	-0,187
-323,343	134,377	-0,018	0,017
-322,329	260,092	-0,042	-0,052
-321,314	87,362	0,047	0,037
-320,299	15,705	-0,013	-0,007
-319,285	-90,857	0,032	0,007
-318,270	106,382	0,074	0,063
-317,256	614,560	0,052	-0,094
-316,241	328,484	-0,085	-0,117
-315,226	-114,937	-0,109	0,015
-314,212	800,000	0,093	0,260
-313,197	76,925	0,089	-0,067
-312,183	706,760	0,026	-0,050
-311,168	105,246	-0,080	-0,067
-310,153	-119,062	-0,144	0,018
-309,139	93,828	0,059	-0,048
-308,124	-108,563	0,089	0,014
-307,110	394,695	0,063	0,094
-306,095	-200,000	0,001	-0,075
-305,080	-77,611	0,171	-0,042
-304,066	40,940	-0,101	-0,065
-303,051	-48,896	-0,037	0,013
-302,037	-66,789	0,042	-0,012
-301,022	246,384	0,113	-0,136
-300,008	407,395	0,029	-0,043
-298,993	-200,000	-0,012	0,053
-297,978	-24,483	0,153	0,065
-296,964	-56,839	-0,099	-0,031
-295,949	-179,138	-0,067	-0,001
-294,935	2,465	-0,068	-0,035
-293,920	-4,602	-0,060	0,029
-292,905	-200,000	-0,002	0,039
-291,891	69,984	0,084	-0,061
-290,876	45,830	-0,092	-0,060
-289,862	-200,000	-0,001	0,019
-288,847	56,657	-0,142	-0,098
-287,832	215,371	-0,096	0,109
-286,818	488,927	-0,061	0,100
-285,803	474,375	0,060	0,097
-284,789	374,707	-0,039	-0,057
-283,774	-123,209	-0,046	-0,005
-282,759	92,427	0,074	-0,059
-281,745	94,845	0,032	0,026
-280,730	400,869	-0,043	-0,064
-279,716	-175,747	0,125	-0,002
-278,701	-9,995	0,096	-0,045
-277,686	99,244	0,071	0,058
-276,672	-64,648	-0,118	-0,034
-275,657	41,598	0,188	-0,121
-274,643	-112,525	-0,137	0,019
-273,628	-200,000	-0,027	-0,116
-272,613	-200,000	0,013	0,066
-271,599	-156,524	0,146	-0,006
-270,584	800,000	0,045	0,133
-269,570	800,000	-0,087	0,180
-268,555	-200,000	0,006	-0,078
-267,540	-200,000	0,005	0,018
-266,526	-84,554	-0,037	0,008
-265,511	306,970	-0,040	0,054
-264,497	-24,344	0,086	0,036
-263,482	-76,876	0,118	0,029
-262,467	-200,000	0,027	0,110
-261,453	551,666	0,065	-0,111
-260,438	-200,000	0,002	-0,143
-259,424	800,000	0,053	0,158
-258,409	-200,000	0,012	0,106
-257,395	800,000	0,002	-0,004
-256,380	-200,000	0,016	-0,066
-255,365	-51,857	0,167	0,055
-254,351	-74,864	-0,160	0,041
-253,336	-69,039	-0,036	0,010
-252,322	213,240	-0,076	-0,085
-251,307	-56,977	-0,176	0,055
-250,292	80,700	0,060	0,046
-249,278	-155,955	0,119	-0,005
-248,263	-22,062	-0,100	0,043
-247,249	-145,719	-0,101	0,006
-246,234	-72,293	-0,030	-0,008
-245,219	-49,574	-0,115	-0,039
-244,205	426,565	-0,034	0,052
-243,190	157,961	-0,053	-0,052
-242,176	32,122	-0,038	-0,023
-241,161	800,000	0,020	-0,052
-240,146	-200,000	-0,014	0,121
-239,132	800,000	-0,062	-0,190
-238,117	800,000	-0,042	-0,113
-237,103	-13,627	-0,126	0,058
-236,088	-200,000	-0,027	0,112
-235,073	-200,000	0,008	-0,052
-234,059	-200,000	-0,008	0,028
-233,044	-81,874	-0,181	-0,042
-232,030	-77,956	0,134	0,033
-231,015	1,382	-0,105	-0,053
-230,000	441,543	-0,093	0,146
-228,986	246,115	-0,022	0,026
-227,971	94,708	0,102	0,082
-226,957	606,141	0,085	0,150
-225,942	418,572	-0,046	0,070
-224,927	800,000	0,060	-0,130
-223,913	67,864	0,098	-0,071
-222,898	-200,000	0,002	0,032
-221,884	213,993	-0,047	0,052
-220,869	167,931	0,055	0,055
-219,855	-200,000	0,020	0,187
-218,840	-200,000	0,033	-0,130
-217,825	800,000	-0,042	0,082
-216,811	25,383	-0,095	0,056
-215,796	264,208	-0,077	-0,095
-214,782	746,959	0,066	0,128
-213,767	3,957	0,206	0,107
-212,752	20,321	0,019	0,011
-211,738	-20,202	-0,072	0,031
-210,723	61,627	0,051	-0,036
-209,709	800,000	-0,012	0,035
-208,694	334,441	-0,028	-0,039
-207,679	223,388	0,028	-0,033
-206,665	212,843	0,052	0,058
-205,650	-55,911	0,158	0,050
-204,636	-3,593	0,034	-0,017
-203,621	273,259	0,052	0,065
-202,606	-200,000	-0,028	0,115
-201,592	-200,000	0,022	-0,087
-200,577	-200,000	0,026	-0,117
-199,563	-31,465	0,123	0,049
-198,548	-158,738	0,064	-0,003
-197,533	800,000	-0,018	0,054
-196,519	-200,000	-0,019	-0,104
-195,504	-16,222	-0,063	-0,028
-194,490	-200,000	-0,033	-0,122
-193,475	153,889	0,061	0,060
-192,460	-133,489	-0,054	-0,005
-191,446	89,981	-0,110	-0,087
-190,431	161,253	0,063	0,063
-189,417	800,000	0,030	0,067
-188,402	256,478	-0,035	-0,043
-187,387	-200,000	-0,026	-0,143
-186,373	800,000	-0,066	-0,191
-185,358	329,323	0,053	-0,073
-184,344	800,000	-0,028	-0,059
-183,329	-165,856	0,039	-0,001
-182,315	-200,000	-0,026	0,209
-181,300	203,631	-0,104	0,114
-180,285	185,979	0,071	0,075
-179,271	800,000	-0,027	0,067
-178,256	335,327	-0,115	0,158
-177,242	-160,339	-0,127	0,005
-176,227	-54,568	0,148	0,047
-175,212	-200,000	-0,010	-0,040
-174,198	800,000	0,032	-0,064
-173,183	800,000	0,022	-0,051
-172,169	-200,000	0,033	-0,126
-171,154	800,000	0,057	-0,126
-170,139	-200,000	0,026	0,109
-169,125	-200,000	0,012	0,170
-168,110	387,539	-0,060	0,088
-167,096	532,394	0,036	0,061
-166,081	13,098	-0,048	0,026
-165,066	-200,000	0,004	-0,027
-164,052	54,699	-0,067	0,046
-163,037	-200,000	-0,005	0,096
-162,023	-0,588	0,091	0,045
-161,008	-200,000	-0,010	0,077
-159,993	427,406	0,088	0,135
-158,979	270,003	-0,024	0,030
-157,964	-186,841	-0,116	0,001
-156,950	798,453	0,046	-0,090
-155,935	-200,000	-0,000	0,054
-154,920	-200,000	0,004	0,056
-153,906	-200,000	-0,008	-0,101
-152,891	-200,000	0,006	-0,070
-151,877	1,373	0,170	0,086
-150,862	800,000	-0,021	-0,052
-149,847	800,000	-0,028	0,076
-148,833	800,000	-0,024	0,070
-147,818	-42,965	0,171	0,061
-146,804	-95,477	0,059	0,011
-145,789	-200,000	-0,005	-0,027
-144,775	800,000	0,060	0,154
-143,760	251,493	-0,036	0,044
-142,745	-200,000	0,009	-0,125
-141,731	-113,534	-0,118	0,016
-140,716	800,000	0,016	0,040
-139,702	73,140	0,019	0,014
-138,687	800,000	0,061	0,121
-137,672	-19,030	-0,049	-0,022
-136,658	800,000	0,084	-0,170
-135,643	-200,000	-0,003	0,023
-134,629	-32,710	-0,073	0,029
-133,614	-200,000	-0,040	-0,168
-132,599	800,000	0,024	0,072
-131,585	373,240	-0,018	-0,026
-130,570	173,392	-0,075	0,077
-129,556	352,623	0,071	-0,100
-128,541	253,123	-0,026	-0,031
-127,526	-35,877	0,167	0,064
-126,512	-200,000	-0,025	0,091
-125,497	168,222	0,100	0,101
-124,483	509,668	0,019	-0,032
-123,468	-128,379	-0,042	0,004
-122,453	-97,546	-0,082	-0,015
-121,439	49,585	-0,079	0,052
-120,424	188,729	-0,063	0,067
-119,410	20,057	0,016	-0,009
-118,395	-200,000	0,005	0,067
-117,380	-200,000	-0,012	-0,081
-116,366	269,416	0,074	-0,092
-115,351	-104,589	-0,055	-0,009
-114,337	800,000	-0,069	-0,157
-113,322	-18,366	-0,041	0,018
-112,307	-103,787	-0,065	0,011
-111,293	591,483	-0,058	0,101
-110,278	-125,084	0,116	-0,012
-109,264	800,000	0,018	0,054
-108,249	-79,517	-0,095	0,022
-107,234	-200,000	0,000	-0,072
-106,220	92,832	-0,121	-0,097
-105,205	325,329	0,049	0,067
-104,191	61,060	0,065	-0,046
-103,176	-160,112	-0,081	0,003
-102,162	-90,523	-0,050	0,010
-101,147	-122,513	0,099	0,011
-100,132	-53,007	-0,072	-0,023
-99,118	-145,773	0,033	-0,002
-98,103	-161,205	0,117	0,004
-97,089	-90,449	0,048	-0,010
-96,074	800,000	0,020	0,051
-95,059	664,361	0,047	0,086
-94,045	-200,000	0,054	-0,230
-93,030	44,822	-0,104	0,067
-92,016	341,589	-0,085	0,118
-91,001	-111,752	0,065	0,009
-89,986	52,432	0,122	-0,082
-88,972	-200,000	0,022	0,078
-87,957	-200,000	-0,001	0,013
-86,943	235,897	-0,039	-0,046
-85,928	277,525	0,007	0,009
-84,913	-200,000	-0,009	-0,044
-83,899	-200,000	-0,000	-0,027
-82,884	-200,000	-0,000	0,074
-81,870	-48,531	-0,105	0,035
-80,855	181,908	-0,057	0,059
-79,840	-81,790	-0,131	-0,030
-78,826	502,339	0,093	-0,152
-77,811	-200,000	-0,045	-0,144
-76,797	-20,963	0,058	0,025
-75,782	-200,000	-0,001	0,025
-74,767	-200,000	0,017	-0,069
-73,753	-200,000	0,002	0,207
-72,738	-200,000	-0,027	-0,101
-71,724	800,000	-0,050	0,114
-70,709	-125,619	0,034	-0,004
-69,694	800,000	-0,011	-0,026
-68,680	159,888	0,013	-0,013
-67,665	304,845	-0,042	0,055
-66,651	315,195	0,028	-0,038
-65,636	426,564	0,072	0,110
-64,622	106,623	-0,012	-0,010
-63,607	-112,649	-0,063	-0,009
-62,592	205,414	0,032	-0,035
-61,578	-200,000	-0,033	0,131
-60,563	-128,657	0,188	-0,019
-59,549	289,403	-0,119	0,152
-58,534	49,427	-1,869	-1,240
-57,519	473,440	-1,255	-2,004
-56,505	-200,000	-0,358	-4,318
-55,490	589,510	0,887	1,549
-54,476	800,000	5,177	11,433
-53,461	-200,000	21,695	343,967
-52,446	800,000	763,387	2350,455
-51,432	549,685	1662,501	2823,916
-50,417	71,812	1658,430	1215,571
-49,403	17,292	1531,951	855,737
-48,388	11,330	1455,670	784,328
-47,373	19,429	1447,369	818,639
-46,359	14,875	1436,319	790,736
-45,344	9,620	1432,041	763,360
-44,330	9,536	1430,292	761,996
-43,315	9,511	1428,650	760,975
-42,300	9,535	1426,625	759,981
-41,286	9,586	1425,540	759,614
-40,271	9,517	1424,439	758,670
-39,257	9,537	1423,242	758,095
-38,242	9,595	1421,922	757,638
-37,227	9,564	1421,041	756,990
-36,213	9,584	1419,735	756,359
-35,198	9,608	1418,589	755,832
-34,184	9,666	1417,359	755,421
-33,169	9,584	1415,928	754,240
-32,154	9,573	1415,115	753,727
-31,140	9,613	1413,762	753,165
-30,125	9,670	1412,517	752,741
-29,111	9,621	1411,550	751,962
-28,096	9,591	1410,611	751,293
-27,082	9,568	1409,293	750,453
-26,067	9,560	1408,086	749,743
-25,052	9,559	1407,035	749,151
-24,038	9,569	1406,346	748,801
-23,023	9,538	1405,228	748,031
-22,009	9,515	1404,343	747,422
-20,994	9,532	1403,219	746,872
-19,979	9,528	1402,402	746,391
-18,965	9,506	1401,475	745,765
-17,950	9,468	1400,369	744,969
-16,936	9,496	1399,486	744,601
-15,921	9,426	1398,534	743,741
-14,906	9,442	1397,714	743,347
-13,892	9,468	1396,691	742,894
-12,877	9,474	1396,011	742,531
-11,863	9,468	1395,250	742,071
-10,848	9,432	1394,028	741,224
-9,833	9,380	1393,342	740,588
-8,819	9,307	1392,359	739,699
-7,804	9,340	1391,296	739,256
-6,790	9,369	1390,405	738,888
-5,775	9,311	1389,351	738,033
-4,760	9,393	1388,252	737,798
-3,746	9,378	1387,612	737,360
-2,731	9,378	1386,697	736,842
-1,717	9,375	1385,862	736,358
-0,702	9,343	1383,960	735,169
0,313	13,394	1296,455	707,175
1,327	29,458	687,246	411,155
2,342	46,110	118,779	77,440
3,356	2,370	16,393	8,338
4,371	-5,997	3,594	1,727
5,386	-32,193	1,218	0,478
6,400	-200,000	0,119	0,600
7,415	120,917	-0,248	-0,218
8,429	-92,771	-0,271	-0,053
9,444	69,950	-0,309	-0,225
10,459	21,156	-0,276	-0,157
11,473	62,770	-0,398	-0,280
12,488	426,225	-0,140	-0,213
13,502	117,419	-0,365	-0,316
14,517	35,891	-0,180	-0,111
15,531	31,152	-0,393	-0,237
16,546	-6,901	-0,353	-0,168
17,561	91,316	-0,356	-0,281
18,575	16,751	-0,132	-0,073
19,590	-1,963	-0,208	-0,103
20,604	-71,919	-0,183	0,048
21,619	-20,317	-0,562	-0,243
22,634	257,507	-0,370	-0,449
23,648	-10,961	-0,409	-0,189
24,663	7,472	-0,375	-0,197
25,677	144,772	-0,200	-0,189
26,692	153,812	-0,322	-0,310
27,707	91,126	-0,377	-0,298
28,721	131,501	-0,327	-0,296
29,736	14,048	-0,369	-0,202
30,750	150,438	-0,314	-0,300
31,765	57,054	-0,460	-0,315
32,780	67,861	-0,438	-0,314
33,794	-2,940	-0,326	-0,159
34,809	52,528	-0,394	-0,264
35,823	-41,270	-0,429	-0,155
36,838	39,002	-0,409	-0,256
37,853	167,481	-0,374	-0,374
38,867	19,584	-0,472	-0,266
39,882	48,730	-0,429	-0,282
40,896	-0,807	-0,398	-0,197
41,911	80,713	-0,315	-0,238
42,926	101,275	-0,329	-0,269
43,940	-32,870	-0,356	-0,138
44,955	39,344	-0,348	-0,218
45,969	192,779	-0,311	-0,331
46,984	-47,029	-0,543	-0,185
47,999	54,209	-0,258	-0,174
49,013	184,641	-0,233	-0,243
50,028	86,785	-0,344	-0,267
51,042	98,510	-0,331	-0,268
52,057	53,933	-0,303	-0,204
53,071	137,265	-0,336	-0,309
54,086	118,421	-0,268	-0,232
55,101	-4,818	-0,404	-0,195
56,115	151,864	-0,332	-0,318
57,130	-123,170	-0,490	-0,054
58,144	375,923	-0,196	-0,281
59,159	101,796	-0,353	-0,289
60,174	94,968	-0,264	-0,211
61,188	10,012	-0,382	-0,203
62,203	72,713	-0,284	-0,208
63,217	-61,924	-0,302	-0,088
64,232	1,932	-0,251	-0,127
65,247	533,820	-0,228	-0,381
66,261	-14,819	-0,361	-0,162
67,276	125,315	-0,245	-0,216
68,290	39,012	-0,365	-0,228
69,305	-50,221	-0,186	-0,061
70,320	63,720	-0,367	-0,258
71,334	-60,305	-0,431	-0,128
72,349	75,545	-0,309	-0,228
73,363	28,735	-0,357	-0,212
74,378	-30,200	-0,401	-0,159
75,393	97,312	-0,321	-0,258
76,407	84,097	-0,231	-0,177
77,422	-92,327	-0,258	-0,051
78,436	222,606	-0,163	-0,184
79,451	33,114	-0,491	-0,297
80,466	68,578	-0,282	-0,202
81,480	2,166	-0,437	-0,220
82,495	349,217	-0,187	-0,260
83,509	251,594	-0,248	-0,296
84,524	4,812	-0,249	-0,128
85,539	-6,370	-0,297	-0,141
86,553	42,386	-0,262	-0,166
87,568	41,529	-0,324	-0,205
88,582	69,704	-0,247	-0,178
89,597	94,210	-0,235	-0,187
90,611	-49,500	-0,224	-0,074
91,626	-24,757	-0,296	-0,122
92,641	-108,678	-0,388	-0,058
93,655	708,090	-0,188	-0,349
94,670	240,513	-0,230	-0,269
95,684	-23,668	-0,445	-0,186
96,699	87,626	-0,173	-0,134
97,714	36,637	-0,305	-0,188
98,728	198,268	-0,229	-0,246
99,743	-103,839	-0,251	-0,041
100,757	305,870	-0,165	-0,214
101,772	176,846	-0,335	-0,341
102,787	-22,446	-0,348	-0,147
103,801	122,914	-0,198	-0,173
104,816	183,555	-0,225	-0,232
105,830	-81,342	-0,298	-0,068
106,845	-111,175	-0,301	-0,043
107,860	-57,491	-0,361	-0,110
108,874	190,103	-0,351	-0,368
109,889	-72,494	-0,298	-0,076
110,903	86,427	-0,294	-0,227
111,918	14,027	-0,347	-0,188
112,933	800,000	-0,074	-0,173
113,947	-95,710	-0,100	0,018
114,962	76,035	-0,258	-0,191
115,976	227,091	-0,184	-0,209
116,991	46,062	-0,356	-0,229
118,006	9,869	-0,187	-0,099
119,020	102,880	-0,292	-0,238
120,035	-4,904	-0,399	-0,191
121,049	73,185	-0,210	-0,153
122,064	381,397	-0,167	-0,240
123,079	254,113	-0,221	-0,264
124,093	46,182	-0,347	-0,224
125,108	0,856	-0,375	-0,187
126,122	-72,239	-0,248	-0,064
127,137	144,868	-0,285	-0,266
128,151	21,920	-0,164	-0,093
129,166	117,594	-0,199	-0,171
130,181	-111,025	-0,237	-0,034
131,195	86,803	-0,185	-0,142
132,210	-36,480	-0,266	-0,099
133,224	253,406	-0,216	-0,258
134,239	-169,559	-0,219	0,005
135,254	87,339	-0,213	-0,164
136,268	89,681	-0,248	-0,193
137,283	213,608	-0,232	-0,256
138,297	100,460	-0,322	-0,261
139,312	86,445	-0,354	-0,272
140,327	20,461	-0,257	-0,144
141,341	145,516	-0,265	-0,248
142,356	-72,729	-0,248	-0,063
143,370	143,998	-0,209	-0,194
144,385	-36,626	-0,253	-0,094
145,400	3,344	-0,327	-0,165
146,414	-7,789	-0,310	-0,145
147,429	-100,086	-0,324	0,056
148,443	-82,303	-0,258	-0,058
149,458	-48,105	-0,241	-0,080
150,473	98,133	-0,214	-0,172
151,487	227,627	-0,204	-0,231
152,502	34,852	-0,295	-0,179
153,516	89,180	-0,244	-0,189
154,531	234,134	-0,254	-0,292
155,546	38,976	-0,367	-0,228
156,560	65,798	-0,198	-0,139
157,575	-200,000	-0,034	-0,107
158,589	49,813	-0,313	-0,205
159,604	12,302	-0,222	-0,118
160,619	-11,124	-0,275	-0,126
161,633	12,500	-0,242	-0,129
162,648	19,302	-0,374	-0,208
163,662	-152,487	-0,169	-0,008
164,677	119,131	-0,169	-0,145
165,692	23,535	-0,265	-0,151
166,706	-52,811	-0,193	-0,062
167,721	90,783	-0,308	-0,240
168,735	100,243	-0,205	-0,166
169,750	53,700	-0,209	-0,139
170,764	318,352	-0,199	-0,263
171,779	43,569	-0,197	-0,125
172,794	6,583	-0,268	-0,138
173,808	290,241	-0,185	-0,234
174,823	342,471	-0,232	-0,316
175,837	12,245	-0,331	-0,177
176,852	117,743	-0,292	-0,249
177,867	22,312	-0,246	-0,140
178,881	16,179	-0,281	-0,153
179,896	58,547	-0,168	-0,115
180,910	439,486	-0,190	-0,290
181,925	24,667	-0,270	-0,155
182,940	-10,707	-0,350	-0,160
183,954	168,082	-0,242	-0,239
184,969	57,812	-0,180	-0,122
185,983	477,783	-0,107	-0,168
186,998	-62,961	-0,231	-0,066
188,013	131,442	-0,203	-0,181
189,027	468,287	-0,223	-0,349
190,042	336,461	-0,239	-0,323
191,056	256,654	-0,130	-0,155
192,071	400,307	-0,066	-0,096
193,086	90,266	-0,196	-0,152
194,100	-117,213	-0,248	-0,031
195,115	-156,908	-0,222	-0,009
196,129	91,885	-0,266	-0,207
197,144	104,023	-0,161	-0,131
198,159	-40,023	-0,191	-0,069
199,173	102,004	-0,252	-0,204
200,188	169,962	-0,189	-0,187
201,202	138,306	-0,225	-0,204
202,217	154,142	-0,178	-0,169
203,232	49,965	-0,185	-0,121
204,246	125,999	-0,204	-0,179
205,261	-79,993	-0,312	-0,072
206,275	-107,812	-0,194	0,029
207,290	235,512	-0,119	-0,136
208,304	683,463	-0,149	-0,270
209,319	692,323	-0,115	-0,209
210,334	23,260	-0,228	-0,129
211,348	51,160	-0,135	-0,089
212,363	280,558	-0,247	-0,306
213,377	324,589	-0,104	-0,139
214,392	800,000	-0,099	-0,193
215,407	346,907	-0,163	-0,222
216,421	212,968	-0,134	-0,147
217,436	-9,323	-0,284	-0,131
218,450	132,384	-0,271	-0,242
219,465	80,027	-0,215	-0,160
220,480	-89,972	-0,205	-0,041
221,494	92,927	-0,233	-0,182
222,509	-122,392	-0,111	-0,012
223,523	-50,209	-0,177	-0,058
224,538	-99,524	-0,172	-0,030
225,553	576,172	-0,035	-0,059
226,567	36,945	-0,195	-0,119
227,582	178,841	-0,165	-0,167
228,596	-25,857	-0,157	-0,063
229,611	405,540	-0,149	-0,218
230,626	314,701	-0,111	-0,145
231,640	-10,335	-0,158	-0,072
232,655	158,034	-0,159	-0,152
233,669	-38,144	-0,296	-0,108
234,684	224,531	-0,185	-0,207
235,699	165,456	-0,157	-0,153
236,713	8,792	-0,166	-0,086
237,728	166,131	-0,124	-0,121
238,742	800,000	-0,043	-0,108
239,757	408,175	-0,113	-0,166
240,772	-51,818	-0,340	-0,109
241,786	22,222	-0,237	-0,133
242,801	800,000	-0,052	-0,135
243,815	-200,000	-0,015	-0,170
244,830	-200,000	0,014	-0,089
245,844	-35,626	-0,206	-0,077
246,859	-58,260	-0,221	-0,066
247,874	158,604	-0,189	-0,182
248,888	736,450	-0,118	-0,219
249,903	-88,103	-0,180	-0,037
250,917	637,979	-0,116	-0,205
251,932	449,239	-0,180	-0,275
252,947	49,331	-0,147	-0,095
253,961	148,739	-0,192	-0,179
254,976	145,931	-0,195	-0,180
255,990	800,000	-0,086	-0,206
257,005	91,054	-0,151	-0,117
258,020	280,139	-0,116	-0,143
259,034	800,000	-0,040	0,099
260,049	240,734	-0,102	-0,118
261,063	46,466	-0,231	-0,148
262,078	-67,069	-0,357	-0,096
263,093	13,466	-0,291	-0,155
264,107	-90,156	-0,158	-0,031
265,122	-81,129	-0,145	-0,033
266,136	126,076	-0,088	-0,077
267,151	-64,998	-0,212	-0,059
268,166	101,148	-0,175	-0,141
269,180	800,000	-0,100	-0,257
270,195	307,882	-0,151	-0,195
271,209	7,489	-0,208	-0,107
272,224	205,635	-0,111	-0,119
273,239	241,808	-0,150	-0,173
274,253	-41,254	-0,326	-0,115
275,268	345,723	-0,172	-0,234
276,282	0,890	-0,290	-0,143
277,297	25,801	-0,268	-0,153
278,312	435,841	-0,122	-0,184
279,326	-200,000	-0,038	-0,121
280,341	54,362	-0,205	-0,136
281,355	140,051	-0,123	-0,112
282,370	110,886	-0,104	-0,086
283,384	-31,856	-0,297	-0,114
284,399	-37,420	-0,271	-0,099
285,414	46,048	-0,126	-0,080
286,428	-135,291	-0,300	-0,024
287,443	-95,294	-0,159	-0,029
288,457	800,000	-0,060	-0,121
289,472	692,927	-0,064	-0,117
290,487	26,901	-0,119	-0,069
291,501	-109,420	-0,312	-0,045
292,516	-118,521	-0,250	-0,030
293,530	661,311	-0,103	-0,183
294,545	-32,382	-0,151	-0,058
295,560	-200,000	-0,013	-0,084
296,574	274,889	-0,177	-0,216
297,589	303,123	-0,182	-0,232
298,603	-200,000	-0,022	-0,208
299,618	-26,783	-0,312	-0,125
300,633	-200,000	-0,005	-0,093
301,647	-70,765	-0,274	-0,071
302,662	5,117	-0,110	-0,055
303,676	-123,420	-0,041	-0,004
304,691	140,396	-0,113	-0,103
305,706	-13,122	-0,081	-0,036
306,720	800,000	-0,076	-0,224
307,735	23,555	-0,155	-0,088
308,749	800,000	-0,084	-0,200
309,764	146,352	-0,120	-0,111
310,779	-163,556	-0,212	-0,007
311,793	221,969	-0,216	-0,239
312,808	366,348	-0,227	-0,315
313,822	85,692	-0,198	-0,149
314,837	367,014	-0,023	-0,032
315,852	-107,280	-0,059	0,009
316,866	48,487	-0,134	-0,086
317,881	220,001	-0,068	-0,075
318,895	800,000	-0,104	-0,229
319,910	157,172	-0,119	-0,113
320,925	-200,000	-0,103	-0,346
321,939	263,959	-0,147	-0,176
322,954	380,695	-0,122	-0,172
323,968	421,093	-0,034	0,050
324,983	265,613	-0,086	-0,104
325,997	338,159	-0,161	-0,215
327,012	796,401	-0,080	-0,153
328,027	218,150	-0,189	-0,207
329,041	-200,000	-0,019	-0,130
330,056	581,762	-0,096	-0,163
331,070	333,196	-0,111	-0,147
332,085	-26,745	-0,144	-0,058
333,100	117,820	-0,095	-0,080
334,114	800,000	-0,095	-0,211
335,129	-35,358	-0,269	-0,100
336,143	466,740	-0,022	-0,034
337,158	533,841	-0,161	-0,263
338,173	-100,303	-0,142	0,024
339,187	74,329	-0,098	-0,070
340,202	-135,799	-0,240	0,019
341,216	800,000	-0,060	-0,151
342,231	-152,801	-0,217	-0,010
343,246	57,793	-0,150	-0,100
344,260	84,356	-0,202	-0,151
345,275	370,440	-0,107	-0,149
346,289	-182,439	-0,253	-0,003
347,304	24,413	-0,221	-0,125
348,319	291,343	-0,127	-0,158
349,333	62,681	-0,144	-0,098
350,348	100,218	-0,143	-0,113
351,362	48,664	-0,169	-0,108
352,377	-97,228	-0,126	-0,022
353,392	-155,924	-0,150	0,006
354,406	666,820	-0,078	-0,139
355,421	207,750	1306,509	1396,664
356,435	159,830	1466,189	1397,130
