DTS Sentinel unit serial number:	SN410029Multiplexer serial number:	ORYXHardware model number:	OX2-SRSoftware version number:	ORYX F/W v4,00 Oryx Data Collector v3.7.2.0data status	okinstallation	B3 Nyhavnadifferential loss correction	single-endedforward channel	channel 1reverse channel	N/Adate	2023/11/30time	20:22:30forward acquisition time	300,00reverse acquisition time	0,00gamma	499,1914k internal	0,3208k external	0,3208temperature offset calibration	1,0000default loss term (dB/km)	0,3820temperature slope calibration	1,0000multiplexer offset coefficient	1,0000multiplexer slope coefficient	1,0000fibre end	0,00T internal ref (°C)	11,33T ext. ref 1 (°C)	-4,03T ext. ref 2 (°C)	-4,16length (m)	temperature (°C)	Stokes	anti-Stokes-744,400	99,495	-0,386	-0,324
-743,385	767,441	0,102	0,202
-742,371	209,693	-0,205	-0,234
-741,356	-200,000	-0,030	0,253
-740,342	369,338	-0,071	-0,105
-739,327	-200,000	-0,013	0,231
-738,312	57,992	-0,320	-0,227
-737,298	-200,000	0,016	0,290
-736,283	36,404	-0,333	-0,213
-735,269	-200,000	0,047	0,187
-734,254	151,721	-0,192	-0,190
-733,239	107,543	-0,167	0,144
-732,225	62,161	-0,083	-0,060
-731,210	-200,000	0,026	0,094
-730,196	800,000	-0,040	-0,115
-729,181	-47,027	-0,087	0,031
-728,167	800,000	-0,010	-0,032
-727,152	-35,144	-0,030	-0,012
-726,137	277,079	-0,125	-0,161
-725,123	-200,000	0,027	-0,098
-724,108	160,200	-0,135	-0,137
-723,094	-50,291	-0,054	-0,018
-722,079	-146,541	-0,081	-0,005
-721,064	-49,563	-0,019	-0,006
-720,050	111,015	-0,053	0,047
-719,035	800,000	0,021	-0,046
-718,021	-56,843	-0,170	0,054
-717,006	540,825	-0,064	-0,110
-715,991	-200,000	0,010	-0,080
-714,977	78,287	-0,113	-0,087
-713,962	-13,531	0,054	-0,025
-712,948	800,000	-0,014	0,041
-711,933	41,318	0,126	-0,082
-710,918	-200,000	0,014	-0,074
-709,904	-110,943	-0,140	-0,021
-708,889	-67,061	-0,113	-0,032
-707,875	-34,037	-0,143	-0,057
-706,860	-153,345	-0,111	0,005
-705,845	85,239	0,049	-0,039
-704,831	-200,000	-0,032	0,157
-703,816	800,000	0,018	0,045
-702,802	86,994	0,037	0,030
-701,787	-200,000	0,003	0,067
-700,772	-200,000	0,004	0,052
-699,758	170,400	-0,085	-0,088
-698,743	-14,965	0,212	-0,098
-697,729	-165,911	0,134	-0,004
-696,714	-200,000	-0,016	-0,097
-695,699	712,788	-0,060	-0,116
-694,685	-200,000	-0,005	-0,057
-693,670	800,000	-0,023	-0,061
-692,656	26,658	-0,102	-0,062
-691,641	-200,000	0,002	0,085
-690,627	-200,000	0,001	-0,072
-689,612	-105,840	0,096	0,015
-688,597	146,284	-0,040	0,039
-687,583	-200,000	-0,008	-0,068
-686,568	-200,000	0,040	-0,161
-685,554	2,936	-0,075	-0,039
-684,539	364,500	-0,046	-0,067
-683,524	47,075	0,060	-0,041
-682,510	-150,192	0,041	0,002
-681,495	-49,854	-0,023	0,008
-680,481	-200,000	-0,020	-0,077
-679,466	-200,000	0,058	-0,199
-678,451	-2,860	0,097	-0,049
-677,437	34,622	-0,102	0,064
-676,422	-110,461	0,140	-0,021
-675,408	539,176	-0,033	-0,057
-674,393	-200,000	-0,013	0,046
-673,378	-5,458	0,006	0,003
-672,364	-24,540	-0,055	-0,024
-671,349	-200,000	-0,017	-0,071
-670,335	-154,550	-0,048	0,002
-669,320	-147,965	-0,075	0,004
-668,305	-200,000	-0,012	0,048
-667,291	611,593	0,056	0,101
-666,276	800,000	0,034	-0,090
-665,262	697,586	0,005	-0,009
-664,247	223,183	0,069	-0,081
-663,232	-200,000	0,007	0,048
-662,218	800,000	0,038	0,092
-661,203	72,915	0,054	-0,041
-660,189	800,000	0,013	-0,027
-659,174	-17,156	-0,119	-0,054
-658,159	-200,000	0,016	-0,133
-657,145	-200,000	-0,017	-0,081
-656,130	-111,691	0,176	-0,025
-655,116	-200,000	0,004	-0,106
-654,101	137,130	-0,111	-0,105
-653,086	271,502	-0,040	-0,051
-652,072	581,021	-0,031	0,055
-651,057	242,295	-0,060	-0,073
-650,043	800,000	-0,028	0,090
-649,028	479,649	0,029	0,048
-648,014	-86,465	0,076	-0,017
-646,999	-100,674	0,128	0,023
-645,984	29,555	-0,149	-0,091
-644,970	406,227	-0,076	-0,116
-643,955	104,976	-0,073	0,062
-642,941	-123,665	-0,138	0,016
-641,926	-200,000	0,008	-0,136
-640,911	475,879	-0,025	0,040
-639,897	100,787	-0,120	0,101
-638,882	-136,808	0,079	0,006
-637,868	-15,693	0,096	-0,044
-636,853	800,000	0,023	0,059
-635,838	-200,000	0,019	-0,125
-634,824	-175,367	-0,107	0,002
-633,809	61,349	-0,148	0,106
-632,795	-200,000	-0,020	0,105
-631,780	800,000	0,007	-0,022
-630,765	86,374	-0,083	-0,066
-629,751	-200,000	-0,004	0,068
-628,736	800,000	-0,034	-0,101
-627,722	539,572	0,064	-0,111
-626,707	-67,425	-0,070	0,020
-625,692	765,103	0,045	-0,089
-624,678	56,231	-0,035	0,025
-623,663	800,000	-0,016	-0,038
-622,649	-200,000	0,002	0,010
-621,634	-200,000	-0,005	-0,019
-620,619	-104,859	0,159	0,026
-619,605	90,530	-0,062	-0,050
-618,590	-200,000	0,028	0,103
-617,576	11,445	-0,033	0,018
-616,561	-76,440	-0,062	0,016
-615,546	-200,000	0,011	0,062
-614,532	800,000	0,009	-0,019
-613,517	-200,000	0,002	-0,007
-612,503	168,596	0,041	0,042
-611,488	-182,323	-0,073	0,001
-610,474	437,444	-0,041	-0,064
-609,459	-200,000	0,007	-0,158
-608,444	63,261	0,060	0,044
-607,430	-79,064	-0,117	0,028
-606,415	-97,822	-0,054	-0,010
-605,401	-42,338	0,019	-0,007
-604,386	605,240	0,067	0,121
-603,371	-200,000	-0,023	-0,126
-602,357	79,794	0,076	0,059
-601,342	800,000	-0,013	-0,029
-600,328	50,675	-0,038	0,026
-599,313	134,788	-0,115	-0,108
-598,298	-200,000	-0,032	-0,149
-597,284	63,931	-0,042	0,030
-596,269	-155,450	0,090	0,004
-595,255	-57,195	-0,160	0,051
-594,240	-67,680	-0,090	0,025
-593,225	187,924	-0,095	-0,102
-592,211	800,000	0,012	-0,034
-591,196	52,519	-0,045	0,031
-590,182	800,000	0,000	0,001
-589,167	800,000	0,022	0,058
-588,152	-145,300	-0,169	0,011
-587,138	-200,000	-0,007	-0,067
-586,123	144,060	-0,061	-0,059
-585,109	136,086	0,020	-0,018
-584,094	-179,388	-0,041	-0,001
-583,079	-200,000	-0,013	-0,051
-582,065	40,828	0,183	0,119
-581,050	800,000	-0,017	0,047
-580,036	-21,736	0,072	-0,032
-579,021	76,130	0,064	-0,049
-578,006	80,688	-0,182	-0,141
-576,992	133,808	0,094	-0,088
-575,977	800,000	0,039	0,112
-574,963	-103,019	-0,099	0,017
-573,948	-171,450	0,137	-0,003
-572,934	-200,000	-0,017	0,056
-571,919	-3,669	-0,167	-0,084
-570,904	-200,000	0,016	-0,089
-569,890	442,719	-0,067	-0,106
-568,875	-142,833	0,053	0,004
-567,861	-169,583	0,207	0,005
-566,846	800,000	0,035	0,101
-565,831	-200,000	0,003	-0,018
-564,817	148,276	0,057	0,055
-563,802	338,094	-0,104	-0,146
-562,788	-200,000	0,000	0,083
-561,773	160,157	0,102	-0,102
-560,758	-200,000	0,028	-0,115
-559,744	-65,496	-0,121	-0,035
-558,729	-26,643	0,020	0,009
-557,715	294,930	-0,073	-0,096
-556,700	11,500	-0,075	-0,041
-555,685	-3,003	-0,024	-0,012
-554,671	-143,280	-0,078	-0,005
-553,656	-10,298	0,139	0,066
-552,642	318,536	0,049	0,067
-551,627	-142,484	-0,065	0,005
-550,612	433,450	-0,007	-0,011
-549,598	188,996	0,030	0,033
-548,583	-113,360	-0,109	-0,015
-547,569	77,106	0,090	-0,069
-546,554	-77,468	0,034	-0,008
-545,539	-200,000	0,013	-0,061
-544,525	135,383	0,029	-0,027
-543,510	-200,000	0,011	-0,146
-542,496	113,430	-0,067	0,059
-541,481	190,357	-0,146	-0,158
-540,466	648,635	0,049	-0,090
-539,452	800,000	-0,022	-0,064
-538,437	-3,166	0,174	0,087
-537,423	-113,911	0,029	0,004
-536,408	800,000	0,029	0,076
-535,393	-13,553	-0,158	-0,073
-534,379	-200,000	0,006	0,046
-533,364	-111,106	-0,028	-0,004
-532,350	800,000	-0,070	0,179
-531,335	30,902	-0,151	-0,093
-530,321	437,876	0,080	0,125
-529,306	800,000	0,030	0,086
-528,291	-200,000	0,000	0,021
-527,277	-200,000	-0,004	-0,038
-526,262	-13,806	-0,080	-0,037
-525,248	800,000	0,027	0,067
-524,233	-102,297	0,143	-0,025
-523,218	274,222	0,025	0,032
-522,204	31,128	-0,122	0,075
-521,189	800,000	0,012	-0,033
-520,175	800,000	0,018	-0,056
-519,160	-90,614	0,127	-0,026
-518,145	-175,240	0,072	0,001
-517,131	184,519	-0,114	-0,122
-516,116	-200,000	0,001	0,060
-515,102	244,149	-0,095	0,115
-514,087	-60,005	-0,030	-0,009
-513,072	19,751	-0,023	-0,013
-512,058	-98,947	-0,099	-0,018
-511,043	-86,633	0,024	-0,005
-510,029	-171,054	0,112	0,003
-509,014	-94,379	-0,123	-0,024
-507,999	50,021	0,093	0,063
-506,985	67,978	-0,104	0,076
-505,970	-111,253	-0,050	0,007
-504,956	-200,000	-0,014	-0,067
-503,941	379,522	-0,038	-0,056
-502,926	96,366	0,066	-0,054
-501,912	238,306	0,021	-0,025
-500,897	115,659	0,113	0,099
-499,883	-22,025	-0,071	-0,031
-498,868	-200,000	0,004	-0,072
-497,853	-8,828	-0,020	0,009
-496,839	710,994	0,055	0,105
-495,824	169,841	0,042	0,043
-494,810	-22,693	0,041	-0,018
-493,795	-156,896	0,122	0,005
-492,781	285,688	0,053	0,069
-491,766	800,000	0,048	-0,097
-490,751	430,148	-0,120	-0,187
-489,737	11,927	0,193	-0,106
-488,722	345,339	0,069	0,098
-487,708	233,085	0,087	0,102
-486,693	-200,000	-0,014	-0,094
-485,678	-73,059	-0,084	-0,022
-484,664	800,000	-0,044	-0,136
-483,649	304,512	0,023	0,030
-482,635	304,980	0,088	-0,118
-481,620	800,000	0,064	-0,154
-480,605	800,000	-0,036	0,074
-479,591	594,970	0,074	0,132
-478,576	82,533	-0,071	-0,055
-477,562	36,032	-0,017	-0,011
-476,547	-200,000	-0,008	0,121
-475,532	800,000	0,031	-0,077
-474,518	800,000	0,061	0,123
-473,503	557,245	0,107	0,185
-472,489	7,917	-0,074	0,040
-471,474	378,508	-0,018	-0,027
-470,459	-180,361	0,142	0,002
-469,445	3,907	-0,078	-0,041
-468,430	14,629	0,058	0,032
-467,416	363,012	0,015	0,022
-466,401	27,062	0,074	0,045
-465,386	227,098	0,052	0,061
-464,372	413,203	-0,036	0,055
-463,357	326,209	0,064	-0,089
-462,343	-200,000	-0,021	0,118
-461,328	-200,000	-0,020	-0,180
-460,313	319,977	-0,058	0,079
-459,299	-87,245	0,096	0,021
-458,284	167,111	0,040	0,041
-457,270	-191,848	0,014	0,000
-456,255	258,924	-0,043	-0,053
-455,241	63,778	0,046	-0,033
-454,226	-200,000	0,024	0,195
-453,211	-200,000	0,002	-0,137
-452,197	142,558	0,127	-0,121
-451,182	-145,831	0,131	-0,008
-450,168	-177,668	0,024	-0,000
-449,153	27,334	-0,019	-0,012
-448,138	69,857	0,081	0,060
-447,124	40,478	0,058	0,037
-446,109	130,031	-0,036	0,033
-445,095	-85,586	0,056	0,012
-444,080	-18,384	0,116	0,052
-443,065	123,369	0,106	0,095
-442,051	22,891	-0,055	-0,032
-441,036	-200,000	-0,024	-0,092
-440,022	202,766	-0,108	0,120
-439,007	301,275	0,060	-0,079
-437,992	-84,225	-0,081	0,018
-436,978	570,824	0,049	0,086
-435,963	-200,000	-0,031	0,113
-434,949	314,065	0,090	-0,121
-433,934	84,694	0,058	0,045
-432,919	-200,000	-0,005	0,024
-431,905	-3,611	0,101	-0,050
-430,890	159,648	0,070	-0,070
-429,876	1,665	-0,079	0,040
-428,861	800,000	0,028	0,056
-427,846	-65,392	0,092	0,026
-426,832	-132,344	-0,141	-0,013
-425,817	192,827	0,113	0,123
-424,803	-200,000	-0,008	0,155
-423,788	800,000	-0,028	0,056
-422,773	-200,000	-0,000	0,157
-421,759	-200,000	-0,002	-0,010
-420,744	11,927	0,073	-0,040
-419,730	-200,000	-0,005	-0,116
-418,715	104,153	-0,081	-0,068
-417,701	-200,000	0,015	0,115
-416,686	-200,000	0,003	-0,023
-415,671	75,196	-0,046	-0,035
-414,657	-200,000	-0,008	-0,110
-413,642	-174,085	0,048	0,001
-412,628	-200,000	-0,038	0,172
-411,613	-200,000	0,006	-0,106
-410,598	168,170	0,079	0,081
-409,584	-200,000	0,023	-0,088
-408,569	543,857	-0,040	-0,069
-407,555	-73,732	0,040	0,010
-406,540	67,956	-0,063	0,046
-405,525	800,000	-0,028	0,074
-404,511	-200,000	0,003	-0,153
-403,496	143,177	-0,051	-0,049
-402,482	-200,000	-0,006	0,058
-401,467	410,342	-0,038	-0,058
-400,452	408,226	0,040	-0,061
-399,438	-200,000	0,002	0,063
-398,423	-183,523	-0,133	0,002
-397,409	103,508	-0,080	-0,068
-396,394	-95,912	0,099	-0,019
-395,379	-200,000	0,010	0,106
-394,365	-126,573	-0,121	0,013
-393,350	800,000	-0,046	0,132
-392,336	-51,254	-0,105	0,035
-391,321	800,000	0,043	0,120
-390,306	152,456	0,024	-0,023
-389,292	-200,000	-0,056	-0,180
-388,277	-200,000	0,002	-0,056
-387,263	-123,652	0,094	-0,011
-386,248	209,524	-0,052	-0,058
-385,233	388,766	0,075	0,112
-384,219	-200,000	-0,017	-0,065
-383,204	-109,205	0,053	-0,008
-382,190	-200,000	-0,013	-0,089
-381,175	464,820	0,115	-0,184
-380,160	800,000	0,031	0,078
-379,146	113,500	-0,080	-0,069
-378,131	-200,000	-0,032	-0,205
-377,117	-184,509	-0,075	-0,001
-376,102	-200,000	-0,010	0,083
-375,088	-49,811	-0,122	-0,041
-374,073	-200,000	-0,014	0,101
-373,058	644,615	0,039	0,072
-372,044	22,987	0,094	0,055
-371,029	-200,000	-0,012	-0,159
-370,015	28,427	0,100	-0,060
-369,000	-63,463	0,044	-0,013
-367,985	-47,514	-0,172	-0,059
-366,971	-106,514	0,038	0,006
-365,956	287,789	0,034	0,044
-364,942	-142,614	0,066	0,005
-363,927	480,067	0,066	0,108
-362,912	-71,981	0,127	0,034
-361,898	27,386	0,163	0,098
-360,883	69,153	0,039	0,029
-359,869	249,985	-0,123	-0,149
-358,854	122,558	-0,083	0,075
-357,839	668,969	0,070	0,130
-356,825	20,247	0,114	0,066
-355,810	-72,176	-0,036	0,009
-354,796	800,000	-0,060	-0,130
-353,781	-145,658	0,024	0,002
-352,766	154,882	-0,072	-0,070
-351,752	-126,109	-0,048	-0,005
-350,737	-200,000	0,013	0,064
-349,723	108,731	0,074	-0,063
-348,708	-200,000	-0,006	0,083
-347,693	67,566	-0,064	-0,046
-346,679	-159,269	-0,246	-0,010
-345,664	520,368	0,033	-0,056
-344,650	333,165	-0,048	0,066
-343,635	173,286	0,059	0,061
-342,620	-51,299	-0,138	0,046
-341,606	-29,327	0,121	-0,049
-340,591	-200,000	-0,010	-0,043
-339,577	-149,822	-0,077	-0,004
-338,562	-200,000	-0,010	0,067
-337,548	-44,306	0,067	-0,024
-336,533	152,704	0,017	0,017
-335,518	-200,000	-0,008	-0,037
-334,504	-142,851	0,155	0,011
-333,489	800,000	-0,017	-0,047
-332,475	71,591	-0,119	0,088
-331,460	75,409	-0,173	-0,130
-330,445	370,148	0,088	0,128
-329,431	727,118	0,024	0,045
-328,416	471,255	0,039	0,063
-327,402	-27,132	0,064	-0,027
-326,387	12,602	-0,055	-0,030
-325,372	-143,573	-0,100	0,007
-324,358	180,439	-0,073	-0,076
-323,343	-64,272	0,044	-0,013
-322,329	800,000	0,006	0,017
-321,314	-35,556	0,065	0,025
-320,299	-37,588	0,120	0,045
-319,285	800,000	-0,050	0,137
-318,270	250,976	-0,014	0,017
-317,256	800,000	-0,023	-0,069
-316,241	-200,000	0,015	-0,102
-315,226	-200,000	0,012	-0,049
-314,212	358,389	-0,036	-0,052
-313,197	-74,305	0,011	-0,003
-312,183	-200,000	0,017	0,134
-311,168	-200,000	-0,030	-0,213
-310,153	-12,888	-0,118	-0,055
-309,139	800,000	0,050	0,113
-308,124	800,000	-0,027	0,070
-307,110	-200,000	-0,024	0,112
-306,095	-200,000	-0,005	0,033
-305,080	82,619	0,109	0,084
-304,066	694,585	-0,060	-0,112
-303,051	-84,994	0,055	-0,012
-302,037	56,629	-0,164	0,114
-301,022	-200,000	0,006	0,023
-300,008	109,087	-0,024	0,021
-298,993	-182,769	-0,119	0,002
-297,978	69,248	0,084	0,062
-296,964	298,076	-0,043	-0,056
-295,949	332,230	0,007	0,010
-294,935	350,395	-0,077	0,108
-293,920	-61,371	0,105	-0,031
-292,905	-164,515	0,163	-0,005
-291,891	-106,921	0,176	-0,028
-290,876	-200,000	0,032	0,126
-289,862	101,276	0,043	-0,036
-288,847	71,130	0,100	0,074
-287,832	-86,669	0,063	-0,014
-286,818	-33,720	0,063	0,024
-285,803	-16,821	0,124	-0,056
-284,789	-200,000	0,023	0,122
-283,774	-200,000	-0,031	0,136
-282,759	-70,243	-0,147	-0,040
-281,745	800,000	0,036	-0,091
-280,730	657,774	-0,092	-0,170
-279,716	-167,643	0,028	0,001
-278,701	-142,363	-0,058	0,004
-277,686	577,135	0,014	0,024
-276,672	-26,547	0,023	0,010
-275,657	348,387	-0,084	0,118
-274,643	519,824	0,063	-0,106
-273,628	-114,098	-0,116	0,016
-272,613	-97,990	-0,069	-0,013
-271,599	118,346	0,110	0,097
-270,584	-200,000	0,006	0,102
-269,570	-105,219	-0,070	-0,011
-268,555	-10,103	-0,099	0,047
-267,540	-200,000	-0,024	0,121
-266,526	-200,000	0,021	0,082
-265,511	-86,244	0,105	-0,023
-264,497	9,095	-0,187	0,100
-263,482	-200,000	-0,015	0,127
-262,467	800,000	0,003	0,008
-261,453	-45,393	0,084	0,029
-260,438	-94,369	-0,081	-0,016
-259,424	-200,000	-0,006	-0,021
-258,409	-200,000	0,011	-0,075
-257,395	46,834	0,031	0,020
-256,380	-116,979	0,102	0,013
-255,365	607,326	0,051	0,091
-254,351	242,426	-0,055	0,065
-253,336	800,000	-0,026	-0,055
-252,322	-111,304	-0,051	0,007
-251,307	337,994	-0,024	-0,033
-250,292	-120,073	0,038	0,005
-249,278	-122,005	-0,060	-0,007
-248,263	-200,000	-0,006	-0,044
-247,249	73,696	0,095	-0,071
-246,234	-135,640	-0,100	0,008
-245,219	150,939	-0,056	-0,054
-244,205	800,000	0,055	-0,139
-243,190	-28,826	0,087	-0,036
-242,176	155,751	0,033	-0,033
-241,161	171,707	-0,100	0,102
-240,146	800,000	-0,036	0,103
-239,132	438,886	-0,074	-0,116
-238,117	657,787	0,080	0,146
-237,103	298,470	-0,010	-0,013
-236,088	39,398	-0,104	-0,066
-235,073	18,632	0,084	-0,047
-234,059	-200,000	-0,003	0,122
-233,044	-200,000	0,031	0,100
-232,030	214,004	-0,073	0,082
-231,015	800,000	-0,020	-0,058
-230,000	412,756	0,027	-0,042
-228,986	-200,000	-0,017	-0,070
-227,971	173,323	0,020	0,021
-226,957	-137,116	-0,049	0,004
-225,942	-56,776	0,073	0,023
-224,927	-200,000	-0,000	-0,162
-223,913	215,412	0,060	-0,068
-222,898	-200,000	0,019	-0,091
-221,884	-183,168	-0,043	0,001
-220,869	270,586	0,078	-0,098
-219,855	-200,000	-0,006	0,091
-218,840	-73,574	-0,105	0,027
-217,825	-200,000	0,018	0,072
-216,811	800,000	-0,020	-0,044
-215,796	407,646	0,025	-0,037
-214,782	-200,000	-0,015	-0,131
-213,767	120,331	0,046	-0,040
-212,752	-200,000	-0,014	0,066
-211,738	-200,000	0,022	-0,085
-210,723	-45,979	-0,107	0,037
-209,709	-200,000	-0,003	-0,089
-208,694	-31,451	-0,098	-0,039
-207,679	7,624	-0,145	-0,077
-206,665	132,703	0,058	0,053
-205,650	800,000	0,018	0,037
-204,636	-82,145	0,084	-0,019
-203,621	-198,178	0,078	0,000
-202,606	800,000	-0,056	-0,144
-201,592	-200,000	-0,006	-0,192
-200,577	-200,000	0,019	-0,101
-199,563	-200,000	-0,030	-0,103
-198,548	-83,854	0,132	-0,030
-197,533	458,303	-0,023	0,037
-196,519	-18,648	0,065	-0,029
-195,504	379,672	0,052	-0,075
-194,490	800,000	-0,028	0,084
-193,475	-200,000	-0,035	-0,146
-192,460	800,000	0,024	0,060
-191,446	-200,000	0,007	0,064
-190,431	-200,000	0,009	0,037
-189,417	157,656	-0,083	0,081
-188,402	800,000	0,044	-0,115
-187,387	69,737	0,030	-0,022
-186,373	44,500	-0,130	-0,085
-185,358	800,000	0,024	0,049
-184,344	-16,722	0,043	-0,019
-183,329	-200,000	-0,050	0,203
-182,315	159,479	0,064	0,063
-181,300	-200,000	0,005	0,101
-180,285	46,461	-0,088	-0,058
-179,271	-200,000	0,001	0,004
-178,256	-200,000	-0,020	0,066
-177,242	-39,149	0,133	0,049
-176,227	800,000	0,043	0,105
-175,212	-101,012	-0,185	0,032
-174,198	104,344	0,016	-0,013
-173,183	49,150	-0,035	-0,023
-172,169	76,088	0,067	-0,051
-171,154	-123,022	0,023	-0,003
-170,139	527,725	-0,071	0,120
-169,125	-21,834	0,093	0,040
-168,110	30,618	0,028	-0,017
-167,096	-200,000	0,010	0,036
-166,081	187,705	0,092	0,097
-165,066	154,604	-0,118	0,115
-164,052	-2,665	0,104	-0,051
-163,037	-200,000	0,003	0,133
-162,023	715,625	0,070	0,131
-161,008	-124,819	0,041	-0,004
-159,993	264,045	-0,045	-0,055
-158,979	-20,276	-0,113	-0,049
-157,964	800,000	-0,058	-0,151
-156,950	3,443	0,012	-0,006
-155,935	42,416	-0,076	0,049
-154,920	-200,000	0,024	0,107
-153,906	533,829	0,036	-0,061
-152,891	800,000	-0,030	0,089
-151,877	91,567	0,059	-0,047
-150,862	-43,512	0,066	-0,023
-149,847	-192,900	-0,142	0,001
-148,833	86,795	0,126	0,098
-147,818	637,352	0,050	-0,091
-146,804	-114,828	-0,063	-0,008
-145,789	800,000	0,049	0,132
-144,775	-132,301	0,124	0,011
-143,760	22,986	-0,123	-0,071
-142,745	-200,000	0,031	-0,177
-141,731	488,612	0,027	-0,043
-140,716	-200,000	0,016	0,050
-139,702	358,180	0,043	-0,061
-138,687	-89,002	0,031	0,006
-137,672	281,660	0,077	-0,098
-136,658	782,402	-0,026	-0,051
-135,643	192,532	0,016	0,017
-134,629	-200,000	0,021	-0,137
-133,614	393,909	-0,052	0,077
-132,599	-200,000	0,005	-0,016
-131,585	-200,000	0,003	0,100
-130,570	79,106	-0,050	0,038
-129,556	220,985	-0,066	0,075
-128,541	-121,008	-0,152	0,018
-127,526	-200,000	-0,006	0,033
-126,512	123,468	0,054	-0,048
-125,497	113,891	0,203	0,175
-124,483	-200,000	-0,029	0,150
-123,468	738,785	0,010	0,020
-122,453	117,205	-0,088	-0,077
-121,439	-200,000	0,057	-0,228
-120,424	800,000	0,051	0,116
-119,410	91,654	0,074	-0,059
-118,395	800,000	-0,021	0,063
-117,380	455,148	-0,075	0,119
-116,366	800,000	0,058	0,137
-115,351	-61,008	-0,105	-0,031
-114,337	-27,957	-0,160	0,065
-113,322	800,000	0,010	-0,032
-112,307	-87,782	-0,109	-0,023
-111,293	60,975	0,047	-0,033
-110,278	-200,000	-0,037	-0,119
-109,264	218,776	0,013	-0,015
-108,249	583,706	-0,030	-0,052
-107,234	-200,000	0,019	-0,094
-106,220	-200,000	-0,017	0,077
-105,205	59,577	0,064	0,044
-104,191	800,000	0,048	-0,149
-103,176	277,058	0,037	0,047
-102,162	408,062	-0,019	0,029
-101,147	54,293	0,055	0,037
-100,132	103,795	-0,076	-0,063
-99,118	262,099	-0,080	-0,099
-98,103	164,613	0,073	-0,073
-97,089	-200,000	-0,008	-0,094
-96,074	-45,070	0,034	0,012
-95,059	5,723	0,051	0,027
-94,045	31,956	-0,050	-0,031
-93,030	215,483	-0,090	-0,101
-92,016	-112,720	0,066	-0,009
-91,001	-179,447	0,120	-0,002
-89,986	481,524	-0,049	-0,079
-88,972	124,416	0,080	0,071
-87,957	800,000	-0,056	0,114
-86,943	6,236	0,048	0,025
-85,928	81,767	-0,083	0,064
-84,913	137,505	0,046	0,043
-83,899	649,573	-0,010	-0,017
-82,884	-31,950	-0,078	0,031
-81,870	229,498	0,116	-0,134
-80,855	-110,343	0,055	0,008
-79,840	167,660	-0,037	-0,037
-78,826	-153,763	0,090	-0,004
-77,811	-71,466	-0,199	0,052
-76,797	-105,901	0,192	0,030
-75,782	-200,000	0,015	0,128
-74,767	-10,348	0,135	0,063
-73,753	800,000	0,022	0,053
-72,738	-188,524	-0,065	0,001
-71,724	-60,494	-0,082	-0,025
-70,709	-103,602	-0,143	0,024
-69,694	687,191	0,032	-0,059
-68,680	800,000	0,033	-0,091
-67,665	-59,863	0,108	-0,032
-66,651	800,000	-0,039	0,088
-65,636	-119,088	0,037	0,005
-64,622	598,392	-0,033	-0,057
-63,607	800,000	-0,006	0,013
-62,592	167,937	-0,048	-0,049
-61,578	69,509	-0,030	-0,022
-60,563	91,908	-0,010	-0,008
-59,549	784,930	0,018	0,035
-58,534	-7,225	-1,992	-0,951
-57,519	614,571	-1,148	-2,041
-56,505	-200,000	-0,385	-4,527
-55,490	442,021	0,795	1,234
-54,476	800,000	5,111	11,680
-53,461	-200,000	20,676	329,261
-52,446	800,000	754,242	2320,814
-51,432	552,430	1661,618	2830,452
-50,417	74,143	1666,680	1234,560
-49,403	19,181	1539,964	870,539
-48,388	13,144	1462,665	797,567
-47,373	19,009	1453,380	820,701
-46,359	16,131	1443,097	801,126
-45,344	11,474	1438,301	776,206
-44,330	11,400	1436,365	774,773
-43,315	11,366	1434,792	773,737
-42,300	11,380	1432,801	772,695
-41,286	11,424	1431,671	772,268
-40,271	11,326	1430,373	771,069
-39,257	11,374	1429,020	770,535
-38,242	11,429	1427,935	770,183
-37,227	11,409	1427,005	769,558
-36,213	11,409	1425,629	768,782
-35,198	11,392	1424,489	768,059
-34,184	11,420	1423,591	767,677
-33,169	11,401	1422,123	766,764
-32,154	11,468	1421,088	766,491
-31,140	11,413	1420,051	765,644
-30,125	11,445	1418,933	765,161
-29,111	11,513	1417,654	764,760
-28,096	11,442	1416,417	763,727
-27,082	11,334	1415,610	762,753
-26,067	11,389	1414,407	762,337
-25,052	11,395	1413,205	761,684
-24,038	11,379	1412,273	761,076
-23,023	11,306	1411,524	760,301
-22,009	11,338	1410,157	759,686
-20,994	11,324	1409,259	759,105
-19,979	11,376	1408,195	758,745
-18,965	11,330	1407,332	758,036
-17,950	11,282	1406,611	757,393
-16,936	11,269	1405,969	756,955
-15,921	11,276	1404,626	756,237
-14,906	11,276	1403,864	755,797
-13,892	11,300	1402,772	755,290
-12,877	11,249	1402,045	754,629
-11,863	11,298	1400,977	754,252
-10,848	11,213	1400,301	753,462
-9,833	11,205	1399,276	752,844
-8,819	11,182	1398,489	752,287
-7,804	11,190	1397,445	751,732
-6,790	11,153	1396,495	751,020
-5,775	11,222	1395,390	750,713
-4,760	11,179	1394,696	750,114
-3,746	11,154	1393,554	749,350
-2,731	11,141	1393,045	748,990
-1,717	11,137	1392,027	748,395
-0,702	11,137	1390,182	747,371
0,313	15,101	1304,565	719,570
1,327	31,332	695,818	420,878
2,342	47,999	121,101	79,749
3,356	0,514	16,635	8,364
4,371	6,859	3,445	1,805
5,386	-2,738	0,748	0,368
6,400	-200,000	0,125	0,409
7,415	-102,589	-0,338	-0,056
8,429	116,454	-0,206	-0,178
9,444	80,658	-0,320	-0,243
10,459	264,935	-0,197	-0,242
11,473	470,391	-0,222	-0,354
12,488	57,922	-0,286	-0,197
13,502	-150,704	-0,270	-0,014
14,517	116,544	-0,288	-0,249
15,531	80,157	-0,410	-0,310
16,546	-21,063	-0,429	-0,184
17,561	142,679	-0,316	-0,297
18,575	-80,272	-0,351	-0,082
19,590	75,134	-0,241	-0,179
20,604	391,764	-0,188	-0,277
21,619	138,278	-0,396	-0,366
22,634	119,382	-0,324	-0,282
23,648	201,778	-0,375	-0,408
24,663	-43,608	-0,506	-0,179
25,677	250,548	-0,230	-0,275
26,692	179,275	-0,193	-0,200
27,707	-30,820	-0,479	-0,190
28,721	191,245	-0,244	-0,259
29,736	136,563	-0,321	-0,295
30,750	51,580	-0,365	-0,244
31,765	233,041	-0,371	-0,430
32,780	23,944	-0,409	-0,237
33,794	97,738	-0,296	-0,239
34,809	186,743	-0,357	-0,375
35,823	13,686	-0,394	-0,215
36,838	-9,944	-0,518	-0,242
37,853	90,437	-0,333	-0,262
38,867	222,494	-0,246	-0,279
39,882	114,944	-0,357	-0,307
40,896	53,260	-0,286	-0,192
41,911	-101,788	-0,297	-0,050
42,926	215,842	-0,271	-0,303
43,940	212,878	-0,369	-0,411
44,955	91,457	-0,364	-0,287
45,969	26,333	-0,306	-0,179
46,984	175,660	-0,347	-0,354
47,999	166,135	-0,279	-0,278
49,013	-59,565	-0,350	-0,105
50,028	-32,282	-0,449	-0,175
51,042	24,236	-0,342	-0,198
52,057	120,329	-0,330	-0,288
53,071	143,840	-0,302	-0,283
54,086	60,483	-0,234	-0,163
55,101	47,923	-0,255	-0,167
56,115	86,623	-0,274	-0,212
57,130	41,785	-0,264	-0,168
58,144	343,606	-0,330	-0,456
59,159	176,830	-0,327	-0,334
60,174	416,088	-0,289	-0,434
61,188	168,886	-0,321	-0,322
62,203	155,470	-0,397	-0,384
63,217	139,512	-0,349	-0,323
64,232	-57,267	-0,230	-0,071
65,247	192,438	-0,247	-0,262
66,261	63,240	-0,448	-0,315
67,276	85,991	-0,428	-0,330
68,290	110,616	-0,222	-0,188
69,305	256,818	-0,250	-0,302
70,320	-63,015	-0,372	-0,107
71,334	-116,981	-0,450	-0,057
72,349	-83,227	-0,321	-0,072
73,363	94,976	-0,208	-0,166
74,378	16,046	-0,373	-0,205
75,393	221,569	-0,178	-0,200
76,407	185,173	-0,240	-0,250
77,422	-122,864	-0,266	-0,030
78,436	-130,123	-0,221	0,021
79,451	577,309	-0,161	-0,277
80,466	34,223	-0,323	-0,197
81,480	117,041	-0,229	-0,198
82,495	2,260	-0,363	-0,183
83,509	18,959	-0,209	-0,117
84,524	94,362	-0,220	-0,175
85,539	-133,415	-0,258	-0,022
86,553	16,285	-0,179	-0,099
87,568	22,154	-0,398	-0,227
88,582	-106,372	-0,362	-0,056
89,597	-31,750	-0,482	-0,189
90,611	110,105	-0,240	-0,201
91,626	75,365	-0,244	-0,180
92,641	130,419	-0,264	-0,237
93,655	-85,586	-0,303	-0,065
94,670	37,700	-0,234	-0,145
95,684	145,005	-0,308	-0,289
96,699	105,824	-0,338	-0,279
97,714	113,206	-0,213	-0,181
98,728	603,797	-0,095	-0,165
99,743	-51,331	-0,233	-0,076
100,757	219,535	-0,158	-0,177
101,772	-35,276	-0,349	-0,132
102,787	156,954	-0,281	-0,271
103,801	71,853	-0,294	-0,214
104,816	-79,033	-0,171	-0,040
105,830	-137,964	-0,154	-0,012
106,845	-164,215	-0,253	0,008
107,860	-66,659	-0,382	-0,105
108,874	-55,531	-0,444	-0,138
109,889	524,788	-0,233	-0,386
110,903	151,058	-0,301	-0,287
111,918	80,652	-0,303	-0,228
112,933	-25,159	-0,213	-0,088
113,947	800,000	-0,151	-0,314
114,962	106,293	-0,289	-0,239
115,976	96,121	-0,254	-0,203
116,991	-80,621	-0,389	-0,090
118,006	-1,805	-0,096	-0,047
119,020	-86,405	-0,285	-0,061
120,035	49,328	-0,232	-0,152
121,049	143,360	-0,142	-0,132
122,064	-84,433	-0,233	-0,051
123,079	80,597	-0,312	-0,235
124,093	-2,639	-0,384	-0,187
125,108	63,416	-0,328	-0,230
126,122	156,519	-0,178	-0,172
127,137	420,134	-0,232	-0,349
128,151	-200,000	-0,045	-0,197
129,166	86,600	-0,215	-0,166
130,181	57,693	-0,212	-0,145
131,195	53,036	-0,182	-0,122
132,210	150,186	-0,175	-0,166
133,224	335,842	-0,206	-0,280
134,239	-41,925	-0,242	-0,086
135,254	-7,636	-0,317	-0,149
136,268	23,918	-0,305	-0,175
137,283	9,391	-0,275	-0,145
138,297	-34,106	-0,300	-0,114
139,312	800,000	-0,166	-0,354
140,327	87,222	-0,312	-0,240
141,341	59,859	-0,270	-0,186
142,356	33,163	-0,242	-0,146
143,370	116,068	-0,182	-0,155
144,385	248,395	-0,163	-0,193
145,400	-154,597	-0,220	-0,010
146,414	91,118	-0,305	-0,238
147,429	116,286	-0,309	-0,263
148,443	34,318	-0,278	-0,169
149,458	344,782	-0,168	-0,230
150,473	222,029	-0,207	-0,233
151,487	-84,840	-0,319	-0,069
152,502	13,282	-0,411	-0,221
153,516	-40,591	-0,369	-0,133
154,531	209,971	-0,197	-0,216
155,546	146,856	-0,285	-0,267
156,560	125,996	-0,215	-0,189
157,575	23,245	-0,239	-0,136
158,589	52,564	-0,185	-0,123
159,604	450,934	-0,242	-0,373
160,619	-42,240	-0,160	-0,056
161,633	-5,484	-0,348	-0,165
162,648	247,831	-0,159	-0,187
163,662	104,297	-0,170	-0,139
164,677	-26,205	-0,306	-0,124
165,692	-42,112	-0,214	-0,076
166,706	-90,538	-0,282	-0,056
167,721	89,002	-0,208	-0,161
168,735	393,592	-0,272	-0,396
169,750	9,189	-0,170	-0,089
170,764	-200,000	-0,030	-0,102
171,779	39,240	-0,198	-0,123
172,794	264,484	-0,111	-0,134
173,808	210,459	-0,247	-0,270
174,823	108,682	-0,253	-0,210
175,837	370,358	-0,305	-0,430
176,852	134,804	-0,210	-0,190
177,867	52,384	-0,177	-0,117
178,881	103,967	-0,113	-0,092
179,896	41,575	-0,364	-0,228
180,910	97,239	-0,250	-0,199
181,925	41,329	-0,250	-0,157
182,940	-36,033	-0,322	-0,120
183,954	58,944	-0,276	-0,188
184,969	-80,445	-0,225	-0,052
185,983	2,438	-0,236	-0,118
186,998	-50,373	-0,247	-0,081
188,013	-157,641	-0,231	-0,009
189,027	4,733	-0,278	-0,141
190,042	-17,927	-0,303	-0,131
191,056	265,040	-0,187	-0,227
192,071	17,495	-0,166	0,091
193,086	-37,344	-0,212	-0,078
194,100	113,508	-0,064	-0,054
195,115	39,188	-0,228	-0,142
196,129	-6,628	-0,222	-0,105
197,144	33,093	-0,240	-0,144
198,159	128,577	-0,222	-0,197
199,173	583,564	-0,101	-0,173
200,188	669,158	-0,035	-0,063
201,202	620,818	-0,090	-0,157
202,217	-7,250	-0,169	-0,079
203,232	222,400	-0,231	-0,258
204,246	576,048	-0,126	-0,215
205,261	259,401	-0,202	-0,242
206,275	624,580	-0,166	-0,292
207,290	-200,000	-0,086	-0,269
208,304	22,449	-0,160	-0,090
209,319	-65,830	-0,174	-0,048
210,334	406,018	-0,147	-0,216
211,348	150,048	-0,238	-0,224
212,363	-63,083	-0,263	-0,075
213,377	54,658	-0,135	-0,090
214,392	-34,413	-0,128	-0,048
215,407	800,000	-0,103	-0,213
216,421	124,098	-0,131	-0,114
217,436	278,056	-0,127	-0,157
218,450	62,830	-0,161	-0,111
219,465	661,274	-0,093	-0,167
220,480	69,204	-0,184	-0,131
221,494	110,871	-0,224	-0,186
222,509	25,296	-0,188	-0,108
223,523	173,959	-0,116	-0,116
224,538	351,884	-0,192	-0,264
225,553	-158,447	-0,224	-0,009
226,567	43,732	-0,187	-0,118
227,582	317,800	-0,201	-0,264
228,596	492,222	-0,138	-0,220
229,611	408,984	-0,134	-0,197
230,626	-200,000	-0,030	-0,162
231,640	26,569	-0,207	-0,119
232,655	-57,000	-0,284	-0,086
233,669	16,615	-0,342	-0,187
234,684	81,165	-0,283	-0,211
235,699	-100,886	-0,165	-0,028
236,713	-71,721	-0,165	-0,042
237,728	-126,178	-0,120	-0,012
238,742	613,109	-0,097	-0,168
239,757	65,676	-0,190	-0,133
240,772	145,490	-0,251	-0,233
241,786	44,927	-0,142	-0,090
242,801	-66,256	-0,178	-0,049
243,815	96,907	-0,183	-0,145
244,830	-82,979	-0,175	0,039
245,844	33,048	-0,183	-0,109
246,859	67,934	-0,186	-0,131
247,874	146,169	-0,209	-0,194
248,888	63,318	-0,285	-0,197
249,903	190,747	-0,130	-0,136
250,917	-200,000	0,008	-0,142
251,932	-156,285	-0,192	-0,008
252,947	800,000	-0,101	-0,249
253,961	93,734	-0,200	-0,156
254,976	-57,569	-0,223	-0,067
255,990	139,383	-0,202	-0,184
257,005	-74,670	-0,215	-0,053
258,020	800,000	-0,168	-0,327
259,034	68,872	-0,158	-0,112
260,049	-200,000	-0,068	-0,225
261,063	41,945	-0,194	-0,121
262,078	445,540	-0,118	-0,180
263,093	351,346	-0,167	-0,229
264,107	-200,000	-0,020	-0,244
265,122	-200,000	-0,055	-0,206
266,136	-83,632	-0,183	-0,040
267,151	-35,385	-0,109	-0,041
268,166	579,293	-0,060	-0,101
269,180	91,472	-0,083	-0,064
270,195	-97,108	-0,081	0,014
271,209	-90,190	-0,111	-0,022
272,224	800,000	-0,093	-0,259
273,239	-200,000	0,010	-0,108
274,253	-174,072	-0,034	0,001
275,268	-32,265	-0,279	-0,107
276,282	9,823	-0,217	-0,113
277,297	23,636	-0,171	-0,097
278,312	6,118	-0,145	-0,074
279,326	669,258	-0,018	-0,032
280,341	-22,784	-0,146	-0,060
281,355	-200,000	-0,158	-0,000
282,370	800,000	-0,135	-0,277
283,384	-29,008	-0,307	-0,121
284,399	-35,460	-0,209	0,078
285,414	-39,227	-0,114	-0,041
286,428	34,352	-0,160	-0,096
287,443	-125,936	-0,175	-0,018
288,457	-61,777	-0,259	-0,074
289,472	215,415	-0,176	-0,192
290,487	52,312	-0,189	-0,124
291,501	-39,263	-0,179	-0,064
292,516	800,000	-0,051	-0,130
293,530	458,376	-0,172	-0,264
294,545	-200,000	-0,001	-0,041
295,560	106,989	-0,104	-0,085
296,574	-96,079	-0,204	0,037
297,589	800,000	-0,103	-0,241
298,603	105,724	-0,244	-0,199
299,618	114,530	-0,166	-0,139
300,633	-200,000	-0,022	-0,097
301,647	241,331	-0,067	0,077
302,662	-168,868	-0,146	0,004
303,676	-51,427	-0,163	-0,052
304,691	96,361	-0,182	-0,143
305,706	-45,727	-0,235	-0,079
306,720	-12,890	-0,246	-0,110
307,735	116,911	-0,164	-0,138
308,749	-200,000	-0,037	-0,132
309,764	-200,000	0,019	-0,181
310,779	169,420	-0,161	-0,158
311,793	121,277	-0,166	-0,142
312,808	-68,170	-0,158	-0,042
313,822	48,701	-0,217	-0,139
314,837	-29,683	-0,241	-0,094
315,852	-109,663	-0,181	-0,026
316,866	-142,414	-0,159	0,011
317,881	-127,539	-0,197	-0,019
318,895	-81,957	-0,238	-0,053
319,910	-66,065	-0,222	-0,060
320,925	431,641	-0,077	-0,115
321,939	93,416	-0,167	-0,130
322,954	124,866	-0,146	-0,126
323,968	-101,277	-0,083	-0,014
324,983	498,128	-0,135	-0,214
325,997	245,856	-0,112	-0,129
327,012	-11,392	-0,195	-0,088
328,027	313,533	-0,122	-0,158
329,041	155,413	-0,159	-0,150
330,056	-200,000	0,011	-0,199
331,070	701,318	-0,057	-0,104
332,085	-20,427	-0,099	-0,041
333,100	411,963	-0,104	-0,152
334,114	-29,654	-0,257	-0,100
335,129	112,965	-0,147	-0,122
336,143	45,862	-0,248	-0,157
337,158	-200,000	-0,005	-0,065
338,173	392,914	0,022	0,032
339,187	-5,907	-0,183	-0,086
340,202	224,884	-0,237	-0,263
341,216	40,516	-0,065	-0,040
342,231	800,000	-0,122	-0,234
343,246	800,000	-0,105	-0,263
344,260	396,613	-0,125	-0,180
345,275	57,811	0,052	-0,035
346,289	-128,629	-0,158	-0,015
347,304	74,009	-0,157	-0,113
348,319	-38,850	-0,151	-0,054
349,333	-5,027	-0,167	-0,079
350,348	589,823	-0,108	-0,184
351,362	155,053	-0,097	-0,091
352,377	100,270	-0,126	-0,100
353,392	-90,789	-0,160	0,031
354,406	-27,317	-0,154	-0,061
355,421	207,584	1313,658	1404,963
356,435	159,694	1474,234	1405,447
