DTS Sentinel unit serial number:	SN410029Multiplexer serial number:	ORYXHardware model number:	OX2-SRSoftware version number:	ORYX F/W v4,00 Oryx Data Collector v3.7.2.0data status	okinstallation	B3 Nyhavnadifferential loss correction	single-endedforward channel	channel 1reverse channel	N/Adate	2023/12/03time	04:22:30forward acquisition time	300,00reverse acquisition time	0,00gamma	499,1914k internal	0,3201k external	0,3201temperature offset calibration	1,0000default loss term (dB/km)	0,3820temperature slope calibration	1,0000multiplexer offset coefficient	1,0000multiplexer slope coefficient	1,0000fibre end	0,00T internal ref (°C)	13,31T ext. ref 1 (°C)	-1,77T ext. ref 2 (°C)	-1,80length (m)	temperature (°C)	Stokes	anti-Stokes-744,400	491,934	-0,175	-0,292
-743,385	452,917	-0,187	0,302
-742,371	614,726	-0,169	-0,309
-741,356	-200,000	-0,054	0,273
-740,342	725,093	-0,149	-0,290
-739,327	800,000	-0,103	0,293
-738,312	182,265	-0,231	-0,248
-737,298	800,000	-0,097	0,289
-736,283	174,586	-0,218	-0,230
-735,269	-200,000	0,092	0,328
-734,254	130,530	-0,144	-0,134
-733,239	262,244	-0,156	0,197
-732,225	396,590	-0,167	-0,255
-731,210	71,760	0,127	0,096
-730,196	-200,000	-0,002	-0,063
-729,181	-200,000	-0,010	-0,052
-728,167	-200,000	0,005	-0,087
-727,152	-129,946	-0,043	-0,004
-726,137	-30,628	-0,126	0,052
-725,123	18,643	0,035	-0,020
-724,108	-103,262	-0,147	-0,025
-723,094	150,983	-0,131	0,130
-722,079	459,408	0,050	-0,081
-721,064	-56,468	-0,049	0,016
-720,050	239,193	-0,048	0,058
-719,035	-186,654	-0,129	0,001
-718,021	244,617	-0,092	0,113
-717,006	78,144	-0,175	-0,135
-715,991	331,679	-0,105	-0,148
-714,977	800,000	-0,027	0,057
-713,962	248,873	-0,044	0,055
-712,948	-9,962	-0,102	-0,049
-711,933	800,000	0,057	-0,139
-710,918	-62,704	0,106	-0,032
-709,904	-200,000	-0,001	0,016
-708,889	-110,718	-0,045	0,007
-707,875	-200,000	0,029	0,098
-706,860	800,000	-0,004	0,011
-705,845	211,997	0,005	0,005
-704,831	-200,000	-0,010	0,069
-703,816	-132,174	0,038	-0,004
-702,802	-200,000	0,017	-0,100
-701,787	-34,046	0,035	0,014
-700,772	-173,065	-0,123	0,003
-699,758	543,763	0,074	-0,130
-698,743	23,577	0,114	0,068
-697,729	70,290	-0,078	-0,058
-696,714	-172,403	0,144	-0,003
-695,699	800,000	-0,022	0,061
-694,685	-56,473	-0,140	0,045
-693,670	-16,587	-0,063	-0,029
-692,656	39,694	-0,113	-0,073
-691,641	-157,372	-0,078	-0,003
-690,627	-200,000	-0,022	0,158
-689,612	37,971	-0,088	0,057
-688,597	50,511	-0,033	-0,023
-687,583	252,262	-0,064	-0,079
-686,568	-45,629	-0,172	-0,061
-685,554	-200,000	0,011	0,044
-684,539	800,000	-0,042	0,094
-683,524	306,127	0,086	0,116
-682,510	-200,000	-0,005	0,133
-681,495	-200,000	-0,111	0,000
-680,481	-200,000	-0,021	0,158
-679,466	193,828	-0,161	-0,177
-678,451	-53,425	-0,109	-0,036
-677,437	-91,207	0,052	0,011
-676,422	800,000	0,012	0,029
-675,408	119,306	-0,048	0,043
-674,393	800,000	-0,010	-0,028
-673,378	243,837	0,069	-0,084
-672,364	307,338	-0,141	-0,191
-671,349	123,345	0,093	0,085
-670,335	273,691	-0,097	-0,124
-669,320	800,000	-0,024	0,054
-668,305	-200,000	-0,015	0,065
-667,291	-45,293	-0,159	0,057
-666,276	226,780	-0,109	-0,128
-665,262	-200,000	-0,043	0,157
-664,247	-18,738	-0,163	-0,073
-663,232	-43,925	0,123	-0,045
-662,218	-200,000	-0,012	-0,167
-661,203	-141,981	0,036	0,003
-660,189	-118,743	0,109	0,014
-659,174	800,000	-0,005	-0,016
-658,159	-200,000	0,010	-0,099
-657,145	288,243	-0,096	-0,127
-656,130	630,391	-0,046	-0,085
-655,116	-38,354	-0,088	0,034
-654,101	112,403	0,093	0,082
-653,086	-200,000	0,012	-0,081
-652,072	-104,296	-0,056	0,009
-651,057	284,166	-0,066	-0,086
-650,043	270,359	0,059	-0,076
-649,028	-200,000	0,029	-0,130
-648,014	195,530	-0,051	-0,056
-646,999	282,557	0,071	0,093
-645,984	-122,576	0,193	-0,022
-644,970	262,281	-0,051	-0,064
-643,955	-170,745	0,128	0,003
-642,941	105,125	-0,123	-0,105
-641,926	-11,951	0,086	0,040
-640,911	477,917	-0,071	-0,116
-639,897	-43,495	-0,050	-0,018
-638,882	83,910	-0,036	-0,029
-637,868	-200,000	-0,018	-0,091
-636,853	800,000	-0,049	0,153
-635,838	522,787	-0,047	-0,081
-634,824	-200,000	-0,001	-0,124
-633,809	13,242	-0,108	-0,060
-632,795	-133,930	0,095	-0,008
-631,780	352,316	0,011	0,016
-630,765	182,492	-0,072	-0,076
-629,751	-200,000	0,030	0,158
-628,736	102,458	-0,118	-0,100
-627,722	306,710	0,043	-0,059
-626,707	800,000	-0,067	0,206
-625,692	-42,836	0,079	0,029
-624,678	-5,177	-0,074	0,037
-623,663	-82,851	0,114	-0,026
-622,649	-200,000	-0,045	-0,162
-621,634	-74,706	-0,073	0,019
-620,619	-65,453	-0,076	0,022
-619,605	800,000	-0,050	-0,128
-618,590	-81,304	-0,118	-0,028
-617,576	-200,000	0,004	0,019
-616,561	800,000	-0,026	0,078
-615,546	-78,412	-0,100	-0,025
-614,532	-74,745	-0,100	0,026
-613,517	623,214	-0,027	0,049
-612,503	249,759	-0,023	0,029
-611,488	-200,000	0,019	0,092
-610,474	-66,826	-0,024	0,007
-609,459	800,000	0,011	-0,029
-608,444	800,000	-0,007	-0,018
-607,430	351,453	-0,124	-0,178
-606,415	-122,011	0,106	-0,012
-605,401	642,963	0,018	0,033
-604,386	-45,102	0,084	-0,030
-603,371	132,752	0,053	-0,049
-602,357	-200,000	0,008	0,116
-601,342	-200,000	0,013	0,049
-600,328	565,980	-0,056	0,099
-599,313	-131,875	0,206	-0,019
-598,298	80,769	0,023	0,018
-597,284	-81,077	-0,050	-0,012
-596,269	-200,000	-0,015	-0,091
-595,255	-57,728	-0,073	-0,023
-594,240	800,000	0,076	-0,173
-593,225	-200,000	-0,022	0,076
-592,211	-200,000	-0,034	-0,119
-591,196	-132,588	-0,139	-0,013
-590,182	326,762	0,098	0,136
-589,167	-129,643	-0,048	-0,005
-588,152	204,005	0,069	0,077
-587,138	97,860	-0,087	-0,072
-586,123	800,000	0,079	-0,169
-585,109	61,791	0,068	-0,049
-584,094	-42,049	-0,082	-0,030
-583,079	-200,000	-0,024	-0,164
-582,065	-200,000	-0,004	0,072
-581,050	-49,514	-0,057	0,020
-580,036	800,000	-0,073	-0,161
-579,021	-200,000	0,007	-0,163
-578,006	800,000	-0,026	-0,079
-576,992	256,786	-0,084	0,104
-575,977	-139,918	-0,044	-0,003
-574,963	381,815	0,083	-0,124
-573,948	-65,665	0,078	0,023
-572,934	47,228	0,163	-0,110
-571,919	-200,000	0,002	-0,029
-570,904	-54,262	0,096	-0,031
-569,890	378,713	-0,041	0,061
-568,875	166,257	-0,052	-0,054
-567,861	16,013	0,091	0,052
-566,846	63,678	-0,084	0,061
-565,831	45,591	-0,095	-0,063
-564,817	119,923	-0,025	0,023
-563,802	-70,653	-0,111	-0,030
-562,788	156,714	0,031	-0,031
-561,773	-200,000	0,032	0,127
-560,758	-80,614	0,100	-0,024
-559,744	-200,000	0,019	0,163
-558,729	800,000	-0,051	-0,103
-557,715	-161,255	0,117	0,004
-556,700	78,239	-0,129	-0,100
-555,685	697,433	-0,004	-0,008
-554,671	121,068	0,138	-0,124
-553,656	3,161	0,114	0,060
-552,642	800,000	0,047	-0,136
-551,627	800,000	0,014	0,044
-550,612	800,000	-0,048	0,116
-549,598	224,447	-0,036	0,042
-548,583	800,000	-0,042	0,097
-547,569	121,200	0,050	-0,045
-546,554	244,179	0,050	0,060
-545,539	-200,000	0,024	0,114
-544,525	800,000	0,039	0,088
-543,510	313,481	-0,060	-0,082
-542,496	282,285	0,049	-0,063
-541,481	86,281	-0,130	-0,103
-540,466	-200,000	0,003	-0,045
-539,452	-65,379	0,131	-0,038
-538,437	69,059	0,091	-0,068
-537,423	34,316	-0,108	-0,068
-536,408	402,459	0,034	-0,052
-535,393	-127,889	-0,066	-0,007
-534,379	-72,389	0,065	0,017
-533,364	173,091	-0,060	-0,063
-532,350	60,257	-0,059	0,042
-531,335	-173,684	0,093	0,002
-530,321	800,000	-0,035	-0,091
-529,306	-95,060	0,054	0,010
-528,291	107,978	0,070	-0,060
-527,277	-129,573	-0,101	0,010
-526,262	-49,931	0,101	0,034
-525,248	97,642	0,022	0,019
-524,233	800,000	0,025	0,062
-523,218	275,031	-0,043	-0,056
-522,204	800,000	0,031	0,075
-521,189	66,616	-0,096	-0,070
-520,175	-200,000	-0,006	-0,168
-519,160	-32,622	-0,079	-0,032
-518,145	128,639	-0,130	0,119
-517,131	218,404	-0,020	-0,023
-516,116	800,000	0,075	0,167
-515,102	-200,000	0,001	0,080
-514,087	-200,000	0,005	-0,022
-513,072	-16,122	-0,099	-0,045
-512,058	-200,000	0,010	0,065
-511,043	253,341	0,058	-0,071
-510,029	108,397	-0,103	-0,088
-509,014	41,143	0,091	0,059
-507,999	660,570	-0,062	-0,115
-506,985	-45,599	-0,093	-0,033
-505,970	-93,307	0,035	0,007
-504,956	-74,972	0,105	-0,027
-503,941	687,300	-0,018	-0,034
-502,926	-136,556	0,054	-0,004
-501,912	-200,000	0,024	0,087
-500,897	141,369	-0,031	-0,030
-499,883	132,739	-0,085	0,079
-498,868	-45,723	0,144	-0,051
-497,853	-14,110	-0,094	-0,043
-496,839	800,000	0,030	-0,094
-495,824	-200,000	-0,000	0,041
-494,810	800,000	0,044	0,140
-493,795	800,000	-0,043	0,106
-492,781	-200,000	-0,017	-0,070
-491,766	-29,401	0,020	-0,008
-490,751	-1,687	-0,104	-0,052
-489,737	98,653	0,151	0,125
-488,722	-200,000	-0,006	0,069
-487,708	800,000	0,015	-0,034
-486,693	621,659	0,039	0,070
-485,678	145,236	-0,023	0,022
-484,664	-58,807	-0,061	-0,019
-483,649	91,458	-0,089	-0,072
-482,635	-119,445	0,119	-0,015
-481,620	-124,144	-0,032	0,004
-480,605	-27,828	-0,058	-0,024
-479,591	398,086	0,046	0,070
-478,576	-200,000	0,021	0,147
-477,562	29,389	-0,057	-0,035
-476,547	-200,000	0,016	0,064
-475,532	80,305	0,113	0,087
-474,518	-34,462	0,081	0,032
-473,503	220,007	-0,023	-0,027
-472,489	-31,707	-0,058	-0,023
-471,474	-50,208	0,060	-0,020
-470,459	-12,607	-0,076	0,035
-469,445	-200,000	0,006	-0,061
-468,430	213,273	0,057	-0,065
-467,416	-200,000	-0,011	-0,076
-466,401	-125,308	-0,064	-0,007
-465,386	70,664	-0,058	0,043
-464,372	-135,264	0,089	-0,008
-463,357	57,880	0,009	0,006
-462,343	-200,000	0,017	-0,135
-461,328	-35,171	-0,103	-0,040
-460,313	17,559	0,180	0,103
-459,299	800,000	0,027	0,067
-458,284	346,031	0,015	-0,021
-457,270	-200,000	-0,012	0,116
-456,255	-200,000	-0,001	0,098
-455,241	-200,000	0,007	-0,078
-454,226	-40,793	-0,039	-0,015
-453,211	-85,146	-0,021	0,005
-452,197	-175,967	-0,041	0,001
-451,182	223,924	0,049	0,057
-450,168	514,394	-0,050	-0,084
-449,153	-200,000	0,014	-0,178
-448,138	102,617	-0,044	-0,037
-447,124	79,807	-0,009	-0,007
-446,109	-8,770	0,057	-0,027
-445,095	101,618	0,073	0,061
-444,080	-96,485	0,152	0,029
-443,065	-69,591	0,138	-0,038
-442,051	800,000	-0,011	-0,029
-441,036	-200,000	-0,019	-0,125
-440,022	247,726	-0,037	0,045
-439,007	-200,000	0,023	-0,074
-437,992	303,800	-0,009	-0,011
-436,978	-108,680	0,093	0,014
-435,963	155,069	0,123	0,122
-434,949	446,173	-0,102	-0,162
-433,934	-125,199	-0,049	0,005
-432,919	-200,000	0,004	-0,087
-431,905	-106,805	-0,090	-0,014
-430,890	-81,776	0,156	0,036
-429,876	800,000	-0,023	0,066
-428,861	218,428	-0,095	0,109
-427,846	-9,687	-0,087	-0,042
-426,832	-51,164	0,086	0,029
-425,817	-200,000	0,019	-0,069
-424,803	-186,620	-0,163	0,002
-423,788	33,061	0,140	-0,087
-422,773	-200,000	0,012	0,053
-421,759	-200,000	-0,040	-0,201
-420,744	-200,000	0,041	-0,166
-419,730	-200,000	-0,019	-0,144
-418,715	226,572	-0,102	-0,119
-417,701	-66,258	-0,052	-0,015
-416,686	27,874	0,054	-0,033
-415,671	-117,214	0,130	-0,017
-414,657	-200,000	0,001	0,090
-413,642	-200,000	0,012	-0,064
-412,628	-39,752	-0,065	-0,024
-411,613	-121,715	0,040	-0,005
-410,598	148,317	-0,101	-0,098
-409,584	63,237	0,050	0,036
-408,569	-15,497	0,069	0,032
-407,555	-200,000	-0,020	0,105
-406,540	-200,000	0,030	0,129
-405,525	800,000	-0,034	0,096
-404,511	243,893	0,079	0,095
-403,496	-24,085	-0,066	0,028
-402,482	-200,000	-0,003	0,049
-401,467	158,213	0,071	0,071
-400,452	-102,466	-0,059	0,010
-399,438	62,428	-0,059	0,042
-398,423	377,814	0,086	-0,127
-397,409	-200,000	-0,017	0,090
-396,394	231,605	0,013	-0,015
-395,379	-81,237	-0,176	-0,041
-394,365	-116,152	0,080	-0,010
-393,350	-57,948	-0,129	-0,040
-392,336	12,115	0,087	-0,048
-391,321	6,367	-0,022	-0,012
-390,306	80,792	-0,061	0,047
-389,292	-25,155	-0,077	-0,033
-388,277	-200,000	-0,132	-0,000
-387,263	800,000	-0,007	-0,021
-386,248	-200,000	-0,004	0,113
-385,233	-48,592	0,100	0,034
-384,219	800,000	0,056	0,126
-383,204	456,033	-0,038	-0,061
-382,190	-129,976	-0,076	-0,007
-381,175	8,191	-0,042	0,023
-380,160	-117,507	0,013	-0,002
-379,146	-200,000	-0,004	0,039
-378,131	171,377	-0,042	0,043
-377,117	-200,000	-0,009	-0,087
-376,102	800,000	-0,018	-0,050
-375,088	-14,490	-0,062	-0,028
-374,073	14,678	-0,109	-0,061
-373,058	158,479	-0,058	-0,058
-372,044	239,275	0,097	0,116
-371,029	-65,797	0,053	-0,015
-370,015	183,084	0,043	-0,045
-369,000	769,992	-0,065	-0,128
-367,985	800,000	-0,031	-0,065
-366,971	-200,000	0,013	0,056
-365,956	160,521	0,053	0,053
-364,942	146,762	-0,013	-0,013
-363,927	-51,791	-0,105	0,035
-362,912	124,467	0,032	0,029
-361,898	13,643	0,101	-0,056
-360,883	153,440	-0,055	0,054
-359,869	-200,000	0,003	0,077
-358,854	262,510	-0,030	-0,037
-357,839	800,000	0,027	0,069
-356,825	800,000	0,065	0,134
-355,810	-200,000	-0,014	-0,087
-354,796	-14,807	-0,090	0,041
-353,781	800,000	-0,026	-0,063
-352,766	-200,000	-0,020	-0,254
-351,752	-158,993	0,081	-0,003
-350,737	109,092	0,182	0,156
-349,723	-52,434	-0,106	0,035
-348,708	21,121	-0,074	0,043
-347,693	-28,391	-0,098	-0,040
-346,679	-200,000	-0,014	-0,060
-345,664	-118,689	-0,235	-0,029
-344,650	-54,220	0,275	0,089
-343,635	-200,000	0,023	-0,091
-342,620	800,000	0,049	0,114
-341,606	-200,000	0,013	0,076
-340,591	13,807	-0,095	0,053
-339,577	-79,595	-0,064	-0,015
-338,562	-8,746	0,044	-0,021
-337,548	-67,226	0,083	0,023
-336,533	800,000	-0,053	-0,131
-335,518	-200,000	0,003	0,076
-334,504	800,000	0,053	0,105
-333,489	-200,000	0,002	0,084
-332,475	-129,881	-0,017	-0,002
-331,460	688,962	-0,007	0,013
-330,445	39,470	0,070	0,045
-329,431	800,000	0,023	-0,049
-328,416	504,932	0,037	-0,062
-327,402	800,000	0,029	0,059
-326,387	750,968	-0,027	-0,052
-325,372	-191,819	0,128	-0,001
-324,358	14,105	0,112	0,062
-323,343	-120,708	-0,110	0,013
-322,329	-200,000	-0,007	-0,116
-321,314	-148,322	0,177	0,010
-320,299	162,315	0,069	0,069
-319,285	-156,427	0,098	0,004
-318,270	124,627	-0,115	-0,104
-317,256	-9,116	-0,175	-0,083
-316,241	39,040	-0,087	-0,056
-315,226	60,783	0,135	0,096
-314,212	731,327	0,065	0,124
-313,197	-200,000	0,012	0,147
-312,183	-97,453	0,069	0,013
-311,168	273,844	-0,081	0,103
-310,153	800,000	0,040	-0,085
-309,139	-200,000	0,000	-0,052
-308,124	398,089	-0,008	0,012
-307,110	800,000	0,038	-0,096
-306,095	-19,145	0,030	0,013
-305,080	85,566	-0,026	0,020
-304,066	11,622	0,087	-0,047
-303,051	-85,881	-0,095	-0,021
-302,037	139,522	-0,023	-0,021
-301,022	-200,000	-0,025	-0,117
-300,008	-64,030	0,140	0,041
-298,993	-200,000	0,021	0,139
-297,978	800,000	-0,022	0,045
-296,964	-132,338	0,062	-0,006
-295,949	-159,354	-0,072	0,003
-294,935	800,000	-0,032	0,091
-293,920	135,766	-0,064	0,060
-292,905	195,241	-0,011	-0,012
-291,891	201,884	0,100	-0,110
-290,876	177,289	0,045	0,047
-289,862	-132,266	0,180	0,016
-288,847	-23,492	-0,116	-0,049
-287,832	-37,093	0,008	0,003
-286,818	636,468	-0,015	0,026
-285,803	-60,510	0,151	0,046
-284,789	6,428	0,043	0,023
-283,774	162,059	0,020	-0,020
-282,759	-179,140	-0,187	0,003
-281,745	-200,000	0,024	0,087
-280,730	-93,604	0,040	-0,008
-279,716	271,876	-0,007	-0,009
-278,701	628,747	-0,058	0,106
-277,686	-200,000	0,007	-0,031
-276,672	61,198	-0,049	0,035
-275,657	-87,809	-0,137	-0,029
-274,643	148,661	0,068	0,065
-273,628	800,000	-0,041	-0,096
-272,613	-200,000	-0,010	-0,051
-271,599	413,327	-0,060	-0,091
-270,584	-200,000	0,026	0,098
-269,570	-132,011	0,045	0,004
-268,555	-200,000	-0,006	-0,130
-267,540	-75,584	0,144	-0,036
-266,526	455,773	0,014	-0,023
-265,511	800,000	-0,028	-0,072
-264,497	800,000	0,046	-0,136
-263,482	-200,000	-0,015	0,091
-262,467	111,973	-0,106	0,091
-261,453	267,520	0,030	0,037
-260,438	82,157	-0,158	0,122
-259,424	-178,270	-0,073	0,001
-258,409	-200,000	0,012	-0,038
-257,395	595,877	0,016	0,029
-256,380	-200,000	-0,035	0,203
-255,365	129,704	0,093	-0,085
-254,351	-200,000	-0,019	-0,164
-253,336	180,126	0,108	-0,113
-252,322	-145,579	-0,180	0,011
-251,307	-54,337	-0,085	-0,027
-250,292	800,000	-0,032	0,093
-249,278	-200,000	0,033	0,133
-248,263	-200,000	0,006	0,066
-247,249	-200,000	-0,035	0,115
-246,234	-72,376	-0,028	0,007
-245,219	800,000	0,023	-0,050
-244,205	76,821	-0,090	-0,068
-243,190	-89,008	0,094	0,020
-242,176	-134,397	0,120	0,010
-241,161	189,699	-0,045	-0,048
-240,146	-51,139	-0,022	0,007
-239,132	-164,736	0,106	-0,003
-238,117	3,939	-0,074	-0,038
-237,103	65,741	-0,047	0,034
-236,088	-163,617	-0,075	-0,002
-235,073	-200,000	0,057	0,198
-234,059	-90,779	0,063	0,013
-233,044	-200,000	-0,023	0,100
-232,030	451,658	0,077	0,122
-231,015	-90,543	-0,122	-0,025
-230,000	240,914	-0,045	-0,054
-228,986	-200,000	0,007	-0,037
-227,971	55,379	0,022	0,015
-226,957	-200,000	-0,001	-0,021
-225,942	-169,985	-0,061	-0,002
-224,927	-130,214	0,107	0,010
-223,913	198,096	0,033	-0,036
-222,898	-200,000	0,005	-0,101
-221,884	90,869	-0,028	0,022
-220,869	-200,000	0,011	0,072
-219,855	-200,000	-0,019	0,104
-218,840	-200,000	-0,018	0,201
-217,825	179,492	0,055	-0,057
-216,811	800,000	-0,032	-0,082
-215,796	-82,465	0,154	-0,035
-214,782	322,268	-0,053	-0,072
-213,767	226,790	0,110	0,128
-212,752	189,780	0,104	0,111
-211,738	-81,092	0,106	0,025
-210,723	188,689	0,013	-0,014
-209,709	341,548	0,047	-0,066
-208,694	111,090	-0,062	0,054
-207,679	2,827	-0,034	0,017
-206,665	-85,614	-0,193	0,042
-205,650	-200,000	0,032	0,142
-204,636	101,538	0,047	-0,039
-203,621	800,000	-0,050	-0,105
-202,606	76,454	0,026	-0,020
-201,592	-19,243	0,066	-0,029
-200,577	-121,684	-0,095	0,011
-199,563	-162,726	-0,022	-0,001
-198,548	165,067	0,112	0,112
-197,533	-200,000	0,010	0,084
-196,519	-200,000	0,011	0,056
-195,504	800,000	-0,026	-0,059
-194,490	-83,180	0,117	0,027
-193,475	-200,000	-0,005	0,035
-192,460	215,803	0,024	-0,027
-191,446	-200,000	-0,007	-0,119
-190,431	-170,727	-0,121	-0,003
-189,417	354,180	0,026	0,037
-188,402	407,395	0,031	0,047
-187,387	800,000	0,084	0,234
-186,373	-161,953	-0,135	0,005
-185,358	120,134	-0,130	-0,115
-184,344	233,821	0,044	-0,052
-183,329	-78,841	0,092	0,022
-182,315	-200,000	-0,011	0,220
-181,300	-141,992	0,114	0,008
-180,285	9,806	-0,072	0,039
-179,271	134,532	0,082	-0,076
-178,256	-33,081	-0,113	0,044
-177,242	8,559	0,149	0,079
-176,227	-200,000	-0,001	0,055
-175,212	54,458	-0,039	-0,027
-174,198	-200,000	0,036	0,130
-173,183	800,000	-0,051	-0,101
-172,169	-200,000	-0,013	-0,063
-171,154	-143,249	0,029	0,002
-170,139	-200,000	0,020	-0,074
-169,125	-95,122	0,082	-0,016
-168,110	-77,096	0,045	0,011
-167,096	101,630	-0,138	0,114
-166,081	-28,077	-0,129	0,053
-165,066	-150,454	-0,137	0,007
-164,052	57,984	0,036	-0,025
-163,037	-200,000	0,019	0,114
-162,023	17,598	0,019	0,011
-161,008	-200,000	-0,004	0,055
-159,993	-49,480	0,063	-0,021
-158,979	88,107	-0,086	-0,068
-157,964	800,000	0,014	-0,029
-156,950	52,197	-0,076	0,051
-155,935	-98,170	0,071	0,013
-154,920	-62,058	0,086	-0,025
-153,906	421,123	-0,056	0,086
-152,891	800,000	-0,025	0,068
-151,877	266,060	0,014	-0,017
-150,862	108,807	-0,122	-0,104
-149,847	3,094	0,171	-0,088
-148,833	126,070	0,054	0,048
-147,818	-200,000	0,002	0,028
-146,804	-20,846	0,151	0,066
-145,789	-82,351	-0,067	-0,015
-144,775	690,847	-0,022	-0,041
-143,760	556,768	0,021	0,037
-142,745	89,349	-0,119	-0,094
-141,731	-200,000	-0,019	0,077
-140,716	175,046	0,038	0,039
-139,702	-165,798	0,155	-0,005
-138,687	-200,000	0,007	0,036
-137,672	-62,388	0,043	0,013
-136,658	98,128	-0,031	0,025
-135,643	-200,000	-0,007	-0,116
-134,629	101,059	0,123	-0,102
-133,614	66,897	-0,106	-0,076
-132,599	80,114	0,112	0,085
-131,585	-200,000	-0,022	0,088
-130,570	-200,000	-0,009	0,038
-129,556	-36,055	-0,148	0,056
-128,541	-200,000	0,024	0,100
-127,526	21,581	0,013	-0,007
-126,512	-200,000	-0,014	0,100
-125,497	-200,000	0,000	-0,007
-124,483	-167,287	-0,069	-0,002
-123,468	-109,985	0,100	-0,015
-122,453	-200,000	-0,039	-0,144
-121,439	192,676	0,029	0,031
-120,424	468,697	0,005	-0,007
-119,410	800,000	0,053	0,117
-118,395	184,094	0,076	0,080
-117,380	610,768	-0,068	0,121
-116,366	525,001	-0,054	0,091
-115,351	329,384	-0,048	-0,066
-114,337	-58,737	-0,079	-0,024
-113,322	147,036	0,045	0,043
-112,307	30,120	0,094	-0,057
-111,293	-128,014	0,059	0,006
-110,278	-200,000	-0,018	0,160
-109,264	-18,513	0,181	0,080
-108,249	-59,903	-0,075	0,023
-107,234	271,672	0,023	-0,029
-106,220	-200,000	-0,008	-0,118
-105,205	-65,258	0,013	-0,004
-104,191	-200,000	0,017	0,186
-103,176	-162,627	0,123	-0,004
-102,162	-200,000	-0,013	-0,065
-101,147	78,485	-0,016	0,012
-100,132	-58,002	-0,099	0,030
-99,118	-200,000	-0,009	-0,114
-98,103	-200,000	-0,003	-0,065
-97,089	-41,210	0,031	0,011
-96,074	432,778	0,066	0,102
-95,059	-200,000	0,008	0,028
-94,045	-200,000	0,022	0,069
-93,030	-200,000	0,002	-0,131
-92,016	193,159	0,051	-0,055
-91,001	-56,486	0,092	-0,029
-89,986	66,211	0,124	-0,089
-88,972	-38,073	0,049	-0,018
-87,957	-38,624	0,098	0,036
-86,943	800,000	0,024	-0,056
-85,928	-45,049	-0,043	-0,015
-84,913	-200,000	-0,011	-0,149
-83,899	283,227	0,049	0,063
-82,884	-115,676	0,075	0,010
-81,870	246,039	0,051	0,061
-80,855	-122,297	-0,141	0,016
-79,840	354,398	0,045	0,064
-78,826	74,790	0,141	-0,105
-77,811	324,626	-0,100	-0,136
-76,797	500,105	-0,026	-0,042
-75,782	-200,000	-0,006	0,030
-74,767	-30,369	0,134	-0,054
-73,753	-200,000	-0,065	0,250
-72,738	-200,000	0,005	0,082
-71,724	-200,000	0,005	0,108
-70,709	-200,000	-0,023	0,192
-69,694	414,923	-0,052	0,079
-68,680	-138,085	-0,025	-0,002
-67,665	-133,565	-0,101	0,009
-66,651	-1,688	0,111	-0,055
-65,636	579,488	-0,053	0,093
-64,622	-79,353	0,075	0,018
-63,607	199,159	-0,049	-0,054
-62,592	-25,086	-0,076	-0,032
-61,578	-118,411	0,180	-0,022
-60,563	243,045	0,076	0,090
-59,549	-200,000	-0,051	0,201
-58,534	-22,507	-1,582	-0,675
-57,519	405,627	-1,374	-2,059
-56,505	-200,000	-0,626	-4,540
-55,490	129,164	1,121	1,014
-54,476	800,000	5,011	11,428
-53,461	-200,000	19,102	319,409
-52,446	-200,000	740,451	2333,478
-51,432	573,558	1655,375	2869,057
-50,417	78,303	1670,993	1261,797
-49,403	21,337	1544,124	885,839
-48,388	15,196	1466,309	811,335
-47,373	17,976	1456,775	819,464
-46,359	16,673	1446,380	807,337
-45,344	13,459	1441,799	789,357
-44,330	13,360	1439,956	787,838
-43,315	13,403	1437,966	786,927
-42,300	13,373	1436,498	785,948
-41,286	13,419	1435,180	785,414
-40,271	13,361	1433,823	784,363
-39,257	13,369	1432,437	783,614
-38,242	13,391	1431,355	783,095
-37,227	13,383	1430,053	782,314
-36,213	13,398	1428,953	781,752
-35,198	13,419	1427,630	781,097
-34,184	13,439	1426,763	780,688
-33,169	13,355	1425,478	779,556
-32,154	13,456	1424,352	779,385
-31,140	13,425	1423,064	778,505
-30,125	13,455	1422,008	778,039
-29,111	13,402	1420,974	777,190
-28,096	13,447	1419,584	776,612
-27,082	13,350	1418,600	775,584
-26,067	13,343	1417,524	774,933
-25,052	13,343	1416,440	774,309
-24,038	13,325	1415,566	773,717
-23,023	13,333	1414,363	773,065
-22,009	13,313	1413,208	772,311
-20,994	13,261	1412,515	771,657
-19,979	13,296	1411,855	771,427
-18,965	13,323	1410,606	770,842
-17,950	13,286	1409,703	770,146
-16,936	13,309	1408,832	769,746
-15,921	13,255	1407,893	768,948
-14,906	13,249	1406,893	768,345
-13,892	13,245	1405,812	767,704
-12,877	13,222	1405,112	767,188
-11,863	13,271	1404,162	766,864
-10,848	13,254	1403,336	766,303
-9,833	13,232	1402,399	765,658
-8,819	13,174	1401,587	764,916
-7,804	13,143	1400,715	764,266
-6,790	13,158	1399,702	763,752
-5,775	13,136	1398,593	763,013
-4,760	13,186	1397,497	762,619
-3,746	13,155	1396,787	762,057
-2,731	13,125	1395,711	761,303
-1,717	13,148	1394,887	760,926
-0,702	13,072	1393,269	759,663
0,313	16,967	1310,068	732,327
1,327	33,223	704,038	431,141
2,342	51,437	123,388	82,788
3,356	0,726	16,571	8,362
4,371	7,583	3,227	1,703
5,386	60,393	0,597	0,418
6,400	-200,000	0,072	0,314
7,415	12,376	-0,306	-0,167
8,429	112,753	-0,318	-0,272
9,444	24,667	-0,293	-0,171
10,459	34,213	-0,213	-0,131
11,473	75,710	-0,317	-0,236
12,488	-28,979	-0,403	-0,163
13,502	99,908	-0,312	-0,255
14,517	124,447	-0,310	-0,275
15,531	123,712	-0,351	-0,311
16,546	-48,038	-0,457	-0,155
17,561	161,677	-0,301	-0,298
18,575	34,116	-0,194	-0,119
19,590	220,383	-0,290	-0,329
20,604	-4,225	-0,326	-0,159
21,619	131,514	-0,392	-0,356
22,634	181,384	-0,396	-0,412
23,648	214,501	-0,302	-0,338
24,663	150,635	-0,360	-0,345
25,677	138,250	-0,271	-0,251
26,692	46,668	-0,312	-0,204
27,707	110,363	-0,332	-0,281
28,721	-11,564	-0,381	-0,176
29,736	150,839	-0,260	-0,250
30,750	56,462	-0,472	-0,323
31,765	148,169	-0,339	-0,323
32,780	266,793	-0,259	-0,321
33,794	277,374	-0,340	-0,428
34,809	180,716	-0,334	-0,347
35,823	-11,319	-0,348	-0,161
36,838	32,505	-0,416	-0,253
37,853	196,386	-0,297	-0,319
38,867	37,494	-0,373	-0,233
39,882	192,468	-0,300	-0,320
40,896	79,609	-0,336	-0,254
41,911	174,095	-0,387	-0,394
42,926	199,450	-0,313	-0,339
43,940	38,721	-0,394	-0,248
44,955	-28,855	-0,472	-0,190
45,969	110,559	-0,378	-0,320
46,984	279,619	-0,226	-0,286
47,999	22,431	-0,322	-0,185
49,013	72,399	-0,305	-0,224
50,028	-7,050	-0,455	-0,217
51,042	445,981	-0,238	-0,369
52,057	184,669	-0,251	-0,262
53,071	130,927	-0,366	-0,331
54,086	413,390	-0,228	-0,343
55,101	169,732	-0,268	-0,270
56,115	56,137	-0,287	-0,196
57,130	86,947	-0,403	-0,313
58,144	75,420	-0,376	-0,279
59,159	107,291	-0,406	-0,340
60,174	32,941	-0,468	-0,284
61,188	-62,108	-0,482	-0,141
62,203	-129,333	-0,257	-0,025
63,217	97,390	-0,277	-0,224
64,232	29,503	-0,325	-0,194
65,247	69,146	-0,412	-0,298
66,261	113,604	-0,445	-0,380
67,276	94,201	-0,264	-0,211
68,290	9,430	-0,502	-0,266
69,305	168,125	-0,386	-0,387
70,320	-93,730	-0,370	-0,071
71,334	-61,025	-0,223	-0,066
72,349	189,827	-0,276	-0,292
73,363	103,165	-0,429	-0,354
74,378	-2,592	-0,319	-0,157
75,393	94,742	-0,361	-0,289
76,407	294,211	-0,175	-0,225
77,422	127,487	-0,234	-0,209
78,436	18,065	-0,242	-0,135
79,451	146,338	-0,281	-0,265
80,466	-48,367	-0,451	-0,152
81,480	37,364	-0,278	-0,173
82,495	-59,319	-0,365	-0,110
83,509	13,423	-0,288	-0,156
84,524	370,763	-0,230	-0,329
85,539	84,112	-0,287	-0,220
86,553	-13,730	-0,341	-0,154
87,568	41,642	-0,325	-0,206
88,582	-13,539	-0,274	-0,124
89,597	95,821	-0,268	-0,215
90,611	-1,623	-0,257	-0,126
91,626	-9,492	-0,231	-0,108
92,641	63,715	-0,253	-0,178
93,655	12,001	-0,283	-0,152
94,670	68,810	-0,315	-0,226
95,684	44,692	-0,321	-0,207
96,699	-7,620	-0,354	-0,167
97,714	40,859	-0,211	-0,133
98,728	131,487	-0,181	-0,163
99,743	306,650	-0,215	-0,282
100,757	-14,644	-0,339	-0,152
101,772	258,117	-0,252	-0,304
102,787	75,310	-0,376	-0,278
103,801	13,030	-0,348	-0,188
104,816	255,831	-0,220	-0,265
105,830	494,113	-0,194	-0,314
106,845	-20,320	-0,260	-0,112
107,860	407,789	-0,171	-0,254
108,874	-62,382	-0,368	-0,106
109,889	197,393	-0,298	-0,319
110,903	89,017	-0,243	-0,189
111,918	-44,678	-0,350	-0,122
112,933	179,771	-0,203	-0,208
113,947	-13,849	-0,274	-0,123
114,962	174,001	-0,172	-0,175
115,976	138,733	-0,280	-0,257
116,991	-68,360	-0,126	-0,034
118,006	11,704	-0,224	-0,120
119,020	-82,900	-0,251	-0,056
120,035	132,204	-0,264	-0,238
121,049	71,840	-0,230	-0,167
122,064	149,725	-0,152	-0,145
123,079	23,691	-0,208	-0,120
124,093	146,453	-0,302	-0,284
125,108	54,242	-0,472	-0,318
126,122	800,000	-0,127	-0,316
127,137	163,485	-0,148	-0,146
128,151	179,830	-0,158	-0,162
129,166	-104,410	-0,167	-0,027
130,181	391,621	-0,168	-0,245
131,195	303,162	-0,149	-0,194
132,210	20,289	-0,349	-0,197
133,224	-99,709	-0,257	-0,045
134,239	194,193	-0,185	-0,196
135,254	75,329	-0,195	-0,144
136,268	299,722	-0,234	-0,302
137,283	-30,811	-0,294	-0,116
138,297	213,053	-0,234	-0,259
139,312	111,211	-0,224	-0,188
140,327	314,641	-0,147	-0,195
141,341	-25,232	-0,324	-0,134
142,356	-31,126	-0,193	-0,076
143,370	41,207	-0,230	-0,145
144,385	135,478	-0,224	-0,204
145,400	158,033	-0,193	-0,187
146,414	800,000	-0,144	-0,288
147,429	0,164	-0,298	-0,148
148,443	-111,547	-0,176	0,025
149,458	-20,336	-0,295	-0,126
150,473	-116,912	-0,338	-0,043
151,487	-15,973	-0,237	-0,105
152,502	231,298	-0,256	-0,294
153,516	42,191	-0,348	-0,220
154,531	91,419	-0,254	-0,199
155,546	4,286	-0,212	-0,108
156,560	-7,006	-0,218	-0,103
157,575	227,484	-0,205	-0,233
158,589	266,055	-0,168	-0,205
159,604	182,650	-0,267	-0,275
160,619	50,222	-0,187	-0,123
161,633	-39,945	-0,211	-0,076
162,648	59,420	-0,238	-0,163
163,662	-32,333	-0,215	-0,083
164,677	4,732	-0,235	-0,120
165,692	294,126	-0,211	-0,270
166,706	-106,765	-0,397	-0,061
167,721	152,587	-0,204	-0,194
168,735	311,985	-0,177	-0,232
169,750	142,734	-0,182	-0,169
170,764	121,673	-0,280	-0,244
171,779	-84,502	-0,196	-0,043
172,794	800,000	-0,134	-0,291
173,808	57,224	-0,267	-0,181
174,823	358,742	-0,134	-0,187
175,837	172,935	-0,255	-0,256
176,852	367,174	-0,214	-0,301
177,867	-13,615	-0,250	-0,113
178,881	-131,168	-0,216	-0,020
179,896	-163,617	-0,077	0,002
180,910	-69,708	-0,168	-0,044
181,925	49,167	-0,255	-0,166
182,940	422,269	-0,142	-0,213
183,954	386,157	-0,225	-0,324
184,969	31,362	-0,205	-0,122
185,983	-26,544	-0,189	-0,077
186,998	110,904	-0,058	-0,049
188,013	115,381	-0,189	-0,160
189,027	202,124	-0,222	-0,238
190,042	-47,918	-0,308	-0,103
191,056	62,551	-0,145	-0,101
192,071	343,068	-0,190	-0,260
193,086	199,555	-0,146	-0,156
194,100	23,959	-0,303	-0,173
195,115	273,471	-0,173	-0,214
196,129	-200,000	0,002	-0,261
197,144	-147,116	-0,236	0,014
198,159	-25,656	-0,264	-0,108
199,173	112,320	-0,243	-0,205
200,188	0,843	-0,264	-0,131
201,202	38,183	-0,143	-0,088
202,217	-177,857	-0,213	-0,003
203,232	224,753	-0,245	-0,276
204,246	68,953	-0,185	-0,132
205,261	-44,243	-0,274	-0,095
206,275	179,196	-0,097	0,099
207,290	496,474	-0,130	-0,208
208,304	800,000	-0,068	-0,176
209,319	-200,000	-0,012	-0,226
210,334	-200,000	-0,008	-0,075
211,348	374,525	-0,179	-0,254
212,363	51,247	-0,154	-0,101
213,377	-43,104	-0,177	-0,062
214,392	155,763	-0,185	-0,177
215,407	800,000	-0,064	-0,157
216,421	-27,369	-0,129	-0,052
217,436	-24,886	-0,262	-0,107
218,450	202,962	-0,177	-0,190
219,465	579,392	-0,154	-0,263
220,480	44,432	-0,153	-0,098
221,494	800,000	-0,153	-0,312
222,509	601,159	-0,150	-0,259
223,523	10,902	-0,144	-0,076
224,538	173,000	-0,172	-0,172
225,553	-31,218	-0,145	-0,056
226,567	-126,826	-0,330	-0,033
227,582	24,193	-0,267	-0,153
228,596	-200,000	-0,036	-0,119
229,611	402,900	-0,192	-0,281
230,626	21,876	-0,111	-0,062
231,640	261,137	-0,068	-0,081
232,655	-21,794	-0,289	-0,121
233,669	738,312	-0,100	-0,187
234,684	-76,278	-0,082	-0,020
235,699	-97,892	-0,192	-0,034
236,713	71,817	-0,177	-0,127
237,728	222,760	-0,249	-0,279
238,742	800,000	-0,143	-0,356
239,757	52,943	-0,239	-0,158
240,772	-44,941	-0,195	-0,067
241,786	76,349	-0,189	-0,138
242,801	63,635	-0,131	-0,091
243,815	800,000	-0,069	-0,188
244,830	2,884	-0,259	-0,130
245,844	-55,398	-0,234	-0,072
246,859	-112,515	-0,250	0,034
247,874	168,869	-0,217	-0,214
248,888	50,392	-0,263	-0,172
249,903	383,279	-0,172	-0,246
250,917	56,809	-0,154	-0,104
251,932	465,757	-0,089	-0,138
252,947	215,519	0,076	-0,083
253,961	132,129	-0,209	-0,187
254,976	-143,510	-0,190	-0,012
255,990	188,895	-0,138	-0,143
257,005	48,475	-0,153	-0,099
258,020	45,345	-0,204	-0,130
259,034	50,435	-0,172	-0,112
260,049	38,589	-0,121	-0,075
261,063	179,388	-0,107	-0,108
262,078	199,545	-0,196	-0,208
263,093	218,127	-0,216	-0,238
264,107	105,969	-0,212	-0,173
265,122	26,948	-0,197	-0,114
266,136	-31,079	-0,191	-0,074
267,151	46,292	-0,190	-0,122
268,166	239,597	-0,106	-0,122
269,180	-52,351	-0,247	-0,078
270,195	124,729	-0,240	-0,209
271,209	146,100	-0,210	-0,195
272,224	106,260	-0,185	-0,152
273,239	86,253	-0,113	-0,086
274,253	126,453	-0,162	-0,142
275,268	22,672	-0,210	-0,119
276,282	140,212	-0,260	-0,237
277,297	59,560	-0,216	-0,147
278,312	-87,082	-0,290	-0,060
279,326	244,777	-0,066	-0,076
280,341	-154,317	-0,097	0,004
281,355	-139,109	-0,237	-0,017
282,370	-200,000	-0,063	-0,200
283,384	19,311	-0,232	-0,128
284,399	102,887	-0,290	-0,234
285,414	-81,687	-0,207	-0,047
286,428	83,677	-0,166	-0,125
287,443	14,311	-0,106	-0,057
288,457	-141,068	-0,101	-0,007
289,472	-34,721	-0,097	-0,037
290,487	-119,738	-0,169	-0,020
291,501	640,792	-0,228	-0,401
292,516	-200,000	-0,008	-0,108
293,530	291,585	-0,099	-0,125
294,545	75,369	-0,142	-0,103
295,560	697,637	-0,076	-0,139
296,574	-136,225	-0,209	0,017
297,589	-200,000	0,026	-0,111
298,603	66,430	-0,272	-0,191
299,618	209,109	-0,141	-0,152
300,633	149,157	-0,110	0,103
301,647	-160,748	-0,136	-0,005
302,662	649,357	-0,099	-0,176
303,676	800,000	-0,054	-0,142
304,691	49,778	-0,122	0,079
305,706	198,705	-0,138	-0,146
306,720	-5,543	-0,226	-0,107
307,735	97,347	-0,267	-0,211
308,749	408,227	-0,102	-0,149
309,764	-49,869	-0,045	0,015
310,779	137,948	-0,128	-0,116
311,793	-99,579	-0,228	0,039
312,808	69,510	-0,208	-0,147
313,822	90,983	-0,204	-0,158
314,837	219,506	-0,097	-0,107
315,852	-137,997	-0,150	0,011
316,866	-129,652	-0,101	-0,009
317,881	-137,011	-0,225	-0,018
318,895	364,226	-0,043	-0,059
319,910	-200,000	0,012	-0,120
320,925	-20,332	-0,252	-0,106
321,939	51,988	-0,213	-0,139
322,954	26,132	-0,058	-0,033
323,968	159,802	-0,114	-0,110
324,983	238,231	-0,091	-0,104
325,997	-167,526	-0,188	0,005
327,012	-56,012	-0,034	0,010
328,027	159,903	-0,124	-0,119
329,041	-200,000	-0,062	-0,223
330,056	318,105	-0,047	0,062
331,070	-200,000	-0,030	-0,111
332,085	-5,273	-0,072	-0,034
333,100	-2,735	-0,145	0,069
334,114	-71,098	-0,224	-0,057
335,129	99,130	-0,179	-0,142
336,143	-200,000	0,008	-0,105
337,158	-88,626	-0,175	-0,036
338,173	-105,324	-0,131	0,020
339,187	-200,000	0,003	-0,164
340,202	123,073	-0,156	-0,134
341,216	283,878	-0,091	-0,113
342,231	-46,229	-0,141	-0,047
343,246	46,975	-0,254	-0,162
344,260	246,791	-0,090	-0,105
345,275	-200,000	0,003	0,040
346,289	-53,348	-0,118	-0,037
347,304	800,000	-0,024	0,069
348,319	-135,117	-0,271	-0,022
349,333	-55,179	-0,271	-0,083
350,348	-107,963	-0,137	-0,020
351,362	110,984	-0,020	-0,016
352,377	800,000	-0,072	-0,150
353,392	-18,388	-0,114	0,049
354,406	478,233	-0,050	0,078
355,421	209,576	1311,938	1412,286
356,435	161,310	1472,306	1412,783
