DTS Sentinel unit serial number:	SN410029Multiplexer serial number:	ORYXHardware model number:	OX2-SRSoftware version number:	ORYX F/W v4,00 Oryx Data Collector v3.7.2.0data status	okinstallation	B3 Nyhavnadifferential loss correction	single-endedforward channel	channel 1reverse channel	N/Adate	2023/12/02time	12:47:30forward acquisition time	300,00reverse acquisition time	0,00gamma	499,1914k internal	0,3199k external	0,3199temperature offset calibration	1,0000default loss term (dB/km)	0,3820temperature slope calibration	1,0000multiplexer offset coefficient	1,0000multiplexer slope coefficient	1,0000fibre end	0,00T internal ref (°C)	14,17T ext. ref 1 (°C)	-0,37T ext. ref 2 (°C)	-0,38length (m)	temperature (°C)	Stokes	anti-Stokes-744,400	251,829	-0,262	-0,326
-743,385	-200,000	-0,062	0,346
-742,371	251,660	-0,226	-0,281
-741,356	563,437	0,169	0,298
-740,342	174,338	-0,142	-0,149
-739,327	800,000	-0,109	0,255
-738,312	290,751	-0,173	-0,229
-737,298	-200,000	-0,058	0,258
-736,283	800,000	-0,092	-0,194
-735,269	-200,000	-0,050	0,311
-734,254	-200,000	-0,080	-0,298
-733,239	21,213	-0,249	0,147
-732,225	800,000	-0,111	-0,229
-731,210	66,305	0,071	-0,052
-730,196	800,000	-0,015	-0,043
-729,181	759,162	0,075	-0,148
-728,167	-200,000	0,009	-0,130
-727,152	-200,000	-0,035	0,198
-726,137	-3,309	-0,066	-0,033
-725,123	-200,000	0,006	-0,077
-724,108	-200,000	0,000	-0,075
-723,094	204,071	-0,161	-0,182
-722,079	-51,401	-0,118	-0,040
-721,064	-200,000	0,000	0,041
-720,050	-66,758	-0,110	-0,031
-719,035	-123,317	-0,161	0,018
-718,021	-200,000	-0,061	-0,215
-717,006	-51,776	-0,082	0,028
-715,991	-57,968	-0,145	0,046
-714,977	155,757	-0,063	0,063
-713,962	-19,736	0,094	0,042
-712,948	372,772	0,036	-0,053
-711,933	800,000	0,031	0,096
-710,918	217,092	-0,047	-0,054
-709,904	30,536	-0,052	-0,032
-708,889	726,132	-0,013	0,025
-707,875	-101,060	0,025	0,004
-706,860	-200,000	-0,006	0,059
-705,845	-200,000	-0,001	0,074
-704,831	50,337	0,042	-0,029
-703,816	499,886	-0,038	0,064
-702,802	-200,000	-0,009	-0,116
-701,787	89,794	-0,179	-0,145
-700,772	191,961	-0,064	-0,070
-699,758	-65,189	-0,039	0,011
-698,743	-121,440	0,129	0,015
-697,729	-92,785	-0,090	-0,018
-696,714	27,754	0,065	0,040
-695,699	-45,966	-0,085	0,030
-694,685	800,000	0,054	-0,133
-693,670	19,670	-0,052	0,031
-692,656	-200,000	-0,003	0,096
-691,641	-200,000	0,021	-0,123
-690,627	-200,000	0,001	0,089
-689,612	391,981	0,059	0,089
-688,597	-86,211	-0,118	0,026
-687,583	800,000	-0,043	-0,134
-686,568	-27,702	-0,125	-0,052
-685,554	-182,665	0,087	-0,001
-684,539	89,930	0,019	0,016
-683,524	-200,000	0,002	-0,024
-682,510	800,000	0,030	0,063
-681,495	15,172	0,051	-0,029
-680,481	-19,148	-0,010	-0,004
-679,466	86,380	-0,181	-0,145
-678,451	-200,000	0,018	-0,095
-677,437	-148,716	-0,155	-0,009
-676,422	800,000	0,077	0,156
-675,408	-200,000	0,024	0,126
-674,393	800,000	0,076	-0,162
-673,378	-129,561	-0,129	-0,013
-672,364	269,906	0,088	-0,112
-671,349	2,823	-0,080	-0,042
-670,335	-25,617	-0,054	-0,023
-669,320	-81,165	-0,074	0,018
-668,305	59,343	0,011	-0,008
-667,291	-49,565	-0,050	0,017
-666,276	29,813	-0,055	0,034
-665,262	-181,144	-0,087	-0,001
-664,247	-38,669	0,058	0,022
-663,232	-58,337	-0,047	0,015
-662,218	-93,207	-0,091	-0,018
-661,203	208,774	0,122	-0,139
-660,189	-18,991	-0,032	0,015
-659,174	-200,000	0,011	-0,108
-658,159	-94,120	0,055	0,011
-657,145	-188,976	-0,182	-0,002
-656,130	-200,000	0,027	-0,120
-655,116	-45,479	-0,057	0,020
-654,101	43,349	0,124	0,082
-653,086	41,806	0,051	-0,033
-652,072	280,670	-0,070	0,091
-651,057	12,023	-0,159	-0,088
-650,043	800,000	0,026	-0,072
-649,028	102,210	-0,114	0,096
-648,014	215,349	0,075	0,087
-646,999	-200,000	-0,008	0,032
-645,984	451,652	-0,052	0,084
-644,970	-89,959	0,027	-0,006
-643,955	159,653	0,092	-0,093
-642,941	-122,869	0,077	0,009
-641,926	800,000	0,026	0,076
-640,911	-200,000	-0,023	-0,168
-639,897	-140,294	-0,064	0,005
-638,882	107,304	0,126	-0,109
-637,868	-118,949	0,057	0,007
-636,853	144,496	0,040	0,039
-635,838	97,629	-0,143	-0,119
-634,824	391,184	-0,007	0,011
-633,809	-200,000	0,024	0,102
-632,795	-200,000	-0,021	-0,083
-631,780	-8,808	-0,146	-0,071
-630,765	33,691	-0,069	-0,043
-629,751	-200,000	0,004	-0,099
-628,736	-26,679	-0,056	0,024
-627,722	419,485	0,081	-0,126
-626,707	800,000	-0,052	-0,108
-625,692	486,777	0,025	-0,041
-624,678	77,723	0,096	0,074
-623,663	326,769	-0,041	0,057
-622,649	-141,139	-0,086	-0,006
-621,634	-162,040	-0,072	-0,003
-620,619	-52,209	-0,193	0,065
-619,605	-141,814	-0,047	-0,003
-618,590	-200,000	-0,002	-0,050
-617,576	-200,000	-0,023	0,099
-616,561	363,264	-0,036	-0,053
-615,546	171,498	-0,035	-0,036
-614,532	17,910	-0,101	0,058
-613,517	-53,753	-0,122	-0,040
-612,503	-200,000	0,013	0,060
-611,488	402,549	0,047	0,071
-610,474	800,000	0,042	0,089
-609,459	-200,000	-0,005	-0,187
-608,444	257,401	0,034	0,042
-607,430	100,091	-0,144	-0,121
-606,415	-15,487	0,063	0,029
-605,401	-119,401	0,148	-0,018
-604,386	-80,237	-0,051	-0,012
-603,371	-200,000	0,011	0,117
-602,357	-58,422	-0,150	0,047
-601,342	-16,984	-0,106	-0,048
-600,328	-24,944	0,041	-0,017
-599,313	178,810	0,007	-0,007
-598,298	800,000	-0,043	-0,097
-597,284	800,000	0,055	-0,131
-596,269	-104,405	-0,056	-0,009
-595,255	-200,000	0,033	0,171
-594,240	789,786	-0,044	-0,088
-593,225	-200,000	-0,008	0,030
-592,211	800,000	-0,034	-0,078
-591,196	-200,000	-0,014	-0,046
-590,182	-121,371	0,164	0,020
-589,167	-74,326	0,113	0,029
-588,152	43,531	0,071	-0,047
-587,138	341,599	0,014	-0,020
-586,123	120,667	-0,080	-0,072
-585,109	-200,000	-0,003	-0,101
-584,094	187,192	-0,123	-0,133
-583,079	24,028	0,051	0,030
-582,065	800,000	-0,011	-0,029
-581,050	-200,000	-0,009	0,037
-580,036	800,000	0,012	0,037
-579,021	176,230	-0,116	-0,122
-578,006	-200,000	0,003	-0,156
-576,992	424,471	-0,028	0,044
-575,977	-81,106	-0,024	-0,006
-574,963	-97,637	0,173	-0,032
-573,948	143,396	-0,051	-0,049
-572,934	306,484	-0,035	0,047
-571,919	-35,112	0,043	-0,017
-570,904	-200,000	0,010	-0,119
-569,890	-54,605	-0,038	-0,012
-568,875	-112,576	-0,033	-0,005
-567,861	-200,000	-0,007	0,023
-566,846	64,571	0,059	0,043
-565,831	113,308	-0,077	0,068
-564,817	-200,000	0,024	-0,109
-563,802	-56,632	0,051	0,016
-562,788	120,337	0,064	-0,057
-561,773	-40,378	0,063	-0,024
-560,758	-90,016	-0,050	-0,010
-559,744	707,722	0,042	-0,081
-558,729	78,267	0,104	0,080
-557,715	182,226	0,069	-0,073
-556,700	-200,000	-0,011	-0,079
-555,685	-200,000	0,021	-0,115
-554,671	53,337	-0,034	-0,023
-553,656	-200,000	0,005	0,063
-552,642	122,496	0,099	-0,089
-551,627	10,406	-0,058	-0,032
-550,612	800,000	-0,037	0,111
-549,598	4,453	0,034	0,018
-548,583	-66,275	-0,051	-0,015
-547,569	277,037	0,085	-0,109
-546,554	-200,000	0,046	0,148
-545,539	474,090	0,045	0,073
-544,525	177,942	0,017	-0,018
-543,510	-12,656	0,015	-0,007
-542,496	341,359	0,022	-0,032
-541,481	340,874	-0,054	-0,076
-540,466	-200,000	-0,037	-0,178
-539,452	-99,740	0,070	0,012
-538,437	-63,858	-0,076	-0,022
-537,423	-200,000	-0,012	-0,061
-536,408	800,000	-0,078	-0,188
-535,393	90,643	-0,132	-0,107
-534,379	-159,511	0,080	0,003
-533,364	-161,672	0,079	-0,003
-532,350	-128,852	0,017	-0,002
-531,335	273,079	0,083	0,106
-530,321	728,058	0,002	0,004
-529,306	504,374	0,030	-0,050
-528,291	94,412	-0,077	-0,063
-527,277	566,765	-0,058	0,102
-526,262	43,166	0,145	-0,096
-525,248	-81,691	-0,115	-0,027
-524,233	-59,179	0,097	-0,030
-523,218	-109,099	-0,122	-0,019
-522,204	83,048	0,012	0,009
-521,189	-200,000	-0,004	-0,023
-520,175	-200,000	-0,005	-0,074
-519,160	-31,522	-0,021	-0,008
-518,145	800,000	0,014	0,033
-517,131	-132,011	0,069	0,006
-516,116	342,223	0,062	-0,087
-515,102	296,329	-0,032	0,042
-514,087	294,482	-0,039	-0,051
-513,072	-200,000	0,009	0,111
-512,058	-60,183	-0,049	-0,015
-511,043	413,425	-0,051	-0,078
-510,029	800,000	-0,009	0,018
-509,014	-117,525	0,130	0,017
-507,999	800,000	-0,005	0,014
-506,985	133,172	0,016	-0,015
-505,970	-200,000	0,021	0,071
-504,956	336,044	0,062	-0,087
-503,941	-200,000	0,004	-0,093
-502,926	64,819	0,122	0,088
-501,912	-200,000	-0,035	-0,130
-500,897	-97,268	-0,058	-0,011
-499,883	698,326	0,054	0,104
-498,868	-127,209	-0,093	-0,010
-497,853	102,939	-0,072	0,061
-496,839	394,024	0,042	-0,064
-495,824	110,081	0,104	-0,090
-494,810	460,110	-0,022	-0,036
-493,795	800,000	0,051	-0,108
-492,781	800,000	0,035	0,107
-491,766	-200,000	-0,007	-0,048
-490,751	148,664	0,025	-0,024
-489,737	-60,789	0,109	0,033
-488,722	-200,000	0,008	-0,034
-487,708	-200,000	0,026	0,236
-486,693	-38,546	0,072	-0,027
-485,678	246,549	-0,025	0,030
-484,664	76,232	0,006	0,004
-483,649	398,924	-0,122	-0,184
-482,635	-140,899	-0,076	-0,006
-481,620	-200,000	0,027	0,157
-480,605	-200,000	-0,007	0,091
-479,591	800,000	0,002	0,005
-478,576	800,000	-0,083	0,208
-477,562	-88,672	0,113	0,024
-476,547	800,000	-0,048	0,142
-475,532	-94,896	-0,079	-0,015
-474,518	-200,000	-0,003	-0,099
-473,503	42,588	-0,114	0,074
-472,489	800,000	-0,060	-0,130
-471,474	26,209	-0,095	-0,057
-470,459	627,293	-0,029	-0,053
-469,445	-200,000	0,000	-0,025
-468,430	800,000	-0,015	-0,036
-467,416	-39,616	0,155	0,058
-466,401	-122,296	-0,049	-0,006
-465,386	225,259	0,120	0,141
-464,372	-200,000	0,014	0,165
-463,357	-109,731	0,064	0,010
-462,343	12,425	0,030	-0,016
-461,328	-200,000	0,016	0,081
-460,313	-155,984	-0,071	0,003
-459,299	-200,000	-0,020	0,123
-458,284	800,000	-0,058	0,154
-457,270	238,640	-0,068	0,082
-456,255	800,000	0,010	-0,027
-455,241	-200,000	0,021	-0,185
-454,226	554,890	0,014	0,024
-453,211	-56,280	0,067	-0,021
-452,197	-162,347	0,303	0,011
-451,182	106,748	0,030	-0,025
-450,168	362,969	0,054	-0,078
-449,153	-200,000	0,011	0,070
-448,138	-200,000	0,012	0,078
-447,124	301,412	-0,053	-0,070
-446,109	199,749	-0,043	-0,047
-445,095	393,243	0,048	0,072
-444,080	-200,000	0,001	-0,048
-443,065	-35,258	0,088	0,034
-442,051	461,836	0,090	0,145
-441,036	-200,000	-0,001	-0,066
-440,022	-85,937	-0,127	-0,028
-439,007	13,978	0,087	0,049
-437,992	253,569	-0,042	0,052
-436,978	-108,090	-0,088	-0,014
-435,963	548,150	0,046	0,079
-434,949	-200,000	0,016	0,109
-433,934	-200,000	0,041	-0,175
-432,919	-108,153	-0,092	-0,014
-431,905	166,873	-0,040	-0,040
-430,890	28,905	0,179	-0,109
-429,876	-39,222	-0,073	0,027
-428,861	161,756	0,072	0,073
-427,846	800,000	-0,047	0,137
-426,832	-78,764	-0,058	-0,014
-425,817	629,441	0,052	-0,094
-424,803	-77,031	-0,162	0,040
-423,788	-58,823	-0,083	0,026
-422,773	-200,000	0,002	-0,068
-421,759	-200,000	0,008	-0,065
-420,744	-34,276	-0,085	-0,033
-419,730	13,586	0,044	0,024
-418,715	70,798	0,078	-0,058
-417,701	-200,000	0,011	-0,153
-416,686	800,000	0,041	-0,089
-415,671	47,929	0,137	-0,092
-414,657	-200,000	0,028	0,146
-413,642	-200,000	-0,020	0,078
-412,628	-200,000	0,013	0,072
-411,613	800,000	-0,036	0,096
-410,598	574,153	-0,050	-0,088
-409,584	-91,817	0,018	0,004
-408,569	391,872	0,049	0,073
-407,555	-200,000	-0,004	0,023
-406,540	-113,840	-0,062	-0,009
-405,525	580,136	-0,030	-0,053
-404,511	-185,543	0,049	-0,001
-403,496	-54,292	0,025	0,008
-402,482	-192,350	0,101	0,001
-401,467	-129,025	0,030	0,003
-400,452	220,452	-0,037	0,043
-399,438	263,990	0,045	0,057
-398,423	-200,000	0,001	0,039
-397,409	-200,000	-0,030	0,208
-396,394	-67,407	-0,040	0,011
-395,379	399,996	-0,012	0,018
-394,365	-68,308	0,073	-0,020
-393,350	-200,000	0,014	0,057
-392,336	800,000	-0,016	0,035
-391,321	728,645	-0,036	-0,070
-390,306	800,000	-0,038	-0,100
-389,292	-152,092	0,083	-0,004
-388,277	271,093	0,032	0,040
-387,263	0,461	0,135	0,069
-386,248	-200,000	-0,026	0,112
-385,233	-31,228	-0,125	-0,050
-384,219	-67,461	-0,114	-0,032
-383,204	-200,000	0,007	-0,066
-382,190	-8,324	-0,083	-0,040
-381,175	155,420	0,034	0,034
-380,160	-200,000	0,022	-0,110
-379,146	53,151	-0,118	0,081
-378,131	-200,000	0,002	0,142
-377,117	168,846	0,029	0,029
-376,102	-200,000	-0,003	0,089
-375,088	483,688	-0,077	-0,126
-374,073	96,760	-0,099	-0,081
-373,058	-147,738	0,123	0,007
-372,044	-93,635	-0,062	-0,012
-371,029	627,945	-0,018	-0,033
-370,015	581,153	0,054	0,095
-369,000	25,553	-0,075	0,045
-367,985	193,794	0,033	0,036
-366,971	294,340	-0,081	0,107
-365,956	800,000	0,039	0,119
-364,942	347,553	0,079	0,112
-363,927	184,258	0,028	-0,030
-362,912	350,990	0,045	-0,064
-361,898	800,000	-0,069	0,167
-360,883	174,103	-0,044	0,045
-359,869	-200,000	-0,004	-0,184
-358,854	6,158	0,112	0,059
-357,839	800,000	-0,033	0,068
-356,825	314,570	0,005	0,006
-355,810	-200,000	-0,019	0,106
-354,796	-200,000	-0,022	-0,142
-353,781	-200,000	0,006	-0,020
-352,766	-200,000	-0,006	-0,189
-351,752	430,730	-0,055	-0,086
-350,737	-200,000	0,034	0,122
-349,723	393,042	0,083	0,124
-348,708	-30,600	0,162	0,066
-347,693	119,013	0,034	-0,031
-346,679	287,509	0,014	-0,018
-345,664	-71,603	-0,051	-0,013
-344,650	468,415	0,109	0,176
-343,635	-200,000	-0,009	0,126
-342,620	-70,976	0,138	-0,037
-341,606	133,937	0,023	0,021
-340,591	83,236	0,059	0,046
-339,577	617,403	-0,015	0,026
-338,562	-11,403	0,020	0,009
-337,548	800,000	0,006	-0,017
-336,533	299,941	0,053	-0,070
-335,518	34,804	-0,070	0,044
-334,504	-200,000	-0,001	0,071
-333,489	-200,000	-0,000	0,135
-332,475	379,318	-0,110	-0,162
-331,460	73,473	-0,083	-0,062
-330,445	-200,000	0,038	-0,134
-329,431	-200,000	-0,039	0,180
-328,416	-51,298	0,067	-0,022
-327,402	557,998	0,033	0,057
-326,387	-75,745	-0,086	0,022
-325,372	-200,000	-0,032	0,144
-324,358	225,119	-0,033	-0,038
-323,343	800,000	0,033	-0,089
-322,329	455,948	-0,037	0,059
-321,314	-66,540	0,089	-0,025
-320,299	-200,000	0,004	-0,019
-319,285	800,000	-0,022	0,068
-318,270	650,919	-0,017	-0,031
-317,256	45,449	-0,173	-0,114
-316,241	-24,414	-0,099	0,042
-315,226	-80,779	0,017	-0,004
-314,212	-88,539	0,061	-0,013
-313,197	3,592	-0,073	0,038
-312,183	451,998	0,041	-0,065
-311,168	545,316	0,046	0,079
-310,153	201,084	-0,075	-0,083
-309,139	-77,403	-0,122	0,030
-308,124	113,938	-0,094	-0,082
-307,110	-133,930	-0,071	-0,006
-306,095	114,151	0,122	0,106
-305,080	404,918	-0,019	-0,028
-304,066	-200,000	0,002	-0,078
-303,051	-200,000	-0,002	-0,036
-302,037	158,358	0,063	-0,063
-301,022	-108,729	-0,074	-0,011
-300,008	-200,000	-0,029	-0,095
-298,993	800,000	0,040	0,086
-297,978	-73,359	0,141	0,037
-296,964	-200,000	-0,009	0,118
-295,949	-200,000	-0,012	0,138
-294,935	-200,000	0,014	-0,100
-293,920	-126,205	-0,103	-0,011
-292,905	-6,291	0,099	0,048
-291,891	-36,188	-0,041	-0,016
-290,876	384,049	0,040	-0,059
-289,862	-27,646	-0,060	0,025
-288,847	-200,000	0,012	-0,176
-287,832	198,710	-0,085	-0,093
-286,818	139,556	0,066	-0,062
-285,803	-75,615	-0,072	-0,018
-284,789	2,812	-0,156	0,081
-283,774	-84,673	0,073	-0,016
-282,759	292,361	-0,042	0,055
-281,745	-200,000	0,009	-0,107
-280,730	6,095	0,050	0,026
-279,716	800,000	0,023	0,065
-278,701	-55,578	-0,048	0,015
-277,686	141,356	0,086	0,081
-276,672	-200,000	0,008	0,127
-275,657	-63,531	-0,079	-0,023
-274,643	800,000	-0,039	-0,117
-273,628	516,985	-0,089	0,150
-272,613	798,969	-0,063	0,124
-271,599	105,995	0,047	0,040
-270,584	800,000	-0,051	0,143
-269,570	5,211	-0,036	0,019
-268,555	-42,317	0,119	-0,043
-267,540	-53,671	-0,087	-0,028
-266,526	161,082	-0,108	-0,108
-265,511	91,933	0,048	0,038
-264,497	-134,901	0,072	0,006
-263,482	800,000	0,018	-0,036
-262,467	114,911	-0,026	0,022
-261,453	-56,526	0,100	0,031
-260,438	-200,000	0,006	0,064
-259,424	561,043	-0,049	0,085
-258,409	20,632	-0,104	-0,060
-257,395	-200,000	0,002	0,057
-256,380	-200,000	0,014	-0,072
-255,365	42,445	0,030	-0,020
-254,351	-101,668	-0,100	0,017
-253,336	44,090	-0,097	0,064
-252,322	-54,145	0,063	-0,020
-251,307	-107,946	-0,096	0,015
-250,292	-54,317	-0,154	-0,049
-249,278	-77,083	0,054	0,013
-248,263	35,288	-0,078	0,049
-247,249	-50,284	0,042	0,014
-246,234	205,592	0,122	-0,136
-245,219	148,492	0,058	-0,056
-244,205	270,686	-0,097	-0,123
-243,190	-33,299	-0,030	-0,012
-242,176	-58,943	0,103	0,032
-241,161	-118,004	-0,049	0,006
-240,146	-13,821	-0,072	-0,033
-239,132	800,000	-0,022	-0,056
-238,117	-200,000	-0,021	-0,079
-237,103	800,000	-0,102	-0,203
-236,088	-200,000	-0,002	-0,154
-235,073	-33,973	-0,066	0,026
-234,059	798,727	0,016	0,032
-233,044	-200,000	0,120	-0,000
-232,030	-200,000	0,043	0,000
-231,015	-200,000	-0,018	-0,096
-230,000	122,521	0,081	-0,073
-228,986	583,242	-0,051	0,090
-227,971	142,979	-0,036	-0,034
-226,957	78,156	-0,017	0,013
-225,942	276,542	0,079	-0,100
-224,927	515,323	-0,032	-0,053
-223,913	-184,144	0,186	-0,002
-222,898	76,035	-0,123	-0,092
-221,884	-200,000	0,002	-0,043
-220,869	40,336	0,073	0,046
-219,855	-200,000	0,041	0,147
-218,840	-33,692	0,149	-0,058
-217,825	-23,361	-0,143	0,061
-216,811	45,476	-0,121	-0,080
-215,796	188,854	0,060	0,064
-214,782	439,471	0,029	0,045
-213,767	215,136	0,077	0,087
-212,752	-200,000	-0,010	0,120
-211,738	301,432	0,092	0,121
-210,723	333,701	-0,053	0,073
-209,709	800,000	0,007	-0,020
-208,694	-5,970	-0,122	-0,059
-207,679	600,401	0,022	-0,038
-206,665	-200,000	0,027	0,110
-205,650	207,674	0,024	-0,027
-204,636	23,203	0,118	0,069
-203,621	258,676	0,068	0,084
-202,606	-38,061	0,049	-0,019
-201,592	722,543	-0,012	0,023
-200,577	219,490	0,077	-0,088
-199,563	284,799	-0,034	0,043
-198,548	-76,011	0,150	0,038
-197,533	-116,446	-0,141	-0,018
-196,519	726,755	-0,029	-0,055
-195,504	300,074	-0,025	-0,032
-194,490	196,662	-0,092	0,100
-193,475	386,002	-0,038	-0,055
-192,460	-200,000	-0,001	-0,019
-191,446	-31,718	0,021	-0,009
-190,431	215,472	-0,091	0,103
-189,417	-200,000	0,004	-0,181
-188,402	-77,668	0,075	-0,018
-187,387	22,617	0,132	0,077
-186,373	800,000	0,056	-0,160
-185,358	-102,412	0,091	0,015
-184,344	67,915	0,103	-0,075
-183,329	756,286	-0,044	0,086
-182,315	-97,011	0,061	0,011
-181,300	-200,000	-0,008	-0,105
-180,285	32,296	-0,095	0,058
-179,271	-105,524	-0,096	-0,015
-178,256	14,743	0,092	0,051
-177,242	-200,000	-0,021	-0,090
-176,227	800,000	0,026	0,060
-175,212	-200,000	-0,019	0,087
-174,198	169,148	0,028	0,029
-173,183	-101,693	0,036	0,006
-172,169	93,262	-0,039	0,032
-171,154	409,438	-0,055	-0,083
-170,139	-93,649	0,087	0,017
-169,125	-129,385	-0,090	0,009
-168,110	675,711	-0,044	0,082
-167,096	-129,265	0,142	-0,014
-166,081	-22,917	-0,019	-0,008
-165,066	-15,002	0,030	0,013
-164,052	-80,882	-0,135	-0,032
-163,037	172,246	-0,055	0,057
-162,023	90,851	0,105	0,083
-161,008	436,249	0,060	0,094
-159,993	174,997	0,025	0,026
-158,979	-24,586	-0,108	0,046
-157,964	164,610	-0,025	0,025
-156,950	800,000	-0,023	-0,057
-155,935	-200,000	-0,005	0,159
-154,920	130,264	0,125	0,114
-153,906	-200,000	-0,002	0,098
-152,891	55,972	0,084	-0,058
-151,877	-71,211	0,031	-0,008
-150,862	326,119	-0,093	-0,126
-149,847	-200,000	-0,024	0,107
-148,833	800,000	0,034	0,068
-147,818	42,950	0,140	0,090
-146,804	51,939	0,107	0,073
-145,789	-200,000	0,006	-0,075
-144,775	800,000	-0,011	-0,030
-143,760	8,624	-0,133	-0,071
-142,745	-200,000	-0,004	-0,045
-141,731	-75,237	-0,163	0,041
-140,716	183,048	0,017	0,018
-139,702	800,000	0,035	0,109
-138,687	177,239	-0,063	-0,066
-137,672	36,593	0,035	-0,022
-136,658	302,873	0,052	-0,069
-135,643	141,536	0,096	-0,090
-134,629	-60,592	0,042	-0,013
-133,614	466,326	-0,119	-0,190
-132,599	96,974	0,036	-0,030
-131,585	335,112	-0,035	-0,048
-130,570	800,000	0,073	-0,169
-129,556	30,958	-0,113	0,069
-128,541	248,428	0,042	0,051
-127,526	513,057	0,067	0,111
-126,512	-31,231	-0,071	-0,028
-125,497	-200,000	0,023	-0,077
-124,483	169,326	0,021	0,021
-123,468	-200,000	-0,007	0,104
-122,453	800,000	-0,028	0,085
-121,439	-200,000	-0,013	-0,043
-120,424	800,000	-0,032	-0,065
-119,410	-144,236	0,071	0,005
-118,395	-143,628	-0,057	0,004
-117,380	116,986	0,065	0,057
-116,366	69,403	-0,035	-0,026
-115,351	412,019	-0,085	-0,128
-114,337	225,494	0,048	-0,055
-113,322	-200,000	-0,008	0,132
-112,307	-114,372	0,069	-0,009
-111,293	204,250	0,106	-0,117
-110,278	416,313	0,022	-0,033
-109,264	800,000	-0,068	0,167
-108,249	654,389	0,027	0,049
-107,234	117,285	-0,042	-0,037
-106,220	-200,000	-0,019	0,078
-105,205	-78,333	0,100	0,024
-104,191	-127,387	0,196	0,020
-103,176	-200,000	-0,016	0,153
-102,162	390,202	0,050	0,073
-101,147	-200,000	0,011	0,072
-100,132	7,190	-0,118	0,062
-99,118	-200,000	-0,005	-0,036
-98,103	790,048	0,038	0,075
-97,089	-87,768	0,032	0,007
-96,074	-89,976	-0,166	0,034
-95,059	-152,843	0,132	-0,007
-94,045	-19,316	-0,042	-0,018
-93,030	-83,421	-0,102	0,023
-92,016	-174,686	-0,060	-0,001
-91,001	-90,050	-0,193	-0,040
-89,986	253,538	0,016	0,019
-88,972	800,000	-0,035	-0,081
-87,957	-5,954	0,138	0,067
-86,943	673,491	0,024	0,045
-85,928	-200,000	0,004	0,016
-84,913	173,217	-0,049	-0,050
-83,899	572,323	0,010	0,017
-82,884	706,352	0,068	-0,129
-81,870	800,000	0,051	-0,100
-80,855	381,919	-0,084	-0,123
-79,840	264,699	0,024	0,029
-78,826	800,000	0,018	-0,046
-77,811	-12,072	0,070	-0,032
-76,797	-200,000	0,023	-0,084
-75,782	219,456	-0,026	-0,030
-74,767	73,761	0,153	-0,113
-73,753	18,545	0,239	-0,135
-72,738	-200,000	0,006	-0,080
-71,724	-123,538	-0,062	-0,007
-70,709	154,008	-0,164	-0,160
-69,694	-200,000	-0,009	0,045
-68,680	5,312	-0,045	0,023
-67,665	-42,232	0,136	0,049
-66,651	104,793	0,173	0,144
-65,636	-200,000	0,007	-0,068
-64,622	800,000	-0,021	-0,052
-63,607	-200,000	0,000	-0,093
-62,592	151,327	0,065	-0,063
-61,578	186,059	-0,124	-0,131
-60,563	24,652	0,087	-0,051
-59,549	84,027	0,097	0,075
-58,534	-38,694	-1,539	-0,573
-57,519	366,182	-1,519	-2,176
-56,505	-200,000	-0,412	-4,546
-55,490	113,665	1,008	0,868
-54,476	800,000	4,919	11,402
-53,461	-200,000	18,622	302,036
-52,446	800,000	735,138	2281,579
-51,432	565,374	1651,402	2847,943
-50,417	78,826	1668,704	1263,703
-49,403	22,120	1541,417	888,951
-48,388	16,017	1464,161	814,769
-47,373	17,778	1454,361	817,786
-46,359	16,923	1444,544	808,132
-45,344	14,297	1439,777	792,873
-44,330	14,202	1438,002	791,410
-43,315	14,190	1436,388	790,430
-42,300	14,249	1434,463	789,623
-41,286	14,274	1433,307	789,074
-40,271	14,251	1432,056	788,242
-39,257	14,195	1430,727	787,216
-38,242	14,287	1429,449	786,918
-37,227	14,292	1428,145	786,190
-36,213	14,336	1426,877	785,673
-35,198	14,273	1425,873	784,788
-34,184	14,322	1424,699	784,345
-33,169	14,228	1423,570	783,246
-32,154	14,277	1422,462	782,839
-31,140	14,239	1421,094	781,876
-30,125	14,305	1420,064	781,588
-29,111	14,326	1418,714	780,911
-28,096	14,297	1417,767	780,225
-27,082	14,220	1416,820	779,310
-26,067	14,185	1415,852	778,581
-25,052	14,190	1414,646	777,909
-24,038	14,169	1413,761	777,296
-23,023	14,181	1412,754	776,764
-22,009	14,157	1411,909	776,159
-20,994	14,142	1410,816	775,454
-19,979	14,125	1410,099	774,951
-18,965	14,175	1408,791	774,434
-17,950	14,130	1407,973	773,744
-16,936	14,162	1407,096	773,380
-15,921	14,072	1406,000	772,327
-14,906	14,107	1405,163	771,999
-13,892	14,113	1404,217	771,476
-12,877	14,081	1403,416	770,858
-11,863	14,127	1402,280	770,420
-10,848	14,090	1401,458	769,765
-9,833	14,073	1400,526	769,141
-8,819	14,024	1399,631	768,391
-7,804	14,019	1398,966	767,975
-6,790	14,023	1397,651	767,239
-5,775	14,041	1396,465	766,642
-4,760	13,959	1395,796	765,865
-3,746	13,989	1394,970	765,521
-2,731	14,033	1394,107	765,218
-1,717	13,948	1393,203	764,301
-0,702	13,994	1391,482	763,536
0,313	17,920	1309,895	736,934
1,327	34,395	706,009	435,376
2,342	53,058	124,218	84,049
3,356	3,643	16,636	8,565
4,371	11,411	3,248	1,756
5,386	37,662	0,500	0,313
6,400	800,000	0,074	0,216
7,415	30,235	-0,209	-0,126
8,429	112,552	-0,334	-0,286
9,444	220,767	-0,280	-0,319
10,459	33,922	-0,350	-0,215
11,473	28,865	-0,337	-0,201
12,488	275,473	-0,175	-0,220
13,502	-45,443	-0,392	-0,137
14,517	56,607	-0,295	-0,203
15,531	36,743	-0,475	-0,296
16,546	50,696	-0,312	-0,209
17,561	105,070	-0,316	-0,263
18,575	-73,097	-0,212	-0,054
19,590	-48,177	-0,148	-0,050
20,604	-65,782	-0,341	-0,096
21,619	106,297	-0,342	-0,286
22,634	60,959	-0,474	-0,332
23,648	199,841	-0,328	-0,356
24,663	-8,663	-0,490	-0,232
25,677	142,873	-0,329	-0,309
26,692	25,160	-0,316	-0,185
27,707	45,829	-0,404	-0,263
28,721	2,604	-0,377	-0,192
29,736	333,333	-0,199	-0,273
30,750	147,005	-0,388	-0,369
31,765	315,161	-0,250	-0,333
32,780	51,095	-0,425	-0,284
33,794	88,419	-0,346	-0,271
34,809	133,446	-0,270	-0,247
35,823	-19,941	-0,313	-0,136
36,838	58,130	-0,409	-0,282
37,853	82,344	-0,342	-0,262
38,867	-37,260	-0,338	-0,127
39,882	57,510	-0,359	-0,247
40,896	389,852	-0,223	-0,327
41,911	65,190	-0,313	-0,223
42,926	225,464	-0,321	-0,367
43,940	16,690	-0,393	-0,219
44,955	301,456	-0,317	-0,414
45,969	94,026	-0,385	-0,308
46,984	44,613	-0,337	-0,218
47,999	77,839	-0,235	-0,177
49,013	21,744	-0,342	-0,196
50,028	-54,117	-0,418	-0,133
51,042	82,381	-0,283	-0,217
52,057	45,974	-0,342	-0,223
53,071	248,050	-0,247	-0,295
54,086	-92,454	-0,443	-0,087
55,101	51,165	-0,383	-0,256
56,115	39,026	-0,359	-0,226
57,130	-42,470	-0,267	-0,095
58,144	137,146	-0,287	-0,265
59,159	18,891	-0,390	-0,219
60,174	54,176	-0,385	-0,260
61,188	-0,054	-0,353	-0,177
62,203	278,531	-0,245	-0,308
63,217	51,094	-0,441	-0,294
64,232	57,812	-0,441	-0,304
65,247	-15,633	-0,538	-0,241
66,261	28,549	-0,490	-0,291
67,276	39,742	-0,382	-0,241
68,290	66,211	-0,214	-0,153
69,305	52,344	-0,409	-0,275
70,320	9,362	-0,266	-0,141
71,334	-70,119	-0,270	-0,072
72,349	33,747	-0,319	-0,195
73,363	69,083	-0,283	-0,204
74,378	169,412	-0,285	-0,286
75,393	3,499	-0,289	-0,148
76,407	99,140	-0,235	-0,191
77,422	149,792	-0,211	-0,202
78,436	80,210	-0,196	-0,148
79,451	120,870	-0,281	-0,246
80,466	-41,136	-0,271	-0,098
81,480	85,309	-0,245	-0,189
82,495	-34,415	-0,358	-0,137
83,509	41,332	-0,353	-0,224
84,524	101,169	-0,328	-0,268
85,539	421,142	-0,157	-0,237
86,553	113,825	-0,213	-0,182
87,568	150,202	-0,353	-0,337
88,582	148,531	-0,265	-0,251
89,597	22,049	-0,260	-0,149
90,611	-95,032	-0,343	-0,065
91,626	335,734	-0,236	-0,322
92,641	24,457	-0,331	-0,192
93,655	-8,366	-0,312	-0,147
94,670	269,576	-0,200	-0,247
95,684	131,303	-0,242	-0,219
96,699	7,373	-0,406	-0,212
97,714	76,709	-0,322	-0,240
98,728	210,089	-0,159	-0,176
99,743	91,314	-0,181	-0,142
100,757	-49,230	-0,438	-0,146
101,772	151,217	-0,320	-0,306
102,787	800,000	-0,174	-0,440
103,801	509,711	-0,135	-0,220
104,816	269,030	-0,182	-0,225
105,830	236,602	-0,172	-0,201
106,845	672,927	-0,101	-0,185
107,860	-10,397	-0,145	-0,067
108,874	-11,700	-0,350	-0,160
109,889	-11,038	-0,278	-0,128
110,903	-83,564	-0,266	-0,059
111,918	111,719	-0,233	-0,197
112,933	800,000	-0,086	-0,190
113,947	192,217	-0,240	-0,254
114,962	59,600	-0,281	-0,194
115,976	122,153	-0,281	-0,246
116,991	26,917	-0,384	-0,225
118,006	5,443	-0,300	-0,155
119,020	41,210	-0,327	-0,206
120,035	-93,080	-0,297	-0,057
121,049	95,329	-0,179	-0,143
122,064	65,563	-0,270	-0,191
123,079	99,097	-0,329	-0,266
124,093	8,521	-0,195	-0,103
125,108	800,000	-0,140	-0,279
126,122	41,857	-0,287	-0,182
127,137	81,301	-0,179	-0,135
128,151	52,582	-0,311	-0,208
129,166	-101,909	-0,220	-0,037
130,181	29,449	-0,306	-0,182
131,195	48,421	-0,160	-0,105
132,210	24,752	-0,302	-0,175
133,224	405,849	-0,128	-0,190
134,239	110,436	-0,225	-0,189
135,254	400,557	-0,140	-0,206
136,268	600,046	-0,133	-0,231
137,283	105,868	-0,259	-0,215
138,297	76,010	-0,263	-0,194
139,312	43,042	-0,347	-0,221
140,327	485,092	-0,196	-0,313
141,341	83,866	-0,292	-0,223
142,356	50,155	-0,221	-0,145
143,370	316,106	-0,132	-0,175
144,385	28,441	-0,149	-0,088
145,400	65,305	-0,295	-0,208
146,414	17,021	-0,351	-0,194
147,429	9,744	-0,278	-0,147
148,443	226,266	-0,160	-0,182
149,458	100,249	-0,206	-0,167
150,473	140,727	-0,200	-0,185
151,487	26,240	-0,288	-0,168
152,502	114,883	-0,280	-0,239
153,516	131,311	-0,226	-0,203
154,531	37,817	-0,334	-0,207
155,546	200,704	-0,238	-0,256
156,560	210,420	-0,206	-0,226
157,575	-102,724	-0,176	-0,029
158,589	77,084	-0,285	-0,211
159,604	791,118	-0,136	-0,263
160,619	292,962	-0,245	-0,313
161,633	99,347	-0,338	-0,273
162,648	9,356	-0,252	-0,133
163,662	57,695	-0,182	-0,124
164,677	62,197	-0,163	-0,113
165,692	-17,645	-0,204	-0,089
166,706	800,000	-0,145	-0,325
167,721	48,575	-0,301	-0,197
168,735	471,008	-0,168	-0,264
169,750	194,862	-0,160	-0,170
170,764	252,695	-0,186	-0,222
171,779	458,696	-0,149	-0,232
172,794	-92,312	-0,168	-0,033
173,808	291,721	-0,078	-0,099
174,823	8,346	-0,281	-0,147
175,837	800,000	-0,120	-0,317
176,852	71,184	-0,214	-0,155
177,867	-32,379	-0,207	-0,080
178,881	-79,578	-0,282	-0,066
179,896	80,985	-0,308	-0,231
180,910	-30,152	-0,205	-0,081
181,925	75,374	-0,207	-0,152
182,940	147,448	-0,276	-0,260
183,954	20,624	-0,319	-0,179
184,969	52,483	-0,271	-0,180
185,983	293,555	-0,150	-0,191
186,998	576,178	-0,066	-0,113
188,013	205,497	-0,211	-0,228
189,027	800,000	-0,133	-0,298
190,042	541,912	-0,165	-0,276
191,056	163,447	-0,228	-0,224
192,071	221,916	-0,125	-0,140
193,086	247,992	-0,161	-0,190
194,100	800,000	-0,092	-0,182
195,115	736,752	-0,141	-0,264
196,129	-49,231	-0,278	-0,092
197,144	140,192	-0,272	-0,249
198,159	-59,230	-0,203	-0,060
199,173	51,060	-0,184	-0,121
200,188	-24,061	-0,220	-0,091
201,202	315,324	-0,179	-0,236
202,217	-83,477	-0,219	-0,048
203,232	4,562	-0,322	-0,164
204,246	24,657	-0,287	-0,165
205,261	71,002	-0,308	-0,222
206,275	705,480	-0,050	-0,093
207,290	350,019	-0,163	-0,224
208,304	209,466	-0,130	-0,142
209,319	324,186	-0,156	-0,208
210,334	537,320	-0,119	-0,197
211,348	-73,485	-0,239	-0,060
212,363	167,380	-0,155	-0,153
213,377	344,601	-0,171	-0,234
214,392	669,853	-0,100	-0,181
215,407	147,359	-0,184	-0,172
216,421	-35,669	-0,204	-0,077
217,436	11,838	-0,199	-0,106
218,450	-18,372	-0,171	-0,074
219,465	129,154	-0,199	-0,176
220,480	291,209	-0,213	-0,270
221,494	61,418	-0,166	-0,114
222,509	138,825	-0,133	-0,122
223,523	-159,544	-0,272	-0,010
224,538	-32,436	-0,352	-0,136
225,553	-1,791	-0,146	-0,071
226,567	99,752	-0,207	-0,166
227,582	329,150	-0,181	-0,242
228,596	109,466	-0,199	-0,165
229,611	2,893	-0,192	-0,096
230,626	112,137	-0,188	-0,157
231,640	23,509	-0,167	-0,095
232,655	49,236	-0,274	-0,179
233,669	430,636	-0,176	-0,265
234,684	-112,705	-0,165	-0,022
235,699	94,221	-0,134	-0,105
236,713	-13,440	-0,140	-0,063
237,728	800,000	-0,081	-0,199
238,742	35,526	-0,155	-0,094
239,757	-15,904	-0,170	-0,075
240,772	86,353	-0,148	-0,113
241,786	407,401	-0,167	-0,245
242,801	-45,662	-0,269	-0,092
243,815	-115,015	-0,257	0,033
244,830	-35,167	-0,155	-0,058
245,844	-123,273	-0,114	-0,012
246,859	505,432	-0,111	-0,179
247,874	84,642	-0,181	-0,137
248,888	-47,839	-0,216	-0,072
249,903	800,000	-0,061	-0,146
250,917	-59,185	-0,174	-0,052
251,932	-196,043	-0,191	-0,001
252,947	-4,937	-0,197	-0,094
253,961	50,662	-0,208	-0,136
254,976	168,708	-0,109	-0,108
255,990	101,913	-0,209	-0,169
257,005	170,321	-0,194	-0,192
258,020	-48,985	-0,234	-0,077
259,034	23,954	-0,321	-0,183
260,049	262,661	-0,139	-0,167
261,063	-200,000	0,023	-0,115
262,078	380,041	-0,233	-0,331
263,093	44,662	-0,232	-0,147
264,107	480,654	-0,164	-0,258
265,122	5,211	-0,208	-0,105
266,136	800,000	-0,064	-0,171
267,151	-68,189	-0,166	-0,044
268,166	107,243	-0,152	-0,125
269,180	729,085	-0,154	-0,286
270,195	-92,014	-0,130	-0,025
271,209	-140,238	-0,112	0,008
272,224	746,066	-0,064	-0,119
273,239	-165,035	-0,180	0,005
274,253	-136,487	-0,122	-0,010
275,268	-125,958	-0,175	-0,018
276,282	77,949	-0,226	-0,166
277,297	-200,000	-0,044	-0,175
278,312	-110,207	-0,196	-0,028
279,326	92,771	-0,129	-0,101
280,341	800,000	-0,042	-0,096
281,355	-85,135	-0,254	0,054
282,370	-35,338	-0,136	-0,051
283,384	-91,755	-0,143	-0,028
284,399	142,158	-0,231	-0,212
285,414	353,508	-0,151	-0,208
286,428	-65,565	-0,129	-0,036
287,443	181,397	-0,108	-0,109
288,457	-60,213	-0,157	-0,046
289,472	456,178	-0,095	-0,146
290,487	800,000	-0,089	-0,184
291,501	91,445	-0,246	-0,191
292,516	253,534	-0,193	-0,228
293,530	-200,000	-0,074	-0,245
294,545	781,985	-0,112	-0,213
295,560	-113,183	-0,164	-0,022
296,574	-81,872	-0,210	-0,047
297,589	493,257	-0,123	-0,196
298,603	483,082	-0,142	-0,223
299,618	285,121	-0,128	-0,159
300,633	-52,055	-0,065	-0,021
301,647	79,951	-0,038	0,028
302,662	35,994	-0,188	-0,114
303,676	15,383	-0,130	-0,070
304,691	127,658	-0,092	-0,080
305,706	-200,000	-0,018	-0,227
306,720	517,021	-0,103	-0,167
307,735	45,608	-0,168	-0,107
308,749	800,000	-0,035	-0,078
309,764	31,705	-0,169	-0,100
310,779	-13,890	-0,071	0,031
311,793	-200,000	-0,021	-0,231
312,808	700,465	-0,132	-0,241
313,822	289,547	-0,230	-0,288
314,837	319,798	-0,171	-0,224
315,852	-56,581	-0,090	-0,027
316,866	34,226	-0,059	-0,035
317,881	-131,468	-0,208	-0,019
318,895	51,210	-0,214	-0,139
319,910	58,584	-0,178	-0,120
320,925	197,445	-0,104	-0,109
321,939	460,347	-0,045	-0,069
322,954	295,814	-0,126	-0,160
323,968	-148,528	-0,121	0,007
324,983	190,076	-0,139	-0,144
325,997	297,154	-0,076	-0,096
327,012	148,738	-0,163	-0,151
328,027	144,122	-0,122	-0,112
329,041	109,220	-0,144	-0,118
330,056	-189,673	-0,086	0,001
331,070	-200,000	-0,019	-0,134
332,085	-65,628	-0,148	-0,040
333,100	487,727	-0,058	-0,091
334,114	242,217	-0,154	-0,178
335,129	-53,432	-0,116	-0,036
336,143	18,607	-0,113	-0,062
337,158	284,578	-0,088	-0,109
338,173	-0,345	-0,201	-0,098
339,187	271,266	-0,074	-0,090
340,202	-16,844	-0,089	-0,038
341,216	189,921	-0,235	-0,242
342,231	264,421	-0,135	-0,162
343,246	-200,000	-0,010	-0,071
344,260	800,000	-0,068	-0,140
345,275	-90,696	0,040	0,008
346,289	-130,806	-0,145	-0,013
347,304	17,857	-0,129	-0,071
348,319	-147,303	-0,182	-0,010
349,333	38,128	-0,207	-0,126
350,348	326,970	-0,160	-0,211
351,362	229,539	-0,166	-0,186
352,377	-200,000	0,007	-0,081
353,392	272,184	-0,154	-0,187
354,406	-35,126	-0,129	-0,048
355,421	208,370	1312,328	1410,137
356,435	160,326	1472,775	1410,639
