DTS Sentinel unit serial number:	SN410029Multiplexer serial number:	ORYXHardware model number:	OX2-SRSoftware version number:	ORYX F/W v4,00 Oryx Data Collector v3.7.2.0data status	okinstallation	B3 Nyhavnadifferential loss correction	single-endedforward channel	channel 1reverse channel	N/Adate	2023/12/05time	04:52:30forward acquisition time	300,00reverse acquisition time	0,00gamma	499,1914k internal	0,3201k external	0,3201temperature offset calibration	1,0000default loss term (dB/km)	0,3820temperature slope calibration	1,0000multiplexer offset coefficient	1,0000multiplexer slope coefficient	1,0000fibre end	0,00T internal ref (°C)	14,12T ext. ref 1 (°C)	-0,89T ext. ref 2 (°C)	-0,93length (m)	temperature (°C)	Stokes	anti-Stokes-744,400	-200,000	-0,115	-0,410
-743,385	800,000	0,089	0,275
-742,371	180,132	-0,221	-0,236
-741,356	-200,000	0,087	0,295
-740,342	342,346	-0,192	-0,273
-739,327	-200,000	0,009	0,256
-738,312	-8,728	-0,275	-0,134
-737,298	-200,000	0,016	0,257
-736,283	-200,000	-0,060	-0,344
-735,269	-200,000	0,097	0,353
-734,254	800,000	-0,074	-0,174
-733,239	44,976	-0,153	0,102
-732,225	800,000	-0,123	-0,274
-731,210	-200,000	0,058	0,220
-730,196	-200,000	0,023	0,000
-729,181	-73,388	0,100	-0,026
-728,167	128,748	0,065	0,060
-727,152	31,940	-0,110	-0,069
-726,137	-56,347	-0,118	-0,038
-725,123	32,744	-0,091	-0,057
-724,108	-200,000	-0,072	-0,234
-723,094	-59,655	-0,201	-0,062
-722,079	-200,000	0,022	-0,129
-721,064	712,015	-0,041	-0,080
-720,050	112,204	0,072	-0,063
-719,035	800,000	0,046	-0,123
-718,021	22,854	0,061	-0,036
-717,006	17,642	0,115	-0,066
-715,991	-62,783	-0,168	-0,050
-714,977	188,314	-0,136	-0,148
-713,962	-49,276	-0,100	-0,035
-712,948	-200,000	-0,007	-0,032
-711,933	-71,596	-0,059	0,016
-710,918	-155,493	-0,073	-0,003
-709,904	-200,000	0,022	-0,084
-708,889	-118,046	-0,163	-0,021
-707,875	-28,609	-0,090	-0,037
-706,860	673,282	-0,036	-0,068
-705,845	-4,598	0,076	-0,038
-704,831	49,002	-0,065	-0,044
-703,816	-101,618	-0,080	-0,014
-702,802	260,668	-0,105	0,132
-701,787	-200,000	-0,001	-0,166
-700,772	278,515	-0,097	-0,126
-699,758	800,000	0,024	0,070
-698,743	800,000	-0,033	0,082
-697,729	27,844	0,032	0,019
-696,714	-61,545	0,108	-0,033
-695,699	-200,000	0,004	-0,016
-694,685	-20,637	-0,062	-0,027
-693,670	586,646	-0,075	-0,135
-692,656	800,000	-0,046	0,106
-691,641	162,527	0,096	0,098
-690,627	528,313	0,074	0,127
-689,612	-148,522	-0,062	-0,004
-688,597	37,497	-0,082	0,052
-687,583	733,731	-0,074	-0,144
-686,568	-200,000	0,005	-0,071
-685,554	-200,000	0,004	-0,065
-684,539	-118,382	-0,071	-0,009
-683,524	800,000	0,029	0,079
-682,510	385,883	-0,026	-0,038
-681,495	751,016	-0,064	-0,125
-680,481	-200,000	-0,026	0,107
-679,466	-14,344	-0,038	0,018
-678,451	100,228	0,066	-0,055
-677,437	104,877	0,198	-0,170
-676,422	-0,875	-0,116	-0,059
-675,408	225,989	-0,103	0,122
-674,393	63,295	-0,059	0,043
-673,378	-200,000	-0,002	-0,122
-672,364	243,094	-0,038	-0,046
-671,349	800,000	0,041	-0,117
-670,335	-55,824	0,098	0,031
-669,320	322,871	-0,010	0,014
-668,305	-43,693	-0,122	0,044
-667,291	-200,000	0,007	0,068
-666,276	518,380	-0,023	0,039
-665,262	60,867	-0,135	-0,097
-664,247	-114,062	-0,123	0,017
-663,232	-15,182	-0,062	-0,029
-662,218	120,458	0,089	-0,081
-661,203	-135,082	-0,051	0,004
-660,189	228,760	0,049	0,058
-659,174	31,399	-0,101	-0,063
-658,159	-56,931	0,055	-0,018
-657,145	275,089	0,107	-0,138
-656,130	31,915	-0,192	-0,119
-655,116	-200,000	-0,032	0,113
-654,101	-82,295	0,073	-0,017
-653,086	-59,842	-0,075	-0,023
-652,072	-25,771	-0,079	0,034
-651,057	49,547	-0,080	-0,054
-650,043	9,673	-0,025	0,014
-649,028	317,467	0,035	-0,048
-648,014	3,091	0,063	0,033
-646,999	228,699	-0,043	-0,050
-645,984	-200,000	0,008	0,050
-644,970	-83,943	-0,010	-0,002
-643,955	-78,129	-0,183	-0,045
-642,941	-93,887	0,135	-0,027
-641,926	-7,347	0,168	-0,082
-640,911	-170,770	0,144	-0,004
-639,897	-200,000	0,019	0,073
-638,882	-200,000	-0,046	-0,153
-637,868	-200,000	-0,013	0,118
-636,853	379,886	-0,069	0,103
-635,838	309,188	-0,127	-0,172
-634,824	366,763	-0,056	-0,083
-633,809	-78,009	-0,099	0,025
-632,795	0,213	-0,074	0,038
-631,780	-200,000	-0,005	-0,113
-630,765	634,367	0,056	0,103
-629,751	596,394	-0,084	-0,152
-628,736	21,834	-0,049	-0,029
-627,722	118,580	-0,074	0,066
-626,707	-85,225	-0,108	-0,024
-625,692	-200,000	-0,004	-0,037
-624,678	-179,598	-0,187	-0,003
-623,663	-200,000	-0,003	-0,042
-622,649	800,000	-0,027	0,071
-621,634	2,499	-0,043	-0,022
-620,619	-53,163	-0,125	0,041
-619,605	-200,000	0,032	0,125
-618,590	800,000	0,044	0,111
-617,576	212,479	-0,094	0,107
-616,561	-200,000	0,012	0,046
-615,546	-109,754	-0,042	-0,006
-614,532	406,214	-0,092	-0,141
-613,517	800,000	-0,079	-0,191
-612,503	800,000	-0,047	-0,148
-611,488	800,000	-0,045	-0,117
-610,474	3,226	0,029	0,015
-609,459	63,907	0,057	0,041
-608,444	-9,049	-0,102	-0,049
-607,430	33,019	-0,041	-0,025
-606,415	280,480	0,078	-0,102
-605,401	-200,000	0,034	-0,110
-604,386	-34,737	0,166	0,065
-603,371	793,076	0,015	-0,031
-602,357	56,592	0,084	-0,059
-601,342	-130,169	0,047	-0,005
-600,328	800,000	-0,012	-0,035
-599,313	86,174	0,171	-0,136
-598,298	-43,497	0,088	-0,032
-597,284	-200,000	-0,006	-0,109
-596,269	-200,000	0,017	-0,087
-595,255	375,762	0,046	0,068
-594,240	75,426	-0,121	-0,092
-593,225	800,000	0,025	-0,068
-592,211	145,418	-0,054	-0,053
-591,196	-114,277	-0,139	-0,019
-590,182	395,977	-0,046	0,070
-589,167	713,337	0,100	0,192
-588,152	118,194	-0,091	-0,081
-587,138	-119,393	-0,077	-0,010
-586,123	-53,646	-0,026	-0,009
-585,109	800,000	-0,024	0,053
-584,094	213,759	-0,058	0,067
-583,079	35,533	0,070	-0,044
-582,065	64,492	-0,012	-0,009
-581,050	323,285	0,047	0,065
-580,036	55,478	-0,197	-0,138
-579,021	-108,959	0,052	0,008
-578,006	-74,648	-0,169	0,044
-576,992	112,830	0,097	-0,084
-575,977	279,916	-0,032	0,041
-574,963	-17,255	-0,021	-0,010
-573,948	25,921	-0,084	-0,050
-572,934	440,617	0,094	-0,150
-571,919	395,523	-0,146	-0,221
-570,904	179,659	0,058	-0,061
-569,890	114,620	-0,116	-0,102
-568,875	147,001	0,044	-0,043
-567,861	383,916	0,043	-0,065
-566,846	97,475	-0,029	0,024
-565,831	-151,412	-0,083	-0,004
-564,817	117,145	-0,135	-0,119
-563,802	-72,224	-0,126	-0,034
-562,788	251,938	-0,130	-0,160
-561,773	-76,682	-0,116	0,029
-560,758	-142,344	0,101	0,007
-559,744	-98,162	-0,097	-0,018
-558,729	5,464	-0,098	-0,052
-557,715	800,000	-0,043	-0,088
-556,700	192,378	-0,028	-0,031
-555,685	703,302	-0,054	0,104
-554,671	-43,748	-0,059	0,021
-553,656	131,357	0,087	0,081
-552,642	800,000	0,014	-0,040
-551,627	488,327	0,055	0,091
-550,612	-200,000	-0,036	0,195
-549,598	297,941	-0,080	0,106
-548,583	800,000	-0,034	-0,082
-547,569	198,912	0,044	0,049
-546,554	294,044	-0,048	0,064
-545,539	800,000	0,063	0,131
-544,525	-126,779	0,074	0,008
-543,510	-200,000	-0,002	0,140
-542,496	-200,000	0,002	-0,041
-541,481	-200,000	0,015	-0,128
-540,466	-83,652	-0,075	-0,017
-539,452	-200,000	0,011	0,103
-538,437	-107,081	0,098	-0,015
-537,423	-66,599	-0,048	0,014
-536,408	109,924	-0,055	-0,047
-535,393	-79,106	-0,201	-0,049
-534,379	-200,000	-0,008	-0,040
-533,364	526,788	0,071	0,122
-532,350	-104,717	-0,054	0,009
-531,335	-200,000	-0,007	-0,023
-530,321	-200,000	-0,017	0,071
-529,306	404,283	-0,047	0,071
-528,291	-68,862	0,063	0,017
-527,277	294,694	-0,059	-0,078
-526,262	-51,155	-0,186	-0,062
-525,248	17,679	0,154	-0,088
-524,233	-76,042	0,034	-0,009
-523,218	63,674	0,063	-0,045
-522,204	26,235	0,134	0,081
-521,189	398,985	-0,111	-0,168
-520,175	202,963	-0,074	-0,083
-519,160	53,368	-0,076	0,053
-518,145	-200,000	0,008	0,129
-517,131	526,024	0,066	0,112
-516,116	-200,000	0,022	0,086
-515,102	-172,266	-0,188	0,004
-514,087	800,000	-0,010	-0,031
-513,072	800,000	0,072	-0,188
-512,058	769,106	0,056	-0,111
-511,043	-162,563	0,194	-0,007
-510,029	-60,422	-0,140	0,043
-509,014	300,137	-0,022	-0,029
-507,999	-77,981	0,068	0,017
-506,985	-70,929	-0,138	-0,037
-505,970	-200,000	0,002	-0,027
-504,956	172,966	-0,080	0,084
-503,941	306,155	0,043	0,058
-502,926	150,997	0,039	-0,038
-501,912	-71,325	-0,042	-0,011
-500,897	800,000	0,038	-0,081
-499,883	-200,000	0,021	0,071
-498,868	-200,000	-0,012	0,103
-497,853	800,000	-0,010	-0,026
-496,839	99,283	0,009	-0,008
-495,824	800,000	0,059	0,123
-494,810	58,368	0,085	-0,060
-493,795	257,024	-0,072	0,090
-492,781	-200,000	0,010	-0,129
-491,766	-10,545	-0,050	-0,024
-490,751	122,378	-0,123	-0,111
-489,737	-2,325	-0,007	0,004
-488,722	349,434	-0,040	0,057
-487,708	9,599	0,104	0,056
-486,693	-176,119	-0,015	-0,000
-485,678	-112,016	0,146	-0,021
-484,664	88,358	0,051	-0,041
-483,649	785,856	-0,058	-0,116
-482,635	417,842	0,017	-0,026
-481,620	-10,832	0,175	0,083
-480,605	-200,000	0,015	0,082
-479,591	182,318	0,093	0,099
-478,576	-37,572	-0,117	0,045
-477,562	800,000	-0,035	0,083
-476,547	256,154	-0,164	-0,203
-475,532	275,991	0,038	0,049
-474,518	52,167	-0,055	-0,038
-473,503	148,019	-0,031	-0,030
-472,489	143,910	0,076	0,073
-471,474	800,000	-0,049	-0,103
-470,459	800,000	0,035	-0,073
-469,445	24,148	0,047	0,028
-468,430	-83,881	-0,042	-0,009
-467,416	-200,000	0,012	0,133
-466,401	120,199	0,044	-0,040
-465,386	23,513	-0,123	-0,073
-464,372	341,298	-0,065	0,091
-463,357	-91,709	0,147	-0,030
-462,343	30,962	-0,052	-0,032
-461,328	800,000	0,053	-0,107
-460,313	-200,000	0,010	0,097
-459,299	393,765	0,028	0,042
-458,284	625,966	0,031	0,057
-457,270	-200,000	-0,016	0,054
-456,255	326,589	0,093	0,129
-455,241	-200,000	-0,005	-0,029
-454,226	-86,643	-0,147	-0,032
-453,211	463,881	0,167	0,270
-452,197	314,089	-0,127	0,173
-451,182	-93,486	0,117	0,023
-450,168	132,717	0,093	-0,086
-449,153	-18,587	0,071	0,032
-448,138	-200,000	0,040	-0,186
-447,124	-2,790	-0,110	-0,055
-446,109	-200,000	-0,012	-0,071
-445,095	-200,000	-0,008	0,058
-444,080	304,558	0,096	0,128
-443,065	800,000	-0,014	0,029
-442,051	-63,632	0,042	0,012
-441,036	138,632	-0,076	-0,072
-440,022	-116,963	-0,054	-0,007
-439,007	-200,000	-0,003	-0,087
-437,992	800,000	0,038	0,083
-436,978	-200,000	0,014	0,242
-435,963	-40,624	-0,043	-0,016
-434,949	-2,416	-0,049	-0,025
-433,934	6,770	0,069	0,037
-432,919	-41,103	0,059	-0,022
-431,905	69,136	0,028	-0,020
-430,890	130,402	0,078	-0,072
-429,876	168,293	-0,027	0,028
-428,861	68,245	0,112	-0,082
-427,846	800,000	0,025	-0,063
-426,832	-18,393	-0,099	0,044
-425,817	76,407	-0,032	0,025
-424,803	29,510	0,084	-0,051
-423,788	607,291	-0,028	-0,050
-422,773	800,000	-0,020	0,049
-421,759	299,974	-0,045	-0,060
-420,744	48,267	0,112	-0,075
-419,730	800,000	-0,029	-0,062
-418,715	48,825	0,079	-0,053
-417,701	75,247	0,098	-0,074
-416,686	332,855	0,054	-0,075
-415,671	82,611	0,063	0,049
-414,657	-41,298	0,187	0,069
-413,642	177,582	-0,069	-0,072
-412,628	765,482	0,060	-0,117
-411,613	153,811	-0,084	0,082
-410,598	800,000	0,020	-0,047
-409,584	134,805	0,047	0,043
-408,569	800,000	0,031	0,066
-407,555	-68,325	-0,019	0,005
-406,540	177,592	0,061	-0,064
-405,525	800,000	-0,021	0,046
-404,511	-31,574	-0,081	0,033
-403,496	800,000	-0,053	-0,138
-402,482	603,931	0,048	-0,085
-401,467	439,895	0,077	-0,121
-400,452	86,330	-0,042	-0,033
-399,438	-200,000	-0,020	0,136
-398,423	-31,089	0,049	0,020
-397,409	195,920	-0,054	-0,059
-396,394	-200,000	0,014	-0,056
-395,379	-41,422	0,151	-0,056
-394,365	800,000	-0,067	0,206
-393,350	-200,000	0,001	0,073
-392,336	-128,660	-0,063	-0,006
-391,321	603,089	0,077	0,138
-390,306	800,000	-0,058	0,168
-389,292	-137,597	-0,082	0,007
-388,277	-14,906	-0,170	-0,078
-387,263	-114,843	0,074	-0,010
-386,248	17,833	0,103	-0,059
-385,233	-157,556	0,137	0,006
-384,219	-34,109	-0,146	-0,057
-383,204	-108,973	-0,088	0,013
-382,190	-200,000	0,010	-0,150
-381,175	-200,000	-0,011	-0,143
-380,160	-3,917	0,143	-0,071
-379,146	401,652	-0,018	0,028
-378,131	-127,220	0,030	0,003
-377,117	397,043	0,058	0,087
-376,102	800,000	0,048	-0,105
-375,088	-25,118	-0,217	-0,092
-374,073	76,737	0,059	-0,045
-373,058	-159,579	0,104	0,004
-372,044	-16,764	-0,095	0,043
-371,029	417,786	-0,048	0,074
-370,015	588,884	0,112	0,199
-369,000	-200,000	-0,003	0,087
-367,985	194,588	-0,057	-0,062
-366,971	521,805	0,037	0,062
-365,956	-23,353	-0,065	0,028
-364,942	108,397	0,020	0,017
-363,927	281,878	-0,070	0,090
-362,912	284,216	-0,019	0,024
-361,898	7,737	-0,182	-0,097
-360,883	-200,000	-0,048	-0,172
-359,869	-172,423	-0,136	-0,003
-358,854	294,110	0,044	0,058
-357,839	139,653	-0,043	0,041
-356,825	-30,985	0,059	0,024
-355,810	-3,207	0,062	0,031
-354,796	-200,000	0,009	-0,072
-353,781	581,045	-0,064	-0,113
-352,766	4,411	0,125	0,065
-351,752	-200,000	0,018	0,080
-350,737	-19,956	-0,103	0,045
-349,723	-68,017	0,023	-0,006
-348,708	-200,000	-0,038	0,172
-347,693	800,000	0,046	0,106
-346,679	-26,883	-0,117	0,049
-345,664	556,397	-0,090	0,156
-344,650	111,243	0,043	-0,037
-343,635	287,036	-0,025	-0,032
-342,620	-60,114	0,075	0,023
-341,606	-160,747	0,047	-0,002
-340,591	-200,000	0,004	-0,096
-339,577	-15,217	0,089	-0,041
-338,562	52,147	0,066	-0,045
-337,548	342,343	0,057	0,080
-336,533	-82,607	0,142	0,033
-335,518	23,900	-0,131	0,077
-334,504	173,397	0,188	0,194
-333,489	-200,000	0,000	0,092
-332,475	461,524	0,060	0,095
-331,460	800,000	-0,032	0,083
-330,445	74,187	0,078	0,059
-329,431	169,011	0,067	0,068
-328,416	-31,195	0,108	0,043
-327,402	266,656	-0,060	0,076
-326,387	-139,237	0,140	0,011
-325,372	233,198	-0,020	-0,024
-324,358	-82,419	-0,129	0,030
-323,343	36,464	0,140	-0,088
-322,329	277,279	0,067	0,085
-321,314	-39,704	-0,109	-0,041
-320,299	106,652	0,171	0,145
-319,285	-200,000	-0,015	0,134
-318,270	-20,044	-0,135	0,059
-317,256	800,000	0,072	0,160
-316,241	106,652	-0,027	0,023
-315,226	-98,448	-0,020	-0,004
-314,212	-158,434	0,168	0,007
-313,197	800,000	-0,014	0,027
-312,183	800,000	-0,050	-0,113
-311,168	-111,521	-0,047	-0,007
-310,153	458,700	-0,061	-0,097
-309,139	-67,096	-0,106	0,030
-308,124	460,814	0,057	0,092
-307,110	49,728	0,170	-0,115
-306,095	-200,000	-0,005	-0,131
-305,080	800,000	-0,047	0,095
-304,066	448,684	-0,084	0,132
-303,051	-75,906	-0,119	0,030
-302,037	-97,911	0,082	-0,015
-301,022	50,457	0,056	0,038
-300,008	264,453	0,083	-0,104
-298,993	-200,000	-0,025	-0,104
-297,978	-200,000	0,001	0,099
-296,964	-71,991	0,084	0,022
-295,949	123,741	0,030	-0,027
-294,935	-200,000	-0,022	-0,106
-293,920	-200,000	-0,018	0,152
-292,905	-200,000	0,018	0,239
-291,891	346,278	0,078	0,110
-290,876	14,948	0,091	0,051
-289,862	48,391	0,125	0,083
-288,847	534,192	-0,048	-0,082
-287,832	155,200	-0,058	-0,057
-286,818	326,455	-0,065	0,089
-285,803	-200,000	0,007	0,025
-284,789	-200,000	0,006	-0,062
-283,774	156,916	-0,053	0,053
-282,759	-200,000	-0,011	0,092
-281,745	-113,210	-0,075	-0,010
-280,730	11,797	-0,028	-0,016
-279,716	124,066	0,041	0,037
-278,701	-68,678	0,117	0,032
-277,686	-148,880	0,064	0,004
-276,672	-167,713	0,117	-0,003
-275,657	33,365	0,104	0,064
-274,643	-158,238	-0,034	-0,001
-273,628	178,138	-0,025	0,026
-272,613	184,268	-0,055	-0,058
-271,599	21,181	0,102	0,059
-270,584	800,000	-0,078	0,163
-269,570	197,400	0,034	0,037
-268,555	-200,000	-0,003	0,075
-267,540	-81,918	-0,050	-0,012
-266,526	-200,000	-0,006	-0,136
-265,511	19,637	-0,038	-0,022
-264,497	-65,228	-0,061	-0,017
-263,482	418,858	0,040	-0,061
-262,467	-200,000	0,016	-0,062
-261,453	191,189	-0,079	0,085
-260,438	86,789	-0,037	0,029
-259,424	261,138	-0,061	-0,075
-258,409	175,609	0,062	-0,064
-257,395	-130,613	-0,018	0,002
-256,380	181,328	0,042	0,044
-255,365	800,000	0,028	-0,072
-254,351	6,644	0,054	0,029
-253,336	456,149	0,079	0,126
-252,322	800,000	-0,039	0,085
-251,307	151,808	-0,052	0,050
-250,292	800,000	-0,018	-0,053
-249,278	-117,022	-0,119	0,015
-248,263	50,558	0,110	0,074
-247,249	603,689	0,028	0,050
-246,234	497,336	-0,046	-0,077
-245,219	-200,000	-0,014	-0,065
-244,205	134,942	0,021	-0,020
-243,190	-200,000	-0,004	-0,069
-242,176	50,752	0,051	0,034
-241,161	-129,366	0,100	0,010
-240,146	-200,000	-0,011	0,204
-239,132	40,522	0,036	0,023
-238,117	-97,247	-0,051	-0,009
-237,103	-41,401	0,251	0,092
-236,088	800,000	-0,045	0,131
-235,073	702,057	-0,050	-0,094
-234,059	165,577	0,102	0,103
-233,044	-0,301	-0,050	-0,025
-232,030	582,591	-0,096	-0,169
-231,015	-155,084	-0,088	0,004
-230,000	-107,411	-0,163	-0,025
-228,986	435,743	0,058	-0,090
-227,971	-155,351	-0,019	0,001
-226,957	-119,896	0,060	0,007
-225,942	-109,671	0,008	-0,001
-224,927	-200,000	0,033	0,134
-223,913	-161,838	-0,061	0,002
-222,898	-75,778	0,024	-0,006
-221,884	-200,000	-0,001	-0,029
-220,869	-200,000	-0,001	0,045
-219,855	442,874	-0,035	0,055
-218,840	-184,320	0,146	0,002
-217,825	-42,256	-0,101	0,036
-216,811	-71,007	0,203	-0,054
-215,796	179,754	0,071	-0,075
-214,782	332,285	0,031	-0,043
-213,767	-200,000	-0,035	-0,114
-212,752	397,793	0,171	-0,256
-211,738	-29,612	0,046	0,019
-210,723	-0,612	0,023	-0,012
-209,709	398,260	-0,048	0,072
-208,694	-113,893	-0,081	0,011
-207,679	-148,891	-0,065	0,004
-206,665	-200,000	-0,000	0,105
-205,650	800,000	-0,032	-0,078
-204,636	225,532	0,127	0,147
-203,621	22,018	-0,118	0,068
-202,606	575,416	-0,044	0,077
-201,592	800,000	-0,043	-0,118
-200,577	-101,629	-0,060	-0,010
-199,563	82,407	0,101	-0,078
-198,548	-182,670	-0,099	-0,001
-197,533	-193,188	0,072	-0,000
-196,519	800,000	0,074	0,149
-195,504	-153,836	-0,113	0,005
-194,490	216,312	0,057	0,064
-193,475	143,381	-0,055	-0,052
-192,460	-200,000	0,012	-0,047
-191,446	-200,000	0,012	0,054
-190,431	740,946	0,021	-0,041
-189,417	-12,129	0,037	0,017
-188,402	91,020	-0,045	-0,036
-187,387	800,000	-0,066	0,137
-186,373	800,000	0,039	0,086
-185,358	-49,663	0,118	-0,040
-184,344	198,407	-0,013	-0,015
-183,329	588,751	0,055	0,096
-182,315	-66,805	0,155	0,043
-181,300	244,273	-0,044	-0,052
-180,285	82,204	-0,029	-0,022
-179,271	-200,000	0,019	-0,243
-178,256	81,190	0,066	-0,051
-177,242	185,219	0,126	0,133
-176,227	800,000	-0,038	-0,114
-175,212	-55,826	0,075	-0,024
-174,198	92,736	-0,066	0,053
-173,183	-101,863	-0,100	0,017
-172,169	800,000	0,042	-0,097
-171,154	-12,611	0,088	-0,041
-170,139	58,204	0,084	0,058
-169,125	276,893	0,091	0,116
-168,110	-200,000	-0,017	0,097
-167,096	800,000	0,039	-0,114
-166,081	800,000	-0,006	0,015
-165,066	280,673	-0,035	0,044
-164,052	-200,000	-0,023	-0,088
-163,037	-200,000	-0,037	-0,115
-162,023	406,312	-0,039	-0,059
-161,008	537,906	-0,031	-0,052
-159,993	-8,050	-0,108	-0,052
-158,979	800,000	0,073	-0,182
-157,964	681,022	-0,110	-0,205
-156,950	52,541	-0,021	-0,014
-155,935	-200,000	0,014	-0,070
-154,920	10,030	-0,060	-0,032
-153,906	-81,658	0,131	-0,030
-152,891	-152,221	-0,049	0,002
-151,877	-113,361	0,220	0,030
-150,862	-23,694	0,084	0,036
-149,847	-135,083	-0,065	0,005
-148,833	-0,212	0,080	-0,041
-147,818	-172,621	0,130	0,003
-146,804	546,664	0,068	-0,115
-145,789	-200,000	0,012	0,170
-144,775	10,905	-0,052	0,028
-143,760	800,000	0,048	-0,096
-142,745	73,908	-0,061	-0,046
-141,731	800,000	0,059	-0,159
-140,716	259,833	0,074	0,091
-139,702	17,467	-0,161	-0,090
-138,687	-200,000	0,003	0,181
-137,672	91,710	-0,080	0,064
-136,658	5,630	-0,074	-0,039
-135,643	800,000	-0,020	0,058
-134,629	800,000	-0,013	-0,026
-133,614	-200,000	-0,003	-0,020
-132,599	-123,421	-0,090	0,010
-131,585	-200,000	-0,016	-0,054
-130,570	103,048	-0,112	-0,093
-129,556	81,881	-0,087	-0,067
-128,541	-103,025	0,068	0,011
-127,526	2,893	0,100	-0,051
-126,512	208,415	0,023	-0,025
-125,497	-119,242	0,156	-0,019
-124,483	259,681	-0,073	0,090
-123,468	113,952	-0,088	0,076
-122,453	136,868	0,171	0,158
-121,439	332,055	-0,061	-0,084
-120,424	142,653	-0,041	-0,038
-119,410	-200,000	0,008	0,181
-118,395	-102,060	-0,041	0,007
-117,380	219,878	-0,099	0,113
-116,366	264,565	0,038	-0,047
-115,351	-200,000	-0,019	-0,106
-114,337	-45,702	-0,125	0,044
-113,322	232,811	-0,121	-0,141
-112,307	36,280	0,038	0,023
-111,293	-26,749	0,155	0,064
-110,278	800,000	-0,022	-0,063
-109,264	-124,040	0,090	-0,010
-108,249	-200,000	-0,009	-0,065
-107,234	-29,623	-0,154	-0,062
-106,220	80,520	-0,074	-0,057
-105,205	-37,472	0,021	0,008
-104,191	-200,000	-0,019	-0,098
-103,176	-42,481	0,123	0,044
-102,162	461,993	0,050	0,079
-101,147	127,931	0,120	-0,108
-100,132	-200,000	-0,002	0,019
-99,118	-112,149	-0,068	-0,010
-98,103	-18,222	-0,056	0,025
-97,089	459,285	-0,048	-0,076
-96,074	-200,000	0,029	-0,147
-95,059	198,588	0,077	-0,084
-94,045	345,774	-0,054	-0,075
-93,030	-200,000	-0,022	-0,071
-92,016	-93,508	-0,154	0,030
-91,001	283,929	-0,063	0,081
-89,986	-200,000	0,022	0,145
-88,972	-199,095	0,221	-0,001
-87,957	-200,000	0,003	0,110
-86,943	366,025	-0,064	0,092
-85,928	6,336	-0,125	-0,066
-84,913	-200,000	-0,015	0,100
-83,899	612,522	0,036	0,063
-82,884	-1,892	-0,021	-0,010
-81,870	-200,000	0,027	0,104
-80,855	541,575	-0,037	-0,063
-79,840	34,418	-0,069	0,043
-78,826	47,291	0,082	0,054
-77,811	-176,645	-0,103	0,002
-76,797	-33,182	0,116	0,046
-75,782	-200,000	-0,016	-0,077
-74,767	-200,000	-0,005	-0,108
-73,753	-200,000	0,017	0,075
-72,738	359,697	0,038	0,054
-71,724	-76,902	0,084	-0,021
-70,709	20,132	-0,018	-0,010
-69,694	46,971	-0,101	-0,067
-68,680	20,714	0,045	-0,026
-67,665	68,973	0,058	0,042
-66,651	121,657	0,053	-0,047
-65,636	-122,887	0,043	-0,005
-64,622	215,391	-0,032	-0,036
-63,607	266,830	0,117	-0,146
-62,592	-200,000	-0,007	0,022
-61,578	-150,132	0,092	-0,005
-60,563	-70,661	0,099	-0,026
-59,549	-200,000	-0,043	0,135
-58,534	-37,181	-1,543	-0,582
-57,519	434,525	-1,370	-2,115
-56,505	-200,000	-0,562	-4,621
-55,490	143,050	1,040	0,979
-54,476	800,000	4,853	11,507
-53,461	-200,000	18,834	305,578
-52,446	800,000	736,414	2294,536
-51,432	568,734	1652,661	2854,495
-50,417	79,052	1670,212	1264,932
-49,403	22,113	1543,194	889,195
-48,388	16,016	1466,004	815,103
-47,373	17,768	1455,866	817,896
-46,359	16,850	1446,191	808,024
-45,344	14,218	1441,713	792,893
-44,330	14,163	1439,780	791,537
-43,315	14,208	1437,999	790,737
-42,300	14,241	1435,954	789,739
-41,286	14,221	1435,019	789,097
-40,271	14,202	1433,732	788,272
-39,257	14,194	1432,536	787,543
-38,242	14,221	1431,212	786,911
-37,227	14,252	1430,172	786,457
-36,213	14,258	1428,688	785,637
-35,198	14,275	1427,538	785,057
-34,184	14,253	1426,835	784,534
-33,169	14,198	1425,363	783,433
-32,154	14,256	1424,301	783,090
-31,140	14,256	1423,060	782,379
-30,125	14,221	1422,000	781,600
-29,111	14,255	1420,737	781,034
-28,096	14,210	1419,713	780,227
-27,082	14,146	1418,654	779,313
-26,067	14,152	1417,508	778,679
-25,052	14,155	1416,402	778,058
-24,038	14,126	1415,607	777,453
-23,023	14,112	1414,592	776,796
-22,009	14,130	1413,460	776,230
-20,994	14,068	1412,691	775,485
-19,979	14,077	1411,790	775,005
-18,965	14,096	1410,655	774,439
-17,950	14,070	1409,743	773,784
-16,936	14,105	1408,857	773,430
-15,921	14,066	1407,734	772,601
-14,906	14,032	1406,960	771,987
-13,892	14,080	1405,798	771,544
-12,877	14,042	1404,974	770,884
-11,863	14,053	1404,059	770,401
-10,848	14,052	1403,279	769,941
-9,833	13,995	1402,422	769,174
-8,819	14,015	1401,360	768,655
-7,804	13,955	1400,576	767,914
-6,790	13,968	1399,512	767,362
-5,775	13,951	1398,548	766,723
-4,760	13,981	1397,493	766,253
-3,746	13,955	1396,620	765,625
-2,731	13,951	1395,796	765,124
-1,717	13,934	1394,995	764,573
-0,702	13,913	1393,252	763,493
0,313	17,725	1311,078	736,134
1,327	33,974	706,093	434,094
2,342	52,493	124,028	83,627
3,356	2,965	16,659	8,532
4,371	0,502	3,252	1,639
5,386	9,589	0,469	0,251
6,400	-200,000	-0,041	0,201
7,415	-106,012	-0,156	0,025
8,429	-200,000	-0,301	-0,001
9,444	-112,308	-0,368	-0,052
10,459	35,070	-0,329	-0,203
11,473	-80,664	-0,382	-0,089
12,488	-37,680	-0,205	-0,077
13,502	-27,691	-0,314	-0,128
14,517	78,987	-0,183	-0,138
15,531	127,664	-0,426	-0,383
16,546	-13,866	-0,396	-0,180
17,561	109,478	-0,288	-0,244
18,575	126,087	-0,185	-0,165
19,590	63,617	-0,297	-0,210
20,604	17,830	-0,227	-0,127
21,619	45,860	-0,484	-0,315
22,634	269,956	-0,335	-0,416
23,648	22,637	-0,441	-0,254
24,663	18,162	-0,441	-0,248
25,677	48,779	-0,429	-0,283
26,692	211,097	-0,320	-0,355
27,707	24,470	-0,304	-0,177
28,721	151,231	-0,279	-0,268
29,736	36,860	-0,500	-0,311
30,750	44,542	-0,423	-0,274
31,765	227,163	-0,307	-0,353
32,780	58,010	-0,379	-0,261
33,794	353,873	-0,267	-0,376
34,809	77,059	-0,339	-0,254
35,823	5,628	-0,444	-0,231
36,838	34,212	-0,350	-0,215
37,853	106,172	-0,407	-0,340
38,867	63,754	-0,479	-0,339
39,882	190,013	-0,377	-0,399
40,896	171,807	-0,283	-0,287
41,911	52,967	-0,461	-0,310
42,926	125,471	-0,302	-0,269
43,940	240,672	-0,323	-0,380
44,955	36,943	-0,472	-0,294
45,969	47,686	-0,441	-0,289
46,984	4,274	-0,467	-0,240
47,999	100,407	-0,329	-0,269
49,013	174,537	-0,265	-0,270
50,028	62,111	-0,383	-0,269
51,042	-4,148	-0,398	-0,194
52,057	-9,064	-0,309	-0,145
53,071	191,477	-0,263	-0,279
54,086	127,423	-0,215	-0,192
55,101	31,563	-0,434	-0,262
56,115	-9,169	-0,413	-0,194
57,130	128,067	-0,260	-0,233
58,144	53,650	-0,314	-0,212
59,159	-45,709	-0,548	-0,190
60,174	17,146	-0,397	-0,221
61,188	97,266	-0,318	-0,257
62,203	224,072	-0,276	-0,315
63,217	96,390	-0,370	-0,297
64,232	276,299	-0,299	-0,374
65,247	-41,260	-0,355	-0,128
66,261	222,244	-0,247	-0,281
67,276	115,052	-0,348	-0,298
68,290	43,040	-0,292	-0,187
69,305	278,812	-0,270	-0,340
70,320	33,103	-0,348	-0,212
71,334	105,180	-0,269	-0,223
72,349	146,877	-0,292	-0,277
73,363	18,966	-0,390	-0,219
74,378	130,130	-0,204	-0,184
75,393	-2,288	-0,270	-0,133
76,407	-14,529	-0,290	-0,131
77,422	55,965	-0,229	-0,156
78,436	6,891	-0,376	-0,196
79,451	-81,741	-0,295	-0,067
80,466	75,805	-0,324	-0,240
81,480	138,145	-0,208	-0,192
82,495	-22,731	-0,340	-0,144
83,509	105,147	-0,285	-0,236
84,524	-1,889	-0,280	-0,138
85,539	800,000	-0,104	-0,270
86,553	-93,773	-0,323	-0,062
87,568	152,663	-0,228	-0,219
88,582	13,898	-0,345	-0,188
89,597	102,617	-0,303	-0,248
90,611	-16,631	-0,375	-0,166
91,626	21,742	-0,276	-0,158
92,641	75,667	-0,352	-0,261
93,655	-6,850	-0,221	-0,105
94,670	-44,262	-0,340	-0,119
95,684	61,142	-0,271	-0,188
96,699	27,758	-0,287	-0,169
97,714	156,650	-0,261	-0,253
98,728	-123,083	-0,233	0,026
99,743	40,701	-0,300	-0,189
100,757	-34,425	-0,138	-0,053
101,772	80,596	-0,340	-0,257
102,787	71,236	-0,301	-0,218
103,801	800,000	-0,091	-0,222
104,816	135,462	-0,188	-0,171
105,830	689,012	-0,098	-0,180
106,845	27,794	-0,208	-0,122
107,860	169,588	-0,161	-0,162
108,874	173,031	-0,244	-0,247
109,889	41,661	-0,378	-0,239
110,903	86,907	-0,232	-0,179
111,918	85,220	-0,223	-0,171
112,933	111,941	-0,227	-0,192
113,947	58,823	-0,216	-0,148
114,962	-14,014	-0,370	-0,167
115,976	332,411	-0,128	-0,174
116,991	699,124	-0,116	-0,215
118,006	115,949	-0,322	-0,276
119,020	34,178	-0,306	-0,186
120,035	331,594	-0,253	-0,343
121,049	361,006	-0,127	-0,179
122,064	47,766	-0,381	-0,248
123,079	-151,672	-0,298	0,015
124,093	108,279	-0,195	-0,162
125,108	173,675	-0,233	-0,235
126,122	65,621	-0,340	-0,241
127,137	-200,000	-0,072	-0,233
128,151	32,944	-0,310	-0,188
129,166	150,016	-0,165	-0,157
130,181	105,215	-0,186	-0,153
131,195	31,498	-0,216	-0,130
132,210	5,533	-0,316	-0,162
133,224	235,913	-0,243	-0,281
134,239	800,000	-0,105	-0,239
135,254	467,892	-0,210	-0,330
136,268	192,470	-0,258	-0,273
137,283	-4,759	-0,234	-0,112
138,297	314,558	-0,202	-0,267
139,312	300,897	-0,191	-0,247
140,327	44,812	-0,262	-0,168
141,341	-2,233	-0,320	-0,156
142,356	76,730	-0,226	-0,167
143,370	-6,477	-0,312	-0,148
144,385	60,190	-0,253	-0,175
145,400	118,503	-0,354	-0,305
146,414	190,061	-0,248	-0,260
147,429	30,174	-0,191	-0,113
148,443	347,856	-0,203	-0,280
149,458	-55,539	-0,261	-0,081
150,473	4,463	-0,254	-0,130
151,487	190,081	-0,198	-0,208
152,502	71,393	-0,198	-0,143
153,516	86,225	-0,366	-0,281
154,531	699,875	-0,161	-0,297
155,546	79,988	-0,259	-0,194
156,560	43,840	-0,251	-0,160
157,575	40,488	-0,280	-0,176
158,589	-20,689	-0,212	-0,090
159,604	132,597	-0,225	-0,202
160,619	170,364	-0,356	-0,355
161,633	-29,700	-0,300	-0,119
162,648	267,703	-0,160	-0,196
163,662	18,650	-0,237	-0,132
164,677	92,153	-0,297	-0,233
165,692	55,979	-0,262	-0,177
166,706	-172,099	-0,273	-0,006
167,721	95,136	-0,268	-0,212
168,735	169,806	-0,218	-0,217
169,750	-77,318	-0,292	-0,070
170,764	385,960	-0,197	-0,284
171,779	-38,522	-0,227	-0,083
172,794	18,719	-0,233	-0,129
173,808	-158,554	-0,260	0,010
174,823	-2,462	-0,331	-0,161
175,837	-67,412	-0,304	-0,083
176,852	-97,734	-0,353	-0,063
177,867	-45,417	-0,257	-0,088
178,881	152,281	-0,154	-0,147
179,896	800,000	-0,099	-0,230
180,910	176,655	-0,178	-0,181
181,925	269,384	-0,263	-0,322
182,940	-104,131	-0,343	-0,055
183,954	86,247	-0,199	-0,153
184,969	144,422	-0,201	-0,187
185,983	-200,000	0,004	-0,052
186,998	-58,328	-0,135	0,041
188,013	392,489	-0,119	-0,172
189,027	49,188	-0,272	-0,177
190,042	15,752	-0,236	-0,129
191,056	37,369	-0,215	-0,132
192,071	400,515	-0,097	-0,142
193,086	800,000	-0,084	-0,209
194,100	96,076	-0,215	-0,171
195,115	325,205	-0,181	-0,241
196,129	159,475	-0,181	-0,176
197,144	-62,962	-0,213	-0,061
198,159	18,179	-0,160	-0,089
199,173	754,123	-0,065	-0,123
200,188	17,585	-0,277	-0,153
201,202	102,574	-0,179	-0,145
202,217	54,701	-0,207	-0,139
203,232	146,796	-0,158	-0,148
204,246	-57,397	-0,214	-0,065
205,261	198,448	-0,127	-0,135
206,275	-52,473	-0,282	-0,090
207,290	184,552	-0,162	-0,167
208,304	3,640	-0,195	-0,099
209,319	-94,948	-0,219	-0,041
210,334	-200,000	-0,210	0,000
211,348	94,540	-0,158	-0,124
212,363	213,562	-0,201	-0,221
213,377	135,963	-0,124	-0,112
214,392	-121,136	-0,290	-0,033
215,407	-55,301	-0,143	-0,044
216,421	162,745	-0,227	-0,222
217,436	90,649	-0,214	-0,166
218,450	-200,000	-0,037	-0,249
219,465	72,243	-0,228	-0,165
220,480	478,927	-0,130	-0,204
221,494	444,260	-0,075	-0,115
222,509	167,446	-0,072	-0,071
223,523	20,839	-0,257	-0,144
224,538	-18,749	-0,214	-0,092
225,553	-48,152	-0,206	-0,069
226,567	388,912	-0,134	-0,194
227,582	279,854	-0,146	-0,181
228,596	-53,077	-0,300	-0,095
229,611	-164,719	-0,196	-0,006
230,626	-73,882	-0,235	0,059
231,640	418,151	-0,123	-0,182
232,655	-200,000	-0,061	-0,240
233,669	800,000	-0,110	-0,303
234,684	641,623	-0,178	-0,316
235,699	26,220	-0,257	-0,148
236,713	103,959	-0,121	-0,098
237,728	418,280	-0,174	-0,258
238,742	-17,219	-0,155	-0,067
239,757	198,167	-0,172	-0,183
240,772	511,302	-0,100	-0,162
241,786	183,449	-0,225	-0,231
242,801	360,349	-0,081	-0,112
243,815	82,851	-0,113	-0,085
244,830	-5,889	-0,202	-0,095
245,844	150,951	-0,207	-0,195
246,859	-6,944	-0,193	0,091
247,874	470,531	-0,167	-0,260
248,888	283,080	-0,202	-0,251
249,903	341,644	-0,174	-0,236
250,917	-41,978	-0,134	-0,047
251,932	685,085	-0,155	-0,281
252,947	-1,457	-0,152	-0,074
253,961	-30,613	-0,206	-0,080
254,976	440,761	-0,182	-0,276
255,990	231,153	-0,199	-0,226
257,005	-131,541	-0,149	-0,013
258,020	-179,984	-0,170	-0,002
259,034	171,835	-0,162	0,162
260,049	-52,657	-0,203	-0,065
261,063	68,467	-0,237	-0,168
262,078	26,912	-0,227	-0,131
263,093	13,812	-0,151	-0,081
264,107	195,511	-0,132	-0,139
265,122	-107,480	-0,150	-0,022
266,136	-99,422	-0,050	-0,009
267,151	-176,968	-0,177	0,003
268,166	155,518	-0,139	-0,132
269,180	96,542	-0,047	-0,037
270,195	124,442	-0,165	-0,143
271,209	-16,858	-0,238	-0,103
272,224	103,662	-0,123	-0,100
273,239	-119,421	-0,089	0,011
274,253	6,873	-0,143	-0,073
275,268	507,209	-0,147	-0,237
276,282	148,831	-0,282	-0,264
277,297	800,000	-0,100	-0,227
278,312	140,609	-0,279	-0,255
279,326	-136,007	-0,201	-0,016
280,341	43,083	-0,136	-0,086
281,355	-93,774	-0,187	0,035
282,370	61,421	-0,165	-0,113
283,384	100,804	-0,143	-0,114
284,399	209,372	-0,190	-0,206
285,414	63,154	-0,166	-0,115
286,428	71,360	-0,174	-0,124
287,443	-200,000	0,003	-0,144
288,457	134,387	-0,080	-0,071
289,472	-31,562	-0,164	-0,063
290,487	88,142	-0,232	-0,177
291,501	-35,798	-0,217	-0,081
292,516	13,110	-0,203	-0,108
293,530	233,009	-0,167	-0,190
294,545	293,438	-0,112	-0,142
295,560	-19,592	-0,223	-0,095
296,574	127,615	-0,113	-0,099
297,589	225,516	-0,092	-0,103
298,603	800,000	-0,082	-0,183
299,618	800,000	0,014	-0,036
300,633	388,987	-0,070	-0,100
301,647	51,154	-0,111	0,073
302,662	148,652	-0,069	-0,064
303,676	280,415	-0,090	-0,111
304,691	-30,597	-0,251	-0,097
305,706	33,781	-0,204	-0,122
306,720	170,499	-0,189	-0,186
307,735	-200,000	-0,037	-0,182
308,749	800,000	-0,059	-0,176
309,764	92,514	-0,135	-0,105
310,779	211,070	0,014	0,015
311,793	-14,964	-0,123	-0,054
312,808	628,801	-0,080	-0,140
313,822	256,220	-0,156	-0,184
314,837	339,586	-0,103	-0,138
315,852	156,754	-0,080	-0,076
316,866	-3,642	-0,159	0,076
317,881	-9,116	-0,088	-0,040
318,895	380,515	-0,089	-0,126
319,910	44,793	-0,239	-0,151
320,925	127,078	-0,174	-0,152
321,939	800,000	-0,095	-0,241
322,954	-160,056	-0,180	0,007
323,968	-200,000	-0,019	-0,064
324,983	-200,000	-0,052	-0,168
325,997	133,229	-0,139	-0,123
327,012	211,132	-0,058	-0,063
328,027	-93,738	-0,073	-0,014
329,041	81,133	-0,131	-0,097
330,056	-116,031	-0,077	-0,010
331,070	-130,612	-0,129	-0,012
332,085	-119,592	-0,099	-0,012
333,100	-122,732	-0,054	0,006
334,114	-54,584	-0,262	-0,081
335,129	184,019	-0,179	-0,182
336,143	800,000	-0,026	-0,078
337,158	87,556	-0,071	-0,054
338,173	108,394	-0,211	-0,173
339,187	13,299	-0,158	-0,084
340,202	-5,820	-0,288	-0,135
341,216	800,000	-0,103	-0,233
342,231	244,987	-0,167	-0,193
343,246	227,816	-0,133	-0,148
344,260	431,842	-0,024	-0,035
345,275	87,375	-0,152	-0,115
346,289	-118,022	-0,123	0,015
347,304	-63,404	-0,156	-0,044
348,319	210,460	-0,090	-0,097
349,333	361,622	-0,082	-0,114
350,348	287,673	-0,139	-0,173
351,362	244,497	-0,132	-0,152
352,377	-98,102	-0,139	0,024
353,392	-91,236	-0,165	-0,032
354,406	333,181	-0,039	-0,051
355,421	210,932	1313,461	1417,928
356,435	162,407	1474,019	1418,428
