DTS Sentinel unit serial number:	SN410029Multiplexer serial number:	ORYXHardware model number:	OX2-SRSoftware version number:	ORYX F/W v4,00 Oryx Data Collector v3.7.2.0data status	okinstallation	B3 Nyhavnadifferential loss correction	single-endedforward channel	channel 1reverse channel	N/Adate	2023/12/02time	21:02:30forward acquisition time	300,00reverse acquisition time	0,00gamma	499,1914k internal	0,3201k external	0,3201temperature offset calibration	1,0000default loss term (dB/km)	0,3820temperature slope calibration	1,0000multiplexer offset coefficient	1,0000multiplexer slope coefficient	1,0000fibre end	0,00T internal ref (°C)	13,26T ext. ref 1 (°C)	-1,79T ext. ref 2 (°C)	-1,81length (m)	temperature (°C)	Stokes	anti-Stokes-744,400	-8,342	-0,302	-0,147
-743,385	-200,000	0,002	0,309
-742,371	182,349	-0,225	-0,242
-741,356	-200,000	-0,037	0,203
-740,342	-29,470	-0,280	-0,116
-739,327	-200,000	-0,022	0,214
-738,312	159,862	-0,141	-0,143
-737,298	-200,000	-0,028	0,339
-736,283	66,420	-0,204	-0,151
-735,269	800,000	0,064	0,196
-734,254	75,176	-0,247	-0,189
-733,239	47,526	-0,107	0,072
-732,225	281,587	-0,198	-0,259
-731,210	279,676	0,073	0,095
-730,196	328,005	-0,040	-0,056
-729,181	38,257	-0,204	-0,132
-728,167	-200,000	0,012	-0,074
-727,152	-149,221	0,068	-0,004
-726,137	-200,000	-0,006	-0,145
-725,123	-46,214	-0,156	-0,055
-724,108	48,944	-0,147	-0,100
-723,094	-200,000	0,001	-0,054
-722,079	-200,000	-0,029	-0,115
-721,064	-200,000	0,059	-0,205
-720,050	-200,000	0,041	-0,193
-719,035	-200,000	-0,033	-0,139
-718,021	576,362	-0,065	-0,116
-717,006	-200,000	-0,037	-0,147
-715,991	-131,909	-0,163	0,015
-714,977	-108,601	-0,171	-0,026
-713,962	412,153	0,043	-0,067
-712,948	92,180	-0,020	0,017
-711,933	-56,765	0,192	0,061
-710,918	-4,303	0,115	0,058
-709,904	-200,000	-0,032	-0,156
-708,889	130,009	-0,138	-0,128
-707,875	-200,000	-0,015	-0,156
-706,860	800,000	0,011	0,027
-705,845	785,165	-0,083	-0,167
-704,831	107,637	0,011	0,009
-703,816	-56,343	-0,049	-0,016
-702,802	65,883	-0,070	-0,051
-701,787	57,988	0,061	0,043
-700,772	30,273	-0,052	-0,032
-699,758	-151,328	0,035	-0,002
-698,743	800,000	0,059	0,134
-697,729	210,439	0,059	0,067
-696,714	31,229	-0,034	0,021
-695,699	-200,000	0,024	-0,077
-694,685	800,000	-0,019	0,057
-693,670	800,000	-0,041	-0,083
-692,656	-200,000	0,031	0,122
-691,641	187,942	0,197	0,214
-690,627	480,328	0,061	0,100
-689,612	-91,736	0,165	0,034
-688,597	433,986	-0,047	-0,074
-687,583	522,120	-0,036	-0,062
-686,568	242,966	0,105	-0,128
-685,554	-164,784	-0,120	0,004
-684,539	442,141	0,060	-0,096
-683,524	-200,000	-0,008	0,071
-682,510	-200,000	0,001	-0,115
-681,495	237,269	0,030	-0,037
-680,481	-200,000	0,048	-0,169
-679,466	78,378	-0,152	-0,117
-678,451	110,442	-0,114	-0,099
-677,437	-12,016	0,066	0,031
-676,422	-200,000	-0,034	0,124
-675,408	195,009	0,088	0,097
-674,393	-2,318	0,087	-0,044
-673,378	800,000	-0,038	0,095
-672,364	69,026	0,018	-0,013
-671,349	-66,952	-0,052	0,015
-670,335	241,156	-0,044	0,053
-669,320	-200,000	0,007	0,215
-668,305	473,646	0,038	0,063
-667,291	-200,000	-0,010	0,093
-666,276	-27,611	-0,084	-0,035
-665,262	46,891	-0,077	-0,052
-664,247	66,202	0,012	0,009
-663,232	456,732	-0,079	-0,128
-662,218	-149,479	0,014	0,001
-661,203	226,319	0,062	0,074
-660,189	-200,000	-0,020	0,151
-659,174	456,008	0,078	-0,127
-658,159	105,534	-0,078	0,067
-657,145	-78,095	0,046	0,011
-656,130	-200,000	-0,004	-0,073
-655,116	120,148	0,050	-0,045
-654,101	800,000	0,024	0,063
-653,086	-63,551	-0,049	-0,015
-652,072	800,000	0,026	-0,069
-651,057	-200,000	0,032	-0,220
-650,043	-61,156	-0,025	0,007
-649,028	12,992	-0,183	0,102
-648,014	616,571	-0,099	0,181
-646,999	120,967	0,045	-0,041
-645,984	29,396	-0,109	0,067
-644,970	692,291	0,020	-0,038
-643,955	-26,937	-0,075	-0,032
-642,941	181,941	-0,143	-0,152
-641,926	-30,678	0,071	0,029
-640,911	-135,214	-0,080	0,007
-639,897	-200,000	-0,020	0,099
-638,882	-77,896	-0,084	-0,021
-637,868	631,227	-0,036	0,067
-636,853	13,918	-0,138	-0,078
-635,838	65,360	0,136	0,100
-634,824	31,108	0,013	0,008
-633,809	6,657	-0,131	0,070
-632,795	-1,332	-0,062	0,031
-631,780	-200,000	0,017	-0,090
-630,765	376,903	-0,048	0,071
-629,751	6,107	-0,075	-0,040
-628,736	147,240	-0,061	-0,059
-627,722	42,259	0,029	-0,019
-626,707	-200,000	-0,004	0,107
-625,692	-25,173	0,030	-0,013
-624,678	-200,000	-0,008	-0,038
-623,663	612,879	0,025	0,045
-622,649	-200,000	-0,000	-0,132
-621,634	800,000	-0,055	-0,164
-620,619	-33,060	-0,110	-0,044
-619,605	-200,000	0,024	0,143
-618,590	-63,402	-0,027	-0,008
-617,576	-200,000	0,010	0,061
-616,561	800,000	-0,049	0,151
-615,546	-200,000	-0,001	-0,044
-614,532	78,497	-0,022	-0,017
-613,517	-200,000	0,014	-0,108
-612,503	757,315	-0,072	0,141
-611,488	0,977	0,034	0,018
-610,474	46,612	-0,086	-0,058
-609,459	460,440	0,099	0,160
-608,444	-200,000	-0,022	-0,151
-607,430	472,652	-0,051	-0,083
-606,415	-155,717	-0,155	-0,007
-605,401	-14,507	-0,009	-0,004
-604,386	-200,000	0,007	-0,047
-603,371	-40,272	0,166	0,062
-602,357	-98,889	-0,063	0,011
-601,342	800,000	-0,026	-0,077
-600,328	217,522	0,092	-0,106
-599,313	556,760	-0,113	-0,197
-598,298	-45,879	0,077	-0,027
-597,284	535,818	-0,022	-0,038
-596,269	-154,610	-0,060	-0,003
-595,255	-200,000	-0,006	-0,046
-594,240	-49,890	0,079	-0,027
-593,225	-165,416	-0,128	-0,004
-592,211	770,766	0,051	-0,102
-591,196	800,000	0,044	-0,099
-590,182	88,402	0,060	-0,048
-589,167	-200,000	0,003	0,090
-588,152	-115,067	0,035	0,005
-587,138	110,262	0,046	0,040
-586,123	93,974	-0,041	0,034
-585,109	143,397	-0,106	0,102
-584,094	684,854	0,024	-0,045
-583,079	-129,117	-0,087	0,009
-582,065	800,000	0,041	0,086
-581,050	-200,000	-0,012	-0,043
-580,036	-12,435	0,117	0,055
-579,021	221,137	-0,039	-0,045
-578,006	-200,000	-0,024	-0,133
-576,992	-103,310	0,107	-0,018
-575,977	-89,315	0,073	0,015
-574,963	800,000	-0,033	0,102
-573,948	139,785	-0,051	0,049
-572,934	19,541	-0,082	-0,048
-571,919	-200,000	-0,008	-0,110
-570,904	-200,000	0,001	0,068
-569,890	50,841	0,032	-0,022
-568,875	47,598	0,123	0,083
-567,861	-58,354	-0,154	0,048
-566,846	537,952	0,073	0,126
-565,831	-53,164	0,197	-0,065
-564,817	182,134	-0,075	-0,080
-563,802	45,086	-0,214	-0,142
-562,788	-154,258	-0,066	0,003
-561,773	133,230	-0,047	-0,044
-560,758	800,000	-0,044	0,113
-559,744	61,271	0,124	-0,089
-558,729	-64,062	-0,081	-0,024
-557,715	-116,810	0,138	-0,018
-556,700	-200,000	-0,011	-0,075
-555,685	-160,914	-0,056	-0,002
-554,671	-200,000	-0,019	0,109
-553,656	133,483	0,052	0,049
-552,642	-49,266	-0,064	-0,022
-551,627	-97,811	-0,022	-0,004
-550,612	-69,052	0,050	0,014
-549,598	150,422	-0,090	-0,088
-548,583	-25,460	-0,149	0,063
-547,569	-200,000	-0,033	-0,118
-546,554	-119,322	0,138	-0,017
-545,539	-28,067	0,047	-0,020
-544,525	112,806	0,026	-0,023
-543,510	515,026	-0,054	0,092
-542,496	-200,000	0,004	-0,048
-541,481	89,462	-0,022	-0,018
-540,466	254,979	0,043	0,054
-539,452	-200,000	-0,014	0,103
-538,437	-52,826	0,113	-0,037
-537,423	552,645	-0,036	0,063
-536,408	154,192	-0,040	0,040
-535,393	796,053	-0,050	-0,100
-534,379	-200,000	-0,021	-0,093
-533,364	800,000	-0,041	0,122
-532,350	245,787	-0,064	0,078
-531,335	800,000	0,011	-0,031
-530,321	-134,921	-0,029	-0,002
-529,306	-200,000	-0,008	-0,118
-528,291	-200,000	-0,015	-0,129
-527,277	-200,000	0,037	-0,141
-526,262	89,187	0,109	-0,088
-525,248	35,958	0,076	0,048
-524,233	-27,209	-0,030	0,013
-523,218	-11,284	0,131	-0,062
-522,204	-107,046	-0,095	-0,015
-521,189	248,025	0,026	-0,031
-520,175	110,457	-0,027	-0,023
-519,160	67,524	-0,028	0,021
-518,145	-200,000	-0,002	0,206
-517,131	-200,000	0,026	0,163
-516,116	-200,000	-0,023	-0,100
-515,102	319,329	-0,038	0,052
-514,087	-200,000	-0,018	-0,126
-513,072	-200,000	0,004	-0,040
-512,058	-200,000	-0,003	-0,038
-511,043	-200,000	-0,041	0,145
-510,029	11,265	0,108	0,059
-509,014	-200,000	-0,003	0,113
-507,999	-200,000	0,023	0,141
-506,985	800,000	-0,035	-0,109
-505,970	104,550	-0,090	-0,076
-504,956	-81,954	0,057	-0,013
-503,941	800,000	-0,027	0,064
-502,926	-7,292	0,070	0,034
-501,912	800,000	0,042	-0,127
-500,897	446,856	0,086	-0,137
-499,883	1,602	0,122	-0,063
-498,868	-43,503	-0,112	-0,041
-497,853	-200,000	-0,040	-0,228
-496,839	-143,558	-0,023	-0,002
-495,824	112,481	-0,066	-0,058
-494,810	-39,365	-0,045	0,017
-493,795	-13,835	-0,036	-0,017
-492,781	-24,389	0,066	-0,028
-491,766	165,122	-0,067	-0,068
-490,751	164,744	-0,133	-0,136
-489,737	-200,000	-0,001	-0,145
-488,722	7,212	-0,010	-0,005
-487,708	-143,685	-0,062	-0,004
-486,693	-200,000	-0,003	0,076
-485,678	205,410	0,035	-0,039
-484,664	178,886	-0,015	0,016
-483,649	-200,000	-0,008	-0,116
-482,635	-200,000	-0,043	0,190
-481,620	-7,661	0,111	0,054
-480,605	-24,505	0,142	0,061
-479,591	86,842	0,041	0,032
-478,576	595,843	-0,032	0,058
-477,562	20,404	0,123	-0,071
-476,547	-200,000	-0,007	-0,055
-475,532	-1,972	0,130	-0,066
-474,518	-7,054	-0,036	-0,017
-473,503	-200,000	-0,003	-0,061
-472,489	-200,000	-0,003	0,061
-471,474	-111,494	-0,133	0,019
-470,459	361,240	-0,066	0,096
-469,445	218,668	-0,124	-0,142
-468,430	-7,738	0,111	-0,054
-467,416	-121,243	-0,143	-0,017
-466,401	92,081	0,146	0,118
-465,386	3,749	-0,070	0,037
-464,372	435,231	0,064	0,101
-463,357	337,753	-0,029	0,041
-462,343	800,000	0,049	-0,117
-461,328	-169,959	-0,185	0,005
-460,313	-136,608	-0,046	0,004
-459,299	-200,000	0,004	-0,055
-458,284	800,000	0,071	0,181
-457,270	174,968	0,040	0,042
-456,255	315,510	0,037	0,050
-455,241	-82,756	0,064	0,015
-454,226	549,020	0,035	0,061
-453,211	-34,883	0,114	0,045
-452,197	800,000	-0,055	0,162
-451,182	800,000	-0,051	0,118
-450,168	165,467	0,100	0,102
-449,153	70,550	0,074	0,055
-448,138	-200,000	-0,033	-0,117
-447,124	38,375	-0,048	-0,031
-446,109	251,585	0,053	0,064
-445,095	374,328	0,087	-0,128
-444,080	-2,866	0,056	0,028
-443,065	468,903	-0,035	-0,057
-442,051	13,926	0,133	0,074
-441,036	800,000	-0,059	-0,141
-440,022	-38,399	-0,092	-0,035
-439,007	800,000	0,059	-0,122
-437,992	-103,112	0,044	-0,007
-436,978	800,000	-0,008	0,019
-435,963	-96,011	-0,113	0,021
-434,949	-200,000	-0,016	0,069
-433,934	596,301	-0,048	-0,086
-432,919	224,116	-0,089	0,103
-431,905	-103,018	0,055	0,009
-430,890	-32,733	0,058	0,023
-429,876	-18,811	-0,037	-0,017
-428,861	-112,208	0,107	-0,015
-427,846	385,858	0,049	0,073
-426,832	-200,000	-0,006	0,055
-425,817	-200,000	0,021	-0,111
-424,803	-190,082	0,002	0,000
-423,788	800,000	0,009	-0,022
-422,773	-200,000	-0,019	0,106
-421,759	-200,000	0,047	0,156
-420,744	-13,896	-0,092	-0,042
-419,730	-200,000	-0,019	0,068
-418,715	-166,873	-0,038	0,001
-417,701	45,915	-0,145	-0,096
-416,686	-58,163	0,116	-0,036
-415,671	-66,823	0,136	-0,038
-414,657	800,000	0,048	0,148
-413,642	288,728	0,057	-0,074
-412,628	-98,416	0,061	0,011
-411,613	-2,736	-0,122	0,061
-410,598	-62,670	0,074	-0,022
-409,584	-200,000	-0,006	0,074
-408,569	3,645	-0,138	0,072
-407,555	648,722	0,019	0,035
-406,540	800,000	0,022	-0,058
-405,525	-136,355	-0,143	-0,012
-404,511	-200,000	-0,006	-0,115
-403,496	23,315	-0,035	0,020
-402,482	800,000	0,011	-0,033
-401,467	-200,000	-0,030	0,099
-400,452	800,000	-0,023	-0,055
-399,438	800,000	0,054	-0,152
-398,423	-60,425	-0,110	0,033
-397,409	130,134	-0,039	-0,035
-396,394	123,378	0,016	-0,014
-395,379	-167,870	-0,154	-0,004
-394,365	-168,018	0,098	-0,003
-393,350	-71,683	0,088	0,024
-392,336	-118,992	-0,066	0,008
-391,321	106,852	0,156	-0,133
-390,306	-200,000	-0,025	-0,082
-389,292	-60,836	-0,061	0,018
-388,277	-40,716	0,050	-0,018
-387,263	-114,216	0,194	-0,027
-386,248	-200,000	-0,005	-0,063
-385,233	16,564	-0,068	0,038
-384,219	78,819	-0,081	-0,062
-383,204	113,688	-0,064	-0,056
-382,190	-93,253	-0,113	-0,022
-381,175	14,914	0,179	-0,100
-380,160	188,753	-0,054	0,058
-379,146	-169,302	0,056	-0,001
-378,131	-74,283	0,060	-0,015
-377,117	-200,000	-0,012	0,090
-376,102	108,271	-0,047	0,041
-375,088	-200,000	-0,034	-0,120
-374,073	-57,828	0,059	-0,018
-373,058	76,020	0,023	0,018
-372,044	-200,000	0,001	-0,031
-371,029	94,637	0,056	0,046
-370,015	286,231	-0,073	0,094
-369,000	354,286	0,054	0,077
-367,985	-142,973	0,107	-0,007
-366,971	265,238	0,092	-0,115
-365,956	-131,692	-0,050	-0,005
-364,942	-200,000	0,016	0,179
-363,927	-200,000	-0,007	0,066
-362,912	74,831	-0,098	0,074
-361,898	800,000	-0,021	-0,041
-360,883	339,910	-0,035	-0,049
-359,869	-90,863	0,072	0,015
-358,854	219,646	0,024	-0,027
-357,839	800,000	-0,033	0,084
-356,825	800,000	-0,023	0,053
-355,810	102,687	0,096	0,080
-354,796	96,095	-0,053	0,043
-353,781	32,559	-0,025	0,015
-352,766	-73,629	0,077	0,020
-351,752	-146,379	-0,063	-0,004
-350,737	-200,000	-0,018	-0,074
-349,723	146,979	-0,046	0,045
-348,708	-101,922	-0,075	0,013
-347,693	719,228	0,066	0,126
-346,679	-109,636	0,088	-0,013
-345,664	-65,145	-0,023	-0,006
-344,650	-200,000	-0,010	0,036
-343,635	324,650	0,019	0,026
-342,620	800,000	-0,027	-0,079
-341,606	-60,566	0,040	-0,012
-340,591	-58,177	-0,158	-0,049
-339,577	800,000	-0,050	-0,140
-338,562	-200,000	-0,000	0,002
-337,548	266,133	-0,012	-0,015
-336,533	-86,986	0,166	0,036
-335,518	-118,264	0,027	0,003
-334,504	800,000	0,039	0,104
-333,489	-42,292	-0,039	0,014
-332,475	-18,998	-0,108	-0,048
-331,460	800,000	-0,048	0,118
-330,445	-69,037	-0,041	-0,011
-329,431	367,522	0,093	0,135
-328,416	-200,000	-0,018	-0,072
-327,402	-108,391	-0,008	-0,001
-326,387	-77,607	-0,054	-0,013
-325,372	-6,808	-0,135	-0,066
-324,358	-200,000	0,020	0,077
-323,343	172,384	0,053	0,054
-322,329	800,000	-0,012	0,028
-321,314	-200,000	-0,008	0,027
-320,299	-62,025	-0,019	0,006
-319,285	-121,783	0,094	0,011
-318,270	449,860	-0,066	0,105
-317,256	287,991	0,017	-0,022
-316,241	800,000	0,032	0,077
-315,226	-200,000	0,018	-0,164
-314,212	284,555	-0,012	0,016
-313,197	254,200	0,088	0,108
-312,183	-54,871	0,202	0,065
-311,168	-28,214	-0,069	0,028
-310,153	800,000	-0,009	-0,019
-309,139	-65,181	-0,116	-0,033
-308,124	-200,000	0,010	0,138
-307,110	-103,893	-0,107	0,018
-306,095	-122,048	0,133	0,015
-305,080	-200,000	0,014	0,065
-304,066	-22,326	0,128	0,055
-303,051	9,616	-0,060	0,032
-302,037	-200,000	0,019	-0,077
-301,022	424,801	-0,009	0,014
-300,008	569,875	0,091	0,159
-298,993	327,294	-0,082	0,113
-297,978	800,000	0,029	0,074
-296,964	-3,307	-0,049	0,024
-295,949	-15,698	-0,041	0,019
-294,935	-200,000	0,016	-0,114
-293,920	207,505	-0,049	-0,055
-292,905	116,265	0,079	0,069
-291,891	352,265	0,096	-0,136
-290,876	194,194	-0,042	0,045
-289,862	-122,510	-0,081	0,009
-288,847	-10,514	0,066	-0,031
-287,832	-200,000	-0,002	0,026
-286,818	-200,000	-0,015	-0,119
-285,803	719,793	0,020	-0,038
-284,789	-200,000	-0,002	0,066
-283,774	800,000	-0,057	0,154
-282,759	-188,463	-0,027	0,000
-281,745	168,337	0,099	-0,101
-280,730	-200,000	0,004	-0,070
-279,716	-200,000	0,015	0,126
-278,701	-154,431	-0,154	0,007
-277,686	12,890	0,050	0,027
-276,672	-143,098	0,127	-0,009
-275,657	93,264	-0,030	-0,024
-274,643	-200,000	0,005	-0,076
-273,628	-200,000	0,002	-0,053
-272,613	275,948	-0,011	-0,014
-271,599	86,161	0,041	-0,032
-270,584	370,231	0,028	0,041
-269,570	-105,023	-0,118	0,019
-268,555	12,456	0,074	0,041
-267,540	361,167	0,058	-0,083
-266,526	800,000	0,021	-0,052
-265,511	-86,883	-0,068	0,015
-264,497	35,840	0,181	0,114
-263,482	-64,432	0,090	-0,026
-262,467	252,603	0,120	0,147
-261,453	144,347	0,005	-0,005
-260,438	32,757	0,055	0,034
-259,424	662,399	-0,071	-0,131
-258,409	314,069	0,079	-0,106
-257,395	135,743	0,053	-0,049
-256,380	42,786	0,202	0,131
-255,365	-71,251	-0,057	0,015
-254,351	-1,972	0,072	0,036
-253,336	800,000	-0,031	-0,091
-252,322	153,395	-0,128	-0,125
-251,307	-121,535	-0,064	-0,007
-250,292	-160,793	0,149	0,006
-249,278	46,838	0,139	0,092
-248,263	104,640	0,061	-0,051
-247,249	-200,000	0,013	-0,149
-246,234	-2,087	-0,086	-0,043
-245,219	800,000	0,041	0,091
-244,205	-70,406	-0,112	-0,030
-243,190	64,937	-0,038	-0,028
-242,176	-8,781	0,194	0,092
-241,161	-15,540	0,059	0,027
-240,146	2,975	0,070	-0,036
-239,132	800,000	-0,033	-0,087
-238,117	-69,195	0,098	-0,027
-237,103	800,000	0,043	0,090
-236,088	161,199	0,099	0,098
-235,073	800,000	0,056	-0,163
-234,059	257,271	0,080	-0,098
-233,044	-107,760	0,040	0,006
-232,030	-179,409	-0,036	0,001
-231,015	800,000	-0,080	0,171
-230,000	289,315	0,072	-0,093
-228,986	18,665	-0,128	-0,073
-227,971	-200,000	0,018	0,084
-226,957	-137,767	0,061	-0,005
-225,942	800,000	-0,033	-0,086
-224,927	-200,000	-0,003	-0,058
-223,913	-58,816	0,031	0,009
-222,898	768,544	-0,022	-0,042
-221,884	800,000	0,019	0,042
-220,869	-200,000	0,008	-0,043
-219,855	-200,000	-0,024	0,260
-218,840	248,526	0,101	0,122
-217,825	800,000	0,087	0,175
-216,811	439,093	0,033	-0,052
-215,796	63,908	-0,081	0,058
-214,782	-200,000	0,016	0,075
-213,767	-200,000	-0,008	-0,091
-212,752	800,000	0,028	-0,063
-211,738	392,124	0,069	0,102
-210,723	-115,602	-0,048	0,006
-209,709	-83,136	-0,106	-0,024
-208,694	-30,939	-0,147	-0,059
-207,679	-163,563	0,192	-0,006
-206,665	293,398	0,055	0,072
-205,650	470,704	-0,042	0,068
-204,636	-28,313	-0,089	0,037
-203,621	245,640	0,038	-0,045
-202,606	-200,000	0,004	-0,025
-201,592	-200,000	0,037	-0,180
-200,577	-14,902	-0,160	-0,073
-199,563	464,338	0,051	-0,082
-198,548	-200,000	0,008	-0,038
-197,533	51,314	-0,058	-0,039
-196,519	57,155	0,065	-0,045
-195,504	-83,596	-0,113	-0,025
-194,490	-73,910	-0,029	-0,007
-193,475	-14,911	-0,112	-0,051
-192,460	-147,483	0,169	0,010
-191,446	-35,607	-0,140	0,054
-190,431	184,445	0,109	0,115
-189,417	-200,000	0,025	-0,112
-188,402	-43,183	-0,028	-0,010
-187,387	800,000	-0,055	-0,168
-186,373	75,843	-0,074	0,056
-185,358	-65,864	-0,048	0,014
-184,344	490,665	0,024	0,039
-183,329	800,000	0,032	-0,090
-182,315	800,000	-0,048	0,126
-181,300	380,109	-0,066	-0,097
-180,285	-17,965	-0,154	-0,068
-179,271	-200,000	-0,025	-0,110
-178,256	179,056	-0,047	-0,049
-177,242	-4,019	0,100	-0,049
-176,227	52,170	0,006	0,004
-175,212	-144,569	-0,058	-0,004
-174,198	-68,470	0,165	0,045
-173,183	65,022	-0,031	-0,022
-172,169	303,039	-0,082	-0,109
-171,154	800,000	-0,048	-0,102
-170,139	-129,223	0,036	0,004
-169,125	123,001	0,039	0,034
-168,110	-200,000	0,023	0,137
-167,096	-148,327	0,100	0,006
-166,081	-61,924	-0,075	-0,022
-165,066	-44,477	0,088	-0,031
-164,052	-200,000	-0,006	0,022
-163,037	-159,134	-0,036	0,001
-162,023	800,000	0,047	0,095
-161,008	563,727	0,070	0,121
-159,993	683,831	0,035	-0,066
-158,979	446,989	-0,054	0,085
-157,964	121,495	-0,020	0,017
-156,950	-96,486	0,182	0,034
-155,935	-200,000	0,039	-0,124
-154,920	-200,000	-0,059	0,213
-153,906	800,000	-0,036	-0,078
-152,891	800,000	-0,078	0,222
-151,877	178,615	-0,008	-0,009
-150,862	-156,413	-0,139	0,006
-149,847	-200,000	0,003	-0,111
-148,833	-170,443	0,039	-0,001
-147,818	-14,432	-0,095	0,043
-146,804	366,368	0,008	-0,012
-145,789	800,000	-0,023	0,050
-144,775	139,650	-0,066	-0,061
-143,760	529,076	0,008	0,013
-142,745	-200,000	-0,007	-0,139
-141,731	800,000	-0,020	0,048
-140,716	800,000	0,075	-0,173
-139,702	77,210	-0,046	0,034
-138,687	-111,801	-0,015	0,002
-137,672	-200,000	0,002	0,009
-136,658	473,725	0,025	-0,040
-135,643	-200,000	0,004	0,108
-134,629	800,000	-0,021	-0,052
-133,614	528,323	0,060	0,101
-132,599	66,675	0,080	0,057
-131,585	239,425	-0,042	-0,050
-130,570	-200,000	0,008	0,083
-129,556	-70,950	0,109	-0,029
-128,541	-135,056	-0,377	-0,032
-127,526	-200,000	0,008	-0,031
-126,512	-200,000	-0,009	0,097
-125,497	444,604	-0,000	0,000
-124,483	-10,982	0,040	-0,019
-123,468	800,000	-0,037	-0,096
-122,453	-200,000	-0,036	-0,157
-121,439	-61,334	-0,197	0,059
-120,424	-5,294	0,177	-0,086
-119,410	800,000	0,065	0,132
-118,395	-40,231	-0,083	0,030
-117,380	-140,018	0,123	0,009
-116,366	-200,000	0,026	-0,113
-115,351	103,148	-0,037	-0,031
-114,337	356,810	0,022	0,032
-113,322	-23,003	0,090	-0,038
-112,307	-42,183	0,109	0,039
-111,293	-200,000	0,031	0,100
-110,278	-200,000	0,003	0,060
-109,264	-200,000	0,004	0,067
-108,249	-59,393	0,111	-0,034
-107,234	330,642	0,054	-0,074
-106,220	-200,000	-0,022	-0,122
-105,205	150,542	0,024	0,023
-104,191	-200,000	-0,022	0,087
-103,176	24,288	0,060	0,035
-102,162	-54,027	-0,070	0,023
-101,147	800,000	-0,048	-0,117
-100,132	758,773	-0,013	0,025
-99,118	-103,250	-0,053	0,009
-98,103	-44,306	0,109	-0,039
-97,089	559,043	0,047	0,082
-96,074	117,903	0,051	0,044
-95,059	800,000	-0,015	-0,037
-94,045	-24,002	-0,111	0,047
-93,030	-200,000	0,021	0,093
-92,016	-43,879	-0,072	0,025
-91,001	319,123	0,092	-0,123
-89,986	272,495	-0,057	0,071
-88,972	-111,461	0,088	-0,013
-87,957	-18,484	-0,054	0,024
-86,943	107,181	0,035	0,029
-85,928	-200,000	-0,001	-0,148
-84,913	-200,000	-0,004	-0,170
-83,899	8,411	0,059	-0,031
-82,884	-200,000	0,000	0,124
-81,870	270,340	0,058	0,072
-80,855	500,485	0,023	-0,038
-79,840	-200,000	-0,047	0,160
-78,826	472,854	-0,035	-0,055
-77,811	-118,312	-0,155	0,019
-76,797	800,000	-0,047	0,104
-75,782	381,665	0,049	0,072
-74,767	375,450	-0,113	0,164
-73,753	21,641	0,122	0,070
-72,738	-200,000	-0,023	-0,105
-71,724	-200,000	0,004	-0,047
-70,709	800,000	-0,060	-0,185
-69,694	603,289	-0,114	-0,201
-68,680	430,004	-0,113	0,174
-67,665	107,853	-0,032	0,027
-66,651	88,981	-0,061	-0,048
-65,636	-200,000	0,005	-0,067
-64,622	145,001	0,008	0,008
-63,607	-114,261	-0,137	0,018
-62,592	253,679	-0,050	0,060
-61,578	800,000	-0,068	-0,135
-60,563	78,156	0,073	0,055
-59,549	-116,710	-0,166	0,021
-58,534	-6,481	-1,460	-0,702
-57,519	477,741	-1,328	-2,135
-56,505	-200,000	-0,462	-4,555
-55,490	223,747	0,955	1,093
-54,476	800,000	4,911	11,418
-53,461	-200,000	19,231	321,089
-52,446	-200,000	741,796	2335,053
-51,432	572,183	1656,025	2867,786
-50,417	78,164	1671,156	1261,368
-49,403	21,259	1544,016	885,486
-48,388	15,145	1466,436	811,257
-47,373	18,032	1456,761	819,831
-46,359	16,665	1446,733	807,595
-45,344	13,394	1441,877	789,183
-44,330	13,269	1440,257	787,666
-43,315	13,286	1438,258	786,625
-42,300	13,327	1436,576	785,867
-41,286	13,332	1435,357	785,192
-40,271	13,285	1434,089	784,247
-39,257	13,298	1432,733	783,533
-38,242	13,349	1431,571	783,108
-37,227	13,312	1430,227	782,169
-36,213	13,312	1428,933	781,427
-35,198	13,329	1427,732	780,824
-34,184	13,391	1427,125	780,756
-33,169	13,363	1425,385	779,636
-32,154	13,371	1424,280	779,039
-31,140	13,367	1423,085	778,335
-30,125	13,408	1422,115	777,968
-29,111	13,368	1421,107	777,198
-28,096	13,344	1419,873	776,377
-27,082	13,300	1418,608	775,448
-26,067	13,285	1417,658	774,828
-25,052	13,285	1416,612	774,227
-24,038	13,237	1415,731	773,487
-23,023	13,247	1414,699	772,942
-22,009	13,266	1413,512	772,349
-20,994	13,256	1412,760	771,860
-19,979	13,219	1411,713	771,083
-18,965	13,257	1410,743	770,703
-17,950	13,258	1409,778	770,153
-16,936	13,211	1408,876	769,406
-15,921	13,225	1407,732	768,819
-14,906	13,188	1406,699	768,047
-13,892	13,264	1405,807	767,888
-12,877	13,196	1405,272	767,246
-11,863	13,176	1404,284	766,584
-10,848	13,161	1403,443	766,025
-9,833	13,153	1402,572	765,480
-8,819	13,122	1401,756	764,859
-7,804	13,136	1400,749	764,347
-6,790	13,098	1399,698	763,564
-5,775	13,113	1398,621	763,018
-4,760	13,071	1397,697	762,289
-3,746	13,082	1396,780	761,809
-2,731	13,072	1395,989	761,299
-1,717	13,061	1395,327	760,859
-0,702	13,065	1393,333	759,760
0,313	16,950	1309,981	732,296
1,327	33,347	703,382	431,076
2,342	51,253	123,264	82,643
3,356	1,054	16,708	8,451
4,371	14,822	3,236	1,785
5,386	0,140	0,664	0,334
6,400	-200,000	-0,022	0,214
7,415	22,703	-0,316	-0,183
8,429	207,379	-0,261	-0,288
9,444	283,822	-0,250	-0,319
10,459	148,686	-0,238	-0,227
11,473	9,827	-0,281	-0,150
12,488	-12,670	-0,400	-0,184
13,502	76,939	-0,305	-0,229
14,517	-44,352	-0,345	-0,121
15,531	122,229	-0,340	-0,301
16,546	-5,290	-0,387	-0,187
17,561	51,807	-0,329	-0,221
18,575	104,273	-0,166	-0,138
19,590	156,351	-0,233	-0,228
20,604	26,635	-0,102	0,060
21,619	130,314	-0,412	-0,372
22,634	141,459	-0,333	-0,311
23,648	155,417	-0,448	-0,436
24,663	200,569	-0,371	-0,404
25,677	83,173	-0,362	-0,278
26,692	-25,463	-0,417	-0,173
27,707	216,596	-0,250	-0,281
28,721	42,507	-0,448	-0,287
29,736	268,591	-0,363	-0,451
30,750	233,981	-0,349	-0,407
31,765	67,021	-0,413	-0,296
32,780	157,046	-0,320	-0,312
33,794	137,899	-0,340	-0,314
34,809	14,166	-0,435	-0,238
35,823	70,771	-0,395	-0,288
36,838	52,243	-0,406	-0,273
37,853	114,887	-0,357	-0,307
38,867	80,375	-0,565	-0,428
39,882	-111,002	-0,397	-0,057
40,896	94,685	-0,420	-0,337
41,911	251,746	-0,250	-0,301
42,926	36,805	-0,346	-0,215
43,940	-15,927	-0,453	-0,202
44,955	191,498	-0,306	-0,325
45,969	30,473	-0,308	-0,185
46,984	126,541	-0,343	-0,306
47,999	113,059	-0,298	-0,255
49,013	-41,337	-0,409	-0,148
50,028	26,649	-0,322	-0,190
51,042	-0,291	-0,445	-0,222
52,057	253,104	-0,254	-0,306
53,071	-62,831	-0,300	-0,087
54,086	38,017	-0,361	-0,226
55,101	82,581	-0,330	-0,252
56,115	267,073	-0,170	-0,209
57,130	-40,381	-0,280	-0,102
58,144	1,513	-0,365	-0,184
59,159	47,782	-0,251	-0,165
60,174	24,988	-0,429	-0,250
61,188	130,259	-0,241	-0,218
62,203	-32,813	-0,284	-0,111
63,217	121,968	-0,351	-0,308
64,232	17,139	-0,241	-0,134
65,247	273,124	-0,166	-0,207
66,261	7,760	-0,387	-0,203
67,276	32,824	-0,341	-0,207
68,290	-94,312	-0,350	-0,067
69,305	6,845	-0,354	-0,185
70,320	-11,093	-0,297	-0,137
71,334	-60,429	-0,330	-0,098
72,349	155,975	-0,302	-0,293
73,363	108,036	-0,340	-0,285
74,378	-27,413	-0,345	-0,140
75,393	-36,449	-0,390	-0,147
76,407	18,232	-0,386	-0,216
77,422	19,672	-0,304	-0,171
78,436	-88,561	-0,326	-0,068
79,451	7,179	-0,317	-0,166
80,466	170,328	-0,277	-0,279
81,480	66,258	-0,308	-0,219
82,495	27,892	-0,382	-0,226
83,509	-9,591	-0,404	-0,189
84,524	92,929	-0,184	-0,146
85,539	122,222	-0,282	-0,247
86,553	236,091	-0,204	-0,238
87,568	34,367	-0,325	-0,199
88,582	114,929	-0,330	-0,283
89,597	296,200	-0,232	-0,300
90,611	14,498	-0,332	-0,182
91,626	88,327	-0,289	-0,225
92,641	307,800	-0,237	-0,311
93,655	-47,125	-0,388	-0,132
94,670	-24,443	-0,304	-0,127
95,684	378,939	-0,179	-0,258
96,699	203,520	-0,221	-0,241
97,714	245,067	-0,199	-0,235
98,728	56,979	-0,320	-0,218
99,743	-46,303	-0,335	-0,115
100,757	48,182	-0,347	-0,228
101,772	127,114	-0,272	-0,242
102,787	90,381	-0,228	-0,179
103,801	439,161	-0,229	-0,352
104,816	501,016	-0,129	-0,209
105,830	183,348	-0,194	-0,201
106,845	245,670	-0,263	-0,311
107,860	59,032	-0,246	-0,170
108,874	-104,775	-0,231	-0,037
109,889	90,073	-0,317	-0,248
110,903	36,435	-0,254	-0,157
111,918	265,467	-0,193	-0,236
112,933	210,999	-0,172	-0,190
113,947	87,249	-0,295	-0,229
114,962	13,667	-0,403	-0,219
115,976	476,759	-0,216	-0,343
116,991	185,264	-0,272	-0,283
118,006	10,860	-0,322	-0,172
119,020	-8,890	-0,291	-0,136
120,035	-25,320	-0,248	-0,102
121,049	36,378	-0,250	-0,154
122,064	-149,404	-0,165	0,009
123,079	-18,505	-0,287	-0,125
124,093	64,510	-0,194	-0,136
125,108	128,246	-0,234	-0,208
126,122	-35,877	-0,209	-0,079
127,137	176,895	-0,130	-0,132
128,151	-2,787	-0,172	-0,084
129,166	102,626	-0,142	-0,116
130,181	-16,824	-0,253	-0,111
131,195	26,277	-0,320	-0,187
132,210	130,859	-0,338	-0,304
133,224	-21,519	-0,177	-0,075
134,239	76,212	-0,201	-0,149
135,254	-22,927	-0,152	-0,064
136,268	-168,778	-0,235	-0,006
137,283	204,121	-0,224	-0,242
138,297	59,312	-0,280	-0,192
139,312	298,814	-0,200	-0,258
140,327	191,197	-0,324	-0,341
141,341	276,133	-0,187	-0,233
142,356	404,683	-0,185	-0,274
143,370	323,547	-0,153	-0,204
144,385	-148,600	-0,255	-0,014
145,400	147,974	-0,217	-0,205
146,414	199,518	-0,184	-0,198
147,429	294,066	-0,230	-0,294
148,443	315,376	-0,181	-0,239
149,458	-60,910	-0,264	-0,078
150,473	-45,767	-0,293	-0,101
151,487	236,135	-0,230	-0,266
152,502	286,677	-0,199	-0,251
153,516	-32,914	-0,207	-0,080
154,531	455,668	-0,123	-0,192
155,546	800,000	-0,169	-0,335
156,560	168,747	-0,185	-0,184
157,575	-83,833	-0,245	-0,054
158,589	158,911	-0,220	-0,214
159,604	-77,045	-0,250	-0,060
160,619	-28,601	-0,236	-0,095
161,633	139,098	-0,269	-0,247
162,648	394,319	-0,103	-0,150
163,662	-55,660	-0,173	-0,054
164,677	114,836	-0,169	-0,143
165,692	260,636	-0,134	-0,162
166,706	-22,116	-0,247	-0,104
167,721	-101,949	-0,243	-0,040
168,735	137,380	-0,246	-0,224
169,750	133,424	-0,213	-0,192
170,764	-105,575	-0,095	-0,015
171,779	-103,793	-0,200	0,032
172,794	14,246	-0,134	0,073
173,808	27,383	-0,318	-0,186
174,823	20,639	-0,329	-0,185
175,837	-52,842	-0,305	-0,097
176,852	108,941	-0,274	-0,228
177,867	223,385	-0,164	-0,185
178,881	321,060	-0,172	-0,228
179,896	-138,271	-0,206	-0,016
180,910	224,430	-0,182	-0,205
181,925	-99,172	-0,194	-0,034
182,940	85,608	-0,204	-0,156
183,954	47,197	-0,251	-0,163
184,969	164,929	-0,174	-0,171
185,983	6,514	-0,160	-0,082
186,998	119,358	-0,201	-0,173
188,013	239,369	-0,198	-0,230
189,027	175,992	-0,160	-0,162
190,042	76,138	-0,285	-0,210
191,056	16,661	-0,224	-0,123
192,071	104,077	-0,167	-0,137
193,086	39,036	-0,309	-0,192
194,100	-69,011	-0,256	-0,068
195,115	25,552	-0,101	-0,058
196,129	-38,984	-0,226	-0,082
197,144	-42,172	-0,266	-0,094
198,159	98,002	-0,205	-0,164
199,173	54,079	-0,123	-0,082
200,188	102,804	-0,185	-0,150
201,202	-40,390	-0,173	-0,062
202,217	226,090	-0,139	-0,157
203,232	486,370	-0,100	-0,159
204,246	-67,787	-0,234	-0,063
205,261	197,186	-0,125	-0,133
206,275	61,766	-0,136	-0,094
207,290	199,855	-0,107	-0,115
208,304	-200,000	-0,258	0,001
209,319	759,486	-0,143	-0,270
210,334	236,665	-0,209	-0,241
211,348	19,498	-0,180	-0,100
212,363	-59,147	-0,258	-0,077
213,377	-200,000	-0,053	-0,304
214,392	-21,337	-0,202	-0,085
215,407	125,680	-0,063	0,056
216,421	60,363	-0,191	-0,131
217,436	-35,818	-0,306	-0,115
218,450	386,174	-0,221	-0,317
219,465	-73,913	-0,191	-0,048
220,480	436,469	-0,111	-0,168
221,494	128,275	-0,157	-0,139
222,509	284,722	-0,025	-0,031
223,523	131,740	-0,167	-0,149
224,538	49,004	-0,215	-0,140
225,553	306,657	-0,139	-0,179
226,567	117,714	-0,204	-0,174
227,582	301,889	-0,168	-0,216
228,596	122,501	-0,177	-0,153
229,611	-29,581	-0,226	-0,089
230,626	-4,443	-0,209	-0,100
231,640	642,350	-0,148	-0,262
232,655	-73,128	-0,239	-0,060
233,669	800,000	-0,143	-0,358
234,684	68,382	-0,188	-0,133
235,699	-16,817	-0,197	-0,086
236,713	99,536	-0,046	-0,036
237,728	-107,274	-0,173	0,026
238,742	-3,506	-0,218	0,105
239,757	437,517	-0,107	-0,161
240,772	130,240	-0,217	-0,192
241,786	104,230	-0,185	-0,151
242,801	56,763	-0,191	-0,129
243,815	502,985	-0,058	-0,093
244,830	-16,144	-0,174	-0,076
245,844	427,120	-0,086	-0,129
246,859	154,466	-0,183	-0,174
247,874	-72,362	-0,234	-0,060
248,888	123,769	-0,159	-0,138
249,903	723,064	-0,083	-0,154
250,917	3,831	-0,275	-0,139
251,932	414,581	-0,173	-0,256
252,947	-32,989	-0,110	-0,042
253,961	171,769	-0,155	-0,154
254,976	410,730	-0,131	-0,193
255,990	800,000	-0,069	-0,173
257,005	-147,049	-0,218	-0,013
258,020	-44,035	-0,092	-0,032
259,034	-19,017	-0,225	-0,096
260,049	213,705	-0,108	-0,118
261,063	436,484	-0,194	-0,292
262,078	-200,000	-0,057	-0,293
263,093	-90,425	-0,175	0,035
264,107	197,698	-0,196	-0,207
265,122	-94,494	-0,171	-0,032
266,136	-140,138	-0,254	-0,018
267,151	-33,098	-0,109	0,042
268,166	172,438	-0,110	-0,110
269,180	17,115	-0,220	-0,120
270,195	800,000	-0,059	-0,120
271,209	-92,761	-0,150	-0,029
272,224	141,708	-0,216	-0,198
273,239	-86,467	-0,058	-0,012
274,253	248,482	-0,081	-0,094
275,268	649,444	-0,089	-0,159
276,282	800,000	-0,121	-0,254
277,297	22,674	-0,245	-0,138
278,312	290,652	-0,165	-0,208
279,326	41,244	-0,128	-0,080
280,341	106,275	-0,094	-0,077
281,355	149,099	-0,113	-0,105
282,370	288,224	-0,138	-0,173
283,384	-93,200	-0,246	-0,047
284,399	523,116	-0,135	-0,220
285,414	-77,741	-0,269	-0,064
286,428	116,205	-0,138	-0,116
287,443	657,000	-0,068	-0,122
288,457	15,430	-0,119	-0,065
289,472	549,656	-0,027	-0,045
290,487	32,654	-0,156	-0,093
291,501	-1,489	-0,328	-0,159
292,516	-200,000	-0,068	-0,248
293,530	148,018	-0,169	-0,157
294,545	207,740	-0,131	-0,142
295,560	114,881	-0,083	0,070
296,574	76,550	-0,135	-0,099
297,589	291,339	-0,107	-0,135
298,603	409,895	-0,146	-0,215
299,618	-58,945	-0,244	-0,072
300,633	-50,515	-0,101	-0,033
301,647	-48,353	-0,244	-0,080
302,662	-71,752	-0,268	-0,068
303,676	-47,731	-0,172	-0,057
304,691	-14,114	-0,223	-0,099
305,706	800,000	-0,074	-0,216
306,720	97,270	-0,143	-0,113
307,735	10,499	-0,092	-0,048
308,749	-107,349	-0,192	-0,029
309,764	-114,752	-0,162	-0,021
310,779	-77,519	-0,224	-0,053
311,793	7,793	-0,199	-0,102
312,808	-71,619	-0,312	-0,080
313,822	-44,348	-0,299	-0,103
314,837	90,587	-0,210	-0,161
315,852	800,000	-0,020	-0,038
316,866	-128,194	-0,096	0,009
317,881	-85,569	-0,075	0,016
318,895	-66,327	-0,137	-0,037
319,910	-200,000	-0,241	0,000
320,925	267,221	-0,148	-0,178
321,939	333,725	-0,173	-0,231
322,954	4,924	-0,156	-0,078
323,968	800,000	-0,016	0,031
324,983	-128,590	-0,066	0,006
325,997	701,844	-0,094	-0,171
327,012	172,520	-0,128	-0,127
328,027	800,000	-0,093	-0,187
329,041	174,915	-0,097	-0,097
330,056	-200,000	-0,018	-0,174
331,070	129,041	-0,182	-0,160
332,085	-124,800	-0,099	-0,010
333,100	4,483	-0,173	-0,087
334,114	188,666	-0,155	-0,159
335,129	231,268	-0,124	-0,140
336,143	-54,399	-0,258	-0,080
337,158	509,774	-0,057	-0,092
338,173	-200,000	-0,010	-0,092
339,187	-93,649	-0,155	-0,029
340,202	-26,232	-0,094	-0,038
341,216	333,257	-0,138	-0,184
342,231	257,280	-0,139	-0,164
343,246	267,079	-0,084	-0,100
344,260	-200,000	0,007	0,060
345,275	-181,666	-0,145	-0,002
346,289	-48,374	-0,085	-0,028
347,304	171,583	-0,166	-0,164
348,319	412,416	-0,091	-0,132
349,333	295,025	-0,147	-0,186
350,348	86,062	-0,203	-0,153
351,362	-29,258	-0,226	-0,089
352,377	90,879	-0,135	-0,104
353,392	800,000	-0,088	-0,236
354,406	760,509	-0,072	-0,134
355,421	209,280	1312,939	1412,643
356,435	161,069	1473,436	1413,139
