DTS Sentinel unit serial number:	SN410029Multiplexer serial number:	ORYXHardware model number:	OX2-SRSoftware version number:	ORYX F/W v4,00 Oryx Data Collector v3.7.2.0data status	okinstallation	B3 Nyhavnadifferential loss correction	single-endedforward channel	channel 1reverse channel	N/Adate	2023/11/30time	01:32:30forward acquisition time	300,00reverse acquisition time	0,00gamma	499,1914k internal	0,3210k external	0,3210temperature offset calibration	1,0000default loss term (dB/km)	0,3820temperature slope calibration	1,0000multiplexer offset coefficient	1,0000multiplexer slope coefficient	1,0000fibre end	0,00T internal ref (°C)	10,64T ext. ref 1 (°C)	-4,97T ext. ref 2 (°C)	-5,09length (m)	temperature (°C)	Stokes	anti-Stokes-744,400	800,000	-0,074	-0,178
-743,385	-200,000	-0,031	0,360
-742,371	-49,096	-0,260	-0,090
-741,356	-200,000	-0,063	0,362
-740,342	204,869	-0,195	-0,220
-739,327	-200,000	-0,046	0,159
-738,312	800,000	-0,084	-0,263
-737,298	800,000	-0,090	0,214
-736,283	478,731	-0,098	-0,161
-735,269	-200,000	-0,049	0,380
-734,254	174,070	-0,135	-0,142
-733,239	40,068	-0,285	0,185
-732,225	-200,000	-0,067	-0,236
-731,210	146,951	0,227	0,222
-730,196	55,622	-0,153	-0,107
-729,181	-200,000	-0,051	-0,208
-728,167	-200,000	-0,003	-0,014
-727,152	-21,336	-0,075	0,033
-726,137	800,000	0,010	0,028
-725,123	800,000	-0,059	0,128
-724,108	-58,675	-0,101	-0,032
-723,094	-200,000	-0,029	-0,135
-722,079	800,000	0,023	-0,048
-721,064	-200,000	-0,008	-0,190
-720,050	51,458	-0,040	0,027
-719,035	-200,000	-0,010	0,135
-718,021	-35,602	-0,072	-0,028
-717,006	57,320	-0,111	-0,078
-715,991	3,066	-0,061	-0,032
-714,977	166,033	-0,029	0,030
-713,962	123,103	0,149	-0,135
-712,948	800,000	0,048	-0,104
-711,933	-50,166	0,059	0,020
-710,918	-116,654	-0,068	-0,009
-709,904	-200,000	-0,005	-0,100
-708,889	-200,000	0,012	-0,177
-707,875	227,915	-0,105	-0,124
-706,860	336,034	-0,024	0,034
-705,845	588,840	-0,039	-0,070
-704,831	21,118	-0,063	-0,037
-703,816	800,000	-0,064	0,131
-702,802	-200,000	0,011	0,154
-701,787	-200,000	0,017	-0,133
-700,772	78,453	-0,143	-0,110
-699,758	-200,000	-0,001	-0,087
-698,743	76,429	-0,096	0,074
-697,729	-30,782	0,041	0,017
-696,714	125,566	0,076	0,070
-695,699	92,696	-0,106	-0,087
-694,685	-117,139	0,018	-0,002
-693,670	54,759	-0,086	-0,060
-692,656	-200,000	-0,013	0,081
-691,641	-200,000	0,041	-0,137
-690,627	800,000	0,040	-0,120
-689,612	29,045	-0,056	0,034
-688,597	-200,000	0,010	-0,091
-687,583	-200,000	0,029	-0,162
-686,568	800,000	0,024	-0,054
-685,554	429,727	0,026	0,041
-684,539	-172,746	-0,082	0,002
-683,524	-200,000	0,009	0,059
-682,510	-200,000	-0,003	0,153
-681,495	-200,000	0,002	-0,068
-680,481	-178,379	-0,110	0,002
-679,466	180,700	-0,137	-0,146
-678,451	756,074	0,039	0,076
-677,437	65,576	0,027	-0,019
-676,422	139,501	-0,112	0,106
-675,408	-171,090	0,105	-0,003
-674,393	-200,000	0,006	0,039
-673,378	196,941	-0,101	-0,112
-672,364	313,490	-0,018	-0,024
-671,349	21,099	0,050	-0,029
-670,335	-200,000	0,011	-0,086
-669,320	449,740	0,019	0,030
-668,305	634,010	-0,056	0,104
-667,291	43,104	0,158	-0,104
-666,276	116,954	-0,081	-0,072
-665,262	800,000	-0,025	-0,080
-664,247	800,000	-0,051	-0,115
-663,232	316,868	-0,038	-0,052
-662,218	-17,584	-0,062	0,028
-661,203	293,998	0,030	0,039
-660,189	-33,226	0,040	0,016
-659,174	-122,794	-0,024	-0,003
-658,159	-200,000	-0,025	-0,124
-657,145	-56,529	-0,067	-0,021
-656,130	227,084	-0,015	0,017
-655,116	122,361	0,046	-0,042
-654,101	256,663	0,044	-0,054
-653,086	-37,501	-0,199	-0,076
-652,072	-200,000	-0,004	-0,079
-651,057	534,845	0,035	-0,061
-650,043	800,000	0,033	-0,095
-649,028	800,000	-0,033	-0,093
-648,014	17,902	0,052	-0,030
-646,999	176,628	-0,063	0,066
-645,984	-120,952	-0,135	0,016
-644,970	25,119	0,041	0,024
-643,955	236,675	-0,090	-0,108
-642,941	-152,624	0,091	0,005
-641,926	120,707	0,057	-0,052
-640,911	-200,000	-0,009	-0,069
-639,897	-118,096	-0,052	0,007
-638,882	95,726	-0,058	0,048
-637,868	-163,525	-0,179	0,006
-636,853	668,986	-0,111	-0,208
-635,838	-175,401	-0,077	0,001
-634,824	765,538	0,098	0,193
-633,809	-200,000	0,024	-0,143
-632,795	-161,022	-0,075	0,003
-631,780	642,103	0,056	0,104
-630,765	457,372	-0,020	-0,032
-629,751	65,892	-0,074	-0,054
-628,736	-200,000	-0,029	-0,161
-627,722	-62,131	-0,097	-0,029
-626,707	-200,000	0,018	-0,063
-625,692	-49,039	-0,072	0,025
-624,678	-100,208	0,093	-0,017
-623,663	171,216	-0,065	0,068
-622,649	86,411	-0,022	0,018
-621,634	349,329	-0,108	-0,154
-620,619	585,320	-0,068	-0,122
-619,605	-184,516	0,153	-0,002
-618,590	-85,824	0,030	0,007
-617,576	384,980	-0,039	0,059
-616,561	33,911	-0,046	-0,029
-615,546	351,340	0,070	-0,101
-614,532	-98,457	0,112	-0,021
-613,517	800,000	-0,050	-0,104
-612,503	800,000	0,049	-0,123
-611,488	-200,000	0,003	-0,191
-610,474	565,301	0,092	0,162
-609,459	31,516	-0,162	0,100
-608,444	-200,000	-0,017	0,057
-607,430	800,000	0,026	-0,070
-606,415	-141,848	-0,109	0,008
-605,401	800,000	0,036	0,108
-604,386	622,803	0,121	0,222
-603,371	205,421	-0,077	-0,087
-602,357	800,000	0,010	-0,031
-601,342	-92,314	0,053	0,011
-600,328	708,102	0,076	-0,145
-599,313	569,016	0,079	-0,138
-598,298	63,677	-0,150	-0,108
-597,284	-153,738	0,150	0,007
-596,269	170,063	0,071	0,073
-595,255	800,000	0,017	-0,052
-594,240	-116,940	-0,131	0,017
-593,225	-200,000	0,009	-0,108
-592,211	-200,000	0,018	-0,139
-591,196	609,736	-0,015	0,027
-590,182	-21,278	-0,048	-0,021
-589,167	-200,000	0,016	0,116
-588,152	-88,691	-0,056	0,012
-587,138	-200,000	-0,018	-0,073
-586,123	170,076	0,033	-0,034
-585,109	399,333	-0,091	-0,138
-584,094	800,000	0,009	0,027
-583,079	-200,000	0,014	0,133
-582,065	800,000	0,031	-0,077
-581,050	-42,787	-0,091	-0,033
-580,036	213,202	0,034	0,039
-579,021	225,350	-0,079	0,092
-578,006	255,873	-0,066	-0,082
-576,992	-48,339	-0,023	0,008
-575,977	-7,765	0,060	-0,029
-574,963	-200,000	-0,006	-0,188
-573,948	-200,000	0,007	0,121
-572,934	800,000	0,025	0,076
-571,919	86,836	-0,055	0,044
-570,904	-200,000	0,002	-0,089
-569,890	166,786	-0,104	-0,106
-568,875	-200,000	0,000	0,022
-567,861	442,562	0,027	0,042
-566,846	-32,001	0,088	-0,035
-565,831	-200,000	-0,002	0,119
-564,817	800,000	-0,029	-0,059
-563,802	-53,174	-0,036	-0,012
-562,788	-200,000	-0,001	-0,022
-561,773	-172,593	-0,070	-0,002
-560,758	-74,506	-0,062	0,016
-559,744	453,629	0,045	0,073
-558,729	-84,778	-0,109	0,024
-557,715	-200,000	0,005	0,109
-556,700	196,376	0,121	-0,133
-555,685	-77,288	-0,135	-0,034
-554,671	800,000	0,041	0,127
-553,656	-108,505	0,099	-0,015
-552,642	98,369	0,084	0,070
-551,627	-200,000	0,012	0,073
-550,612	-18,481	0,080	-0,036
-549,598	-200,000	-0,046	-0,241
-548,583	-30,392	-0,071	-0,029
-547,569	800,000	-0,042	0,127
-546,554	800,000	0,098	0,225
-545,539	-19,752	0,141	0,062
-544,525	641,343	-0,036	0,067
-543,510	191,774	0,007	-0,008
-542,496	170,607	0,068	-0,070
-541,481	296,053	-0,070	-0,092
-540,466	-200,000	0,033	0,109
-539,452	465,390	0,083	-0,134
-538,437	68,263	0,033	0,024
-537,423	800,000	-0,070	-0,147
-536,408	-121,744	-0,132	0,016
-535,393	800,000	0,046	-0,103
-534,379	303,576	-0,095	-0,127
-533,364	-59,048	-0,119	0,037
-532,350	49,677	0,122	0,082
-531,335	508,976	0,038	-0,064
-530,321	111,961	-0,004	-0,004
-529,306	800,000	0,025	-0,056
-528,291	-200,000	-0,003	-0,017
-527,277	-200,000	0,007	0,042
-526,262	800,000	-0,034	0,087
-525,248	56,432	0,066	-0,046
-524,233	29,178	0,116	-0,071
-523,218	-56,391	0,134	-0,043
-522,204	800,000	0,013	0,035
-521,189	-29,735	-0,187	-0,076
-520,175	441,286	-0,024	0,039
-519,160	-78,474	-0,115	0,028
-518,145	149,975	0,104	0,102
-517,131	-106,981	0,121	0,019
-516,116	48,544	0,066	0,044
-515,102	50,384	-0,030	0,020
-514,087	-34,791	0,040	-0,015
-513,072	-33,098	-0,134	-0,053
-512,058	800,000	0,025	0,059
-511,043	-200,000	0,022	0,141
-510,029	800,000	-0,025	0,061
-509,014	-200,000	0,007	-0,069
-507,999	790,428	0,031	-0,062
-506,985	800,000	-0,060	-0,140
-505,970	168,015	-0,019	0,020
-504,956	800,000	-0,016	-0,035
-503,941	255,317	0,018	-0,022
-502,926	-88,465	-0,029	0,006
-501,912	-200,000	0,011	0,042
-500,897	-4,618	0,078	0,038
-499,883	-200,000	0,004	-0,051
-498,868	-9,035	-0,042	0,020
-497,853	100,352	0,074	-0,062
-496,839	5,915	-0,102	-0,054
-495,824	-200,000	-0,041	-0,135
-494,810	432,799	0,049	0,077
-493,795	-200,000	-0,027	-0,106
-492,781	-200,000	-0,011	-0,051
-491,766	-140,789	0,049	0,004
-490,751	-92,811	-0,187	-0,037
-489,737	285,560	-0,086	-0,111
-488,722	127,436	-0,044	0,040
-487,708	-200,000	0,003	0,146
-486,693	-29,013	0,070	0,029
-485,678	358,644	0,091	-0,131
-484,664	297,305	-0,080	-0,105
-483,649	-200,000	0,023	-0,173
-482,635	158,280	0,091	0,091
-481,620	162,243	0,058	-0,058
-480,605	168,652	0,046	0,047
-479,591	-200,000	-0,014	0,093
-478,576	-200,000	0,018	0,181
-477,562	107,695	-0,075	-0,064
-476,547	800,000	0,040	-0,080
-475,532	800,000	-0,049	-0,099
-474,518	-146,199	0,037	-0,002
-473,503	-134,299	0,176	-0,015
-472,489	-54,657	0,162	-0,052
-471,474	-123,678	-0,061	-0,007
-470,459	-111,429	-0,070	0,010
-469,445	-73,148	-0,076	0,020
-468,430	56,512	0,151	-0,105
-467,416	-200,000	0,001	0,059
-466,401	-96,643	0,158	0,030
-465,386	463,038	-0,077	0,124
-464,372	228,343	0,026	-0,030
-463,357	-23,096	-0,112	-0,048
-462,343	-200,000	-0,014	-0,082
-461,328	-90,650	-0,116	0,024
-460,313	14,063	0,072	-0,040
-459,299	78,256	-0,075	0,058
-458,284	66,885	0,058	0,042
-457,270	65,633	-0,116	0,084
-456,255	529,201	0,032	-0,055
-455,241	112,656	-0,107	-0,093
-454,226	545,930	0,081	-0,140
-453,211	206,474	-0,019	0,022
-452,197	800,000	-0,075	0,150
-451,182	177,615	0,088	0,092
-450,168	-200,000	0,008	0,137
-449,153	115,518	0,049	0,043
-448,138	-200,000	0,016	0,104
-447,124	-160,430	-0,075	-0,003
-446,109	800,000	-0,035	0,079
-445,095	251,211	0,048	-0,058
-444,080	-200,000	0,009	0,063
-443,065	-200,000	-0,015	0,090
-442,051	65,335	0,059	0,043
-441,036	-44,141	-0,054	0,019
-440,022	-200,000	-0,001	-0,037
-439,007	-200,000	-0,009	0,029
-437,992	-135,433	0,058	-0,005
-436,978	-51,158	-0,042	0,014
-435,963	800,000	0,015	0,040
-434,949	800,000	-0,040	0,082
-433,934	-200,000	-0,020	0,091
-432,919	-200,000	-0,010	-0,035
-431,905	265,795	-0,051	-0,064
-430,890	23,251	0,076	0,044
-429,876	603,394	-0,009	-0,016
-428,861	800,000	-0,012	0,029
-427,846	-40,491	-0,081	0,030
-426,832	-200,000	-0,001	-0,064
-425,817	-79,054	-0,088	-0,021
-424,803	397,114	-0,075	0,112
-423,788	249,087	-0,046	-0,056
-422,773	-28,354	0,085	0,035
-421,759	-200,000	0,028	0,096
-420,744	-169,744	0,056	-0,001
-419,730	54,713	0,096	0,066
-418,715	385,934	-0,080	-0,118
-417,701	800,000	0,009	-0,027
-416,686	-2,842	0,077	0,038
-415,671	316,108	0,073	-0,098
-414,657	-36,440	-0,104	0,040
-413,642	-56,336	-0,108	-0,034
-412,628	-44,970	0,153	-0,054
-411,613	24,919	0,066	-0,039
-410,598	-119,477	0,089	-0,011
-409,584	83,240	0,069	0,054
-408,569	150,218	0,122	0,119
-407,555	330,665	-0,046	0,063
-406,540	800,000	0,010	-0,024
-405,525	-200,000	-0,000	-0,087
-404,511	800,000	-0,044	-0,098
-403,496	396,695	0,023	0,034
-402,482	-171,811	0,006	-0,000
-401,467	255,674	0,115	0,142
-400,452	-200,000	0,015	0,061
-399,438	-75,034	0,225	-0,057
-398,423	-74,416	-0,073	-0,019
-397,409	-33,463	-0,189	-0,074
-396,394	-200,000	-0,008	-0,131
-395,379	457,303	-0,030	-0,047
-394,365	-89,451	0,119	-0,025
-393,350	128,802	-0,080	-0,073
-392,336	-122,386	0,084	0,010
-391,321	-127,719	0,042	-0,004
-390,306	-200,000	-0,011	-0,056
-389,292	-200,000	-0,035	-0,196
-388,277	-200,000	-0,012	-0,115
-387,263	800,000	0,074	-0,149
-386,248	-134,009	0,181	0,016
-385,233	-30,319	0,075	-0,030
-384,219	-98,535	-0,041	-0,007
-383,204	327,676	-0,023	0,031
-382,190	-80,283	-0,097	-0,023
-381,175	489,817	0,046	0,075
-380,160	16,037	0,120	-0,067
-379,146	-116,382	-0,047	-0,006
-378,131	102,524	-0,030	0,025
-377,117	106,119	0,115	0,098
-376,102	601,736	-0,066	0,117
-375,088	-48,997	-0,113	0,039
-374,073	-200,000	0,030	-0,118
-373,058	-121,420	0,138	-0,016
-372,044	522,271	0,077	0,131
-371,029	292,200	0,127	0,165
-370,015	435,315	-0,061	0,095
-369,000	-200,000	0,003	0,065
-367,985	-200,000	0,029	-0,134
-366,971	793,355	-0,044	-0,087
-365,956	459,148	-0,023	0,037
-364,942	238,644	-0,042	0,050
-363,927	181,905	0,049	0,052
-362,912	800,000	-0,005	0,013
-361,898	-200,000	-0,004	-0,132
-360,883	159,170	-0,055	0,054
-359,869	781,784	-0,038	-0,075
-358,854	-200,000	-0,020	-0,102
-357,839	39,603	0,086	0,055
-356,825	-200,000	0,017	0,136
-355,810	-200,000	0,018	-0,064
-354,796	183,311	0,061	-0,064
-353,781	300,067	0,030	-0,039
-352,766	-200,000	-0,033	-0,114
-351,752	-200,000	0,017	0,083
-350,737	-8,798	0,012	0,006
-349,723	-200,000	-0,013	0,087
-348,708	191,042	-0,054	0,058
-347,693	175,303	0,073	0,076
-346,679	-200,000	-0,000	-0,285
-345,664	-135,853	-0,045	0,004
-344,650	800,000	0,027	-0,084
-343,635	-200,000	-0,009	-0,107
-342,620	44,932	0,087	0,057
-341,606	800,000	0,078	-0,179
-340,591	-22,886	-0,161	-0,069
-339,577	-200,000	-0,003	-0,041
-338,562	-102,409	-0,082	-0,014
-337,548	-156,895	0,062	0,003
-336,533	800,000	0,013	0,029
-335,518	88,728	0,109	-0,086
-334,504	-126,924	-0,073	0,008
-333,489	362,034	-0,034	0,049
-332,475	-122,407	-0,081	0,009
-331,460	800,000	-0,033	0,075
-330,445	800,000	0,022	0,058
-329,431	-200,000	-0,004	0,022
-328,416	281,723	0,031	0,040
-327,402	709,585	0,046	-0,087
-326,387	800,000	0,006	-0,019
-325,372	262,116	0,069	-0,085
-324,358	-200,000	-0,007	-0,054
-323,343	-120,962	0,215	0,025
-322,329	152,051	-0,054	-0,053
-321,314	221,872	0,105	-0,121
-320,299	321,468	-0,073	0,099
-319,285	-104,689	0,075	0,012
-318,270	217,135	0,013	-0,015
-317,256	-200,000	-0,003	-0,047
-316,241	28,438	0,100	0,060
-315,226	-200,000	-0,024	0,078
-314,212	-90,615	0,172	-0,035
-313,197	800,000	0,014	0,042
-312,183	-81,780	-0,027	-0,006
-311,168	-200,000	0,014	-0,050
-310,153	14,868	0,064	-0,036
-309,139	76,233	0,084	-0,064
-308,124	261,361	0,042	0,052
-307,110	800,000	0,042	0,111
-306,095	-200,000	0,047	0,199
-305,080	-200,000	-0,010	0,112
-304,066	-200,000	0,020	0,177
-303,051	-37,890	0,186	0,070
-302,037	306,365	-0,171	0,228
-301,022	795,880	0,010	-0,020
-300,008	-200,000	-0,001	0,025
-298,993	105,867	0,029	0,025
-297,978	59,691	-0,081	0,057
-296,964	-200,000	-0,023	-0,108
-295,949	51,653	-0,125	-0,084
-294,935	-94,926	-0,131	0,025
-293,920	81,926	0,061	0,047
-292,905	-96,650	0,019	0,004
-291,891	800,000	-0,024	0,052
-290,876	-200,000	-0,001	0,036
-289,862	-37,362	-0,122	0,046
-288,847	50,020	0,098	0,066
-287,832	-200,000	0,013	0,056
-286,818	-131,706	-0,099	-0,009
-285,803	423,723	0,053	0,081
-284,789	-177,903	-0,105	-0,002
-283,774	-200,000	-0,005	0,110
-282,759	508,245	-0,063	0,105
-281,745	-200,000	0,032	-0,125
-280,730	-200,000	0,015	0,047
-279,716	800,000	-0,030	0,072
-278,701	39,498	-0,142	0,091
-277,686	577,317	-0,009	-0,016
-276,672	-200,000	0,003	0,037
-275,657	7,614	-0,176	-0,093
-274,643	246,540	-0,053	0,063
-273,628	480,476	-0,055	-0,090
-272,613	199,545	0,030	-0,033
-271,599	-20,131	0,156	-0,068
-270,584	-200,000	0,021	0,216
-269,570	125,290	-0,101	-0,091
-268,555	313,750	-0,108	0,146
-267,540	-96,797	0,053	0,010
-266,526	800,000	-0,044	-0,119
-265,511	800,000	0,013	-0,029
-264,497	351,215	0,018	-0,025
-263,482	-103,880	0,138	0,023
-262,467	7,220	-0,067	0,036
-261,453	87,963	-0,094	0,074
-260,438	204,719	0,041	-0,045
-259,424	-3,216	-0,051	0,025
-258,409	400,855	0,045	0,067
-257,395	-22,536	-0,102	0,044
-256,380	17,723	0,123	0,069
-255,365	295,953	-0,086	0,113
-254,351	34,042	-0,051	0,032
-253,336	-54,148	0,075	-0,024
-252,322	-200,000	-0,005	-0,060
-251,307	17,004	-0,138	0,077
-250,292	438,029	-0,089	-0,139
-249,278	-200,000	-0,000	0,099
-248,263	-28,539	0,206	0,084
-247,249	209,503	-0,076	-0,085
-246,234	-77,824	-0,078	-0,019
-245,219	383,114	0,055	-0,081
-244,205	17,132	-0,094	0,053
-243,190	445,329	-0,019	-0,030
-242,176	-33,337	0,075	0,029
-241,161	167,988	0,024	-0,025
-240,146	800,000	0,042	-0,086
-239,132	490,355	0,002	0,004
-238,117	221,011	-0,060	-0,068
-237,103	52,183	-0,053	-0,036
-236,088	-200,000	-0,063	0,206
-235,073	800,000	0,020	-0,058
-234,059	-200,000	-0,002	0,070
-233,044	-11,322	0,075	-0,035
-232,030	-94,034	0,027	0,005
-231,015	-200,000	0,030	-0,125
-230,000	118,988	-0,066	-0,058
-228,986	800,000	-0,031	0,085
-227,971	199,212	0,072	0,078
-226,957	800,000	0,008	-0,018
-225,942	-26,465	0,084	0,035
-224,927	-37,183	0,025	-0,010
-223,913	184,271	-0,029	-0,031
-222,898	40,720	0,066	0,043
-221,884	-19,272	-0,098	0,043
-220,869	-200,000	-0,019	-0,062
-219,855	-122,562	0,093	-0,011
-218,840	-200,000	0,008	0,208
-217,825	-200,000	-0,011	-0,095
-216,811	223,113	-0,094	0,108
-215,796	29,752	0,047	0,028
-214,782	-200,000	0,008	-0,049
-213,767	-200,000	0,025	-0,091
-212,752	-200,000	-0,036	0,119
-211,738	2,780	0,090	-0,046
-210,723	800,000	0,032	0,091
-209,709	44,608	-0,117	0,076
-208,694	-200,000	0,014	-0,077
-207,679	207,830	-0,131	-0,146
-206,665	85,454	-0,029	-0,023
-205,650	566,971	0,074	0,128
-204,636	173,084	-0,062	0,064
-203,621	56,330	0,030	-0,021
-202,606	-133,970	0,079	-0,007
-201,592	-61,138	-0,129	0,039
-200,577	-109,018	0,107	-0,016
-199,563	-80,765	0,051	0,012
-198,548	-85,036	0,210	0,046
-197,533	258,173	-0,077	0,095
-196,519	680,635	0,048	0,089
-195,504	571,493	-0,033	0,058
-194,490	800,000	-0,050	0,144
-193,475	-40,036	-0,051	0,019
-192,460	135,452	-0,075	0,069
-191,446	93,984	0,142	0,115
-190,431	601,239	0,050	0,089
-189,417	-200,000	-0,032	0,114
-188,402	107,858	-0,091	0,077
-187,387	-200,000	-0,028	-0,141
-186,373	170,406	-0,088	-0,090
-185,358	800,000	0,013	-0,039
-184,344	-200,000	-0,017	0,055
-183,329	29,082	-0,092	0,055
-182,315	-75,693	-0,067	0,017
-181,300	-4,264	-0,118	0,058
-180,285	-108,491	0,026	-0,004
-179,271	11,032	0,065	-0,035
-178,256	282,359	-0,021	0,027
-177,242	-69,042	0,068	-0,019
-176,227	92,034	0,120	-0,096
-175,212	800,000	0,042	0,102
-174,198	129,984	-0,102	0,093
-173,183	-12,106	-0,118	-0,054
-172,169	800,000	0,009	-0,026
-171,154	800,000	-0,064	0,158
-170,139	-26,898	0,005	-0,002
-169,125	217,768	-0,039	0,044
-168,110	-200,000	-0,102	0,000
-167,096	-200,000	-0,008	0,041
-166,081	23,494	-0,043	0,025
-165,066	11,972	-0,144	-0,079
-164,052	415,344	-0,053	-0,081
-163,037	800,000	-0,031	0,075
-162,023	6,414	0,124	-0,065
-161,008	60,009	0,158	-0,111
-159,993	214,231	0,126	-0,142
-158,979	-176,667	0,066	0,001
-157,964	11,564	0,060	0,033
-156,950	-200,000	-0,045	-0,174
-155,935	-200,000	-0,031	-0,139
-154,920	-10,780	-0,082	0,038
-153,906	11,831	0,093	-0,051
-152,891	71,755	0,006	-0,005
-151,877	723,229	-0,028	-0,053
-150,862	-200,000	0,006	-0,054
-149,847	-80,954	-0,116	-0,027
-148,833	800,000	0,057	0,123
-147,818	-97,622	-0,120	0,022
-146,804	66,957	-0,049	-0,035
-145,789	-16,041	0,128	-0,057
-144,775	-200,000	-0,015	-0,136
-143,760	-183,372	-0,084	-0,001
-142,745	513,115	0,063	0,104
-141,731	94,468	0,050	0,040
-140,716	-78,102	-0,035	0,009
-139,702	-200,000	-0,012	0,045
-138,687	800,000	0,037	-0,106
-137,672	-51,424	-0,065	0,022
-136,658	-42,285	0,030	0,011
-135,643	74,483	0,079	0,059
-134,629	-200,000	0,011	-0,074
-133,614	135,904	0,152	0,141
-132,599	118,401	-0,050	0,043
-131,585	-200,000	0,002	-0,083
-130,570	-200,000	-0,000	0,078
-129,556	-86,394	-0,087	-0,019
-128,541	83,118	0,052	-0,040
-127,526	29,844	-0,137	-0,083
-126,512	-193,458	-0,105	0,001
-125,497	800,000	-0,065	0,150
-124,483	62,034	-0,040	-0,028
-123,468	-65,344	-0,108	0,031
-122,453	800,000	-0,038	-0,110
-121,439	448,366	-0,043	-0,068
-120,424	-200,000	-0,014	0,125
-119,410	800,000	0,024	0,070
-118,395	145,055	0,015	-0,014
-117,380	800,000	-0,009	0,024
-116,366	193,521	-0,047	-0,051
-115,351	251,656	0,067	-0,081
-114,337	-2,874	-0,062	-0,031
-113,322	5,708	-0,068	-0,035
-112,307	-38,500	-0,042	-0,015
-111,293	-95,159	0,109	0,021
-110,278	-38,781	0,122	-0,045
-109,264	-200,000	-0,016	0,099
-108,249	241,063	-0,014	0,017
-107,234	-200,000	-0,032	-0,112
-106,220	-25,242	0,122	0,051
-105,205	230,979	0,121	0,141
-104,191	336,607	-0,061	-0,084
-103,176	-68,842	0,091	0,025
-102,162	27,309	-0,077	-0,046
-101,147	-200,000	-0,006	-0,069
-100,132	-168,388	0,048	0,001
-99,118	238,949	0,033	-0,038
-98,103	-45,563	-0,103	-0,036
-97,089	215,123	0,014	0,016
-96,074	800,000	0,047	-0,106
-95,059	-100,293	0,131	0,023
-94,045	35,068	0,085	-0,052
-93,030	-200,000	-0,030	-0,120
-92,016	-200,000	0,001	-0,038
-91,001	-65,326	0,169	-0,048
-89,986	172,374	0,074	0,076
-88,972	-200,000	-0,012	0,082
-87,957	141,808	0,058	0,054
-86,943	360,850	-0,083	-0,117
-85,928	760,922	0,028	-0,055
-84,913	-173,953	0,050	-0,001
-83,899	-42,510	-0,063	0,023
-82,884	-110,065	-0,064	-0,009
-81,870	579,127	0,044	-0,076
-80,855	55,369	0,042	0,029
-79,840	-200,000	0,027	0,185
-78,826	800,000	-0,010	-0,030
-77,811	315,568	-0,067	0,090
-76,797	-56,506	-0,069	0,021
-75,782	208,596	0,061	0,068
-74,767	137,492	0,128	0,118
-73,753	-200,000	0,022	0,132
-72,738	-110,867	0,074	0,011
-71,724	2,136	-0,135	0,068
-70,709	49,666	0,114	-0,076
-69,694	122,438	-0,121	-0,107
-68,680	65,196	-0,069	-0,049
-67,665	587,232	0,068	0,119
-66,651	369,554	0,035	0,050
-65,636	-138,454	-0,272	0,021
-64,622	561,491	0,036	0,062
-63,607	-48,641	0,062	-0,021
-62,592	-200,000	-0,034	-0,133
-61,578	800,000	0,024	-0,068
-60,563	-200,000	-0,019	0,106
-59,549	-200,000	-0,050	0,299
-58,534	3,784	-2,043	-1,050
-57,519	442,373	-1,293	-2,006
-56,505	-200,000	-0,367	-4,457
-55,490	390,180	1,039	1,526
-54,476	800,000	4,976	11,105
-53,461	-200,000	21,014	332,146
-52,446	800,000	757,975	2331,395
-51,432	551,711	1661,926	2828,275
-50,417	73,412	1663,171	1227,710
-49,403	18,488	1536,456	864,669
-48,388	12,478	1459,652	792,356
-47,373	19,070	1450,609	819,076
-46,359	15,698	1439,781	796,883
-45,344	10,758	1435,559	770,977
-44,330	10,699	1433,680	769,658
-43,315	10,657	1431,843	768,438
-42,300	10,671	1430,095	767,538
-41,286	10,733	1428,803	767,107
-40,271	10,708	1427,527	766,275
-39,257	10,668	1426,424	765,462
-38,242	10,716	1425,208	765,006
-37,227	10,683	1424,126	764,238
-36,213	10,703	1422,868	763,627
-35,198	10,702	1421,870	763,057
-34,184	10,739	1421,046	762,761
-33,169	10,653	1419,706	761,604
-32,154	10,743	1418,433	761,315
-31,140	10,725	1417,165	760,521
-30,125	10,751	1416,277	760,134
-29,111	10,769	1414,914	759,457
-28,096	10,742	1413,919	758,766
-27,082	10,686	1412,779	757,863
-26,067	10,701	1411,505	757,221
-25,052	10,682	1410,607	756,618
-24,038	10,720	1409,489	756,168
-23,023	10,684	1408,806	755,601
-22,009	10,706	1407,367	754,902
-20,994	10,671	1406,549	754,272
-19,979	10,663	1405,610	753,698
-18,965	10,628	1404,604	752,967
-17,950	10,619	1403,816	752,470
-16,936	10,613	1403,134	752,049
-15,921	10,524	1402,079	751,040
-14,906	10,553	1400,979	750,555
-13,892	10,573	1400,280	750,245
-12,877	10,557	1399,455	749,699
-11,863	10,611	1398,459	749,385
-10,848	10,571	1397,701	748,764
-9,833	10,537	1396,576	747,973
-8,819	10,436	1395,928	747,127
-7,804	10,455	1394,946	746,660
-6,790	10,510	1393,902	746,328
-5,775	10,526	1392,869	745,820
-4,760	10,471	1391,914	745,022
-3,746	10,491	1390,979	744,587
-2,731	10,492	1390,208	744,148
-1,717	10,458	1389,430	743,545
-0,702	10,462	1387,434	742,466
0,313	14,454	1301,041	714,532
1,327	30,472	692,207	416,578
2,342	46,950	120,226	78,737
3,356	-0,723	16,584	8,266
4,371	-5,521	3,501	1,688
5,386	29,597	0,882	0,528
6,400	800,000	0,204	0,555
7,415	-58,210	-0,158	-0,048
8,429	92,329	-0,296	-0,235
9,444	800,000	-0,153	-0,364
10,459	-32,518	-0,313	-0,122
11,473	-62,172	-0,364	-0,106
12,488	38,680	-0,270	-0,169
13,502	-41,805	-0,345	-0,124
14,517	99,331	-0,270	-0,220
15,531	49,882	-0,378	-0,251
16,546	-32,961	-0,354	-0,138
17,561	5,292	-0,413	-0,214
18,575	142,995	-0,141	0,132
19,590	331,653	-0,113	-0,154
20,604	32,996	-0,220	-0,134
21,619	99,172	-0,435	-0,354
22,634	1,544	-0,439	-0,222
23,648	-27,178	-0,572	-0,234
24,663	15,218	-0,468	-0,258
25,677	102,366	-0,366	-0,301
26,692	-34,424	-0,238	-0,091
27,707	216,046	-0,265	-0,297
28,721	128,733	-0,407	-0,365
29,736	146,031	-0,365	-0,345
30,750	170,038	-0,344	-0,347
31,765	15,048	-0,418	-0,230
32,780	-12,087	-0,321	-0,147
33,794	-65,685	-0,338	-0,095
34,809	70,307	-0,313	-0,227
35,823	30,016	-0,280	-0,168
36,838	45,637	-0,294	-0,191
37,853	1,461	-0,370	-0,187
38,867	113,479	-0,348	-0,297
39,882	561,430	-0,225	-0,385
40,896	26,517	-0,317	-0,186
41,911	40,281	-0,366	-0,231
42,926	70,267	-0,344	-0,249
43,940	202,451	-0,285	-0,310
44,955	148,537	-0,261	-0,248
45,969	24,446	-0,465	-0,269
46,984	21,980	-0,288	-0,165
47,999	29,328	-0,349	-0,208
49,013	84,479	-0,254	-0,195
50,028	-13,978	-0,429	-0,194
51,042	347,067	-0,304	-0,422
52,057	146,425	-0,326	-0,307
53,071	72,017	-0,412	-0,301
54,086	-63,697	-0,270	-0,077
55,101	361,421	-0,209	-0,295
56,115	32,746	-0,355	-0,215
57,130	-8,622	-0,353	-0,166
58,144	124,595	-0,367	-0,324
59,159	92,109	-0,387	-0,306
60,174	6,337	-0,388	-0,202
61,188	129,035	-0,298	-0,267
62,203	800,000	-0,111	-0,264
63,217	-7,197	-0,400	-0,190
64,232	-46,080	-0,293	-0,101
65,247	45,857	-0,423	-0,274
66,261	154,555	-0,403	-0,388
67,276	38,094	-0,414	-0,258
68,290	2,562	-0,342	-0,173
69,305	120,725	-0,296	-0,258
70,320	1,192	-0,197	-0,099
71,334	-26,533	-0,236	-0,096
72,349	-3,679	-0,408	-0,198
73,363	46,865	-0,308	-0,200
74,378	-8,872	-0,290	-0,136
75,393	12,198	-0,415	-0,223
76,407	92,622	-0,295	-0,233
77,422	65,853	-0,386	-0,274
78,436	65,721	-0,254	-0,180
79,451	35,634	-0,382	-0,235
80,466	94,242	-0,320	-0,254
81,480	-1,647	-0,308	-0,152
82,495	0,180	-0,323	-0,161
83,509	-0,230	-0,327	-0,163
84,524	41,678	-0,271	-0,172
85,539	-111,522	-0,251	-0,035
86,553	-12,362	-0,323	-0,147
87,568	-81,313	-0,359	-0,082
88,582	-48,748	-0,423	-0,141
89,597	617,909	-0,157	-0,277
90,611	19,010	-0,270	-0,151
91,626	-70,019	-0,269	-0,071
92,641	-7,898	-0,262	-0,123
93,655	78,834	-0,144	-0,108
94,670	100,308	-0,289	-0,235
95,684	-11,382	-0,251	-0,115
96,699	131,587	-0,257	-0,231
97,714	132,709	-0,229	-0,207
98,728	-200,000	-0,054	-0,242
99,743	-60,088	-0,224	-0,066
100,757	-42,348	-0,355	-0,126
101,772	166,698	-0,256	-0,254
102,787	-18,673	-0,224	-0,097
103,801	578,900	-0,210	-0,361
104,816	18,019	-0,205	-0,114
105,830	55,684	-0,244	-0,165
106,845	10,370	-0,184	-0,097
107,860	-165,871	-0,285	0,008
108,874	295,078	-0,244	-0,313
109,889	234,238	-0,266	-0,307
110,903	171,403	-0,277	-0,278
111,918	180,884	-0,230	-0,237
112,933	107,510	-0,145	-0,121
113,947	154,524	-0,244	-0,234
114,962	8,061	-0,133	-0,070
115,976	-150,960	-0,215	-0,011
116,991	116,277	-0,244	-0,209
118,006	173,714	-0,250	-0,253
119,020	424,571	-0,148	-0,223
120,035	108,937	-0,230	-0,192
121,049	-200,000	-0,005	-0,172
122,064	-99,465	-0,299	-0,052
123,079	269,073	-0,154	-0,189
124,093	137,270	-0,173	-0,158
125,108	89,727	-0,231	-0,179
126,122	6,477	-0,153	-0,079
127,137	-110,267	-0,194	-0,028
128,151	-91,988	-0,222	-0,044
129,166	26,842	-0,221	-0,129
130,181	27,834	-0,292	-0,171
131,195	94,450	-0,312	-0,247
132,210	184,387	-0,232	-0,240
133,224	167,188	-0,222	-0,220
134,239	146,323	-0,163	-0,153
135,254	280,380	-0,258	-0,323
136,268	317,692	-0,219	-0,290
137,283	64,600	-0,250	-0,176
138,297	9,168	-0,305	-0,160
139,312	139,008	-0,351	-0,322
140,327	39,448	-0,228	-0,142
141,341	297,141	-0,237	-0,304
142,356	-27,703	-0,193	-0,078
143,370	-6,769	-0,250	-0,118
144,385	33,305	-0,313	-0,189
145,400	-38,930	-0,327	-0,119
146,414	-15,573	-0,310	-0,138
147,429	212,773	-0,179	-0,197
148,443	117,260	-0,134	-0,115
149,458	114,729	-0,278	-0,236
150,473	254,639	-0,132	-0,157
151,487	114,768	-0,249	-0,212
152,502	177,193	-0,174	-0,177
153,516	-44,944	-0,255	-0,088
154,531	259,303	-0,180	-0,217
155,546	-142,503	-0,222	-0,015
156,560	-64,402	-0,260	-0,073
157,575	33,142	-0,174	-0,105
158,589	-32,164	-0,158	-0,061
159,604	-56,542	-0,267	-0,082
160,619	-58,253	-0,209	-0,063
161,633	26,665	-0,262	-0,152
162,648	70,687	-0,268	-0,193
163,662	133,924	-0,142	-0,128
164,677	94,770	-0,162	-0,128
165,692	84,837	-0,266	-0,203
166,706	2,539	-0,384	-0,193
167,721	282,471	-0,251	-0,313
168,735	64,991	-0,219	-0,154
169,750	205,337	-0,204	-0,220
170,764	236,824	-0,177	-0,204
171,779	800,000	-0,136	-0,298
172,794	-53,684	-0,323	-0,102
173,808	46,148	-0,231	-0,149
174,823	-38,536	-0,184	-0,067
175,837	295,079	-0,164	-0,209
176,852	18,331	-0,343	-0,190
177,867	-34,736	-0,229	-0,087
178,881	-79,289	-0,381	-0,089
179,896	334,273	-0,155	-0,209
180,910	495,228	-0,202	-0,323
181,925	289,799	-0,218	-0,276
182,940	-109,330	-0,278	-0,041
183,954	86,505	-0,292	-0,224
184,969	800,000	-0,065	-0,141
185,983	-151,518	-0,231	-0,012
186,998	147,347	-0,282	-0,264
188,013	207,919	-0,188	-0,204
189,027	101,376	-0,194	-0,157
190,042	175,442	-0,279	-0,281
191,056	160,969	-0,231	-0,225
192,071	-5,959	-0,098	-0,046
193,086	112,662	-0,148	-0,124
194,100	99,673	-0,069	0,055
195,115	-66,475	-0,317	-0,087
196,129	186,800	-0,258	-0,267
197,144	3,129	-0,313	-0,157
198,159	170,489	-0,324	-0,322
199,173	-30,693	-0,253	-0,099
200,188	146,548	-0,154	-0,143
201,202	94,110	-0,088	-0,069
202,217	55,315	-0,210	-0,141
203,232	325,767	-0,129	-0,172
204,246	612,604	-0,160	-0,278
205,261	800,000	-0,065	-0,148
206,275	-50,589	-0,224	-0,073
207,290	30,975	-0,150	-0,089
208,304	-101,808	-0,194	-0,032
209,319	131,831	-0,206	-0,184
210,334	-181,720	-0,276	-0,004
211,348	167,674	-0,120	-0,118
212,363	116,052	-0,145	-0,123
213,377	-48,856	-0,189	-0,062
214,392	-184,356	-0,184	0,002
215,407	436,450	-0,103	-0,156
216,421	66,218	-0,267	-0,187
217,436	-142,910	-0,234	0,016
218,450	103,678	-0,200	-0,163
219,465	195,011	-0,201	-0,212
220,480	-107,455	-0,195	-0,029
221,494	-200,000	-0,045	-0,192
222,509	-99,550	-0,197	-0,034
223,523	-158,318	-0,329	-0,013
224,538	83,499	-0,173	-0,130
225,553	193,691	-0,203	-0,213
226,567	214,817	-0,286	-0,314
227,582	44,151	-0,198	-0,125
228,596	-124,217	-0,206	-0,022
229,611	-192,666	-0,116	0,001
230,626	176,700	-0,132	-0,133
231,640	34,573	-0,156	-0,094
232,655	207,706	-0,211	-0,228
233,669	-46,760	-0,174	-0,059
234,684	230,638	-0,158	-0,179
235,699	234,670	-0,186	-0,212
236,713	-24,958	-0,074	-0,030
237,728	-65,324	-0,188	-0,052
238,742	-200,000	-0,025	-0,110
239,757	35,473	-0,221	-0,134
240,772	-33,983	-0,210	-0,079
241,786	-28,292	-0,173	-0,069
242,801	96,649	-0,182	-0,144
243,815	-107,535	-0,113	0,017
244,830	-6,446	-0,136	-0,064
245,844	140,810	-0,178	-0,162
246,859	-170,746	-0,205	-0,005
247,874	682,136	-0,165	-0,299
248,888	28,168	-0,353	-0,205
249,903	-157,157	-0,096	0,004
250,917	431,151	-0,081	-0,122
251,932	113,630	-0,059	-0,049
252,947	-0,451	-0,162	-0,079
253,961	87,909	-0,215	-0,165
254,976	33,187	-0,154	-0,092
255,990	223,239	-0,197	-0,219
257,005	110,084	-0,213	-0,176
258,020	-53,519	-0,156	-0,049
259,034	-200,000	-0,039	-0,157
260,049	116,115	-0,166	-0,140
261,063	-94,387	-0,337	-0,063
262,078	11,863	-0,238	-0,126
263,093	705,218	-0,099	-0,180
264,107	371,952	-0,123	-0,172
265,122	800,000	-0,056	-0,117
266,136	183,233	-0,157	-0,160
267,151	-77,737	-0,222	-0,053
268,166	373,236	-0,123	-0,173
269,180	-79,993	-0,312	-0,072
270,195	300,894	-0,175	-0,224
271,209	800,000	-0,133	-0,285
272,224	-200,000	-0,027	-0,185
273,239	70,860	-0,247	-0,176
274,253	220,241	-0,102	-0,113
275,268	0,835	-0,248	-0,122
276,282	-166,269	-0,248	-0,007
277,297	456,026	-0,149	-0,229
278,312	120,007	-0,228	-0,195
279,326	736,042	-0,099	-0,183
280,341	-200,000	-0,045	-0,204
281,355	307,016	-0,119	-0,153
282,370	-200,000	-0,037	-0,156
283,384	166,841	-0,178	-0,174
284,399	12,238	-0,302	-0,160
285,414	203,554	-0,183	-0,195
286,428	-15,801	-0,057	-0,025
287,443	687,778	-0,010	0,018
288,457	-200,000	-0,037	-0,142
289,472	-17,495	-0,167	-0,072
290,487	31,721	-0,176	-0,104
291,501	584,296	-0,092	-0,156
292,516	146,010	-0,179	-0,165
293,530	-200,000	0,019	-0,207
294,545	-122,644	-0,135	-0,015
295,560	230,906	-0,041	0,046
296,574	91,075	-0,146	-0,112
297,589	-175,728	-0,148	0,003
298,603	31,271	-0,143	-0,084
299,618	157,591	-0,161	-0,153
300,633	176,180	-0,144	-0,144
301,647	189,815	-0,173	-0,178
302,662	85,443	-0,008	0,006
303,676	-118,600	-0,180	-0,022
304,691	800,000	-0,104	-0,215
305,706	-41,917	-0,165	-0,058
306,720	-112,806	-0,197	-0,026
307,735	197,228	-0,171	-0,180
308,749	715,647	-0,091	-0,166
309,764	189,945	-0,056	-0,058
310,779	7,062	-0,101	-0,052
311,793	382,857	-0,054	-0,076
312,808	125,374	-0,065	-0,056
313,822	5,997	-0,148	-0,075
314,837	-200,000	0,004	-0,154
315,852	-40,536	-0,178	-0,063
316,866	-50,045	-0,173	-0,056
317,881	233,006	-0,184	-0,208
318,895	641,340	-0,180	-0,316
319,910	800,000	-0,076	-0,145
320,925	-40,469	-0,145	-0,051
321,939	-124,204	-0,032	0,003
322,954	-52,221	-0,084	0,026
323,968	-200,000	0,009	-0,128
324,983	153,877	-0,058	-0,055
325,997	662,141	-0,124	-0,221
327,012	27,564	-0,201	-0,116
328,027	-74,740	-0,269	-0,066
329,041	522,737	-0,100	-0,162
330,056	800,000	-0,023	-0,045
331,070	223,308	-0,055	-0,061
332,085	-53,094	-0,109	-0,034
333,100	-5,538	-0,187	-0,088
334,114	61,294	-0,254	-0,173
335,129	-14,134	-0,058	0,026
336,143	-91,762	-0,219	-0,042
337,158	302,927	-0,090	-0,115
338,173	102,329	-0,133	-0,106
339,187	76,839	-0,124	-0,090
340,202	-64,886	-0,096	0,026
341,216	800,000	-0,146	-0,278
342,231	423,270	-0,194	-0,286
343,246	26,961	-0,118	-0,068
344,260	-43,556	-0,115	-0,039
345,275	6,690	-0,153	-0,077
346,289	-43,794	-0,051	-0,018
347,304	44,372	-0,113	-0,071
348,319	556,848	-0,118	-0,195
349,333	584,437	-0,096	-0,162
350,348	46,413	-0,170	-0,108
351,362	167,127	-0,098	-0,096
352,377	-76,705	-0,102	-0,024
353,392	-38,572	-0,118	-0,042
354,406	-49,233	-0,158	-0,051
355,421	206,660	1310,502	1398,190
356,435	158,945	1470,688	1398,671
