DTS Sentinel unit serial number:	SN410029Multiplexer serial number:	ORYXHardware model number:	OX2-SRSoftware version number:	ORYX F/W v4,00 Oryx Data Collector v3.7.2.0data status	okinstallation	B3 Nyhavnadifferential loss correction	single-endedforward channel	channel 1reverse channel	N/Adate	2023/12/01time	09:47:30forward acquisition time	300,00reverse acquisition time	0,00gamma	499,1914k internal	0,3213k external	0,3213temperature offset calibration	1,0000default loss term (dB/km)	0,3820temperature slope calibration	1,0000multiplexer offset coefficient	1,0000multiplexer slope coefficient	1,0000fibre end	0,00T internal ref (°C)	8,00T ext. ref 1 (°C)	-6,45T ext. ref 2 (°C)	-6,60length (m)	temperature (°C)	Stokes	anti-Stokes-744,400	732,609	-0,073	-0,142
-743,385	-200,000	-0,040	0,246
-742,371	62,111	-0,243	-0,175
-741,356	-200,000	0,062	0,269
-740,342	-80,119	-0,182	-0,044
-739,327	800,000	-0,081	0,184
-738,312	207,677	-0,223	-0,252
-737,298	341,134	-0,117	0,166
-736,283	-200,000	-0,045	-0,161
-735,269	-200,000	0,063	0,277
-734,254	212,872	-0,218	-0,249
-733,239	-6,584	-0,257	0,126
-732,225	800,000	-0,091	-0,193
-731,210	468,871	0,095	0,155
-730,196	-23,815	0,057	0,024
-729,181	-37,840	-0,089	0,034
-728,167	189,113	-0,086	-0,093
-727,152	-200,000	0,014	-0,083
-726,137	442,995	-0,089	-0,142
-725,123	-110,700	-0,088	0,013
-724,108	-200,000	-0,034	-0,140
-723,094	-200,000	0,022	-0,127
-722,079	-200,000	-0,006	-0,105
-721,064	305,256	-0,072	-0,098
-720,050	283,813	-0,061	0,080
-719,035	268,528	-0,015	-0,019
-718,021	-200,000	-0,020	-0,088
-717,006	800,000	-0,061	-0,156
-715,991	-70,108	-0,135	-0,037
-714,977	-6,712	0,119	0,058
-713,962	196,040	-0,110	0,122
-712,948	10,086	0,070	-0,038
-711,933	-74,187	-0,149	-0,039
-710,918	67,209	-0,058	0,043
-709,904	166,644	-0,117	-0,120
-708,889	471,898	-0,027	-0,044
-707,875	-131,309	-0,124	0,012
-706,860	-200,000	0,007	-0,050
-705,845	-165,047	0,067	0,002
-704,831	600,619	0,071	0,128
-703,816	142,758	-0,048	0,046
-702,802	-82,098	-0,183	-0,043
-701,787	337,679	0,066	-0,093
-700,772	9,642	-0,140	-0,076
-699,758	-115,718	0,082	-0,011
-698,743	506,091	0,035	0,059
-697,729	149,131	0,119	0,117
-696,714	187,604	-0,061	0,066
-695,699	318,637	0,031	-0,043
-694,685	538,512	-0,056	-0,097
-693,670	-22,143	-0,066	-0,029
-692,656	28,864	0,031	-0,019
-691,641	105,974	0,055	-0,047
-690,627	-200,000	-0,024	-0,089
-689,612	-61,427	-0,043	0,013
-688,597	-122,132	-0,080	0,009
-687,583	800,000	-0,027	-0,074
-686,568	84,227	-0,090	-0,071
-685,554	182,739	-0,046	0,049
-684,539	385,271	-0,075	-0,112
-683,524	-28,082	0,080	0,033
-682,510	75,541	0,030	-0,023
-681,495	102,143	0,151	0,127
-680,481	-69,307	-0,181	0,050
-679,466	608,013	0,032	0,057
-678,451	-58,254	-0,113	-0,035
-677,437	119,706	0,013	0,012
-676,422	-79,593	-0,169	-0,041
-675,408	-63,538	-0,109	-0,032
-674,393	800,000	-0,045	-0,105
-673,378	-200,000	-0,010	-0,161
-672,364	-200,000	-0,014	-0,112
-671,349	420,892	0,012	0,018
-670,335	270,403	-0,032	0,040
-669,320	-118,007	0,066	0,008
-668,305	-74,122	-0,056	0,015
-667,291	-200,000	0,030	0,103
-666,276	328,386	0,021	-0,029
-665,262	7,028	-0,045	0,024
-664,247	642,938	0,093	-0,173
-663,232	-195,779	0,053	0,000
-662,218	-157,247	0,107	-0,005
-661,203	53,285	0,122	0,084
-660,189	205,265	-0,083	0,093
-659,174	142,393	-0,077	0,073
-658,159	-200,000	0,025	0,094
-657,145	-163,064	-0,074	-0,003
-656,130	-200,000	0,010	-0,078
-655,116	-120,098	0,114	0,014
-654,101	187,114	-0,033	-0,036
-653,086	-80,307	-0,058	-0,014
-652,072	-200,000	-0,033	0,000
-651,057	-59,552	-0,040	0,012
-650,043	155,414	-0,051	0,051
-649,028	-72,189	-0,016	0,004
-648,014	252,459	0,060	0,074
-646,999	-200,000	0,000	0,100
-645,984	106,156	-0,048	0,041
-644,970	88,775	-0,051	0,041
-643,955	-42,650	0,050	0,018
-642,941	-89,798	-0,087	0,018
-641,926	66,377	-0,101	-0,074
-640,911	120,157	-0,165	-0,148
-639,897	-200,000	-0,032	0,107
-638,882	-200,000	0,010	0,055
-637,868	-200,000	0,016	0,112
-636,853	-128,417	-0,094	-0,010
-635,838	-13,601	-0,037	-0,017
-634,824	-89,400	0,078	0,016
-633,809	800,000	-0,011	-0,032
-632,795	-200,000	0,015	0,075
-631,780	22,055	-0,088	-0,051
-630,765	-157,797	-0,047	0,002
-629,751	131,457	0,023	-0,021
-628,736	53,415	-0,138	0,095
-627,722	77,273	-0,068	-0,052
-626,707	-67,683	-0,031	0,009
-625,692	224,678	0,052	0,061
-624,678	23,360	0,013	0,008
-623,663	531,012	-0,053	-0,091
-622,649	-36,809	-0,100	0,039
-621,634	800,000	0,035	-0,077
-620,619	-200,000	0,005	-0,081
-619,605	-50,493	-0,067	-0,023
-618,590	2,638	-0,071	-0,037
-617,576	267,326	0,065	-0,082
-616,561	-40,269	-0,047	-0,018
-615,546	226,903	-0,091	0,107
-614,532	109,175	0,070	0,060
-613,517	-200,000	-0,014	-0,145
-612,503	800,000	-0,029	-0,077
-611,488	-62,544	0,101	0,030
-610,474	-122,440	0,105	-0,012
-609,459	-65,332	-0,059	-0,017
-608,444	-200,000	0,020	-0,072
-607,430	471,630	-0,058	-0,095
-606,415	131,086	0,127	-0,118
-605,401	91,006	0,020	-0,016
-604,386	800,000	0,062	-0,148
-603,371	-200,000	-0,011	-0,067
-602,357	800,000	-0,028	0,079
-601,342	-200,000	-0,025	0,155
-600,328	800,000	-0,065	-0,149
-599,313	55,004	-0,094	0,066
-598,298	-79,716	-0,060	-0,015
-597,284	-60,616	-0,157	0,048
-596,269	189,591	0,065	0,070
-595,255	-200,000	0,004	-0,023
-594,240	44,778	-0,095	-0,063
-593,225	50,236	-0,068	0,046
-592,211	215,568	-0,011	-0,013
-591,196	-200,000	0,012	-0,113
-590,182	149,671	-0,055	0,054
-589,167	-81,924	0,156	-0,036
-588,152	228,950	0,001	-0,001
-587,138	-171,747	-0,031	-0,001
-586,123	-52,418	-0,140	0,046
-585,109	561,679	-0,031	-0,054
-584,094	-200,000	0,043	-0,214
-583,079	800,000	-0,039	-0,086
-582,065	-200,000	0,010	0,034
-581,050	732,387	-0,026	0,050
-580,036	-200,000	0,022	-0,192
-579,021	671,285	0,008	-0,015
-578,006	96,642	-0,037	-0,031
-576,992	141,088	0,076	-0,072
-575,977	200,457	0,077	-0,086
-574,963	165,247	-0,112	0,114
-573,948	-52,526	-0,126	0,042
-572,934	-200,000	-0,054	0,209
-571,919	-28,568	0,062	0,025
-570,904	245,937	-0,094	-0,115
-569,890	-99,724	0,121	-0,022
-568,875	-200,000	-0,017	0,066
-567,861	-200,000	-0,012	0,141
-566,846	-115,300	0,171	-0,023
-565,831	-102,738	-0,214	-0,036
-564,817	-200,000	0,005	0,127
-563,802	613,755	0,019	-0,034
-562,788	291,122	-0,028	0,037
-561,773	44,145	0,052	0,034
-560,758	-200,000	-0,006	-0,056
-559,744	-34,607	0,064	-0,025
-558,729	281,004	0,033	-0,043
-557,715	800,000	-0,068	-0,213
-556,700	44,017	-0,163	-0,107
-555,685	-200,000	-0,010	-0,037
-554,671	39,853	0,083	0,053
-553,656	800,000	0,031	0,094
-552,642	22,483	-0,150	0,088
-551,627	88,624	-0,067	-0,053
-550,612	-84,750	-0,063	-0,014
-549,598	297,427	-0,053	-0,071
-548,583	800,000	-0,052	-0,125
-547,569	-200,000	-0,005	0,022
-546,554	-200,000	0,027	0,105
-545,539	-200,000	-0,014	0,104
-544,525	646,317	0,023	0,043
-543,510	61,033	-0,083	-0,059
-542,496	-200,000	-0,024	0,083
-541,481	-200,000	0,019	-0,136
-540,466	392,506	-0,033	-0,050
-539,452	-50,966	-0,065	-0,022
-538,437	42,295	0,118	-0,077
-537,423	-2,672	0,068	0,034
-536,408	-200,000	-0,002	0,024
-535,393	-56,638	-0,102	-0,032
-534,379	216,525	-0,091	-0,104
-533,364	-45,234	0,096	0,034
-532,350	128,649	-0,097	0,089
-531,335	-139,807	-0,076	-0,006
-530,321	-200,000	-0,016	0,083
-529,306	-66,123	-0,045	-0,013
-528,291	-200,000	-0,007	0,041
-527,277	800,000	-0,039	-0,117
-526,262	-12,985	-0,172	0,080
-525,248	-52,917	0,142	-0,047
-524,233	-66,439	-0,075	-0,021
-523,218	800,000	0,064	0,139
-522,204	-52,478	0,118	0,039
-521,189	477,476	-0,036	-0,059
-520,175	-10,923	-0,098	-0,046
-519,160	-7,870	0,090	-0,044
-518,145	150,313	0,052	0,050
-517,131	-200,000	0,004	-0,069
-516,116	-72,371	0,027	-0,007
-515,102	216,544	0,080	-0,092
-514,087	-116,664	0,011	-0,001
-513,072	-15,071	-0,068	-0,031
-512,058	-200,000	0,005	-0,174
-511,043	28,682	0,037	-0,023
-510,029	-23,841	0,113	-0,048
-509,014	-200,000	-0,012	0,080
-507,999	-129,729	0,094	-0,009
-506,985	202,696	0,046	0,051
-505,970	-32,862	0,025	-0,010
-504,956	-122,091	-0,103	0,012
-503,941	249,161	0,090	-0,109
-502,926	800,000	-0,026	-0,055
-501,912	800,000	-0,047	0,093
-500,897	-200,000	0,002	0,198
-499,883	-200,000	-0,007	0,110
-498,868	-200,000	0,015	0,057
-497,853	742,796	-0,052	0,101
-496,839	10,482	-0,112	-0,061
-495,824	247,438	0,124	0,150
-494,810	-200,000	-0,002	0,118
-493,795	-114,179	0,203	0,028
-492,781	-200,000	-0,007	-0,026
-491,766	-200,000	0,022	-0,107
-490,751	69,633	-0,069	0,051
-489,737	-58,463	0,090	-0,028
-488,722	-14,459	0,145	-0,066
-487,708	800,000	0,043	0,094
-486,693	-59,552	0,025	-0,008
-485,678	-50,063	-0,085	0,029
-484,664	800,000	0,016	-0,039
-483,649	-200,000	0,029	-0,113
-482,635	-71,946	0,129	0,034
-481,620	-146,157	0,065	0,004
-480,605	800,000	-0,033	0,088
-479,591	-37,556	-0,080	0,030
-478,576	210,330	0,063	0,071
-477,562	77,636	-0,051	0,039
-476,547	-135,982	-0,097	0,008
-475,532	254,959	0,072	0,088
-474,518	-4,279	-0,044	0,022
-473,503	-69,669	0,048	-0,013
-472,489	-200,000	-0,014	-0,109
-471,474	375,198	0,035	0,052
-470,459	800,000	-0,045	-0,095
-469,445	-200,000	0,001	-0,104
-468,430	52,534	-0,150	-0,102
-467,416	-145,302	0,167	-0,011
-466,401	150,028	-0,067	0,066
-465,386	390,495	0,066	0,099
-464,372	624,663	0,054	0,099
-463,357	-57,500	-0,176	-0,055
-462,343	119,200	-0,107	-0,094
-461,328	132,143	-0,043	-0,039
-460,313	5,958	0,170	0,090
-459,299	-200,000	0,014	0,048
-458,284	181,143	-0,074	0,078
-457,270	-6,861	-0,090	0,043
-456,255	-200,000	-0,006	-0,035
-455,241	170,071	-0,088	-0,090
-454,226	143,781	0,058	-0,055
-453,211	202,399	0,024	-0,026
-452,197	-78,767	0,060	0,015
-451,182	-17,132	-0,025	0,011
-450,168	408,901	0,040	-0,061
-449,153	-163,203	0,073	-0,002
-448,138	-200,000	-0,011	-0,045
-447,124	-128,956	-0,081	0,008
-446,109	228,712	0,031	-0,036
-445,095	-200,000	-0,002	0,025
-444,080	-27,932	0,135	0,056
-443,065	-200,000	-0,021	0,093
-442,051	-19,145	-0,038	0,017
-441,036	800,000	-0,031	-0,066
-440,022	-10,037	-0,137	-0,065
-439,007	-114,876	-0,124	0,017
-437,992	-109,147	0,069	0,010
-436,978	-94,135	-0,045	0,009
-435,963	-99,251	-0,073	-0,013
-434,949	-200,000	0,013	-0,110
-433,934	20,739	-0,109	-0,063
-432,919	-131,292	-0,068	-0,006
-431,905	91,585	-0,087	-0,070
-430,890	800,000	0,030	0,069
-429,876	-200,000	0,021	-0,124
-428,861	800,000	0,064	0,173
-427,846	291,358	0,078	-0,102
-426,832	141,695	0,091	-0,086
-425,817	-200,000	-0,009	-0,156
-424,803	137,173	-0,090	-0,084
-423,788	-200,000	-0,034	0,179
-422,773	305,829	0,049	0,066
-421,759	-149,520	0,158	0,009
-420,744	800,000	0,025	0,066
-419,730	-200,000	0,021	-0,071
-418,715	-200,000	-0,006	-0,076
-417,701	-200,000	-0,030	-0,213
-416,686	410,610	-0,046	-0,070
-415,671	800,000	-0,030	0,088
-414,657	-125,601	0,114	0,012
-413,642	-53,590	0,057	0,019
-412,628	-200,000	0,034	-0,179
-411,613	127,704	-0,081	-0,073
-410,598	37,431	0,031	0,020
-409,584	55,751	0,097	0,067
-408,569	-53,523	-0,088	-0,029
-407,555	147,989	0,108	0,104
-406,540	3,629	-0,175	0,091
-405,525	-106,657	0,081	0,013
-404,511	-52,506	0,093	0,030
-403,496	-94,508	-0,084	0,016
-402,482	-68,445	0,074	0,020
-401,467	340,511	-0,097	0,136
-400,452	-200,000	0,006	-0,109
-399,438	-200,000	0,000	0,083
-398,423	-86,063	-0,060	0,013
-397,409	-200,000	0,044	-0,183
-396,394	800,000	-0,048	-0,109
-395,379	800,000	0,060	0,135
-394,365	42,489	0,049	-0,032
-393,350	200,225	-0,032	-0,035
-392,336	74,315	-0,105	0,079
-391,321	-2,963	-0,090	-0,045
-390,306	-39,834	-0,077	0,028
-389,292	256,551	0,023	0,028
-388,277	-99,047	0,109	-0,020
-387,263	-200,000	-0,019	0,142
-386,248	148,901	0,158	0,153
-385,233	-145,336	-0,055	0,004
-384,219	-23,374	-0,114	0,049
-383,204	737,133	0,041	-0,078
-382,190	800,000	-0,034	-0,099
-381,175	-200,000	-0,010	-0,180
-380,160	-55,076	0,071	-0,023
-379,146	-200,000	-0,013	0,167
-378,131	22,036	0,089	-0,052
-377,117	20,134	0,079	-0,045
-376,102	-200,000	-0,038	-0,132
-375,088	-63,782	-0,017	0,005
-374,073	800,000	-0,040	-0,083
-373,058	-200,000	0,003	0,071
-372,044	12,027	0,071	-0,039
-371,029	301,312	-0,050	0,066
-370,015	-147,020	-0,117	0,007
-369,000	-200,000	0,000	-0,050
-367,985	164,336	0,056	-0,056
-366,971	-176,057	-0,032	-0,001
-365,956	785,218	0,047	-0,092
-364,942	-200,000	-0,019	-0,081
-363,927	-93,679	0,188	-0,037
-362,912	44,609	0,066	-0,043
-361,898	800,000	-0,048	-0,118
-360,883	180,039	0,050	0,052
-359,869	373,429	0,065	-0,094
-358,854	-116,807	0,094	0,012
-357,839	191,297	0,050	0,054
-356,825	19,362	-0,060	-0,034
-355,810	-200,000	0,000	0,060
-354,796	-200,000	0,007	-0,162
-353,781	-97,366	0,007	-0,001
-352,766	0,549	0,042	-0,021
-351,752	242,491	-0,008	-0,009
-350,737	445,052	0,070	0,110
-349,723	110,204	-0,054	-0,046
-348,708	195,330	0,098	-0,106
-347,693	-70,636	-0,069	0,018
-346,679	172,572	-0,082	-0,084
-345,664	-134,993	-0,122	-0,010
-344,650	475,721	-0,045	-0,073
-343,635	-140,056	0,059	-0,004
-342,620	348,642	-0,051	0,072
-341,606	220,978	-0,107	0,123
-340,591	-91,327	-0,096	0,019
-339,577	-200,000	0,011	0,059
-338,562	-122,498	-0,148	0,017
-337,548	-177,429	0,124	-0,002
-336,533	713,004	0,062	0,117
-335,518	9,645	0,079	0,042
-334,504	800,000	0,075	0,150
-333,489	252,355	-0,121	-0,148
-332,475	-200,000	-0,003	0,051
-331,460	6,524	-0,074	-0,039
-330,445	-143,374	0,110	-0,007
-329,431	548,800	-0,045	0,077
-328,416	217,903	0,213	0,243
-327,402	-200,000	-0,020	0,103
-326,387	571,337	-0,123	0,214
-325,372	195,450	0,132	0,143
-324,358	-200,000	-0,002	0,033
-323,343	-8,359	0,069	0,033
-322,329	46,607	0,148	0,098
-321,314	-71,993	0,118	0,031
-320,299	182,568	0,035	0,037
-319,285	-128,165	-0,059	-0,006
-318,270	-200,000	-0,008	-0,177
-317,256	7,212	-0,033	-0,017
-316,241	-39,005	0,026	0,010
-315,226	205,707	0,054	0,060
-314,212	-71,022	0,044	-0,012
-313,197	-19,692	0,114	-0,050
-312,183	38,589	-0,056	0,036
-311,168	800,000	0,034	0,071
-310,153	201,548	0,133	-0,147
-309,139	436,621	0,056	-0,087
-308,124	7,890	0,074	-0,040
-307,110	476,942	-0,043	0,069
-306,095	800,000	-0,060	0,161
-305,080	800,000	0,034	0,077
-304,066	203,202	-0,055	0,060
-303,051	-170,214	-0,133	0,003
-302,037	3,273	0,041	-0,021
-301,022	-55,993	-0,071	0,022
-300,008	8,127	0,037	0,020
-298,993	-200,000	0,010	-0,034
-297,978	-181,210	-0,074	0,001
-296,964	-200,000	-0,021	0,152
-295,949	351,130	0,075	-0,106
-294,935	-106,196	-0,053	0,008
-293,920	-76,921	0,100	-0,025
-292,905	11,886	0,130	0,071
-291,891	-8,972	0,137	0,065
-290,876	-75,091	0,067	-0,017
-289,862	-13,735	-0,083	0,038
-288,847	72,662	-0,059	0,044
-287,832	376,369	0,089	-0,129
-286,818	345,617	0,056	-0,079
-285,803	422,684	0,059	0,090
-284,789	-200,000	-0,021	0,081
-283,774	-200,000	0,004	0,060
-282,759	8,441	-0,041	-0,022
-281,745	800,000	-0,059	-0,176
-280,730	125,740	-0,040	-0,036
-279,716	-200,000	0,010	-0,037
-278,701	88,620	0,006	-0,005
-277,686	442,975	0,082	0,128
-276,672	-30,369	0,027	0,011
-275,657	-50,782	0,057	-0,019
-274,643	60,873	-0,088	0,062
-273,628	-200,000	-0,037	-0,170
-272,613	193,049	-0,027	0,029
-271,599	61,988	-0,043	0,030
-270,584	-128,867	0,134	-0,013
-269,570	-97,457	0,120	0,022
-268,555	-119,078	-0,031	0,004
-267,540	86,534	-0,086	0,067
-266,526	-200,000	0,023	-0,127
-265,511	-70,187	-0,111	0,030
-264,497	-17,895	-0,060	-0,027
-263,482	-200,000	0,003	-0,018
-262,467	-200,000	0,017	0,077
-261,453	-200,000	0,005	0,157
-260,438	-107,808	0,021	0,003
-259,424	-200,000	-0,001	-0,012
-258,409	-64,518	-0,057	0,016
-257,395	224,278	-0,065	-0,075
-256,380	-97,861	0,087	0,016
-255,365	-102,235	0,068	0,011
-254,351	-200,000	-0,008	0,062
-253,336	324,748	0,031	0,042
-252,322	-200,000	-0,017	-0,070
-251,307	800,000	0,030	0,065
-250,292	-96,432	0,147	-0,027
-249,278	467,360	-0,056	0,089
-248,263	40,390	-0,049	0,031
-247,249	-27,799	0,133	-0,055
-246,234	8,739	0,050	0,027
-245,219	-67,209	-0,062	-0,017
-244,205	479,663	0,029	-0,047
-243,190	19,387	-0,094	-0,053
-242,176	-153,417	0,070	0,003
-241,161	800,000	-0,043	0,111
-240,146	-200,000	0,032	-0,112
-239,132	175,154	-0,011	-0,011
-238,117	800,000	-0,024	-0,060
-237,103	456,734	-0,004	-0,007
-236,088	138,470	0,018	-0,017
-235,073	404,146	0,040	0,061
-234,059	800,000	-0,055	0,126
-233,044	454,401	0,066	0,104
-232,030	-90,944	0,098	0,020
-231,015	-200,000	0,000	-0,135
-230,000	-34,919	0,111	0,043
-228,986	-89,090	-0,053	-0,011
-227,971	-142,342	-0,064	-0,004
-226,957	287,682	0,062	-0,080
-225,942	537,422	-0,076	0,128
-224,927	-35,306	0,063	0,024
-223,913	12,425	-0,061	-0,033
-222,898	-200,000	-0,008	-0,143
-221,884	-59,914	-0,109	-0,033
-220,869	800,000	-0,068	0,158
-219,855	800,000	-0,042	0,103
-218,840	-200,000	-0,039	0,147
-217,825	12,431	0,089	0,049
-216,811	186,444	-0,034	-0,036
-215,796	-55,660	0,124	-0,039
-214,782	739,233	-0,019	-0,037
-213,767	-2,797	-0,091	0,045
-212,752	-200,000	0,034	0,123
-211,738	-70,699	0,052	0,014
-210,723	206,479	-0,029	-0,033
-209,709	-200,000	0,000	0,043
-208,694	800,000	-0,025	0,063
-207,679	800,000	-0,020	-0,054
-206,665	707,151	0,068	0,127
-205,650	149,963	0,086	0,083
-204,636	350,824	-0,102	0,144
-203,621	-42,056	-0,064	-0,023
-202,606	800,000	-0,033	-0,098
-201,592	-146,914	0,204	0,012
-200,577	80,407	0,013	0,010
-199,563	-115,514	-0,133	-0,018
-198,548	-5,488	0,031	0,015
-197,533	12,176	0,138	0,075
-196,519	-117,562	0,167	0,021
-195,504	155,976	-0,041	-0,040
-194,490	-61,443	0,055	-0,016
-193,475	757,962	0,062	-0,119
-192,460	-22,062	0,071	0,030
-191,446	173,756	0,111	0,114
-190,431	-200,000	0,011	0,051
-189,417	322,601	0,097	-0,131
-188,402	800,000	-0,039	-0,109
-187,387	-84,439	-0,215	-0,048
-186,373	-200,000	-0,002	-0,037
-185,358	259,684	-0,085	-0,104
-184,344	-200,000	0,015	-0,126
-183,329	-200,000	-0,008	0,035
-182,315	-200,000	0,014	0,062
-181,300	-134,560	0,052	-0,004
-180,285	-200,000	-0,026	-0,113
-179,271	-200,000	0,043	-0,186
-178,256	437,839	-0,039	-0,061
-177,242	329,363	0,089	0,122
-176,227	800,000	0,009	-0,022
-175,212	536,974	0,055	0,093
-174,198	319,629	-0,081	0,109
-173,183	800,000	0,030	-0,083
-172,169	-200,000	-0,037	-0,123
-171,154	562,720	0,046	-0,079
-170,139	283,179	-0,141	0,180
-169,125	148,523	0,085	-0,081
-168,110	394,491	0,086	0,127
-167,096	676,161	0,042	-0,078
-166,081	-200,000	0,028	0,094
-165,066	-200,000	-0,055	-0,296
-164,052	800,000	-0,051	0,123
-163,037	-33,610	0,039	-0,015
-162,023	85,159	0,066	-0,051
-161,008	544,886	-0,017	-0,029
-159,993	75,929	0,006	-0,004
-158,979	800,000	-0,041	0,096
-157,964	210,418	-0,051	-0,057
-156,950	-200,000	0,004	0,023
-155,935	103,239	0,044	-0,036
-154,920	-86,346	-0,186	0,040
-153,906	227,274	0,090	0,104
-152,891	102,373	-0,116	0,096
-151,877	-104,582	0,096	-0,016
-150,862	800,000	-0,035	-0,103
-149,847	-123,824	-0,032	-0,004
-148,833	-200,000	0,045	-0,218
-147,818	800,000	0,032	-0,080
-146,804	-100,756	0,069	-0,012
-145,789	-200,000	0,054	-0,178
-144,775	-200,000	-0,025	-0,131
-143,760	-200,000	-0,019	-0,192
-142,745	316,444	-0,054	0,073
-141,731	68,405	0,058	-0,042
-140,716	-200,000	-0,000	0,094
-139,702	156,072	0,124	0,121
-138,687	-200,000	0,013	0,075
-137,672	800,000	-0,030	-0,079
-136,658	800,000	0,051	-0,147
-135,643	-200,000	0,039	-0,171
-134,629	-41,722	-0,134	0,048
-133,614	-193,791	0,159	-0,001
-132,599	-200,000	-0,004	0,025
-131,585	800,000	0,030	-0,082
-130,570	311,333	0,009	-0,012
-129,556	-42,363	-0,168	0,060
-128,541	-31,314	0,146	-0,058
-127,526	-200,000	0,030	-0,136
-126,512	-126,639	0,068	0,007
-125,497	800,000	0,040	0,097
-124,483	67,982	-0,107	0,077
-123,468	-165,470	-0,170	-0,005
-122,453	726,757	-0,089	-0,168
-121,439	68,972	-0,111	0,080
-120,424	-18,277	0,087	-0,039
-119,410	-131,462	-0,059	-0,005
-118,395	397,451	0,080	0,119
-117,380	-200,000	0,024	0,080
-116,366	192,994	-0,109	0,117
-115,351	-200,000	0,016	-0,060
-114,337	800,000	-0,021	-0,046
-113,322	800,000	-0,022	-0,068
-112,307	800,000	-0,046	-0,120
-111,293	-200,000	0,046	0,174
-110,278	-200,000	-0,023	0,106
-109,264	-24,422	-0,089	-0,037
-108,249	-99,974	0,036	-0,006
-107,234	-186,744	-0,039	-0,000
-106,220	126,523	-0,068	-0,061
-105,205	143,743	0,021	0,019
-104,191	-200,000	0,016	-0,115
-103,176	260,485	-0,031	-0,038
-102,162	-35,694	-0,058	0,022
-101,147	-48,658	0,033	0,011
-100,132	-200,000	0,018	-0,144
-99,118	84,907	-0,145	0,112
-98,103	-200,000	0,004	0,096
-97,089	88,144	0,119	-0,093
-96,074	-98,737	0,061	-0,011
-95,059	800,000	-0,006	0,012
-94,045	571,671	-0,026	0,044
-93,030	-31,359	-0,087	-0,034
-92,016	-89,826	0,092	-0,019
-91,001	158,475	-0,040	0,039
-89,986	349,990	0,087	0,122
-88,972	800,000	0,021	0,045
-87,957	-104,862	0,157	0,025
-86,943	800,000	0,020	0,054
-85,928	-200,000	0,025	-0,083
-84,913	-111,442	0,085	0,012
-83,899	-32,315	-0,155	-0,061
-82,884	330,376	-0,031	0,042
-81,870	388,708	-0,031	0,045
-80,855	-8,324	0,199	-0,094
-79,840	489,885	-0,029	0,048
-78,826	800,000	0,014	-0,040
-77,811	-133,219	0,075	-0,007
-76,797	283,922	0,031	-0,040
-75,782	-200,000	0,005	0,092
-74,767	137,272	-0,025	0,023
-73,753	-89,309	0,185	0,038
-72,738	-200,000	-0,004	-0,019
-71,724	89,464	-0,023	0,018
-70,709	116,121	0,041	-0,035
-69,694	-200,000	0,018	-0,149
-68,680	-2,425	0,103	0,051
-67,665	-119,079	-0,134	0,016
-66,651	-200,000	0,001	0,062
-65,636	180,458	0,042	0,044
-64,622	41,586	-0,065	-0,042
-63,607	-200,000	0,006	-0,112
-62,592	2,582	-0,060	-0,030
-61,578	15,351	0,074	-0,041
-60,563	45,501	-0,139	0,090
-59,549	800,000	0,011	-0,028
-58,534	57,585	-2,150	-1,480
-57,519	565,957	-1,049	-1,802
-56,505	-200,000	-0,513	-4,542
-55,490	782,700	0,948	1,841
-54,476	800,000	5,259	11,462
-53,461	-200,000	22,472	346,077
-52,446	800,000	757,485	2292,391
-51,432	533,642	1643,857	2756,725
-50,417	67,950	1642,338	1183,339
-49,403	15,676	1519,980	840,301
-48,388	9,866	1445,819	771,411
-47,373	19,255	1438,544	812,218
-46,359	13,389	1426,981	777,986
-45,344	8,193	1423,055	751,250
-44,330	8,118	1421,080	749,824
-43,315	8,090	1419,236	748,690
-42,300	8,066	1417,557	747,663
-41,286	8,147	1416,143	747,268
-40,271	8,109	1415,109	746,514
-39,257	8,116	1413,718	745,784
-38,242	8,122	1412,715	745,253
-37,227	8,129	1411,579	744,657
-36,213	8,123	1410,340	743,946
-35,198	8,113	1408,975	743,146
-34,184	8,150	1408,184	742,874
-33,169	8,084	1406,652	741,730
-32,154	8,081	1406,085	741,387
-31,140	8,091	1404,653	740,648
-30,125	8,091	1403,730	740,131
-29,111	8,043	1402,445	739,202
-28,096	8,040	1401,223	738,512
-27,082	8,042	1400,100	737,901
-26,067	8,056	1398,729	737,217
-25,052	8,084	1397,745	736,798
-24,038	8,040	1396,792	736,061
-23,023	8,024	1396,074	735,577
-22,009	8,083	1394,941	735,227
-20,994	7,978	1394,133	734,284
-19,979	8,023	1392,931	733,830
-18,965	8,002	1392,106	733,271
-17,950	8,001	1391,079	732,698
-16,936	7,980	1390,265	732,139
-15,921	7,911	1389,327	731,301
-14,906	7,920	1388,552	730,905
-13,892	7,952	1387,231	730,327
-12,877	7,909	1386,639	729,786
-11,863	7,951	1385,867	729,546
-10,848	7,922	1384,923	728,889
-9,833	7,899	1384,021	728,280
-8,819	7,824	1383,377	727,565
-7,804	7,771	1382,263	726,705
-6,790	7,822	1381,081	726,292
-5,775	7,873	1380,035	725,944
-4,760	7,913	1378,977	725,544
-3,746	7,855	1378,260	724,871
-2,731	7,848	1377,430	724,372
-1,717	7,858	1376,504	723,905
-0,702	7,848	1374,748	722,908
0,313	11,844	1284,901	693,748
1,327	27,466	676,924	400,282
2,342	42,431	116,401	74,463
3,356	1,520	16,478	8,328
4,371	-3,144	3,853	1,887
5,386	14,104	1,379	0,755
6,400	584,279	0,304	0,529
7,415	-153,055	-0,201	-0,010
8,429	-106,886	-0,257	0,040
9,444	-30,853	-0,304	-0,120
10,459	74,824	-0,268	-0,199
11,473	-19,372	-0,422	-0,184
12,488	-20,480	-0,113	-0,049
13,502	104,721	-0,267	-0,222
14,517	-200,000	-0,095	-0,409
15,531	104,753	-0,444	-0,369
16,546	-25,169	-0,357	-0,148
17,561	288,255	-0,270	-0,345
18,575	44,161	-0,224	-0,145
19,590	50,974	-0,237	-0,158
20,604	49,982	-0,360	-0,239
21,619	134,432	-0,400	-0,365
22,634	64,932	-0,453	-0,321
23,648	-18,388	-0,436	-0,191
24,663	197,590	-0,350	-0,377
25,677	64,111	-0,275	-0,195
26,692	122,919	-0,312	-0,274
27,707	52,917	-0,322	-0,217
28,721	27,631	-0,498	-0,294
29,736	121,632	-0,255	-0,223
30,750	103,653	-0,338	-0,279
31,765	53,118	-0,333	-0,224
32,780	187,058	-0,373	-0,391
33,794	142,768	-0,215	-0,201
34,809	83,707	-0,301	-0,231
35,823	335,372	-0,288	-0,393
36,838	-56,224	-0,376	-0,117
37,853	441,233	-0,225	-0,348
38,867	154,906	-0,370	-0,358
39,882	21,923	-0,420	-0,240
40,896	29,142	-0,225	-0,134
41,911	108,545	-0,410	-0,344
42,926	29,031	-0,384	-0,228
43,940	30,554	-0,444	-0,266
44,955	207,402	-0,278	-0,305
45,969	58,726	-0,411	-0,283
46,984	233,870	-0,317	-0,367
47,999	48,335	-0,260	-0,171
49,013	152,340	-0,297	-0,285
50,028	121,388	-0,241	-0,211
51,042	124,127	-0,347	-0,306
52,057	151,707	-0,320	-0,306
53,071	94,831	-0,348	-0,278
54,086	-40,205	-0,364	-0,132
55,101	-44,264	-0,435	-0,152
56,115	-65,656	-0,429	-0,120
57,130	140,409	-0,311	-0,288
58,144	-68,195	-0,380	-0,103
59,159	130,367	-0,378	-0,340
60,174	27,429	-0,447	-0,263
61,188	-18,753	-0,290	-0,126
62,203	-88,536	-0,402	-0,083
63,217	30,375	-0,221	-0,132
64,232	264,626	-0,334	-0,409
65,247	86,538	-0,315	-0,243
66,261	49,899	-0,412	-0,272
67,276	46,051	-0,379	-0,245
68,290	-23,344	-0,346	-0,145
69,305	-16,232	-0,286	0,127
70,320	-92,482	-0,382	-0,075
71,334	137,323	-0,200	-0,183
72,349	-4,297	-0,270	-0,130
73,363	65,908	-0,383	-0,271
74,378	0,769	-0,434	-0,217
75,393	37,946	-0,360	-0,224
76,407	-71,352	-0,339	-0,088
77,422	3,707	-0,244	-0,124
78,436	62,652	-0,260	-0,182
79,451	-38,401	-0,347	-0,128
80,466	-59,925	-0,280	-0,083
81,480	17,309	-0,291	-0,161
82,495	75,850	-0,341	-0,252
83,509	333,443	-0,116	-0,157
84,524	67,593	-0,211	-0,150
85,539	-7,702	-0,318	-0,150
86,553	78,919	-0,255	-0,191
87,568	90,414	-0,294	-0,230
88,582	325,686	-0,249	-0,334
89,597	-0,710	-0,240	-0,119
90,611	-79,312	-0,276	-0,065
91,626	2,204	-0,223	-0,112
92,641	37,860	-0,178	-0,110
93,655	27,846	-0,368	-0,216
94,670	146,496	-0,264	-0,248
95,684	103,278	-0,293	-0,240
96,699	275,228	-0,279	-0,347
97,714	197,328	-0,241	-0,257
98,728	52,651	-0,302	-0,202
99,743	248,467	-0,220	-0,261
100,757	160,995	-0,159	-0,155
101,772	-22,207	-0,260	-0,110
102,787	91,185	-0,278	-0,218
103,801	-35,268	-0,242	-0,091
104,816	23,333	-0,299	-0,171
105,830	128,374	-0,121	-0,108
106,845	-6,954	-0,248	-0,117
107,860	-26,503	-0,165	-0,067
108,874	98,510	-0,231	-0,186
109,889	247,757	-0,204	-0,241
110,903	24,546	-0,338	-0,195
111,918	150,256	-0,096	-0,091
112,933	53,124	-0,283	-0,189
113,947	-88,121	-0,305	-0,063
114,962	-132,482	-0,236	-0,021
115,976	464,964	-0,191	-0,300
116,991	308,415	-0,275	-0,359
118,006	68,515	-0,265	-0,189
119,020	165,564	-0,256	-0,253
120,035	158,719	-0,184	-0,178
121,049	11,605	-0,238	-0,127
122,064	-20,134	-0,301	-0,129
123,079	34,261	-0,159	-0,097
124,093	114,202	-0,310	-0,263
125,108	-53,228	-0,248	-0,079
126,122	429,481	-0,104	-0,158
127,137	79,399	-0,303	-0,226
128,151	44,782	-0,235	-0,150
129,166	-52,555	-0,298	-0,095
130,181	0,900	-0,351	-0,175
131,195	-58,838	-0,248	-0,074
132,210	108,982	-0,265	-0,220
133,224	232,824	-0,185	-0,213
134,239	552,382	-0,110	-0,184
135,254	54,507	-0,220	-0,148
136,268	-156,610	-0,195	-0,008
137,283	-40,260	-0,229	-0,083
138,297	15,010	-0,375	-0,204
139,312	-66,920	-0,196	-0,054
140,327	100,409	-0,220	-0,178
141,341	305,229	-0,165	-0,214
142,356	-106,109	-0,229	-0,035
143,370	-21,763	-0,247	-0,104
144,385	372,067	-0,153	-0,218
145,400	370,361	-0,201	-0,285
146,414	175,870	-0,279	-0,282
147,429	177,764	-0,311	-0,316
148,443	39,631	-0,320	-0,199
149,458	470,085	-0,082	-0,128
150,473	479,946	-0,121	-0,191
151,487	-68,477	-0,350	-0,094
152,502	157,136	-0,306	-0,295
153,516	72,356	-0,231	-0,167
154,531	-48,629	-0,207	-0,069
155,546	22,748	-0,296	-0,168
156,560	-22,768	-0,306	-0,128
157,575	678,453	-0,157	-0,284
158,589	330,213	-0,158	-0,212
159,604	197,153	-0,225	-0,239
160,619	215,937	-0,178	-0,197
161,633	-52,715	-0,256	-0,082
162,648	-81,549	-0,170	-0,039
163,662	202,006	-0,210	-0,225
164,677	-32,491	-0,179	-0,069
165,692	-13,102	-0,164	-0,074
166,706	121,692	-0,233	-0,202
167,721	99,856	-0,203	-0,163
168,735	55,577	-0,219	-0,147
169,750	68,993	-0,336	-0,240
170,764	-82,258	-0,163	-0,037
171,779	-59,188	-0,206	-0,061
172,794	-81,924	-0,365	-0,082
173,808	61,982	-0,203	-0,140
174,823	17,164	-0,270	-0,148
175,837	46,799	-0,214	-0,138
176,852	171,567	-0,262	-0,261
177,867	186,202	-0,189	-0,196
178,881	333,354	-0,185	-0,249
179,896	-46,597	-0,053	-0,018
180,910	-195,948	-0,192	0,001
181,925	47,400	-0,205	-0,132
182,940	-84,951	-0,290	-0,063
183,954	76,200	-0,324	-0,238
184,969	144,307	-0,144	-0,133
185,983	4,562	-0,167	-0,085
186,998	7,761	-0,159	-0,083
188,013	-121,304	-0,243	-0,028
189,027	258,947	-0,104	-0,124
190,042	26,329	-0,301	-0,174
191,056	71,545	-0,331	-0,238
192,071	-82,927	-0,206	0,046
193,086	-3,592	-0,201	-0,097
194,100	122,421	-0,203	-0,176
195,115	54,518	-0,228	-0,152
196,129	389,877	-0,210	-0,302
197,144	65,675	-0,353	-0,248
198,159	-41,035	-0,213	-0,076
199,173	65,324	-0,204	-0,142
200,188	317,352	-0,112	-0,147
201,202	-103,236	-0,138	0,022
202,217	-200,000	0,006	-0,208
203,232	153,839	-0,085	-0,081
204,246	111,011	-0,179	-0,149
205,261	229,597	-0,189	-0,214
206,275	-200,000	-0,039	-0,237
207,290	135,096	-0,170	-0,153
208,304	-58,109	-0,176	-0,053
209,319	175,871	-0,156	-0,157
210,334	59,577	-0,149	-0,102
211,348	800,000	-0,094	-0,229
212,363	304,979	-0,171	-0,220
213,377	124,172	-0,229	-0,199
214,392	-200,000	-0,015	-0,088
215,407	800,000	-0,086	-0,223
216,421	306,269	-0,156	-0,202
217,436	133,779	-0,159	-0,143
218,450	205,728	-0,150	-0,162
219,465	-112,188	-0,239	-0,033
220,480	138,902	-0,102	-0,093
221,494	493,278	-0,100	-0,160
222,509	800,000	-0,104	-0,230
223,523	166,578	-0,120	-0,118
224,538	70,556	-0,196	-0,140
225,553	-47,155	-0,195	-0,065
226,567	182,707	-0,172	-0,175
227,582	83,973	-0,283	-0,214
228,596	127,723	-0,210	-0,184
229,611	-200,000	-0,005	-0,163
230,626	149,933	-0,170	-0,159
231,640	-85,842	-0,386	-0,082
232,655	-34,997	-0,200	-0,075
233,669	-14,300	-0,120	-0,053
234,684	100,751	-0,229	-0,184
235,699	137,832	-0,182	-0,164
236,713	521,953	-0,069	-0,113
237,728	394,558	-0,167	-0,240
238,742	74,200	-0,211	-0,153
239,757	31,722	-0,174	-0,103
240,772	800,000	-0,178	-0,375
241,786	800,000	-0,101	-0,222
242,801	800,000	-0,131	-0,270
243,815	550,066	-0,121	-0,201
244,830	126,102	-0,145	-0,126
245,844	544,224	-0,102	-0,169
246,859	131,311	-0,193	-0,171
247,874	58,685	-0,211	-0,142
248,888	200,688	-0,115	-0,122
249,903	117,336	-0,178	-0,151
250,917	-37,063	-0,179	-0,066
251,932	-114,285	-0,165	-0,022
252,947	7,383	-0,300	-0,154
253,961	51,841	-0,244	-0,160
254,976	502,396	-0,057	-0,091
255,990	-14,809	-0,215	-0,095
257,005	-146,275	-0,148	-0,009
258,020	-122,052	-0,260	0,029
259,034	-151,381	-0,091	-0,005
260,049	1,019	-0,156	-0,077
261,063	107,348	-0,179	-0,147
262,078	60,880	-0,255	-0,174
263,093	250,951	-0,194	-0,228
264,107	758,183	-0,087	-0,163
265,122	22,533	-0,075	-0,042
266,136	10,528	-0,071	-0,037
267,151	-123,087	-0,150	-0,016
268,166	137,043	-0,113	-0,102
269,180	179,337	-0,174	-0,176
270,195	17,442	-0,209	-0,114
271,209	-127,520	-0,201	-0,020
272,224	105,569	-0,128	-0,104
273,239	256,473	-0,168	-0,199
274,253	-139,118	-0,176	0,013
275,268	-145,919	-0,195	-0,012
276,282	133,275	-0,153	-0,136
277,297	71,061	-0,221	-0,158
278,312	184,338	-0,232	-0,237
279,326	-72,945	-0,074	-0,019
280,341	800,000	-0,082	-0,157
281,355	285,961	-0,262	-0,326
282,370	-79,158	-0,206	-0,048
283,384	340,563	-0,037	0,050
284,399	57,917	-0,252	-0,169
285,414	7,302	-0,177	-0,091
286,428	-200,000	-0,043	-0,155
287,443	123,360	-0,103	-0,089
288,457	116,468	-0,109	-0,092
289,472	44,636	-0,243	-0,153
290,487	117,186	-0,242	-0,204
291,501	22,676	-0,188	-0,105
292,516	800,000	-0,071	-0,169
293,530	-50,266	-0,192	-0,062
294,545	-72,716	-0,181	0,045
295,560	-57,409	-0,282	0,085
296,574	100,514	-0,176	-0,140
297,589	-200,000	-0,029	-0,161
298,603	415,451	-0,163	-0,239
299,618	624,556	-0,074	-0,128
300,633	-146,419	-0,270	-0,016
301,647	27,691	-0,114	-0,066
302,662	-132,858	-0,133	0,011
303,676	57,106	-0,217	-0,145
304,691	482,244	-0,054	-0,085
305,706	-33,630	-0,162	-0,061
306,720	33,029	-0,144	-0,085
307,735	-100,171	-0,190	-0,032
308,749	659,261	-0,081	-0,144
309,764	21,546	-0,103	-0,057
310,779	-30,429	-0,180	-0,070
311,793	47,866	-0,200	-0,128
312,808	47,583	-0,188	-0,120
313,822	108,159	-0,214	-0,175
314,837	54,356	-0,162	-0,107
315,852	382,777	-0,077	-0,108
316,866	466,188	0,043	-0,066
317,881	-36,942	-0,155	0,057
318,895	-64,716	-0,178	-0,049
319,910	674,259	-0,131	-0,234
320,925	800,000	-0,078	-0,152
321,939	249,969	-0,146	-0,170
322,954	479,119	-0,078	-0,121
323,968	-200,000	-0,035	0,110
324,983	-200,000	-0,044	0,181
325,997	-94,994	-0,179	0,033
327,012	69,858	-0,089	-0,063
328,027	184,116	-0,136	-0,138
329,041	239,937	-0,159	-0,181
330,056	88,290	-0,116	-0,088
331,070	-51,432	-0,245	-0,078
332,085	86,393	-0,104	-0,079
333,100	41,996	-0,097	0,060
334,114	66,183	-0,061	-0,042
335,129	-17,421	-0,099	-0,042
336,143	-55,727	-0,079	0,024
337,158	-75,451	-0,145	0,035
338,173	60,074	-0,132	-0,089
339,187	32,644	-0,116	-0,068
340,202	-83,167	-0,081	-0,018
341,216	78,950	-0,097	-0,071
342,231	169,178	-0,138	-0,135
343,246	-88,137	-0,131	-0,027
344,260	516,825	-0,032	-0,052
345,275	121,472	-0,030	0,026
346,289	-200,000	-0,041	-0,142
347,304	-104,384	-0,048	0,008
348,319	-50,126	-0,091	-0,029
349,333	222,146	-0,149	-0,164
350,348	-42,868	-0,200	-0,069
351,362	273,245	-0,166	-0,201
352,377	157,335	-0,061	-0,058
353,392	-54,175	-0,246	0,076
354,406	-111,370	-0,187	0,026
355,421	208,888	1310,948	1403,810
356,435	160,747	1471,153	1404,242
