DTS Sentinel unit serial number:	SN410029Multiplexer serial number:	ORYXHardware model number:	OX2-SRSoftware version number:	ORYX F/W v4,00 Oryx Data Collector v3.7.2.0data status	okinstallation	B3 Nyhavnadifferential loss correction	single-endedforward channel	channel 1reverse channel	N/Adate	2023/12/03time	21:42:30forward acquisition time	300,00reverse acquisition time	0,00gamma	499,1914k internal	0,3200k external	0,3200temperature offset calibration	1,0000default loss term (dB/km)	0,3820temperature slope calibration	1,0000multiplexer offset coefficient	1,0000multiplexer slope coefficient	1,0000fibre end	0,00T internal ref (°C)	13,48T ext. ref 1 (°C)	-1,96T ext. ref 2 (°C)	-1,99length (m)	temperature (°C)	Stokes	anti-Stokes-744,400	0,730	-0,319	-0,166
-743,385	-200,000	0,065	0,284
-742,371	508,314	-0,053	-0,090
-741,356	-200,000	0,001	0,514
-740,342	350,426	-0,135	-0,195
-739,327	-200,000	0,010	0,230
-738,312	192,940	-0,183	-0,202
-737,298	-200,000	-0,019	0,199
-736,283	152,684	-0,285	-0,284
-735,269	-200,000	0,009	0,379
-734,254	-149,715	-0,193	0,011
-733,239	800,000	-0,083	0,215
-732,225	800,000	-0,093	-0,262
-731,210	800,000	0,058	0,183
-730,196	18,854	0,045	-0,026
-729,181	133,895	0,027	0,026
-728,167	-83,556	0,022	0,005
-727,152	-87,647	-0,111	-0,024
-726,137	332,985	0,023	-0,032
-725,123	-200,000	-0,003	-0,036
-724,108	-200,000	0,005	-0,044
-723,094	179,015	-0,139	-0,148
-722,079	196,048	-0,024	0,026
-721,064	-162,167	-0,031	0,001
-720,050	490,897	-0,088	-0,147
-719,035	-20,879	-0,063	-0,028
-718,021	153,562	-0,015	0,015
-717,006	388,627	0,032	-0,049
-715,991	145,909	-0,145	-0,141
-714,977	22,705	-0,051	-0,030
-713,962	800,000	0,060	-0,146
-712,948	-139,088	0,058	0,004
-711,933	128,339	-0,048	-0,045
-710,918	800,000	-0,064	-0,143
-709,904	800,000	0,017	-0,035
-708,889	493,943	-0,040	-0,067
-707,875	-200,000	0,031	-0,142
-706,860	-140,038	0,071	-0,005
-705,845	125,382	0,107	0,098
-704,831	112,439	-0,096	-0,084
-703,816	-32,261	0,005	0,002
-702,802	236,037	-0,019	-0,023
-701,787	557,993	0,038	0,067
-700,772	800,000	0,051	-0,129
-699,758	-200,000	0,006	0,044
-698,743	-30,500	0,039	-0,016
-697,729	-93,648	-0,051	0,010
-696,714	-148,930	-0,131	-0,008
-695,699	144,687	-0,061	0,060
-694,685	-200,000	0,017	-0,070
-693,670	-75,347	-0,220	-0,057
-692,656	-200,000	-0,010	-0,128
-691,641	-200,000	0,021	0,080
-690,627	-125,568	-0,134	-0,015
-689,612	-200,000	-0,001	0,087
-688,597	111,139	-0,068	0,059
-687,583	-72,830	-0,111	0,029
-686,568	558,016	-0,068	0,119
-685,554	-200,000	0,010	-0,171
-684,539	-153,314	0,022	0,001
-683,524	218,385	-0,031	0,036
-682,510	78,694	0,021	0,017
-681,495	-35,967	0,042	-0,016
-680,481	-29,732	-0,083	0,034
-679,466	-43,041	-0,102	-0,037
-678,451	-67,319	-0,103	0,029
-677,437	-200,000	-0,024	0,151
-676,422	89,065	0,039	0,032
-675,408	-111,359	-0,065	-0,010
-674,393	314,047	-0,070	0,095
-673,378	427,075	-0,016	-0,026
-672,364	285,014	-0,033	-0,043
-671,349	-104,569	-0,160	0,026
-670,335	339,032	0,083	-0,118
-669,320	-74,301	-0,105	0,027
-668,305	645,157	0,076	0,141
-667,291	200,023	0,064	-0,072
-666,276	63,102	-0,083	0,060
-665,262	-113,324	-0,046	-0,007
-664,247	-70,332	-0,107	0,029
-663,232	114,885	-0,054	0,048
-662,218	408,385	-0,013	-0,019
-661,203	-64,776	0,119	0,035
-660,189	28,254	0,050	-0,030
-659,174	59,212	-0,083	-0,059
-658,159	-55,747	-0,065	-0,021
-657,145	88,534	-0,098	-0,079
-656,130	-33,238	0,097	-0,039
-655,116	-32,541	0,091	0,036
-654,101	-200,000	-0,003	0,166
-653,086	108,593	0,043	0,037
-652,072	-20,037	-0,024	-0,011
-651,057	438,623	0,027	-0,043
-650,043	200,628	-0,079	-0,088
-649,028	-200,000	0,029	-0,148
-648,014	-200,000	0,008	-0,028
-646,999	-200,000	-0,005	0,075
-645,984	-79,514	-0,046	0,011
-644,970	50,522	-0,065	0,045
-643,955	1,401	-0,073	-0,038
-642,941	15,269	-0,175	-0,099
-641,926	139,644	-0,013	-0,012
-640,911	-128,725	0,103	0,010
-639,897	800,000	0,053	-0,126
-638,882	226,547	-0,073	0,086
-637,868	-200,000	-0,004	-0,111
-636,853	132,799	-0,008	0,007
-635,838	800,000	-0,030	-0,084
-634,824	-200,000	-0,013	-0,102
-633,809	800,000	0,027	-0,060
-632,795	273,305	-0,079	0,102
-631,780	243,555	-0,076	0,093
-630,765	-146,569	0,214	-0,013
-629,751	183,375	-0,032	0,034
-628,736	-68,856	-0,073	-0,020
-627,722	266,772	0,018	-0,022
-626,707	800,000	0,026	0,071
-625,692	370,549	0,042	0,061
-624,678	312,874	0,046	0,063
-623,663	292,036	0,047	-0,062
-622,649	-200,000	0,014	-0,057
-621,634	13,871	-0,059	-0,033
-620,619	-200,000	0,002	-0,028
-619,605	-91,119	-0,103	-0,021
-618,590	252,542	-0,054	-0,067
-617,576	-85,582	0,072	-0,016
-616,561	-200,000	-0,033	0,154
-615,546	-102,684	0,129	0,022
-614,532	800,000	-0,041	0,102
-613,517	800,000	0,017	0,042
-612,503	-83,026	-0,138	0,032
-611,488	-38,451	0,276	0,105
-610,474	800,000	-0,048	0,123
-609,459	131,062	-0,067	0,062
-608,444	340,740	-0,081	-0,115
-607,430	176,108	-0,051	-0,054
-606,415	51,984	0,048	0,033
-605,401	800,000	0,036	-0,105
-604,386	273,557	0,110	0,141
-603,371	-97,285	0,201	0,038
-602,357	-200,000	-0,009	0,040
-601,342	-200,000	0,002	0,069
-600,328	-190,880	0,123	0,001
-599,313	-200,000	-0,039	0,185
-598,298	-200,000	0,014	0,250
-597,284	126,259	0,025	0,023
-596,269	37,785	0,091	0,058
-595,255	260,314	0,050	0,062
-594,240	392,034	-0,043	-0,065
-593,225	-200,000	-0,009	-0,081
-592,211	-114,752	-0,126	-0,017
-591,196	800,000	-0,054	0,139
-590,182	-48,993	-0,127	0,044
-589,167	800,000	0,084	0,186
-588,152	-160,244	-0,016	-0,001
-587,138	800,000	0,026	-0,065
-586,123	800,000	-0,074	-0,191
-585,109	-55,863	-0,085	0,027
-584,094	-200,000	0,022	0,106
-583,079	-196,374	-0,029	0,000
-582,065	-200,000	-0,004	0,067
-581,050	-50,340	-0,078	0,026
-580,036	2,677	-0,091	0,047
-579,021	31,661	-0,110	-0,068
-578,006	7,559	-0,050	-0,027
-576,992	800,000	0,042	0,089
-575,977	-200,000	0,002	0,030
-574,963	-21,015	-0,092	0,041
-573,948	-123,788	0,128	0,014
-572,934	302,972	-0,080	-0,108
-571,919	-200,000	-0,011	-0,055
-570,904	800,000	-0,029	-0,074
-569,890	-200,000	0,001	-0,208
-568,875	230,708	0,034	0,040
-567,861	37,064	0,100	0,064
-566,846	800,000	0,043	0,110
-565,831	-80,044	-0,110	-0,026
-564,817	-141,522	0,083	0,006
-563,802	-200,000	-0,004	0,070
-562,788	137,139	-0,054	-0,051
-561,773	583,688	-0,022	-0,040
-560,758	-90,404	-0,167	0,035
-559,744	-129,910	0,161	0,016
-558,729	120,178	-0,036	-0,032
-557,715	130,651	0,027	0,025
-556,700	33,657	-0,057	-0,036
-555,685	126,837	-0,220	-0,202
-554,671	59,950	0,095	-0,068
-553,656	-200,000	0,002	-0,054
-552,642	-95,833	0,056	0,011
-551,627	-0,277	-0,088	-0,045
-550,612	-200,000	0,006	0,055
-549,598	-22,393	-0,147	0,064
-548,583	-82,012	-0,197	-0,046
-547,569	222,530	0,026	-0,030
-546,554	4,543	0,061	0,032
-545,539	-31,170	-0,081	0,033
-544,525	-200,000	0,042	0,176
-543,510	-33,417	-0,104	0,041
-542,496	135,379	-0,093	-0,087
-541,481	-136,286	0,063	-0,005
-540,466	-59,902	0,013	-0,004
-539,452	124,819	0,063	0,057
-538,437	21,387	0,062	0,036
-537,423	222,254	0,029	0,034
-536,408	601,386	-0,022	0,040
-535,393	153,828	-0,057	-0,056
-534,379	566,691	-0,079	-0,139
-533,364	-200,000	0,005	-0,081
-532,350	-59,965	-0,094	-0,029
-531,335	-46,928	-0,043	-0,015
-530,321	-114,838	0,059	0,008
-529,306	-200,000	0,007	-0,035
-528,291	109,747	0,101	-0,087
-527,277	-200,000	0,000	-0,085
-526,262	585,836	-0,024	0,042
-525,248	720,800	-0,030	-0,058
-524,233	595,995	0,083	0,149
-523,218	277,361	0,031	0,039
-522,204	-200,000	0,000	-0,047
-521,189	-31,433	-0,142	0,057
-520,175	155,412	-0,107	-0,107
-519,160	800,000	0,020	-0,044
-518,145	800,000	0,060	0,157
-517,131	15,648	-0,097	0,055
-516,116	87,307	0,055	-0,044
-515,102	81,355	0,043	-0,034
-514,087	687,929	-0,045	0,085
-513,072	-12,479	-0,105	0,049
-512,058	745,497	-0,049	-0,095
-511,043	-200,000	-0,001	-0,047
-510,029	800,000	0,030	-0,082
-509,014	-63,342	-0,073	0,021
-507,999	800,000	0,079	-0,162
-506,985	174,215	-0,039	0,041
-505,970	-71,342	-0,077	0,021
-504,956	58,092	-0,103	-0,072
-503,941	60,839	0,034	-0,025
-502,926	-175,060	0,085	0,002
-501,912	-22,664	0,072	0,031
-500,897	-200,000	0,014	0,046
-499,883	271,485	-0,046	0,059
-498,868	-200,000	-0,018	-0,075
-497,853	419,615	-0,067	0,103
-496,839	-200,000	0,040	-0,138
-495,824	6,740	0,033	-0,018
-494,810	-17,891	0,056	0,025
-493,795	-105,517	-0,083	-0,013
-492,781	116,154	0,033	-0,029
-491,766	-118,864	-0,051	-0,006
-490,751	72,976	-0,062	-0,047
-489,737	-108,203	-0,042	-0,006
-488,722	-200,000	-0,007	0,046
-487,708	-200,000	-0,002	0,046
-486,693	684,205	0,037	-0,070
-485,678	101,703	-0,069	0,058
-484,664	-133,297	-0,025	-0,002
-483,649	-74,327	-0,026	0,007
-482,635	-200,000	-0,003	0,021
-481,620	-95,706	-0,041	0,008
-480,605	-142,053	0,095	0,007
-479,591	107,505	-0,055	0,047
-478,576	800,000	0,050	0,114
-477,562	-200,000	0,012	-0,068
-476,547	-16,563	0,104	-0,047
-475,532	-31,772	0,130	-0,052
-474,518	150,576	0,075	0,073
-473,503	-146,634	0,067	0,004
-472,489	800,000	-0,026	-0,052
-471,474	190,001	-0,039	-0,042
-470,459	1,091	-0,150	-0,077
-469,445	-200,000	0,024	-0,177
-468,430	-200,000	-0,014	-0,087
-467,416	-200,000	0,011	0,129
-466,401	-200,000	-0,012	0,055
-465,386	289,977	0,036	-0,047
-464,372	91,378	0,053	0,043
-463,357	14,600	-0,136	-0,077
-462,343	140,220	-0,037	-0,035
-461,328	22,547	0,038	-0,022
-460,313	508,165	-0,014	-0,024
-459,299	214,133	0,010	-0,011
-458,284	324,097	-0,065	0,090
-457,270	188,578	0,045	0,049
-456,255	-39,545	-0,098	0,037
-455,241	449,586	-0,025	-0,040
-454,226	-131,975	-0,033	0,003
-453,211	800,000	-0,039	0,105
-452,197	442,204	-0,023	0,036
-451,182	7,832	0,112	0,060
-450,168	344,549	0,028	0,040
-449,153	670,582	-0,064	-0,120
-448,138	254,741	-0,104	-0,128
-447,124	43,237	0,067	-0,044
-446,109	-35,810	-0,054	-0,021
-445,095	265,668	0,038	-0,047
-444,080	-35,704	0,077	0,030
-443,065	-102,341	-0,046	0,008
-442,051	79,934	-0,075	0,058
-441,036	800,000	-0,061	-0,135
-440,022	-20,046	0,194	0,086
-439,007	800,000	0,030	0,074
-437,992	226,474	-0,051	-0,060
-436,978	-104,405	-0,098	0,016
-435,963	-200,000	0,062	0,241
-434,949	-200,000	0,000	0,061
-433,934	25,875	-0,098	-0,059
-432,919	-128,969	0,091	0,009
-431,905	309,446	-0,047	-0,063
-430,890	800,000	0,009	-0,025
-429,876	317,299	0,073	-0,100
-428,861	-76,246	0,132	0,033
-427,846	14,271	0,053	0,030
-426,832	-200,000	-0,020	-0,071
-425,817	74,096	-0,162	-0,122
-424,803	331,820	0,055	-0,077
-423,788	-82,538	0,104	0,024
-422,773	382,443	-0,093	-0,138
-421,759	-94,741	0,087	0,017
-420,744	-200,000	-0,019	0,257
-419,730	-79,413	0,174	-0,042
-418,715	-141,753	-0,057	0,004
-417,701	116,953	-0,059	0,052
-416,686	779,059	-0,022	-0,044
-415,671	-156,869	0,200	0,009
-414,657	116,650	-0,095	-0,084
-413,642	-200,000	-0,002	-0,010
-412,628	40,697	-0,109	0,070
-411,613	-200,000	0,011	-0,069
-410,598	-200,000	0,013	-0,078
-409,584	37,536	0,044	-0,028
-408,569	-200,000	0,006	0,054
-407,555	-103,965	0,145	-0,024
-406,540	640,705	0,013	-0,024
-405,525	-49,753	-0,095	-0,032
-404,511	139,310	-0,099	-0,094
-403,496	-200,000	0,004	-0,131
-402,482	-200,000	-0,006	0,029
-401,467	-88,251	-0,142	0,030
-400,452	-200,000	0,016	-0,135
-399,438	358,412	0,064	-0,093
-398,423	496,186	-0,037	-0,061
-397,409	-200,000	-0,006	-0,036
-396,394	-27,564	-0,035	0,014
-395,379	-109,807	0,068	0,010
-394,365	800,000	-0,006	-0,015
-393,350	12,983	0,164	0,091
-392,336	66,382	0,050	0,036
-391,321	82,314	-0,050	-0,039
-390,306	-132,755	-0,081	-0,007
-389,292	131,259	-0,102	-0,094
-388,277	-98,633	-0,175	0,032
-387,263	-200,000	0,007	-0,062
-386,248	-200,000	-0,014	0,118
-385,233	-200,000	0,003	0,052
-384,219	-42,768	-0,039	0,014
-383,204	-200,000	0,008	-0,102
-382,190	45,486	0,137	-0,090
-381,175	-57,801	0,077	0,024
-380,160	42,360	0,071	0,046
-379,146	69,868	0,068	-0,051
-378,131	800,000	0,047	0,132
-377,117	-101,250	0,048	-0,008
-376,102	-101,364	-0,083	-0,014
-375,088	-31,750	-0,009	-0,003
-374,073	-57,952	-0,157	-0,049
-373,058	-200,000	-0,004	0,017
-372,044	800,000	0,034	0,102
-371,029	-39,047	0,069	0,026
-370,015	-200,000	-0,023	0,111
-369,000	320,423	-0,071	-0,097
-367,985	-200,000	-0,009	-0,078
-366,971	11,651	-0,081	0,044
-365,956	672,588	0,030	-0,056
-364,942	-103,413	0,122	-0,020
-363,927	82,207	0,066	-0,052
-362,912	52,533	0,093	-0,064
-361,898	-32,174	-0,029	-0,011
-360,883	201,124	-0,073	-0,081
-359,869	800,000	0,033	0,095
-358,854	31,427	-0,011	0,007
-357,839	-200,000	-0,007	0,090
-356,825	-104,000	-0,051	0,008
-355,810	31,764	0,111	0,068
-354,796	-38,427	-0,072	-0,027
-353,781	-15,831	0,072	-0,033
-352,766	-193,737	0,062	0,000
-351,752	17,039	-0,062	0,035
-350,737	413,430	-0,039	0,060
-349,723	29,331	0,061	0,037
-348,708	800,000	0,084	-0,171
-347,693	281,709	0,050	-0,064
-346,679	800,000	-0,074	-0,170
-345,664	-20,513	0,028	0,012
-344,650	-200,000	0,022	0,101
-343,635	-43,126	0,225	-0,081
-342,620	44,584	0,130	0,085
-341,606	254,252	0,031	-0,038
-340,591	800,000	0,032	0,071
-339,577	-106,629	-0,103	-0,016
-338,562	-63,600	0,113	-0,033
-337,548	644,150	-0,048	-0,088
-336,533	87,363	-0,138	0,109
-335,518	-200,000	-0,030	0,122
-334,504	-200,000	-0,032	0,188
-333,489	605,352	0,046	0,082
-332,475	107,795	-0,049	-0,042
-331,460	47,562	-0,036	-0,024
-330,445	183,956	-0,062	-0,066
-329,431	0,089	0,054	0,028
-328,416	73,012	0,019	-0,014
-327,402	149,459	0,028	0,027
-326,387	800,000	0,030	0,063
-325,372	91,783	-0,104	-0,084
-324,358	-200,000	-0,001	-0,099
-323,343	265,347	0,023	0,029
-322,329	-36,045	-0,100	0,038
-321,314	-200,000	-0,002	0,053
-320,299	-37,810	-0,037	0,014
-319,285	317,044	0,079	0,107
-318,270	220,609	-0,097	-0,112
-317,256	-73,995	-0,084	-0,022
-316,241	-200,000	0,025	-0,099
-315,226	-200,000	-0,005	-0,043
-314,212	22,311	-0,014	-0,008
-313,197	800,000	0,040	0,091
-312,183	73,046	0,089	-0,066
-311,168	-200,000	0,027	-0,141
-310,153	448,210	-0,105	0,165
-309,139	240,050	-0,037	-0,044
-308,124	-200,000	0,016	-0,060
-307,110	800,000	0,082	0,205
-306,095	-200,000	0,003	-0,042
-305,080	39,669	0,097	0,062
-304,066	-200,000	0,030	0,128
-303,051	55,043	-0,156	-0,108
-302,037	-200,000	-0,012	0,079
-301,022	-1,836	0,195	-0,098
-300,008	-21,127	0,019	0,008
-298,993	6,263	0,046	-0,024
-297,978	215,083	-0,109	0,123
-296,964	-40,823	-0,035	-0,013
-295,949	443,577	0,034	0,053
-294,935	-200,000	-0,022	-0,127
-293,920	800,000	-0,033	-0,067
-292,905	448,484	0,044	0,070
-291,891	800,000	0,031	0,071
-290,876	181,346	0,159	0,168
-289,862	-200,000	-0,015	0,078
-288,847	-55,148	0,034	-0,011
-287,832	158,739	-0,088	-0,087
-286,818	800,000	-0,027	-0,054
-285,803	11,227	0,041	0,023
-284,789	-42,748	-0,093	0,034
-283,774	41,235	-0,020	-0,013
-282,759	800,000	0,014	-0,030
-281,745	-200,000	0,014	-0,133
-280,730	-112,686	-0,164	-0,023
-279,716	82,524	0,054	-0,042
-278,701	800,000	-0,042	-0,106
-277,686	-145,111	0,106	-0,007
-276,672	-30,563	0,129	-0,052
-275,657	-200,000	-0,023	-0,122
-274,643	-1,827	0,078	-0,039
-273,628	-100,352	-0,123	0,022
-272,613	-200,000	-0,011	0,136
-271,599	4,917	0,123	-0,064
-270,584	-164,339	0,102	0,003
-269,570	800,000	0,030	0,082
-268,555	92,684	-0,054	-0,043
-267,540	800,000	0,024	-0,055
-266,526	-32,975	-0,169	0,067
-265,511	-200,000	-0,003	0,179
-264,497	-200,000	-0,031	0,250
-263,482	-200,000	-0,012	0,050
-262,467	32,693	-0,077	0,047
-261,453	-17,305	-0,113	-0,051
-260,438	557,214	-0,038	-0,066
-259,424	-200,000	0,019	-0,082
-258,409	-167,759	-0,099	0,003
-257,395	-100,534	0,100	0,017
-256,380	-64,816	0,163	0,047
-255,365	-111,924	-0,146	0,021
-254,351	129,677	0,104	0,095
-253,336	224,704	-0,064	-0,074
-252,322	-24,711	-0,044	-0,019
-251,307	58,438	0,010	0,007
-250,292	-86,908	0,145	-0,031
-249,278	144,075	0,086	0,082
-248,263	-69,103	0,064	-0,017
-247,249	-200,000	0,017	-0,078
-246,234	787,214	0,039	0,076
-245,219	131,678	-0,065	-0,060
-244,205	-83,320	0,094	0,021
-243,190	800,000	0,057	0,133
-242,176	-200,000	-0,005	-0,048
-241,161	553,564	0,039	-0,067
-240,146	-200,000	-0,029	0,095
-239,132	-200,000	-0,005	0,111
-238,117	-79,512	-0,052	0,012
-237,103	-95,430	0,079	-0,015
-236,088	4,996	0,075	-0,039
-235,073	-200,000	-0,005	-0,050
-234,059	800,000	-0,017	-0,035
-233,044	219,284	0,056	-0,064
-232,030	143,424	0,120	0,114
-231,015	-63,830	0,050	-0,015
-230,000	-73,942	-0,081	-0,021
-228,986	159,054	0,101	-0,100
-227,971	23,949	0,062	-0,036
-226,957	-200,000	-0,002	-0,122
-225,942	581,385	0,039	0,068
-224,927	-200,000	0,041	0,221
-223,913	-200,000	-0,009	-0,066
-222,898	-19,676	-0,077	0,034
-221,884	140,905	-0,098	0,092
-220,869	-197,554	0,111	0,000
-219,855	149,090	0,075	-0,072
-218,840	340,942	0,037	0,051
-217,825	299,343	-0,080	0,105
-216,811	-200,000	-0,049	0,157
-215,796	174,686	0,120	-0,124
-214,782	215,995	-0,092	-0,105
-213,767	-200,000	-0,026	-0,119
-212,752	-74,179	0,136	-0,035
-211,738	168,919	0,078	0,079
-210,723	-200,000	-0,029	-0,103
-209,709	-200,000	-0,030	-0,097
-208,694	23,487	-0,082	0,048
-207,679	-35,670	0,045	0,017
-206,665	800,000	0,013	-0,031
-205,650	-19,892	0,095	0,041
-204,636	515,185	0,070	-0,116
-203,621	-200,000	-0,028	0,104
-202,606	-3,125	-0,047	0,023
-201,592	800,000	-0,034	-0,104
-200,577	-115,514	-0,017	0,002
-199,563	309,374	0,032	-0,043
-198,548	226,825	-0,075	0,087
-197,533	-200,000	0,022	0,089
-196,519	800,000	0,026	-0,056
-195,504	-200,000	0,002	0,125
-194,490	-23,251	0,120	0,051
-193,475	800,000	-0,023	0,059
-192,460	-113,142	0,136	0,019
-191,446	369,425	0,021	-0,031
-190,431	596,073	0,069	0,122
-189,417	-121,170	0,068	0,008
-188,402	55,006	-0,146	0,100
-187,387	-79,109	-0,106	-0,025
-186,373	800,000	-0,025	0,054
-185,358	-200,000	0,011	-0,152
-184,344	332,580	-0,104	0,143
-183,329	-200,000	0,012	0,078
-182,315	48,417	0,030	0,020
-181,300	25,505	0,015	-0,009
-180,285	184,751	-0,017	-0,018
-179,271	-200,000	0,016	-0,245
-178,256	-200,000	-0,002	-0,089
-177,242	-200,000	-0,043	-0,223
-176,227	-62,681	0,108	0,032
-175,212	-129,861	-0,052	0,005
-174,198	92,241	0,040	-0,032
-173,183	-200,000	0,007	-0,048
-172,169	-8,133	0,125	-0,060
-171,154	188,025	0,048	-0,051
-170,139	-200,000	-0,012	0,102
-169,125	-95,758	0,162	-0,031
-168,110	506,377	0,047	0,077
-167,096	-73,239	-0,123	0,032
-166,081	-168,957	0,047	0,001
-165,066	218,004	-0,072	-0,081
-164,052	-200,000	-0,046	-0,172
-163,037	78,423	-0,075	-0,057
-162,023	-200,000	0,034	0,192
-161,008	112,481	-0,043	0,037
-159,993	156,785	0,069	0,068
-158,979	-200,000	0,005	0,092
-157,964	800,000	0,049	0,115
-156,950	165,437	-0,004	0,004
-155,935	-200,000	0,005	-0,066
-154,920	-200,000	-0,002	0,066
-153,906	337,046	0,014	-0,020
-152,891	-166,686	-0,207	0,006
-151,877	-136,235	-0,115	0,009
-150,862	153,627	-0,125	-0,122
-149,847	800,000	-0,022	-0,065
-148,833	87,528	-0,102	-0,080
-147,818	1,125	-0,113	0,058
-146,804	224,664	0,113	0,130
-145,789	43,186	0,097	0,063
-144,775	186,487	-0,136	-0,144
-143,760	-101,429	-0,110	0,019
-142,745	61,954	-0,048	0,034
-141,731	-200,000	0,008	0,157
-140,716	244,216	0,059	0,071
-139,702	800,000	0,044	0,088
-138,687	4,824	0,014	-0,007
-137,672	-161,220	-0,020	-0,001
-136,658	141,910	0,085	-0,080
-135,643	147,418	-0,051	-0,049
-134,629	-200,000	-0,028	0,184
-133,614	-47,917	0,147	0,050
-132,599	514,619	-0,092	0,153
-131,585	198,807	-0,067	0,073
-130,570	-200,000	-0,018	-0,082
-129,556	118,404	-0,120	-0,105
-128,541	800,000	-0,025	-0,056
-127,526	-200,000	0,008	-0,035
-126,512	-200,000	-0,004	0,022
-125,497	-200,000	-0,003	0,046
-124,483	454,984	0,031	-0,049
-123,468	-17,747	-0,082	-0,036
-122,453	-196,823	-0,136	-0,001
-121,439	131,823	0,071	-0,065
-120,424	-166,713	-0,115	-0,003
-119,410	-200,000	0,029	-0,133
-118,395	13,313	0,033	-0,018
-117,380	-200,000	0,053	0,177
-116,366	-30,777	0,101	0,040
-115,351	96,172	-0,014	0,011
-114,337	-143,059	-0,116	0,008
-113,322	-200,000	0,025	0,084
-112,307	-200,000	0,010	-0,050
-111,293	257,122	0,052	0,064
-110,278	85,005	-0,209	0,162
-109,264	382,402	0,022	-0,033
-108,249	800,000	-0,026	-0,058
-107,234	147,702	-0,177	-0,169
-106,220	-200,000	0,000	-0,107
-105,205	-164,323	0,106	0,003
-104,191	27,281	-0,120	-0,071
-103,176	-3,744	0,069	0,034
-102,162	-200,000	0,001	-0,064
-101,147	-200,000	0,001	-0,110
-100,132	5,565	-0,075	-0,039
-99,118	14,751	0,092	-0,051
-98,103	-21,568	0,038	0,017
-97,089	-55,198	0,065	-0,021
-96,074	-200,000	0,008	0,026
-95,059	-200,000	0,014	0,169
-94,045	-200,000	0,010	0,116
-93,030	800,000	0,038	-0,081
-92,016	800,000	-0,024	-0,052
-91,001	-137,029	-0,308	0,025
-89,986	94,398	0,102	0,082
-88,972	800,000	0,055	0,137
-87,957	109,002	-0,045	-0,038
-86,943	-36,047	-0,086	0,033
-85,928	515,819	-0,055	0,092
-84,913	307,161	0,089	-0,118
-83,899	-94,066	0,052	0,010
-82,884	113,679	-0,046	-0,040
-81,870	293,694	-0,033	0,042
-80,855	109,591	-0,086	0,073
-79,840	115,345	-0,079	0,068
-78,826	-84,036	-0,095	0,021
-77,811	528,512	0,078	-0,132
-76,797	-200,000	0,015	0,137
-75,782	150,081	0,044	-0,042
-74,767	-200,000	-0,006	0,109
-73,753	258,447	0,095	0,116
-72,738	-116,070	0,079	-0,010
-71,724	-43,663	-0,124	-0,044
-70,709	-98,357	-0,123	0,022
-69,694	800,000	0,052	-0,142
-68,680	800,000	-0,055	0,115
-67,665	185,141	0,136	0,143
-66,651	-200,000	-0,001	0,092
-65,636	230,505	0,144	0,167
-64,622	29,470	-0,085	0,051
-63,607	-77,967	-0,107	0,026
-62,592	111,458	-0,051	-0,043
-61,578	107,790	-0,070	0,059
-60,563	22,546	0,081	0,047
-59,549	800,000	0,114	0,248
-58,534	-34,832	-1,657	-0,638
-57,519	398,420	-1,327	-1,974
-56,505	-200,000	-0,597	-4,526
-55,490	186,630	1,089	1,150
-54,476	800,000	4,816	11,210
-53,461	-200,000	19,198	318,749
-52,446	-200,000	740,346	2335,334
-51,432	574,644	1655,653	2873,157
-50,417	78,550	1671,729	1264,252
-49,403	21,507	1544,455	887,343
-48,388	15,353	1467,061	812,928
-47,373	17,945	1457,322	820,035
-46,359	16,713	1447,197	808,395
-45,344	13,598	1442,560	790,838
-44,330	13,514	1440,647	789,355
-43,315	13,499	1439,049	788,377
-42,300	13,523	1437,197	787,444
-41,286	13,557	1435,872	786,848
-40,271	13,505	1434,761	785,961
-39,257	13,516	1433,392	785,232
-38,242	13,564	1432,072	784,705
-37,227	13,566	1431,060	784,129
-36,213	13,600	1429,404	783,356
-35,198	13,597	1428,455	782,791
-34,184	13,617	1427,584	782,374
-33,169	13,531	1426,196	781,177
-32,154	13,572	1425,160	780,773
-31,140	13,557	1423,801	779,926
-30,125	13,593	1422,913	779,580
-29,111	13,594	1421,465	778,758
-28,096	13,578	1420,297	778,014
-27,082	13,527	1419,292	777,192
-26,067	13,538	1418,120	776,571
-25,052	13,528	1417,111	775,941
-24,038	13,474	1416,287	775,204
-23,023	13,470	1415,154	774,535
-22,009	13,518	1414,051	774,126
-20,994	13,463	1413,367	773,461
-19,979	13,491	1412,264	772,959
-18,965	13,461	1411,397	772,310
-17,950	13,473	1410,421	771,802
-16,936	13,413	1409,624	771,057
-15,921	13,396	1408,320	770,232
-14,906	13,438	1407,588	769,999
-13,892	13,420	1406,592	769,337
-12,877	13,388	1405,848	768,752
-11,863	13,459	1404,695	768,424
-10,848	13,438	1403,880	767,845
-9,833	13,384	1403,038	767,106
-8,819	13,327	1402,302	766,403
-7,804	13,338	1401,125	765,784
-6,790	13,341	1400,234	765,279
-5,775	13,337	1399,086	764,604
-4,760	13,318	1398,280	764,045
-3,746	13,333	1397,357	763,579
-2,731	13,301	1396,661	763,020
-1,717	13,327	1395,543	762,501
-0,702	13,280	1393,915	761,363
0,313	17,157	1310,899	733,986
1,327	33,451	704,283	432,031
2,342	51,953	123,387	83,031
3,356	1,881	16,660	8,476
4,371	-8,698	3,317	1,569
5,386	20,783	0,567	0,324
6,400	-200,000	0,052	0,220
7,415	86,391	-0,223	-0,173
8,429	-0,002	-0,344	-0,173
9,444	144,932	-0,262	-0,248
10,459	132,193	-0,290	-0,265
11,473	-9,583	-0,310	-0,146
12,488	63,478	-0,269	-0,190
13,502	-57,890	-0,356	-0,109
14,517	-69,957	-0,424	-0,113
15,531	-5,396	-0,414	-0,200
16,546	174,838	-0,237	-0,243
17,561	132,774	-0,388	-0,354
18,575	-45,252	-0,143	-0,050
19,590	90,935	-0,155	-0,123
20,604	-113,127	-0,273	-0,038
21,619	3,318	-0,520	-0,266
22,634	41,827	-0,436	-0,279
23,648	153,728	-0,401	-0,389
24,663	52,635	-0,427	-0,288
25,677	218,886	-0,349	-0,394
26,692	26,230	-0,264	-0,155
27,707	-3,972	-0,337	-0,164
28,721	-1,328	-0,392	-0,195
29,736	145,468	-0,280	-0,265
30,750	77,128	-0,409	-0,306
31,765	140,517	-0,256	-0,239
32,780	141,185	-0,275	-0,257
33,794	306,720	-0,294	-0,387
34,809	134,296	-0,296	-0,271
35,823	-18,568	-0,412	-0,181
36,838	11,966	-0,520	-0,281
37,853	34,859	-0,473	-0,292
38,867	44,702	-0,384	-0,249
39,882	250,661	-0,220	-0,264
40,896	17,720	-0,383	-0,214
41,911	174,460	-0,217	-0,222
42,926	183,630	-0,299	-0,312
43,940	175,579	-0,342	-0,350
44,955	-24,822	-0,512	-0,213
45,969	18,788	-0,531	-0,299
46,984	95,450	-0,352	-0,283
47,999	45,571	-0,237	-0,154
49,013	29,736	-0,224	-0,134
50,028	62,934	-0,474	-0,334
51,042	50,600	-0,365	-0,243
52,057	339,736	-0,223	-0,308
53,071	147,669	-0,332	-0,316
54,086	85,448	-0,386	-0,298
55,101	-5,132	-0,310	-0,150
56,115	-33,655	-0,368	-0,142
57,130	90,972	-0,418	-0,330
58,144	-42,328	-0,380	-0,136
59,159	71,493	-0,286	-0,209
60,174	62,344	-0,295	-0,207
61,188	80,996	-0,294	-0,223
62,203	91,661	-0,320	-0,254
63,217	59,319	-0,301	-0,208
64,232	145,951	-0,292	-0,275
65,247	62,933	-0,410	-0,289
66,261	449,579	-0,270	-0,421
67,276	315,991	-0,329	-0,438
68,290	3,899	-0,371	-0,190
69,305	-7,441	-0,414	-0,197
70,320	57,433	-0,289	-0,198
71,334	-16,621	-0,332	-0,147
72,349	153,812	-0,258	-0,249
73,363	133,992	-0,297	-0,270
74,378	83,555	-0,300	-0,230
75,393	36,289	-0,477	-0,295
76,407	42,191	-0,462	-0,294
77,422	330,976	-0,178	-0,242
78,436	800,000	-0,145	-0,320
79,451	-33,379	-0,407	-0,158
80,466	-157,434	-0,344	0,014
81,480	111,375	-0,345	-0,292
82,495	115,607	-0,277	-0,238
83,509	100,126	-0,268	-0,219
84,524	142,283	-0,241	-0,225
85,539	10,791	-0,309	-0,165
86,553	-43,519	-0,370	-0,130
87,568	-46,368	-0,402	-0,138
88,582	281,171	-0,235	-0,296
89,597	20,361	-0,340	-0,192
90,611	507,556	-0,237	-0,388
91,626	-89,563	-0,393	-0,080
92,641	335,135	-0,132	-0,180
93,655	3,495	-0,410	-0,209
94,670	48,805	-0,321	-0,211
95,684	28,819	-0,256	-0,152
96,699	237,383	-0,232	-0,270
97,714	488,160	-0,134	-0,216
98,728	0,214	-0,353	-0,176
99,743	52,399	-0,254	-0,170
100,757	3,162	-0,236	-0,120
101,772	181,452	-0,260	-0,269
102,787	116,067	-0,368	-0,316
103,801	65,030	-0,285	-0,202
104,816	-49,910	-0,265	-0,088
105,830	170,974	-0,218	-0,219
106,845	415,058	-0,090	-0,136
107,860	132,032	-0,290	-0,262
108,874	102,328	-0,295	-0,241
109,889	224,236	-0,254	-0,288
110,903	162,562	-0,192	-0,189
111,918	170,194	-0,191	-0,192
112,933	-37,380	-0,123	-0,046
113,947	178,165	-0,138	-0,141
114,962	96,159	-0,225	-0,180
115,976	1,638	-0,269	-0,135
116,991	-0,089	-0,180	-0,090
118,006	182,177	-0,197	-0,204
119,020	-6,331	-0,279	-0,133
120,035	-82,667	-0,247	-0,056
121,049	-21,626	-0,217	-0,092
122,064	28,690	-0,241	-0,142
123,079	321,588	-0,092	-0,123
124,093	51,790	-0,284	-0,189
125,108	155,549	-0,244	-0,235
126,122	-55,487	-0,368	-0,115
127,137	438,271	-0,128	-0,197
128,151	-25,547	-0,206	-0,085
129,166	191,770	-0,266	-0,281
130,181	102,872	-0,237	-0,194
131,195	109,021	-0,316	-0,264
132,210	-73,246	-0,403	-0,102
133,224	-102,811	-0,354	-0,058
134,239	-74,546	-0,287	-0,072
135,254	457,168	-0,133	-0,208
136,268	-67,656	-0,159	0,043
137,283	388,969	-0,202	-0,293
138,297	211,014	-0,262	-0,289
139,312	89,735	-0,299	-0,233
140,327	109,196	-0,323	-0,270
141,341	-152,969	-0,175	-0,008
142,356	114,883	-0,216	-0,184
143,370	27,079	-0,203	-0,119
144,385	38,828	-0,341	-0,212
145,400	259,042	-0,187	-0,226
146,414	126,129	-0,198	-0,175
147,429	332,307	-0,264	-0,357
148,443	17,401	-0,339	-0,188
149,458	14,513	-0,221	-0,120
150,473	-60,071	-0,296	-0,088
151,487	93,940	-0,279	-0,221
152,502	563,961	-0,156	-0,264
153,516	30,922	-0,415	-0,248
154,531	174,045	-0,309	-0,312
155,546	383,605	-0,172	-0,248
156,560	-18,399	-0,179	-0,078
157,575	216,022	-0,217	-0,241
158,589	441,391	-0,162	-0,249
159,604	70,087	-0,254	-0,183
160,619	240,771	-0,190	-0,221
161,633	347,230	-0,147	-0,203
162,648	73,324	-0,244	-0,178
163,662	12,611	-0,248	-0,133
164,677	178,724	-0,179	-0,183
165,692	-200,000	-0,286	0,000
166,706	524,665	-0,155	-0,255
167,721	182,613	-0,239	-0,246
168,735	195,793	-0,246	-0,261
169,750	9,248	-0,298	-0,157
170,764	113,216	-0,191	-0,162
171,779	55,102	-0,248	-0,167
172,794	136,012	-0,268	-0,244
173,808	-64,055	-0,196	-0,055
174,823	-54,220	-0,247	-0,078
175,837	129,330	-0,219	-0,195
176,852	116,664	-0,188	-0,161
177,867	303,947	-0,180	-0,233
178,881	-168,233	-0,300	0,008
179,896	84,512	-0,264	-0,201
180,910	132,121	-0,134	-0,120
181,925	209,431	-0,163	-0,178
182,940	55,283	-0,303	-0,204
183,954	59,719	-0,248	-0,170
184,969	245,754	-0,215	-0,253
185,983	-200,000	-0,011	-0,065
186,998	68,747	-0,191	-0,136
188,013	81,782	-0,231	-0,174
189,027	183,003	-0,198	-0,204
190,042	113,164	-0,236	-0,199
191,056	63,469	-0,197	-0,137
192,071	-90,808	-0,295	-0,059
193,086	636,595	-0,133	-0,236
194,100	55,208	-0,284	-0,191
195,115	-27,407	-0,301	-0,121
196,129	99,464	-0,132	-0,106
197,144	126,995	-0,217	-0,192
198,159	167,570	-0,196	-0,194
199,173	176,722	-0,150	-0,152
200,188	82,879	-0,235	-0,177
201,202	647,585	-0,162	-0,290
202,217	132,492	-0,094	-0,085
203,232	800,000	-0,082	-0,162
204,246	116,704	-0,088	-0,075
205,261	-97,769	-0,179	-0,032
206,275	47,426	-0,195	-0,126
207,290	2,130	-0,246	-0,123
208,304	225,087	-0,158	-0,177
209,319	-135,749	-0,186	0,015
210,334	5,729	-0,087	-0,045
211,348	142,566	-0,269	-0,249
212,363	42,192	-0,253	-0,160
213,377	268,969	-0,180	-0,220
214,392	82,043	-0,170	-0,128
215,407	195,711	-0,168	-0,177
216,421	-23,438	-0,033	0,014
217,436	-63,119	-0,253	-0,072
218,450	747,131	-0,065	-0,123
219,465	-73,866	-0,195	-0,049
220,480	-72,209	-0,210	-0,054
221,494	47,867	-0,288	-0,186
222,509	-23,019	-0,125	-0,052
223,523	-69,075	-0,082	-0,022
224,538	57,771	-0,167	-0,113
225,553	242,554	-0,171	-0,199
226,567	72,716	-0,209	-0,151
227,582	11,868	-0,169	-0,090
228,596	355,910	-0,138	-0,191
229,611	800,000	0,025	-0,059
230,626	184,355	-0,196	-0,201
231,640	73,055	-0,188	-0,136
232,655	274,221	-0,102	-0,125
233,669	146,978	-0,228	-0,213
234,684	178,497	-0,074	-0,075
235,699	299,377	-0,154	-0,198
236,713	186,652	-0,117	-0,121
237,728	262,431	-0,140	-0,168
238,742	26,944	-0,212	-0,123
239,757	98,331	-0,149	-0,119
240,772	50,061	-0,208	-0,136
241,786	-149,440	-0,293	-0,016
242,801	215,962	-0,200	-0,221
243,815	-78,043	-0,179	-0,042
244,830	-43,503	-0,221	-0,077
245,844	52,410	-0,202	-0,133
246,859	-156,243	-0,133	-0,006
247,874	192,774	-0,232	-0,243
248,888	-135,293	-0,166	-0,014
249,903	227,709	-0,165	-0,186
250,917	59,127	-0,293	-0,200
251,932	101,600	-0,221	-0,178
252,947	-200,000	-0,039	-0,269
253,961	-71,966	-0,219	-0,056
254,976	89,132	-0,155	-0,120
255,990	304,212	-0,181	-0,233
257,005	800,000	-0,088	-0,203
258,020	436,573	-0,052	-0,078
259,034	74,666	-0,121	-0,088
260,049	-200,000	-0,028	-0,128
261,063	483,268	-0,146	-0,230
262,078	-51,966	-0,257	-0,082
263,093	511,527	-0,114	-0,184
264,107	-127,106	-0,227	-0,023
265,122	37,323	-0,199	-0,122
266,136	-16,783	-0,191	-0,083
267,151	3,481	-0,234	-0,118
268,166	-76,741	-0,112	-0,027
269,180	38,893	-0,207	-0,127
270,195	209,652	-0,237	-0,257
271,209	113,161	-0,200	-0,167
272,224	800,000	0,027	-0,057
273,239	145,307	-0,172	-0,159
274,253	42,598	-0,148	-0,093
275,268	-42,590	-0,144	-0,050
276,282	551,673	-0,211	-0,351
277,297	541,238	-0,130	-0,215
278,312	347,539	-0,163	-0,222
279,326	125,678	-0,112	-0,097
280,341	455,874	-0,103	-0,159
281,355	800,000	-0,075	-0,170
282,370	152,308	-0,197	-0,185
283,384	446,375	-0,109	-0,167
284,399	100,356	-0,230	-0,184
285,414	-200,000	-0,031	-0,204
286,428	597,923	-0,091	-0,156
287,443	47,087	-0,161	-0,103
288,457	-88,999	-0,106	-0,022
289,472	430,669	-0,131	-0,196
290,487	112,013	-0,150	-0,125
291,501	96,884	-0,223	-0,176
292,516	231,557	-0,104	-0,118
293,530	-121,816	-0,117	-0,013
294,545	-200,000	-0,014	-0,130
295,560	28,143	-0,144	-0,084
296,574	14,239	-0,142	-0,076
297,589	-48,545	-0,190	-0,063
298,603	800,000	-0,069	-0,146
299,618	-37,508	-0,218	-0,080
300,633	-14,029	-0,126	-0,056
301,647	-44,923	-0,185	-0,063
302,662	45,684	-0,119	-0,076
303,676	122,161	-0,071	-0,061
304,691	-34,767	-0,136	-0,051
305,706	98,654	-0,144	-0,114
306,720	90,552	-0,208	-0,161
307,735	37,742	-0,102	-0,062
308,749	23,226	-0,088	0,049
309,764	-131,466	-0,161	-0,014
310,779	-55,127	-0,212	-0,065
311,793	195,877	-0,174	-0,183
312,808	-14,323	-0,173	-0,077
313,822	305,523	-0,052	-0,067
314,837	223,328	-0,129	-0,143
315,852	14,903	-0,105	-0,056
316,866	334,168	-0,079	-0,105
317,881	-180,480	-0,204	0,003
318,895	-125,519	-0,180	-0,019
319,910	-42,813	-0,141	-0,049
320,925	50,255	-0,182	-0,118
321,939	16,017	-0,038	0,020
322,954	-140,225	-0,156	-0,011
323,968	-200,000	-0,032	-0,109
324,983	663,269	-0,037	-0,067
325,997	-136,908	-0,213	0,017
327,012	17,354	-0,222	-0,121
328,027	800,000	-0,096	-0,227
329,041	10,253	-0,175	-0,091
330,056	-31,543	-0,121	-0,047
331,070	-68,152	-0,169	0,045
332,085	108,308	-0,139	-0,114
333,100	543,538	-0,127	-0,210
334,114	7,963	-0,098	-0,051
335,129	69,760	-0,159	-0,112
336,143	114,587	-0,090	-0,076
337,158	-200,000	-0,009	-0,204
338,173	121,647	-0,122	-0,105
339,187	-200,000	-0,011	-0,051
340,202	139,874	-0,113	-0,103
341,216	-84,193	-0,166	0,036
342,231	-15,175	-0,225	-0,098
343,246	346,875	-0,104	-0,140
344,260	-122,585	-0,152	-0,017
345,275	249,279	-0,065	-0,076
346,289	85,825	-0,098	-0,074
347,304	29,971	-0,130	-0,076
348,319	48,525	-0,028	0,018
349,333	-31,814	-0,124	0,047
350,348	-200,000	-0,014	-0,207
351,362	309,997	-0,194	-0,249
352,377	-93,788	-0,018	-0,003
353,392	306,128	-0,063	0,081
354,406	800,000	-0,041	-0,083
355,421	207,825	1315,448	1411,454
356,435	159,884	1476,255	1411,934
