DTS Sentinel unit serial number:	SN410029Multiplexer serial number:	ORYXHardware model number:	OX2-SRSoftware version number:	ORYX F/W v4,00 Oryx Data Collector v3.7.2.0data status	okinstallation	B3 Nyhavnadifferential loss correction	single-endedforward channel	channel 1reverse channel	N/Adate	2023/11/29time	15:27:30forward acquisition time	300,00reverse acquisition time	0,00gamma	499,1914k internal	0,3210k external	0,3210temperature offset calibration	1,0000default loss term (dB/km)	0,3820temperature slope calibration	1,0000multiplexer offset coefficient	1,0000multiplexer slope coefficient	1,0000fibre end	0,00T internal ref (°C)	11,27T ext. ref 1 (°C)	-3,10T ext. ref 2 (°C)	-3,25length (m)	temperature (°C)	Stokes	anti-Stokes-744,400	342,108	-0,121	-0,173
-743,385	800,000	-0,081	0,208
-742,371	-112,820	-0,213	-0,030
-741,356	-200,000	0,017	0,491
-740,342	-73,854	-0,191	-0,050
-739,327	800,000	-0,171	0,345
-738,312	122,913	-0,224	-0,204
-737,298	800,000	-0,086	0,225
-736,283	800,000	-0,074	-0,177
-735,269	-200,000	-0,007	0,229
-734,254	609,145	-0,106	-0,193
-733,239	-104,110	-0,262	0,044
-732,225	-200,000	-0,045	-0,150
-731,210	-200,000	-0,051	0,167
-730,196	-200,000	-0,024	0,094
-729,181	390,270	0,033	0,050
-728,167	51,827	-0,087	-0,060
-727,152	-198,024	-0,152	0,001
-726,137	185,507	-0,081	-0,087
-725,123	-200,000	-0,006	-0,051
-724,108	58,106	-0,023	-0,017
-723,094	-200,000	-0,067	-0,237
-722,079	-200,000	-0,024	-0,154
-721,064	800,000	-0,022	-0,052
-720,050	174,612	-0,077	-0,081
-719,035	-10,117	0,039	-0,018
-718,021	324,534	-0,103	-0,143
-717,006	99,205	-0,051	-0,043
-715,991	42,736	-0,107	0,070
-714,977	361,517	-0,067	-0,098
-713,962	58,632	0,028	-0,020
-712,948	266,785	0,016	-0,020
-711,933	-200,000	0,016	-0,072
-710,918	800,000	0,021	-0,051
-709,904	-200,000	-0,011	-0,086
-708,889	-40,418	0,057	-0,021
-707,875	-26,422	-0,144	-0,061
-706,860	-91,921	0,048	-0,010
-705,845	91,516	-0,043	0,035
-704,831	-19,935	0,119	0,053
-703,816	525,041	0,020	-0,034
-702,802	-66,320	-0,109	-0,031
-701,787	800,000	-0,029	-0,062
-700,772	73,130	-0,050	-0,037
-699,758	-58,885	-0,078	-0,024
-698,743	-157,348	0,202	-0,009
-697,729	-93,954	0,138	-0,027
-696,714	-72,372	0,063	0,017
-695,699	-200,000	0,001	0,056
-694,685	-200,000	-0,003	0,063
-693,670	-41,745	0,066	-0,024
-692,656	103,406	-0,034	0,029
-691,641	34,951	0,054	-0,034
-690,627	-179,953	0,042	0,001
-689,612	573,580	0,050	-0,088
-688,597	800,000	0,042	-0,130
-687,583	236,271	-0,067	-0,080
-686,568	355,150	-0,083	-0,120
-685,554	-48,847	-0,147	-0,051
-684,539	-200,000	0,012	-0,097
-683,524	-37,204	0,015	0,006
-682,510	-200,000	0,004	-0,071
-681,495	-87,876	-0,231	0,050
-680,481	131,140	0,021	0,020
-679,466	137,051	-0,135	-0,128
-678,451	764,706	-0,055	-0,108
-677,437	800,000	-0,024	0,072
-676,422	800,000	-0,015	0,044
-675,408	494,939	0,031	-0,051
-674,393	-200,000	-0,036	0,129
-673,378	-99,956	-0,111	0,020
-672,364	-200,000	-0,013	-0,067
-671,349	64,169	-0,072	-0,052
-670,335	-200,000	0,027	-0,209
-669,320	-200,000	-0,005	-0,102
-668,305	85,805	0,069	-0,055
-667,291	122,120	0,033	-0,030
-666,276	58,064	-0,110	-0,078
-665,262	-200,000	0,031	-0,101
-664,247	-200,000	-0,001	0,030
-663,232	-58,991	-0,133	0,041
-662,218	800,000	0,037	-0,103
-661,203	-200,000	-0,031	0,151
-660,189	83,251	0,064	-0,050
-659,174	81,726	-0,084	0,066
-658,159	198,807	-0,089	-0,098
-657,145	-21,355	0,104	-0,046
-656,130	-200,000	-0,016	-0,103
-655,116	-40,532	-0,058	0,022
-654,101	-159,154	0,189	0,008
-653,086	800,000	-0,049	0,140
-652,072	-8,728	-0,008	0,004
-651,057	103,898	0,029	-0,025
-650,043	-94,863	-0,198	0,038
-649,028	678,499	-0,043	0,080
-648,014	351,354	0,058	0,083
-646,999	-153,337	0,074	-0,004
-645,984	170,821	-0,026	0,027
-644,970	-200,000	-0,004	-0,126
-643,955	-200,000	-0,010	-0,105
-642,941	139,718	-0,051	-0,049
-641,926	800,000	0,054	0,118
-640,911	-41,549	0,087	-0,032
-639,897	426,996	-0,034	0,053
-638,882	120,167	0,065	0,058
-637,868	-135,846	-0,025	0,002
-636,853	-27,058	-0,118	-0,049
-635,838	-200,000	0,013	-0,115
-634,824	-75,646	0,077	0,020
-633,809	186,147	0,032	-0,034
-632,795	-73,379	0,036	0,010
-631,780	800,000	0,062	-0,175
-630,765	96,718	-0,073	-0,061
-629,751	-1,955	0,062	0,031
-628,736	214,311	0,108	-0,124
-627,722	-115,526	-0,128	-0,017
-626,707	-101,476	0,070	0,012
-625,692	154,209	-0,100	0,099
-624,678	101,201	0,043	0,036
-623,663	-200,000	-0,038	-0,154
-622,649	278,604	-0,046	-0,059
-621,634	690,474	-0,073	0,138
-620,619	-200,000	-0,039	-0,143
-619,605	-93,577	-0,022	-0,004
-618,590	-7,427	0,159	-0,078
-617,576	-200,000	0,013	0,091
-616,561	105,342	0,044	0,037
-615,546	236,612	-0,088	-0,106
-614,532	-165,065	0,054	-0,002
-613,517	434,681	-0,087	-0,137
-612,503	178,389	-0,074	-0,078
-611,488	153,411	0,063	-0,063
-610,474	-200,000	0,038	0,169
-609,459	-200,000	0,010	-0,071
-608,444	-47,825	-0,190	-0,066
-607,430	800,000	-0,018	-0,043
-606,415	-66,973	-0,066	-0,019
-605,401	800,000	0,005	0,015
-604,386	-127,479	-0,065	0,007
-603,371	-200,000	-0,013	0,057
-602,357	8,008	-0,047	0,026
-601,342	800,000	0,044	-0,128
-600,328	689,136	-0,030	-0,057
-599,313	321,463	-0,053	0,072
-598,298	-112,627	-0,011	-0,002
-597,284	-23,615	0,082	0,035
-596,269	-167,858	0,089	-0,002
-595,255	558,468	0,009	0,016
-594,240	153,330	-0,032	-0,032
-593,225	20,307	0,244	-0,142
-592,211	33,065	-0,095	-0,059
-591,196	800,000	-0,030	-0,072
-590,182	362,562	-0,032	0,046
-589,167	214,347	-0,082	-0,093
-588,152	-92,770	-0,119	-0,024
-587,138	-147,953	-0,044	-0,003
-586,123	-90,846	-0,113	-0,023
-585,109	522,511	0,065	-0,110
-584,094	800,000	0,072	-0,188
-583,079	11,185	-0,029	0,016
-582,065	-200,000	0,004	0,056
-581,050	800,000	-0,058	0,129
-580,036	394,669	-0,040	-0,060
-579,021	86,623	-0,074	0,059
-578,006	0,232	0,036	-0,019
-576,992	-200,000	-0,033	-0,159
-575,977	269,650	-0,026	-0,033
-574,963	334,339	0,027	-0,038
-573,948	-20,562	0,016	-0,007
-572,934	-49,006	0,088	0,030
-571,919	232,154	0,013	-0,015
-570,904	-13,462	-0,111	-0,052
-569,890	-160,637	0,091	-0,003
-568,875	-141,728	0,094	0,007
-567,861	-200,000	0,023	0,102
-566,846	138,634	0,094	0,089
-565,831	-200,000	-0,018	-0,074
-564,817	-200,000	-0,020	0,106
-563,802	309,733	-0,015	-0,021
-562,788	394,186	0,028	-0,042
-561,773	227,334	0,019	-0,022
-560,758	800,000	0,041	0,096
-559,744	-127,350	-0,080	0,008
-558,729	246,137	0,052	0,063
-557,715	37,237	0,042	-0,027
-556,700	766,453	0,016	0,032
-555,685	800,000	0,079	-0,170
-554,671	800,000	0,053	0,169
-553,656	-200,000	-0,021	0,100
-552,642	125,673	-0,049	-0,044
-551,627	-200,000	-0,014	-0,118
-550,612	58,255	0,039	-0,028
-549,598	-40,221	-0,119	-0,044
-548,583	800,000	-0,044	-0,110
-547,569	800,000	0,029	0,089
-546,554	-200,000	0,023	-0,111
-545,539	-200,000	0,039	0,133
-544,525	-200,000	0,022	0,094
-543,510	143,343	-0,046	-0,044
-542,496	-200,000	-0,011	0,046
-541,481	800,000	0,042	-0,128
-540,466	366,187	0,070	-0,102
-539,452	-44,914	0,137	-0,049
-538,437	75,967	0,134	-0,102
-537,423	-200,000	0,008	0,032
-536,408	628,252	-0,053	-0,097
-535,393	-200,000	0,006	-0,089
-534,379	-97,386	-0,177	0,033
-533,364	38,871	0,081	0,052
-532,350	-111,842	-0,079	-0,011
-531,335	-136,015	-0,049	0,004
-530,321	-200,000	-0,045	-0,198
-529,306	283,084	-0,042	0,055
-528,291	-200,000	-0,007	0,036
-527,277	-122,633	0,083	-0,010
-526,262	416,789	-0,014	-0,021
-525,248	-100,971	0,076	0,013
-524,233	62,556	0,057	-0,041
-523,218	800,000	0,021	0,050
-522,204	550,533	-0,003	-0,005
-521,189	-56,828	-0,080	-0,025
-520,175	-200,000	0,006	0,054
-519,160	-200,000	-0,003	0,085
-518,145	-200,000	0,002	-0,062
-517,131	672,433	0,014	-0,027
-516,116	800,000	-0,041	0,108
-515,102	-200,000	-0,021	-0,098
-514,087	-47,751	-0,053	0,018
-513,072	94,426	-0,064	-0,053
-512,058	-200,000	0,002	-0,168
-511,043	315,915	0,076	0,104
-510,029	-47,560	-0,174	0,060
-509,014	53,795	0,068	-0,047
-507,999	382,785	-0,053	0,079
-506,985	-78,489	0,079	-0,019
-505,970	-200,000	0,030	0,149
-504,956	632,510	-0,022	-0,041
-503,941	-200,000	0,004	0,015
-502,926	472,501	0,057	0,093
-501,912	-3,911	0,060	-0,030
-500,897	111,463	0,135	0,117
-499,883	-10,658	0,022	-0,010
-498,868	-200,000	-0,069	-0,000
-497,853	-200,000	-0,007	-0,164
-496,839	72,954	-0,102	-0,076
-495,824	356,681	0,050	0,072
-494,810	232,392	-0,007	-0,009
-493,795	-167,609	-0,077	0,002
-492,781	-200,000	-0,013	0,186
-491,766	800,000	0,039	0,082
-490,751	281,215	-0,082	-0,106
-489,737	-200,000	-0,002	0,187
-488,722	-200,000	-0,001	-0,021
-487,708	148,766	0,075	0,073
-486,693	800,000	-0,023	0,053
-485,678	600,358	-0,065	-0,116
-484,664	217,960	0,087	-0,100
-483,649	102,314	-0,109	-0,091
-482,635	113,060	-0,094	0,082
-481,620	800,000	0,060	0,184
-480,605	-200,000	0,038	0,123
-479,591	61,802	0,087	-0,062
-478,576	73,074	0,084	0,063
-477,562	-166,447	-0,135	0,004
-476,547	-200,000	-0,008	0,045
-475,532	-200,000	-0,041	-0,174
-474,518	-200,000	-0,008	-0,044
-473,503	12,653	0,097	0,053
-472,489	127,287	-0,089	0,081
-471,474	376,054	0,017	0,025
-470,459	-92,646	-0,032	0,006
-469,445	43,990	-0,034	0,022
-468,430	197,738	0,074	-0,081
-467,416	-26,706	0,131	0,055
-466,401	-200,000	-0,009	0,042
-465,386	-200,000	0,028	0,096
-464,372	90,163	0,015	0,012
-463,357	-119,760	0,060	0,007
-462,343	-64,365	0,019	0,006
-461,328	-162,721	-0,122	0,004
-460,313	-200,000	0,002	0,124
-459,299	157,269	-0,019	0,019
-458,284	87,271	-0,024	-0,019
-457,270	-200,000	0,003	-0,014
-456,255	-200,000	-0,015	0,060
-455,241	-200,000	-0,006	-0,083
-454,226	258,749	0,027	0,033
-453,211	-72,566	0,096	0,025
-452,197	-200,000	-0,041	0,161
-451,182	800,000	0,030	0,088
-450,168	-55,556	-0,018	0,006
-449,153	694,445	0,015	0,028
-448,138	108,213	-0,018	0,016
-447,124	-169,887	-0,031	-0,001
-446,109	-104,334	0,046	0,008
-445,095	-112,698	0,107	-0,015
-444,080	-200,000	-0,005	0,029
-443,065	-200,000	0,025	-0,130
-442,051	-32,776	0,065	0,026
-441,036	800,000	-0,048	-0,142
-440,022	166,899	-0,057	-0,058
-439,007	426,444	-0,070	-0,109
-437,992	-120,686	-0,077	-0,009
-436,978	6,074	0,073	0,039
-435,963	-200,000	-0,000	-0,046
-434,949	-51,902	0,064	-0,021
-433,934	-138,159	-0,204	-0,016
-432,919	800,000	-0,018	0,038
-431,905	800,000	0,053	-0,111
-430,890	800,000	0,029	-0,076
-429,876	313,528	0,022	0,030
-428,861	322,831	0,067	-0,091
-427,846	19,789	-0,072	-0,041
-426,832	79,489	0,038	-0,029
-425,817	279,021	-0,076	0,098
-424,803	-200,000	0,007	-0,050
-423,788	667,934	-0,074	0,138
-422,773	109,277	0,119	-0,102
-421,759	-90,296	-0,052	0,011
-420,744	-0,420	0,014	0,007
-419,730	174,230	-0,091	-0,094
-418,715	800,000	0,028	0,057
-417,701	-71,145	-0,158	-0,042
-416,686	26,903	0,069	0,041
-415,671	-200,000	0,021	0,076
-414,657	192,938	-0,172	0,187
-413,642	-200,000	0,006	0,071
-412,628	-147,470	-0,022	-0,001
-411,613	-67,535	-0,057	-0,016
-410,598	45,862	0,147	0,097
-409,584	-34,734	-0,024	-0,009
-408,569	-88,941	0,096	-0,020
-407,555	-200,000	-0,023	-0,140
-406,540	-200,000	-0,034	-0,120
-405,525	800,000	0,043	0,124
-404,511	-46,585	-0,102	0,036
-403,496	466,432	0,040	0,065
-402,482	800,000	-0,036	-0,072
-401,467	-200,000	0,007	-0,096
-400,452	33,480	-0,052	-0,032
-399,438	-106,920	0,068	-0,011
-398,423	-200,000	-0,033	-0,121
-397,409	-200,000	0,023	-0,084
-396,394	-171,323	-0,124	0,003
-395,379	-82,973	0,009	-0,002
-394,365	800,000	-0,014	-0,036
-393,350	127,617	0,034	-0,031
-392,336	21,927	-0,131	-0,076
-391,321	-87,051	0,172	-0,037
-390,306	149,295	-0,034	-0,033
-389,292	323,049	-0,045	0,061
-388,277	156,138	-0,061	0,060
-387,263	-200,000	0,004	0,058
-386,248	-200,000	0,006	0,207
-385,233	128,300	0,057	0,052
-384,219	-200,000	-0,020	0,075
-383,204	-130,742	0,010	-0,001
-382,190	280,561	-0,063	-0,080
-381,175	6,271	-0,051	-0,027
-380,160	-200,000	-0,010	-0,121
-379,146	-41,601	-0,134	0,049
-378,131	4,649	-0,067	-0,035
-377,117	800,000	-0,034	-0,106
-376,102	-36,672	0,071	-0,027
-375,088	800,000	0,021	-0,048
-374,073	-200,000	-0,014	-0,059
-373,058	17,459	-0,069	0,039
-372,044	-85,367	0,016	-0,004
-371,029	-17,162	-0,017	-0,008
-370,015	800,000	-0,051	0,117
-369,000	800,000	-0,029	-0,062
-367,985	-5,911	-0,121	0,059
-366,971	139,474	-0,136	0,128
-365,956	121,722	-0,057	0,051
-364,942	-103,294	0,102	-0,017
-363,927	-200,000	0,016	0,080
-362,912	-200,000	-0,008	0,107
-361,898	-200,000	0,012	-0,051
-360,883	234,447	0,069	-0,081
-359,869	-134,820	-0,067	-0,006
-358,854	-10,336	0,071	-0,033
-357,839	153,414	0,086	0,085
-356,825	-96,297	0,184	0,035
-355,810	126,681	0,016	-0,014
-354,796	269,354	-0,068	0,085
-353,781	-200,000	0,003	-0,048
-352,766	800,000	0,022	-0,048
-351,752	-200,000	-0,003	-0,029
-350,737	285,675	0,017	-0,022
-349,723	459,858	0,063	0,100
-348,708	464,971	-0,023	-0,037
-347,693	45,332	0,049	-0,033
-346,679	-200,000	-0,029	-0,127
-345,664	60,892	0,111	-0,079
-344,650	-77,104	-0,048	-0,012
-343,635	-10,474	0,037	-0,017
-342,620	344,691	-0,030	-0,042
-341,606	-21,341	-0,024	0,010
-340,591	800,000	0,088	0,207
-339,577	539,564	-0,077	-0,132
-338,562	26,870	-0,072	0,043
-337,548	747,348	-0,059	-0,114
-336,533	61,317	0,077	0,055
-335,518	800,000	0,066	0,137
-334,504	296,199	0,074	0,097
-333,489	431,603	-0,046	0,072
-332,475	43,970	-0,101	0,066
-331,460	-60,983	-0,175	-0,052
-330,445	131,006	-0,077	0,070
-329,431	-200,000	0,005	0,015
-328,416	14,922	0,180	-0,101
-327,402	345,898	-0,068	0,096
-326,387	98,287	-0,023	0,019
-325,372	8,720	0,077	-0,041
-324,358	-108,125	-0,182	0,028
-323,343	48,182	-0,055	-0,037
-322,329	72,861	0,088	-0,066
-321,314	-97,563	0,116	0,021
-320,299	-41,282	-0,041	-0,015
-319,285	-200,000	0,004	-0,015
-318,270	86,191	-0,064	-0,050
-317,256	-171,807	0,028	0,001
-316,241	-94,979	0,147	-0,028
-315,226	541,039	0,034	0,058
-314,212	-200,000	0,011	0,080
-313,197	717,839	-0,075	0,142
-312,183	-13,025	-0,060	-0,028
-311,168	-200,000	-0,002	-0,050
-310,153	-200,000	0,007	-0,073
-309,139	-200,000	-0,010	0,128
-308,124	-39,877	-0,023	-0,009
-307,110	111,561	0,117	-0,101
-306,095	-85,469	0,045	0,010
-305,080	313,408	0,020	-0,026
-304,066	189,543	0,079	-0,085
-303,051	509,666	-0,055	-0,091
-302,037	-200,000	0,004	-0,029
-301,022	313,365	0,097	0,131
-300,008	62,316	-0,067	-0,048
-298,993	506,357	-0,004	-0,007
-297,978	-200,000	0,002	0,051
-296,964	331,241	0,084	0,116
-295,949	800,000	0,033	-0,089
-294,935	-200,000	0,041	-0,137
-293,920	800,000	-0,029	-0,091
-292,905	-200,000	0,006	0,037
-291,891	0,218	0,051	-0,026
-290,876	-13,854	0,103	0,047
-289,862	132,809	-0,048	-0,044
-288,847	-78,313	-0,061	-0,015
-287,832	453,026	0,065	-0,103
-286,818	800,000	0,040	0,084
-285,803	-176,444	0,215	-0,004
-284,789	800,000	-0,017	-0,047
-283,774	800,000	-0,049	0,131
-282,759	800,000	-0,025	-0,075
-281,745	-200,000	0,001	-0,076
-280,730	-97,890	0,113	0,020
-279,716	800,000	0,045	-0,113
-278,701	112,539	-0,025	-0,022
-277,686	-40,462	0,102	0,037
-276,672	280,392	-0,020	-0,025
-275,657	800,000	-0,030	0,088
-274,643	143,151	-0,111	-0,106
-273,628	-200,000	0,018	-0,064
-272,613	-200,000	0,016	-0,097
-271,599	97,057	-0,020	-0,016
-270,584	164,494	-0,041	0,041
-269,570	34,665	-0,027	-0,017
-268,555	-48,460	-0,186	0,063
-267,540	-200,000	-0,023	0,163
-266,526	106,505	0,086	-0,072
-265,511	104,586	-0,062	0,052
-264,497	-107,785	-0,063	-0,010
-263,482	55,297	0,143	0,099
-262,467	177,795	0,050	0,052
-261,453	261,533	0,028	0,035
-260,438	-200,000	-0,015	-0,150
-259,424	-66,584	-0,133	0,037
-258,409	-79,339	0,120	-0,029
-257,395	151,991	0,043	-0,042
-256,380	-200,000	-0,016	0,062
-255,365	-200,000	-0,006	-0,031
-254,351	185,190	-0,102	-0,108
-253,336	-36,139	0,053	-0,020
-252,322	78,535	0,094	-0,072
-251,307	43,075	-0,108	-0,070
-250,292	486,688	0,071	-0,115
-249,278	-70,517	0,086	0,023
-248,263	800,000	0,069	0,164
-247,249	66,598	0,056	0,040
-246,234	-200,000	0,009	-0,037
-245,219	49,715	-0,035	-0,024
-244,205	-200,000	-0,033	-0,148
-243,190	800,000	-0,034	0,096
-242,176	97,684	0,075	0,061
-241,161	148,257	0,118	0,113
-240,146	119,469	0,048	0,042
-239,132	-90,919	-0,081	-0,016
-238,117	800,000	-0,043	-0,092
-237,103	-131,744	-0,100	-0,009
-236,088	-200,000	0,004	0,060
-235,073	129,941	-0,075	0,068
-234,059	-200,000	0,005	0,050
-233,044	-109,929	0,229	-0,034
-232,030	76,896	0,059	-0,044
-231,015	-29,855	-0,066	-0,027
-230,000	800,000	0,044	-0,114
-228,986	-200,000	0,034	0,113
-227,971	164,248	0,088	0,088
-226,957	196,696	0,039	-0,042
-225,942	-59,558	0,151	0,046
-224,927	212,679	-0,192	-0,216
-223,913	-200,000	-0,007	0,024
-222,898	-183,651	-0,083	0,001
-221,884	264,270	0,071	-0,087
-220,869	-143,020	0,075	0,005
-219,855	146,131	0,080	0,076
-218,840	-200,000	0,008	0,097
-217,825	22,903	-0,160	-0,093
-216,811	-200,000	0,047	0,278
-215,796	-60,977	-0,094	-0,028
-214,782	90,524	-0,128	-0,102
-213,767	-200,000	-0,032	0,156
-212,752	-145,544	0,145	0,009
-211,738	-200,000	0,039	0,153
-210,723	156,213	0,096	0,094
-209,709	12,722	-0,027	-0,015
-208,694	246,715	-0,039	-0,047
-207,679	531,326	0,024	-0,040
-206,665	-200,000	0,010	0,107
-205,650	800,000	-0,032	0,093
-204,636	240,912	0,078	-0,093
-203,621	800,000	0,032	0,069
-202,606	41,849	-0,105	0,067
-201,592	55,600	-0,045	-0,031
-200,577	381,658	0,026	0,038
-199,563	-200,000	-0,018	-0,069
-198,548	267,753	0,124	0,155
-197,533	-83,342	0,142	0,032
-196,519	-200,000	0,003	0,039
-195,504	-110,292	-0,092	-0,014
-194,490	-200,000	0,009	-0,059
-193,475	85,732	-0,028	-0,022
-192,460	-82,144	-0,012	-0,003
-191,446	-200,000	0,056	0,222
-190,431	-200,000	-0,000	-0,060
-189,417	-52,670	-0,077	0,025
-188,402	-200,000	0,007	0,090
-187,387	-2,457	-0,077	0,038
-186,373	125,825	-0,087	-0,078
-185,358	-158,382	-0,040	0,002
-184,344	-43,984	-0,144	0,051
-183,329	-200,000	0,031	0,113
-182,315	-200,000	-0,018	0,107
-181,300	-111,569	-0,064	-0,009
-180,285	-128,148	-0,053	0,005
-179,271	-100,070	-0,132	-0,023
-178,256	247,941	-0,087	-0,104
-177,242	-200,000	0,001	0,018
-176,227	237,593	-0,068	0,080
-175,212	-198,259	-0,077	0,000
-174,198	-88,664	-0,053	-0,011
-173,183	-200,000	-0,007	0,161
-172,169	-200,000	0,006	-0,069
-171,154	148,952	-0,006	0,006
-170,139	-3,316	-0,112	-0,055
-169,125	-200,000	0,008	0,114
-168,110	-71,075	0,200	-0,053
-167,096	800,000	-0,040	0,104
-166,081	-109,912	0,046	-0,007
-165,066	800,000	0,033	0,073
-164,052	-200,000	0,002	0,031
-163,037	-200,000	0,027	0,094
-162,023	-200,000	-0,005	-0,109
-161,008	-200,000	-0,037	0,134
-159,993	40,058	0,061	-0,039
-158,979	-189,051	-0,076	0,001
-157,964	192,016	0,075	-0,080
-156,950	-200,000	-0,022	-0,093
-155,935	-200,000	0,002	0,060
-154,920	22,925	0,114	0,066
-153,906	-15,416	0,092	0,041
-152,891	-122,787	0,145	-0,016
-151,877	343,013	0,062	0,087
-150,862	133,143	-0,086	-0,079
-149,847	401,413	-0,023	-0,034
-148,833	-60,933	-0,120	0,036
-147,818	-109,819	0,140	-0,021
-146,804	-23,894	-0,117	0,049
-145,789	254,552	0,095	0,115
-144,775	800,000	-0,039	0,088
-143,760	269,270	-0,032	-0,040
-142,745	-200,000	-0,002	0,017
-141,731	711,975	-0,116	0,218
-140,716	-125,458	0,006	0,001
-139,702	-200,000	-0,001	0,101
-138,687	800,000	-0,031	0,081
-137,672	-118,675	-0,061	-0,008
-136,658	-72,031	-0,147	-0,038
-135,643	-104,228	0,006	-0,001
-134,629	-134,447	0,079	0,007
-133,614	-200,000	0,028	-0,175
-132,599	-200,000	0,015	0,107
-131,585	-112,181	0,144	-0,020
-130,570	121,335	-0,089	-0,078
-129,556	-131,104	-0,168	-0,016
-128,541	285,392	-0,022	-0,028
-127,526	359,180	-0,066	-0,093
-126,512	-83,233	0,121	-0,027
-125,497	-149,487	0,145	-0,008
-124,483	-153,374	-0,014	-0,001
-123,468	-13,919	0,135	0,062
-122,453	-200,000	0,007	-0,113
-121,439	-200,000	-0,035	-0,138
-120,424	113,242	-0,117	-0,100
-119,410	58,854	0,124	-0,086
-118,395	800,000	0,015	0,040
-117,380	452,845	-0,055	0,087
-116,366	-163,864	-0,090	-0,003
-115,351	800,000	-0,042	0,083
-114,337	279,259	0,045	0,057
-113,322	-24,724	0,065	0,027
-112,307	800,000	0,012	-0,034
-111,293	-28,018	-0,021	0,009
-110,278	-80,800	0,100	-0,023
-109,264	-77,785	0,110	-0,027
-108,249	800,000	0,058	-0,130
-107,234	-55,436	-0,032	-0,010
-106,220	800,000	0,063	-0,136
-105,205	587,509	-0,050	0,088
-104,191	414,052	0,036	0,054
-103,176	800,000	-0,050	0,136
-102,162	156,753	0,038	-0,037
-101,147	-73,213	-0,196	0,050
-100,132	80,660	-0,077	-0,059
-99,118	-12,302	0,104	-0,048
-98,103	16,523	0,097	-0,054
-97,089	800,000	-0,050	0,129
-96,074	800,000	0,055	0,148
-95,059	167,733	0,135	0,136
-94,045	-133,756	0,180	-0,016
-93,030	-200,000	-0,002	-0,095
-92,016	-200,000	-0,016	-0,110
-91,001	201,322	0,024	0,026
-89,986	-28,477	0,047	0,019
-88,972	423,093	-0,081	0,123
-87,957	800,000	0,022	0,046
-86,943	218,782	-0,032	0,036
-85,928	558,436	-0,080	-0,137
-84,913	800,000	-0,058	-0,168
-83,899	-200,000	-0,019	-0,133
-82,884	99,156	-0,071	-0,058
-81,870	8,478	0,054	-0,029
-80,855	329,929	0,115	0,157
-79,840	-200,000	-0,005	-0,097
-78,826	-200,000	0,016	0,064
-77,811	800,000	-0,072	-0,195
-76,797	148,243	0,046	-0,044
-75,782	-43,337	0,113	-0,040
-74,767	800,000	-0,050	0,148
-73,753	430,900	0,052	0,080
-72,738	-143,638	-0,067	0,004
-71,724	61,298	-0,029	0,020
-70,709	110,953	0,042	-0,035
-69,694	-200,000	0,013	-0,046
-68,680	800,000	-0,045	0,106
-67,665	800,000	0,009	0,024
-66,651	117,364	0,145	0,126
-65,636	-87,237	0,102	0,022
-64,622	-200,000	0,011	-0,048
-63,607	356,808	-0,078	-0,110
-62,592	-80,617	-0,044	0,010
-61,578	388,115	0,013	-0,019
-60,563	220,179	0,083	0,094
-59,549	-137,025	-0,061	0,005
-58,534	10,448	-1,813	-0,972
-57,519	379,966	-1,370	-1,989
-56,505	-200,000	-0,352	-4,439
-55,490	435,386	0,770	1,187
-54,476	800,000	5,212	11,480
-53,461	-200,000	20,483	327,306
-52,446	800,000	753,077	2313,482
-51,432	551,158	1658,486	2820,832
-50,417	73,951	1663,452	1230,471
-49,403	19,129	1536,502	867,809
-48,388	13,163	1459,132	795,264
-47,373	18,827	1450,177	817,543
-46,359	16,042	1439,521	798,251
-45,344	11,382	1435,026	773,548
-44,330	11,327	1433,048	772,186
-43,315	11,289	1431,258	771,012
-42,300	11,307	1429,566	770,154
-41,286	11,309	1428,206	769,402
-40,271	11,265	1427,143	768,591
-39,257	11,313	1425,917	768,126
-38,242	11,305	1424,662	767,381
-37,227	11,315	1423,494	766,768
-36,213	11,312	1422,222	766,041
-35,198	11,348	1421,118	765,586
-34,184	11,372	1420,344	765,248
-33,169	11,342	1418,604	764,139
-32,154	11,388	1417,709	763,845
-31,140	11,369	1416,669	763,162
-30,125	11,437	1415,626	762,892
-29,111	11,380	1414,453	761,961
-28,096	11,385	1413,212	761,287
-27,082	11,336	1412,140	760,447
-26,067	11,317	1410,992	759,712
-25,052	11,306	1409,953	759,070
-24,038	11,331	1408,930	758,605
-23,023	11,304	1408,032	757,967
-22,009	11,323	1406,902	757,418
-20,994	11,296	1405,855	756,698
-19,979	11,250	1405,103	756,049
-18,965	11,209	1404,099	755,286
-17,950	11,226	1403,366	754,940
-16,936	11,212	1402,571	754,421
-15,921	11,202	1401,447	753,737
-14,906	11,206	1400,407	753,168
-13,892	11,213	1399,525	752,696
-12,877	11,236	1398,835	752,401
-11,863	11,184	1398,011	751,689
-10,848	11,149	1396,925	750,909
-9,833	11,139	1396,073	750,374
-8,819	11,134	1395,268	749,891
-7,804	11,144	1394,330	749,406
-6,790	11,089	1393,369	748,603
-5,775	11,107	1392,289	748,074
-4,760	11,136	1391,367	747,684
-3,746	11,108	1390,651	747,142
-2,731	11,074	1389,658	746,421
-1,717	11,091	1388,794	746,008
-0,702	11,068	1387,150	744,988
0,313	15,146	1301,629	717,727
1,327	31,406	694,127	419,777
2,342	48,678	120,694	79,695
3,356	1,875	16,568	8,401
4,371	13,928	3,268	1,788
5,386	-30,052	0,992	0,396
6,400	-200,000	0,141	0,523
7,415	20,498	-0,197	-0,112
8,429	354,700	-0,298	-0,418
9,444	151,946	-0,333	-0,321
10,459	5,406	-0,218	-0,113
11,473	10,166	-0,333	-0,178
12,488	-120,588	-0,311	-0,037
13,502	-18,191	-0,259	-0,114
14,517	-48,238	-0,341	-0,115
15,531	58,298	-0,402	-0,278
16,546	12,769	-0,375	-0,204
17,561	49,663	-0,420	-0,278
18,575	73,298	-0,209	-0,154
19,590	800,000	-0,155	-0,326
20,604	-32,084	-0,223	-0,087
21,619	140,325	-0,428	-0,398
22,634	-36,718	-0,575	-0,216
23,648	137,636	-0,472	-0,435
24,663	73,537	-0,377	-0,277
25,677	203,864	-0,363	-0,397
26,692	55,589	-0,316	-0,215
27,707	64,898	-0,213	-0,151
28,721	-27,771	-0,386	-0,157
29,736	64,486	-0,402	-0,285
30,750	17,763	-0,503	-0,281
31,765	113,324	-0,361	-0,308
32,780	219,974	-0,294	-0,332
33,794	129,868	-0,290	-0,261
34,809	78,964	-0,351	-0,264
35,823	-54,857	-0,291	-0,092
36,838	-31,826	-0,410	-0,161
37,853	46,807	-0,459	-0,300
38,867	378,187	-0,234	-0,337
39,882	-37,371	-0,249	-0,093
40,896	204,601	-0,214	-0,233
41,911	-69,442	-0,391	-0,105
42,926	-72,688	-0,456	-0,117
43,940	127,166	-0,394	-0,352
44,955	7,112	-0,302	-0,158
45,969	43,402	-0,352	-0,225
46,984	-9,395	-0,176	-0,082
47,999	18,793	-0,305	-0,171
49,013	103,601	-0,371	-0,306
50,028	-97,822	-0,452	-0,081
51,042	190,514	-0,308	-0,326
52,057	-17,100	-0,424	-0,187
53,071	167,955	-0,269	-0,269
54,086	14,899	-0,393	-0,215
55,101	81,164	-0,254	-0,192
56,115	100,392	-0,371	-0,302
57,130	62,830	-0,289	-0,202
58,144	10,483	-0,326	-0,174
59,159	-11,487	-0,316	-0,146
60,174	119,196	-0,367	-0,318
61,188	65,207	-0,285	-0,202
62,203	36,341	-0,355	-0,219
63,217	42,791	-0,324	-0,207
64,232	-20,856	-0,377	-0,161
65,247	-43,404	-0,568	-0,200
66,261	56,873	-0,380	-0,259
67,276	381,743	-0,211	-0,305
68,290	-96,083	-0,306	-0,056
69,305	30,535	-0,294	-0,176
70,320	279,177	-0,192	-0,241
71,334	-43,636	-0,255	-0,090
72,349	81,973	-0,308	-0,234
73,363	6,535	-0,296	-0,154
74,378	196,427	-0,230	-0,246
75,393	51,387	-0,329	-0,218
76,407	-64,181	-0,303	-0,086
77,422	12,144	-0,201	-0,108
78,436	33,105	-0,335	-0,203
79,451	-42,355	-0,334	-0,119
80,466	60,842	-0,234	-0,162
81,480	106,947	-0,286	-0,238
82,495	75,744	-0,312	-0,231
83,509	110,727	-0,253	-0,213
84,524	198,173	-0,142	-0,152
85,539	244,920	-0,166	-0,196
86,553	45,081	-0,323	-0,208
87,568	-17,269	-0,280	-0,123
88,582	-12,986	-0,246	-0,111
89,597	115,267	-0,224	-0,192
90,611	6,441	-0,244	-0,126
91,626	-66,222	-0,368	-0,102
92,641	-28,820	-0,218	-0,087
93,655	-26,546	-0,248	-0,101
94,670	362,258	-0,197	-0,277
95,684	113,902	-0,419	-0,356
96,699	53,574	-0,286	-0,192
97,714	176,888	-0,159	-0,162
98,728	1,265	-0,309	-0,155
99,743	-93,132	-0,335	-0,065
100,757	67,240	-0,246	-0,175
101,772	30,803	-0,311	-0,186
102,787	39,865	-0,318	-0,199
103,801	-89,354	-0,363	-0,074
104,816	-73,224	-0,332	-0,084
105,830	114,524	-0,211	-0,180
106,845	800,000	-0,121	-0,260
107,860	36,361	-0,199	-0,122
108,874	214,218	-0,207	-0,229
109,889	198,966	-0,230	-0,247
110,903	-86,047	-0,394	-0,084
111,918	-74,756	-0,305	-0,076
112,933	62,301	-0,290	-0,202
113,947	-2,283	-0,182	-0,089
114,962	219,125	-0,175	-0,196
115,976	-13,854	-0,323	-0,145
116,991	103,096	-0,313	-0,256
118,006	141,593	-0,190	-0,176
119,020	217,633	-0,241	-0,269
120,035	-83,421	-0,286	-0,063
121,049	-78,390	-0,285	-0,068
122,064	-24,818	-0,258	-0,106
123,079	95,351	-0,209	-0,166
124,093	17,222	-0,321	-0,177
125,108	101,445	-0,216	-0,176
126,122	18,802	-0,158	-0,088
127,137	110,065	-0,303	-0,254
128,151	30,498	-0,236	-0,141
129,166	-79,203	-0,214	-0,050
130,181	-51,961	-0,265	-0,085
131,195	-86,508	-0,188	-0,040
132,210	-35,025	-0,271	-0,103
133,224	52,167	-0,297	-0,197
134,239	-76,520	-0,266	-0,065
135,254	-78,571	-0,309	-0,073
136,268	20,610	-0,242	-0,136
137,283	223,151	-0,251	-0,283
138,297	-200,000	-0,095	-0,345
139,312	24,704	-0,315	-0,181
140,327	141,941	-0,306	-0,283
141,341	800,000	-0,061	-0,180
142,356	546,251	-0,107	-0,179
143,370	-14,368	-0,277	-0,124
144,385	17,299	-0,273	-0,151
145,400	-52,978	-0,241	-0,077
146,414	710,795	-0,143	-0,266
147,429	107,215	-0,204	-0,168
148,443	692,085	-0,106	-0,194
149,458	25,805	-0,263	-0,152
150,473	163,018	-0,128	-0,125
151,487	247,232	-0,129	-0,152
152,502	180,200	-0,207	-0,212
153,516	165,443	-0,290	-0,285
154,531	491,092	-0,154	-0,247
155,546	-26,056	-0,215	-0,088
156,560	9,737	-0,256	-0,135
157,575	-170,926	-0,270	-0,006
158,589	624,939	-0,125	-0,220
159,604	78,023	-0,244	-0,181
160,619	32,319	-0,346	-0,207
161,633	134,602	-0,251	-0,227
162,648	232,989	-0,132	-0,151
163,662	89,359	-0,171	-0,133
164,677	33,302	-0,256	-0,154
165,692	-77,686	-0,213	-0,051
166,706	173,746	-0,252	-0,253
167,721	294,077	-0,160	-0,204
168,735	-27,784	-0,214	-0,086
169,750	56,097	-0,172	-0,116
170,764	-102,952	-0,263	-0,043
171,779	27,492	-0,164	-0,095
172,794	-200,000	-0,002	-0,044
173,808	164,729	-0,263	-0,258
174,823	-0,317	-0,234	-0,115
175,837	-133,668	-0,188	0,016
176,852	300,570	-0,186	-0,239
177,867	211,625	-0,166	-0,181
178,881	541,938	-0,098	-0,162
179,896	50,126	-0,276	-0,181
180,910	30,986	-0,193	-0,114
181,925	265,958	-0,138	-0,168
182,940	431,150	-0,232	-0,350
183,954	4,433	-0,193	-0,098
184,969	-114,431	-0,287	-0,038
185,983	273,383	-0,181	-0,222
186,998	-168,502	-0,113	0,003
188,013	-106,012	-0,135	-0,021
189,027	30,058	-0,261	-0,154
190,042	64,241	-0,347	-0,242
191,056	115,436	-0,258	-0,219
192,071	342,490	-0,112	-0,153
193,086	-22,386	-0,306	-0,128
194,100	17,376	-0,173	-0,095
195,115	45,551	-0,210	-0,134
196,129	208,927	-0,160	-0,174
197,144	-64,806	-0,242	-0,067
198,159	-91,481	-0,264	0,052
199,173	57,082	-0,122	-0,083
200,188	-200,000	-0,033	-0,148
201,202	-200,000	-0,052	-0,183
202,217	34,830	-0,276	-0,167
203,232	208,396	-0,153	-0,166
204,246	-7,208	-0,283	-0,133
205,261	16,688	-0,247	-0,135
206,275	249,269	-0,081	-0,095
207,290	-118,825	-0,260	-0,031
208,304	199,868	-0,146	-0,156
209,319	20,106	-0,283	-0,158
210,334	-34,401	-0,204	-0,077
211,348	203,033	-0,175	-0,187
212,363	800,000	-0,190	-0,406
213,377	10,995	-0,231	-0,122
214,392	216,643	-0,133	-0,146
215,407	74,158	-0,129	-0,094
216,421	-130,749	-0,160	-0,015
217,436	261,970	-0,138	-0,166
218,450	100,332	-0,167	-0,134
219,465	-140,014	-0,264	-0,019
220,480	532,256	-0,098	-0,162
221,494	253,399	-0,180	-0,213
222,509	-70,157	-0,177	-0,046
223,523	164,157	-0,188	-0,183
224,538	171,532	-0,198	-0,197
225,553	89,655	-0,109	-0,084
226,567	-106,409	-0,166	-0,025
227,582	55,014	-0,269	-0,179
228,596	27,683	-0,243	-0,141
229,611	205,418	-0,181	-0,194
230,626	473,381	-0,108	-0,169
231,640	800,000	-0,061	-0,167
232,655	90,987	-0,176	-0,137
233,669	25,704	-0,114	-0,065
234,684	224,323	-0,106	-0,119
235,699	22,978	-0,271	-0,153
236,713	149,131	-0,242	-0,227
237,728	513,506	-0,150	-0,243
238,742	79,050	-0,063	-0,046
239,757	289,638	-0,215	-0,270
240,772	-49,354	-0,112	-0,037
241,786	8,231	-0,217	-0,112
242,801	-183,369	-0,121	-0,001
243,815	800,000	-0,046	-0,124
244,830	-134,090	-0,190	-0,016
245,844	98,134	-0,151	-0,120
246,859	5,166	-0,191	-0,097
247,874	-4,304	-0,234	-0,111
248,888	511,315	-0,200	-0,322
249,903	76,124	-0,254	-0,185
250,917	305,416	-0,085	-0,109
251,932	174,909	-0,100	-0,100
252,947	6,633	-0,115	0,059
253,961	-118,703	-0,189	0,023
254,976	112,630	-0,219	-0,183
255,990	800,000	-0,038	-0,095
257,005	164,395	-0,151	-0,147
258,020	-30,305	-0,288	-0,112
259,034	52,695	-0,011	0,007
260,049	230,920	-0,118	-0,133
261,063	-21,798	-0,209	-0,087
262,078	32,942	-0,199	-0,118
263,093	10,904	-0,187	-0,098
264,107	800,000	-0,042	-0,090
265,122	681,502	-0,107	-0,193
266,136	800,000	-0,090	-0,227
267,151	-71,353	-0,158	-0,040
268,166	-1,662	-0,251	-0,122
269,180	-176,099	-0,135	-0,002
270,195	52,389	-0,108	-0,071
271,209	235,287	-0,211	-0,240
272,224	-7,494	-0,175	-0,082
273,239	305,827	-0,147	-0,189
274,253	25,493	-0,179	-0,103
275,268	-91,837	-0,232	-0,045
276,282	-99,712	-0,258	-0,044
277,297	-50,022	-0,214	-0,069
278,312	694,016	-0,141	-0,255
279,326	53,459	-0,048	-0,031
280,341	-40,753	-0,278	-0,098
281,355	328,021	-0,133	-0,176
282,370	-28,809	-0,166	0,065
283,384	92,721	-0,162	-0,126
284,399	-200,000	-0,009	-0,134
285,414	-55,921	-0,145	-0,044
286,428	-88,252	-0,223	0,045
287,443	149,750	-0,114	-0,106
288,457	377,047	-0,131	-0,185
289,472	68,447	-0,129	0,091
290,487	57,646	-0,203	-0,136
291,501	133,778	-0,050	-0,045
292,516	-10,645	-0,187	-0,085
293,530	167,198	-0,146	-0,143
294,545	79,720	-0,189	-0,139
295,560	-68,098	-0,151	0,040
296,574	-55,409	-0,120	-0,037
297,589	-41,475	-0,269	-0,094
298,603	-142,976	-0,145	-0,009
299,618	3,293	-0,183	-0,091
300,633	800,000	-0,066	-0,147
301,647	-68,453	-0,095	-0,025
302,662	70,477	-0,137	-0,097
303,676	800,000	-0,064	-0,152
304,691	-11,208	-0,179	-0,081
305,706	1,891	-0,162	-0,080
306,720	-21,441	-0,165	-0,069
307,735	604,428	-0,043	-0,074
308,749	120,616	-0,071	-0,061
309,764	104,688	-0,135	-0,109
310,779	800,000	-0,109	-0,244
311,793	-83,697	-0,101	-0,022
312,808	800,000	-0,076	-0,165
313,822	302,572	-0,121	-0,154
314,837	-114,393	-0,149	-0,019
315,852	38,812	-0,102	-0,062
316,866	-163,048	-0,110	0,004
317,881	235,548	-0,020	-0,023
318,895	233,160	-0,068	-0,077
319,910	-200,000	-0,015	-0,096
320,925	-200,000	-0,047	-0,195
321,939	-200,000	-0,038	-0,123
322,954	184,318	-0,092	-0,093
323,968	247,790	-0,167	-0,194
324,983	-200,000	-0,047	-0,191
325,997	-200,000	-0,049	-0,154
327,012	185,159	-0,171	-0,174
328,027	470,860	-0,109	-0,168
329,041	177,266	-0,129	-0,129
330,056	-22,042	-0,170	-0,071
331,070	-132,360	-0,129	0,011
332,085	326,515	-0,069	-0,091
333,100	800,000	-0,055	-0,157
334,114	303,618	-0,094	-0,120
335,129	252,334	-0,118	-0,138
336,143	13,730	-0,191	-0,101
337,158	-149,127	-0,140	-0,008
338,173	509,405	-0,075	-0,120
339,187	-191,983	-0,254	0,002
340,202	-173,172	-0,175	-0,004
341,216	-61,950	-0,261	-0,074
342,231	84,609	-0,170	-0,127
343,246	-117,175	-0,118	0,015
344,260	278,503	-0,123	-0,151
345,275	-200,000	-0,088	-0,298
346,289	800,000	-0,041	-0,092
347,304	800,000	-0,084	-0,214
348,319	800,000	-0,086	-0,167
349,333	164,962	-0,158	-0,153
350,348	400,399	-0,146	-0,210
351,362	-200,000	-0,015	-0,101
352,377	282,931	-0,035	-0,043
353,392	-87,601	-0,234	-0,048
354,406	-123,263	-0,140	0,015
355,421	206,225	1308,502	1394,521
356,435	158,591	1468,461	1395,010
