DTS Sentinel unit serial number:	SN410029Multiplexer serial number:	ORYXHardware model number:	OX2-SRSoftware version number:	ORYX F/W v4,00 Oryx Data Collector v3.7.2.0data status	okinstallation	B3 Nyhavnadifferential loss correction	single-endedforward channel	channel 1reverse channel	N/Adate	2023/12/03time	13:42:30forward acquisition time	300,00reverse acquisition time	0,00gamma	499,1914k internal	0,3200k external	0,3200temperature offset calibration	1,0000default loss term (dB/km)	0,3820temperature slope calibration	1,0000multiplexer offset coefficient	1,0000multiplexer slope coefficient	1,0000fibre end	0,00T internal ref (°C)	15,26T ext. ref 1 (°C)	1,43T ext. ref 2 (°C)	1,41length (m)	temperature (°C)	Stokes	anti-Stokes-744,400	68,271	-0,241	-0,180
-743,385	-200,000	0,036	0,286
-742,371	384,484	-0,146	-0,220
-741,356	-200,000	-0,063	0,386
-740,342	-65,633	-0,310	-0,090
-739,327	-200,000	-0,032	0,404
-738,312	-171,443	-0,284	-0,007
-737,298	-200,000	-0,039	0,267
-736,283	98,384	-0,217	-0,182
-735,269	800,000	0,139	0,393
-734,254	53,162	-0,253	-0,176
-733,239	-42,244	-0,153	0,057
-732,225	361,325	-0,121	-0,177
-731,210	252,781	0,142	0,177
-730,196	-200,000	-0,002	-0,020
-729,181	800,000	-0,032	0,076
-728,167	51,301	0,108	-0,075
-727,152	271,297	-0,043	-0,056
-726,137	605,271	-0,098	0,179
-725,123	-200,000	-0,018	-0,122
-724,108	-200,000	0,023	-0,176
-723,094	-104,413	-0,154	-0,026
-722,079	-78,006	-0,062	0,015
-721,064	740,089	-0,040	-0,079
-720,050	-6,030	-0,071	0,035
-719,035	140,337	-0,107	-0,102
-718,021	-200,000	-0,003	-0,074
-717,006	-200,000	0,023	-0,094
-715,991	-59,316	-0,121	-0,038
-714,977	-59,490	-0,072	0,022
-713,962	31,650	-0,108	0,067
-712,948	-102,010	0,020	-0,004
-711,933	-17,113	-0,083	-0,038
-710,918	21,086	-0,104	0,061
-709,904	445,458	-0,073	-0,117
-708,889	-200,000	-0,029	-0,125
-707,875	-104,509	-0,101	-0,017
-706,860	-120,273	0,071	0,009
-705,845	152,647	0,067	-0,066
-704,831	195,309	0,060	0,067
-703,816	-200,000	-0,001	0,147
-702,802	-200,000	-0,009	0,078
-701,787	102,713	-0,101	-0,085
-700,772	129,288	-0,091	-0,084
-699,758	476,359	0,082	0,136
-698,743	224,947	-0,029	-0,035
-697,729	-200,000	0,020	0,103
-696,714	24,307	0,025	-0,015
-695,699	-24,049	0,073	-0,032
-694,685	241,260	0,051	0,062
-693,670	-100,840	0,055	0,010
-692,656	219,333	-0,067	-0,078
-691,641	20,818	0,081	-0,048
-690,627	800,000	-0,022	0,069
-689,612	-90,568	-0,158	0,033
-688,597	-38,279	0,170	-0,065
-687,583	-200,000	-0,030	-0,159
-686,568	-115,442	-0,058	0,008
-685,554	-200,000	-0,025	0,093
-684,539	371,418	-0,055	0,081
-683,524	-46,583	-0,145	0,051
-682,510	800,000	-0,024	0,050
-681,495	101,246	-0,068	-0,057
-680,481	-107,457	0,008	-0,001
-679,466	800,000	-0,057	-0,177
-678,451	-13,175	-0,095	0,045
-677,437	-68,532	-0,112	0,031
-676,422	-200,000	0,007	0,084
-675,408	800,000	0,016	0,042
-674,393	-156,953	0,000	0,000
-673,378	800,000	0,036	0,078
-672,364	-181,614	-0,164	-0,002
-671,349	482,119	-0,072	0,119
-670,335	-20,182	0,110	0,049
-669,320	-130,260	0,081	-0,008
-668,305	81,597	-0,051	0,040
-667,291	15,481	-0,074	-0,042
-666,276	-200,000	-0,052	-0,248
-665,262	-0,085	-0,189	-0,097
-664,247	-200,000	0,024	-0,089
-663,232	-200,000	0,010	-0,075
-662,218	-44,437	0,146	0,053
-661,203	377,508	-0,057	0,084
-660,189	-200,000	-0,023	-0,094
-659,174	692,233	-0,095	-0,182
-658,159	-200,000	-0,020	-0,188
-657,145	-56,592	0,024	-0,008
-656,130	-50,841	-0,081	0,028
-655,116	-136,408	0,116	0,010
-654,101	-200,000	-0,028	0,185
-653,086	-1,479	0,019	0,010
-652,072	84,251	0,055	0,043
-651,057	50,776	-0,057	-0,039
-650,043	-100,674	-0,226	0,040
-649,028	471,939	0,056	-0,092
-648,014	-184,495	-0,083	-0,001
-646,999	-107,331	0,054	-0,008
-645,984	-84,836	0,092	-0,021
-644,970	-26,206	0,106	0,045
-643,955	800,000	0,023	0,051
-642,941	-200,000	0,012	0,122
-641,926	305,371	-0,029	-0,040
-640,911	-2,283	-0,103	0,052
-639,897	-103,313	0,117	-0,020
-638,882	56,457	-0,022	-0,016
-637,868	95,071	-0,041	0,034
-636,853	-200,000	-0,014	-0,080
-635,838	-200,000	0,001	-0,077
-634,824	-200,000	-0,000	-0,181
-633,809	-200,000	0,020	0,153
-632,795	800,000	0,044	0,133
-631,780	-116,876	-0,190	-0,025
-630,765	-200,000	0,006	-0,096
-629,751	-200,000	0,014	0,091
-628,736	59,453	-0,063	-0,045
-627,722	-200,000	0,015	0,066
-626,707	-200,000	-0,005	-0,122
-625,692	-76,555	-0,109	-0,028
-624,678	272,323	-0,037	-0,048
-623,663	-200,000	0,004	0,072
-622,649	800,000	-0,022	-0,060
-621,634	582,222	-0,079	0,141
-620,619	-62,071	-0,038	0,011
-619,605	-200,000	-0,044	0,153
-618,590	-47,040	0,083	-0,029
-617,576	800,000	-0,065	0,131
-616,561	70,076	0,138	0,103
-615,546	-123,290	-0,143	-0,016
-614,532	-54,002	0,007	0,002
-613,517	-200,000	-0,008	-0,091
-612,503	202,362	0,022	-0,024
-611,488	105,791	0,050	0,042
-610,474	60,076	0,036	0,025
-609,459	-126,779	-0,058	-0,006
-608,444	-169,443	-0,140	0,004
-607,430	-200,000	-0,030	-0,098
-606,415	-200,000	-0,021	0,068
-605,401	-121,810	0,101	-0,012
-604,386	-200,000	-0,026	0,089
-603,371	-200,000	0,001	0,121
-602,357	-200,000	-0,026	0,100
-601,342	-200,000	0,012	-0,053
-600,328	121,915	-0,137	-0,123
-599,313	89,431	-0,133	-0,107
-598,298	-115,448	0,048	0,006
-597,284	303,135	-0,064	-0,086
-596,269	800,000	0,030	0,087
-595,255	45,584	-0,116	-0,077
-594,240	16,661	-0,082	-0,047
-593,225	-200,000	-0,012	-0,212
-592,211	93,033	-0,081	-0,066
-591,196	710,896	0,021	-0,040
-590,182	170,716	0,014	-0,015
-589,167	-67,760	0,051	-0,014
-588,152	-200,000	0,033	-0,119
-587,138	-81,776	0,065	-0,015
-586,123	396,169	-0,033	-0,051
-585,109	333,390	-0,106	-0,148
-584,094	10,893	-0,083	0,046
-583,079	85,081	0,041	0,032
-582,065	5,958	0,130	0,069
-581,050	59,529	-0,151	-0,108
-580,036	129,763	-0,084	-0,078
-579,021	111,552	0,089	-0,078
-578,006	800,000	-0,048	-0,099
-576,992	-134,354	-0,127	0,011
-575,977	-200,000	0,012	0,052
-574,963	-80,188	0,226	0,054
-573,948	-77,307	-0,070	-0,017
-572,934	-45,137	-0,111	-0,040
-571,919	78,803	0,061	-0,047
-570,904	52,029	-0,198	-0,136
-569,890	-200,000	-0,024	-0,080
-568,875	206,889	0,099	0,111
-567,861	-200,000	-0,014	-0,109
-566,846	119,229	0,068	-0,060
-565,831	-51,448	-0,184	-0,062
-564,817	-200,000	-0,003	0,052
-563,802	76,166	-0,025	-0,019
-562,788	-21,295	-0,065	0,028
-561,773	-200,000	0,010	0,093
-560,758	430,390	-0,053	0,084
-559,744	245,306	0,030	-0,036
-558,729	-62,457	-0,135	-0,040
-557,715	117,141	-0,095	-0,084
-556,700	-98,934	-0,122	-0,022
-555,685	800,000	-0,003	0,010
-554,671	800,000	-0,051	-0,119
-553,656	42,107	-0,022	-0,014
-552,642	-117,641	0,055	0,007
-551,627	-200,000	-0,008	0,145
-550,612	-62,912	0,073	-0,022
-549,598	800,000	-0,036	-0,097
-548,583	-30,429	-0,044	-0,018
-547,569	-62,025	0,218	0,065
-546,554	30,091	0,172	0,106
-545,539	-90,669	-0,103	-0,021
-544,525	10,650	-0,025	-0,014
-543,510	201,461	-0,136	-0,152
-542,496	-132,206	0,071	-0,007
-541,481	-200,000	-0,008	-0,077
-540,466	-200,000	-0,002	0,052
-539,452	800,000	0,059	0,166
-538,437	133,861	0,139	0,130
-537,423	75,493	0,085	0,064
-536,408	800,000	0,029	-0,081
-535,393	-200,000	0,033	-0,112
-534,379	-200,000	0,016	0,213
-533,364	197,121	-0,028	0,031
-532,350	-5,781	0,018	-0,009
-531,335	-88,266	-0,060	-0,013
-530,321	500,506	-0,039	0,066
-529,306	-79,729	0,094	-0,023
-528,291	581,562	-0,058	-0,103
-527,277	269,434	-0,107	-0,136
-526,262	-46,735	0,008	0,003
-525,248	-200,000	-0,007	0,079
-524,233	-200,000	0,011	-0,114
-523,218	-200,000	0,003	-0,014
-522,204	-103,861	0,147	-0,024
-521,189	-27,835	-0,215	-0,090
-520,175	216,681	0,097	-0,112
-519,160	250,092	0,057	0,069
-518,145	800,000	0,018	0,039
-517,131	573,631	0,038	0,067
-516,116	331,652	-0,047	0,066
-515,102	-200,000	-0,001	-0,080
-514,087	-88,314	-0,084	-0,018
-513,072	800,000	-0,090	-0,203
-512,058	404,751	-0,016	0,024
-511,043	280,176	0,018	0,023
-510,029	265,441	-0,070	-0,089
-509,014	-73,192	0,158	-0,041
-507,999	800,000	-0,072	0,196
-506,985	-38,998	-0,042	-0,016
-505,970	209,033	0,039	-0,045
-504,956	297,221	-0,015	-0,020
-503,941	-4,952	-0,056	0,028
-502,926	-29,919	-0,009	-0,004
-501,912	15,847	-0,024	-0,013
-500,897	1,287	-0,160	-0,082
-499,883	-200,000	0,018	0,095
-498,868	299,297	-0,035	-0,047
-497,853	-93,714	-0,219	-0,043
-496,839	455,693	0,066	-0,106
-495,824	-154,079	0,122	0,006
-494,810	-27,437	-0,074	-0,031
-493,795	800,000	0,037	0,108
-492,781	-200,000	-0,003	-0,036
-491,766	800,000	0,057	-0,158
-490,751	274,038	0,100	-0,128
-489,737	279,198	-0,044	0,057
-488,722	800,000	0,030	-0,073
-487,708	675,036	0,026	0,049
-486,693	63,934	-0,051	0,037
-485,678	-3,062	-0,058	-0,029
-484,664	-200,000	0,025	-0,102
-483,649	-200,000	-0,009	-0,100
-482,635	143,621	0,009	-0,008
-481,620	-44,033	0,109	-0,039
-480,605	-102,695	0,146	-0,025
-479,591	-200,000	0,000	-0,012
-478,576	-200,000	0,011	0,038
-477,562	800,000	0,022	-0,060
-476,547	-64,784	-0,077	-0,022
-475,532	-158,415	-0,068	-0,003
-474,518	106,985	0,051	0,044
-473,503	194,945	-0,009	0,009
-472,489	284,120	0,093	0,121
-471,474	-200,000	0,024	-0,183
-470,459	62,638	-0,077	0,055
-469,445	127,960	0,035	0,032
-468,430	-200,000	0,003	-0,131
-467,416	647,622	-0,016	0,029
-466,401	-169,899	0,126	-0,003
-465,386	-37,069	-0,120	0,046
-464,372	-6,482	-0,093	0,045
-463,357	-200,000	0,014	-0,068
-462,343	-200,000	0,022	-0,075
-461,328	-57,076	0,044	0,014
-460,313	-200,000	-0,012	-0,062
-459,299	800,000	0,038	0,108
-458,284	-200,000	0,015	0,047
-457,270	363,181	0,046	-0,067
-456,255	-191,917	-0,071	-0,000
-455,241	-30,013	-0,086	0,035
-454,226	-200,000	0,030	-0,184
-453,211	43,292	0,034	0,022
-452,197	-146,081	0,061	0,004
-451,182	451,459	0,020	-0,032
-450,168	20,078	-0,114	0,066
-449,153	6,720	0,087	0,046
-448,138	307,878	-0,019	0,026
-447,124	356,153	0,026	0,037
-446,109	-200,000	-0,006	0,103
-445,095	447,246	0,054	0,086
-444,080	-22,247	0,123	0,053
-443,065	206,036	0,016	-0,018
-442,051	540,023	0,028	-0,048
-441,036	106,831	-0,100	-0,085
-440,022	111,401	0,024	-0,021
-439,007	-200,000	-0,014	-0,068
-437,992	800,000	-0,025	-0,054
-436,978	-115,107	-0,125	-0,017
-435,963	800,000	-0,054	0,154
-434,949	-46,188	0,137	-0,048
-433,934	421,198	-0,034	-0,052
-432,919	136,555	-0,137	-0,128
-431,905	110,096	0,048	-0,042
-430,890	582,510	0,088	-0,156
-429,876	209,340	0,068	0,076
-428,861	356,890	-0,096	0,137
-427,846	81,838	0,058	0,045
-426,832	-29,716	0,029	0,012
-425,817	-123,193	0,114	-0,013
-424,803	-200,000	0,006	-0,070
-423,788	443,009	0,086	0,136
-422,773	-36,409	-0,097	0,037
-421,759	-147,239	0,062	0,004
-420,744	-105,615	0,089	-0,014
-419,730	-140,943	0,029	0,002
-418,715	800,000	0,014	-0,034
-417,701	-119,259	-0,076	0,009
-416,686	123,581	-0,098	0,088
-415,671	197,687	-0,044	-0,048
-414,657	67,899	0,082	0,060
-413,642	-50,390	0,072	0,024
-412,628	-39,200	-0,021	-0,008
-411,613	118,749	-0,082	0,073
-410,598	800,000	-0,028	0,058
-409,584	134,685	-0,041	-0,038
-408,569	-14,023	0,086	0,040
-407,555	109,462	-0,063	0,054
-406,540	136,385	-0,100	0,094
-405,525	-85,444	0,073	-0,016
-404,511	276,936	-0,056	0,072
-403,496	53,968	0,050	0,035
-402,482	-66,911	0,022	0,006
-401,467	201,246	0,116	0,129
-400,452	21,840	-0,136	-0,080
-399,438	-96,615	0,103	0,019
-398,423	-129,635	-0,119	0,012
-397,409	-112,446	-0,111	-0,016
-396,394	407,002	0,055	0,083
-395,379	800,000	-0,011	-0,027
-394,365	318,101	0,063	0,086
-393,350	-185,559	0,077	0,001
-392,336	104,323	0,111	-0,093
-391,321	-200,000	-0,058	0,000
-390,306	113,841	0,009	0,007
-389,292	800,000	-0,034	0,105
-388,277	800,000	-0,008	-0,022
-387,263	-19,831	0,063	-0,028
-386,248	-96,403	-0,041	0,008
-385,233	0,608	0,153	0,078
-384,219	466,182	-0,073	0,117
-383,204	767,383	0,030	-0,058
-382,190	-186,883	0,046	0,000
-381,175	-200,000	-0,000	-0,065
-380,160	-200,000	-0,007	0,111
-379,146	-120,555	0,059	-0,007
-378,131	309,570	-0,031	0,041
-377,117	-175,954	-0,044	0,001
-376,102	-21,709	-0,068	-0,030
-375,088	105,939	-0,049	0,042
-374,073	448,133	-0,099	-0,157
-373,058	-200,000	-0,002	0,082
-372,044	270,846	0,108	-0,137
-371,029	53,734	0,093	-0,064
-370,015	201,378	-0,089	-0,098
-369,000	142,907	0,042	-0,040
-367,985	-168,185	-0,043	-0,001
-366,971	800,000	0,046	-0,096
-365,956	133,736	0,042	0,039
-364,942	-200,000	0,001	0,057
-363,927	236,401	-0,052	-0,061
-362,912	-171,162	0,112	-0,003
-361,898	105,545	-0,125	-0,106
-360,883	469,452	0,078	0,127
-359,869	-200,000	0,010	0,067
-358,854	575,584	0,046	0,080
-357,839	-200,000	-0,030	0,100
-356,825	-200,000	0,005	0,051
-355,810	40,510	0,135	0,087
-354,796	-121,403	-0,079	-0,009
-353,781	-200,000	0,040	-0,130
-352,766	800,000	-0,041	-0,096
-351,752	101,752	0,074	0,061
-350,737	-200,000	-0,003	0,012
-349,723	-200,000	0,019	0,092
-348,708	419,953	0,034	0,053
-347,693	-200,000	0,021	-0,086
-346,679	-200,000	0,034	-0,126
-345,664	-200,000	-0,037	-0,187
-344,650	-74,004	-0,081	0,021
-343,635	270,007	0,111	0,140
-342,620	-53,368	0,051	0,017
-341,606	445,145	-0,068	0,107
-340,591	-23,431	0,135	-0,058
-339,577	19,545	-0,096	-0,055
-338,562	218,493	-0,088	0,101
-337,548	800,000	-0,013	0,027
-336,533	800,000	-0,030	0,077
-335,518	-200,000	-0,015	0,111
-334,504	-168,711	0,026	-0,001
-333,489	800,000	-0,036	-0,087
-332,475	45,361	-0,111	-0,073
-331,460	-200,000	-0,011	0,044
-330,445	800,000	0,036	-0,080
-329,431	110,300	0,083	0,071
-328,416	800,000	0,033	0,101
-327,402	336,007	-0,038	-0,053
-326,387	-2,114	0,073	0,037
-325,372	383,832	-0,042	0,062
-324,358	185,771	0,043	-0,046
-323,343	-200,000	0,021	-0,111
-322,329	105,570	0,043	-0,036
-321,314	-94,365	0,089	-0,017
-320,299	-200,000	0,003	-0,062
-319,285	800,000	0,021	0,065
-318,270	23,340	-0,014	0,008
-317,256	800,000	0,042	-0,121
-316,241	-106,907	0,055	-0,009
-315,226	-70,801	0,036	-0,010
-314,212	800,000	-0,097	0,201
-313,197	337,538	0,076	0,106
-312,183	-110,750	-0,069	0,010
-311,168	-38,021	0,178	-0,067
-310,153	17,396	-0,073	0,041
-309,139	244,796	0,074	0,089
-308,124	800,000	-0,031	-0,081
-307,110	44,985	0,012	-0,008
-306,095	11,326	-0,069	0,038
-305,080	-160,369	0,060	-0,002
-304,066	-72,165	-0,083	-0,022
-303,051	-200,000	0,004	-0,081
-302,037	21,546	0,049	0,028
-301,022	-200,000	0,018	0,076
-300,008	-66,355	-0,110	-0,031
-298,993	800,000	0,029	-0,074
-297,978	-200,000	0,053	0,175
-296,964	546,232	0,073	0,125
-295,949	-200,000	-0,001	-0,165
-294,935	-44,673	-0,205	-0,073
-293,920	63,233	-0,041	-0,029
-292,905	-120,304	0,154	0,019
-291,891	800,000	-0,069	0,137
-290,876	800,000	-0,005	0,012
-289,862	-29,040	-0,056	-0,023
-288,847	723,153	-0,027	0,052
-287,832	598,574	-0,039	-0,070
-286,818	12,621	0,112	0,062
-285,803	168,804	-0,132	-0,134
-284,789	456,447	-0,048	0,076
-283,774	395,552	-0,122	0,182
-282,759	455,564	-0,065	0,104
-281,745	-80,301	-0,017	0,004
-280,730	800,000	0,023	0,053
-279,716	-163,166	-0,053	0,002
-278,701	105,032	0,051	0,043
-277,686	-200,000	0,001	0,004
-276,672	-51,006	0,149	-0,050
-275,657	-200,000	0,027	-0,090
-274,643	131,820	-0,095	-0,087
-273,628	90,325	0,022	-0,018
-272,613	800,000	-0,079	0,172
-271,599	21,065	-0,023	-0,013
-270,584	-104,421	0,108	-0,018
-269,570	-143,346	0,083	0,006
-268,555	163,850	0,050	0,051
-267,540	-200,000	0,009	-0,066
-266,526	-200,000	-0,010	-0,132
-265,511	-200,000	0,018	0,064
-264,497	-152,730	0,162	-0,008
-263,482	417,238	-0,103	0,158
-262,467	-200,000	0,012	0,059
-261,453	305,410	0,038	-0,050
-260,438	667,829	-0,055	0,102
-259,424	800,000	0,018	0,054
-258,409	670,221	0,029	-0,054
-257,395	800,000	0,028	0,066
-256,380	-200,000	0,122	0,000
-255,365	-44,026	-0,060	0,022
-254,351	-200,000	0,015	0,200
-253,336	197,734	-0,065	-0,071
-252,322	800,000	-0,049	-0,107
-251,307	85,054	0,077	-0,061
-250,292	-60,964	-0,063	-0,019
-249,278	-6,598	0,047	0,023
-248,263	-2,879	-0,095	0,047
-247,249	112,455	0,094	0,081
-246,234	452,963	0,047	0,075
-245,219	116,877	-0,078	0,069
-244,205	377,523	-0,017	-0,024
-243,190	800,000	0,023	-0,054
-242,176	-200,000	0,007	0,135
-241,161	-200,000	0,003	0,099
-240,146	-90,111	0,113	0,023
-239,132	31,606	-0,038	-0,023
-238,117	-200,000	-0,022	-0,213
-237,103	323,920	-0,052	-0,072
-236,088	-12,309	0,083	-0,039
-235,073	-53,898	-0,038	0,012
-234,059	-200,000	-0,013	-0,105
-233,044	466,544	0,039	0,063
-232,030	-200,000	0,019	0,083
-231,015	163,537	-0,034	0,034
-230,000	197,837	0,041	-0,045
-228,986	800,000	-0,068	-0,158
-227,971	-84,875	0,030	0,007
-226,957	301,298	0,077	0,102
-225,942	67,445	-0,044	-0,032
-224,927	-31,526	0,067	0,027
-223,913	-91,323	-0,120	0,024
-222,898	-98,005	-0,022	-0,004
-221,884	-183,169	0,028	0,000
-220,869	342,488	0,027	-0,037
-219,855	-12,339	0,217	0,101
-218,840	-200,000	-0,003	0,101
-217,825	-79,871	-0,029	0,007
-216,811	24,765	0,033	-0,019
-215,796	-200,000	-0,010	-0,079
-214,782	8,196	0,140	0,075
-213,767	-23,052	0,012	-0,005
-212,752	-115,654	0,118	-0,016
-211,738	127,458	0,022	0,020
-210,723	5,855	0,127	0,067
-209,709	310,963	0,031	-0,042
-208,694	-142,214	0,064	-0,004
-207,679	800,000	-0,039	0,081
-206,665	291,336	0,065	0,085
-205,650	800,000	0,010	0,022
-204,636	-91,926	0,130	0,026
-203,621	-200,000	0,011	0,072
-202,606	13,279	0,037	0,020
-201,592	115,789	-0,072	-0,063
-200,577	800,000	0,015	0,033
-199,563	346,591	0,109	0,153
-198,548	-200,000	-0,004	0,040
-197,533	-82,970	0,120	-0,027
-196,519	195,873	-0,088	-0,096
-195,504	231,773	0,051	-0,060
-194,490	800,000	-0,019	0,044
-193,475	-200,000	-0,008	-0,122
-192,460	800,000	0,026	0,052
-191,446	133,272	-0,051	0,047
-190,431	-200,000	0,010	0,043
-189,417	-109,403	-0,055	0,008
-188,402	33,186	-0,185	0,114
-187,387	-200,000	0,033	0,169
-186,373	284,356	-0,099	0,127
-185,358	206,923	0,034	-0,037
-184,344	-200,000	-0,004	-0,131
-183,329	421,686	-0,060	-0,091
-182,315	120,716	0,036	-0,032
-181,300	56,851	-0,149	-0,103
-180,285	-200,000	-0,007	0,023
-179,271	385,924	-0,066	-0,097
-178,256	17,015	0,054	-0,030
-177,242	102,815	-0,130	-0,109
-176,227	81,155	0,102	-0,079
-175,212	-3,918	0,111	-0,055
-174,198	-115,296	-0,054	0,007
-173,183	118,685	0,066	0,058
-172,169	800,000	-0,077	0,193
-171,154	-21,858	-0,131	-0,057
-170,139	346,086	0,037	-0,051
-169,125	172,178	-0,073	-0,075
-168,110	36,197	0,078	0,049
-167,096	-200,000	0,011	0,135
-166,081	446,244	-0,073	0,115
-165,066	-8,217	0,032	-0,015
-164,052	279,090	-0,046	-0,059
-163,037	-141,231	0,041	0,003
-162,023	-60,657	-0,063	0,019
-161,008	94,503	0,138	-0,111
-159,993	-55,962	-0,082	-0,026
-158,979	-200,000	-0,008	-0,056
-157,964	-200,000	0,018	-0,061
-156,950	611,678	-0,045	-0,080
-155,935	413,757	-0,082	0,124
-154,920	167,431	0,116	0,118
-153,906	48,078	0,070	-0,046
-152,891	-121,253	0,022	-0,003
-151,877	186,124	0,029	-0,031
-150,862	93,105	-0,052	0,042
-149,847	-200,000	0,002	-0,039
-148,833	277,866	0,031	-0,039
-147,818	281,357	-0,037	0,048
-146,804	93,835	0,095	-0,077
-145,789	-200,000	-0,032	0,164
-144,775	27,408	-0,089	-0,053
-143,760	-41,286	-0,059	-0,022
-142,745	351,215	-0,058	-0,081
-141,731	697,685	-0,019	-0,035
-140,716	321,090	0,103	0,139
-139,702	52,472	-0,128	0,087
-138,687	800,000	0,038	0,108
-137,672	293,800	-0,024	-0,031
-136,658	-200,000	-0,012	-0,071
-135,643	800,000	-0,034	-0,074
-134,629	289,470	0,069	0,089
-133,614	800,000	0,017	0,042
-132,599	-200,000	0,029	0,106
-131,585	49,581	0,033	-0,022
-130,570	500,631	-0,046	0,075
-129,556	-200,000	-0,013	-0,107
-128,541	-171,531	-0,130	-0,003
-127,526	23,093	-0,063	0,037
-126,512	800,000	0,083	0,246
-125,497	459,393	0,103	0,164
-124,483	800,000	-0,041	-0,109
-123,468	56,231	-0,076	0,053
-122,453	800,000	-0,056	-0,129
-121,439	800,000	-0,062	0,156
-120,424	-200,000	0,005	-0,032
-119,410	-47,941	0,078	0,027
-118,395	49,786	0,118	0,079
-117,380	-200,000	-0,023	-0,101
-116,366	-200,000	0,004	-0,021
-115,351	84,593	-0,105	-0,081
-114,337	60,900	0,054	0,038
-113,322	-13,286	0,117	0,054
-112,307	93,830	0,122	0,098
-111,293	124,986	0,025	0,022
-110,278	206,061	-0,072	0,079
-109,264	496,034	-0,034	-0,055
-108,249	125,187	0,053	-0,047
-107,234	800,000	-0,078	-0,193
-106,220	718,980	-0,037	-0,071
-105,205	119,973	-0,028	-0,024
-104,191	145,957	-0,028	0,027
-103,176	-36,572	-0,044	-0,017
-102,162	369,980	-0,051	0,073
-101,147	150,507	-0,018	0,017
-100,132	227,117	-0,097	0,111
-99,118	-200,000	0,015	0,078
-98,103	-200,000	0,017	-0,066
-97,089	-200,000	-0,006	-0,077
-96,074	70,315	0,032	-0,024
-95,059	-200,000	0,000	0,115
-94,045	-96,051	-0,079	0,015
-93,030	-50,920	-0,176	-0,058
-92,016	-200,000	-0,020	-0,133
-91,001	-120,738	-0,114	0,014
-89,986	-72,645	-0,091	-0,024
-88,972	173,879	0,094	0,097
-87,957	-200,000	0,034	0,143
-86,943	-78,530	0,097	-0,023
-85,928	58,988	-0,088	-0,061
-84,913	287,813	-0,066	-0,085
-83,899	11,149	0,070	0,038
-82,884	279,944	-0,057	0,073
-81,870	180,118	0,065	-0,068
-80,855	-135,944	0,056	0,005
-79,840	800,000	-0,021	0,046
-78,826	800,000	-0,029	0,057
-77,811	-105,165	0,035	0,006
-76,797	-122,576	0,103	0,012
-75,782	-112,465	-0,130	0,018
-74,767	-101,539	0,019	-0,003
-73,753	331,175	-0,094	-0,129
-72,738	151,930	-0,130	-0,126
-71,724	-200,000	-0,014	-0,173
-70,709	-200,000	0,007	0,103
-69,694	-174,459	0,082	0,002
-68,680	-100,097	0,096	0,017
-67,665	-70,811	0,011	0,003
-66,651	751,249	0,048	0,092
-65,636	139,960	0,127	0,119
-64,622	800,000	0,014	-0,033
-63,607	-200,000	0,007	-0,059
-62,592	-92,599	-0,056	0,011
-61,578	-200,000	0,002	0,088
-60,563	160,144	0,029	-0,029
-59,549	-200,000	-0,015	0,148
-58,534	-92,334	-1,396	-0,276
-57,519	422,252	-1,430	-2,181
-56,505	-200,000	-0,464	-4,509
-55,490	229,258	1,038	1,202
-54,476	800,000	4,678	11,106
-53,461	-200,000	18,041	284,575
-52,446	800,000	724,616	2224,320
-51,432	558,464	1639,696	2812,797
-50,417	79,886	1662,771	1264,134
-49,403	23,175	1536,382	891,083
-48,388	17,133	1459,875	817,499
-47,373	17,916	1449,828	815,606
-46,359	17,422	1440,289	807,851
-45,344	15,345	1435,607	795,295
-44,330	15,296	1433,710	793,976
-43,315	15,265	1432,015	792,861
-42,300	15,311	1430,231	792,058
-41,286	15,369	1428,969	791,605
-40,271	15,346	1427,707	790,763
-39,257	15,291	1426,736	789,935
-38,242	15,378	1425,295	789,516
-37,227	15,409	1423,988	788,910
-36,213	15,391	1422,734	788,099
-35,198	15,332	1421,488	787,100
-34,184	15,338	1420,876	786,758
-33,169	15,353	1419,344	785,947
-32,154	15,367	1418,321	785,414
-31,140	15,412	1416,871	784,795
-30,125	15,410	1415,897	784,212
-29,111	15,407	1414,817	783,571
-28,096	15,357	1413,750	782,715
-27,082	15,305	1412,659	781,832
-26,067	15,322	1411,440	781,207
-25,052	15,309	1410,310	780,490
-24,038	15,254	1409,512	779,761
-23,023	15,216	1408,504	778,993
-22,009	15,259	1407,496	778,605
-20,994	15,247	1406,442	777,936
-19,979	15,232	1405,561	777,349
-18,965	15,198	1404,835	776,760
-17,950	15,182	1403,859	776,114
-16,936	15,264	1402,726	775,839
-15,921	15,233	1401,399	774,929
-14,906	15,229	1400,441	774,349
-13,892	15,230	1399,662	773,892
-12,877	15,202	1398,869	773,295
-11,863	15,185	1397,913	772,654
-10,848	15,227	1396,962	772,296
-9,833	15,147	1396,128	771,430
-8,819	15,148	1395,179	770,883
-7,804	15,039	1394,264	769,840
-6,790	15,136	1393,342	769,752
-5,775	15,066	1392,197	768,762
-4,760	15,105	1391,419	768,485
-3,746	15,099	1390,605	767,977
-2,731	15,117	1389,614	767,481
-1,717	15,072	1388,798	766,793
-0,702	15,070	1387,118	765,823
0,313	19,029	1307,314	740,022
1,327	35,574	707,344	438,754
2,342	54,728	125,046	85,240
3,356	4,920	16,599	8,613
4,371	5,286	3,058	1,591
5,386	45,014	0,442	0,287
6,400	-200,000	0,019	0,323
7,415	-79,834	-0,228	-0,054
8,429	7,999	-0,303	-0,160
9,444	-39,226	-0,308	-0,114
10,459	14,664	-0,311	-0,171
11,473	-49,151	-0,420	-0,141
12,488	-3,295	-0,266	-0,131
13,502	27,675	-0,334	-0,198
14,517	198,612	-0,337	-0,366
15,531	208,224	-0,249	-0,275
16,546	99,853	-0,348	-0,285
17,561	30,488	-0,501	-0,302
18,575	-45,659	-0,182	-0,063
19,590	101,307	-0,234	-0,193
20,604	1,122	-0,248	-0,125
21,619	-0,334	-0,390	-0,195
22,634	122,054	-0,331	-0,292
23,648	13,928	-0,379	-0,208
24,663	110,222	-0,462	-0,392
25,677	77,803	-0,330	-0,248
26,692	50,875	-0,389	-0,260
27,707	51,232	-0,252	-0,168
28,721	103,655	-0,331	-0,274
29,736	-13,341	-0,380	-0,173
30,750	50,608	-0,410	-0,273
31,765	70,167	-0,317	-0,231
32,780	16,981	-0,510	-0,284
33,794	102,374	-0,390	-0,321
34,809	177,914	-0,285	-0,294
35,823	74,717	-0,370	-0,274
36,838	49,169	-0,344	-0,228
37,853	13,941	-0,400	-0,219
38,867	182,139	-0,351	-0,366
39,882	101,316	-0,231	-0,190
40,896	-55,098	-0,387	-0,122
41,911	-18,848	-0,444	-0,194
42,926	192,651	-0,306	-0,327
43,940	163,164	-0,331	-0,328
44,955	98,887	-0,339	-0,276
45,969	6,872	-0,320	-0,167
46,984	104,859	-0,409	-0,340
47,999	13,947	-0,284	-0,155
49,013	30,503	-0,302	-0,182
50,028	101,006	-0,256	-0,210
51,042	-27,206	-0,282	-0,115
52,057	-19,024	-0,413	-0,180
53,071	289,850	-0,308	-0,395
54,086	46,077	-0,365	-0,238
55,101	120,216	-0,316	-0,277
56,115	86,863	-0,419	-0,326
57,130	49,178	-0,385	-0,254
58,144	-24,436	-0,412	-0,172
59,159	46,648	-0,431	-0,282
60,174	-11,877	-0,320	-0,147
61,188	108,485	-0,394	-0,331
62,203	198,260	-0,340	-0,367
63,217	28,355	-0,378	-0,224
64,232	55,684	-0,428	-0,291
65,247	107,310	-0,265	-0,221
66,261	17,951	-0,310	-0,174
67,276	100,320	-0,275	-0,224
68,290	112,385	-0,383	-0,326
69,305	106,688	-0,342	-0,286
70,320	19,045	-0,317	-0,178
71,334	-25,811	-0,272	-0,112
72,349	-152,726	-0,358	-0,018
73,363	164,457	-0,310	-0,308
74,378	107,929	-0,308	-0,258
75,393	52,571	-0,377	-0,253
76,407	-5,407	-0,365	-0,176
77,422	29,135	-0,250	-0,149
78,436	-19,162	-0,315	-0,137
79,451	143,612	-0,265	-0,249
80,466	117,046	-0,268	-0,231
81,480	12,250	-0,390	-0,210
82,495	-21,781	-0,293	-0,125
83,509	44,836	-0,299	-0,193
84,524	-116,219	-0,233	-0,030
85,539	-31,055	-0,300	-0,119
86,553	6,803	-0,200	-0,104
87,568	176,253	-0,259	-0,265
88,582	158,268	-0,346	-0,337
89,597	32,750	-0,338	-0,205
90,611	85,611	-0,336	-0,259
91,626	219,855	-0,197	-0,222
92,641	65,688	-0,238	-0,169
93,655	27,257	-0,298	-0,175
94,670	-80,944	-0,364	-0,084
95,684	14,171	-0,386	-0,210
96,699	81,764	-0,298	-0,226
97,714	111,039	-0,198	-0,168
98,728	-36,806	-0,285	-0,107
99,743	33,938	-0,225	-0,137
100,757	27,909	-0,251	-0,148
101,772	50,431	-0,402	-0,266
102,787	18,871	-0,260	-0,146
103,801	-57,288	-0,425	-0,130
104,816	47,984	-0,247	-0,162
105,830	247,632	-0,157	-0,186
106,845	18,501	-0,356	-0,199
107,860	10,014	-0,332	-0,176
108,874	148,207	-0,232	-0,220
109,889	5,045	-0,430	-0,221
110,903	29,361	-0,269	-0,160
111,918	15,295	-0,287	-0,157
112,933	800,000	-0,117	-0,248
113,947	107,283	-0,250	-0,208
114,962	-5,158	-0,276	-0,133
115,976	543,686	-0,238	-0,400
116,991	5,762	-0,331	-0,171
118,006	147,775	-0,258	-0,244
119,020	-97,522	-0,201	-0,036
120,035	241,805	-0,252	-0,295
121,049	167,170	-0,196	-0,196
122,064	149,526	-0,174	-0,165
123,079	198,261	-0,166	-0,178
124,093	-123,010	-0,328	-0,036
125,108	800,000	-0,101	-0,270
126,122	81,561	-0,267	-0,202
127,137	79,408	-0,122	-0,092
128,151	-80,760	-0,249	-0,057
129,166	-6,072	-0,196	-0,094
130,181	21,643	-0,333	-0,189
131,195	398,611	-0,176	-0,259
132,210	-19,220	-0,235	-0,102
133,224	94,163	-0,269	-0,214
134,239	-9,785	-0,212	-0,098
135,254	74,022	-0,197	-0,145
136,268	69,701	-0,189	-0,136
137,283	-139,128	-0,323	-0,024
138,297	70,313	-0,264	-0,190
139,312	211,160	-0,185	-0,204
140,327	122,087	-0,258	-0,226
141,341	-38,235	-0,255	-0,094
142,356	154,446	-0,288	-0,277
143,370	10,583	-0,292	-0,155
144,385	107,796	-0,254	-0,211
145,400	249,661	-0,249	-0,296
146,414	129,160	-0,460	-0,410
147,429	100,077	-0,310	-0,251
148,443	100,112	-0,235	-0,190
149,458	347,612	-0,181	-0,250
150,473	685,899	-0,167	-0,307
151,487	41,217	-0,301	-0,190
152,502	154,949	-0,159	-0,153
153,516	348,905	-0,264	-0,365
154,531	-19,929	-0,369	-0,158
155,546	117,255	-0,159	-0,136
156,560	442,688	-0,185	-0,284
157,575	6,614	-0,209	-0,108
158,589	29,278	-0,176	-0,104
159,604	171,527	-0,244	-0,245
160,619	-64,136	-0,260	-0,073
161,633	61,841	-0,313	-0,217
162,648	34,509	-0,191	-0,116
163,662	104,849	-0,219	-0,180
164,677	-10,584	-0,265	-0,122
165,692	160,963	-0,217	-0,212
166,706	259,195	-0,230	-0,277
167,721	-90,029	-0,191	-0,039
168,735	-1,451	-0,129	-0,063
169,750	126,777	-0,315	-0,278
170,764	-1,956	-0,254	-0,124
171,779	184,805	-0,189	-0,195
172,794	-32,784	-0,394	-0,152
173,808	-98,064	-0,266	0,047
174,823	-13,964	-0,302	-0,135
175,837	292,448	-0,214	-0,273
176,852	24,615	-0,244	-0,140
177,867	169,000	-0,148	-0,148
178,881	76,481	-0,263	-0,194
179,896	137,057	-0,223	-0,203
180,910	-147,354	-0,094	0,005
181,925	271,023	-0,117	-0,144
182,940	280,773	-0,196	-0,245
183,954	123,357	-0,114	-0,100
184,969	275,104	-0,198	-0,245
185,983	-169,803	-0,215	-0,005
186,998	17,425	-0,183	-0,101
188,013	498,031	-0,173	-0,279
189,027	-13,882	-0,338	-0,151
190,042	-6,664	-0,296	-0,140
191,056	141,411	-0,141	-0,130
192,071	800,000	-0,073	-0,199
193,086	37,993	-0,265	-0,164
194,100	351,528	-0,116	-0,160
195,115	345,215	-0,154	-0,211
196,129	439,666	-0,145	-0,221
197,144	662,275	-0,116	-0,209
198,159	49,776	-0,270	-0,177
199,173	320,028	-0,236	-0,313
200,188	-69,560	-0,226	-0,060
201,202	44,030	-0,220	-0,140
202,217	686,489	-0,145	-0,265
203,232	164,945	-0,147	-0,144
204,246	267,090	-0,272	-0,331
205,261	-29,738	-0,229	-0,091
206,275	112,176	-0,076	-0,063
207,290	154,400	-0,217	-0,207
208,304	-82,410	-0,268	-0,060
209,319	250,003	-0,155	-0,183
210,334	-200,000	-0,070	-0,221
211,348	800,000	-0,163	-0,361
212,363	67,264	-0,224	-0,159
213,377	537,432	-0,144	-0,238
214,392	6,020	-0,235	-0,121
215,407	800,000	-0,105	-0,223
216,421	-174,876	-0,329	0,006
217,436	249,273	-0,140	-0,165
218,450	-55,946	-0,216	-0,067
219,465	-82,757	-0,272	-0,061
220,480	516,578	-0,108	-0,175
221,494	-34,000	-0,157	-0,060
222,509	219,824	-0,170	-0,189
223,523	137,338	-0,177	-0,161
224,538	48,555	-0,280	-0,182
225,553	26,563	-0,226	-0,131
226,567	300,568	-0,153	-0,196
227,582	163,223	-0,149	-0,146
228,596	-200,000	-0,071	-0,221
229,611	-200,000	-0,049	-0,222
230,626	800,000	-0,097	-0,217
231,640	86,629	-0,325	-0,249
232,655	163,998	-0,175	-0,171
233,669	359,570	-0,149	-0,208
234,684	-200,000	0,029	-0,128
235,699	407,301	-0,198	-0,291
236,713	-44,158	-0,237	-0,082
237,728	58,190	-0,183	-0,124
238,742	65,825	-0,104	-0,073
239,757	-119,897	-0,162	0,019
240,772	43,165	-0,230	-0,145
241,786	-200,000	-0,006	-0,168
242,801	114,914	-0,138	-0,117
243,815	800,000	-0,107	-0,249
244,830	45,294	-0,162	-0,104
245,844	9,440	-0,149	-0,078
246,859	388,906	-0,129	-0,186
247,874	-20,099	-0,150	-0,064
248,888	-200,000	0,003	-0,223
249,903	-29,412	-0,144	-0,057
250,917	101,748	-0,168	-0,136
251,932	-88,028	-0,235	-0,048
252,947	-9,050	-0,095	0,044
253,961	147,402	-0,224	-0,208
254,976	-24,358	-0,167	-0,069
255,990	-115,567	-0,214	-0,027
257,005	-200,000	-0,029	-0,163
258,020	438,239	-0,151	-0,229
259,034	600,179	-0,078	-0,134
260,049	357,890	-0,140	-0,193
261,063	499,277	-0,156	-0,250
262,078	41,789	-0,248	-0,155
263,093	-185,077	-0,244	-0,003
264,107	292,899	-0,099	-0,125
265,122	39,343	-0,099	-0,061
266,136	74,474	-0,222	-0,161
267,151	800,000	-0,045	-0,115
268,166	-129,749	-0,239	0,022
269,180	106,040	-0,201	-0,165
270,195	-2,493	-0,080	-0,039
271,209	800,000	-0,080	-0,180
272,224	122,462	-0,190	-0,164
273,239	-6,152	-0,217	-0,102
274,253	119,126	-0,164	-0,140
275,268	-137,127	-0,178	-0,014
276,282	593,901	-0,124	-0,213
277,297	513,818	-0,147	-0,237
278,312	491,229	-0,116	-0,184
279,326	800,000	-0,036	-0,083
280,341	-40,707	-0,127	-0,045
281,355	-48,378	-0,111	0,037
282,370	253,918	-0,160	-0,189
283,384	-200,000	-0,005	-0,194
284,399	92,925	-0,192	-0,150
285,414	-200,000	-0,027	-0,121
286,428	316,101	-0,104	-0,136
287,443	47,601	-0,089	-0,057
288,457	121,938	-0,226	-0,195
289,472	-92,180	-0,092	0,018
290,487	195,719	-0,263	-0,276
291,501	-51,818	-0,169	-0,054
292,516	21,161	-0,125	-0,070
293,530	653,453	-0,123	-0,219
294,545	800,000	-0,080	-0,157
295,560	-131,049	-0,128	-0,012
296,574	-10,949	-0,215	-0,098
297,589	-0,170	-0,254	-0,124
298,603	800,000	-0,112	-0,261
299,618	-78,596	-0,194	0,045
300,633	-0,360	-0,104	-0,051
301,647	38,723	-0,168	-0,103
302,662	134,757	-0,114	-0,102
303,676	102,883	-0,051	-0,041
304,691	-37,170	-0,194	-0,071
305,706	134,900	-0,211	-0,189
306,720	-80,525	-0,153	-0,035
307,735	-159,637	-0,225	0,008
308,749	-24,673	-0,093	-0,038
309,764	-64,240	-0,133	-0,037
310,779	148,239	-0,094	-0,088
311,793	219,040	-0,067	-0,074
312,808	233,463	-0,056	-0,064
313,822	91,567	-0,244	-0,188
314,837	109,217	-0,138	-0,114
315,852	-62,146	-0,077	0,022
316,866	800,000	-0,051	-0,110
317,881	469,589	-0,136	-0,210
318,895	-157,552	-0,092	-0,004
319,910	41,661	-0,238	-0,148
320,925	249,185	-0,099	-0,116
321,939	82,452	-0,060	-0,044
322,954	53,985	-0,106	-0,070
323,968	1,788	-0,076	0,038
324,983	-86,538	-0,019	0,004
325,997	34,696	-0,099	-0,059
327,012	40,494	-0,208	-0,129
328,027	28,133	-0,131	0,076
329,041	-137,192	-0,222	-0,017
330,056	103,085	-0,116	0,093
331,070	-51,083	-0,152	-0,049
332,085	-33,995	-0,045	-0,017
333,100	147,527	-0,134	-0,124
334,114	-7,421	-0,129	-0,060
335,129	-155,659	-0,235	-0,010
336,143	-43,747	-0,175	-0,060
337,158	-79,584	-0,173	-0,040
338,173	344,026	-0,130	-0,176
339,187	6,406	-0,125	-0,063
340,202	-188,202	-0,078	0,001
341,216	444,468	-0,105	-0,159
342,231	156,996	-0,158	-0,151
343,246	48,616	-0,118	-0,076
344,260	-16,127	-0,209	-0,091
345,275	38,392	-0,144	-0,088
346,289	800,000	-0,052	0,113
347,304	-200,000	-0,043	-0,134
348,319	192,843	-0,121	-0,126
349,333	611,867	-0,121	-0,208
350,348	-108,779	-0,154	-0,022
351,362	112,135	-0,160	-0,133
352,377	135,543	-0,113	0,101
353,392	38,933	-0,143	0,088
354,406	-68,055	-0,254	-0,068
355,421	209,652	1315,721	1417,175
356,435	161,359	1476,616	1417,690
