DTS Sentinel unit serial number:	SN410029Multiplexer serial number:	ORYXHardware model number:	OX2-SRSoftware version number:	ORYX F/W v4,00 Oryx Data Collector v3.7.2.0data status	okinstallation	B3 Nyhavnadifferential loss correction	single-endedforward channel	channel 1reverse channel	N/Adate	2023/12/05time	08:22:30forward acquisition time	300,00reverse acquisition time	0,00gamma	499,1914k internal	0,3200k external	0,3200temperature offset calibration	1,0000default loss term (dB/km)	0,3820temperature slope calibration	1,0000multiplexer offset coefficient	1,0000multiplexer slope coefficient	1,0000fibre end	0,00T internal ref (°C)	13,27T ext. ref 1 (°C)	-2,22T ext. ref 2 (°C)	-2,36length (m)	temperature (°C)	Stokes	anti-Stokes-744,400	41,035	-0,308	-0,202
-743,385	-200,000	0,048	0,272
-742,371	-200,000	-0,049	-0,199
-741,356	-200,000	-0,017	0,343
-740,342	113,403	-0,197	-0,174
-739,327	-200,000	0,025	0,163
-738,312	238,744	-0,197	-0,239
-737,298	-200,000	-0,031	0,151
-736,283	405,004	-0,118	-0,182
-735,269	-200,000	0,046	0,377
-734,254	48,781	-0,309	-0,211
-733,239	-36,932	-0,259	0,101
-732,225	259,411	-0,197	-0,248
-731,210	-8,397	0,116	0,057
-730,196	-200,000	-0,052	-0,184
-729,181	22,501	0,125	-0,074
-728,167	800,000	-0,015	-0,045
-727,152	-44,437	0,090	-0,033
-726,137	385,766	-0,062	-0,094
-725,123	-190,397	-0,090	0,001
-724,108	-169,377	0,055	-0,001
-723,094	-99,450	0,109	0,020
-722,079	203,219	-0,089	-0,100
-721,064	-200,000	-0,001	0,056
-720,050	-144,209	-0,178	-0,012
-719,035	-200,000	0,021	-0,136
-718,021	333,095	-0,054	0,076
-717,006	800,000	-0,054	-0,131
-715,991	-35,925	-0,242	-0,095
-714,977	-155,493	-0,048	0,002
-713,962	427,287	0,061	-0,096
-712,948	228,657	-0,039	-0,046
-711,933	236,000	0,060	0,072
-710,918	800,000	0,027	0,058
-709,904	212,575	-0,124	-0,142
-708,889	-56,293	0,144	-0,046
-707,875	32,868	-0,093	0,058
-706,860	-167,629	0,086	-0,002
-705,845	97,462	-0,150	0,125
-704,831	-200,000	-0,012	0,099
-703,816	-44,058	-0,168	-0,061
-702,802	-200,000	-0,011	-0,104
-701,787	800,000	-0,047	-0,139
-700,772	-200,000	0,011	-0,147
-699,758	-193,622	-0,078	-0,000
-698,743	-117,317	0,059	0,008
-697,729	-32,841	0,064	-0,026
-696,714	540,740	0,015	0,026
-695,699	-200,000	-0,067	0,000
-694,685	64,698	0,090	0,066
-693,670	576,260	-0,058	0,103
-692,656	-200,000	-0,017	-0,072
-691,641	102,506	0,033	0,028
-690,627	365,568	-0,069	0,101
-689,612	800,000	0,012	0,028
-688,597	-183,628	-0,182	0,002
-687,583	800,000	0,028	-0,082
-686,568	364,828	0,059	0,087
-685,554	187,105	-0,023	0,025
-684,539	800,000	-0,051	-0,142
-683,524	-132,935	0,084	0,008
-682,510	-46,871	-0,100	0,035
-681,495	800,000	0,068	-0,183
-680,481	800,000	-0,056	0,161
-679,466	-137,453	-0,178	-0,014
-678,451	456,763	0,130	-0,210
-677,437	-28,008	-0,141	0,059
-676,422	-94,370	-0,041	-0,008
-675,408	473,146	0,034	0,055
-674,393	-200,000	-0,007	0,040
-673,378	-94,546	-0,053	0,010
-672,364	-5,899	-0,073	0,036
-671,349	467,374	0,108	-0,177
-670,335	-62,901	-0,233	-0,070
-669,320	-65,831	0,029	0,008
-668,305	203,949	0,059	-0,066
-667,291	703,920	0,029	-0,057
-666,276	623,692	-0,065	0,118
-665,262	-11,571	-0,037	-0,017
-664,247	233,107	0,062	-0,074
-663,232	450,825	-0,029	-0,047
-662,218	463,364	0,143	0,232
-661,203	-200,000	-0,020	0,094
-660,189	-102,366	-0,120	-0,021
-659,174	-200,000	0,010	0,121
-658,159	-155,760	-0,108	0,005
-657,145	254,542	-0,071	-0,088
-656,130	505,163	-0,027	0,045
-655,116	21,132	0,038	0,022
-654,101	-200,000	-0,024	0,110
-653,086	-122,862	-0,103	0,012
-652,072	27,066	-0,135	-0,082
-651,057	354,286	-0,049	-0,071
-650,043	-200,000	-0,011	-0,082
-649,028	352,973	-0,027	-0,039
-648,014	800,000	0,031	-0,087
-646,999	-200,000	0,010	0,109
-645,984	27,642	0,011	0,007
-644,970	-200,000	0,010	-0,059
-643,955	42,623	-0,084	-0,055
-642,941	-200,000	-0,019	-0,077
-641,926	330,428	0,045	-0,063
-640,911	-14,704	-0,135	-0,063
-639,897	-200,000	-0,009	0,095
-638,882	303,803	-0,097	0,131
-637,868	800,000	0,038	-0,077
-636,853	-200,000	0,004	-0,118
-635,838	800,000	-0,032	0,095
-634,824	-80,353	0,060	0,014
-633,809	62,844	-0,090	0,065
-632,795	149,363	-0,087	0,085
-631,780	752,059	0,031	0,061
-630,765	65,924	0,104	0,076
-629,751	-41,472	-0,051	-0,019
-628,736	-200,000	-0,035	-0,112
-627,722	572,058	-0,019	-0,034
-626,707	-200,000	0,016	-0,100
-625,692	800,000	-0,044	-0,092
-624,678	-51,704	0,043	-0,014
-623,663	453,540	-0,065	-0,105
-622,649	359,881	-0,048	-0,069
-621,634	800,000	0,010	-0,028
-620,619	18,552	0,029	0,016
-619,605	113,004	0,028	-0,024
-618,590	122,413	0,089	0,081
-617,576	453,290	0,097	0,156
-616,561	-200,000	-0,004	0,021
-615,546	-42,698	-0,044	0,016
-614,532	73,289	0,038	-0,029
-613,517	56,483	-0,033	-0,023
-612,503	-36,791	0,023	-0,009
-611,488	-196,213	0,080	-0,000
-610,474	130,787	0,103	0,095
-609,459	428,620	0,091	0,143
-608,444	-99,585	-0,051	0,009
-607,430	800,000	-0,022	-0,066
-606,415	478,547	0,029	0,048
-605,401	-25,435	0,049	-0,021
-604,386	-117,501	0,142	-0,018
-603,371	800,000	-0,065	0,144
-602,357	105,680	0,004	0,004
-601,342	9,552	-0,103	-0,056
-600,328	-85,306	-0,098	0,022
-599,313	546,755	0,035	-0,061
-598,298	-200,000	-0,007	0,073
-597,284	92,872	0,047	-0,038
-596,269	-200,000	0,020	0,097
-595,255	-200,000	-0,002	0,065
-594,240	130,128	-0,057	0,053
-593,225	-200,000	0,003	0,034
-592,211	800,000	-0,040	0,112
-591,196	-200,000	-0,019	-0,199
-590,182	108,432	0,122	0,105
-589,167	7,571	0,121	0,065
-588,152	-55,582	-0,043	0,014
-587,138	-74,266	-0,008	0,002
-586,123	-200,000	0,008	-0,045
-585,109	-200,000	-0,019	-0,069
-584,094	603,781	0,039	0,070
-583,079	-200,000	-0,006	0,026
-582,065	-200,000	-0,039	0,161
-581,050	-200,000	-0,016	0,107
-580,036	113,274	-0,047	-0,041
-579,021	699,052	-0,051	-0,096
-578,006	-200,000	-0,010	-0,071
-576,992	-200,000	-0,000	-0,044
-575,977	800,000	0,065	0,156
-574,963	-141,133	-0,070	0,005
-573,948	45,834	0,077	-0,051
-572,934	-200,000	0,001	0,030
-571,919	-35,288	-0,202	-0,079
-570,904	-200,000	-0,013	-0,142
-569,890	-200,000	-0,007	-0,112
-568,875	-19,685	0,105	-0,047
-567,861	800,000	0,067	0,180
-566,846	-200,000	-0,013	0,100
-565,831	-55,723	0,040	0,013
-564,817	-57,500	-0,035	0,011
-563,802	51,315	-0,067	-0,046
-562,788	-96,152	-0,230	-0,044
-561,773	68,532	0,015	-0,011
-560,758	208,955	-0,052	0,059
-559,744	800,000	-0,028	0,060
-558,729	-88,164	-0,174	0,037
-557,715	-200,000	-0,011	-0,201
-556,700	33,618	-0,100	-0,063
-555,685	357,608	-0,051	0,074
-554,671	93,459	0,047	-0,038
-553,656	800,000	-0,021	0,050
-552,642	-200,000	0,006	0,180
-551,627	283,741	-0,149	0,194
-550,612	-103,562	0,032	0,005
-549,598	679,904	-0,062	-0,117
-548,583	-105,132	-0,051	0,008
-547,569	-71,432	-0,107	-0,029
-546,554	-122,478	0,065	0,007
-545,539	-135,025	0,126	-0,011
-544,525	462,942	0,003	-0,005
-543,510	800,000	0,014	-0,032
-542,496	13,124	-0,138	0,077
-541,481	164,220	-0,072	0,073
-540,466	29,345	-0,084	-0,051
-539,452	-200,000	-0,012	0,041
-538,437	-200,000	-0,013	0,050
-537,423	707,746	0,046	0,088
-536,408	-200,000	-0,005	0,107
-535,393	-70,060	-0,145	-0,040
-534,379	-200,000	-0,015	-0,074
-533,364	191,221	0,108	0,117
-532,350	800,000	0,025	0,061
-531,335	-82,391	-0,081	0,019
-530,321	-200,000	-0,028	0,089
-529,306	-200,000	-0,002	-0,019
-528,291	22,949	0,107	0,063
-527,277	800,000	-0,017	-0,040
-526,262	121,588	0,030	-0,027
-525,248	-200,000	-0,023	0,090
-524,233	-200,000	0,001	0,108
-523,218	-7,910	0,038	-0,019
-522,204	177,214	0,091	-0,096
-521,189	336,220	0,028	0,039
-520,175	-6,294	-0,106	-0,052
-519,160	-200,000	0,017	-0,160
-518,145	61,075	-0,115	-0,082
-517,131	-200,000	-0,020	0,091
-516,116	-200,000	0,006	0,069
-515,102	-200,000	0,019	0,088
-514,087	800,000	0,053	-0,133
-513,072	-200,000	-0,003	0,078
-512,058	-200,000	0,011	-0,105
-511,043	13,213	0,148	-0,083
-510,029	-165,807	0,137	-0,004
-509,014	800,000	0,009	0,026
-507,999	800,000	-0,035	0,080
-506,985	137,327	-0,061	0,058
-505,970	154,238	-0,108	-0,107
-504,956	634,620	0,077	0,142
-503,941	-119,533	0,091	-0,011
-502,926	189,859	0,021	-0,023
-501,912	27,890	-0,083	0,050
-500,897	306,885	0,060	-0,081
-499,883	-200,000	0,009	-0,035
-498,868	-200,000	0,010	-0,068
-497,853	307,018	0,038	-0,051
-496,839	-34,225	-0,026	-0,010
-495,824	95,530	-0,095	-0,078
-494,810	-200,000	-0,018	-0,139
-493,795	54,105	0,067	0,046
-492,781	-74,496	0,101	-0,026
-491,766	118,511	-0,021	-0,018
-490,751	-200,000	0,002	-0,113
-489,737	-200,000	0,000	0,009
-488,722	-200,000	-0,023	0,091
-487,708	-35,675	0,073	0,028
-486,693	233,108	0,032	-0,038
-485,678	-200,000	-0,003	0,014
-484,664	-3,864	0,078	-0,039
-483,649	39,108	-0,156	-0,100
-482,635	589,102	0,049	-0,088
-481,620	-200,000	0,013	0,041
-480,605	-200,000	-0,024	-0,083
-479,591	-90,687	0,066	-0,014
-478,576	364,272	-0,031	0,044
-477,562	160,010	0,062	-0,062
-476,547	-131,830	0,004	0,000
-475,532	-200,000	-0,007	-0,072
-474,518	102,136	-0,064	-0,054
-473,503	-63,740	0,159	-0,046
-472,489	-46,813	-0,116	0,040
-471,474	800,000	-0,023	0,051
-470,459	74,014	0,080	0,060
-469,445	-12,183	-0,145	-0,068
-468,430	-200,000	0,014	-0,108
-467,416	-91,970	0,069	-0,014
-466,401	254,238	0,086	-0,106
-465,386	800,000	0,075	0,176
-464,372	800,000	0,038	0,103
-463,357	800,000	-0,008	0,019
-462,343	-43,695	0,052	0,019
-461,328	-5,398	-0,019	-0,009
-460,313	220,519	-0,059	0,068
-459,299	-12,015	-0,005	-0,002
-458,284	-200,000	0,000	0,094
-457,270	-65,318	-0,130	0,038
-456,255	577,315	-0,051	-0,091
-455,241	-171,181	-0,070	0,002
-454,226	733,583	-0,059	0,114
-453,211	-58,131	-0,022	-0,007
-452,197	-200,000	0,032	0,120
-451,182	178,510	0,114	-0,120
-450,168	-200,000	-0,010	0,082
-449,153	-200,000	-0,011	0,114
-448,138	-167,115	0,059	0,002
-447,124	-13,319	-0,083	0,039
-446,109	137,317	0,095	-0,090
-445,095	-172,452	-0,181	0,004
-444,080	800,000	-0,011	0,028
-443,065	186,067	-0,021	-0,023
-442,051	102,817	-0,082	0,069
-441,036	495,509	-0,081	0,134
-440,022	-200,000	0,036	-0,117
-439,007	-44,484	-0,035	0,012
-437,992	87,069	0,065	0,051
-436,978	800,000	0,012	0,027
-435,963	162,645	0,037	0,038
-434,949	160,076	0,136	-0,136
-433,934	72,240	-0,031	0,023
-432,919	800,000	-0,022	-0,055
-431,905	-80,563	-0,083	-0,020
-430,890	614,475	0,055	-0,100
-429,876	151,814	-0,051	-0,050
-428,861	-84,056	0,037	-0,008
-427,846	-122,072	0,072	0,008
-426,832	55,467	0,087	-0,060
-425,817	800,000	-0,060	-0,127
-424,803	-32,872	0,026	0,011
-423,788	331,369	-0,041	0,057
-422,773	-200,000	-0,022	-0,141
-421,759	800,000	-0,037	0,081
-420,744	800,000	-0,020	-0,060
-419,730	-21,407	0,016	-0,007
-418,715	-35,852	-0,116	0,045
-417,701	800,000	-0,027	-0,065
-416,686	-200,000	-0,000	-0,056
-415,671	25,603	0,100	-0,060
-414,657	-123,674	0,005	0,001
-413,642	-55,972	0,126	0,040
-412,628	-35,311	-0,065	-0,025
-411,613	383,732	-0,081	-0,120
-410,598	0,597	-0,047	-0,024
-409,584	-8,617	0,268	0,129
-408,569	800,000	-0,045	0,107
-407,555	507,495	-0,016	-0,028
-406,540	4,003	0,055	-0,029
-405,525	655,432	0,083	-0,154
-404,511	436,945	0,089	-0,140
-403,496	-106,242	-0,043	0,007
-402,482	-153,933	0,084	0,004
-401,467	-200,000	0,004	-0,066
-400,452	-15,624	-0,032	0,015
-399,438	-87,420	0,103	0,022
-398,423	-75,451	-0,069	-0,017
-397,409	800,000	-0,041	-0,106
-396,394	272,886	-0,081	-0,103
-395,379	-63,672	-0,038	0,011
-394,365	518,296	0,041	0,069
-393,350	-200,000	-0,006	-0,089
-392,336	-200,000	-0,024	-0,131
-391,321	0,290	-0,067	-0,034
-390,306	35,073	0,144	0,091
-389,292	-27,900	0,053	-0,022
-388,277	-72,997	0,143	0,037
-387,263	-200,000	-0,030	0,105
-386,248	185,345	-0,013	-0,013
-385,233	-188,617	0,071	0,001
-384,219	800,000	0,055	-0,169
-383,204	311,456	-0,060	-0,081
-382,190	-34,507	0,061	-0,024
-381,175	800,000	-0,044	-0,103
-380,160	188,310	-0,020	-0,022
-379,146	741,497	0,083	0,161
-378,131	273,434	0,063	0,080
-377,117	-117,878	0,062	0,008
-376,102	41,164	-0,143	0,092
-375,088	-47,667	-0,089	0,031
-374,073	-131,732	0,054	0,005
-373,058	100,155	0,090	0,075
-372,044	800,000	0,055	0,124
-371,029	800,000	0,066	0,133
-370,015	-200,000	-0,001	-0,053
-369,000	467,556	0,059	-0,095
-367,985	-52,189	-0,093	-0,031
-366,971	45,308	-0,091	0,060
-365,956	30,633	-0,042	-0,026
-364,942	-200,000	0,007	0,089
-363,927	800,000	0,011	0,026
-362,912	121,345	0,036	0,032
-361,898	120,830	0,077	0,069
-360,883	800,000	-0,027	-0,057
-359,869	583,567	-0,061	0,108
-358,854	-200,000	-0,001	-0,050
-357,839	800,000	0,015	-0,034
-356,825	-154,461	-0,040	-0,002
-355,810	800,000	-0,024	0,062
-354,796	-43,747	0,040	-0,014
-353,781	61,479	-0,069	0,049
-352,766	215,259	-0,122	-0,139
-351,752	579,518	0,040	0,071
-350,737	800,000	0,032	0,078
-349,723	-95,695	-0,059	-0,011
-348,708	111,713	-0,125	0,108
-347,693	-56,007	-0,027	-0,009
-346,679	-200,000	-0,014	-0,195
-345,664	-96,122	-0,153	-0,029
-344,650	155,667	0,040	0,040
-343,635	2,706	0,106	-0,055
-342,620	31,727	0,120	-0,074
-341,606	98,652	0,107	0,088
-340,591	-94,433	-0,040	-0,008
-339,577	-43,466	-0,020	-0,007
-338,562	-200,000	-0,002	-0,057
-337,548	-25,011	-0,127	-0,054
-336,533	-126,874	0,176	-0,018
-335,518	-7,533	0,088	-0,042
-334,504	-135,617	0,030	-0,003
-333,489	-58,331	-0,037	0,011
-332,475	556,768	-0,015	0,026
-331,460	542,363	0,047	-0,081
-330,445	81,665	-0,149	-0,116
-329,431	469,996	0,014	0,023
-328,416	-200,000	-0,020	0,080
-327,402	329,644	-0,044	-0,060
-326,387	-200,000	-0,005	0,017
-325,372	-120,008	-0,032	0,004
-324,358	204,783	-0,021	-0,023
-323,343	-200,000	0,011	-0,056
-322,329	310,799	0,042	0,057
-321,314	-200,000	0,009	0,084
-320,299	-20,021	0,052	-0,023
-319,285	800,000	-0,049	0,106
-318,270	-146,096	-0,057	0,004
-317,256	388,552	0,079	0,117
-316,241	-200,000	-0,022	-0,123
-315,226	-0,090	0,126	-0,064
-314,212	37,463	-0,087	0,055
-313,197	-20,318	0,139	0,061
-312,183	-37,611	-0,087	0,033
-311,168	-4,442	-0,058	-0,028
-310,153	-167,845	0,080	-0,002
-309,139	-66,307	-0,049	-0,014
-308,124	351,633	0,052	-0,074
-307,110	95,600	0,074	0,060
-306,095	-200,000	-0,004	0,116
-305,080	-200,000	-0,019	0,163
-304,066	61,016	-0,144	-0,102
-303,051	800,000	0,011	0,034
-302,037	23,475	-0,059	-0,035
-301,022	-22,067	0,179	0,077
-300,008	69,054	-0,089	-0,066
-298,993	800,000	0,026	-0,074
-297,978	198,342	-0,121	-0,133
-296,964	46,452	0,052	-0,034
-295,949	-62,248	-0,107	-0,032
-294,935	-200,000	0,011	-0,061
-293,920	-104,590	-0,122	0,020
-292,905	-31,794	0,132	0,053
-291,891	-72,929	-0,184	-0,048
-290,876	207,943	0,020	0,023
-289,862	184,152	-0,151	0,160
-288,847	246,705	-0,029	-0,036
-287,832	-106,559	-0,157	-0,025
-286,818	131,869	0,064	-0,059
-285,803	-125,680	0,069	-0,007
-284,789	309,010	0,038	0,051
-283,774	577,950	-0,021	0,038
-282,759	105,936	-0,148	-0,125
-281,745	-200,000	-0,009	-0,050
-280,730	-1,944	-0,100	-0,050
-279,716	224,957	0,036	0,042
-278,701	-106,877	-0,078	-0,012
-277,686	-9,233	0,085	0,040
-276,672	-200,000	0,010	0,104
-275,657	-200,000	0,012	0,058
-274,643	297,069	0,035	0,046
-273,628	-176,604	0,026	-0,000
-272,613	172,950	-0,010	-0,010
-271,599	800,000	0,049	0,135
-270,584	333,939	-0,025	0,035
-269,570	-151,884	0,088	0,004
-268,555	-200,000	0,010	0,062
-267,540	-169,043	0,065	0,002
-266,526	-200,000	-0,014	-0,081
-265,511	165,206	-0,086	-0,087
-264,497	755,143	0,041	0,080
-263,482	-27,706	0,182	-0,075
-262,467	800,000	0,034	0,084
-261,453	439,731	0,013	0,020
-260,438	121,923	0,050	-0,045
-259,424	-200,000	-0,013	-0,056
-258,409	17,001	0,093	0,053
-257,395	-144,065	-0,067	0,004
-256,380	-200,000	0,047	0,162
-255,365	21,207	0,166	0,096
-254,351	-154,343	0,134	0,006
-253,336	-200,000	-0,001	0,103
-252,322	-110,958	-0,128	0,019
-251,307	-200,000	0,030	0,117
-250,292	800,000	-0,038	-0,080
-249,278	-200,000	-0,017	-0,243
-248,263	73,166	0,094	0,070
-247,249	-200,000	0,001	0,028
-246,234	410,403	0,081	-0,122
-245,219	435,397	0,080	-0,124
-244,205	-39,139	-0,046	0,017
-243,190	800,000	0,055	0,130
-242,176	-200,000	-0,002	-0,047
-241,161	800,000	-0,029	0,077
-240,146	87,690	-0,039	-0,031
-239,132	-200,000	-0,026	0,088
-238,117	-25,772	-0,080	-0,034
-237,103	148,499	-0,042	0,040
-236,088	59,421	0,079	-0,055
-235,073	-102,407	0,095	0,016
-234,059	-200,000	0,004	-0,036
-233,044	189,765	0,075	0,080
-232,030	800,000	-0,078	-0,218
-231,015	-200,000	0,002	-0,122
-230,000	168,335	-0,063	0,064
-228,986	58,479	-0,029	-0,020
-227,971	800,000	0,058	0,145
-226,957	25,005	-0,087	0,051
-225,942	-52,801	-0,077	-0,025
-224,927	-200,000	-0,003	-0,029
-223,913	-200,000	-0,020	0,066
-222,898	509,854	0,048	0,080
-221,884	16,807	0,095	0,054
-220,869	-46,355	0,035	-0,012
-219,855	-70,810	0,034	0,009
-218,840	-61,183	-0,074	0,022
-217,825	-200,000	-0,001	0,061
-216,811	-110,422	-0,090	0,013
-215,796	80,928	0,074	0,057
-214,782	162,031	-0,046	-0,045
-213,767	271,899	0,051	-0,065
-212,752	169,088	0,081	0,083
-211,738	-200,000	-0,003	0,140
-210,723	358,397	0,049	-0,069
-209,709	587,135	-0,112	-0,197
-208,694	800,000	0,025	0,068
-207,679	732,527	-0,037	-0,071
-206,665	-200,000	0,030	0,139
-205,650	611,286	-0,009	-0,016
-204,636	800,000	0,024	-0,063
-203,621	421,344	-0,078	-0,120
-202,606	-200,000	-0,020	-0,135
-201,592	92,715	0,073	0,059
-200,577	-200,000	-0,024	-0,136
-199,563	22,332	0,157	-0,091
-198,548	344,803	-0,062	0,086
-197,533	800,000	0,058	0,138
-196,519	404,426	-0,025	0,037
-195,504	64,413	-0,018	0,013
-194,490	340,278	-0,059	-0,082
-193,475	-200,000	-0,029	-0,126
-192,460	303,658	-0,155	-0,205
-191,446	-200,000	0,025	-0,083
-190,431	422,900	-0,031	-0,047
-189,417	163,010	0,031	0,031
-188,402	-5,895	-0,098	0,048
-187,387	368,152	-0,059	0,085
-186,373	647,627	-0,065	-0,119
-185,358	451,708	0,037	0,058
-184,344	100,096	0,073	-0,061
-183,329	-200,000	0,001	-0,031
-182,315	-200,000	-0,013	0,183
-181,300	-200,000	0,017	-0,169
-180,285	-106,187	-0,020	-0,003
-179,271	206,266	-0,059	-0,065
-178,256	-200,000	0,007	-0,154
-177,242	800,000	-0,022	0,044
-176,227	366,079	0,053	-0,077
-175,212	-200,000	0,052	0,197
-174,198	-200,000	0,000	-0,035
-173,183	134,989	-0,073	-0,068
-172,169	-200,000	0,006	0,042
-171,154	-200,000	-0,033	0,119
-170,139	-200,000	0,029	0,119
-169,125	548,603	0,081	0,139
-168,110	-84,119	0,147	-0,033
-167,096	47,081	-0,085	-0,056
-166,081	-46,352	0,067	0,023
-165,066	-163,924	0,052	-0,002
-164,052	446,654	0,038	-0,060
-163,037	483,005	-0,037	-0,060
-162,023	-144,971	0,077	0,005
-161,008	252,247	0,033	0,041
-159,993	-200,000	0,009	-0,051
-158,979	-14,753	-0,071	0,032
-157,964	-200,000	-0,012	-0,135
-156,950	800,000	-0,014	-0,033
-155,935	-200,000	0,012	0,082
-154,920	277,687	0,127	0,161
-153,906	-155,878	0,049	-0,002
-152,891	-104,714	0,050	0,008
-151,877	800,000	0,016	-0,045
-150,862	76,411	0,143	-0,107
-149,847	800,000	-0,068	-0,141
-148,833	221,734	-0,004	-0,005
-147,818	-126,151	0,073	-0,008
-146,804	-200,000	0,016	-0,077
-145,789	-103,109	0,103	-0,017
-144,775	-200,000	-0,038	-0,151
-143,760	326,776	-0,076	-0,103
-142,745	-114,524	-0,094	-0,013
-141,731	-120,797	0,149	0,018
-140,716	-115,871	-0,112	-0,015
-139,702	-200,000	-0,022	0,090
-138,687	-120,996	0,118	0,014
-137,672	104,452	0,096	-0,081
-136,658	-200,000	-0,004	-0,105
-135,643	-84,740	-0,105	-0,023
-134,629	-73,352	-0,051	0,013
-133,614	800,000	-0,032	0,100
-132,599	-200,000	0,014	0,105
-131,585	-200,000	-0,104	0,000
-130,570	-94,182	-0,071	-0,014
-129,556	6,156	0,086	0,045
-128,541	62,023	-0,145	-0,102
-127,526	189,051	-0,026	-0,028
-126,512	-99,507	0,072	-0,013
-125,497	2,486	0,113	-0,058
-124,483	-136,789	-0,069	-0,006
-123,468	461,712	-0,073	0,115
-122,453	-141,627	-0,143	0,010
-121,439	-19,900	-0,097	-0,042
-120,424	-200,000	0,010	-0,150
-119,410	228,516	0,144	-0,167
-118,395	639,403	0,068	0,124
-117,380	800,000	0,010	-0,025
-116,366	-98,784	-0,105	0,019
-115,351	-200,000	-0,027	-0,125
-114,337	276,770	-0,082	-0,104
-113,322	421,459	0,015	-0,023
-112,307	-200,000	0,021	-0,134
-111,293	141,845	-0,061	-0,058
-110,278	416,834	-0,044	0,067
-109,264	60,754	-0,103	-0,072
-108,249	55,865	0,016	-0,011
-107,234	-200,000	0,001	-0,093
-106,220	-61,318	0,016	-0,005
-105,205	105,468	0,055	0,046
-104,191	327,554	0,065	-0,089
-103,176	315,963	0,095	-0,128
-102,162	-121,801	0,042	-0,005
-101,147	40,782	0,032	0,020
-100,132	-200,000	0,014	-0,061
-99,118	-23,387	-0,032	0,013
-98,103	-200,000	0,026	-0,101
-97,089	-200,000	-0,044	-0,185
-96,074	448,953	0,011	-0,018
-95,059	124,354	0,053	-0,047
-94,045	224,468	0,103	-0,118
-93,030	19,113	-0,052	0,029
-92,016	-200,000	-0,006	-0,040
-91,001	-69,873	0,148	0,040
-89,986	10,648	-0,056	0,030
-88,972	68,994	0,069	0,050
-87,957	-200,000	0,009	-0,049
-86,943	-200,000	0,002	-0,089
-85,928	26,670	0,075	0,044
-84,913	-200,000	-0,014	0,080
-83,899	-200,000	0,027	-0,140
-82,884	-118,955	-0,132	0,016
-81,870	-200,000	-0,032	0,134
-80,855	-123,604	-0,094	0,010
-79,840	322,856	-0,038	-0,051
-78,826	-145,282	0,146	-0,009
-77,811	-96,663	-0,145	-0,027
-76,797	599,817	0,074	-0,131
-75,782	148,404	0,047	-0,045
-74,767	-83,026	-0,074	-0,017
-73,753	58,120	0,101	-0,070
-72,738	-52,087	-0,056	0,018
-71,724	354,094	-0,079	-0,111
-70,709	401,716	-0,078	0,117
-69,694	172,166	-0,113	-0,115
-68,680	246,043	0,022	0,026
-67,665	-9,781	0,082	0,038
-66,651	729,384	0,073	0,140
-65,636	-110,765	0,094	0,014
-64,622	199,802	-0,103	-0,112
-63,607	-63,877	-0,113	-0,032
-62,592	-2,697	-0,035	-0,017
-61,578	-200,000	-0,023	0,093
-60,563	-200,000	-0,014	-0,068
-59,549	-107,981	-0,118	0,018
-58,534	-14,730	-1,650	-0,748
-57,519	444,533	-1,257	-1,960
-56,505	-200,000	-0,644	-4,594
-55,490	165,861	1,038	1,042
-54,476	800,000	4,942	11,630
-53,461	-200,000	19,358	321,647
-52,446	-200,000	742,088	2335,127
-51,432	571,959	1657,147	2870,180
-50,417	78,152	1672,347	1262,597
-49,403	21,243	1545,648	886,618
-48,388	15,141	1468,069	812,400
-47,373	17,946	1458,445	820,620
-46,359	16,670	1448,244	808,715
-45,344	13,408	1443,677	790,485
-44,330	13,271	1441,683	788,702
-43,315	13,338	1439,870	788,000
-42,300	13,330	1438,234	787,035
-41,286	13,365	1437,016	786,505
-40,271	13,301	1435,554	785,369
-39,257	13,277	1434,336	784,556
-38,242	13,345	1432,992	784,114
-37,227	13,333	1431,846	783,398
-36,213	13,307	1430,775	782,659
-35,198	13,344	1429,311	782,003
-34,184	13,373	1428,427	781,623
-33,169	13,351	1426,922	780,664
-32,154	13,342	1425,891	780,029
-31,140	13,395	1424,714	779,604
-30,125	13,419	1423,612	779,085
-29,111	13,441	1422,298	778,440
-28,096	13,391	1421,311	777,629
-27,082	13,321	1420,301	776,717
-26,067	13,332	1419,023	776,040
-25,052	13,274	1418,306	775,343
-24,038	13,275	1417,269	774,748
-23,023	13,253	1416,267	774,066
-22,009	13,314	1415,079	773,676
-20,994	13,246	1414,348	772,922
-19,979	13,232	1413,242	772,225
-18,965	13,226	1412,394	771,699
-17,950	13,227	1411,517	771,196
-16,936	13,266	1410,553	770,824
-15,921	13,158	1409,560	769,744
-14,906	13,194	1408,466	769,281
-13,892	13,223	1407,410	768,812
-12,877	13,227	1406,748	768,435
-11,863	13,209	1405,757	767,782
-10,848	13,201	1404,881	767,234
-9,833	13,184	1403,992	766,638
-8,819	13,129	1403,340	765,996
-7,804	13,089	1402,395	765,266
-6,790	13,145	1401,286	764,888
-5,775	13,135	1400,312	764,281
-4,760	13,107	1399,300	763,568
-3,746	13,097	1398,490	763,051
-2,731	13,135	1397,587	762,705
-1,717	13,102	1396,567	761,963
-0,702	13,044	1394,807	760,706
0,313	16,975	1311,015	733,212
1,327	33,290	703,671	431,256
2,342	51,621	123,057	82,673
3,356	1,076	16,704	8,453
4,371	5,445	3,326	1,732
5,386	-2,587	0,678	0,335
6,400	-200,000	-0,020	0,327
7,415	26,959	-0,294	-0,174
8,429	-13,726	-0,221	-0,101
9,444	72,004	-0,266	-0,196
10,459	1,411	-0,355	-0,180
11,473	-14,995	-0,296	-0,133
12,488	130,250	-0,192	-0,174
13,502	66,834	-0,350	-0,251
14,517	104,492	-0,305	-0,254
15,531	116,704	-0,298	-0,259
16,546	318,971	-0,363	-0,488
17,561	97,390	-0,427	-0,347
18,575	41,349	-0,216	-0,137
19,590	60,845	-0,193	-0,135
20,604	160,733	-0,221	-0,218
21,619	48,907	-0,510	-0,338
22,634	157,426	-0,460	-0,450
23,648	193,556	-0,272	-0,292
24,663	89,885	-0,323	-0,255
25,677	50,663	-0,414	-0,277
26,692	176,283	-0,196	-0,202
27,707	35,567	-0,328	-0,203
28,721	102,674	-0,348	-0,288
29,736	95,918	-0,366	-0,295
30,750	260,027	-0,329	-0,402
31,765	167,836	-0,291	-0,292
32,780	340,597	-0,284	-0,393
33,794	80,635	-0,239	-0,182
34,809	94,835	-0,296	-0,237
35,823	-0,084	-0,471	-0,236
36,838	53,352	-0,423	-0,286
37,853	35,985	-0,402	-0,249
38,867	-47,323	-0,362	-0,123
39,882	131,630	-0,333	-0,302
40,896	15,537	-0,373	-0,206
41,911	106,753	-0,276	-0,231
42,926	4,361	-0,366	-0,189
43,940	40,358	-0,361	-0,229
44,955	200,452	-0,335	-0,363
45,969	-16,920	-0,393	-0,175
46,984	53,301	-0,334	-0,225
47,999	-6,908	-0,282	-0,134
49,013	-20,090	-0,374	-0,162
50,028	113,055	-0,268	-0,229
51,042	104,766	-0,326	-0,270
52,057	107,905	-0,369	-0,310
53,071	2,820	-0,406	-0,207
54,086	36,408	-0,298	-0,185
55,101	372,795	-0,146	-0,209
56,115	63,345	-0,423	-0,299
57,130	-36,044	-0,303	-0,115
58,144	19,809	-0,336	-0,190
59,159	148,365	-0,310	-0,295
60,174	18,600	-0,462	-0,260
61,188	25,174	-0,305	-0,178
62,203	98,704	-0,325	-0,264
63,217	-58,431	-0,419	-0,127
64,232	25,282	-0,422	-0,246
65,247	58,064	-0,338	-0,233
66,261	126,348	-0,244	-0,217
67,276	-7,647	-0,379	-0,180
68,290	97,197	-0,376	-0,304
69,305	148,396	-0,282	-0,268
70,320	-72,345	-0,268	-0,069
71,334	80,834	-0,402	-0,305
72,349	-15,381	-0,489	-0,219
73,363	-11,015	-0,401	-0,185
74,378	125,515	-0,317	-0,282
75,393	-11,903	-0,325	-0,149
76,407	-41,493	-0,324	-0,116
77,422	167,392	-0,175	-0,175
78,436	-24,948	-0,380	-0,158
79,451	15,977	-0,297	-0,164
80,466	180,108	-0,273	-0,281
81,480	-100,568	-0,303	-0,052
82,495	51,267	-0,365	-0,243
83,509	12,560	-0,263	-0,142
84,524	232,821	-0,226	-0,262
85,539	135,577	-0,291	-0,266
86,553	8,813	-0,207	-0,109
87,568	5,650	-0,346	-0,179
88,582	81,382	-0,215	-0,163
89,597	17,524	-0,314	-0,175
90,611	77,591	-0,303	-0,226
91,626	-150,727	-0,352	-0,019
92,641	111,665	-0,363	-0,308
93,655	305,484	-0,195	-0,256
94,670	71,588	-0,239	-0,174
95,684	-0,795	-0,393	-0,195
96,699	-13,448	-0,303	-0,138
97,714	-39,943	-0,165	-0,060
98,728	171,589	-0,146	-0,147
99,743	-165,385	-0,359	-0,011
100,757	84,519	-0,289	-0,222
101,772	40,154	-0,278	-0,175
102,787	73,760	-0,276	-0,203
103,801	82,446	-0,269	-0,205
104,816	-33,069	-0,157	-0,061
105,830	182,836	-0,248	-0,257
106,845	-43,417	-0,135	-0,048
107,860	-17,578	-0,304	-0,134
108,874	37,961	-0,314	-0,195
109,889	146,361	-0,274	-0,258
110,903	-5,893	-0,247	-0,118
111,918	56,548	-0,314	-0,214
112,933	220,363	-0,238	-0,268
113,947	13,929	-0,233	-0,127
114,962	130,332	-0,208	-0,187
115,976	-3,342	-0,336	-0,163
116,991	10,234	-0,186	-0,099
118,006	-7,369	-0,279	-0,132
119,020	151,087	-0,335	-0,320
120,035	425,263	-0,082	-0,124
121,049	-52,854	-0,247	-0,079
122,064	-73,465	-0,263	-0,067
123,079	73,970	-0,240	-0,176
124,093	29,034	-0,296	-0,175
125,108	104,889	-0,201	-0,166
126,122	36,813	-0,345	-0,213
127,137	32,452	-0,332	-0,200
128,151	-134,330	-0,119	-0,010
129,166	85,692	-0,235	-0,181
130,181	-6,795	-0,226	-0,107
131,195	194,017	-0,235	-0,249
132,210	70,694	-0,194	-0,140
133,224	9,646	-0,289	-0,153
134,239	-12,556	-0,307	-0,139
135,254	199,039	-0,153	-0,164
136,268	45,011	-0,268	-0,172
137,283	0,631	-0,193	-0,096
138,297	11,739	-0,281	-0,150
139,312	25,018	-0,325	-0,188
140,327	575,331	-0,154	-0,264
141,341	3,771	-0,205	-0,104
142,356	800,000	-0,071	-0,202
143,370	83,983	-0,288	-0,220
144,385	135,377	-0,212	-0,193
145,400	55,895	-0,300	-0,203
146,414	-90,317	-0,362	-0,073
147,429	29,359	-0,284	-0,168
148,443	172,098	-0,135	-0,135
149,458	-23,155	-0,188	-0,079
150,473	-153,529	-0,239	-0,011
151,487	11,807	-0,196	-0,105
152,502	65,339	-0,192	-0,135
153,516	128,665	-0,223	-0,199
154,531	-24,650	-0,389	-0,161
155,546	-200,000	-0,060	-0,307
156,560	45,756	-0,190	-0,122
157,575	167,302	-0,116	-0,116
158,589	79,811	-0,245	-0,184
159,604	138,868	-0,208	-0,190
160,619	29,728	-0,329	-0,195
161,633	111,187	-0,245	-0,206
162,648	23,748	-0,170	-0,097
163,662	410,225	-0,089	-0,132
164,677	73,348	-0,261	-0,190
165,692	800,000	-0,140	-0,300
166,706	-35,163	-0,206	-0,078
167,721	300,062	-0,210	-0,271
168,735	62,534	-0,267	-0,186
169,750	19,906	-0,245	-0,137
170,764	71,603	-0,223	-0,162
171,779	-13,771	-0,258	-0,116
172,794	-56,116	-0,254	-0,078
173,808	-82,604	-0,292	0,065
174,823	298,966	-0,215	-0,277
175,837	341,378	-0,205	-0,280
176,852	-33,766	-0,208	-0,080
177,867	-106,228	-0,227	0,035
178,881	-149,864	-0,154	0,008
179,896	131,256	-0,130	-0,116
180,910	-110,747	-0,294	-0,042
181,925	236,179	-0,195	-0,226
182,940	43,909	-0,243	-0,155
183,954	363,701	-0,070	-0,098
184,969	220,518	-0,181	-0,203
185,983	427,146	-0,185	-0,280
186,998	-6,739	-0,230	-0,109
188,013	230,790	-0,123	-0,141
189,027	-94,911	-0,380	-0,071
190,042	123,520	-0,274	-0,240
191,056	404,704	-0,144	-0,212
192,071	102,315	-0,225	-0,183
193,086	-86,943	-0,191	0,040
194,100	341,194	-0,149	-0,204
195,115	60,881	-0,136	-0,094
196,129	269,757	-0,128	-0,157
197,144	12,545	-0,236	-0,126
198,159	381,744	-0,168	-0,240
199,173	41,750	-0,298	-0,188
200,188	-6,382	-0,229	-0,108
201,202	52,485	-0,225	-0,149
202,217	37,596	-0,193	-0,119
203,232	201,715	-0,121	-0,130
204,246	492,876	-0,116	-0,185
205,261	29,023	-0,304	-0,179
206,275	51,111	-0,218	-0,143
207,290	-11,887	-0,209	-0,095
208,304	-22,822	-0,160	-0,067
209,319	17,426	-0,320	-0,176
210,334	477,926	-0,095	-0,150
211,348	115,069	-0,211	-0,179
212,363	425,483	-0,138	-0,207
213,377	-38,040	-0,213	-0,078
214,392	41,062	-0,226	-0,141
215,407	-168,876	-0,268	-0,007
216,421	-76,908	-0,267	-0,064
217,436	-74,205	-0,305	-0,076
218,450	-67,293	-0,216	-0,059
219,465	25,777	-0,263	-0,152
220,480	125,051	-0,220	-0,193
221,494	-19,847	-0,074	-0,031
222,509	9,858	-0,141	-0,074
223,523	248,299	-0,105	-0,124
224,538	-10,838	-0,189	-0,086
225,553	233,682	-0,216	-0,248
226,567	419,403	-0,170	-0,253
227,582	32,233	-0,203	-0,121
228,596	-9,850	-0,186	-0,086
229,611	-34,933	-0,233	-0,088
230,626	-4,965	-0,218	-0,104
231,640	171,224	-0,146	-0,145
232,655	-200,000	-0,090	-0,278
233,669	-27,468	-0,242	-0,097
234,684	232,894	-0,240	-0,274
235,699	-15,372	-0,302	-0,133
236,713	11,269	-0,224	-0,119
237,728	176,607	-0,150	-0,151
238,742	-6,975	-0,297	-0,139
239,757	107,058	-0,180	-0,148
240,772	-62,831	-0,300	-0,086
241,786	-2,905	-0,291	-0,141
242,801	791,105	-0,086	-0,165
243,815	-187,690	-0,227	0,002
244,830	435,856	-0,122	-0,184
245,844	312,820	-0,136	-0,178
246,859	800,000	-0,092	-0,231
247,874	81,573	-0,239	-0,179
248,888	367,866	-0,091	-0,127
249,903	78,011	-0,222	-0,164
250,917	45,643	-0,134	-0,086
251,932	225,952	-0,169	-0,190
252,947	178,952	-0,186	-0,188
253,961	243,322	-0,162	-0,189
254,976	226,571	-0,177	-0,200
255,990	66,581	-0,269	-0,189
257,005	5,014	-0,243	-0,124
258,020	800,000	-0,043	-0,092
259,034	10,967	-0,081	-0,043
260,049	234,422	-0,185	-0,212
261,063	304,860	-0,174	-0,225
262,078	800,000	-0,088	-0,214
263,093	33,193	-0,189	-0,113
264,107	293,447	-0,156	-0,197
265,122	-37,911	-0,220	0,080
266,136	800,000	-0,046	-0,134
267,151	101,791	-0,125	-0,101
268,166	-49,662	-0,217	-0,071
269,180	136,025	-0,173	-0,156
270,195	-22,316	-0,173	-0,072
271,209	-24,576	-0,150	-0,062
272,224	-200,000	0,009	-0,092
273,239	-104,908	-0,081	0,013
274,253	766,323	-0,065	-0,122
275,268	-200,000	-0,042	-0,213
276,282	48,556	-0,238	-0,154
277,297	-94,088	-0,219	0,041
278,312	177,310	-0,214	-0,215
279,326	158,296	-0,136	-0,131
280,341	14,229	-0,154	-0,083
281,355	18,407	-0,147	-0,081
282,370	138,911	-0,180	-0,163
283,384	73,317	-0,153	-0,110
284,399	383,588	-0,176	-0,250
285,414	5,663	-0,235	-0,120
286,428	-200,000	-0,177	0,000
287,443	193,139	-0,145	-0,152
288,457	56,436	-0,109	-0,073
289,472	-12,559	-0,227	-0,102
290,487	385,358	-0,184	-0,263
291,501	525,754	-0,079	-0,129
292,516	359,761	-0,092	-0,128
293,530	-21,338	-0,144	-0,060
294,545	613,787	-0,113	-0,196
295,560	574,205	-0,081	0,137
296,574	215,481	-0,052	0,057
297,589	71,319	-0,240	-0,171
298,603	16,840	-0,193	-0,105
299,618	-200,000	-0,035	-0,112
300,633	-135,896	-0,123	-0,010
301,647	383,715	-0,091	-0,129
302,662	-200,000	0,000	-0,102
303,676	2,391	-0,107	-0,053
304,691	58,257	-0,187	-0,126
305,706	721,754	0,052	-0,095
306,720	-200,000	-0,042	-0,191
307,735	76,757	-0,157	-0,115
308,749	-26,634	-0,137	0,055
309,764	432,588	-0,190	-0,285
310,779	800,000	-0,050	-0,108
311,793	800,000	-0,100	-0,223
312,808	767,495	-0,093	-0,175
313,822	-12,323	-0,219	-0,098
314,837	30,507	-0,160	-0,094
315,852	137,946	-0,060	-0,054
316,866	-187,951	-0,191	-0,002
317,881	113,266	-0,146	-0,122
318,895	93,099	-0,114	-0,089
319,910	-200,000	-0,246	0,001
320,925	-41,970	-0,208	-0,073
321,939	22,223	-0,192	-0,108
322,954	-60,506	-0,052	-0,015
323,968	9,500	-0,206	-0,107
324,983	16,415	-0,180	-0,098
325,997	146,043	-0,169	-0,156
327,012	208,518	-0,174	-0,187
328,027	-65,826	-0,242	-0,066
329,041	202,962	-0,148	-0,158
330,056	145,550	-0,131	-0,120
331,070	97,340	-0,072	0,057
332,085	414,164	-0,071	-0,104
333,100	714,391	-0,095	-0,173
334,114	-42,074	-0,266	-0,093
335,129	-200,000	-0,225	0,001
336,143	83,122	-0,190	-0,142
337,158	114,782	-0,190	-0,160
338,173	232,893	-0,028	0,032
339,187	488,086	-0,067	-0,106
340,202	-57,090	-0,110	0,033
341,216	196,856	-0,147	-0,154
342,231	453,970	-0,070	-0,107
343,246	770,101	-0,099	-0,187
344,260	-110,281	-0,190	0,027
345,275	-119,949	-0,095	0,011
346,289	800,000	-0,067	-0,181
347,304	289,529	-0,079	-0,098
348,319	800,000	-0,101	-0,193
349,333	64,369	-0,193	-0,133
350,348	-1,278	-0,316	-0,153
351,362	30,291	-0,173	-0,101
352,377	64,755	-0,120	-0,083
353,392	126,030	-0,020	-0,017
354,406	67,951	-0,166	-0,116
355,421	210,565	1314,061	1418,183
356,435	162,101	1474,711	1418,667
