DTS Sentinel unit serial number:	SN410029Multiplexer serial number:	ORYXHardware model number:	OX2-SRSoftware version number:	ORYX F/W v4,00 Oryx Data Collector v3.7.2.0data status	okinstallation	B3 Nyhavnadifferential loss correction	single-endedforward channel	channel 1reverse channel	N/Adate	2023/12/04time	02:12:30forward acquisition time	300,00reverse acquisition time	0,00gamma	499,1914k internal	0,3204k external	0,3204temperature offset calibration	1,0000default loss term (dB/km)	0,3820temperature slope calibration	1,0000multiplexer offset coefficient	1,0000multiplexer slope coefficient	1,0000fibre end	0,00T internal ref (°C)	12,32T ext. ref 1 (°C)	-2,90T ext. ref 2 (°C)	-2,94length (m)	temperature (°C)	Stokes	anti-Stokes-744,400	288,129	-0,175	-0,231
-743,385	800,000	0,108	0,296
-742,371	20,293	-0,242	-0,142
-741,356	-200,000	0,068	0,375
-740,342	-200,000	-0,049	-0,206
-739,327	-200,000	-0,083	0,340
-738,312	744,170	-0,194	-0,380
-737,298	-200,000	-0,021	0,313
-736,283	283,429	-0,157	-0,205
-735,269	800,000	0,094	0,233
-734,254	595,919	-0,158	-0,285
-733,239	-59,802	-0,171	0,053
-732,225	-200,000	-0,046	-0,149
-731,210	-200,000	0,026	0,127
-730,196	705,357	-0,017	-0,032
-729,181	206,817	-0,056	-0,064
-728,167	800,000	0,028	-0,067
-727,152	-200,000	0,017	0,066
-726,137	-112,153	-0,088	-0,013
-725,123	377,055	0,047	0,070
-724,108	-120,486	0,094	0,011
-723,094	800,000	-0,023	-0,055
-722,079	14,404	-0,109	-0,062
-721,064	-33,967	-0,140	-0,056
-720,050	800,000	0,037	-0,112
-719,035	150,053	-0,037	0,036
-718,021	44,481	-0,018	-0,012
-717,006	156,856	-0,040	-0,040
-715,991	44,047	-0,123	-0,082
-714,977	80,185	-0,117	-0,091
-713,962	47,534	-0,087	-0,059
-712,948	-200,000	-0,021	0,100
-711,933	212,823	-0,047	0,054
-710,918	-200,000	0,010	-0,094
-709,904	396,819	-0,107	-0,162
-708,889	64,137	-0,097	-0,071
-707,875	260,836	-0,093	-0,117
-706,860	800,000	0,055	-0,154
-705,845	-99,388	0,052	-0,009
-704,831	-79,893	0,030	0,007
-703,816	31,736	-0,161	-0,100
-702,802	800,000	-0,066	-0,150
-701,787	78,428	-0,032	-0,025
-700,772	429,156	-0,084	-0,132
-699,758	-200,000	-0,006	-0,201
-698,743	-95,771	-0,035	0,007
-697,729	-107,348	0,099	-0,016
-696,714	800,000	-0,083	0,185
-695,699	800,000	-0,041	-0,103
-694,685	-105,988	0,115	0,019
-693,670	326,825	0,067	-0,093
-692,656	800,000	0,014	-0,037
-691,641	17,205	-0,098	-0,056
-690,627	-167,254	0,050	-0,001
-689,612	743,331	-0,020	-0,038
-688,597	54,177	0,104	-0,072
-687,583	68,637	-0,080	0,059
-686,568	-200,000	-0,036	-0,173
-685,554	-168,086	-0,053	0,001
-684,539	-139,252	0,091	0,007
-683,524	-106,474	-0,124	-0,020
-682,510	429,470	-0,014	0,022
-681,495	249,896	-0,036	0,044
-680,481	-58,046	0,022	-0,007
-679,466	800,000	0,082	-0,188
-678,451	800,000	-0,061	-0,131
-677,437	-7,862	-0,039	-0,019
-676,422	-200,000	0,017	0,097
-675,408	800,000	0,027	-0,068
-674,393	800,000	-0,034	-0,075
-673,378	-90,314	-0,100	0,021
-672,364	-200,000	0,010	-0,061
-671,349	362,800	0,036	-0,052
-670,335	439,558	-0,021	-0,033
-669,320	-65,208	0,074	0,022
-668,305	261,044	-0,024	-0,030
-667,291	-200,000	-0,005	-0,020
-666,276	124,559	-0,078	-0,071
-665,262	800,000	0,033	0,068
-664,247	110,818	0,113	-0,098
-663,232	504,529	0,043	0,072
-662,218	800,000	-0,006	0,017
-661,203	-25,515	0,120	0,051
-660,189	387,169	0,045	0,067
-659,174	800,000	0,037	-0,089
-658,159	394,237	-0,041	0,061
-657,145	-200,000	-0,048	-0,203
-656,130	-200,000	-0,003	-0,167
-655,116	800,000	0,014	0,030
-654,101	-148,638	-0,190	-0,011
-653,086	50,636	-0,148	0,101
-652,072	331,992	-0,072	-0,101
-651,057	-64,650	-0,082	0,024
-650,043	-81,444	-0,132	-0,031
-649,028	-200,000	-0,007	0,168
-648,014	21,901	-0,052	-0,031
-646,999	-200,000	0,003	-0,046
-645,984	162,397	0,110	-0,111
-644,970	800,000	0,027	0,074
-643,955	-200,000	-0,007	0,162
-642,941	-22,429	-0,088	-0,038
-641,926	800,000	-0,035	-0,092
-640,911	-136,821	0,027	0,002
-639,897	-200,000	-0,040	0,134
-638,882	738,482	-0,051	-0,100
-637,868	-99,478	-0,043	-0,008
-636,853	39,464	0,034	-0,022
-635,838	474,361	-0,079	-0,130
-634,824	-200,000	-0,047	-0,151
-633,809	-28,782	0,077	0,032
-632,795	133,769	-0,038	-0,036
-631,780	4,248	0,062	0,033
-630,765	-72,365	0,075	-0,020
-629,751	-42,721	-0,105	-0,038
-628,736	-200,000	0,040	-0,191
-627,722	199,405	-0,096	-0,107
-626,707	-200,000	0,001	0,008
-625,692	-200,000	0,005	-0,062
-624,678	-200,000	0,002	-0,076
-623,663	258,942	-0,082	-0,102
-622,649	-25,877	-0,042	0,018
-621,634	-166,867	0,101	-0,003
-620,619	382,280	0,087	0,129
-619,605	229,207	-0,080	-0,094
-618,590	-200,000	-0,011	-0,059
-617,576	-200,000	-0,024	-0,138
-616,561	-200,000	0,041	0,144
-615,546	-140,658	-0,067	0,005
-614,532	-200,000	-0,029	-0,200
-613,517	-35,527	-0,054	-0,021
-612,503	407,945	0,006	0,010
-611,488	-200,000	0,018	-0,076
-610,474	139,144	0,113	0,108
-609,459	-118,019	-0,158	0,020
-608,444	-8,409	-0,106	-0,051
-607,430	362,310	-0,094	-0,137
-606,415	-200,000	0,003	-0,145
-605,401	-200,000	-0,003	-0,057
-604,386	800,000	0,052	0,115
-603,371	-40,560	-0,105	0,039
-602,357	-157,256	-0,009	0,000
-601,342	146,001	-0,036	0,035
-600,328	56,381	0,172	-0,121
-599,313	-113,736	0,089	-0,012
-598,298	349,772	-0,056	0,081
-597,284	115,443	0,098	0,086
-596,269	-144,758	0,075	-0,005
-595,255	-63,746	-0,072	0,021
-594,240	-146,534	0,146	0,009
-593,225	1,989	-0,048	-0,025
-592,211	26,629	-0,052	0,031
-591,196	800,000	0,029	0,085
-590,182	309,235	0,035	-0,047
-589,167	-200,000	-0,002	-0,022
-588,152	638,923	0,123	0,228
-587,138	177,888	-0,078	0,082
-586,123	-1,912	-0,053	0,027
-585,109	544,585	0,064	-0,111
-584,094	430,502	0,039	-0,061
-583,079	-167,109	0,095	-0,003
-582,065	800,000	0,017	-0,054
-581,050	800,000	0,031	0,069
-580,036	-117,490	-0,210	-0,027
-579,021	248,308	-0,070	0,086
-578,006	122,383	-0,015	-0,013
-576,992	800,000	-0,089	0,190
-575,977	689,499	0,052	0,099
-574,963	-126,854	-0,021	0,002
-573,948	259,378	0,045	-0,056
-572,934	193,937	0,061	0,067
-571,919	142,785	0,090	0,086
-570,904	-69,706	-0,186	0,051
-569,890	693,729	-0,094	-0,178
-568,875	779,634	-0,041	-0,082
-567,861	260,003	-0,087	0,108
-566,846	187,877	-0,052	0,056
-565,831	717,971	0,028	0,054
-564,817	-200,000	-0,003	-0,123
-563,802	-3,956	-0,123	-0,061
-562,788	800,000	-0,017	0,048
-561,773	-154,067	0,136	-0,007
-560,758	-59,653	-0,043	-0,013
-559,744	794,878	0,014	0,027
-558,729	-70,907	0,023	0,006
-557,715	-200,000	-0,008	0,033
-556,700	-200,000	0,000	0,111
-555,685	130,308	-0,100	-0,093
-554,671	-200,000	-0,024	0,185
-553,656	-75,916	0,032	0,008
-552,642	-73,669	0,065	-0,017
-551,627	-90,460	0,089	0,019
-550,612	223,186	-0,124	-0,145
-549,598	148,323	-0,106	-0,103
-548,583	-200,000	0,006	-0,045
-547,569	-200,000	0,005	-0,111
-546,554	-22,158	-0,092	0,040
-545,539	64,456	-0,030	0,022
-544,525	134,866	-0,055	0,051
-543,510	141,593	-0,044	0,042
-542,496	-149,631	-0,080	-0,004
-541,481	-200,000	-0,008	0,033
-540,466	-3,008	0,089	0,045
-539,452	283,519	-0,044	-0,058
-538,437	593,516	-0,030	-0,054
-537,423	800,000	-0,012	0,029
-536,408	-200,000	-0,003	-0,014
-535,393	-165,050	-0,229	-0,007
-534,379	-28,307	0,092	-0,038
-533,364	-200,000	-0,009	-0,111
-532,350	-200,000	-0,021	-0,147
-531,335	38,078	-0,071	0,046
-530,321	-52,754	0,165	0,054
-529,306	773,864	-0,066	0,131
-528,291	115,971	0,109	-0,096
-527,277	-76,122	-0,034	0,009
-526,262	60,591	-0,018	-0,013
-525,248	584,358	0,051	-0,090
-524,233	186,621	0,111	-0,119
-523,218	48,019	-0,056	-0,038
-522,204	531,013	0,091	0,156
-521,189	800,000	0,019	0,059
-520,175	-14,428	-0,105	-0,049
-519,160	-200,000	0,000	0,022
-518,145	-27,059	-0,030	-0,013
-517,131	-138,407	0,169	0,013
-516,116	-200,000	0,000	-0,187
-515,102	-93,799	-0,061	-0,012
-514,087	-106,043	0,051	-0,008
-513,072	800,000	-0,015	0,034
-512,058	89,895	-0,066	0,053
-511,043	-150,849	0,138	0,007
-510,029	231,855	0,042	0,049
-509,014	113,816	0,010	0,009
-507,999	-150,480	0,222	0,012
-506,985	-142,444	-0,061	-0,004
-505,970	-60,340	-0,086	0,026
-504,956	-76,650	0,093	-0,023
-503,941	297,412	0,064	-0,085
-502,926	800,000	0,034	0,080
-501,912	15,950	-0,022	0,013
-500,897	440,497	-0,062	-0,099
-499,883	82,042	0,024	0,018
-498,868	57,681	-0,135	0,095
-497,853	-200,000	0,026	-0,101
-496,839	-94,675	0,179	0,035
-495,824	-6,225	0,158	0,078
-494,810	230,759	-0,053	-0,062
-493,795	-69,734	0,073	0,020
-492,781	-127,948	0,111	0,011
-491,766	-200,000	-0,003	-0,084
-490,751	-49,610	-0,073	-0,025
-489,737	171,894	0,050	-0,052
-488,722	800,000	0,005	-0,013
-487,708	135,039	0,128	0,120
-486,693	-200,000	-0,020	0,066
-485,678	-149,092	-0,082	-0,005
-484,664	48,136	0,099	-0,067
-483,649	800,000	-0,014	0,037
-482,635	77,612	-0,100	0,077
-481,620	800,000	-0,048	-0,099
-480,605	140,950	-0,050	0,047
-479,591	800,000	-0,019	0,054
-478,576	-109,209	-0,080	0,012
-477,562	-200,000	0,016	0,084
-476,547	97,041	-0,065	0,053
-475,532	45,945	0,123	-0,082
-474,518	800,000	-0,055	-0,141
-473,503	178,455	0,104	-0,109
-472,489	37,888	-0,051	0,033
-471,474	104,246	0,076	0,065
-470,459	-57,259	-0,101	0,032
-469,445	36,146	0,043	-0,027
-468,430	-120,226	0,023	-0,003
-467,416	-145,444	-0,078	-0,005
-466,401	-85,212	0,184	-0,041
-465,386	-9,116	-0,096	0,046
-464,372	800,000	0,038	-0,078
-463,357	800,000	-0,037	0,099
-462,343	349,716	-0,044	-0,063
-461,328	254,261	-0,084	0,103
-460,313	-124,941	-0,078	-0,008
-459,299	315,469	-0,047	-0,064
-458,284	-200,000	-0,005	-0,055
-457,270	-200,000	-0,003	-0,086
-456,255	-200,000	-0,006	-0,159
-455,241	-200,000	-0,007	-0,033
-454,226	-28,551	-0,047	-0,019
-453,211	-139,210	0,124	0,009
-452,197	-200,000	0,107	0,000
-451,182	14,813	-0,061	0,034
-450,168	224,682	-0,094	0,110
-449,153	751,900	-0,052	0,102
-448,138	193,572	-0,107	0,117
-447,124	-43,596	-0,018	-0,007
-446,109	-200,000	-0,013	-0,054
-445,095	-144,713	-0,092	-0,006
-444,080	-102,997	0,062	-0,010
-443,065	549,742	0,045	-0,078
-442,051	-200,000	0,011	-0,160
-441,036	50,408	-0,055	-0,037
-440,022	-127,285	-0,060	0,006
-439,007	-200,000	-0,001	-0,223
-437,992	-200,000	-0,006	-0,090
-436,978	643,180	-0,066	0,121
-435,963	-82,714	-0,123	-0,028
-434,949	176,797	0,050	-0,053
-433,934	140,254	0,052	-0,050
-432,919	-13,876	-0,090	-0,042
-431,905	-81,055	-0,036	-0,008
-430,890	147,427	-0,098	0,095
-429,876	328,720	0,048	0,066
-428,861	800,000	-0,030	0,073
-427,846	53,224	0,043	-0,029
-426,832	-173,113	0,071	-0,002
-425,817	-200,000	-0,033	-0,243
-424,803	250,099	-0,092	-0,113
-423,788	-200,000	-0,003	0,024
-422,773	2,002	0,088	0,045
-421,759	2,838	-0,054	0,028
-420,744	195,663	0,083	0,090
-419,730	-12,486	-0,029	0,014
-418,715	229,435	0,047	0,055
-417,701	17,533	-0,116	-0,066
-416,686	254,090	0,017	0,021
-415,671	-131,865	-0,075	-0,007
-414,657	282,015	0,075	0,097
-413,642	800,000	0,044	0,133
-412,628	417,415	-0,057	-0,087
-411,613	19,291	-0,089	-0,051
-410,598	425,194	0,049	0,077
-409,584	-200,000	-0,020	-0,166
-408,569	-140,223	0,187	-0,014
-407,555	395,963	-0,039	-0,058
-406,540	642,409	0,010	0,019
-405,525	-130,413	-0,075	0,007
-404,511	800,000	-0,024	0,056
-403,496	-160,023	-0,075	-0,003
-402,482	208,939	0,069	-0,077
-401,467	-81,039	0,115	-0,027
-400,452	-76,501	0,041	0,010
-399,438	-178,191	-0,121	0,002
-398,423	70,990	-0,055	0,041
-397,409	-200,000	0,009	-0,069
-396,394	-110,452	0,144	0,021
-395,379	123,449	0,055	0,049
-394,365	566,236	0,058	0,101
-393,350	237,130	0,103	0,123
-392,336	-14,922	0,095	0,044
-391,321	-200,000	-0,002	-0,046
-390,306	-29,475	-0,097	-0,040
-389,292	97,785	-0,026	-0,021
-388,277	-165,493	-0,068	-0,002
-387,263	-140,037	-0,053	0,004
-386,248	-200,000	-0,010	0,256
-385,233	-200,000	0,006	0,066
-384,219	-200,000	0,008	0,057
-383,204	-80,256	-0,097	-0,023
-382,190	-30,122	-0,072	-0,029
-381,175	366,261	-0,030	0,044
-380,160	8,446	0,073	0,039
-379,146	159,378	0,061	-0,061
-378,131	220,479	0,029	-0,034
-377,117	-151,138	-0,097	0,005
-376,102	284,301	0,049	-0,063
-375,088	800,000	0,018	0,055
-374,073	-140,866	-0,033	-0,002
-373,058	-200,000	-0,026	0,186
-372,044	-200,000	0,023	-0,160
-371,029	800,000	0,022	-0,049
-370,015	-200,000	0,014	0,057
-369,000	26,399	-0,010	0,006
-367,985	102,689	-0,137	-0,115
-366,971	241,854	0,014	0,017
-365,956	-200,000	-0,014	-0,115
-364,942	-200,000	-0,020	0,176
-363,927	-72,740	0,114	0,030
-362,912	-137,612	0,090	0,007
-361,898	800,000	0,024	-0,053
-360,883	-7,903	-0,083	0,040
-359,869	320,700	0,043	-0,059
-358,854	-17,428	-0,105	0,047
-357,839	-83,390	0,028	-0,006
-356,825	-200,000	0,002	0,056
-355,810	-71,426	0,042	0,011
-354,796	170,183	0,068	-0,069
-353,781	800,000	0,035	-0,080
-352,766	-58,657	-0,031	0,009
-351,752	800,000	-0,019	-0,056
-350,737	178,987	-0,006	0,006
-349,723	-200,000	-0,007	-0,076
-348,708	-200,000	-0,007	0,062
-347,693	-68,942	0,090	0,025
-346,679	120,322	-0,152	0,135
-345,664	-200,000	-0,014	0,058
-344,650	-89,672	0,152	0,032
-343,635	-200,000	0,142	0,000
-342,620	800,000	0,070	0,168
-341,606	39,814	-0,010	-0,006
-340,591	741,122	0,055	0,106
-339,577	-55,428	-0,105	-0,034
-338,562	138,528	-0,091	-0,086
-337,548	-200,000	-0,028	0,094
-336,533	-68,085	0,187	0,052
-335,518	-200,000	-0,024	0,153
-334,504	162,516	0,071	0,071
-333,489	6,339	-0,053	0,028
-332,475	161,965	-0,024	-0,024
-331,460	-200,000	-0,013	0,044
-330,445	-134,099	-0,032	0,003
-329,431	-92,033	0,112	0,023
-328,416	-82,154	0,123	-0,028
-327,402	17,888	0,096	-0,054
-326,387	-15,846	-0,089	-0,041
-325,372	88,112	0,033	-0,026
-324,358	-200,000	0,005	0,074
-323,343	-14,140	-0,071	-0,033
-322,329	346,231	0,051	0,072
-321,314	-200,000	0,012	0,048
-320,299	800,000	0,011	0,031
-319,285	800,000	0,048	-0,125
-318,270	407,400	-0,090	-0,136
-317,256	-200,000	0,006	-0,089
-316,241	800,000	0,045	0,095
-315,226	-200,000	0,010	-0,045
-314,212	-200,000	0,026	0,117
-313,197	523,675	0,044	0,074
-312,183	-33,447	-0,132	0,052
-311,168	800,000	-0,065	-0,148
-310,153	132,423	0,079	0,073
-309,139	-73,094	-0,044	0,011
-308,124	622,500	0,036	0,065
-307,110	140,230	-0,075	0,071
-306,095	-8,502	0,092	0,044
-305,080	687,186	0,014	0,027
-304,066	800,000	-0,033	-0,085
-303,051	-200,000	-0,013	0,047
-302,037	11,770	0,067	-0,037
-301,022	-100,857	-0,075	-0,013
-300,008	62,905	0,138	0,098
-298,993	-200,000	0,007	0,038
-297,978	-119,343	0,151	0,019
-296,964	800,000	-0,038	0,107
-295,949	201,575	-0,020	0,022
-294,935	-200,000	0,015	0,052
-293,920	-78,303	-0,103	-0,025
-292,905	-43,755	0,076	-0,027
-291,891	38,452	0,152	0,096
-290,876	-200,000	0,001	0,062
-289,862	-8,162	-0,103	-0,049
-288,847	-43,799	-0,064	-0,023
-287,832	-200,000	0,003	0,033
-286,818	109,355	0,157	-0,134
-285,803	-164,607	0,121	-0,004
-284,789	800,000	0,005	0,010
-283,774	-200,000	0,010	-0,035
-282,759	-92,241	-0,043	0,009
-281,745	147,737	-0,067	0,065
-280,730	800,000	-0,015	-0,035
-279,716	62,640	0,077	0,055
-278,701	800,000	0,042	0,099
-277,686	-22,933	0,152	0,065
-276,672	330,295	-0,047	0,064
-275,657	92,563	-0,052	-0,042
-274,643	96,783	-0,008	0,007
-273,628	64,106	-0,088	-0,063
-272,613	-200,000	-0,007	-0,093
-271,599	94,222	0,080	-0,065
-270,584	-54,819	-0,077	0,025
-269,570	477,687	0,017	-0,027
-268,555	-200,000	-0,012	-0,096
-267,540	312,989	0,030	0,040
-266,526	-200,000	0,007	-0,092
-265,511	-200,000	-0,002	-0,166
-264,497	72,814	0,107	-0,079
-263,482	304,876	0,040	0,053
-262,467	800,000	0,094	0,196
-261,453	-200,000	0,005	0,108
-260,438	-50,056	0,100	0,034
-259,424	800,000	-0,024	0,049
-258,409	166,476	-0,138	-0,140
-257,395	-200,000	-0,017	-0,084
-256,380	-33,048	-0,053	0,021
-255,365	-200,000	-0,037	-0,132
-254,351	23,070	-0,088	-0,052
-253,336	800,000	-0,045	0,115
-252,322	-200,000	-0,039	-0,137
-251,307	-112,842	-0,104	-0,015
-250,292	-180,755	-0,108	-0,002
-249,278	59,119	0,212	0,148
-248,263	800,000	0,032	0,072
-247,249	-200,000	0,000	0,007
-246,234	800,000	-0,005	0,011
-245,219	540,994	0,063	-0,107
-244,205	-200,000	0,014	0,126
-243,190	-49,422	0,052	0,018
-242,176	-87,573	0,088	-0,019
-241,161	-18,347	-0,099	0,044
-240,146	800,000	-0,011	-0,024
-239,132	-150,676	-0,068	-0,004
-238,117	5,978	-0,039	-0,020
-237,103	503,535	-0,049	-0,081
-236,088	-200,000	-0,004	0,062
-235,073	-192,343	0,074	-0,000
-234,059	456,841	0,060	0,096
-233,044	409,891	-0,073	-0,111
-232,030	-68,446	0,108	-0,030
-231,015	248,330	-0,098	0,119
-230,000	-185,665	-0,049	0,001
-228,986	13,515	0,076	0,042
-227,971	122,778	-0,113	0,101
-226,957	186,852	0,029	-0,030
-225,942	1,819	0,039	0,020
-224,927	139,420	0,065	-0,061
-223,913	-45,661	-0,016	0,006
-222,898	461,264	0,056	0,090
-221,884	800,000	0,041	0,126
-220,869	-28,744	0,130	-0,053
-219,855	-200,000	0,011	0,145
-218,840	-200,000	-0,023	0,126
-217,825	-64,917	-0,078	-0,022
-216,811	-200,000	0,026	-0,099
-215,796	-78,875	-0,043	-0,010
-214,782	29,046	-0,053	0,032
-213,767	-40,163	0,146	-0,054
-212,752	392,351	0,044	0,065
-211,738	-79,520	-0,061	-0,015
-210,723	-200,000	0,002	0,048
-209,709	66,046	0,085	0,062
-208,694	25,220	-0,077	0,046
-207,679	-166,159	-0,048	-0,001
-206,665	382,666	0,050	-0,073
-205,650	329,697	-0,005	0,008
-204,636	800,000	0,032	0,076
-203,621	-117,294	-0,134	0,017
-202,606	-84,661	0,091	-0,020
-201,592	-200,000	0,045	-0,172
-200,577	-200,000	0,009	-0,161
-199,563	53,397	0,087	-0,059
-198,548	81,213	-0,050	-0,039
-197,533	-200,000	-0,034	0,173
-196,519	-129,337	-0,122	-0,012
-195,504	-11,434	0,114	-0,053
-194,490	301,127	0,023	-0,030
-193,475	-8,562	0,051	-0,024
-192,460	-42,268	0,029	-0,010
-191,446	462,494	0,030	0,048
-190,431	-67,489	0,109	0,030
-189,417	-155,295	0,077	-0,003
-188,402	458,009	-0,036	-0,057
-187,387	-34,085	0,055	-0,022
-186,373	596,216	0,023	-0,040
-185,358	800,000	0,021	0,050
-184,344	-89,989	0,156	0,032
-183,329	-200,000	-0,004	0,107
-182,315	301,826	-0,041	-0,054
-181,300	-200,000	-0,024	0,084
-180,285	4,385	-0,142	-0,074
-179,271	-200,000	-0,055	-0,206
-178,256	-147,125	0,156	0,009
-177,242	588,927	-0,006	-0,011
-176,227	371,825	0,045	0,065
-175,212	-91,382	-0,020	-0,004
-174,198	66,494	0,093	0,067
-173,183	-71,901	-0,062	-0,016
-172,169	128,918	-0,107	-0,097
-171,154	226,335	-0,040	-0,046
-170,139	-33,605	-0,023	0,009
-169,125	-76,770	-0,067	0,017
-168,110	-200,000	0,006	-0,115
-167,096	-79,934	0,100	0,024
-166,081	582,029	-0,043	-0,076
-165,066	-59,049	-0,122	-0,037
-164,052	800,000	0,024	0,058
-163,037	355,448	-0,108	0,154
-162,023	64,039	0,146	0,104
-161,008	-200,000	0,029	0,092
-159,993	91,444	-0,113	-0,090
-158,979	800,000	-0,066	-0,150
-157,964	212,873	-0,116	-0,130
-156,950	-70,790	0,094	-0,025
-155,935	-200,000	0,008	0,146
-154,920	-200,000	-0,020	0,115
-153,906	-20,993	-0,068	-0,030
-152,891	-108,819	-0,107	-0,016
-151,877	402,729	0,049	-0,073
-150,862	617,238	-0,048	0,085
-149,847	-200,000	0,007	0,042
-148,833	354,520	-0,035	-0,049
-147,818	17,220	-0,066	-0,037
-146,804	409,320	-0,033	-0,049
-145,789	-38,969	0,042	0,016
-144,775	240,821	-0,030	-0,036
-143,760	-120,297	-0,148	-0,018
-142,745	43,619	0,106	0,069
-141,731	800,000	-0,037	-0,087
-140,716	223,806	0,095	-0,109
-139,702	9,647	0,037	-0,020
-138,687	800,000	-0,047	-0,100
-137,672	109,046	0,110	-0,093
-136,658	138,895	0,035	-0,033
-135,643	-98,020	-0,094	-0,017
-134,629	140,365	-0,037	-0,035
-133,614	-169,483	0,210	-0,005
-132,599	-49,953	-0,129	0,043
-131,585	-41,854	0,018	0,007
-130,570	156,464	0,069	-0,068
-129,556	800,000	0,019	0,054
-128,541	669,897	-0,090	-0,166
-127,526	-84,419	-0,067	0,015
-126,512	178,505	-0,099	0,103
-125,497	-39,788	0,105	0,039
-124,483	161,942	0,098	0,097
-123,468	-90,426	-0,156	-0,032
-122,453	318,106	0,037	0,049
-121,439	313,806	0,080	-0,108
-120,424	-82,590	-0,100	0,023
-119,410	308,974	-0,063	0,083
-118,395	224,000	-0,133	-0,152
-117,380	23,487	0,034	0,020
-116,366	-200,000	-0,002	0,068
-115,351	79,007	-0,137	-0,104
-114,337	137,794	-0,021	0,020
-113,322	-110,086	-0,057	0,008
-112,307	800,000	0,020	0,058
-111,293	-200,000	0,002	0,087
-110,278	800,000	0,067	0,157
-109,264	-200,000	0,045	0,170
-108,249	-200,000	-0,021	0,068
-107,234	250,312	-0,119	-0,143
-106,220	373,299	-0,097	-0,141
-105,205	-4,828	-0,131	0,064
-104,191	82,348	-0,042	-0,032
-103,176	-68,590	0,103	0,028
-102,162	-69,715	0,091	-0,024
-101,147	48,154	-0,101	0,067
-100,132	800,000	0,037	-0,088
-99,118	-118,259	0,103	0,013
-98,103	8,472	0,064	-0,034
-97,089	70,477	0,075	-0,055
-96,074	-200,000	0,027	0,131
-95,059	21,283	0,147	-0,085
-94,045	49,690	-0,032	0,021
-93,030	-38,555	-0,053	-0,020
-92,016	-143,809	0,080	0,005
-91,001	277,762	0,079	0,100
-89,986	-174,623	0,155	-0,003
-88,972	49,655	-0,086	-0,057
-87,957	-200,000	-0,012	0,063
-86,943	800,000	-0,012	-0,035
-85,928	800,000	0,022	0,045
-84,913	541,772	0,039	-0,067
-83,899	-200,000	-0,004	0,022
-82,884	137,799	0,040	0,037
-81,870	274,447	0,058	0,073
-80,855	-200,000	-0,003	0,042
-79,840	36,663	-0,107	0,067
-78,826	-51,211	-0,103	0,034
-77,811	108,405	-0,126	-0,107
-76,797	143,421	0,069	-0,065
-75,782	-200,000	0,052	0,167
-74,767	-200,000	-0,007	0,055
-73,753	800,000	-0,026	0,052
-72,738	447,207	0,026	0,040
-71,724	350,971	-0,092	-0,129
-70,709	699,629	-0,090	-0,167
-69,694	-200,000	0,008	0,086
-68,680	-200,000	-0,004	0,027
-67,665	222,171	0,110	-0,126
-66,651	540,160	0,052	0,088
-65,636	-108,845	-0,069	0,010
-64,622	-200,000	0,008	-0,116
-63,607	-177,573	0,078	-0,001
-62,592	-200,000	0,019	-0,086
-61,578	-200,000	0,018	0,066
-60,563	796,416	0,033	-0,064
-59,549	800,000	-0,022	-0,047
-58,534	-7,031	-1,941	-0,929
-57,519	509,576	-1,247	-2,058
-56,505	-200,000	-0,660	-4,507
-55,490	329,423	0,954	1,301
-54,476	800,000	4,904	11,278
-53,461	-200,000	20,026	325,963
-52,446	800,000	751,893	2317,429
-51,432	551,069	1663,535	2834,396
-50,417	75,423	1672,829	1247,218
-49,403	20,168	1545,455	879,763
-48,388	14,200	1467,701	806,455
-47,373	18,473	1457,910	821,695
-46,359	16,505	1447,548	806,388
-45,344	12,424	1443,004	784,273
-44,330	12,356	1441,179	782,920
-43,315	12,404	1439,321	782,113
-42,300	12,399	1437,652	781,150
-41,286	12,388	1436,386	780,379
-40,271	12,355	1435,080	779,481
-39,257	12,334	1433,874	778,695
-38,242	12,373	1432,788	778,259
-37,227	12,419	1431,395	777,692
-36,213	12,390	1430,101	776,820
-35,198	12,398	1429,052	776,254
-34,184	12,444	1428,147	775,951
-33,169	12,414	1426,371	774,814
-32,154	12,436	1425,411	774,367
-31,140	12,440	1424,186	773,690
-30,125	12,447	1423,060	773,079
-29,111	12,401	1422,109	772,313
-28,096	12,418	1420,898	771,705
-27,082	12,406	1419,626	770,927
-26,067	12,356	1418,808	770,219
-25,052	12,408	1417,762	769,863
-24,038	12,361	1416,613	768,990
-23,023	12,310	1415,650	768,195
-22,009	12,325	1414,639	767,686
-20,994	12,293	1413,839	767,071
-19,979	12,305	1412,871	766,575
-18,965	12,221	1412,007	765,678
-17,950	12,288	1410,872	765,349
-16,936	12,269	1410,018	764,766
-15,921	12,282	1409,011	764,251
-14,906	12,231	1408,316	763,603
-13,892	12,292	1407,125	763,210
-12,877	12,245	1406,221	762,472
-11,863	12,266	1405,452	762,124
-10,848	12,282	1404,409	761,602
-9,833	12,226	1403,600	760,872
-8,819	12,115	1403,065	760,032
-7,804	12,136	1402,099	759,579
-6,790	12,168	1400,935	759,065
-5,775	12,166	1399,890	758,460
-4,760	12,170	1398,846	757,883
-3,746	12,155	1397,866	757,255
-2,731	12,178	1397,138	756,935
-1,717	12,110	1396,385	756,181
-0,702	12,122	1394,643	755,264
0,313	16,042	1309,544	727,300
1,327	32,295	700,788	426,611
2,342	50,611	122,180	81,576
3,356	4,015	16,563	8,533
4,371	7,772	3,209	1,693
5,386	15,032	0,710	0,392
6,400	800,000	0,119	0,320
7,415	15,401	-0,083	-0,046
8,429	-39,719	-0,312	-0,115
9,444	46,329	-0,450	-0,294
10,459	117,795	-0,239	-0,208
11,473	-24,003	-0,267	-0,112
12,488	-28,841	-0,264	-0,107
13,502	138,743	-0,230	-0,214
14,517	155,218	-0,346	-0,336
15,531	106,874	-0,333	-0,279
16,546	105,842	-0,256	-0,214
17,561	68,474	-0,413	-0,299
18,575	-118,864	-0,230	-0,028
19,590	46,508	-0,244	-0,160
20,604	-41,034	-0,190	-0,069
21,619	-47,566	-0,627	-0,214
22,634	213,771	-0,353	-0,394
23,648	122,319	-0,348	-0,307
24,663	53,299	-0,397	-0,268
25,677	127,981	-0,293	-0,263
26,692	-18,149	-0,345	-0,152
27,707	63,342	-0,347	-0,245
28,721	166,975	-0,414	-0,415
29,736	-11,514	-0,414	-0,191
30,750	1,217	-0,447	-0,226
31,765	177,104	-0,327	-0,336
32,780	14,087	-0,286	-0,157
33,794	-47,976	-0,383	-0,130
34,809	13,968	-0,455	-0,249
35,823	110,722	-0,386	-0,327
36,838	-17,197	-0,362	-0,160
37,853	212,170	-0,347	-0,386
38,867	130,494	-0,338	-0,305
39,882	20,392	-0,289	-0,164
40,896	389,717	-0,258	-0,378
41,911	265,414	-0,236	-0,291
42,926	26,117	-0,379	-0,222
43,940	11,664	-0,384	-0,207
44,955	281,183	-0,303	-0,383
45,969	205,883	-0,357	-0,391
46,984	19,503	-0,411	-0,232
47,999	-78,083	-0,303	-0,073
49,013	32,948	-0,406	-0,247
50,028	-14,561	-0,303	-0,137
51,042	10,324	-0,350	-0,187
52,057	65,470	-0,368	-0,262
53,071	31,709	-0,383	-0,232
54,086	36,185	-0,281	-0,174
55,101	-5,295	-0,351	-0,169
56,115	54,884	-0,325	-0,220
57,130	113,056	-0,213	-0,181
58,144	23,559	-0,512	-0,296
59,159	127,642	-0,416	-0,372
60,174	370,838	-0,175	-0,251
61,188	99,668	-0,341	-0,278
62,203	56,465	-0,224	-0,153
63,217	82,525	-0,338	-0,258
64,232	-117,319	-0,353	0,044
65,247	110,259	-0,331	-0,279
66,261	479,606	-0,193	-0,308
67,276	-7,995	-0,402	-0,190
68,290	-6,208	-0,295	-0,141
69,305	29,665	-0,349	-0,208
70,320	-86,024	-0,406	-0,088
71,334	163,184	-0,253	-0,250
72,349	-44,569	-0,360	-0,126
73,363	28,445	-0,305	-0,181
74,378	76,089	-0,324	-0,241
75,393	175,209	-0,227	-0,231
76,407	14,690	-0,303	-0,166
77,422	-50,975	-0,213	-0,070
78,436	-43,313	-0,367	-0,130
79,451	-66,515	-0,282	-0,078
80,466	79,514	-0,353	-0,265
81,480	24,765	-0,312	-0,181
82,495	248,975	-0,275	-0,327
83,509	201,384	-0,164	-0,177
84,524	221,051	-0,238	-0,268
85,539	69,627	-0,174	-0,126
86,553	552,147	-0,147	-0,248
87,568	247,515	-0,252	-0,299
88,582	-13,198	-0,361	-0,164
89,597	119,645	-0,299	-0,259
90,611	148,766	-0,261	-0,247
91,626	66,124	-0,340	-0,242
92,641	18,312	-0,324	-0,181
93,655	27,714	-0,172	-0,101
94,670	195,657	-0,242	-0,258
95,684	26,607	-0,346	-0,203
96,699	424,427	-0,200	-0,302
97,714	118,661	-0,308	-0,267
98,728	80,831	-0,309	-0,233
99,743	123,461	-0,176	-0,155
100,757	-6,542	-0,283	-0,135
101,772	55,629	-0,211	-0,143
102,787	118,627	-0,226	-0,196
103,801	185,868	-0,273	-0,285
104,816	49,544	-0,232	-0,152
105,830	53,001	-0,390	-0,261
106,845	-139,084	-0,217	-0,016
107,860	80,477	-0,179	-0,135
108,874	134,197	-0,305	-0,276
109,889	54,731	-0,255	-0,172
110,903	44,565	-0,251	-0,161
111,918	75,184	-0,251	-0,185
112,933	-11,738	-0,234	-0,107
113,947	68,201	-0,338	-0,242
114,962	115,171	-0,315	-0,269
115,976	10,081	-0,224	-0,119
116,991	164,874	-0,173	-0,171
118,006	-1,359	-0,362	-0,178
119,020	36,251	-0,161	-0,099
120,035	-25,499	-0,265	-0,109
121,049	433,554	-0,212	-0,323
122,064	230,710	-0,150	-0,172
123,079	51,761	-0,228	-0,152
124,093	-82,417	-0,380	-0,086
125,108	129,973	-0,196	-0,176
126,122	-73,486	-0,398	-0,101
127,137	192,615	-0,220	-0,233
128,151	-12,948	-0,176	-0,080
129,166	-39,283	-0,225	-0,082
130,181	788,258	-0,107	-0,206
131,195	166,171	-0,262	-0,260
132,210	46,699	-0,386	-0,250
133,224	205,055	-0,189	-0,205
134,239	78,201	-0,158	-0,117
135,254	-164,285	-0,119	0,004
136,268	25,003	-0,269	-0,155
137,283	-102,808	-0,218	-0,036
138,297	-43,717	-0,393	-0,138
139,312	147,862	-0,320	-0,301
140,327	144,967	-0,273	-0,255
141,341	45,373	-0,348	-0,224
142,356	-189,126	-0,287	0,002
143,370	5,462	-0,213	-0,110
144,385	21,649	-0,358	-0,203
145,400	215,475	-0,251	-0,278
146,414	258,852	-0,084	-0,102
147,429	118,535	-0,175	-0,151
148,443	63,309	-0,351	-0,245
149,458	143,695	-0,223	-0,207
150,473	111,135	-0,195	-0,164
151,487	57,835	-0,188	-0,128
152,502	31,478	-0,369	-0,221
153,516	145,639	-0,293	-0,274
154,531	192,998	-0,240	-0,253
155,546	163,608	-0,293	-0,288
156,560	-53,006	-0,325	-0,104
157,575	-91,814	-0,284	-0,056
158,589	-35,717	-0,247	-0,093
159,604	89,135	-0,219	-0,170
160,619	302,215	-0,118	-0,153
161,633	9,400	-0,233	-0,122
162,648	180,737	-0,109	-0,112
163,662	339,039	-0,154	-0,210
164,677	66,142	-0,239	-0,169
165,692	6,030	-0,293	-0,151
166,706	-75,882	-0,275	-0,067
167,721	752,528	-0,128	-0,242
168,735	130,800	-0,258	-0,231
169,750	163,087	-0,250	-0,245
170,764	77,714	-0,296	-0,219
171,779	153,881	-0,134	-0,128
172,794	-46,459	-0,157	-0,054
173,808	-60,108	-0,207	-0,061
174,823	94,905	-0,241	-0,191
175,837	-18,406	-0,266	-0,115
176,852	61,165	-0,305	-0,210
177,867	800,000	-0,058	-0,138
178,881	44,582	-0,205	-0,131
179,896	20,398	-0,225	-0,126
180,910	733,123	-0,146	-0,273
181,925	287,327	-0,192	-0,241
182,940	76,695	-0,178	-0,131
183,954	158,883	-0,264	-0,256
184,969	186,780	-0,169	-0,176
185,983	244,565	-0,104	-0,122
186,998	444,800	-0,138	-0,211
188,013	18,956	-0,213	-0,118
189,027	-26,034	-0,288	-0,117
190,042	69,596	-0,243	-0,174
191,056	-34,818	-0,306	-0,116
192,071	47,267	-0,235	-0,152
193,086	454,612	-0,123	-0,189
194,100	538,648	-0,145	-0,240
195,115	61,450	-0,141	-0,097
196,129	-59,043	-0,287	-0,086
197,144	16,876	-0,207	-0,114
198,159	172,830	-0,224	-0,224
199,173	-49,466	-0,087	-0,029
200,188	-187,991	-0,089	-0,001
201,202	-164,151	-0,156	0,005
202,217	78,154	-0,243	-0,180
203,232	84,263	-0,290	-0,220
204,246	4,086	-0,318	-0,161
205,261	-27,020	-0,248	-0,100
206,275	47,520	-0,246	-0,159
207,290	-200,000	-0,062	-0,248
208,304	223,660	-0,122	-0,137
209,319	333,920	-0,136	-0,183
210,334	23,898	-0,287	-0,164
211,348	55,468	-0,238	-0,159
212,363	583,657	-0,165	-0,283
213,377	-62,848	-0,160	-0,046
214,392	-8,900	-0,244	-0,113
215,407	800,000	-0,051	-0,118
216,421	195,522	-0,127	-0,134
217,436	102,510	-0,200	-0,162
218,450	55,098	-0,206	-0,138
219,465	-16,462	-0,168	-0,073
220,480	-21,918	-0,158	0,067
221,494	-110,390	-0,253	-0,036
222,509	64,746	-0,166	-0,116
223,523	-3,447	-0,140	-0,067
224,538	5,242	-0,140	0,071
225,553	115,654	-0,201	-0,170
226,567	65,699	-0,232	-0,162
227,582	173,192	-0,190	-0,189
228,596	-48,993	-0,257	-0,085
229,611	252,139	-0,153	-0,181
230,626	-200,000	-0,030	-0,114
231,640	-48,054	-0,232	-0,077
232,655	108,596	-0,252	-0,208
233,669	296,992	-0,213	-0,271
234,684	-83,311	-0,259	-0,057
235,699	100,488	-0,156	-0,126
236,713	411,786	-0,174	-0,256
237,728	800,000	-0,066	-0,177
238,742	540,931	-0,147	-0,243
239,757	21,850	-0,131	-0,074
240,772	504,969	-0,167	-0,269
241,786	91,916	-0,163	-0,127
242,801	-104,655	-0,231	-0,037
243,815	39,525	-0,132	-0,082
244,830	258,393	-0,063	-0,076
245,844	-200,000	-0,022	-0,087
246,859	7,529	-0,192	-0,099
247,874	55,398	-0,273	-0,182
248,888	-86,941	-0,195	-0,041
249,903	-66,956	-0,105	-0,028
250,917	392,504	-0,057	-0,083
251,932	-14,697	-0,280	-0,124
252,947	101,248	-0,187	-0,150
253,961	46,760	-0,178	-0,114
254,976	437,346	-0,164	-0,247
255,990	308,100	-0,169	-0,219
257,005	240,981	-0,211	-0,244
258,020	-121,987	-0,143	0,016
259,034	-50,906	-0,195	-0,063
260,049	442,155	-0,115	-0,175
261,063	103,968	-0,144	-0,117
262,078	134,690	-0,123	-0,110
263,093	140,946	-0,230	-0,210
264,107	101,443	-0,155	-0,125
265,122	-200,000	-0,010	-0,087
266,136	123,675	-0,133	-0,115
267,151	-185,156	-0,208	-0,002
268,166	450,005	-0,115	-0,177
269,180	124,191	-0,212	-0,184
270,195	47,852	-0,226	-0,145
271,209	162,905	-0,151	-0,147
272,224	-177,703	-0,136	0,002
273,239	188,689	-0,087	-0,090
274,253	-126,081	-0,236	-0,024
275,268	174,793	-0,192	-0,192
276,282	214,712	-0,091	-0,100
277,297	-3,441	-0,202	-0,096
278,312	-8,514	-0,228	-0,105
279,326	-200,000	0,017	-0,184
280,341	380,514	-0,037	-0,052
281,355	117,729	-0,174	-0,148
282,370	-200,000	-0,062	-0,192
283,384	0,585	-0,190	-0,093
284,399	181,982	-0,076	-0,077
285,414	89,459	-0,160	-0,123
286,428	770,489	-0,041	-0,078
287,443	59,865	-0,093	-0,063
288,457	190,194	-0,045	-0,047
289,472	-122,262	-0,156	0,017
290,487	555,180	-0,115	-0,191
291,501	82,518	-0,268	-0,200
292,516	164,225	-0,149	-0,145
293,530	81,402	-0,170	-0,126
294,545	322,726	-0,150	-0,198
295,560	270,460	-0,137	-0,166
296,574	-200,000	-0,033	-0,191
297,589	41,567	-0,202	-0,126
298,603	502,071	-0,166	-0,265
299,618	800,000	-0,053	-0,147
300,633	592,129	-0,092	-0,157
301,647	-94,787	-0,159	-0,030
302,662	76,803	-0,065	0,048
303,676	-64,862	-0,071	0,020
304,691	35,423	-0,152	-0,092
305,706	800,000	-0,081	-0,159
306,720	-200,000	-0,055	-0,218
307,735	200,637	-0,046	-0,048
308,749	800,000	-0,031	0,090
309,764	378,840	-0,080	-0,113
310,779	-21,144	-0,090	0,038
311,793	-200,000	-0,088	0,000
312,808	126,073	-0,135	-0,118
313,822	27,410	-0,188	-0,109
314,837	74,423	-0,143	-0,103
315,852	-200,000	-0,008	-0,111
316,866	-7,711	-0,190	-0,088
317,881	-11,913	-0,071	-0,032
318,895	-118,677	-0,192	-0,023
319,910	-200,000	-0,006	-0,212
320,925	76,916	-0,161	-0,118
321,939	800,000	-0,105	-0,244
322,954	211,887	-0,112	-0,121
323,968	115,801	-0,160	-0,134
324,983	800,000	-0,121	-0,234
325,997	150,423	-0,089	-0,083
327,012	-47,977	-0,204	-0,067
328,027	800,000	-0,092	-0,223
329,041	-153,643	-0,117	-0,005
330,056	20,194	-0,182	-0,101
331,070	188,207	-0,123	-0,126
332,085	106,159	-0,135	-0,110
333,100	202,987	-0,127	-0,135
334,114	219,615	-0,130	-0,143
335,129	118,043	-0,126	-0,106
336,143	610,835	-0,138	-0,238
337,158	207,686	-0,176	-0,188
338,173	-146,457	-0,325	-0,019
339,187	47,447	-0,088	0,056
340,202	29,289	-0,160	-0,093
341,216	434,874	-0,118	-0,176
342,231	-45,451	-0,182	-0,062
343,246	-48,405	-0,212	-0,070
344,260	-200,000	-0,058	-0,213
345,275	-140,561	-0,147	-0,010
346,289	496,983	-0,052	-0,082
347,304	-200,000	-0,053	-0,237
348,319	256,383	-0,211	-0,249
349,333	439,326	-0,134	-0,202
350,348	800,000	-0,153	-0,306
351,362	43,051	-0,182	-0,113
352,377	16,294	-0,093	-0,050
353,392	-131,909	-0,135	-0,012
354,406	-19,650	-0,183	-0,077
355,421	208,941	1313,173	1410,301
356,435	160,786	1473,697	1410,769
