DTS Sentinel unit serial number:	SN410029Multiplexer serial number:	ORYXHardware model number:	OX2-SRSoftware version number:	ORYX F/W v4,00 Oryx Data Collector v3.7.2.0data status	okinstallation	B3 Nyhavnadifferential loss correction	single-endedforward channel	channel 1reverse channel	N/Adate	2023/11/30time	12:22:30forward acquisition time	300,00reverse acquisition time	0,00gamma	499,1914k internal	0,3212k external	0,3212temperature offset calibration	1,0000default loss term (dB/km)	0,3820temperature slope calibration	1,0000multiplexer offset coefficient	1,0000multiplexer slope coefficient	1,0000fibre end	0,00T internal ref (°C)	9,63T ext. ref 1 (°C)	-4,63T ext. ref 2 (°C)	-4,71length (m)	temperature (°C)	Stokes	anti-Stokes-744,400	129,475	-0,305	-0,283
-743,385	800,000	0,056	0,172
-742,371	-200,000	-0,079	-0,314
-741,356	800,000	0,170	0,354
-740,342	179,092	-0,189	-0,200
-739,327	-200,000	0,018	0,191
-738,312	323,897	-0,263	-0,365
-737,298	-200,000	0,006	0,309
-736,283	800,000	-0,121	-0,289
-735,269	-200,000	0,022	0,263
-734,254	800,000	-0,102	-0,224
-733,239	-81,420	-0,161	0,038
-732,225	634,590	-0,115	-0,213
-731,210	-200,000	0,022	0,131
-730,196	-200,000	0,010	0,038
-729,181	-200,000	0,003	0,045
-728,167	598,744	0,038	-0,068
-727,152	-200,000	0,022	-0,094
-726,137	-151,101	-0,049	0,003
-725,123	-57,192	0,071	-0,023
-724,108	-9,991	-0,081	-0,039
-723,094	-54,923	-0,094	-0,031
-722,079	41,098	-0,009	0,006
-721,064	-158,473	0,106	0,004
-720,050	-38,852	-0,113	-0,043
-719,035	421,866	0,016	0,026
-718,021	241,821	0,031	-0,037
-717,006	255,966	-0,132	-0,164
-715,991	-4,777	-0,123	-0,061
-714,977	25,836	-0,040	0,024
-713,962	-8,090	-0,021	-0,010
-712,948	-161,888	0,073	0,003
-711,933	-47,630	-0,023	-0,008
-710,918	-125,155	-0,097	0,011
-709,904	7,496	-0,111	-0,060
-708,889	-200,000	-0,014	0,054
-707,875	-100,262	-0,095	0,017
-706,860	-200,000	0,016	-0,116
-705,845	-156,897	0,020	0,001
-704,831	800,000	-0,016	0,037
-703,816	800,000	-0,023	0,071
-702,802	410,960	-0,042	-0,064
-701,787	-200,000	0,008	-0,072
-700,772	49,218	-0,051	-0,034
-699,758	800,000	0,027	-0,064
-698,743	735,948	0,023	-0,044
-697,729	800,000	-0,035	0,082
-696,714	649,437	-0,028	0,052
-695,699	-118,372	-0,146	-0,019
-694,685	207,259	-0,091	-0,103
-693,670	-200,000	0,001	-0,011
-692,656	369,606	-0,027	0,039
-691,641	800,000	-0,044	0,129
-690,627	727,717	0,061	0,118
-689,612	425,835	0,057	0,089
-688,597	-200,000	0,018	-0,062
-687,583	-200,000	0,003	-0,103
-686,568	800,000	-0,042	-0,101
-685,554	108,360	-0,145	-0,125
-684,539	-47,080	0,069	0,024
-683,524	749,953	0,030	0,059
-682,510	714,006	-0,068	0,131
-681,495	411,510	-0,062	-0,096
-680,481	-53,897	0,045	0,015
-679,466	-90,854	-0,115	-0,024
-678,451	-64,884	0,075	0,022
-677,437	416,275	-0,033	0,051
-676,422	800,000	0,090	0,180
-675,408	-200,000	-0,008	0,057
-674,393	247,775	-0,079	0,097
-673,378	-200,000	0,019	0,129
-672,364	800,000	0,058	0,119
-671,349	-200,000	0,003	-0,092
-670,335	-200,000	-0,006	0,036
-669,320	-54,590	0,112	-0,036
-668,305	-34,140	-0,061	0,024
-667,291	-65,734	-0,094	-0,027
-666,276	-200,000	-0,030	-0,130
-665,262	-20,218	-0,241	-0,107
-664,247	-64,877	0,047	0,014
-663,232	-145,270	0,052	0,003
-662,218	-69,686	-0,092	0,025
-661,203	-200,000	0,001	0,017
-660,189	800,000	-0,056	-0,149
-659,174	548,203	-0,059	-0,103
-658,159	-18,988	-0,160	-0,071
-657,145	188,368	-0,042	-0,045
-656,130	279,879	0,031	0,041
-655,116	-200,000	-0,013	-0,174
-654,101	-170,863	-0,061	-0,001
-653,086	-73,184	-0,085	0,022
-652,072	700,725	0,017	-0,032
-651,057	203,733	-0,117	-0,131
-650,043	-200,000	-0,020	-0,136
-649,028	264,467	-0,044	-0,055
-648,014	800,000	-0,027	-0,065
-646,999	-200,000	0,028	0,096
-645,984	800,000	0,031	0,073
-644,970	-59,696	-0,237	0,073
-643,955	800,000	0,056	-0,153
-642,941	200,493	-0,035	-0,038
-641,926	-161,976	0,029	-0,001
-640,911	180,904	-0,091	0,096
-639,897	-31,747	-0,124	0,050
-638,882	-87,494	0,061	-0,013
-637,868	-49,684	0,101	-0,035
-636,853	58,251	-0,087	-0,061
-635,838	800,000	-0,025	-0,079
-634,824	9,224	-0,128	-0,070
-633,809	155,943	-0,105	0,105
-632,795	-200,000	0,040	0,159
-631,780	-135,763	-0,187	-0,016
-630,765	-140,923	-0,092	0,007
-629,751	131,992	-0,028	-0,026
-628,736	196,658	-0,087	-0,096
-627,722	-200,000	0,002	-0,103
-626,707	-200,000	0,019	0,085
-625,692	800,000	-0,023	-0,052
-624,678	-200,000	0,019	-0,118
-623,663	-200,000	-0,014	0,046
-622,649	-154,048	0,097	0,005
-621,634	35,811	-0,166	-0,105
-620,619	-200,000	0,003	-0,041
-619,605	-200,000	-0,004	-0,040
-618,590	53,006	0,056	0,038
-617,576	-128,394	-0,131	0,013
-616,561	209,848	-0,054	-0,061
-615,546	411,042	-0,028	-0,043
-614,532	-63,164	-0,066	-0,020
-613,517	-200,000	0,017	-0,132
-612,503	-200,000	-0,022	0,069
-611,488	-59,974	-0,097	0,030
-610,474	-27,683	0,164	0,068
-609,459	14,877	-0,028	0,016
-608,444	-34,605	-0,143	0,056
-607,430	463,097	0,051	-0,082
-606,415	-101,035	-0,146	-0,026
-605,401	137,895	-0,090	-0,085
-604,386	800,000	0,018	0,039
-603,371	-200,000	0,032	0,154
-602,357	668,039	-0,044	0,082
-601,342	17,367	0,089	0,051
-600,328	-118,078	-0,102	0,013
-599,313	217,306	-0,027	-0,031
-598,298	800,000	0,088	-0,199
-597,284	191,096	-0,085	0,093
-596,269	-131,924	-0,088	-0,008
-595,255	-91,152	0,177	-0,036
-594,240	79,713	-0,052	0,040
-593,225	-29,600	-0,109	-0,044
-592,211	-200,000	0,030	-0,181
-591,196	-59,276	-0,122	-0,038
-590,182	-72,203	-0,079	-0,021
-589,167	578,143	-0,032	-0,057
-588,152	-69,532	0,209	0,057
-587,138	-34,889	-0,058	-0,023
-586,123	236,247	-0,063	-0,076
-585,109	-61,137	0,047	-0,014
-584,094	430,989	-0,068	-0,106
-583,079	-142,244	-0,081	-0,006
-582,065	-28,043	0,038	0,016
-581,050	29,155	-0,130	0,079
-580,036	749,511	0,039	-0,075
-579,021	-200,000	0,007	-0,151
-578,006	241,369	-0,131	-0,158
-576,992	288,502	-0,084	-0,110
-575,977	10,188	-0,046	0,025
-574,963	84,020	0,110	0,086
-573,948	206,748	-0,041	0,046
-572,934	-116,318	-0,132	-0,017
-571,919	498,840	0,159	-0,264
-570,904	127,866	0,109	-0,100
-569,890	-200,000	-0,002	-0,058
-568,875	73,491	0,079	0,060
-567,861	83,663	-0,071	0,056
-566,846	-200,000	0,013	0,043
-565,831	81,517	0,027	0,021
-564,817	52,835	-0,194	-0,133
-563,802	-96,046	-0,143	-0,027
-562,788	385,936	0,072	-0,108
-561,773	4,833	0,174	-0,092
-560,758	-109,891	0,051	0,008
-559,744	223,828	0,112	0,131
-558,729	730,542	0,048	-0,092
-557,715	-92,010	-0,106	-0,021
-556,700	101,356	-0,023	0,019
-555,685	-7,520	0,017	-0,008
-554,671	493,735	-0,056	0,093
-553,656	-98,662	-0,043	-0,008
-552,642	343,550	-0,018	0,026
-551,627	-200,000	0,016	0,051
-550,612	585,615	0,079	0,140
-549,598	-82,147	-0,048	-0,011
-548,583	136,447	0,042	0,040
-547,569	-50,215	-0,054	-0,018
-546,554	122,740	0,016	-0,014
-545,539	800,000	0,050	0,100
-544,525	-200,000	0,019	-0,085
-543,510	361,555	0,098	-0,142
-542,496	514,326	-0,088	-0,148
-541,481	12,045	0,046	-0,026
-540,466	-200,000	0,026	0,175
-539,452	17,940	0,038	0,022
-538,437	-159,201	0,064	0,003
-537,423	172,725	-0,023	0,024
-536,408	-200,000	-0,010	0,066
-535,393	168,989	0,076	0,078
-534,379	-36,714	-0,013	-0,005
-533,364	-123,467	0,012	0,001
-532,350	110,927	0,069	-0,059
-531,335	-200,000	-0,004	0,077
-530,321	48,844	0,099	-0,066
-529,306	616,079	-0,040	0,073
-528,291	-200,000	0,023	0,102
-527,277	678,567	-0,054	0,101
-526,262	-200,000	0,032	-0,118
-525,248	42,359	0,046	-0,030
-524,233	-114,776	0,187	0,025
-523,218	40,347	-0,093	0,060
-522,204	104,184	0,094	0,079
-521,189	-144,806	-0,165	0,011
-520,175	800,000	-0,038	-0,101
-519,160	-200,000	0,020	0,000
-518,145	-44,977	-0,082	0,029
-517,131	-62,541	-0,069	0,020
-516,116	-200,000	0,029	-0,104
-515,102	97,879	0,050	-0,041
-514,087	292,981	-0,067	0,089
-513,072	-106,370	-0,099	0,016
-512,058	60,846	0,135	-0,096
-511,043	-200,000	-0,015	0,090
-510,029	-107,376	0,120	-0,019
-509,014	71,576	0,015	0,011
-507,999	-200,000	0,002	-0,010
-506,985	-200,000	0,005	-0,039
-505,970	33,241	-0,111	0,069
-504,956	604,316	-0,026	0,046
-503,941	800,000	-0,010	0,020
-502,926	-200,000	0,042	0,144
-501,912	-161,706	0,119	-0,004
-500,897	165,214	0,104	0,105
-499,883	-23,716	0,041	-0,017
-498,868	-25,717	-0,194	-0,082
-497,853	252,196	0,065	-0,079
-496,839	-113,354	0,028	0,004
-495,824	206,261	0,081	0,091
-494,810	-200,000	-0,024	0,172
-493,795	-92,946	0,125	0,025
-492,781	14,295	0,088	0,049
-491,766	-76,269	-0,020	-0,005
-490,751	194,997	0,028	-0,030
-489,737	284,690	0,069	-0,090
-488,722	-200,000	0,025	-0,148
-487,708	435,077	0,028	-0,044
-486,693	-143,692	0,087	0,006
-485,678	-200,000	-0,003	0,080
-484,664	259,713	-0,043	0,053
-483,649	72,170	0,061	0,046
-482,635	-29,433	-0,067	0,028
-481,620	-200,000	-0,020	-0,083
-480,605	-181,226	0,094	0,001
-479,591	84,990	-0,106	-0,084
-478,576	242,733	0,019	-0,023
-477,562	91,732	-0,096	0,077
-476,547	128,022	0,024	0,022
-475,532	800,000	0,034	0,085
-474,518	147,988	-0,092	0,089
-473,503	-126,129	0,072	-0,008
-472,489	800,000	-0,034	0,074
-471,474	-71,531	-0,158	-0,042
-470,459	-200,000	0,016	-0,084
-469,445	-200,000	-0,014	0,066
-468,430	269,440	-0,084	0,107
-467,416	-200,000	0,022	0,084
-466,401	131,232	0,056	0,051
-465,386	273,683	-0,005	0,006
-464,372	-200,000	-0,013	-0,105
-463,357	278,481	0,005	0,007
-462,343	800,000	-0,026	-0,066
-461,328	-200,000	-0,002	-0,195
-460,313	-65,094	-0,135	-0,039
-459,299	58,264	0,179	0,126
-458,284	413,818	-0,029	0,044
-457,270	-52,741	-0,043	0,014
-456,255	-200,000	-0,003	-0,140
-455,241	800,000	0,039	-0,099
-454,226	-121,271	-0,046	-0,005
-453,211	-200,000	-0,007	-0,035
-452,197	-96,540	-0,046	-0,009
-451,182	-200,000	0,027	-0,114
-450,168	80,010	-0,108	-0,083
-449,153	-200,000	0,016	-0,132
-448,138	-82,491	0,024	0,006
-447,124	357,344	0,054	-0,077
-446,109	-95,542	0,043	0,008
-445,095	156,483	0,048	-0,048
-444,080	-41,090	0,194	0,071
-443,065	459,015	0,045	0,072
-442,051	-200,000	0,001	-0,092
-441,036	800,000	-0,037	-0,081
-440,022	118,357	0,085	-0,075
-439,007	0,006	0,066	0,034
-437,992	-200,000	-0,013	0,047
-436,978	800,000	0,026	0,060
-435,963	-21,170	0,022	0,009
-434,949	-44,110	-0,027	0,010
-433,934	800,000	-0,042	-0,088
-432,919	-87,215	-0,048	0,010
-431,905	239,129	-0,039	-0,046
-430,890	800,000	0,023	0,054
-429,876	-103,952	0,070	-0,012
-428,861	-62,331	-0,040	0,012
-427,846	800,000	-0,032	0,069
-426,832	618,504	-0,055	-0,100
-425,817	-200,000	-0,015	-0,074
-424,803	277,048	-0,058	0,074
-423,788	-200,000	-0,011	-0,087
-422,773	248,347	-0,019	0,023
-421,759	-155,863	0,116	0,005
-420,744	215,464	0,042	0,048
-419,730	-200,000	0,037	0,154
-418,715	-200,000	-0,024	-0,078
-417,701	-200,000	0,001	0,070
-416,686	-41,526	0,027	-0,010
-415,671	800,000	0,061	0,147
-414,657	242,956	0,053	0,064
-413,642	344,168	0,007	-0,010
-412,628	577,211	0,028	0,050
-411,613	-193,791	-0,110	-0,001
-410,598	800,000	-0,078	0,164
-409,584	800,000	0,045	0,111
-408,569	199,916	-0,048	0,053
-407,555	56,115	-0,136	-0,094
-406,540	800,000	0,016	0,032
-405,525	203,941	-0,095	-0,105
-404,511	129,519	-0,097	-0,089
-403,496	-200,000	0,019	-0,071
-402,482	768,367	-0,058	0,114
-401,467	800,000	0,029	-0,079
-400,452	32,118	0,111	-0,069
-399,438	-200,000	-0,010	0,057
-398,423	327,365	-0,011	0,016
-397,409	800,000	0,017	-0,043
-396,394	-200,000	-0,020	-0,088
-395,379	-200,000	0,012	-0,057
-394,365	27,917	0,096	0,058
-393,350	800,000	0,028	0,063
-392,336	800,000	-0,041	0,114
-391,321	800,000	0,069	0,137
-390,306	800,000	-0,027	-0,064
-389,292	-200,000	0,010	-0,063
-388,277	106,365	0,072	-0,061
-387,263	111,006	0,089	0,077
-386,248	759,175	0,028	-0,054
-385,233	-71,393	-0,022	0,006
-384,219	-61,896	-0,043	-0,013
-383,204	9,112	0,061	0,033
-382,190	-200,000	-0,011	-0,057
-381,175	-200,000	-0,023	0,084
-380,160	-47,572	0,008	-0,003
-379,146	-165,238	0,192	0,006
-378,131	-58,636	0,185	-0,057
-377,117	12,248	-0,093	0,051
-376,102	74,015	-0,018	0,013
-375,088	-45,848	0,036	0,013
-374,073	203,784	0,106	0,117
-373,058	-129,676	-0,148	0,014
-372,044	-118,016	-0,107	0,014
-371,029	-200,000	-0,031	-0,000
-370,015	-200,000	0,002	0,010
-369,000	-52,490	-0,083	-0,027
-367,985	-200,000	-0,023	0,110
-366,971	117,500	-0,161	-0,141
-365,956	406,989	0,034	-0,051
-364,942	26,130	0,155	0,092
-363,927	-200,000	0,033	-0,140
-362,912	-62,455	-0,211	-0,062
-361,898	-5,141	-0,103	0,050
-360,883	-200,000	0,001	-0,055
-359,869	800,000	0,057	0,135
-358,854	-200,000	-0,026	-0,113
-357,839	-200,000	0,008	0,031
-356,825	376,855	0,077	0,113
-355,810	-175,248	0,013	0,000
-354,796	800,000	-0,039	-0,085
-353,781	81,224	-0,211	-0,163
-352,766	-200,000	0,004	0,103
-351,752	-200,000	-0,006	0,091
-350,737	800,000	0,020	-0,047
-349,723	-120,967	0,076	0,009
-348,708	-28,395	-0,039	-0,016
-347,693	52,988	-0,025	0,017
-346,679	-8,320	-0,159	-0,076
-345,664	202,994	-0,084	-0,093
-344,650	375,539	0,048	0,069
-343,635	-59,333	0,073	-0,022
-342,620	170,018	0,052	-0,053
-341,606	8,795	-0,043	0,023
-340,591	443,787	-0,051	-0,080
-339,577	158,769	-0,018	0,017
-338,562	800,000	-0,028	0,067
-337,548	-21,151	0,033	-0,014
-336,533	-200,000	0,000	0,046
-335,518	158,365	-0,139	0,138
-334,504	120,841	0,056	0,050
-333,489	1,270	-0,124	-0,063
-332,475	-140,527	-0,257	0,019
-331,460	-78,859	0,091	0,022
-330,445	157,198	0,106	-0,105
-329,431	-200,000	-0,002	0,127
-328,416	211,230	0,077	0,087
-327,402	-162,934	0,145	-0,005
-326,387	800,000	-0,027	0,057
-325,372	-55,435	0,129	0,041
-324,358	243,326	-0,099	-0,119
-323,343	125,159	0,119	0,107
-322,329	-97,959	-0,044	-0,008
-321,314	-200,000	0,038	-0,234
-320,299	-200,000	0,005	0,145
-319,285	800,000	0,037	0,090
-318,270	-185,300	0,091	0,001
-317,256	800,000	-0,058	0,132
-316,241	292,490	0,034	0,044
-315,226	24,773	0,063	0,037
-314,212	178,552	0,052	-0,054
-313,197	-200,000	-0,009	0,144
-312,183	641,178	0,034	-0,063
-311,168	-17,039	0,052	-0,023
-310,153	-24,997	-0,064	0,027
-309,139	700,294	0,071	0,134
-308,124	194,154	0,091	0,099
-307,110	-200,000	0,002	0,030
-306,095	-1,802	0,121	0,060
-305,080	800,000	-0,018	0,049
-304,066	800,000	-0,016	-0,042
-303,051	562,023	-0,074	-0,129
-302,037	800,000	-0,027	0,060
-301,022	-200,000	0,030	0,120
-300,008	776,851	0,075	0,146
-298,993	95,861	0,176	0,143
-297,978	217,151	0,143	0,163
-296,964	2,727	-0,089	-0,046
-295,949	800,000	-0,035	-0,108
-294,935	-200,000	0,015	-0,162
-293,920	42,192	-0,079	-0,051
-292,905	800,000	-0,014	0,036
-291,891	243,323	-0,059	0,070
-290,876	-56,984	0,072	-0,023
-289,862	-183,439	0,017	-0,000
-288,847	-113,324	-0,158	0,022
-287,832	-200,000	0,003	-0,141
-286,818	800,000	0,010	-0,028
-285,803	-200,000	0,010	0,227
-284,789	-51,419	0,150	-0,050
-283,774	800,000	0,032	-0,063
-282,759	328,461	-0,067	0,092
-281,745	-114,066	-0,090	0,012
-280,730	-200,000	0,012	-0,048
-279,716	-200,000	-0,034	-0,163
-278,701	-200,000	0,010	-0,056
-277,686	-200,000	0,001	0,019
-276,672	17,533	0,067	0,038
-275,657	-200,000	0,033	0,117
-274,643	-200,000	-0,036	-0,118
-273,628	45,538	-0,084	-0,055
-272,613	-172,380	-0,066	-0,001
-271,599	-16,686	0,181	0,081
-270,584	-200,000	-0,012	0,077
-269,570	800,000	0,073	0,173
-268,555	-200,000	-0,015	0,074
-267,540	310,689	0,063	-0,084
-266,526	726,635	-0,034	0,064
-265,511	-200,000	-0,012	-0,129
-264,497	229,890	0,020	0,023
-263,482	-200,000	-0,027	-0,123
-262,467	800,000	0,042	-0,101
-261,453	237,514	-0,012	-0,014
-260,438	-13,591	0,189	-0,087
-259,424	800,000	-0,043	-0,133
-258,409	-200,000	0,015	-0,059
-257,395	-86,018	0,261	-0,057
-256,380	742,718	-0,030	0,058
-255,365	96,632	0,055	0,045
-254,351	-123,708	-0,075	0,008
-253,336	-104,963	-0,082	0,013
-252,322	795,973	0,037	-0,073
-251,307	129,708	-0,080	-0,073
-250,292	-81,404	-0,098	0,023
-249,278	255,876	0,098	0,120
-248,263	-200,000	-0,052	0,192
-247,249	-43,564	0,020	-0,007
-246,234	304,691	0,027	0,036
-245,219	-56,753	-0,040	0,013
-244,205	380,409	-0,083	0,122
-243,190	800,000	0,023	-0,047
-242,176	-59,309	0,127	-0,039
-241,161	38,868	0,123	-0,078
-240,146	65,600	-0,071	-0,051
-239,132	144,328	0,006	-0,005
-238,117	-200,000	0,004	0,187
-237,103	414,627	-0,038	-0,057
-236,088	427,027	-0,032	-0,048
-235,073	47,786	-0,061	0,041
-234,059	800,000	0,037	-0,112
-233,044	148,507	-0,079	0,076
-232,030	450,781	0,034	0,054
-231,015	-200,000	0,028	-0,124
-230,000	-105,758	-0,047	-0,007
-228,986	108,842	0,085	-0,072
-227,971	-21,988	0,127	0,055
-226,957	-56,204	0,097	-0,030
-225,942	-132,490	0,029	0,003
-224,927	462,993	-0,060	-0,095
-223,913	-70,728	0,120	-0,032
-222,898	-43,103	-0,065	-0,023
-221,884	-137,470	-0,136	-0,011
-220,869	12,242	0,135	0,074
-219,855	501,496	-0,031	-0,051
-218,840	-200,000	0,018	0,089
-217,825	-60,874	-0,068	0,020
-216,811	800,000	-0,039	0,091
-215,796	-37,563	0,099	0,037
-214,782	800,000	-0,042	-0,090
-213,767	-74,739	-0,158	-0,040
-212,752	800,000	0,025	-0,064
-211,738	-200,000	0,008	-0,037
-210,723	-1,666	0,083	0,041
-209,709	-200,000	0,020	0,078
-208,694	575,988	0,046	-0,080
-207,679	-114,643	-0,118	0,016
-206,665	15,035	0,142	0,079
-205,650	-48,109	0,061	0,021
-204,636	222,874	0,077	0,088
-203,621	-31,192	-0,176	0,070
-202,606	35,596	0,075	0,047
-201,592	259,586	-0,159	0,196
-200,577	800,000	0,041	-0,109
-199,563	-82,677	-0,044	0,010
-198,548	594,063	-0,047	-0,083
-197,533	-156,155	0,217	0,010
-196,519	-36,184	0,046	-0,018
-195,504	13,926	-0,181	-0,099
-194,490	800,000	0,047	-0,107
-193,475	114,047	-0,058	-0,050
-192,460	-138,251	-0,017	-0,001
-191,446	-200,000	-0,000	-0,020
-190,431	-119,379	0,096	0,012
-189,417	-181,805	-0,125	0,002
-188,402	96,507	-0,067	-0,054
-187,387	392,743	-0,028	0,041
-186,373	-200,000	-0,001	-0,035
-185,358	97,084	-0,045	-0,037
-184,344	104,126	0,008	0,007
-183,329	296,539	0,038	0,050
-182,315	310,758	-0,013	-0,017
-181,300	-200,000	0,004	-0,097
-180,285	800,000	-0,022	-0,053
-179,271	-80,316	-0,048	-0,011
-178,256	6,379	0,086	0,045
-177,242	800,000	-0,015	-0,032
-176,227	-200,000	0,007	0,054
-175,212	-200,000	0,041	0,224
-174,198	-200,000	0,025	0,089
-173,183	800,000	0,048	-0,098
-172,169	90,255	-0,005	-0,004
-171,154	-73,711	0,107	0,027
-170,139	-75,476	0,074	-0,018
-169,125	723,263	-0,017	-0,033
-168,110	-35,334	0,093	0,036
-167,096	-200,000	-0,032	0,154
-166,081	121,389	-0,109	0,096
-165,066	800,000	0,042	-0,114
-164,052	33,134	-0,096	0,059
-163,037	131,326	0,130	-0,118
-162,023	457,478	-0,050	-0,079
-161,008	445,143	0,053	0,083
-159,993	-79,226	0,030	-0,007
-158,979	588,303	-0,043	0,076
-157,964	-47,846	0,131	0,045
-156,950	-18,453	-0,130	-0,057
-155,935	-180,640	-0,045	-0,001
-154,920	-200,000	0,007	-0,066
-153,906	1,506	0,140	0,071
-152,891	168,506	0,048	-0,048
-151,877	342,563	0,041	0,057
-150,862	-157,023	-0,157	-0,007
-149,847	-106,841	-0,119	-0,019
-148,833	88,067	0,062	0,049
-147,818	-200,000	-0,008	-0,034
-146,804	800,000	-0,008	0,017
-145,789	-0,937	-0,032	0,016
-144,775	-119,783	-0,092	0,011
-143,760	-65,518	0,077	-0,022
-142,745	-76,513	-0,096	-0,024
-141,731	80,484	-0,116	0,089
-140,716	-86,241	0,075	0,016
-139,702	800,000	0,043	0,085
-138,687	-81,237	0,038	0,009
-137,672	800,000	-0,066	-0,135
-136,658	-200,000	-0,003	-0,036
-135,643	116,234	-0,162	-0,141
-134,629	295,046	-0,025	0,033
-133,614	-65,418	-0,056	0,016
-132,599	631,389	-0,074	-0,132
-131,585	-75,403	-0,040	-0,010
-130,570	335,368	0,052	-0,071
-129,556	-200,000	0,015	-0,083
-128,541	-146,685	0,183	0,011
-127,526	668,137	-0,073	0,133
-126,512	196,196	-0,087	-0,093
-125,497	-200,000	0,032	-0,126
-124,483	-200,000	0,021	0,081
-123,468	-30,666	0,031	0,012
-122,453	-7,816	-0,059	-0,028
-121,439	-200,000	-0,043	-0,169
-120,424	800,000	0,009	-0,023
-119,410	800,000	0,115	0,237
-118,395	93,110	0,154	0,123
-117,380	800,000	0,062	0,134
-116,366	-146,442	-0,149	-0,009
-115,351	-200,000	0,004	-0,120
-114,337	32,856	0,056	-0,034
-113,322	445,472	-0,070	-0,109
-112,307	558,242	0,044	0,075
-111,293	140,192	0,101	-0,094
-110,278	-200,000	0,017	0,068
-109,264	39,570	0,127	0,080
-108,249	-89,405	0,067	0,014
-107,234	150,823	0,050	-0,048
-106,220	32,693	0,018	-0,011
-105,205	800,000	-0,032	-0,073
-104,191	800,000	-0,055	0,120
-103,176	103,896	-0,089	0,074
-102,162	800,000	0,041	-0,082
-101,147	-74,615	0,045	-0,011
-100,132	553,025	-0,054	-0,092
-99,118	-111,869	-0,135	0,019
-98,103	-122,044	0,119	-0,014
-97,089	14,932	-0,071	0,039
-96,074	-41,913	-0,081	0,029
-95,059	75,615	0,069	-0,051
-94,045	224,998	0,078	-0,089
-93,030	167,925	-0,047	-0,047
-92,016	-200,000	0,003	-0,220
-91,001	-200,000	0,000	-0,136
-89,986	-200,000	0,005	-0,019
-88,972	189,145	0,057	0,060
-87,957	-200,000	0,010	-0,037
-86,943	-10,131	-0,115	-0,054
-85,928	-56,402	-0,049	0,015
-84,913	-108,170	-0,110	-0,017
-83,899	-200,000	0,006	0,072
-82,884	17,779	0,089	-0,050
-81,870	-104,029	0,174	0,028
-80,855	3,253	-0,047	0,024
-79,840	-149,133	-0,088	0,005
-78,826	-151,764	-0,076	-0,004
-77,811	61,126	0,049	-0,034
-76,797	-200,000	-0,019	0,075
-75,782	-200,000	-0,017	0,096
-74,767	200,534	0,028	0,030
-73,753	-200,000	0,019	0,093
-72,738	287,811	-0,028	0,036
-71,724	-200,000	0,011	-0,116
-70,709	4,116	0,045	0,023
-69,694	-156,841	-0,090	-0,004
-68,680	142,292	0,089	0,083
-67,665	-139,323	-0,061	0,005
-66,651	697,424	-0,031	0,058
-65,636	100,561	-0,080	-0,066
-64,622	-200,000	-0,005	0,067
-63,607	800,000	0,011	0,031
-62,592	348,985	-0,059	-0,082
-61,578	-200,000	-0,017	-0,152
-60,563	800,000	0,011	0,033
-59,549	58,606	-0,122	0,084
-58,534	71,038	-1,935	-1,414
-57,519	443,038	-1,234	-1,915
-56,505	-200,000	-0,335	-4,404
-55,490	643,322	0,894	1,615
-54,476	800,000	5,082	11,150
-53,461	-200,000	21,387	344,132
-52,446	800,000	763,247	2355,305
-51,432	552,928	1664,001	2832,106
-50,417	72,312	1660,413	1219,104
-49,403	17,469	1533,818	857,341
-48,388	11,487	1457,481	785,759
-47,373	19,466	1449,125	819,488
-46,359	15,028	1438,035	792,098
-45,344	9,781	1433,781	764,758
-44,330	9,675	1432,136	763,344
-43,315	9,679	1430,125	762,265
-42,300	9,708	1428,318	761,408
-41,286	9,697	1427,254	760,757
-40,271	9,651	1426,073	759,878
-39,257	9,659	1424,855	759,241
-38,242	9,713	1423,684	758,839
-37,227	9,705	1422,726	758,264
-36,213	9,708	1421,350	757,515
-35,198	9,735	1420,109	756,951
-34,184	9,722	1419,268	756,408
-33,169	9,674	1417,772	755,356
-32,154	9,712	1416,943	755,062
-31,140	9,709	1415,535	754,270
-30,125	9,773	1414,500	753,988
-29,111	9,752	1413,527	753,342
-28,096	9,754	1411,925	752,468
-27,082	9,627	1410,845	751,264
-26,067	9,626	1409,951	750,755
-25,052	9,697	1408,626	750,352
-24,038	9,684	1408,027	749,942
-23,023	9,651	1406,787	749,098
-22,009	9,678	1405,967	748,756
-20,994	9,644	1405,029	748,070
-19,979	9,668	1404,131	747,673
-18,965	9,629	1403,192	746,964
-17,950	9,643	1401,999	746,363
-16,936	9,618	1401,053	745,711
-15,921	9,517	1400,690	745,022
-14,906	9,546	1399,485	744,483
-13,892	9,629	1398,360	744,244
-12,877	9,605	1397,624	743,711
-11,863	9,582	1396,924	743,201
-10,848	9,522	1395,888	742,342
-9,833	9,476	1395,218	741,742
-8,819	9,463	1394,339	741,188
-7,804	9,461	1393,253	740,568
-6,790	9,500	1392,120	740,118
-5,775	9,525	1391,093	739,660
-4,760	9,474	1390,201	738,919
-3,746	9,471	1389,215	738,354
-2,731	9,522	1388,328	738,086
-1,717	9,484	1387,645	737,518
-0,702	9,494	1385,797	736,552
0,313	13,497	1298,219	708,306
1,327	29,473	689,048	412,107
2,342	45,516	119,278	77,509
3,356	0,028	16,553	8,286
4,371	-1,333	3,638	1,805
5,386	-22,540	1,192	0,506
6,400	-200,000	0,150	0,570
7,415	-65,218	-0,276	-0,078
8,429	185,318	-0,227	-0,238
9,444	103,207	-0,241	-0,199
10,459	142,763	-0,213	-0,199
11,473	9,138	-0,311	-0,165
12,488	-78,197	-0,342	0,082
13,502	467,777	-0,181	-0,287
14,517	41,182	-0,245	-0,155
15,531	186,584	-0,336	-0,352
16,546	1,863	-0,466	-0,236
17,561	206,763	-0,364	-0,399
18,575	56,857	-0,129	-0,088
19,590	150,073	-0,222	-0,212
20,604	-150,827	-0,376	-0,020
21,619	40,027	-0,416	-0,262
22,634	69,391	-0,398	-0,288
23,648	-12,347	-0,346	-0,159
24,663	168,714	-0,266	-0,267
25,677	-73,068	-0,362	-0,093
26,692	48,147	-0,413	-0,271
27,707	21,774	-0,436	-0,249
28,721	178,543	-0,210	-0,216
29,736	186,049	-0,265	-0,278
30,750	-9,932	-0,534	-0,249
31,765	196,295	-0,359	-0,385
32,780	84,013	-0,302	-0,232
33,794	137,417	-0,325	-0,299
34,809	-1,491	-0,283	-0,140
35,823	121,563	-0,313	-0,274
36,838	146,098	-0,282	-0,266
37,853	335,788	-0,287	-0,392
38,867	70,297	-0,429	-0,311
39,882	145,656	-0,328	-0,309
40,896	262,539	-0,243	-0,296
41,911	24,376	-0,279	-0,162
42,926	430,196	-0,202	-0,308
43,940	55,263	-0,540	-0,366
44,955	237,297	-0,249	-0,291
45,969	65,915	-0,396	-0,281
46,984	303,873	-0,254	-0,332
47,999	56,838	-0,299	-0,204
49,013	67,152	-0,375	-0,268
50,028	60,020	-0,299	-0,207
51,042	4,094	-0,285	-0,146
52,057	800,000	-0,151	-0,297
53,071	162,832	-0,226	-0,223
54,086	181,334	-0,226	-0,233
55,101	10,963	-0,353	-0,189
56,115	-79,904	-0,378	-0,089
57,130	131,504	-0,270	-0,244
58,144	98,375	-0,400	-0,324
59,159	216,375	-0,317	-0,354
60,174	45,638	-0,331	-0,214
61,188	106,805	-0,216	-0,180
62,203	63,965	-0,255	-0,179
63,217	253,691	-0,176	-0,212
64,232	33,176	-0,216	-0,131
65,247	24,042	-0,409	-0,236
66,261	11,505	-0,326	-0,174
67,276	-64,255	-0,296	-0,084
68,290	-76,790	-0,341	-0,083
69,305	44,369	-0,354	-0,227
70,320	44,278	-0,234	-0,150
71,334	-48,787	-0,372	-0,124
72,349	-17,180	-0,347	-0,153
73,363	151,198	-0,278	-0,265
74,378	78,050	-0,435	-0,325
75,393	-37,774	-0,319	-0,118
76,407	21,838	-0,384	-0,218
77,422	88,113	-0,263	-0,204
78,436	-46,479	-0,414	-0,141
79,451	33,949	-0,245	-0,149
80,466	171,684	-0,346	-0,348
81,480	146,853	-0,282	-0,266
82,495	45,888	-0,315	-0,204
83,509	9,079	-0,192	-0,101
84,524	61,595	-0,222	-0,154
85,539	85,959	-0,170	-0,131
86,553	3,991	-0,343	-0,175
87,568	-38,967	-0,334	-0,122
88,582	198,119	-0,245	-0,262
89,597	-26,990	-0,380	-0,155
90,611	132,015	-0,242	-0,218
91,626	-24,011	-0,265	-0,110
92,641	410,979	-0,147	-0,218
93,655	61,774	-0,287	-0,199
94,670	18,793	-0,420	-0,235
95,684	94,331	-0,292	-0,231
96,699	203,273	-0,305	-0,330
97,714	155,439	-0,263	-0,253
98,728	800,000	-0,102	-0,213
99,743	-25,724	-0,263	-0,108
100,757	25,020	-0,248	-0,144
101,772	151,365	-0,280	-0,267
102,787	-114,906	-0,199	-0,026
103,801	51,917	-0,316	-0,210
104,816	70,869	-0,237	-0,172
105,830	349,973	-0,195	-0,270
106,845	-0,693	-0,286	-0,141
107,860	-36,513	-0,285	-0,107
108,874	42,551	-0,343	-0,217
109,889	81,618	-0,230	-0,174
110,903	71,056	-0,378	-0,274
111,918	139,267	-0,294	-0,270
112,933	41,268	-0,321	-0,202
113,947	800,000	-0,083	-0,243
114,962	-200,000	-0,022	-0,228
115,976	429,806	-0,202	-0,307
116,991	195,751	-0,200	-0,213
118,006	93,586	-0,349	-0,276
119,020	-6,324	-0,299	-0,142
120,035	35,754	-0,250	-0,153
121,049	167,259	-0,164	-0,163
122,064	49,269	-0,269	-0,176
123,079	-70,657	-0,244	-0,064
124,093	-24,594	-0,325	-0,134
125,108	68,648	-0,226	-0,161
126,122	-76,654	-0,287	-0,070
127,137	231,184	-0,122	-0,140
128,151	-177,739	-0,210	-0,003
129,166	205,878	-0,195	-0,212
130,181	-14,976	-0,208	-0,092
131,195	124,447	-0,344	-0,302
132,210	17,611	-0,276	-0,152
133,224	105,342	-0,324	-0,266
134,239	49,797	-0,134	-0,088
135,254	66,644	-0,271	-0,192
136,268	-8,613	-0,283	-0,132
137,283	-42,915	-0,306	-0,108
138,297	0,735	-0,290	-0,144
139,312	82,738	-0,227	-0,172
140,327	734,407	-0,099	-0,186
141,341	325,408	-0,135	-0,180
142,356	-18,297	-0,185	-0,080
143,370	419,062	-0,205	-0,306
144,385	358,887	-0,181	-0,253
145,400	800,000	-0,064	-0,177
146,414	102,717	-0,293	-0,238
147,429	493,380	-0,186	-0,298
148,443	212,132	-0,211	-0,232
149,458	-42,544	-0,300	-0,106
150,473	617,665	-0,130	-0,228
151,487	15,448	-0,205	-0,111
152,502	281,342	-0,238	-0,297
153,516	56,060	-0,333	-0,225
154,531	-6,650	-0,169	-0,080
155,546	57,720	-0,215	-0,146
156,560	189,269	-0,211	-0,220
157,575	24,943	-0,276	-0,159
158,589	-79,839	-0,241	-0,056
159,604	796,416	-0,101	-0,195
160,619	208,850	-0,212	-0,231
161,633	72,272	-0,184	-0,133
162,648	118,409	-0,206	-0,176
163,662	459,779	-0,128	-0,198
164,677	15,862	-0,222	-0,121
165,692	286,183	-0,149	-0,187
166,706	137,720	-0,184	-0,168
167,721	144,499	-0,293	-0,272
168,735	93,631	-0,180	-0,141
169,750	28,047	-0,235	-0,138
170,764	121,325	-0,131	-0,113
171,779	-102,541	-0,220	0,036
172,794	54,853	-0,165	-0,110
173,808	-78,624	-0,357	-0,084
174,823	276,486	-0,213	-0,263
175,837	336,069	-0,236	-0,319
176,852	98,161	-0,246	-0,196
177,867	1,416	-0,279	-0,139
178,881	109,196	-0,173	-0,144
179,896	392,268	-0,157	-0,227
180,910	343,104	-0,168	-0,229
181,925	33,404	-0,285	-0,171
182,940	144,888	-0,195	-0,181
183,954	64,928	-0,152	-0,106
184,969	-99,938	-0,233	-0,040
185,983	-151,057	-0,292	-0,015
186,998	38,641	-0,175	-0,108
188,013	329,189	-0,086	-0,115
189,027	247,140	-0,206	-0,241
190,042	93,767	-0,173	-0,136
191,056	241,672	-0,175	-0,203
192,071	-52,438	-0,261	-0,083
193,086	-40,680	-0,182	-0,065
194,100	98,465	-0,159	-0,127
195,115	76,360	-0,176	-0,129
196,129	127,464	-0,241	-0,212
197,144	193,537	-0,266	-0,279
198,159	134,646	-0,227	-0,204
199,173	-48,179	-0,193	-0,064
200,188	53,937	-0,104	-0,069
201,202	90,882	-0,156	-0,121
202,217	-47,129	-0,254	-0,085
203,232	131,098	-0,226	-0,201
204,246	227,430	-0,200	-0,225
205,261	800,000	-0,116	-0,242
206,275	800,000	-0,104	-0,207
207,290	-109,508	-0,262	-0,038
208,304	153,805	-0,171	-0,163
209,319	136,774	-0,101	-0,092
210,334	-81,466	-0,255	-0,058
211,348	-200,000	-0,072	-0,243
212,363	800,000	-0,069	-0,147
213,377	98,556	-0,123	-0,098
214,392	180,354	-0,167	-0,170
215,407	800,000	-0,057	-0,114
216,421	281,896	-0,243	-0,302
217,436	36,669	-0,264	-0,161
218,450	162,937	-0,212	-0,206
219,465	281,313	-0,241	-0,299
220,480	69,517	-0,203	-0,144
221,494	214,398	-0,089	-0,098
222,509	-90,181	-0,247	-0,049
223,523	-125,392	-0,195	-0,020
224,538	153,958	-0,119	-0,113
225,553	32,992	-0,190	-0,114
226,567	518,002	-0,166	-0,269
227,582	217,950	-0,177	-0,196
228,596	800,000	-0,115	-0,237
229,611	167,565	-0,148	-0,146
230,626	668,237	-0,106	-0,190
231,640	5,533	-0,209	-0,106
232,655	-88,714	-0,265	-0,054
233,669	-63,003	-0,142	-0,040
234,684	800,000	-0,160	-0,321
235,699	-200,000	0,014	-0,183
236,713	426,682	-0,049	-0,073
237,728	149,816	-0,128	-0,120
238,742	95,925	-0,108	-0,085
239,757	53,859	-0,216	-0,143
240,772	582,872	-0,061	-0,104
241,786	-200,000	-0,056	-0,203
242,801	-22,703	-0,313	-0,130
243,815	33,206	-0,323	-0,193
244,830	420,917	-0,112	-0,166
245,844	-12,000	-0,244	-0,110
246,859	12,484	-0,292	-0,155
247,874	16,119	-0,226	-0,123
248,888	-8,460	-0,224	-0,103
249,903	-200,000	-0,025	-0,117
250,917	-200,000	-0,050	-0,156
251,932	-71,376	-0,167	0,043
252,947	145,951	-0,148	-0,137
253,961	119,047	-0,146	-0,125
254,976	279,823	-0,195	-0,241
255,990	800,000	-0,072	-0,164
257,005	-151,119	-0,285	0,015
258,020	490,925	-0,074	-0,117
259,034	-200,000	-0,060	-0,196
260,049	169,480	-0,204	-0,201
261,063	215,591	-0,226	-0,248
262,078	427,259	-0,141	-0,210
263,093	244,642	-0,166	-0,193
264,107	-103,846	-0,122	-0,019
265,122	-12,620	-0,196	-0,088
266,136	250,850	-0,166	-0,195
267,151	-200,000	-0,014	-0,138
268,166	-11,857	-0,112	-0,050
269,180	23,782	-0,145	-0,082
270,195	51,395	-0,228	-0,149
271,209	160,694	-0,109	-0,105
272,224	31,209	-0,219	-0,129
273,239	159,521	-0,137	-0,131
274,253	232,526	-0,098	-0,111
275,268	619,793	-0,153	-0,265
276,282	200,690	-0,207	-0,219
277,297	18,036	-0,208	-0,114
278,312	416,977	-0,160	-0,236
279,326	94,890	-0,140	-0,110
280,341	-75,665	-0,253	-0,061
281,355	-116,345	-0,099	0,012
282,370	-200,000	-0,010	-0,087
283,384	361,084	-0,183	-0,254
284,399	541,896	-0,112	-0,184
285,414	-40,355	-0,112	-0,040
286,428	246,162	-0,183	-0,212
287,443	-68,331	-0,102	-0,027
288,457	800,000	-0,058	-0,170
289,472	200,540	-0,188	-0,199
290,487	317,681	-0,163	-0,212
291,501	800,000	-0,077	-0,155
292,516	259,191	-0,121	-0,144
293,530	-200,000	0,011	-0,112
294,545	-200,000	-0,030	-0,139
295,560	-200,000	0,033	-0,128
296,574	469,764	-0,126	-0,196
297,589	140,944	-0,217	-0,197
298,603	258,621	-0,141	-0,167
299,618	4,169	-0,129	-0,065
300,633	800,000	-0,101	-0,252
301,647	-200,000	-0,025	-0,112
302,662	91,597	-0,227	-0,175
303,676	-103,687	-0,271	-0,043
304,691	128,998	-0,206	-0,181
305,706	251,616	-0,203	-0,238
306,720	476,521	-0,155	-0,241
307,735	-37,548	-0,274	0,100
308,749	442,784	-0,099	-0,149
309,764	457,582	-0,053	-0,081
310,779	42,395	-0,124	-0,077
311,793	196,313	-0,087	-0,091
312,808	676,043	-0,101	-0,181
313,822	-119,348	-0,239	-0,028
314,837	800,000	-0,043	-0,096
315,852	800,000	-0,028	-0,079
316,866	-123,468	-0,092	-0,010
317,881	18,313	-0,163	0,089
318,895	286,735	-0,126	-0,157
319,910	13,040	-0,119	-0,063
320,925	-21,120	-0,133	-0,056
321,939	630,750	-0,045	-0,078
322,954	-200,000	-0,008	-0,044
323,968	-115,621	-0,103	-0,013
324,983	800,000	-0,024	-0,055
325,997	36,668	-0,248	-0,150
327,012	190,110	-0,124	-0,128
328,027	338,076	-0,144	-0,193
329,041	-1,649	-0,247	-0,119
330,056	138,473	-0,115	-0,103
331,070	-200,000	-0,050	-0,167
332,085	9,734	-0,135	-0,070
333,100	-166,643	-0,148	0,004
334,114	8,174	-0,031	-0,016
335,129	173,419	-0,161	-0,159
336,143	-70,930	-0,102	-0,026
337,158	275,082	-0,157	-0,191
338,173	122,745	-0,094	0,080
339,187	-76,446	-0,040	-0,010
340,202	-119,692	-0,222	-0,026
341,216	-33,933	-0,163	-0,061
342,231	14,600	-0,183	-0,097
343,246	-75,372	-0,109	0,026
344,260	800,000	-0,072	-0,178
345,275	800,000	-0,047	-0,110
346,289	256,005	-0,123	-0,145
347,304	-20,071	-0,180	-0,076
348,319	-18,056	-0,186	-0,079
349,333	67,878	-0,134	-0,094
350,348	168,729	-0,137	-0,134
351,362	132,260	-0,102	-0,090
352,377	-91,750	0,062	0,012
353,392	137,346	-0,060	-0,053
354,406	-138,218	-0,173	0,013
355,421	207,827	1310,687	1400,820
356,435	159,888	1470,891	1401,285
