DTS Sentinel unit serial number:	SN410029Multiplexer serial number:	ORYXHardware model number:	OX2-SRSoftware version number:	ORYX F/W v4,00 Oryx Data Collector v3.7.2.0data status	okinstallation	B3 Nyhavnadifferential loss correction	single-endedforward channel	channel 1reverse channel	N/Adate	2023/12/02time	05:52:30forward acquisition time	300,00reverse acquisition time	0,00gamma	499,1914k internal	0,3194k external	0,3194temperature offset calibration	1,0000default loss term (dB/km)	0,3820temperature slope calibration	1,0000multiplexer offset coefficient	1,0000multiplexer slope coefficient	1,0000fibre end	0,00T internal ref (°C)	16,14T ext. ref 1 (°C)	0,91T ext. ref 2 (°C)	0,89length (m)	temperature (°C)	Stokes	anti-Stokes-744,400	225,321	-0,174	-0,206
-743,385	-200,000	-0,007	0,156
-742,371	15,049	-0,174	-0,099
-741,356	-200,000	-0,030	0,252
-740,342	800,000	-0,125	-0,299
-739,327	-200,000	0,077	0,469
-738,312	302,458	-0,198	-0,267
-737,298	-200,000	0,033	0,214
-736,283	176,597	-0,255	-0,270
-735,269	-200,000	-0,001	0,275
-734,254	-25,129	-0,359	-0,155
-733,239	542,918	-0,107	0,187
-732,225	197,637	-0,152	-0,169
-731,210	-200,000	0,042	0,137
-730,196	-29,083	-0,079	0,033
-729,181	800,000	-0,047	0,133
-728,167	-115,653	0,103	0,014
-727,152	53,064	-0,083	0,058
-726,137	-115,755	-0,102	-0,014
-725,123	133,117	-0,092	0,087
-724,108	209,844	-0,087	-0,100
-723,094	-76,567	-0,101	-0,026
-722,079	800,000	-0,045	-0,093
-721,064	800,000	-0,085	-0,202
-720,050	-200,000	0,012	0,074
-719,035	-52,170	0,136	0,046
-718,021	-36,617	0,080	-0,031
-717,006	800,000	0,040	0,094
-715,991	-200,000	-0,081	-0,263
-714,977	-25,272	-0,095	-0,041
-713,962	-200,000	-0,016	-0,147
-712,948	-118,764	0,206	0,026
-711,933	-200,000	-0,002	-0,016
-710,918	800,000	-0,023	0,055
-709,904	-44,452	-0,125	-0,045
-708,889	342,472	-0,042	-0,059
-707,875	-200,000	-0,043	-0,152
-706,860	-110,782	0,122	0,018
-705,845	-200,000	0,019	-0,073
-704,831	189,088	0,057	0,062
-703,816	-4,399	-0,011	0,006
-702,802	305,169	0,040	-0,055
-701,787	445,996	-0,038	-0,061
-700,772	-23,177	0,012	-0,005
-699,758	261,677	-0,110	-0,140
-698,743	180,032	0,153	0,163
-697,729	607,425	-0,063	0,116
-696,714	106,442	0,124	0,107
-695,699	213,376	-0,088	0,101
-694,685	800,000	0,052	-0,119
-693,670	464,472	0,039	-0,063
-692,656	648,551	0,095	-0,178
-691,641	750,641	-0,044	0,087
-690,627	744,845	0,084	0,165
-689,612	-114,738	-0,116	0,016
-688,597	-6,658	0,084	-0,041
-687,583	91,234	-0,073	-0,060
-686,568	-46,721	-0,167	-0,059
-685,554	494,616	-0,045	-0,076
-684,539	139,440	0,053	-0,051
-683,524	425,444	-0,080	-0,126
-682,510	-68,777	-0,107	0,030
-681,495	-200,000	-0,013	-0,126
-680,481	-43,378	0,064	-0,023
-679,466	766,698	-0,066	-0,131
-678,451	38,108	0,064	-0,041
-677,437	130,005	0,036	0,034
-676,422	-200,000	-0,013	0,094
-675,408	206,882	0,057	0,065
-674,393	-200,000	-0,024	-0,082
-673,378	22,194	-0,093	-0,055
-672,364	316,961	0,023	0,031
-671,349	314,639	-0,042	-0,058
-670,335	-200,000	0,035	0,163
-669,320	-200,000	-0,015	0,060
-668,305	21,389	-0,027	0,016
-667,291	-99,495	-0,047	0,008
-666,276	166,924	-0,055	-0,056
-665,262	-200,000	0,005	-0,126
-664,247	-200,000	-0,035	0,147
-663,232	197,589	0,058	0,064
-662,218	800,000	-0,035	0,076
-661,203	-200,000	0,035	0,140
-660,189	235,031	-0,063	-0,076
-659,174	204,549	-0,043	-0,049
-658,159	49,964	-0,129	-0,088
-657,145	5,067	0,048	-0,026
-656,130	-97,696	-0,013	-0,002
-655,116	-200,000	0,010	0,043
-654,101	5,092	0,111	0,059
-653,086	-200,000	-0,011	-0,063
-652,072	-153,361	-0,167	-0,008
-651,057	800,000	0,026	-0,064
-650,043	-200,000	0,001	-0,050
-649,028	-16,602	0,144	0,066
-648,014	211,746	0,091	0,104
-646,999	60,265	-0,078	-0,056
-645,984	14,363	-0,076	0,043
-644,970	800,000	0,069	-0,154
-643,955	-200,000	-0,059	-0,240
-642,941	-34,463	-0,098	0,039
-641,926	-200,000	-0,001	0,012
-640,911	111,861	-0,037	-0,033
-639,897	54,044	0,108	0,075
-638,882	-200,000	-0,056	0,217
-637,868	335,392	0,020	-0,029
-636,853	91,069	-0,078	-0,064
-635,838	800,000	0,022	-0,066
-634,824	32,065	0,041	0,025
-633,809	442,279	-0,042	0,067
-632,795	-118,581	0,012	0,002
-631,780	137,927	0,046	-0,044
-630,765	-200,000	0,007	0,056
-629,751	-200,000	-0,009	-0,044
-628,736	52,321	-0,110	0,076
-627,722	497,472	0,065	-0,109
-626,707	-200,000	-0,032	-0,105
-625,692	-200,000	-0,017	0,077
-624,678	-200,000	-0,015	-0,140
-623,663	-162,479	0,149	-0,005
-622,649	-147,403	0,173	-0,010
-621,634	-68,180	-0,063	0,018
-620,619	-142,662	0,113	-0,008
-619,605	453,684	0,078	-0,126
-618,590	-200,000	0,014	-0,120
-617,576	800,000	-0,040	0,119
-616,561	-200,000	-0,014	0,190
-615,546	384,813	-0,013	-0,019
-614,532	493,457	-0,067	-0,113
-613,517	99,695	-0,025	-0,021
-612,503	255,210	-0,084	-0,105
-611,488	145,805	0,044	0,043
-610,474	-10,495	0,044	0,021
-609,459	-85,530	0,090	-0,020
-608,444	-29,201	-0,075	-0,031
-607,430	55,470	-0,109	-0,076
-606,415	800,000	-0,022	0,050
-605,401	-20,721	0,088	-0,039
-604,386	-200,000	-0,008	-0,036
-603,371	110,433	-0,125	-0,109
-602,357	670,789	-0,032	0,060
-601,342	-191,261	-0,070	-0,001
-600,328	-26,082	0,018	-0,008
-599,313	-200,000	-0,035	-0,139
-598,298	-58,287	-0,047	0,015
-597,284	800,000	-0,040	0,114
-596,269	-200,000	-0,026	-0,166
-595,255	-200,000	-0,012	0,143
-594,240	-200,000	-0,015	-0,057
-593,225	16,423	0,077	0,044
-592,211	-200,000	-0,009	0,045
-591,196	-200,000	-0,005	-0,051
-590,182	-200,000	-0,001	0,043
-589,167	-200,000	0,003	0,025
-588,152	-200,000	0,040	0,137
-587,138	52,465	-0,124	-0,085
-586,123	800,000	0,005	0,013
-585,109	-200,000	0,001	-0,094
-584,094	800,000	0,025	-0,073
-583,079	167,275	0,022	-0,023
-582,065	38,241	-0,027	0,017
-581,050	-12,495	-0,063	0,030
-580,036	556,305	0,055	0,096
-579,021	800,000	-0,037	-0,111
-578,006	235,304	-0,052	-0,062
-576,992	-200,000	0,004	-0,033
-575,977	-72,265	0,128	-0,034
-574,963	-188,509	-0,008	0,000
-573,948	224,992	-0,039	0,046
-572,934	143,119	-0,066	0,063
-571,919	65,804	0,108	0,079
-570,904	6,288	-0,094	-0,050
-569,890	268,722	-0,081	0,103
-568,875	-200,000	0,001	0,010
-567,861	800,000	0,053	0,117
-566,846	109,098	-0,082	0,071
-565,831	800,000	0,023	0,059
-564,817	-200,000	-0,005	-0,044
-563,802	173,658	-0,129	-0,135
-562,788	382,055	0,080	-0,119
-561,773	378,432	-0,015	0,022
-560,758	-57,810	0,160	0,050
-559,744	-200,000	-0,003	0,047
-558,729	259,086	0,065	0,082
-557,715	28,535	-0,072	0,044
-556,700	-200,000	-0,027	-0,111
-555,685	800,000	-0,018	-0,048
-554,671	-200,000	0,020	0,099
-553,656	-200,000	-0,000	0,064
-552,642	-200,000	0,006	0,114
-551,627	-200,000	-0,004	0,016
-550,612	-200,000	-0,008	0,085
-549,598	-70,769	-0,132	0,036
-548,583	135,117	-0,076	-0,071
-547,569	475,274	0,048	0,079
-546,554	-200,000	-0,031	-0,150
-545,539	-173,727	0,087	0,002
-544,525	659,465	0,026	0,049
-543,510	800,000	-0,059	-0,149
-542,496	-200,000	-0,174	-0,000
-541,481	122,999	0,023	-0,021
-540,466	800,000	-0,063	-0,195
-539,452	800,000	0,028	0,069
-538,437	-117,308	0,045	-0,006
-537,423	800,000	-0,040	0,111
-536,408	183,256	-0,117	0,125
-535,393	146,516	0,058	-0,057
-534,379	-151,943	-0,128	0,007
-533,364	-147,110	-0,062	-0,004
-532,350	-24,815	-0,127	0,054
-531,335	-200,000	0,027	0,102
-530,321	-160,269	-0,109	-0,004
-529,306	-200,000	0,018	0,060
-528,291	800,000	0,021	0,065
-527,277	-200,000	-0,042	-0,142
-526,262	-23,347	-0,027	-0,012
-525,248	800,000	0,016	-0,039
-524,233	-90,648	0,069	0,014
-523,218	-23,361	0,051	-0,022
-522,204	-72,880	-0,152	0,040
-521,189	510,747	0,040	-0,068
-520,175	-15,373	-0,092	-0,042
-519,160	-21,277	0,033	0,015
-518,145	100,576	0,095	0,080
-517,131	140,537	0,133	0,127
-516,116	800,000	-0,032	0,101
-515,102	800,000	-0,004	0,007
-514,087	-146,456	-0,059	-0,004
-513,072	-200,000	-0,036	-0,159
-512,058	-187,944	-0,040	0,000
-511,043	425,852	-0,011	0,018
-510,029	-132,247	0,046	0,004
-509,014	800,000	-0,012	0,035
-507,999	80,785	0,040	0,031
-506,985	-125,422	0,139	0,015
-505,970	275,084	-0,046	-0,058
-504,956	-200,000	0,031	0,103
-503,941	26,904	-0,129	-0,078
-502,926	800,000	-0,029	0,064
-501,912	734,851	-0,058	0,112
-500,897	162,514	-0,105	0,107
-499,883	448,721	-0,055	0,088
-498,868	390,508	-0,043	0,065
-497,853	460,681	0,052	-0,084
-496,839	-33,649	0,072	0,029
-495,824	341,649	-0,024	-0,034
-494,810	96,307	0,048	-0,040
-493,795	225,200	-0,069	-0,081
-492,781	-71,644	-0,103	-0,028
-491,766	-28,407	0,056	0,023
-490,751	800,000	-0,086	-0,214
-489,737	81,650	-0,075	0,058
-488,722	800,000	0,025	0,059
-487,708	-200,000	0,008	0,139
-486,693	-200,000	-0,014	-0,104
-485,678	-126,393	-0,093	0,010
-484,664	-38,577	-0,090	0,034
-483,649	-22,307	-0,101	0,044
-482,635	-200,000	-0,002	-0,123
-481,620	-74,936	0,234	-0,060
-480,605	-200,000	-0,019	0,062
-479,591	719,738	0,022	0,042
-478,576	-200,000	0,014	0,061
-477,562	629,591	-0,030	0,055
-476,547	12,762	-0,054	0,030
-475,532	257,615	0,026	0,032
-474,518	-200,000	-0,015	-0,061
-473,503	-100,655	0,054	0,009
-472,489	800,000	0,028	-0,061
-471,474	-200,000	-0,009	0,059
-470,459	-200,000	0,028	-0,115
-469,445	-200,000	0,026	-0,104
-468,430	-200,000	0,017	-0,097
-467,416	216,940	0,107	0,123
-466,401	494,295	0,124	0,206
-465,386	-139,909	0,097	0,007
-464,372	112,311	-0,072	0,063
-463,357	-200,000	0,043	-0,139
-462,343	-200,000	0,016	-0,174
-461,328	-200,000	-0,026	0,136
-460,313	-200,000	-0,011	0,115
-459,299	119,126	0,089	-0,079
-458,284	800,000	-0,048	0,097
-457,270	-200,000	-0,012	0,081
-456,255	-200,000	-0,006	0,075
-455,241	-200,000	-0,025	-0,166
-454,226	800,000	0,041	0,089
-453,211	-200,000	0,015	0,060
-452,197	458,571	0,104	-0,167
-451,182	-71,173	0,072	-0,019
-450,168	-200,000	-0,038	0,138
-449,153	-82,576	-0,109	-0,025
-448,138	800,000	-0,015	-0,032
-447,124	40,655	-0,059	-0,038
-446,109	-124,228	0,078	-0,009
-445,095	315,114	-0,069	-0,094
-444,080	0,399	0,133	-0,068
-443,065	397,280	0,046	0,070
-442,051	-30,644	-0,100	-0,041
-441,036	-200,000	0,007	-0,036
-440,022	2,474	-0,055	-0,029
-439,007	28,149	0,053	0,032
-437,992	-200,000	0,004	0,119
-436,978	-200,000	0,008	0,088
-435,963	-200,000	0,029	0,147
-434,949	-200,000	-0,005	-0,031
-433,934	-200,000	0,023	-0,083
-432,919	178,367	-0,033	-0,035
-431,905	-6,610	0,111	0,054
-430,890	29,067	0,138	-0,084
-429,876	-67,187	-0,134	0,038
-428,861	-200,000	0,014	-0,096
-427,846	800,000	-0,008	0,020
-426,832	800,000	0,046	0,146
-425,817	61,661	-0,131	-0,093
-424,803	-147,616	-0,103	-0,006
-423,788	-200,000	0,026	-0,131
-422,773	196,510	0,017	0,019
-421,759	-98,205	0,060	-0,011
-420,744	800,000	-0,073	0,147
-419,730	800,000	-0,050	-0,121
-418,715	29,822	-0,155	-0,095
-417,701	72,078	-0,032	-0,024
-416,686	-200,000	-0,001	0,081
-415,671	800,000	0,055	0,132
-414,657	-60,217	0,043	0,013
-413,642	-200,000	0,034	0,138
-412,628	800,000	-0,049	0,100
-411,613	467,782	-0,016	-0,026
-410,598	-200,000	0,015	0,092
-409,584	651,426	-0,018	0,033
-408,569	-200,000	-0,005	-0,057
-407,555	-173,618	-0,046	0,001
-406,540	-71,359	0,086	-0,023
-405,525	146,592	0,109	-0,105
-404,511	800,000	-0,039	0,097
-403,496	62,463	-0,050	-0,036
-402,482	386,729	-0,006	-0,009
-401,467	-162,648	0,131	0,005
-400,452	650,387	0,029	0,054
-399,438	-200,000	-0,005	-0,051
-398,423	800,000	0,052	0,152
-397,409	-200,000	0,016	0,103
-396,394	800,000	0,027	0,070
-395,379	-200,000	-0,050	-0,200
-394,365	3,209	0,106	0,055
-393,350	383,821	0,071	0,106
-392,336	-200,000	0,015	-0,068
-391,321	800,000	-0,042	0,113
-390,306	176,451	-0,024	-0,025
-389,292	-135,649	-0,073	-0,006
-388,277	57,907	0,048	-0,034
-387,263	-200,000	0,019	-0,168
-386,248	21,827	-0,054	-0,031
-385,233	465,600	-0,035	0,056
-384,219	-200,000	0,012	-0,066
-383,204	110,825	-0,132	0,114
-382,190	-200,000	-0,017	-0,080
-381,175	-40,782	0,080	0,029
-380,160	107,211	-0,111	0,095
-379,146	-200,000	0,015	0,060
-378,131	-17,779	0,169	-0,076
-377,117	-200,000	0,021	0,101
-376,102	-120,406	-0,145	-0,018
-375,088	-47,616	-0,057	-0,020
-374,073	-164,833	0,073	0,002
-373,058	-200,000	0,018	0,086
-372,044	-200,000	-0,021	-0,224
-371,029	34,381	-0,096	-0,060
-370,015	-200,000	0,096	0,000
-369,000	-200,000	0,027	-0,114
-367,985	800,000	0,019	-0,057
-366,971	-56,219	0,026	-0,008
-365,956	-113,708	-0,060	0,008
-364,942	-200,000	0,034	0,119
-363,927	-132,190	0,126	0,012
-362,912	-95,296	-0,055	0,011
-361,898	-7,642	0,054	-0,026
-360,883	173,121	0,053	0,055
-359,869	549,215	-0,045	-0,077
-358,854	-16,653	0,142	0,064
-357,839	238,364	0,095	0,113
-356,825	-200,000	0,022	0,161
-355,810	-51,021	0,119	0,040
-354,796	-36,369	-0,107	0,041
-353,781	397,493	0,039	0,058
-352,766	-158,425	0,090	-0,004
-351,752	673,889	0,060	0,112
-350,737	-29,148	0,034	-0,014
-349,723	105,425	0,044	-0,037
-348,708	500,858	-0,012	-0,020
-347,693	196,929	-0,098	-0,108
-346,679	425,164	-0,049	0,076
-345,664	-50,435	0,096	-0,032
-344,650	415,311	-0,096	-0,147
-343,635	-39,798	-0,078	-0,029
-342,620	-1,104	0,063	0,032
-341,606	784,292	0,053	0,104
-340,591	-44,387	-0,168	0,060
-339,577	83,949	-0,032	-0,025
-338,562	-116,275	-0,162	-0,021
-337,548	-90,631	0,135	-0,028
-336,533	-200,000	-0,008	0,065
-335,518	-3,292	-0,091	-0,045
-334,504	800,000	0,026	0,072
-333,489	800,000	0,013	0,034
-332,475	800,000	0,062	-0,124
-331,460	382,626	-0,122	-0,181
-330,445	20,099	-0,044	0,025
-329,431	-36,896	0,023	0,009
-328,416	11,527	0,110	-0,060
-327,402	-6,203	0,076	0,037
-326,387	-200,000	-0,002	0,025
-325,372	-200,000	-0,006	0,035
-324,358	800,000	0,038	0,093
-323,343	3,490	-0,151	-0,079
-322,329	-4,227	0,115	0,057
-321,314	229,687	0,007	0,008
-320,299	-44,865	0,061	-0,022
-319,285	309,779	-0,030	0,040
-318,270	519,179	-0,033	-0,056
-317,256	107,301	-0,042	-0,035
-316,241	449,052	0,026	0,042
-315,226	-70,764	-0,065	-0,018
-314,212	118,161	0,076	-0,067
-313,197	-62,355	-0,041	0,012
-312,183	562,950	-0,055	-0,096
-311,168	-200,000	0,024	-0,122
-310,153	166,910	-0,051	-0,052
-309,139	16,442	-0,105	-0,059
-308,124	800,000	-0,020	-0,047
-307,110	122,947	-0,083	0,075
-306,095	87,805	-0,069	0,055
-305,080	535,197	-0,026	0,045
-304,066	129,251	-0,092	0,084
-303,051	507,341	0,076	-0,126
-302,037	175,199	0,016	0,016
-301,022	46,164	-0,051	-0,034
-300,008	800,000	0,056	0,112
-298,993	-68,457	0,079	-0,022
-297,978	439,129	0,069	0,108
-296,964	52,366	-0,062	-0,042
-295,949	79,124	-0,054	-0,041
-294,935	247,660	-0,085	0,103
-293,920	-4,824	-0,120	-0,059
-292,905	-29,563	0,135	0,055
-291,891	-200,000	-0,003	-0,048
-290,876	-1,727	-0,122	-0,061
-289,862	75,928	-0,025	-0,019
-288,847	130,459	-0,071	0,065
-287,832	-200,000	0,002	-0,056
-286,818	91,547	0,131	-0,106
-285,803	-59,259	0,105	0,032
-284,789	-122,416	-0,071	-0,008
-283,774	-89,496	-0,076	-0,016
-282,759	-127,251	-0,093	0,010
-281,745	800,000	-0,026	0,054
-280,730	-9,120	-0,116	-0,055
-279,716	-84,691	0,092	0,021
-278,701	-61,110	0,082	0,025
-277,686	176,516	-0,058	-0,061
-276,672	-52,816	0,117	-0,038
-275,657	-200,000	-0,006	0,043
-274,643	120,030	-0,030	-0,026
-273,628	800,000	0,026	-0,079
-272,613	406,869	-0,098	-0,149
-271,599	183,573	-0,076	-0,080
-270,584	-200,000	0,020	0,099
-269,570	628,309	0,053	-0,097
-268,555	589,610	0,025	-0,045
-267,540	125,151	-0,016	-0,015
-266,526	800,000	-0,025	0,053
-265,511	-200,000	0,001	0,084
-264,497	-19,593	0,109	0,048
-263,482	63,029	0,174	0,124
-262,467	244,568	-0,051	0,062
-261,453	800,000	-0,018	0,052
-260,438	-200,000	0,000	-0,060
-259,424	-200,000	-0,028	-0,157
-258,409	800,000	-0,014	-0,036
-257,395	278,494	0,043	0,056
-256,380	-11,888	0,069	0,032
-255,365	-200,000	0,017	0,196
-254,351	638,283	0,071	0,130
-253,336	-130,655	-0,103	-0,010
-252,322	74,797	-0,084	-0,063
-251,307	800,000	0,059	-0,125
-250,292	206,898	-0,110	-0,123
-249,278	59,134	0,101	0,071
-248,263	411,628	0,074	0,113
-247,249	800,000	-0,013	-0,029
-246,234	-110,190	0,060	0,009
-245,219	-200,000	-0,025	-0,126
-244,205	-200,000	0,013	-0,110
-243,190	593,732	0,019	-0,033
-242,176	-200,000	-0,021	-0,070
-241,161	-161,022	-0,085	-0,003
-240,146	-200,000	-0,014	0,140
-239,132	-200,000	0,002	0,035
-238,117	281,173	-0,051	-0,065
-237,103	80,386	-0,083	-0,064
-236,088	144,145	-0,039	-0,038
-235,073	168,854	0,113	-0,115
-234,059	-200,000	-0,007	0,036
-233,044	129,049	-0,055	-0,050
-232,030	-200,000	0,009	0,078
-231,015	-200,000	0,021	-0,143
-230,000	-120,221	0,054	0,007
-228,986	-13,303	0,107	0,049
-227,971	-34,265	0,021	0,008
-226,957	-156,472	-0,096	0,004
-225,942	185,368	0,103	-0,110
-224,927	338,185	-0,044	-0,061
-223,913	380,858	0,056	-0,083
-222,898	-63,582	-0,043	0,013
-221,884	800,000	0,028	-0,083
-220,869	64,225	0,038	0,027
-219,855	800,000	0,067	0,143
-218,840	800,000	-0,040	0,117
-217,825	-200,000	-0,029	0,123
-216,811	99,109	-0,030	0,025
-215,796	68,206	0,094	-0,068
-214,782	-109,530	-0,104	0,015
-213,767	750,853	0,006	-0,011
-212,752	-64,539	-0,059	-0,017
-211,738	271,690	0,074	0,093
-210,723	-200,000	-0,037	-0,153
-209,709	-200,000	0,008	-0,039
-208,694	327,631	0,039	-0,053
-207,679	328,160	0,041	0,056
-206,665	81,316	0,038	-0,029
-205,650	800,000	-0,003	-0,008
-204,636	-76,007	-0,017	0,004
-203,621	63,834	0,104	0,075
-202,606	-200,000	-0,007	-0,042
-201,592	75,876	-0,107	-0,081
-200,577	-160,527	-0,069	0,003
-199,563	556,510	-0,052	0,090
-198,548	158,451	0,040	0,040
-197,533	-200,000	0,012	0,075
-196,519	-160,584	-0,032	-0,001
-195,504	-162,731	0,162	0,006
-194,490	-75,044	0,075	0,019
-193,475	-200,000	-0,002	-0,065
-192,460	-200,000	-0,003	0,143
-191,446	293,992	0,040	0,052
-190,431	800,000	-0,024	0,057
-189,417	-41,156	0,056	0,021
-188,402	77,482	-0,007	-0,005
-187,387	91,968	-0,074	-0,060
-186,373	77,592	0,134	-0,102
-185,358	-87,896	0,008	-0,002
-184,344	800,000	0,062	-0,131
-183,329	800,000	0,005	-0,013
-182,315	800,000	-0,013	0,042
-181,300	-22,660	-0,059	-0,025
-180,285	-111,060	-0,110	-0,016
-179,271	-115,066	-0,051	-0,007
-178,256	-86,954	0,150	0,032
-177,242	-183,267	0,127	0,002
-176,227	417,009	0,114	-0,174
-175,212	105,082	0,090	0,076
-174,198	800,000	-0,044	0,106
-173,183	-118,195	-0,065	-0,008
-172,169	317,016	0,088	-0,119
-171,154	54,785	0,075	0,052
-170,139	684,044	0,074	0,139
-169,125	348,699	0,077	0,109
-168,110	-125,351	0,115	0,012
-167,096	122,842	0,077	0,069
-166,081	684,513	-0,016	-0,030
-165,066	361,187	-0,058	-0,082
-164,052	-153,874	-0,088	-0,004
-163,037	800,000	0,044	-0,093
-162,023	800,000	0,091	-0,192
-161,008	129,873	0,088	0,080
-159,993	-12,590	0,106	0,049
-158,979	800,000	-0,031	0,091
-157,964	122,067	-0,057	-0,051
-156,950	303,342	-0,038	0,050
-155,935	499,113	-0,110	-0,181
-154,920	-85,040	0,012	0,003
-153,906	92,119	-0,027	0,022
-152,891	150,138	0,009	-0,009
-151,877	165,110	-0,038	-0,038
-150,862	37,296	-0,092	-0,058
-149,847	71,121	0,087	-0,064
-148,833	-113,958	-0,045	-0,006
-147,818	-62,397	-0,076	0,022
-146,804	-200,000	0,041	0,169
-145,789	-117,599	0,080	-0,010
-144,775	59,590	-0,052	0,037
-143,760	-200,000	-0,009	-0,060
-142,745	-200,000	0,011	0,034
-141,731	-148,021	-0,115	-0,007
-140,716	-200,000	0,005	0,159
-139,702	-200,000	0,038	0,122
-138,687	-200,000	0,006	0,081
-137,672	-200,000	0,018	-0,065
-136,658	-44,208	0,052	0,019
-135,643	260,116	-0,083	-0,103
-134,629	617,797	0,010	-0,018
-133,614	-200,000	-0,007	-0,174
-132,599	54,991	0,086	0,059
-131,585	-1,813	-0,108	0,054
-130,570	-200,000	-0,014	-0,047
-129,556	-86,087	-0,175	-0,038
-128,541	-200,000	-0,027	-0,107
-127,526	800,000	-0,022	-0,049
-126,512	211,784	-0,010	-0,011
-125,497	77,793	0,076	-0,057
-124,483	-72,164	0,085	0,022
-123,468	78,743	0,031	0,024
-122,453	107,012	0,068	0,057
-121,439	-200,000	0,002	-0,117
-120,424	610,712	-0,021	-0,037
-119,410	30,082	0,047	0,029
-118,395	518,057	-0,120	0,201
-117,380	342,039	-0,098	-0,137
-116,366	-82,616	-0,135	0,031
-115,351	-21,008	-0,064	-0,028
-114,337	800,000	-0,096	-0,231
-113,322	-12,655	0,069	-0,032
-112,307	202,588	0,029	0,032
-111,293	457,106	-0,065	-0,103
-110,278	9,990	-0,090	0,049
-109,264	800,000	0,009	-0,027
-108,249	42,485	-0,066	0,043
-107,234	-101,785	-0,190	-0,032
-106,220	-200,000	-0,002	-0,089
-105,205	51,184	0,207	-0,139
-104,191	178,653	0,078	0,081
-103,176	552,422	-0,060	0,103
-102,162	322,677	-0,041	0,056
-101,147	800,000	-0,015	0,039
-100,132	800,000	0,041	-0,127
-99,118	102,960	-0,107	0,089
-98,103	-124,541	0,058	-0,006
-97,089	-200,000	0,007	0,029
-96,074	800,000	0,053	0,115
-95,059	-200,000	-0,012	0,119
-94,045	203,061	-0,208	0,228
-93,030	29,378	-0,061	-0,037
-92,016	800,000	0,035	-0,080
-91,001	36,942	-0,065	0,041
-89,986	63,993	0,101	0,072
-88,972	333,885	0,153	0,211
-87,957	471,067	0,011	-0,017
-86,943	-200,000	-0,065	0,000
-85,928	-200,000	-0,052	-0,000
-84,913	-200,000	-0,003	0,060
-83,899	119,974	-0,063	-0,056
-82,884	-108,559	0,099	0,015
-81,870	-200,000	-0,004	0,091
-80,855	-200,000	-0,022	0,103
-79,840	-200,000	0,013	0,057
-78,826	155,855	0,112	-0,110
-77,811	-106,666	-0,098	0,015
-76,797	-52,980	-0,083	0,027
-75,782	-200,000	-0,003	0,069
-74,767	628,275	-0,053	0,096
-73,753	180,294	0,111	0,116
-72,738	41,299	-0,066	-0,042
-71,724	-15,176	0,127	-0,058
-70,709	-200,000	0,017	-0,055
-69,694	-200,000	-0,026	-0,099
-68,680	152,650	-0,013	0,013
-67,665	24,384	-0,061	-0,036
-66,651	18,167	-0,100	0,057
-65,636	-128,351	-0,081	0,008
-64,622	-200,000	-0,012	-0,074
-63,607	-143,524	-0,123	-0,008
-62,592	-70,080	-0,137	0,037
-61,578	-200,000	0,017	0,061
-60,563	-177,211	-0,031	-0,001
-59,549	547,355	-0,053	0,090
-58,534	-75,768	-1,457	-0,364
-57,519	354,249	-1,607	-2,272
-56,505	-200,000	-0,504	-4,471
-55,490	102,994	0,893	0,742
-54,476	800,000	4,882	11,184
-53,461	-200,000	17,689	279,506
-52,446	800,000	719,431	2220,034
-51,432	562,989	1633,891	2817,137
-50,417	81,264	1658,183	1269,927
-49,403	23,959	1532,267	894,296
-48,388	17,977	1455,440	820,597
-47,373	18,327	1445,094	816,413
-46,359	18,012	1435,716	809,581
-45,344	16,266	1430,995	798,584
-44,330	16,191	1428,848	796,996
-43,315	16,218	1427,127	796,133
-42,300	16,216	1425,627	795,258
-41,286	16,274	1424,368	794,799
-40,271	16,228	1423,158	793,872
-39,257	16,229	1421,743	793,056
-38,242	16,269	1420,447	792,493
-37,227	16,293	1419,171	791,860
-36,213	16,248	1417,904	790,909
-35,198	16,235	1416,890	790,252
-34,184	16,268	1415,876	789,813
-33,169	16,189	1414,720	788,765
-32,154	16,239	1413,547	788,314
-31,140	16,245	1412,215	787,567
-30,125	16,311	1411,027	787,184
-29,111	16,245	1410,035	786,288
-28,096	16,199	1409,119	785,529
-27,082	16,174	1407,852	784,679
-26,067	16,170	1406,746	784,009
-25,052	16,201	1405,501	783,429
-24,038	16,128	1404,717	782,623
-23,023	16,124	1403,768	782,043
-22,009	16,168	1402,465	781,490
-20,994	16,130	1401,720	780,867
-19,979	16,109	1400,833	780,247
-18,965	16,079	1399,772	779,482
-17,950	16,086	1398,906	779,003
-16,936	16,122	1397,921	778,589
-15,921	16,086	1396,645	777,683
-14,906	16,064	1395,582	776,958
-13,892	16,056	1394,962	776,546
-12,877	16,075	1393,811	775,963
-11,863	16,096	1392,917	775,528
-10,848	16,024	1392,131	774,726
-9,833	16,050	1391,086	774,235
-8,819	16,018	1390,266	773,600
-7,804	15,971	1389,350	772,843
-6,790	15,949	1388,195	772,069
-5,775	15,976	1387,048	771,526
-4,760	15,946	1386,582	771,098
-3,746	15,911	1385,669	770,397
-2,731	15,945	1384,824	770,053
-1,717	15,974	1383,672	769,514
-0,702	15,896	1381,987	768,191
0,313	19,701	1302,804	741,729
1,327	36,063	706,978	440,459
2,342	55,768	125,367	86,030
3,356	5,929	16,553	8,661
4,371	4,924	3,115	1,619
5,386	87,612	0,466	0,366
6,400	800,000	0,057	0,161
7,415	71,430	-0,308	-0,226
8,429	106,922	-0,281	-0,237
9,444	0,510	-0,386	-0,195
10,459	422,121	-0,191	-0,292
11,473	-27,971	-0,282	-0,115
12,488	24,286	-0,251	-0,147
13,502	131,175	-0,235	-0,214
14,517	-3,591	-0,436	-0,214
15,531	-74,699	-0,371	-0,094
16,546	-11,247	-0,372	-0,173
17,561	121,067	-0,301	-0,265
18,575	-87,315	-0,291	-0,062
19,590	213,065	-0,216	-0,241
20,604	-35,894	-0,223	-0,085
21,619	54,310	-0,402	-0,273
22,634	61,526	-0,560	-0,394
23,648	143,772	-0,407	-0,384
24,663	77,179	-0,384	-0,289
25,677	208,489	-0,267	-0,296
26,692	93,489	-0,304	-0,243
27,707	68,209	-0,290	-0,210
28,721	184,144	-0,293	-0,307
29,736	179,212	-0,278	-0,287
30,750	-30,365	-0,504	-0,201
31,765	118,828	-0,302	-0,264
32,780	18,514	-0,246	-0,139
33,794	41,886	-0,286	-0,183
34,809	-18,419	-0,427	-0,188
35,823	24,422	-0,306	-0,178
36,838	173,871	-0,277	-0,283
37,853	272,698	-0,267	-0,334
38,867	26,810	-0,422	-0,250
39,882	31,785	-0,441	-0,267
40,896	147,077	-0,348	-0,331
41,911	105,843	-0,264	-0,221
42,926	-18,686	-0,464	-0,204
43,940	-15,150	-0,542	-0,244
44,955	127,541	-0,441	-0,396
45,969	100,723	-0,396	-0,325
46,984	23,193	-0,393	-0,227
47,999	-14,476	-0,344	-0,156
49,013	173,749	-0,239	-0,244
50,028	95,096	-0,309	-0,249
51,042	124,576	-0,391	-0,347
52,057	155,084	-0,321	-0,312
53,071	278,116	-0,270	-0,340
54,086	33,437	-0,433	-0,265
55,101	532,264	-0,135	-0,226
56,115	95,553	-0,219	-0,176
57,130	72,328	-0,356	-0,261
58,144	71,443	-0,333	-0,244
59,159	165,732	-0,291	-0,291
60,174	138,748	-0,265	-0,245
61,188	182,450	-0,352	-0,366
62,203	-139,892	-0,333	0,024
63,217	-88,108	-0,293	-0,061
64,232	43,553	-0,381	-0,245
65,247	27,647	-0,312	-0,185
66,261	-11,741	-0,414	-0,191
67,276	116,204	-0,253	-0,218
68,290	28,768	-0,313	-0,187
69,305	473,597	-0,198	-0,315
70,320	51,752	-0,299	-0,200
71,334	78,328	-0,393	-0,296
72,349	82,142	-0,327	-0,249
73,363	140,989	-0,245	-0,228
74,378	110,660	-0,354	-0,300
75,393	25,316	-0,281	-0,164
76,407	27,124	-0,245	-0,145
77,422	77,097	-0,282	-0,211
78,436	-25,922	-0,324	-0,134
79,451	-62,006	-0,275	-0,080
80,466	-82,628	-0,374	-0,085
81,480	378,571	-0,191	-0,276
82,495	121,522	-0,291	-0,255
83,509	-34,375	-0,375	-0,144
84,524	-40,371	-0,289	-0,105
85,539	-65,478	-0,308	-0,087
86,553	-25,524	-0,244	-0,101
87,568	266,247	-0,191	-0,235
88,582	93,849	-0,245	-0,195
89,597	47,805	-0,356	-0,234
90,611	19,361	-0,292	-0,165
91,626	30,798	-0,257	-0,155
92,641	-112,535	-0,326	-0,045
93,655	304,991	-0,223	-0,292
94,670	-16,555	-0,361	-0,160
95,684	71,870	-0,320	-0,234
96,699	-133,541	-0,356	-0,031
97,714	213,204	-0,195	-0,217
98,728	93,305	-0,242	-0,192
99,743	54,983	-0,231	-0,156
100,757	-98,236	-0,220	-0,039
101,772	65,150	-0,365	-0,259
102,787	130,795	-0,208	-0,188
103,801	125,562	-0,256	-0,227
104,816	-8,236	-0,360	-0,170
105,830	-28,536	-0,263	-0,106
106,845	26,480	-0,227	-0,133
107,860	136,407	-0,277	-0,254
108,874	5,861	-0,345	-0,179
109,889	122,908	-0,351	-0,309
110,903	131,624	-0,304	-0,274
111,918	25,428	-0,388	-0,226
112,933	-130,799	-0,277	-0,026
113,947	9,767	-0,284	-0,151
114,962	133,273	-0,166	-0,151
115,976	14,507	-0,210	-0,115
116,991	72,201	-0,224	-0,164
118,006	121,213	-0,303	-0,265
119,020	18,725	-0,296	-0,166
120,035	134,976	-0,189	-0,172
121,049	-11,633	-0,263	-0,121
122,064	85,152	-0,181	-0,139
123,079	37,572	-0,287	-0,178
124,093	91,541	-0,267	-0,210
125,108	170,279	-0,179	-0,180
126,122	161,261	-0,257	-0,253
127,137	-99,500	-0,186	-0,032
128,151	1,735	-0,256	-0,129
129,166	72,414	-0,270	-0,197
130,181	127,624	-0,204	-0,182
131,195	51,787	-0,290	-0,193
132,210	722,536	-0,159	-0,299
133,224	281,740	-0,260	-0,328
134,239	-8,865	-0,248	-0,116
135,254	-11,716	-0,191	-0,088
136,268	7,597	-0,187	-0,098
137,283	-31,194	-0,194	-0,076
138,297	-45,046	-0,362	-0,125
139,312	179,742	-0,239	-0,245
140,327	-44,556	-0,355	-0,124
141,341	203,457	-0,145	-0,157
142,356	118,421	-0,319	-0,276
143,370	580,192	-0,138	-0,238
144,385	-63,064	-0,279	-0,080
145,400	-200,000	-0,107	-0,348
146,414	122,434	-0,199	-0,174
147,429	34,815	-0,405	-0,247
148,443	800,000	-0,096	-0,251
149,458	87,793	-0,203	-0,157
150,473	198,869	-0,192	-0,206
151,487	93,321	-0,312	-0,247
152,502	527,060	-0,184	-0,304
153,516	169,019	-0,233	-0,232
154,531	3,371	-0,317	-0,161
155,546	27,687	-0,209	-0,123
156,560	30,475	-0,171	-0,102
157,575	257,259	-0,166	-0,200
158,589	149,154	-0,295	-0,279
159,604	199,368	-0,388	-0,416
160,619	37,992	-0,325	-0,202
161,633	334,776	-0,219	-0,298
162,648	216,321	-0,255	-0,283
163,662	77,053	-0,305	-0,226
164,677	-51,540	-0,238	-0,077
165,692	-120,892	-0,166	-0,019
166,706	-63,762	-0,298	-0,085
167,721	-8,940	-0,317	-0,148
168,735	800,000	-0,133	-0,392
169,750	493,168	-0,175	-0,281
170,764	82,768	-0,208	-0,158
171,779	-58,691	-0,307	-0,092
172,794	47,789	-0,169	-0,110
173,808	43,741	-0,259	-0,165
174,823	-52,807	-0,398	-0,127
175,837	-14,495	-0,141	-0,063
176,852	27,854	-0,253	-0,148
177,867	1,027	-0,217	-0,108
178,881	145,885	-0,198	-0,185
179,896	18,015	-0,179	-0,099
180,910	85,816	-0,268	-0,206
181,925	-16,220	-0,312	-0,138
182,940	-25,126	-0,255	-0,105
183,954	297,998	-0,127	-0,163
184,969	-29,718	-0,202	-0,080
185,983	41,428	-0,157	-0,099
186,998	116,551	-0,263	-0,225
188,013	134,214	-0,305	-0,276
189,027	112,131	-0,344	-0,290
190,042	-1,563	-0,232	-0,114
191,056	142,855	-0,227	-0,210
192,071	126,769	-0,181	-0,160
193,086	800,000	-0,083	-0,168
194,100	-18,659	-0,164	-0,071
195,115	168,645	-0,202	-0,201
196,129	-47,778	-0,322	-0,108
197,144	13,369	-0,237	-0,128
198,159	800,000	-0,098	-0,302
199,173	515,672	-0,176	-0,288
200,188	-120,131	-0,198	-0,023
201,202	-91,021	-0,331	-0,066
202,217	42,659	-0,202	-0,128
203,232	290,162	-0,130	-0,165
204,246	86,888	-0,214	-0,165
205,261	298,161	-0,195	-0,251
206,275	354,113	-0,180	-0,250
207,290	292,267	-0,132	-0,168
208,304	-147,865	-0,173	-0,010
209,319	264,579	-0,185	-0,225
210,334	350,335	-0,147	-0,203
211,348	200,117	-0,191	-0,205
212,363	231,955	-0,171	-0,195
213,377	-53,905	-0,042	-0,013
214,392	167,654	-0,204	-0,202
215,407	238,855	-0,168	-0,195
216,421	800,000	-0,069	-0,169
217,436	91,516	-0,210	-0,164
218,450	442,326	-0,141	-0,215
219,465	74,599	-0,285	-0,208
220,480	81,016	-0,230	-0,173
221,494	-108,621	-0,137	-0,020
222,509	-75,876	-0,120	-0,029
223,523	113,022	-0,162	-0,136
224,538	37,364	-0,244	-0,150
225,553	127,973	-0,177	-0,156
226,567	164,781	-0,182	-0,178
227,582	415,882	-0,115	-0,170
228,596	49,735	-0,219	-0,143
229,611	60,942	-0,093	-0,064
230,626	208,933	-0,177	-0,193
231,640	800,000	-0,099	-0,248
232,655	122,184	-0,246	-0,213
233,669	474,535	-0,140	-0,220
234,684	262,167	-0,141	-0,170
235,699	29,029	-0,254	-0,149
236,713	-25,183	-0,225	-0,092
237,728	244,582	-0,123	-0,143
238,742	-102,409	-0,108	-0,018
239,757	25,568	-0,261	-0,151
240,772	309,737	-0,134	-0,175
241,786	800,000	-0,134	-0,266
242,801	287,105	-0,170	-0,213
243,815	713,202	-0,107	-0,198
244,830	84,631	-0,186	-0,141
245,844	800,000	-0,091	-0,186
246,859	91,089	-0,223	-0,173
247,874	433,604	-0,198	-0,299
248,888	10,415	-0,254	-0,134
249,903	134,218	-0,128	-0,115
250,917	-100,513	-0,225	-0,038
251,932	39,834	0,093	-0,058
252,947	-122,351	-0,310	-0,035
253,961	-63,253	-0,215	-0,061
254,976	85,607	-0,205	-0,156
255,990	85,654	-0,223	-0,170
257,005	11,427	-0,202	-0,107
258,020	-117,316	-0,162	-0,020
259,034	8,467	-0,221	-0,115
260,049	1,746	-0,183	-0,091
261,063	-45,757	-0,143	-0,049
262,078	-31,924	-0,197	-0,076
263,093	54,801	-0,299	-0,199
264,107	800,000	-0,091	-0,195
265,122	611,610	-0,057	-0,099
266,136	155,992	-0,118	-0,113
267,151	182,772	-0,082	-0,084
268,166	109,195	-0,200	-0,166
269,180	245,147	-0,182	-0,212
270,195	-70,585	-0,135	-0,035
271,209	-200,000	0,036	-0,276
272,224	377,597	-0,151	-0,214
273,239	-47,266	-0,193	-0,065
274,253	-40,825	-0,221	-0,079
275,268	53,243	-0,119	-0,079
276,282	-200,000	-0,036	-0,213
277,297	32,623	-0,197	-0,118
278,312	47,165	-0,261	-0,168
279,326	-32,028	-0,097	-0,037
280,341	-84,116	0,051	-0,011
281,355	-79,118	-0,147	0,034
282,370	306,156	-0,057	-0,074
283,384	1,530	-0,199	-0,099
284,399	-200,000	0,056	-0,182
285,414	76,175	-0,146	-0,107
286,428	-200,000	0,009	-0,177
287,443	29,857	-0,117	-0,069
288,457	302,364	-0,157	-0,201
289,472	-129,846	-0,042	0,004
290,487	-143,568	-0,160	0,010
291,501	-131,843	-0,185	-0,016
292,516	-13,070	-0,120	0,054
293,530	84,036	-0,119	-0,090
294,545	181,450	-0,126	-0,128
295,560	30,680	-0,142	-0,084
296,574	-51,707	-0,073	0,023
297,589	-84,294	-0,165	-0,036
298,603	144,278	-0,138	-0,128
299,618	-49,719	-0,167	-0,055
300,633	62,093	-0,108	-0,074
301,647	59,932	-0,172	-0,117
302,662	140,280	-0,095	-0,087
303,676	-99,710	-0,135	-0,023
304,691	-71,668	-0,047	-0,012
305,706	408,369	-0,190	-0,279
306,720	59,176	-0,188	-0,128
307,735	-177,211	-0,151	0,003
308,749	86,753	-0,089	-0,068
309,764	-100,622	-0,174	-0,029
310,779	-195,668	-0,200	0,001
311,793	800,000	-0,035	0,078
312,808	7,250	-0,186	-0,096
313,822	270,557	-0,139	-0,169
314,837	-70,214	-0,237	-0,062
315,852	-129,282	-0,119	0,011
316,866	-115,593	-0,073	-0,009
317,881	22,536	-0,100	-0,057
318,895	-114,805	-0,218	-0,028
319,910	43,259	-0,186	-0,117
320,925	156,496	-0,199	-0,190
321,939	76,410	-0,162	-0,118
322,954	70,233	-0,074	-0,053
323,968	21,375	-0,185	-0,103
324,983	28,660	-0,169	0,099
325,997	515,082	-0,059	-0,096
327,012	-112,011	-0,122	-0,017
328,027	23,538	-0,117	-0,066
329,041	-4,347	-0,119	-0,057
330,056	4,639	-0,213	-0,107
331,070	651,472	-0,094	-0,167
332,085	-200,000	-0,021	-0,104
333,100	168,582	-0,114	-0,112
334,114	800,000	-0,125	-0,263
335,129	164,047	-0,140	-0,135
336,143	694,554	-0,084	-0,153
337,158	721,950	-0,054	-0,098
338,173	-200,000	0,007	0,036
339,187	-31,526	-0,221	-0,085
340,202	102,256	-0,168	-0,135
341,216	284,856	-0,067	-0,083
342,231	32,637	-0,103	-0,061
343,246	281,365	-0,155	-0,191
344,260	-200,000	-0,022	-0,093
345,275	-94,759	0,060	-0,011
346,289	-31,920	-0,029	-0,011
347,304	-200,000	-0,023	-0,125
348,319	80,818	-0,207	-0,154
349,333	-67,897	-0,181	0,048
350,348	436,106	-0,117	-0,176
351,362	109,519	-0,104	-0,086
352,377	-200,000	-0,030	-0,136
353,392	697,178	-0,066	-0,120
354,406	-31,155	-0,017	-0,007
355,421	208,904	1314,429	1416,118
356,435	160,765	1475,145	1416,652
