DTS Sentinel unit serial number:	SN410029Multiplexer serial number:	ORYXHardware model number:	OX2-SRSoftware version number:	ORYX F/W v4,00 Oryx Data Collector v3.7.2.0data status	okinstallation	B3 Nyhavnadifferential loss correction	single-endedforward channel	channel 1reverse channel	N/Adate	2023/11/29time	08:22:30forward acquisition time	300,00reverse acquisition time	0,00gamma	499,1914k internal	0,3212k external	0,3212temperature offset calibration	1,0000default loss term (dB/km)	0,3820temperature slope calibration	1,0000multiplexer offset coefficient	1,0000multiplexer slope coefficient	1,0000fibre end	0,00T internal ref (°C)	8,87T ext. ref 1 (°C)	-6,14T ext. ref 2 (°C)	-6,24length (m)	temperature (°C)	Stokes	anti-Stokes-744,400	46,876	-0,114	-0,077
-743,385	555,849	-0,083	0,145
-742,371	800,000	-0,133	-0,326
-741,356	-200,000	0,029	0,213
-740,342	125,440	-0,276	-0,253
-739,327	-200,000	0,025	0,318
-738,312	49,205	-0,200	-0,136
-737,298	692,213	-0,121	0,231
-736,283	98,009	-0,194	-0,161
-735,269	-200,000	-0,060	0,350
-734,254	517,916	-0,164	-0,280
-733,239	-66,273	-0,223	0,064
-732,225	71,792	-0,189	-0,143
-731,210	-200,000	0,038	0,130
-730,196	-103,908	-0,042	0,007
-729,181	214,103	-0,061	-0,070
-728,167	348,322	0,029	0,041
-727,152	7,278	-0,080	0,043
-726,137	800,000	0,046	0,100
-725,123	-112,155	0,021	-0,003
-724,108	-200,000	0,018	-0,142
-723,094	40,277	-0,071	0,046
-722,079	288,103	-0,092	-0,121
-721,064	-200,000	-0,001	-0,017
-720,050	-139,840	-0,072	-0,005
-719,035	800,000	0,051	0,152
-718,021	92,294	-0,082	0,067
-717,006	-200,000	-0,008	-0,132
-715,991	344,703	-0,040	-0,057
-714,977	-200,000	-0,012	-0,122
-713,962	-129,899	-0,086	-0,008
-712,948	359,374	-0,085	0,124
-711,933	-98,350	-0,084	-0,015
-710,918	230,033	0,064	0,076
-709,904	-96,847	-0,143	0,027
-708,889	35,937	0,059	-0,038
-707,875	-200,000	-0,013	-0,085
-706,860	-44,969	-0,148	-0,053
-705,845	-200,000	-0,027	-0,129
-704,831	-200,000	0,003	-0,127
-703,816	-200,000	-0,023	-0,087
-702,802	-200,000	0,009	0,033
-701,787	61,833	0,064	-0,046
-700,772	800,000	0,023	-0,063
-699,758	-200,000	-0,047	-0,153
-698,743	-9,722	0,058	0,028
-697,729	-200,000	-0,004	0,068
-696,714	-200,000	-0,018	0,070
-695,699	-200,000	-0,033	0,157
-694,685	344,259	0,051	-0,072
-693,670	-200,000	0,015	-0,056
-692,656	58,040	-0,113	0,080
-691,641	622,911	-0,031	-0,056
-690,627	-66,244	-0,010	-0,003
-689,612	-59,314	-0,036	-0,011
-688,597	456,349	-0,113	-0,183
-687,583	-127,418	0,029	-0,003
-686,568	800,000	-0,031	-0,098
-685,554	80,144	-0,096	0,074
-684,539	800,000	-0,032	0,082
-683,524	-150,945	0,080	0,004
-682,510	41,036	-0,045	-0,030
-681,495	196,364	0,066	-0,072
-680,481	-96,944	-0,103	0,019
-679,466	626,773	-0,051	-0,094
-678,451	244,067	0,036	-0,043
-677,437	-73,722	0,086	0,022
-676,422	-200,000	-0,003	0,084
-675,408	488,439	-0,086	0,143
-674,393	509,559	0,013	-0,021
-673,378	-200,000	0,000	-0,055
-672,364	271,457	-0,096	-0,122
-671,349	800,000	-0,048	-0,154
-670,335	-7,894	0,083	0,040
-669,320	-8,639	0,106	-0,051
-668,305	96,947	-0,078	0,064
-667,291	-140,092	-0,097	-0,007
-666,276	195,105	-0,011	0,012
-665,262	530,729	0,025	-0,043
-664,247	-115,973	0,061	0,008
-663,232	343,979	-0,062	0,088
-662,218	-28,944	0,051	0,021
-661,203	-115,230	0,113	-0,015
-660,189	-103,373	-0,159	-0,027
-659,174	-200,000	0,004	-0,073
-658,159	-200,000	0,014	0,049
-657,145	265,982	-0,103	0,131
-656,130	603,667	0,016	-0,030
-655,116	123,320	-0,050	-0,046
-654,101	-200,000	0,043	0,159
-653,086	800,000	-0,039	0,118
-652,072	123,613	-0,089	0,081
-651,057	-89,486	0,030	0,006
-650,043	-185,156	-0,136	0,001
-649,028	-5,717	0,111	0,055
-648,014	800,000	0,035	-0,091
-646,999	-121,941	0,073	-0,009
-645,984	800,000	0,011	0,026
-644,970	401,604	0,062	-0,095
-643,955	-62,237	-0,100	0,030
-642,941	800,000	0,044	0,122
-641,926	33,488	-0,132	0,083
-640,911	-200,000	-0,012	0,103
-639,897	-12,750	0,099	0,046
-638,882	-138,554	0,079	0,006
-637,868	-15,116	-0,127	0,058
-636,853	800,000	0,034	0,087
-635,838	203,353	0,024	-0,027
-634,824	2,027	0,052	0,027
-633,809	301,770	0,035	-0,046
-632,795	10,015	0,043	0,023
-631,780	-200,000	0,018	0,062
-630,765	481,896	0,040	-0,065
-629,751	-200,000	0,001	0,009
-628,736	97,849	-0,134	-0,112
-627,722	-46,879	0,196	-0,069
-626,707	-76,398	0,173	-0,044
-625,692	-200,000	-0,017	-0,087
-624,678	166,310	0,103	0,106
-623,663	-31,043	0,029	0,012
-622,649	94,175	-0,043	-0,036
-621,634	800,000	-0,038	-0,094
-620,619	389,793	-0,086	0,129
-619,605	458,310	-0,049	0,079
-618,590	-150,678	-0,080	0,004
-617,576	227,188	-0,059	0,069
-616,561	-44,982	0,089	0,032
-615,546	234,725	-0,004	-0,005
-614,532	70,727	-0,108	-0,080
-613,517	112,236	-0,142	-0,123
-612,503	677,979	-0,044	0,083
-611,488	156,112	-0,122	0,121
-610,474	-14,479	0,045	-0,021
-609,459	-17,124	-0,066	0,030
-608,444	-77,809	-0,084	-0,021
-607,430	-200,000	-0,023	0,112
-606,415	102,215	-0,054	0,046
-605,401	-200,000	-0,009	-0,103
-604,386	-2,134	0,046	0,023
-603,371	90,185	0,024	0,019
-602,357	41,527	0,150	-0,098
-601,342	800,000	0,009	0,020
-600,328	-31,332	-0,105	0,042
-599,313	-182,749	-0,070	-0,001
-598,298	151,789	0,030	-0,030
-597,284	499,285	0,032	0,054
-596,269	158,691	-0,046	0,046
-595,255	-200,000	0,004	-0,012
-594,240	-1,422	-0,041	-0,021
-593,225	320,979	0,030	0,042
-592,211	-53,776	-0,032	-0,010
-591,196	-43,191	0,135	0,049
-590,182	7,955	0,191	0,103
-589,167	446,900	0,051	-0,080
-588,152	-200,000	-0,035	0,000
-587,138	529,935	-0,061	0,104
-586,123	-200,000	-0,045	-0,211
-585,109	290,599	-0,054	-0,071
-584,094	-50,698	-0,160	0,054
-583,079	212,185	0,121	0,138
-582,065	353,204	-0,109	0,157
-581,050	800,000	0,025	0,078
-580,036	-5,743	0,125	0,061
-579,021	-44,551	0,063	-0,023
-578,006	375,932	-0,095	-0,140
-576,992	-18,386	-0,114	-0,051
-575,977	-93,818	0,116	0,023
-574,963	342,754	0,037	-0,053
-573,948	194,897	0,032	0,035
-572,934	-130,059	-0,034	0,003
-571,919	708,341	0,018	-0,034
-570,904	743,065	0,023	-0,045
-569,890	-128,576	0,044	-0,004
-568,875	-144,913	0,054	-0,003
-567,861	800,000	0,049	-0,151
-566,846	740,000	0,026	0,051
-565,831	-200,000	0,038	-0,159
-564,817	-1,551	-0,079	0,040
-563,802	-200,000	-0,204	-0,000
-562,788	-200,000	-0,024	-0,130
-561,773	-107,594	-0,091	0,014
-560,758	71,016	0,032	-0,024
-559,744	-131,005	0,122	-0,012
-558,729	109,967	0,091	0,079
-557,715	429,641	-0,103	-0,161
-556,700	-114,477	0,086	-0,012
-555,685	46,486	0,050	-0,034
-554,671	-200,000	0,001	-0,088
-553,656	-200,000	-0,009	-0,101
-552,642	-200,000	-0,051	0,210
-551,627	-200,000	0,007	-0,082
-550,612	-69,138	-0,105	-0,029
-549,598	-54,619	-0,101	0,033
-548,583	113,135	-0,037	0,033
-547,569	182,752	0,052	-0,056
-546,554	186,214	-0,063	0,068
-545,539	-200,000	0,025	0,082
-544,525	-74,805	0,150	0,038
-543,510	-59,469	-0,159	0,049
-542,496	168,086	-0,025	0,026
-541,481	-41,102	-0,040	0,015
-540,466	402,212	0,019	0,029
-539,452	59,327	-0,074	0,053
-538,437	800,000	0,060	0,122
-537,423	-200,000	0,006	0,033
-536,408	-72,398	0,050	0,013
-535,393	91,094	-0,072	-0,058
-534,379	-110,468	0,057	-0,008
-533,364	132,984	-0,065	-0,060
-532,350	418,506	0,084	0,129
-531,335	-200,000	-0,008	0,126
-530,321	-55,558	0,044	-0,014
-529,306	-200,000	0,017	-0,113
-528,291	-123,526	0,130	0,015
-527,277	-69,588	-0,134	-0,037
-526,262	76,213	-0,039	0,030
-525,248	753,681	-0,039	0,076
-524,233	3,325	0,101	-0,053
-523,218	800,000	0,020	0,040
-522,204	-22,193	0,016	-0,007
-521,189	171,507	-0,103	-0,106
-520,175	222,066	-0,114	-0,132
-519,160	800,000	-0,014	0,030
-518,145	-98,323	0,026	0,005
-517,131	-49,536	-0,157	0,053
-516,116	9,201	-0,105	0,057
-515,102	53,947	-0,013	0,009
-514,087	0,496	-0,108	0,055
-513,072	393,234	-0,031	-0,047
-512,058	92,724	-0,016	0,013
-511,043	59,195	0,104	-0,074
-510,029	-200,000	-0,009	0,181
-509,014	-200,000	0,023	0,218
-507,999	-200,000	-0,013	0,065
-506,985	800,000	-0,027	-0,076
-505,970	270,466	0,077	-0,097
-504,956	-64,513	-0,071	0,021
-503,941	800,000	-0,020	0,057
-502,926	303,855	-0,046	0,062
-501,912	-200,000	-0,010	-0,077
-500,897	7,751	0,058	0,031
-499,883	-119,919	-0,114	-0,014
-498,868	555,593	0,084	-0,146
-497,853	-74,657	-0,224	-0,057
-496,839	18,394	0,065	0,037
-495,824	630,472	0,063	0,114
-494,810	-103,505	0,088	0,015
-493,795	-200,000	0,018	0,109
-492,781	800,000	0,015	0,031
-491,766	-55,484	-0,093	0,030
-490,751	146,198	-0,060	-0,057
-489,737	800,000	0,023	-0,057
-488,722	-200,000	-0,020	-0,114
-487,708	-200,000	-0,010	0,088
-486,693	-200,000	0,003	0,114
-485,678	-62,267	0,054	0,016
-484,664	116,262	-0,105	-0,092
-483,649	-200,000	-0,006	0,112
-482,635	-170,946	0,068	-0,002
-481,620	-53,428	-0,085	0,028
-480,605	-66,911	0,062	0,017
-479,591	216,984	0,096	0,110
-478,576	-200,000	0,032	-0,159
-477,562	800,000	-0,023	0,059
-476,547	169,509	-0,093	-0,095
-475,532	-91,015	-0,064	0,013
-474,518	59,785	0,063	0,045
-473,503	-200,000	-0,025	0,098
-472,489	800,000	-0,033	-0,080
-471,474	-200,000	0,014	0,053
-470,459	20,991	0,070	0,041
-469,445	202,426	-0,067	0,075
-468,430	800,000	0,028	0,060
-467,416	800,000	-0,065	-0,131
-466,401	-200,000	0,001	0,074
-465,386	800,000	0,021	-0,049
-464,372	301,230	0,037	-0,049
-463,357	96,019	-0,053	0,044
-462,343	181,584	-0,060	-0,063
-461,328	415,265	-0,079	0,121
-460,313	196,020	0,059	0,064
-459,299	631,049	0,055	0,100
-458,284	106,556	0,126	0,107
-457,270	-200,000	0,001	-0,047
-456,255	-200,000	0,005	-0,051
-455,241	-200,000	0,013	-0,147
-454,226	-64,689	-0,062	-0,018
-453,211	-30,086	-0,066	-0,027
-452,197	-18,907	0,081	0,036
-451,182	7,205	0,046	-0,025
-450,168	26,076	-0,050	-0,030
-449,153	-28,194	-0,131	0,054
-448,138	98,074	-0,151	0,125
-447,124	800,000	0,023	0,055
-446,109	-77,013	0,067	0,017
-445,095	800,000	0,035	0,106
-444,080	269,485	0,044	-0,055
-443,065	-200,000	-0,001	0,139
-442,051	-114,162	-0,089	0,012
-441,036	91,648	-0,024	0,019
-440,022	278,289	-0,117	0,150
-439,007	-10,157	0,127	-0,060
-437,992	800,000	-0,063	0,142
-436,978	236,882	-0,085	-0,101
-435,963	-40,173	-0,054	0,020
-434,949	-45,355	-0,094	-0,033
-433,934	178,256	0,033	0,034
-432,919	592,265	0,018	-0,032
-431,905	-136,125	0,086	0,007
-430,890	598,107	-0,064	0,114
-429,876	125,628	0,054	0,049
-428,861	323,936	-0,119	0,163
-427,846	-75,964	0,145	-0,037
-426,832	145,194	0,054	-0,052
-425,817	-38,295	0,038	-0,014
-424,803	11,748	-0,140	-0,076
-423,788	435,237	0,061	-0,096
-422,773	249,593	0,058	-0,070
-421,759	-200,000	0,006	0,043
-420,744	-62,604	-0,182	-0,054
-419,730	-85,670	0,072	-0,016
-418,715	517,459	-0,018	-0,031
-417,701	527,095	0,043	-0,073
-416,686	-200,000	-0,021	0,087
-415,671	148,148	0,038	0,037
-414,657	800,000	0,044	0,097
-413,642	-200,000	0,023	0,077
-412,628	405,364	-0,036	0,055
-411,613	-5,885	0,041	0,020
-410,598	-52,187	0,229	0,075
-409,584	800,000	-0,034	-0,074
-408,569	-200,000	0,007	0,073
-407,555	-200,000	-0,001	0,013
-406,540	-70,147	0,057	0,015
-405,525	45,301	-0,062	0,041
-404,511	39,737	-0,147	-0,094
-403,496	73,625	-0,041	0,031
-402,482	1,142	0,117	-0,060
-401,467	-200,000	-0,002	0,123
-400,452	-152,408	0,088	-0,004
-399,438	458,184	-0,018	-0,029
-398,423	-200,000	0,010	0,104
-397,409	800,000	0,020	0,064
-396,394	-200,000	-0,054	-0,251
-395,379	-37,062	-0,094	-0,036
-394,365	-200,000	-0,045	0,175
-393,350	800,000	0,029	0,068
-392,336	-200,000	0,002	-0,037
-391,321	-142,332	0,051	-0,004
-390,306	-62,982	-0,046	0,013
-389,292	72,095	0,103	-0,077
-388,277	39,641	-0,049	-0,031
-387,263	35,354	0,011	0,007
-386,248	-103,114	0,128	-0,021
-385,233	-77,906	-0,035	0,009
-384,219	800,000	0,056	-0,131
-383,204	-102,960	0,109	-0,018
-382,190	553,862	-0,028	-0,048
-381,175	-77,960	0,027	0,007
-380,160	-200,000	-0,007	-0,027
-379,146	800,000	-0,037	0,080
-378,131	-95,729	0,129	0,024
-377,117	800,000	0,034	0,070
-376,102	49,529	-0,052	0,035
-375,088	48,707	-0,035	0,024
-374,073	31,932	0,019	-0,011
-373,058	165,910	0,138	-0,140
-372,044	-200,000	-0,020	-0,178
-371,029	50,588	-0,049	-0,033
-370,015	17,028	0,096	0,054
-369,000	-200,000	0,005	-0,147
-367,985	-200,000	0,016	-0,127
-366,971	28,548	-0,139	0,084
-365,956	800,000	0,062	-0,144
-364,942	349,878	0,090	0,127
-363,927	259,853	0,125	0,154
-362,912	-200,000	0,017	0,084
-361,898	-5,413	-0,099	-0,048
-360,883	-200,000	0,002	-0,116
-359,869	114,625	0,083	0,072
-358,854	-200,000	-0,015	0,077
-357,839	-44,963	0,130	-0,046
-356,825	800,000	0,003	-0,006
-355,810	191,794	-0,072	0,078
-354,796	-200,000	-0,013	-0,051
-353,781	-200,000	0,002	0,146
-352,766	-121,771	0,006	0,001
-351,752	-200,000	-0,006	0,032
-350,737	87,804	0,060	0,047
-349,723	-59,472	0,039	-0,012
-348,708	800,000	-0,038	-0,113
-347,693	-200,000	-0,024	0,103
-346,679	109,813	0,132	-0,113
-345,664	391,781	-0,072	-0,108
-344,650	114,968	-0,041	-0,036
-343,635	-64,316	-0,145	0,042
-342,620	-72,742	0,075	-0,020
-341,606	-27,334	0,085	0,035
-340,591	-200,000	-0,047	0,160
-339,577	510,720	0,034	0,057
-338,562	253,087	0,076	0,092
-337,548	278,489	0,094	0,120
-336,533	117,865	0,046	0,041
-335,518	16,051	0,077	0,043
-334,504	-133,938	0,134	-0,012
-333,489	800,000	0,033	0,069
-332,475	160,196	-0,053	0,053
-331,460	-200,000	0,023	-0,105
-330,445	-200,000	-0,000	-0,037
-329,431	87,795	0,087	0,069
-328,416	-200,000	0,020	0,078
-327,402	-200,000	0,001	-0,070
-326,387	-64,016	0,031	0,009
-325,372	65,995	-0,123	-0,089
-324,358	190,328	-0,044	0,048
-323,343	-200,000	0,027	-0,114
-322,329	201,056	-0,108	-0,119
-321,314	-200,000	0,000	0,060
-320,299	-146,515	-0,046	0,003
-319,285	70,194	0,121	-0,089
-318,270	247,706	0,020	-0,024
-317,256	-200,000	-0,034	-0,139
-316,241	800,000	-0,071	-0,167
-315,226	499,573	-0,034	-0,055
-314,212	697,375	-0,071	0,133
-313,197	-57,951	0,086	0,027
-312,183	-79,793	-0,126	-0,030
-311,168	-200,000	-0,005	-0,045
-310,153	800,000	-0,027	-0,054
-309,139	66,873	-0,055	-0,040
-308,124	-200,000	-0,011	-0,063
-307,110	-200,000	0,017	0,100
-306,095	23,059	0,098	-0,057
-305,080	32,981	0,107	-0,066
-304,066	-95,188	0,139	-0,026
-303,051	298,556	-0,022	-0,029
-302,037	-45,522	-0,041	-0,014
-301,022	800,000	0,068	-0,149
-300,008	491,160	0,036	-0,059
-298,993	-146,516	0,024	0,001
-297,978	-30,946	-0,110	-0,044
-296,964	-9,066	0,046	0,022
-295,949	115,806	0,054	0,047
-294,935	359,297	-0,096	-0,137
-293,920	-59,364	0,036	0,011
-292,905	20,945	0,121	0,070
-291,891	-200,000	-0,038	0,152
-290,876	800,000	-0,014	-0,044
-289,862	233,392	-0,083	0,097
-288,847	360,414	0,092	-0,132
-287,832	650,882	-0,046	-0,084
-286,818	-71,305	-0,057	0,015
-285,803	65,008	0,071	-0,051
-284,789	800,000	-0,034	0,103
-283,774	302,434	0,104	0,137
-282,759	209,222	-0,017	-0,019
-281,745	-200,000	-0,000	0,113
-280,730	-118,442	-0,151	0,019
-279,716	-200,000	0,042	-0,146
-278,701	145,435	0,033	0,031
-277,686	-9,460	0,132	0,062
-276,672	131,087	-0,030	-0,027
-275,657	800,000	-0,019	0,044
-274,643	-118,223	0,158	0,020
-273,628	39,982	0,021	-0,013
-272,613	-200,000	0,050	-0,162
-271,599	-200,000	0,030	-0,142
-270,584	-134,101	0,058	-0,005
-269,570	93,791	0,110	0,089
-268,555	-200,000	0,003	-0,083
-267,540	-51,233	-0,102	-0,034
-266,526	-56,193	-0,013	0,004
-265,511	-200,000	-0,020	-0,131
-264,497	-200,000	0,024	0,083
-263,482	113,446	-0,074	-0,064
-262,467	122,901	0,106	0,094
-261,453	202,649	0,073	-0,080
-260,438	-200,000	-0,010	-0,136
-259,424	-58,386	-0,037	-0,011
-258,409	137,904	-0,001	-0,001
-257,395	-200,000	-0,030	-0,201
-256,380	-64,452	0,091	-0,026
-255,365	-149,346	0,068	0,004
-254,351	227,899	0,026	0,031
-253,336	201,483	0,040	-0,044
-252,322	168,348	-0,081	-0,082
-251,307	-87,328	-0,126	0,027
-250,292	-200,000	0,041	0,156
-249,278	239,514	0,052	0,062
-248,263	800,000	-0,041	-0,102
-247,249	433,585	0,064	0,099
-246,234	23,769	-0,101	-0,059
-245,219	18,296	-0,168	-0,095
-244,205	-63,159	0,079	-0,023
-243,190	46,432	-0,041	0,027
-242,176	-71,870	0,121	0,032
-241,161	29,547	-0,052	0,031
-240,146	-105,163	0,032	-0,005
-239,132	800,000	0,009	-0,025
-238,117	800,000	-0,038	-0,078
-237,103	-200,000	-0,017	-0,149
-236,088	201,703	-0,045	-0,049
-235,073	38,437	-0,083	0,053
-234,059	73,123	0,088	0,065
-233,044	-106,278	-0,051	0,008
-232,030	-100,412	-0,075	-0,013
-231,015	344,756	-0,042	0,059
-230,000	23,226	0,021	-0,012
-228,986	-52,928	-0,068	0,022
-227,971	97,411	-0,070	0,057
-226,957	-200,000	-0,042	0,176
-225,942	39,119	0,038	0,024
-224,927	-200,000	-0,006	-0,070
-223,913	54,797	-0,041	-0,028
-222,898	800,000	0,037	0,088
-221,884	228,030	-0,061	-0,070
-220,869	-200,000	0,020	0,071
-219,855	800,000	-0,008	0,019
-218,840	-200,000	0,012	0,079
-217,825	-54,173	0,079	-0,025
-216,811	87,684	0,078	0,061
-215,796	-128,406	0,062	0,006
-214,782	800,000	-0,022	0,061
-213,767	-200,000	0,037	0,275
-212,752	-200,000	0,026	0,102
-211,738	20,871	0,098	0,056
-210,723	16,508	-0,086	-0,048
-209,709	62,979	-0,024	0,017
-208,694	800,000	-0,008	-0,025
-207,679	800,000	-0,060	-0,165
-206,665	-200,000	0,004	0,108
-205,650	-73,973	0,076	-0,019
-204,636	-4,943	0,077	0,037
-203,621	800,000	0,006	-0,014
-202,606	-200,000	0,002	0,016
-201,592	-117,092	-0,137	0,017
-200,577	-154,775	-0,051	0,002
-199,563	106,515	0,087	-0,073
-198,548	67,274	0,081	0,059
-197,533	258,944	0,050	0,061
-196,519	151,320	0,035	0,034
-195,504	-109,672	-0,252	-0,037
-194,490	-200,000	-0,029	-0,168
-193,475	579,707	-0,012	0,022
-192,460	559,218	0,017	0,030
-191,446	-200,000	-0,024	-0,077
-190,431	133,339	0,051	-0,046
-189,417	0,417	-0,069	0,035
-188,402	800,000	-0,025	-0,057
-187,387	-200,000	0,001	-0,034
-186,373	149,766	-0,099	-0,096
-185,358	-168,956	0,053	0,001
-184,344	-200,000	-0,002	0,077
-183,329	-100,906	0,160	0,028
-182,315	-200,000	-0,014	-0,056
-181,300	79,340	-0,096	-0,073
-180,285	-200,000	-0,006	-0,117
-179,271	800,000	-0,041	-0,098
-178,256	350,831	0,061	-0,086
-177,242	133,352	-0,023	-0,021
-176,227	-200,000	0,013	0,135
-175,212	-85,738	0,046	0,010
-174,198	324,265	-0,048	0,065
-173,183	399,768	-0,040	-0,059
-172,169	-38,305	0,016	0,006
-171,154	-200,000	-0,022	-0,126
-170,139	250,592	0,043	0,052
-169,125	256,953	0,067	-0,082
-168,110	-200,000	-0,032	0,102
-167,096	-200,000	-0,036	-0,135
-166,081	800,000	-0,022	-0,062
-165,066	96,563	0,070	-0,056
-164,052	-200,000	-0,021	-0,070
-163,037	800,000	-0,019	-0,052
-162,023	-200,000	-0,004	0,048
-161,008	216,526	-0,039	-0,044
-159,993	-34,074	0,120	0,047
-158,979	227,398	0,009	-0,010
-157,964	209,651	-0,073	-0,081
-156,950	-84,880	-0,158	-0,035
-155,935	800,000	-0,081	-0,194
-154,920	-49,192	-0,089	0,030
-153,906	-200,000	-0,009	-0,097
-152,891	800,000	-0,091	-0,186
-151,877	800,000	-0,011	0,028
-150,862	-200,000	-0,023	-0,123
-149,847	-112,525	-0,151	0,021
-148,833	-200,000	-0,024	0,100
-147,818	-98,756	-0,068	0,012
-146,804	-58,987	0,096	0,029
-145,789	800,000	-0,047	-0,101
-144,775	-200,000	-0,005	-0,070
-143,760	298,297	0,060	0,078
-142,745	-2,319	-0,071	-0,035
-141,731	-200,000	-0,010	-0,063
-140,716	76,706	0,125	-0,094
-139,702	-77,641	0,098	0,024
-138,687	800,000	0,058	0,172
-137,672	35,564	-0,067	-0,041
-136,658	-100,760	0,129	-0,022
-135,643	-79,372	-0,072	0,017
-134,629	-200,000	-0,027	-0,169
-133,614	-72,394	-0,085	-0,022
-132,599	17,337	-0,094	-0,053
-131,585	-200,000	0,019	-0,159
-130,570	-175,751	-0,092	0,002
-129,556	-4,538	-0,053	0,026
-128,541	235,708	0,044	-0,052
-127,526	-200,000	0,007	0,036
-126,512	-28,342	-0,104	0,042
-125,497	0,142	0,091	0,046
-124,483	-91,289	-0,057	-0,011
-123,468	137,990	-0,148	-0,137
-122,453	250,903	-0,066	0,080
-121,439	-118,240	-0,162	-0,020
-120,424	737,648	0,057	-0,109
-119,410	-200,000	0,013	0,125
-118,395	238,528	0,133	0,157
-117,380	-200,000	0,063	0,213
-116,366	800,000	0,021	0,043
-115,351	251,298	-0,052	0,063
-114,337	90,760	-0,114	-0,090
-113,322	188,906	-0,090	-0,095
-112,307	-1,182	0,103	-0,051
-111,293	-200,000	-0,011	0,038
-110,278	-153,770	0,185	0,009
-109,264	128,745	-0,074	0,067
-108,249	290,517	-0,043	0,056
-107,234	-200,000	-0,006	0,051
-106,220	162,093	-0,101	-0,100
-105,205	288,495	0,045	-0,058
-104,191	-200,000	0,017	0,103
-103,176	-200,000	-0,002	-0,062
-102,162	595,113	0,014	-0,025
-101,147	75,136	0,049	0,037
-100,132	800,000	0,045	0,099
-99,118	155,436	-0,062	-0,060
-98,103	-200,000	-0,000	-0,028
-97,089	-200,000	-0,002	0,024
-96,074	311,216	0,071	0,094
-95,059	200,206	0,122	0,132
-94,045	308,944	-0,026	0,034
-93,030	-131,832	-0,040	0,004
-92,016	-200,000	0,003	-0,108
-91,001	81,963	0,103	-0,079
-89,986	-136,157	0,110	-0,009
-88,972	-200,000	-0,041	0,152
-87,957	696,385	-0,023	0,042
-86,943	541,809	-0,034	-0,057
-85,928	-200,000	0,002	-0,031
-84,913	-200,000	0,000	-0,137
-83,899	800,000	-0,028	-0,076
-82,884	-200,000	-0,021	0,086
-81,870	38,468	0,069	0,044
-80,855	-5,261	0,127	0,062
-79,840	755,637	0,103	-0,198
-78,826	-200,000	0,022	-0,168
-77,811	-200,000	0,026	-0,199
-76,797	-200,000	0,024	0,103
-75,782	800,000	0,037	0,082
-74,767	127,631	0,105	-0,094
-73,753	225,969	-0,065	-0,074
-72,738	-71,291	-0,153	-0,040
-71,724	800,000	-0,068	-0,187
-70,709	14,927	-0,108	0,060
-69,694	-93,648	0,102	0,020
-68,680	164,935	0,042	0,042
-67,665	-126,843	0,112	0,012
-66,651	161,201	-0,064	0,063
-65,636	-89,702	0,073	-0,015
-64,622	632,368	-0,073	-0,130
-63,607	-200,000	-0,019	-0,068
-62,592	-200,000	0,005	-0,145
-61,578	-200,000	-0,038	0,135
-60,563	-5,398	-0,151	0,073
-59,549	-200,000	0,042	0,156
-58,534	56,963	-2,042	-1,402
-57,519	376,670	-1,288	-1,862
-56,505	-200,000	-0,307	-4,324
-55,490	649,374	0,845	1,533
-54,476	800,000	5,113	11,280
-53,461	-200,000	22,044	337,767
-52,446	800,000	758,744	2294,051
-51,432	532,293	1652,352	2769,604
-50,417	69,041	1650,254	1195,253
-49,403	16,528	1524,936	847,800
-48,388	10,696	1449,642	777,869
-47,373	19,021	1441,834	813,404
-46,359	14,134	1430,496	783,863
-45,344	9,055	1426,221	757,426
-44,330	8,944	1424,701	756,062
-43,315	8,907	1422,931	754,919
-42,300	8,901	1421,116	753,898
-41,286	8,981	1419,957	753,630
-40,271	8,894	1418,695	752,517
-39,257	8,925	1417,689	752,101
-38,242	8,962	1416,332	751,528
-37,227	8,960	1415,136	750,851
-36,213	8,974	1413,886	750,225
-35,198	8,966	1412,733	749,545
-34,184	9,020	1411,440	749,086
-33,169	8,891	1410,466	747,930
-32,154	8,938	1409,476	747,598
-31,140	8,974	1408,109	747,013
-30,125	8,983	1407,052	746,465
-29,111	8,959	1405,672	745,589
-28,096	8,937	1404,841	745,017
-27,082	8,919	1403,417	744,149
-26,067	8,898	1402,345	743,452
-25,052	8,887	1401,281	742,807
-24,038	8,944	1400,410	742,582
-23,023	8,910	1399,557	741,942
-22,009	8,892	1398,499	741,266
-20,994	8,913	1397,378	740,739
-19,979	8,874	1396,591	740,113
-18,965	8,833	1395,561	739,346
-17,950	8,878	1394,350	738,884
-16,936	8,842	1393,805	738,399
-15,921	8,796	1392,739	737,592
-14,906	8,831	1391,832	737,244
-13,892	8,908	1390,640	736,940
-12,877	8,856	1390,234	736,457
-11,863	8,803	1389,359	735,719
-10,848	8,789	1388,320	735,074
-9,833	8,759	1387,301	734,368
-8,819	8,739	1386,401	733,773
-7,804	8,715	1385,777	733,302
-6,790	8,731	1384,552	732,696
-5,775	8,694	1383,692	732,042
-4,760	8,703	1382,662	731,512
-3,746	8,773	1381,513	731,196
-2,731	8,786	1380,809	730,851
-1,717	8,746	1379,899	730,158
-0,702	8,729	1378,374	729,245
0,313	12,795	1289,740	700,811
1,327	28,755	681,913	406,322
2,342	44,682	117,417	76,001
3,356	1,435	16,511	8,344
4,371	9,185	3,612	1,919
5,386	5,649	1,275	0,662
6,400	800,000	0,290	0,751
7,415	46,422	-0,195	-0,127
8,429	13,264	-0,268	-0,146
9,444	-94,258	-0,369	-0,070
10,459	21,465	-0,285	-0,163
11,473	244,402	-0,208	-0,247
12,488	95,691	-0,318	-0,256
13,502	-88,129	-0,339	-0,071
14,517	-39,018	-0,301	-0,111
15,531	268,573	-0,230	-0,285
16,546	91,216	-0,396	-0,313
17,561	258,463	-0,214	-0,260
18,575	-133,332	-0,206	0,018
19,590	669,063	-0,191	-0,350
20,604	-114,821	-0,271	-0,036
21,619	122,509	-0,354	-0,311
22,634	-34,680	-0,438	-0,168
23,648	28,980	-0,523	-0,312
24,663	131,329	-0,388	-0,351
25,677	92,691	-0,362	-0,287
26,692	-92,479	-0,395	-0,077
27,707	-77,473	-0,443	-0,107
28,721	-14,135	-0,420	-0,190
29,736	-6,158	-0,406	-0,194
30,750	241,604	-0,289	-0,341
31,765	192,057	-0,356	-0,378
32,780	253,447	-0,224	-0,270
33,794	33,816	-0,359	-0,219
34,809	54,990	-0,253	-0,172
35,823	-14,765	-0,401	-0,180
36,838	153,737	-0,352	-0,340
37,853	106,800	-0,383	-0,320
38,867	195,312	-0,287	-0,307
39,882	85,868	-0,402	-0,310
40,896	88,767	-0,285	-0,223
41,911	180,722	-0,274	-0,283
42,926	88,281	-0,369	-0,288
43,940	134,983	-0,342	-0,312
44,955	185,539	-0,324	-0,339
45,969	-22,453	-0,533	-0,226
46,984	-47,992	-0,299	-0,101
47,999	-25,955	-0,348	-0,143
49,013	35,644	-0,149	-0,091
50,028	-101,113	-0,308	-0,052
51,042	22,952	-0,374	-0,215
52,057	17,088	-0,302	-0,167
53,071	50,740	-0,410	-0,272
54,086	-20,559	-0,267	-0,115
55,101	-6,780	-0,300	-0,143
56,115	104,869	-0,214	-0,177
57,130	58,641	-0,338	-0,233
58,144	-26,528	-0,377	-0,154
59,159	7,625	-0,318	-0,166
60,174	44,324	-0,337	-0,217
61,188	171,359	-0,303	-0,306
62,203	12,591	-0,318	-0,171
63,217	-77,252	-0,520	-0,126
64,232	41,042	-0,312	-0,197
65,247	-40,040	-0,292	-0,106
66,261	23,562	-0,330	-0,190
67,276	-48,757	-0,427	-0,143
68,290	7,319	-0,348	-0,182
69,305	42,023	-0,232	-0,147
70,320	-108,254	-0,333	-0,050
71,334	-35,194	-0,262	-0,099
72,349	364,846	-0,177	-0,251
73,363	68,310	-0,391	-0,280
74,378	-18,904	-0,389	-0,169
75,393	-77,921	-0,359	-0,086
76,407	38,206	-0,320	-0,199
77,422	-0,977	-0,395	-0,195
78,436	-127,035	-0,228	-0,023
79,451	42,221	-0,296	-0,188
80,466	11,449	-0,325	-0,174
81,480	272,460	-0,241	-0,299
82,495	21,433	-0,175	-0,099
83,509	64,658	-0,374	-0,264
84,524	714,113	-0,154	-0,287
85,539	131,980	-0,250	-0,225
86,553	-60,551	-0,361	-0,107
87,568	-14,484	-0,233	-0,104
88,582	34,927	-0,265	-0,162
89,597	75,011	-0,338	-0,249
90,611	36,000	-0,283	-0,174
91,626	-21,153	-0,235	-0,100
92,641	220,779	-0,187	-0,210
93,655	252,073	-0,248	-0,296
94,670	-94,204	-0,358	-0,068
95,684	147,862	-0,178	-0,168
96,699	128,008	-0,348	-0,309
97,714	75,005	-0,292	-0,215
98,728	95,369	-0,290	-0,231
99,743	153,981	-0,146	-0,140
100,757	5,213	-0,356	-0,183
101,772	46,508	-0,359	-0,233
102,787	143,828	-0,259	-0,241
103,801	222,382	-0,172	-0,194
104,816	-86,583	-0,174	-0,037
105,830	-103,582	-0,293	-0,048
106,845	66,724	-0,211	-0,149
107,860	189,535	-0,235	-0,247
108,874	178,307	-0,220	-0,225
109,889	162,211	-0,185	-0,181
110,903	-1,812	-0,311	-0,153
111,918	-9,621	-0,227	-0,105
112,933	199,808	-0,160	-0,172
113,947	174,903	-0,217	-0,220
114,962	-8,999	-0,215	-0,100
115,976	-40,198	-0,328	-0,119
116,991	-35,771	-0,285	-0,107
118,006	-5,869	-0,380	-0,181
119,020	45,101	-0,288	-0,185
120,035	104,729	-0,156	-0,129
121,049	78,043	-0,274	-0,204
122,064	37,726	-0,284	-0,175
123,079	463,749	-0,196	-0,306
124,093	172,475	-0,352	-0,353
125,108	800,000	-0,137	-0,269
126,122	118,610	-0,280	-0,241
127,137	-34,996	-0,199	-0,075
128,151	197,107	-0,215	-0,229
129,166	74,837	-0,207	-0,152
130,181	46,958	-0,249	-0,161
131,195	196,030	-0,228	-0,242
132,210	61,841	-0,338	-0,235
133,224	-19,990	-0,263	-0,112
134,239	98,843	-0,245	-0,197
135,254	25,001	-0,185	-0,107
136,268	449,513	-0,096	-0,148
137,283	86,330	-0,244	-0,187
138,297	-18,142	-0,294	-0,128
139,312	48,353	-0,253	-0,165
140,327	-15,932	-0,342	-0,151
141,341	503,417	-0,144	-0,234
142,356	-51,688	-0,223	-0,072
143,370	-37,597	-0,260	-0,096
144,385	-127,119	-0,290	-0,029
145,400	62,244	-0,249	-0,173
146,414	800,000	-0,143	-0,292
147,429	220,120	-0,134	-0,150
148,443	74,151	-0,253	-0,185
149,458	68,636	-0,284	-0,203
150,473	336,726	-0,146	-0,197
151,487	76,621	-0,234	-0,172
152,502	297,332	-0,224	-0,287
153,516	331,812	-0,175	-0,235
154,531	57,097	-0,225	-0,153
155,546	354,024	-0,186	-0,258
156,560	129,544	-0,258	-0,230
157,575	28,262	-0,246	-0,144
158,589	167,128	-0,154	-0,153
159,604	593,292	-0,146	-0,252
160,619	192,957	-0,175	-0,184
161,633	-33,463	-0,185	-0,071
162,648	194,418	-0,224	-0,236
163,662	800,000	-0,040	-0,098
164,677	-28,469	-0,195	-0,078
165,692	77,834	-0,208	-0,154
166,706	-47,703	-0,303	-0,102
167,721	270,300	-0,225	-0,276
168,735	40,515	-0,257	-0,160
169,750	141,911	-0,243	-0,224
170,764	-137,248	-0,257	-0,020
171,779	-100,475	-0,288	-0,049
172,794	609,073	-0,089	-0,154
173,808	215,447	-0,169	-0,187
174,823	364,925	-0,217	-0,304
175,837	-13,015	-0,297	-0,134
176,852	31,997	-0,229	-0,137
177,867	13,326	-0,195	-0,105
178,881	149,946	-0,134	-0,126
179,896	7,738	-0,236	-0,122
180,910	176,077	-0,330	-0,333
181,925	270,842	-0,147	-0,180
182,940	52,409	-0,335	-0,221
183,954	67,213	-0,344	-0,243
184,969	24,033	-0,181	-0,103
185,983	549,125	-0,124	-0,208
186,998	-200,000	-0,073	-0,256
188,013	800,000	-0,091	-0,264
189,027	109,925	-0,233	-0,194
190,042	218,106	-0,252	-0,280
191,056	152,096	-0,172	-0,163
192,071	168,435	-0,237	-0,234
193,086	-45,863	-0,210	-0,072
194,100	800,000	-0,097	-0,230
195,115	203,547	-0,210	-0,226
196,129	597,857	-0,182	-0,314
197,144	33,769	-0,135	-0,081
198,159	686,281	-0,119	-0,216
199,173	11,922	-0,171	-0,091
200,188	-74,451	-0,284	-0,070
201,202	39,927	-0,234	-0,146
202,217	-200,000	-0,021	-0,184
203,232	342,546	-0,155	-0,211
204,246	152,165	-0,143	-0,135
205,261	4,392	-0,245	-0,124
206,275	-134,396	-0,381	-0,032
207,290	279,689	-0,120	-0,149
208,304	-200,000	-0,040	-0,153
209,319	-10,356	-0,147	-0,067
210,334	-150,313	-0,244	0,013
211,348	800,000	-0,169	-0,364
212,363	79,184	-0,214	-0,158
213,377	-82,012	-0,142	-0,032
214,392	3,514	-0,249	-0,125
215,407	223,213	-0,102	-0,114
216,421	282,253	-0,130	-0,161
217,436	221,409	-0,210	-0,234
218,450	-58,668	-0,302	-0,090
219,465	460,039	-0,178	-0,275
220,480	311,397	-0,153	-0,199
221,494	-138,263	-0,217	0,016
222,509	194,595	-0,056	-0,059
223,523	144,580	-0,103	-0,096
224,538	57,550	-0,273	-0,184
225,553	139,157	-0,219	-0,199
226,567	44,977	-0,143	-0,091
227,582	800,000	-0,153	-0,389
228,596	218,696	-0,054	-0,060
229,611	-200,000	0,022	-0,250
230,626	112,356	-0,230	-0,192
231,640	800,000	-0,036	-0,071
232,655	143,538	-0,200	-0,184
233,669	-69,022	-0,248	-0,066
234,684	750,336	-0,102	-0,192
235,699	-14,195	-0,329	-0,146
236,713	-200,000	-0,038	-0,140
237,728	-14,706	-0,224	-0,099
238,742	270,510	-0,226	-0,275
239,757	137,212	-0,186	-0,168
240,772	-33,677	-0,271	-0,103
241,786	-200,000	-0,030	-0,135
242,801	61,937	-0,043	-0,029
243,815	104,144	-0,102	-0,083
244,830	-54,069	-0,032	0,010
245,844	-114,032	-0,153	-0,020
246,859	411,739	-0,170	-0,249
247,874	158,359	-0,223	-0,213
248,888	-81,672	-0,141	-0,032
249,903	264,672	-0,158	-0,190
250,917	168,931	-0,168	-0,166
251,932	190,486	-0,278	-0,288
252,947	-93,738	-0,239	-0,045
253,961	292,404	-0,154	-0,194
254,976	41,159	-0,223	-0,139
255,990	492,457	-0,089	-0,141
257,005	-136,194	-0,136	-0,011
258,020	167,181	-0,234	-0,229
259,034	603,812	-0,097	-0,168
260,049	56,393	-0,096	-0,064
261,063	-56,649	-0,163	-0,049
262,078	188,346	-0,183	-0,188
263,093	-134,880	-0,184	-0,015
264,107	158,036	-0,212	-0,202
265,122	800,000	-0,090	-0,195
266,136	800,000	-0,100	-0,225
267,151	-161,538	-0,181	-0,006
268,166	91,214	-0,156	-0,121
269,180	800,000	-0,086	-0,208
270,195	800,000	-0,134	-0,257
271,209	-97,711	-0,176	-0,031
272,224	27,086	-0,074	-0,043
273,239	97,047	-0,145	-0,114
274,253	-73,837	-0,107	-0,027
275,268	316,894	-0,042	0,054
276,282	49,679	-0,103	-0,067
277,297	281,408	-0,134	-0,166
278,312	800,000	-0,087	-0,226
279,326	-105,107	-0,188	0,029
280,341	-85,527	-0,187	0,040
281,355	-70,593	-0,235	-0,061
282,370	-10,462	-0,253	-0,115
283,384	3,295	-0,233	-0,116
284,399	234,623	-0,081	-0,092
285,414	78,710	-0,150	-0,110
286,428	800,000	-0,025	-0,056
287,443	-96,144	-0,183	0,033
288,457	29,491	-0,179	-0,104
289,472	-75,205	-0,117	0,029
290,487	129,177	-0,196	-0,172
291,501	257,081	-0,082	-0,097
292,516	18,196	-0,162	-0,089
293,530	8,741	-0,143	-0,074
294,545	87,981	-0,159	-0,121
295,560	-119,386	-0,089	-0,010
296,574	30,465	-0,205	-0,120
297,589	385,923	-0,084	-0,120
298,603	-129,917	-0,100	-0,009
299,618	612,493	-0,137	-0,237
300,633	449,135	-0,101	-0,153
301,647	-140,243	-0,211	0,015
302,662	800,000	-0,080	-0,157
303,676	-62,760	-0,088	-0,025
304,691	55,313	-0,132	-0,088
305,706	732,792	-0,146	-0,270
306,720	800,000	-0,076	-0,193
307,735	24,853	-0,225	-0,127
308,749	42,559	-0,216	-0,135
309,764	3,867	-0,239	-0,119
310,779	800,000	-0,095	-0,262
311,793	467,939	-0,036	0,056
312,808	106,311	-0,133	-0,108
313,822	68,624	-0,195	-0,137
314,837	-200,000	-0,074	-0,260
315,852	-51,723	-0,153	-0,049
316,866	-154,792	-0,297	0,013
317,881	294,924	-0,050	-0,063
318,895	97,445	-0,054	-0,043
319,910	800,000	-0,101	-0,214
320,925	332,014	-0,181	-0,240
321,939	-110,129	-0,133	0,019
322,954	-31,439	-0,117	-0,045
323,968	515,116	-0,044	0,070
324,983	305,669	-0,130	-0,166
325,997	-70,322	-0,182	-0,047
327,012	-110,259	-0,113	-0,016
328,027	262,363	-0,191	-0,228
329,041	262,628	-0,209	-0,249
330,056	10,966	-0,174	-0,091
331,070	-40,761	-0,158	-0,056
332,085	-101,919	-0,106	-0,017
333,100	-200,000	-0,029	-0,120
334,114	571,441	-0,104	-0,174
335,129	-69,702	-0,187	-0,049
336,143	-102,943	-0,141	-0,023
337,158	-106,359	-0,227	-0,034
338,173	564,217	-0,084	-0,140
339,187	59,133	-0,170	-0,114
340,202	-110,027	-0,115	-0,016
341,216	-200,000	-0,017	-0,103
342,231	156,253	-0,111	-0,105
343,246	19,022	-0,161	-0,088
344,260	457,483	-0,021	0,032
345,275	12,449	-0,075	-0,039
346,289	-178,271	-0,201	-0,003
347,304	-133,593	-0,271	-0,023
348,319	94,237	-0,140	-0,109
349,333	64,800	-0,196	-0,135
350,348	173,445	-0,107	-0,106
351,362	171,499	-0,156	-0,153
352,377	76,887	-0,024	-0,018
353,392	-31,418	-0,155	-0,059
354,406	27,521	-0,160	-0,092
355,421	207,914	1303,506	1393,673
356,435	159,962	1462,825	1394,142
