DTS Sentinel unit serial number:	SN410029Multiplexer serial number:	ORYXHardware model number:	OX2-SRSoftware version number:	ORYX F/W v4,00 Oryx Data Collector v3.7.2.0data status	okinstallation	B3 Nyhavnadifferential loss correction	single-endedforward channel	channel 1reverse channel	N/Adate	2023/12/04time	23:57:30forward acquisition time	300,00reverse acquisition time	0,00gamma	499,1914k internal	0,3200k external	0,3200temperature offset calibration	1,0000default loss term (dB/km)	0,3820temperature slope calibration	1,0000multiplexer offset coefficient	1,0000multiplexer slope coefficient	1,0000fibre end	0,00T internal ref (°C)	14,01T ext. ref 1 (°C)	-1,30T ext. ref 2 (°C)	-1,33length (m)	temperature (°C)	Stokes	anti-Stokes-744,400	132,485	-0,183	-0,172
-743,385	464,854	-0,133	0,218
-742,371	-200,000	-0,083	-0,326
-741,356	-200,000	-0,005	0,309
-740,342	757,309	-0,136	-0,269
-739,327	-200,000	0,068	0,288
-738,312	274,003	-0,222	-0,286
-737,298	-200,000	-0,025	0,280
-736,283	-200,000	-0,033	-0,150
-735,269	-200,000	-0,042	0,244
-734,254	106,175	-0,156	-0,135
-733,239	-59,556	-0,138	0,043
-732,225	130,678	-0,162	-0,151
-731,210	-18,223	0,114	0,051
-730,196	-200,000	0,007	-0,089
-729,181	800,000	0,048	0,116
-728,167	192,992	-0,018	0,019
-727,152	27,003	-0,131	0,080
-726,137	-200,000	-0,004	-0,054
-725,123	-5,719	-0,109	0,054
-724,108	281,237	0,055	-0,072
-723,094	-50,324	-0,111	0,038
-722,079	-200,000	0,010	-0,094
-721,064	-196,538	-0,108	0,001
-720,050	800,000	0,013	-0,035
-719,035	-62,029	-0,054	0,016
-718,021	11,242	0,068	-0,038
-717,006	-117,162	-0,085	0,011
-715,991	-67,719	-0,071	-0,020
-714,977	395,654	-0,105	-0,159
-713,962	242,105	-0,017	0,020
-712,948	-1,383	-0,109	-0,056
-711,933	25,021	-0,045	0,027
-710,918	800,000	0,040	0,108
-709,904	800,000	0,055	-0,166
-708,889	800,000	-0,050	-0,119
-707,875	-114,174	-0,129	-0,018
-706,860	558,435	-0,020	-0,036
-705,845	-200,000	0,003	0,095
-704,831	-115,880	0,018	0,002
-703,816	547,207	-0,022	-0,039
-702,802	-200,000	0,003	-0,098
-701,787	-118,372	-0,093	-0,012
-700,772	-145,463	-0,062	0,004
-699,758	207,684	-0,023	0,026
-698,743	-88,857	-0,073	-0,016
-697,729	800,000	-0,047	-0,131
-696,714	-50,006	-0,087	-0,030
-695,699	-200,000	0,028	-0,241
-694,685	522,351	0,022	0,037
-693,670	14,642	-0,096	-0,054
-692,656	-200,000	0,008	-0,034
-691,641	-200,000	-0,002	0,094
-690,627	307,215	-0,080	0,109
-689,612	-14,785	-0,138	-0,064
-688,597	-90,146	-0,123	0,026
-687,583	-55,876	-0,179	-0,058
-686,568	-200,000	-0,021	-0,066
-685,554	-118,436	-0,188	-0,024
-684,539	-19,496	0,117	-0,052
-683,524	-60,468	-0,134	-0,041
-682,510	25,277	0,055	0,033
-681,495	-103,542	-0,047	0,008
-680,481	-20,588	-0,158	-0,070
-679,466	-200,000	-0,001	-0,133
-678,451	-200,000	0,009	-0,077
-677,437	-69,063	-0,106	0,030
-676,422	800,000	-0,020	-0,057
-675,408	276,060	-0,059	0,076
-674,393	529,654	-0,078	-0,134
-673,378	-200,000	-0,033	0,120
-672,364	-200,000	0,001	-0,163
-671,349	-121,150	0,052	0,006
-670,335	800,000	-0,062	0,126
-669,320	800,000	-0,039	0,085
-668,305	-127,150	-0,161	-0,017
-667,291	358,447	-0,056	-0,081
-666,276	-200,000	-0,031	-0,112
-665,262	60,243	0,078	-0,056
-664,247	16,934	-0,046	-0,026
-663,232	800,000	-0,016	0,040
-662,218	-200,000	0,013	0,082
-661,203	190,320	-0,072	0,078
-660,189	800,000	0,032	0,071
-659,174	-137,779	-0,080	0,006
-658,159	800,000	-0,052	0,107
-657,145	77,524	0,072	0,055
-656,130	-138,172	0,052	-0,004
-655,116	381,770	-0,047	-0,070
-654,101	-111,974	-0,034	-0,005
-653,086	-130,735	-0,083	0,008
-652,072	-186,497	-0,131	-0,001
-651,057	-134,597	-0,015	0,001
-650,043	-135,702	-0,192	0,016
-649,028	619,504	-0,085	0,155
-648,014	-64,820	-0,081	-0,024
-646,999	156,274	-0,054	-0,054
-645,984	800,000	-0,043	0,109
-644,970	-19,860	0,032	0,014
-643,955	191,639	-0,126	-0,137
-642,941	-15,099	-0,079	-0,037
-641,926	-200,000	0,005	-0,043
-640,911	68,485	-0,046	-0,034
-639,897	-42,989	0,055	0,020
-638,882	800,000	-0,046	0,108
-637,868	800,000	0,012	-0,035
-636,853	-200,000	-0,128	0,000
-635,838	-0,280	-0,091	-0,047
-634,824	151,736	-0,059	-0,059
-633,809	96,810	0,070	-0,058
-632,795	138,098	0,035	-0,034
-631,780	800,000	0,027	-0,061
-630,765	12,533	-0,064	-0,036
-629,751	-200,000	-0,054	-0,205
-628,736	-125,273	-0,074	0,008
-627,722	-142,513	-0,081	-0,006
-626,707	-200,000	0,020	0,074
-625,692	-200,000	0,001	0,028
-624,678	800,000	0,045	-0,094
-623,663	222,203	-0,143	-0,167
-622,649	-200,000	-0,013	-0,065
-621,634	800,000	-0,028	-0,059
-620,619	135,642	-0,082	-0,078
-619,605	800,000	-0,037	-0,111
-618,590	-97,654	-0,065	-0,012
-617,576	-0,205	0,204	0,105
-616,561	363,079	-0,080	-0,117
-615,546	-200,000	0,006	-0,023
-614,532	-104,831	-0,120	0,020
-613,517	663,642	-0,005	-0,009
-612,503	-102,282	0,066	0,011
-611,488	-23,762	-0,082	0,035
-610,474	192,662	0,034	0,037
-609,459	453,288	0,004	-0,006
-608,444	-200,000	0,013	0,090
-607,430	-200,000	0,000	0,033
-606,415	594,355	0,026	0,047
-605,401	481,232	0,016	0,026
-604,386	169,599	-0,076	0,078
-603,371	417,600	-0,026	0,040
-602,357	-200,000	-0,002	-0,025
-601,342	-94,793	0,131	0,025
-600,328	706,902	-0,055	-0,105
-599,313	800,000	-0,033	-0,082
-598,298	-200,000	-0,002	-0,035
-597,284	198,322	-0,075	0,083
-596,269	800,000	0,070	0,161
-595,255	-16,454	0,113	0,052
-594,240	-107,464	0,128	-0,020
-593,225	-88,485	-0,144	0,031
-592,211	-118,226	-0,156	0,020
-591,196	-200,000	-0,042	-0,190
-590,182	56,498	0,082	-0,058
-589,167	-26,262	0,086	0,036
-588,152	800,000	0,028	0,058
-587,138	-45,045	-0,066	-0,024
-586,123	-123,121	0,099	-0,011
-585,109	42,914	0,036	-0,024
-584,094	-3,346	0,118	0,059
-583,079	-81,339	-0,057	0,014
-582,065	-200,000	-0,029	0,136
-581,050	-200,000	0,121	-0,000
-580,036	194,609	-0,071	0,078
-579,021	800,000	0,037	0,076
-578,006	-57,324	-0,067	-0,021
-576,992	-200,000	-0,021	0,138
-575,977	508,445	0,014	-0,024
-574,963	-44,358	0,062	0,022
-573,948	12,369	-0,036	0,020
-572,934	265,518	-0,019	0,024
-571,919	-94,715	0,029	-0,006
-570,904	-127,652	-0,102	-0,011
-569,890	125,713	0,081	-0,074
-568,875	147,638	0,063	-0,061
-567,861	195,636	-0,101	-0,111
-566,846	525,622	-0,016	0,028
-565,831	347,257	-0,103	-0,147
-564,817	-200,000	-0,043	0,138
-563,802	-66,161	-0,069	-0,020
-562,788	56,853	0,034	-0,024
-561,773	-200,000	-0,009	-0,139
-560,758	-200,000	0,027	0,157
-559,744	339,629	0,055	0,078
-558,729	-200,000	-0,004	0,052
-557,715	27,787	0,039	0,024
-556,700	-9,505	-0,069	0,033
-555,685	-13,382	-0,038	0,018
-554,671	-200,000	-0,041	0,153
-553,656	-103,995	0,097	-0,016
-552,642	-200,000	-0,011	-0,080
-551,627	360,769	0,050	0,073
-550,612	-72,669	-0,079	-0,021
-549,598	-61,722	-0,119	-0,036
-548,583	-200,000	-0,014	-0,062
-547,569	800,000	0,054	0,110
-546,554	-122,968	-0,059	0,007
-545,539	-18,591	-0,058	0,026
-544,525	-21,811	0,095	0,042
-543,510	-62,352	-0,118	-0,035
-542,496	-200,000	-0,047	-0,227
-541,481	-118,655	-0,083	0,010
-540,466	-13,240	0,024	0,011
-539,452	-200,000	-0,003	0,019
-538,437	-200,000	0,017	0,148
-537,423	76,513	-0,050	0,038
-536,408	226,913	-0,083	-0,097
-535,393	-35,798	0,053	0,021
-534,379	800,000	0,021	0,048
-533,364	-200,000	0,018	-0,090
-532,350	-90,612	-0,036	-0,007
-531,335	52,538	0,111	-0,077
-530,321	89,871	-0,036	-0,029
-529,306	36,836	-0,108	-0,069
-528,291	-199,627	-0,067	-0,000
-527,277	-19,602	0,008	-0,003
-526,262	-200,000	-0,030	-0,100
-525,248	-82,902	0,123	-0,028
-524,233	-200,000	0,007	0,047
-523,218	17,964	0,084	-0,048
-522,204	-200,000	0,021	0,120
-521,189	800,000	-0,048	-0,126
-520,175	157,304	-0,041	-0,041
-519,160	-53,691	0,106	-0,035
-518,145	-92,492	0,071	-0,014
-517,131	2,718	-0,040	0,021
-516,116	-200,000	0,029	0,103
-515,102	800,000	0,012	-0,025
-514,087	800,000	-0,011	0,026
-513,072	438,918	0,014	-0,022
-512,058	-200,000	0,001	-0,109
-511,043	800,000	-0,021	-0,062
-510,029	-132,191	0,167	-0,015
-509,014	775,100	0,020	0,040
-507,999	254,826	-0,030	0,037
-506,985	113,130	-0,103	-0,090
-505,970	93,932	-0,180	-0,147
-504,956	-200,000	0,011	-0,055
-503,941	-57,697	0,062	0,020
-502,926	-200,000	-0,012	0,045
-501,912	539,578	0,064	-0,110
-500,897	279,245	-0,034	0,044
-499,883	-110,502	0,053	0,008
-498,868	-200,000	0,055	0,191
-497,853	-30,953	-0,150	0,061
-496,839	-200,000	-0,129	-0,000
-495,824	-200,000	-0,019	0,070
-494,810	-200,000	-0,014	0,084
-493,795	-128,198	0,014	-0,001
-492,781	-70,719	-0,084	0,023
-491,766	800,000	-0,020	-0,051
-490,751	-164,343	0,068	0,002
-489,737	58,521	0,063	-0,045
-488,722	1,850	0,088	0,046
-487,708	-200,000	0,045	0,189
-486,693	-120,562	-0,029	0,004
-485,678	764,190	0,030	0,059
-484,664	800,000	-0,033	0,092
-483,649	800,000	-0,031	0,080
-482,635	-33,726	0,056	-0,022
-481,620	-200,000	0,018	0,112
-480,605	-44,672	0,150	0,054
-479,591	-120,472	-0,075	-0,009
-478,576	625,592	0,025	0,046
-477,562	-200,000	0,007	0,029
-476,547	-44,936	-0,116	-0,041
-475,532	93,115	0,069	0,056
-474,518	296,729	-0,057	0,076
-473,503	107,580	-0,142	0,122
-472,489	-200,000	0,032	0,182
-471,474	267,770	-0,004	-0,005
-470,459	800,000	-0,032	0,084
-469,445	660,666	-0,064	-0,119
-468,430	-200,000	-0,032	-0,124
-467,416	50,556	0,055	-0,038
-466,401	-137,019	0,127	0,010
-465,386	-66,696	0,085	0,024
-464,372	-99,500	-0,092	-0,017
-463,357	800,000	0,022	-0,066
-462,343	800,000	0,018	0,051
-461,328	-66,706	0,053	0,015
-460,313	328,621	-0,061	0,084
-459,299	-200,000	-0,014	-0,056
-458,284	-99,284	0,245	0,044
-457,270	-200,000	0,020	-0,103
-456,255	-69,371	0,094	-0,026
-455,241	-91,459	-0,061	0,012
-454,226	-200,000	-0,014	-0,118
-453,211	86,736	0,068	-0,054
-452,197	-200,000	0,003	0,029
-451,182	225,491	-0,105	0,122
-450,168	-200,000	-0,010	-0,049
-449,153	53,203	0,079	0,055
-448,138	268,132	-0,011	0,014
-447,124	-200,000	-0,003	-0,057
-446,109	141,162	0,081	-0,077
-445,095	256,850	-0,038	0,047
-444,080	-53,757	0,181	0,059
-443,065	-77,040	0,060	0,015
-442,051	361,859	-0,070	0,101
-441,036	-80,205	0,078	0,019
-440,022	-27,351	-0,067	0,028
-439,007	11,607	0,084	-0,046
-437,992	-81,534	0,096	0,023
-436,978	-200,000	0,026	0,175
-435,963	-121,327	0,019	0,002
-434,949	-169,935	0,050	0,001
-433,934	223,877	-0,081	-0,094
-432,919	150,626	-0,069	-0,067
-431,905	-48,806	0,025	0,008
-430,890	-17,938	0,122	-0,055
-429,876	713,066	0,045	0,086
-428,861	449,635	-0,048	-0,076
-427,846	66,273	-0,124	0,091
-426,832	300,908	0,057	0,076
-425,817	56,212	-0,141	-0,098
-424,803	371,972	-0,073	0,107
-423,788	-83,787	-0,110	-0,025
-422,773	800,000	0,067	0,179
-421,759	-149,547	0,067	0,004
-420,744	6,662	0,149	0,079
-419,730	110,717	-0,075	-0,065
-418,715	125,135	-0,061	-0,056
-417,701	-147,218	-0,046	0,003
-416,686	106,889	0,025	0,021
-415,671	355,624	-0,081	0,116
-414,657	-53,766	0,086	0,028
-413,642	-200,000	-0,018	-0,135
-412,628	310,813	0,072	-0,096
-411,613	800,000	-0,038	-0,094
-410,598	800,000	0,030	0,071
-409,584	-200,000	0,041	0,144
-408,569	147,831	0,015	0,015
-407,555	-200,000	0,008	-0,047
-406,540	800,000	-0,020	0,064
-405,525	-130,545	-0,170	-0,016
-404,511	-187,429	-0,245	-0,002
-403,496	-28,619	-0,042	-0,017
-402,482	-45,154	0,091	-0,032
-401,467	-21,567	-0,058	-0,025
-400,452	-200,000	-0,012	0,121
-399,438	128,482	0,079	0,072
-398,423	-200,000	0,003	-0,026
-397,409	800,000	0,041	-0,124
-396,394	800,000	-0,019	-0,044
-395,379	-200,000	0,006	0,077
-394,365	800,000	0,020	0,044
-393,350	101,464	0,136	0,114
-392,336	-200,000	0,033	0,131
-391,321	-16,776	-0,089	0,040
-390,306	-38,647	-0,085	-0,032
-389,292	36,781	-0,107	-0,068
-388,277	-179,306	0,078	-0,001
-387,263	213,117	0,024	-0,027
-386,248	187,113	-0,038	0,041
-385,233	-128,438	-0,019	-0,002
-384,219	-89,923	-0,160	-0,033
-383,204	77,849	0,061	-0,047
-382,190	-200,000	0,030	-0,117
-381,175	-94,666	0,042	-0,008
-380,160	-200,000	0,003	-0,121
-379,146	3,441	-0,028	0,015
-378,131	-200,000	-0,012	-0,069
-377,117	-74,290	-0,192	0,049
-376,102	470,778	-0,060	0,097
-375,088	322,162	0,044	-0,060
-374,073	-200,000	-0,009	-0,146
-373,058	800,000	-0,020	-0,054
-372,044	-79,076	0,070	0,017
-371,029	-200,000	0,028	-0,092
-370,015	800,000	0,054	-0,124
-369,000	-77,812	-0,071	-0,018
-367,985	-93,883	0,078	0,015
-366,971	-54,861	-0,066	-0,021
-365,956	94,417	-0,031	-0,025
-364,942	-200,000	0,019	0,103
-363,927	800,000	0,017	-0,049
-362,912	-89,829	0,026	0,005
-361,898	-128,616	-0,068	-0,007
-360,883	800,000	-0,023	0,063
-359,869	-200,000	0,028	0,090
-358,854	-200,000	0,023	0,130
-357,839	-167,136	-0,046	-0,001
-356,825	800,000	-0,012	0,034
-355,810	-200,000	-0,009	0,042
-354,796	581,370	0,023	-0,041
-353,781	312,861	0,076	-0,103
-352,766	36,487	-0,046	-0,029
-351,752	134,186	-0,063	-0,059
-350,737	800,000	-0,059	0,162
-349,723	-200,000	-0,009	0,118
-348,708	-200,000	-0,003	0,109
-347,693	-200,000	0,013	-0,070
-346,679	-77,134	-0,063	0,016
-345,664	-172,884	-0,071	-0,002
-344,650	800,000	-0,038	0,076
-343,635	-128,678	0,127	0,013
-342,620	262,751	-0,077	0,095
-341,606	800,000	0,020	0,043
-340,591	27,650	-0,029	0,017
-339,577	112,440	0,040	-0,035
-338,562	-59,000	-0,152	-0,047
-337,548	-183,833	0,103	-0,001
-336,533	-91,925	-0,113	0,023
-335,518	58,289	0,026	-0,018
-334,504	62,445	0,162	0,115
-333,489	-5,213	0,038	0,019
-332,475	45,602	-0,032	-0,021
-331,460	800,000	-0,010	-0,031
-330,445	8,718	0,143	-0,077
-329,431	-200,000	0,067	-0,224
-328,416	7,131	0,148	-0,079
-327,402	356,031	-0,031	-0,045
-326,387	68,447	0,094	-0,069
-325,372	343,196	-0,053	-0,075
-324,358	-144,359	-0,134	-0,009
-323,343	72,078	0,036	0,027
-322,329	711,122	0,024	0,045
-321,314	188,033	-0,094	0,100
-320,299	-200,000	0,013	0,064
-319,285	800,000	-0,010	-0,025
-318,270	-83,587	0,045	-0,010
-317,256	-200,000	0,018	0,092
-316,241	131,507	-0,078	0,072
-315,226	-108,820	-0,061	-0,009
-314,212	-6,751	0,140	0,068
-313,197	800,000	-0,037	0,083
-312,183	-200,000	-0,002	-0,221
-311,168	131,435	-0,052	-0,048
-310,153	-85,496	0,031	0,007
-309,139	187,714	-0,050	0,053
-308,124	34,191	-0,055	0,034
-307,110	-200,000	0,002	0,015
-306,095	-34,938	0,107	0,042
-305,080	176,542	0,068	0,071
-304,066	-103,223	0,056	0,009
-303,051	-19,663	-0,129	-0,057
-302,037	717,360	-0,027	0,051
-301,022	-145,642	0,007	-0,000
-300,008	-104,802	-0,065	0,011
-298,993	-180,191	-0,072	0,001
-297,978	108,462	-0,145	-0,124
-296,964	-63,399	0,096	-0,028
-295,949	-200,000	0,003	-0,084
-294,935	-73,393	0,065	-0,017
-293,920	164,467	0,057	-0,058
-292,905	57,344	-0,007	-0,005
-291,891	800,000	0,037	-0,108
-290,876	-200,000	-0,007	0,070
-289,862	-200,000	-0,015	0,057
-288,847	-200,000	-0,000	-0,132
-287,832	800,000	-0,047	-0,117
-286,818	800,000	-0,043	-0,112
-285,803	100,926	0,060	0,050
-284,789	800,000	0,035	0,098
-283,774	-200,000	0,024	0,094
-282,759	-200,000	-0,018	0,101
-281,745	-200,000	0,005	-0,126
-280,730	125,333	-0,120	-0,108
-279,716	-38,517	0,059	-0,022
-278,701	522,076	-0,037	-0,063
-277,686	-31,528	-0,039	-0,016
-276,672	22,309	-0,036	0,021
-275,657	-200,000	-0,004	0,031
-274,643	792,558	0,056	-0,110
-273,628	-200,000	-0,013	-0,116
-272,613	125,697	-0,017	-0,015
-271,599	-88,220	0,075	-0,016
-270,584	-200,000	0,011	-0,041
-269,570	89,850	0,098	-0,078
-268,555	-38,513	0,091	0,034
-267,540	-200,000	-0,056	0,000
-266,526	76,340	0,048	0,037
-265,511	219,288	-0,159	-0,182
-264,497	-71,196	0,036	0,010
-263,482	-101,980	0,096	-0,016
-262,467	-53,351	0,128	-0,042
-261,453	-200,000	0,015	-0,070
-260,438	-43,468	-0,017	-0,006
-259,424	11,943	-0,070	0,038
-258,409	-61,416	0,077	0,023
-257,395	162,703	0,107	-0,107
-256,380	-181,222	-0,029	0,000
-255,365	335,711	0,102	0,142
-254,351	602,752	-0,028	-0,050
-253,336	800,000	0,019	-0,059
-252,322	-90,476	0,033	0,007
-251,307	-84,711	0,071	0,016
-250,292	0,428	-0,051	0,026
-249,278	3,276	0,137	0,071
-248,263	800,000	0,035	0,099
-247,249	68,668	-0,094	0,068
-246,234	61,030	-0,154	-0,109
-245,219	800,000	0,029	0,087
-244,205	188,265	0,056	-0,060
-243,190	-200,000	-0,012	-0,070
-242,176	-200,000	-0,005	0,023
-241,161	-200,000	0,006	0,100
-240,146	-200,000	0,015	-0,152
-239,132	97,318	0,095	-0,078
-238,117	-8,080	-0,073	-0,035
-237,103	206,354	0,041	-0,046
-236,088	-26,909	-0,057	-0,023
-235,073	250,677	0,037	0,044
-234,059	355,639	-0,035	0,050
-233,044	-63,620	0,108	-0,031
-232,030	27,976	0,068	0,041
-231,015	-200,000	0,008	-0,034
-230,000	800,000	-0,035	-0,069
-228,986	48,364	0,056	0,037
-227,971	-200,000	0,012	0,097
-226,957	-130,651	-0,056	0,005
-225,942	-200,000	0,006	0,161
-224,927	-45,866	0,092	-0,032
-223,913	-126,476	0,060	-0,006
-222,898	-5,508	-0,040	0,019
-221,884	800,000	0,034	-0,075
-220,869	-200,000	0,025	0,108
-219,855	-200,000	-0,046	0,145
-218,840	222,607	0,037	-0,043
-217,825	800,000	-0,012	-0,034
-216,811	-200,000	0,012	-0,057
-215,796	-200,000	0,029	-0,100
-214,782	299,430	0,008	-0,011
-213,767	-200,000	-0,006	0,038
-212,752	800,000	0,066	-0,147
-211,738	374,168	0,035	0,051
-210,723	-200,000	-0,013	-0,105
-209,709	433,734	0,115	-0,178
-208,694	-124,462	-0,123	0,013
-207,679	800,000	-0,023	-0,066
-206,665	800,000	0,033	0,099
-205,650	-200,000	-0,009	0,131
-204,636	-200,000	0,008	-0,064
-203,621	-56,376	0,106	-0,033
-202,606	-51,036	0,052	0,017
-201,592	644,199	0,048	0,088
-200,577	-200,000	0,018	-0,085
-199,563	14,626	-0,186	-0,103
-198,548	255,607	0,082	0,100
-197,533	-62,154	0,090	-0,027
-196,519	-56,577	-0,162	-0,051
-195,504	-199,116	0,081	0,000
-194,490	366,490	-0,086	-0,124
-193,475	-4,472	-0,052	0,026
-192,460	-190,754	0,125	0,001
-191,446	73,557	-0,077	0,057
-190,431	-200,000	0,008	0,094
-189,417	-98,978	-0,017	0,003
-188,402	-79,156	-0,040	-0,010
-187,387	562,522	-0,046	-0,079
-186,373	89,445	-0,111	0,088
-185,358	-104,148	0,127	0,021
-184,344	-120,818	0,108	0,013
-183,329	-123,371	-0,140	-0,016
-182,315	-200,000	-0,028	0,104
-181,300	-187,818	-0,081	0,001
-180,285	8,968	-0,103	-0,055
-179,271	35,451	-0,038	0,024
-178,256	5,202	-0,040	-0,021
-177,242	216,584	-0,090	0,102
-176,227	82,143	0,068	0,052
-175,212	-101,945	0,089	0,015
-174,198	254,198	0,132	0,161
-173,183	800,000	-0,052	0,121
-172,169	800,000	-0,009	0,023
-171,154	22,630	0,088	0,051
-170,139	-88,843	0,074	-0,015
-169,125	-95,274	0,043	0,008
-168,110	-188,715	0,070	0,001
-167,096	433,088	0,021	0,032
-166,081	-200,000	-0,029	-0,151
-165,066	164,995	-0,074	-0,074
-164,052	197,335	0,063	-0,068
-163,037	12,613	0,036	0,020
-162,023	-200,000	0,002	0,083
-161,008	800,000	0,047	-0,118
-159,993	534,240	0,074	0,125
-158,979	600,524	0,044	0,077
-157,964	-26,532	0,133	-0,055
-156,950	-154,733	0,118	0,005
-155,935	34,276	0,055	0,034
-154,920	123,624	-0,036	0,032
-153,906	-200,000	0,036	-0,121
-152,891	507,027	0,019	0,031
-151,877	-200,000	0,009	-0,096
-150,862	-200,000	-0,004	0,059
-149,847	-139,262	0,081	0,006
-148,833	111,466	0,043	0,037
-147,818	23,262	-0,029	-0,017
-146,804	19,842	0,085	0,049
-145,789	-115,992	0,099	0,013
-144,775	91,103	0,095	0,076
-143,760	26,603	-0,069	0,041
-142,745	-115,219	0,134	-0,018
-141,731	800,000	0,048	0,132
-140,716	99,691	0,143	0,118
-139,702	80,989	-0,071	0,054
-138,687	621,850	-0,077	0,139
-137,672	-200,000	-0,006	0,024
-136,658	230,975	0,042	0,049
-135,643	-200,000	-0,004	-0,112
-134,629	-93,378	0,149	-0,029
-133,614	-83,423	0,102	0,023
-132,599	-122,939	0,056	-0,006
-131,585	800,000	-0,034	0,073
-130,570	258,528	0,067	-0,082
-129,556	250,006	0,023	-0,028
-128,541	-200,000	0,038	-0,234
-127,526	-200,000	0,014	-0,075
-126,512	-200,000	-0,011	-0,092
-125,497	-200,000	-0,011	0,130
-124,483	112,808	-0,024	0,021
-123,468	-107,939	-0,082	-0,012
-122,453	-87,354	-0,146	0,031
-121,439	800,000	0,025	0,078
-120,424	800,000	0,047	0,137
-119,410	-200,000	0,024	0,103
-118,395	151,997	0,113	0,109
-117,380	601,356	-0,022	0,038
-116,366	391,086	-0,085	-0,125
-115,351	-178,524	-0,098	0,002
-114,337	-157,999	0,028	0,001
-113,322	800,000	-0,059	-0,126
-112,307	747,633	0,072	-0,139
-111,293	800,000	-0,036	0,102
-110,278	800,000	0,044	0,091
-109,264	91,472	-0,081	0,064
-108,249	800,000	-0,028	-0,076
-107,234	-72,068	-0,034	0,009
-106,220	800,000	-0,054	-0,143
-105,205	53,630	-0,052	-0,035
-104,191	-58,580	0,130	0,040
-103,176	73,111	0,089	0,066
-102,162	-134,053	-0,134	-0,012
-101,147	-200,000	-0,049	-0,178
-100,132	204,435	-0,032	0,035
-99,118	-163,133	-0,008	-0,000
-98,103	362,573	0,047	-0,067
-97,089	367,261	-0,037	0,053
-96,074	-82,378	-0,105	-0,024
-95,059	292,021	0,045	0,058
-94,045	189,057	-0,064	-0,068
-93,030	-200,000	0,006	0,114
-92,016	339,558	-0,053	-0,074
-91,001	464,192	0,096	-0,153
-89,986	259,159	-0,045	-0,055
-88,972	-103,613	-0,087	-0,014
-87,957	92,443	0,051	-0,041
-86,943	-200,000	-0,001	-0,080
-85,928	-200,000	0,029	-0,150
-84,913	70,291	0,036	-0,027
-83,899	101,533	-0,157	-0,130
-82,884	-200,000	0,027	-0,124
-81,870	800,000	-0,023	0,056
-80,855	679,673	-0,082	0,152
-79,840	396,475	-0,069	-0,102
-78,826	60,212	-0,126	0,088
-77,811	29,828	0,116	-0,070
-76,797	-200,000	0,018	-0,106
-75,782	23,009	-0,121	0,070
-74,767	-72,908	0,072	-0,019
-73,753	96,912	-0,055	-0,045
-72,738	-200,000	-0,008	-0,025
-71,724	444,179	-0,075	-0,118
-70,709	-200,000	-0,009	0,029
-69,694	-200,000	0,001	0,086
-68,680	-200,000	-0,006	0,064
-67,665	51,137	0,063	0,042
-66,651	-200,000	-0,004	-0,081
-65,636	3,386	0,053	0,028
-64,622	-120,094	0,072	0,009
-63,607	322,472	-0,038	-0,051
-62,592	800,000	0,009	0,022
-61,578	-96,751	0,067	-0,012
-60,563	-113,581	-0,025	-0,003
-59,549	-200,000	0,000	0,058
-58,534	-13,384	-1,421	-0,650
-57,519	384,885	-1,388	-2,033
-56,505	-200,000	-0,650	-4,765
-55,490	151,488	1,042	1,006
-54,476	800,000	4,980	11,464
-53,461	-200,000	18,982	309,349
-52,446	-200,000	738,172	2310,001
-51,432	571,744	1654,560	2865,186
-50,417	79,169	1670,998	1266,730
-49,403	22,003	1544,019	889,537
-48,388	15,888	1466,768	815,293
-47,373	17,824	1456,646	818,996
-46,359	16,875	1446,979	808,973
-45,344	14,179	1442,215	793,358
-44,330	14,042	1440,553	791,759
-43,315	14,054	1438,707	790,772
-42,300	14,095	1436,969	789,978
-41,286	14,118	1435,807	789,420
-40,271	14,042	1434,505	788,309
-39,257	14,057	1433,350	787,714
-38,242	14,106	1431,996	787,174
-37,227	14,104	1430,816	786,485
-36,213	14,124	1429,427	785,780
-35,198	14,151	1428,275	785,247
-34,184	14,169	1427,360	784,800
-33,169	14,060	1426,178	783,602
-32,154	14,128	1425,032	783,263
-31,140	14,097	1423,742	782,373
-30,125	14,141	1422,621	781,938
-29,111	14,111	1421,328	781,052
-28,096	14,121	1420,417	780,566
-27,082	14,034	1419,402	779,568
-26,067	14,036	1418,063	778,809
-25,052	14,039	1417,071	778,248
-24,038	14,038	1416,151	777,708
-23,023	14,013	1415,147	777,011
-22,009	14,037	1414,163	776,549
-20,994	14,009	1413,461	776,003
-19,979	13,994	1412,502	775,374
-18,965	13,983	1411,444	774,711
-17,950	13,968	1410,855	774,287
-16,936	13,964	1409,618	773,561
-15,921	13,910	1408,552	772,689
-14,906	13,914	1407,657	772,187
-13,892	14,004	1406,574	771,983
-12,877	13,971	1405,690	771,313
-11,863	13,962	1404,806	770,754
-10,848	13,910	1404,004	770,042
-9,833	13,905	1403,104	769,494
-8,819	13,883	1402,331	768,937
-7,804	13,872	1401,330	768,310
-6,790	13,870	1400,322	767,717
-5,775	13,892	1399,178	767,159
-4,760	13,909	1398,051	766,590
-3,746	13,849	1397,303	765,874
-2,731	13,817	1396,493	765,251
-1,717	13,803	1395,649	764,693
-0,702	13,840	1393,854	763,850
0,313	17,665	1311,639	736,539
1,327	34,030	705,876	434,297
2,342	52,426	123,958	83,593
3,356	1,463	16,700	8,473
4,371	-2,234	3,208	1,588
5,386	-106,552	0,572	0,089
6,400	-200,000	0,072	0,302
7,415	104,031	-0,155	-0,129
8,429	68,078	-0,313	-0,226
9,444	167,429	-0,218	-0,220
10,459	-91,192	-0,284	-0,057
11,473	-33,920	-0,267	-0,103
12,488	-175,042	-0,311	0,006
13,502	-116,012	-0,327	-0,043
14,517	83,230	-0,268	-0,206
15,531	56,832	-0,467	-0,321
16,546	77,770	-0,402	-0,302
17,561	9,109	-0,473	-0,252
18,575	116,058	-0,230	-0,199
19,590	70,294	-0,271	-0,198
20,604	76,875	-0,219	-0,164
21,619	63,368	-0,576	-0,408
22,634	199,529	-0,354	-0,384
23,648	267,420	-0,346	-0,429
24,663	185,178	-0,347	-0,364
25,677	186,146	-0,292	-0,307
26,692	93,921	-0,380	-0,305
27,707	2,840	-0,466	-0,238
28,721	800,000	-0,081	-0,199
29,736	33,778	-0,374	-0,229
30,750	64,775	-0,463	-0,329
31,765	57,071	-0,458	-0,315
32,780	33,830	-0,441	-0,270
33,794	177,507	-0,273	-0,281
34,809	-15,177	-0,339	-0,153
35,823	40,150	-0,348	-0,220
36,838	373,024	-0,250	-0,360
37,853	22,254	-0,423	-0,243
38,867	245,098	-0,334	-0,397
39,882	284,940	-0,264	-0,337
40,896	148,446	-0,367	-0,350
41,911	83,908	-0,299	-0,230
42,926	-17,268	-0,404	-0,179
43,940	27,847	-0,420	-0,249
44,955	11,588	-0,434	-0,234
45,969	94,342	-0,316	-0,253
46,984	164,490	-0,300	-0,299
47,999	216,414	-0,186	-0,209
49,013	40,250	-0,319	-0,202
50,028	35,150	-0,370	-0,228
51,042	-36,223	-0,399	-0,151
52,057	156,844	-0,333	-0,325
53,071	132,751	-0,332	-0,302
54,086	10,019	-0,430	-0,229
55,101	71,050	-0,395	-0,288
56,115	12,638	-0,358	-0,194
57,130	43,230	-0,287	-0,184
58,144	16,697	-0,424	-0,236
59,159	127,708	-0,344	-0,308
60,174	58,067	-0,375	-0,258
61,188	10,468	-0,359	-0,192
62,203	-52,420	-0,246	-0,080
63,217	50,403	-0,194	-0,129
64,232	-38,746	-0,256	-0,095
65,247	7,443	-0,387	-0,203
66,261	61,679	-0,395	-0,276
67,276	73,014	-0,366	-0,269
68,290	14,199	-0,287	-0,157
69,305	117,370	-0,228	-0,197
70,320	-59,618	-0,322	-0,097
71,334	51,286	-0,305	-0,203
72,349	149,173	-0,365	-0,347
73,363	12,189	-0,317	-0,171
74,378	302,892	-0,231	-0,301
75,393	81,029	-0,278	-0,211
76,407	30,119	-0,262	-0,157
77,422	383,533	-0,208	-0,302
78,436	169,056	-0,238	-0,239
79,451	-5,341	-0,269	-0,130
80,466	68,733	-0,359	-0,259
81,480	42,663	-0,278	-0,177
82,495	67,304	-0,359	-0,257
83,509	-52,821	-0,423	-0,136
84,524	3,230	-0,270	-0,137
85,539	-55,431	-0,240	-0,075
86,553	-99,098	-0,230	0,040
87,568	-38,181	-0,364	-0,135
88,582	73,374	-0,279	-0,205
89,597	360,249	-0,241	-0,340
90,611	174,418	-0,234	-0,238
91,626	116,068	-0,149	-0,128
92,641	49,110	-0,375	-0,247
93,655	-76,845	-0,213	-0,052
94,670	-58,419	-0,315	-0,095
95,684	-76,652	-0,393	-0,096
96,699	241,377	-0,216	-0,253
97,714	72,245	-0,340	-0,248
98,728	-16,377	-0,289	-0,128
99,743	188,482	-0,196	-0,206
100,757	-89,693	-0,260	-0,053
101,772	-69,370	-0,416	-0,111
102,787	118,936	-0,217	-0,188
103,801	71,940	-0,371	-0,271
104,816	-59,030	-0,294	-0,088
105,830	-14,659	-0,291	-0,130
106,845	-23,819	-0,302	-0,126
107,860	26,331	-0,339	-0,198
108,874	46,727	-0,372	-0,242
109,889	394,066	-0,188	-0,275
110,903	171,510	-0,273	-0,275
111,918	-73,353	-0,332	-0,085
112,933	367,951	-0,213	-0,302
113,947	222,428	-0,183	-0,207
114,962	-52,447	-0,261	-0,084
115,976	71,168	-0,331	-0,240
116,991	-49,282	-0,415	-0,138
118,006	32,852	-0,212	-0,128
119,020	13,533	-0,229	-0,124
120,035	53,871	-0,273	-0,183
121,049	77,035	-0,281	-0,209
122,064	70,972	-0,237	-0,171
123,079	-15,009	-0,359	-0,161
124,093	150,652	-0,293	-0,279
125,108	245,740	-0,225	-0,265
126,122	67,550	-0,321	-0,230
127,137	-143,497	-0,284	0,019
128,151	-200,000	-0,076	-0,246
129,166	25,058	-0,245	-0,142
130,181	329,917	-0,163	-0,220
131,195	174,390	-0,225	-0,228
132,210	84,455	-0,289	-0,221
133,224	514,952	-0,224	-0,368
134,239	7,889	-0,179	-0,094
135,254	-1,118	-0,166	-0,082
136,268	45,965	-0,246	-0,159
137,283	739,339	-0,164	-0,308
138,297	86,088	-0,208	-0,160
139,312	140,710	-0,273	-0,252
140,327	214,403	-0,237	-0,263
141,341	590,378	-0,133	-0,231
142,356	159,196	-0,194	-0,189
143,370	94,335	-0,216	-0,171
144,385	-19,474	-0,202	-0,087
145,400	-25,390	-0,362	-0,149
146,414	235,923	-0,232	-0,269
147,429	-34,776	-0,183	-0,070
148,443	23,009	-0,266	-0,152
149,458	157,151	-0,224	-0,216
150,473	17,796	-0,235	-0,130
151,487	64,810	-0,206	-0,145
152,502	-67,323	-0,194	-0,053
153,516	208,496	-0,295	-0,323
154,531	115,381	-0,243	-0,207
155,546	52,062	-0,228	-0,152
156,560	-51,444	-0,273	-0,089
157,575	-90,579	-0,194	-0,039
158,589	-20,161	-0,192	-0,082
159,604	163,790	-0,290	-0,285
160,619	255,099	-0,250	-0,300
161,633	80,168	-0,293	-0,220
162,648	162,493	-0,208	-0,204
163,662	192,223	-0,150	-0,158
164,677	120,077	-0,201	-0,174
165,692	42,419	-0,207	-0,131
166,706	78,334	-0,180	-0,134
167,721	128,210	-0,261	-0,232
168,735	163,674	-0,350	-0,343
169,750	-16,063	-0,252	-0,111
170,764	263,894	-0,140	-0,170
171,779	-7,037	-0,159	-0,075
172,794	246,233	-0,128	-0,150
173,808	-12,687	-0,287	-0,130
174,823	800,000	-0,090	-0,219
175,837	72,889	-0,302	-0,220
176,852	765,430	-0,122	-0,233
177,867	201,205	-0,174	-0,187
178,881	137,944	-0,200	-0,183
179,896	21,091	-0,235	-0,133
180,910	-58,038	-0,293	-0,089
181,925	283,478	-0,267	-0,335
182,940	153,009	-0,173	-0,165
183,954	288,514	-0,247	-0,312
184,969	71,488	-0,170	-0,123
185,983	30,681	-0,174	-0,103
186,998	49,842	-0,124	-0,082
188,013	107,475	-0,221	-0,183
189,027	-51,316	-0,329	-0,106
190,042	141,877	-0,335	-0,309
191,056	150,673	-0,230	-0,218
192,071	49,303	-0,151	-0,099
193,086	398,982	-0,125	-0,182
194,100	-91,228	-0,160	0,032
195,115	69,177	-0,219	-0,157
196,129	-200,000	-0,055	-0,198
197,144	575,369	-0,127	-0,217
198,159	630,089	-0,158	-0,279
199,173	-159,263	-0,337	0,013
200,188	29,523	-0,251	-0,148
201,202	6,856	-0,252	-0,130
202,217	83,001	-0,157	-0,119
203,232	-13,300	-0,316	-0,142
204,246	800,000	-0,123	-0,277
205,261	50,138	-0,298	-0,195
206,275	-74,996	-0,199	-0,049
207,290	30,706	-0,131	-0,077
208,304	-26,142	-0,160	-0,065
209,319	-117,447	-0,172	0,021
210,334	150,499	-0,186	-0,176
211,348	-200,000	-0,017	-0,121
212,363	91,761	-0,257	-0,200
213,377	155,588	-0,116	-0,111
214,392	6,824	-0,126	-0,065
215,407	27,166	-0,322	-0,187
216,421	112,509	-0,076	-0,064
217,436	800,000	-0,065	-0,155
218,450	96,908	-0,163	-0,130
219,465	134,436	-0,102	-0,092
220,480	181,597	-0,129	-0,132
221,494	193,990	-0,196	-0,207
222,509	99,962	-0,130	-0,105
223,523	800,000	-0,034	0,074
224,538	-7,416	-0,283	-0,132
225,553	215,676	-0,211	-0,233
226,567	6,634	-0,262	-0,135
227,582	112,706	-0,197	-0,166
228,596	315,524	-0,123	-0,161
229,611	259,097	-0,163	-0,195
230,626	-87,240	-0,201	-0,042
231,640	-21,167	-0,183	-0,077
232,655	59,225	-0,253	-0,173
233,669	-55,478	-0,271	-0,084
234,684	64,091	-0,181	-0,126
235,699	143,333	-0,173	-0,160
236,713	-200,000	-0,068	-0,230
237,728	800,000	-0,056	-0,159
238,742	-92,520	-0,271	-0,052
239,757	32,764	-0,270	-0,161
240,772	119,301	-0,116	-0,099
241,786	-4,341	-0,275	-0,131
242,801	98,299	-0,209	-0,167
243,815	-138,847	-0,158	0,012
244,830	786,029	-0,091	-0,174
245,844	135,536	-0,258	-0,233
246,859	224,402	-0,150	-0,168
247,874	97,518	-0,159	-0,127
248,888	72,410	-0,324	-0,233
249,903	541,223	-0,132	-0,218
250,917	800,000	-0,083	-0,169
251,932	58,388	-0,166	-0,113
252,947	459,181	-0,145	-0,225
253,961	257,816	-0,149	-0,178
254,976	502,780	-0,131	-0,211
255,990	-6,011	-0,263	-0,124
257,005	-68,333	-0,266	-0,071
258,020	39,801	-0,109	0,067
259,034	-200,000	-0,007	-0,089
260,049	41,294	-0,213	-0,133
261,063	165,847	-0,152	-0,149
262,078	112,325	-0,357	-0,299
263,093	444,551	-0,112	-0,170
264,107	445,709	-0,157	-0,239
265,122	212,472	-0,135	-0,148
266,136	230,157	-0,122	-0,138
267,151	37,938	-0,276	-0,169
268,166	150,246	-0,212	-0,199
269,180	-99,615	-0,186	-0,032
270,195	25,226	-0,192	-0,110
271,209	386,867	-0,135	-0,194
272,224	-11,103	-0,062	-0,028
273,239	643,291	-0,167	-0,295
274,253	-200,000	-0,001	-0,218
275,268	109,028	-0,297	-0,245
276,282	101,704	-0,287	-0,231
277,297	51,912	-0,228	-0,150
278,312	76,899	-0,184	-0,135
279,326	800,000	-0,122	-0,259
280,341	-62,546	-0,186	-0,053
281,355	306,911	-0,125	-0,162
282,370	-71,576	-0,287	-0,074
283,384	151,519	-0,133	-0,125
284,399	39,689	-0,208	-0,128
285,414	40,341	-0,154	-0,095
286,428	143,760	-0,215	-0,198
287,443	206,227	-0,101	0,109
288,457	244,951	-0,084	-0,098
289,472	71,567	-0,147	-0,105
290,487	-51,447	-0,143	-0,046
291,501	195,454	-0,132	-0,139
292,516	164,459	-0,201	-0,195
293,530	-200,000	-0,018	-0,245
294,545	800,000	-0,129	-0,297
295,560	-16,439	-0,172	-0,075
296,574	311,381	-0,161	-0,208
297,589	-21,704	-0,227	-0,095
298,603	-75,950	-0,192	-0,047
299,618	-200,000	-0,159	-0,000
300,633	364,813	-0,121	-0,168
301,647	-200,000	0,001	-0,126
302,662	329,424	-0,060	-0,080
303,676	134,534	-0,076	-0,068
304,691	-144,098	-0,118	-0,008
305,706	4,050	-0,216	-0,108
306,720	99,471	-0,088	-0,070
307,735	98,474	-0,184	-0,146
308,749	6,118	-0,101	-0,051
309,764	-144,467	-0,128	0,008
310,779	-6,354	-0,110	-0,052
311,793	14,800	-0,081	-0,043
312,808	83,886	-0,213	-0,160
313,822	90,587	-0,151	-0,116
314,837	108,706	-0,172	-0,142
315,852	294,456	-0,108	-0,137
316,866	-37,150	-0,124	0,046
317,881	-200,000	0,002	-0,049
318,895	93,221	-0,045	-0,035
319,910	-35,887	-0,306	-0,113
320,925	100,552	-0,220	-0,176
321,939	230,222	-0,156	-0,176
322,954	-8,185	-0,069	0,032
323,968	-5,857	-0,069	-0,032
324,983	-0,077	-0,161	-0,079
325,997	84,113	-0,187	-0,140
327,012	178,466	-0,151	-0,152
328,027	309,327	-0,120	-0,155
329,041	745,327	-0,119	-0,221
330,056	-200,000	0,004	-0,124
331,070	-139,943	-0,135	-0,010
332,085	153,888	-0,127	-0,119
333,100	800,000	-0,041	-0,078
334,114	309,705	-0,125	-0,161
335,129	-145,742	-0,250	-0,015
336,143	14,821	-0,079	-0,042
337,158	54,056	-0,098	-0,065
338,173	-98,966	-0,027	0,005
339,187	-34,851	-0,043	-0,016
340,202	800,000	-0,045	-0,122
341,216	-161,804	-0,062	-0,002
342,231	569,350	-0,118	-0,199
343,246	56,673	-0,243	-0,162
344,260	360,454	-0,025	-0,035
345,275	12,860	-0,076	-0,040
346,289	374,402	-0,087	-0,122
347,304	800,000	-0,090	-0,201
348,319	174,663	-0,141	-0,140
349,333	37,458	-0,075	0,045
350,348	-56,887	-0,084	0,025
351,362	182,627	-0,114	-0,116
352,377	41,276	-0,097	-0,060
353,392	-13,121	-0,072	0,032
354,406	-36,895	-0,166	-0,061
355,421	208,279	1316,234	1413,546
356,435	160,247	1477,157	1414,025
