DTS Sentinel unit serial number:	SN410029Multiplexer serial number:	ORYXHardware model number:	OX2-SRSoftware version number:	ORYX F/W v4,00 Oryx Data Collector v3.7.2.0data status	okinstallation	B3 Nyhavnadifferential loss correction	single-endedforward channel	channel 1reverse channel	N/Adate	2023/11/29time	19:37:30forward acquisition time	300,00reverse acquisition time	0,00gamma	499,1914k internal	0,3210k external	0,3210temperature offset calibration	1,0000default loss term (dB/km)	0,3820temperature slope calibration	1,0000multiplexer offset coefficient	1,0000multiplexer slope coefficient	1,0000fibre end	0,00T internal ref (°C)	10,93T ext. ref 1 (°C)	-4,39T ext. ref 2 (°C)	-4,49length (m)	temperature (°C)	Stokes	anti-Stokes-744,400	800,000	-0,104	-0,296
-743,385	-200,000	-0,046	0,319
-742,371	800,000	-0,176	-0,373
-741,356	315,617	0,150	0,206
-740,342	158,556	-0,238	-0,240
-739,327	475,048	0,199	0,327
-738,312	282,529	-0,234	-0,305
-737,298	-200,000	0,010	0,147
-736,283	147,700	-0,196	-0,192
-735,269	-200,000	0,053	0,309
-734,254	800,000	-0,120	-0,290
-733,239	-145,494	-0,126	0,008
-732,225	198,784	-0,084	-0,093
-731,210	342,728	0,111	0,158
-730,196	263,265	0,024	0,031
-729,181	-200,000	-0,004	-0,042
-728,167	800,000	-0,032	-0,090
-727,152	573,479	0,071	0,126
-726,137	636,026	0,004	0,008
-725,123	18,052	-0,153	-0,088
-724,108	800,000	-0,069	-0,149
-723,094	261,065	-0,073	-0,092
-722,079	-72,353	0,086	-0,023
-721,064	-124,275	-0,067	-0,007
-720,050	79,942	-0,137	-0,107
-719,035	-58,990	0,077	-0,024
-718,021	16,220	-0,155	0,089
-717,006	391,450	-0,054	0,081
-715,991	-50,336	-0,103	-0,035
-714,977	577,539	0,062	-0,110
-713,962	-59,952	0,030	0,009
-712,948	-37,325	0,101	0,039
-711,933	42,072	0,091	0,060
-710,918	732,511	-0,015	-0,030
-709,904	-0,284	0,024	0,012
-708,889	155,093	-0,040	-0,040
-707,875	200,609	-0,086	-0,096
-706,860	35,682	-0,022	0,014
-705,845	-21,885	-0,070	0,031
-704,831	-36,991	0,095	-0,037
-703,816	800,000	0,052	0,147
-702,802	127,966	-0,045	-0,042
-701,787	-41,540	-0,078	0,029
-700,772	-200,000	-0,021	-0,168
-699,758	800,000	0,034	-0,096
-698,743	29,582	0,077	0,047
-697,729	800,000	-0,089	0,184
-696,714	-28,119	-0,110	0,046
-695,699	800,000	0,027	-0,061
-694,685	236,115	0,073	-0,088
-693,670	-144,035	-0,078	0,005
-692,656	751,779	-0,085	-0,167
-691,641	800,000	-0,035	-0,081
-690,627	290,678	0,081	-0,106
-689,612	-65,429	0,135	0,039
-688,597	-200,000	-0,000	0,051
-687,583	38,465	-0,027	-0,018
-686,568	228,157	0,118	-0,139
-685,554	-27,266	0,052	-0,022
-684,539	800,000	0,038	0,118
-683,524	-200,000	0,000	0,053
-682,510	319,506	-0,057	-0,078
-681,495	-64,842	0,212	-0,062
-680,481	139,925	-0,066	-0,063
-679,466	-200,000	-0,004	-0,128
-678,451	119,725	-0,032	0,029
-677,437	-200,000	0,084	0,000
-676,422	800,000	0,065	0,153
-675,408	-55,868	-0,070	0,022
-674,393	800,000	0,030	-0,088
-673,378	800,000	-0,033	-0,100
-672,364	-200,000	0,000	-0,048
-671,349	-114,873	-0,130	0,018
-670,335	800,000	0,023	0,058
-669,320	-27,903	0,058	-0,024
-668,305	23,654	0,141	-0,083
-667,291	-33,522	-0,170	-0,068
-666,276	-200,000	-0,020	-0,123
-665,262	-51,980	-0,147	-0,049
-664,247	-183,027	-0,119	0,001
-663,232	-153,896	-0,086	0,004
-662,218	-98,473	0,079	0,015
-661,203	-52,354	0,086	-0,029
-660,189	-115,162	-0,152	0,021
-659,174	-200,000	-0,058	-0,221
-658,159	-92,467	0,035	-0,007
-657,145	342,809	-0,101	0,143
-656,130	17,293	-0,078	0,045
-655,116	-120,701	0,017	0,002
-654,101	-200,000	-0,012	0,075
-653,086	-91,749	-0,133	0,027
-652,072	-200,000	0,006	0,031
-651,057	-200,000	-0,043	-0,199
-650,043	-200,000	-0,030	-0,114
-649,028	800,000	-0,058	-0,123
-648,014	-200,000	-0,001	-0,046
-646,999	-51,412	-0,131	0,044
-645,984	-200,000	0,006	-0,099
-644,970	307,924	-0,089	0,120
-643,955	-51,217	0,114	-0,038
-642,941	800,000	-0,079	-0,202
-641,926	113,607	0,037	0,032
-640,911	800,000	-0,026	-0,082
-639,897	70,210	-0,048	-0,035
-638,882	800,000	0,039	-0,123
-637,868	-93,099	-0,045	-0,009
-636,853	-200,000	0,021	-0,093
-635,838	800,000	0,021	0,059
-634,824	-166,612	0,046	0,001
-633,809	800,000	-0,019	-0,044
-632,795	-200,000	-0,020	0,197
-631,780	12,719	0,103	-0,057
-630,765	-25,541	0,061	0,026
-629,751	32,037	0,112	0,070
-628,736	206,183	-0,070	-0,079
-627,722	637,419	-0,095	-0,175
-626,707	-200,000	0,005	-0,076
-625,692	-200,000	0,001	-0,064
-624,678	-200,000	-0,028	0,136
-623,663	-200,000	-0,007	0,039
-622,649	-200,000	0,000	0,000
-621,634	-200,000	-0,039	-0,164
-620,619	34,397	0,052	0,033
-619,605	691,150	-0,022	0,043
-618,590	-64,342	0,030	0,009
-617,576	800,000	-0,023	0,055
-616,561	-200,000	-0,020	0,076
-615,546	12,682	-0,079	-0,044
-614,532	800,000	0,073	-0,191
-613,517	800,000	0,011	0,036
-612,503	-83,885	0,159	-0,036
-611,488	217,895	0,021	0,024
-610,474	198,045	0,045	-0,049
-609,459	800,000	0,013	0,039
-608,444	-200,000	0,034	-0,112
-607,430	197,520	0,035	0,038
-606,415	-101,575	0,077	-0,013
-605,401	-104,304	-0,055	-0,009
-604,386	-154,277	0,012	-0,001
-603,371	167,272	0,086	0,088
-602,357	-200,000	-0,014	0,174
-601,342	-21,337	-0,107	-0,047
-600,328	771,514	-0,026	-0,051
-599,313	-200,000	0,016	-0,118
-598,298	57,551	0,035	-0,025
-597,284	-200,000	0,004	-0,040
-596,269	162,059	0,061	0,061
-595,255	524,682	-0,055	0,093
-594,240	362,174	-0,045	0,066
-593,225	84,771	0,060	0,047
-592,211	-76,398	-0,071	-0,018
-591,196	-200,000	-0,002	-0,015
-590,182	58,250	-0,070	-0,049
-589,167	800,000	0,014	0,032
-588,152	147,486	0,064	-0,062
-587,138	800,000	-0,030	0,068
-586,123	-100,040	0,090	0,016
-585,109	-200,000	0,021	0,159
-584,094	540,165	0,043	-0,075
-583,079	670,752	-0,077	-0,144
-582,065	-200,000	0,024	0,225
-581,050	312,904	0,054	-0,074
-580,036	81,613	-0,098	-0,077
-579,021	-200,000	0,024	-0,077
-578,006	-200,000	0,003	0,085
-576,992	131,659	-0,061	-0,056
-575,977	800,000	-0,096	-0,219
-574,963	-200,000	0,013	0,046
-573,948	10,069	0,064	-0,035
-572,934	350,828	0,033	-0,047
-571,919	-200,000	0,004	-0,075
-570,904	-200,000	0,016	-0,099
-569,890	-200,000	0,003	-0,087
-568,875	800,000	-0,059	0,180
-567,861	455,248	0,072	-0,115
-566,846	800,000	-0,033	0,102
-565,831	-200,000	0,012	-0,130
-564,817	227,125	-0,046	-0,053
-563,802	216,036	0,083	-0,095
-562,788	-200,000	0,024	0,094
-561,773	800,000	0,045	-0,111
-560,758	-84,659	-0,075	0,017
-559,744	-154,796	-0,132	-0,006
-558,729	52,204	-0,041	0,028
-557,715	-200,000	-0,007	-0,044
-556,700	-16,730	-0,045	-0,021
-555,685	-139,734	0,126	0,009
-554,671	313,987	-0,070	-0,096
-553,656	-200,000	-0,003	0,166
-552,642	306,807	0,059	0,079
-551,627	49,715	-0,083	0,056
-550,612	-91,202	0,054	0,011
-549,598	629,910	0,045	0,082
-548,583	13,196	-0,012	0,007
-547,569	87,164	-0,161	0,128
-546,554	458,356	0,041	0,066
-545,539	30,751	0,064	0,040
-544,525	800,000	0,039	0,096
-543,510	-125,977	0,087	0,009
-542,496	-20,587	0,031	-0,014
-541,481	435,610	0,030	-0,048
-540,466	77,750	0,098	-0,075
-539,452	-200,000	0,028	0,154
-538,437	-200,000	0,021	0,154
-537,423	63,280	0,113	-0,081
-536,408	-151,800	-0,069	-0,004
-535,393	246,836	0,065	-0,079
-534,379	-44,858	-0,104	-0,037
-533,364	800,000	0,042	0,131
-532,350	669,603	0,052	-0,097
-531,335	24,170	-0,023	0,014
-530,321	-141,277	-0,075	-0,005
-529,306	-47,181	-0,202	0,070
-528,291	800,000	-0,069	-0,137
-527,277	34,729	0,049	-0,031
-526,262	-200,000	-0,012	0,066
-525,248	-65,864	0,050	-0,014
-524,233	168,778	0,079	0,081
-523,218	-200,000	-0,025	0,161
-522,204	-16,227	-0,041	-0,018
-521,189	800,000	0,026	-0,054
-520,175	107,613	0,116	-0,099
-519,160	51,456	-0,069	0,047
-518,145	41,061	-0,076	-0,049
-517,131	324,551	0,097	-0,134
-516,116	30,699	0,128	0,079
-515,102	174,764	-0,039	0,041
-514,087	-8,494	0,056	-0,027
-513,072	197,040	0,082	0,090
-512,058	-154,672	0,159	-0,007
-511,043	-80,476	0,115	-0,027
-510,029	-138,951	0,061	-0,005
-509,014	298,284	-0,075	0,100
-507,999	-200,000	0,001	-0,050
-506,985	170,798	-0,097	-0,100
-505,970	466,576	0,053	-0,085
-504,956	-121,121	-0,098	0,012
-503,941	-101,064	-0,130	-0,023
-502,926	-26,193	0,055	0,023
-501,912	-144,802	0,228	0,015
-500,897	-57,382	-0,145	-0,045
-499,883	202,765	-0,087	-0,097
-498,868	-43,351	-0,223	-0,080
-497,853	114,818	-0,066	-0,058
-496,839	-200,000	0,024	-0,111
-495,824	-200,000	0,016	-0,064
-494,810	0,232	-0,120	-0,061
-493,795	43,969	0,071	0,047
-492,781	-200,000	-0,012	-0,073
-491,766	70,025	0,077	-0,057
-490,751	-100,972	-0,085	-0,015
-489,737	392,830	-0,053	0,079
-488,722	-181,623	0,051	-0,001
-487,708	272,801	0,027	0,035
-486,693	284,561	0,049	0,063
-485,678	145,050	0,013	0,013
-484,664	-200,000	-0,009	-0,028
-483,649	-129,050	-0,172	0,017
-482,635	-42,778	0,093	0,034
-481,620	259,236	-0,009	-0,011
-480,605	-117,172	0,005	-0,001
-479,591	365,071	0,049	-0,071
-478,576	-154,514	0,068	0,003
-477,562	341,298	-0,088	-0,123
-476,547	-15,719	-0,087	-0,040
-475,532	-200,000	-0,020	0,097
-474,518	3,015	0,043	0,023
-473,503	41,773	0,104	0,068
-472,489	-92,039	0,064	0,013
-471,474	-200,000	0,026	0,112
-470,459	-1,281	0,067	-0,034
-469,445	28,665	0,011	0,006
-468,430	247,821	-0,044	0,053
-467,416	296,750	0,107	-0,141
-466,401	-200,000	-0,003	0,111
-465,386	-200,000	-0,049	0,188
-464,372	678,312	-0,054	-0,102
-463,357	113,156	-0,120	0,104
-462,343	-200,000	0,006	-0,086
-461,328	-200,000	0,002	-0,010
-460,313	-110,537	0,041	0,006
-459,299	-28,733	0,091	0,037
-458,284	-72,607	0,038	0,010
-457,270	460,444	-0,089	0,143
-456,255	-200,000	0,008	-0,115
-455,241	131,749	-0,160	-0,148
-454,226	-103,321	-0,066	0,011
-453,211	-138,853	0,153	0,012
-452,197	-200,000	-0,025	0,109
-451,182	186,467	0,058	0,062
-450,168	337,667	0,024	0,034
-449,153	-200,000	0,006	-0,139
-448,138	211,896	-0,065	-0,073
-447,124	51,675	-0,124	-0,085
-446,109	-200,000	0,002	0,050
-445,095	800,000	0,047	0,130
-444,080	800,000	0,061	0,122
-443,065	33,392	-0,026	0,016
-442,051	-123,516	-0,096	0,011
-441,036	136,546	0,054	0,050
-440,022	52,484	0,053	-0,036
-439,007	139,366	-0,037	-0,035
-437,992	-145,792	0,142	-0,009
-436,978	-140,966	0,085	0,006
-435,963	3,895	-0,067	0,035
-434,949	226,425	0,009	0,010
-433,934	800,000	-0,031	-0,076
-432,919	150,196	0,134	-0,130
-431,905	-15,369	0,124	-0,057
-430,890	-200,000	-0,019	0,119
-429,876	-147,108	0,183	-0,011
-428,861	1,372	-0,065	-0,033
-427,846	-105,589	-0,066	-0,011
-426,832	-96,420	0,085	-0,016
-425,817	-76,158	-0,108	-0,027
-424,803	-200,000	-0,023	-0,078
-423,788	-200,000	-0,031	0,118
-422,773	44,666	-0,088	0,058
-421,759	-200,000	0,017	0,085
-420,744	-200,000	0,054	-0,173
-419,730	800,000	0,034	-0,086
-418,715	215,161	-0,078	-0,089
-417,701	115,061	-0,083	-0,072
-416,686	214,656	0,025	0,029
-415,671	-200,000	0,007	0,084
-414,657	-47,367	-0,087	0,030
-413,642	-79,694	-0,090	-0,022
-412,628	19,102	-0,064	-0,037
-411,613	-153,187	-0,093	-0,005
-410,598	-18,390	0,136	-0,061
-409,584	243,453	-0,094	0,113
-408,569	-200,000	0,046	0,227
-407,555	96,407	-0,077	0,063
-406,540	-27,907	-0,214	-0,088
-405,525	-200,000	-0,003	-0,090
-404,511	800,000	0,040	-0,126
-403,496	24,860	-0,089	-0,053
-402,482	-130,489	0,131	-0,013
-401,467	411,189	-0,036	-0,054
-400,452	-200,000	0,039	0,162
-399,438	718,486	-0,013	0,025
-398,423	58,140	0,108	0,076
-397,409	-112,168	-0,149	0,021
-396,394	-182,899	-0,110	0,001
-395,379	546,122	0,048	-0,083
-394,365	-145,695	-0,075	0,005
-393,350	800,000	0,057	-0,145
-392,336	-154,487	0,039	-0,002
-391,321	82,608	-0,048	0,038
-390,306	-92,692	-0,055	0,011
-389,292	800,000	-0,048	0,111
-388,277	-1,986	0,091	0,045
-387,263	685,576	0,014	-0,027
-386,248	-50,849	0,061	0,020
-385,233	-200,000	0,018	0,102
-384,219	13,001	0,078	-0,043
-383,204	-200,000	0,011	-0,058
-382,190	-11,024	0,098	0,046
-381,175	800,000	0,027	-0,081
-380,160	17,802	0,090	0,051
-379,146	-99,048	0,028	-0,005
-378,131	-200,000	-0,013	0,047
-377,117	117,958	-0,034	-0,030
-376,102	146,365	-0,044	-0,042
-375,088	42,043	-0,031	-0,020
-374,073	800,000	0,033	0,097
-373,058	-200,000	-0,003	0,073
-372,044	-20,296	0,099	0,043
-371,029	-140,543	-0,072	0,005
-370,015	125,752	-0,061	-0,055
-369,000	800,000	-0,044	0,101
-367,985	-84,475	-0,171	-0,038
-366,971	800,000	0,034	-0,082
-365,956	-67,599	0,055	0,015
-364,942	800,000	-0,066	-0,137
-363,927	721,341	-0,082	0,156
-362,912	-29,038	-0,044	0,018
-361,898	-77,807	0,057	0,014
-360,883	800,000	0,049	0,109
-359,869	-96,971	0,047	-0,009
-358,854	-125,956	-0,046	0,005
-357,839	800,000	0,013	-0,035
-356,825	31,242	0,102	0,062
-355,810	800,000	0,047	0,102
-354,796	394,162	0,065	0,098
-353,781	800,000	-0,053	0,125
-352,766	-114,417	0,114	-0,015
-351,752	324,005	0,065	0,089
-350,737	6,085	0,231	0,122
-349,723	-7,641	-0,122	0,059
-348,708	13,761	0,090	0,050
-347,693	40,045	0,034	-0,022
-346,679	-98,917	-0,111	-0,020
-345,664	-200,000	0,003	-0,028
-344,650	800,000	0,039	-0,106
-343,635	-200,000	0,024	0,104
-342,620	-104,359	0,153	0,025
-341,606	-160,632	0,069	0,003
-340,591	-26,036	0,078	-0,032
-339,577	-200,000	-0,006	0,043
-338,562	-1,011	-0,109	-0,055
-337,548	32,319	-0,072	-0,044
-336,533	110,214	0,172	0,148
-335,518	-67,397	0,047	0,013
-334,504	-200,000	0,020	0,116
-333,489	800,000	-0,069	0,190
-332,475	800,000	0,013	-0,027
-331,460	-200,000	-0,021	-0,067
-330,445	-200,000	-0,002	-0,095
-329,431	-200,000	-0,004	0,113
-328,416	79,977	0,117	-0,090
-327,402	-125,407	0,076	0,008
-326,387	432,299	0,011	0,016
-325,372	-200,000	-0,019	-0,081
-324,358	-19,480	-0,094	-0,041
-323,343	-13,243	-0,076	0,035
-322,329	-42,287	-0,050	0,018
-321,314	31,283	0,023	-0,014
-320,299	568,722	0,032	0,055
-319,285	-200,000	0,034	-0,130
-318,270	-200,000	0,001	0,012
-317,256	195,722	-0,109	-0,118
-316,241	-200,000	0,004	-0,130
-315,226	800,000	-0,012	0,038
-314,212	201,696	0,083	0,091
-313,197	-200,000	-0,004	-0,074
-312,183	-15,954	-0,087	0,039
-311,168	125,743	-0,122	-0,110
-310,153	-200,000	0,014	-0,053
-309,139	-88,668	-0,051	-0,011
-308,124	-200,000	-0,006	0,049
-307,110	51,467	0,011	0,008
-306,095	-140,578	-0,022	0,002
-305,080	32,684	-0,084	0,052
-304,066	800,000	0,035	0,081
-303,051	800,000	0,083	-0,164
-302,037	-92,543	-0,063	0,012
-301,022	-95,748	-0,054	-0,010
-300,008	-200,000	0,011	0,054
-298,993	-70,187	-0,084	-0,023
-297,978	800,000	0,054	0,134
-296,964	256,252	-0,032	0,039
-295,949	-134,656	0,119	-0,010
-294,935	122,806	-0,095	0,084
-293,920	96,436	-0,114	0,093
-292,905	-200,000	-0,045	0,207
-291,891	800,000	-0,013	-0,026
-290,876	-200,000	0,016	-0,080
-289,862	-200,000	-0,007	0,034
-288,847	800,000	-0,007	0,019
-287,832	-165,077	-0,106	-0,003
-286,818	-200,000	0,011	-0,087
-285,803	425,918	0,033	0,050
-284,789	-200,000	-0,014	-0,060
-283,774	-52,267	0,088	0,029
-282,759	800,000	0,048	0,146
-281,745	291,501	0,097	-0,127
-280,730	20,347	-0,048	0,027
-279,716	317,066	-0,044	-0,059
-278,701	13,458	-0,063	0,035
-277,686	-200,000	0,003	0,131
-276,672	-200,000	-0,005	-0,041
-275,657	-166,230	-0,061	0,002
-274,643	-127,816	-0,101	-0,010
-273,628	-10,831	-0,057	-0,027
-272,613	-199,729	-0,055	0,000
-271,599	103,496	0,076	-0,064
-270,584	-111,519	0,071	0,010
-269,570	-65,700	-0,080	0,023
-268,555	-200,000	-0,020	0,120
-267,540	-7,614	0,049	-0,024
-266,526	800,000	0,027	-0,082
-265,511	-121,692	-0,091	0,011
-264,497	-14,042	0,094	-0,043
-263,482	-191,033	0,114	0,001
-262,467	-47,393	0,012	0,004
-261,453	-200,000	0,001	0,079
-260,438	-200,000	-0,026	-0,100
-259,424	-117,738	-0,072	0,009
-258,409	800,000	0,015	0,035
-257,395	110,601	-0,050	0,043
-256,380	314,091	0,089	0,120
-255,365	800,000	0,045	0,122
-254,351	-110,979	0,033	0,005
-253,336	221,886	-0,051	-0,059
-252,322	165,342	-0,151	-0,152
-251,307	155,945	0,016	0,015
-250,292	17,254	-0,040	0,023
-249,278	-200,000	-0,008	-0,124
-248,263	-37,839	0,077	-0,029
-247,249	-200,000	-0,004	-0,020
-246,234	724,467	-0,036	0,069
-245,219	32,587	0,040	0,024
-244,205	199,734	-0,078	0,086
-243,190	400,077	0,115	-0,172
-242,176	225,349	0,082	0,094
-241,161	599,268	0,096	0,170
-240,146	-88,768	-0,083	0,017
-239,132	110,339	0,142	-0,122
-238,117	-48,868	-0,121	-0,041
-237,103	417,988	-0,024	0,037
-236,088	-200,000	0,019	-0,065
-235,073	-79,639	-0,122	-0,029
-234,059	800,000	0,071	0,149
-233,044	-200,000	-0,002	0,009
-232,030	80,042	-0,080	-0,061
-231,015	-200,000	-0,003	-0,110
-230,000	-120,535	-0,016	-0,002
-228,986	685,957	-0,035	0,065
-227,971	174,097	-0,067	0,069
-226,957	800,000	-0,020	-0,040
-225,942	800,000	-0,052	0,127
-224,927	-200,000	-0,023	0,105
-223,913	358,513	-0,020	-0,028
-222,898	93,573	-0,054	-0,043
-221,884	36,931	-0,099	-0,062
-220,869	132,856	0,013	0,012
-219,855	-123,490	-0,135	-0,015
-218,840	-66,680	-0,116	0,033
-217,825	3,655	0,028	-0,014
-216,811	800,000	0,007	-0,015
-215,796	71,431	-0,044	-0,032
-214,782	34,373	0,134	0,083
-213,767	-68,147	0,049	-0,014
-212,752	-124,538	0,041	-0,004
-211,738	-70,054	0,078	0,021
-210,723	-41,891	-0,076	0,028
-209,709	-200,000	-0,005	-0,042
-208,694	-16,083	-0,037	-0,016
-207,679	-200,000	-0,013	-0,053
-206,665	-200,000	0,005	0,064
-205,650	800,000	0,049	0,116
-204,636	-83,072	-0,067	-0,015
-203,621	-23,151	-0,052	-0,022
-202,606	28,743	-0,022	0,013
-201,592	281,872	-0,073	0,094
-200,577	632,418	-0,034	-0,062
-199,563	169,133	-0,080	0,081
-198,548	800,000	0,021	0,051
-197,533	-155,590	0,070	-0,003
-196,519	800,000	0,053	0,137
-195,504	-49,393	0,113	0,038
-194,490	-200,000	-0,015	-0,134
-193,475	26,539	-0,090	-0,054
-192,460	-36,377	0,084	0,032
-191,446	-171,378	0,066	-0,002
-190,431	800,000	-0,032	0,073
-189,417	-120,901	0,138	-0,016
-188,402	298,249	-0,068	-0,089
-187,387	225,702	0,042	-0,049
-186,373	617,319	0,038	-0,069
-185,358	-200,000	-0,000	-0,072
-184,344	291,000	-0,035	-0,045
-183,329	-121,932	-0,061	0,007
-182,315	-41,160	-0,032	0,012
-181,300	-200,000	0,012	0,098
-180,285	-4,286	-0,050	-0,025
-179,271	417,291	0,049	-0,075
-178,256	-200,000	-0,014	-0,089
-177,242	93,517	0,148	-0,119
-176,227	-200,000	0,006	0,081
-175,212	-87,096	0,088	-0,019
-174,198	-23,769	0,015	-0,006
-173,183	800,000	-0,027	0,056
-172,169	45,200	-0,042	-0,028
-171,154	-200,000	0,016	-0,099
-170,139	-200,000	-0,009	0,040
-169,125	-93,100	0,135	-0,026
-168,110	-119,572	-0,066	0,008
-167,096	800,000	0,026	-0,073
-166,081	-200,000	-0,006	-0,075
-165,066	-200,000	-0,021	-0,157
-164,052	800,000	0,035	0,082
-163,037	800,000	0,085	-0,181
-162,023	-200,000	-0,007	0,031
-161,008	-200,000	-0,009	0,069
-159,993	517,648	0,037	0,061
-158,979	427,688	-0,065	0,100
-157,964	-103,444	-0,106	-0,018
-156,950	584,692	-0,078	-0,137
-155,935	700,829	0,019	0,035
-154,920	2,516	0,026	-0,014
-153,906	404,367	0,070	0,104
-152,891	-8,733	0,064	-0,030
-151,877	800,000	-0,062	0,133
-150,862	-39,657	-0,019	0,007
-149,847	454,768	0,024	-0,038
-148,833	448,826	0,057	-0,090
-147,818	-17,361	0,177	-0,079
-146,804	-200,000	-0,002	0,124
-145,789	-200,000	0,018	-0,072
-144,775	1,309	-0,058	-0,029
-143,760	7,335	-0,074	-0,039
-142,745	-154,066	-0,126	-0,006
-141,731	9,163	0,101	-0,054
-140,716	27,207	-0,037	0,022
-139,702	302,245	0,090	0,118
-138,687	5,217	-0,084	-0,044
-137,672	131,515	0,109	0,099
-136,658	62,686	-0,061	-0,043
-135,643	133,790	-0,053	-0,048
-134,629	-69,591	0,107	0,029
-133,614	800,000	0,011	-0,021
-132,599	800,000	-0,031	0,071
-131,585	107,124	0,079	0,066
-130,570	228,643	-0,054	-0,062
-129,556	-57,981	-0,059	-0,018
-128,541	800,000	-0,016	-0,049
-127,526	-200,000	0,008	-0,104
-126,512	800,000	-0,042	0,127
-125,497	516,870	0,034	0,057
-124,483	459,145	0,023	0,036
-123,468	-130,817	-0,081	0,008
-122,453	800,000	0,034	-0,089
-121,439	800,000	0,015	-0,045
-120,424	623,993	0,099	0,177
-119,410	53,198	0,057	-0,039
-118,395	-200,000	-0,012	-0,126
-117,380	-200,000	-0,040	0,140
-116,366	-56,102	-0,109	-0,034
-115,351	800,000	-0,046	-0,095
-114,337	26,036	-0,073	0,043
-113,322	-200,000	0,024	0,087
-112,307	621,623	0,071	0,127
-111,293	83,990	0,141	0,109
-110,278	-200,000	0,003	-0,019
-109,264	173,868	-0,032	-0,032
-108,249	-200,000	-0,002	0,043
-107,234	-200,000	-0,008	-0,149
-106,220	137,293	0,055	0,051
-105,205	-115,310	-0,117	-0,015
-104,191	-105,315	0,144	0,023
-103,176	158,099	-0,055	-0,054
-102,162	-200,000	0,029	-0,108
-101,147	-200,000	-0,005	0,062
-100,132	10,387	-0,073	0,039
-99,118	-200,000	0,007	0,079
-98,103	-77,549	0,024	-0,006
-97,089	37,921	0,168	0,105
-96,074	238,848	-0,060	0,071
-95,059	-44,742	0,055	-0,019
-94,045	-108,124	-0,093	-0,014
-93,030	-17,408	-0,038	-0,017
-92,016	760,708	0,030	0,058
-91,001	-200,000	0,023	-0,110
-89,986	-200,000	0,026	-0,101
-88,972	172,368	0,086	0,087
-87,957	38,526	-0,021	0,013
-86,943	-25,533	-0,108	-0,045
-85,928	-159,098	0,091	-0,004
-84,913	-200,000	0,019	-0,071
-83,899	-200,000	-0,003	-0,119
-82,884	12,405	0,022	0,012
-81,870	-101,497	0,111	-0,019
-80,855	23,204	-0,018	-0,010
-79,840	-4,591	-0,095	-0,046
-78,826	-35,451	-0,042	-0,016
-77,811	-125,581	0,099	0,010
-76,797	-200,000	0,004	0,040
-75,782	391,030	-0,022	0,032
-74,767	569,437	0,108	0,187
-73,753	193,847	-0,086	0,092
-72,738	76,312	0,029	-0,021
-71,724	333,504	0,032	0,044
-70,709	-200,000	-0,003	0,061
-69,694	-200,000	0,027	-0,098
-68,680	302,002	-0,075	0,099
-67,665	-200,000	0,003	0,021
-66,651	-65,537	0,096	0,027
-65,636	-146,324	-0,108	0,007
-64,622	-200,000	-0,008	0,028
-63,607	104,582	-0,041	-0,034
-62,592	787,751	0,019	0,036
-61,578	7,623	-0,033	0,017
-60,563	-200,000	0,031	0,102
-59,549	-200,000	-0,001	0,218
-58,534	26,350	-1,986	-1,170
-57,519	617,821	-1,204	-2,143
-56,505	-200,000	-0,391	-4,309
-55,490	573,685	0,837	1,447
-54,476	800,000	4,948	11,275
-53,461	-200,000	20,917	329,458
-52,446	800,000	757,533	2323,365
-51,432	550,162	1662,352	2825,833
-50,417	73,423	1664,560	1228,809
-49,403	18,761	1537,463	866,634
-48,388	12,753	1460,416	794,118
-47,373	18,970	1451,277	818,991
-46,359	15,928	1440,379	798,321
-45,344	11,048	1436,254	772,747
-44,330	11,029	1434,162	771,501
-43,315	11,007	1432,226	770,324
-42,300	10,986	1430,674	769,359
-41,286	11,004	1429,493	768,778
-40,271	10,925	1428,267	767,716
-39,257	10,937	1426,987	767,053
-38,242	10,984	1425,805	766,609
-37,227	11,022	1424,634	766,131
-36,213	11,038	1423,464	765,546
-35,198	11,022	1422,287	764,806
-34,184	11,064	1421,357	764,477
-33,169	10,993	1420,064	763,416
-32,154	11,032	1419,036	763,018
-31,140	10,997	1417,906	762,213
-30,125	11,116	1416,563	762,021
-29,111	11,066	1415,635	761,258
-28,096	11,064	1414,327	760,515
-27,082	10,986	1413,231	759,529
-26,067	10,959	1412,290	758,866
-25,052	10,960	1411,323	758,320
-24,038	10,956	1410,226	757,681
-23,023	10,959	1409,225	757,130
-22,009	10,950	1408,289	756,552
-20,994	10,978	1407,130	756,030
-19,979	10,920	1406,365	755,318
-18,965	10,942	1405,292	754,815
-17,950	10,887	1404,454	754,077
-16,936	10,907	1403,628	753,697
-15,921	10,849	1402,601	752,845
-14,906	10,861	1401,705	752,390
-13,892	10,868	1400,600	751,802
-12,877	10,873	1399,871	751,402
-11,863	10,885	1398,894	750,903
-10,848	10,800	1398,229	750,123
-9,833	10,867	1397,199	749,850
-8,819	10,789	1396,475	749,071
-7,804	10,738	1395,537	748,304
-6,790	10,764	1394,671	747,930
-5,775	10,763	1393,495	747,265
-4,760	10,791	1392,535	746,851
-3,746	10,817	1391,526	746,398
-2,731	10,776	1390,872	745,828
-1,717	10,787	1389,848	745,301
-0,702	10,771	1387,906	744,155
0,313	14,776	1301,614	716,250
1,327	31,130	692,989	418,542
2,342	48,437	120,288	79,348
3,356	3,053	16,329	8,346
4,371	5,677	3,393	1,764
5,386	50,926	0,709	0,473
6,400	712,870	0,239	0,449
7,415	-98,316	-0,364	-0,065
8,429	225,601	-0,215	-0,246
9,444	323,382	-0,259	-0,349
10,459	214,759	-0,196	-0,219
11,473	74,218	-0,264	-0,195
12,488	434,492	-0,185	-0,285
13,502	-53,815	-0,386	-0,123
14,517	0,044	-0,269	-0,134
15,531	24,895	-0,294	-0,172
16,546	-62,194	-0,442	-0,129
17,561	117,323	-0,362	-0,314
18,575	-52,948	-0,160	0,051
19,590	800,000	-0,170	-0,336
20,604	-49,007	-0,251	-0,084
21,619	-48,126	-0,386	-0,130
22,634	43,460	-0,461	-0,296
23,648	62,925	-0,295	-0,208
24,663	4,727	-0,448	-0,231
25,677	118,351	-0,307	-0,267
26,692	28,678	-0,334	-0,199
27,707	99,833	-0,294	-0,239
28,721	174,259	-0,266	-0,271
29,736	63,236	-0,580	-0,408
30,750	140,073	-0,311	-0,289
31,765	109,493	-0,266	-0,224
32,780	222,328	-0,304	-0,345
33,794	69,011	-0,290	-0,209
34,809	51,857	-0,336	-0,225
35,823	135,662	-0,283	-0,259
36,838	51,658	-0,324	-0,216
37,853	-63,029	-0,413	-0,119
38,867	87,396	-0,357	-0,277
39,882	-35,539	-0,283	-0,108
40,896	88,101	-0,327	-0,255
41,911	-35,846	-0,331	-0,125
42,926	-31,922	-0,518	-0,203
43,940	64,442	-0,371	-0,263
44,955	27,245	-0,452	-0,266
45,969	178,353	-0,294	-0,302
46,984	24,116	-0,409	-0,237
47,999	-55,276	-0,272	-0,085
49,013	96,876	-0,384	-0,309
50,028	88,654	-0,248	-0,193
51,042	162,506	-0,283	-0,279
52,057	174,482	-0,196	-0,199
53,071	228,996	-0,244	-0,280
54,086	72,129	-0,351	-0,256
55,101	-170,049	-0,263	0,006
56,115	9,125	-0,410	-0,217
57,130	-103,040	-0,349	-0,058
58,144	263,294	-0,191	-0,234
59,159	30,282	-0,468	-0,280
60,174	8,385	-0,337	-0,177
61,188	-27,045	-0,251	-0,102
62,203	-50,700	-0,328	-0,108
63,217	30,661	-0,316	-0,189
64,232	-113,533	-0,493	-0,067
65,247	67,787	-0,298	-0,214
66,261	415,594	-0,269	-0,403
67,276	91,021	-0,334	-0,263
68,290	35,273	-0,405	-0,248
69,305	19,707	-0,265	-0,149
70,320	-9,922	-0,329	-0,153
71,334	256,634	-0,348	-0,421
72,349	241,143	-0,211	-0,248
73,363	-130,158	-0,464	-0,044
74,378	139,724	-0,300	-0,277
75,393	-82,630	-0,322	-0,073
76,407	-43,027	-0,165	-0,058
77,422	40,273	-0,322	-0,203
78,436	50,985	-0,257	-0,170
79,451	-7,913	-0,357	-0,168
80,466	-35,314	-0,352	-0,133
81,480	-6,321	-0,302	-0,144
82,495	114,823	-0,208	-0,177
83,509	19,607	-0,254	-0,143
84,524	-70,179	-0,246	-0,065
85,539	44,461	-0,226	-0,145
86,553	227,512	-0,177	-0,202
87,568	57,846	-0,218	-0,149
88,582	97,222	-0,300	-0,241
89,597	269,741	-0,158	-0,195
90,611	-5,537	-0,232	-0,111
91,626	26,147	-0,289	-0,168
92,641	135,562	-0,217	-0,198
93,655	93,291	-0,268	-0,212
94,670	-2,674	-0,301	-0,147
95,684	187,732	-0,346	-0,362
96,699	8,841	-0,248	-0,130
97,714	-36,485	-0,308	-0,115
98,728	25,954	-0,253	-0,147
99,743	32,489	-0,321	-0,193
100,757	14,441	-0,357	-0,194
101,772	-10,761	-0,161	-0,074
102,787	-38,046	-0,422	-0,156
103,801	40,772	-0,354	-0,223
104,816	-13,630	-0,271	-0,122
105,830	-44,182	-0,258	-0,090
106,845	-51,962	-0,183	-0,059
107,860	-122,361	-0,225	0,025
108,874	89,878	-0,258	-0,201
109,889	7,380	-0,264	-0,138
110,903	12,839	-0,405	-0,218
111,918	173,662	-0,243	-0,245
112,933	63,437	-0,234	-0,164
113,947	-27,247	-0,238	-0,096
114,962	3,365	-0,242	-0,123
115,976	39,923	-0,227	-0,142
116,991	221,528	-0,309	-0,347
118,006	307,916	-0,210	-0,275
119,020	49,098	-0,201	-0,132
120,035	70,295	-0,279	-0,201
121,049	164,413	-0,256	-0,252
122,064	-185,860	-0,252	0,003
123,079	-36,081	-0,347	-0,130
124,093	141,015	-0,271	-0,250
125,108	43,428	-0,295	-0,188
126,122	270,728	-0,239	-0,295
127,137	430,825	-0,129	-0,195
128,151	182,955	-0,167	-0,172
129,166	-51,676	-0,244	-0,079
130,181	28,075	-0,217	-0,128
131,195	87,225	-0,258	-0,199
132,210	-78,408	-0,191	-0,045
133,224	29,589	-0,207	-0,123
134,239	65,326	-0,297	-0,209
135,254	592,084	-0,127	-0,220
136,268	247,282	-0,216	-0,255
137,283	58,110	-0,289	-0,197
138,297	40,562	-0,306	-0,192
139,312	-18,182	-0,306	-0,133
140,327	75,481	-0,316	-0,233
141,341	48,259	-0,240	-0,156
142,356	-128,223	-0,272	0,027
143,370	98,684	-0,255	-0,205
144,385	351,538	-0,140	-0,194
145,400	252,306	-0,226	-0,269
146,414	40,275	-0,323	-0,202
147,429	-18,708	-0,434	-0,188
148,443	135,545	-0,292	-0,265
149,458	76,916	-0,256	-0,189
150,473	70,641	-0,250	-0,180
151,487	96,322	-0,200	-0,159
152,502	26,129	-0,256	-0,149
153,516	145,320	-0,255	-0,238
154,531	33,214	-0,272	-0,164
155,546	26,396	-0,258	-0,150
156,560	-177,384	-0,273	-0,005
157,575	-68,246	-0,201	-0,054
158,589	22,260	-0,191	-0,108
159,604	-48,270	-0,246	-0,082
160,619	89,632	-0,232	-0,180
161,633	7,706	-0,115	-0,060
162,648	212,450	-0,178	-0,196
163,662	-200,000	-0,240	-0,000
164,677	-25,009	-0,216	-0,089
165,692	-35,912	-0,291	-0,109
166,706	33,776	-0,314	-0,189
167,721	110,458	-0,212	-0,177
168,735	326,016	-0,203	-0,271
169,750	1,343	-0,195	-0,097
170,764	323,619	-0,174	-0,232
171,779	76,411	-0,097	-0,071
172,794	190,958	-0,117	-0,122
173,808	67,984	-0,199	-0,141
174,823	149,454	-0,243	-0,229
175,837	-37,981	-0,303	-0,111
176,852	15,138	-0,197	-0,107
177,867	-52,248	-0,259	-0,083
178,881	10,209	-0,203	0,107
179,896	225,806	-0,175	-0,198
180,910	371,555	-0,100	-0,141
181,925	800,000	-0,101	-0,210
182,940	-27,341	-0,321	-0,129
183,954	44,309	-0,283	-0,180
184,969	800,000	-0,053	-0,142
185,983	121,471	-0,135	-0,117
186,998	110,019	-0,239	-0,199
188,013	800,000	-0,087	-0,191
189,027	-42,512	-0,235	-0,083
190,042	190,340	-0,237	-0,247
191,056	-35,187	-0,196	-0,074
192,071	-27,755	-0,217	-0,087
193,086	409,716	-0,180	-0,265
194,100	-152,529	-0,252	0,012
195,115	-100,930	-0,315	-0,053
196,129	-0,898	-0,312	-0,153
197,144	72,862	-0,159	-0,115
198,159	-34,624	-0,263	-0,099
199,173	9,160	-0,280	-0,146
200,188	134,889	-0,197	-0,177
201,202	-45,365	-0,198	-0,068
202,217	194,821	-0,071	-0,075
203,232	126,032	-0,160	-0,141
204,246	1,051	-0,236	-0,117
205,261	24,262	-0,284	-0,162
206,275	15,999	-0,199	-0,108
207,290	-160,148	-0,204	0,008
208,304	323,096	-0,100	-0,133
209,319	393,057	-0,158	-0,228
210,334	-46,384	-0,171	-0,058
211,348	166,841	-0,126	-0,124
212,363	57,038	-0,198	-0,133
213,377	29,013	-0,076	-0,044
214,392	482,625	-0,065	-0,103
215,407	3,484	-0,296	-0,149
216,421	71,044	-0,230	-0,165
217,436	239,450	-0,138	-0,159
218,450	157,156	-0,161	-0,154
219,465	-35,051	-0,174	-0,065
220,480	-135,758	-0,343	0,028
221,494	-115,874	-0,210	-0,027
222,509	570,928	-0,094	-0,159
223,523	-45,033	-0,240	-0,082
224,538	159,478	-0,167	-0,161
225,553	65,838	-0,371	-0,260
226,567	74,167	-0,225	-0,163
227,582	-92,985	-0,216	-0,041
228,596	34,007	-0,151	-0,091
229,611	678,484	-0,146	-0,263
230,626	209,366	-0,184	-0,200
231,640	38,719	-0,193	-0,119
232,655	83,235	-0,266	-0,200
233,669	1,413	-0,186	-0,092
234,684	258,620	-0,160	-0,191
235,699	800,000	-0,041	-0,121
236,713	-67,359	-0,206	0,056
237,728	23,097	-0,178	0,101
238,742	-125,198	-0,194	-0,020
239,757	233,622	-0,099	-0,113
240,772	312,684	-0,137	-0,178
241,786	18,965	-0,121	-0,067
242,801	800,000	-0,087	-0,256
243,815	-1,781	-0,232	-0,113
244,830	767,939	-0,067	0,127
245,844	-154,551	-0,153	-0,007
246,859	250,812	-0,075	-0,088
247,874	120,939	-0,171	-0,147
248,888	125,272	-0,245	-0,213
249,903	83,899	-0,169	-0,127
250,917	85,318	-0,233	-0,177
251,932	-103,997	-0,168	-0,027
252,947	-22,740	-0,260	-0,108
253,961	49,437	-0,275	-0,179
254,976	82,582	-0,201	-0,151
255,990	-66,109	-0,219	-0,060
257,005	164,307	-0,132	-0,128
258,020	409,618	-0,026	-0,038
259,034	-112,751	-0,114	-0,015
260,049	336,110	-0,121	-0,162
261,063	233,390	-0,238	-0,271
262,078	149,359	-0,070	-0,065
263,093	-108,668	-0,210	0,031
264,107	75,161	-0,180	-0,130
265,122	-60,683	-0,167	-0,049
266,136	800,000	-0,034	-0,078
267,151	150,781	-0,139	-0,130
268,166	-30,200	-0,305	-0,119
269,180	-113,915	-0,254	0,034
270,195	60,132	-0,116	-0,079
271,209	-131,781	-0,183	-0,016
272,224	24,707	-0,179	-0,102
273,239	127,127	-0,080	-0,070
274,253	442,160	-0,060	-0,091
275,268	-40,541	-0,191	0,068
276,282	-88,195	-0,204	-0,042
277,297	32,308	-0,156	-0,092
278,312	-4,179	-0,080	-0,038
279,326	127,179	-0,137	-0,119
280,341	189,690	-0,096	-0,099
281,355	32,719	-0,192	-0,114
282,370	-89,364	-0,202	-0,041
283,384	50,908	-0,314	-0,204
284,399	160,457	-0,085	-0,082
285,414	-24,876	-0,193	-0,079
286,428	-31,274	-0,167	-0,065
287,443	45,856	-0,129	-0,082
288,457	184,346	-0,129	-0,132
289,472	-104,353	-0,120	-0,019
290,487	-73,166	-0,259	-0,065
291,501	-51,064	-0,249	-0,080
292,516	-99,845	-0,189	-0,032
293,530	-200,000	0,041	-0,142
294,545	15,228	-0,134	-0,072
295,560	-37,368	-0,051	-0,018
296,574	645,313	-0,163	-0,287
297,589	125,505	-0,115	0,100
298,603	-20,921	-0,094	0,039
299,618	234,393	-0,193	-0,220
300,633	70,275	-0,108	-0,076
301,647	-110,044	-0,153	-0,022
302,662	115,219	-0,106	-0,089
303,676	36,371	-0,167	-0,101
304,691	7,160	-0,217	-0,111
305,706	345,866	-0,161	-0,219
306,720	430,303	-0,143	-0,214
307,735	127,373	-0,128	-0,112
308,749	-109,692	-0,135	-0,019
309,764	725,410	-0,096	-0,176
310,779	79,091	-0,188	-0,138
311,793	-200,000	-0,052	-0,198
312,808	-11,587	-0,211	-0,095
313,822	800,000	-0,056	-0,139
314,837	-100,315	-0,169	-0,028
315,852	24,924	-0,027	-0,015
316,866	212,418	-0,052	-0,057
317,881	-110,948	-0,163	-0,023
318,895	-81,400	-0,083	-0,019
319,910	231,392	-0,205	-0,231
320,925	20,207	-0,152	-0,084
321,939	98,460	-0,170	-0,135
322,954	-132,411	-0,159	0,014
323,968	37,453	-0,164	0,099
324,983	151,406	-0,053	-0,050
325,997	185,676	-0,137	-0,139
327,012	265,021	-0,166	-0,198
328,027	-66,091	-0,152	-0,041
329,041	-113,734	-0,159	0,021
330,056	-3,752	-0,165	-0,078
331,070	8,055	-0,073	-0,037
332,085	-21,292	-0,118	0,049
333,100	-161,540	-0,124	0,004
334,114	114,479	-0,131	-0,110
335,129	636,232	-0,081	-0,141
336,143	-34,507	-0,208	-0,078
337,158	800,000	-0,055	0,111
338,173	-200,000	-0,026	-0,225
339,187	36,690	-0,118	-0,071
340,202	97,384	-0,073	-0,057
341,216	-110,984	-0,200	0,028
342,231	298,754	-0,137	-0,173
343,246	-39,525	-0,102	-0,036
344,260	-23,597	-0,088	-0,036
345,275	-200,000	-0,040	-0,186
346,289	108,482	-0,060	0,049
347,304	-87,122	-0,194	-0,040
348,319	-104,425	-0,218	0,034
349,333	800,000	-0,086	-0,190
350,348	-200,000	0,009	-0,136
351,362	7,403	-0,180	-0,092
352,377	800,000	-0,065	-0,150
353,392	57,643	-0,153	-0,102
354,406	-1,667	-0,095	-0,046
355,421	207,849	1309,394	1400,632
356,435	159,910	1469,443	1401,115
