DTS Sentinel unit serial number:	SN410029Multiplexer serial number:	ORYXHardware model number:	OX2-SRSoftware version number:	ORYX F/W v4,00 Oryx Data Collector v3.7.2.0data status	okinstallation	B3 Nyhavnadifferential loss correction	single-endedforward channel	channel 1reverse channel	N/Adate	2023/12/02time	02:27:30forward acquisition time	300,00reverse acquisition time	0,00gamma	499,1914k internal	0,3194k external	0,3194temperature offset calibration	1,0000default loss term (dB/km)	0,3820temperature slope calibration	1,0000multiplexer offset coefficient	1,0000multiplexer slope coefficient	1,0000fibre end	0,00T internal ref (°C)	16,64T ext. ref 1 (°C)	1,86T ext. ref 2 (°C)	1,85length (m)	temperature (°C)	Stokes	anti-Stokes-744,400	223,930	-0,210	-0,247
-743,385	-200,000	0,062	0,366
-742,371	36,340	-0,253	-0,163
-741,356	-200,000	0,022	0,342
-740,342	130,908	-0,254	-0,237
-739,327	-200,000	0,122	0,411
-738,312	139,785	-0,311	-0,299
-737,298	-200,000	-0,088	0,288
-736,283	371,967	-0,172	-0,255
-735,269	-200,000	-0,027	0,340
-734,254	-78,606	-0,181	-0,045
-733,239	242,273	-0,177	0,216
-732,225	167,706	-0,186	-0,193
-731,210	-200,000	0,063	0,241
-730,196	120,354	0,078	0,071
-729,181	-127,176	-0,037	0,004
-728,167	-23,486	-0,119	0,052
-727,152	-200,000	-0,035	-0,161
-726,137	-200,000	-0,020	-0,084
-725,123	-172,159	-0,167	-0,004
-724,108	38,221	-0,091	-0,059
-723,094	81,635	-0,097	-0,077
-722,079	570,235	-0,036	0,063
-721,064	-75,418	-0,203	0,052
-720,050	-41,470	-0,077	-0,029
-719,035	161,630	-0,038	0,039
-718,021	-68,360	-0,020	0,006
-717,006	800,000	-0,058	-0,156
-715,991	-200,000	-0,040	-0,158
-714,977	110,050	0,028	-0,025
-713,962	163,966	-0,054	-0,056
-712,948	-48,391	0,081	0,028
-711,933	16,771	-0,066	0,038
-710,918	271,437	-0,094	0,120
-709,904	-200,000	-0,030	-0,136
-708,889	359,029	-0,110	-0,160
-707,875	27,001	-0,097	-0,059
-706,860	37,369	0,085	0,055
-705,845	293,290	0,032	0,042
-704,831	187,293	-0,030	0,033
-703,816	-151,464	0,160	0,008
-702,802	50,219	-0,047	-0,033
-701,787	-200,000	-0,053	-0,180
-700,772	175,044	0,029	0,031
-699,758	-12,394	0,086	-0,041
-698,743	236,097	-0,057	-0,069
-697,729	-111,524	0,068	0,010
-696,714	800,000	0,006	-0,014
-695,699	-0,728	-0,034	0,018
-694,685	141,705	0,039	-0,038
-693,670	4,778	0,113	-0,060
-692,656	-60,999	0,048	-0,015
-691,641	229,756	-0,055	0,065
-690,627	70,085	0,159	0,119
-689,612	299,828	0,031	0,042
-688,597	-28,506	0,048	-0,020
-687,583	666,056	0,016	0,030
-686,568	-200,000	0,022	0,140
-685,554	235,232	0,078	-0,093
-684,539	-200,000	0,032	0,180
-683,524	800,000	-0,058	-0,155
-682,510	240,641	-0,091	0,111
-681,495	-5,939	-0,082	-0,041
-680,481	-98,656	-0,069	0,013
-679,466	223,932	-0,149	-0,175
-678,451	-11,155	-0,097	0,046
-677,437	123,750	-0,032	-0,029
-676,422	-178,256	0,114	-0,002
-675,408	-13,478	0,108	0,051
-674,393	208,562	0,034	0,039
-673,378	-200,000	0,003	-0,083
-672,364	-2,021	-0,075	-0,038
-671,349	-138,350	0,066	0,005
-670,335	6,136	0,076	-0,041
-669,320	114,817	-0,013	-0,012
-668,305	49,809	0,161	0,110
-667,291	800,000	-0,047	-0,134
-666,276	164,276	-0,052	0,054
-665,262	660,237	0,018	-0,034
-664,247	-123,202	-0,040	0,005
-663,232	73,938	0,112	-0,086
-662,218	-145,419	0,063	0,004
-661,203	328,083	-0,078	0,110
-660,189	-41,810	-0,071	0,026
-659,174	-200,000	-0,004	-0,018
-658,159	120,174	-0,093	-0,084
-657,145	61,836	0,052	-0,038
-656,130	-99,639	0,040	0,007
-655,116	-26,410	0,018	-0,008
-654,101	52,909	0,029	-0,020
-653,086	-200,000	0,026	-0,102
-652,072	34,127	0,145	0,092
-651,057	-114,364	0,068	0,009
-650,043	-47,131	0,029	-0,010
-649,028	-200,000	0,001	0,006
-648,014	700,673	0,031	0,059
-646,999	632,721	0,066	0,123
-645,984	71,809	-0,077	-0,058
-644,970	-84,007	-0,136	-0,031
-643,955	20,274	0,038	0,022
-642,941	-200,000	-0,010	-0,119
-641,926	724,184	0,073	-0,142
-640,911	78,312	0,176	0,136
-639,897	282,787	-0,026	0,035
-638,882	567,840	0,068	-0,120
-637,868	753,433	-0,056	-0,111
-636,853	487,229	-0,082	-0,137
-635,838	-158,532	0,083	0,003
-634,824	516,419	0,039	-0,066
-633,809	67,394	-0,024	-0,018
-632,795	-17,760	-0,066	-0,030
-631,780	800,000	0,025	-0,065
-630,765	209,782	-0,039	0,044
-629,751	-12,365	-0,091	0,043
-628,736	138,782	-0,090	0,086
-627,722	285,917	0,087	0,114
-626,707	-39,120	-0,074	0,028
-625,692	-143,086	-0,088	0,006
-624,678	800,000	-0,011	0,025
-623,663	-62,159	-0,090	0,027
-622,649	800,000	-0,035	-0,101
-621,634	-200,000	-0,019	-0,104
-620,619	-200,000	0,009	-0,034
-619,605	-200,000	0,040	0,155
-618,590	-71,477	0,041	-0,011
-617,576	-200,000	0,023	0,098
-616,561	-10,134	-0,050	-0,024
-615,546	338,440	-0,072	-0,102
-614,532	-143,565	-0,183	-0,012
-613,517	416,192	0,065	-0,100
-612,503	393,065	0,053	0,080
-611,488	16,939	0,118	-0,067
-610,474	-200,000	-0,018	0,086
-609,459	189,874	0,051	0,055
-608,444	-112,419	0,047	0,007
-607,430	334,817	-0,036	-0,051
-606,415	528,803	-0,088	-0,151
-605,401	234,287	-0,021	0,026
-604,386	576,009	0,026	-0,046
-603,371	-200,000	-0,001	-0,142
-602,357	800,000	0,038	0,116
-601,342	-56,745	-0,049	-0,015
-600,328	512,897	-0,069	-0,117
-599,313	192,770	-0,168	-0,184
-598,298	-200,000	0,012	-0,143
-597,284	-165,433	0,078	0,002
-596,269	254,586	0,025	-0,031
-595,255	245,896	-0,151	0,184
-594,240	177,188	0,026	-0,028
-593,225	800,000	-0,053	-0,140
-592,211	-200,000	-0,001	-0,032
-591,196	22,169	-0,084	-0,049
-590,182	712,645	-0,050	-0,096
-589,167	800,000	-0,060	0,168
-588,152	-200,000	-0,036	0,119
-587,138	-200,000	-0,007	0,065
-586,123	-200,000	-0,029	-0,181
-585,109	-200,000	-0,009	-0,183
-584,094	800,000	-0,048	-0,116
-583,079	182,314	0,075	-0,081
-582,065	53,770	0,106	0,074
-581,050	-2,490	-0,035	-0,018
-580,036	288,567	0,075	-0,099
-579,021	-200,000	-0,003	-0,032
-578,006	-108,241	-0,087	0,013
-576,992	-48,647	0,156	0,054
-575,977	-166,901	-0,079	-0,002
-574,963	34,789	0,094	0,060
-573,948	-200,000	0,009	-0,035
-572,934	82,751	-0,152	-0,119
-571,919	34,623	0,101	-0,064
-570,904	-200,000	0,019	-0,079
-569,890	145,535	-0,087	-0,084
-568,875	-177,011	-0,022	-0,000
-567,861	-76,482	0,042	-0,011
-566,846	41,680	-0,066	-0,043
-565,831	-158,457	-0,069	-0,003
-564,817	-200,000	-0,026	-0,128
-563,802	-200,000	-0,008	-0,051
-562,788	289,862	0,137	-0,180
-561,773	-103,220	-0,064	0,011
-560,758	-1,175	0,025	-0,013
-559,744	800,000	-0,021	0,045
-558,729	104,622	0,048	0,041
-557,715	-181,765	-0,258	-0,003
-556,700	33,289	0,059	0,037
-555,685	800,000	0,052	-0,126
-554,671	-200,000	0,000	-0,111
-553,656	-53,983	-0,093	-0,030
-552,642	502,734	0,068	0,114
-551,627	49,006	0,113	0,077
-550,612	800,000	-0,057	-0,179
-549,598	-101,975	-0,079	0,014
-548,583	-200,000	0,015	0,120
-547,569	57,607	-0,098	-0,069
-546,554	800,000	0,036	0,111
-545,539	-200,000	0,002	-0,010
-544,525	-200,000	0,012	0,052
-543,510	105,056	-0,072	-0,061
-542,496	800,000	-0,032	-0,073
-541,481	800,000	0,030	-0,084
-540,466	-200,000	0,005	0,094
-539,452	-36,483	0,158	-0,061
-538,437	360,899	0,093	0,136
-537,423	-12,239	-0,035	-0,016
-536,408	45,246	-0,142	0,095
-535,393	-200,000	0,014	0,117
-534,379	-130,503	-0,127	-0,012
-533,364	-154,854	-0,047	0,002
-532,350	165,320	0,029	-0,030
-531,335	156,408	0,086	-0,086
-530,321	229,230	-0,102	0,120
-529,306	-200,000	-0,014	0,052
-528,291	-86,765	-0,125	-0,027
-527,277	800,000	-0,013	-0,036
-526,262	-200,000	-0,009	0,110
-525,248	-60,889	0,086	-0,026
-524,233	800,000	0,028	0,082
-523,218	-200,000	0,001	0,133
-522,204	-43,214	0,102	0,037
-521,189	106,468	0,058	-0,050
-520,175	-200,000	-0,029	0,124
-519,160	169,340	0,090	0,093
-518,145	437,983	-0,053	0,084
-517,131	214,421	0,030	0,035
-516,116	-200,000	0,013	0,132
-515,102	-67,855	0,043	0,012
-514,087	-200,000	-0,006	0,030
-513,072	206,896	0,079	-0,090
-512,058	-17,690	-0,055	-0,025
-511,043	213,013	0,150	0,172
-510,029	800,000	-0,012	0,030
-509,014	385,468	0,074	0,111
-507,999	600,574	0,056	0,101
-506,985	451,283	0,047	0,075
-505,970	332,878	-0,048	-0,067
-504,956	56,800	-0,091	-0,064
-503,941	-200,000	0,004	-0,124
-502,926	151,490	0,116	-0,114
-501,912	-200,000	-0,006	0,155
-500,897	-91,301	0,069	0,014
-499,883	-200,000	-0,022	-0,135
-498,868	-80,106	0,194	-0,047
-497,853	6,174	0,154	0,082
-496,839	-167,241	0,088	-0,003
-495,824	440,551	-0,030	0,048
-494,810	-0,204	-0,059	0,030
-493,795	390,795	-0,078	0,118
-492,781	-11,252	0,012	-0,006
-491,766	-200,000	-0,018	-0,089
-490,751	85,067	-0,041	-0,032
-489,737	-200,000	-0,015	-0,055
-488,722	209,253	0,042	0,047
-487,708	-200,000	0,005	0,045
-486,693	324,415	0,057	0,078
-485,678	31,759	0,045	-0,028
-484,664	-158,056	-0,118	0,005
-483,649	-200,000	-0,040	-0,154
-482,635	-200,000	0,001	-0,060
-481,620	33,571	0,143	0,089
-480,605	-8,984	-0,012	0,006
-479,591	-80,151	-0,114	-0,027
-478,576	-114,415	-0,158	0,022
-477,562	-200,000	-0,008	-0,112
-476,547	-200,000	0,003	-0,072
-475,532	-94,713	-0,041	0,008
-474,518	-200,000	-0,023	0,093
-473,503	96,180	0,130	0,107
-472,489	-69,126	0,092	0,025
-471,474	139,712	-0,052	-0,049
-470,459	-54,972	-0,072	0,023
-469,445	-131,733	-0,113	-0,011
-468,430	-101,832	-0,140	0,024
-467,416	193,136	0,093	0,102
-466,401	197,084	-0,033	-0,037
-465,386	-200,000	-0,006	-0,022
-464,372	-200,000	0,022	-0,108
-463,357	476,028	-0,058	-0,095
-462,343	-171,203	-0,057	0,001
-461,328	65,186	-0,101	-0,074
-460,313	-146,121	-0,101	0,006
-459,299	182,279	0,059	-0,063
-458,284	231,543	0,021	0,025
-457,270	-114,873	-0,151	-0,020
-456,255	-159,131	-0,101	-0,004
-455,241	-11,104	0,130	-0,061
-454,226	40,863	-0,055	0,035
-453,211	182,712	-0,012	0,013
-452,197	-139,706	0,039	-0,003
-451,182	471,229	0,062	0,101
-450,168	800,000	-0,030	-0,090
-449,153	800,000	0,005	-0,014
-448,138	-142,894	0,113	-0,008
-447,124	-14,050	-0,133	-0,061
-446,109	340,898	-0,039	-0,056
-445,095	-200,000	0,031	0,163
-444,080	-200,000	-0,007	0,042
-443,065	-200,000	-0,024	0,080
-442,051	91,137	-0,038	-0,030
-441,036	460,320	0,079	-0,126
-440,022	327,847	-0,066	-0,091
-439,007	210,248	0,051	-0,057
-437,992	-82,696	0,085	-0,020
-436,978	332,999	0,069	-0,096
-435,963	-84,969	-0,092	0,021
-434,949	-200,000	0,006	-0,043
-433,934	-7,390	-0,063	-0,031
-432,919	-200,000	-0,004	0,103
-431,905	-200,000	-0,027	0,222
-430,890	295,547	-0,025	0,033
-429,876	179,978	-0,023	-0,024
-428,861	-200,000	0,000	0,137
-427,846	314,955	0,029	-0,039
-426,832	-81,381	-0,072	-0,017
-425,817	149,799	0,064	0,063
-424,803	-200,000	0,022	-0,114
-423,788	-25,498	-0,059	0,025
-422,773	800,000	-0,052	0,139
-421,759	-200,000	0,002	0,095
-420,744	800,000	-0,044	0,106
-419,730	-140,297	-0,037	0,003
-418,715	-200,000	-0,007	-0,036
-417,701	-200,000	0,016	-0,082
-416,686	-200,000	-0,016	-0,145
-415,671	800,000	-0,015	0,033
-414,657	-200,000	-0,010	0,146
-413,642	-200,000	-0,008	0,031
-412,628	337,994	-0,069	0,097
-411,613	-200,000	0,004	-0,107
-410,598	-200,000	0,027	-0,112
-409,584	-99,146	-0,099	-0,018
-408,569	-200,000	-0,004	0,031
-407,555	69,821	0,038	0,028
-406,540	199,429	-0,077	0,085
-405,525	358,339	-0,079	-0,114
-404,511	-200,000	0,011	0,043
-403,496	-24,222	-0,078	0,033
-402,482	-200,000	0,027	-0,108
-401,467	226,260	0,136	0,159
-400,452	95,452	0,185	0,152
-399,438	-200,000	0,011	-0,058
-398,423	-13,537	0,065	-0,030
-397,409	68,471	-0,072	-0,053
-396,394	1,841	0,050	-0,026
-395,379	65,246	0,063	-0,046
-394,365	-200,000	0,024	0,154
-393,350	630,307	0,055	-0,101
-392,336	22,033	0,045	-0,026
-391,321	800,000	0,043	-0,100
-390,306	242,054	0,059	-0,071
-389,292	800,000	-0,031	-0,070
-388,277	81,845	-0,056	-0,044
-387,263	162,972	0,073	0,073
-386,248	151,704	-0,043	0,042
-385,233	-109,139	0,055	-0,008
-384,219	-200,000	-0,021	0,096
-383,204	170,478	0,013	-0,014
-382,190	252,490	0,056	-0,069
-381,175	800,000	-0,018	-0,049
-380,160	800,000	0,013	0,030
-379,146	33,770	-0,096	0,060
-378,131	800,000	-0,041	0,118
-377,117	-129,793	-0,206	-0,020
-376,102	-200,000	-0,011	-0,104
-375,088	121,041	0,100	-0,090
-374,073	-91,273	0,012	-0,002
-373,058	-132,418	0,119	-0,011
-372,044	-200,000	0,036	0,200
-371,029	135,143	0,158	0,148
-370,015	-74,803	0,087	0,022
-369,000	509,689	-0,018	-0,030
-367,985	294,591	0,046	0,061
-366,971	191,240	-0,181	0,196
-365,956	63,887	-0,138	0,100
-364,942	-200,000	-0,001	0,230
-363,927	-88,700	0,191	0,040
-362,912	-30,085	0,057	-0,023
-361,898	-9,493	-0,130	0,062
-360,883	-165,165	-0,189	0,006
-359,869	800,000	0,100	-0,204
-358,854	-200,000	0,018	-0,075
-357,839	800,000	0,007	0,015
-356,825	55,778	-0,148	0,103
-355,810	-175,255	0,070	-0,001
-354,796	800,000	0,018	0,054
-353,781	800,000	-0,047	-0,105
-352,766	800,000	0,042	-0,103
-351,752	-200,000	0,007	0,032
-350,737	27,728	0,118	-0,071
-349,723	711,600	-0,049	-0,093
-348,708	438,884	0,062	0,098
-347,693	-200,000	0,007	-0,036
-346,679	74,942	-0,071	-0,054
-345,664	25,001	-0,094	-0,056
-344,650	269,040	0,099	-0,125
-343,635	-200,000	-0,015	0,063
-342,620	-200,000	0,008	0,100
-341,606	-46,859	0,094	0,033
-340,591	-200,000	0,002	-0,102
-339,577	-50,837	0,071	-0,024
-338,562	-113,959	-0,029	-0,004
-337,548	-200,000	-0,007	0,080
-336,533	-200,000	-0,014	0,107
-335,518	91,782	0,068	-0,055
-334,504	36,513	0,073	-0,046
-333,489	-200,000	0,012	0,111
-332,475	-200,000	0,004	-0,098
-331,460	-200,000	-0,009	-0,127
-330,445	800,000	0,025	-0,051
-329,431	65,823	0,097	-0,070
-328,416	225,590	-0,070	0,082
-327,402	-200,000	0,028	-0,091
-326,387	-66,242	-0,087	-0,025
-325,372	-200,000	0,015	-0,111
-324,358	-45,042	-0,091	0,032
-323,343	-200,000	0,042	-0,149
-322,329	-200,000	-0,024	0,103
-321,314	800,000	0,042	0,093
-320,299	331,082	-0,080	0,111
-319,285	-139,384	0,189	-0,014
-318,270	250,445	0,047	-0,057
-317,256	143,631	0,080	-0,076
-316,241	800,000	0,049	0,140
-315,226	-93,024	-0,089	0,018
-314,212	345,405	0,077	0,108
-313,197	527,374	0,027	-0,045
-312,183	-136,526	0,090	-0,007
-311,168	-77,242	0,168	-0,042
-310,153	193,300	-0,088	-0,095
-309,139	-168,691	-0,091	0,002
-308,124	191,854	0,085	0,092
-307,110	590,525	-0,088	0,156
-306,095	-29,372	0,057	0,023
-305,080	-33,207	-0,085	0,033
-304,066	-41,909	0,036	0,013
-303,051	-112,964	-0,096	-0,013
-302,037	-200,000	-0,008	-0,103
-301,022	1,451	0,106	-0,054
-300,008	-73,259	0,117	0,031
-298,993	-200,000	-0,007	0,070
-297,978	-71,421	0,102	0,027
-296,964	-67,616	0,036	-0,010
-295,949	223,054	0,039	-0,045
-294,935	157,431	0,122	0,121
-293,920	-172,853	0,086	-0,002
-292,905	-139,828	0,107	0,008
-291,891	-67,224	-0,102	-0,029
-290,876	800,000	-0,019	0,045
-289,862	-200,000	0,017	0,117
-288,847	800,000	0,037	-0,095
-287,832	515,426	-0,038	-0,064
-286,818	-200,000	0,013	-0,120
-285,803	-200,000	-0,021	0,073
-284,789	-123,145	0,086	-0,010
-283,774	-200,000	0,030	-0,134
-282,759	800,000	0,018	-0,041
-281,745	-35,238	0,050	0,019
-280,730	-14,524	-0,036	0,016
-279,716	800,000	-0,012	-0,023
-278,701	-200,000	0,022	0,072
-277,686	2,074	0,119	0,061
-276,672	-200,000	-0,007	-0,052
-275,657	-200,000	-0,012	-0,069
-274,643	-200,000	0,026	-0,160
-273,628	143,182	0,151	-0,144
-272,613	-200,000	0,008	-0,038
-271,599	-48,887	0,131	0,045
-270,584	-200,000	-0,012	0,106
-269,570	60,122	0,080	0,057
-268,555	-170,927	-0,043	0,001
-267,540	59,711	0,099	-0,070
-266,526	25,253	-0,056	-0,033
-265,511	24,407	-0,048	-0,028
-264,497	800,000	0,040	-0,096
-263,482	170,425	0,117	0,120
-262,467	430,162	-0,064	0,099
-261,453	-200,000	-0,006	0,178
-260,438	-41,111	-0,070	0,026
-259,424	-48,453	-0,062	0,021
-258,409	-116,753	-0,153	-0,020
-257,395	-62,557	0,070	-0,021
-256,380	50,880	0,031	-0,021
-255,365	479,024	0,048	0,078
-254,351	-200,000	-0,001	0,130
-253,336	800,000	-0,028	-0,066
-252,322	-200,000	0,003	-0,165
-251,307	800,000	-0,036	0,081
-250,292	-75,180	0,027	-0,007
-249,278	82,846	0,045	-0,035
-248,263	-176,391	0,170	-0,003
-247,249	-80,049	-0,105	-0,025
-246,234	236,477	0,041	0,048
-245,219	13,919	0,104	-0,058
-244,205	40,594	-0,150	-0,096
-243,190	488,188	-0,047	0,078
-242,176	-101,358	0,192	-0,033
-241,161	-13,436	0,146	0,067
-240,146	-200,000	0,015	0,086
-239,132	-200,000	-0,027	-0,094
-238,117	-200,000	-0,014	0,070
-237,103	325,968	-0,084	-0,116
-236,088	-79,695	-0,141	0,034
-235,073	77,182	0,044	-0,034
-234,059	123,836	0,050	0,045
-233,044	800,000	0,025	0,074
-232,030	-200,000	0,008	-0,032
-231,015	241,930	0,020	0,024
-230,000	255,913	-0,066	-0,082
-228,986	-81,237	0,157	0,037
-227,971	-200,000	0,012	-0,061
-226,957	74,470	0,063	0,047
-225,942	-17,634	-0,104	0,047
-224,927	9,103	-0,103	0,055
-223,913	-200,000	-0,005	-0,024
-222,898	-134,575	-0,060	-0,005
-221,884	-200,000	0,006	-0,050
-220,869	-200,000	0,015	-0,063
-219,855	265,600	0,077	0,095
-218,840	191,221	0,034	0,037
-217,825	-53,797	-0,053	0,017
-216,811	800,000	0,043	0,093
-215,796	-20,118	-0,050	0,022
-214,782	19,014	-0,075	-0,043
-213,767	-200,000	-0,001	0,168
-212,752	-200,000	0,012	0,047
-211,738	-200,000	0,004	-0,098
-210,723	-200,000	-0,001	0,070
-209,709	384,122	-0,047	-0,069
-208,694	-49,934	-0,059	0,020
-207,679	323,419	0,035	-0,047
-206,665	548,691	-0,103	0,177
-205,650	377,498	0,095	0,138
-204,636	82,396	-0,061	-0,047
-203,621	-200,000	-0,024	-0,078
-202,606	-200,000	-0,007	0,034
-201,592	-121,693	-0,148	-0,017
-200,577	-56,617	-0,119	0,037
-199,563	292,261	0,056	0,072
-198,548	-200,000	-0,003	0,129
-197,533	800,000	0,048	0,138
-196,519	-106,411	-0,030	-0,005
-195,504	167,490	-0,060	-0,061
-194,490	650,421	-0,015	-0,027
-193,475	-138,297	0,024	0,002
-192,460	-126,941	0,156	-0,016
-191,446	228,604	-0,092	0,107
-190,431	800,000	-0,021	0,050
-189,417	147,833	0,157	0,151
-188,402	-41,006	-0,037	0,014
-187,387	-200,000	-0,014	0,073
-186,373	595,987	0,100	-0,177
-185,358	800,000	0,031	-0,065
-184,344	-75,850	0,167	0,042
-183,329	424,895	0,048	0,073
-182,315	-19,528	-0,035	-0,016
-181,300	20,443	-0,217	-0,125
-180,285	-200,000	-0,019	-0,130
-179,271	800,000	-0,036	-0,077
-178,256	10,375	-0,076	0,041
-177,242	-200,000	0,023	0,080
-176,227	-55,474	-0,065	-0,021
-175,212	-200,000	0,002	-0,067
-174,198	-35,893	0,049	0,019
-173,183	278,484	-0,111	-0,141
-172,169	254,815	0,076	-0,092
-171,154	234,630	-0,105	-0,123
-170,139	-200,000	0,020	0,062
-169,125	-91,401	0,044	0,009
-168,110	91,635	-0,081	0,065
-167,096	-200,000	-0,005	-0,097
-166,081	-49,907	-0,155	0,052
-165,066	85,430	-0,137	0,107
-164,052	800,000	-0,041	-0,102
-163,037	800,000	-0,035	0,103
-162,023	166,042	0,056	0,057
-161,008	610,307	0,066	-0,118
-159,993	60,004	0,047	-0,033
-158,979	800,000	0,044	0,103
-157,964	800,000	-0,037	0,085
-156,950	-200,000	-0,015	-0,068
-155,935	13,589	-0,094	0,052
-154,920	143,604	-0,079	0,075
-153,906	51,828	-0,104	0,070
-152,891	78,676	0,117	-0,089
-151,877	680,491	-0,007	-0,014
-150,862	378,569	0,043	-0,063
-149,847	-200,000	0,009	-0,039
-148,833	-91,577	-0,054	0,011
-147,818	-200,000	-0,014	-0,098
-146,804	-190,542	0,051	-0,000
-145,789	-76,730	-0,076	0,019
-144,775	303,716	-0,040	0,053
-143,760	-200,000	-0,027	-0,203
-142,745	232,059	-0,058	-0,068
-141,731	194,496	0,043	0,046
-140,716	-10,090	0,108	-0,051
-139,702	800,000	0,050	-0,101
-138,687	-99,177	-0,033	0,006
-137,672	346,413	0,081	0,114
-136,658	473,905	0,038	-0,061
-135,643	800,000	0,025	0,051
-134,629	98,200	-0,091	-0,074
-133,614	37,076	0,017	-0,011
-132,599	584,160	-0,038	-0,066
-131,585	-200,000	0,010	0,119
-130,570	-71,678	-0,048	0,013
-129,556	446,609	-0,082	-0,129
-128,541	189,023	0,050	0,053
-127,526	64,169	-0,055	-0,039
-126,512	800,000	0,047	-0,094
-125,497	30,632	0,085	0,052
-124,483	96,346	-0,072	-0,059
-123,468	-65,393	-0,112	0,032
-122,453	325,367	0,033	-0,045
-121,439	-200,000	-0,015	-0,143
-120,424	-100,910	-0,106	-0,018
-119,410	-33,232	-0,113	0,044
-118,395	4,209	-0,069	0,036
-117,380	-200,000	-0,031	-0,117
-116,366	-60,996	-0,126	0,038
-115,351	-136,159	-0,224	-0,018
-114,337	18,893	-0,180	-0,102
-113,322	35,694	-0,026	0,016
-112,307	257,566	0,030	-0,036
-111,293	-200,000	-0,003	-0,082
-110,278	800,000	-0,041	0,106
-109,264	-200,000	-0,021	0,191
-108,249	24,969	0,063	-0,037
-107,234	-64,313	-0,069	-0,020
-106,220	287,216	0,096	-0,124
-105,205	376,544	0,033	0,048
-104,191	-139,615	0,080	0,006
-103,176	-104,017	-0,106	0,017
-102,162	-200,000	0,025	-0,109
-101,147	800,000	0,044	-0,099
-100,132	-144,436	-0,056	0,004
-99,118	47,353	0,042	0,028
-98,103	800,000	-0,018	0,053
-97,089	-22,323	0,135	0,058
-96,074	770,614	-0,073	0,142
-95,059	-101,544	-0,085	-0,015
-94,045	-43,615	-0,079	0,028
-93,030	-200,000	0,015	-0,101
-92,016	800,000	-0,055	-0,159
-91,001	-200,000	0,004	0,025
-89,986	-13,142	0,115	0,053
-88,972	-200,000	-0,005	0,096
-87,957	162,177	0,094	0,094
-86,943	303,721	-0,019	-0,025
-85,928	-129,874	-0,034	-0,003
-84,913	-113,209	0,116	-0,016
-83,899	-200,000	-0,014	0,095
-82,884	236,519	-0,076	-0,090
-81,870	27,618	0,057	0,034
-80,855	-200,000	-0,003	0,056
-79,840	800,000	0,062	0,130
-78,826	800,000	0,014	-0,041
-77,811	-200,000	-0,150	-0,000
-76,797	800,000	-0,056	0,134
-75,782	-101,849	0,143	0,024
-74,767	-131,146	0,119	0,011
-73,753	-200,000	0,002	0,093
-72,738	-200,000	-0,009	-0,034
-71,724	343,677	-0,053	-0,074
-70,709	-12,724	0,152	-0,070
-69,694	800,000	0,070	0,154
-68,680	78,662	-0,041	-0,031
-67,665	228,443	0,047	0,054
-66,651	406,637	0,060	0,090
-65,636	72,999	0,041	0,031
-64,622	-200,000	0,007	-0,098
-63,607	-200,000	0,001	-0,060
-62,592	384,516	-0,056	-0,081
-61,578	-22,149	0,065	-0,028
-60,563	-200,000	-0,010	0,041
-59,549	327,646	-0,110	0,150
-58,534	-80,861	-1,265	-0,295
-57,519	370,993	-1,604	-2,315
-56,505	-200,000	-0,520	-4,324
-55,490	95,578	0,978	0,791
-54,476	800,000	4,725	11,130
-53,461	-200,000	17,105	267,603
-52,446	800,000	714,222	2176,660
-51,432	551,810	1628,697	2785,303
-50,417	81,420	1655,085	1268,227
-49,403	24,482	1529,198	895,064
-48,388	18,476	1452,700	821,387
-47,373	18,554	1442,193	815,785
-46,359	18,276	1433,111	809,295
-45,344	16,769	1428,452	799,483
-44,330	16,752	1426,316	798,175
-43,315	16,714	1424,631	797,020
-42,300	16,731	1423,080	796,199
-41,286	16,810	1421,988	795,933
-40,271	16,737	1420,500	794,721
-39,257	16,697	1419,522	793,955
-38,242	16,752	1418,152	793,416
-37,227	16,783	1416,896	792,826
-36,213	16,779	1415,747	792,137
-35,198	16,753	1414,548	791,311
-34,184	16,753	1413,575	790,736
-33,169	16,659	1412,271	789,534
-32,154	16,718	1411,547	789,374
-31,140	16,790	1409,861	788,737
-30,125	16,773	1408,905	788,091
-29,111	16,749	1407,763	787,310
-28,096	16,710	1406,696	786,500
-27,082	16,681	1405,395	785,605
-26,067	16,695	1404,252	784,999
-25,052	16,705	1403,166	784,407
-24,038	16,717	1402,050	783,807
-23,023	16,653	1401,197	783,003
-22,009	16,615	1400,210	782,242
-20,994	16,603	1399,229	781,607
-19,979	16,576	1398,652	781,130
-18,965	16,643	1397,337	780,678
-17,950	16,628	1396,462	780,086
-16,936	16,658	1395,560	779,688
-15,921	16,585	1394,390	778,669
-14,906	16,577	1393,449	778,073
-13,892	16,563	1392,588	777,497
-12,877	16,578	1391,586	776,976
-11,863	16,600	1390,656	776,528
-10,848	16,557	1389,934	775,896
-9,833	16,575	1388,942	775,396
-8,819	16,526	1387,990	774,604
-7,804	16,475	1387,003	773,789
-6,790	16,472	1386,081	773,232
-5,775	16,439	1385,040	772,469
-4,760	16,476	1384,320	772,207
-3,746	16,453	1383,502	771,611
-2,731	16,392	1382,614	770,807
-1,717	16,445	1381,799	770,565
-0,702	16,469	1379,648	769,446
0,313	20,189	1301,912	743,257
1,327	36,659	707,975	442,413
2,342	56,111	125,872	86,505
3,356	3,971	16,731	8,644
4,371	15,417	3,051	1,693
5,386	13,027	0,496	0,271
6,400	690,180	0,034	0,064
7,415	174,489	-0,241	-0,247
8,429	400,535	-0,234	-0,349
9,444	183,167	-0,245	-0,257
10,459	22,289	-0,339	-0,196
11,473	22,742	-0,412	-0,238
12,488	-34,512	-0,280	-0,108
13,502	45,827	-0,269	-0,176
14,517	-54,836	-0,324	-0,103
15,531	-2,948	-0,395	-0,195
16,546	199,806	-0,308	-0,335
17,561	143,092	-0,283	-0,267
18,575	3,773	-0,238	-0,123
19,590	271,619	-0,334	-0,417
20,604	-1,639	-0,352	-0,175
21,619	65,719	-0,467	-0,334
22,634	267,650	-0,297	-0,369
23,648	94,986	-0,483	-0,389
24,663	-9,136	-0,434	-0,205
25,677	104,312	-0,356	-0,296
26,692	296,301	-0,215	-0,280
27,707	154,028	-0,320	-0,311
28,721	239,056	-0,240	-0,283
29,736	229,378	-0,226	-0,262
30,750	113,837	-0,321	-0,276
31,765	15,526	-0,290	-0,161
32,780	133,159	-0,305	-0,279
33,794	-54,701	-0,360	-0,114
34,809	-54,495	-0,402	-0,128
35,823	23,604	-0,427	-0,248
36,838	2,211	-0,454	-0,231
37,853	31,521	-0,405	-0,246
38,867	63,055	-0,333	-0,235
39,882	-31,039	-0,391	-0,155
40,896	48,517	-0,413	-0,273
41,911	-26,506	-0,301	-0,124
42,926	-14,573	-0,476	-0,215
43,940	181,042	-0,253	-0,262
44,955	342,609	-0,264	-0,366
45,969	89,903	-0,391	-0,308
46,984	337,407	-0,240	-0,331
47,999	7,513	-0,223	-0,118
49,013	-61,098	-0,360	-0,107
50,028	-69,957	-0,277	-0,074
51,042	144,447	-0,357	-0,337
52,057	33,194	-0,371	-0,227
53,071	111,363	-0,373	-0,317
54,086	-29,533	-0,427	-0,172
55,101	240,523	-0,173	-0,204
56,115	-28,313	-0,589	-0,239
57,130	-2,479	-0,347	-0,171
58,144	-36,202	-0,424	-0,161
59,159	15,758	-0,447	-0,247
60,174	98,695	-0,371	-0,302
61,188	342,406	-0,256	-0,355
62,203	4,329	-0,377	-0,194
63,217	369,275	-0,242	-0,347
64,232	-146,231	-0,302	0,018
65,247	-6,077	-0,377	-0,181
66,261	28,705	-0,352	-0,210
67,276	35,709	-0,357	-0,221
68,290	-49,852	-0,401	-0,134
69,305	156,400	-0,330	-0,321
70,320	96,502	-0,217	-0,175
71,334	55,919	-0,280	-0,191
72,349	-75,625	-0,380	-0,094
73,363	75,550	-0,298	-0,222
74,378	529,675	-0,131	-0,218
75,393	36,969	-0,348	-0,216
76,407	91,547	-0,308	-0,244
77,422	-67,662	-0,380	-0,104
78,436	235,905	-0,159	-0,185
79,451	-57,110	-0,252	-0,078
80,466	24,736	-0,443	-0,258
81,480	29,264	-0,336	-0,201
82,495	190,942	-0,300	-0,318
83,509	14,280	-0,095	-0,052
84,524	-118,995	-0,331	-0,040
85,539	54,406	-0,333	-0,225
86,553	-57,109	-0,356	-0,110
87,568	-93,815	-0,416	-0,080
88,582	39,765	-0,345	-0,217
89,597	131,759	-0,322	-0,291
90,611	-12,783	-0,235	-0,107
91,626	87,916	-0,373	-0,291
92,641	-25,194	-0,311	-0,129
93,655	98,188	-0,298	-0,241
94,670	-24,758	-0,295	-0,123
95,684	101,142	-0,302	-0,247
96,699	-5,556	-0,322	-0,155
97,714	-23,488	-0,311	-0,131
98,728	100,985	-0,206	-0,168
99,743	95,669	-0,223	-0,178
100,757	-120,753	-0,212	-0,025
101,772	-44,441	-0,194	-0,068
102,787	-22,104	-0,386	-0,164
103,801	-28,863	-0,382	-0,153
104,816	6,831	-0,138	-0,072
105,830	-43,834	-0,293	-0,103
106,845	-200,000	-0,032	-0,191
107,860	175,218	-0,315	-0,321
108,874	61,882	-0,316	-0,221
109,889	147,089	-0,271	-0,256
110,903	179,795	-0,209	-0,215
111,918	-17,588	-0,271	-0,119
112,933	-58,092	-0,320	-0,097
113,947	138,709	-0,117	-0,108
114,962	177,822	-0,273	-0,280
115,976	146,741	-0,288	-0,272
116,991	52,311	-0,244	-0,163
118,006	90,376	-0,333	-0,262
119,020	-63,295	-0,434	-0,125
120,035	-132,511	-0,289	0,026
121,049	364,944	-0,127	-0,180
122,064	17,597	-0,219	-0,122
123,079	-13,213	-0,348	-0,158
124,093	330,691	-0,286	-0,388
125,108	-17,011	-0,232	-0,102
126,122	21,369	-0,240	-0,136
127,137	-86,140	-0,185	-0,040
128,151	486,329	-0,161	-0,258
129,166	276,705	-0,223	-0,279
130,181	-4,108	-0,258	-0,125
131,195	505,418	-0,219	-0,358
132,210	43,307	-0,243	-0,155
133,224	-10,833	-0,258	-0,119
134,239	134,644	-0,205	-0,186
135,254	-15,587	-0,126	-0,056
136,268	7,142	-0,226	-0,118
137,283	-39,416	-0,283	-0,103
138,297	800,000	-0,123	-0,248
139,312	-141,792	-0,251	-0,017
140,327	29,642	-0,247	-0,147
141,341	-78,831	-0,292	-0,069
142,356	31,954	-0,228	-0,137
143,370	-84,706	-0,308	-0,067
144,385	298,417	-0,294	-0,379
145,400	11,758	-0,250	-0,134
146,414	8,941	-0,268	-0,141
147,429	111,272	-0,208	-0,176
148,443	18,349	-0,257	-0,144
149,458	800,000	-0,073	-0,225
150,473	72,704	-0,235	-0,172
151,487	36,361	-0,295	-0,182
152,502	226,086	-0,271	-0,308
153,516	40,239	-0,144	-0,090
154,531	137,019	-0,341	-0,312
155,546	106,656	-0,309	-0,256
156,560	-37,575	-0,197	-0,073
157,575	578,405	-0,114	-0,196
158,589	54,604	-0,285	-0,192
159,604	91,886	-0,308	-0,242
160,619	-7,983	-0,206	-0,097
161,633	111,920	-0,237	-0,200
162,648	106,595	-0,175	-0,145
163,662	82,602	-0,205	-0,156
164,677	32,406	-0,230	-0,139
165,692	111,530	-0,237	-0,200
166,706	407,260	-0,185	-0,274
167,721	217,684	-0,326	-0,364
168,735	140,310	-0,273	-0,252
169,750	237,503	-0,218	-0,253
170,764	-49,652	-0,263	-0,087
171,779	99,231	-0,168	-0,136
172,794	302,764	-0,165	-0,214
173,808	5,168	-0,215	-0,110
174,823	427,858	-0,212	-0,321
175,837	-70,032	-0,248	-0,065
176,852	-33,424	-0,281	-0,108
177,867	92,768	-0,158	-0,125
178,881	-49,839	-0,162	0,054
179,896	18,318	-0,177	-0,098
180,910	484,083	-0,180	-0,287
181,925	157,253	-0,221	-0,214
182,940	-98,803	-0,255	-0,045
183,954	254,191	-0,158	-0,189
184,969	42,863	-0,226	-0,144
185,983	157,540	-0,216	-0,209
186,998	34,778	-0,237	-0,144
188,013	311,241	-0,148	-0,194
189,027	185,011	-0,125	-0,129
190,042	-81,084	-0,250	-0,057
191,056	34,366	-0,248	-0,151
192,071	153,008	-0,277	-0,264
193,086	-29,629	-0,192	-0,076
194,100	630,269	-0,079	-0,140
195,115	315,404	-0,168	-0,222
196,129	128,520	-0,111	-0,099
197,144	59,571	-0,160	-0,110
198,159	216,578	-0,114	-0,126
199,173	431,811	-0,199	-0,301
200,188	167,535	-0,199	-0,197
201,202	66,622	-0,181	-0,128
202,217	756,369	-0,079	-0,150
203,232	700,998	-0,133	-0,245
204,246	-29,539	-0,250	-0,099
205,261	146,763	-0,124	-0,116
206,275	20,107	-0,263	-0,147
207,290	-25,481	-0,256	-0,105
208,304	256,473	-0,026	-0,031
209,319	344,164	-0,144	-0,197
210,334	-29,285	-0,242	-0,096
211,348	301,113	-0,199	-0,256
212,363	-111,432	-0,329	-0,046
213,377	-55,384	-0,221	-0,069
214,392	-43,469	-0,187	-0,065
215,407	88,647	-0,220	-0,170
216,421	344,228	-0,151	-0,207
217,436	729,232	-0,136	-0,253
218,450	-78,935	-0,257	-0,060
219,465	189,314	-0,134	-0,140
220,480	59,689	-0,190	-0,130
221,494	28,333	-0,216	-0,127
222,509	162,459	-0,163	-0,159
223,523	182,205	-0,102	-0,104
224,538	-5,115	-0,250	-0,119
225,553	49,298	-0,160	-0,104
226,567	416,178	-0,175	-0,260
227,582	-7,898	-0,279	-0,130
228,596	38,191	-0,218	-0,135
229,611	39,426	-0,240	-0,149
230,626	33,401	-0,233	-0,140
231,640	-200,000	-0,023	-0,102
232,655	74,128	-0,137	-0,100
233,669	197,027	-0,187	-0,198
234,684	62,287	-0,195	-0,135
235,699	-68,664	-0,132	-0,035
236,713	-28,152	-0,217	-0,087
237,728	89,377	-0,174	-0,135
238,742	94,680	-0,133	-0,105
239,757	8,763	-0,187	-0,097
240,772	-55,563	-0,277	-0,086
241,786	-31,989	-0,234	0,090
242,801	800,000	-0,113	-0,324
243,815	230,852	-0,225	-0,256
244,830	411,267	-0,097	-0,144
245,844	120,666	-0,140	-0,120
246,859	-61,238	-0,245	0,071
247,874	51,998	-0,183	-0,120
248,888	800,000	-0,144	-0,320
249,903	800,000	-0,118	-0,243
250,917	225,180	-0,112	-0,126
251,932	800,000	-0,075	-0,155
252,947	-171,435	-0,289	-0,007
253,961	278,891	-0,148	-0,183
254,976	-108,269	-0,206	-0,031
255,990	90,620	-0,121	-0,094
257,005	84,439	-0,210	-0,159
258,020	12,031	-0,108	-0,057
259,034	226,880	-0,113	-0,127
260,049	270,632	-0,091	-0,112
261,063	-62,207	-0,265	-0,076
262,078	-6,316	-0,259	-0,122
263,093	-68,903	-0,246	-0,065
264,107	-25,880	-0,227	-0,092
265,122	-74,153	-0,159	-0,039
266,136	-102,721	-0,108	-0,018
267,151	-5,161	-0,292	-0,139
268,166	-67,470	-0,287	-0,077
269,180	124,057	-0,132	-0,115
270,195	76,906	-0,212	-0,156
271,209	-124,565	-0,262	-0,028
272,224	503,738	-0,139	-0,223
273,239	121,598	-0,179	-0,155
274,253	319,911	-0,192	-0,252
275,268	11,034	-0,201	-0,106
276,282	-111,656	-0,261	-0,036
277,297	-200,000	-0,068	-0,222
278,312	55,846	-0,246	-0,165
279,326	-157,321	-0,172	-0,007
280,341	800,000	-0,021	-0,049
281,355	150,824	-0,078	-0,074
282,370	-90,580	-0,197	-0,039
283,384	58,668	-0,154	-0,104
284,399	32,593	-0,307	-0,183
285,414	150,705	-0,204	-0,192
286,428	13,713	-0,096	0,051
287,443	55,419	-0,090	0,060
288,457	151,619	-0,150	-0,141
289,472	251,001	-0,169	-0,199
290,487	-59,268	-0,253	-0,075
291,501	54,719	-0,241	-0,160
292,516	-102,977	-0,167	-0,027
293,530	692,904	-0,030	-0,055
294,545	16,094	-0,142	0,077
295,560	-16,957	-0,189	-0,082
296,574	107,419	-0,196	-0,161
297,589	52,033	-0,189	-0,124
298,603	112,209	-0,165	-0,138
299,618	-98,782	-0,166	-0,029
300,633	-104,497	-0,201	0,032
301,647	139,648	-0,154	0,140
302,662	-200,000	-0,007	-0,132
303,676	-48,441	-0,020	0,007
304,691	-110,676	-0,144	0,020
305,706	-68,332	-0,198	-0,053
306,720	69,203	-0,146	-0,103
307,735	115,669	-0,152	-0,129
308,749	298,648	-0,145	-0,185
309,764	27,164	-0,114	-0,066
310,779	238,960	-0,159	-0,183
311,793	-86,505	-0,188	-0,040
312,808	-54,453	-0,291	-0,090
313,822	-70,799	-0,206	-0,053
314,837	-200,000	0,014	-0,111
315,852	-1,480	-0,200	-0,097
316,866	-33,824	-0,081	-0,031
317,881	-200,000	-0,003	-0,226
318,895	441,710	-0,139	-0,210
319,910	121,571	-0,115	-0,099
320,925	-200,000	0,030	-0,156
321,939	282,837	-0,120	-0,149
322,954	-21,437	-0,172	-0,072
323,968	-200,000	-0,025	-0,087
324,983	117,041	-0,112	-0,095
325,997	210,300	-0,150	-0,162
327,012	15,425	-0,188	-0,101
328,027	55,116	-0,179	-0,119
329,041	36,535	-0,075	-0,045
330,056	44,481	-0,222	-0,140
331,070	-50,551	-0,171	-0,055
332,085	-6,389	-0,131	0,061
333,100	-34,447	-0,158	0,059
334,114	1,123	-0,180	-0,089
335,129	-19,481	-0,139	-0,059
336,143	-38,539	-0,109	-0,039
337,158	-200,000	-0,060	-0,209
338,173	688,982	-0,066	-0,120
339,187	304,329	-0,037	-0,047
340,202	655,012	-0,101	-0,180
341,216	5,175	-0,240	-0,121
342,231	230,031	-0,075	-0,085
343,246	96,117	-0,138	-0,108
344,260	-69,392	-0,187	-0,049
345,275	800,000	-0,059	-0,168
346,289	697,727	-0,053	-0,097
347,304	151,839	-0,082	-0,077
348,319	5,738	-0,146	-0,074
349,333	14,502	-0,164	-0,088
350,348	136,412	-0,200	-0,180
351,362	152,829	-0,113	-0,106
352,377	168,763	-0,141	-0,138
353,392	91,531	-0,157	-0,121
354,406	-25,870	-0,121	-0,049
355,421	210,931	1314,497	1422,215
356,435	162,404	1475,237	1422,760
