DTS Sentinel unit serial number:	SN410029Multiplexer serial number:	ORYXHardware model number:	OX2-SRSoftware version number:	ORYX F/W v4,00 Oryx Data Collector v3.7.2.0data status	okinstallation	B3 Nyhavnadifferential loss correction	single-endedforward channel	channel 1reverse channel	N/Adate	2023/12/01time	12:27:30forward acquisition time	300,00reverse acquisition time	0,00gamma	499,1914k internal	0,3213k external	0,3213temperature offset calibration	1,0000default loss term (dB/km)	0,3820temperature slope calibration	1,0000multiplexer offset coefficient	1,0000multiplexer slope coefficient	1,0000fibre end	0,00T internal ref (°C)	8,89T ext. ref 1 (°C)	-5,08T ext. ref 2 (°C)	-5,23length (m)	temperature (°C)	Stokes	anti-Stokes-744,400	800,000	-0,117	-0,266
-743,385	-200,000	0,005	0,166
-742,371	-200,000	-0,040	-0,201
-741,356	-200,000	0,019	0,212
-740,342	-42,563	-0,116	-0,042
-739,327	-200,000	-0,066	0,265
-738,312	577,388	-0,137	-0,243
-737,298	800,000	-0,095	0,213
-736,283	-200,000	-0,088	-0,330
-735,269	-200,000	-0,046	0,318
-734,254	-97,833	-0,239	-0,044
-733,239	134,318	-0,064	0,060
-732,225	77,832	-0,178	-0,137
-731,210	800,000	0,126	0,284
-730,196	800,000	-0,040	-0,120
-729,181	-100,291	0,080	-0,014
-728,167	800,000	-0,071	0,144
-727,152	-200,000	-0,004	-0,064
-726,137	241,867	-0,047	-0,056
-725,123	-200,000	0,004	-0,057
-724,108	-121,360	-0,144	0,017
-723,094	5,429	-0,182	-0,097
-722,079	-200,000	-0,022	-0,165
-721,064	-200,000	-0,020	0,070
-720,050	368,666	-0,015	0,022
-719,035	98,660	-0,020	-0,016
-718,021	-200,000	-0,035	-0,135
-717,006	118,776	-0,107	-0,096
-715,991	-26,188	-0,129	-0,054
-714,977	443,776	-0,059	0,093
-713,962	21,925	0,058	-0,034
-712,948	-200,000	-0,008	-0,076
-711,933	8,437	-0,127	-0,069
-710,918	36,450	-0,127	0,081
-709,904	-28,001	-0,132	-0,055
-708,889	-114,234	-0,046	-0,006
-707,875	-200,000	-0,008	-0,041
-706,860	800,000	-0,013	0,029
-705,845	35,403	-0,064	0,040
-704,831	-200,000	0,044	0,155
-703,816	-144,879	-0,097	-0,006
-702,802	57,842	-0,075	-0,053
-701,787	-200,000	-0,012	-0,041
-700,772	-200,000	-0,031	-0,129
-699,758	37,477	0,162	-0,104
-698,743	-200,000	0,004	0,099
-697,729	-200,000	0,018	0,091
-696,714	263,040	0,129	0,162
-695,699	-200,000	0,024	-0,081
-694,685	34,022	-0,055	-0,034
-693,670	-200,000	0,000	0,027
-692,656	800,000	-0,022	0,053
-691,641	-95,496	-0,070	-0,013
-690,627	781,912	-0,029	-0,058
-689,612	-200,000	-0,002	-0,092
-688,597	302,793	-0,048	-0,064
-687,583	-200,000	-0,021	-0,121
-686,568	-200,000	0,002	0,060
-685,554	160,752	-0,082	-0,083
-684,539	345,934	0,046	-0,065
-683,524	-174,278	0,175	0,004
-682,510	-78,677	0,046	-0,011
-681,495	800,000	0,021	-0,052
-680,481	9,643	-0,035	0,019
-679,466	-108,020	-0,126	0,020
-678,451	-200,000	-0,013	-0,051
-677,437	-200,000	-0,046	-0,192
-676,422	-200,000	0,007	0,097
-675,408	-200,000	-0,020	0,079
-674,393	31,583	-0,036	-0,022
-673,378	-85,093	-0,112	-0,025
-672,364	37,236	0,069	-0,044
-671,349	262,264	0,050	0,062
-670,335	444,713	0,042	-0,067
-669,320	-52,314	-0,030	0,010
-668,305	13,525	-0,111	0,062
-667,291	-200,000	-0,017	-0,138
-666,276	25,147	-0,033	-0,019
-665,262	-200,000	-0,003	-0,030
-664,247	800,000	-0,061	-0,128
-663,232	216,078	-0,044	-0,050
-662,218	-63,363	-0,059	-0,018
-661,203	-70,018	0,063	0,017
-660,189	-200,000	0,005	0,046
-659,174	-14,455	-0,117	-0,054
-658,159	-138,602	0,072	0,006
-657,145	-200,000	0,002	-0,022
-656,130	-106,418	0,089	0,014
-655,116	34,183	0,094	0,059
-654,101	-200,000	-0,021	-0,079
-653,086	-200,000	0,003	0,055
-652,072	71,141	0,065	-0,048
-651,057	147,699	-0,091	-0,088
-650,043	-181,389	-0,071	-0,001
-649,028	22,202	-0,035	-0,020
-648,014	-19,924	0,057	0,025
-646,999	8,455	0,092	0,050
-645,984	800,000	-0,017	0,053
-644,970	800,000	0,057	-0,117
-643,955	-200,000	0,002	0,049
-642,941	73,018	-0,071	-0,054
-641,926	353,639	0,055	-0,079
-640,911	-200,000	0,010	0,082
-639,897	-200,000	0,032	-0,132
-638,882	-200,000	0,007	0,064
-637,868	800,000	-0,043	-0,091
-636,853	800,000	-0,098	-0,240
-635,838	125,272	0,086	-0,078
-634,824	266,718	0,113	-0,143
-633,809	45,103	-0,080	-0,053
-632,795	800,000	0,042	-0,085
-631,780	-200,000	-0,014	-0,068
-630,765	-66,531	-0,133	0,038
-629,751	467,566	-0,113	-0,183
-628,736	800,000	-0,016	-0,031
-627,722	-34,428	-0,137	-0,054
-626,707	-30,162	0,107	0,044
-625,692	-200,000	-0,019	0,081
-624,678	69,573	0,028	-0,021
-623,663	-200,000	-0,001	0,057
-622,649	183,377	-0,010	0,010
-621,634	-17,464	-0,151	-0,068
-620,619	-200,000	0,019	0,144
-619,605	-7,020	-0,028	0,014
-618,590	250,329	0,073	0,089
-617,576	-200,000	0,010	0,115
-616,561	-109,074	-0,062	-0,009
-615,546	-200,000	-0,014	-0,120
-614,532	-136,593	-0,147	-0,012
-613,517	64,871	-0,067	-0,049
-612,503	-105,173	-0,019	0,003
-611,488	665,445	-0,043	-0,081
-610,474	334,614	0,083	0,116
-609,459	237,576	0,101	0,121
-608,444	-200,000	-0,001	0,107
-607,430	-200,000	0,000	-0,036
-606,415	800,000	-0,051	-0,117
-605,401	800,000	0,023	-0,053
-604,386	-161,346	0,038	-0,001
-603,371	-43,570	0,025	0,009
-602,357	108,020	0,070	0,060
-601,342	73,146	-0,088	-0,066
-600,328	40,891	-0,215	-0,140
-599,313	-122,246	-0,086	-0,010
-598,298	800,000	0,048	-0,123
-597,284	-200,000	-0,033	0,127
-596,269	-11,785	-0,029	-0,014
-595,255	28,333	0,085	0,052
-594,240	496,510	0,017	0,027
-593,225	556,138	0,040	-0,071
-592,211	-200,000	-0,034	-0,135
-591,196	-52,730	0,077	-0,025
-590,182	-53,342	0,107	0,035
-589,167	-54,911	0,095	-0,031
-588,152	133,334	-0,022	0,020
-587,138	175,680	-0,060	-0,062
-586,123	126,386	0,051	-0,047
-585,109	-200,000	-0,007	-0,071
-584,094	-200,000	0,015	-0,149
-583,079	401,163	-0,069	0,104
-582,065	-7,202	0,158	0,077
-581,050	-200,000	-0,002	-0,010
-580,036	-139,657	-0,040	-0,003
-579,021	-136,941	-0,215	0,017
-578,006	-1,513	0,107	-0,054
-576,992	-200,000	-0,012	-0,056
-575,977	-122,067	-0,125	0,015
-574,963	-89,368	0,201	0,042
-573,948	40,519	-0,020	0,013
-572,934	-24,446	-0,090	-0,038
-571,919	142,511	0,081	-0,078
-570,904	-200,000	0,012	-0,096
-569,890	52,200	-0,099	-0,067
-568,875	-20,740	-0,036	-0,016
-567,861	-200,000	0,002	-0,095
-566,846	52,358	-0,014	0,010
-565,831	800,000	-0,077	0,208
-564,817	160,362	-0,052	-0,052
-563,802	-200,000	0,010	-0,140
-562,788	-135,390	0,055	0,005
-561,773	478,732	-0,077	-0,126
-560,758	316,177	0,051	-0,069
-559,744	-200,000	-0,027	0,098
-558,729	-26,150	-0,048	0,020
-557,715	800,000	0,032	-0,082
-556,700	15,945	-0,190	-0,107
-555,685	193,519	0,018	0,020
-554,671	-21,255	0,114	0,050
-553,656	-80,038	-0,112	-0,027
-552,642	565,423	0,033	0,058
-551,627	8,151	0,106	0,057
-550,612	381,977	0,012	0,018
-549,598	800,000	0,096	-0,222
-548,583	15,923	0,070	-0,039
-547,569	207,759	0,028	-0,031
-546,554	-114,808	0,201	0,027
-545,539	-66,337	0,086	0,025
-544,525	-73,481	0,014	-0,004
-543,510	75,364	-0,048	-0,037
-542,496	800,000	-0,056	-0,141
-541,481	121,427	-0,074	-0,066
-540,466	484,255	-0,011	-0,019
-539,452	291,364	0,043	-0,056
-538,437	-100,937	-0,113	0,020
-537,423	-56,303	-0,042	-0,013
-536,408	120,529	0,065	0,058
-535,393	71,410	-0,073	-0,055
-534,379	-200,000	-0,018	-0,156
-533,364	-200,000	0,002	-0,011
-532,350	-79,298	0,165	-0,040
-531,335	-142,667	0,104	-0,007
-530,321	566,415	0,050	-0,087
-529,306	17,119	-0,062	0,035
-528,291	-200,000	0,000	0,016
-527,277	332,774	-0,056	-0,078
-526,262	55,086	0,070	-0,049
-525,248	317,307	0,057	-0,077
-524,233	-102,751	0,168	-0,028
-523,218	-36,370	0,121	0,046
-522,204	-200,000	0,008	0,142
-521,189	92,032	-0,151	-0,122
-520,175	-184,366	-0,084	0,001
-519,160	256,266	-0,093	-0,114
-518,145	-139,200	0,048	0,004
-517,131	-121,985	-0,137	0,016
-516,116	-155,462	-0,048	-0,002
-515,102	99,430	-0,052	-0,043
-514,087	-200,000	-0,003	-0,035
-513,072	800,000	0,048	-0,115
-512,058	279,197	-0,051	-0,065
-511,043	-110,922	-0,154	-0,023
-510,029	117,430	-0,011	-0,010
-509,014	11,539	-0,041	0,023
-507,999	201,844	0,117	-0,130
-506,985	800,000	0,024	-0,059
-505,970	26,108	-0,034	-0,021
-504,956	583,417	0,001	-0,002
-503,941	-200,000	0,008	0,145
-502,926	487,106	0,059	0,096
-501,912	57,143	0,032	0,022
-500,897	88,163	0,076	-0,061
-499,883	90,318	-0,102	-0,082
-498,868	247,049	-0,053	-0,064
-497,853	14,930	-0,060	0,034
-496,839	800,000	0,005	0,010
-495,824	62,646	0,065	-0,047
-494,810	-200,000	-0,007	0,048
-493,795	-119,147	0,133	-0,017
-492,781	2,300	-0,036	-0,019
-491,766	-200,000	-0,023	-0,129
-490,751	-3,170	-0,018	-0,009
-489,737	-72,960	0,089	-0,023
-488,722	94,688	-0,016	0,013
-487,708	-108,004	0,192	0,030
-486,693	800,000	0,068	0,166
-485,678	-200,000	-0,013	0,058
-484,664	-200,000	-0,029	-0,174
-483,649	584,086	-0,092	-0,163
-482,635	107,888	0,025	-0,022
-481,620	-16,673	-0,059	0,027
-480,605	-200,000	-0,007	-0,129
-479,591	-200,000	-0,035	0,000
-478,576	128,382	0,103	0,094
-477,562	87,691	-0,075	0,059
-476,547	-155,878	-0,114	0,005
-475,532	-133,366	0,113	-0,010
-474,518	179,453	0,114	0,120
-473,503	-200,000	0,016	0,052
-472,489	-36,590	-0,113	0,043
-471,474	81,849	0,049	-0,038
-470,459	-85,584	0,052	0,012
-469,445	800,000	-0,055	0,121
-468,430	-200,000	-0,015	-0,098
-467,416	69,317	0,043	0,032
-466,401	-200,000	0,032	0,220
-465,386	96,015	0,137	0,113
-464,372	-113,032	-0,074	-0,010
-463,357	-162,983	0,042	-0,001
-462,343	158,732	-0,051	0,051
-461,328	-52,288	-0,026	0,009
-460,313	-46,147	-0,052	-0,018
-459,299	-200,000	0,024	0,121
-458,284	341,510	0,095	0,134
-457,270	251,046	0,031	-0,038
-456,255	208,881	0,108	0,122
-455,241	551,480	-0,056	-0,098
-454,226	-1,208	-0,075	0,038
-453,211	153,916	-0,081	-0,079
-452,197	800,000	-0,022	0,057
-451,182	-53,244	0,161	-0,053
-450,168	800,000	0,040	0,090
-449,153	-99,421	0,080	-0,014
-448,138	-138,420	0,064	0,005
-447,124	-16,287	-0,156	-0,070
-446,109	265,100	0,049	0,061
-445,095	73,074	0,075	0,056
-444,080	-74,031	0,031	0,008
-443,065	-200,000	-0,028	0,119
-442,051	-200,000	0,007	-0,086
-441,036	-48,368	-0,121	0,041
-440,022	556,233	0,045	-0,079
-439,007	47,034	-0,128	0,085
-437,992	800,000	0,011	0,031
-436,978	-200,000	-0,010	-0,192
-435,963	-27,192	-0,053	0,022
-434,949	163,891	-0,061	0,062
-433,934	-181,973	-0,072	-0,001
-432,919	-196,988	-0,045	0,000
-431,905	-200,000	0,004	-0,052
-430,890	-166,795	0,071	0,002
-429,876	167,495	0,141	0,144
-428,861	-200,000	0,005	0,093
-427,846	40,254	-0,107	-0,069
-426,832	276,660	-0,024	0,030
-425,817	-48,109	-0,050	0,017
-424,803	-62,495	-0,102	0,030
-423,788	617,724	-0,028	0,050
-422,773	-190,891	0,046	-0,000
-421,759	355,072	-0,038	0,054
-420,744	149,935	0,088	-0,085
-419,730	250,022	-0,065	-0,079
-418,715	-200,000	-0,003	-0,053
-417,701	-137,577	0,086	0,007
-416,686	354,343	0,065	0,093
-415,671	408,220	0,051	-0,078
-414,657	98,889	-0,104	-0,086
-413,642	-161,086	-0,041	-0,001
-412,628	-91,736	0,079	-0,016
-411,613	800,000	-0,025	0,058
-410,598	447,664	0,036	-0,057
-409,584	66,952	-0,073	0,053
-408,569	193,608	0,055	-0,059
-407,555	3,001	0,060	-0,031
-406,540	138,600	-0,066	0,062
-405,525	490,636	-0,041	0,067
-404,511	800,000	-0,032	0,075
-403,496	-200,000	0,029	-0,128
-402,482	356,249	-0,054	-0,077
-401,467	800,000	-0,036	0,094
-400,452	800,000	0,014	0,039
-399,438	680,014	0,050	0,094
-398,423	800,000	-0,047	0,109
-397,409	99,704	0,064	-0,053
-396,394	64,306	-0,030	0,022
-395,379	-200,000	0,004	0,108
-394,365	250,463	0,049	-0,060
-393,350	-200,000	-0,045	0,000
-392,336	-200,000	0,007	-0,064
-391,321	-200,000	-0,006	-0,040
-390,306	80,686	-0,079	-0,061
-389,292	2,640	0,112	-0,058
-388,277	-83,075	-0,068	0,015
-387,263	22,607	0,099	0,058
-386,248	-128,602	0,147	-0,015
-385,233	-200,000	-0,003	0,030
-384,219	37,927	0,032	-0,021
-383,204	-5,300	-0,102	-0,050
-382,190	-86,357	0,027	-0,006
-381,175	-200,000	-0,009	0,070
-380,160	800,000	0,030	-0,066
-379,146	-200,000	0,017	0,129
-378,131	46,375	0,043	-0,028
-377,117	352,791	0,042	-0,060
-376,102	385,155	-0,009	-0,014
-375,088	97,610	0,122	0,100
-374,073	800,000	0,073	0,168
-373,058	800,000	-0,017	-0,038
-372,044	-97,803	0,060	0,011
-371,029	136,802	0,055	-0,051
-370,015	-71,477	0,112	-0,030
-369,000	11,256	-0,069	0,037
-367,985	58,603	0,112	-0,078
-366,971	21,993	-0,074	0,043
-365,956	-96,645	0,149	0,028
-364,942	-82,730	-0,059	-0,014
-363,927	-40,087	0,041	0,015
-362,912	-200,000	0,018	0,098
-361,898	-163,228	-0,119	0,004
-360,883	-200,000	0,010	-0,064
-359,869	-200,000	0,023	-0,194
-358,854	657,247	-0,036	-0,066
-357,839	36,339	0,046	-0,029
-356,825	-200,000	-0,000	0,142
-355,810	800,000	0,047	0,113
-354,796	47,401	-0,112	-0,074
-353,781	158,499	-0,048	-0,047
-352,766	-200,000	-0,020	0,097
-351,752	-86,169	0,119	-0,026
-350,737	136,753	0,036	0,034
-349,723	-200,000	0,004	0,013
-348,708	800,000	0,060	-0,127
-347,693	-37,422	-0,082	0,031
-346,679	-200,000	0,017	-0,142
-345,664	121,910	-0,100	-0,089
-344,650	-106,964	0,169	-0,026
-343,635	-200,000	0,096	0,000
-342,620	-66,229	-0,076	-0,021
-341,606	-200,000	-0,008	0,111
-340,591	-166,067	0,079	-0,002
-339,577	-46,325	-0,055	-0,019
-338,562	800,000	-0,033	-0,069
-337,548	-23,543	0,124	0,053
-336,533	-200,000	0,007	0,046
-335,518	-9,127	0,166	0,079
-334,504	-200,000	-0,017	0,126
-333,489	-77,954	0,097	-0,024
-332,475	-200,000	-0,013	0,074
-331,460	-46,848	-0,025	-0,009
-330,445	403,426	0,083	0,125
-329,431	224,240	0,093	0,108
-328,416	484,372	0,036	-0,058
-327,402	800,000	0,023	0,049
-326,387	-117,841	-0,114	0,014
-325,372	-121,375	-0,065	0,008
-324,358	-200,000	0,023	-0,090
-323,343	578,673	-0,069	0,120
-322,329	-200,000	-0,004	0,090
-321,314	800,000	0,011	0,030
-320,299	-200,000	-0,020	0,128
-319,285	-200,000	-0,013	0,108
-318,270	182,432	-0,075	-0,078
-317,256	-200,000	-0,021	-0,079
-316,241	223,348	0,167	-0,193
-315,226	-90,855	0,104	-0,021
-314,212	-126,215	0,105	0,011
-313,197	213,675	0,072	0,081
-312,183	800,000	0,039	0,087
-311,168	166,601	0,029	0,030
-310,153	352,275	0,028	0,040
-309,139	14,963	-0,128	0,071
-308,124	-162,076	0,122	-0,004
-307,110	180,814	0,051	-0,053
-306,095	-69,718	0,064	-0,017
-305,080	-68,591	-0,091	0,025
-304,066	-19,051	-0,046	0,020
-303,051	-24,428	-0,137	-0,058
-302,037	-73,816	0,199	-0,051
-301,022	66,774	0,094	0,068
-300,008	90,425	0,059	0,047
-298,993	-23,997	-0,055	-0,023
-297,978	-200,000	0,045	0,177
-296,964	-82,085	-0,059	-0,014
-295,949	-104,793	-0,079	-0,013
-294,935	-108,359	0,078	-0,012
-293,920	-200,000	-0,017	-0,056
-292,905	-200,000	0,002	0,032
-291,891	-200,000	-0,031	0,130
-290,876	80,030	-0,073	0,055
-289,862	511,218	-0,098	0,163
-288,847	-200,000	-0,021	-0,073
-287,832	102,784	-0,015	0,012
-286,818	24,889	0,093	-0,055
-285,803	800,000	-0,013	0,041
-284,789	160,749	-0,080	0,080
-283,774	77,077	0,051	0,038
-282,759	-158,029	-0,108	-0,004
-281,745	-200,000	0,016	-0,082
-280,730	-200,000	0,013	0,132
-279,716	800,000	0,024	0,060
-278,701	-200,000	-0,006	0,094
-277,686	-73,368	-0,037	-0,009
-276,672	396,089	-0,034	0,050
-275,657	49,425	-0,093	-0,062
-274,643	-132,557	-0,128	-0,012
-273,628	-200,000	-0,010	0,105
-272,613	64,120	-0,142	0,102
-271,599	800,000	-0,026	-0,066
-270,584	-150,052	0,058	-0,003
-269,570	50,682	0,084	0,056
-268,555	-200,000	-0,002	0,019
-267,540	-196,939	-0,149	0,001
-266,526	54,862	-0,124	0,085
-265,511	-18,911	0,039	-0,017
-264,497	-31,759	-0,089	-0,035
-263,482	-66,321	0,128	0,036
-262,467	43,661	0,051	0,033
-261,453	-200,000	0,017	-0,074
-260,438	-49,177	-0,112	-0,038
-259,424	381,194	-0,052	-0,076
-258,409	-90,501	0,077	0,016
-257,395	226,201	-0,057	-0,066
-256,380	237,428	0,160	0,188
-255,365	-200,000	0,000	-0,029
-254,351	237,774	0,049	0,058
-253,336	-86,776	0,077	0,017
-252,322	214,279	-0,068	-0,077
-251,307	297,625	0,022	-0,029
-250,292	-149,551	-0,068	0,004
-249,278	-200,000	0,014	0,092
-248,263	-108,631	0,182	0,027
-247,249	32,388	0,070	0,043
-246,234	21,586	0,120	0,069
-245,219	-110,404	-0,089	0,013
-244,205	-200,000	-0,000	-0,023
-243,190	135,540	0,073	-0,068
-242,176	552,323	0,068	0,116
-241,161	-200,000	-0,032	0,103
-240,146	-171,995	-0,129	0,003
-239,132	54,868	0,059	0,041
-238,117	-135,609	-0,122	-0,010
-237,103	205,855	0,066	-0,073
-236,088	305,749	0,009	-0,012
-235,073	37,772	0,082	0,052
-234,059	241,093	0,078	-0,093
-233,044	57,863	-0,056	0,039
-232,030	133,845	-0,090	0,083
-231,015	268,606	0,038	-0,047
-230,000	-200,000	0,000	-0,074
-228,986	659,360	-0,016	0,029
-227,971	-200,000	-0,011	0,050
-226,957	661,965	-0,045	0,082
-225,942	-186,715	-0,010	0,000
-224,927	94,488	0,025	0,021
-223,913	19,022	-0,085	-0,049
-222,898	-7,710	-0,046	0,022
-221,884	-200,000	0,008	0,031
-220,869	-200,000	-0,016	0,061
-219,855	-200,000	0,007	0,051
-218,840	-75,891	0,162	0,040
-217,825	-200,000	0,007	0,128
-216,811	800,000	-0,042	-0,090
-215,796	-140,140	-0,040	-0,003
-214,782	-200,000	0,004	0,153
-213,767	394,060	0,064	-0,096
-212,752	-200,000	0,014	0,061
-211,738	-83,671	-0,144	-0,032
-210,723	-87,442	-0,102	-0,022
-209,709	106,335	-0,087	-0,073
-208,694	65,330	-0,116	-0,083
-207,679	800,000	-0,044	-0,106
-206,665	800,000	0,032	0,088
-205,650	128,113	0,022	-0,020
-204,636	-151,416	-0,123	0,006
-203,621	-148,474	-0,133	-0,008
-202,606	33,368	-0,096	-0,059
-201,592	800,000	-0,029	-0,065
-200,577	154,961	0,017	0,016
-199,563	-200,000	0,001	0,031
-198,548	33,323	-0,098	0,060
-197,533	800,000	0,037	0,073
-196,519	-200,000	-0,017	-0,058
-195,504	124,718	0,037	0,033
-194,490	-200,000	0,004	-0,097
-193,475	-200,000	0,006	-0,127
-192,460	99,713	-0,027	-0,022
-191,446	-31,264	-0,179	0,071
-190,431	-65,276	0,126	0,036
-189,417	462,043	-0,058	0,093
-188,402	800,000	-0,045	0,108
-187,387	800,000	-0,013	-0,027
-186,373	462,751	-0,105	-0,166
-185,358	-65,756	-0,059	-0,017
-184,344	800,000	-0,022	-0,061
-183,329	-200,000	-0,011	0,090
-182,315	-69,579	0,050	-0,014
-181,300	478,458	0,030	-0,049
-180,285	-200,000	-0,019	-0,100
-179,271	334,359	-0,061	0,085
-178,256	-50,822	-0,100	0,033
-177,242	-43,141	0,052	-0,019
-176,227	365,450	0,060	0,086
-175,212	800,000	-0,056	0,140
-174,198	103,582	-0,036	-0,030
-173,183	-92,492	-0,045	-0,009
-172,169	321,948	-0,019	-0,026
-171,154	-87,268	-0,128	-0,027
-170,139	-112,474	0,081	-0,011
-169,125	-40,167	0,069	0,025
-168,110	-61,518	0,077	0,023
-167,096	-200,000	0,003	-0,074
-166,081	311,533	-0,022	-0,029
-165,066	370,152	0,013	0,018
-164,052	180,697	-0,052	-0,054
-163,037	-150,789	0,153	0,008
-162,023	332,692	0,100	0,138
-161,008	117,731	-0,110	0,096
-159,993	800,000	-0,039	0,112
-158,979	38,095	0,108	0,068
-157,964	-108,793	-0,175	-0,026
-156,950	237,196	0,058	0,069
-155,935	267,736	0,101	-0,126
-154,920	-90,296	0,120	0,024
-153,906	-159,946	-0,111	0,004
-152,891	800,000	-0,039	-0,119
-151,877	-200,000	0,005	-0,193
-150,862	-200,000	0,018	0,087
-149,847	130,119	-0,044	-0,040
-148,833	93,126	-0,097	0,078
-147,818	52,184	0,059	-0,040
-146,804	-200,000	0,000	0,098
-145,789	16,635	-0,117	-0,065
-144,775	133,834	0,002	-0,002
-143,760	800,000	-0,112	-0,251
-142,745	12,822	-0,111	-0,060
-141,731	286,968	0,034	-0,044
-140,716	1,476	0,046	-0,023
-139,702	696,895	0,028	0,053
-138,687	800,000	-0,081	0,186
-137,672	-200,000	0,009	0,103
-136,658	68,332	-0,209	-0,152
-135,643	-200,000	-0,038	-0,190
-134,629	800,000	0,027	-0,065
-133,614	-200,000	0,023	0,135
-132,599	56,071	0,034	0,023
-131,585	441,590	-0,065	0,101
-130,570	-200,000	-0,006	0,023
-129,556	246,810	-0,113	-0,135
-128,541	795,537	-0,016	0,031
-127,526	680,371	-0,035	0,064
-126,512	-45,570	0,163	0,057
-125,497	-200,000	-0,028	-0,113
-124,483	708,447	-0,012	0,022
-123,468	-150,664	-0,094	0,005
-122,453	389,514	-0,038	0,056
-121,439	-106,299	-0,108	0,017
-120,424	66,755	0,124	-0,089
-119,410	454,917	0,103	-0,163
-118,395	84,955	0,013	-0,010
-117,380	20,214	-0,086	-0,049
-116,366	-200,000	-0,018	0,102
-115,351	186,372	-0,074	-0,078
-114,337	800,000	-0,051	-0,105
-113,322	-109,815	-0,056	-0,008
-112,307	294,147	0,034	0,045
-111,293	-58,442	0,066	-0,020
-110,278	800,000	-0,028	0,058
-109,264	800,000	0,010	0,028
-108,249	160,102	-0,078	0,076
-107,234	91,994	-0,078	-0,062
-106,220	-200,000	-0,015	0,164
-105,205	-43,702	0,056	-0,020
-104,191	-7,535	0,037	0,018
-103,176	-58,847	0,172	0,052
-102,162	26,205	-0,104	-0,061
-101,147	24,038	0,154	-0,090
-100,132	-200,000	0,002	-0,104
-99,118	107,721	0,071	-0,059
-98,103	-200,000	-0,007	0,096
-97,089	-107,790	0,127	0,019
-96,074	22,951	-0,072	0,042
-95,059	-99,544	0,110	0,019
-94,045	800,000	-0,013	0,032
-93,030	-200,000	-0,001	-0,091
-92,016	68,853	0,071	-0,052
-91,001	335,281	-0,052	-0,071
-89,986	-200,000	-0,008	0,042
-88,972	-12,689	0,186	-0,085
-87,957	387,012	-0,063	0,092
-86,943	-200,000	0,001	-0,020
-85,928	688,674	0,055	-0,102
-84,913	-105,506	-0,118	-0,019
-83,899	103,786	0,062	0,051
-82,884	-200,000	-0,001	-0,091
-81,870	-200,000	-0,003	0,089
-80,855	-200,000	-0,010	-0,034
-79,840	-123,283	-0,066	0,007
-78,826	-72,196	0,039	-0,010
-77,811	-200,000	-0,032	-0,111
-76,797	203,223	0,096	-0,105
-75,782	-200,000	-0,002	-0,073
-74,767	800,000	0,059	0,132
-73,753	-200,000	-0,021	0,071
-72,738	1,150	-0,137	-0,069
-71,724	173,900	0,123	0,126
-70,709	103,109	0,097	-0,080
-69,694	-50,923	-0,036	-0,012
-68,680	119,574	0,036	-0,032
-67,665	204,011	0,085	-0,093
-66,651	34,585	0,107	0,066
-65,636	6,753	0,072	-0,038
-64,622	-96,627	-0,060	-0,011
-63,607	21,218	-0,110	0,063
-62,592	-200,000	0,004	-0,017
-61,578	-200,000	0,034	0,172
-60,563	-6,179	0,155	-0,075
-59,549	-7,025	0,119	0,057
-58,534	61,991	-2,043	-1,435
-57,519	350,889	-1,339	-1,874
-56,505	-200,000	-0,351	-4,447
-55,490	603,205	0,918	1,617
-54,476	800,000	5,077	11,423
-53,461	-200,000	21,979	339,177
-52,446	800,000	761,000	2292,955
-51,432	529,592	1656,189	2768,685
-50,417	68,998	1653,594	1196,774
-49,403	16,518	1528,424	849,205
-48,388	10,660	1453,012	779,063
-47,373	19,065	1444,985	814,931
-46,359	14,061	1433,775	784,867
-45,344	9,037	1429,621	758,719
-44,330	8,967	1427,939	757,462
-43,315	8,914	1426,191	756,253
-42,300	8,993	1423,947	755,405
-41,286	8,984	1423,016	754,840
-40,271	8,942	1421,852	753,993
-39,257	8,938	1420,402	753,178
-38,242	8,970	1419,434	752,785
-37,227	8,959	1418,387	752,148
-36,213	8,978	1416,958	751,451
-35,198	8,961	1415,700	750,672
-34,184	9,006	1414,781	750,369
-33,169	8,923	1413,444	749,238
-32,154	8,999	1412,317	748,969
-31,140	8,976	1411,246	748,262
-30,125	9,001	1410,051	747,717
-29,111	8,984	1408,870	746,981
-28,096	9,007	1407,643	746,409
-27,082	8,916	1406,406	745,298
-26,067	8,895	1405,612	744,751
-25,052	8,954	1404,423	744,363
-24,038	8,923	1403,493	743,697
-23,023	8,909	1402,612	743,138
-22,009	8,921	1401,427	742,532
-20,994	8,891	1400,440	741,843
-19,979	8,924	1399,293	741,361
-18,965	8,875	1398,307	740,581
-17,950	8,847	1397,712	740,104
-16,936	8,804	1396,996	739,494
-15,921	8,782	1395,869	738,767
-14,906	8,864	1394,767	738,536
-13,892	8,856	1393,986	738,056
-12,877	8,833	1393,269	737,539
-11,863	8,846	1392,436	737,129
-10,848	8,842	1391,336	736,498
-9,833	8,746	1390,435	735,549
-8,819	8,784	1389,443	735,171
-7,804	8,717	1388,935	734,566
-6,790	8,731	1387,857	734,032
-5,775	8,755	1386,527	733,409
-4,760	8,711	1385,655	732,717
-3,746	8,767	1384,674	732,425
-2,731	8,806	1383,709	732,065
-1,717	8,716	1383,146	731,324
-0,702	8,772	1381,304	730,579
0,313	12,835	1292,481	702,075
1,327	28,818	683,415	407,127
2,342	45,015	117,821	76,344
3,356	-1,388	16,435	8,146
4,371	6,267	3,740	1,949
5,386	2,001	1,352	0,685
6,400	800,000	0,185	0,563
7,415	433,530	-0,155	-0,237
8,429	142,513	-0,238	-0,222
9,444	146,531	-0,329	-0,311
10,459	73,477	-0,298	-0,219
11,473	32,915	-0,259	-0,158
12,488	-86,773	-0,351	-0,075
13,502	-91,766	-0,179	-0,036
14,517	-48,919	-0,360	-0,121
15,531	88,638	-0,338	-0,264
16,546	191,088	-0,276	-0,293
17,561	113,337	-0,368	-0,314
18,575	-1,335	-0,334	-0,165
19,590	126,305	-0,168	-0,150
20,604	14,486	-0,230	-0,126
21,619	171,516	-0,383	-0,387
22,634	17,645	-0,478	-0,267
23,648	46,469	-0,271	-0,177
24,663	44,394	-0,335	-0,216
25,677	114,948	-0,378	-0,325
26,692	-17,930	-0,372	-0,163
27,707	170,404	-0,165	-0,167
28,721	83,792	-0,326	-0,250
29,736	8,167	-0,278	-0,146
30,750	88,592	-0,431	-0,337
31,765	124,220	-0,306	-0,270
32,780	30,896	-0,327	-0,197
33,794	36,062	-0,323	-0,199
34,809	287,038	-0,242	-0,309
35,823	48,383	-0,442	-0,291
36,838	2,748	-0,455	-0,231
37,853	64,874	-0,410	-0,291
38,867	149,294	-0,276	-0,262
39,882	112,217	-0,380	-0,323
40,896	1,561	-0,309	-0,156
41,911	448,435	-0,232	-0,360
42,926	64,753	-0,312	-0,221
43,940	45,009	-0,424	-0,273
44,955	174,733	-0,394	-0,400
45,969	61,599	-0,327	-0,228
46,984	173,964	-0,314	-0,318
47,999	13,812	-0,210	-0,114
49,013	-5,536	-0,312	-0,150
50,028	-75,040	-0,494	-0,123
51,042	187,845	-0,222	-0,233
52,057	132,214	-0,229	-0,207
53,071	1,774	-0,340	-0,171
54,086	81,489	-0,381	-0,288
55,101	40,456	-0,338	-0,213
56,115	39,106	-0,259	-0,162
57,130	279,541	-0,167	-0,209
58,144	-38,928	-0,368	-0,135
59,159	-20,421	-0,406	-0,174
60,174	78,367	-0,359	-0,269
61,188	114,650	-0,197	-0,168
62,203	71,069	-0,236	-0,172
63,217	36,703	-0,308	-0,190
64,232	208,825	-0,207	-0,227
65,247	117,276	-0,280	-0,241
66,261	210,472	-0,318	-0,351
67,276	-25,923	-0,484	-0,199
68,290	117,676	-0,282	-0,244
69,305	139,491	-0,234	-0,216
70,320	313,076	-0,248	-0,327
71,334	78,215	-0,206	-0,154
72,349	123,734	-0,295	-0,259
73,363	-9,151	-0,388	-0,181
74,378	49,667	-0,309	-0,203
75,393	306,613	-0,239	-0,312
76,407	53,503	-0,373	-0,250
77,422	72,549	-0,315	-0,229
78,436	238,785	-0,231	-0,270
79,451	72,855	-0,246	-0,180
80,466	170,695	-0,318	-0,319
81,480	27,953	-0,333	-0,196
82,495	9,171	-0,329	-0,173
83,509	157,657	-0,163	-0,158
84,524	165,538	-0,221	-0,219
85,539	120,105	-0,243	-0,211
86,553	49,074	-0,277	-0,182
87,568	-15,096	-0,415	-0,185
88,582	39,917	-0,353	-0,222
89,597	57,284	-0,364	-0,248
90,611	-75,629	-0,419	-0,103
91,626	257,950	-0,215	-0,259
92,641	-16,268	-0,309	-0,137
93,655	31,604	-0,220	-0,132
94,670	70,299	-0,273	-0,197
95,684	300,599	-0,226	-0,293
96,699	66,862	-0,349	-0,248
97,714	193,256	-0,164	-0,173
98,728	74,106	-0,171	-0,126
99,743	-42,514	-0,304	-0,108
100,757	-97,907	-0,193	-0,034
101,772	11,056	-0,229	-0,122
102,787	229,197	-0,227	-0,259
103,801	146,084	-0,318	-0,298
104,816	5,223	-0,300	-0,154
105,830	121,097	-0,275	-0,239
106,845	203,728	-0,170	-0,184
107,860	3,737	-0,306	-0,155
108,874	47,268	-0,262	-0,170
109,889	118,396	-0,273	-0,235
110,903	-40,299	-0,295	-0,106
111,918	165,790	-0,247	-0,244
112,933	-80,135	-0,271	-0,063
113,947	310,317	-0,244	-0,319
114,962	54,718	-0,149	-0,100
115,976	145,825	-0,315	-0,294
116,991	530,169	-0,216	-0,358
118,006	161,489	-0,195	-0,191
119,020	-62,236	-0,320	-0,092
120,035	-72,311	-0,277	-0,071
121,049	-93,895	-0,358	-0,068
122,064	-49,012	-0,264	-0,088
123,079	237,754	-0,140	-0,162
124,093	101,351	-0,364	-0,295
125,108	113,788	-0,159	-0,135
126,122	147,364	-0,221	-0,207
127,137	163,921	-0,104	-0,102
128,151	51,594	-0,261	-0,173
129,166	-45,772	-0,248	-0,085
130,181	155,139	-0,334	-0,320
131,195	36,892	-0,232	-0,143
132,210	50,262	-0,292	-0,192
133,224	127,777	-0,243	-0,215
134,239	-41,117	-0,362	-0,130
135,254	-1,220	-0,268	-0,131
136,268	189,675	-0,193	-0,202
137,283	30,256	-0,286	-0,170
138,297	-66,293	-0,280	-0,077
139,312	60,893	-0,161	-0,111
140,327	42,396	-0,241	-0,152
141,341	-63,663	-0,283	-0,080
142,356	-106,086	-0,229	0,035
143,370	-30,582	-0,215	-0,085
144,385	594,484	-0,161	-0,278
145,400	72,389	-0,256	-0,186
146,414	234,547	-0,221	-0,254
147,429	45,988	-0,249	-0,160
148,443	599,559	-0,214	-0,372
149,458	70,663	-0,225	-0,162
150,473	192,009	-0,135	-0,142
151,487	84,909	-0,253	-0,193
152,502	234,789	-0,214	-0,246
153,516	262,103	-0,249	-0,301
154,531	521,225	-0,209	-0,342
155,546	266,448	-0,101	-0,123
156,560	-55,287	-0,235	-0,073
157,575	354,974	-0,226	-0,313
158,589	185,766	-0,227	-0,235
159,604	241,830	-0,086	-0,100
160,619	13,885	-0,323	-0,174
161,633	485,276	-0,140	-0,222
162,648	9,142	-0,220	-0,115
163,662	138,033	-0,206	-0,188
164,677	233,949	-0,121	-0,139
165,692	81,382	-0,249	-0,187
166,706	-81,238	-0,229	-0,052
167,721	117,409	-0,321	-0,274
168,735	105,263	-0,233	-0,191
169,750	62,888	-0,326	-0,226
170,764	-39,596	-0,194	-0,070
171,779	-30,727	-0,234	-0,092
172,794	163,797	-0,277	-0,271
173,808	20,111	-0,160	-0,090
174,823	-5,147	-0,308	-0,146
175,837	569,558	-0,069	-0,117
176,852	179,989	-0,159	-0,162
177,867	-28,312	-0,275	-0,110
178,881	161,650	-0,147	-0,143
179,896	-36,335	-0,313	-0,116
180,910	-101,156	-0,222	-0,037
181,925	144,902	-0,214	-0,199
182,940	-57,812	-0,238	-0,072
183,954	116,235	-0,214	-0,181
184,969	237,574	-0,175	-0,202
185,983	-200,000	-0,021	-0,166
186,998	116,071	-0,087	-0,074
188,013	-68,724	-0,356	-0,095
189,027	-4,917	-0,279	-0,133
190,042	-64,728	-0,173	-0,048
191,056	213,226	-0,160	-0,176
192,071	-117,411	-0,318	-0,039
193,086	40,860	-0,232	-0,145
194,100	129,801	-0,180	-0,159
195,115	7,793	-0,267	-0,138
196,129	-20,772	-0,247	-0,104
197,144	75,615	-0,253	-0,185
198,159	326,764	-0,250	-0,332
199,173	-59,236	-0,187	-0,055
200,188	800,000	-0,106	-0,236
201,202	201,068	-0,194	-0,207
202,217	-65,203	-0,168	-0,046
203,232	171,211	-0,220	-0,219
204,246	22,401	-0,217	-0,123
205,261	2,385	-0,321	-0,160
206,275	170,960	-0,148	-0,147
207,290	268,166	-0,227	-0,276
208,304	-108,660	-0,196	0,029
209,319	800,000	-0,093	-0,226
210,334	99,680	-0,220	-0,176
211,348	-29,914	-0,252	-0,099
212,363	-113,797	-0,196	0,026
213,377	50,335	-0,214	-0,139
214,392	-200,000	-0,275	0,000
215,407	71,023	-0,127	-0,091
216,421	203,612	-0,165	-0,177
217,436	163,397	-0,095	-0,092
218,450	77,242	-0,238	-0,175
219,465	167,783	-0,222	-0,218
220,480	-19,582	-0,181	-0,077
221,494	-182,903	-0,114	-0,001
222,509	122,422	-0,199	-0,172
223,523	193,490	-0,196	-0,205
224,538	111,951	-0,153	-0,128
225,553	56,790	-0,260	-0,175
226,567	186,365	-0,134	-0,138
227,582	102,233	-0,202	-0,163
228,596	36,629	-0,245	-0,149
229,611	72,184	-0,157	-0,113
230,626	800,000	-0,053	-0,127
231,640	23,872	-0,321	-0,182
232,655	22,083	-0,228	-0,128
233,669	74,519	-0,181	-0,131
234,684	213,495	-0,147	-0,160
235,699	90,146	-0,268	-0,207
236,713	99,715	-0,159	-0,127
237,728	113,942	-0,145	-0,122
238,742	171,681	-0,091	-0,090
239,757	18,684	-0,220	-0,121
240,772	81,092	-0,183	-0,136
241,786	-89,187	-0,253	-0,051
242,801	-35,040	-0,130	-0,049
243,815	17,676	-0,208	-0,114
244,830	347,185	-0,136	-0,185
245,844	356,222	-0,179	-0,246
246,859	15,920	-0,197	-0,107
247,874	162,404	-0,207	-0,200
248,888	22,404	-0,224	-0,126
249,903	167,515	-0,227	-0,223
250,917	-119,979	-0,252	0,029
251,932	-13,665	-0,206	-0,092
252,947	69,597	-0,113	-0,080
253,961	-98,865	-0,271	-0,047
254,976	80,799	-0,221	-0,164
255,990	375,624	-0,153	-0,215
257,005	-13,575	-0,178	0,079
258,020	-57,256	-0,160	-0,048
259,034	129,612	-0,172	-0,151
260,049	-80,156	-0,185	-0,042
261,063	186,399	-0,166	-0,171
262,078	201,455	-0,133	-0,141
263,093	144,023	-0,159	-0,146
264,107	-107,125	-0,135	0,020
265,122	62,960	-0,174	-0,120
266,136	-7,211	-0,116	-0,054
267,151	800,000	-0,075	-0,147
268,166	-108,556	-0,166	-0,024
269,180	800,000	-0,072	-0,188
270,195	51,469	-0,152	-0,099
271,209	-101,074	-0,265	-0,044
272,224	-60,030	-0,209	-0,061
273,239	-84,181	-0,067	-0,014
274,253	189,190	-0,252	-0,260
275,268	-66,631	-0,258	-0,070
276,282	-53,087	-0,229	-0,072
277,297	-70,575	-0,135	-0,035
278,312	-44,241	-0,165	0,057
279,326	53,543	-0,235	-0,155
280,341	-78,541	-0,122	0,028
281,355	-13,361	-0,070	-0,031
282,370	216,866	-0,175	-0,192
283,384	800,000	-0,060	-0,160
284,399	134,497	-0,128	-0,114
285,414	-77,427	-0,260	-0,062
286,428	-200,000	-0,020	-0,088
287,443	-35,134	-0,174	-0,065
288,457	170,844	-0,127	-0,125
289,472	102,176	-0,136	-0,109
290,487	194,121	-0,143	-0,149
291,501	-79,136	-0,216	-0,050
292,516	21,805	-0,251	-0,140
293,530	-200,000	0,011	-0,073
294,545	-167,105	-0,091	0,003
295,560	34,671	-0,206	-0,124
296,574	800,000	-0,081	-0,154
297,589	800,000	-0,079	-0,168
298,603	123,588	-0,130	-0,112
299,618	6,563	-0,156	-0,079
300,633	77,120	-0,173	-0,126
301,647	-161,295	-0,071	-0,002
302,662	-2,463	-0,217	-0,104
303,676	-30,391	-0,207	-0,080
304,691	-15,144	-0,174	-0,076
305,706	-18,888	-0,122	-0,052
306,720	-16,863	-0,246	-0,106
307,735	-45,288	-0,150	0,051
308,749	800,000	-0,131	-0,269
309,764	800,000	-0,116	-0,244
310,779	139,219	-0,070	-0,063
311,793	92,375	-0,149	-0,115
312,808	120,979	-0,178	-0,152
313,822	800,000	-0,069	-0,136
314,837	800,000	-0,074	-0,173
315,852	59,545	-0,153	-0,103
316,866	99,324	-0,142	-0,113
317,881	800,000	-0,095	-0,182
318,895	65,034	-0,155	-0,107
319,910	289,356	-0,138	-0,172
320,925	471,821	-0,208	-0,322
321,939	-37,314	-0,120	-0,044
322,954	524,300	-0,107	-0,173
323,968	-90,103	-0,199	0,039
324,983	-200,000	-0,067	-0,206
325,997	41,838	-0,100	-0,062
327,012	97,834	-0,284	-0,224
328,027	-200,000	-0,015	-0,208
329,041	-34,693	-0,220	-0,082
330,056	180,663	-0,172	-0,173
331,070	-104,479	-0,213	0,033
332,085	800,000	-0,061	-0,130
333,100	800,000	-0,104	-0,251
334,114	465,732	-0,135	-0,208
335,129	360,484	-0,151	-0,208
336,143	320,710	-0,155	-0,202
337,158	283,739	-0,119	-0,147
338,173	181,671	-0,166	-0,167
339,187	800,000	-0,074	-0,178
340,202	63,798	-0,072	0,049
341,216	45,708	-0,184	-0,116
342,231	43,446	-0,220	-0,137
343,246	165,652	-0,170	-0,165
344,260	-19,168	-0,094	-0,040
345,275	800,000	-0,070	-0,144
346,289	40,289	-0,113	-0,069
347,304	57,818	-0,241	-0,161
348,319	-60,451	-0,146	-0,042
349,333	-58,326	-0,213	-0,063
350,348	-23,803	-0,089	0,036
351,362	16,962	-0,067	0,036
352,377	-125,445	-0,238	-0,024
353,392	196,756	-0,115	-0,120
354,406	800,000	-0,036	-0,101
355,421	207,145	1311,593	1399,200
356,435	159,343	1471,872	1399,658
