DTS Sentinel unit serial number:	SN410029Multiplexer serial number:	ORYXHardware model number:	OX2-SRSoftware version number:	ORYX F/W v4,00 Oryx Data Collector v3.7.2.0data status	okinstallation	B3 Nyhavnadifferential loss correction	single-endedforward channel	channel 1reverse channel	N/Adate	2023/11/29time	15:07:30forward acquisition time	300,00reverse acquisition time	0,00gamma	499,1914k internal	0,3210k external	0,3210temperature offset calibration	1,0000default loss term (dB/km)	0,3820temperature slope calibration	1,0000multiplexer offset coefficient	1,0000multiplexer slope coefficient	1,0000fibre end	0,00T internal ref (°C)	11,18T ext. ref 1 (°C)	-3,20T ext. ref 2 (°C)	-3,35length (m)	temperature (°C)	Stokes	anti-Stokes-744,400	31,386	-0,291	-0,181
-743,385	-200,000	0,041	0,254
-742,371	129,281	-0,266	-0,247
-741,356	-200,000	-0,025	0,345
-740,342	800,000	-0,118	-0,338
-739,327	800,000	0,150	0,304
-738,312	369,601	-0,203	-0,299
-737,298	-200,000	0,013	0,196
-736,283	0,704	-0,239	-0,124
-735,269	-200,000	-0,089	0,402
-734,254	111,350	-0,242	-0,212
-733,239	-49,578	-0,186	0,064
-732,225	497,432	-0,109	-0,182
-731,210	110,953	0,164	0,143
-730,196	800,000	0,049	0,144
-729,181	40,434	-0,127	-0,083
-728,167	-200,000	0,006	-0,090
-727,152	746,577	0,019	-0,037
-726,137	151,802	-0,039	-0,038
-725,123	236,705	-0,090	0,108
-724,108	202,920	-0,067	0,075
-723,094	-200,000	0,005	-0,055
-722,079	148,539	-0,090	-0,088
-721,064	-54,848	0,058	0,019
-720,050	-144,777	0,039	0,003
-719,035	-180,208	-0,112	0,002
-718,021	-21,687	-0,093	-0,041
-717,006	-182,816	-0,208	-0,003
-715,991	122,756	-0,050	-0,045
-714,977	-128,180	-0,059	0,006
-713,962	-13,471	-0,139	-0,065
-712,948	-48,342	0,047	-0,016
-711,933	-79,046	-0,054	0,013
-710,918	-200,000	0,010	0,058
-709,904	-200,000	0,022	-0,170
-708,889	-200,000	-0,007	-0,089
-707,875	-200,000	0,037	-0,121
-706,860	113,727	-0,037	0,032
-705,845	608,120	-0,079	0,143
-704,831	-200,000	-0,010	-0,105
-703,816	800,000	-0,051	0,106
-702,802	71,329	-0,038	0,029
-701,787	-90,612	-0,192	-0,040
-700,772	241,327	-0,066	-0,080
-699,758	-186,514	-0,115	0,001
-698,743	-94,982	-0,076	0,015
-697,729	529,003	0,115	0,198
-696,714	99,624	0,071	-0,059
-695,699	-115,139	-0,176	-0,024
-694,685	38,513	-0,091	-0,059
-693,670	54,872	-0,010	-0,007
-692,656	82,410	0,057	0,045
-691,641	-200,000	0,028	0,115
-690,627	179,725	0,032	-0,033
-689,612	-160,371	-0,064	0,002
-688,597	-72,608	0,086	0,023
-687,583	96,693	-0,073	-0,060
-686,568	-200,000	-0,019	-0,098
-685,554	800,000	-0,062	-0,133
-684,539	166,342	0,078	0,080
-683,524	-23,791	0,070	0,030
-682,510	-77,091	0,040	-0,010
-681,495	21,590	-0,150	0,088
-680,481	-109,990	-0,112	0,017
-679,466	-200,000	0,010	-0,126
-678,451	237,657	-0,079	0,095
-677,437	-200,000	0,020	-0,092
-676,422	800,000	-0,019	0,057
-675,408	-38,461	0,118	0,045
-674,393	62,276	0,167	0,120
-673,378	800,000	-0,072	-0,150
-672,364	-162,169	-0,120	-0,004
-671,349	-132,692	-0,141	-0,013
-670,335	-43,439	0,050	0,018
-669,320	47,426	-0,061	0,041
-668,305	156,243	-0,055	0,055
-667,291	-200,000	0,008	0,065
-666,276	249,834	-0,055	0,068
-665,262	-75,815	-0,096	0,024
-664,247	301,084	0,043	-0,058
-663,232	-18,190	0,024	0,011
-662,218	-200,000	0,028	0,209
-661,203	118,722	-0,035	0,031
-660,189	490,136	-0,057	0,094
-659,174	117,234	-0,041	0,037
-658,159	-57,004	0,033	-0,010
-657,145	368,030	-0,069	-0,101
-656,130	-163,015	-0,130	0,004
-655,116	-200,000	0,002	-0,011
-654,101	-46,702	0,050	-0,018
-653,086	-200,000	-0,023	-0,109
-652,072	223,356	0,035	-0,041
-651,057	-52,643	-0,100	-0,033
-650,043	-200,000	0,012	-0,103
-649,028	-17,971	0,078	0,035
-648,014	294,474	0,083	0,109
-646,999	-200,000	-0,033	0,139
-645,984	-200,000	0,008	0,111
-644,970	558,250	0,045	0,078
-643,955	-105,656	-0,106	-0,017
-642,941	4,628	-0,051	-0,027
-641,926	154,201	0,120	-0,119
-640,911	92,873	0,067	-0,055
-639,897	8,250	0,123	-0,066
-638,882	359,158	0,044	-0,064
-637,868	334,510	-0,107	-0,150
-636,853	-65,748	-0,097	-0,028
-635,838	-159,873	0,090	-0,004
-634,824	11,472	0,018	0,010
-633,809	274,998	0,040	0,051
-632,795	-200,000	-0,020	-0,078
-631,780	-200,000	0,001	-0,061
-630,765	-200,000	0,016	-0,061
-629,751	800,000	-0,016	-0,035
-628,736	-65,763	-0,225	-0,065
-627,722	25,967	0,052	-0,031
-626,707	800,000	0,073	0,187
-625,692	-200,000	-0,013	0,281
-624,678	-200,000	-0,010	0,076
-623,663	454,789	0,103	0,165
-622,649	286,891	0,049	-0,064
-621,634	-111,659	-0,138	-0,020
-620,619	354,245	0,043	-0,062
-619,605	800,000	0,034	0,072
-618,590	800,000	0,023	0,062
-617,576	800,000	0,041	0,130
-616,561	-36,859	-0,035	0,014
-615,546	197,685	-0,028	-0,031
-614,532	-200,000	0,009	-0,154
-613,517	-34,107	-0,118	-0,046
-612,503	44,128	-0,050	0,033
-611,488	-200,000	0,009	0,051
-610,474	232,563	0,057	0,067
-609,459	-33,619	-0,044	0,017
-608,444	-31,444	-0,121	-0,049
-607,430	-75,000	-0,156	0,040
-606,415	-200,000	0,065	-0,280
-605,401	-28,925	0,084	0,035
-604,386	161,493	0,067	0,068
-603,371	-200,000	-0,011	0,069
-602,357	-200,000	-0,027	0,116
-601,342	-200,000	0,012	0,059
-600,328	-200,000	-0,016	-0,117
-599,313	592,191	0,119	-0,213
-598,298	-182,253	-0,126	-0,002
-597,284	-79,335	-0,130	-0,031
-596,269	-200,000	-0,003	0,013
-595,255	-200,000	-0,005	-0,046
-594,240	-78,581	0,018	0,005
-593,225	-200,000	0,001	-0,092
-592,211	-200,000	-0,012	-0,055
-591,196	261,978	-0,033	-0,041
-590,182	-80,816	0,062	0,015
-589,167	800,000	-0,023	-0,052
-588,152	219,914	-0,070	-0,081
-587,138	-37,831	0,013	0,005
-586,123	191,768	-0,041	-0,044
-585,109	-200,000	0,027	-0,114
-584,094	800,000	0,020	-0,040
-583,079	416,555	-0,035	-0,055
-582,065	-81,664	0,109	-0,026
-581,050	-200,000	-0,002	-0,035
-580,036	54,036	-0,026	-0,018
-579,021	364,748	-0,058	0,085
-578,006	117,399	-0,158	-0,140
-576,992	-200,000	-0,001	-0,119
-575,977	-200,000	0,005	-0,152
-574,963	-83,225	0,086	0,020
-573,948	278,739	0,133	0,171
-572,934	-200,000	-0,016	0,128
-571,919	-200,000	0,013	-0,090
-570,904	705,534	-0,044	-0,085
-569,890	800,000	-0,039	0,080
-568,875	-158,810	0,092	-0,004
-567,861	800,000	0,016	0,044
-566,846	800,000	0,045	0,100
-565,831	800,000	-0,050	0,112
-564,817	800,000	0,016	-0,042
-563,802	6,034	0,049	0,026
-562,788	-200,000	-0,017	-0,105
-561,773	87,231	0,128	-0,102
-560,758	-96,372	0,005	-0,001
-559,744	292,992	0,065	-0,086
-558,729	-99,920	0,106	0,019
-557,715	0,924	0,105	0,054
-556,700	-18,280	0,049	0,022
-555,685	215,864	0,102	-0,116
-554,671	-81,032	-0,109	0,026
-553,656	601,596	0,068	0,121
-552,642	191,734	0,032	-0,035
-551,627	-200,000	-0,030	-0,095
-550,612	-70,057	-0,018	0,005
-549,598	328,014	-0,070	0,097
-548,583	166,516	-0,068	0,069
-547,569	-118,617	-0,033	0,004
-546,554	-102,378	0,168	0,029
-545,539	8,854	0,165	-0,089
-544,525	-146,536	0,038	0,002
-543,510	-200,000	-0,086	0,000
-542,496	-200,000	-0,028	-0,111
-541,481	296,878	-0,066	0,087
-540,466	156,296	-0,111	-0,110
-539,452	-1,132	-0,047	0,024
-538,437	186,661	-0,048	0,051
-537,423	39,504	0,102	0,066
-536,408	-101,744	0,108	-0,019
-535,393	-68,617	-0,066	-0,018
-534,379	99,948	0,060	-0,050
-533,364	498,012	-0,018	-0,031
-532,350	-4,233	0,136	-0,067
-531,335	-104,047	0,025	0,004
-530,321	579,799	0,021	0,038
-529,306	800,000	0,035	-0,077
-528,291	87,773	0,112	-0,089
-527,277	532,053	-0,055	-0,093
-526,262	-200,000	-0,040	0,184
-525,248	609,716	0,037	0,066
-524,233	6,397	0,087	0,046
-523,218	-53,411	0,102	-0,034
-522,204	429,783	0,018	-0,028
-521,189	-200,000	-0,005	-0,140
-520,175	571,911	0,070	-0,122
-519,160	64,189	0,058	-0,042
-518,145	-103,581	0,071	0,012
-517,131	694,145	0,033	-0,062
-516,116	-142,200	-0,116	0,008
-515,102	-200,000	0,004	0,049
-514,087	6,277	0,084	-0,045
-513,072	-82,091	-0,041	0,010
-512,058	-200,000	0,018	-0,117
-511,043	155,176	-0,082	-0,081
-510,029	-6,474	0,131	0,064
-509,014	218,302	-0,131	0,151
-507,999	-75,569	0,064	-0,016
-506,985	-200,000	0,045	-0,143
-505,970	-117,658	-0,087	-0,011
-504,956	-200,000	0,002	0,055
-503,941	-200,000	-0,019	0,107
-502,926	123,223	0,105	0,094
-501,912	-200,000	0,050	0,226
-500,897	409,276	0,036	0,055
-499,883	319,413	-0,031	0,042
-498,868	29,347	-0,097	-0,059
-497,853	-200,000	-0,024	-0,144
-496,839	756,548	0,027	-0,054
-495,824	800,000	0,065	0,132
-494,810	-79,766	0,047	-0,011
-493,795	181,920	-0,111	-0,117
-492,781	-154,126	-0,033	0,002
-491,766	-200,000	-0,002	-0,148
-490,751	-39,311	-0,196	-0,073
-489,737	-200,000	-0,016	0,064
-488,722	-200,000	0,002	0,023
-487,708	-10,571	-0,167	0,079
-486,693	-200,000	0,004	0,083
-485,678	-61,255	-0,145	0,044
-484,664	324,209	-0,093	-0,128
-483,649	185,001	-0,046	0,049
-482,635	118,732	0,037	-0,032
-481,620	165,853	0,044	0,045
-480,605	-65,525	0,083	0,024
-479,591	-82,794	-0,032	0,007
-478,576	-200,000	0,000	0,039
-477,562	18,536	0,070	-0,040
-476,547	-122,348	-0,074	0,009
-475,532	-134,576	0,069	0,006
-474,518	-200,000	0,039	0,182
-473,503	-91,613	-0,049	0,010
-472,489	-200,000	0,005	-0,016
-471,474	-86,860	0,118	-0,026
-470,459	-200,000	-0,016	0,096
-469,445	-200,000	0,023	-0,082
-468,430	23,842	-0,135	-0,079
-467,416	-200,000	0,020	-0,114
-466,401	-200,000	-0,007	0,039
-465,386	546,074	-0,036	0,062
-464,372	81,447	0,009	-0,007
-463,357	136,564	-0,066	-0,062
-462,343	440,712	0,013	-0,020
-461,328	659,927	0,007	-0,014
-460,313	-30,136	0,049	0,020
-459,299	800,000	0,034	0,089
-458,284	800,000	-0,036	-0,091
-457,270	800,000	-0,018	-0,040
-456,255	-142,959	0,057	-0,004
-455,241	800,000	-0,053	-0,130
-454,226	121,152	0,090	-0,080
-453,211	169,833	-0,067	0,069
-452,197	-200,000	-0,003	0,072
-451,182	800,000	-0,031	0,068
-450,168	154,322	0,098	0,096
-449,153	377,888	0,008	0,011
-448,138	-139,204	-0,052	0,004
-447,124	800,000	0,067	-0,142
-446,109	240,227	-0,079	-0,094
-445,095	-188,132	0,189	-0,002
-444,080	-200,000	0,003	0,050
-443,065	-80,037	0,065	-0,016
-442,051	-17,743	-0,047	-0,021
-441,036	67,446	0,106	-0,078
-440,022	-200,000	-0,013	-0,094
-439,007	262,927	0,108	-0,134
-437,992	123,214	0,108	0,097
-436,978	417,255	0,076	0,117
-435,963	-200,000	0,072	0,239
-434,949	-200,000	-0,003	0,010
-433,934	3,877	-0,106	0,055
-432,919	800,000	0,050	-0,127
-431,905	800,000	0,007	-0,016
-430,890	-42,231	-0,068	0,025
-429,876	42,584	-0,059	-0,038
-428,861	-99,293	0,112	-0,020
-427,846	-126,840	-0,050	0,005
-426,832	400,473	-0,059	0,088
-425,817	-46,618	0,122	0,043
-424,803	800,000	-0,024	-0,054
-423,788	81,635	0,061	0,047
-422,773	57,983	-0,047	0,033
-421,759	186,430	0,070	-0,075
-420,744	-80,385	-0,099	0,023
-419,730	-200,000	-0,010	0,080
-418,715	252,674	0,078	-0,095
-417,701	-97,319	-0,112	-0,021
-416,686	-200,000	0,001	0,085
-415,671	13,505	0,051	0,028
-414,657	371,891	0,027	0,040
-413,642	-31,835	-0,075	0,030
-412,628	123,861	0,083	0,074
-411,613	34,284	-0,051	-0,032
-410,598	205,945	0,012	0,013
-409,584	-200,000	-0,042	0,186
-408,569	472,635	-0,033	-0,053
-407,555	324,841	0,052	-0,072
-406,540	800,000	-0,023	-0,060
-405,525	-123,335	-0,009	0,001
-404,511	-72,520	-0,061	0,016
-403,496	25,820	-0,146	-0,087
-402,482	206,666	0,062	-0,069
-401,467	-135,958	-0,046	-0,004
-400,452	-100,856	0,193	0,034
-399,438	428,391	0,061	-0,095
-398,423	18,395	0,103	0,058
-397,409	54,869	0,105	0,072
-396,394	-45,238	-0,090	-0,032
-395,379	-47,089	-0,114	0,040
-394,365	800,000	0,084	-0,195
-393,350	546,797	0,066	0,114
-392,336	-200,000	0,006	0,145
-391,321	372,764	0,058	0,085
-390,306	-200,000	0,018	-0,096
-389,292	497,282	-0,030	-0,049
-388,277	-56,091	-0,112	0,036
-387,263	711,776	0,043	-0,082
-386,248	-200,000	-0,007	0,027
-385,233	286,720	-0,094	0,122
-384,219	-200,000	-0,012	0,072
-383,204	-124,762	-0,061	0,007
-382,190	16,096	-0,086	0,048
-381,175	-200,000	-0,010	-0,051
-380,160	-200,000	-0,000	0,022
-379,146	538,534	0,046	-0,078
-378,131	174,725	0,072	0,075
-377,117	-200,000	0,021	0,125
-376,102	-18,929	0,080	-0,035
-375,088	-22,212	-0,081	-0,035
-374,073	167,387	-0,094	-0,096
-373,058	-12,197	-0,076	0,035
-372,044	800,000	0,022	0,047
-371,029	109,469	0,075	0,064
-370,015	786,572	0,004	0,007
-369,000	800,000	-0,058	-0,118
-367,985	260,616	-0,045	-0,056
-366,971	56,068	-0,091	-0,063
-365,956	-200,000	-0,005	-0,058
-364,942	74,563	0,041	0,031
-363,927	428,352	0,073	-0,114
-362,912	-55,700	0,046	-0,014
-361,898	-4,374	0,082	-0,041
-360,883	67,512	-0,107	0,078
-359,869	438,216	-0,032	-0,051
-358,854	800,000	0,018	0,053
-357,839	762,966	0,042	0,081
-356,825	-10,635	0,131	-0,061
-355,810	304,687	0,065	-0,086
-354,796	89,107	-0,051	0,040
-353,781	800,000	-0,066	-0,185
-352,766	79,955	-0,150	-0,115
-351,752	28,474	0,107	-0,065
-350,737	401,859	0,038	-0,058
-349,723	-62,230	0,063	0,019
-348,708	184,360	0,016	-0,017
-347,693	35,141	0,026	0,016
-346,679	404,229	0,029	-0,043
-345,664	-120,627	-0,161	-0,019
-344,650	401,038	-0,037	0,055
-343,635	675,808	-0,054	0,101
-342,620	-29,582	0,097	-0,039
-341,606	-200,000	-0,022	-0,079
-340,591	-10,266	0,148	0,070
-339,577	60,538	-0,148	-0,104
-338,562	-200,000	-0,006	0,026
-337,548	-150,494	0,059	0,003
-336,533	374,224	0,096	0,140
-335,518	-200,000	-0,001	0,033
-334,504	127,062	-0,014	0,013
-333,489	242,868	0,019	0,023
-332,475	-24,489	-0,131	-0,056
-331,460	789,447	0,071	-0,139
-330,445	800,000	-0,006	0,012
-329,431	-93,624	-0,085	-0,017
-328,416	159,364	-0,027	0,027
-327,402	-200,000	-0,018	-0,073
-326,387	-200,000	0,043	-0,184
-325,372	756,609	-0,024	0,046
-324,358	49,269	-0,064	0,043
-323,343	-104,326	0,063	-0,010
-322,329	88,455	0,030	-0,024
-321,314	-200,000	-0,010	0,066
-320,299	-96,365	-0,017	-0,003
-319,285	-200,000	-0,005	-0,034
-318,270	313,359	-0,046	-0,061
-317,256	282,946	0,130	-0,167
-316,241	118,397	0,080	-0,071
-315,226	-200,000	-0,005	-0,066
-314,212	-157,361	0,135	0,006
-313,197	320,129	0,094	0,127
-312,183	-27,513	0,097	0,040
-311,168	-57,574	-0,061	0,019
-310,153	127,730	0,022	-0,020
-309,139	800,000	-0,008	-0,021
-308,124	800,000	-0,009	0,025
-307,110	-200,000	0,002	0,191
-306,095	-141,876	-0,115	0,008
-305,080	242,023	-0,041	0,049
-304,066	-200,000	0,000	0,161
-303,051	800,000	-0,063	0,152
-302,037	63,836	0,081	0,058
-301,022	-68,136	0,139	-0,038
-300,008	-108,646	-0,110	0,017
-298,993	-200,000	0,000	0,141
-297,978	800,000	0,049	0,110
-296,964	800,000	-0,027	-0,078
-295,949	-114,595	0,099	-0,013
-294,935	319,667	-0,041	0,055
-293,920	143,093	-0,081	0,077
-292,905	23,627	-0,069	0,041
-291,891	386,622	0,062	0,092
-290,876	162,044	0,030	0,030
-289,862	107,606	0,067	0,057
-288,847	174,517	-0,059	-0,061
-287,832	-200,000	-0,001	0,061
-286,818	207,591	-0,044	0,049
-285,803	-200,000	-0,006	0,049
-284,789	800,000	-0,040	0,108
-283,774	-140,224	-0,094	-0,007
-282,759	248,863	-0,041	0,050
-281,745	52,120	-0,101	-0,068
-280,730	-200,000	0,003	0,074
-279,716	94,309	-0,024	0,019
-278,701	-200,000	0,042	0,219
-277,686	-40,980	0,041	0,015
-276,672	110,099	-0,094	0,080
-275,657	-20,839	-0,156	-0,068
-274,643	-75,773	-0,041	-0,010
-273,628	-200,000	-0,024	-0,093
-272,613	762,729	0,068	-0,132
-271,599	800,000	0,019	-0,040
-270,584	225,222	0,027	0,031
-269,570	-5,670	0,134	-0,065
-268,555	168,181	-0,077	0,078
-267,540	593,393	0,048	-0,085
-266,526	54,969	0,073	-0,050
-265,511	122,216	-0,084	0,075
-264,497	169,733	-0,055	0,056
-263,482	-200,000	0,011	0,036
-262,467	-86,423	0,077	-0,017
-261,453	-200,000	0,006	-0,025
-260,438	-6,687	0,036	-0,017
-259,424	53,250	-0,099	-0,068
-258,409	164,495	0,100	-0,100
-257,395	-200,000	0,001	0,102
-256,380	-200,000	-0,000	0,061
-255,365	-79,771	0,096	0,023
-254,351	800,000	-0,027	-0,060
-253,336	-200,000	0,010	-0,109
-252,322	-200,000	0,010	-0,105
-251,307	-63,204	-0,041	-0,012
-250,292	800,000	-0,012	-0,035
-249,278	145,288	0,042	-0,040
-248,263	401,596	0,051	0,077
-247,249	274,489	0,066	0,084
-246,234	97,362	0,008	0,007
-245,219	-37,118	-0,112	-0,042
-244,205	303,212	-0,016	-0,021
-243,190	40,518	-0,122	0,078
-242,176	800,000	-0,048	0,139
-241,161	-200,000	-0,055	-0,176
-240,146	-32,154	-0,012	0,005
-239,132	-200,000	-0,008	-0,062
-238,117	357,279	-0,070	-0,099
-237,103	76,966	-0,072	0,055
-236,088	800,000	-0,022	0,057
-235,073	26,572	0,064	0,038
-234,059	-139,113	-0,076	-0,006
-233,044	-200,000	0,003	0,106
-232,030	-151,618	-0,110	-0,006
-231,015	-104,118	0,074	0,012
-230,000	75,113	-0,119	-0,089
-228,986	-32,898	0,067	-0,026
-227,971	-200,000	-0,012	0,071
-226,957	104,069	0,198	0,166
-225,942	87,420	-0,028	-0,022
-224,927	41,933	-0,083	0,054
-223,913	133,516	-0,056	0,052
-222,898	4,555	-0,049	0,026
-221,884	-160,746	-0,051	-0,002
-220,869	657,495	0,058	-0,106
-219,855	60,938	0,081	0,057
-218,840	80,589	0,069	0,053
-217,825	-1,886	0,079	0,040
-216,811	0,805	0,045	-0,023
-215,796	54,317	-0,149	0,102
-214,782	-143,253	0,114	0,008
-213,767	-103,779	-0,077	-0,013
-212,752	303,298	0,022	-0,029
-211,738	182,170	0,025	-0,026
-210,723	57,118	-0,174	0,121
-209,709	-200,000	-0,035	-0,143
-208,694	-88,043	-0,109	-0,023
-207,679	-172,480	-0,012	0,000
-206,665	368,438	-0,080	-0,115
-205,650	-200,000	0,014	0,067
-204,636	-36,377	0,054	0,021
-203,621	257,959	0,007	-0,008
-202,606	-200,000	-0,001	-0,113
-201,592	-200,000	-0,003	-0,018
-200,577	220,053	0,044	-0,050
-199,563	83,906	-0,026	0,020
-198,548	-200,000	-0,006	0,066
-197,533	61,510	0,021	0,015
-196,519	-200,000	0,017	0,257
-195,504	-67,105	-0,150	-0,042
-194,490	-105,568	-0,089	0,014
-193,475	-101,538	-0,035	0,006
-192,460	643,683	-0,067	-0,121
-191,446	-142,961	-0,042	-0,003
-190,431	94,995	0,051	-0,041
-189,417	-83,852	-0,155	0,035
-188,402	220,327	0,090	-0,102
-187,387	31,792	-0,016	-0,010
-186,373	66,071	-0,159	-0,114
-185,358	42,964	-0,050	-0,032
-184,344	-145,906	0,096	-0,006
-183,329	-200,000	-0,011	-0,140
-182,315	32,384	-0,046	-0,028
-181,300	240,853	0,028	-0,034
-180,285	800,000	-0,031	-0,088
-179,271	-72,247	-0,186	-0,048
-178,256	593,070	0,029	0,050
-177,242	286,040	0,072	0,092
-176,227	477,754	0,009	-0,014
-175,212	800,000	0,027	0,067
-174,198	800,000	0,014	0,043
-173,183	-168,251	-0,071	-0,002
-172,169	800,000	0,040	-0,097
-171,154	70,879	-0,077	0,056
-170,139	-200,000	-0,015	0,093
-169,125	-200,000	0,021	0,172
-168,110	1,654	0,083	0,042
-167,096	441,996	-0,071	0,111
-166,081	-200,000	0,033	-0,108
-165,066	800,000	-0,008	-0,026
-164,052	13,584	0,097	-0,053
-163,037	580,200	0,062	0,109
-162,023	536,321	-0,053	0,089
-161,008	-72,993	-0,078	0,020
-159,993	-112,867	-0,110	-0,015
-158,979	424,664	0,071	-0,109
-157,964	-66,871	0,040	-0,011
-156,950	131,909	0,050	-0,045
-155,935	800,000	-0,044	0,137
-154,920	444,778	0,009	0,013
-153,906	94,759	0,043	0,035
-152,891	-22,682	-0,021	-0,009
-151,877	197,343	-0,064	-0,069
-150,862	114,245	-0,070	-0,061
-149,847	-14,680	-0,118	0,054
-148,833	619,577	-0,044	0,079
-147,818	64,789	-0,070	0,050
-146,804	183,388	0,035	0,037
-145,789	800,000	-0,030	0,084
-144,775	-200,000	0,000	-0,150
-143,760	418,207	-0,062	-0,095
-142,745	800,000	0,033	-0,081
-141,731	-200,000	-0,016	0,068
-140,716	130,076	0,071	0,064
-139,702	-200,000	-0,012	0,043
-138,687	-200,000	-0,025	0,108
-137,672	-62,228	0,074	-0,022
-136,658	800,000	-0,018	-0,042
-135,643	131,646	-0,083	0,076
-134,629	800,000	0,049	-0,135
-133,614	-82,872	0,172	-0,039
-132,599	307,490	-0,014	0,019
-131,585	-200,000	-0,001	0,043
-130,570	139,032	-0,036	-0,033
-129,556	-200,000	-0,000	-0,086
-128,541	-200,000	0,019	-0,081
-127,526	-152,089	-0,096	0,005
-126,512	66,838	0,073	-0,052
-125,497	-200,000	0,003	0,026
-124,483	-51,646	0,031	0,010
-123,468	395,171	0,035	-0,051
-122,453	-200,000	0,012	0,132
-121,439	53,204	0,128	-0,087
-120,424	134,540	-0,087	-0,080
-119,410	-37,088	0,092	0,035
-118,395	800,000	-0,028	0,065
-117,380	81,533	0,121	0,092
-116,366	-97,112	0,041	0,007
-115,351	-101,800	-0,079	0,013
-114,337	236,152	-0,118	-0,138
-113,322	-97,060	-0,039	0,007
-112,307	-143,521	0,093	0,006
-111,293	-146,240	-0,042	0,003
-110,278	176,265	0,063	0,065
-109,264	86,069	-0,026	0,020
-108,249	-35,373	-0,148	0,057
-107,234	-200,000	-0,011	-0,060
-106,220	-200,000	0,004	-0,056
-105,205	-200,000	0,018	-0,056
-104,191	-3,327	0,111	-0,055
-103,176	-200,000	-0,005	-0,073
-102,162	800,000	-0,050	0,116
-101,147	-92,225	0,132	-0,026
-100,132	44,819	-0,207	-0,135
-99,118	76,019	-0,055	-0,041
-98,103	-138,350	-0,106	0,008
-97,089	-200,000	0,003	0,033
-96,074	-200,000	-0,015	0,173
-95,059	276,649	-0,047	0,059
-94,045	-200,000	0,003	-0,043
-93,030	228,087	-0,096	0,110
-92,016	-200,000	-0,014	0,127
-91,001	-200,000	0,008	0,123
-89,986	36,207	-0,044	0,027
-88,972	160,029	0,083	0,082
-87,957	44,139	-0,027	-0,018
-86,943	512,810	-0,039	-0,065
-85,928	2,405	-0,063	0,032
-84,913	-122,358	-0,094	-0,011
-83,899	-200,000	-0,017	-0,056
-82,884	-200,000	-0,024	-0,082
-81,870	263,180	0,050	0,062
-80,855	50,845	0,105	0,070
-79,840	-98,181	0,055	0,010
-78,826	138,633	-0,055	0,051
-77,811	800,000	0,056	-0,151
-76,797	346,205	-0,084	0,118
-75,782	-114,274	0,133	0,018
-74,767	-200,000	-0,005	0,148
-73,753	-71,305	0,063	-0,017
-72,738	-200,000	0,011	0,093
-71,724	550,512	-0,052	-0,089
-70,709	186,364	-0,061	-0,065
-69,694	-34,190	-0,105	0,041
-68,680	54,771	0,074	-0,050
-67,665	425,313	-0,044	0,066
-66,651	133,736	0,041	0,038
-65,636	50,277	-0,067	-0,044
-64,622	-18,990	0,026	-0,011
-63,607	-148,989	0,138	0,008
-62,592	126,491	0,027	0,024
-61,578	18,549	0,061	-0,034
-60,563	-43,405	0,055	-0,020
-59,549	-47,815	-0,142	0,048
-58,534	23,890	-1,816	-1,054
-57,519	482,157	-1,342	-2,160
-56,505	-200,000	-0,185	-4,385
-55,490	367,108	0,914	1,306
-54,476	800,000	5,121	11,633
-53,461	-200,000	20,688	327,681
-52,446	800,000	753,896	2315,403
-51,432	551,405	1659,202	2822,542
-50,417	73,798	1663,634	1229,814
-49,403	19,031	1536,631	867,380
-48,388	12,981	1459,564	794,616
-47,373	18,875	1450,106	817,726
-46,359	15,997	1439,622	798,085
-45,344	11,298	1435,103	773,179
-44,330	11,202	1433,427	771,790
-43,315	11,149	1431,561	770,503
-42,300	11,247	1429,508	769,832
-41,286	11,213	1428,602	769,154
-40,271	11,190	1427,135	768,222
-39,257	11,179	1426,025	767,545
-38,242	11,259	1424,605	767,126
-37,227	11,238	1423,696	766,510
-36,213	11,239	1422,272	765,716
-35,198	11,269	1421,286	765,296
-34,184	11,280	1420,483	764,885
-33,169	11,219	1419,089	763,815
-32,154	11,289	1417,825	763,437
-31,140	11,308	1416,659	762,865
-30,125	11,360	1415,322	762,363
-29,111	11,301	1414,533	761,630
-28,096	11,292	1413,326	760,906
-27,082	11,213	1412,276	759,941
-26,067	11,186	1411,270	759,244
-25,052	11,226	1409,956	758,694
-24,038	11,284	1408,812	758,318
-23,023	11,186	1408,199	757,502
-22,009	11,240	1406,865	757,006
-20,994	11,167	1406,187	756,270
-19,979	11,141	1405,405	755,695
-18,965	11,179	1404,175	755,181
-17,950	11,143	1403,450	754,596
-16,936	11,175	1402,508	754,207
-15,921	11,109	1401,483	753,318
-14,906	11,072	1400,772	752,733
-13,892	11,133	1399,500	752,305
-12,877	11,130	1398,862	751,920
-11,863	11,088	1398,172	751,321
-10,848	11,046	1397,313	750,638
-9,833	11,077	1396,232	750,171
-8,819	11,046	1395,408	749,552
-7,804	11,069	1394,446	749,113
-6,790	11,026	1393,449	748,350
-5,775	11,023	1392,390	747,736
-4,760	11,025	1391,469	747,222
-3,746	11,003	1390,525	746,584
-2,731	11,024	1389,820	746,274
-1,717	11,010	1388,936	745,703
-0,702	10,997	1386,925	744,533
0,313	14,999	1301,366	716,942
1,327	31,275	693,896	419,339
2,342	48,123	120,569	79,399
3,356	-0,531	16,420	8,194
4,371	-2,125	3,369	1,663
5,386	-35,270	0,846	0,323
6,400	-200,000	0,115	0,416
7,415	-61,627	-0,119	-0,035
8,429	260,654	-0,197	-0,241
9,444	82,234	-0,388	-0,296
10,459	159,881	-0,160	-0,157
11,473	-33,894	-0,318	-0,123
12,488	140,601	-0,219	-0,204
13,502	193,868	-0,221	-0,236
14,517	124,681	-0,184	-0,163
15,531	-59,690	-0,513	-0,154
16,546	165,945	-0,282	-0,281
17,561	139,970	-0,412	-0,383
18,575	-57,805	-0,199	-0,061
19,590	739,262	-0,153	-0,290
20,604	-36,823	-0,156	-0,059
21,619	57,029	-0,482	-0,330
22,634	87,444	-0,398	-0,310
23,648	108,434	-0,481	-0,404
24,663	353,488	-0,235	-0,329
25,677	246,399	-0,259	-0,308
26,692	143,069	-0,268	-0,251
27,707	-23,218	-0,385	-0,162
28,721	111,785	-0,351	-0,298
29,736	242,996	-0,245	-0,290
30,750	1,428	-0,486	-0,245
31,765	59,247	-0,396	-0,274
32,780	249,706	-0,261	-0,312
33,794	153,783	-0,286	-0,276
34,809	46,176	-0,302	-0,197
35,823	78,063	-0,425	-0,319
36,838	82,415	-0,334	-0,255
37,853	129,094	-0,314	-0,282
38,867	35,638	-0,392	-0,242
39,882	161,808	-0,258	-0,254
40,896	7,295	-0,424	-0,222
41,911	12,436	-0,303	-0,164
42,926	-47,077	-0,420	-0,143
43,940	273,702	-0,303	-0,377
44,955	67,930	-0,375	-0,269
45,969	252,239	-0,251	-0,302
46,984	145,969	-0,321	-0,302
47,999	-21,618	-0,365	-0,156
49,013	761,103	-0,151	-0,290
50,028	40,897	-0,298	-0,189
51,042	86,414	-0,257	-0,199
52,057	107,898	-0,345	-0,289
53,071	71,241	-0,314	-0,228
54,086	800,000	-0,140	-0,328
55,101	38,147	-0,479	-0,299
56,115	-20,921	-0,347	-0,149
57,130	99,600	-0,289	-0,235
58,144	76,143	-0,385	-0,286
59,159	91,533	-0,290	-0,229
60,174	59,809	-0,364	-0,252
61,188	141,550	-0,328	-0,305
62,203	109,594	-0,307	-0,258
63,217	294,115	-0,218	-0,280
64,232	-40,582	-0,376	-0,136
65,247	-46,933	-0,422	-0,144
66,261	57,167	-0,405	-0,277
67,276	87,040	-0,270	-0,209
68,290	147,600	-0,245	-0,232
69,305	126,956	-0,283	-0,251
70,320	44,420	-0,344	-0,221
71,334	-9,858	-0,252	-0,117
72,349	-4,932	-0,318	-0,153
73,363	108,887	-0,326	-0,273
74,378	88,670	-0,326	-0,254
75,393	-68,354	-0,369	-0,100
76,407	125,811	-0,207	-0,183
77,422	89,125	-0,284	-0,222
78,436	34,383	-0,246	-0,150
79,451	-16,414	-0,351	-0,155
80,466	66,068	-0,319	-0,227
81,480	326,814	-0,217	-0,293
82,495	208,007	-0,276	-0,302
83,509	61,934	-0,237	-0,165
84,524	-142,821	-0,278	-0,019
85,539	8,650	-0,146	-0,077
86,553	87,338	-0,286	-0,221
87,568	-46,041	-0,378	-0,130
88,582	598,196	-0,199	-0,346
89,597	19,319	-0,346	-0,194
90,611	52,470	-0,260	-0,173
91,626	14,664	-0,234	-0,128
92,641	800,000	-0,133	-0,358
93,655	-23,099	-0,309	-0,130
94,670	-7,800	-0,219	-0,103
95,684	-44,564	-0,371	-0,129
96,699	-40,570	-0,355	-0,128
97,714	-52,208	-0,197	-0,063
98,728	52,075	-0,188	-0,125
99,743	152,582	-0,161	-0,154
100,757	420,401	-0,131	-0,197
101,772	58,339	-0,331	-0,226
102,787	196,059	-0,168	-0,179
103,801	86,238	-0,223	-0,171
104,816	112,715	-0,247	-0,209
105,830	-29,487	-0,239	-0,095
106,845	64,640	-0,233	-0,164
107,860	0,506	-0,257	-0,128
108,874	-19,576	-0,338	-0,146
109,889	133,601	-0,250	-0,226
110,903	158,771	-0,213	-0,206
111,918	26,855	-0,240	-0,140
112,933	386,089	-0,132	-0,190
113,947	304,492	-0,128	-0,167
114,962	88,711	-0,222	-0,173
115,976	66,798	-0,258	-0,183
116,991	-26,049	-0,266	-0,109
118,006	550,713	-0,135	-0,227
119,020	50,978	-0,230	-0,152
120,035	111,379	-0,184	-0,155
121,049	147,085	-0,212	-0,199
122,064	148,313	-0,177	-0,167
123,079	15,205	-0,280	-0,153
124,093	38,882	-0,342	-0,213
125,108	287,523	-0,181	-0,229
126,122	468,011	-0,102	-0,160
127,137	228,908	-0,124	-0,141
128,151	-42,469	-0,308	-0,109
129,166	183,184	-0,179	-0,184
130,181	-46,737	-0,350	-0,119
131,195	247,067	-0,254	-0,299
132,210	41,820	-0,438	-0,276
133,224	800,000	-0,119	-0,253
134,239	-92,299	-0,290	-0,057
135,254	116,414	-0,254	-0,217
136,268	-139,471	-0,241	-0,018
137,283	-51,286	-0,255	-0,083
138,297	286,943	-0,185	-0,234
139,312	326,102	-0,170	-0,227
140,327	151,425	-0,274	-0,260
141,341	217,060	-0,232	-0,258
142,356	255,535	-0,282	-0,337
143,370	-35,285	-0,258	-0,097
144,385	-73,577	-0,443	-0,112
145,400	80,230	-0,342	-0,256
146,414	59,913	-0,258	-0,177
147,429	198,228	-0,214	-0,229
148,443	-12,867	-0,182	-0,082
149,458	423,319	-0,080	-0,120
150,473	31,982	-0,225	-0,134
151,487	-37,854	-0,304	-0,112
152,502	-58,485	-0,280	-0,084
153,516	165,216	-0,257	-0,253
154,531	-58,813	-0,210	-0,063
155,546	83,354	-0,169	-0,128
156,560	-25,411	-0,169	0,069
157,575	9,108	-0,260	-0,136
158,589	-51,742	-0,224	-0,072
159,604	-65,866	-0,233	-0,064
160,619	362,432	-0,194	-0,271
161,633	120,704	-0,168	-0,145
162,648	52,411	-0,218	-0,145
163,662	-9,598	-0,235	-0,109
164,677	50,931	-0,262	-0,172
165,692	12,339	-0,095	-0,051
166,706	32,093	-0,251	-0,150
167,721	206,029	-0,173	-0,188
168,735	340,104	-0,203	-0,276
169,750	107,306	-0,172	-0,142
170,764	8,813	-0,204	-0,107
171,779	56,204	-0,232	-0,156
172,794	-126,125	-0,163	-0,017
173,808	109,708	-0,244	-0,203
174,823	-7,643	-0,246	-0,115
175,837	-3,487	-0,210	-0,101
176,852	157,917	-0,208	-0,201
177,867	190,738	-0,211	-0,221
178,881	-19,130	-0,167	-0,072
179,896	2,102	-0,242	-0,121
180,910	174,329	-0,218	-0,219
181,925	175,684	-0,181	-0,182
182,940	91,130	-0,262	-0,204
183,954	24,148	-0,130	-0,074
184,969	-156,272	-0,196	0,008
185,983	19,360	-0,244	-0,136
186,998	-58,057	-0,192	-0,058
188,013	359,446	-0,133	-0,185
189,027	97,040	-0,308	-0,245
190,042	69,529	-0,229	-0,163
191,056	-117,558	-0,288	-0,036
192,071	500,752	-0,143	-0,229
193,086	10,143	-0,150	-0,079
194,100	14,795	-0,201	-0,109
195,115	325,717	-0,119	-0,158
196,129	249,773	-0,124	-0,146
197,144	114,677	-0,188	-0,159
198,159	135,115	-0,203	-0,183
199,173	163,111	-0,246	-0,240
200,188	-150,308	-0,223	-0,012
201,202	-5,963	-0,231	-0,109
202,217	-88,953	-0,167	-0,034
203,232	201,936	-0,114	-0,122
204,246	424,173	-0,176	-0,263
205,261	800,000	-0,057	-0,155
206,275	-148,415	-0,202	-0,011
207,290	56,881	-0,358	-0,242
208,304	-135,795	-0,167	-0,013
209,319	231,919	-0,080	-0,091
210,334	177,706	-0,204	-0,206
211,348	-44,021	-0,204	-0,071
212,363	-8,615	-0,299	-0,139
213,377	50,351	-0,161	-0,105
214,392	87,068	-0,218	-0,167
215,407	128,440	-0,147	-0,130
216,421	-114,984	-0,239	-0,031
217,436	112,620	-0,235	-0,197
218,450	152,513	-0,094	-0,089
219,465	126,677	-0,159	-0,139
220,480	258,392	-0,146	-0,174
221,494	-126,823	-0,224	-0,023
222,509	-89,682	-0,129	-0,026
223,523	110,136	-0,162	-0,135
224,538	-13,884	-0,289	-0,129
225,553	87,962	-0,302	-0,231
226,567	80,774	-0,152	-0,113
227,582	800,000	-0,073	-0,201
228,596	279,059	-0,097	-0,120
229,611	85,231	-0,155	-0,118
230,626	297,883	-0,138	-0,175
231,640	-170,981	-0,254	-0,006
232,655	777,234	-0,141	-0,268
233,669	41,242	-0,287	-0,179
234,684	-64,936	-0,266	-0,074
235,699	219,217	-0,069	-0,077
236,713	118,034	-0,080	-0,068
237,728	-137,362	-0,318	-0,025
238,742	125,387	-0,173	-0,151
239,757	-46,679	-0,184	0,062
240,772	46,199	-0,198	-0,126
241,786	132,807	-0,231	-0,206
242,801	800,000	-0,051	-0,147
243,815	9,944	-0,116	-0,061
244,830	335,762	-0,072	-0,097
245,844	209,904	-0,134	-0,145
246,859	-171,070	-0,248	-0,006
247,874	11,851	-0,181	-0,095
248,888	-138,212	-0,105	0,008
249,903	800,000	-0,062	-0,165
250,917	-63,694	-0,227	-0,064
251,932	-148,361	-0,078	-0,004
252,947	602,479	-0,076	-0,131
253,961	67,506	-0,199	-0,140
254,976	-5,112	-0,297	-0,141
255,990	476,772	-0,105	-0,165
257,005	49,029	-0,063	-0,041
258,020	-200,000	-0,003	-0,205
259,034	-51,468	-0,124	-0,040
260,049	-65,302	-0,276	-0,076
261,063	33,619	-0,094	-0,056
262,078	-21,425	-0,184	-0,077
263,093	619,970	-0,087	-0,152
264,107	115,980	-0,091	-0,076
265,122	528,576	-0,068	-0,111
266,136	-151,648	-0,157	0,008
267,151	-97,659	-0,222	0,039
268,166	355,725	-0,184	-0,253
269,180	86,963	-0,118	-0,090
270,195	184,294	-0,140	-0,143
271,209	800,000	-0,063	-0,166
272,224	27,401	-0,187	-0,108
273,239	-156,938	-0,176	-0,007
274,253	-28,969	-0,213	-0,084
275,268	-24,498	-0,149	-0,061
276,282	79,788	-0,173	-0,128
277,297	407,158	-0,159	-0,232
278,312	198,644	-0,122	-0,129
279,326	61,668	-0,033	-0,023
280,341	188,400	-0,080	-0,083
281,355	93,206	-0,071	-0,055
282,370	200,909	-0,149	-0,158
283,384	-134,874	-0,196	0,016
284,399	-85,807	-0,172	-0,036
285,414	-55,190	-0,222	-0,068
286,428	-61,755	-0,126	-0,036
287,443	-93,663	-0,125	-0,023
288,457	-94,594	-0,233	-0,043
289,472	-24,281	-0,070	-0,029
290,487	800,000	-0,053	-0,106
291,501	183,112	-0,145	-0,148
292,516	194,197	-0,265	-0,276
293,530	54,568	-0,073	-0,048
294,545	91,612	-0,071	0,055
295,560	279,960	-0,124	-0,153
296,574	800,000	-0,067	-0,190
297,589	-68,231	-0,136	0,036
298,603	800,000	-0,097	-0,270
299,618	544,406	-0,119	-0,196
300,633	-200,000	-0,029	-0,234
301,647	800,000	-0,186	-0,358
302,662	37,082	-0,146	-0,089
303,676	251,659	-0,093	-0,109
304,691	-9,568	-0,125	-0,057
305,706	164,080	-0,099	-0,096
306,720	152,694	-0,163	-0,153
307,735	506,803	-0,149	-0,239
308,749	-46,576	-0,145	-0,049
309,764	78,738	-0,199	-0,146
310,779	379,099	-0,112	-0,158
311,793	-82,171	-0,139	-0,031
312,808	126,922	-0,128	-0,111
313,822	265,247	-0,141	-0,169
314,837	93,128	-0,186	-0,144
315,852	-157,899	-0,132	-0,005
316,866	103,653	-0,051	-0,041
317,881	44,229	-0,073	0,046
318,895	34,445	-0,263	-0,157
319,910	199,570	-0,159	-0,167
320,925	-200,000	-0,066	-0,211
321,939	69,797	-0,134	-0,095
322,954	-149,244	-0,181	-0,010
323,968	-200,000	0,002	-0,060
324,983	-114,253	-0,081	-0,011
325,997	325,391	-0,061	-0,081
327,012	72,263	-0,168	-0,120
328,027	238,408	-0,150	-0,171
329,041	785,363	-0,086	-0,162
330,056	79,709	-0,127	0,093
331,070	-200,000	-0,005	-0,032
332,085	800,000	-0,039	-0,079
333,100	132,990	-0,232	0,206
334,114	113,235	-0,144	-0,120
335,129	44,957	-0,213	-0,134
336,143	277,960	-0,111	-0,135
337,158	-200,000	-0,069	-0,215
338,173	3,739	0,047	-0,024
339,187	217,069	-0,047	-0,051
340,202	800,000	-0,075	-0,180
341,216	800,000	-0,090	-0,252
342,231	-200,000	-0,031	-0,189
343,246	-73,600	-0,073	0,018
344,260	79,070	-0,083	-0,061
345,275	-108,095	-0,169	-0,025
346,289	214,953	-0,096	-0,104
347,304	-81,604	-0,150	0,033
348,319	800,000	-0,028	-0,071
349,333	312,193	-0,105	-0,136
350,348	167,943	-0,147	-0,143
351,362	348,202	-0,102	-0,138
352,377	89,343	-0,102	-0,078
353,392	-152,878	-0,172	0,008
354,406	227,328	-0,093	-0,104
355,421	208,785	1307,581	1401,258
356,435	160,667	1467,426	1401,752
