DTS Sentinel unit serial number:	SN410029Multiplexer serial number:	ORYXHardware model number:	OX2-SRSoftware version number:	ORYX F/W v4,00 Oryx Data Collector v3.7.2.0data status	okinstallation	B3 Nyhavnadifferential loss correction	single-endedforward channel	channel 1reverse channel	N/Adate	2023/11/30time	09:07:30forward acquisition time	300,00reverse acquisition time	0,00gamma	499,1914k internal	0,3211k external	0,3211temperature offset calibration	1,0000default loss term (dB/km)	0,3820temperature slope calibration	1,0000multiplexer offset coefficient	1,0000multiplexer slope coefficient	1,0000fibre end	0,00T internal ref (°C)	9,50T ext. ref 1 (°C)	-5,53T ext. ref 2 (°C)	-5,65length (m)	temperature (°C)	Stokes	anti-Stokes-744,400	92,109	-0,204	-0,166
-743,385	-200,000	0,088	0,392
-742,371	800,000	-0,094	-0,213
-741,356	800,000	0,092	0,238
-740,342	-200,000	-0,095	-0,346
-739,327	-200,000	0,037	0,214
-738,312	208,877	-0,278	-0,316
-737,298	-200,000	0,044	0,205
-736,283	124,340	-0,164	-0,149
-735,269	-200,000	-0,071	0,375
-734,254	-86,620	-0,211	-0,046
-733,239	-151,926	-0,223	-0,012
-732,225	-200,000	-0,025	-0,245
-731,210	-90,061	0,122	-0,026
-730,196	-199,873	0,181	-0,001
-729,181	-200,000	-0,031	-0,186
-728,167	-90,068	0,024	0,005
-727,152	-200,000	-0,012	0,058
-726,137	-69,310	-0,132	0,036
-725,123	-5,190	-0,093	0,046
-724,108	-71,089	0,127	0,034
-723,094	154,527	-0,062	-0,062
-722,079	-34,915	-0,100	-0,040
-721,064	136,091	-0,059	-0,056
-720,050	60,995	0,058	-0,042
-719,035	-121,090	-0,091	0,011
-718,021	80,192	-0,075	-0,058
-717,006	-200,000	0,011	0,098
-715,991	154,561	-0,068	-0,068
-714,977	149,065	-0,052	-0,051
-713,962	281,807	-0,058	0,076
-712,948	121,369	0,048	-0,044
-711,933	610,595	0,026	-0,048
-710,918	88,742	-0,114	-0,092
-709,904	528,386	-0,070	-0,121
-708,889	-200,000	-0,004	0,030
-707,875	-156,431	-0,214	-0,009
-706,860	-4,604	0,033	-0,016
-705,845	84,710	0,074	0,059
-704,831	-75,451	0,060	0,015
-703,816	-127,453	0,052	0,005
-702,802	-200,000	0,008	-0,170
-701,787	-80,142	-0,136	-0,033
-700,772	122,322	-0,231	-0,209
-699,758	-200,000	-0,001	-0,085
-698,743	-113,106	0,173	-0,024
-697,729	-200,000	0,006	0,029
-696,714	800,000	-0,021	-0,044
-695,699	170,370	-0,068	-0,070
-694,685	800,000	-0,047	-0,110
-693,670	25,718	-0,116	-0,070
-692,656	-200,000	0,017	-0,098
-691,641	478,168	-0,050	0,083
-690,627	-37,577	0,126	0,048
-689,612	-200,000	-0,006	0,123
-688,597	-109,284	-0,155	-0,024
-687,583	644,924	0,049	0,091
-686,568	47,377	-0,125	0,084
-685,554	-27,770	-0,157	-0,066
-684,539	800,000	0,020	-0,053
-683,524	-40,459	-0,039	0,014
-682,510	-200,000	0,033	0,108
-681,495	-51,963	0,165	-0,055
-680,481	21,739	-0,049	-0,029
-679,466	97,443	-0,076	-0,063
-678,451	-66,201	0,132	0,038
-677,437	-75,937	-0,051	0,013
-676,422	-200,000	0,004	-0,099
-675,408	-39,265	-0,125	-0,047
-674,393	519,960	-0,040	-0,068
-673,378	399,650	-0,025	-0,038
-672,364	303,683	-0,080	-0,108
-671,349	512,026	0,083	-0,140
-670,335	-123,042	-0,137	-0,016
-669,320	-200,000	0,004	-0,142
-668,305	-132,784	0,077	0,007
-667,291	-200,000	-0,023	-0,172
-666,276	634,394	0,071	0,131
-665,262	800,000	-0,044	-0,090
-664,247	-29,398	0,020	-0,008
-663,232	-116,639	0,104	-0,014
-662,218	67,547	-0,046	-0,034
-661,203	-200,000	0,002	0,041
-660,189	47,555	-0,080	-0,054
-659,174	-200,000	-0,027	-0,144
-658,159	-200,000	0,051	-0,197
-657,145	59,364	-0,055	-0,039
-656,130	-122,158	-0,094	-0,011
-655,116	159,686	0,045	0,046
-654,101	800,000	-0,034	-0,089
-653,086	59,330	-0,063	0,045
-652,072	800,000	0,022	-0,044
-651,057	-10,656	-0,086	0,041
-650,043	-80,414	0,103	0,025
-649,028	800,000	0,041	-0,103
-648,014	800,000	0,026	-0,059
-646,999	-63,987	-0,077	-0,023
-645,984	-200,000	-0,017	-0,056
-644,970	-42,760	-0,051	-0,018
-643,955	-176,476	-0,141	-0,003
-642,941	800,000	-0,066	-0,149
-641,926	-1,450	0,047	0,024
-640,911	275,288	0,057	0,073
-639,897	-131,954	-0,121	0,011
-638,882	-131,443	-0,111	0,010
-637,868	136,020	0,060	0,056
-636,853	39,899	-0,116	-0,075
-635,838	-200,000	-0,031	-0,149
-634,824	-85,322	-0,127	-0,028
-633,809	4,603	0,169	-0,089
-632,795	-102,758	-0,129	0,022
-631,780	800,000	0,022	0,050
-630,765	545,645	-0,015	-0,026
-629,751	800,000	-0,038	0,100
-628,736	76,943	0,078	0,060
-627,722	-148,713	-0,162	-0,009
-626,707	-200,000	0,016	-0,051
-625,692	-200,000	0,003	0,124
-624,678	504,406	0,068	0,113
-623,663	-73,867	-0,060	-0,016
-622,649	-200,000	-0,014	-0,115
-621,634	132,627	-0,067	-0,062
-620,619	-200,000	-0,029	0,195
-619,605	-1,307	-0,064	-0,032
-618,590	-27,676	-0,015	0,006
-617,576	48,126	-0,083	0,056
-616,561	19,238	0,030	-0,017
-615,546	47,422	-0,047	0,031
-614,532	-200,000	-0,041	-0,197
-613,517	-28,765	-0,108	-0,045
-612,503	-114,913	0,020	-0,003
-611,488	282,848	0,065	0,084
-610,474	21,786	0,053	0,031
-609,459	-200,000	0,018	0,164
-608,444	3,735	-0,070	0,037
-607,430	-69,023	-0,114	0,031
-606,415	-50,947	-0,103	-0,035
-605,401	800,000	0,017	0,052
-604,386	-51,350	-0,080	0,027
-603,371	22,425	0,093	-0,055
-602,357	-108,802	0,006	-0,001
-601,342	-200,000	-0,001	0,005
-600,328	-200,000	-0,008	-0,037
-599,313	-200,000	-0,021	0,139
-598,298	747,569	-0,078	0,151
-597,284	800,000	-0,026	0,063
-596,269	64,457	-0,018	0,013
-595,255	-200,000	0,029	0,162
-594,240	-69,381	-0,113	0,031
-593,225	33,039	-0,060	-0,037
-592,211	-19,578	-0,110	0,049
-591,196	-200,000	0,001	-0,032
-590,182	-112,677	0,119	-0,017
-589,167	-50,189	0,068	0,023
-588,152	-92,213	0,098	0,020
-587,138	-32,131	-0,132	0,053
-586,123	575,501	0,080	-0,141
-585,109	-200,000	-0,004	0,046
-584,094	-81,933	-0,077	-0,018
-583,079	-95,689	0,073	-0,014
-582,065	-151,518	-0,084	-0,004
-581,050	-200,000	-0,015	0,124
-580,036	-152,409	0,038	-0,002
-579,021	-200,000	0,003	-0,038
-578,006	140,988	-0,091	-0,087
-576,992	-200,000	0,008	-0,057
-575,977	-22,554	-0,075	-0,033
-574,963	-153,193	0,207	0,010
-573,948	-200,000	0,006	-0,051
-572,934	-200,000	0,020	-0,116
-571,919	410,126	0,028	-0,042
-570,904	800,000	-0,020	0,054
-569,890	-200,000	0,029	-0,149
-568,875	178,970	0,097	0,102
-567,861	64,508	0,128	0,093
-566,846	-200,000	0,001	0,025
-565,831	41,181	-0,024	0,015
-564,817	32,139	-0,100	-0,062
-563,802	-200,000	-0,058	0,203
-562,788	-123,388	-0,018	0,002
-561,773	326,088	-0,056	-0,077
-560,758	158,097	0,086	-0,086
-559,744	-61,828	0,054	-0,016
-558,729	-200,000	-0,017	-0,178
-557,715	-200,000	-0,009	-0,130
-556,700	-42,356	-0,040	-0,015
-555,685	29,919	-0,156	-0,095
-554,671	800,000	-0,037	-0,088
-553,656	-90,107	0,095	0,020
-552,642	-200,000	-0,006	-0,033
-551,627	-60,308	-0,101	-0,031
-550,612	-200,000	0,007	-0,035
-549,598	-31,386	-0,128	-0,052
-548,583	36,278	-0,045	-0,029
-547,569	800,000	-0,066	-0,192
-546,554	800,000	0,012	-0,024
-545,539	143,384	0,068	0,065
-544,525	427,557	0,033	-0,052
-543,510	264,617	-0,013	-0,017
-542,496	800,000	-0,033	-0,081
-541,481	800,000	-0,016	0,032
-540,466	-200,000	-0,007	-0,081
-539,452	-2,848	0,086	-0,043
-538,437	-200,000	0,028	0,099
-537,423	433,306	-0,072	-0,112
-536,408	800,000	0,040	-0,085
-535,393	-85,218	-0,056	0,013
-534,379	107,763	-0,064	-0,055
-533,364	-24,805	-0,047	0,020
-532,350	-200,000	-0,006	-0,055
-531,335	800,000	-0,072	0,159
-530,321	168,566	0,045	0,046
-529,306	14,024	-0,097	-0,054
-528,291	127,894	-0,023	-0,021
-527,277	800,000	0,030	-0,075
-526,262	800,000	0,052	-0,157
-525,248	472,457	0,055	-0,089
-524,233	800,000	0,029	0,085
-523,218	-118,031	0,004	0,001
-522,204	-1,209	-0,122	0,062
-521,189	-200,000	-0,018	-0,100
-520,175	-200,000	-0,000	-0,164
-519,160	-200,000	-0,021	-0,177
-518,145	800,000	0,058	-0,166
-517,131	-77,212	0,060	-0,015
-516,116	-115,090	0,135	-0,018
-515,102	2,957	-0,122	-0,064
-514,087	88,994	0,108	0,086
-513,072	366,074	-0,075	-0,110
-512,058	-200,000	0,005	0,074
-511,043	-109,628	0,124	-0,019
-510,029	-200,000	0,040	-0,140
-509,014	-200,000	-0,048	0,179
-507,999	41,535	0,041	0,026
-506,985	-38,094	0,111	-0,042
-505,970	341,037	-0,039	-0,054
-504,956	-200,000	-0,020	-0,107
-503,941	800,000	-0,055	0,112
-502,926	-200,000	0,010	0,172
-501,912	26,494	0,110	0,066
-500,897	249,268	-0,068	-0,083
-499,883	107,543	0,045	0,038
-498,868	621,263	-0,088	0,159
-497,853	252,978	-0,038	-0,047
-496,839	157,955	0,084	0,084
-495,824	800,000	-0,025	-0,071
-494,810	-131,710	0,052	0,005
-493,795	800,000	0,020	-0,043
-492,781	-200,000	0,007	-0,108
-491,766	-200,000	-0,039	-0,127
-490,751	626,364	-0,033	0,060
-489,737	73,835	-0,029	-0,022
-488,722	-55,841	-0,038	0,012
-487,708	152,231	-0,066	0,065
-486,693	7,976	-0,055	0,029
-485,678	-110,187	0,032	-0,005
-484,664	800,000	-0,014	0,029
-483,649	93,059	0,056	-0,046
-482,635	-18,018	0,035	0,016
-481,620	155,715	0,066	0,065
-480,605	-82,942	-0,073	-0,017
-479,591	-89,698	-0,035	0,007
-478,576	-200,000	0,001	-0,023
-477,562	-156,234	-0,064	0,003
-476,547	-200,000	-0,007	0,082
-475,532	-200,000	0,012	0,044
-474,518	-200,000	-0,001	0,109
-473,503	243,633	-0,083	0,101
-472,489	73,518	0,046	-0,035
-471,474	76,918	-0,165	0,126
-470,459	-200,000	-0,005	0,034
-469,445	252,045	-0,020	-0,025
-468,430	118,022	0,092	-0,082
-467,416	-108,841	0,216	0,033
-466,401	-120,396	0,188	-0,023
-465,386	-97,929	0,097	-0,018
-464,372	740,636	-0,007	0,014
-463,357	-22,734	0,069	0,030
-462,343	800,000	-0,008	-0,023
-461,328	-165,566	0,066	-0,002
-460,313	-14,122	0,194	-0,089
-459,299	800,000	0,074	0,148
-458,284	-200,000	0,016	0,067
-457,270	-200,000	0,005	-0,107
-456,255	3,327	-0,069	-0,036
-455,241	184,288	-0,049	-0,052
-454,226	-148,225	0,128	0,007
-453,211	-57,002	-0,110	-0,035
-452,197	95,791	0,055	0,045
-451,182	30,616	0,053	-0,032
-450,168	-200,000	-0,009	0,114
-449,153	-200,000	0,019	0,152
-448,138	442,002	-0,076	-0,119
-447,124	-56,129	-0,140	0,044
-446,109	-101,213	-0,131	0,023
-445,095	-200,000	-0,002	0,012
-444,080	118,397	-0,065	0,057
-443,065	151,916	-0,039	0,038
-442,051	-1,449	-0,084	-0,042
-441,036	161,900	0,053	-0,053
-440,022	330,215	-0,014	-0,020
-439,007	-200,000	-0,017	-0,106
-437,992	-200,000	0,003	-0,102
-436,978	-200,000	-0,013	0,068
-435,963	-149,363	0,044	-0,002
-434,949	215,627	0,061	0,069
-433,934	22,303	-0,117	0,069
-432,919	19,964	-0,115	-0,066
-431,905	146,765	0,109	0,105
-430,890	8,472	-0,012	0,006
-429,876	-200,000	0,021	0,144
-428,861	369,267	0,037	0,054
-427,846	-200,000	0,000	-0,157
-426,832	-155,553	-0,034	0,002
-425,817	-153,876	-0,092	-0,004
-424,803	138,832	0,075	-0,071
-423,788	81,218	0,019	0,014
-422,773	-200,000	-0,003	-0,016
-421,759	-143,005	0,019	-0,001
-420,744	589,344	0,023	0,041
-419,730	-96,484	0,145	0,027
-418,715	-80,338	-0,031	0,007
-417,701	-7,652	-0,097	-0,047
-416,686	800,000	-0,029	0,080
-415,671	258,774	-0,061	-0,075
-414,657	31,368	-0,075	0,046
-413,642	800,000	0,010	0,029
-412,628	-114,744	0,033	0,004
-411,613	-99,668	0,127	-0,023
-410,598	37,033	-0,026	-0,017
-409,584	146,796	0,026	0,025
-408,569	-84,185	0,086	0,019
-407,555	-96,919	0,070	0,013
-406,540	178,357	-0,027	-0,028
-405,525	747,599	0,029	-0,055
-404,511	-112,325	0,058	-0,008
-403,496	28,203	0,054	0,032
-402,482	359,859	-0,046	0,066
-401,467	800,000	-0,011	0,028
-400,452	300,077	-0,103	0,136
-399,438	72,709	-0,039	0,029
-398,423	502,555	-0,057	-0,095
-397,409	16,442	-0,057	0,032
-396,394	-22,230	-0,103	-0,044
-395,379	463,911	0,034	0,054
-394,365	-200,000	0,000	0,041
-393,350	800,000	0,008	-0,021
-392,336	-106,098	0,115	0,018
-391,321	-71,390	-0,150	0,040
-390,306	-200,000	-0,007	-0,128
-389,292	-200,000	-0,001	-0,007
-388,277	213,069	0,028	-0,032
-387,263	23,359	0,112	-0,066
-386,248	-42,177	-0,044	0,016
-385,233	-200,000	0,001	0,012
-384,219	-200,000	-0,005	0,025
-383,204	8,640	-0,031	0,017
-382,190	800,000	0,026	-0,061
-381,175	121,823	-0,076	-0,068
-380,160	85,746	0,034	-0,026
-379,146	-76,295	-0,121	-0,030
-378,131	78,631	0,080	-0,061
-377,117	525,420	0,021	0,036
-376,102	557,206	0,055	0,095
-375,088	553,660	-0,069	0,119
-374,073	216,634	-0,038	-0,043
-373,058	800,000	0,043	-0,131
-372,044	216,954	0,112	0,128
-371,029	-128,046	-0,133	-0,013
-370,015	-45,880	0,088	0,031
-369,000	-22,622	-0,053	0,023
-367,985	800,000	-0,056	-0,152
-366,971	-65,365	-0,154	-0,044
-365,956	-104,365	-0,020	0,003
-364,942	800,000	0,071	0,202
-363,927	-200,000	0,035	0,141
-362,912	-200,000	0,029	0,123
-361,898	46,444	-0,042	0,028
-360,883	-200,000	-0,006	0,041
-359,869	672,767	-0,038	0,070
-358,854	800,000	0,033	-0,070
-357,839	-22,845	-0,085	0,036
-356,825	-171,732	0,122	-0,003
-355,810	-49,928	0,099	0,034
-354,796	4,386	-0,090	0,047
-353,781	800,000	-0,092	-0,191
-352,766	178,190	0,079	-0,083
-351,752	800,000	-0,041	-0,088
-350,737	-81,522	0,195	-0,045
-349,723	-200,000	0,040	-0,141
-348,708	58,215	0,060	0,042
-347,693	-200,000	-0,019	0,088
-346,679	369,505	0,051	-0,074
-345,664	-2,772	0,091	0,045
-344,650	-200,000	-0,017	-0,070
-343,635	762,433	-0,047	0,092
-342,620	-200,000	-0,048	0,165
-341,606	74,145	0,024	0,018
-340,591	798,262	0,050	0,099
-339,577	-15,622	0,066	-0,030
-338,562	214,065	0,071	-0,081
-337,548	-200,000	-0,028	-0,115
-336,533	800,000	0,069	-0,142
-335,518	-10,583	-0,060	-0,028
-334,504	-19,033	0,123	0,055
-333,489	-110,991	-0,109	-0,016
-332,475	116,974	0,035	0,031
-331,460	-200,000	0,007	-0,049
-330,445	-200,000	-0,005	0,016
-329,431	242,200	-0,060	-0,072
-328,416	83,338	0,100	0,077
-327,402	-200,000	0,031	-0,103
-326,387	234,326	-0,018	-0,021
-325,372	-18,876	-0,062	0,027
-324,358	151,171	-0,052	-0,051
-323,343	-52,259	0,095	-0,031
-322,329	-71,186	0,060	0,016
-321,314	103,756	-0,092	-0,077
-320,299	67,731	0,207	0,151
-319,285	235,606	0,059	-0,070
-318,270	-200,000	-0,021	0,126
-317,256	-78,333	-0,051	0,012
-316,241	280,908	-0,031	-0,039
-315,226	800,000	-0,024	-0,064
-314,212	201,165	0,085	0,093
-313,197	-103,406	-0,072	-0,012
-312,183	-19,536	-0,013	0,006
-311,168	-62,275	-0,033	-0,010
-310,153	-115,879	0,022	-0,003
-309,139	60,444	0,045	-0,032
-308,124	-167,164	-0,102	-0,003
-307,110	212,462	-0,042	0,047
-306,095	685,301	0,040	0,075
-305,080	36,419	0,062	0,039
-304,066	-200,000	0,002	0,017
-303,051	800,000	-0,040	-0,114
-302,037	33,587	-0,062	-0,038
-301,022	-28,744	0,180	0,073
-300,008	-200,000	0,015	0,120
-298,993	592,188	0,030	0,053
-297,978	-143,144	-0,041	-0,003
-296,964	-123,236	0,107	-0,012
-295,949	-119,127	0,106	-0,013
-294,935	-200,000	-0,025	-0,113
-293,920	414,737	-0,035	-0,053
-292,905	105,795	0,073	-0,062
-291,891	28,207	-0,147	-0,088
-290,876	-200,000	0,008	0,108
-289,862	539,845	-0,031	0,053
-288,847	327,077	0,038	0,052
-287,832	-200,000	0,007	0,068
-286,818	15,034	0,074	0,041
-285,803	52,832	0,097	0,066
-284,789	35,681	-0,058	0,036
-283,774	285,604	0,038	0,048
-282,759	-200,000	0,008	-0,144
-281,745	154,973	-0,062	0,061
-280,730	-14,932	-0,048	0,022
-279,716	-9,897	-0,121	0,057
-278,701	800,000	-0,007	-0,020
-277,686	106,379	0,068	-0,057
-276,672	259,407	-0,028	0,035
-275,657	109,978	0,042	-0,036
-274,643	-200,000	-0,018	-0,144
-273,628	131,385	-0,040	0,037
-272,613	224,745	0,046	0,053
-271,599	82,846	0,015	0,011
-270,584	740,021	0,029	0,055
-269,570	-83,515	-0,145	0,033
-268,555	76,884	0,026	0,020
-267,540	368,904	0,029	-0,042
-266,526	-200,000	0,012	-0,046
-265,511	94,325	-0,091	0,073
-264,497	-200,000	0,011	0,069
-263,482	577,249	-0,050	-0,088
-262,467	336,548	-0,008	0,011
-261,453	95,532	-0,035	-0,029
-260,438	800,000	-0,033	0,071
-259,424	-23,021	0,047	0,020
-258,409	-181,539	-0,126	-0,002
-257,395	800,000	-0,022	0,064
-256,380	99,151	-0,065	-0,054
-255,365	-200,000	-0,017	0,058
-254,351	-84,099	0,186	-0,042
-253,336	-200,000	0,009	0,037
-252,322	83,918	-0,047	-0,036
-251,307	143,291	-0,100	-0,094
-250,292	-200,000	0,008	-0,063
-249,278	-200,000	0,100	-0,000
-248,263	192,414	0,148	0,159
-247,249	-200,000	0,008	-0,059
-246,234	35,286	0,069	0,043
-245,219	-80,631	0,028	0,007
-244,205	328,858	-0,020	-0,027
-243,190	369,818	0,076	0,110
-242,176	-200,000	0,015	-0,080
-241,161	-200,000	-0,043	-0,146
-240,146	290,322	-0,078	-0,101
-239,132	-100,880	0,107	-0,018
-238,117	41,155	-0,064	-0,041
-237,103	211,860	0,074	-0,083
-236,088	-18,319	0,107	0,048
-235,073	-139,656	0,066	-0,005
-234,059	-200,000	0,012	0,065
-233,044	617,701	-0,039	-0,069
-232,030	-200,000	0,004	-0,064
-231,015	154,667	0,038	0,037
-230,000	-200,000	-0,023	-0,135
-228,986	-79,954	-0,070	-0,017
-227,971	17,688	-0,034	-0,019
-226,957	-108,719	0,071	-0,011
-225,942	-200,000	0,020	0,141
-224,927	800,000	-0,032	0,064
-223,913	-76,860	0,108	-0,027
-222,898	94,470	-0,150	-0,121
-221,884	275,777	-0,060	-0,075
-220,869	356,521	-0,066	-0,094
-219,855	-83,251	0,167	0,038
-218,840	-116,412	0,103	0,013
-217,825	336,200	0,039	0,054
-216,811	-200,000	-0,010	-0,148
-215,796	229,343	0,097	-0,112
-214,782	0,398	-0,115	-0,058
-213,767	487,370	-0,114	0,186
-212,752	-200,000	0,000	0,110
-211,738	800,000	0,070	0,173
-210,723	-200,000	-0,005	0,114
-209,709	-120,312	-0,080	-0,010
-208,694	-9,488	0,073	0,035
-207,679	-200,000	-0,038	0,171
-206,665	-16,210	0,199	0,089
-205,650	800,000	0,040	0,107
-204,636	-50,276	0,090	0,030
-203,621	44,879	0,070	0,045
-202,606	-64,411	-0,075	0,022
-201,592	-200,000	0,007	0,056
-200,577	86,589	-0,050	0,039
-199,563	25,135	0,112	0,066
-198,548	-200,000	-0,011	0,096
-197,533	129,146	-0,059	0,053
-196,519	6,015	0,058	0,030
-195,504	-129,170	0,057	-0,006
-194,490	-118,998	0,183	-0,022
-193,475	264,562	-0,025	0,031
-192,460	-119,791	0,080	0,010
-191,446	800,000	-0,049	-0,125
-190,431	303,025	0,048	-0,063
-189,417	168,024	-0,050	0,051
-188,402	-156,275	0,108	-0,005
-187,387	10,153	-0,105	-0,056
-186,373	-178,025	-0,086	0,001
-185,358	-111,807	0,056	0,008
-184,344	-200,000	0,001	0,066
-183,329	-114,677	0,136	-0,018
-182,315	800,000	-0,008	0,018
-181,300	73,341	0,055	0,040
-180,285	124,249	0,060	-0,054
-179,271	800,000	-0,074	-0,173
-178,256	13,072	0,063	-0,035
-177,242	277,779	-0,045	-0,057
-176,227	575,173	0,033	0,057
-175,212	223,088	0,087	0,099
-174,198	-1,641	0,026	0,013
-173,183	47,010	-0,136	-0,090
-172,169	-200,000	-0,004	0,098
-171,154	53,921	-0,078	0,053
-170,139	224,343	-0,027	0,031
-169,125	-200,000	-0,010	0,118
-168,110	40,492	0,049	0,031
-167,096	345,530	0,099	0,138
-166,081	70,512	-0,027	0,020
-165,066	-117,061	-0,125	-0,016
-164,052	-83,024	0,040	0,009
-163,037	-200,000	0,008	0,061
-162,023	-85,926	0,085	0,019
-161,008	-114,109	0,056	-0,008
-159,993	-56,813	-0,043	0,014
-158,979	800,000	-0,043	-0,128
-157,964	-200,000	-0,014	-0,106
-156,950	-22,952	-0,132	-0,056
-155,935	468,555	0,091	-0,144
-154,920	45,110	-0,061	0,040
-153,906	800,000	0,038	0,090
-152,891	111,785	-0,070	0,060
-151,877	-200,000	-0,037	0,117
-150,862	124,878	-0,079	-0,070
-149,847	-167,389	0,159	0,004
-148,833	-200,000	0,001	0,018
-147,818	396,391	0,104	-0,154
-146,804	-64,479	-0,125	0,036
-145,789	-200,000	-0,007	-0,079
-144,775	263,613	-0,073	0,091
-143,760	241,573	0,084	-0,100
-142,745	125,603	-0,105	-0,094
-141,731	62,305	0,117	0,083
-140,716	-200,000	-0,006	0,114
-139,702	-33,546	0,052	-0,020
-138,687	78,785	-0,042	0,032
-137,672	594,797	-0,024	0,042
-136,658	-135,877	-0,053	-0,004
-135,643	-200,000	-0,035	-0,126
-134,629	-107,850	0,130	-0,020
-133,614	-153,734	0,030	0,001
-132,599	-200,000	0,027	-0,095
-131,585	-200,000	0,000	0,027
-130,570	-9,197	0,082	-0,039
-129,556	-195,023	-0,101	-0,001
-128,541	281,452	0,075	-0,095
-127,526	-6,193	0,152	-0,073
-126,512	-50,244	0,099	-0,033
-125,497	-200,000	0,010	0,116
-124,483	-170,029	-0,045	0,001
-123,468	-126,235	-0,049	0,005
-122,453	-200,000	-0,044	-0,297
-121,439	-200,000	-0,032	-0,123
-120,424	-32,484	0,158	-0,062
-119,410	-200,000	-0,001	-0,028
-118,395	132,671	0,032	-0,029
-117,380	800,000	-0,086	0,180
-116,366	-200,000	0,023	0,182
-115,351	597,963	-0,041	-0,073
-114,337	164,365	-0,007	0,007
-113,322	800,000	-0,015	0,038
-112,307	-200,000	0,006	0,101
-111,293	30,721	-0,069	0,041
-110,278	-200,000	-0,004	0,159
-109,264	-200,000	-0,030	0,118
-108,249	800,000	-0,029	0,065
-107,234	-92,557	-0,137	0,027
-106,220	502,275	-0,051	0,083
-105,205	-79,078	0,046	0,011
-104,191	800,000	0,015	0,038
-103,176	-200,000	-0,026	0,082
-102,162	76,403	-0,022	0,016
-101,147	163,911	-0,085	-0,084
-100,132	292,338	0,010	-0,013
-99,118	-200,000	0,006	-0,032
-98,103	800,000	0,031	0,089
-97,089	800,000	0,031	-0,097
-96,074	112,794	-0,024	-0,021
-95,059	-200,000	0,003	0,082
-94,045	319,302	-0,048	-0,064
-93,030	784,373	0,017	-0,034
-92,016	-200,000	0,003	-0,085
-91,001	-72,513	-0,139	0,036
-89,986	-200,000	0,033	0,267
-88,972	800,000	0,070	0,209
-87,957	-42,689	-0,050	-0,018
-86,943	-29,200	-0,081	-0,033
-85,928	800,000	0,020	-0,041
-84,913	789,683	-0,012	-0,024
-83,899	116,520	-0,101	0,088
-82,884	-154,850	0,052	-0,002
-81,870	83,564	0,098	0,076
-80,855	153,136	0,020	0,019
-79,840	-200,000	-0,052	-0,212
-78,826	800,000	0,083	-0,192
-77,811	668,885	-0,099	-0,182
-76,797	60,586	0,113	-0,079
-75,782	593,266	-0,114	0,200
-74,767	-21,112	0,053	0,023
-73,753	-200,000	-0,009	0,071
-72,738	362,954	-0,057	-0,081
-71,724	112,607	-0,121	0,104
-70,709	57,910	0,102	-0,071
-69,694	-134,556	0,047	-0,004
-68,680	-70,089	0,034	0,009
-67,665	-118,145	0,092	-0,011
-66,651	-200,000	0,006	0,027
-65,636	-200,000	0,012	-0,052
-64,622	800,000	-0,060	0,133
-63,607	800,000	0,030	-0,060
-62,592	77,722	0,090	0,068
-61,578	40,694	-0,088	-0,056
-60,563	-200,000	-0,011	0,047
-59,549	-61,184	-0,104	0,031
-58,534	37,488	-2,042	-1,276
-57,519	721,450	-1,132	-2,135
-56,505	-200,000	-0,316	-4,319
-55,490	576,185	0,891	1,542
-54,476	800,000	5,052	11,324
-53,461	-200,000	21,838	344,752
-52,446	800,000	763,422	2344,867
-51,432	547,457	1662,672	2819,660
-50,417	71,635	1659,091	1215,196
-49,403	17,309	1532,449	856,131
-48,388	11,343	1456,373	784,796
-47,373	19,377	1448,028	818,789
-46,359	14,852	1436,968	791,008
-45,344	9,623	1432,814	763,811
-44,330	9,544	1430,994	762,435
-43,315	9,555	1429,071	761,436
-42,300	9,563	1427,416	760,562
-41,286	9,557	1426,281	759,898
-40,271	9,554	1424,921	759,127
-39,257	9,566	1423,633	758,466
-38,242	9,539	1422,748	757,839
-37,227	9,585	1421,599	757,414
-36,213	9,593	1420,332	756,749
-35,198	9,612	1418,935	756,062
-34,184	9,626	1418,009	755,606
-33,169	9,550	1416,757	754,549
-32,154	9,589	1415,671	754,127
-31,140	9,547	1414,589	753,322
-30,125	9,622	1413,360	752,990
-29,111	9,627	1412,428	752,487
-28,096	9,548	1411,297	751,484
-27,082	9,493	1409,936	750,471
-26,067	9,520	1408,820	749,971
-25,052	9,587	1407,613	749,614
-24,038	9,542	1406,867	748,979
-23,023	9,562	1405,787	748,468
-22,009	9,521	1404,875	747,759
-20,994	9,509	1403,955	747,183
-19,979	9,522	1402,837	746,621
-18,965	9,518	1401,859	746,052
-17,950	9,487	1401,017	745,429
-16,936	9,468	1400,215	744,884
-15,921	9,383	1399,413	744,031
-14,906	9,430	1398,360	743,662
-13,892	9,498	1397,436	743,457
-12,877	9,480	1396,558	742,877
-11,863	9,452	1395,541	742,179
-10,848	9,398	1394,893	741,549
-9,833	9,364	1393,819	740,796
-8,819	9,355	1393,044	740,312
-7,804	9,350	1391,915	739,656
-6,790	9,364	1390,982	739,199
-5,775	9,339	1390,021	738,542
-4,760	9,349	1388,969	738,000
-3,746	9,375	1388,111	737,636
-2,731	9,332	1387,387	737,024
-1,717	9,314	1386,610	736,499
-0,702	9,325	1384,770	735,541
0,313	13,382	1297,008	707,450
1,327	29,492	687,650	411,489
2,342	46,155	118,831	77,493
3,356	0,650	16,570	8,332
4,371	-3,500	3,585	1,753
5,386	-31,832	1,241	0,488
6,400	-200,000	0,162	0,597
7,415	447,097	-0,147	-0,229
8,429	143,533	-0,225	-0,211
9,444	103,778	-0,287	-0,237
10,459	78,709	-0,270	-0,203
11,473	-10,576	-0,298	-0,139
12,488	-3,529	-0,310	-0,151
13,502	-57,937	-0,356	-0,109
14,517	71,380	-0,319	-0,233
15,531	-14,787	-0,438	-0,197
16,546	154,349	-0,270	-0,261
17,561	86,419	-0,345	-0,268
18,575	-55,034	-0,181	-0,057
19,590	43,797	-0,253	-0,163
20,604	-86,764	-0,242	-0,052
21,619	124,809	-0,364	-0,323
22,634	39,304	-0,527	-0,332
23,648	-57,683	-0,305	-0,094
24,663	45,404	-0,399	-0,259
25,677	73,455	-0,349	-0,257
26,692	67,901	-0,311	-0,223
27,707	70,886	-0,385	-0,280
28,721	133,373	-0,363	-0,330
29,736	85,569	-0,460	-0,355
30,750	139,001	-0,272	-0,252
31,765	68,010	-0,325	-0,234
32,780	66,438	-0,306	-0,218
33,794	121,733	-0,346	-0,304
34,809	-3,282	-0,416	-0,203
35,823	47,445	-0,426	-0,279
36,838	-4,643	-0,389	-0,188
37,853	95,155	-0,428	-0,342
38,867	379,740	-0,271	-0,392
39,882	-39,984	-0,504	-0,184
40,896	114,155	-0,341	-0,291
41,911	101,146	-0,289	-0,236
42,926	51,244	-0,328	-0,218
43,940	69,917	-0,320	-0,232
44,955	8,995	-0,384	-0,203
45,969	56,564	-0,385	-0,263
46,984	48,662	-0,398	-0,262
47,999	-6,879	-0,333	-0,158
49,013	-17,750	-0,190	-0,083
50,028	-33,104	-0,352	-0,136
51,042	2,355	-0,319	-0,162
52,057	-30,568	-0,312	-0,124
53,071	81,022	-0,464	-0,351
54,086	-35,093	-0,334	-0,127
55,101	11,387	-0,367	-0,197
56,115	-132,166	-0,361	0,032
57,130	-65,671	-0,199	-0,056
58,144	-56,871	-0,377	-0,116
59,159	171,549	-0,322	-0,324
60,174	421,311	-0,249	-0,377
61,188	-28,785	-0,343	-0,138
62,203	121,548	-0,335	-0,293
63,217	330,668	-0,181	-0,245
64,232	119,757	-0,331	-0,288
65,247	76,343	-0,297	-0,220
66,261	3,038	-0,365	-0,185
67,276	35,446	-0,374	-0,229
68,290	99,215	-0,282	-0,229
69,305	92,245	-0,339	-0,267
70,320	-138,550	-0,360	-0,027
71,334	-30,377	-0,416	-0,165
72,349	48,924	-0,301	-0,198
73,363	175,564	-0,288	-0,293
74,378	-17,569	-0,309	-0,136
75,393	-17,097	-0,286	-0,126
76,407	-48,640	-0,357	-0,120
77,422	-94,058	-0,433	-0,082
78,436	69,989	-0,285	-0,206
79,451	-4,865	-0,226	-0,109
80,466	-17,655	-0,417	-0,183
81,480	17,071	-0,210	-0,116
82,495	68,425	-0,231	-0,165
83,509	-41,674	-0,242	-0,087
84,524	1,312	-0,256	-0,129
85,539	83,253	-0,249	-0,190
86,553	15,897	-0,302	-0,166
87,568	28,862	-0,383	-0,227
88,582	228,116	-0,249	-0,285
89,597	120,032	-0,261	-0,227
90,611	-46,088	-0,362	-0,124
91,626	19,549	-0,253	-0,142
92,641	81,263	-0,188	-0,142
93,655	-70,233	-0,288	-0,076
94,670	-9,053	-0,400	-0,187
95,684	15,933	-0,282	-0,155
96,699	89,237	-0,286	-0,223
97,714	24,756	-0,343	-0,198
98,728	-56,320	-0,320	-0,099
99,743	443,911	-0,114	-0,176
100,757	216,025	-0,268	-0,298
101,772	-16,284	-0,321	-0,142
102,787	275,319	-0,248	-0,308
103,801	316,763	-0,245	-0,324
104,816	800,000	-0,147	-0,382
105,830	146,631	-0,206	-0,193
106,845	-86,978	-0,299	-0,063
107,860	196,582	-0,105	-0,112
108,874	-51,310	-0,276	-0,090
109,889	117,468	-0,185	-0,159
110,903	-24,861	-0,350	-0,145
111,918	392,372	-0,130	-0,189
112,933	81,463	-0,269	-0,203
113,947	-85,769	-0,290	-0,062
114,962	38,695	-0,270	-0,168
115,976	22,645	-0,344	-0,196
116,991	-23,567	-0,288	-0,120
118,006	220,225	-0,197	-0,221
119,020	-48,465	-0,234	-0,078
120,035	43,738	-0,279	-0,178
121,049	244,579	-0,184	-0,216
122,064	306,649	-0,179	-0,233
123,079	-15,909	-0,321	-0,142
124,093	33,294	-0,355	-0,215
125,108	141,346	-0,284	-0,263
126,122	263,761	-0,217	-0,263
127,137	122,739	-0,232	-0,203
128,151	136,252	-0,180	-0,164
129,166	162,921	-0,232	-0,228
130,181	74,411	-0,237	-0,174
131,195	41,159	-0,249	-0,156
132,210	5,802	-0,312	-0,161
133,224	800,000	-0,077	-0,205
134,239	62,970	-0,275	-0,191
135,254	106,799	-0,196	-0,162
136,268	50,353	-0,253	-0,166
137,283	0,785	-0,274	-0,136
138,297	22,370	-0,225	-0,128
139,312	4,306	-0,294	-0,150
140,327	-97,263	-0,297	-0,053
141,341	-92,825	-0,266	-0,051
142,356	-16,033	-0,158	-0,070
143,370	-17,458	-0,150	-0,066
144,385	-19,745	-0,256	-0,110
145,400	0,996	-0,310	-0,155
146,414	82,991	-0,189	-0,143
147,429	269,947	-0,148	-0,181
148,443	114,852	-0,204	-0,173
149,458	30,830	-0,252	-0,150
150,473	83,594	-0,261	-0,198
151,487	160,504	-0,070	-0,068
152,502	5,759	-0,236	-0,121
153,516	-28,506	-0,275	-0,110
154,531	45,014	-0,268	-0,171
155,546	-44,217	-0,319	-0,111
156,560	-17,508	-0,217	-0,095
157,575	237,119	-0,118	-0,136
158,589	48,614	-0,310	-0,202
159,604	202,593	-0,174	-0,187
160,619	24,342	-0,247	-0,141
161,633	-200,000	-0,104	-0,343
162,648	-51,875	-0,300	-0,097
163,662	-7,663	-0,124	-0,058
164,677	-59,871	-0,303	-0,090
165,692	196,203	-0,138	-0,147
166,706	511,416	-0,151	-0,246
167,721	97,539	-0,176	-0,140
168,735	158,079	-0,181	-0,174
169,750	102,253	-0,233	-0,189
170,764	139,048	-0,111	-0,101
171,779	-38,928	-0,247	-0,090
172,794	784,241	-0,079	-0,152
173,808	-104,785	-0,100	-0,016
174,823	800,000	-0,102	-0,209
175,837	-137,974	-0,265	0,020
176,852	-82,327	-0,254	-0,057
177,867	203,255	-0,181	-0,194
178,881	409,120	-0,176	-0,259
179,896	5,255	-0,202	-0,103
180,910	140,273	-0,194	-0,178
181,925	216,341	-0,211	-0,233
182,940	201,699	-0,272	-0,291
183,954	-200,000	-0,025	-0,085
184,969	183,648	-0,166	-0,170
185,983	-31,484	-0,142	-0,055
186,998	204,386	-0,088	-0,094
188,013	-35,164	-0,135	-0,051
189,027	99,859	-0,239	-0,192
190,042	26,008	-0,226	-0,130
191,056	36,662	-0,163	-0,100
192,071	800,000	-0,069	-0,152
193,086	-200,000	-0,073	-0,245
194,100	-144,716	-0,155	0,010
195,115	404,363	-0,218	-0,319
196,129	244,110	-0,239	-0,279
197,144	94,489	-0,400	-0,315
198,159	216,318	-0,219	-0,242
199,173	800,000	-0,068	-0,193
200,188	436,692	-0,173	-0,262
201,202	309,583	-0,154	-0,200
202,217	65,412	-0,113	-0,079
203,232	781,301	-0,112	-0,213
204,246	18,469	-0,285	-0,158
205,261	-76,180	-0,280	0,068
206,275	103,956	-0,188	-0,153
207,290	-78,868	-0,123	-0,029
208,304	11,678	-0,080	-0,043
209,319	-29,112	-0,171	-0,068
210,334	145,347	-0,242	-0,224
211,348	81,239	-0,161	-0,120
212,363	364,349	-0,115	-0,161
213,377	355,790	-0,119	-0,165
214,392	249,162	-0,168	-0,197
215,407	-111,319	-0,250	-0,035
216,421	-128,422	-0,092	-0,009
217,436	258,043	-0,136	-0,162
218,450	113,994	-0,160	-0,135
219,465	2,910	-0,183	-0,092
220,480	87,376	-0,211	-0,162
221,494	96,092	-0,180	-0,142
222,509	735,401	-0,068	-0,127
223,523	544,062	-0,127	-0,211
224,538	103,795	-0,169	-0,137
225,553	-200,000	-0,047	-0,207
226,567	-55,448	-0,256	-0,079
227,582	310,928	-0,124	-0,161
228,596	35,090	-0,125	-0,076
229,611	111,203	-0,062	-0,052
230,626	-87,931	-0,225	-0,046
231,640	-50,996	-0,202	-0,065
232,655	-124,778	-0,102	-0,011
233,669	82,161	-0,142	-0,106
234,684	38,623	-0,284	-0,175
235,699	705,764	-0,114	-0,209
236,713	186,798	-0,096	-0,099
237,728	200,935	-0,099	-0,106
238,742	298,097	-0,103	-0,131
239,757	209,017	-0,243	-0,263
240,772	110,588	-0,120	-0,100
241,786	-113,628	-0,242	-0,032
242,801	-19,749	-0,093	-0,040
243,815	160,294	-0,105	-0,101
244,830	303,067	-0,084	-0,108
245,844	22,786	-0,161	-0,091
246,859	103,334	-0,235	-0,190
247,874	24,454	-0,252	-0,144
248,888	191,788	-0,236	-0,245
249,903	-64,518	-0,178	-0,049
250,917	390,724	-0,092	-0,133
251,932	-19,399	-0,172	-0,073
252,947	127,042	-0,172	-0,151
253,961	4,308	-0,150	-0,075
254,976	220,777	-0,205	-0,228
255,990	71,262	-0,161	-0,115
257,005	245,426	-0,163	-0,189
258,020	313,134	-0,182	-0,236
259,034	69,207	-0,099	-0,070
260,049	146,641	-0,120	-0,112
261,063	137,451	-0,116	-0,105
262,078	663,087	-0,133	-0,238
263,093	41,518	-0,158	-0,098
264,107	251,947	-0,200	-0,236
265,122	-69,942	-0,165	-0,043
266,136	-87,301	-0,220	-0,046
267,151	-155,865	-0,313	-0,013
268,166	-56,038	-0,213	-0,065
269,180	21,418	-0,327	-0,183
270,195	-60,732	-0,255	-0,074
271,209	-132,819	-0,211	-0,018
272,224	87,867	-0,132	-0,100
273,239	-136,436	-0,155	0,012
274,253	-149,096	-0,239	0,013
275,268	-38,242	-0,089	-0,032
276,282	44,070	-0,254	-0,160
277,297	-63,241	-0,157	-0,044
278,312	-111,166	-0,211	-0,029
279,326	157,895	-0,051	-0,049
280,341	-181,498	-0,108	0,001
281,355	526,627	-0,058	-0,094
282,370	-77,475	-0,207	-0,049
283,384	-3,492	-0,212	-0,101
284,399	89,245	-0,179	-0,137
285,414	192,330	-0,174	-0,181
286,428	800,000	-0,107	-0,212
287,443	460,184	-0,104	-0,160
288,457	-72,979	-0,083	-0,021
289,472	-108,520	-0,167	-0,024
290,487	187,203	-0,161	-0,166
291,501	-165,980	-0,108	-0,003
292,516	44,013	-0,167	-0,105
293,530	517,213	-0,045	-0,072
294,545	800,000	-0,052	-0,116
295,560	-200,000	-0,025	-0,222
296,574	-122,418	-0,251	0,028
297,589	100,562	-0,205	-0,164
298,603	523,065	-0,169	-0,274
299,618	-19,662	-0,162	-0,069
300,633	-57,006	-0,145	-0,044
301,647	-43,430	-0,099	-0,034
302,662	-44,516	-0,201	-0,069
303,676	-89,339	-0,213	-0,043
304,691	-137,488	-0,181	-0,014
305,706	169,301	-0,124	-0,121
306,720	8,968	-0,080	-0,041
307,735	364,022	-0,148	-0,205
308,749	800,000	-0,038	-0,103
309,764	-200,000	0,006	0,119
310,779	-57,653	-0,194	-0,058
311,793	250,351	-0,083	-0,097
312,808	800,000	-0,060	-0,134
313,822	8,853	-0,127	-0,066
314,837	126,316	-0,192	-0,167
315,852	-200,000	-0,043	-0,168
316,866	515,960	-0,101	-0,162
317,881	-113,362	-0,148	-0,020
318,895	177,519	-0,174	-0,174
319,910	51,974	-0,122	-0,079
320,925	71,458	-0,153	-0,109
321,939	282,685	-0,066	-0,082
322,954	800,000	-0,074	-0,174
323,968	82,352	-0,115	-0,086
324,983	109,060	-0,165	-0,135
325,997	15,345	-0,176	-0,094
327,012	621,219	-0,085	-0,147
328,027	316,961	-0,191	-0,248
329,041	-7,595	-0,046	-0,021
330,056	168,990	-0,146	-0,143
331,070	48,985	-0,178	-0,114
332,085	800,000	-0,046	-0,089
333,100	-200,000	-0,036	-0,178
334,114	800,000	-0,087	-0,196
335,129	48,472	-0,135	-0,086
336,143	-76,078	-0,256	-0,061
337,158	800,000	-0,032	0,092
338,173	-200,000	-0,010	0,045
339,187	29,122	-0,151	-0,088
340,202	595,076	-0,134	-0,228
341,216	132,428	-0,117	-0,103
342,231	675,025	-0,048	-0,086
343,246	82,314	-0,270	-0,200
344,260	283,052	-0,123	-0,152
345,275	173,186	-0,079	0,078
346,289	162,741	-0,075	-0,072
347,304	382,898	-0,065	-0,092
348,319	-123,459	-0,169	-0,018
349,333	1,566	-0,176	-0,087
350,348	395,136	-0,087	-0,124
351,362	-140,944	-0,125	-0,009
352,377	663,780	-0,048	-0,085
353,392	-1,886	-0,164	-0,079
354,406	50,487	-0,174	-0,112
355,421	206,226	1310,823	1396,708
356,435	158,592	1471,038	1397,176
