DTS Sentinel unit serial number:	SN410029Multiplexer serial number:	ORYXHardware model number:	OX2-SRSoftware version number:	ORYX F/W v4,00 Oryx Data Collector v3.7.2.0data status	okinstallation	B3 Nyhavnadifferential loss correction	single-endedforward channel	channel 1reverse channel	N/Adate	2023/12/03time	13:52:30forward acquisition time	300,00reverse acquisition time	0,00gamma	499,1914k internal	0,3199k external	0,3199temperature offset calibration	1,0000default loss term (dB/km)	0,3820temperature slope calibration	1,0000multiplexer offset coefficient	1,0000multiplexer slope coefficient	1,0000fibre end	0,00T internal ref (°C)	15,41T ext. ref 1 (°C)	1,51T ext. ref 2 (°C)	1,50length (m)	temperature (°C)	Stokes	anti-Stokes-744,400	30,418	-0,240	-0,149
-743,385	800,000	0,074	0,204
-742,371	146,794	-0,171	-0,167
-741,356	-200,000	-0,000	0,180
-740,342	155,241	-0,248	-0,249
-739,327	-200,000	0,022	0,351
-738,312	-42,408	-0,334	-0,123
-737,298	-200,000	0,048	0,188
-736,283	726,428	-0,096	-0,187
-735,269	-200,000	-0,067	0,268
-734,254	61,242	-0,235	-0,170
-733,239	26,985	-0,312	0,190
-732,225	800,000	-0,095	-0,245
-731,210	-162,778	0,076	-0,003
-730,196	20,133	0,145	-0,085
-729,181	592,977	-0,059	0,107
-728,167	230,487	-0,111	-0,132
-727,152	283,605	-0,036	0,047
-726,137	800,000	0,034	-0,106
-725,123	135,655	-0,084	-0,079
-724,108	-200,000	0,001	-0,062
-723,094	22,868	-0,167	-0,100
-722,079	800,000	-0,054	-0,121
-721,064	-68,567	-0,082	0,023
-720,050	-32,150	0,033	-0,013
-719,035	-200,000	0,003	-0,084
-718,021	-165,670	-0,070	-0,002
-717,006	132,010	-0,027	0,026
-715,991	-153,264	-0,151	-0,008
-714,977	-200,000	0,009	0,056
-713,962	54,168	-0,027	0,019
-712,948	36,003	-0,024	0,015
-711,933	-200,000	0,006	0,054
-710,918	-200,000	-0,028	0,096
-709,904	447,742	-0,079	-0,127
-708,889	800,000	0,054	-0,157
-707,875	-43,939	-0,086	0,031
-706,860	366,092	0,009	-0,013
-705,845	-97,690	0,140	-0,026
-704,831	486,257	-0,035	-0,059
-703,816	281,591	-0,056	0,073
-702,802	46,402	-0,119	-0,080
-701,787	314,003	-0,075	-0,103
-700,772	-100,545	0,087	0,015
-699,758	-39,415	-0,084	-0,032
-698,743	552,073	-0,020	-0,035
-697,729	56,757	0,210	0,148
-696,714	152,777	-0,104	0,103
-695,699	-63,907	0,075	-0,022
-694,685	-200,000	0,047	0,215
-693,670	80,875	-0,073	-0,057
-692,656	-200,000	0,038	-0,129
-691,641	-133,441	0,055	-0,005
-690,627	-163,643	-0,059	0,002
-689,612	77,932	0,082	0,064
-688,597	257,040	0,056	-0,070
-687,583	532,308	-0,023	-0,040
-686,568	656,003	-0,044	0,083
-685,554	-115,545	-0,160	-0,022
-684,539	-200,000	-0,010	-0,047
-683,524	-200,000	0,030	0,115
-682,510	18,177	0,034	0,019
-681,495	752,894	0,035	0,068
-680,481	303,442	-0,049	-0,066
-679,466	-200,000	0,010	-0,095
-678,451	-29,561	-0,067	0,028
-677,437	-121,356	0,064	0,008
-676,422	269,319	0,041	-0,053
-675,408	-60,298	0,064	0,020
-674,393	18,079	-0,112	0,065
-673,378	610,009	0,042	-0,076
-672,364	134,964	-0,040	-0,038
-671,349	269,991	0,070	0,089
-670,335	-200,000	-0,009	-0,044
-669,320	800,000	-0,023	-0,048
-668,305	472,063	-0,017	0,028
-667,291	6,943	-0,070	0,038
-666,276	68,533	-0,045	0,034
-665,262	-200,000	-0,008	0,127
-664,247	-200,000	0,003	-0,036
-663,232	-132,828	0,150	0,014
-662,218	-200,000	0,004	0,152
-661,203	132,921	0,059	0,056
-660,189	-25,332	0,016	-0,007
-659,174	224,141	-0,122	-0,143
-658,159	800,000	-0,047	0,100
-657,145	27,588	0,034	0,021
-656,130	51,754	0,056	-0,039
-655,116	182,614	-0,016	-0,017
-654,101	-197,452	0,112	-0,000
-653,086	-33,974	-0,023	0,009
-652,072	-200,000	0,002	-0,053
-651,057	306,635	-0,006	-0,009
-650,043	747,062	0,021	-0,041
-649,028	98,466	0,045	-0,038
-648,014	-120,198	-0,111	0,014
-646,999	800,000	0,016	0,033
-645,984	-200,000	-0,012	0,130
-644,970	-200,000	-0,023	-0,159
-643,955	172,693	-0,106	-0,110
-642,941	327,987	-0,047	-0,066
-641,926	-200,000	0,001	-0,014
-640,911	-6,525	-0,152	0,075
-639,897	-84,825	-0,083	0,019
-638,882	-75,311	0,064	0,016
-637,868	-30,646	0,091	0,037
-636,853	-68,129	-0,059	-0,017
-635,838	-200,000	-0,002	-0,204
-634,824	108,019	-0,011	-0,009
-633,809	-200,000	0,037	-0,146
-632,795	41,363	-0,036	0,023
-631,780	-0,852	0,031	-0,016
-630,765	-200,000	0,007	-0,067
-629,751	-12,882	-0,035	-0,017
-628,736	-200,000	-0,001	-0,155
-627,722	-200,000	0,010	-0,157
-626,707	-53,127	0,064	0,021
-625,692	289,813	-0,080	0,106
-624,678	-200,000	-0,005	0,068
-623,663	-172,054	-0,012	0,000
-622,649	126,377	0,019	0,017
-621,634	-81,545	-0,098	-0,023
-620,619	-200,000	-0,008	0,125
-619,605	800,000	-0,022	-0,046
-618,590	-169,933	0,035	0,001
-617,576	-200,000	0,010	-0,038
-616,561	-200,000	-0,012	-0,049
-615,546	-2,349	0,076	0,038
-614,532	540,372	-0,036	0,063
-613,517	-4,508	-0,068	0,034
-612,503	-200,000	-0,012	0,220
-611,488	-81,882	0,118	-0,028
-610,474	-96,100	0,044	0,008
-609,459	413,119	-0,047	0,073
-608,444	29,869	-0,018	-0,011
-607,430	676,808	-0,069	-0,130
-606,415	145,970	0,064	-0,062
-605,401	256,473	0,044	-0,055
-604,386	-200,000	0,021	0,197
-603,371	87,948	0,075	-0,060
-602,357	46,902	-0,078	-0,053
-601,342	-75,556	-0,174	-0,044
-600,328	52,789	-0,059	0,041
-599,313	-81,569	0,041	0,010
-598,298	-200,000	0,019	-0,066
-597,284	-96,031	0,051	-0,010
-596,269	297,795	0,039	0,052
-595,255	-200,000	0,011	0,071
-594,240	-165,850	-0,121	0,004
-593,225	800,000	-0,046	-0,096
-592,211	-53,393	0,001	-0,000
-591,196	800,000	0,037	0,078
-590,182	161,837	0,048	-0,049
-589,167	-0,870	0,008	0,004
-588,152	67,923	0,128	-0,095
-587,138	-20,144	0,114	-0,051
-586,123	800,000	0,048	-0,112
-585,109	-200,000	-0,003	-0,117
-584,094	-146,600	0,009	0,001
-583,079	-47,019	0,091	0,032
-582,065	65,394	0,034	0,025
-581,050	8,423	0,110	0,060
-580,036	-152,051	0,082	0,004
-579,021	-200,000	-0,004	-0,065
-578,006	-200,000	0,001	-0,011
-576,992	-200,000	0,001	0,044
-575,977	-120,776	0,036	-0,004
-574,963	376,092	0,080	0,119
-573,948	-35,651	0,013	-0,005
-572,934	800,000	0,081	0,199
-571,919	-200,000	0,003	-0,091
-570,904	-176,098	-0,177	-0,003
-569,890	-11,818	-0,090	-0,042
-568,875	800,000	0,046	-0,132
-567,861	332,476	0,047	-0,065
-566,846	670,602	0,036	0,068
-565,831	24,077	-0,019	0,011
-564,817	-13,567	-0,049	0,023
-563,802	-200,000	0,006	0,051
-562,788	-155,459	-0,142	-0,007
-561,773	680,050	-0,013	-0,025
-560,758	-126,006	0,060	0,006
-559,744	-60,458	0,064	0,020
-558,729	-134,899	0,084	0,007
-557,715	-200,000	0,008	0,055
-556,700	-200,000	-0,013	-0,106
-555,685	-64,149	-0,049	0,014
-554,671	690,967	0,036	0,069
-553,656	271,961	0,085	-0,109
-552,642	-200,000	-0,007	0,048
-551,627	-200,000	-0,009	0,042
-550,612	559,286	0,050	-0,088
-549,598	800,000	-0,071	-0,152
-548,583	800,000	0,013	0,028
-547,569	-200,000	0,001	-0,041
-546,554	-149,704	-0,117	0,007
-545,539	-64,482	0,185	-0,054
-544,525	156,627	-0,068	0,068
-543,510	-200,000	-0,040	-0,168
-542,496	276,017	-0,066	-0,085
-541,481	-108,595	0,164	0,025
-540,466	-95,559	0,050	0,010
-539,452	-7,232	0,095	0,046
-538,437	-163,533	0,140	-0,005
-537,423	-200,000	0,001	-0,021
-536,408	16,681	0,118	0,067
-535,393	323,758	0,055	-0,076
-534,379	79,010	-0,054	0,042
-533,364	-103,265	-0,106	0,018
-532,350	307,542	0,055	0,074
-531,335	745,171	0,035	0,067
-530,321	23,054	0,053	0,031
-529,306	-200,000	-0,030	0,109
-528,291	12,936	-0,057	0,031
-527,277	-133,716	0,066	-0,006
-526,262	96,706	-0,077	-0,064
-525,248	800,000	0,061	0,139
-524,233	290,753	0,061	0,081
-523,218	-200,000	-0,007	0,034
-522,204	192,725	0,095	0,104
-521,189	143,704	0,098	0,094
-520,175	-200,000	-0,038	0,132
-519,160	-200,000	0,002	0,088
-518,145	390,564	0,071	0,106
-517,131	148,460	-0,074	0,072
-516,116	800,000	0,023	-0,067
-515,102	-71,515	0,119	0,032
-514,087	280,485	-0,017	-0,022
-513,072	-200,000	-0,023	-0,101
-512,058	-33,934	-0,159	-0,063
-511,043	200,722	0,179	0,199
-510,029	-73,867	-0,146	-0,038
-509,014	800,000	-0,042	0,104
-507,999	-53,098	-0,047	-0,015
-506,985	-40,793	-0,076	-0,028
-505,970	170,173	0,020	0,021
-504,956	440,451	-0,077	-0,121
-503,941	363,006	0,110	-0,160
-502,926	28,771	-0,050	0,031
-501,912	164,376	-0,081	0,082
-500,897	159,567	-0,066	-0,066
-499,883	-200,000	-0,019	-0,087
-498,868	-28,987	-0,077	-0,032
-497,853	-200,000	-0,014	-0,126
-496,839	-121,413	0,010	0,001
-495,824	59,555	0,026	0,018
-494,810	800,000	0,027	0,066
-493,795	800,000	-0,023	-0,064
-492,781	309,351	-0,082	-0,111
-491,766	-10,627	0,018	0,009
-490,751	-200,000	-0,016	0,065
-489,737	5,034	-0,047	-0,025
-488,722	342,487	-0,128	-0,182
-487,708	-200,000	0,004	-0,084
-486,693	-200,000	-0,045	0,217
-485,678	-14,196	-0,033	0,015
-484,664	652,056	0,035	0,065
-483,649	800,000	-0,026	-0,067
-482,635	770,556	0,036	0,070
-481,620	101,691	0,026	0,021
-480,605	800,000	-0,094	0,270
-479,591	800,000	0,043	0,119
-478,576	33,084	0,060	-0,037
-477,562	49,181	-0,137	0,092
-476,547	-200,000	0,010	0,092
-475,532	-200,000	0,007	-0,091
-474,518	-200,000	0,004	-0,087
-473,503	168,578	0,032	0,033
-472,489	348,419	-0,126	0,179
-471,474	800,000	0,072	0,204
-470,459	800,000	0,028	-0,068
-469,445	-72,206	0,016	-0,004
-468,430	-200,000	0,002	-0,018
-467,416	724,210	0,008	0,015
-466,401	27,716	-0,113	0,068
-465,386	25,299	-0,057	-0,034
-464,372	684,591	-0,032	-0,061
-463,357	8,176	0,085	0,046
-462,343	60,445	-0,081	-0,057
-461,328	-88,969	-0,151	-0,032
-460,313	-48,244	-0,154	-0,053
-459,299	79,586	-0,064	0,049
-458,284	-75,672	0,129	0,033
-457,270	468,223	0,030	0,049
-456,255	366,831	0,068	0,100
-455,241	538,202	-0,021	0,035
-454,226	800,000	0,046	0,103
-453,211	-57,878	-0,085	0,027
-452,197	-200,000	0,020	0,103
-451,182	-101,129	-0,093	0,016
-450,168	-200,000	0,006	-0,031
-449,153	322,519	0,038	-0,052
-448,138	406,677	-0,005	0,008
-447,124	311,318	0,021	0,029
-446,109	-200,000	0,019	-0,062
-445,095	318,062	0,059	-0,080
-444,080	-61,437	0,141	0,042
-443,065	-200,000	-0,004	-0,051
-442,051	40,794	-0,081	-0,052
-441,036	-141,936	-0,080	-0,006
-440,022	-158,356	-0,152	-0,006
-439,007	372,668	0,033	0,049
-437,992	287,997	0,126	0,164
-436,978	252,858	0,087	0,107
-435,963	56,971	-0,147	-0,103
-434,949	800,000	0,023	0,047
-433,934	-131,300	0,112	-0,011
-432,919	-95,332	-0,199	-0,038
-431,905	63,702	0,136	-0,098
-430,890	636,495	0,047	0,086
-429,876	-200,000	-0,025	0,112
-428,861	-11,260	0,129	0,061
-427,846	-200,000	-0,013	-0,077
-426,832	120,710	0,061	-0,054
-425,817	152,227	-0,149	-0,146
-424,803	-200,000	0,011	-0,081
-423,788	-68,119	-0,052	0,014
-422,773	-79,037	0,101	-0,025
-421,759	-45,210	-0,061	0,022
-420,744	-105,202	-0,040	-0,007
-419,730	-200,000	-0,011	0,077
-418,715	112,766	-0,055	0,048
-417,701	34,037	-0,071	-0,044
-416,686	33,625	0,144	-0,090
-415,671	-63,451	-0,024	0,007
-414,657	-200,000	0,007	0,088
-413,642	-200,000	0,009	0,049
-412,628	32,068	0,150	-0,093
-411,613	48,991	-0,072	0,049
-410,598	-200,000	0,020	-0,094
-409,584	-44,717	-0,045	0,016
-408,569	-64,065	0,087	0,025
-407,555	800,000	0,041	-0,084
-406,540	-200,000	0,017	0,104
-405,525	76,362	-0,123	0,093
-404,511	-200,000	0,015	-0,126
-403,496	323,061	0,017	-0,024
-402,482	-138,423	0,084	0,007
-401,467	-65,298	0,166	-0,048
-400,452	-2,844	-0,083	0,041
-399,438	-200,000	-0,022	0,118
-398,423	661,620	0,034	-0,064
-397,409	90,041	-0,110	-0,088
-396,394	72,090	0,129	-0,096
-395,379	-191,321	0,059	-0,000
-394,365	800,000	0,026	-0,078
-393,350	-200,000	0,002	0,070
-392,336	-34,612	0,072	-0,028
-391,321	800,000	-0,055	0,110
-390,306	190,124	-0,082	-0,088
-389,292	113,125	0,044	-0,038
-388,277	686,801	0,030	-0,056
-387,263	-76,666	0,022	-0,005
-386,248	-200,000	0,028	0,093
-385,233	-57,751	0,125	0,039
-384,219	56,530	-0,057	-0,040
-383,204	296,342	-0,080	-0,106
-382,190	-67,098	-0,095	0,027
-381,175	395,117	-0,114	0,172
-380,160	800,000	0,013	-0,031
-379,146	222,856	0,103	0,119
-378,131	-45,877	0,038	0,013
-377,117	578,003	-0,037	0,064
-376,102	149,582	-0,036	-0,035
-375,088	41,908	-0,132	-0,086
-374,073	-181,076	-0,096	0,001
-373,058	707,265	0,049	-0,093
-372,044	218,472	0,119	0,136
-371,029	-200,000	0,003	0,106
-370,015	-200,000	-0,017	0,127
-369,000	87,930	0,169	0,134
-367,985	800,000	0,013	0,031
-366,971	-87,971	-0,085	0,018
-365,956	102,791	0,025	0,021
-364,942	-113,509	-0,035	-0,005
-363,927	-200,000	-0,018	0,058
-362,912	-200,000	0,001	-0,105
-361,898	800,000	0,029	-0,080
-360,883	-200,000	0,007	-0,126
-359,869	333,592	0,047	-0,065
-358,854	-167,819	0,051	0,001
-357,839	-131,563	0,104	0,010
-356,825	-200,000	-0,007	-0,090
-355,810	547,663	0,041	0,071
-354,796	217,840	-0,104	-0,119
-353,781	-200,000	-0,016	-0,073
-352,766	-200,000	-0,004	-0,075
-351,752	800,000	-0,018	-0,049
-350,737	-200,000	0,010	0,079
-349,723	-110,463	0,236	-0,035
-348,708	31,522	-0,171	-0,105
-347,693	-48,170	-0,103	0,035
-346,679	-200,000	0,004	-0,111
-345,664	800,000	0,067	-0,144
-344,650	-63,519	0,100	-0,029
-343,635	-67,269	0,150	0,042
-342,620	73,876	-0,028	-0,021
-341,606	563,409	-0,023	0,039
-340,591	-125,911	0,087	-0,009
-339,577	-110,543	-0,066	-0,010
-338,562	-200,000	0,049	-0,196
-337,548	-27,881	-0,076	-0,031
-336,533	95,847	0,090	0,074
-335,518	468,555	0,018	-0,028
-334,504	20,047	0,131	0,075
-333,489	-90,648	0,113	0,023
-332,475	-200,000	-0,011	0,036
-331,460	-9,900	-0,076	-0,036
-330,445	11,363	-0,071	-0,039
-329,431	-126,173	0,215	0,023
-328,416	-158,960	-0,148	-0,006
-327,402	488,294	0,052	0,085
-326,387	352,253	-0,037	0,053
-325,372	172,925	-0,133	-0,137
-324,358	-25,238	-0,099	-0,042
-323,343	-63,524	-0,053	-0,016
-322,329	101,078	0,041	-0,034
-321,314	-200,000	0,015	0,128
-320,299	79,660	0,049	-0,037
-319,285	165,564	-0,107	-0,108
-318,270	-80,446	-0,149	-0,035
-317,256	-165,470	-0,150	-0,005
-316,241	-200,000	-0,003	-0,055
-315,226	-28,215	0,160	-0,066
-314,212	28,889	0,084	-0,051
-313,197	15,081	-0,033	0,019
-312,183	800,000	0,019	0,039
-311,168	800,000	0,059	0,166
-310,153	800,000	-0,069	-0,152
-309,139	8,470	0,105	-0,057
-308,124	25,741	0,112	-0,067
-307,110	-116,420	-0,086	-0,011
-306,095	64,515	0,113	0,082
-305,080	800,000	-0,027	0,073
-304,066	-76,197	-0,066	0,017
-303,051	170,660	-0,029	0,029
-302,037	-21,671	0,068	0,030
-301,022	-5,647	0,087	-0,043
-300,008	94,197	0,102	-0,083
-298,993	218,468	0,090	-0,103
-297,978	26,977	-0,064	-0,038
-296,964	-92,404	-0,058	0,011
-295,949	-68,409	-0,154	0,043
-294,935	-200,000	0,004	0,063
-293,920	154,304	0,082	0,081
-292,905	82,223	0,034	0,027
-291,891	-200,000	0,029	0,164
-290,876	-200,000	-0,006	-0,040
-289,862	230,344	-0,024	-0,028
-288,847	-200,000	-0,007	0,042
-287,832	-200,000	0,010	-0,194
-286,818	-200,000	-0,017	-0,212
-285,803	37,974	0,086	0,055
-284,789	-200,000	0,019	0,151
-283,774	76,928	0,078	0,059
-282,759	-57,880	-0,077	-0,024
-281,745	125,726	0,077	-0,069
-280,730	90,578	-0,090	-0,072
-279,716	800,000	-0,061	-0,144
-278,701	800,000	0,011	-0,031
-277,686	268,662	-0,102	-0,128
-276,672	38,916	-0,141	0,090
-275,657	-56,184	-0,046	0,014
-274,643	141,874	-0,039	-0,037
-273,628	358,535	0,031	-0,044
-272,613	13,488	0,108	-0,060
-271,599	-90,871	0,227	0,046
-270,584	24,900	0,073	0,043
-269,570	-3,966	-0,074	-0,037
-268,555	-200,000	-0,000	0,140
-267,540	-103,675	-0,151	-0,025
-266,526	40,791	-0,085	-0,055
-265,511	243,642	-0,033	-0,039
-264,497	325,040	0,090	-0,123
-263,482	-35,650	0,132	0,051
-262,467	-92,549	-0,042	0,008
-261,453	-200,000	0,009	0,076
-260,438	773,913	-0,056	-0,109
-259,424	-200,000	-0,020	-0,086
-258,409	-139,715	0,116	-0,009
-257,395	502,524	-0,040	0,066
-256,380	182,256	-0,076	0,080
-255,365	-82,056	0,051	0,012
-254,351	265,516	0,074	-0,092
-253,336	696,070	-0,053	-0,101
-252,322	-44,880	-0,110	-0,039
-251,307	-32,247	0,160	0,064
-250,292	-110,040	0,125	-0,018
-249,278	-33,747	-0,173	-0,068
-248,263	536,910	-0,018	0,031
-247,249	-37,088	-0,064	-0,024
-246,234	-36,918	-0,159	0,061
-245,219	238,431	-0,078	0,093
-244,205	88,082	-0,012	-0,010
-243,190	180,413	-0,038	0,039
-242,176	-200,000	-0,004	-0,039
-241,161	368,985	-0,071	-0,103
-240,146	800,000	0,049	0,146
-239,132	-200,000	-0,005	0,164
-238,117	35,116	-0,150	-0,094
-237,103	-200,000	-0,014	-0,050
-236,088	265,849	-0,030	0,038
-235,073	60,057	-0,052	0,036
-234,059	-24,153	-0,093	0,039
-233,044	800,000	-0,012	-0,036
-232,030	-36,223	-0,113	0,043
-231,015	-152,151	-0,076	-0,004
-230,000	53,166	-0,047	0,032
-228,986	-98,782	0,071	0,013
-227,971	-12,869	0,151	0,070
-226,957	-134,884	-0,021	-0,002
-225,942	187,066	0,020	-0,022
-224,927	651,836	-0,086	-0,158
-223,913	-200,000	-0,016	0,110
-222,898	424,664	0,025	-0,039
-221,884	179,435	0,065	0,068
-220,869	68,767	0,140	0,103
-219,855	142,005	0,054	0,051
-218,840	-200,000	-0,011	-0,035
-217,825	-200,000	0,005	-0,053
-216,811	289,999	-0,082	-0,106
-215,796	-200,000	0,011	-0,090
-214,782	616,380	0,085	-0,153
-213,767	198,885	-0,047	0,052
-212,752	91,062	0,138	0,110
-211,738	143,938	-0,009	0,009
-210,723	61,833	-0,046	-0,032
-209,709	366,618	-0,066	-0,096
-208,694	-152,141	-0,097	-0,005
-207,679	140,894	0,139	-0,131
-206,665	303,466	-0,057	0,075
-205,650	99,464	0,062	-0,051
-204,636	111,300	0,062	-0,053
-203,621	-200,000	-0,013	-0,063
-202,606	800,000	0,046	-0,091
-201,592	192,265	-0,051	0,054
-200,577	325,449	-0,063	0,087
-199,563	-12,663	-0,167	0,077
-198,548	285,885	-0,065	-0,083
-197,533	-200,000	0,016	-0,059
-196,519	-200,000	0,038	-0,165
-195,504	-200,000	0,020	-0,142
-194,490	-130,634	0,050	0,005
-193,475	800,000	-0,019	0,043
-192,460	-35,095	0,054	-0,021
-191,446	-119,479	0,111	0,014
-190,431	85,775	-0,052	0,041
-189,417	-200,000	-0,014	0,101
-188,402	680,074	0,039	-0,073
-187,387	-200,000	-0,005	0,152
-186,373	485,746	-0,081	0,131
-185,358	-200,000	-0,045	0,144
-184,344	3,066	-0,057	0,030
-183,329	574,758	-0,024	-0,043
-182,315	-200,000	-0,005	0,079
-181,300	-26,519	0,054	0,023
-180,285	-200,000	-0,008	-0,050
-179,271	-45,308	-0,069	0,024
-178,256	-200,000	-0,028	0,196
-177,242	68,415	-0,046	-0,033
-176,227	800,000	0,064	0,135
-175,212	-200,000	-0,043	0,203
-174,198	-200,000	0,031	0,204
-173,183	654,990	0,068	-0,124
-172,169	-113,020	0,130	-0,018
-171,154	-77,025	-0,199	-0,049
-170,139	-67,941	0,060	-0,017
-169,125	168,665	-0,035	-0,035
-168,110	-81,314	0,112	0,026
-167,096	701,175	-0,042	0,079
-166,081	-200,000	-0,002	0,041
-165,066	22,321	-0,122	0,071
-164,052	672,339	-0,032	0,059
-163,037	-128,668	0,126	-0,012
-162,023	-200,000	-0,008	-0,112
-161,008	800,000	-0,013	0,036
-159,993	128,245	0,102	-0,092
-158,979	-200,000	-0,040	0,131
-157,964	-200,000	-0,003	-0,016
-156,950	800,000	0,017	-0,045
-155,935	-2,754	0,025	-0,012
-154,920	336,433	-0,012	0,016
-153,906	443,696	0,051	0,081
-152,891	2,506	-0,038	-0,019
-151,877	315,370	-0,024	-0,033
-150,862	-174,743	-0,074	0,001
-149,847	50,306	-0,060	-0,041
-148,833	-200,000	-0,027	-0,151
-147,818	32,598	0,132	-0,081
-146,804	-100,800	-0,145	0,025
-145,789	-200,000	0,048	-0,152
-144,775	-112,236	0,155	-0,022
-143,760	-51,498	-0,112	0,037
-142,745	-122,953	-0,064	0,007
-141,731	800,000	0,044	0,113
-140,716	-166,358	0,083	-0,002
-139,702	302,115	-0,067	0,088
-138,687	-42,904	0,110	-0,039
-137,672	-94,812	-0,100	0,019
-136,658	-200,000	0,029	-0,207
-135,643	-197,015	-0,051	0,000
-134,629	-44,809	0,047	0,017
-133,614	88,007	-0,053	0,042
-132,599	800,000	0,048	-0,110
-131,585	800,000	0,022	0,056
-130,570	-19,640	0,083	0,036
-129,556	-200,000	-0,010	-0,056
-128,541	276,870	-0,076	-0,097
-127,526	-200,000	0,000	-0,078
-126,512	31,608	-0,077	-0,047
-125,497	-72,494	-0,127	0,033
-124,483	-200,000	-0,040	0,155
-123,468	800,000	-0,043	0,095
-122,453	663,222	0,035	-0,064
-121,439	-13,661	-0,077	0,035
-120,424	117,548	-0,033	-0,029
-119,410	-200,000	0,010	0,068
-118,395	-63,046	-0,071	-0,021
-117,380	260,762	0,072	-0,088
-116,366	-200,000	-0,002	0,099
-115,351	-119,321	0,032	-0,004
-114,337	-48,517	-0,111	-0,038
-113,322	-48,626	-0,095	0,032
-112,307	-200,000	0,013	0,163
-111,293	17,529	-0,047	-0,026
-110,278	-85,260	0,018	0,004
-109,264	-200,000	0,029	0,153
-108,249	-200,000	-0,007	-0,220
-107,234	-61,144	-0,062	-0,018
-106,220	490,667	-0,084	-0,138
-105,205	-104,156	0,133	0,022
-104,191	167,136	0,065	-0,066
-103,176	289,744	-0,055	0,071
-102,162	-65,909	-0,145	-0,041
-101,147	42,925	-0,084	0,054
-100,132	728,667	-0,029	-0,055
-99,118	800,000	-0,074	-0,179
-98,103	496,781	-0,078	-0,127
-97,089	-38,873	0,046	-0,017
-96,074	-51,626	0,050	0,017
-95,059	-130,647	-0,046	0,004
-94,045	219,289	-0,046	0,053
-93,030	800,000	0,037	-0,094
-92,016	800,000	-0,020	-0,046
-91,001	260,477	0,033	0,040
-89,986	-126,882	-0,128	0,013
-88,972	-102,287	0,161	0,027
-87,957	0,311	0,111	-0,056
-86,943	67,811	0,059	-0,043
-85,928	-114,078	0,068	0,009
-84,913	204,148	-0,025	0,027
-83,899	15,091	-0,140	0,077
-82,884	97,874	-0,083	0,067
-81,870	800,000	-0,055	0,140
-80,855	245,833	0,058	0,069
-79,840	-36,150	-0,100	0,038
-78,826	1,542	-0,146	-0,074
-77,811	-23,460	0,120	-0,051
-76,797	-200,000	0,014	0,055
-75,782	-200,000	0,014	-0,109
-74,767	-89,812	0,221	0,045
-73,753	800,000	-0,034	0,091
-72,738	-200,000	-0,009	-0,044
-71,724	191,717	-0,053	-0,056
-70,709	-200,000	-0,001	0,042
-69,694	114,172	0,050	-0,043
-68,680	226,062	-0,016	-0,019
-67,665	-200,000	0,010	0,096
-66,651	466,686	0,022	0,035
-65,636	-18,229	0,023	-0,010
-64,622	-200,000	-0,007	0,080
-63,607	-15,966	-0,123	-0,055
-62,592	-200,000	-0,011	-0,095
-61,578	93,412	-0,089	0,071
-60,563	795,007	-0,048	0,094
-59,549	-46,477	0,123	0,043
-58,534	-70,886	-1,461	-0,387
-57,519	359,972	-1,492	-2,122
-56,505	-200,000	-0,610	-4,358
-55,490	104,111	1,197	0,997
-54,476	800,000	4,755	10,853
-53,461	-200,000	17,897	285,293
-52,446	800,000	723,597	2229,477
-51,432	561,004	1638,293	2816,570
-50,417	80,302	1661,685	1265,880
-49,403	23,299	1535,401	891,468
-48,388	17,234	1459,010	817,808
-47,373	17,994	1448,591	815,586
-46,359	17,484	1439,279	807,877
-45,344	15,503	1434,567	795,762
-44,330	15,420	1432,581	794,234
-43,315	15,453	1431,017	793,495
-42,300	15,520	1429,201	792,773
-41,286	15,530	1428,071	792,162
-40,271	15,470	1427,055	791,284
-39,257	15,471	1425,667	790,485
-38,242	15,503	1424,377	789,892
-37,227	15,548	1422,988	789,304
-36,213	15,581	1421,519	788,611
-35,198	15,520	1420,634	787,801
-34,184	15,526	1419,925	787,408
-33,169	15,513	1418,278	786,401
-32,154	15,579	1417,329	786,154
-31,140	15,544	1415,998	785,220
-30,125	15,573	1414,956	784,745
-29,111	15,533	1413,874	783,930
-28,096	15,499	1412,794	783,140
-27,082	15,485	1411,555	782,356
-26,067	15,449	1410,534	781,592
-25,052	15,420	1409,597	780,903
-24,038	15,432	1408,353	780,240
-23,023	15,430	1407,412	779,678
-22,009	15,420	1406,392	779,033
-20,994	15,330	1405,920	778,325
-19,979	15,376	1404,707	777,836
-18,965	15,365	1403,732	777,215
-17,950	15,398	1402,703	776,767
-16,936	15,377	1401,841	776,162
-15,921	15,295	1400,719	775,129
-14,906	15,347	1399,621	774,728
-13,892	15,357	1398,845	774,315
-12,877	15,313	1397,819	773,512
-11,863	15,382	1396,880	773,284
-10,848	15,301	1396,127	772,461
-9,833	15,312	1395,231	771,986
-8,819	15,262	1394,180	771,141
-7,804	15,264	1393,149	770,549
-6,790	15,226	1392,304	769,875
-5,775	15,235	1391,095	769,217
-4,760	15,208	1390,530	768,750
-3,746	15,233	1389,559	768,298
-2,731	15,230	1388,828	767,850
-1,717	15,198	1387,786	767,096
-0,702	15,264	1385,875	766,315
0,313	19,221	1306,354	740,579
1,327	35,895	707,543	439,776
2,342	55,264	125,248	85,622
3,356	3,590	16,623	8,555
4,371	7,238	3,092	1,629
5,386	14,725	0,478	0,264
6,400	800,000	0,118	0,235
7,415	-53,441	-0,299	-0,096
8,429	-13,306	-0,343	-0,157
9,444	141,051	-0,287	-0,268
10,459	139,995	-0,254	-0,237
11,473	-19,302	-0,356	-0,156
12,488	243,703	-0,189	-0,225
13,502	-25,726	-0,346	-0,144
14,517	-5,324	-0,417	-0,202
15,531	100,516	-0,385	-0,316
16,546	12,652	-0,265	-0,144
17,561	118,951	-0,301	-0,263
18,575	-41,746	-0,279	-0,101
19,590	104,350	-0,286	-0,237
20,604	126,553	-0,228	-0,204
21,619	148,748	-0,333	-0,318
22,634	65,770	-0,514	-0,368
23,648	86,962	-0,414	-0,323
24,663	207,744	-0,377	-0,417
25,677	46,711	-0,378	-0,248
26,692	50,970	-0,262	-0,175
27,707	81,898	-0,374	-0,286
28,721	4,380	-0,609	-0,314
29,736	156,181	-0,410	-0,400
30,750	218,657	-0,346	-0,391
31,765	407,374	-0,258	-0,387
32,780	48,627	-0,496	-0,328
33,794	293,521	-0,243	-0,314
34,809	157,464	-0,344	-0,337
35,823	260,138	-0,310	-0,379
36,838	47,802	-0,451	-0,297
37,853	214,283	-0,344	-0,384
38,867	75,456	-0,410	-0,305
39,882	219,454	-0,311	-0,352
40,896	249,985	-0,300	-0,360
41,911	-45,840	-0,390	-0,135
42,926	-2,655	-0,474	-0,233
43,940	160,201	-0,418	-0,412
44,955	190,782	-0,307	-0,326
45,969	20,605	-0,394	-0,224
46,984	171,736	-0,243	-0,247
47,999	-6,466	-0,385	-0,184
49,013	124,625	-0,227	-0,201
50,028	75,075	-0,323	-0,240
51,042	396,218	-0,225	-0,332
52,057	278,696	-0,271	-0,341
53,071	83,216	-0,371	-0,285
54,086	50,162	-0,409	-0,272
55,101	99,974	-0,311	-0,254
56,115	131,754	-0,376	-0,341
57,130	119,905	-0,311	-0,272
58,144	86,701	-0,332	-0,258
59,159	67,159	-0,386	-0,277
60,174	-4,682	-0,397	-0,192
61,188	85,609	-0,368	-0,285
62,203	99,156	-0,263	-0,214
63,217	-22,179	-0,280	-0,119
64,232	-60,909	-0,305	-0,090
65,247	64,413	-0,479	-0,339
66,261	58,171	-0,379	-0,261
67,276	443,053	-0,192	-0,297
68,290	422,841	-0,179	-0,271
69,305	71,778	-0,328	-0,240
70,320	190,308	-0,193	-0,204
71,334	-82,835	-0,395	-0,089
72,349	-3,454	-0,358	-0,175
73,363	83,046	-0,383	-0,293
74,378	125,004	-0,303	-0,268
75,393	0,133	-0,396	-0,198
76,407	-30,834	-0,422	-0,167
77,422	29,437	-0,375	-0,224
78,436	139,099	-0,248	-0,229
79,451	-150,909	-0,400	-0,021
80,466	84,229	-0,321	-0,247
81,480	-15,504	-0,389	-0,174
82,495	-89,193	-0,286	-0,059
83,509	290,593	-0,250	-0,320
84,524	-33,559	-0,329	-0,127
85,539	-33,425	-0,318	-0,123
86,553	30,092	-0,294	-0,176
87,568	34,956	-0,302	-0,185
88,582	28,123	-0,273	-0,162
89,597	95,405	-0,356	-0,285
90,611	102,469	-0,291	-0,239
91,626	78,677	-0,265	-0,199
92,641	85,080	-0,285	-0,219
93,655	28,571	-0,239	-0,142
94,670	67,634	-0,332	-0,238
95,684	61,300	-0,312	-0,218
96,699	22,904	-0,284	-0,163
97,714	235,932	-0,266	-0,309
98,728	-8,281	-0,268	-0,126
99,743	0,300	-0,271	-0,135
100,757	800,000	-0,065	-0,147
101,772	149,375	-0,313	-0,298
102,787	83,664	-0,288	-0,220
103,801	5,391	-0,277	-0,143
104,816	-49,099	-0,198	-0,066
105,830	121,480	-0,150	-0,131
106,845	-4,915	-0,287	-0,138
107,860	-40,691	-0,392	-0,142
108,874	106,377	-0,221	-0,183
109,889	179,329	-0,292	-0,300
110,903	57,264	-0,194	-0,132
111,918	58,197	-0,224	-0,154
112,933	166,310	-0,246	-0,244
113,947	76,177	-0,288	-0,214
114,962	140,445	-0,184	-0,171
115,976	123,244	-0,320	-0,281
116,991	123,473	-0,249	-0,219
118,006	245,385	-0,240	-0,283
119,020	139,132	-0,255	-0,235
120,035	-26,617	-0,319	-0,130
121,049	86,064	-0,233	-0,180
122,064	172,962	-0,184	-0,186
123,079	24,914	-0,322	-0,187
124,093	178,089	-0,213	-0,218
125,108	-56,905	-0,179	-0,055
126,122	96,960	-0,174	-0,140
127,137	272,963	-0,184	-0,228
128,151	-62,757	-0,328	-0,095
129,166	16,967	-0,160	0,089
130,181	29,423	-0,259	-0,154
131,195	19,155	-0,304	-0,170
132,210	146,491	-0,246	-0,231
133,224	-27,315	-0,365	-0,148
134,239	-121,763	-0,162	-0,019
135,254	21,548	-0,251	-0,142
136,268	800,000	-0,051	-0,136
137,283	705,365	-0,190	-0,353
138,297	280,922	-0,190	-0,238
139,312	-12,335	-0,286	-0,130
140,327	-15,776	-0,316	-0,140
141,341	152,221	-0,187	-0,179
142,356	-22,440	-0,224	-0,095
143,370	-156,312	-0,187	-0,008
144,385	229,498	-0,243	-0,277
145,400	32,884	-0,186	-0,112
146,414	151,883	-0,272	-0,260
147,429	47,617	-0,269	-0,175
148,443	91,967	-0,331	-0,260
149,458	635,730	-0,129	-0,230
150,473	155,179	-0,210	-0,202
151,487	201,233	-0,210	-0,227
152,502	122,217	-0,271	-0,237
153,516	-18,280	-0,299	-0,130
154,531	252,684	-0,161	-0,192
155,546	189,563	-0,211	-0,222
156,560	800,000	-0,140	-0,275
157,575	-36,303	-0,348	-0,130
158,589	-62,261	-0,249	-0,072
159,604	17,869	-0,249	-0,138
160,619	337,357	-0,157	-0,214
161,633	-84,535	-0,264	-0,058
162,648	68,820	-0,138	-0,099
163,662	102,504	-0,198	-0,161
164,677	67,817	-0,081	-0,058
165,692	-48,313	-0,268	-0,090
166,706	86,382	-0,270	-0,208
167,721	180,141	-0,180	-0,185
168,735	498,097	-0,095	-0,153
169,750	355,874	-0,177	-0,246
170,764	54,750	-0,241	-0,162
171,779	40,969	-0,126	-0,079
172,794	304,215	-0,168	-0,219
173,808	0,848	-0,277	-0,138
174,823	37,425	-0,154	-0,095
175,837	-26,882	-0,236	-0,096
176,852	-32,271	-0,276	-0,107
177,867	72,959	-0,165	-0,120
178,881	126,573	-0,238	-0,210
179,896	66,935	-0,186	-0,132
180,910	291,409	-0,134	-0,171
181,925	250,799	-0,176	-0,209
182,940	4,796	-0,315	-0,161
183,954	63,971	-0,185	-0,129
184,969	225,641	-0,130	-0,147
185,983	181,015	-0,137	-0,140
186,998	32,529	-0,247	-0,148
188,013	24,892	-0,156	-0,090
189,027	302,594	-0,186	-0,240
190,042	81,440	-0,192	-0,145
191,056	6,304	-0,255	-0,131
192,071	332,699	-0,100	-0,135
193,086	-24,435	-0,250	-0,103
194,100	-110,006	-0,203	-0,029
195,115	-200,000	-0,354	0,001
196,129	34,536	-0,292	-0,177
197,144	273,961	-0,239	-0,295
198,159	48,792	-0,266	-0,173
199,173	232,468	-0,122	-0,140
200,188	418,853	-0,142	-0,211
201,202	-18,961	-0,329	-0,142
202,217	162,539	-0,234	-0,229
203,232	800,000	-0,080	-0,220
204,246	800,000	-0,097	-0,201
205,261	800,000	-0,135	-0,284
206,275	158,654	-0,205	-0,198
207,290	-86,192	-0,147	-0,031
208,304	-119,685	-0,152	-0,018
209,319	-63,617	-0,222	-0,063
210,334	-140,807	-0,170	0,012
211,348	800,000	-0,139	-0,308
212,363	613,481	-0,111	-0,194
213,377	-136,848	-0,165	0,013
214,392	421,306	-0,149	-0,223
215,407	55,411	-0,114	-0,076
216,421	171,178	-0,247	-0,246
217,436	25,930	-0,324	-0,187
218,450	68,019	-0,129	-0,092
219,465	259,844	-0,085	-0,102
220,480	74,989	-0,173	-0,126
221,494	119,577	-0,102	-0,087
222,509	126,627	-0,067	-0,059
223,523	-168,252	-0,110	-0,003
224,538	210,425	-0,140	-0,153
225,553	66,167	-0,212	-0,149
226,567	145,699	-0,205	-0,191
227,582	-83,058	-0,321	-0,071
228,596	748,102	-0,147	-0,276
229,611	800,000	-0,065	-0,182
230,626	14,600	-0,175	0,095
231,640	220,092	-0,125	-0,139
232,655	47,204	-0,195	-0,126
233,669	-97,011	-0,216	-0,039
234,684	38,470	-0,251	-0,155
235,699	165,373	-0,058	-0,057
236,713	378,632	-0,122	-0,173
237,728	-27,921	-0,145	-0,058
238,742	84,333	-0,068	-0,051
239,757	666,160	-0,126	-0,226
240,772	26,754	-0,252	-0,146
241,786	101,944	-0,227	-0,184
242,801	132,246	-0,060	-0,054
243,815	68,705	-0,233	-0,166
244,830	82,959	-0,166	-0,125
245,844	335,622	-0,110	-0,149
246,859	226,899	-0,238	-0,268
247,874	-18,417	-0,338	-0,146
248,888	-87,707	-0,254	-0,053
249,903	39,361	-0,198	-0,123
250,917	800,000	-0,100	-0,209
251,932	34,191	-0,154	-0,093
252,947	-11,279	-0,145	-0,066
253,961	178,758	-0,144	-0,145
254,976	259,048	-0,210	-0,251
255,990	245,522	-0,194	-0,226
257,005	748,019	-0,093	-0,174
258,020	-15,588	-0,143	-0,063
259,034	-53,083	-0,244	-0,077
260,049	23,233	-0,264	-0,149
261,063	-119,051	-0,303	-0,036
262,078	724,790	-0,115	-0,212
263,093	5,206	-0,309	-0,157
264,107	-1,680	-0,169	-0,082
265,122	43,100	-0,068	0,043
266,136	11,336	-0,239	-0,126
267,151	-116,952	-0,126	-0,016
268,166	2,508	-0,256	-0,128
269,180	49,574	-0,283	-0,184
270,195	27,569	-0,299	-0,174
271,209	367,125	-0,133	-0,186
272,224	266,936	-0,184	-0,222
273,239	-8,830	-0,241	-0,111
274,253	-128,668	-0,163	0,016
275,268	90,844	-0,178	-0,138
276,282	291,369	-0,162	-0,205
277,297	-44,115	-0,174	-0,060
278,312	63,472	-0,166	-0,115
279,326	13,778	-0,106	-0,057
280,341	65,547	-0,140	-0,098
281,355	-1,302	-0,171	-0,083
282,370	186,458	-0,162	-0,167
283,384	106,208	-0,249	-0,204
284,399	-200,000	-0,083	-0,268
285,414	43,144	-0,074	-0,047
286,428	203,812	-0,122	-0,130
287,443	-119,363	-0,179	-0,021
288,457	-12,061	-0,188	0,085
289,472	474,191	-0,180	-0,282
290,487	184,027	-0,233	-0,239
291,501	310,949	-0,146	-0,189
292,516	117,438	-0,165	-0,140
293,530	159,484	-0,194	-0,187
294,545	-200,000	-0,052	-0,172
295,560	-29,329	-0,126	-0,050
296,574	119,492	-0,101	-0,086
297,589	-107,287	-0,121	0,018
298,603	117,706	-0,152	-0,129
299,618	200,535	-0,190	-0,202
300,633	-137,519	-0,247	-0,019
301,647	173,178	-0,172	-0,171
302,662	112,629	-0,141	-0,118
303,676	-108,015	-0,171	-0,025
304,691	296,803	-0,026	-0,032
305,706	88,086	-0,138	-0,105
306,720	800,000	-0,074	-0,218
307,735	31,165	-0,194	-0,114
308,749	-144,358	-0,070	0,004
309,764	-82,659	-0,177	-0,039
310,779	142,682	-0,171	-0,157
311,793	124,034	-0,120	-0,104
312,808	134,127	-0,132	-0,118
313,822	443,564	-0,135	-0,205
314,837	29,908	-0,127	-0,074
315,852	51,829	-0,282	-0,184
316,866	-7,530	-0,155	0,072
317,881	77,996	-0,056	-0,041
318,895	-133,318	-0,141	0,012
319,910	-43,630	-0,143	-0,049
320,925	9,607	-0,203	-0,106
321,939	253,801	-0,163	-0,192
322,954	39,898	-0,115	0,071
323,968	-108,805	-0,103	-0,015
324,983	-63,850	-0,103	-0,029
325,997	137,097	-0,127	-0,115
327,012	122,205	-0,175	-0,151
328,027	800,000	-0,101	-0,205
329,041	800,000	-0,071	-0,172
330,056	473,388	-0,079	-0,123
331,070	30,674	-0,060	-0,035
332,085	236,865	-0,143	-0,164
333,100	395,754	-0,136	-0,195
334,114	-8,917	-0,269	-0,123
335,129	788,311	-0,153	-0,290
336,143	-50,147	-0,145	-0,047
337,158	387,967	-0,045	-0,063
338,173	725,751	0,049	-0,091
339,187	51,701	-0,156	-0,102
340,202	-120,168	-0,113	0,013
341,216	-104,289	-0,189	-0,030
342,231	333,189	-0,116	-0,155
343,246	-78,951	-0,312	-0,072
344,260	-4,397	-0,115	-0,054
345,275	131,806	-0,117	-0,103
346,289	-166,089	-0,239	0,007
347,304	-11,835	-0,058	-0,026
348,319	608,508	-0,099	-0,170
349,333	-200,000	-0,069	-0,250
350,348	190,828	-0,099	-0,103
351,362	-200,000	-0,017	-0,152
352,377	800,000	-0,102	-0,207
353,392	177,968	-0,052	0,052
354,406	41,166	-0,186	-0,115
355,421	209,741	1315,416	1417,639
356,435	161,433	1476,263	1418,150
