DTS Sentinel unit serial number:	SN410029Multiplexer serial number:	ORYXHardware model number:	OX2-SRSoftware version number:	ORYX F/W v4,00 Oryx Data Collector v3.7.2.0data status	okinstallation	B3 Nyhavnadifferential loss correction	single-endedforward channel	channel 1reverse channel	N/Adate	2023/12/02time	15:02:30forward acquisition time	300,00reverse acquisition time	0,00gamma	499,1914k internal	0,3197k external	0,3197temperature offset calibration	1,0000default loss term (dB/km)	0,3820temperature slope calibration	1,0000multiplexer offset coefficient	1,0000multiplexer slope coefficient	1,0000fibre end	0,00T internal ref (°C)	14,82T ext. ref 1 (°C)	-0,57T ext. ref 2 (°C)	-0,59length (m)	temperature (°C)	Stokes	anti-Stokes-744,400	140,440	-0,189	-0,182
-743,385	-200,000	-0,021	0,194
-742,371	-34,981	-0,131	-0,052
-741,356	-200,000	0,026	0,361
-740,342	170,690	-0,187	-0,195
-739,327	-200,000	-0,074	0,326
-738,312	170,475	-0,234	-0,244
-737,298	-200,000	-0,069	0,308
-736,283	468,315	-0,202	-0,332
-735,269	800,000	0,111	0,285
-734,254	546,441	-0,193	-0,337
-733,239	99,305	-0,129	0,109
-732,225	401,199	-0,124	-0,190
-731,210	-200,000	-0,038	0,200
-730,196	10,573	0,083	0,046
-729,181	4,607	-0,029	0,016
-728,167	-80,222	0,044	0,011
-727,152	33,539	-0,039	0,025
-726,137	-44,128	-0,143	0,052
-725,123	-200,000	0,023	-0,094
-724,108	-200,000	-0,020	-0,112
-723,094	399,239	-0,118	-0,180
-722,079	-70,770	-0,141	0,038
-721,064	800,000	-0,052	-0,115
-720,050	800,000	0,046	-0,138
-719,035	-200,000	0,014	-0,170
-718,021	-9,615	-0,059	-0,029
-717,006	-117,304	-0,248	-0,032
-715,991	-200,000	0,010	-0,067
-714,977	-35,242	-0,122	-0,048
-713,962	-15,447	0,084	-0,039
-712,948	265,287	-0,102	-0,130
-711,933	800,000	0,039	0,106
-710,918	-187,080	-0,210	0,002
-709,904	351,441	-0,080	-0,116
-708,889	630,854	0,048	-0,089
-707,875	65,641	-0,095	0,070
-706,860	105,121	0,046	0,040
-705,845	800,000	-0,064	-0,177
-704,831	0,498	-0,009	-0,005
-703,816	-200,000	0,002	0,029
-702,802	325,393	0,068	-0,095
-701,787	147,146	-0,051	-0,050
-700,772	-75,692	-0,137	0,035
-699,758	-32,605	-0,153	-0,062
-698,743	-200,000	0,024	-0,211
-697,729	-52,383	-0,031	0,010
-696,714	-53,330	0,080	-0,026
-695,699	-57,423	-0,040	0,013
-694,685	-200,000	-0,032	-0,111
-693,670	-2,163	-0,079	-0,040
-692,656	-200,000	-0,005	-0,091
-691,641	-200,000	0,018	-0,061
-690,627	-5,657	-0,096	0,048
-689,612	147,613	-0,005	0,005
-688,597	-126,559	0,037	-0,004
-687,583	-65,525	0,187	-0,054
-686,568	287,382	-0,063	0,082
-685,554	-200,000	-0,041	-0,141
-684,539	-13,028	0,042	0,020
-683,524	-200,000	0,019	0,111
-682,510	-200,000	0,023	0,095
-681,495	790,992	-0,043	-0,086
-680,481	-22,714	0,085	-0,037
-679,466	161,236	-0,060	0,061
-678,451	-167,567	-0,122	-0,003
-677,437	-200,000	-0,000	0,079
-676,422	-200,000	-0,009	0,129
-675,408	312,793	0,051	-0,070
-674,393	800,000	0,014	-0,037
-673,378	-131,157	-0,040	-0,004
-672,364	-200,000	0,004	-0,054
-671,349	800,000	-0,039	0,122
-670,335	-32,652	-0,049	0,020
-669,320	45,227	0,072	0,048
-668,305	169,059	-0,140	0,145
-667,291	176,165	0,045	-0,047
-666,276	-60,627	-0,156	0,048
-665,262	-200,000	0,012	-0,055
-664,247	-22,747	-0,037	-0,016
-663,232	-200,000	0,004	0,097
-662,218	219,185	-0,082	0,095
-661,203	-122,121	-0,034	-0,004
-660,189	361,238	0,094	-0,137
-659,174	204,818	0,085	0,095
-658,159	-69,438	-0,097	-0,027
-657,145	-200,000	-0,006	-0,023
-656,130	-179,933	0,156	0,002
-655,116	-200,000	-0,016	-0,086
-654,101	-65,945	0,059	0,017
-653,086	-200,000	-0,012	-0,142
-652,072	118,877	-0,044	0,040
-651,057	-126,775	-0,152	-0,016
-650,043	261,783	-0,067	0,085
-649,028	-90,050	-0,042	-0,009
-648,014	-45,874	0,098	-0,035
-646,999	52,322	0,035	0,024
-645,984	120,419	0,030	0,027
-644,970	134,942	-0,131	-0,124
-643,955	800,000	0,021	-0,051
-642,941	800,000	0,019	-0,049
-641,926	99,323	0,076	0,064
-640,911	-200,000	-0,012	-0,069
-639,897	198,560	0,117	-0,130
-638,882	137,078	-0,130	0,123
-637,868	-200,000	-0,010	-0,056
-636,853	25,481	-0,062	-0,038
-635,838	228,370	-0,081	-0,096
-634,824	-46,541	0,108	-0,038
-633,809	-79,797	-0,153	0,037
-632,795	-200,000	0,031	0,120
-631,780	392,377	-0,012	-0,018
-630,765	-13,696	-0,049	0,023
-629,751	78,600	-0,026	-0,020
-628,736	-200,000	-0,014	-0,089
-627,722	190,867	0,065	-0,071
-626,707	800,000	-0,016	0,041
-625,692	2,853	0,139	0,073
-624,678	-166,732	0,153	0,004
-623,663	167,391	-0,063	-0,065
-622,649	-9,101	0,076	0,037
-621,634	150,733	-0,076	-0,075
-620,619	800,000	-0,039	-0,088
-619,605	800,000	-0,028	-0,064
-618,590	70,363	0,053	0,039
-617,576	-200,000	-0,000	-0,062
-616,561	-181,974	0,069	-0,001
-615,546	-8,243	-0,110	0,053
-614,532	339,790	-0,050	0,071
-613,517	-200,000	0,028	-0,104
-612,503	-86,869	-0,074	0,016
-611,488	217,358	0,169	0,195
-610,474	109,797	-0,064	0,056
-609,459	-151,425	-0,131	-0,007
-608,444	75,636	-0,059	-0,045
-607,430	-149,454	0,053	0,003
-606,415	-200,000	0,017	-0,056
-605,401	-200,000	-0,012	-0,127
-604,386	384,344	-0,039	0,058
-603,371	-200,000	0,031	0,112
-602,357	156,291	0,106	-0,106
-601,342	-179,457	-0,140	-0,002
-600,328	636,240	0,043	-0,080
-599,313	-200,000	-0,018	-0,138
-598,298	-33,918	0,131	-0,052
-597,284	-200,000	0,008	-0,035
-596,269	496,378	-0,018	0,030
-595,255	-71,522	-0,097	0,026
-594,240	-13,815	0,145	0,068
-593,225	-200,000	-0,016	0,096
-592,211	-123,710	-0,068	0,008
-591,196	-45,709	-0,078	-0,028
-590,182	82,530	0,048	0,038
-589,167	373,665	0,037	0,055
-588,152	-53,021	-0,059	0,020
-587,138	269,030	0,041	0,052
-586,123	-55,526	-0,239	-0,077
-585,109	-148,298	0,044	-0,003
-584,094	-29,789	-0,033	0,014
-583,079	-200,000	0,008	-0,045
-582,065	-123,755	0,062	-0,007
-581,050	178,992	-0,022	-0,023
-580,036	-10,728	-0,099	-0,047
-579,021	-200,000	-0,006	0,045
-578,006	-200,000	0,005	-0,083
-576,992	67,671	-0,026	-0,019
-575,977	-95,449	0,037	-0,007
-574,963	405,289	0,047	0,072
-573,948	-75,881	0,135	-0,034
-572,934	72,025	0,051	-0,039
-571,919	-30,171	0,094	-0,038
-570,904	-200,000	-0,053	-0,170
-569,890	220,153	-0,085	-0,098
-568,875	800,000	0,040	-0,102
-567,861	62,560	0,112	-0,081
-566,846	-115,000	0,079	-0,011
-565,831	-21,425	-0,066	0,029
-564,817	0,322	-0,056	-0,029
-563,802	-200,000	0,037	-0,120
-562,788	-200,000	-0,006	-0,128
-561,773	255,330	0,102	0,127
-560,758	-23,364	0,041	0,018
-559,744	20,031	0,125	0,073
-558,729	-200,000	-0,009	0,069
-557,715	10,832	-0,152	-0,084
-556,700	800,000	0,002	-0,005
-555,685	273,530	-0,082	-0,105
-554,671	-93,785	-0,055	0,011
-553,656	-200,000	-0,005	0,054
-552,642	-200,000	0,016	0,118
-551,627	-9,105	0,064	-0,031
-550,612	-24,966	0,037	-0,016
-549,598	38,411	-0,041	0,027
-548,583	685,605	-0,100	0,189
-547,569	264,559	0,001	-0,001
-546,554	-200,000	-0,007	0,093
-545,539	-105,218	0,156	-0,025
-544,525	673,672	-0,033	-0,063
-543,510	-59,840	0,032	0,010
-542,496	-68,847	0,086	0,024
-541,481	-200,000	-0,008	-0,058
-540,466	155,360	0,063	0,063
-539,452	301,187	-0,049	0,066
-538,437	289,728	0,033	-0,044
-537,423	387,369	0,016	-0,024
-536,408	-200,000	0,001	-0,027
-535,393	800,000	-0,028	0,069
-534,379	-156,077	-0,149	0,007
-533,364	541,369	0,086	0,148
-532,350	-63,152	0,073	0,022
-531,335	240,796	-0,041	-0,050
-530,321	800,000	-0,058	0,130
-529,306	89,819	0,071	-0,057
-528,291	790,756	0,033	0,065
-527,277	-200,000	0,005	-0,022
-526,262	-67,626	-0,055	0,016
-525,248	21,125	0,039	0,023
-524,233	13,453	0,153	0,086
-523,218	244,719	-0,044	-0,053
-522,204	484,914	0,036	-0,060
-521,189	800,000	0,017	0,043
-520,175	-200,000	0,011	-0,050
-519,160	-200,000	0,023	-0,098
-518,145	73,166	0,187	-0,141
-517,131	669,392	-0,053	0,099
-516,116	-200,000	-0,026	0,134
-515,102	492,286	0,049	-0,082
-514,087	71,810	-0,066	0,049
-513,072	800,000	-0,038	-0,077
-512,058	-15,643	-0,042	0,019
-511,043	51,884	-0,055	-0,038
-510,029	2,528	-0,141	0,073
-509,014	173,108	0,100	-0,104
-507,999	447,968	-0,015	-0,024
-506,985	38,866	-0,136	0,087
-505,970	56,425	-0,063	-0,044
-504,956	-126,852	0,134	0,014
-503,941	-200,000	-0,023	-0,087
-502,926	-157,127	0,091	0,004
-501,912	155,334	0,128	-0,127
-500,897	210,715	-0,026	0,030
-499,883	215,431	-0,082	0,094
-498,868	-155,572	-0,155	0,007
-497,853	2,797	-0,009	0,005
-496,839	56,716	-0,008	-0,006
-495,824	140,495	0,132	0,126
-494,810	-159,411	0,127	-0,005
-493,795	-53,979	-0,068	-0,022
-492,781	128,114	0,009	0,008
-491,766	-142,258	0,151	0,011
-490,751	1,210	-0,086	-0,044
-489,737	-22,933	-0,039	-0,017
-488,722	349,615	0,033	0,047
-487,708	-200,000	0,024	-0,095
-486,693	800,000	-0,052	0,113
-485,678	148,488	-0,072	-0,070
-484,664	59,529	-0,131	-0,093
-483,649	-200,000	-0,003	-0,130
-482,635	129,300	-0,058	0,054
-481,620	642,963	-0,032	0,059
-480,605	-200,000	0,004	0,040
-479,591	3,592	0,128	0,067
-478,576	-200,000	-0,004	-0,100
-477,562	238,604	-0,110	-0,132
-476,547	-80,610	-0,132	-0,031
-475,532	-127,228	0,098	-0,010
-474,518	-53,138	0,127	0,042
-473,503	76,047	0,034	-0,026
-472,489	800,000	0,012	0,028
-471,474	-200,000	0,018	-0,081
-470,459	-200,000	0,008	-0,127
-469,445	361,026	-0,084	-0,122
-468,430	718,279	-0,074	-0,143
-467,416	-200,000	-0,002	0,057
-466,401	-200,000	0,066	0,222
-465,386	800,000	0,022	0,049
-464,372	652,185	0,035	-0,065
-463,357	79,311	-0,105	-0,081
-462,343	-163,711	-0,141	-0,005
-461,328	-84,255	-0,055	0,013
-460,313	-141,895	0,083	0,006
-459,299	-42,489	-0,047	0,017
-458,284	288,003	-0,117	-0,153
-457,270	-9,965	0,093	-0,045
-456,255	-35,194	-0,098	-0,038
-455,241	-31,724	-0,062	-0,025
-454,226	308,497	0,051	-0,069
-453,211	800,000	-0,053	-0,142
-452,197	103,605	0,101	0,085
-451,182	100,116	-0,114	0,095
-450,168	-167,274	0,044	0,001
-449,153	-200,000	-0,026	-0,089
-448,138	-200,000	-0,010	-0,064
-447,124	800,000	-0,070	-0,175
-446,109	-57,413	0,098	0,031
-445,095	800,000	-0,028	0,061
-444,080	-177,696	-0,124	0,002
-443,065	-30,953	0,122	-0,049
-442,051	800,000	-0,044	-0,110
-441,036	-200,000	0,015	0,059
-440,022	-200,000	0,013	0,044
-439,007	-58,097	0,087	0,027
-437,992	316,356	0,099	0,134
-436,978	-33,685	0,110	-0,044
-435,963	-105,189	-0,136	0,022
-434,949	-77,999	-0,143	-0,035
-433,934	351,133	-0,044	-0,063
-432,919	-200,000	0,010	-0,050
-431,905	26,314	-0,075	-0,045
-430,890	281,802	0,040	0,051
-429,876	101,784	0,119	0,100
-428,861	454,490	-0,056	0,090
-427,846	344,172	0,101	-0,143
-426,832	557,471	-0,082	-0,143
-425,817	41,573	-0,055	0,036
-424,803	172,115	-0,043	-0,044
-423,788	-200,000	0,001	0,057
-422,773	62,605	0,109	-0,078
-421,759	157,584	0,061	-0,061
-420,744	572,021	0,051	-0,089
-419,730	-114,423	-0,156	-0,021
-418,715	303,959	-0,059	-0,079
-417,701	544,133	-0,058	0,101
-416,686	-200,000	0,004	-0,046
-415,671	-200,000	0,016	0,068
-414,657	800,000	0,065	0,158
-413,642	607,845	-0,047	0,084
-412,628	50,346	0,135	-0,091
-411,613	689,422	-0,031	0,058
-410,598	-146,374	-0,169	-0,010
-409,584	277,516	-0,051	-0,065
-408,569	136,711	0,090	0,084
-407,555	-46,297	0,193	0,068
-406,540	4,656	0,060	0,032
-405,525	30,575	-0,013	0,008
-404,511	-43,650	-0,146	0,052
-403,496	-122,394	-0,073	-0,008
-402,482	23,923	-0,044	-0,026
-401,467	-161,192	-0,010	-0,000
-400,452	-117,290	0,068	-0,009
-399,438	76,507	-0,083	-0,063
-398,423	170,989	0,070	0,072
-397,409	-110,845	0,017	-0,003
-396,394	-200,000	0,005	-0,048
-395,379	165,151	-0,028	0,029
-394,365	81,293	0,047	0,036
-393,350	-103,599	0,092	-0,015
-392,336	46,896	-0,048	-0,032
-391,321	57,590	-0,070	0,049
-390,306	227,244	0,071	-0,083
-389,292	800,000	0,023	-0,053
-388,277	32,497	0,074	-0,046
-387,263	-200,000	0,029	0,095
-386,248	-57,351	-0,026	0,008
-385,233	-143,514	0,219	0,015
-384,219	-200,000	-0,043	-0,188
-383,204	-168,904	-0,068	-0,002
-382,190	566,663	-0,056	-0,098
-381,175	800,000	0,042	-0,130
-380,160	-53,644	0,045	0,015
-379,146	-12,158	0,162	-0,076
-378,131	-104,787	-0,115	-0,019
-377,117	-106,690	-0,136	0,021
-376,102	157,770	-0,072	0,072
-375,088	-200,000	-0,011	-0,139
-374,073	-200,000	0,041	0,132
-373,058	586,456	-0,030	0,054
-372,044	-128,736	0,146	-0,015
-371,029	-200,000	0,011	0,155
-370,015	537,138	0,033	0,056
-369,000	-200,000	0,024	-0,134
-367,985	800,000	0,059	-0,128
-366,971	800,000	0,027	-0,071
-365,956	87,919	0,038	-0,030
-364,942	800,000	0,030	0,062
-363,927	800,000	-0,027	0,072
-362,912	40,197	0,096	0,062
-361,898	289,735	0,054	0,070
-360,883	196,691	-0,067	0,074
-359,869	42,473	-0,050	-0,032
-358,854	280,393	0,062	0,080
-357,839	-200,000	-0,030	0,231
-356,825	-121,587	0,173	-0,020
-355,810	578,639	-0,086	0,151
-354,796	391,117	0,047	-0,071
-353,781	-135,961	-0,109	-0,009
-352,766	-31,284	-0,125	-0,050
-351,752	-200,000	0,001	-0,107
-350,737	64,746	0,053	0,038
-349,723	214,353	0,098	0,111
-348,708	-92,248	-0,091	-0,018
-347,693	-200,000	-0,005	0,122
-346,679	670,046	0,036	-0,066
-345,664	143,828	-0,118	-0,113
-344,650	-62,966	-0,166	0,049
-343,635	347,260	0,048	0,068
-342,620	294,673	-0,045	0,060
-341,606	-200,000	0,026	0,084
-340,591	-190,148	-0,133	0,001
-339,577	-200,000	-0,011	0,063
-338,562	-200,000	0,020	-0,115
-337,548	190,310	0,006	-0,006
-336,533	-200,000	0,021	0,139
-335,518	92,050	0,050	0,040
-334,504	-200,000	-0,002	0,130
-333,489	368,153	0,045	-0,065
-332,475	57,204	-0,043	-0,030
-331,460	-200,000	0,022	-0,086
-330,445	287,937	-0,053	-0,068
-329,431	-200,000	-0,021	0,149
-328,416	93,613	-0,109	0,088
-327,402	29,064	-0,101	0,061
-326,387	422,661	-0,024	0,037
-325,372	-93,433	0,042	-0,008
-324,358	-110,215	-0,136	0,020
-323,343	-110,363	-0,083	0,012
-322,329	462,273	0,042	0,067
-321,314	-200,000	-0,001	-0,025
-320,299	-200,000	0,057	0,254
-319,285	106,633	-0,112	-0,095
-318,270	-200,000	0,007	-0,088
-317,256	70,616	0,041	-0,031
-316,241	800,000	0,037	-0,093
-315,226	-55,240	0,085	-0,027
-314,212	-6,053	0,038	-0,018
-313,197	121,962	0,128	0,114
-312,183	-127,799	-0,092	0,009
-311,168	-200,000	-0,001	-0,024
-310,153	443,602	0,073	0,114
-309,139	-128,425	0,110	0,011
-308,124	-66,809	0,089	0,025
-307,110	8,984	0,069	-0,037
-306,095	800,000	-0,044	0,094
-305,080	-200,000	0,001	-0,095
-304,066	38,525	0,012	-0,007
-303,051	-29,284	0,098	-0,040
-302,037	800,000	0,020	0,055
-301,022	764,234	0,066	0,129
-300,008	800,000	-0,035	0,072
-298,993	-200,000	0,020	-0,089
-297,978	307,018	0,050	-0,066
-296,964	-126,586	-0,073	-0,008
-295,949	592,171	0,073	-0,130
-294,935	-62,200	-0,146	-0,043
-293,920	-26,685	-0,035	0,015
-292,905	-200,000	-0,013	0,189
-291,891	583,122	0,111	-0,196
-290,876	-200,000	-0,005	-0,055
-289,862	-200,000	0,012	0,093
-288,847	-133,408	0,099	-0,009
-287,832	-103,496	-0,081	-0,013
-286,818	-6,361	0,114	0,055
-285,803	89,215	0,047	0,037
-284,789	-200,000	-0,022	0,105
-283,774	-61,920	-0,025	0,007
-282,759	306,940	-0,025	-0,033
-281,745	84,143	0,064	0,050
-280,730	-200,000	-0,004	-0,017
-279,716	-45,204	0,102	0,036
-278,701	800,000	-0,025	-0,060
-277,686	800,000	-0,058	-0,141
-276,672	146,520	-0,081	0,078
-275,657	122,812	0,065	0,058
-274,643	800,000	0,041	-0,118
-273,628	247,730	0,045	0,055
-272,613	800,000	-0,038	-0,087
-271,599	-125,228	-0,089	-0,010
-270,584	626,686	0,024	-0,044
-269,570	800,000	-0,037	0,087
-268,555	-200,000	0,004	0,097
-267,540	-73,545	-0,087	-0,023
-266,526	-105,003	-0,152	0,025
-265,511	-200,000	-0,012	-0,053
-264,497	86,143	-0,044	-0,034
-263,482	-200,000	-0,001	0,126
-262,467	800,000	-0,040	0,101
-261,453	800,000	0,054	0,116
-260,438	800,000	0,013	0,027
-259,424	-200,000	-0,005	0,039
-258,409	-5,577	0,119	-0,058
-257,395	-109,607	0,129	0,019
-256,380	800,000	0,022	0,064
-255,365	-53,846	0,061	-0,020
-254,351	30,938	0,097	0,059
-253,336	264,212	0,069	0,085
-252,322	509,365	-0,047	0,079
-251,307	-47,433	-0,095	0,033
-250,292	-20,559	-0,060	-0,026
-249,278	-93,358	0,136	-0,027
-248,263	101,670	-0,076	0,063
-247,249	-133,350	-0,193	0,017
-246,234	-18,648	0,059	-0,026
-245,219	336,280	0,031	-0,043
-244,205	32,727	-0,097	0,060
-243,190	-41,221	-0,045	0,016
-242,176	28,867	-0,069	0,042
-241,161	-155,447	0,099	0,004
-240,146	800,000	-0,023	0,051
-239,132	671,988	0,022	-0,041
-238,117	800,000	-0,057	-0,136
-237,103	120,508	0,023	-0,020
-236,088	-14,049	-0,118	0,054
-235,073	-46,380	0,088	0,031
-234,059	380,097	0,077	0,113
-233,044	44,117	0,053	-0,035
-232,030	-159,019	0,041	-0,002
-231,015	800,000	-0,032	-0,099
-230,000	2,342	-0,135	0,069
-228,986	800,000	-0,091	0,197
-227,971	800,000	-0,084	0,218
-226,957	-67,569	0,072	-0,020
-225,942	-36,071	-0,045	0,017
-224,927	693,628	-0,022	-0,041
-223,913	-0,159	0,047	-0,024
-222,898	382,976	-0,008	-0,012
-221,884	291,452	-0,030	-0,039
-220,869	-65,616	0,123	0,035
-219,855	-108,088	-0,067	-0,010
-218,840	433,481	-0,060	0,094
-217,825	-200,000	0,012	0,127
-216,811	-171,468	-0,156	0,004
-215,796	-200,000	-0,001	-0,071
-214,782	-190,494	0,050	0,000
-213,767	380,425	0,082	0,120
-212,752	346,651	0,023	0,032
-211,738	-200,000	-0,001	0,028
-210,723	-200,000	-0,018	-0,084
-209,709	-140,170	-0,026	-0,002
-208,694	800,000	-0,009	-0,028
-207,679	-200,000	-0,026	0,091
-206,665	566,531	0,006	0,010
-205,650	-104,298	0,143	0,023
-204,636	-134,009	0,056	-0,005
-203,621	529,679	0,063	0,107
-202,606	88,772	-0,076	-0,060
-201,592	-200,000	-0,024	-0,227
-200,577	-162,052	-0,020	0,001
-199,563	-38,639	-0,067	0,025
-198,548	-146,166	-0,078	0,005
-197,533	-200,000	-0,010	0,083
-196,519	-200,000	0,032	0,115
-195,504	-66,468	0,068	-0,019
-194,490	-15,883	0,048	-0,022
-193,475	800,000	-0,023	-0,069
-192,460	-200,000	-0,011	-0,135
-191,446	68,002	0,067	0,049
-190,431	211,249	0,069	0,078
-189,417	-72,233	0,113	-0,030
-188,402	681,220	-0,027	-0,051
-187,387	346,199	-0,026	-0,036
-186,373	-140,665	0,047	-0,003
-185,358	800,000	0,016	0,038
-184,344	153,993	-0,062	-0,061
-183,329	-121,410	-0,055	0,006
-182,315	24,707	0,106	-0,063
-181,300	-72,285	0,049	0,013
-180,285	-94,367	-0,062	-0,012
-179,271	-184,167	-0,084	0,001
-178,256	84,287	0,050	0,039
-177,242	29,765	0,104	-0,063
-176,227	800,000	0,003	0,008
-175,212	-29,982	-0,078	0,032
-174,198	296,845	-0,063	-0,083
-173,183	104,108	0,038	0,032
-172,169	-23,692	-0,078	-0,033
-171,154	800,000	0,036	-0,107
-170,139	800,000	0,047	0,102
-169,125	136,340	-0,060	0,055
-168,110	158,180	-0,009	-0,009
-167,096	148,886	-0,015	0,015
-166,081	-200,000	0,010	0,077
-165,066	-167,466	0,042	0,001
-164,052	191,979	-0,098	-0,106
-163,037	-200,000	-0,004	0,064
-162,023	800,000	-0,041	0,125
-161,008	32,578	-0,089	-0,055
-159,993	-200,000	0,005	-0,076
-158,979	51,990	0,050	0,034
-157,964	139,806	-0,063	-0,059
-156,950	800,000	0,019	-0,044
-155,935	119,920	0,024	0,021
-154,920	125,640	0,043	-0,039
-153,906	117,156	-0,058	0,050
-152,891	-0,900	0,058	-0,029
-151,877	26,016	-0,075	-0,044
-150,862	-56,883	-0,153	-0,048
-149,847	800,000	-0,033	0,082
-148,833	800,000	-0,048	0,130
-147,818	800,000	-0,025	0,070
-146,804	-88,204	0,061	0,013
-145,789	-200,000	-0,020	0,089
-144,775	99,324	-0,083	0,069
-143,760	-112,082	-0,096	-0,014
-142,745	167,807	0,055	-0,055
-141,731	-200,000	0,005	0,084
-140,716	-200,000	-0,020	-0,128
-139,702	291,046	0,035	-0,045
-138,687	-68,475	-0,059	0,016
-137,672	670,704	0,050	-0,093
-136,658	-200,000	-0,029	-0,142
-135,643	-154,321	0,070	-0,003
-134,629	-89,615	0,103	-0,021
-133,614	-27,986	0,049	0,020
-132,599	7,246	-0,153	0,081
-131,585	-139,256	0,124	-0,009
-130,570	188,979	0,015	-0,016
-129,556	-200,000	-0,004	-0,060
-128,541	4,141	0,087	0,045
-127,526	-62,119	0,069	0,020
-126,512	-125,017	0,044	0,005
-125,497	-139,685	-0,021	0,002
-124,483	139,332	-0,034	-0,032
-123,468	-30,648	-0,058	0,023
-122,453	-67,422	-0,105	-0,029
-121,439	-200,000	0,002	0,044
-120,424	512,343	0,018	0,030
-119,410	-137,034	0,098	0,008
-118,395	755,426	0,017	0,032
-117,380	-200,000	-0,024	0,085
-116,366	-141,686	0,044	0,003
-115,351	-200,000	0,009	-0,028
-114,337	800,000	0,013	0,038
-113,322	203,999	-0,118	0,130
-112,307	-8,085	-0,083	0,040
-111,293	7,914	0,103	0,055
-110,278	-200,000	0,046	0,160
-109,264	123,705	-0,035	0,031
-108,249	358,189	-0,041	-0,058
-107,234	-200,000	-0,007	0,071
-106,220	88,676	-0,027	-0,021
-105,205	568,080	-0,068	0,118
-104,191	54,766	0,096	0,066
-103,176	-200,000	0,015	-0,104
-102,162	-87,207	-0,226	0,048
-101,147	251,630	-0,089	-0,108
-100,132	-200,000	0,000	-0,094
-99,118	51,285	0,059	0,040
-98,103	-50,934	-0,051	0,017
-97,089	91,467	0,095	0,076
-96,074	800,000	0,036	0,113
-95,059	-49,316	-0,079	-0,027
-94,045	-89,400	-0,019	-0,004
-93,030	-92,251	-0,127	-0,025
-92,016	800,000	-0,026	0,053
-91,001	800,000	-0,032	0,077
-89,986	800,000	-0,038	-0,083
-88,972	547,329	0,041	0,069
-87,957	21,434	0,042	-0,024
-86,943	231,653	-0,080	0,093
-85,928	-200,000	-0,007	0,109
-84,913	516,988	0,056	0,093
-83,899	-66,072	0,035	0,010
-82,884	195,888	0,073	0,079
-81,870	0,754	0,085	0,043
-80,855	-176,598	0,033	0,001
-79,840	-200,000	0,001	-0,031
-78,826	-142,432	-0,089	0,006
-77,811	348,656	-0,067	-0,094
-76,797	51,722	0,108	-0,073
-75,782	83,557	-0,072	-0,056
-74,767	105,033	-0,061	0,051
-73,753	-126,486	0,027	0,003
-72,738	-143,095	0,066	-0,004
-71,724	-182,031	-0,065	0,001
-70,709	800,000	0,038	0,100
-69,694	-117,552	-0,055	-0,007
-68,680	14,848	0,093	0,051
-67,665	343,249	-0,038	-0,052
-66,651	58,536	0,120	0,084
-65,636	800,000	-0,026	0,073
-64,622	159,748	-0,046	-0,045
-63,607	800,000	-0,025	-0,055
-62,592	800,000	-0,046	-0,090
-61,578	203,526	0,061	-0,067
-60,563	68,945	0,166	0,121
-59,549	-68,114	0,053	-0,014
-58,534	-44,208	-1,517	-0,537
-57,519	392,501	-1,458	-2,156
-56,505	-200,000	-0,412	-4,454
-55,490	114,262	0,957	0,826
-54,476	800,000	4,805	11,319
-53,461	-200,000	18,168	290,236
-52,446	800,000	728,477	2239,975
-51,432	558,455	1644,442	2823,421
-50,417	79,115	1665,369	1263,313
-49,403	22,658	1539,028	890,782
-48,388	16,695	1462,064	817,328
-47,373	17,864	1452,093	817,357
-46,359	17,244	1442,312	808,851
-45,344	14,956	1437,679	795,286
-44,330	14,877	1435,773	793,826
-43,315	14,816	1434,184	792,625
-42,300	14,895	1432,554	792,067
-41,286	14,917	1431,485	791,548
-40,271	14,879	1430,216	790,638
-39,257	14,846	1428,803	789,669
-38,242	14,955	1427,504	789,437
-37,227	14,960	1426,247	788,734
-36,213	14,929	1424,960	787,844
-35,198	14,890	1424,018	787,107
-34,184	14,945	1422,979	786,761
-33,169	14,903	1421,695	785,820
-32,154	14,930	1420,705	785,371
-31,140	14,925	1419,319	784,551
-30,125	14,953	1418,160	784,011
-29,111	14,927	1417,067	783,253
-28,096	14,906	1415,900	782,478
-27,082	14,872	1414,949	781,760
-26,067	14,837	1413,876	780,970
-25,052	14,819	1412,932	780,333
-24,038	14,791	1411,940	779,625
-23,023	14,864	1410,597	779,192
-22,009	14,808	1409,771	778,443
-20,994	14,809	1408,677	777,813
-19,979	14,811	1408,063	777,454
-18,965	14,769	1406,908	776,590
-17,950	14,750	1406,113	776,030
-16,936	14,751	1405,241	775,524
-15,921	14,774	1403,909	774,863
-14,906	14,733	1403,132	774,212
-13,892	14,778	1402,263	773,915
-12,877	14,754	1401,375	773,281
-11,863	14,801	1400,151	772,792
-10,848	14,681	1399,663	771,937
-9,833	14,718	1398,614	771,500
-8,819	14,640	1397,851	770,684
-7,804	14,681	1396,761	770,240
-6,790	14,688	1395,740	769,681
-5,775	14,667	1394,593	768,921
-4,760	14,683	1393,559	768,395
-3,746	14,625	1393,104	767,845
-2,731	14,653	1392,236	767,463
-1,717	14,627	1391,225	766,756
-0,702	14,702	1389,280	766,002
0,313	18,354	1308,400	738,367
1,327	34,531	706,253	436,068
2,342	53,714	124,304	84,410
3,356	2,716	16,553	8,475
4,371	6,859	3,235	1,701
5,386	-56,621	0,626	0,195
6,400	698,312	-0,050	0,093
7,415	800,000	-0,154	-0,351
8,429	93,399	-0,233	-0,187
9,444	24,246	-0,368	-0,215
10,459	246,263	-0,234	-0,280
11,473	105,612	-0,152	-0,127
12,488	-46,591	-0,386	-0,133
13,502	-16,169	-0,385	-0,172
14,517	15,127	-0,412	-0,228
15,531	-3,237	-0,441	-0,217
16,546	49,599	-0,349	-0,232
17,561	178,944	-0,271	-0,281
18,575	13,749	-0,167	-0,092
19,590	307,253	-0,259	-0,343
20,604	74,414	-0,234	-0,173
21,619	184,905	-0,350	-0,368
22,634	81,595	-0,434	-0,332
23,648	79,908	-0,328	-0,249
24,663	97,111	-0,331	-0,268
25,677	-17,996	-0,475	-0,210
26,692	-17,128	-0,374	-0,166
27,707	91,179	-0,268	-0,213
28,721	129,896	-0,425	-0,385
29,736	60,318	-0,448	-0,313
30,750	101,540	-0,469	-0,386
31,765	106,476	-0,356	-0,298
32,780	269,624	-0,263	-0,327
33,794	177,832	-0,349	-0,360
34,809	131,959	-0,299	-0,272
35,823	108,515	-0,305	-0,257
36,838	77,289	-0,395	-0,297
37,853	185,016	-0,333	-0,350
38,867	-19,431	-0,397	-0,173
39,882	-7,097	-0,456	-0,217
40,896	124,895	-0,315	-0,280
41,911	-39,436	-0,378	-0,139
42,926	355,234	-0,231	-0,325
43,940	150,194	-0,353	-0,338
44,955	-23,933	-0,353	-0,149
45,969	390,133	-0,229	-0,336
46,984	54,184	-0,291	-0,197
47,999	119,386	-0,392	-0,343
49,013	199,751	-0,352	-0,381
50,028	90,528	-0,403	-0,318
51,042	284,681	-0,274	-0,348
52,057	333,111	-0,195	-0,266
53,071	59,478	-0,344	-0,239
54,086	7,604	-0,367	-0,193
55,101	-32,556	-0,357	-0,140
56,115	-32,126	-0,415	-0,163
57,130	157,241	-0,283	-0,276
58,144	113,933	-0,428	-0,367
59,159	88,448	-0,346	-0,271
60,174	82,357	-0,424	-0,324
61,188	71,497	-0,347	-0,253
62,203	26,471	-0,336	-0,197
63,217	60,423	-0,338	-0,235
64,232	-1,010	-0,416	-0,207
65,247	106,878	-0,392	-0,328
66,261	-12,995	-0,479	-0,219
67,276	133,829	-0,284	-0,259
68,290	230,925	-0,255	-0,295
69,305	38,781	-0,386	-0,242
70,320	92,746	-0,286	-0,227
71,334	359,117	-0,198	-0,280
72,349	17,940	-0,207	-0,116
73,363	159,689	-0,272	-0,266
74,378	36,964	-0,287	-0,178
75,393	65,946	-0,326	-0,233
76,407	-15,744	-0,521	-0,233
77,422	206,429	-0,273	-0,299
78,436	-17,113	-0,351	-0,155
79,451	102,500	-0,321	-0,264
80,466	98,220	-0,331	-0,268
81,480	-149,019	-0,321	-0,018
82,495	181,311	-0,264	-0,273
83,509	69,114	-0,292	-0,211
84,524	154,461	-0,229	-0,221
85,539	48,657	-0,225	-0,148
86,553	51,407	-0,379	-0,253
87,568	1,897	-0,384	-0,194
88,582	122,877	-0,273	-0,240
89,597	388,765	-0,193	-0,282
90,611	60,932	-0,264	-0,184
91,626	116,518	-0,276	-0,238
92,641	237,483	-0,193	-0,225
93,655	133,280	-0,329	-0,298
94,670	31,406	-0,356	-0,214
95,684	133,248	-0,347	-0,315
96,699	240,066	-0,221	-0,259
97,714	-114,749	-0,279	-0,037
98,728	-64,776	-0,279	-0,079
99,743	62,648	-0,251	-0,176
100,757	22,800	-0,303	-0,174
101,772	178,416	-0,230	-0,236
102,787	6,266	-0,369	-0,192
103,801	55,883	-0,311	-0,211
104,816	-100,497	-0,302	-0,052
105,830	18,023	-0,406	-0,226
106,845	-31,561	-0,201	-0,079
107,860	86,804	-0,224	-0,173
108,874	27,394	-0,265	-0,156
109,889	60,246	-0,357	-0,248
110,903	59,751	-0,320	-0,221
111,918	90,904	-0,221	-0,174
112,933	-13,589	-0,292	-0,132
113,947	-149,002	-0,203	0,011
114,962	-87,593	-0,331	-0,070
115,976	25,323	-0,300	-0,174
116,991	16,649	-0,354	-0,196
118,006	67,103	-0,263	-0,188
119,020	75,887	-0,306	-0,227
120,035	76,684	-0,188	-0,139
121,049	82,640	-0,185	-0,141
122,064	67,372	-0,289	-0,206
123,079	77,521	-0,332	-0,248
124,093	-36,368	-0,277	-0,104
125,108	-16,566	-0,345	-0,152
126,122	316,451	-0,134	-0,177
127,137	-12,468	-0,293	-0,133
128,151	107,081	-0,296	-0,246
129,166	-59,316	-0,311	-0,093
130,181	-65,816	-0,382	-0,106
131,195	28,270	-0,302	-0,178
132,210	-10,792	-0,300	-0,138
133,224	36,722	-0,194	-0,120
134,239	33,871	-0,142	-0,087
135,254	-51,889	-0,336	-0,109
136,268	34,494	-0,128	-0,078
137,283	-59,760	-0,332	-0,099
138,297	40,881	-0,355	-0,224
139,312	82,659	-0,227	-0,172
140,327	-25,347	-0,389	-0,160
141,341	-47,493	-0,238	-0,080
142,356	333,006	-0,192	-0,261
143,370	-47,303	-0,303	-0,102
144,385	128,265	-0,219	-0,195
145,400	47,821	-0,159	-0,103
146,414	-36,694	-0,330	-0,124
147,429	20,207	-0,305	-0,172
148,443	87,880	-0,216	-0,168
149,458	-95,031	-0,355	-0,067
150,473	116,078	-0,226	-0,194
151,487	192,190	-0,219	-0,232
152,502	20,675	-0,259	-0,146
153,516	39,077	-0,380	-0,237
154,531	274,502	-0,275	-0,341
155,546	235,302	-0,204	-0,236
156,560	-18,739	-0,150	-0,065
157,575	92,234	-0,139	-0,109
158,589	800,000	-0,095	-0,239
159,604	37,347	-0,350	-0,216
160,619	-34,791	-0,327	-0,124
161,633	175,209	-0,261	-0,265
162,648	-22,163	-0,214	-0,090
163,662	0,290	-0,276	-0,137
164,677	226,707	-0,160	-0,182
165,692	173,432	-0,264	-0,266
166,706	-128,969	-0,223	-0,022
167,721	172,301	-0,156	-0,157
168,735	391,774	-0,103	-0,150
169,750	-17,568	-0,314	-0,137
170,764	197,547	-0,186	-0,199
171,779	97,984	-0,246	-0,197
172,794	75,083	-0,192	-0,141
173,808	49,174	-0,302	-0,198
174,823	-102,592	-0,153	0,025
175,837	-25,142	-0,194	-0,080
176,852	24,196	-0,229	-0,132
177,867	279,340	-0,203	-0,253
178,881	-160,883	-0,187	0,007
179,896	84,101	-0,269	-0,205
180,910	-27,510	-0,202	-0,081
181,925	227,165	-0,223	-0,253
182,940	31,471	-0,253	-0,151
183,954	-75,449	-0,310	-0,076
184,969	9,255	-0,231	-0,121
185,983	469,996	-0,181	-0,285
186,998	569,218	-0,115	-0,195
188,013	232,605	-0,138	-0,158
189,027	264,783	-0,160	-0,195
190,042	365,589	-0,257	-0,362
191,056	213,044	-0,219	-0,242
192,071	379,415	-0,084	-0,120
193,086	42,068	-0,145	-0,092
194,100	-90,785	-0,165	-0,033
195,115	723,751	-0,106	-0,198
196,129	-30,698	-0,201	-0,079
197,144	161,706	-0,269	-0,262
198,159	130,326	-0,287	-0,256
199,173	239,197	-0,096	-0,111
200,188	-3,213	-0,127	-0,062
201,202	91,801	-0,217	-0,170
202,217	156,490	-0,092	-0,088
203,232	718,026	-0,116	-0,216
204,246	-56,540	-0,234	-0,072
205,261	275,671	-0,240	-0,297
206,275	13,115	-0,112	-0,060
207,290	55,839	-0,186	-0,125
208,304	800,000	-0,050	-0,110
209,319	800,000	-0,095	-0,185
210,334	-86,147	-0,168	-0,036
211,348	800,000	-0,082	-0,159
212,363	45,941	-0,293	-0,188
213,377	644,380	-0,089	-0,158
214,392	-122,839	-0,144	-0,016
215,407	254,986	-0,162	-0,193
216,421	218,659	-0,178	-0,198
217,436	-45,756	-0,233	-0,080
218,450	-34,793	-0,207	-0,078
219,465	38,789	-0,177	-0,109
220,480	-4,251	-0,159	-0,076
221,494	-20,051	-0,143	-0,061
222,509	-4,720	-0,178	-0,085
223,523	-99,474	-0,099	-0,017
224,538	4,884	-0,280	-0,142
225,553	-16,856	-0,233	-0,102
226,567	93,318	-0,280	-0,220
227,582	100,232	-0,162	-0,130
228,596	-42,332	-0,177	-0,062
229,611	-25,635	-0,181	-0,074
230,626	561,457	-0,084	-0,141
231,640	800,000	-0,075	-0,205
232,655	159,126	-0,134	-0,129
233,669	800,000	-0,116	-0,327
234,684	143,438	-0,210	-0,194
235,699	528,632	-0,107	-0,175
236,713	-132,264	-0,224	-0,020
237,728	3,520	-0,236	-0,119
238,742	-90,877	-0,135	-0,027
239,757	110,905	-0,190	-0,159
240,772	-62,179	-0,200	-0,057
241,786	574,602	-0,138	-0,235
242,801	-20,549	-0,276	-0,117
243,815	142,564	-0,157	-0,144
244,830	-67,687	-0,167	-0,045
245,844	71,167	-0,203	-0,146
246,859	72,781	-0,155	-0,112
247,874	-24,466	-0,233	-0,096
248,888	7,986	-0,228	-0,118
249,903	800,000	-0,074	-0,155
250,917	185,990	-0,141	-0,145
251,932	83,790	-0,179	-0,135
252,947	89,348	-0,169	-0,131
253,961	-16,798	-0,198	-0,086
254,976	232,894	-0,129	-0,147
255,990	800,000	-0,110	-0,253
257,005	287,745	-0,188	-0,236
258,020	522,363	-0,127	-0,207
259,034	800,000	-0,122	-0,259
260,049	-200,000	-0,053	-0,230
261,063	41,304	-0,241	-0,151
262,078	235,359	-0,177	-0,203
263,093	57,450	-0,167	-0,113
264,107	233,548	-0,185	-0,211
265,122	-114,205	-0,207	0,027
266,136	6,411	-0,122	-0,062
267,151	800,000	-0,074	-0,209
268,166	800,000	-0,166	-0,319
269,180	-55,734	-0,303	-0,093
270,195	-115,113	-0,164	-0,021
271,209	114,600	-0,141	-0,119
272,224	28,723	-0,223	-0,130
273,239	150,452	-0,128	-0,120
274,253	-7,490	-0,086	0,040
275,268	80,576	-0,144	-0,107
276,282	113,002	-0,144	-0,121
277,297	115,222	-0,278	-0,235
278,312	400,250	-0,117	-0,170
279,326	218,027	-0,112	-0,123
280,341	10,905	-0,191	-0,101
281,355	-112,715	-0,104	0,014
282,370	-50,656	-0,149	-0,048
283,384	38,395	-0,165	-0,101
284,399	797,404	-0,082	-0,157
285,414	800,000	-0,071	-0,170
286,428	-80,048	-0,200	0,046
287,443	-200,000	-0,174	0,000
288,457	44,664	-0,251	-0,159
289,472	-200,000	-0,075	-0,238
290,487	319,512	-0,135	-0,178
291,501	137,025	-0,190	-0,171
292,516	234,746	-0,163	-0,186
293,530	47,830	-0,199	-0,128
294,545	18,052	-0,178	-0,098
295,560	94,949	-0,048	-0,038
296,574	-96,377	-0,195	-0,035
297,589	-200,000	-0,083	-0,312
298,603	296,581	-0,190	-0,241
299,618	123,496	-0,189	-0,164
300,633	144,516	-0,068	-0,062
301,647	-45,261	-0,113	-0,039
302,662	-143,733	-0,127	0,008
303,676	-80,333	-0,219	-0,050
304,691	169,030	-0,166	-0,163
305,706	82,590	-0,179	-0,134
306,720	99,837	-0,178	-0,142
307,735	64,257	-0,207	-0,144
308,749	40,041	-0,077	-0,048
309,764	-38,531	-0,102	-0,037
310,779	-200,000	0,000	-0,163
311,793	-86,370	-0,240	-0,051
312,808	30,272	-0,060	-0,035
313,822	11,305	-0,136	-0,072
314,837	82,091	-0,121	-0,090
315,852	-6,026	-0,103	-0,048
316,866	-200,000	-0,021	-0,113
317,881	161,422	-0,176	-0,170
318,895	8,857	-0,185	-0,096
319,910	115,738	-0,195	-0,164
320,925	12,834	-0,197	-0,104
321,939	-156,216	-0,079	-0,003
322,954	-29,852	-0,080	0,031
323,968	23,998	-0,100	0,057
324,983	166,897	-0,077	-0,075
325,997	-200,000	-0,129	0,000
327,012	-81,072	-0,188	-0,042
328,027	-83,847	-0,119	0,026
329,041	-4,072	-0,182	-0,086
330,056	-107,733	-0,217	-0,032
331,070	-7,630	-0,192	-0,089
332,085	-150,620	-0,153	-0,008
333,100	-200,000	-0,035	-0,188
334,114	48,534	-0,232	-0,149
335,129	222,464	-0,171	-0,190
336,143	-200,000	-0,034	-0,221
337,158	84,629	-0,050	0,038
338,173	45,212	-0,089	-0,056
339,187	289,379	-0,040	-0,049
340,202	238,965	-0,095	-0,108
341,216	53,697	-0,184	-0,122
342,231	74,899	-0,186	-0,135
343,246	100,464	-0,191	-0,152
344,260	-89,817	-0,117	-0,023
345,275	55,066	-0,055	0,036
346,289	-20,216	-0,167	-0,070
347,304	138,650	-0,056	-0,051
348,319	-68,019	-0,142	-0,038
349,333	405,732	-0,140	-0,204
350,348	89,048	-0,115	-0,088
351,362	57,864	-0,154	-0,104
352,377	161,690	-0,201	-0,193
353,392	-200,000	-0,022	-0,142
354,406	-24,205	-0,178	-0,073
355,421	209,093	1312,163	1412,903
356,435	160,911	1472,593	1413,401
