DTS Sentinel unit serial number:	SN410029Multiplexer serial number:	ORYXHardware model number:	OX2-SRSoftware version number:	ORYX F/W v4,00 Oryx Data Collector v3.7.2.0data status	okinstallation	B3 Nyhavnadifferential loss correction	single-endedforward channel	channel 1reverse channel	N/Adate	2023/12/04time	02:17:30forward acquisition time	300,00reverse acquisition time	0,00gamma	499,1914k internal	0,3204k external	0,3204temperature offset calibration	1,0000default loss term (dB/km)	0,3820temperature slope calibration	1,0000multiplexer offset coefficient	1,0000multiplexer slope coefficient	1,0000fibre end	0,00T internal ref (°C)	12,29T ext. ref 1 (°C)	-2,92T ext. ref 2 (°C)	-2,94length (m)	temperature (°C)	Stokes	anti-Stokes-744,400	36,307	-0,295	-0,189
-743,385	800,000	0,102	0,237
-742,371	-200,000	-0,022	-0,182
-741,356	347,394	0,221	0,317
-740,342	200,542	-0,143	-0,160
-739,327	-200,000	-0,050	0,335
-738,312	180,242	-0,176	-0,187
-737,298	800,000	-0,087	0,263
-736,283	800,000	-0,112	-0,297
-735,269	800,000	-0,064	0,180
-734,254	588,552	-0,100	-0,180
-733,239	567,101	-0,068	0,121
-732,225	-200,000	-0,091	-0,306
-731,210	512,847	0,083	0,141
-730,196	-200,000	0,014	0,069
-729,181	199,169	-0,090	-0,100
-728,167	-200,000	-0,003	0,065
-727,152	130,262	0,028	-0,026
-726,137	271,970	0,061	0,078
-725,123	-200,000	0,004	-0,062
-724,108	-200,000	-0,286	-0,001
-723,094	748,719	-0,025	-0,050
-722,079	-200,000	-0,021	-0,119
-721,064	-200,000	-0,004	-0,063
-720,050	323,082	-0,068	-0,095
-719,035	-29,242	-0,106	-0,044
-718,021	227,742	-0,096	-0,114
-717,006	-39,930	0,076	0,029
-715,991	705,407	0,046	-0,089
-714,977	800,000	-0,025	-0,067
-713,962	146,518	-0,034	0,033
-712,948	306,143	0,046	-0,062
-711,933	-99,151	0,063	0,011
-710,918	56,581	0,070	0,049
-709,904	53,684	-0,144	-0,100
-708,889	800,000	-0,024	-0,062
-707,875	-82,186	0,103	-0,024
-706,860	-43,672	-0,170	-0,062
-705,845	-74,203	-0,058	0,015
-704,831	179,013	-0,024	0,026
-703,816	-17,540	0,024	0,011
-702,802	19,800	0,092	-0,053
-701,787	-200,000	0,040	0,140
-700,772	4,970	-0,038	-0,020
-699,758	-10,919	-0,028	0,013
-698,743	-200,000	-0,006	0,045
-697,729	-73,382	-0,098	-0,026
-696,714	-12,191	0,116	0,055
-695,699	-30,603	0,080	0,033
-694,685	800,000	-0,050	-0,133
-693,670	-67,799	-0,094	-0,026
-692,656	-58,450	-0,114	0,036
-691,641	-200,000	0,035	0,131
-690,627	800,000	0,028	0,070
-689,612	316,377	-0,017	-0,024
-688,597	72,319	-0,114	-0,086
-687,583	10,107	-0,148	-0,081
-686,568	-200,000	0,009	-0,060
-685,554	800,000	-0,037	0,085
-684,539	-53,698	0,064	0,021
-683,524	-200,000	-0,014	0,091
-682,510	299,613	-0,063	0,085
-681,495	678,817	-0,046	-0,086
-680,481	414,804	0,080	-0,124
-679,466	18,774	-0,195	-0,113
-678,451	-185,637	0,123	-0,001
-677,437	293,439	-0,044	-0,059
-676,422	323,057	0,076	0,106
-675,408	-74,639	-0,066	0,017
-674,393	-32,600	0,056	0,022
-673,378	219,179	-0,029	-0,034
-672,364	-200,000	-0,040	0,000
-671,349	-200,000	-0,003	-0,035
-670,335	-121,394	-0,060	-0,007
-669,320	-200,000	-0,026	0,145
-668,305	269,255	-0,045	0,057
-667,291	99,867	-0,088	0,074
-666,276	42,059	0,058	0,038
-665,262	-77,365	-0,134	-0,033
-664,247	800,000	0,026	-0,065
-663,232	-200,000	0,010	0,039
-662,218	-140,251	0,166	-0,012
-661,203	194,492	-0,048	0,053
-660,189	313,546	0,101	0,138
-659,174	-73,881	-0,055	0,014
-658,159	-59,373	-0,066	-0,020
-657,145	309,816	-0,035	-0,047
-656,130	17,604	0,094	-0,054
-655,116	800,000	-0,049	-0,151
-654,101	-96,552	0,020	0,004
-653,086	-193,260	-0,071	0,000
-652,072	276,779	0,047	0,061
-651,057	-200,000	-0,033	-0,129
-650,043	119,662	-0,089	0,080
-649,028	196,480	-0,016	-0,017
-648,014	29,947	0,105	-0,064
-646,999	-119,377	-0,049	0,006
-645,984	-91,231	0,087	0,018
-644,970	223,998	-0,053	0,062
-643,955	800,000	0,018	0,045
-642,941	3,221	-0,048	-0,025
-641,926	-83,100	-0,098	0,023
-640,911	261,687	0,028	-0,035
-639,897	-70,406	-0,030	-0,008
-638,882	-159,060	-0,169	0,007
-637,868	-70,425	0,065	0,018
-636,853	-47,595	-0,041	0,014
-635,838	2,927	0,049	0,026
-634,824	-33,022	0,052	0,021
-633,809	800,000	-0,069	0,150
-632,795	345,216	0,097	0,139
-631,780	-200,000	-0,016	0,093
-630,765	15,851	-0,057	-0,032
-629,751	-23,565	0,040	-0,017
-628,736	-8,630	0,127	0,062
-627,722	-28,030	0,059	-0,025
-626,707	-200,000	0,005	0,040
-625,692	-200,000	0,040	0,243
-624,678	-200,000	0,002	0,022
-623,663	-173,593	-0,187	0,004
-622,649	54,272	-0,090	-0,063
-621,634	13,779	-0,130	-0,073
-620,619	-6,713	-0,026	0,013
-619,605	173,765	-0,046	-0,048
-618,590	14,496	0,123	-0,069
-617,576	800,000	0,059	0,133
-616,561	800,000	0,020	-0,049
-615,546	-200,000	0,007	-0,151
-614,532	55,467	-0,171	-0,119
-613,517	356,748	-0,038	-0,055
-612,503	-200,000	0,028	-0,137
-611,488	800,000	-0,017	-0,046
-610,474	256,107	-0,085	-0,105
-609,459	139,777	0,030	0,029
-608,444	366,815	-0,066	-0,096
-607,430	-200,000	0,018	-0,081
-606,415	-88,459	-0,074	0,016
-605,401	-34,674	0,176	-0,069
-604,386	-117,595	0,175	-0,023
-603,371	216,015	-0,154	-0,177
-602,357	-135,870	0,105	0,009
-601,342	163,847	0,055	-0,056
-600,328	-200,000	-0,017	-0,099
-599,313	-156,939	-0,074	0,003
-598,298	345,133	0,044	0,063
-597,284	-83,998	0,144	0,033
-596,269	-77,902	0,098	-0,024
-595,255	127,219	-0,014	-0,013
-594,240	-200,000	-0,006	0,086
-593,225	-14,962	-0,048	0,022
-592,211	361,224	-0,082	-0,119
-591,196	68,499	0,024	-0,018
-590,182	421,575	0,019	-0,030
-589,167	514,820	0,027	0,046
-588,152	-7,644	0,069	-0,034
-587,138	-200,000	0,007	0,041
-586,123	314,189	-0,074	-0,101
-585,109	15,393	-0,018	0,010
-584,094	522,586	-0,019	-0,032
-583,079	426,027	-0,040	-0,063
-582,065	-200,000	0,043	-0,170
-581,050	-56,215	0,052	0,017
-580,036	-200,000	0,004	0,068
-579,021	376,496	0,068	-0,101
-578,006	27,364	-0,111	-0,067
-576,992	168,607	0,036	0,037
-575,977	183,440	0,062	0,066
-574,963	3,640	-0,056	0,029
-573,948	34,770	0,111	0,070
-572,934	-120,103	-0,125	-0,015
-571,919	-33,790	-0,059	0,023
-570,904	58,766	-0,109	0,077
-569,890	800,000	0,046	-0,129
-568,875	59,277	0,097	-0,069
-567,861	-7,336	0,060	-0,029
-566,846	-200,000	-0,006	0,038
-565,831	-200,000	0,008	0,115
-564,817	-27,970	-0,158	-0,066
-563,802	-99,018	-0,092	0,017
-562,788	615,656	0,063	0,115
-561,773	-134,264	-0,057	-0,005
-560,758	-200,000	-0,038	-0,134
-559,744	-200,000	0,000	0,082
-558,729	-200,000	-0,002	0,045
-557,715	501,815	-0,044	-0,074
-556,700	258,518	0,010	0,012
-555,685	393,062	-0,057	-0,086
-554,671	117,462	0,191	0,169
-553,656	294,072	0,017	-0,023
-552,642	800,000	0,047	-0,125
-551,627	-200,000	0,006	-0,021
-550,612	174,708	0,066	-0,069
-549,598	183,078	-0,094	-0,100
-548,583	189,714	-0,142	-0,154
-547,569	-200,000	-0,001	0,010
-546,554	-172,257	0,082	-0,002
-545,539	150,982	-0,073	0,071
-544,525	525,109	0,112	-0,191
-543,510	514,536	-0,046	0,078
-542,496	241,985	0,039	-0,047
-541,481	118,743	0,107	-0,095
-540,466	260,550	0,034	-0,042
-539,452	-116,416	-0,068	0,009
-538,437	674,182	0,038	0,071
-537,423	-126,375	-0,084	-0,009
-536,408	800,000	0,018	0,041
-535,393	-200,000	-0,006	0,076
-534,379	126,383	0,075	-0,068
-533,364	-168,521	0,104	-0,003
-532,350	-123,733	0,107	-0,012
-531,335	-200,000	0,016	-0,065
-530,321	-171,543	-0,089	-0,002
-529,306	-200,000	0,005	-0,026
-528,291	-200,000	0,023	-0,101
-527,277	-119,495	-0,128	-0,016
-526,262	17,847	0,235	-0,135
-525,248	-13,538	-0,062	-0,029
-524,233	-3,459	0,047	0,024
-523,218	800,000	0,020	-0,056
-522,204	-1,641	0,071	0,036
-521,189	-200,000	-0,021	-0,098
-520,175	800,000	-0,019	0,060
-519,160	-158,561	-0,047	-0,002
-518,145	-170,057	-0,029	0,001
-517,131	800,000	-0,054	0,131
-516,116	-15,096	0,180	0,083
-515,102	19,937	0,139	-0,080
-514,087	-200,000	0,015	-0,128
-513,072	800,000	-0,039	0,085
-512,058	335,523	-0,089	-0,124
-511,043	-200,000	-0,010	0,179
-510,029	57,205	0,083	0,058
-509,014	470,957	-0,053	0,087
-507,999	800,000	0,053	0,142
-506,985	800,000	-0,012	-0,036
-505,970	133,349	-0,039	0,037
-504,956	285,436	0,052	0,068
-503,941	-135,059	0,150	0,013
-502,926	111,116	0,068	0,059
-501,912	800,000	0,036	0,085
-500,897	38,476	-0,039	-0,025
-499,883	-18,223	0,126	0,056
-498,868	-200,000	-0,006	-0,169
-497,853	288,203	0,032	-0,042
-496,839	466,186	0,038	0,061
-495,824	-200,000	-0,014	0,130
-494,810	-200,000	0,013	0,175
-493,795	-44,966	-0,065	-0,023
-492,781	525,391	-0,032	-0,055
-491,766	-200,000	-0,037	-0,129
-490,751	-200,000	0,014	-0,067
-489,737	390,609	0,065	0,098
-488,722	800,000	0,021	0,061
-487,708	42,495	-0,100	0,066
-486,693	72,800	0,005	-0,004
-485,678	0,103	-0,106	0,054
-484,664	218,309	-0,053	-0,061
-483,649	38,411	-0,053	-0,034
-482,635	-200,000	-0,004	0,042
-481,620	-200,000	0,025	-0,203
-480,605	-35,823	0,115	-0,045
-479,591	-81,765	0,080	0,019
-478,576	800,000	0,063	0,160
-477,562	-114,274	0,033	0,005
-476,547	-200,000	-0,013	-0,078
-475,532	-133,923	-0,084	0,007
-474,518	-144,224	0,028	0,002
-473,503	-71,289	0,025	-0,007
-472,489	30,665	0,021	0,013
-471,474	10,668	0,056	0,031
-470,459	27,844	-0,056	-0,034
-469,445	-111,503	-0,083	0,012
-468,430	225,245	-0,031	-0,036
-467,416	95,229	-0,061	0,050
-466,401	61,722	-0,024	0,017
-465,386	-15,406	0,030	-0,014
-464,372	139,557	0,099	0,094
-463,357	255,338	0,050	-0,062
-462,343	-101,070	-0,153	-0,027
-461,328	174,721	0,058	0,060
-460,313	800,000	-0,018	-0,036
-459,299	560,673	-0,010	-0,017
-458,284	-9,373	0,026	-0,012
-457,270	-68,855	-0,056	-0,015
-456,255	39,436	0,051	0,033
-455,241	800,000	-0,017	-0,049
-454,226	208,656	-0,124	-0,140
-453,211	232,333	-0,050	0,059
-452,197	36,876	-0,085	0,054
-451,182	800,000	-0,043	0,109
-450,168	-106,618	-0,157	-0,025
-449,153	-4,389	-0,090	0,044
-448,138	-200,000	-0,005	-0,039
-447,124	-200,000	-0,002	-0,081
-446,109	-117,020	0,153	-0,020
-445,095	-200,000	0,044	-0,181
-444,080	2,009	-0,101	0,052
-443,065	-14,103	0,196	-0,091
-442,051	800,000	0,033	-0,068
-441,036	388,307	-0,066	-0,099
-440,022	-200,000	0,012	0,068
-439,007	-200,000	-0,034	-0,129
-437,992	1,740	-0,100	-0,052
-436,978	-129,566	0,031	0,003
-435,963	131,706	0,063	-0,058
-434,949	421,584	0,020	-0,030
-433,934	97,596	0,112	-0,092
-432,919	2,539	0,140	-0,072
-431,905	-72,249	0,056	-0,015
-430,890	-200,000	0,016	0,080
-429,876	-33,243	-0,108	0,043
-428,861	352,572	-0,017	-0,025
-427,846	-200,000	-0,032	0,120
-426,832	188,642	-0,047	0,051
-425,817	11,124	-0,093	0,051
-424,803	-29,182	0,046	0,019
-423,788	-13,390	0,104	0,048
-422,773	-200,000	-0,007	-0,025
-421,759	800,000	-0,021	0,063
-420,744	-74,811	-0,082	0,021
-419,730	65,907	-0,028	-0,021
-418,715	172,752	-0,096	-0,099
-417,701	800,000	-0,032	-0,076
-416,686	-67,716	-0,074	-0,021
-415,671	639,320	0,070	-0,128
-414,657	-159,365	0,101	0,004
-413,642	-200,000	0,038	0,162
-412,628	-93,282	-0,081	0,016
-411,613	800,000	-0,039	0,118
-410,598	-85,697	-0,159	0,035
-409,584	-60,457	0,004	0,001
-408,569	-155,004	-0,018	0,001
-407,555	-67,099	0,094	0,026
-406,540	155,786	-0,059	0,059
-405,525	91,433	-0,056	0,045
-404,511	123,605	-0,112	-0,100
-403,496	-176,046	-0,151	-0,003
-402,482	-200,000	-0,022	0,122
-401,467	-200,000	0,005	0,077
-400,452	567,710	0,038	0,066
-399,438	-200,000	-0,002	0,051
-398,423	225,743	-0,148	0,172
-397,409	800,000	-0,053	-0,106
-396,394	64,563	-0,036	-0,026
-395,379	253,693	0,077	0,095
-394,365	127,251	0,099	-0,090
-393,350	289,593	0,079	0,102
-392,336	79,589	0,037	0,028
-391,321	-200,000	0,019	0,071
-390,306	800,000	-0,112	-0,268
-389,292	-34,410	0,088	-0,034
-388,277	-200,000	-0,016	-0,056
-387,263	-169,314	0,100	-0,003
-386,248	-200,000	0,026	0,086
-385,233	800,000	0,065	-0,137
-384,219	-83,391	-0,093	-0,021
-383,204	800,000	-0,066	-0,136
-382,190	800,000	-0,023	-0,059
-381,175	28,689	-0,051	0,031
-380,160	-43,486	0,082	-0,030
-379,146	665,110	0,015	-0,028
-378,131	139,332	-0,085	-0,080
-377,117	4,326	0,148	-0,077
-376,102	800,000	-0,042	-0,118
-375,088	658,308	0,061	-0,113
-374,073	-71,363	-0,185	-0,049
-373,058	800,000	0,033	-0,097
-372,044	657,542	0,033	0,061
-371,029	51,526	0,067	0,045
-370,015	31,891	-0,060	-0,037
-369,000	741,631	-0,043	-0,083
-367,985	168,654	0,052	-0,053
-366,971	800,000	0,020	-0,054
-365,956	-200,000	-0,048	0,196
-364,942	-200,000	-0,005	0,107
-363,927	287,993	0,095	0,124
-362,912	117,431	-0,087	0,077
-361,898	163,571	-0,016	-0,017
-360,883	-119,630	-0,113	-0,014
-359,869	800,000	0,030	0,083
-358,854	664,911	0,047	-0,087
-357,839	-200,000	0,009	0,042
-356,825	71,108	0,090	0,067
-355,810	-17,276	0,106	0,048
-354,796	800,000	-0,010	0,025
-353,781	-65,471	0,077	-0,022
-352,766	569,054	-0,013	-0,022
-351,752	605,452	0,029	0,053
-350,737	49,255	0,100	0,067
-349,723	220,630	0,134	0,154
-348,708	335,662	-0,022	0,031
-347,693	-25,990	-0,040	0,017
-346,679	326,738	-0,059	-0,081
-345,664	162,934	-0,064	-0,064
-344,650	-6,127	0,084	0,041
-343,635	223,786	0,044	-0,051
-342,620	-200,000	-0,013	0,049
-341,606	-96,814	-0,025	0,005
-340,591	97,591	0,022	0,018
-339,577	-200,000	0,010	-0,087
-338,562	48,388	-0,124	-0,083
-337,548	-43,628	-0,148	0,053
-336,533	26,858	0,078	0,047
-335,518	-94,408	0,166	0,032
-334,504	800,000	-0,008	-0,022
-333,489	-200,000	-0,008	0,086
-332,475	-44,210	0,052	-0,018
-331,460	17,889	-0,077	0,044
-330,445	-200,000	-0,012	0,091
-329,431	800,000	-0,044	0,114
-328,416	-91,088	-0,105	0,021
-327,402	260,658	0,057	0,071
-326,387	235,540	0,065	-0,077
-325,372	-125,572	-0,108	-0,012
-324,358	280,747	-0,059	-0,076
-323,343	-200,000	-0,008	-0,118
-322,329	-77,753	-0,045	-0,011
-321,314	-123,993	-0,151	0,017
-320,299	-27,305	0,051	-0,021
-319,285	-200,000	-0,006	0,049
-318,270	739,906	0,024	0,047
-317,256	-3,746	0,103	0,051
-316,241	147,836	-0,056	0,054
-315,226	309,965	0,024	0,032
-314,212	800,000	-0,060	0,133
-313,197	108,613	0,047	0,040
-312,183	104,275	0,105	0,088
-311,168	125,826	0,024	-0,022
-310,153	30,647	-0,095	-0,058
-309,139	-200,000	0,002	0,081
-308,124	730,119	0,031	-0,059
-307,110	26,219	-0,059	-0,035
-306,095	800,000	-0,023	0,046
-305,080	-200,000	0,018	0,065
-304,066	-124,458	0,026	-0,003
-303,051	619,668	0,080	-0,145
-302,037	0,140	0,141	-0,072
-301,022	-139,026	-0,047	-0,004
-300,008	44,971	0,107	0,070
-298,993	-200,000	-0,020	0,164
-297,978	-200,000	-0,007	0,107
-296,964	800,000	-0,025	-0,059
-295,949	-62,067	-0,031	-0,009
-294,935	-142,980	-0,094	-0,006
-293,920	-41,573	-0,022	-0,008
-292,905	-200,000	0,018	0,068
-291,891	-136,262	0,055	-0,005
-290,876	39,589	0,059	0,037
-289,862	-200,000	0,012	-0,084
-288,847	27,052	-0,113	-0,068
-287,832	186,118	-0,050	-0,053
-286,818	54,222	0,029	-0,020
-285,803	-200,000	0,005	-0,054
-284,789	-30,060	-0,057	0,023
-283,774	-200,000	-0,017	0,114
-282,759	-48,118	-0,040	0,014
-281,745	401,099	0,066	-0,099
-280,730	122,213	-0,037	0,033
-279,716	-200,000	0,016	-0,071
-278,701	-28,518	0,040	0,016
-277,686	-200,000	-0,009	0,135
-276,672	124,884	0,052	-0,047
-275,657	569,341	-0,055	0,096
-274,643	800,000	-0,013	0,038
-273,628	-64,483	-0,140	-0,040
-272,613	-112,748	0,122	0,017
-271,599	89,731	0,115	0,091
-270,584	-200,000	-0,004	0,043
-269,570	-200,000	-0,017	-0,086
-268,555	-136,674	0,166	0,013
-267,540	36,921	0,120	-0,075
-266,526	-94,251	-0,038	0,007
-265,511	139,068	-0,083	-0,078
-264,497	207,072	0,052	-0,057
-263,482	79,472	-0,059	0,045
-262,467	373,373	-0,046	0,066
-261,453	-37,098	0,080	-0,030
-260,438	800,000	0,008	-0,021
-259,424	177,579	-0,022	0,023
-258,409	85,014	-0,028	-0,022
-257,395	-126,692	0,117	-0,012
-256,380	253,757	-0,089	0,109
-255,365	-200,000	-0,012	0,142
-254,351	50,686	0,126	0,085
-253,336	-65,627	-0,130	-0,037
-252,322	-52,251	-0,063	0,021
-251,307	-115,960	0,118	-0,016
-250,292	113,873	0,074	0,064
-249,278	83,929	0,129	-0,100
-248,263	-200,000	-0,033	0,164
-247,249	800,000	0,051	0,120
-246,234	45,438	0,027	0,018
-245,219	-151,782	-0,046	0,002
-244,205	-200,000	-0,014	0,066
-243,190	56,041	-0,085	-0,059
-242,176	-106,714	0,163	-0,026
-241,161	512,233	0,045	0,076
-240,146	-200,000	-0,006	0,065
-239,132	-71,433	0,103	-0,027
-238,117	-167,298	-0,045	0,001
-237,103	-171,005	-0,210	0,005
-236,088	263,062	-0,031	0,038
-235,073	6,605	0,135	0,071
-234,059	-200,000	-0,018	0,118
-233,044	-200,000	0,000	0,044
-232,030	-65,247	0,024	0,007
-231,015	201,865	-0,063	-0,070
-230,000	252,894	-0,064	-0,078
-228,986	-55,591	-0,035	-0,011
-227,971	-107,325	0,119	-0,018
-226,957	352,579	0,134	0,190
-225,942	-200,000	0,058	0,187
-224,927	-157,954	-0,047	-0,002
-223,913	-122,248	0,072	0,008
-222,898	-98,208	0,112	-0,020
-221,884	-200,000	-0,001	-0,022
-220,869	-102,731	0,130	-0,022
-219,855	-200,000	-0,002	-0,032
-218,840	-168,733	0,127	-0,003
-217,825	504,065	0,047	0,078
-216,811	132,581	-0,072	0,066
-215,796	445,925	0,038	-0,059
-214,782	-200,000	0,006	0,054
-213,767	-200,000	-0,002	-0,053
-212,752	58,866	-0,029	0,020
-211,738	-91,045	-0,057	-0,011
-210,723	-200,000	-0,004	0,032
-209,709	214,978	-0,048	-0,055
-208,694	94,977	-0,110	-0,089
-207,679	-200,000	-0,002	-0,205
-206,665	800,000	0,017	-0,049
-205,650	-96,359	-0,042	0,008
-204,636	-13,300	0,057	0,026
-203,621	-95,970	-0,095	-0,018
-202,606	156,396	-0,030	-0,029
-201,592	-52,833	0,055	0,018
-200,577	758,559	-0,031	0,060
-199,563	10,727	-0,064	-0,034
-198,548	-200,000	-0,034	0,176
-197,533	800,000	0,020	0,045
-196,519	-200,000	0,001	0,113
-195,504	-25,395	-0,212	-0,089
-194,490	-46,820	-0,137	-0,047
-193,475	800,000	-0,034	-0,105
-192,460	123,820	-0,038	-0,034
-191,446	-58,685	0,108	-0,033
-190,431	800,000	0,015	0,038
-189,417	-200,000	-0,014	-0,068
-188,402	181,965	-0,135	-0,141
-187,387	312,978	0,069	-0,093
-186,373	89,362	-0,195	-0,155
-185,358	-89,157	-0,147	-0,031
-184,344	-165,729	-0,046	-0,001
-183,329	800,000	0,054	-0,167
-182,315	-200,000	0,023	0,160
-181,300	-41,508	-0,132	0,048
-180,285	-37,212	0,091	0,034
-179,271	59,300	-0,096	-0,067
-178,256	-36,877	0,114	-0,043
-177,242	-137,767	0,092	-0,007
-176,227	-59,784	0,132	-0,040
-175,212	-200,000	-0,010	0,033
-174,198	-34,626	-0,136	0,053
-173,183	-147,339	0,074	0,004
-172,169	301,199	0,036	0,047
-171,154	11,822	0,099	-0,054
-170,139	-200,000	0,009	0,122
-169,125	-200,000	-0,013	0,080
-168,110	-200,000	0,022	0,119
-167,096	-102,933	-0,047	0,008
-166,081	800,000	0,014	-0,044
-165,066	33,856	-0,071	-0,044
-164,052	800,000	-0,060	-0,142
-163,037	109,217	-0,103	0,088
-162,023	-129,106	0,037	-0,004
-161,008	424,421	-0,058	0,089
-159,993	-40,888	0,067	0,025
-158,979	-144,528	-0,074	-0,005
-157,964	24,726	-0,072	0,042
-156,950	-200,000	0,002	0,057
-155,935	307,672	0,043	-0,057
-154,920	696,727	0,013	0,024
-153,906	-6,447	0,068	-0,033
-152,891	156,377	-0,043	-0,043
-151,877	302,148	-0,087	-0,114
-150,862	-16,344	-0,089	-0,040
-149,847	-49,785	-0,113	0,038
-148,833	-200,000	0,025	-0,093
-147,818	-200,000	0,016	-0,102
-146,804	-179,227	0,148	-0,002
-145,789	730,971	0,004	0,007
-144,775	-139,746	-0,160	-0,012
-143,760	503,232	-0,028	-0,046
-142,745	-16,252	-0,069	-0,031
-141,731	16,178	0,049	-0,027
-140,716	534,415	0,044	-0,074
-139,702	800,000	-0,028	0,062
-138,687	800,000	0,052	0,111
-137,672	-3,068	0,085	-0,042
-136,658	419,694	0,059	-0,090
-135,643	-200,000	0,026	0,131
-134,629	331,860	0,025	-0,035
-133,614	-200,000	0,001	-0,074
-132,599	172,709	0,048	0,049
-131,585	-200,000	0,002	-0,123
-130,570	654,840	0,032	0,059
-129,556	-16,241	0,067	-0,030
-128,541	128,404	-0,104	-0,094
-127,526	379,585	-0,024	0,036
-126,512	-200,000	0,037	0,119
-125,497	-86,541	-0,061	0,013
-124,483	-140,340	0,111	0,008
-123,468	-91,956	-0,114	0,023
-122,453	-143,662	-0,101	-0,007
-121,439	800,000	0,007	-0,016
-120,424	240,856	0,072	0,086
-119,410	800,000	0,033	0,066
-118,395	-14,114	0,120	-0,055
-117,380	-200,000	-0,021	0,099
-116,366	-200,000	0,020	-0,158
-115,351	-24,966	-0,109	0,046
-114,337	165,256	-0,099	-0,100
-113,322	-200,000	-0,016	-0,070
-112,307	-20,269	-0,007	0,003
-111,293	-200,000	-0,005	-0,070
-110,278	-29,188	0,138	0,056
-109,264	-85,050	-0,122	-0,027
-108,249	-157,045	-0,198	0,008
-107,234	187,294	0,024	-0,025
-106,220	2,873	-0,062	0,032
-105,205	800,000	0,011	0,030
-104,191	-31,885	0,032	-0,013
-103,176	-200,000	-0,019	0,146
-102,162	102,106	0,079	-0,065
-101,147	513,982	0,048	0,079
-100,132	-23,252	0,056	0,024
-99,118	7,292	-0,053	-0,028
-98,103	-200,000	-0,029	-0,108
-97,089	-45,791	0,063	0,022
-96,074	-43,078	0,168	-0,060
-95,059	-156,791	-0,116	-0,005
-94,045	-19,687	-0,112	0,049
-93,030	-200,000	0,004	0,024
-92,016	800,000	0,076	-0,153
-91,001	-41,219	-0,271	0,098
-89,986	247,519	0,050	0,060
-88,972	13,997	0,150	0,082
-87,957	-200,000	-0,008	0,204
-86,943	-44,364	-0,126	-0,044
-85,928	-113,201	0,038	0,005
-84,913	175,668	-0,097	-0,100
-83,899	-200,000	0,005	0,026
-82,884	-119,277	-0,041	-0,005
-81,870	-121,728	-0,048	0,006
-80,855	67,657	-0,091	0,066
-79,840	-70,151	-0,027	0,007
-78,826	-62,466	0,109	-0,032
-77,811	-60,423	-0,143	-0,043
-76,797	-11,460	0,030	-0,014
-75,782	472,532	0,053	0,085
-74,767	351,192	0,048	0,067
-73,753	-200,000	-0,005	0,176
-72,738	75,012	-0,057	-0,042
-71,724	26,240	-0,078	-0,046
-70,709	317,316	0,043	-0,058
-69,694	16,715	-0,077	-0,043
-68,680	104,632	0,030	0,025
-67,665	800,000	0,039	0,115
-66,651	343,769	-0,050	0,070
-65,636	-200,000	-0,027	0,172
-64,622	33,285	-0,076	-0,046
-63,607	327,337	0,038	-0,052
-62,592	23,186	-0,033	-0,019
-61,578	800,000	-0,039	0,089
-60,563	-56,115	0,118	0,037
-59,549	-200,000	0,005	0,054
-58,534	15,395	-1,723	-0,954
-57,519	358,190	-1,436	-2,033
-56,505	-200,000	-0,483	-4,558
-55,490	321,106	0,954	1,286
-54,476	800,000	4,888	11,314
-53,461	-200,000	20,179	324,653
-52,446	800,000	751,928	2315,015
-51,432	550,149	1663,375	2832,214
-50,417	75,252	1672,438	1246,052
-49,403	20,155	1545,196	879,552
-48,388	14,115	1467,306	805,824
-47,373	18,333	1457,616	820,855
-46,359	16,439	1447,178	805,868
-45,344	12,424	1442,569	784,036
-44,330	12,311	1440,906	782,561
-43,315	12,330	1439,041	781,607
-42,300	12,355	1437,209	780,703
-41,286	12,377	1436,129	780,189
-40,271	12,277	1434,809	778,960
-39,257	12,375	1433,270	778,565
-38,242	12,330	1432,362	777,827
-37,227	12,359	1431,058	777,223
-36,213	12,370	1429,879	776,606
-35,198	12,379	1428,485	775,859
-34,184	12,431	1427,497	775,539
-33,169	12,383	1426,263	774,611
-32,154	12,421	1425,024	774,085
-31,140	12,412	1423,719	773,303
-30,125	12,398	1422,810	772,715
-29,111	12,365	1421,624	771,881
-28,096	12,397	1420,487	771,387
-27,082	12,320	1419,410	770,406
-26,067	12,325	1418,346	769,821
-25,052	12,381	1417,328	769,505
-24,038	12,313	1416,381	768,641
-23,023	12,336	1415,121	768,033
-22,009	12,354	1414,035	767,496
-20,994	12,287	1413,164	766,677
-19,979	12,298	1412,336	766,249
-18,965	12,253	1411,510	765,562
-17,950	12,241	1410,805	765,092
-16,936	12,266	1409,920	764,700
-15,921	12,213	1408,632	763,722
-14,906	12,269	1407,797	763,500
-13,892	12,243	1406,829	762,824
-12,877	12,213	1405,799	762,095
-11,863	12,222	1405,156	761,758
-10,848	12,192	1404,138	761,036
-9,833	12,145	1403,356	760,364
-8,819	12,103	1402,619	759,740
-7,804	12,124	1401,667	759,290
-6,790	12,131	1400,618	758,723
-5,775	12,173	1399,601	758,341
-4,760	12,129	1398,572	757,546
-3,746	12,121	1397,552	756,928
-2,731	12,132	1396,669	756,472
-1,717	12,089	1395,895	755,822
-0,702	12,091	1394,056	754,806
0,313	16,008	1309,199	726,962
1,327	32,207	700,244	426,080
2,342	49,598	122,131	81,149
3,356	0,662	16,485	8,307
4,371	2,856	3,101	1,585
5,386	24,337	0,501	0,292
6,400	-200,000	0,033	0,340
7,415	-121,437	-0,332	0,039
8,429	-11,036	-0,297	-0,138
9,444	-45,965	-0,333	-0,115
10,459	-17,228	-0,348	-0,154
11,473	92,772	-0,212	-0,169
12,488	36,613	-0,273	-0,170
13,502	320,308	-0,138	-0,186
14,517	11,485	-0,252	-0,136
15,531	181,761	-0,257	-0,268
16,546	50,422	-0,318	-0,212
17,561	13,695	-0,466	-0,255
18,575	-94,053	-0,274	-0,053
19,590	28,605	-0,261	-0,155
20,604	58,706	-0,178	-0,123
21,619	54,095	-0,556	-0,376
22,634	72,319	-0,599	-0,440
23,648	14,883	-0,483	-0,266
24,663	0,658	-0,383	-0,192
25,677	168,527	-0,323	-0,325
26,692	-5,099	-0,445	-0,215
27,707	66,338	-0,302	-0,216
28,721	38,323	-0,370	-0,232
29,736	114,538	-0,382	-0,328
30,750	85,445	-0,425	-0,329
31,765	109,582	-0,310	-0,262
32,780	113,808	-0,448	-0,384
33,794	229,696	-0,291	-0,335
34,809	31,476	-0,395	-0,239
35,823	-2,502	-0,406	-0,199
36,838	54,537	-0,362	-0,246
37,853	93,813	-0,384	-0,306
38,867	37,864	-0,346	-0,216
39,882	60,852	-0,356	-0,248
40,896	114,812	-0,243	-0,209
41,911	-88,421	-0,302	-0,063
42,926	-29,562	-0,471	-0,189
43,940	37,025	-0,407	-0,253
44,955	80,294	-0,312	-0,236
45,969	226,642	-0,257	-0,295
46,984	93,877	-0,302	-0,241
47,999	248,572	-0,289	-0,344
49,013	63,456	-0,280	-0,198
50,028	48,189	-0,243	-0,160
51,042	219,397	-0,273	-0,308
52,057	104,850	-0,361	-0,299
53,071	20,786	-0,337	-0,192
54,086	-32,898	-0,305	-0,119
55,101	-64,677	-0,286	-0,081
56,115	-71,339	-0,339	-0,089
57,130	52,961	-0,362	-0,243
58,144	99,371	-0,378	-0,308
59,159	57,613	-0,489	-0,335
60,174	800,000	-0,224	-0,445
61,188	65,363	-0,403	-0,287
62,203	28,305	-0,419	-0,248
63,217	43,671	-0,282	-0,181
64,232	-41,535	-0,500	-0,180
65,247	37,485	-0,360	-0,224
66,261	89,242	-0,360	-0,282
67,276	96,450	-0,342	-0,275
68,290	177,698	-0,227	-0,233
69,305	183,371	-0,186	-0,193
70,320	-108,077	-0,219	-0,033
71,334	-93,380	-0,301	-0,058
72,349	18,193	-0,419	-0,234
73,363	-23,296	-0,380	-0,160
74,378	170,552	-0,294	-0,296
75,393	39,339	-0,417	-0,262
76,407	25,107	-0,216	-0,126
77,422	-94,410	-0,275	-0,052
78,436	2,823	-0,365	-0,185
79,451	3,963	-0,317	-0,162
80,466	13,428	-0,430	-0,233
81,480	-129,850	-0,333	-0,032
82,495	-12,209	-0,294	-0,134
83,509	-9,124	-0,246	-0,115
84,524	177,555	-0,212	-0,217
85,539	67,334	-0,302	-0,216
86,553	499,472	-0,108	-0,176
87,568	11,269	-0,361	-0,193
88,582	-34,079	-0,389	-0,149
89,597	263,675	-0,176	-0,215
90,611	149,238	-0,247	-0,235
91,626	291,451	-0,239	-0,306
92,641	22,781	-0,260	-0,149
93,655	109,803	-0,257	-0,216
94,670	-13,513	-0,342	-0,155
95,684	-123,358	-0,383	-0,042
96,699	-30,759	-0,440	-0,174
97,714	235,762	-0,207	-0,240
98,728	800,000	-0,081	-0,196
99,743	-11,419	-0,311	-0,143
100,757	107,711	-0,214	-0,178
101,772	-8,504	-0,192	-0,090
102,787	56,348	-0,239	-0,162
103,801	136,516	-0,343	-0,314
104,816	167,330	-0,275	-0,274
105,830	91,681	-0,266	-0,209
106,845	-102,920	-0,286	-0,047
107,860	34,234	-0,303	-0,184
108,874	203,625	-0,284	-0,308
109,889	17,367	-0,373	-0,207
110,903	75,995	-0,249	-0,184
111,918	333,882	-0,146	-0,198
112,933	1,892	-0,277	-0,140
113,947	0,377	-0,223	-0,111
114,962	251,516	-0,175	-0,209
115,976	126,278	-0,188	-0,167
116,991	192,872	-0,190	-0,201
118,006	141,237	-0,160	-0,148
119,020	56,580	-0,336	-0,228
120,035	-89,017	-0,275	-0,056
121,049	90,396	-0,199	-0,155
122,064	16,602	-0,223	-0,123
123,079	-67,004	-0,198	-0,054
124,093	197,860	-0,203	-0,217
125,108	210,173	-0,248	-0,272
126,122	89,750	-0,223	-0,174
127,137	-48,076	-0,218	0,073
128,151	147,872	-0,214	-0,202
129,166	-10,991	-0,202	-0,093
130,181	52,095	-0,283	-0,188
131,195	-30,179	-0,379	-0,150
132,210	-24,012	-0,272	-0,113
133,224	29,804	-0,168	-0,100
134,239	79,112	-0,281	-0,210
135,254	-200,000	-0,030	-0,181
136,268	403,600	-0,232	-0,342
137,283	688,902	-0,115	-0,210
138,297	302,968	-0,144	-0,186
139,312	603,969	-0,142	-0,248
140,327	336,863	-0,270	-0,367
141,341	127,030	-0,260	-0,230
142,356	68,880	-0,318	-0,228
143,370	65,393	-0,263	-0,186
144,385	45,010	-0,213	-0,136
145,400	123,779	-0,254	-0,223
146,414	0,838	-0,303	-0,151
147,429	263,201	-0,213	-0,259
148,443	185,857	-0,206	-0,213
149,458	-119,388	-0,385	0,046
150,473	-125,979	-0,157	-0,016
151,487	-77,481	-0,080	-0,019
152,502	477,560	-0,160	-0,253
153,516	98,320	-0,194	-0,156
154,531	-55,433	-0,281	-0,087
155,546	15,162	-0,272	-0,148
156,560	53,815	-0,170	-0,114
157,575	165,619	-0,169	-0,167
158,589	129,729	-0,246	-0,219
159,604	155,679	-0,233	-0,224
160,619	254,362	-0,205	-0,245
161,633	-15,653	-0,359	-0,159
162,648	109,412	-0,253	-0,211
163,662	600,779	-0,154	-0,268
164,677	-13,016	-0,394	-0,178
165,692	57,663	-0,243	-0,165
166,706	400,404	-0,156	-0,229
167,721	105,835	-0,163	-0,135
168,735	117,304	-0,268	-0,230
169,750	13,744	-0,172	-0,093
170,764	487,993	-0,178	-0,283
171,779	487,274	-0,106	-0,169
172,794	363,612	-0,140	-0,197
173,808	-37,529	-0,340	-0,126
174,823	8,999	-0,242	-0,127
175,837	252,604	-0,176	-0,209
176,852	345,349	-0,147	-0,201
177,867	159,587	-0,263	-0,255
178,881	214,834	-0,177	-0,195
179,896	-18,831	-0,089	-0,039
180,910	77,354	-0,330	-0,244
181,925	112,332	-0,198	-0,166
182,940	-43,747	-0,234	-0,082
183,954	250,540	-0,178	-0,211
184,969	25,950	-0,348	-0,202
185,983	58,586	-0,240	-0,164
186,998	55,527	-0,135	-0,091
188,013	165,402	-0,153	-0,150
189,027	194,629	-0,227	-0,240
190,042	-3,574	-0,347	-0,167
191,056	80,780	-0,323	-0,242
192,071	302,027	-0,210	-0,271
193,086	537,214	-0,081	-0,135
194,100	231,421	-0,153	-0,174
195,115	18,303	-0,260	-0,144
196,129	77,009	-0,225	-0,166
197,144	221,141	-0,222	-0,248
198,159	392,711	-0,193	-0,279
199,173	-57,409	-0,183	-0,056
200,188	399,313	-0,170	-0,248
201,202	56,859	-0,254	-0,171
202,217	355,857	-0,088	-0,122
203,232	174,905	-0,204	-0,205
204,246	25,883	-0,268	-0,155
205,261	-138,556	-0,209	0,016
206,275	299,511	-0,114	-0,146
207,290	235,511	-0,111	-0,128
208,304	-198,079	-0,213	0,001
209,319	-8,846	-0,222	-0,103
210,334	-20,365	-0,227	-0,096
211,348	73,216	-0,198	-0,144
212,363	160,525	-0,242	-0,235
213,377	23,994	-0,149	-0,085
214,392	-156,785	-0,138	0,006
215,407	-168,462	-0,170	0,004
216,421	78,525	-0,169	-0,125
217,436	800,000	-0,106	-0,205
218,450	286,412	-0,187	-0,235
219,465	78,667	-0,239	-0,177
220,480	-110,446	-0,263	-0,037
221,494	124,242	-0,305	-0,266
222,509	5,281	-0,099	-0,051
223,523	161,966	-0,236	-0,229
224,538	65,708	-0,241	-0,169
225,553	218,734	-0,152	-0,169
226,567	17,943	-0,374	-0,206
227,582	19,056	-0,295	-0,163
228,596	-56,266	-0,207	-0,063
229,611	137,598	-0,113	-0,102
230,626	252,912	-0,152	-0,180
231,640	120,232	-0,193	-0,166
232,655	124,210	-0,195	-0,170
233,669	374,446	-0,124	-0,176
234,684	188,383	-0,218	-0,226
235,699	421,221	-0,135	-0,202
236,713	-2,824	-0,149	-0,072
237,728	593,296	-0,093	-0,160
238,742	59,764	-0,202	-0,138
239,757	538,574	-0,176	-0,291
240,772	227,621	-0,192	-0,217
241,786	534,438	-0,188	-0,310
242,801	-200,000	0,024	-0,251
243,815	-126,152	-0,182	-0,019
244,830	90,812	-0,195	-0,151
245,844	-146,595	-0,203	0,012
246,859	190,824	-0,120	-0,125
247,874	242,617	-0,217	-0,252
248,888	199,971	-0,101	-0,108
249,903	800,000	-0,081	-0,198
250,917	-200,000	-0,011	-0,120
251,932	-141,790	-0,201	-0,014
252,947	-39,320	-0,197	-0,071
253,961	159,819	-0,124	-0,120
254,976	27,994	-0,282	-0,164
255,990	301,319	-0,167	-0,213
257,005	375,915	-0,128	-0,181
258,020	-27,209	-0,119	-0,048
259,034	-149,224	-0,165	-0,009
260,049	434,224	-0,130	-0,196
261,063	-24,611	-0,154	-0,063
262,078	16,770	-0,350	-0,191
263,093	-125,747	-0,151	-0,016
264,107	-54,027	-0,206	-0,064
265,122	-112,180	-0,053	0,007
266,136	800,000	-0,064	-0,165
267,151	134,662	-0,152	-0,136
268,166	49,569	-0,170	-0,110
269,180	14,783	-0,165	-0,089
270,195	287,057	-0,122	-0,152
271,209	644,698	-0,118	-0,209
272,224	-80,001	-0,163	-0,038
273,239	133,858	-0,115	-0,103
274,253	501,879	-0,110	-0,176
275,268	800,000	-0,087	-0,199
276,282	-74,282	-0,207	-0,051
277,297	-40,168	-0,230	-0,082
278,312	69,787	-0,207	-0,147
279,326	-200,000	-0,020	-0,083
280,341	116,078	-0,163	-0,138
281,355	-171,395	-0,076	0,002
282,370	-75,171	-0,177	-0,043
283,384	800,000	-0,079	-0,158
284,399	115,505	-0,156	-0,131
285,414	70,813	-0,141	-0,101
286,428	265,861	-0,114	-0,138
287,443	-200,000	-0,029	-0,107
288,457	-200,000	-0,041	-0,228
289,472	-200,000	0,006	-0,121
290,487	3,922	-0,176	-0,088
291,501	179,202	-0,180	-0,181
292,516	800,000	0,074	-0,178
293,530	-200,000	-0,038	-0,188
294,545	-15,405	-0,160	0,070
295,560	295,013	-0,166	-0,209
296,574	-32,488	-0,201	-0,077
297,589	-71,543	-0,108	-0,028
298,603	303,194	-0,149	-0,190
299,618	646,606	-0,110	-0,194
300,633	-92,574	-0,203	-0,039
301,647	349,895	-0,110	-0,149
302,662	4,540	-0,044	-0,022
303,676	-23,363	-0,168	-0,069
304,691	570,594	-0,072	0,120
305,706	-27,748	-0,252	0,100
306,720	216,628	-0,195	-0,213
307,735	-200,000	0,014	-0,186
308,749	94,608	-0,065	0,051
309,764	-61,553	-0,177	0,051
310,779	132,006	-0,137	-0,121
311,793	800,000	-0,061	-0,169
312,808	-178,177	-0,246	0,004
313,822	108,762	-0,214	-0,176
314,837	102,871	-0,165	-0,133
315,852	800,000	-0,029	-0,086
316,866	800,000	-0,022	-0,049
317,881	360,830	-0,140	-0,194
318,895	-141,992	-0,064	-0,004
319,910	348,884	-0,086	-0,118
320,925	35,597	-0,155	-0,093
321,939	-20,724	-0,227	-0,095
322,954	-1,828	-0,070	0,034
323,968	-70,966	-0,175	-0,045
324,983	169,610	-0,104	-0,102
325,997	91,344	-0,097	0,075
327,012	54,497	-0,099	-0,065
328,027	569,670	-0,111	-0,186
329,041	139,140	-0,127	-0,115
330,056	149,660	-0,112	-0,105
331,070	800,000	-0,031	-0,067
332,085	-200,000	0,001	-0,126
333,100	-53,221	-0,113	-0,035
334,114	-67,730	-0,157	-0,042
335,129	-130,226	-0,258	0,024
336,143	260,015	-0,136	-0,161
337,158	-200,000	-0,012	-0,058
338,173	68,104	-0,063	-0,044
339,187	39,779	-0,172	-0,106
340,202	56,786	-0,182	-0,122
341,216	800,000	-0,029	0,075
342,231	660,124	-0,080	-0,142
343,246	-58,136	-0,217	-0,065
344,260	-80,343	-0,146	-0,033
345,275	99,743	-0,069	-0,055
346,289	86,244	-0,062	-0,047
347,304	175,786	-0,061	-0,061
348,319	-102,129	-0,123	0,020
349,333	-165,392	-0,279	0,008
350,348	105,579	-0,252	-0,204
351,362	800,000	-0,100	-0,261
352,377	-200,000	0,019	-0,114
353,392	800,000	-0,099	-0,255
354,406	75,073	-0,129	0,093
355,421	208,589	1312,875	1408,917
356,435	160,503	1473,360	1409,390
