DTS Sentinel unit serial number:	SN410029Multiplexer serial number:	ORYXHardware model number:	OX2-SRSoftware version number:	ORYX F/W v4,00 Oryx Data Collector v3.7.2.0data status	okinstallation	B3 Nyhavnadifferential loss correction	single-endedforward channel	channel 1reverse channel	N/Adate	2023/12/02time	20:02:30forward acquisition time	300,00reverse acquisition time	0,00gamma	499,1914k internal	0,3201k external	0,3201temperature offset calibration	1,0000default loss term (dB/km)	0,3820temperature slope calibration	1,0000multiplexer offset coefficient	1,0000multiplexer slope coefficient	1,0000fibre end	0,00T internal ref (°C)	13,31T ext. ref 1 (°C)	-1,82T ext. ref 2 (°C)	-1,82length (m)	temperature (°C)	Stokes	anti-Stokes-744,400	159,222	-0,208	-0,211
-743,385	-200,000	-0,101	0,350
-742,371	-200,000	-0,067	-0,275
-741,356	-200,000	0,044	0,228
-740,342	687,914	-0,085	-0,163
-739,327	-200,000	-0,016	0,272
-738,312	375,386	-0,148	-0,220
-737,298	800,000	0,126	0,279
-736,283	46,973	-0,299	-0,202
-735,269	-200,000	-0,024	0,394
-734,254	800,000	-0,114	-0,265
-733,239	22,157	-0,211	0,125
-732,225	-200,000	-0,016	-0,119
-731,210	-200,000	-0,026	0,132
-730,196	-200,000	0,040	0,142
-729,181	128,191	-0,081	0,075
-728,167	-200,000	0,013	-0,054
-727,152	-54,704	-0,181	-0,059
-726,137	181,373	0,040	0,043
-725,123	-167,812	0,004	0,000
-724,108	473,260	-0,073	-0,119
-723,094	406,099	-0,079	-0,121
-722,079	-200,000	-0,039	-0,163
-721,064	-200,000	0,019	-0,146
-720,050	534,997	-0,116	-0,200
-719,035	720,403	0,084	-0,163
-718,021	-200,000	0,008	-0,131
-717,006	-75,967	-0,188	-0,048
-715,991	383,702	-0,099	-0,149
-714,977	135,179	-0,107	-0,101
-713,962	-73,521	-0,083	-0,022
-712,948	42,393	-0,063	-0,042
-711,933	-200,000	-0,015	-0,236
-710,918	38,246	-0,020	-0,013
-709,904	-40,420	-0,195	-0,073
-708,889	-200,000	-0,002	0,068
-707,875	23,292	0,138	-0,082
-706,860	-22,128	-0,095	0,042
-705,845	800,000	0,044	0,106
-704,831	-200,000	0,013	0,068
-703,816	495,993	-0,052	0,088
-702,802	75,149	-0,075	-0,058
-701,787	-15,859	-0,138	-0,064
-700,772	42,718	-0,032	-0,021
-699,758	800,000	-0,057	0,120
-698,743	-148,458	-0,094	0,006
-697,729	800,000	-0,031	0,092
-696,714	-200,000	-0,021	0,078
-695,699	800,000	0,009	-0,021
-694,685	-62,333	-0,076	-0,023
-693,670	124,277	0,050	-0,046
-692,656	342,502	-0,091	-0,130
-691,641	-200,000	0,002	0,039
-690,627	-5,011	0,115	0,057
-689,612	-142,415	0,085	0,006
-688,597	196,504	-0,093	-0,103
-687,583	293,850	0,053	-0,070
-686,568	170,856	0,057	-0,059
-685,554	-106,804	0,125	-0,020
-684,539	-200,000	0,004	-0,023
-683,524	-200,000	-0,029	0,146
-682,510	43,611	0,038	0,025
-681,495	289,931	0,059	0,078
-680,481	90,021	-0,105	0,085
-679,466	28,091	-0,142	-0,087
-678,451	-24,454	-0,060	-0,026
-677,437	800,000	0,035	0,089
-676,422	-200,000	0,017	0,141
-675,408	-126,915	0,105	0,011
-674,393	112,722	-0,106	-0,093
-673,378	-107,458	-0,102	-0,016
-672,364	245,162	-0,048	-0,059
-671,349	-193,898	0,026	0,000
-670,335	-23,412	0,124	0,054
-669,320	99,717	0,107	0,090
-668,305	130,428	0,098	0,091
-667,291	-200,000	0,011	-0,067
-666,276	180,619	0,029	-0,031
-665,262	800,000	-0,074	-0,161
-664,247	-68,622	-0,036	0,010
-663,232	452,235	-0,045	0,073
-662,218	126,965	-0,045	-0,042
-661,203	620,150	0,023	0,042
-660,189	-200,000	0,001	0,099
-659,174	-59,851	-0,142	-0,044
-658,159	-19,844	-0,101	0,045
-657,145	-200,000	-0,003	0,022
-656,130	303,241	-0,026	0,035
-655,116	-167,583	0,113	-0,003
-654,101	-68,963	0,068	0,019
-653,086	-10,526	-0,106	-0,051
-652,072	433,712	0,025	-0,040
-651,057	11,859	0,094	-0,052
-650,043	83,997	-0,013	-0,010
-649,028	45,344	0,021	-0,014
-648,014	54,088	0,022	-0,016
-646,999	-50,054	0,054	0,018
-645,984	800,000	0,021	-0,050
-644,970	800,000	-0,063	-0,152
-643,955	-200,000	0,026	-0,122
-642,941	505,167	-0,074	-0,125
-641,926	659,381	-0,045	-0,084
-640,911	153,155	0,087	-0,086
-639,897	-200,000	-0,029	0,105
-638,882	634,666	-0,040	0,074
-637,868	547,263	0,017	-0,029
-636,853	678,865	-0,043	-0,081
-635,838	-74,496	0,025	-0,006
-634,824	800,000	0,040	0,127
-633,809	71,777	0,086	-0,065
-632,795	236,938	-0,048	-0,058
-631,780	413,995	-0,094	0,146
-630,765	720,902	0,075	0,145
-629,751	94,397	-0,097	0,080
-628,736	-104,796	0,065	-0,011
-627,722	146,808	-0,078	-0,076
-626,707	-143,722	-0,113	-0,008
-625,692	-65,847	0,141	-0,040
-624,678	-127,637	0,056	0,006
-623,663	74,541	-0,069	0,052
-622,649	97,649	-0,075	-0,063
-621,634	-71,965	0,075	-0,020
-620,619	130,262	0,029	-0,027
-619,605	210,610	-0,098	0,112
-618,590	-200,000	0,035	0,119
-617,576	84,269	0,032	0,025
-616,561	150,658	0,046	0,045
-615,546	738,731	-0,041	-0,080
-614,532	245,327	0,091	-0,112
-613,517	535,360	-0,083	-0,142
-612,503	76,011	0,035	0,027
-611,488	-100,093	-0,089	0,016
-610,474	-4,398	-0,026	-0,013
-609,459	75,666	0,108	-0,083
-608,444	-82,155	-0,063	-0,015
-607,430	800,000	0,036	0,099
-606,415	667,615	-0,054	-0,101
-605,401	146,206	-0,045	-0,043
-604,386	480,825	0,087	0,144
-603,371	456,447	-0,080	0,130
-602,357	169,710	-0,052	-0,054
-601,342	138,901	-0,068	0,064
-600,328	309,955	-0,094	0,127
-599,313	19,082	0,076	0,044
-598,298	-68,455	0,056	0,016
-597,284	217,821	-0,082	0,094
-596,269	800,000	0,035	-0,103
-595,255	-200,000	-0,010	-0,055
-594,240	218,519	-0,066	-0,076
-593,225	256,821	0,015	0,019
-592,211	-200,000	0,002	-0,014
-591,196	-59,804	-0,073	-0,022
-590,182	-162,792	0,092	-0,003
-589,167	800,000	0,043	0,092
-588,152	334,994	0,013	0,019
-587,138	-200,000	-0,001	-0,058
-586,123	13,305	-0,079	-0,044
-585,109	-200,000	0,094	-0,000
-584,094	181,363	0,075	-0,080
-583,079	-200,000	-0,021	-0,111
-582,065	120,380	0,069	-0,062
-581,050	97,689	0,042	-0,035
-580,036	-35,875	-0,092	-0,036
-579,021	-119,729	-0,165	0,020
-578,006	800,000	-0,065	-0,155
-576,992	333,632	-0,118	-0,166
-575,977	-200,000	0,032	-0,170
-574,963	660,557	0,035	0,065
-573,948	-8,984	0,107	0,051
-572,934	194,584	-0,012	-0,014
-571,919	800,000	0,019	0,046
-570,904	800,000	-0,086	-0,187
-569,890	14,351	-0,087	-0,049
-568,875	800,000	-0,039	0,121
-567,861	-200,000	-0,037	0,121
-566,846	-83,644	-0,133	0,030
-565,831	800,000	0,047	-0,115
-564,817	130,065	0,056	0,052
-563,802	-110,246	-0,156	0,023
-562,788	-200,000	-0,015	0,088
-561,773	800,000	0,030	0,078
-560,758	-147,451	0,162	-0,010
-559,744	408,830	-0,057	0,087
-558,729	-42,082	0,122	0,045
-557,715	-106,119	-0,089	-0,014
-556,700	800,000	0,024	-0,053
-555,685	27,392	0,025	0,015
-554,671	557,014	-0,040	0,070
-553,656	185,204	0,011	-0,012
-552,642	-143,815	0,138	0,009
-551,627	189,671	0,065	0,070
-550,612	-200,000	0,000	0,073
-549,598	176,164	-0,105	-0,110
-548,583	-168,271	-0,103	0,003
-547,569	-89,301	-0,079	-0,017
-546,554	-200,000	-0,005	0,037
-545,539	343,238	0,077	0,110
-544,525	570,136	0,051	0,090
-543,510	-200,000	-0,002	0,037
-542,496	254,643	-0,062	0,076
-541,481	42,761	0,014	0,009
-540,466	-48,540	0,026	-0,009
-539,452	-146,156	0,061	-0,004
-538,437	12,958	0,030	0,017
-537,423	100,111	0,099	-0,083
-536,408	38,266	-0,072	-0,046
-535,393	6,036	-0,065	-0,034
-534,379	-200,000	0,016	0,076
-533,364	-200,000	-0,037	-0,159
-532,350	-1,127	0,116	0,059
-531,335	800,000	0,020	-0,055
-530,321	334,004	0,066	-0,092
-529,306	-1,214	0,072	0,037
-528,291	-200,000	-0,005	-0,131
-527,277	-5,155	-0,164	0,081
-526,262	446,047	0,098	0,157
-525,248	93,670	-0,067	0,055
-524,233	-200,000	0,021	0,101
-523,218	63,831	-0,089	0,064
-522,204	-200,000	0,016	0,076
-521,189	-200,000	-0,003	-0,066
-520,175	87,922	-0,107	-0,086
-519,160	-41,442	0,067	-0,025
-518,145	-200,000	-0,001	0,040
-517,131	153,141	0,056	0,055
-516,116	-73,448	0,027	-0,007
-515,102	32,056	0,099	0,061
-514,087	-200,000	-0,016	-0,090
-513,072	-116,141	-0,216	-0,029
-512,058	-41,900	0,091	0,033
-511,043	-0,268	-0,081	-0,042
-510,029	10,430	0,101	0,056
-509,014	-200,000	-0,014	0,132
-507,999	-56,548	0,049	-0,016
-506,985	363,283	0,052	-0,076
-505,970	686,239	-0,085	-0,160
-504,956	125,704	-0,112	-0,102
-503,941	-151,853	-0,067	0,003
-502,926	-200,000	0,005	-0,021
-501,912	-200,000	0,009	0,067
-500,897	800,000	-0,023	-0,065
-499,883	800,000	0,012	-0,027
-498,868	-200,000	-0,025	-0,096
-497,853	42,199	0,093	-0,061
-496,839	173,302	-0,035	-0,036
-495,824	213,348	0,039	-0,045
-494,810	-200,000	0,025	0,082
-493,795	800,000	-0,024	0,066
-492,781	524,062	-0,027	-0,047
-491,766	-23,953	-0,115	-0,049
-490,751	-200,000	-0,029	-0,129
-489,737	-1,002	0,081	0,041
-488,722	-21,303	0,027	-0,012
-487,708	-200,000	-0,006	-0,035
-486,693	-52,668	0,202	-0,067
-485,678	-81,209	-0,087	0,021
-484,664	-22,599	-0,178	-0,077
-483,649	611,105	-0,032	0,058
-482,635	243,193	-0,046	0,055
-481,620	-200,000	-0,001	0,150
-480,605	-179,430	-0,088	-0,001
-479,591	800,000	-0,018	-0,044
-478,576	-90,961	-0,009	-0,002
-477,562	-3,970	0,052	-0,026
-476,547	155,460	0,023	0,023
-475,532	20,567	0,103	-0,060
-474,518	123,423	0,083	-0,075
-473,503	800,000	-0,018	0,054
-472,489	348,558	0,065	0,092
-471,474	26,925	0,081	0,049
-470,459	-68,658	0,043	-0,012
-469,445	123,589	0,099	-0,090
-468,430	-31,100	0,090	-0,036
-467,416	81,350	0,075	-0,058
-466,401	-15,487	0,116	-0,053
-465,386	-49,080	0,026	-0,009
-464,372	-75,908	0,031	-0,008
-463,357	-118,814	0,160	-0,020
-462,343	14,122	-0,028	0,015
-461,328	780,794	-0,072	-0,142
-460,313	29,585	-0,011	0,007
-459,299	579,648	-0,026	-0,047
-458,284	117,949	0,039	0,034
-457,270	388,906	-0,121	0,181
-456,255	414,974	-0,073	0,112
-455,241	11,583	-0,086	0,047
-454,226	-40,846	0,037	-0,014
-453,211	24,820	-0,151	0,090
-452,197	-73,574	0,061	-0,016
-451,182	121,092	0,143	-0,128
-450,168	94,358	0,066	0,054
-449,153	46,588	-0,073	-0,049
-448,138	-2,771	-0,154	0,077
-447,124	800,000	0,037	-0,093
-446,109	510,476	-0,077	0,129
-445,095	46,182	-0,035	-0,023
-444,080	-136,113	-0,106	-0,009
-443,065	-200,000	-0,001	0,081
-442,051	52,783	0,052	-0,036
-441,036	-200,000	-0,022	-0,100
-440,022	322,379	-0,046	-0,064
-439,007	136,580	-0,040	0,037
-437,992	17,195	0,086	-0,049
-436,978	547,850	-0,070	0,121
-435,963	-200,000	0,010	0,052
-434,949	-200,000	-0,028	-0,119
-433,934	800,000	-0,041	0,117
-432,919	-25,239	-0,111	-0,047
-431,905	-120,870	-0,063	-0,008
-430,890	-84,975	0,064	-0,014
-429,876	-41,348	0,192	0,071
-428,861	146,296	-0,107	0,103
-427,846	-200,000	0,000	-0,020
-426,832	-35,518	-0,141	0,055
-425,817	800,000	-0,019	-0,040
-424,803	669,874	0,047	0,088
-423,788	126,861	-0,061	0,055
-422,773	-173,459	0,096	-0,002
-421,759	-200,000	0,006	0,133
-420,744	800,000	-0,016	0,033
-419,730	-42,619	-0,106	0,038
-418,715	-200,000	0,018	-0,130
-417,701	266,134	0,031	-0,039
-416,686	800,000	-0,028	-0,074
-415,671	800,000	0,045	-0,109
-414,657	-8,551	0,064	0,031
-413,642	48,754	0,075	0,050
-412,628	-167,550	-0,081	-0,002
-411,613	46,595	-0,067	0,045
-410,598	-200,000	0,004	0,060
-409,584	-0,288	0,066	0,033
-408,569	-200,000	-0,015	-0,058
-407,555	800,000	0,031	-0,079
-406,540	800,000	-0,017	-0,039
-405,525	800,000	-0,057	0,114
-404,511	-200,000	0,017	-0,090
-403,496	315,659	-0,058	0,079
-402,482	597,895	0,070	-0,125
-401,467	-118,262	0,110	0,014
-400,452	38,258	0,028	0,018
-399,438	-200,000	0,022	0,211
-398,423	-200,000	0,008	0,104
-397,409	800,000	-0,013	-0,028
-396,394	642,643	-0,025	0,047
-395,379	8,978	-0,019	0,010
-394,365	-157,657	0,085	-0,004
-393,350	-200,000	0,021	0,076
-392,336	-110,983	-0,061	0,009
-391,321	312,944	-0,074	-0,100
-390,306	-16,531	-0,123	0,056
-389,292	106,980	0,064	-0,054
-388,277	2,239	-0,032	-0,017
-387,263	-200,000	-0,017	0,056
-386,248	77,306	0,128	0,098
-385,233	-126,916	0,020	0,002
-384,219	800,000	-0,043	0,110
-383,204	-200,000	0,012	-0,052
-382,190	201,237	0,034	-0,038
-381,175	-64,336	0,010	-0,003
-380,160	734,695	0,041	-0,078
-379,146	297,366	0,057	0,075
-378,131	-200,000	0,028	0,143
-377,117	800,000	-0,060	0,169
-376,102	110,633	-0,040	-0,034
-375,088	6,937	-0,090	-0,048
-374,073	-168,902	0,155	-0,004
-373,058	33,270	0,157	0,097
-372,044	-200,000	-0,021	0,116
-371,029	415,552	0,039	-0,059
-370,015	-90,286	0,129	-0,027
-369,000	-20,350	-0,125	0,055
-367,985	-91,170	0,136	-0,028
-366,971	155,715	0,051	-0,050
-365,956	505,717	0,055	-0,092
-364,942	-200,000	-0,009	0,039
-363,927	-200,000	-0,035	0,143
-362,912	298,475	-0,057	0,075
-361,898	-200,000	0,056	-0,188
-360,883	-77,356	0,081	0,020
-359,869	800,000	-0,024	-0,054
-358,854	-200,000	0,025	0,090
-357,839	-200,000	0,011	0,040
-356,825	-80,958	0,078	-0,018
-355,810	800,000	-0,024	-0,054
-354,796	46,095	0,025	0,017
-353,781	-30,845	0,035	0,014
-352,766	-200,000	-0,002	-0,202
-351,752	-200,000	0,006	0,028
-350,737	-41,013	-0,081	-0,030
-349,723	298,822	-0,031	-0,040
-348,708	-200,000	0,010	0,109
-347,693	-200,000	-0,012	0,094
-346,679	740,489	-0,064	-0,124
-345,664	367,110	-0,126	-0,182
-344,650	-0,445	-0,047	0,024
-343,635	465,318	0,059	0,095
-342,620	196,105	-0,049	-0,054
-341,606	-68,179	0,078	-0,022
-340,591	-200,000	-0,004	-0,035
-339,577	800,000	0,065	-0,152
-338,562	174,249	0,058	0,060
-337,548	-46,859	-0,017	-0,006
-336,533	262,766	0,031	-0,039
-335,518	40,084	0,081	0,052
-334,504	-0,854	0,051	-0,026
-333,489	-118,902	-0,059	-0,007
-332,475	-200,000	0,007	-0,044
-331,460	-155,550	0,167	-0,008
-330,445	31,547	0,036	0,022
-329,431	-7,655	0,082	0,039
-328,416	109,009	-0,033	-0,028
-327,402	-200,000	-0,014	0,081
-326,387	8,906	-0,094	-0,050
-325,372	-200,000	0,002	-0,122
-324,358	-200,000	0,000	0,002
-323,343	800,000	-0,022	0,046
-322,329	-132,399	-0,047	-0,004
-321,314	90,729	0,061	0,049
-320,299	-64,755	0,155	-0,045
-319,285	361,148	-0,099	-0,143
-318,270	800,000	-0,071	-0,155
-317,256	529,438	-0,052	-0,088
-316,241	-200,000	-0,008	-0,104
-315,226	261,074	0,057	0,071
-314,212	55,116	0,056	0,039
-313,197	38,023	-0,107	-0,068
-312,183	3,143	0,104	0,054
-311,168	-38,021	0,117	0,044
-310,153	58,204	0,061	-0,043
-309,139	-86,270	-0,016	-0,004
-308,124	-200,000	0,019	-0,068
-307,110	-200,000	-0,016	0,109
-306,095	195,546	0,046	-0,050
-305,080	196,687	0,080	0,088
-304,066	-96,358	0,004	-0,001
-303,051	-200,000	-0,008	-0,031
-302,037	120,150	-0,103	0,091
-301,022	-200,000	0,023	-0,076
-300,008	444,814	-0,027	-0,043
-298,993	9,434	0,118	0,063
-297,978	800,000	0,066	0,153
-296,964	-200,000	-0,042	0,159
-295,949	611,631	-0,072	0,130
-294,935	268,281	-0,026	-0,032
-293,920	800,000	-0,044	0,097
-292,905	-200,000	0,027	0,106
-291,891	-200,000	0,017	0,082
-290,876	-200,000	0,015	-0,072
-289,862	-85,834	0,091	-0,020
-288,847	-200,000	0,022	-0,091
-287,832	-200,000	0,022	0,078
-286,818	800,000	-0,057	-0,119
-285,803	487,113	-0,016	-0,026
-284,789	400,088	-0,055	0,083
-283,774	329,532	-0,053	0,073
-282,759	486,775	0,050	0,083
-281,745	-173,604	-0,281	-0,006
-280,730	-200,000	0,034	-0,110
-279,716	221,309	0,063	-0,073
-278,701	-28,043	0,100	-0,041
-277,686	-200,000	-0,007	0,024
-276,672	119,480	-0,201	0,178
-275,657	-200,000	-0,031	0,107
-274,643	-200,000	-0,007	-0,101
-273,628	18,342	0,117	0,067
-272,613	-200,000	-0,036	-0,213
-271,599	-86,950	0,119	-0,026
-270,584	262,034	0,076	0,095
-269,570	397,969	0,056	0,083
-268,555	800,000	0,043	0,110
-267,540	321,397	0,083	0,113
-266,526	-200,000	-0,010	-0,065
-265,511	-200,000	-0,017	-0,094
-264,497	-200,000	-0,008	0,082
-263,482	-9,338	0,070	0,033
-262,467	331,187	0,071	0,098
-261,453	-137,222	-0,146	-0,012
-260,438	515,748	-0,035	-0,059
-259,424	395,794	0,049	-0,073
-258,409	-200,000	0,014	-0,236
-257,395	-141,134	-0,056	0,004
-256,380	-11,489	0,064	0,030
-255,365	113,678	0,152	0,131
-254,351	-43,005	-0,103	0,037
-253,336	-200,000	0,000	-0,010
-252,322	-10,767	-0,081	-0,038
-251,307	-200,000	0,011	-0,115
-250,292	-200,000	0,013	-0,081
-249,278	19,974	0,129	0,074
-248,263	268,209	-0,060	-0,075
-247,249	148,668	0,063	-0,060
-246,234	219,407	-0,065	0,074
-245,219	62,378	-0,107	-0,076
-244,205	-43,222	-0,042	-0,015
-243,190	-200,000	0,011	-0,074
-242,176	62,555	0,106	0,076
-241,161	-138,916	0,157	0,012
-240,146	333,188	0,070	0,097
-239,132	-200,000	-0,026	0,115
-238,117	-90,599	-0,115	0,024
-237,103	16,692	0,037	-0,021
-236,088	-200,000	-0,024	0,091
-235,073	-12,266	0,032	-0,015
-234,059	800,000	0,034	0,086
-233,044	-76,015	-0,068	-0,017
-232,030	-89,798	-0,041	-0,008
-231,015	-151,099	-0,134	-0,007
-230,000	757,396	-0,049	-0,095
-228,986	-200,000	0,008	-0,082
-227,971	260,870	-0,118	0,146
-226,957	800,000	0,044	0,095
-225,942	-200,000	-0,028	0,103
-224,927	-153,067	0,073	0,004
-223,913	156,321	0,125	-0,123
-222,898	-60,158	0,051	-0,015
-221,884	-38,672	0,083	0,031
-220,869	205,382	-0,136	-0,151
-219,855	-146,635	-0,137	0,008
-218,840	-60,023	-0,155	-0,047
-217,825	-50,175	0,135	-0,045
-216,811	-88,221	0,086	-0,018
-215,796	-36,031	-0,101	0,039
-214,782	-88,974	-0,129	0,027
-213,767	-200,000	-0,033	0,225
-212,752	-153,501	0,095	-0,005
-211,738	25,146	-0,084	-0,050
-210,723	-47,881	-0,054	0,018
-209,709	138,743	0,078	-0,073
-208,694	148,491	-0,125	-0,120
-207,679	95,850	0,079	-0,064
-206,665	28,348	-0,060	-0,036
-205,650	-200,000	0,010	0,055
-204,636	800,000	0,020	-0,047
-203,621	568,132	-0,021	0,037
-202,606	-42,987	0,179	0,065
-201,592	-200,000	-0,007	-0,140
-200,577	288,946	0,007	0,009
-199,563	-200,000	-0,021	-0,066
-198,548	-70,301	0,074	-0,020
-197,533	-200,000	0,012	0,054
-196,519	-136,138	-0,089	-0,007
-195,504	35,218	-0,083	-0,051
-194,490	-200,000	0,037	-0,155
-193,475	800,000	0,019	-0,052
-192,460	-134,195	0,096	-0,008
-191,446	-78,317	0,114	0,028
-190,431	-200,000	-0,013	0,081
-189,417	-89,825	0,017	0,004
-188,402	175,707	-0,041	0,042
-187,387	-61,617	-0,080	-0,024
-186,373	154,728	-0,077	-0,075
-185,358	-67,878	-0,059	0,016
-184,344	-83,220	-0,097	-0,022
-183,329	202,824	0,121	0,133
-182,315	-112,752	-0,039	-0,005
-181,300	148,408	-0,027	0,026
-180,285	-63,006	0,046	-0,013
-179,271	-83,704	0,136	-0,031
-178,256	-112,645	0,061	-0,009
-177,242	-180,710	-0,106	-0,002
-176,227	800,000	0,054	0,154
-175,212	-99,504	-0,066	0,012
-174,198	-162,328	0,054	0,002
-173,183	180,509	-0,085	0,088
-172,169	225,277	-0,069	0,080
-171,154	-61,925	-0,085	-0,025
-170,139	-45,316	0,055	0,019
-169,125	-77,717	-0,104	0,025
-168,110	41,707	0,045	0,029
-167,096	427,414	0,097	-0,149
-166,081	-200,000	0,012	0,054
-165,066	-48,694	-0,063	-0,021
-164,052	-54,538	-0,123	0,039
-163,037	-200,000	0,002	0,061
-162,023	88,758	0,146	0,115
-161,008	-200,000	0,019	0,076
-159,993	-177,742	-0,170	0,003
-158,979	538,536	-0,057	-0,097
-157,964	800,000	-0,028	-0,088
-156,950	296,637	-0,044	-0,058
-155,935	139,982	-0,049	0,046
-154,920	56,512	0,069	-0,048
-153,906	800,000	0,024	-0,066
-152,891	-200,000	-0,033	-0,191
-151,877	8,102	0,037	-0,020
-150,862	-200,000	-0,024	-0,081
-149,847	12,313	0,010	0,006
-148,833	-98,903	0,027	-0,005
-147,818	-200,000	0,001	-0,128
-146,804	188,589	0,107	0,114
-145,789	-156,131	0,060	0,003
-144,775	-200,000	0,002	-0,041
-143,760	-200,000	-0,004	0,082
-142,745	101,381	-0,040	0,033
-141,731	25,126	-0,118	-0,069
-140,716	800,000	0,027	0,054
-139,702	57,824	0,101	0,070
-138,687	527,942	0,120	0,202
-137,672	-61,975	-0,109	-0,032
-136,658	170,876	-0,081	-0,082
-135,643	-167,508	-0,169	0,005
-134,629	52,999	-0,199	-0,135
-133,614	350,524	0,105	-0,147
-132,599	-200,000	0,020	0,126
-131,585	-58,693	0,067	0,020
-130,570	-23,319	-0,143	-0,061
-129,556	-200,000	0,039	-0,126
-128,541	-68,784	0,028	-0,008
-127,526	150,804	0,081	-0,078
-126,512	410,477	-0,018	-0,028
-125,497	-51,421	0,079	-0,026
-124,483	711,297	0,051	0,097
-123,468	-125,400	0,115	0,012
-122,453	-194,455	-0,021	0,000
-121,439	-25,926	-0,038	0,016
-120,424	-200,000	-0,044	-0,145
-119,410	-74,726	0,052	-0,013
-118,395	321,674	-0,028	0,038
-117,380	-200,000	-0,010	0,078
-116,366	-77,863	-0,024	-0,006
-115,351	800,000	0,041	-0,084
-114,337	-200,000	-0,023	0,076
-113,322	800,000	0,031	0,082
-112,307	800,000	0,010	-0,031
-111,293	-94,750	0,088	-0,017
-110,278	-200,000	0,051	0,159
-109,264	-200,000	0,008	0,070
-108,249	-73,020	-0,106	-0,028
-107,234	60,577	-0,113	-0,080
-106,220	-7,402	0,112	0,054
-105,205	-200,000	-0,019	-0,164
-104,191	-51,473	0,080	-0,026
-103,176	239,840	-0,046	-0,055
-102,162	-52,260	-0,022	-0,007
-101,147	-200,000	-0,004	-0,148
-100,132	-28,267	-0,025	-0,010
-99,118	-121,960	-0,105	-0,012
-98,103	-103,065	-0,084	0,014
-97,089	-105,766	0,103	0,016
-96,074	800,000	-0,039	0,114
-95,059	-164,383	-0,178	0,006
-94,045	170,314	-0,050	0,051
-93,030	301,615	-0,041	-0,054
-92,016	41,446	-0,078	-0,050
-91,001	-200,000	0,012	0,068
-89,986	19,148	-0,048	0,027
-88,972	-200,000	0,024	0,189
-87,957	347,617	-0,042	-0,059
-86,943	9,640	-0,013	-0,007
-85,928	800,000	0,051	-0,106
-84,913	230,935	-0,087	0,101
-83,899	800,000	0,053	0,152
-82,884	800,000	-0,039	0,122
-81,870	-200,000	0,014	0,063
-80,855	-29,023	0,086	0,035
-79,840	196,818	-0,035	0,038
-78,826	800,000	0,036	-0,073
-77,811	37,659	-0,073	-0,046
-76,797	800,000	-0,031	-0,075
-75,782	-200,000	0,036	0,117
-74,767	404,487	-0,109	0,164
-73,753	237,916	0,079	0,094
-72,738	-191,483	-0,100	0,001
-71,724	443,141	-0,075	-0,116
-70,709	-200,000	-0,050	-0,159
-69,694	800,000	0,046	-0,111
-68,680	258,082	0,055	0,067
-67,665	598,535	-0,022	-0,038
-66,651	-98,669	0,190	-0,034
-65,636	800,000	0,017	0,035
-64,622	-136,199	-0,065	0,005
-63,607	-37,630	-0,078	-0,029
-62,592	393,239	-0,046	-0,068
-61,578	800,000	0,076	0,173
-60,563	-200,000	0,011	0,072
-59,549	-13,093	-0,039	0,018
-58,534	-14,205	-1,705	-0,775
-57,519	430,113	-1,286	-1,977
-56,505	-200,000	-0,437	-4,468
-55,490	272,656	0,941	1,179
-54,476	800,000	4,937	11,401
-53,461	-200,000	19,243	320,635
-52,446	-200,000	741,048	2334,770
-51,432	572,472	1656,006	2868,395
-50,417	78,296	1671,022	1261,968
-49,403	21,315	1544,079	885,826
-48,388	15,170	1466,681	811,534
-47,373	18,010	1456,687	819,698
-46,359	16,690	1446,719	807,724
-45,344	13,433	1441,859	789,377
-44,330	13,358	1439,967	787,953
-43,315	13,341	1438,293	786,921
-42,300	13,369	1436,631	786,117
-41,286	13,384	1435,346	785,453
-40,271	13,362	1433,789	784,465
-39,257	13,304	1432,762	783,596
-38,242	13,366	1431,472	783,153
-37,227	13,390	1430,416	782,658
-36,213	13,394	1429,081	781,915
-35,198	13,408	1427,867	781,288
-34,184	13,405	1427,066	780,805
-33,169	13,365	1425,508	779,729
-32,154	13,421	1424,547	779,441
-31,140	13,409	1423,198	778,612
-30,125	13,427	1422,036	778,034
-29,111	13,429	1420,851	777,363
-28,096	13,395	1419,910	776,657
-27,082	13,303	1418,741	775,550
-26,067	13,324	1417,599	774,995
-25,052	13,341	1416,442	774,414
-24,038	13,317	1415,561	773,787
-23,023	13,303	1414,500	773,112
-22,009	13,320	1413,480	772,602
-20,994	13,318	1412,566	772,061
-19,979	13,311	1411,678	771,513
-18,965	13,230	1410,876	770,664
-17,950	13,283	1409,918	770,361
-16,936	13,322	1408,808	769,908
-15,921	13,269	1407,767	769,056
-14,906	13,258	1406,938	768,523
-13,892	13,296	1406,007	768,161
-12,877	13,255	1405,223	767,511
-11,863	13,245	1404,342	766,952
-10,848	13,277	1403,214	766,455
-9,833	13,214	1402,576	765,782
-8,819	13,163	1401,834	765,111
-7,804	13,160	1400,798	764,500
-6,790	13,145	1399,630	763,763
-5,775	13,187	1398,608	763,371
-4,760	13,159	1397,612	762,666
-3,746	13,147	1396,705	762,083
-2,731	13,156	1396,026	761,724
-1,717	13,094	1395,143	760,929
-0,702	13,095	1393,389	759,947
0,313	16,964	1310,142	732,460
1,327	33,125	703,824	430,846
2,342	50,605	123,285	82,404
3,356	3,122	16,546	8,484
4,371	-7,890	3,199	1,522
5,386	-40,309	0,637	0,233
6,400	-200,000	-0,043	0,156
7,415	-28,898	-0,254	-0,103
8,429	26,317	-0,332	-0,196
9,444	20,751	-0,301	-0,172
10,459	36,775	-0,299	-0,186
11,473	-113,645	-0,331	-0,045
12,488	-110,989	-0,432	-0,062
13,502	6,554	-0,412	-0,216
14,517	364,430	-0,200	-0,285
15,531	4,787	-0,402	-0,208
16,546	-77,829	-0,400	-0,097
17,561	492,846	-0,249	-0,406
18,575	-106,169	-0,198	-0,031
19,590	35,945	-0,293	-0,182
20,604	103,854	-0,222	-0,184
21,619	21,034	-0,486	-0,278
22,634	42,400	-0,593	-0,380
23,648	17,527	-0,457	-0,256
24,663	109,581	-0,383	-0,324
25,677	249,006	-0,323	-0,387
26,692	57,014	-0,410	-0,282
27,707	62,723	-0,359	-0,253
28,721	80,358	-0,372	-0,282
29,736	127,073	-0,353	-0,316
30,750	128,253	-0,433	-0,389
31,765	14,727	-0,420	-0,231
32,780	800,000	-0,142	-0,286
33,794	125,555	-0,407	-0,363
34,809	166,507	-0,386	-0,387
35,823	111,479	-0,276	-0,235
36,838	-3,936	-0,426	-0,208
37,853	21,622	-0,459	-0,263
38,867	97,865	-0,384	-0,311
39,882	-15,253	-0,444	-0,200
40,896	76,575	-0,291	-0,217
41,911	88,513	-0,336	-0,263
42,926	39,274	-0,307	-0,193
43,940	108,999	-0,286	-0,241
44,955	54,290	-0,448	-0,304
45,969	95,107	-0,450	-0,361
46,984	121,435	-0,276	-0,243
47,999	74,722	-0,425	-0,315
49,013	-17,757	-0,411	-0,181
50,028	18,125	-0,374	-0,209
51,042	82,242	-0,369	-0,282
52,057	110,419	-0,221	-0,187
53,071	84,558	-0,302	-0,233
54,086	195,125	-0,266	-0,285
55,101	256,500	-0,303	-0,367
56,115	14,223	-0,336	-0,184
57,130	42,756	-0,363	-0,232
58,144	219,852	-0,278	-0,314
59,159	101,537	-0,391	-0,321
60,174	275,967	-0,310	-0,388
61,188	120,197	-0,303	-0,264
62,203	-27,442	-0,286	-0,116
63,217	-22,552	-0,443	-0,188
64,232	41,015	-0,305	-0,193
65,247	86,752	-0,381	-0,296
66,261	50,518	-0,349	-0,232
67,276	-102,747	-0,394	-0,065
68,290	218,182	-0,307	-0,346
69,305	93,874	-0,300	-0,239
70,320	53,446	-0,354	-0,238
71,334	-88,437	-0,291	-0,061
72,349	77,023	-0,404	-0,301
73,363	80,900	-0,383	-0,290
74,378	23,306	-0,369	-0,212
75,393	192,163	-0,190	-0,202
76,407	-62,248	-0,355	-0,103
77,422	-58,202	-0,320	-0,097
78,436	-15,299	-0,277	-0,124
79,451	-48,186	-0,203	-0,069
80,466	193,508	-0,315	-0,336
81,480	77,954	-0,450	-0,337
82,495	104,548	-0,318	-0,263
83,509	293,618	-0,211	-0,271
84,524	31,752	-0,284	-0,171
85,539	62,304	-0,224	-0,157
86,553	42,633	-0,298	-0,190
87,568	289,439	-0,239	-0,305
88,582	223,785	-0,244	-0,277
89,597	688,086	-0,115	-0,213
90,611	76,403	-0,321	-0,239
91,626	15,737	-0,292	-0,161
92,641	800,000	-0,121	-0,278
93,655	108,342	-0,311	-0,261
94,670	196,230	-0,263	-0,281
95,684	112,579	-0,325	-0,276
96,699	-15,691	-0,309	-0,138
97,714	18,551	-0,269	-0,150
98,728	51,790	-0,324	-0,216
99,743	23,042	-0,332	-0,191
100,757	74,581	-0,244	-0,180
101,772	-2,534	-0,255	-0,125
102,787	46,759	-0,365	-0,237
103,801	83,111	-0,225	-0,171
104,816	82,670	-0,413	-0,314
105,830	41,182	-0,300	-0,190
106,845	120,222	-0,188	-0,164
107,860	153,131	-0,171	-0,165
108,874	70,268	-0,335	-0,242
109,889	-16,789	-0,339	-0,149
110,903	99,770	-0,359	-0,292
111,918	240,187	-0,241	-0,282
112,933	-18,111	-0,171	-0,075
113,947	199,679	-0,209	-0,225
114,962	184,702	-0,288	-0,300
115,976	63,131	-0,340	-0,239
116,991	-49,397	-0,226	-0,075
118,006	-26,658	-0,375	-0,153
119,020	192,395	-0,225	-0,239
120,035	33,247	-0,228	-0,138
121,049	-90,952	-0,180	-0,036
122,064	-106,520	-0,269	-0,042
123,079	209,039	-0,149	-0,163
124,093	150,238	-0,311	-0,295
125,108	186,660	-0,273	-0,285
126,122	730,465	-0,157	-0,295
127,137	6,326	-0,237	-0,123
128,151	-47,829	-0,390	-0,131
129,166	93,446	-0,183	-0,145
130,181	30,442	-0,294	-0,175
131,195	46,706	-0,359	-0,233
132,210	192,050	-0,178	-0,188
133,224	199,818	-0,195	-0,210
134,239	-93,112	-0,215	-0,041
135,254	39,323	-0,228	-0,142
136,268	16,198	-0,245	-0,135
137,283	137,465	-0,196	-0,179
138,297	-111,877	-0,270	-0,038
139,312	51,613	-0,265	-0,176
140,327	75,463	-0,279	-0,205
141,341	187,266	-0,175	-0,183
142,356	51,844	-0,289	-0,192
143,370	-47,894	-0,298	-0,100
144,385	393,774	-0,219	-0,320
145,400	66,886	-0,300	-0,213
146,414	6,169	-0,347	-0,179
147,429	169,976	-0,228	-0,228
148,443	118,143	-0,143	-0,123
149,458	605,542	-0,181	-0,316
150,473	800,000	-0,106	-0,206
151,487	-113,425	-0,232	-0,031
152,502	-32,105	-0,357	-0,139
153,516	71,309	-0,269	-0,195
154,531	101,846	-0,299	-0,243
155,546	8,527	-0,122	-0,064
156,560	189,000	-0,246	-0,258
157,575	-65,146	-0,285	-0,080
158,589	-67,478	-0,305	-0,083
159,604	8,370	-0,209	-0,109
160,619	-15,572	-0,266	-0,118
161,633	-31,824	-0,206	-0,080
162,648	294,132	-0,201	-0,256
163,662	62,256	-0,274	-0,190
164,677	350,658	-0,097	-0,134
165,692	254,577	-0,153	-0,182
166,706	-105,798	-0,305	-0,048
167,721	21,973	-0,327	-0,186
168,735	296,834	-0,258	-0,331
169,750	70,467	-0,206	-0,148
170,764	82,305	-0,076	-0,057
171,779	183,193	-0,209	-0,215
172,794	-67,408	-0,307	-0,084
173,808	15,221	-0,211	-0,115
174,823	8,568	-0,180	-0,094
175,837	22,101	-0,284	-0,161
176,852	58,404	-0,275	-0,188
177,867	437,319	-0,086	-0,130
178,881	104,381	-0,143	-0,117
179,896	15,599	-0,201	-0,110
180,910	38,887	-0,138	-0,086
181,925	141,498	-0,249	-0,230
182,940	55,463	-0,264	-0,178
183,954	78,824	-0,337	-0,251
184,969	90,197	-0,191	-0,148
185,983	2,566	-0,220	-0,111
186,998	800,000	-0,079	-0,160
188,013	22,133	-0,258	-0,146
189,027	-5,024	-0,205	-0,098
190,042	116,117	-0,194	-0,165
191,056	282,467	-0,181	-0,226
192,071	-72,407	-0,325	-0,083
193,086	102,466	-0,206	-0,168
194,100	-64,312	-0,172	-0,048
195,115	120,326	-0,276	-0,238
196,129	612,854	-0,221	-0,387
197,144	197,761	-0,250	-0,265
198,159	97,140	-0,202	-0,161
199,173	-91,486	-0,181	-0,036
200,188	-104,921	-0,077	-0,012
201,202	-90,358	-0,271	-0,054
202,217	-30,607	-0,249	-0,097
203,232	58,558	-0,271	-0,185
204,246	147,256	-0,123	-0,115
205,261	239,986	-0,190	-0,220
206,275	181,942	-0,237	-0,243
207,290	52,901	-0,201	-0,133
208,304	177,167	-0,064	-0,065
209,319	-147,034	-0,229	0,013
210,334	-11,120	-0,264	-0,121
211,348	-130,355	-0,209	-0,019
212,363	334,580	-0,148	-0,200
213,377	44,728	-0,189	-0,120
214,392	688,740	-0,098	-0,179
215,407	566,922	-0,157	-0,266
216,421	126,477	-0,169	-0,148
217,436	480,544	-0,136	-0,215
218,450	21,338	-0,295	-0,166
219,465	87,427	-0,290	-0,223
220,480	152,934	-0,193	-0,183
221,494	-13,691	-0,173	-0,077
222,509	666,688	-0,076	-0,136
223,523	-200,000	0,033	-0,241
224,538	68,176	-0,255	-0,181
225,553	194,360	-0,192	-0,202
226,567	258,290	-0,204	-0,244
227,582	353,898	-0,216	-0,298
228,596	71,853	-0,110	-0,079
229,611	117,843	-0,159	-0,136
230,626	293,014	-0,164	-0,208
231,640	109,038	-0,225	-0,187
232,655	-90,793	-0,186	-0,037
233,669	107,092	-0,345	-0,284
234,684	288,670	-0,246	-0,310
235,699	57,297	-0,218	-0,147
236,713	-83,076	-0,187	-0,041
237,728	-95,905	-0,083	0,015
238,742	129,038	-0,126	-0,112
239,757	617,760	-0,138	-0,241
240,772	205,458	-0,214	-0,231
241,786	-5,339	-0,167	-0,079
242,801	93,416	-0,169	-0,132
243,815	315,110	-0,059	-0,077
244,830	301,544	-0,123	-0,158
245,844	92,559	-0,168	-0,131
246,859	248,434	-0,217	-0,255
247,874	1,619	-0,191	-0,095
248,888	15,390	-0,245	-0,133
249,903	-185,140	-0,189	0,002
250,917	-200,000	0,006	-0,156
251,932	131,766	-0,236	-0,210
252,947	-158,330	-0,246	-0,010
253,961	77,250	-0,155	-0,114
254,976	-95,918	-0,176	0,032
255,990	126,738	-0,174	-0,152
257,005	200,145	-0,150	-0,159
258,020	-200,000	0,003	-0,151
259,034	-200,000	-0,047	-0,151
260,049	-58,747	-0,240	-0,071
261,063	-40,673	-0,192	-0,068
262,078	302,055	-0,155	-0,199
263,093	-22,025	-0,259	-0,109
264,107	63,718	-0,178	-0,123
265,122	408,695	-0,028	0,040
266,136	331,530	-0,075	-0,101
267,151	-4,709	-0,135	-0,064
268,166	-18,936	-0,161	-0,069
269,180	-3,952	-0,149	-0,071
270,195	46,411	-0,191	-0,122
271,209	800,000	-0,077	-0,155
272,224	-31,735	-0,175	-0,067
273,239	96,453	-0,167	-0,132
274,253	254,844	-0,192	-0,227
275,268	448,525	-0,107	-0,164
276,282	102,644	-0,177	-0,143
277,297	255,118	-0,186	-0,220
278,312	134,672	-0,113	-0,102
279,326	1,916	-0,186	-0,092
280,341	-107,347	-0,125	0,019
281,355	-191,536	-0,143	-0,001
282,370	0,278	-0,135	-0,066
283,384	26,574	-0,120	-0,069
284,399	18,508	-0,301	-0,165
285,414	-200,000	-0,042	-0,130
286,428	-200,000	-0,005	-0,044
287,443	110,140	-0,175	-0,145
288,457	15,586	-0,174	-0,094
289,472	34,563	-0,277	-0,167
290,487	800,000	-0,089	-0,176
291,501	267,437	-0,148	-0,179
292,516	753,407	-0,055	-0,103
293,530	467,348	-0,104	-0,161
294,545	25,279	-0,217	-0,124
295,560	-140,696	-0,064	-0,005
296,574	-40,203	-0,204	-0,073
297,589	-200,000	-0,063	-0,207
298,603	129,217	-0,183	-0,161
299,618	88,944	-0,204	-0,156
300,633	78,989	-0,159	-0,118
301,647	-109,094	-0,179	-0,026
302,662	-96,253	-0,043	-0,008
303,676	-15,742	-0,105	0,046
304,691	602,130	-0,119	-0,204
305,706	105,521	-0,097	-0,079
306,720	537,016	-0,086	-0,141
307,735	-39,559	-0,137	0,049
308,749	-83,140	-0,167	-0,037
309,764	-150,129	-0,169	0,009
310,779	-200,000	-0,068	-0,231
311,793	-200,000	-0,028	-0,198
312,808	367,892	-0,199	-0,277
313,822	90,754	-0,135	-0,104
314,837	281,098	-0,191	-0,236
315,852	38,062	-0,182	-0,111
316,866	-30,987	-0,113	-0,044
317,881	717,197	-0,083	-0,152
318,895	769,820	-0,085	-0,160
319,910	250,668	-0,104	-0,122
320,925	65,755	-0,146	-0,101
321,939	343,076	-0,148	-0,199
322,954	5,175	-0,142	-0,072
323,968	291,078	-0,088	-0,111
324,983	-117,661	-0,123	-0,015
325,997	134,749	-0,103	-0,092
327,012	138,209	-0,093	-0,084
328,027	391,895	-0,157	-0,225
329,041	150,561	-0,131	-0,122
330,056	14,249	-0,109	-0,058
331,070	87,552	-0,114	-0,087
332,085	26,886	-0,187	-0,108
333,100	-1,123	-0,231	-0,112
334,114	800,000	-0,141	-0,349
335,129	-0,245	-0,181	-0,088
336,143	174,510	-0,144	-0,143
337,158	219,270	-0,172	-0,189
338,173	684,626	0,060	-0,108
339,187	106,719	-0,098	-0,080
340,202	-9,458	-0,223	-0,102
341,216	62,511	-0,252	-0,173
342,231	240,492	-0,133	-0,153
343,246	179,546	-0,104	-0,105
344,260	-120,615	-0,162	-0,019
345,275	188,149	0,049	-0,050
346,289	-177,275	-0,098	0,002
347,304	164,654	-0,120	-0,116
348,319	118,285	-0,119	-0,101
349,333	22,723	-0,196	-0,110
350,348	3,306	-0,155	-0,077
351,362	-69,768	-0,200	0,052
352,377	691,890	-0,013	0,023
353,392	-200,000	0,019	-0,080
354,406	-30,869	-0,171	-0,066
355,421	208,690	1313,009	1410,958
356,435	160,582	1473,536	1411,442
