DTS Sentinel unit serial number:	SN410029Multiplexer serial number:	ORYXHardware model number:	OX2-SRSoftware version number:	ORYX F/W v4,00 Oryx Data Collector v3.7.2.0data status	okinstallation	B3 Nyhavnadifferential loss correction	single-endedforward channel	channel 1reverse channel	N/Adate	2023/12/02time	18:57:30forward acquisition time	300,00reverse acquisition time	0,00gamma	499,1914k internal	0,3200k external	0,3200temperature offset calibration	1,0000default loss term (dB/km)	0,3820temperature slope calibration	1,0000multiplexer offset coefficient	1,0000multiplexer slope coefficient	1,0000fibre end	0,00T internal ref (°C)	13,48T ext. ref 1 (°C)	-1,81T ext. ref 2 (°C)	-1,83length (m)	temperature (°C)	Stokes	anti-Stokes-744,400	161,434	-0,271	-0,276
-743,385	-200,000	0,046	0,274
-742,371	83,714	-0,121	-0,096
-741,356	800,000	-0,140	0,329
-740,342	49,606	-0,170	-0,116
-739,327	800,000	-0,127	0,271
-738,312	329,869	-0,264	-0,370
-737,298	-200,000	0,041	0,225
-736,283	310,458	-0,173	-0,236
-735,269	800,000	-0,095	0,271
-734,254	263,832	-0,141	-0,178
-733,239	-30,860	-0,257	0,105
-732,225	349,429	-0,156	-0,225
-731,210	261,188	0,078	0,098
-730,196	-200,000	0,024	-0,094
-729,181	679,724	0,009	0,017
-728,167	800,000	-0,047	0,098
-727,152	-200,000	-0,001	0,099
-726,137	172,568	0,095	-0,100
-725,123	-48,564	-0,093	-0,032
-724,108	216,629	-0,038	-0,044
-723,094	-113,489	-0,089	-0,013
-722,079	71,508	0,028	0,021
-721,064	-200,000	0,015	-0,109
-720,050	56,594	-0,105	0,074
-719,035	-53,519	-0,109	0,036
-718,021	-200,000	-0,007	-0,045
-717,006	234,984	-0,103	-0,123
-715,991	-97,411	-0,174	0,033
-714,977	39,796	-0,200	0,130
-713,962	-200,000	-0,013	-0,058
-712,948	-200,000	0,000	0,016
-711,933	59,537	0,100	-0,072
-710,918	279,925	0,064	0,083
-709,904	7,525	-0,162	-0,088
-708,889	-200,000	-0,036	-0,136
-707,875	-200,000	0,028	-0,145
-706,860	463,202	0,048	-0,079
-705,845	-63,669	0,012	-0,004
-704,831	37,774	-0,068	0,044
-703,816	-200,000	-0,018	0,099
-702,802	-10,102	-0,144	-0,069
-701,787	50,095	0,088	0,060
-700,772	-22,522	0,048	-0,021
-699,758	800,000	0,025	-0,064
-698,743	551,066	0,043	-0,076
-697,729	-200,000	0,000	0,003
-696,714	193,953	-0,099	-0,109
-695,699	75,508	-0,068	-0,052
-694,685	68,219	-0,024	-0,018
-693,670	-200,000	-0,021	-0,071
-692,656	-105,666	-0,129	0,021
-691,641	224,674	-0,045	0,053
-690,627	293,750	-0,029	0,039
-689,612	-200,000	0,033	0,159
-688,597	800,000	-0,069	-0,164
-687,583	-28,019	-0,155	-0,065
-686,568	28,382	-0,075	0,046
-685,554	-152,793	0,122	0,006
-684,539	-200,000	-0,030	0,142
-683,524	-94,058	-0,014	0,003
-682,510	-200,000	-0,006	0,051
-681,495	-200,000	-0,026	0,137
-680,481	-91,161	-0,177	-0,037
-679,466	-91,146	0,131	0,027
-678,451	-67,345	-0,135	0,038
-677,437	-94,527	0,124	0,024
-676,422	705,933	0,048	0,092
-675,408	-148,222	-0,043	0,003
-674,393	800,000	-0,032	-0,086
-673,378	184,586	-0,099	0,107
-672,364	78,407	-0,157	-0,121
-671,349	-200,000	-0,023	-0,127
-670,335	-200,000	0,002	-0,069
-669,320	-60,801	-0,152	0,046
-668,305	7,121	-0,036	0,019
-667,291	31,784	-0,052	0,033
-666,276	219,813	0,047	-0,055
-665,262	800,000	-0,034	-0,087
-664,247	800,000	-0,055	-0,140
-663,232	290,997	-0,039	0,052
-662,218	66,544	0,034	0,025
-661,203	-104,031	0,132	0,022
-660,189	-200,000	-0,004	-0,027
-659,174	171,986	0,067	-0,070
-658,159	149,509	-0,215	-0,211
-657,145	449,079	-0,016	-0,025
-656,130	800,000	-0,024	-0,052
-655,116	-128,170	-0,098	-0,010
-654,101	81,640	0,109	0,086
-653,086	30,196	0,016	-0,010
-652,072	169,488	-0,091	-0,095
-651,057	-149,511	-0,157	0,009
-650,043	-169,247	-0,141	-0,004
-649,028	586,908	0,079	-0,141
-648,014	205,066	-0,063	-0,071
-646,999	86,201	-0,107	-0,085
-645,984	290,601	-0,075	0,099
-644,970	-200,000	-0,018	-0,121
-643,955	-8,278	-0,035	-0,017
-642,941	-200,000	0,012	-0,105
-641,926	-26,577	-0,041	0,017
-640,911	337,100	-0,107	0,151
-639,897	9,690	0,188	0,103
-638,882	190,076	-0,032	0,035
-637,868	14,703	0,042	0,024
-636,853	-90,425	-0,140	0,029
-635,838	470,445	0,040	-0,065
-634,824	-200,000	-0,003	0,036
-633,809	-200,000	0,002	0,095
-632,795	85,937	0,121	0,097
-631,780	800,000	0,040	0,093
-630,765	-55,965	-0,027	0,009
-629,751	-42,102	-0,035	-0,013
-628,736	78,127	0,088	0,068
-627,722	-185,271	-0,121	-0,001
-626,707	619,205	0,077	-0,140
-625,692	-122,708	-0,090	0,010
-624,678	86,134	-0,019	-0,015
-623,663	-45,521	-0,128	-0,046
-622,649	177,227	0,070	-0,074
-621,634	-122,650	0,165	-0,019
-620,619	700,057	0,028	0,054
-619,605	-148,438	-0,066	0,004
-618,590	233,724	0,032	-0,038
-617,576	204,659	0,061	-0,069
-616,561	-139,979	-0,185	0,014
-615,546	23,229	0,125	-0,074
-614,532	-57,512	-0,082	0,026
-613,517	437,636	0,019	-0,030
-612,503	307,121	-0,108	0,146
-611,488	800,000	0,015	-0,036
-610,474	680,543	-0,008	0,015
-609,459	800,000	-0,026	0,053
-608,444	253,288	-0,123	-0,153
-607,430	800,000	-0,066	-0,164
-606,415	176,623	0,054	-0,057
-605,401	-45,363	-0,062	0,022
-604,386	-117,466	-0,181	0,023
-603,371	-200,000	-0,016	0,087
-602,357	-200,000	0,013	-0,146
-601,342	-90,913	0,109	-0,023
-600,328	-134,733	-0,158	-0,014
-599,313	-86,109	0,131	0,029
-598,298	95,468	0,041	0,034
-597,284	406,666	-0,010	-0,015
-596,269	-25,147	0,091	-0,039
-595,255	99,169	0,059	-0,049
-594,240	112,428	-0,102	0,089
-593,225	30,488	-0,084	-0,052
-592,211	-74,936	-0,103	0,026
-591,196	771,872	0,074	0,147
-590,182	-46,068	-0,058	-0,021
-589,167	101,254	-0,028	-0,024
-588,152	-200,000	-0,008	0,069
-587,138	800,000	-0,057	0,167
-586,123	-52,379	-0,083	0,028
-585,109	-39,835	-0,013	0,005
-584,094	-102,454	0,176	-0,030
-583,079	-142,289	0,031	-0,002
-582,065	11,272	0,023	-0,013
-581,050	-158,390	0,041	0,002
-580,036	-200,000	0,043	0,168
-579,021	171,101	-0,058	0,060
-578,006	-200,000	0,022	-0,098
-576,992	800,000	-0,017	0,045
-575,977	96,886	-0,076	0,063
-574,963	-22,325	-0,088	-0,038
-573,948	126,819	-0,040	0,036
-572,934	-26,081	0,129	0,054
-571,919	-54,130	-0,086	-0,028
-570,904	-104,828	-0,127	0,021
-569,890	-64,315	-0,174	0,051
-568,875	800,000	0,069	0,150
-567,861	-200,000	-0,035	0,150
-566,846	687,355	-0,016	0,030
-565,831	123,934	-0,099	0,090
-564,817	45,807	0,139	0,093
-563,802	109,933	-0,127	-0,110
-562,788	47,407	-0,071	-0,048
-561,773	42,747	0,109	-0,072
-560,758	-84,882	0,102	0,023
-559,744	498,744	-0,078	0,130
-558,729	800,000	0,016	0,048
-557,715	-200,000	0,006	-0,079
-556,700	-34,707	-0,127	-0,050
-555,685	-115,159	-0,167	-0,023
-554,671	800,000	-0,012	0,026
-553,656	-142,068	0,261	0,018
-552,642	25,934	-0,118	0,071
-551,627	44,321	0,007	0,005
-550,612	-158,077	0,051	0,002
-549,598	-17,936	-0,010	-0,004
-548,583	154,744	-0,079	-0,078
-547,569	800,000	-0,049	0,138
-546,554	112,662	-0,067	-0,059
-545,539	-200,000	-0,006	0,105
-544,525	-2,525	0,013	0,007
-543,510	95,456	-0,062	-0,051
-542,496	-200,000	0,004	-0,156
-541,481	800,000	-0,053	0,134
-540,466	515,676	-0,049	0,082
-539,452	398,098	0,039	-0,058
-538,437	-200,000	-0,002	0,060
-537,423	-45,441	-0,056	-0,020
-536,408	-1,180	0,051	0,026
-535,393	603,717	-0,057	-0,103
-534,379	-40,741	-0,138	0,051
-533,364	-65,958	-0,067	-0,019
-532,350	610,524	0,028	-0,051
-531,335	654,406	0,011	0,021
-530,321	-94,782	-0,031	0,006
-529,306	-4,348	0,069	0,034
-528,291	800,000	-0,043	-0,130
-527,277	-200,000	-0,003	0,032
-526,262	10,224	-0,166	0,091
-525,248	-68,311	0,170	-0,047
-524,233	800,000	0,028	-0,067
-523,218	-200,000	0,013	0,068
-522,204	183,843	-0,046	-0,049
-521,189	64,210	0,071	0,052
-520,175	-200,000	-0,012	-0,120
-519,160	-22,906	-0,046	-0,020
-518,145	59,194	0,057	-0,040
-517,131	51,458	0,095	0,065
-516,116	-13,611	-0,023	-0,011
-515,102	800,000	-0,055	-0,121
-514,087	-82,275	0,154	0,036
-513,072	-25,685	0,188	-0,080
-512,058	-159,010	0,076	-0,003
-511,043	-200,000	-0,003	-0,054
-510,029	128,576	0,020	-0,019
-509,014	14,415	0,174	-0,098
-507,999	-200,000	-0,007	-0,023
-506,985	7,449	0,057	-0,031
-505,970	-148,030	0,125	-0,007
-504,956	-200,000	0,042	-0,210
-503,941	-147,311	0,073	0,004
-502,926	-72,678	0,076	-0,020
-501,912	-122,771	0,080	-0,009
-500,897	800,000	0,055	-0,129
-499,883	169,136	-0,023	0,024
-498,868	303,302	-0,081	0,108
-497,853	223,644	0,035	-0,040
-496,839	-74,941	-0,076	0,020
-495,824	-200,000	-0,005	-0,019
-494,810	-11,769	0,052	-0,024
-493,795	800,000	0,042	0,133
-492,781	653,811	-0,029	-0,054
-491,766	-185,811	0,049	0,001
-490,751	109,847	-0,161	-0,139
-489,737	-200,000	0,002	-0,006
-488,722	65,061	0,101	0,074
-487,708	35,167	-0,039	-0,025
-486,693	339,017	0,048	0,068
-485,678	256,490	-0,080	0,100
-484,664	696,339	0,058	-0,109
-483,649	61,083	-0,074	-0,053
-482,635	-111,945	0,107	-0,015
-481,620	-135,396	0,061	-0,005
-480,605	-48,572	0,107	0,037
-479,591	-200,000	-0,019	0,173
-478,576	800,000	0,015	0,031
-477,562	-200,000	0,018	0,068
-476,547	800,000	0,069	-0,219
-475,532	-97,764	0,101	-0,019
-474,518	-3,510	-0,034	0,017
-473,503	62,236	0,070	-0,051
-472,489	-121,336	0,176	-0,021
-471,474	800,000	-0,047	0,097
-470,459	-200,000	0,001	-0,084
-469,445	112,140	-0,038	-0,033
-468,430	-66,403	0,048	0,014
-467,416	-36,562	-0,294	0,113
-466,401	-167,627	0,141	-0,004
-465,386	13,045	-0,092	-0,051
-464,372	154,580	0,106	0,104
-463,357	-200,000	0,005	-0,028
-462,343	41,886	0,056	-0,037
-461,328	-130,133	-0,123	0,012
-460,313	155,587	0,047	0,047
-459,299	283,518	0,054	0,070
-458,284	286,664	0,090	0,118
-457,270	114,277	0,022	0,019
-456,255	800,000	-0,018	-0,045
-455,241	800,000	-0,009	0,026
-454,226	-200,000	-0,032	-0,191
-453,211	-200,000	0,040	-0,222
-452,197	-200,000	-0,029	0,107
-451,182	81,661	0,035	0,028
-450,168	800,000	-0,009	-0,023
-449,153	61,055	-0,060	-0,043
-448,138	363,845	-0,029	0,042
-447,124	-50,398	-0,150	-0,051
-446,109	800,000	0,016	0,043
-445,095	85,513	-0,055	0,044
-444,080	-37,106	0,016	0,006
-443,065	-200,000	0,005	-0,059
-442,051	-90,709	-0,136	0,028
-441,036	381,937	-0,059	0,087
-440,022	-10,126	-0,095	-0,045
-439,007	256,243	-0,084	-0,104
-437,992	-200,000	0,003	0,019
-436,978	800,000	-0,052	0,145
-435,963	-67,573	-0,094	0,026
-434,949	277,881	-0,056	-0,071
-433,934	-200,000	-0,014	-0,073
-432,919	-200,000	0,034	-0,118
-431,905	32,743	-0,068	0,042
-430,890	800,000	0,035	0,098
-429,876	-24,071	-0,075	0,032
-428,861	12,665	0,096	0,053
-427,846	-8,945	0,086	0,041
-426,832	-146,616	-0,105	0,006
-425,817	800,000	0,038	-0,084
-424,803	-200,000	0,000	-0,047
-423,788	-200,000	-0,018	0,056
-422,773	576,197	0,052	0,092
-421,759	343,960	0,021	-0,029
-420,744	44,310	0,140	-0,092
-419,730	150,193	-0,030	0,029
-418,715	-200,000	0,012	-0,054
-417,701	-200,000	-0,045	-0,172
-416,686	-86,433	0,100	-0,022
-415,671	-200,000	-0,006	-0,047
-414,657	-17,401	0,085	-0,038
-413,642	-89,768	0,006	0,001
-412,628	-36,507	0,046	-0,018
-411,613	-59,627	0,091	-0,028
-410,598	800,000	-0,050	-0,121
-409,584	800,000	0,084	0,172
-408,569	-10,686	0,115	0,055
-407,555	79,933	-0,054	-0,042
-406,540	198,372	0,056	-0,061
-405,525	502,923	-0,027	-0,046
-404,511	-111,177	0,019	-0,003
-403,496	800,000	-0,052	-0,134
-402,482	-114,628	-0,089	-0,012
-401,467	-200,000	0,022	0,217
-400,452	-75,698	0,078	0,020
-399,438	-121,820	-0,112	0,013
-398,423	-110,082	-0,197	-0,029
-397,409	-120,535	-0,147	0,018
-396,394	-127,906	-0,018	0,002
-395,379	-25,802	-0,086	0,036
-394,365	85,996	0,033	0,026
-393,350	800,000	0,042	0,084
-392,336	-83,670	0,026	-0,006
-391,321	-62,752	-0,144	-0,043
-390,306	-125,306	-0,124	0,013
-389,292	-200,000	-0,015	-0,079
-388,277	253,790	0,099	-0,122
-387,263	800,000	-0,013	0,034
-386,248	41,792	0,206	0,134
-385,233	416,409	-0,030	-0,047
-384,219	66,147	-0,131	-0,095
-383,204	392,947	0,078	0,117
-382,190	631,205	-0,064	-0,116
-381,175	-200,000	-0,003	-0,069
-380,160	-75,905	0,018	-0,005
-379,146	-86,443	-0,083	0,018
-378,131	-200,000	-0,003	0,091
-377,117	-118,014	-0,180	0,023
-376,102	-107,441	0,071	0,011
-375,088	45,843	-0,016	-0,011
-374,073	305,646	0,045	0,060
-373,058	-200,000	0,018	0,113
-372,044	-107,145	0,071	0,011
-371,029	-60,370	0,155	0,047
-370,015	57,913	0,106	0,075
-369,000	800,000	-0,033	0,099
-367,985	590,208	0,028	0,049
-366,971	800,000	-0,041	-0,113
-365,956	145,445	0,069	-0,067
-364,942	-109,742	0,061	-0,009
-363,927	-75,635	0,149	0,038
-362,912	349,374	0,044	0,063
-361,898	-200,000	0,000	0,082
-360,883	800,000	0,005	-0,013
-359,869	26,914	0,168	-0,101
-358,854	564,721	0,033	0,058
-357,839	40,585	-0,056	0,036
-356,825	-200,000	-0,017	-0,072
-355,810	111,534	-0,036	0,031
-354,796	-116,552	-0,045	-0,006
-353,781	-200,000	-0,013	-0,065
-352,766	64,589	-0,050	0,036
-351,752	-200,000	0,009	0,048
-350,737	-29,291	0,066	-0,027
-349,723	-200,000	0,039	0,171
-348,708	800,000	0,021	0,045
-347,693	800,000	-0,079	0,210
-346,679	121,550	-0,138	-0,123
-345,664	47,390	0,054	-0,036
-344,650	708,785	-0,077	-0,146
-343,635	-136,308	0,004	0,000
-342,620	-200,000	-0,020	-0,144
-341,606	25,350	-0,091	0,054
-340,591	217,625	-0,095	-0,109
-339,577	-135,892	-0,240	-0,020
-338,562	800,000	-0,012	-0,037
-337,548	5,187	-0,025	-0,013
-336,533	583,241	0,054	-0,096
-335,518	-200,000	-0,006	0,059
-334,504	800,000	0,020	0,063
-333,489	-163,756	-0,084	0,003
-332,475	89,102	0,070	-0,056
-331,460	93,956	-0,157	-0,127
-330,445	-200,000	0,008	-0,086
-329,431	-200,000	0,016	0,062
-328,416	154,834	0,095	0,094
-327,402	-64,145	0,076	-0,022
-326,387	524,059	-0,052	0,088
-325,372	771,981	-0,032	-0,062
-324,358	-137,950	0,185	-0,015
-323,343	800,000	0,056	-0,132
-322,329	-113,534	0,127	0,018
-321,314	-200,000	0,004	0,126
-320,299	21,932	0,182	0,106
-319,285	288,277	0,083	0,108
-318,270	53,982	-0,156	0,107
-317,256	667,452	0,020	-0,038
-316,241	-200,000	0,015	-0,121
-315,226	11,457	-0,087	-0,047
-314,212	-184,698	0,113	-0,001
-313,197	-37,393	-0,049	0,019
-312,183	-200,000	0,023	-0,086
-311,168	-73,310	-0,147	-0,038
-310,153	22,656	-0,141	-0,082
-309,139	-200,000	0,016	0,093
-308,124	-147,118	0,142	0,009
-307,110	-11,178	-0,059	0,028
-306,095	800,000	0,034	0,106
-305,080	-67,618	0,120	-0,034
-304,066	800,000	-0,034	0,092
-303,051	-105,136	-0,029	0,005
-302,037	337,905	-0,038	-0,054
-301,022	800,000	0,039	-0,083
-300,008	159,605	0,046	0,046
-298,993	-74,903	0,146	0,037
-297,978	-200,000	-0,002	-0,133
-296,964	-86,080	-0,037	0,008
-295,949	-46,631	-0,057	-0,020
-294,935	38,685	0,013	0,008
-293,920	57,780	-0,036	-0,025
-292,905	10,850	0,115	-0,062
-291,891	-200,000	0,021	0,123
-290,876	-10,043	-0,042	0,020
-289,862	239,543	0,127	0,152
-288,847	153,059	0,098	0,096
-287,832	639,766	-0,020	-0,037
-286,818	463,667	0,012	0,018
-285,803	-172,618	0,070	0,002
-284,789	800,000	-0,010	-0,028
-283,774	765,278	0,074	0,144
-282,759	71,457	-0,034	0,026
-281,745	328,434	0,022	-0,031
-280,730	224,365	0,017	-0,020
-279,716	-73,958	-0,051	0,013
-278,701	-77,588	0,109	0,027
-277,686	264,684	0,048	0,060
-276,672	800,000	0,011	-0,030
-275,657	-200,000	-0,009	0,101
-274,643	-5,070	0,027	0,013
-273,628	-200,000	-0,023	0,078
-272,613	251,020	0,016	0,020
-271,599	524,316	0,084	0,142
-270,584	-13,359	-0,093	0,043
-269,570	-200,000	0,057	0,180
-268,555	800,000	0,028	0,060
-267,540	675,082	-0,048	-0,089
-266,526	239,961	0,068	0,081
-265,511	800,000	0,013	0,031
-264,497	220,753	-0,036	-0,042
-263,482	-124,363	0,118	-0,013
-262,467	-66,705	0,089	0,025
-261,453	-200,000	-0,029	0,166
-260,438	388,205	-0,062	-0,093
-259,424	-200,000	-0,012	-0,039
-258,409	-136,480	-0,091	0,007
-257,395	-22,823	0,159	0,068
-256,380	-200,000	-0,047	0,203
-255,365	-200,000	-0,004	0,016
-254,351	132,971	-0,041	0,038
-253,336	-23,520	0,085	-0,036
-252,322	800,000	-0,032	0,072
-251,307	800,000	0,019	-0,046
-250,292	-170,884	0,143	0,003
-249,278	-200,000	0,011	0,052
-248,263	-92,815	-0,046	0,009
-247,249	25,884	0,074	0,044
-246,234	-200,000	0,025	-0,186
-245,219	-40,041	-0,126	-0,047
-244,205	800,000	0,032	-0,095
-243,190	152,401	-0,074	-0,072
-242,176	11,028	-0,049	0,027
-241,161	442,628	0,094	-0,147
-240,146	-126,604	0,117	0,012
-239,132	-74,243	-0,061	-0,016
-238,117	-200,000	-0,006	-0,116
-237,103	-200,000	0,034	-0,229
-236,088	800,000	-0,045	-0,094
-235,073	92,908	0,008	-0,006
-234,059	52,323	0,015	0,010
-233,044	-200,000	0,026	0,193
-232,030	-58,087	-0,072	-0,022
-231,015	77,512	0,062	0,047
-230,000	-200,000	-0,016	-0,102
-228,986	800,000	0,014	0,037
-227,971	-115,556	0,061	-0,008
-226,957	800,000	-0,053	0,143
-225,942	8,181	0,067	0,036
-224,927	103,907	-0,068	0,057
-223,913	800,000	0,025	-0,055
-222,898	649,494	-0,052	-0,096
-221,884	-200,000	-0,020	0,116
-220,869	800,000	0,028	0,061
-219,855	-81,720	0,113	-0,026
-218,840	-115,501	0,082	0,011
-217,825	-156,853	0,052	0,002
-216,811	112,011	-0,081	-0,070
-215,796	200,484	-0,094	0,103
-214,782	-200,000	-0,003	-0,018
-213,767	109,214	-0,054	-0,046
-212,752	-25,964	0,084	0,035
-211,738	138,927	0,012	0,011
-210,723	800,000	-0,041	0,115
-209,709	-200,000	0,005	0,055
-208,694	-200,000	-0,013	-0,115
-207,679	380,461	0,011	-0,017
-206,665	-20,266	-0,136	-0,059
-205,650	25,682	0,169	-0,100
-204,636	-81,954	-0,027	-0,006
-203,621	-200,000	-0,028	-0,153
-202,606	-78,557	-0,080	-0,019
-201,592	262,585	-0,044	-0,054
-200,577	-110,026	0,017	0,003
-199,563	-200,000	0,012	-0,078
-198,548	800,000	-0,089	0,201
-197,533	796,438	-0,031	0,062
-196,519	333,903	-0,023	0,031
-195,504	-200,000	-0,037	-0,138
-194,490	-13,290	0,106	-0,049
-193,475	-8,442	-0,101	-0,048
-192,460	-200,000	0,002	-0,023
-191,446	-200,000	-0,013	-0,172
-190,431	800,000	-0,027	-0,065
-189,417	-4,632	-0,138	0,067
-188,402	229,238	-0,134	-0,156
-187,387	800,000	0,045	-0,136
-186,373	800,000	0,040	0,111
-185,358	751,118	0,017	-0,033
-184,344	800,000	0,020	-0,051
-183,329	235,452	0,116	-0,136
-182,315	800,000	-0,012	-0,031
-181,300	800,000	-0,034	-0,085
-180,285	800,000	-0,078	-0,169
-179,271	-64,009	0,023	-0,007
-178,256	83,660	-0,084	-0,065
-177,242	156,282	0,036	0,035
-176,227	10,909	0,073	-0,039
-175,212	-200,000	-0,017	0,141
-174,198	800,000	0,052	0,145
-173,183	696,223	-0,020	0,038
-172,169	-200,000	-0,016	0,115
-171,154	-67,979	0,108	0,030
-170,139	14,849	0,171	-0,095
-169,125	599,605	-0,094	0,167
-168,110	3,256	0,093	0,048
-167,096	-48,114	-0,065	-0,022
-166,081	-47,301	-0,039	-0,013
-165,066	-200,000	-0,041	-0,130
-164,052	55,784	-0,137	-0,094
-163,037	-56,286	-0,038	0,012
-162,023	-155,560	0,023	-0,001
-161,008	462,462	-0,018	0,029
-159,993	-20,683	-0,034	0,015
-158,979	-200,000	0,019	-0,087
-157,964	8,873	0,131	-0,070
-156,950	276,667	-0,085	-0,108
-155,935	323,040	-0,145	0,197
-154,920	-200,000	0,016	0,107
-153,906	-129,788	0,114	-0,011
-152,891	-200,000	0,001	0,052
-151,877	14,856	-0,027	-0,015
-150,862	580,630	-0,044	-0,077
-149,847	452,032	0,031	0,049
-148,833	-200,000	-0,000	-0,081
-147,818	31,889	0,043	-0,026
-146,804	59,343	-0,155	-0,109
-145,789	-200,000	-0,014	-0,052
-144,775	44,544	0,058	-0,037
-143,760	62,639	0,022	0,015
-142,745	-71,276	0,104	-0,027
-141,731	800,000	0,041	0,106
-140,716	-50,797	0,031	-0,010
-139,702	-200,000	-0,003	-0,015
-138,687	78,400	0,088	0,067
-137,672	69,782	-0,097	-0,071
-136,658	-0,506	-0,098	-0,049
-135,643	800,000	0,032	-0,070
-134,629	29,137	0,029	0,018
-133,614	-200,000	0,020	0,088
-132,599	222,415	-0,022	0,025
-131,585	-159,117	0,097	0,004
-130,570	-200,000	-0,031	0,099
-129,556	-200,000	-0,004	0,075
-128,541	286,465	0,044	-0,056
-127,526	800,000	-0,037	-0,079
-126,512	136,652	-0,057	-0,053
-125,497	32,486	0,047	-0,029
-124,483	-173,982	0,007	-0,000
-123,468	800,000	0,041	0,119
-122,453	-51,021	-0,178	-0,059
-121,439	-14,581	0,020	0,009
-120,424	-31,128	-0,130	-0,052
-119,410	-75,815	0,117	0,029
-118,395	19,790	0,022	-0,013
-117,380	34,852	-0,042	-0,026
-116,366	93,461	0,105	0,084
-115,351	-200,000	-0,002	-0,028
-114,337	-200,000	0,011	0,165
-113,322	462,983	-0,074	0,118
-112,307	-200,000	0,000	-0,062
-111,293	-91,361	-0,099	0,020
-110,278	-200,000	-0,008	-0,123
-109,264	-34,571	0,155	-0,060
-108,249	91,779	-0,080	-0,064
-107,234	-200,000	-0,014	-0,045
-106,220	-42,670	0,073	0,026
-105,205	800,000	0,059	-0,128
-104,191	-200,000	-0,024	0,083
-103,176	212,016	0,026	0,029
-102,162	-54,023	0,121	0,039
-101,147	-200,000	0,008	0,158
-100,132	800,000	-0,038	0,081
-99,118	-5,809	0,182	-0,088
-98,103	-67,283	-0,062	-0,017
-97,089	291,338	0,054	0,070
-96,074	44,303	-0,172	0,112
-95,059	-200,000	-0,010	-0,049
-94,045	-42,511	0,055	-0,020
-93,030	163,079	0,065	0,064
-92,016	281,739	0,106	0,135
-91,001	404,580	-0,050	0,074
-89,986	417,247	0,038	0,058
-88,972	-99,235	0,119	0,021
-87,957	7,086	-0,150	-0,079
-86,943	-200,000	0,008	0,068
-85,928	-200,000	0,001	0,014
-84,913	57,217	-0,062	-0,043
-83,899	220,119	0,010	0,011
-82,884	-18,245	-0,069	0,030
-81,870	-200,000	0,023	0,085
-80,855	696,846	0,058	-0,108
-79,840	-200,000	0,001	-0,059
-78,826	800,000	-0,037	-0,081
-77,811	-184,917	-0,037	0,000
-76,797	201,732	0,056	0,061
-75,782	800,000	0,066	0,179
-74,767	800,000	-0,043	0,104
-73,753	126,549	0,087	-0,078
-72,738	-174,246	0,058	-0,001
-71,724	-8,693	0,083	-0,039
-70,709	-47,012	-0,027	-0,009
-69,694	-78,149	0,065	-0,016
-68,680	45,229	-0,050	-0,033
-67,665	30,640	0,107	-0,065
-66,651	-165,450	0,042	-0,001
-65,636	-200,000	0,010	0,055
-64,622	800,000	0,059	0,125
-63,607	-106,766	-0,130	0,020
-62,592	-90,359	0,083	-0,017
-61,578	800,000	0,008	0,026
-60,563	-105,806	0,045	-0,007
-59,549	102,006	0,095	0,079
-58,534	2,325	-1,633	-0,834
-57,519	378,973	-1,438	-2,091
-56,505	-200,000	-0,499	-4,564
-55,490	170,644	1,003	1,018
-54,476	800,000	4,962	11,373
-53,461	-200,000	19,120	318,790
-52,446	-200,000	739,909	2335,285
-51,432	574,552	1655,299	2872,210
-50,417	78,531	1671,251	1263,728
-49,403	21,474	1544,001	886,867
-48,388	15,388	1466,203	812,584
-47,373	17,869	1456,788	819,325
-46,359	16,773	1446,436	808,213
-45,344	13,624	1441,708	790,453
-44,330	13,502	1440,085	788,951
-43,315	13,537	1438,441	788,185
-42,300	13,530	1436,696	787,164
-41,286	13,569	1435,187	786,493
-40,271	13,526	1433,915	785,558
-39,257	13,540	1432,657	784,907
-38,242	13,591	1431,278	784,359
-37,227	13,575	1430,247	783,689
-36,213	13,612	1428,736	783,004
-35,198	13,546	1427,891	782,198
-34,184	13,607	1426,777	781,848
-33,169	13,544	1425,414	780,769
-32,154	13,593	1424,399	780,412
-31,140	13,638	1422,724	779,679
-30,125	13,649	1421,874	779,232
-29,111	13,605	1420,819	778,417
-28,096	13,573	1419,776	777,665
-27,082	13,469	1418,728	776,569
-26,067	13,520	1417,483	776,096
-25,052	13,526	1416,381	775,492
-24,038	13,455	1415,512	774,648
-23,023	13,478	1414,414	774,126
-22,009	13,520	1413,373	773,722
-20,994	13,476	1412,633	773,082
-19,979	13,464	1411,735	772,504
-18,965	13,397	1410,813	771,650
-17,950	13,473	1409,848	771,450
-16,936	13,448	1408,886	770,776
-15,921	13,394	1407,774	769,886
-14,906	13,448	1406,747	769,546
-13,892	13,401	1405,928	768,845
-12,877	13,445	1404,881	768,448
-11,863	13,428	1404,126	767,924
-10,848	13,429	1403,127	767,353
-9,833	13,401	1402,386	766,790
-8,819	13,313	1401,577	765,906
-7,804	13,363	1400,640	765,596
-6,790	13,341	1399,599	764,891
-5,775	13,353	1398,401	764,266
-4,760	13,362	1397,446	763,755
-3,746	13,318	1396,717	763,118
-2,731	13,347	1395,809	762,731
-1,717	13,279	1395,111	762,002
-0,702	13,275	1393,099	760,855
0,313	17,174	1310,305	733,690
1,327	33,537	704,017	432,042
2,342	51,556	123,549	82,980
3,356	6,174	16,693	8,733
4,371	-3,683	3,256	1,596
5,386	-7,021	0,665	0,318
6,400	220,771	-0,088	0,100
7,415	56,603	-0,215	-0,148
8,429	68,649	-0,300	-0,217
9,444	105,790	-0,341	-0,285
10,459	-9,857	-0,318	-0,149
11,473	366,439	-0,202	-0,290
12,488	-45,454	-0,244	-0,085
13,502	-62,562	-0,471	-0,137
14,517	-26,226	-0,316	-0,131
15,531	93,663	-0,338	-0,271
16,546	49,590	-0,324	-0,215
17,561	72,827	-0,344	-0,253
18,575	-30,539	-0,268	-0,107
19,590	244,374	-0,159	-0,189
20,604	1,090	-0,170	-0,086
21,619	249,121	-0,315	-0,378
22,634	94,100	-0,517	-0,414
23,648	104,340	-0,418	-0,348
24,663	41,529	-0,343	-0,219
25,677	107,186	-0,348	-0,292
26,692	70,695	-0,241	-0,176
27,707	3,296	-0,353	-0,181
28,721	122,938	-0,341	-0,301
29,736	201,884	-0,288	-0,314
30,750	21,382	-0,534	-0,306
31,765	352,177	-0,177	-0,248
32,780	119,524	-0,342	-0,299
33,794	42,951	-0,369	-0,237
34,809	45,709	-0,438	-0,285
35,823	-29,853	-0,414	-0,166
36,838	64,442	-0,365	-0,259
37,853	77,827	-0,380	-0,285
38,867	178,511	-0,350	-0,361
39,882	298,420	-0,323	-0,420
40,896	-44,811	-0,418	-0,146
41,911	235,037	-0,296	-0,345
42,926	71,065	-0,438	-0,320
43,940	322,420	-0,234	-0,316
44,955	-12,410	-0,523	-0,240
45,969	24,526	-0,393	-0,229
46,984	-28,081	-0,415	-0,169
47,999	11,164	-0,386	-0,207
49,013	126,324	-0,316	-0,282
50,028	40,786	-0,386	-0,245
51,042	64,117	-0,338	-0,239
52,057	50,010	-0,484	-0,322
53,071	28,878	-0,372	-0,222
54,086	146,712	-0,265	-0,251
55,101	82,680	-0,333	-0,254
56,115	134,131	-0,291	-0,265
57,130	86,550	-0,314	-0,244
58,144	-39,125	-0,374	-0,138
59,159	-78,571	-0,288	-0,069
60,174	35,373	-0,393	-0,242
61,188	202,144	-0,278	-0,303
62,203	71,057	-0,313	-0,228
63,217	22,465	-0,306	-0,176
64,232	16,936	-0,262	-0,146
65,247	76,994	-0,379	-0,283
66,261	152,152	-0,344	-0,330
67,276	9,679	-0,393	-0,209
68,290	113,511	-0,266	-0,227
69,305	48,846	-0,299	-0,197
70,320	-30,145	-0,272	-0,108
71,334	71,259	-0,285	-0,207
72,349	-87,037	-0,314	-0,067
73,363	12,176	-0,428	-0,231
74,378	-33,808	-0,286	-0,110
75,393	337,311	-0,259	-0,355
76,407	231,738	-0,265	-0,306
77,422	-31,803	-0,325	-0,128
78,436	-74,569	-0,272	-0,068
79,451	124,307	-0,198	-0,175
80,466	104,010	-0,260	-0,215
81,480	-3,913	-0,412	-0,200
82,495	65,856	-0,268	-0,191
83,509	58,141	-0,350	-0,241
84,524	26,673	-0,257	-0,151
85,539	-84,530	-0,350	-0,077
86,553	-154,244	-0,231	0,011
87,568	151,848	-0,139	-0,133
88,582	151,330	-0,303	-0,290
89,597	51,080	-0,296	-0,197
90,611	104,807	-0,285	-0,236
91,626	-33,886	-0,239	-0,092
92,641	-17,176	-0,195	-0,086
93,655	-49,485	-0,311	-0,103
94,670	4,936	-0,294	-0,151
95,684	100,637	-0,392	-0,319
96,699	274,527	-0,190	-0,237
97,714	-54,037	-0,263	-0,083
98,728	64,143	-0,253	-0,179
99,743	290,422	-0,278	-0,356
100,757	-103,761	-0,167	0,027
101,772	-28,008	-0,298	-0,120
102,787	-84,873	-0,329	-0,072
103,801	193,329	-0,312	-0,331
104,816	41,534	-0,240	-0,152
105,830	-4,100	-0,212	-0,103
106,845	-39,848	-0,176	-0,064
107,860	35,612	-0,292	-0,180
108,874	3,310	-0,268	-0,136
109,889	165,790	-0,242	-0,241
110,903	257,642	-0,274	-0,331
111,918	5,134	-0,155	-0,080
112,933	95,738	-0,229	-0,183
113,947	-117,408	-0,313	0,039
114,962	800,000	-0,112	-0,306
115,976	-89,433	-0,270	-0,055
116,991	-19,049	-0,304	-0,132
118,006	191,743	-0,233	-0,247
119,020	198,506	-0,183	-0,196
120,035	-13,683	-0,288	-0,130
121,049	88,809	-0,205	-0,160
122,064	-5,608	-0,303	-0,145
123,079	-91,984	-0,220	-0,043
124,093	57,929	-0,225	-0,154
125,108	16,916	-0,244	-0,135
126,122	-62,691	-0,229	-0,066
127,137	105,136	-0,214	-0,177
128,151	7,037	-0,266	-0,139
129,166	37,484	-0,162	-0,100
130,181	172,019	-0,230	-0,231
131,195	50,703	-0,244	-0,162
132,210	31,233	-0,233	-0,139
133,224	23,738	-0,309	-0,177
134,239	55,374	-0,195	-0,132
135,254	54,296	-0,195	-0,131
136,268	-116,837	-0,395	-0,050
137,283	29,432	-0,220	-0,130
138,297	623,343	-0,152	-0,269
139,312	199,240	-0,267	-0,287
140,327	148,893	-0,216	-0,204
141,341	197,401	-0,227	-0,242
142,356	-139,050	-0,266	-0,020
143,370	13,195	-0,194	-0,105
144,385	-27,665	-0,260	-0,105
145,400	62,760	-0,249	-0,174
146,414	46,350	-0,326	-0,211
147,429	42,553	-0,260	-0,165
148,443	-34,305	-0,190	-0,073
149,458	-200,000	-0,262	-0,000
150,473	800,000	0,029	-0,065
151,487	42,402	-0,166	-0,105
152,502	207,847	-0,195	-0,213
153,516	-116,035	-0,325	-0,042
154,531	74,199	-0,214	-0,156
155,546	364,675	-0,157	-0,222
156,560	-55,834	-0,265	-0,082
157,575	133,199	-0,167	-0,151
158,589	415,106	-0,165	-0,247
159,604	344,326	-0,169	-0,231
160,619	82,475	-0,243	-0,184
161,633	509,857	-0,154	-0,251
162,648	800,000	-0,084	-0,235
163,662	52,315	-0,240	-0,159
164,677	171,080	-0,279	-0,279
165,692	24,240	-0,165	-0,095
166,706	96,368	-0,280	-0,224
167,721	175,969	-0,213	-0,215
168,735	77,645	-0,360	-0,267
169,750	-178,909	-0,226	-0,003
170,764	-54,692	-0,248	-0,078
171,779	-65,185	-0,119	-0,033
172,794	62,017	-0,271	-0,188
173,808	-7,463	-0,243	-0,114
174,823	120,571	-0,285	-0,247
175,837	24,782	-0,137	-0,079
176,852	800,000	-0,115	-0,274
177,867	800,000	-0,148	-0,286
178,881	41,086	-0,254	-0,160
179,896	39,130	-0,125	-0,078
180,910	-45,529	-0,221	-0,076
181,925	-10,704	-0,271	-0,124
182,940	-140,102	-0,176	-0,013
183,954	83,456	-0,283	-0,214
184,969	800,000	-0,100	-0,222
185,983	309,537	-0,071	-0,093
186,998	-40,115	-0,288	-0,104
188,013	-36,808	-0,169	-0,063
189,027	204,069	-0,242	-0,261
190,042	304,184	-0,216	-0,280
191,056	60,467	-0,224	-0,154
192,071	0,898	-0,249	-0,124
193,086	146,708	-0,116	-0,109
194,100	299,648	-0,135	-0,173
195,115	107,661	-0,106	-0,088
196,129	75,010	-0,066	-0,049
197,144	-58,382	-0,214	-0,064
198,159	92,369	-0,155	-0,122
199,173	176,664	-0,156	-0,158
200,188	20,763	-0,325	-0,183
201,202	327,328	-0,114	-0,152
202,217	179,253	-0,230	-0,235
203,232	225,913	-0,220	-0,249
204,246	89,127	-0,292	-0,226
205,261	61,534	-0,198	-0,137
206,275	-6,299	-0,313	-0,148
207,290	216,166	-0,121	-0,134
208,304	-111,746	-0,189	0,026
209,319	503,636	-0,153	-0,247
210,334	784,426	-0,095	-0,182
211,348	800,000	-0,148	-0,304
212,363	-10,057	-0,230	-0,106
213,377	435,704	-0,113	-0,171
214,392	712,526	-0,126	-0,233
215,407	16,738	-0,239	-0,131
216,421	137,772	-0,226	-0,205
217,436	234,270	-0,153	-0,176
218,450	257,563	-0,250	-0,299
219,465	-67,969	-0,279	-0,075
220,480	800,000	-0,124	-0,278
221,494	58,978	-0,169	-0,115
222,509	36,635	-0,211	-0,129
223,523	195,282	-0,198	-0,209
224,538	17,532	-0,270	-0,148
225,553	136,980	-0,227	-0,206
226,567	53,401	-0,103	-0,068
227,582	-3,950	-0,156	-0,075
228,596	211,360	-0,182	-0,199
229,611	325,000	-0,114	-0,151
230,626	-101,977	-0,160	-0,026
231,640	-176,689	-0,226	0,004
232,655	274,660	-0,165	-0,203
233,669	-22,178	-0,236	-0,099
234,684	-49,088	-0,283	-0,093
235,699	136,660	-0,157	-0,142
236,713	193,707	-0,126	-0,132
237,728	-30,865	-0,195	-0,076
238,742	-39,373	-0,149	0,054
239,757	248,345	-0,108	-0,127
240,772	64,187	-0,195	-0,136
241,786	168,402	-0,202	-0,199
242,801	-21,918	-0,215	-0,090
243,815	708,999	-0,067	-0,123
244,830	36,651	-0,087	-0,053
245,844	26,932	-0,240	-0,139
246,859	-17,619	-0,204	-0,089
247,874	55,191	-0,280	-0,187
248,888	29,566	-0,235	-0,138
249,903	-24,026	-0,156	-0,064
250,917	104,347	-0,194	-0,158
251,932	136,084	-0,116	-0,105
252,947	30,893	-0,124	-0,074
253,961	800,000	-0,057	-0,121
254,976	119,242	-0,310	-0,266
255,990	-9,677	-0,057	-0,026
257,005	-85,323	-0,113	-0,024
258,020	-105,557	-0,096	-0,015
259,034	-92,533	-0,227	-0,044
260,049	-110,254	-0,209	-0,030
261,063	108,678	-0,142	-0,117
262,078	800,000	-0,085	-0,177
263,093	-66,450	-0,136	0,037
264,107	217,982	-0,183	-0,202
265,122	-7,628	-0,126	-0,059
266,136	2,650	-0,119	-0,060
267,151	88,581	-0,128	-0,098
268,166	101,523	-0,142	-0,115
269,180	10,613	-0,191	-0,101
270,195	-55,210	-0,198	-0,061
271,209	-47,548	-0,179	-0,060
272,224	274,600	-0,109	-0,134
273,239	-200,000	-0,030	-0,144
274,253	231,436	-0,245	-0,278
275,268	60,881	-0,155	-0,106
276,282	-200,000	0,003	-0,104
277,297	200,825	-0,189	-0,201
278,312	224,771	-0,180	-0,202
279,326	-158,685	-0,191	0,007
280,341	-5,759	-0,242	-0,114
281,355	111,851	-0,047	-0,039
282,370	-64,336	-0,195	-0,055
283,384	47,423	-0,184	-0,118
284,399	-25,367	-0,199	-0,081
285,414	800,000	-0,078	-0,236
286,428	800,000	-0,113	-0,227
287,443	-122,626	-0,098	-0,011
288,457	-139,240	-0,123	-0,009
289,472	-127,681	-0,131	0,013
290,487	61,896	-0,169	-0,116
291,501	32,906	-0,181	-0,108
292,516	-13,825	-0,107	-0,047
293,530	-200,000	0,033	-0,205
294,545	-42,029	-0,064	-0,022
295,560	-200,000	-0,011	0,050
296,574	-53,219	-0,181	-0,057
297,589	-200,000	-0,040	-0,128
298,603	91,962	-0,255	-0,198
299,618	94,720	-0,201	-0,157
300,633	272,620	-0,152	-0,186
301,647	800,000	-0,059	-0,117
302,662	-200,000	0,016	-0,052
303,676	-101,681	-0,085	0,014
304,691	-73,251	-0,120	-0,030
305,706	122,957	-0,241	-0,208
306,720	74,979	-0,152	-0,110
307,735	800,000	-0,115	-0,317
308,749	-5,852	-0,074	-0,035
309,764	-200,000	-0,023	-0,120
310,779	-31,603	-0,137	-0,053
311,793	20,082	-0,195	-0,108
312,808	190,484	-0,175	-0,181
313,822	423,273	-0,205	-0,304
314,837	-150,256	-0,072	-0,004
315,852	-89,587	0,029	-0,006
316,866	13,959	-0,144	-0,077
317,881	800,000	0,018	-0,055
318,895	-40,874	-0,199	-0,071
319,910	-35,325	-0,168	-0,062
320,925	83,679	-0,163	-0,123
321,939	-200,000	-0,019	-0,366
322,954	224,929	-0,088	-0,098
323,968	275,934	-0,067	-0,082
324,983	231,057	0,019	-0,022
325,997	213,356	-0,112	-0,122
327,012	-200,000	-0,016	-0,089
328,027	241,642	-0,152	-0,175
329,041	245,206	-0,047	0,054
330,056	229,739	-0,133	-0,150
331,070	290,770	-0,164	-0,206
332,085	-78,845	-0,080	-0,018
333,100	-200,000	0,012	-0,170
334,114	220,523	-0,107	-0,118
335,129	-200,000	-0,041	-0,204
336,143	118,207	-0,230	-0,195
337,158	-74,328	-0,163	-0,040
338,173	13,615	0,036	-0,019
339,187	522,274	-0,126	-0,204
340,202	20,982	-0,162	-0,090
341,216	527,966	-0,122	-0,199
342,231	800,000	-0,074	-0,205
343,246	136,488	-0,098	-0,088
344,260	-113,389	-0,117	-0,016
345,275	653,792	-0,029	0,051
346,289	223,171	0,019	0,021
347,304	-39,423	-0,203	-0,073
348,319	-185,230	-0,123	0,001
349,333	-116,563	-0,133	-0,017
350,348	2,285	-0,185	-0,091
351,362	439,849	-0,106	-0,160
352,377	-200,000	0,010	-0,129
353,392	-41,109	-0,137	-0,048
354,406	124,456	-0,102	-0,088
355,421	208,227	1312,987	1409,963
356,435	160,211	1473,500	1410,452
