DTS Sentinel unit serial number:	SN410029Multiplexer serial number:	ORYXHardware model number:	OX2-SRSoftware version number:	ORYX F/W v4,00 Oryx Data Collector v3.7.2.0data status	okinstallation	B3 Nyhavnadifferential loss correction	single-endedforward channel	channel 1reverse channel	N/Adate	2023/12/02time	10:37:30forward acquisition time	300,00reverse acquisition time	0,00gamma	499,1914k internal	0,3196k external	0,3196temperature offset calibration	1,0000default loss term (dB/km)	0,3820temperature slope calibration	1,0000multiplexer offset coefficient	1,0000multiplexer slope coefficient	1,0000fibre end	0,00T internal ref (°C)	14,44T ext. ref 1 (°C)	-1,23T ext. ref 2 (°C)	-1,26length (m)	temperature (°C)	Stokes	anti-Stokes-744,400	156,390	-0,136	-0,137
-743,385	-200,000	-0,007	0,333
-742,371	800,000	-0,108	-0,290
-741,356	-200,000	0,045	0,384
-740,342	800,000	-0,083	-0,178
-739,327	-200,000	-0,018	0,304
-738,312	271,391	-0,178	-0,229
-737,298	307,980	-0,177	0,241
-736,283	102,443	-0,208	-0,177
-735,269	-200,000	-0,010	0,291
-734,254	800,000	-0,126	-0,255
-733,239	-19,320	-0,196	0,088
-732,225	194,378	-0,209	-0,231
-731,210	524,745	0,065	0,112
-730,196	744,952	-0,033	-0,064
-729,181	-200,000	0,001	0,017
-728,167	-200,000	0,001	-0,097
-727,152	145,718	0,047	0,046
-726,137	51,084	-0,080	0,055
-725,123	481,479	0,035	-0,058
-724,108	800,000	-0,035	-0,112
-723,094	-200,000	-0,085	-0,282
-722,079	165,659	-0,063	-0,065
-721,064	-200,000	-0,001	0,113
-720,050	234,578	0,058	0,070
-719,035	800,000	0,012	0,024
-718,021	800,000	-0,052	-0,114
-717,006	72,863	-0,070	0,053
-715,991	167,262	-0,084	-0,087
-714,977	430,066	0,105	-0,166
-713,962	-67,152	0,149	-0,042
-712,948	74,735	-0,035	-0,027
-711,933	159,155	0,050	-0,050
-710,918	97,471	-0,128	-0,107
-709,904	183,124	-0,094	-0,101
-708,889	-200,000	0,020	-0,099
-707,875	-200,000	-0,011	-0,040
-706,860	36,809	-0,082	0,053
-705,845	-58,677	0,116	0,036
-704,831	90,791	0,104	0,085
-703,816	-117,986	-0,076	-0,010
-702,802	-52,498	0,021	-0,007
-701,787	-200,000	-0,006	-0,082
-700,772	494,573	0,044	-0,074
-699,758	-200,000	0,021	-0,077
-698,743	130,983	0,097	-0,091
-697,729	-200,000	-0,018	0,108
-696,714	215,679	0,069	0,080
-695,699	-140,718	-0,160	-0,012
-694,685	800,000	0,039	-0,103
-693,670	-200,000	0,007	0,027
-692,656	-200,000	0,014	0,053
-691,641	-200,000	0,001	0,048
-690,627	101,144	0,058	0,049
-689,612	70,855	0,068	0,051
-688,597	-84,836	0,150	0,034
-687,583	136,364	0,066	0,062
-686,568	-200,000	-0,030	-0,165
-685,554	-159,934	0,087	-0,003
-684,539	269,097	0,062	-0,080
-683,524	-172,586	0,103	0,002
-682,510	114,126	0,107	0,094
-681,495	176,384	-0,065	0,069
-680,481	413,729	-0,088	-0,136
-679,466	332,199	0,011	-0,015
-678,451	800,000	-0,024	-0,051
-677,437	531,380	0,019	-0,032
-676,422	-129,496	-0,050	0,005
-675,408	193,730	-0,053	0,058
-674,393	-200,000	0,023	-0,163
-673,378	-133,861	0,030	-0,003
-672,364	-200,000	-0,011	-0,102
-671,349	678,551	-0,081	-0,154
-670,335	800,000	0,009	-0,021
-669,320	-28,791	0,095	0,039
-668,305	287,975	0,067	-0,088
-667,291	412,994	-0,039	-0,060
-666,276	108,461	-0,083	-0,072
-665,262	-49,476	-0,074	0,026
-664,247	304,815	-0,063	0,085
-663,232	386,804	0,026	-0,040
-662,218	478,368	-0,065	-0,108
-661,203	6,195	0,106	0,057
-660,189	-102,665	0,117	-0,020
-659,174	556,274	-0,010	-0,017
-658,159	800,000	-0,079	-0,160
-657,145	800,000	-0,042	-0,093
-656,130	186,612	-0,111	-0,120
-655,116	194,743	0,031	0,034
-654,101	-118,953	0,028	-0,003
-653,086	230,568	-0,058	0,069
-652,072	248,687	-0,089	-0,110
-651,057	124,638	-0,049	0,045
-650,043	204,603	-0,103	-0,116
-649,028	-200,000	-0,013	0,069
-648,014	-200,000	0,004	0,046
-646,999	259,689	-0,023	0,028
-645,984	25,220	0,137	-0,082
-644,970	328,227	-0,054	0,075
-643,955	159,867	-0,037	0,037
-642,941	138,261	-0,109	-0,104
-641,926	87,368	-0,018	-0,015
-640,911	-200,000	-0,004	0,025
-639,897	-28,950	0,097	-0,040
-638,882	800,000	0,026	-0,080
-637,868	499,322	0,006	-0,010
-636,853	36,067	-0,143	-0,091
-635,838	-25,327	0,124	-0,053
-634,824	-152,097	-0,155	-0,008
-633,809	800,000	0,025	0,056
-632,795	800,000	-0,029	0,064
-631,780	-70,502	0,104	0,028
-630,765	-200,000	-0,015	-0,100
-629,751	510,495	-0,087	-0,148
-628,736	602,888	0,030	-0,055
-627,722	-200,000	0,006	0,030
-626,707	47,253	-0,052	-0,035
-625,692	800,000	0,008	-0,024
-624,678	800,000	-0,040	-0,087
-623,663	248,430	-0,024	0,029
-622,649	-200,000	0,000	-0,002
-621,634	-135,220	-0,066	-0,006
-620,619	-200,000	-0,004	-0,034
-619,605	800,000	0,049	-0,126
-618,590	459,317	0,055	0,088
-617,576	-62,147	0,105	-0,032
-616,561	-40,538	0,112	0,042
-615,546	-48,009	0,087	-0,030
-614,532	800,000	0,055	-0,116
-613,517	382,748	-0,092	-0,138
-612,503	-16,755	0,056	-0,025
-611,488	119,112	0,066	0,059
-610,474	3,988	0,035	-0,018
-609,459	-98,963	-0,058	-0,011
-608,444	799,552	0,071	-0,143
-607,430	-92,704	-0,174	-0,035
-606,415	-200,000	-0,026	-0,110
-605,401	-200,000	0,021	-0,129
-604,386	800,000	0,012	0,024
-603,371	-138,574	-0,071	0,006
-602,357	94,109	0,102	0,084
-601,342	800,000	0,009	-0,023
-600,328	-10,683	-0,129	-0,061
-599,313	800,000	0,051	-0,112
-598,298	-200,000	0,012	0,077
-597,284	-200,000	-0,017	0,136
-596,269	-200,000	-0,012	0,069
-595,255	-17,676	0,209	0,095
-594,240	800,000	0,035	0,109
-593,225	-22,747	-0,117	-0,051
-592,211	-3,151	-0,035	-0,018
-591,196	621,015	0,017	0,032
-590,182	800,000	0,071	0,144
-589,167	-155,674	0,199	-0,009
-588,152	-142,805	0,015	-0,001
-587,138	17,121	-0,106	-0,061
-586,123	-20,350	-0,110	0,049
-585,109	-94,322	-0,020	-0,004
-584,094	-200,000	-0,020	-0,124
-583,079	568,330	-0,027	-0,048
-582,065	-200,000	0,003	-0,068
-581,050	172,993	0,064	-0,067
-580,036	-109,848	-0,118	0,018
-579,021	-131,661	-0,161	-0,015
-578,006	317,722	0,047	-0,064
-576,992	-200,000	0,034	0,208
-575,977	323,057	0,106	-0,147
-574,963	48,592	-0,117	0,079
-573,948	-6,839	0,043	-0,021
-572,934	800,000	-0,031	0,079
-571,919	800,000	0,027	0,056
-570,904	-147,278	-0,138	-0,008
-569,890	462,195	-0,046	0,075
-568,875	-132,459	-0,064	0,006
-567,861	-200,000	0,001	0,060
-566,846	-3,878	-0,144	-0,072
-565,831	-171,778	0,090	0,002
-564,817	-41,341	-0,174	0,064
-563,802	-55,178	-0,073	-0,024
-562,788	-200,000	-0,013	0,099
-561,773	800,000	0,016	0,043
-560,758	604,488	0,048	0,087
-559,744	361,866	-0,006	0,009
-558,729	29,554	-0,117	0,072
-557,715	-86,646	-0,043	0,009
-556,700	-200,000	0,014	-0,075
-555,685	-162,050	0,035	0,001
-554,671	212,726	0,046	0,052
-553,656	33,276	-0,033	-0,021
-552,642	12,757	0,100	0,056
-551,627	30,016	-0,125	0,077
-550,612	110,630	0,093	0,081
-549,598	-200,000	0,019	-0,142
-548,583	800,000	-0,015	-0,045
-547,569	800,000	0,019	0,046
-546,554	433,147	0,065	0,102
-545,539	518,947	0,052	0,088
-544,525	-200,000	-0,027	0,225
-543,510	-75,315	-0,099	0,025
-542,496	481,714	-0,041	-0,068
-541,481	145,815	-0,026	-0,025
-540,466	800,000	0,028	-0,080
-539,452	13,949	0,080	0,045
-538,437	-200,000	0,029	0,173
-537,423	-200,000	0,008	-0,164
-536,408	5,979	-0,048	-0,026
-535,393	38,981	-0,042	0,027
-534,379	800,000	-0,071	-0,191
-533,364	75,602	0,058	-0,044
-532,350	243,737	0,111	0,135
-531,335	513,866	-0,076	0,129
-530,321	-200,000	0,013	0,099
-529,306	16,935	0,085	-0,049
-528,291	-200,000	0,031	-0,177
-527,277	-53,295	-0,214	-0,071
-526,262	-200,000	0,014	-0,124
-525,248	155,398	-0,094	0,094
-524,233	-200,000	-0,006	0,025
-523,218	165,628	0,071	0,073
-522,204	30,358	0,055	0,034
-521,189	97,755	-0,076	0,063
-520,175	-13,485	0,057	0,027
-519,160	312,217	-0,061	0,083
-518,145	444,957	0,051	-0,081
-517,131	800,000	-0,009	-0,020
-516,116	184,028	-0,135	0,144
-515,102	115,287	0,006	-0,005
-514,087	155,912	-0,040	-0,040
-513,072	-200,000	-0,008	-0,100
-512,058	223,704	0,031	-0,036
-511,043	517,964	-0,023	0,038
-510,029	-50,139	0,174	0,059
-509,014	-200,000	0,001	0,050
-507,999	-200,000	-0,039	0,251
-506,985	-30,959	0,070	0,028
-505,970	-200,000	0,001	-0,153
-504,956	-74,941	-0,055	0,014
-503,941	-98,602	-0,059	-0,011
-502,926	-58,217	0,077	-0,024
-501,912	122,217	0,133	0,120
-500,897	-200,000	0,003	0,027
-499,883	-200,000	-0,020	-0,080
-498,868	800,000	-0,026	0,055
-497,853	245,031	-0,105	-0,128
-496,839	208,367	-0,150	-0,169
-495,824	76,918	0,026	0,020
-494,810	224,997	0,042	-0,049
-493,795	653,803	0,061	0,113
-492,781	-68,257	-0,102	0,028
-491,766	-200,000	-0,012	-0,043
-490,751	-200,000	-0,000	-0,056
-489,737	-200,000	0,023	0,159
-488,722	13,028	0,139	0,077
-487,708	-43,303	0,101	0,037
-486,693	-131,028	-0,164	0,016
-485,678	23,311	-0,028	0,017
-484,664	-91,870	-0,024	0,005
-483,649	212,603	-0,104	-0,118
-482,635	800,000	0,041	-0,127
-481,620	-89,872	-0,017	0,004
-480,605	-51,977	0,122	0,041
-479,591	-200,000	0,009	0,167
-478,576	-98,552	0,156	0,028
-477,562	107,896	-0,087	-0,075
-476,547	658,015	0,045	-0,083
-475,532	195,301	0,026	0,029
-474,518	-200,000	-0,005	0,027
-473,503	-133,811	-0,034	0,003
-472,489	-200,000	-0,015	0,072
-471,474	-40,764	-0,064	0,024
-470,459	800,000	0,008	-0,023
-469,445	446,762	-0,048	-0,077
-468,430	-122,721	-0,111	0,013
-467,416	364,963	0,024	0,035
-466,401	-57,972	0,219	0,068
-465,386	54,114	-0,132	0,091
-464,372	-200,000	-0,017	0,199
-463,357	800,000	0,012	0,026
-462,343	800,000	-0,048	-0,112
-461,328	-38,163	-0,065	0,025
-460,313	372,922	0,088	0,129
-459,299	-200,000	0,001	0,023
-458,284	38,399	-0,103	0,066
-457,270	15,628	0,114	-0,064
-456,255	94,167	-0,095	-0,078
-455,241	800,000	-0,028	-0,069
-454,226	30,057	-0,075	-0,046
-453,211	-108,680	-0,112	0,017
-452,197	-200,000	-0,010	-0,038
-451,182	-121,943	-0,113	-0,013
-450,168	511,470	0,070	-0,117
-449,153	800,000	0,078	-0,167
-448,138	18,120	-0,081	-0,046
-447,124	-62,612	-0,058	0,017
-446,109	176,876	0,035	0,036
-445,095	-0,005	0,045	-0,023
-444,080	-200,000	0,003	0,081
-443,065	-200,000	-0,006	0,099
-442,051	-193,142	0,042	0,000
-441,036	-200,000	-0,003	-0,045
-440,022	467,247	-0,085	-0,137
-439,007	-200,000	-0,021	0,111
-437,992	-200,000	-0,006	0,139
-436,978	238,888	-0,051	0,061
-435,963	800,000	0,048	0,142
-434,949	205,857	-0,015	-0,016
-433,934	-200,000	0,002	-0,049
-432,919	-200,000	0,002	-0,107
-431,905	80,634	0,089	0,069
-430,890	-72,798	0,189	-0,050
-429,876	73,369	-0,002	-0,002
-428,861	-92,716	-0,053	-0,011
-427,846	129,736	0,099	0,091
-426,832	575,147	-0,059	0,104
-425,817	-147,562	0,044	-0,003
-424,803	83,375	0,059	-0,046
-423,788	-170,738	0,158	0,004
-422,773	199,973	-0,041	0,045
-421,759	-42,863	0,098	0,036
-420,744	358,026	-0,026	-0,038
-419,730	-200,000	0,005	0,019
-418,715	160,653	0,107	0,108
-417,701	-74,131	-0,138	-0,036
-416,686	-64,384	-0,069	0,020
-415,671	-42,507	-0,049	0,018
-414,657	77,127	0,075	-0,057
-413,642	102,788	0,035	0,030
-412,628	143,602	0,072	-0,069
-411,613	75,625	0,169	-0,128
-410,598	122,834	-0,017	-0,015
-409,584	-127,398	-0,071	-0,007
-408,569	-116,924	-0,020	0,003
-407,555	-153,436	0,173	-0,008
-406,540	-112,636	0,092	0,013
-405,525	800,000	-0,058	0,145
-404,511	59,245	0,015	0,011
-403,496	137,235	-0,046	-0,043
-402,482	797,795	0,013	-0,025
-401,467	-39,157	-0,104	0,039
-400,452	800,000	-0,031	0,063
-399,438	-200,000	0,018	0,171
-398,423	32,455	-0,106	-0,066
-397,409	-37,526	-0,154	0,059
-396,394	31,040	-0,126	0,078
-395,379	153,648	-0,026	0,026
-394,365	38,492	0,105	0,067
-393,350	800,000	0,013	0,035
-392,336	483,511	-0,048	0,079
-391,321	12,195	0,112	0,062
-390,306	-200,000	-0,019	-0,133
-389,292	72,010	-0,065	-0,048
-388,277	-138,682	0,029	0,002
-387,263	-200,000	-0,000	0,100
-386,248	73,865	0,062	0,047
-385,233	516,234	0,046	0,078
-384,219	474,617	0,126	0,205
-383,204	-200,000	-0,044	-0,148
-382,190	156,261	0,056	0,055
-381,175	-117,231	0,069	-0,009
-380,160	-200,000	0,019	0,199
-379,146	-19,691	-0,110	0,049
-378,131	652,541	-0,034	-0,063
-377,117	207,693	0,023	0,026
-376,102	-200,000	-0,015	-0,065
-375,088	800,000	0,013	-0,034
-374,073	313,248	0,040	-0,055
-373,058	-107,216	0,165	-0,026
-372,044	103,749	-0,036	0,031
-371,029	-25,422	0,076	-0,032
-370,015	800,000	0,024	-0,076
-369,000	800,000	-0,055	-0,135
-367,985	18,610	-0,066	0,038
-366,971	19,160	-0,041	-0,023
-365,956	-200,000	0,053	-0,177
-364,942	-82,606	0,062	0,014
-363,927	-45,116	-0,041	-0,015
-362,912	-200,000	-0,030	0,095
-361,898	-200,000	-0,026	0,094
-360,883	12,914	0,099	0,055
-359,869	-200,000	0,005	0,016
-358,854	-61,284	0,037	-0,011
-357,839	800,000	0,007	-0,019
-356,825	118,034	0,060	0,053
-355,810	-200,000	0,015	-0,159
-354,796	-200,000	-0,008	-0,060
-353,781	191,342	-0,044	-0,048
-352,766	800,000	0,051	-0,151
-351,752	358,217	0,010	-0,015
-350,737	-31,457	0,104	-0,042
-349,723	290,727	0,084	0,109
-348,708	-171,987	-0,154	-0,004
-347,693	-200,000	0,040	-0,155
-346,679	239,138	-0,053	-0,063
-345,664	800,000	0,019	-0,059
-344,650	-200,000	0,017	0,058
-343,635	110,632	0,047	0,041
-342,620	250,777	-0,125	0,152
-341,606	133,492	0,060	0,056
-340,591	-3,731	-0,164	0,081
-339,577	-1,266	-0,087	-0,044
-338,562	-128,835	0,121	0,012
-337,548	37,134	0,048	-0,031
-336,533	800,000	-0,021	0,046
-335,518	-55,251	0,122	-0,039
-334,504	21,385	0,032	-0,019
-333,489	-200,000	-0,005	0,113
-332,475	143,643	-0,175	-0,167
-331,460	-200,000	-0,020	-0,112
-330,445	178,636	0,031	-0,032
-329,431	107,426	-0,024	-0,020
-328,416	177,061	0,095	-0,099
-327,402	-200,000	0,004	-0,016
-326,387	-200,000	0,021	-0,071
-325,372	89,270	0,019	0,015
-324,358	49,056	-0,022	0,015
-323,343	800,000	0,039	-0,090
-322,329	-184,332	0,034	-0,000
-321,314	-200,000	-0,003	0,048
-320,299	65,112	0,097	-0,070
-319,285	54,225	-0,127	-0,088
-318,270	730,128	0,052	-0,101
-317,256	75,425	-0,059	0,045
-316,241	154,419	-0,057	-0,056
-315,226	800,000	-0,026	-0,056
-314,212	70,854	0,066	0,049
-313,197	72,324	0,050	0,037
-312,183	42,297	-0,065	0,042
-311,168	37,457	0,060	0,038
-310,153	40,590	-0,147	-0,095
-309,139	-67,462	0,065	-0,018
-308,124	41,386	-0,105	-0,068
-307,110	13,087	0,120	0,067
-306,095	-44,950	-0,132	0,047
-305,080	-200,000	-0,001	-0,091
-304,066	-109,388	-0,080	-0,012
-303,051	-200,000	0,014	-0,046
-302,037	-134,919	-0,135	-0,012
-301,022	375,619	0,090	0,132
-300,008	317,038	0,016	0,022
-298,993	-89,149	0,119	-0,025
-297,978	-200,000	0,006	0,101
-296,964	782,769	-0,027	-0,052
-295,949	-4,538	0,065	-0,032
-294,935	765,457	-0,032	-0,062
-293,920	-2,929	-0,055	-0,027
-292,905	800,000	-0,016	0,046
-291,891	-80,272	0,106	0,025
-290,876	-200,000	0,024	0,163
-289,862	-200,000	0,004	0,017
-288,847	-194,086	-0,155	-0,001
-287,832	-200,000	-0,038	-0,140
-286,818	-116,791	0,031	0,004
-285,803	-200,000	-0,015	-0,074
-284,789	414,159	0,043	0,066
-283,774	-155,295	-0,065	0,003
-282,759	-200,000	-0,001	-0,045
-281,745	-200,000	0,000	-0,107
-280,730	-200,000	-0,010	-0,151
-279,716	-200,000	0,011	0,036
-278,701	800,000	0,005	-0,011
-277,686	800,000	0,024	0,057
-276,672	377,405	0,027	0,039
-275,657	-109,248	0,108	-0,016
-274,643	800,000	0,023	-0,057
-273,628	456,435	-0,043	-0,069
-272,613	-200,000	0,022	-0,176
-271,599	-131,086	-0,081	0,008
-270,584	-200,000	0,016	0,080
-269,570	-172,908	-0,162	-0,004
-268,555	800,000	0,073	0,153
-267,540	257,258	-0,039	-0,049
-266,526	71,615	-0,112	-0,083
-265,511	-83,780	-0,062	-0,014
-264,497	267,341	0,068	-0,085
-263,482	-200,000	-0,031	-0,123
-262,467	798,730	0,088	0,174
-261,453	89,339	-0,114	0,091
-260,438	-113,190	0,042	0,006
-259,424	278,487	0,045	-0,058
-258,409	800,000	-0,033	-0,095
-257,395	-200,000	0,003	-0,053
-256,380	222,839	0,070	0,081
-255,365	174,136	0,047	0,048
-254,351	-81,131	-0,038	0,009
-253,336	-200,000	-0,004	0,142
-252,322	-124,689	-0,046	0,005
-251,307	800,000	-0,044	0,089
-250,292	-55,218	0,143	0,046
-249,278	800,000	0,016	0,033
-248,263	-200,000	-0,036	0,119
-247,249	-200,000	-0,002	0,050
-246,234	-9,082	0,040	0,019
-245,219	-200,000	-0,005	-0,125
-244,205	-200,000	0,011	-0,062
-243,190	-69,257	0,039	-0,011
-242,176	-113,847	0,041	0,006
-241,161	-43,482	0,125	0,045
-240,146	117,295	-0,036	-0,032
-239,132	-200,000	0,021	0,156
-238,117	130,649	-0,091	-0,083
-237,103	-200,000	0,039	-0,204
-236,088	-18,980	0,164	-0,073
-235,073	140,392	0,071	0,067
-234,059	-200,000	-0,023	0,140
-233,044	275,288	0,049	0,062
-232,030	264,022	-0,075	0,093
-231,015	85,783	-0,052	-0,041
-230,000	-13,845	-0,088	0,040
-228,986	-10,836	0,097	0,046
-227,971	147,814	0,081	-0,078
-226,957	800,000	-0,035	-0,086
-225,942	21,107	0,104	0,060
-224,927	-155,918	0,037	0,002
-223,913	-200,000	-0,023	0,099
-222,898	154,215	-0,083	-0,081
-221,884	-200,000	0,006	-0,161
-220,869	-109,155	0,072	0,011
-219,855	-134,882	-0,113	0,010
-218,840	-139,933	0,081	0,006
-217,825	800,000	-0,038	0,101
-216,811	-44,851	0,084	-0,030
-215,796	-79,141	-0,103	-0,025
-214,782	45,027	0,060	0,039
-213,767	460,533	0,080	-0,128
-212,752	-43,730	0,127	0,045
-211,738	-13,956	-0,053	0,024
-210,723	17,966	0,095	-0,054
-209,709	-2,209	-0,016	0,008
-208,694	323,379	-0,034	-0,046
-207,679	127,668	0,101	0,091
-206,665	-29,376	-0,096	0,039
-205,650	128,546	0,057	-0,052
-204,636	703,460	0,067	0,127
-203,621	-200,000	-0,019	-0,071
-202,606	800,000	0,038	-0,093
-201,592	-103,232	0,033	-0,006
-200,577	343,192	-0,102	0,143
-199,563	-200,000	0,026	0,109
-198,548	60,158	0,039	0,027
-197,533	97,552	0,081	-0,066
-196,519	341,405	0,071	0,100
-195,504	26,674	-0,132	-0,079
-194,490	197,982	0,042	0,046
-193,475	-85,846	-0,119	0,026
-192,460	106,635	-0,011	-0,009
-191,446	-200,000	0,014	-0,141
-190,431	-200,000	0,007	0,044
-189,417	-5,575	-0,068	0,033
-188,402	800,000	-0,041	-0,109
-187,387	-200,000	-0,014	-0,072
-186,373	192,684	-0,027	-0,029
-185,358	-200,000	-0,017	-0,140
-184,344	-50,615	0,223	0,075
-183,329	84,990	-0,076	0,060
-182,315	667,314	0,039	0,073
-181,300	-126,231	-0,187	-0,020
-180,285	350,816	0,051	0,071
-179,271	-43,275	0,080	0,029
-178,256	800,000	-0,020	-0,056
-177,242	800,000	0,055	0,132
-176,227	-136,267	-0,033	0,003
-175,212	800,000	0,032	-0,074
-174,198	295,032	-0,105	-0,137
-173,183	33,167	-0,102	-0,063
-172,169	67,786	0,073	0,053
-171,154	708,522	-0,052	-0,098
-170,139	134,298	0,016	-0,015
-169,125	-70,177	-0,085	-0,023
-168,110	343,268	-0,003	0,004
-167,096	252,806	-0,116	0,142
-166,081	707,480	-0,017	0,033
-165,066	104,745	-0,061	-0,051
-164,052	329,777	0,039	-0,054
-163,037	-92,091	-0,080	-0,016
-162,023	800,000	0,050	0,134
-161,008	82,941	0,047	0,037
-159,993	119,494	-0,059	-0,052
-158,979	-139,031	-0,072	0,005
-157,964	800,000	-0,044	-0,127
-156,950	567,781	0,061	-0,107
-155,935	380,395	-0,035	-0,051
-154,920	227,392	0,031	-0,035
-153,906	-55,943	0,056	0,018
-152,891	-147,943	0,038	0,002
-151,877	-4,029	-0,111	0,055
-150,862	-152,986	-0,116	0,006
-149,847	-200,000	-0,020	-0,099
-148,833	-200,000	0,003	-0,025
-147,818	-200,000	0,014	-0,079
-146,804	-56,631	-0,124	-0,039
-145,789	-78,075	0,161	0,039
-144,775	-200,000	-0,007	0,071
-143,760	724,226	0,028	0,053
-142,745	58,120	-0,056	-0,039
-141,731	25,635	0,061	-0,036
-140,716	-200,000	-0,003	0,012
-139,702	175,464	0,079	-0,082
-138,687	498,188	0,031	0,051
-137,672	491,977	0,034	-0,055
-136,658	800,000	-0,028	-0,079
-135,643	86,904	-0,033	-0,026
-134,629	-38,980	0,155	-0,058
-133,614	-78,070	0,076	-0,018
-132,599	-194,196	-0,081	-0,000
-131,585	-200,000	0,005	0,107
-130,570	548,703	-0,046	0,079
-129,556	93,541	-0,055	0,044
-128,541	539,381	-0,065	-0,111
-127,526	-200,000	0,005	0,103
-126,512	-49,788	-0,133	0,045
-125,497	-157,160	0,017	-0,001
-124,483	-200,000	0,023	0,081
-123,468	800,000	-0,040	-0,091
-122,453	-131,796	-0,081	-0,007
-121,439	-200,000	-0,010	-0,221
-120,424	296,567	-0,060	-0,079
-119,410	-56,099	0,146	0,046
-118,395	1,311	-0,034	0,017
-117,380	246,667	0,079	-0,095
-116,366	-78,872	0,120	-0,029
-115,351	305,193	0,056	-0,074
-114,337	3,027	-0,068	0,035
-113,322	-200,000	-0,011	-0,149
-112,307	-200,000	0,002	-0,092
-111,293	-27,223	0,086	0,035
-110,278	575,642	-0,055	0,096
-109,264	59,713	-0,032	-0,022
-108,249	-73,363	-0,135	-0,035
-107,234	83,690	0,049	0,038
-106,220	681,344	-0,048	0,088
-105,205	37,519	0,040	0,025
-104,191	-176,941	-0,113	-0,002
-103,176	-200,000	-0,009	0,200
-102,162	-200,000	0,009	0,060
-101,147	232,818	-0,037	-0,043
-100,132	800,000	0,052	-0,126
-99,118	-200,000	0,000	-0,174
-98,103	-67,100	0,101	0,028
-97,089	-40,266	-0,043	0,016
-96,074	214,482	0,046	0,052
-95,059	5,597	0,141	0,073
-94,045	-113,021	0,098	0,014
-93,030	-52,725	-0,069	0,022
-92,016	689,819	0,028	0,052
-91,001	-200,000	0,020	0,144
-89,986	732,408	0,052	-0,099
-88,972	800,000	-0,012	-0,028
-87,957	-32,254	0,135	0,053
-86,943	800,000	-0,036	-0,093
-85,928	-72,366	-0,102	-0,027
-84,913	727,626	0,024	0,046
-83,899	800,000	0,046	0,129
-82,884	800,000	0,061	0,152
-81,870	-52,294	-0,076	0,025
-80,855	644,024	0,061	0,111
-79,840	345,651	0,113	-0,158
-78,826	-100,232	0,048	0,008
-77,811	589,201	0,043	-0,076
-76,797	-42,988	-0,117	-0,042
-75,782	88,922	0,055	-0,043
-74,767	800,000	0,080	0,160
-73,753	-129,117	-0,074	-0,007
-72,738	41,806	-0,041	0,026
-71,724	369,942	-0,012	0,017
-70,709	-200,000	0,033	-0,112
-69,694	-112,290	-0,141	-0,020
-68,680	-42,454	-0,112	-0,040
-67,665	322,011	-0,027	-0,037
-66,651	522,178	0,073	0,121
-65,636	94,318	-0,077	-0,062
-64,622	-200,000	0,003	-0,047
-63,607	102,288	-0,089	-0,073
-62,592	174,509	0,127	0,131
-61,578	-200,000	-0,025	-0,095
-60,563	-200,000	-0,007	0,043
-59,549	-95,707	-0,048	0,009
-58,534	-46,144	-1,501	-0,521
-57,519	376,473	-1,519	-2,205
-56,505	-200,000	-0,339	-4,553
-55,490	183,399	0,889	0,933
-54,476	800,000	4,956	11,340
-53,461	-200,000	18,455	297,823
-52,446	800,000	732,783	2263,082
-51,432	560,336	1649,313	2836,104
-50,417	78,716	1667,873	1263,398
-49,403	22,369	1540,731	890,444
-48,388	16,336	1463,625	816,593
-47,373	17,805	1453,745	818,138
-46,359	17,052	1443,928	808,974
-45,344	14,630	1439,118	794,660
-44,330	14,539	1437,171	793,116
-43,315	14,541	1435,618	792,238
-42,300	14,522	1434,093	791,271
-41,286	14,573	1432,854	790,802
-40,271	14,519	1431,554	789,796
-39,257	14,554	1430,189	789,178
-38,242	14,585	1428,793	788,524
-37,227	14,540	1427,667	787,657
-36,213	14,579	1426,313	787,065
-35,198	14,575	1425,194	786,396
-34,184	14,608	1424,139	785,939
-33,169	14,502	1423,036	784,795
-32,154	14,534	1422,105	784,406
-31,140	14,585	1420,590	783,779
-30,125	14,612	1419,458	783,252
-29,111	14,596	1418,285	782,494
-28,096	14,507	1417,404	781,560
-27,082	14,490	1416,319	780,849
-26,067	14,441	1415,352	780,054
-25,052	14,447	1414,252	779,445
-24,038	14,473	1413,249	778,986
-23,023	14,433	1412,338	778,266
-22,009	14,428	1411,265	777,616
-20,994	14,440	1410,184	777,046
-19,979	14,442	1409,362	776,571
-18,965	14,422	1408,221	775,820
-17,950	14,367	1407,611	775,195
-16,936	14,404	1406,512	774,734
-15,921	14,369	1405,445	773,950
-14,906	14,403	1404,627	773,629
-13,892	14,382	1403,650	772,961
-12,877	14,367	1402,553	772,256
-11,863	14,369	1401,675	771,751
-10,848	14,377	1400,924	771,347
-9,833	14,300	1400,216	770,567
-8,819	14,268	1399,311	769,890
-7,804	14,262	1398,357	769,306
-6,790	14,314	1397,024	768,785
-5,775	14,246	1396,198	767,982
-4,760	14,309	1395,103	767,640
-3,746	14,304	1394,395	767,200
-2,731	14,271	1393,499	766,521
-1,717	14,259	1392,600	765,942
-0,702	14,320	1390,654	765,123
0,313	18,038	1309,349	737,657
1,327	34,436	705,828	435,661
2,342	53,117	124,153	84,086
3,356	3,633	16,605	8,554
4,371	2,352	3,175	1,622
5,386	-10,577	0,569	0,266
6,400	-200,000	0,045	0,142
7,415	329,696	-0,144	-0,196
8,429	-26,794	-0,350	-0,144
9,444	42,196	-0,310	-0,199
10,459	60,303	-0,335	-0,235
11,473	206,204	-0,236	-0,260
12,488	110,171	-0,201	-0,171
13,502	-28,772	-0,332	-0,135
14,517	150,311	-0,341	-0,328
15,531	55,967	-0,371	-0,254
16,546	129,565	-0,327	-0,296
17,561	178,452	-0,299	-0,309
18,575	608,527	-0,125	-0,221
19,590	-47,853	-0,358	-0,122
20,604	20,574	-0,191	-0,109
21,619	85,065	-0,433	-0,335
22,634	182,782	-0,489	-0,511
23,648	19,998	-0,428	-0,243
24,663	115,765	-0,395	-0,342
25,677	161,916	-0,393	-0,389
26,692	132,308	-0,234	-0,213
27,707	-47,930	-0,449	-0,153
28,721	177,624	-0,345	-0,356
29,736	329,794	-0,289	-0,394
30,750	120,563	-0,361	-0,317
31,765	65,105	-0,342	-0,244
32,780	64,852	-0,283	-0,201
33,794	-0,493	-0,295	-0,148
34,809	-11,638	-0,337	-0,156
35,823	3,376	-0,437	-0,224
36,838	25,940	-0,356	-0,209
37,853	-18,935	-0,524	-0,229
38,867	189,287	-0,353	-0,374
39,882	185,386	-0,359	-0,377
40,896	54,924	-0,376	-0,256
41,911	44,390	-0,368	-0,238
42,926	49,843	-0,369	-0,245
43,940	40,469	-0,387	-0,245
44,955	308,261	-0,280	-0,370
45,969	55,067	-0,442	-0,301
46,984	263,511	-0,135	-0,166
47,999	84,915	-0,340	-0,263
49,013	25,868	-0,304	-0,178
50,028	-6,594	-0,421	-0,201
51,042	142,104	-0,289	-0,270
52,057	41,306	-0,347	-0,221
53,071	60,698	-0,394	-0,275
54,086	57,957	-0,296	-0,204
55,101	252,799	-0,245	-0,295
56,115	-48,420	-0,305	-0,103
57,130	169,659	-0,300	-0,303
58,144	62,508	-0,345	-0,242
59,159	66,400	-0,405	-0,290
60,174	18,544	-0,410	-0,231
61,188	52,335	-0,264	-0,177
62,203	4,129	-0,272	-0,140
63,217	-21,503	-0,321	-0,137
64,232	8,095	-0,451	-0,238
65,247	-23,075	-0,244	-0,103
66,261	39,373	-0,447	-0,281
67,276	138,912	-0,360	-0,333
68,290	70,794	-0,324	-0,236
69,305	130,359	-0,319	-0,288
70,320	42,314	-0,202	-0,129
71,334	-178,931	-0,275	-0,004
72,349	-9,517	-0,403	-0,189
73,363	85,363	-0,339	-0,262
74,378	101,591	-0,275	-0,226
75,393	25,981	-0,315	-0,184
76,407	16,292	-0,330	-0,183
77,422	-2,257	-0,353	-0,174
78,436	-135,594	-0,291	-0,024
79,451	-33,991	-0,452	-0,174
80,466	-25,763	-0,292	-0,121
81,480	3,927	-0,356	-0,182
82,495	47,464	-0,290	-0,190
83,509	133,034	-0,361	-0,328
84,524	95,881	-0,279	-0,224
85,539	114,989	-0,314	-0,270
86,553	5,082	-0,248	-0,128
87,568	74,937	-0,301	-0,223
88,582	-4,757	-0,295	-0,143
89,597	82,786	-0,236	-0,181
90,611	-73,478	-0,386	-0,098
91,626	-14,010	-0,277	-0,125
92,641	9,630	-0,377	-0,200
93,655	-62,710	-0,367	-0,106
94,670	-199,652	-0,272	0,001
95,684	-29,864	-0,320	-0,128
96,699	533,552	-0,202	-0,338
97,714	-65,099	-0,311	-0,087
98,728	-81,539	-0,508	-0,116
99,743	372,800	-0,194	-0,278
100,757	252,332	-0,212	-0,254
101,772	194,037	-0,199	-0,212
102,787	-30,983	-0,338	-0,134
103,801	163,740	-0,218	-0,215
104,816	113,816	-0,326	-0,278
105,830	171,504	-0,203	-0,205
106,845	800,000	-0,105	-0,209
107,860	256,365	-0,189	-0,228
108,874	34,550	-0,335	-0,205
109,889	76,587	-0,352	-0,261
110,903	25,041	-0,373	-0,217
111,918	119,278	-0,341	-0,296
112,933	145,153	-0,261	-0,245
113,947	56,901	-0,319	-0,218
114,962	118,799	-0,171	-0,148
115,976	248,465	-0,106	-0,127
116,991	-2,358	-0,329	-0,161
118,006	366,911	-0,202	-0,287
119,020	70,105	-0,130	-0,094
120,035	89,747	-0,226	-0,177
121,049	13,156	-0,160	-0,087
122,064	143,053	-0,047	-0,044
123,079	-2,400	-0,285	-0,140
124,093	16,015	-0,290	-0,160
125,108	181,217	-0,276	-0,285
126,122	458,494	-0,176	-0,275
127,137	80,952	-0,151	-0,114
128,151	-66,586	-0,221	-0,061
129,166	-107,904	-0,297	-0,045
130,181	28,690	-0,318	-0,188
131,195	22,803	-0,280	-0,161
132,210	511,663	-0,214	-0,350
133,224	115,885	-0,299	-0,257
134,239	200,990	-0,249	-0,269
135,254	-12,291	-0,211	-0,096
136,268	37,485	-0,285	-0,177
137,283	-114,534	-0,362	-0,048
138,297	11,749	-0,365	-0,195
139,312	6,569	-0,240	-0,124
140,327	-31,922	-0,173	-0,068
141,341	-56,270	-0,205	-0,064
142,356	217,701	-0,189	-0,211
143,370	268,268	-0,198	-0,243
144,385	272,932	-0,166	-0,205
145,400	11,138	-0,265	-0,141
146,414	82,880	-0,322	-0,245
147,429	54,953	-0,273	-0,184
148,443	121,410	-0,223	-0,194
149,458	-2,236	-0,208	-0,102
150,473	-0,391	-0,283	-0,140
151,487	-1,834	-0,267	-0,131
152,502	-10,542	-0,413	-0,190
153,516	75,366	-0,299	-0,220
154,531	230,639	-0,187	-0,215
155,546	131,268	-0,286	-0,257
156,560	13,522	-0,188	-0,101
157,575	-78,022	-0,109	-0,026
158,589	-117,653	-0,129	-0,016
159,604	-35,863	-0,268	-0,101
160,619	342,681	-0,165	-0,227
161,633	34,336	-0,189	-0,115
162,648	221,039	-0,156	-0,176
163,662	-63,812	-0,343	-0,097
164,677	277,712	-0,127	-0,159
165,692	29,941	-0,200	-0,119
166,706	153,849	-0,278	-0,266
167,721	61,141	-0,270	-0,187
168,735	198,862	-0,169	-0,181
169,750	283,468	-0,195	-0,246
170,764	-19,864	-0,287	-0,123
171,779	66,200	-0,179	-0,127
172,794	61,602	-0,165	-0,114
173,808	-115,709	-0,402	0,052
174,823	529,771	-0,177	-0,294
175,837	208,954	-0,124	-0,135
176,852	85,138	-0,211	-0,161
177,867	-124,244	-0,219	-0,024
178,881	119,341	-0,192	-0,166
179,896	218,244	-0,247	-0,275
180,910	-17,819	-0,339	-0,148
181,925	179,043	-0,126	-0,129
182,940	45,792	-0,283	-0,182
183,954	137,579	-0,226	-0,207
184,969	102,056	-0,241	-0,196
185,983	60,993	-0,207	-0,143
186,998	180,126	-0,220	-0,225
188,013	199,857	-0,189	-0,203
189,027	121,173	-0,108	-0,094
190,042	375,261	-0,171	-0,244
191,056	66,801	-0,315	-0,223
192,071	68,668	-0,241	-0,172
193,086	-92,636	-0,265	-0,051
194,100	-151,885	-0,229	-0,011
195,115	-95,191	-0,275	-0,051
196,129	443,550	-0,131	-0,201
197,144	206,537	-0,204	-0,221
198,159	-19,759	-0,142	-0,061
199,173	43,199	-0,137	-0,087
200,188	38,536	-0,072	0,045
201,202	101,639	-0,080	-0,065
202,217	704,913	-0,146	-0,269
203,232	11,747	-0,260	-0,139
204,246	800,000	-0,076	-0,191
205,261	388,983	-0,103	-0,149
206,275	275,775	-0,178	-0,220
207,290	547,538	-0,178	-0,297
208,304	-110,203	-0,276	0,040
209,319	-77,661	-0,210	-0,050
210,334	-82,456	-0,157	-0,035
211,348	145,175	-0,245	-0,228
212,363	-79,088	-0,189	-0,044
213,377	225,320	-0,161	-0,182
214,392	61,032	-0,082	-0,056
215,407	72,102	-0,126	-0,091
216,421	92,797	-0,056	-0,044
217,436	-200,000	-0,064	-0,296
218,450	240,864	-0,273	-0,317
219,465	115,385	-0,200	-0,170
220,480	62,681	-0,063	0,044
221,494	37,781	-0,155	-0,096
222,509	-145,114	-0,192	0,012
223,523	331,660	-0,099	-0,134
224,538	282,876	-0,106	-0,132
225,553	-79,400	-0,244	-0,057
226,567	-25,017	-0,156	-0,064
227,582	48,342	-0,101	-0,066
228,596	683,032	-0,143	-0,261
229,611	-19,657	-0,144	-0,061
230,626	-144,984	-0,168	0,010
231,640	-29,518	-0,176	-0,070
232,655	272,819	-0,139	-0,171
233,669	309,560	-0,193	-0,251
234,684	571,880	-0,123	-0,209
235,699	800,000	-0,070	-0,176
236,713	-134,085	-0,244	-0,021
237,728	-14,290	-0,190	-0,085
238,742	-52,615	-0,212	-0,067
239,757	140,455	-0,173	-0,159
240,772	-58,176	-0,209	-0,063
241,786	133,329	-0,134	-0,120
242,801	77,084	-0,100	-0,074
243,815	800,000	-0,047	-0,138
244,830	-200,000	-0,007	-0,170
245,844	-151,206	-0,200	-0,010
246,859	-61,716	-0,229	-0,066
247,874	251,158	-0,214	-0,253
248,888	21,103	-0,184	-0,103
249,903	91,040	-0,181	-0,141
250,917	342,850	-0,131	-0,179
251,932	-3,203	-0,214	-0,103
252,947	19,917	-0,099	-0,055
253,961	92,541	-0,247	-0,193
254,976	-73,437	-0,278	-0,070
255,990	430,887	-0,136	-0,205
257,005	123,773	-0,256	-0,223
258,020	800,000	-0,090	-0,187
259,034	94,112	-0,117	-0,092
260,049	-87,921	-0,192	0,040
261,063	87,897	-0,248	-0,190
262,078	-73,044	-0,204	-0,052
263,093	800,000	-0,076	-0,211
264,107	106,721	-0,249	-0,205
265,122	-13,586	-0,282	-0,126
266,136	-112,197	-0,110	0,015
267,151	-48,464	-0,248	-0,082
268,166	343,639	-0,102	-0,139
269,180	112,274	-0,186	-0,155
270,195	2,486	-0,280	-0,140
271,209	-125,616	-0,259	-0,027
272,224	39,266	-0,140	-0,087
273,239	449,151	-0,058	-0,089
274,253	208,030	-0,115	-0,125
275,268	-177,741	-0,078	0,001
276,282	42,707	-0,097	-0,061
277,297	154,723	-0,243	-0,231
278,312	381,414	-0,088	-0,125
279,326	151,119	-0,150	-0,141
280,341	131,274	-0,211	-0,187
281,355	129,737	-0,175	-0,155
282,370	-30,059	-0,250	-0,098
283,384	-53,309	-0,250	-0,079
284,399	227,794	-0,154	-0,173
285,414	302,416	-0,128	-0,165
286,428	47,846	-0,152	-0,098
287,443	-2,098	-0,177	-0,085
288,457	59,090	-0,135	-0,091
289,472	64,331	-0,176	-0,122
290,487	144,961	-0,184	-0,170
291,501	301,372	-0,075	-0,096
292,516	189,808	-0,136	-0,141
293,530	-200,000	-0,041	-0,153
294,545	160,881	-0,089	-0,086
295,560	166,670	-0,117	-0,115
296,574	257,495	-0,078	-0,093
297,589	99,241	-0,166	-0,133
298,603	308,111	-0,179	-0,231
299,618	14,989	-0,248	-0,134
300,633	127,390	-0,101	-0,089
301,647	-135,617	-0,099	-0,008
302,662	-51,839	-0,054	-0,017
303,676	71,257	-0,186	-0,133
304,691	71,667	-0,151	-0,108
305,706	151,759	-0,070	-0,066
306,720	-46,902	-0,233	-0,078
307,735	-69,768	-0,088	0,023
308,749	35,488	-0,153	-0,092
309,764	131,742	-0,108	-0,096
310,779	78,428	-0,146	-0,108
311,793	800,000	-0,062	-0,119
312,808	38,228	-0,220	-0,135
313,822	-46,823	-0,186	-0,062
314,837	609,772	-0,069	-0,119
315,852	311,228	-0,091	-0,117
316,866	-200,000	-0,036	-0,111
317,881	293,636	-0,110	-0,139
318,895	42,950	-0,136	-0,085
319,910	46,781	-0,207	-0,132
320,925	800,000	-0,052	-0,134
321,939	55,119	-0,271	-0,180
322,954	110,718	-0,134	-0,111
323,968	714,746	-0,075	-0,138
324,983	130,161	-0,262	-0,231
325,997	-32,624	-0,259	-0,099
327,012	448,598	-0,083	-0,126
328,027	-38,484	-0,210	-0,076
329,041	-162,873	-0,110	-0,004
330,056	11,585	-0,097	-0,051
331,070	800,000	-0,014	0,031
332,085	-124,516	-0,171	-0,018
333,100	-134,783	-0,158	-0,013
334,114	-139,716	-0,146	0,011
335,129	260,758	-0,120	-0,144
336,143	32,404	-0,115	-0,068
337,158	-66,737	-0,200	-0,054
338,173	-95,493	-0,145	-0,027
339,187	-99,139	-0,262	0,045
340,202	146,728	-0,208	-0,192
341,216	262,774	-0,054	-0,065
342,231	135,543	-0,161	-0,144
343,246	800,000	-0,124	-0,238
344,260	-107,510	-0,191	-0,029
345,275	-2,459	-0,167	0,080
346,289	-162,093	-0,084	-0,003
347,304	299,792	-0,066	-0,084
348,319	-71,777	-0,201	-0,051
349,333	86,335	-0,211	-0,160
350,348	-46,015	-0,158	-0,053
351,362	502,137	-0,194	-0,309
352,377	426,775	-0,145	-0,216
353,392	469,048	-0,047	-0,073
354,406	-200,000	-0,018	-0,076
355,421	208,420	1312,263	1411,205
356,435	160,372	1472,688	1411,713
