DTS Sentinel unit serial number:	SN410029Multiplexer serial number:	ORYXHardware model number:	OX2-SRSoftware version number:	ORYX F/W v4,00 Oryx Data Collector v3.7.2.0data status	okinstallation	B3 Nyhavnadifferential loss correction	single-endedforward channel	channel 1reverse channel	N/Adate	2023/11/29time	21:32:30forward acquisition time	300,00reverse acquisition time	0,00gamma	499,1914k internal	0,3210k external	0,3210temperature offset calibration	1,0000default loss term (dB/km)	0,3820temperature slope calibration	1,0000multiplexer offset coefficient	1,0000multiplexer slope coefficient	1,0000fibre end	0,00T internal ref (°C)	10,81T ext. ref 1 (°C)	-4,35T ext. ref 2 (°C)	-4,43length (m)	temperature (°C)	Stokes	anti-Stokes-744,400	15,601	-0,188	-0,107
-743,385	-200,000	-0,038	0,275
-742,371	376,487	-0,134	-0,199
-741,356	800,000	0,128	0,312
-740,342	91,658	-0,187	-0,153
-739,327	-200,000	0,022	0,261
-738,312	800,000	-0,142	-0,291
-737,298	-200,000	-0,005	0,301
-736,283	800,000	-0,057	-0,159
-735,269	800,000	0,092	0,237
-734,254	97,359	-0,236	-0,196
-733,239	-118,901	-0,212	0,027
-732,225	510,332	-0,143	-0,242
-731,210	-54,901	0,228	0,074
-730,196	800,000	0,023	0,060
-729,181	44,075	-0,128	0,085
-728,167	-200,000	0,021	-0,109
-727,152	-200,000	0,009	-0,078
-726,137	1,046	-0,100	0,052
-725,123	-200,000	0,028	0,113
-724,108	90,528	-0,087	0,070
-723,094	466,977	-0,053	-0,086
-722,079	153,142	-0,079	-0,078
-721,064	-164,324	-0,058	-0,002
-720,050	-78,816	-0,051	-0,013
-719,035	131,722	0,056	-0,052
-718,021	-7,722	-0,102	-0,050
-717,006	-1,416	0,031	-0,016
-715,991	130,654	-0,128	-0,119
-714,977	39,917	-0,087	-0,057
-713,962	-44,776	0,087	0,031
-712,948	-4,793	-0,110	0,055
-711,933	-129,230	-0,141	0,014
-710,918	135,793	-0,044	0,042
-709,904	800,000	-0,032	-0,065
-708,889	100,856	-0,048	-0,040
-707,875	40,960	-0,084	0,055
-706,860	-164,095	0,031	-0,001
-705,845	192,152	0,023	-0,025
-704,831	156,548	-0,141	-0,141
-703,816	800,000	0,056	0,149
-702,802	-200,000	0,003	0,104
-701,787	-162,625	-0,136	-0,005
-700,772	-200,000	0,006	-0,061
-699,758	-200,000	-0,016	0,072
-698,743	-200,000	-0,006	0,146
-697,729	57,457	0,003	0,002
-696,714	-75,891	-0,125	0,032
-695,699	800,000	0,025	-0,055
-694,685	-41,746	-0,046	-0,017
-693,670	-200,000	-0,036	0,116
-692,656	6,626	-0,123	0,066
-691,641	-200,000	0,024	0,096
-690,627	-127,360	0,049	-0,005
-689,612	800,000	0,032	-0,079
-688,597	458,799	0,028	0,046
-687,583	-22,794	-0,057	0,025
-686,568	66,326	0,049	-0,036
-685,554	-178,192	-0,077	-0,001
-684,539	105,021	0,049	-0,042
-683,524	-28,161	0,145	0,060
-682,510	-73,670	-0,130	0,034
-681,495	175,609	-0,121	-0,127
-680,481	-121,312	0,114	-0,014
-679,466	486,852	-0,161	-0,267
-678,451	800,000	0,025	0,073
-677,437	21,347	-0,056	0,033
-676,422	-200,000	0,008	0,104
-675,408	104,261	-0,069	0,059
-674,393	-123,505	0,063	-0,007
-673,378	-108,324	-0,043	0,007
-672,364	-200,000	-0,031	-0,155
-671,349	-76,345	0,051	0,013
-670,335	121,372	0,069	0,062
-669,320	-98,647	0,094	-0,017
-668,305	-40,423	-0,170	0,064
-667,291	105,167	-0,036	-0,031
-666,276	152,774	-0,079	-0,079
-665,262	-200,000	0,010	0,135
-664,247	800,000	-0,054	0,127
-663,232	-63,747	-0,104	0,030
-662,218	-87,168	0,027	0,006
-661,203	-151,837	0,076	-0,004
-660,189	291,489	0,024	0,032
-659,174	-39,202	-0,047	0,018
-658,159	460,965	-0,064	-0,104
-657,145	-200,000	0,014	-0,187
-656,130	-200,000	-0,003	0,098
-655,116	-200,000	-0,010	-0,058
-654,101	516,910	-0,075	-0,128
-653,086	-200,000	-0,017	-0,104
-652,072	-105,679	-0,084	-0,014
-651,057	292,561	0,005	-0,006
-650,043	800,000	0,024	-0,054
-649,028	800,000	0,043	-0,113
-648,014	351,775	0,039	-0,056
-646,999	642,199	-0,077	0,142
-645,984	142,263	-0,087	0,084
-644,970	343,311	0,038	-0,054
-643,955	-200,000	-0,004	-0,109
-642,941	-81,491	-0,037	-0,009
-641,926	57,490	-0,034	-0,024
-640,911	230,052	0,043	0,051
-639,897	-38,925	0,066	0,025
-638,882	-159,048	0,030	0,001
-637,868	269,755	-0,022	-0,028
-636,853	-143,857	-0,116	-0,008
-635,838	-200,000	-0,003	-0,084
-634,824	267,254	0,040	-0,051
-633,809	-13,969	-0,080	0,037
-632,795	-200,000	-0,012	0,068
-631,780	800,000	-0,019	0,037
-630,765	-90,155	-0,058	-0,012
-629,751	-115,166	-0,032	0,004
-628,736	-147,863	-0,048	0,003
-627,722	-200,000	0,006	0,054
-626,707	-58,780	0,079	0,025
-625,692	-35,460	-0,067	-0,026
-624,678	-200,000	0,013	0,106
-623,663	800,000	0,049	-0,107
-622,649	800,000	0,024	0,065
-621,634	42,765	-0,150	-0,098
-620,619	-200,000	0,004	-0,161
-619,605	-39,199	-0,021	-0,008
-618,590	241,604	0,129	0,156
-617,576	800,000	0,019	-0,058
-616,561	800,000	-0,009	-0,022
-615,546	800,000	-0,068	-0,200
-614,532	-112,968	-0,128	0,018
-613,517	199,317	-0,083	-0,092
-612,503	103,358	-0,118	0,099
-611,488	-153,283	-0,139	0,007
-610,474	33,697	0,075	0,047
-609,459	-134,066	-0,047	-0,004
-608,444	271,266	0,041	0,053
-607,430	585,118	-0,097	-0,172
-606,415	40,022	-0,094	-0,061
-605,401	-200,000	0,017	0,111
-604,386	-200,000	-0,002	-0,016
-603,371	362,280	0,043	-0,062
-602,357	-49,030	-0,133	-0,046
-601,342	330,496	-0,066	-0,093
-600,328	188,327	-0,117	-0,126
-599,313	55,716	0,052	0,036
-598,298	-200,000	-0,004	0,057
-597,284	414,592	-0,056	0,086
-596,269	97,783	-0,034	0,029
-595,255	-200,000	0,019	0,101
-594,240	771,171	-0,055	0,108
-593,225	800,000	0,033	-0,075
-592,211	-200,000	0,013	-0,054
-591,196	444,231	0,045	0,072
-590,182	-200,000	0,020	0,216
-589,167	231,067	0,044	0,053
-588,152	138,693	-0,063	-0,060
-587,138	-36,814	0,133	0,051
-586,123	30,020	-0,030	0,019
-585,109	-105,027	-0,138	-0,023
-584,094	800,000	0,035	-0,082
-583,079	-59,659	0,028	0,009
-582,065	24,693	0,088	-0,053
-581,050	76,785	-0,120	0,091
-580,036	18,665	0,015	-0,009
-579,021	172,078	-0,090	-0,094
-578,006	800,000	0,061	-0,195
-576,992	301,594	0,050	0,066
-575,977	24,136	0,044	0,026
-574,963	-200,000	-0,025	0,136
-573,948	472,764	0,039	0,063
-572,934	-62,386	0,050	-0,015
-571,919	-92,206	-0,106	-0,021
-570,904	93,278	-0,105	-0,086
-569,890	37,568	0,044	-0,028
-568,875	-60,389	0,147	0,045
-567,861	-77,670	0,082	-0,020
-566,846	86,710	0,087	0,069
-565,831	68,999	-0,087	0,064
-564,817	337,676	-0,073	-0,102
-563,802	599,854	-0,042	-0,075
-562,788	1,425	-0,125	0,065
-561,773	-90,315	-0,091	-0,019
-560,758	41,080	0,095	0,062
-559,744	-125,550	0,086	0,009
-558,729	-200,000	0,002	0,062
-557,715	-179,380	-0,124	-0,002
-556,700	29,867	-0,048	0,030
-555,685	73,587	-0,020	0,015
-554,671	387,733	-0,139	0,207
-553,656	-200,000	-0,005	-0,111
-552,642	-140,066	-0,119	-0,009
-551,627	-131,848	0,021	-0,002
-550,612	30,149	-0,050	0,031
-549,598	239,292	0,074	-0,089
-548,583	526,635	-0,043	0,073
-547,569	9,222	0,002	-0,001
-546,554	-26,839	-0,065	0,027
-545,539	-47,815	0,183	0,063
-544,525	-126,425	-0,062	0,007
-543,510	46,309	0,053	-0,036
-542,496	-200,000	-0,020	-0,092
-541,481	162,353	0,039	-0,039
-540,466	-83,806	0,041	-0,009
-539,452	260,925	-0,053	0,066
-538,437	-200,000	0,004	0,023
-537,423	283,146	-0,045	0,059
-536,408	-200,000	0,004	-0,150
-535,393	-104,342	-0,122	0,020
-534,379	550,508	0,104	-0,181
-533,364	-69,583	-0,020	-0,006
-532,350	83,999	0,050	-0,039
-531,335	41,460	0,163	0,106
-530,321	222,808	0,028	0,033
-529,306	126,147	-0,033	0,030
-528,291	495,330	0,058	0,097
-527,277	-75,044	-0,160	-0,041
-526,262	-98,017	0,103	-0,019
-525,248	-56,468	-0,049	0,016
-524,233	228,173	0,059	-0,069
-523,218	301,371	-0,087	0,116
-522,204	800,000	-0,014	-0,037
-521,189	-18,434	-0,182	0,081
-520,175	-200,000	0,018	-0,112
-519,160	-39,050	-0,040	-0,015
-518,145	553,467	0,043	-0,074
-517,131	138,430	0,076	-0,072
-516,116	720,479	0,064	-0,124
-515,102	-200,000	0,016	-0,122
-514,087	363,853	-0,088	-0,127
-513,072	171,676	-0,056	-0,058
-512,058	120,581	-0,112	0,100
-511,043	800,000	0,043	-0,091
-510,029	232,671	0,042	0,050
-509,014	800,000	0,047	0,100
-507,999	42,920	-0,071	-0,046
-506,985	-105,590	-0,127	0,020
-505,970	388,828	-0,050	-0,075
-504,956	430,874	0,063	-0,099
-503,941	464,380	-0,013	-0,021
-502,926	97,154	0,117	0,097
-501,912	-28,978	0,029	0,012
-500,897	800,000	0,048	0,117
-499,883	4,082	-0,095	-0,050
-498,868	112,953	-0,032	0,028
-497,853	-200,000	0,000	-0,113
-496,839	-200,000	-0,039	-0,153
-495,824	26,768	0,103	0,062
-494,810	289,241	0,020	-0,027
-493,795	-200,000	0,007	0,233
-492,781	18,739	-0,066	-0,038
-491,766	37,902	0,129	-0,082
-490,751	9,679	-0,042	0,023
-489,737	213,787	0,013	-0,014
-488,722	22,277	0,054	0,032
-487,708	-200,000	0,000	0,024
-486,693	548,096	0,060	-0,104
-485,678	-200,000	-0,039	-0,147
-484,664	8,382	-0,084	0,045
-483,649	-52,431	-0,103	0,034
-482,635	77,574	0,034	-0,026
-481,620	800,000	-0,041	0,106
-480,605	-200,000	-0,010	0,066
-479,591	-113,634	0,049	-0,007
-478,576	38,887	0,070	-0,045
-477,562	-36,719	0,032	0,012
-476,547	515,189	-0,076	-0,128
-475,532	-200,000	0,005	-0,079
-474,518	133,610	0,093	0,086
-473,503	-200,000	0,010	-0,087
-472,489	386,714	0,018	-0,027
-471,474	-118,208	0,101	0,013
-470,459	-200,000	-0,002	0,057
-469,445	779,270	0,021	-0,041
-468,430	-200,000	0,001	0,016
-467,416	-86,437	0,014	-0,003
-466,401	358,635	0,051	-0,074
-465,386	-23,699	0,055	-0,024
-464,372	-200,000	-0,013	-0,182
-463,357	-104,412	-0,040	-0,007
-462,343	155,763	0,042	0,041
-461,328	-57,021	0,033	-0,010
-460,313	-145,722	0,020	-0,001
-459,299	-181,944	-0,029	0,000
-458,284	-200,000	0,007	0,072
-457,270	6,670	0,121	-0,064
-456,255	-179,758	0,085	-0,001
-455,241	-200,000	-0,011	-0,106
-454,226	623,075	0,039	-0,070
-453,211	-200,000	0,024	-0,148
-452,197	301,567	0,055	-0,074
-451,182	64,516	0,049	-0,035
-450,168	800,000	-0,043	0,093
-449,153	800,000	0,035	-0,077
-448,138	14,158	-0,136	-0,075
-447,124	-99,044	-0,057	-0,010
-446,109	-200,000	-0,009	-0,059
-445,095	-126,125	0,133	0,014
-444,080	292,843	-0,081	0,107
-443,065	-128,315	-0,048	-0,005
-442,051	121,365	0,067	0,060
-441,036	-60,579	-0,202	0,061
-440,022	-94,531	-0,113	-0,022
-439,007	-200,000	-0,002	-0,184
-437,992	342,942	0,089	-0,125
-436,978	16,936	0,095	0,054
-435,963	13,578	-0,096	0,053
-434,949	110,295	0,085	-0,073
-433,934	181,641	-0,082	0,087
-432,919	-200,000	-0,015	-0,066
-431,905	79,345	0,077	-0,059
-430,890	220,262	0,031	0,036
-429,876	800,000	0,024	-0,049
-428,861	-70,498	0,031	-0,008
-427,846	-200,000	-0,005	0,036
-426,832	5,258	-0,072	-0,038
-425,817	-200,000	-0,027	-0,105
-424,803	405,504	0,106	-0,160
-423,788	-200,000	0,005	0,050
-422,773	13,893	0,134	0,074
-421,759	147,942	-0,066	0,064
-420,744	63,987	-0,083	0,060
-419,730	672,647	-0,048	-0,090
-418,715	185,350	0,087	-0,093
-417,701	-42,216	0,126	-0,046
-416,686	-200,000	0,031	0,134
-415,671	-200,000	0,031	-0,116
-414,657	26,962	0,150	0,090
-413,642	-81,605	0,071	-0,017
-412,628	-200,000	-0,016	0,113
-411,613	800,000	-0,012	-0,031
-410,598	-134,976	-0,072	0,006
-409,584	422,532	0,004	0,006
-408,569	168,934	-0,040	0,040
-407,555	190,193	-0,102	-0,110
-406,540	800,000	-0,032	0,066
-405,525	410,943	-0,023	-0,034
-404,511	404,921	-0,028	-0,043
-403,496	73,499	0,011	-0,009
-402,482	501,770	0,019	-0,031
-401,467	505,614	-0,030	0,050
-400,452	-101,201	0,204	0,035
-399,438	800,000	0,064	0,143
-398,423	-200,000	0,000	-0,046
-397,409	-41,807	-0,064	0,023
-396,394	525,368	-0,069	-0,117
-395,379	-15,028	-0,100	0,046
-394,365	174,437	-0,055	0,057
-393,350	61,999	-0,064	0,046
-392,336	-175,279	-0,093	0,002
-391,321	-169,342	-0,113	-0,003
-390,306	-200,000	0,002	-0,061
-389,292	800,000	0,011	0,023
-388,277	6,458	-0,088	0,047
-387,263	46,001	0,070	0,046
-386,248	235,282	-0,048	0,057
-385,233	17,844	0,065	-0,037
-384,219	130,826	-0,049	0,045
-383,204	800,000	0,048	-0,104
-382,190	800,000	-0,079	-0,161
-381,175	-67,077	0,180	0,050
-380,160	235,948	0,069	-0,082
-379,146	147,675	0,076	0,073
-378,131	800,000	0,025	0,054
-377,117	800,000	-0,035	-0,073
-376,102	-28,300	-0,063	-0,026
-375,088	-106,473	-0,066	0,010
-374,073	38,637	-0,154	0,098
-373,058	800,000	0,009	0,019
-372,044	38,741	0,166	0,105
-371,029	475,210	-0,004	0,006
-370,015	-200,000	-0,033	0,112
-369,000	29,551	0,122	-0,074
-367,985	24,824	0,129	-0,076
-366,971	326,905	0,039	-0,053
-365,956	-101,686	0,188	0,032
-364,942	497,806	0,026	0,044
-363,927	-3,903	-0,086	0,043
-362,912	152,441	0,061	-0,060
-361,898	424,885	-0,073	-0,112
-360,883	226,773	-0,116	-0,135
-359,869	-165,303	-0,030	0,001
-358,854	-75,590	0,131	-0,033
-357,839	-200,000	-0,007	0,087
-356,825	-200,000	-0,045	0,146
-355,810	97,557	-0,023	-0,019
-354,796	122,990	-0,144	-0,129
-353,781	157,487	-0,074	-0,073
-352,766	-38,423	-0,092	-0,035
-351,752	562,466	0,049	0,084
-350,737	6,385	-0,052	0,027
-349,723	800,000	0,057	0,138
-348,708	565,301	-0,010	0,017
-347,693	58,899	0,081	0,057
-346,679	12,377	-0,179	-0,098
-345,664	-146,290	-0,125	0,008
-344,650	76,788	-0,063	0,048
-343,635	-200,000	0,010	0,125
-342,620	87,332	0,086	0,068
-341,606	-200,000	0,011	0,096
-340,591	317,285	0,024	-0,032
-339,577	-200,000	-0,021	0,115
-338,562	800,000	-0,050	-0,125
-337,548	190,647	0,055	-0,059
-336,533	-77,342	0,164	-0,040
-335,518	578,562	0,066	0,116
-334,504	303,789	0,031	-0,041
-333,489	14,252	0,064	0,035
-332,475	-200,000	0,011	0,094
-331,460	41,990	-0,044	-0,029
-330,445	165,579	-0,038	0,038
-329,431	160,365	0,080	0,080
-328,416	-128,072	-0,100	0,010
-327,402	246,233	-0,032	0,039
-326,387	127,959	-0,072	0,065
-325,372	37,568	-0,078	0,049
-324,358	117,964	0,081	-0,071
-323,343	-200,000	-0,012	-0,116
-322,329	800,000	-0,031	0,065
-321,314	-200,000	0,000	0,050
-320,299	-200,000	0,008	0,150
-319,285	-200,000	-0,028	0,109
-318,270	-200,000	-0,008	0,178
-317,256	-200,000	-0,006	-0,064
-316,241	228,557	-0,089	-0,103
-315,226	-72,682	0,049	0,013
-314,212	-30,793	0,054	-0,022
-313,197	275,551	0,044	0,056
-312,183	241,940	0,104	-0,124
-311,168	-200,000	0,007	0,103
-310,153	800,000	-0,023	-0,058
-309,139	800,000	-0,016	-0,038
-308,124	-54,262	0,084	0,027
-307,110	-200,000	-0,016	-0,052
-306,095	-158,479	0,104	0,004
-305,080	219,898	-0,120	0,137
-304,066	-113,571	-0,082	-0,011
-303,051	760,224	-0,022	-0,042
-302,037	-63,345	0,113	0,033
-301,022	64,647	0,033	0,024
-300,008	670,975	0,070	0,129
-298,993	-21,296	-0,062	0,027
-297,978	800,000	0,046	0,097
-296,964	132,576	0,056	0,052
-295,949	-66,563	-0,162	-0,045
-294,935	800,000	0,043	0,097
-293,920	475,462	-0,024	-0,039
-292,905	-200,000	0,007	0,060
-291,891	-200,000	0,010	0,093
-290,876	800,000	0,044	0,107
-289,862	-32,917	0,032	0,012
-288,847	-200,000	-0,003	-0,017
-287,832	-200,000	0,011	-0,050
-286,818	-78,071	-0,067	0,016
-285,803	-109,255	0,235	-0,035
-284,789	71,854	-0,112	-0,083
-283,774	800,000	0,020	0,057
-282,759	-200,000	0,001	0,074
-281,745	800,000	-0,032	0,071
-280,730	20,836	0,053	0,030
-279,716	74,116	0,031	0,023
-278,701	-200,000	-0,027	0,095
-277,686	-200,000	0,036	0,166
-276,672	-200,000	-0,013	0,042
-275,657	602,246	-0,044	0,078
-274,643	-200,000	0,003	-0,132
-273,628	-120,395	-0,243	0,029
-272,613	222,357	0,053	0,061
-271,599	-200,000	-0,019	0,060
-270,584	-200,000	0,016	-0,077
-269,570	-200,000	0,001	-0,074
-268,555	-200,000	0,004	-0,072
-267,540	-200,000	-0,008	0,134
-266,526	-8,789	-0,127	0,061
-265,511	800,000	-0,027	-0,064
-264,497	800,000	-0,033	-0,104
-263,482	-140,450	0,114	-0,008
-262,467	12,577	0,106	-0,058
-261,453	-200,000	-0,027	-0,088
-260,438	381,778	0,062	-0,090
-259,424	-90,512	-0,116	0,024
-258,409	800,000	-0,016	0,048
-257,395	-95,931	0,086	-0,016
-256,380	77,697	-0,061	0,047
-255,365	-200,000	0,032	0,134
-254,351	259,127	-0,052	0,064
-253,336	178,074	0,051	-0,053
-252,322	-20,494	-0,071	-0,031
-251,307	-0,916	-0,055	-0,028
-250,292	-153,240	0,085	0,004
-249,278	-111,023	0,054	-0,008
-248,263	-200,000	0,005	0,165
-247,249	800,000	0,080	0,170
-246,234	47,603	-0,138	0,092
-245,219	17,438	-0,089	-0,050
-244,205	-75,901	0,063	0,016
-243,190	10,883	-0,093	0,050
-242,176	-64,625	-0,051	0,015
-241,161	79,763	0,046	0,035
-240,146	800,000	-0,033	0,068
-239,132	583,172	0,031	0,054
-238,117	-178,902	-0,114	0,002
-237,103	-78,058	-0,132	0,032
-236,088	-69,087	0,045	-0,012
-235,073	5,365	0,128	-0,067
-234,059	-132,152	0,088	-0,008
-233,044	800,000	-0,027	0,080
-232,030	111,862	0,057	0,049
-231,015	-200,000	-0,024	-0,111
-230,000	-200,000	0,014	-0,096
-228,986	-167,781	-0,209	0,006
-227,971	-97,062	0,094	-0,017
-226,957	800,000	0,056	0,117
-225,942	-132,148	0,015	-0,001
-224,927	84,070	-0,078	-0,060
-223,913	-162,913	-0,091	0,003
-222,898	-200,000	0,018	-0,079
-221,884	-65,923	0,055	0,015
-220,869	-200,000	0,038	-0,122
-219,855	-135,755	0,140	-0,012
-218,840	-85,350	0,101	-0,022
-217,825	-129,774	0,109	0,011
-216,811	669,962	0,058	-0,107
-215,796	181,685	0,062	-0,065
-214,782	-200,000	0,036	-0,129
-213,767	-65,411	0,053	-0,015
-212,752	575,900	0,069	0,120
-211,738	-61,459	0,049	-0,015
-210,723	-7,675	0,053	0,025
-209,709	777,778	0,038	-0,074
-208,694	-94,684	-0,137	-0,026
-207,679	-200,000	-0,000	0,166
-206,665	-21,977	0,133	-0,057
-205,650	-141,688	0,087	0,006
-204,636	-200,000	0,023	0,143
-203,621	-10,850	0,175	0,082
-202,606	126,732	0,061	-0,055
-201,592	-47,434	0,057	-0,019
-200,577	-200,000	-0,021	0,104
-199,563	4,018	0,026	-0,013
-198,548	-200,000	0,005	-0,102
-197,533	-200,000	-0,015	-0,112
-196,519	-104,048	0,114	0,019
-195,504	-57,090	-0,056	0,017
-194,490	-200,000	0,006	-0,102
-193,475	-200,000	0,018	-0,113
-192,460	35,952	0,031	-0,019
-191,446	-51,909	0,061	0,020
-190,431	-200,000	0,005	0,107
-189,417	1,093	0,138	-0,070
-188,402	100,361	0,065	0,053
-187,387	662,269	-0,038	-0,071
-186,373	800,000	-0,023	-0,052
-185,358	-94,636	-0,041	0,008
-184,344	-200,000	0,002	0,116
-183,329	-200,000	0,001	0,116
-182,315	-200,000	0,021	-0,074
-181,300	-200,000	-0,019	0,064
-180,285	-23,748	-0,026	0,011
-179,271	-4,462	0,046	-0,022
-178,256	-200,000	-0,011	0,075
-177,242	86,103	-0,040	0,031
-176,227	-200,000	0,032	0,116
-175,212	525,470	0,074	0,124
-174,198	800,000	0,049	0,125
-173,183	12,394	-0,101	-0,055
-172,169	-200,000	-0,009	0,045
-171,154	325,728	-0,134	0,182
-170,139	34,968	0,102	-0,063
-169,125	-200,000	0,009	-0,180
-168,110	80,273	0,070	-0,053
-167,096	324,664	0,050	-0,068
-166,081	-23,432	-0,121	-0,051
-165,066	219,625	-0,063	-0,072
-164,052	800,000	-0,036	-0,108
-163,037	272,655	-0,017	-0,022
-162,023	-113,918	0,052	0,007
-161,008	-200,000	0,010	0,061
-159,993	97,274	0,113	-0,092
-158,979	-62,595	-0,100	-0,029
-157,964	651,495	-0,049	-0,089
-156,950	426,085	0,100	-0,154
-155,935	756,889	0,046	-0,089
-154,920	-86,926	0,049	0,010
-153,906	114,351	-0,120	0,104
-152,891	-41,308	-0,167	0,061
-151,877	-89,111	-0,084	0,018
-150,862	-69,291	0,044	-0,012
-149,847	357,106	-0,120	0,170
-148,833	-200,000	-0,007	-0,102
-147,818	-200,000	0,008	0,118
-146,804	800,000	-0,023	-0,052
-145,789	-200,000	0,031	-0,137
-144,775	-200,000	0,003	-0,012
-143,760	69,569	-0,096	-0,070
-142,745	109,745	-0,072	-0,061
-141,731	800,000	0,037	0,078
-140,716	384,301	-0,047	0,069
-139,702	464,071	0,130	0,207
-138,687	800,000	0,042	-0,084
-137,672	-200,000	-0,004	-0,027
-136,658	-136,670	-0,231	0,019
-135,643	25,774	-0,074	-0,043
-134,629	263,627	0,085	-0,105
-133,614	800,000	0,046	0,093
-132,599	46,711	0,006	-0,004
-131,585	-4,575	-0,117	0,057
-130,570	-200,000	-0,009	0,036
-129,556	743,696	-0,013	0,024
-128,541	800,000	-0,056	-0,119
-127,526	800,000	0,007	0,016
-126,512	-13,827	0,063	0,029
-125,497	-200,000	-0,002	-0,035
-124,483	299,243	0,049	-0,064
-123,468	-200,000	-0,006	-0,107
-122,453	450,878	-0,034	-0,053
-121,439	-200,000	-0,001	-0,020
-120,424	-200,000	-0,030	-0,106
-119,410	-200,000	0,012	0,155
-118,395	-97,644	0,100	-0,018
-117,380	10,887	0,031	-0,017
-116,366	438,327	-0,036	-0,056
-115,351	-104,936	-0,093	0,015
-114,337	283,286	-0,075	-0,096
-113,322	-119,470	0,094	0,011
-112,307	800,000	0,024	0,074
-111,293	202,441	-0,020	0,022
-110,278	401,599	-0,011	-0,017
-109,264	330,011	0,047	-0,065
-108,249	123,880	-0,102	-0,090
-107,234	-76,319	0,028	0,007
-106,220	-200,000	-0,062	-0,253
-105,205	-200,000	0,091	0,000
-104,191	-200,000	-0,008	-0,131
-103,176	155,079	-0,056	-0,055
-102,162	-175,577	0,221	-0,004
-101,147	-6,829	-0,040	0,019
-100,132	797,082	-0,035	0,070
-99,118	-200,000	0,035	0,136
-98,103	-200,000	0,006	0,115
-97,089	420,256	-0,036	0,055
-96,074	738,877	0,016	0,031
-95,059	242,586	0,028	0,034
-94,045	800,000	0,042	-0,087
-93,030	-123,741	-0,097	-0,011
-92,016	257,767	-0,041	-0,050
-91,001	-173,601	-0,048	0,001
-89,986	633,175	-0,058	0,104
-88,972	-200,000	0,028	0,127
-87,957	-200,000	-0,005	-0,066
-86,943	-80,844	0,081	0,019
-85,928	-200,000	-0,010	0,108
-84,913	-200,000	0,002	0,006
-83,899	-172,040	-0,109	0,002
-82,884	800,000	0,065	0,152
-81,870	233,979	0,012	-0,014
-80,855	180,741	0,063	0,066
-79,840	-69,573	0,070	-0,019
-78,826	800,000	-0,017	-0,046
-77,811	359,139	-0,036	0,051
-76,797	-87,240	-0,084	0,018
-75,782	650,621	0,066	0,121
-74,767	-130,484	0,085	-0,008
-73,753	-16,602	0,054	0,024
-72,738	676,282	-0,041	-0,076
-71,724	-156,926	0,045	0,002
-70,709	-90,715	-0,101	0,020
-69,694	-200,000	0,023	-0,078
-68,680	-200,000	0,013	0,092
-67,665	377,926	-0,058	0,083
-66,651	-34,875	0,121	0,047
-65,636	800,000	0,033	0,097
-64,622	-25,104	0,052	-0,022
-63,607	387,189	-0,051	-0,075
-62,592	800,000	0,046	-0,097
-61,578	800,000	0,035	0,073
-60,563	-109,413	0,129	0,019
-59,549	800,000	0,026	-0,060
-58,534	43,724	-1,904	-1,228
-57,519	438,068	-1,282	-1,982
-56,505	-200,000	-0,485	-4,276
-55,490	502,332	0,901	1,475
-54,476	800,000	4,964	11,224
-53,461	-200,000	20,833	330,143
-52,446	800,000	758,154	2324,472
-51,432	549,269	1662,650	2824,186
-50,417	73,336	1664,011	1227,835
-49,403	18,642	1537,168	865,775
-48,388	12,654	1459,858	793,252
-47,373	19,006	1450,943	818,891
-46,359	15,805	1440,405	797,670
-45,344	10,943	1435,883	771,968
-44,330	10,842	1434,119	770,509
-43,315	10,833	1432,083	769,339
-42,300	10,820	1430,511	768,405
-41,286	10,867	1429,246	767,915
-40,271	10,841	1427,861	767,019
-39,257	10,798	1427,029	766,339
-38,242	10,881	1425,602	765,933
-37,227	10,869	1424,406	765,205
-36,213	10,848	1423,305	764,481
-35,198	10,858	1422,310	763,964
-34,184	10,935	1421,316	763,764
-33,169	10,854	1419,975	762,633
-32,154	10,914	1418,890	762,300
-31,140	10,941	1417,536	761,670
-30,125	10,986	1416,422	761,256
-29,111	10,940	1415,403	760,461
-28,096	10,920	1414,165	759,671
-27,082	10,869	1412,934	758,742
-26,067	10,820	1412,127	758,048
-25,052	10,861	1410,949	757,578
-24,038	10,857	1409,917	756,971
-23,023	10,805	1409,059	756,241
-22,009	10,870	1407,805	755,843
-20,994	10,842	1406,762	755,119
-19,979	10,812	1406,095	754,589
-18,965	10,821	1404,916	753,972
-17,950	10,827	1404,070	753,515
-16,936	10,796	1403,271	752,912
-15,921	10,685	1402,292	751,838
-14,906	10,714	1401,497	751,517
-13,892	10,773	1400,536	751,248
-12,877	10,796	1399,535	750,790
-11,863	10,733	1398,905	750,129
-10,848	10,733	1397,806	749,507
-9,833	10,696	1397,089	748,921
-8,819	10,640	1396,188	748,148
-7,804	10,656	1395,396	747,768
-6,790	10,646	1394,380	747,149
-5,775	10,656	1393,185	746,524
-4,760	10,691	1392,305	746,185
-3,746	10,665	1391,595	745,656
-2,731	10,649	1390,617	745,031
-1,717	10,662	1389,731	744,585
-0,702	10,604	1388,184	743,460
0,313	14,661	1301,232	715,470
1,327	30,871	692,568	417,658
2,342	48,037	120,071	79,045
3,356	2,168	16,444	8,355
4,371	12,231	3,419	1,851
5,386	-27,832	0,848	0,345
6,400	-200,000	0,097	0,478
7,415	330,268	-0,158	-0,215
8,429	153,708	-0,244	-0,236
9,444	-42,776	-0,228	-0,081
10,459	22,491	-0,338	-0,194
11,473	-130,687	-0,337	-0,032
12,488	-64,508	-0,342	-0,097
13,502	-12,268	-0,343	-0,158
14,517	141,213	-0,299	-0,279
15,531	101,837	-0,405	-0,333
16,546	28,307	-0,378	-0,224
17,561	133,121	-0,425	-0,387
18,575	-71,387	-0,266	-0,070
19,590	800,000	-0,097	-0,248
20,604	127,907	-0,274	-0,245
21,619	172,513	-0,320	-0,325
22,634	-1,288	-0,574	-0,285
23,648	39,196	-0,269	-0,169
24,663	97,114	-0,370	-0,299
25,677	520,392	-0,215	-0,357
26,692	12,788	-0,309	-0,168
27,707	14,433	-0,392	-0,215
28,721	75,004	-0,319	-0,236
29,736	100,828	-0,354	-0,290
30,750	-7,183	-0,374	-0,178
31,765	264,602	-0,260	-0,319
32,780	182,165	-0,259	-0,269
33,794	100,708	-0,322	-0,263
34,809	73,922	-0,362	-0,267
35,823	124,108	-0,385	-0,341
36,838	184,499	-0,367	-0,383
37,853	148,551	-0,360	-0,342
38,867	67,306	-0,491	-0,352
39,882	13,111	-0,484	-0,263
40,896	367,099	-0,248	-0,353
41,911	6,585	-0,313	-0,163
42,926	87,321	-0,416	-0,323
43,940	261,745	-0,245	-0,299
44,955	232,118	-0,287	-0,332
45,969	266,189	-0,225	-0,277
46,984	152,579	-0,290	-0,278
47,999	-14,887	-0,454	-0,204
49,013	-83,764	-0,297	-0,066
50,028	101,170	-0,353	-0,289
51,042	126,601	-0,375	-0,334
52,057	-13,458	-0,407	-0,185
53,071	221,661	-0,264	-0,299
54,086	294,276	-0,209	-0,269
55,101	-88,848	-0,318	-0,066
56,115	-30,709	-0,274	-0,108
57,130	-16,196	-0,459	-0,204
58,144	119,641	-0,365	-0,317
59,159	422,794	-0,265	-0,400
60,174	37,644	-0,351	-0,218
61,188	64,615	-0,381	-0,269
62,203	23,236	-0,252	-0,145
63,217	-57,965	-0,405	-0,123
64,232	77,675	-0,263	-0,196
65,247	91,543	-0,427	-0,336
66,261	42,410	-0,293	-0,186
67,276	-25,175	-0,309	-0,128
68,290	-35,150	-0,484	-0,184
69,305	157,984	-0,253	-0,246
70,320	89,125	-0,336	-0,262
71,334	3,857	-0,380	-0,194
72,349	67,657	-0,271	-0,194
73,363	69,280	-0,410	-0,295
74,378	6,574	-0,255	-0,132
75,393	66,739	-0,393	-0,280
76,407	113,043	-0,229	-0,195
77,422	-6,580	-0,327	-0,155
78,436	30,491	-0,245	-0,146
79,451	163,003	-0,307	-0,302
80,466	31,810	-0,271	-0,163
81,480	67,250	-0,273	-0,195
82,495	8,946	-0,373	-0,196
83,509	248,894	-0,289	-0,344
84,524	-88,659	-0,176	-0,036
85,539	-48,550	-0,297	-0,100
86,553	0,155	-0,359	-0,179
87,568	51,160	-0,214	-0,142
88,582	82,540	-0,377	-0,286
89,597	-34,301	-0,316	-0,121
90,611	-42,257	-0,253	-0,090
91,626	101,890	-0,322	-0,263
92,641	-41,875	-0,236	-0,084
93,655	38,516	-0,353	-0,220
94,670	140,350	-0,330	-0,305
95,684	-25,588	-0,373	-0,153
96,699	46,426	-0,324	-0,210
97,714	-11,495	-0,246	-0,113
98,728	-63,879	-0,251	-0,071
99,743	436,540	-0,184	-0,282
100,757	-48,109	-0,174	-0,058
101,772	93,361	-0,219	-0,173
102,787	176,066	-0,238	-0,242
103,801	333,149	-0,169	-0,229
104,816	9,653	-0,242	-0,128
105,830	-25,118	-0,253	-0,105
106,845	61,244	-0,209	-0,145
107,860	60,834	-0,359	-0,248
108,874	12,354	-0,256	-0,137
109,889	104,953	-0,218	-0,179
110,903	16,740	-0,341	-0,188
111,918	185,342	-0,201	-0,209
112,933	101,305	-0,269	-0,219
113,947	19,122	-0,157	-0,088
114,962	-18,839	-0,350	-0,151
115,976	128,423	-0,227	-0,202
116,991	52,101	-0,242	-0,161
118,006	-53,753	-0,286	-0,091
119,020	-32,683	-0,232	-0,090
120,035	-165,499	-0,239	0,007
121,049	76,851	-0,129	-0,096
122,064	-17,609	-0,304	-0,133
123,079	-65,488	-0,317	-0,088
124,093	-18,438	-0,264	-0,114
125,108	1,129	-0,265	-0,132
126,122	-13,034	-0,467	-0,211
127,137	-2,435	-0,231	-0,113
128,151	121,462	-0,158	-0,137
129,166	94,702	-0,266	-0,211
130,181	206,763	-0,213	-0,232
131,195	-76,937	-0,217	-0,053
132,210	84,532	-0,223	-0,170
133,224	43,967	-0,290	-0,185
134,239	-48,288	-0,181	-0,061
135,254	60,232	-0,179	-0,123
136,268	7,263	-0,157	-0,081
137,283	80,905	-0,223	-0,168
138,297	59,039	-0,313	-0,214
139,312	128,488	-0,198	-0,176
140,327	-94,134	-0,227	-0,043
141,341	73,403	-0,227	-0,166
142,356	-177,875	-0,138	-0,002
143,370	33,152	-0,215	-0,130
144,385	-72,669	-0,199	-0,051
145,400	30,926	-0,262	-0,156
146,414	82,806	-0,332	-0,252
147,429	308,798	-0,241	-0,315
148,443	640,706	-0,064	-0,114
149,458	248,729	-0,107	-0,126
150,473	-144,323	-0,179	-0,011
151,487	172,119	-0,192	-0,192
152,502	25,758	-0,342	-0,198
153,516	271,321	-0,213	-0,262
154,531	13,575	-0,202	-0,109
155,546	-164,966	-0,175	-0,005
156,560	73,024	-0,097	-0,071
157,575	-25,299	-0,239	-0,098
158,589	-53,287	-0,248	-0,079
159,604	6,432	-0,301	-0,155
160,619	18,984	-0,266	-0,148
161,633	137,827	-0,286	-0,260
162,648	127,509	-0,146	-0,129
163,662	269,670	-0,142	-0,174
164,677	261,100	-0,226	-0,272
165,692	116,777	-0,175	-0,149
166,706	-6,247	-0,212	-0,100
167,721	103,163	-0,329	-0,268
168,735	195,408	-0,234	-0,247
169,750	242,006	-0,110	-0,128
170,764	532,189	-0,093	-0,154
171,779	294,249	-0,096	-0,123
172,794	49,085	-0,224	-0,146
173,808	40,790	-0,360	-0,225
174,823	585,925	-0,176	-0,303
175,837	54,927	-0,146	-0,098
176,852	-87,937	-0,192	-0,040
177,867	165,351	-0,229	-0,225
178,881	-54,477	-0,217	-0,068
179,896	-108,150	-0,240	0,036
180,910	-162,059	-0,177	0,006
181,925	-8,453	-0,291	-0,135
182,940	240,452	-0,183	-0,213
183,954	-18,013	-0,324	-0,141
184,969	9,998	-0,330	-0,174
185,983	454,551	-0,178	-0,275
186,998	-86,578	-0,159	-0,034
188,013	76,666	-0,230	-0,169
189,027	41,760	-0,250	-0,157
190,042	158,674	-0,215	-0,208
191,056	119,466	-0,116	-0,100
192,071	0,831	-0,156	-0,077
193,086	393,964	-0,087	-0,126
194,100	-115,239	-0,197	-0,026
195,115	19,210	-0,187	-0,104
196,129	386,018	-0,136	-0,195
197,144	212,478	-0,260	-0,285
198,159	76,265	-0,292	-0,214
199,173	540,199	-0,114	-0,188
200,188	-30,261	-0,168	-0,066
201,202	-2,736	-0,142	-0,069
202,217	-62,728	-0,168	0,048
203,232	-158,193	-0,271	-0,011
204,246	-163,262	-0,181	0,006
205,261	54,978	-0,182	-0,121
206,275	142,007	-0,261	-0,240
207,290	125,579	-0,164	-0,143
208,304	183,175	-0,176	-0,180
209,319	181,149	-0,200	-0,204
210,334	166,420	-0,125	-0,123
211,348	105,809	-0,372	-0,305
212,363	122,893	-0,182	-0,158
213,377	253,234	-0,175	-0,207
214,392	-21,517	-0,139	-0,058
215,407	-59,155	-0,238	-0,071
216,421	800,000	-0,066	-0,169
217,436	108,900	-0,166	-0,138
218,450	-67,178	-0,263	-0,071
219,465	28,834	-0,269	-0,157
220,480	132,442	-0,312	-0,279
221,494	-26,912	-0,201	-0,081
222,509	86,766	-0,161	-0,123
223,523	65,696	-0,113	-0,079
224,538	-85,852	-0,281	-0,060
225,553	-161,932	-0,217	-0,007
226,567	-8,834	-0,207	-0,096
227,582	-71,795	-0,192	-0,049
228,596	-19,328	-0,071	-0,030
229,611	800,000	-0,099	-0,268
230,626	800,000	-0,134	-0,278
231,640	-0,739	-0,153	-0,075
232,655	208,684	-0,209	-0,227
233,669	110,283	-0,286	-0,237
234,684	5,627	-0,175	-0,089
235,699	-200,000	-0,029	-0,253
236,713	-79,370	-0,199	0,046
237,728	-73,466	-0,153	-0,038
238,742	-141,781	-0,248	0,017
239,757	66,728	-0,187	-0,131
240,772	-200,000	-0,070	-0,263
241,786	153,140	-0,176	-0,166
242,801	-83,556	-0,250	-0,055
243,815	35,472	-0,145	-0,088
244,830	-137,779	-0,129	-0,010
245,844	-40,008	-0,206	-0,074
246,859	43,858	-0,189	-0,120
247,874	-4,106	-0,231	-0,110
248,888	185,867	-0,139	-0,143
249,903	54,194	-0,146	-0,097
250,917	366,136	-0,051	-0,071
251,932	-160,327	-0,204	-0,007
252,947	800,000	-0,111	-0,230
253,961	-38,631	-0,208	-0,075
254,976	153,643	-0,184	-0,174
255,990	-174,234	-0,249	0,005
257,005	27,140	-0,203	-0,117
258,020	-10,860	-0,179	-0,081
259,034	229,361	-0,167	-0,189
260,049	-14,227	-0,298	-0,132
261,063	-200,000	-0,040	-0,146
262,078	64,910	-0,273	-0,190
263,093	244,012	-0,145	-0,169
264,107	408,865	-0,150	-0,220
265,122	800,000	-0,018	-0,050
266,136	171,872	-0,126	-0,125
267,151	136,514	-0,114	0,102
268,166	-66,192	-0,319	-0,087
269,180	21,582	-0,185	-0,103
270,195	103,568	-0,238	-0,192
271,209	198,756	-0,233	-0,246
272,224	-200,000	-0,069	-0,301
273,239	107,915	-0,208	-0,170
274,253	-200,000	-0,057	-0,174
275,268	122,727	-0,124	-0,107
276,282	146,882	-0,114	-0,106
277,297	44,444	-0,199	-0,126
278,312	800,000	-0,103	-0,210
279,326	593,421	-0,098	-0,168
280,341	800,000	-0,103	-0,231
281,355	53,448	-0,118	-0,078
282,370	39,844	-0,166	-0,102
283,384	-81,004	-0,198	-0,045
284,399	800,000	-0,129	-0,265
285,414	635,610	-0,150	-0,264
286,428	-42,851	-0,182	-0,063
287,443	77,010	-0,200	-0,146
288,457	159,971	-0,119	-0,114
289,472	408,303	-0,124	-0,180
290,487	-43,071	-0,243	-0,084
291,501	-43,121	-0,127	-0,044
292,516	-35,844	-0,168	-0,062
293,530	193,224	-0,066	-0,069
294,545	15,297	-0,227	-0,122
295,560	367,830	-0,056	-0,079
296,574	18,624	-0,229	-0,126
297,589	-200,000	-0,035	-0,118
298,603	26,188	-0,139	-0,080
299,618	145,292	-0,167	-0,154
300,633	199,518	-0,113	-0,119
301,647	-168,927	-0,105	0,003
302,662	72,069	-0,090	-0,065
303,676	-74,596	-0,217	-0,053
304,691	56,090	-0,225	-0,150
305,706	-171,115	-0,201	-0,005
306,720	800,000	-0,076	-0,160
307,735	72,808	-0,152	-0,109
308,749	141,058	-0,126	-0,114
309,764	51,399	-0,108	-0,070
310,779	-140,845	-0,195	-0,014
311,793	10,812	-0,184	-0,096
312,808	396,562	-0,108	-0,155
313,822	-58,177	-0,201	-0,060
314,837	-15,945	-0,286	-0,124
315,852	1,941	-0,173	-0,085
316,866	160,648	-0,170	-0,163
317,881	-200,000	-0,010	-0,203
318,895	800,000	-0,035	-0,073
319,910	196,250	-0,248	-0,260
320,925	279,712	-0,091	-0,112
321,939	-63,636	-0,160	-0,045
322,954	78,022	-0,101	-0,074
323,968	424,432	-0,091	-0,134
324,983	-153,095	-0,053	0,002
325,997	-106,511	-0,148	-0,022
327,012	-200,000	-0,009	-0,133
328,027	27,458	-0,119	-0,068
329,041	65,965	-0,118	-0,082
330,056	-200,000	-0,015	-0,090
331,070	416,315	-0,087	0,127
332,085	-187,998	-0,256	-0,002
333,100	309,234	-0,191	-0,245
334,114	-63,472	-0,167	-0,047
335,129	-23,183	-0,168	-0,069
336,143	459,889	-0,061	-0,094
337,158	-4,342	-0,055	-0,026
338,173	-55,298	-0,098	0,030
339,187	528,367	-0,044	0,071
340,202	190,007	-0,073	-0,075
341,216	-110,076	-0,138	0,020
342,231	480,051	-0,125	-0,195
343,246	28,738	-0,116	-0,067
344,260	-106,338	-0,248	-0,038
345,275	52,047	-0,059	-0,039
346,289	95,017	-0,127	-0,099
347,304	139,633	-0,108	-0,097
348,319	800,000	-0,122	-0,243
349,333	-55,065	-0,149	-0,046
350,348	-96,737	-0,200	-0,036
351,362	-101,603	-0,163	-0,027
352,377	-100,225	-0,114	0,019
353,392	437,433	-0,080	-0,120
354,406	283,281	-0,157	-0,193
355,421	206,702	1307,372	1394,860
356,435	158,979	1467,184	1395,346
