DTS Sentinel unit serial number:	SN410029Multiplexer serial number:	ORYXHardware model number:	OX2-SRSoftware version number:	ORYX F/W v4,00 Oryx Data Collector v3.7.2.0data status	okinstallation	B3 Nyhavnadifferential loss correction	single-endedforward channel	channel 1reverse channel	N/Adate	2023/12/03time	03:37:30forward acquisition time	300,00reverse acquisition time	0,00gamma	499,1914k internal	0,3201k external	0,3201temperature offset calibration	1,0000default loss term (dB/km)	0,3820temperature slope calibration	1,0000multiplexer offset coefficient	1,0000multiplexer slope coefficient	1,0000fibre end	0,00T internal ref (°C)	13,31T ext. ref 1 (°C)	-1,77T ext. ref 2 (°C)	-1,77length (m)	temperature (°C)	Stokes	anti-Stokes-744,400	0,507	-0,288	-0,149
-743,385	-200,000	0,060	0,344
-742,371	-173,382	-0,337	-0,007
-741,356	800,000	0,129	0,368
-740,342	-18,774	-0,241	-0,109
-739,327	676,305	0,080	0,152
-738,312	-200,000	-0,077	-0,330
-737,298	800,000	0,082	0,204
-736,283	94,390	-0,214	-0,177
-735,269	437,093	0,170	0,270
-734,254	295,314	-0,279	-0,373
-733,239	-8,238	-0,160	0,078
-732,225	-30,895	-0,171	-0,070
-731,210	-41,619	0,136	0,051
-730,196	-137,690	-0,059	-0,005
-729,181	-200,000	-0,012	0,075
-728,167	-14,416	0,018	0,008
-727,152	-200,000	-0,001	-0,064
-726,137	800,000	0,030	-0,076
-725,123	-99,821	-0,073	-0,013
-724,108	-200,000	0,001	-0,064
-723,094	-200,000	-0,009	-0,063
-722,079	-62,253	0,115	-0,035
-721,064	-200,000	0,006	-0,028
-720,050	-4,052	-0,193	-0,097
-719,035	167,838	-0,067	-0,070
-718,021	-91,656	-0,143	0,029
-717,006	222,875	0,029	-0,034
-715,991	-103,726	-0,136	0,023
-714,977	686,517	-0,003	-0,005
-713,962	-200,000	0,006	0,085
-712,948	-200,000	0,003	0,074
-711,933	-49,998	0,115	-0,039
-710,918	-200,000	-0,011	-0,168
-709,904	800,000	0,039	-0,089
-708,889	-23,254	-0,060	0,026
-707,875	-3,550	-0,047	-0,024
-706,860	-29,951	-0,134	-0,055
-705,845	-200,000	0,012	-0,084
-704,831	800,000	0,023	-0,064
-703,816	303,823	-0,016	0,021
-702,802	266,690	0,053	-0,067
-701,787	-102,049	0,033	-0,006
-700,772	385,466	-0,066	-0,099
-699,758	-200,000	-0,005	0,133
-698,743	12,672	0,119	0,067
-697,729	177,301	0,044	-0,047
-696,714	-85,203	-0,173	0,039
-695,699	5,807	0,113	0,060
-694,685	-200,000	-0,019	-0,089
-693,670	-65,656	-0,132	-0,038
-692,656	173,498	0,032	-0,033
-691,641	-121,929	-0,066	0,008
-690,627	800,000	-0,042	-0,100
-689,612	199,199	0,044	0,049
-688,597	-86,852	-0,070	-0,015
-687,583	165,615	-0,102	-0,105
-686,568	157,143	-0,035	-0,036
-685,554	7,212	-0,154	-0,083
-684,539	-200,000	0,007	-0,049
-683,524	800,000	-0,053	0,121
-682,510	-114,983	-0,111	0,015
-681,495	102,766	-0,085	-0,072
-680,481	800,000	-0,029	0,066
-679,466	-14,897	-0,122	-0,056
-678,451	-200,000	0,003	-0,100
-677,437	-40,529	-0,100	0,037
-676,422	800,000	0,017	0,036
-675,408	-51,785	-0,094	0,032
-674,393	-50,563	0,118	0,040
-673,378	59,281	0,040	0,029
-672,364	-125,918	-0,120	-0,013
-671,349	-71,057	-0,096	0,026
-670,335	337,807	0,047	0,066
-669,320	-130,956	0,078	0,007
-668,305	25,150	-0,059	-0,035
-667,291	-99,198	-0,098	-0,018
-666,276	-14,098	-0,085	0,040
-665,262	212,064	-0,128	-0,146
-664,247	-51,302	-0,142	-0,048
-663,232	257,394	0,067	0,083
-662,218	-200,000	0,006	0,053
-661,203	126,562	0,017	-0,016
-660,189	-12,308	-0,090	0,043
-659,174	-44,248	-0,170	-0,061
-658,159	-200,000	-0,015	0,134
-657,145	211,668	-0,047	-0,054
-656,130	-133,165	0,089	-0,008
-655,116	-200,000	0,001	-0,086
-654,101	-26,236	-0,070	-0,030
-653,086	7,911	-0,118	0,064
-652,072	212,122	-0,060	0,069
-651,057	800,000	-0,007	-0,014
-650,043	429,136	-0,057	0,090
-649,028	-20,277	0,058	0,026
-648,014	68,754	0,056	0,042
-646,999	98,985	0,091	-0,076
-645,984	-151,927	-0,065	-0,003
-644,970	800,000	-0,024	-0,073
-643,955	265,963	-0,173	-0,219
-642,941	-30,712	-0,076	0,031
-641,926	177,189	0,079	0,083
-640,911	-68,145	-0,090	-0,025
-639,897	655,556	0,027	-0,051
-638,882	437,048	0,049	0,078
-637,868	6,282	-0,152	-0,081
-636,853	-176,621	-0,228	-0,004
-635,838	53,848	-0,048	0,033
-634,824	-52,450	0,037	0,012
-633,809	-200,000	-0,002	0,058
-632,795	-200,000	0,031	0,128
-631,780	430,811	0,088	0,139
-630,765	180,953	-0,042	0,045
-629,751	-84,816	-0,145	0,033
-628,736	24,179	-0,043	0,025
-627,722	-15,935	-0,095	-0,044
-626,707	170,253	0,031	-0,033
-625,692	-200,000	-0,070	0,266
-624,678	800,000	0,020	-0,046
-623,663	151,260	-0,055	0,054
-622,649	398,212	-0,049	-0,075
-621,634	-152,566	-0,044	0,002
-620,619	90,349	0,158	-0,128
-619,605	-88,348	-0,177	0,038
-618,590	-44,603	-0,091	0,033
-617,576	-200,000	0,043	-0,147
-616,561	14,342	0,056	0,031
-615,546	264,582	0,044	0,056
-614,532	-78,951	-0,177	-0,043
-613,517	-15,004	-0,044	-0,021
-612,503	-127,023	0,015	0,002
-611,488	-200,000	0,032	0,178
-610,474	800,000	0,046	0,131
-609,459	-121,761	-0,083	0,010
-608,444	-200,000	-0,011	-0,184
-607,430	-200,000	0,016	-0,097
-606,415	-142,529	0,107	-0,007
-605,401	-200,000	-0,013	-0,068
-604,386	-200,000	0,001	0,021
-603,371	-76,429	0,094	0,024
-602,357	-200,000	0,004	0,143
-601,342	180,568	-0,098	0,104
-600,328	-200,000	0,014	-0,073
-599,313	52,493	0,086	-0,059
-598,298	-94,308	-0,022	-0,004
-597,284	-200,000	-0,023	0,178
-596,269	64,867	-0,129	0,094
-595,255	-20,897	-0,026	-0,011
-594,240	-76,156	-0,142	0,036
-593,225	-88,070	0,057	-0,012
-592,211	166,322	-0,057	0,058
-591,196	-43,750	0,047	-0,017
-590,182	237,219	-0,008	-0,010
-589,167	-90,700	0,070	0,014
-588,152	180,406	-0,062	-0,066
-587,138	800,000	-0,048	-0,130
-586,123	800,000	-0,038	-0,094
-585,109	-200,000	0,005	-0,024
-584,094	-94,151	-0,097	0,019
-583,079	-200,000	-0,003	-0,037
-582,065	-200,000	-0,000	0,073
-581,050	-200,000	-0,019	0,126
-580,036	35,005	-0,046	-0,029
-579,021	256,884	-0,024	-0,029
-578,006	259,361	-0,040	-0,050
-576,992	-43,605	0,135	-0,049
-575,977	101,368	-0,042	0,035
-574,963	-8,201	-0,019	0,009
-573,948	96,446	0,100	0,083
-572,934	-200,000	0,001	0,044
-571,919	-200,000	0,016	-0,119
-570,904	44,739	0,079	0,053
-569,890	-200,000	0,038	-0,169
-568,875	-200,000	0,008	0,025
-567,861	-82,888	0,115	-0,027
-566,846	-200,000	-0,001	-0,075
-565,831	-48,587	-0,029	0,010
-564,817	66,291	0,040	0,029
-563,802	94,192	-0,151	-0,124
-562,788	-200,000	0,008	-0,046
-561,773	361,496	-0,084	0,121
-560,758	-100,467	0,143	-0,025
-559,744	233,847	0,035	0,041
-558,729	296,755	-0,121	0,160
-557,715	-74,284	0,043	-0,011
-556,700	-3,799	-0,039	-0,020
-555,685	107,831	-0,053	-0,046
-554,671	-46,251	0,195	-0,069
-553,656	206,819	-0,083	0,093
-552,642	-200,000	0,099	0,000
-551,627	11,388	0,090	0,050
-550,612	431,926	0,020	-0,032
-549,598	-140,824	-0,123	0,009
-548,583	154,659	0,034	0,034
-547,569	800,000	0,062	-0,131
-546,554	148,196	-0,024	-0,023
-545,539	-200,000	0,025	0,089
-544,525	478,161	-0,023	-0,038
-543,510	-200,000	-0,002	0,017
-542,496	-137,114	-0,061	0,005
-541,481	137,699	-0,058	-0,055
-540,466	332,867	0,094	-0,132
-539,452	-200,000	0,013	-0,076
-538,437	576,620	0,054	-0,096
-537,423	-200,000	-0,008	-0,063
-536,408	500,994	-0,057	0,096
-535,393	-139,415	-0,106	0,008
-534,379	119,463	-0,030	-0,027
-533,364	201,288	0,129	-0,143
-532,350	-18,990	0,095	0,043
-531,335	-200,000	0,045	-0,177
-530,321	177,439	0,067	-0,070
-529,306	8,408	0,049	-0,026
-528,291	35,119	-0,137	-0,086
-527,277	208,728	0,005	-0,005
-526,262	-139,530	-0,048	0,004
-525,248	800,000	0,005	-0,011
-524,233	-200,000	0,000	0,024
-523,218	800,000	-0,029	0,063
-522,204	-200,000	-0,025	0,149
-521,189	99,966	-0,070	-0,058
-520,175	-90,286	-0,055	-0,011
-519,160	-126,895	0,083	-0,009
-518,145	800,000	0,030	-0,069
-517,131	366,809	0,098	0,143
-516,116	800,000	-0,043	0,100
-515,102	-72,730	0,131	-0,035
-514,087	189,489	-0,061	-0,066
-513,072	471,126	-0,062	-0,101
-512,058	236,829	-0,029	0,034
-511,043	-140,527	0,133	0,010
-510,029	800,000	-0,055	0,138
-509,014	-200,000	-0,007	0,151
-507,999	800,000	-0,028	0,085
-506,985	363,260	0,044	0,064
-505,970	-95,970	-0,128	-0,024
-504,956	-109,633	-0,057	-0,009
-503,941	-200,000	0,014	-0,197
-502,926	-161,628	0,007	-0,000
-501,912	800,000	0,021	-0,048
-500,897	800,000	-0,049	-0,133
-499,883	554,129	0,045	-0,078
-498,868	-200,000	-0,010	-0,092
-497,853	153,299	0,076	0,075
-496,839	124,061	0,074	-0,067
-495,824	236,818	0,036	0,043
-494,810	-16,891	0,155	0,070
-493,795	-118,882	-0,096	-0,012
-492,781	70,977	-0,070	0,052
-491,766	-15,238	0,150	-0,069
-490,751	-200,000	-0,014	0,052
-489,737	-200,000	-0,002	0,010
-488,722	-200,000	-0,014	0,136
-487,708	-27,058	0,033	0,014
-486,693	65,177	-0,124	0,090
-485,678	228,392	0,050	0,058
-484,664	9,045	-0,027	-0,015
-483,649	-58,749	-0,052	-0,016
-482,635	-140,756	-0,077	-0,006
-481,620	174,881	0,106	0,111
-480,605	-200,000	0,015	-0,108
-479,591	-26,581	-0,121	0,051
-478,576	-200,000	0,034	0,132
-477,562	383,966	0,053	-0,079
-476,547	800,000	0,009	0,024
-475,532	-200,000	0,012	-0,048
-474,518	86,138	-0,036	0,029
-473,503	15,603	-0,070	-0,039
-472,489	-70,552	-0,044	0,012
-471,474	-200,000	-0,013	0,042
-470,459	52,287	-0,082	-0,057
-469,445	94,512	-0,084	-0,068
-468,430	44,551	-0,038	0,025
-467,416	-71,518	0,080	-0,021
-466,401	800,000	-0,028	0,074
-465,386	188,554	0,066	-0,071
-464,372	181,638	0,065	-0,068
-463,357	-141,221	-0,176	0,013
-462,343	-200,000	-0,016	-0,052
-461,328	-200,000	0,034	-0,118
-460,313	-200,000	-0,038	0,154
-459,299	-156,499	0,060	-0,003
-458,284	800,000	-0,064	-0,183
-457,270	-59,971	0,041	0,013
-456,255	268,011	-0,116	-0,146
-455,241	-200,000	-0,016	-0,076
-454,226	-135,700	0,097	-0,008
-453,211	-200,000	-0,009	-0,064
-452,197	800,000	0,028	-0,071
-451,182	153,538	-0,038	0,038
-450,168	800,000	-0,006	0,016
-449,153	-33,807	-0,162	0,064
-448,138	-100,099	0,042	-0,007
-447,124	27,937	0,054	-0,033
-446,109	-47,566	0,115	-0,040
-445,095	-123,723	0,088	-0,010
-444,080	-200,000	-0,018	0,074
-443,065	-200,000	0,006	-0,069
-442,051	-80,835	-0,050	0,012
-441,036	800,000	-0,003	-0,009
-440,022	-69,853	-0,120	0,033
-439,007	-126,588	0,113	0,012
-437,992	-200,000	-0,034	-0,136
-436,978	237,649	0,057	-0,069
-435,963	800,000	-0,029	0,072
-434,949	38,565	0,071	-0,046
-433,934	36,615	-0,088	-0,055
-432,919	145,425	0,194	-0,186
-431,905	82,084	0,026	-0,021
-430,890	318,232	0,029	-0,039
-429,876	800,000	0,027	-0,065
-428,861	84,385	0,041	-0,032
-427,846	-91,696	-0,153	0,031
-426,832	122,101	-0,076	-0,068
-425,817	360,086	-0,060	-0,086
-424,803	800,000	-0,007	-0,015
-423,788	-200,000	-0,009	0,035
-422,773	-90,386	-0,039	0,008
-421,759	490,434	0,080	-0,132
-420,744	-200,000	0,004	-0,088
-419,730	-97,730	-0,102	-0,019
-418,715	-25,574	-0,083	-0,035
-417,701	152,893	-0,088	-0,086
-416,686	128,325	0,049	-0,045
-415,671	279,547	-0,018	-0,023
-414,657	-146,097	0,149	-0,009
-413,642	94,887	-0,075	0,061
-412,628	573,048	0,029	-0,052
-411,613	-13,532	-0,089	0,041
-410,598	800,000	-0,037	0,097
-409,584	157,701	0,125	0,125
-408,569	-200,000	0,003	-0,019
-407,555	-112,285	0,166	-0,024
-406,540	787,805	0,059	-0,117
-405,525	-200,000	-0,009	-0,197
-404,511	-116,848	-0,115	-0,015
-403,496	256,384	-0,040	0,049
-402,482	-200,000	-0,009	0,117
-401,467	-87,052	0,089	-0,019
-400,452	447,952	0,059	-0,093
-399,438	-130,769	0,174	-0,017
-398,423	-120,501	-0,084	-0,010
-397,409	-0,124	-0,030	-0,015
-396,394	16,222	-0,056	-0,032
-395,379	62,557	0,170	-0,122
-394,365	800,000	0,035	-0,103
-393,350	573,182	0,038	-0,066
-392,336	410,198	-0,061	0,092
-391,321	-200,000	-0,004	0,058
-390,306	65,560	0,033	-0,024
-389,292	528,224	-0,052	0,089
-388,277	183,385	0,073	0,078
-387,263	-200,000	-0,003	-0,036
-386,248	189,916	0,118	-0,128
-385,233	-200,000	-0,001	-0,010
-384,219	75,924	-0,124	-0,094
-383,204	459,505	-0,096	-0,153
-382,190	-36,027	0,104	-0,040
-381,175	800,000	0,040	-0,100
-380,160	800,000	-0,019	0,056
-379,146	215,321	0,057	0,065
-378,131	-200,000	-0,020	0,077
-377,117	615,347	-0,041	-0,075
-376,102	-200,000	-0,011	-0,263
-375,088	301,169	-0,109	-0,144
-374,073	-19,222	0,010	-0,004
-373,058	187,856	0,045	-0,048
-372,044	-32,956	-0,024	-0,009
-371,029	800,000	-0,070	0,197
-370,015	285,189	0,102	-0,133
-369,000	24,015	-0,065	-0,038
-367,985	-83,510	-0,132	-0,030
-366,971	-112,541	-0,061	-0,009
-365,956	-80,250	0,023	0,005
-364,942	800,000	0,021	-0,044
-363,927	401,200	0,041	0,061
-362,912	502,719	0,029	0,047
-361,898	98,120	-0,040	0,033
-360,883	273,498	0,065	-0,082
-359,869	57,749	-0,141	0,099
-358,854	-88,187	0,145	0,031
-357,839	-134,759	0,048	-0,004
-356,825	-163,745	-0,040	-0,001
-355,810	-91,274	-0,129	-0,026
-354,796	-53,028	0,106	0,035
-353,781	260,199	0,030	-0,037
-352,766	123,403	0,010	-0,009
-351,752	-200,000	-0,006	0,052
-350,737	-200,000	-0,008	0,061
-349,723	-64,095	0,137	0,040
-348,708	7,099	-0,073	-0,039
-347,693	20,227	0,108	-0,062
-346,679	-200,000	0,004	0,045
-345,664	211,350	-0,058	-0,065
-344,650	621,469	-0,022	0,040
-343,635	-200,000	-0,006	0,057
-342,620	144,711	0,146	0,140
-341,606	187,574	-0,086	0,092
-340,591	344,305	0,019	0,027
-339,577	61,279	-0,042	0,030
-338,562	102,455	0,021	0,018
-337,548	-200,000	-0,002	-0,090
-336,533	165,099	-0,066	0,067
-335,518	79,847	0,162	0,124
-334,504	-167,672	0,133	-0,004
-333,489	800,000	-0,025	0,056
-332,475	800,000	0,022	0,047
-331,460	-130,819	-0,180	-0,017
-330,445	113,738	0,156	0,136
-329,431	294,679	0,066	0,087
-328,416	800,000	0,027	0,063
-327,402	-70,723	-0,084	0,023
-326,387	8,885	-0,151	0,081
-325,372	-27,104	-0,134	0,056
-324,358	-159,928	-0,152	-0,006
-323,343	-118,847	-0,031	-0,004
-322,329	329,940	-0,042	-0,057
-321,314	-29,470	0,117	-0,048
-320,299	174,905	0,014	-0,015
-319,285	-200,000	-0,007	0,044
-318,270	36,548	-0,098	-0,062
-317,256	800,000	0,003	0,007
-316,241	-200,000	0,006	0,020
-315,226	-39,373	0,102	0,038
-314,212	-141,393	0,074	-0,005
-313,197	-17,719	-0,058	0,026
-312,183	-86,345	-0,120	0,026
-311,168	618,272	-0,023	0,042
-310,153	-13,635	-0,138	0,064
-309,139	800,000	0,045	-0,112
-308,124	567,227	-0,042	0,074
-307,110	-200,000	0,023	0,170
-306,095	186,767	-0,092	0,098
-305,080	283,160	-0,043	0,055
-304,066	254,606	0,044	0,054
-303,051	800,000	-0,050	-0,128
-302,037	-84,030	0,102	0,023
-301,022	672,520	-0,020	-0,037
-300,008	-174,132	0,120	0,002
-298,993	-60,028	0,077	0,023
-297,978	800,000	0,015	0,033
-296,964	96,254	-0,055	-0,045
-295,949	800,000	0,036	-0,076
-294,935	561,784	0,015	-0,026
-293,920	35,022	0,137	0,085
-292,905	800,000	-0,021	0,058
-291,891	697,769	0,056	0,105
-290,876	800,000	-0,035	0,098
-289,862	-66,335	-0,078	-0,022
-288,847	19,678	-0,082	-0,047
-287,832	-200,000	0,002	-0,040
-286,818	-23,321	0,099	-0,042
-285,803	-99,006	0,096	0,017
-284,789	-200,000	-0,025	0,103
-283,774	355,015	0,089	0,127
-282,759	55,735	0,052	0,036
-281,745	-9,965	0,032	-0,015
-280,730	-82,247	-0,143	-0,033
-279,716	800,000	-0,019	-0,046
-278,701	-10,676	0,114	-0,054
-277,686	-10,737	0,125	-0,059
-276,672	43,138	-0,067	-0,044
-275,657	-57,129	-0,106	-0,033
-274,643	-200,000	-0,027	-0,110
-273,628	164,132	-0,123	-0,124
-272,613	800,000	0,023	-0,047
-271,599	-200,000	0,029	-0,161
-270,584	-169,203	-0,078	0,002
-269,570	501,106	0,040	-0,066
-268,555	-41,923	0,143	-0,052
-267,540	435,514	0,053	-0,082
-266,526	-156,782	0,049	0,002
-265,511	-200,000	-0,031	0,112
-264,497	-26,542	0,173	0,072
-263,482	-50,829	-0,062	0,021
-262,467	83,457	0,067	0,052
-261,453	3,627	0,184	0,096
-260,438	426,306	-0,036	0,055
-259,424	-43,426	-0,034	-0,012
-258,409	-200,000	-0,029	-0,130
-257,395	235,923	0,096	-0,114
-256,380	-38,137	-0,107	0,040
-255,365	-50,868	0,166	0,055
-254,351	800,000	0,068	0,151
-253,336	300,895	-0,147	0,195
-252,322	-200,000	-0,021	0,070
-251,307	800,000	-0,024	0,067
-250,292	257,598	-0,030	0,037
-249,278	481,616	-0,051	0,084
-248,263	580,053	-0,040	0,070
-247,249	-200,000	-0,034	0,109
-246,234	81,360	-0,023	-0,018
-245,219	300,630	0,065	-0,086
-244,205	-88,820	-0,114	-0,024
-243,190	30,549	0,040	-0,024
-242,176	-200,000	0,028	0,148
-241,161	537,360	-0,087	0,148
-240,146	788,482	-0,047	0,092
-239,132	244,181	0,104	-0,124
-238,117	382,337	-0,085	-0,125
-237,103	-88,981	-0,095	0,020
-236,088	14,235	0,077	0,043
-235,073	118,101	-0,008	-0,007
-234,059	800,000	-0,023	0,054
-233,044	-200,000	0,021	0,129
-232,030	199,220	0,029	-0,032
-231,015	-145,729	-0,111	-0,007
-230,000	-200,000	-0,016	-0,096
-228,986	296,350	-0,076	-0,100
-227,971	141,932	0,042	0,040
-226,957	167,491	0,081	0,082
-225,942	245,728	0,039	-0,047
-224,927	184,070	-0,043	0,045
-223,913	-63,065	-0,019	-0,006
-222,898	52,663	0,027	-0,018
-221,884	-11,300	-0,055	-0,026
-220,869	80,569	-0,040	0,031
-219,855	115,736	0,037	0,033
-218,840	195,859	0,109	0,119
-217,825	-30,643	-0,147	0,059
-216,811	-122,203	-0,009	0,001
-215,796	800,000	-0,040	0,117
-214,782	102,567	0,062	-0,052
-213,767	800,000	0,045	-0,091
-212,752	-200,000	0,009	-0,101
-211,738	800,000	0,055	0,123
-210,723	66,110	-0,040	0,029
-209,709	-157,404	0,085	-0,004
-208,694	-200,000	0,005	-0,171
-207,679	-200,000	0,002	0,147
-206,665	-187,560	0,138	0,001
-205,650	236,322	0,099	0,116
-204,636	-200,000	0,006	0,049
-203,621	-200,000	0,004	-0,041
-202,606	-160,633	-0,079	-0,003
-201,592	-54,219	0,113	0,036
-200,577	148,195	0,085	-0,081
-199,563	92,598	0,050	0,040
-198,548	60,270	-0,044	-0,031
-197,533	277,153	-0,069	0,088
-196,519	800,000	0,018	0,048
-195,504	97,999	0,006	0,005
-194,490	190,022	-0,068	-0,072
-193,475	-94,936	-0,065	-0,012
-192,460	-200,000	-0,002	-0,006
-191,446	800,000	0,051	0,110
-190,431	800,000	0,041	0,128
-189,417	-200,000	-0,008	0,114
-188,402	341,145	0,101	0,140
-187,387	-200,000	0,037	-0,127
-186,373	-48,364	-0,036	0,012
-185,358	503,907	-0,048	-0,079
-184,344	-96,768	0,154	-0,029
-183,329	588,429	-0,058	0,102
-182,315	800,000	0,036	0,112
-181,300	-86,256	-0,062	-0,013
-180,285	-97,662	0,091	0,017
-179,271	-66,510	-0,065	0,018
-178,256	173,329	-0,085	0,087
-177,242	45,904	0,061	-0,040
-176,227	-81,080	-0,066	0,016
-175,212	800,000	0,030	0,085
-174,198	102,236	0,105	-0,088
-173,183	658,362	0,033	-0,061
-172,169	-1,768	-0,115	0,057
-171,154	-200,000	-0,007	-0,067
-170,139	-183,545	0,038	-0,000
-169,125	159,393	0,126	0,125
-168,110	-4,960	0,100	-0,049
-167,096	87,206	-0,120	-0,094
-166,081	10,038	-0,027	-0,014
-165,066	-84,613	-0,083	0,018
-164,052	-35,544	0,063	-0,024
-163,037	734,929	0,059	-0,112
-162,023	181,307	0,015	0,015
-161,008	391,545	-0,049	-0,073
-159,993	-68,660	0,048	0,013
-158,979	183,860	0,092	-0,097
-157,964	-200,000	-0,022	0,075
-156,950	-107,179	-0,082	-0,013
-155,935	-147,633	-0,063	-0,004
-154,920	152,580	0,093	0,090
-153,906	70,330	0,035	-0,026
-152,891	152,546	0,088	0,086
-151,877	40,333	0,032	-0,020
-150,862	-200,000	0,020	-0,076
-149,847	800,000	0,025	0,059
-148,833	800,000	-0,057	-0,124
-147,818	139,093	-0,071	0,066
-146,804	408,895	-0,053	0,080
-145,789	-0,036	0,136	-0,069
-144,775	-200,000	-0,012	-0,079
-143,760	-155,214	-0,118	0,005
-142,745	782,784	0,055	-0,108
-141,731	-125,004	-0,173	-0,019
-140,716	95,780	0,063	-0,051
-139,702	800,000	0,010	0,021
-138,687	229,077	0,122	0,142
-137,672	-115,173	-0,081	0,011
-136,658	382,919	0,053	0,078
-135,643	290,448	0,080	-0,104
-134,629	755,122	-0,025	-0,049
-133,614	102,401	0,053	0,044
-132,599	434,750	-0,058	0,090
-131,585	231,636	0,101	0,118
-130,570	-109,281	-0,120	0,018
-129,556	-101,089	-0,134	0,023
-128,541	22,211	0,067	-0,039
-127,526	800,000	0,013	0,032
-126,512	60,363	-0,094	0,066
-125,497	-200,000	-0,005	-0,053
-124,483	-52,136	-0,056	-0,018
-123,468	800,000	0,006	-0,016
-122,453	-19,091	0,114	0,050
-121,439	-174,162	-0,041	0,001
-120,424	-200,000	0,049	-0,219
-119,410	285,144	-0,048	0,062
-118,395	661,859	0,081	0,150
-117,380	-97,702	0,130	0,024
-116,366	-93,956	-0,175	-0,034
-115,351	800,000	-0,025	0,064
-114,337	-200,000	0,002	-0,147
-113,322	100,359	-0,056	-0,046
-112,307	-59,757	0,148	0,045
-111,293	784,114	-0,080	0,157
-110,278	149,031	-0,117	0,113
-109,264	-200,000	0,003	0,133
-108,249	-126,208	0,024	-0,003
-107,234	455,877	0,031	0,048
-106,220	332,289	-0,009	-0,012
-105,205	-57,429	0,159	-0,049
-104,191	-200,000	0,002	0,018
-103,176	609,962	0,065	0,116
-102,162	64,225	-0,089	0,063
-101,147	-25,174	-0,007	0,003
-100,132	-94,793	-0,077	-0,015
-99,118	-89,679	0,078	0,016
-98,103	-167,696	0,083	-0,002
-97,089	264,918	0,083	-0,103
-96,074	-200,000	0,168	0,000
-95,059	323,856	-0,041	-0,055
-94,045	-200,000	-0,002	-0,015
-93,030	-145,718	-0,011	-0,001
-92,016	800,000	0,045	-0,107
-91,001	-104,742	0,021	0,003
-89,986	-200,000	-0,010	-0,069
-88,972	-35,499	0,127	-0,049
-87,957	-7,764	-0,041	-0,019
-86,943	-87,290	-0,090	-0,019
-85,928	800,000	-0,038	0,080
-84,913	14,289	0,158	-0,087
-83,899	-200,000	-0,008	-0,088
-82,884	-49,093	0,128	0,043
-81,870	-86,270	-0,030	0,006
-80,855	119,456	-0,093	0,082
-79,840	71,357	0,021	0,015
-78,826	800,000	-0,091	-0,194
-77,811	56,778	0,080	-0,055
-76,797	800,000	0,033	-0,083
-75,782	800,000	0,010	0,032
-74,767	334,880	0,086	0,119
-73,753	800,000	0,031	0,069
-72,738	-24,348	-0,182	0,077
-71,724	241,712	-0,137	-0,163
-70,709	136,951	0,081	-0,075
-69,694	25,309	0,037	0,022
-68,680	-200,000	0,042	0,141
-67,665	-200,000	0,027	0,162
-66,651	-200,000	0,014	0,056
-65,636	-200,000	0,028	0,097
-64,622	800,000	-0,015	-0,044
-63,607	3,405	-0,082	-0,042
-62,592	-200,000	-0,008	0,052
-61,578	-65,495	-0,091	0,026
-60,563	186,729	0,143	0,151
-59,549	-86,675	-0,068	-0,015
-58,534	-31,834	-1,719	-0,679
-57,519	403,756	-1,279	-1,913
-56,505	-200,000	-0,480	-4,610
-55,490	193,092	1,019	1,092
-54,476	800,000	5,010	11,433
-53,461	-200,000	19,271	320,024
-52,446	-200,000	740,658	2334,559
-51,432	573,760	1655,391	2869,836
-50,417	78,241	1671,119	1261,731
-49,403	21,342	1544,008	885,906
-48,388	15,207	1466,292	811,480
-47,373	17,928	1456,813	819,355
-46,359	16,704	1446,428	807,611
-45,344	13,430	1441,950	789,392
-44,330	13,331	1439,912	787,771
-43,315	13,334	1438,206	786,823
-42,300	13,389	1436,565	786,155
-41,286	13,401	1435,232	785,454
-40,271	13,380	1433,930	784,610
-39,257	13,359	1432,552	783,721
-38,242	13,408	1431,411	783,303
-37,227	13,415	1430,282	782,684
-36,213	13,387	1429,094	781,873
-35,198	13,427	1427,686	781,261
-34,184	13,441	1426,905	780,869
-33,169	13,394	1425,335	779,757
-32,154	13,415	1424,313	779,266
-31,140	13,439	1423,172	778,726
-30,125	13,478	1421,874	778,166
-29,111	13,454	1420,671	777,365
-28,096	13,382	1419,738	776,481
-27,082	13,346	1418,773	775,756
-26,067	13,343	1417,452	774,988
-25,052	13,342	1416,317	774,332
-24,038	13,338	1415,538	773,853
-23,023	13,300	1414,611	773,140
-22,009	13,361	1413,395	772,731
-20,994	13,282	1412,740	771,972
-19,979	13,297	1411,811	771,504
-18,965	13,304	1410,830	770,971
-17,950	13,282	1409,856	770,303
-16,936	13,338	1408,829	769,975
-15,921	13,232	1407,873	768,925
-14,906	13,246	1407,017	768,491
-13,892	13,247	1405,921	767,868
-12,877	13,245	1405,099	767,377
-11,863	13,235	1404,326	766,880
-10,848	13,255	1403,135	766,291
-9,833	13,224	1402,336	765,679
-8,819	13,134	1401,836	764,960
-7,804	13,171	1400,632	764,442
-6,790	13,129	1399,753	763,735
-5,775	13,107	1398,787	763,077
-4,760	13,135	1397,606	762,533
-3,746	13,162	1396,775	762,173
-2,731	13,130	1395,953	761,547
-1,717	13,136	1394,829	760,932
-0,702	13,096	1393,324	759,895
0,313	16,960	1310,107	732,407
1,327	33,231	703,771	431,046
2,342	50,952	123,262	82,523
3,356	2,842	16,654	8,524
4,371	13,698	3,294	1,805
5,386	-3,170	0,646	0,317
6,400	-200,000	-0,037	0,256
7,415	-100,151	-0,361	-0,063
8,429	14,592	-0,334	-0,184
9,444	36,522	-0,311	-0,194
10,459	-68,393	-0,270	-0,074
11,473	-118,786	-0,387	-0,048
12,488	-42,613	-0,431	-0,154
13,502	74,403	-0,334	-0,248
14,517	328,934	-0,220	-0,300
15,531	6,708	-0,406	-0,213
16,546	91,672	-0,383	-0,304
17,561	1,204	-0,320	-0,162
18,575	-70,013	-0,253	-0,068
19,590	160,961	-0,257	-0,254
20,604	17,384	-0,241	-0,135
21,619	126,319	-0,363	-0,324
22,634	6,087	-0,494	-0,258
23,648	23,349	-0,387	-0,224
24,663	92,249	-0,358	-0,285
25,677	230,365	-0,265	-0,306
26,692	57,803	-0,469	-0,323
27,707	123,368	-0,290	-0,257
28,721	94,049	-0,346	-0,277
29,736	113,151	-0,436	-0,373
30,750	62,323	-0,427	-0,301
31,765	115,587	-0,351	-0,302
32,780	16,281	-0,354	-0,197
33,794	38,863	-0,393	-0,247
34,809	96,459	-0,328	-0,265
35,823	25,906	-0,473	-0,277
36,838	3,460	-0,459	-0,235
37,853	-1,890	-0,430	-0,213
38,867	65,188	-0,344	-0,245
39,882	276,957	-0,276	-0,347
40,896	-56,425	-0,401	-0,125
41,911	41,030	-0,387	-0,246
42,926	185,506	-0,349	-0,366
43,940	307,463	-0,277	-0,365
44,955	83,977	-0,298	-0,229
45,969	-49,111	-0,393	-0,132
46,984	90,151	-0,329	-0,259
47,999	39,543	-0,194	-0,122
49,013	90,693	-0,310	-0,245
50,028	222,761	-0,249	-0,283
51,042	62,381	-0,339	-0,238
52,057	122,344	-0,407	-0,358
53,071	1,202	-0,310	-0,156
54,086	108,030	-0,313	-0,262
55,101	116,510	-0,402	-0,347
56,115	72,868	-0,328	-0,241
57,130	243,703	-0,214	-0,254
58,144	-26,318	-0,426	-0,175
59,159	133,654	-0,415	-0,378
60,174	123,030	-0,252	-0,223
61,188	2,181	-0,398	-0,202
62,203	35,416	-0,163	-0,101
63,217	112,993	-0,304	-0,259
64,232	62,663	-0,347	-0,243
65,247	207,889	-0,296	-0,326
66,261	-69,250	-0,280	-0,075
67,276	112,870	-0,304	-0,259
68,290	130,275	-0,294	-0,265
69,305	68,993	-0,291	-0,210
70,320	14,255	-0,324	-0,177
71,334	88,201	-0,392	-0,306
72,349	69,521	-0,249	-0,180
73,363	37,689	-0,353	-0,220
74,378	54,083	-0,322	-0,218
75,393	176,285	-0,313	-0,320
76,407	-75,259	-0,246	-0,061
77,422	41,269	-0,168	-0,106
78,436	150,184	-0,237	-0,226
79,451	23,865	-0,344	-0,199
80,466	445,246	-0,264	-0,408
81,480	148,083	-0,287	-0,272
82,495	331,047	-0,244	-0,331
83,509	250,295	-0,243	-0,291
84,524	164,520	-0,194	-0,192
85,539	-28,075	-0,365	-0,147
86,553	-25,232	-0,241	-0,100
87,568	146,380	-0,270	-0,255
88,582	59,494	-0,276	-0,191
89,597	-54,962	-0,328	-0,103
90,611	-52,429	-0,210	-0,068
91,626	-86,661	-0,433	-0,092
92,641	738,237	-0,126	-0,238
93,655	223,891	-0,244	-0,277
94,670	-36,251	-0,274	-0,103
95,684	27,876	-0,285	-0,168
96,699	67,193	-0,243	-0,174
97,714	211,230	-0,237	-0,262
98,728	85,705	-0,264	-0,203
99,743	63,779	-0,193	-0,136
100,757	112,087	-0,209	-0,177
101,772	7,368	-0,262	-0,137
102,787	402,366	-0,198	-0,292
103,801	112,036	-0,293	-0,248
104,816	-116,754	-0,245	-0,031
105,830	13,436	-0,315	-0,171
106,845	-46,890	-0,264	-0,090
107,860	-42,678	-0,292	-0,103
108,874	126,459	-0,302	-0,268
109,889	447,828	-0,193	-0,299
110,903	174,102	-0,258	-0,261
111,918	-25,969	-0,305	-0,125
112,933	-58,880	-0,295	-0,089
113,947	173,457	-0,241	-0,244
114,962	25,564	-0,310	-0,180
115,976	243,948	-0,316	-0,372
116,991	64,390	-0,292	-0,206
118,006	157,425	-0,244	-0,237
119,020	632,667	-0,132	-0,235
120,035	270,816	-0,212	-0,262
121,049	-41,101	-0,234	-0,084
122,064	-197,956	-0,207	0,001
123,079	108,305	-0,260	-0,217
124,093	201,213	-0,262	-0,282
125,108	-46,081	-0,337	-0,116
126,122	64,264	-0,268	-0,189
127,137	239,429	-0,161	-0,188
128,151	111,458	-0,270	-0,228
129,166	123,392	-0,193	-0,169
130,181	412,632	-0,171	-0,255
131,195	-35,652	-0,279	-0,105
132,210	-67,913	-0,332	-0,090
133,224	1,855	-0,240	-0,121
134,239	281,270	-0,162	-0,203
135,254	708,611	-0,122	-0,227
136,268	71,587	-0,218	-0,158
137,283	-153,202	-0,261	-0,013
138,297	156,581	-0,271	-0,262
139,312	6,496	-0,229	-0,119
140,327	97,549	-0,197	-0,158
141,341	215,025	-0,162	-0,179
142,356	-70,100	-0,221	-0,058
143,370	598,607	-0,207	-0,361
144,385	228,519	-0,202	-0,230
145,400	400,495	-0,228	-0,335
146,414	320,513	-0,257	-0,342
147,429	103,821	-0,264	-0,217
148,443	40,052	-0,217	-0,136
149,458	-150,687	-0,152	0,008
150,473	176,879	-0,144	-0,147
151,487	-23,294	-0,259	-0,108
152,502	245,785	-0,194	-0,228
153,516	800,000	-0,144	-0,291
154,531	201,026	-0,241	-0,259
155,546	800,000	-0,091	-0,210
156,560	-11,881	-0,276	-0,126
157,575	-137,056	-0,300	-0,024
158,589	800,000	-0,125	-0,261
159,604	237,793	-0,163	-0,188
160,619	12,024	-0,305	-0,163
161,633	263,304	-0,191	-0,232
162,648	18,845	-0,236	-0,132
163,662	51,694	-0,232	-0,153
164,677	101,220	-0,269	-0,219
165,692	4,870	-0,266	-0,136
166,706	35,979	-0,239	-0,146
167,721	-42,842	-0,312	-0,110
168,735	46,255	-0,295	-0,190
169,750	800,000	-0,106	-0,258
170,764	81,646	-0,213	-0,161
171,779	-49,922	-0,109	-0,036
172,794	-24,257	-0,123	-0,051
173,808	-132,511	-0,335	-0,030
174,823	-65,786	-0,270	-0,075
175,837	-15,984	-0,221	-0,097
176,852	132,042	-0,199	-0,178
177,867	122,154	-0,188	-0,164
178,881	88,241	-0,190	-0,146
179,896	342,162	-0,113	-0,155
180,910	142,963	-0,247	-0,229
181,925	148,053	-0,225	-0,211
182,940	800,000	-0,138	-0,335
183,954	274,034	-0,149	-0,184
184,969	12,993	-0,219	-0,118
185,983	-25,405	-0,202	-0,083
186,998	-44,061	-0,283	-0,099
188,013	47,096	-0,270	-0,175
189,027	-69,423	-0,200	-0,053
190,042	376,996	-0,232	-0,330
191,056	225,430	-0,220	-0,249
192,071	163,498	-0,253	-0,248
193,086	-32,614	-0,204	-0,079
194,100	199,546	-0,103	-0,110
195,115	371,182	-0,087	-0,123
196,129	800,000	-0,170	-0,349
197,144	346,045	-0,196	-0,269
198,159	460,595	-0,148	-0,230
199,173	23,964	-0,179	-0,102
200,188	1,463	-0,209	-0,104
201,202	169,530	-0,197	-0,196
202,217	90,787	-0,177	-0,138
203,232	62,087	-0,247	-0,171
204,246	-60,597	-0,384	-0,112
205,261	179,199	-0,239	-0,243
206,275	157,236	-0,167	-0,161
207,290	-112,616	-0,178	0,024
208,304	234,714	-0,170	-0,196
209,319	-200,000	-0,075	-0,297
210,334	105,692	-0,226	-0,186
211,348	215,863	-0,129	-0,143
212,363	190,764	-0,260	-0,272
213,377	768,788	-0,112	-0,213
214,392	38,109	-0,238	-0,146
215,407	800,000	-0,095	-0,187
216,421	442,208	-0,091	-0,139
217,436	70,756	-0,238	-0,171
218,450	141,221	-0,199	-0,183
219,465	31,373	-0,240	-0,142
220,480	-123,777	-0,176	0,019
221,494	79,262	-0,133	-0,099
222,509	779,105	-0,046	-0,088
223,523	98,447	-0,129	-0,103
224,538	-9,345	-0,246	-0,114
225,553	85,199	-0,204	-0,155
226,567	461,623	-0,134	-0,208
227,582	78,002	-0,215	-0,159
228,596	253,487	-0,269	-0,319
229,611	131,367	-0,069	-0,061
230,626	69,065	-0,107	-0,076
231,640	5,206	-0,333	-0,170
232,655	-46,891	-0,207	-0,070
233,669	172,507	-0,185	-0,184
234,684	-50,746	-0,262	-0,085
235,699	28,015	-0,211	-0,123
236,713	40,475	-0,141	-0,088
237,728	-138,220	-0,075	-0,006
238,742	445,116	-0,158	-0,241
239,757	-54,941	-0,203	-0,063
240,772	127,419	-0,186	-0,164
241,786	445,216	-0,134	-0,204
242,801	43,922	-0,279	-0,177
243,815	-75,009	-0,174	-0,043
244,830	294,339	-0,103	-0,130
245,844	-137,076	-0,273	-0,021
246,859	641,493	-0,093	-0,165
247,874	335,454	-0,191	-0,257
248,888	-16,328	-0,272	-0,119
249,903	-93,273	-0,092	-0,018
250,917	-83,810	-0,190	-0,042
251,932	87,091	-0,201	-0,154
252,947	-106,015	-0,217	0,033
253,961	-147,425	-0,169	-0,010
254,976	395,560	-0,213	-0,309
255,990	-25,469	-0,174	-0,071
257,005	324,704	-0,153	-0,203
258,020	142,271	-0,127	-0,116
259,034	3,541	-0,172	-0,087
260,049	-38,220	-0,185	-0,067
261,063	800,000	-0,061	-0,167
262,078	36,160	-0,309	-0,188
263,093	95,801	-0,179	-0,141
264,107	671,793	-0,080	-0,144
265,122	96,758	0,033	0,026
266,136	105,073	-0,111	-0,091
267,151	321,533	-0,154	-0,203
268,166	455,880	-0,088	-0,136
269,180	4,883	-0,278	-0,141
270,195	-49,112	-0,197	-0,065
271,209	-39,653	-0,238	-0,086
272,224	-200,000	-0,023	-0,156
273,239	514,789	-0,069	-0,112
274,253	-36,277	-0,146	-0,054
275,268	-200,000	-0,051	-0,174
276,282	-62,369	-0,251	-0,072
277,297	-200,000	-0,082	-0,000
278,312	37,271	-0,283	-0,173
279,326	174,452	-0,125	-0,125
280,341	24,263	-0,157	-0,090
281,355	-0,970	-0,043	-0,021
282,370	104,446	-0,169	-0,138
283,384	-200,000	-0,012	-0,223
284,399	397,914	-0,147	-0,213
285,414	-3,227	-0,161	-0,077
286,428	147,178	-0,122	-0,113
287,443	228,730	-0,199	-0,224
288,457	109,257	-0,029	-0,024
289,472	31,523	-0,164	-0,097
290,487	-79,902	-0,304	-0,070
291,501	259,066	-0,112	-0,133
292,516	165,989	-0,178	-0,173
293,530	27,433	-0,157	-0,091
294,545	-26,112	-0,261	-0,105
295,560	694,952	-0,139	-0,252
296,574	259,679	-0,130	-0,155
297,589	4,228	-0,154	-0,077
298,603	220,652	-0,141	-0,157
299,618	-8,619	-0,134	-0,062
300,633	112,814	-0,098	-0,081
301,647	-104,096	-0,127	-0,020
302,662	-200,000	-0,020	-0,208
303,676	-110,220	-0,206	-0,029
304,691	82,456	-0,233	-0,174
305,706	442,176	-0,105	-0,159
306,720	523,284	-0,148	-0,240
307,735	-200,000	-0,056	-0,235
308,749	107,818	-0,189	-0,155
309,764	-200,000	0,011	-0,045
310,779	63,075	-0,144	-0,099
311,793	55,061	-0,198	-0,131
312,808	91,012	-0,228	-0,176
313,822	64,647	-0,177	-0,123
314,837	-200,000	-0,022	-0,072
315,852	800,000	-0,031	-0,069
316,866	-200,000	-0,042	-0,138
317,881	-21,111	-0,160	-0,067
318,895	293,401	-0,125	-0,157
319,910	86,541	-0,193	-0,147
320,925	519,495	-0,151	-0,244
321,939	65,641	-0,192	-0,134
322,954	736,327	-0,115	-0,214
323,968	212,949	-0,118	-0,128
324,983	-200,000	-0,034	-0,206
325,997	800,000	-0,076	-0,183
327,012	111,065	-0,232	-0,192
328,027	-200,000	-0,067	-0,232
329,041	10,273	-0,176	-0,092
330,056	800,000	-0,039	-0,078
331,070	628,559	-0,016	0,028
332,085	800,000	-0,075	-0,201
333,100	290,608	-0,100	-0,125
334,114	133,894	-0,070	-0,062
335,129	-41,965	-0,207	-0,072
336,143	224,189	-0,174	-0,193
337,158	-200,000	-0,004	-0,015
338,173	59,708	-0,160	-0,108
339,187	0,958	-0,113	-0,056
340,202	800,000	-0,046	-0,115
341,216	348,234	-0,120	-0,162
342,231	127,938	-0,096	-0,083
343,246	-200,000	0,037	-0,170
344,260	111,213	-0,052	-0,043
345,275	76,197	-0,100	0,073
346,289	346,262	-0,083	-0,112
347,304	110,713	-0,088	-0,073
348,319	-200,000	0,005	0,032
349,333	240,038	-0,186	-0,213
350,348	783,572	-0,059	-0,112
351,362	479,298	-0,124	-0,193
352,377	-200,000	0,018	-0,073
353,392	800,000	-0,024	-0,062
354,406	-200,000	0,012	-0,120
355,421	209,531	1314,884	1415,493
356,435	161,270	1475,621	1415,986
