DTS Sentinel unit serial number:	SN410029Multiplexer serial number:	ORYXHardware model number:	OX2-SRSoftware version number:	ORYX F/W v4,00 Oryx Data Collector v3.7.2.0data status	okinstallation	B3 Nyhavnadifferential loss correction	single-endedforward channel	channel 1reverse channel	N/Adate	2023/12/01time	21:17:30forward acquisition time	300,00reverse acquisition time	0,00gamma	499,1914k internal	0,3196k external	0,3196temperature offset calibration	1,0000default loss term (dB/km)	0,3820temperature slope calibration	1,0000multiplexer offset coefficient	1,0000multiplexer slope coefficient	1,0000fibre end	0,00T internal ref (°C)	16,03T ext. ref 1 (°C)	1,30T ext. ref 2 (°C)	1,31length (m)	temperature (°C)	Stokes	anti-Stokes-744,400	455,297	-0,199	-0,322
-743,385	-200,000	0,081	0,275
-742,371	135,442	-0,181	-0,171
-741,356	800,000	0,110	0,322
-740,342	800,000	-0,071	-0,201
-739,327	-200,000	-0,047	0,247
-738,312	331,804	-0,257	-0,362
-737,298	-200,000	0,063	0,375
-736,283	251,145	-0,162	-0,201
-735,269	-200,000	0,055	0,282
-734,254	239,921	-0,165	-0,200
-733,239	139,787	-0,214	0,205
-732,225	243,961	-0,170	-0,208
-731,210	427,399	0,062	0,098
-730,196	-200,000	0,003	0,044
-729,181	800,000	-0,024	0,058
-728,167	268,313	0,019	0,024
-727,152	250,047	-0,061	-0,076
-726,137	-196,696	0,055	-0,000
-725,123	43,421	-0,141	0,094
-724,108	26,690	-0,071	-0,043
-723,094	64,897	-0,055	-0,041
-722,079	-200,000	-0,006	0,100
-721,064	-200,000	0,000	-0,128
-720,050	317,243	-0,054	0,075
-719,035	-95,773	0,099	0,019
-718,021	51,581	-0,131	-0,091
-717,006	-58,084	-0,127	-0,040
-715,991	-200,000	0,016	-0,056
-714,977	227,966	-0,077	-0,092
-713,962	-200,000	-0,029	-0,117
-712,948	-200,000	-0,021	-0,098
-711,933	-90,455	-0,111	-0,023
-710,918	800,000	-0,046	-0,107
-709,904	483,472	0,011	0,018
-708,889	6,218	-0,156	-0,084
-707,875	800,000	-0,026	-0,083
-706,860	361,893	0,057	-0,083
-705,845	242,936	0,061	-0,074
-704,831	-200,000	0,006	0,100
-703,816	-154,225	-0,089	0,004
-702,802	43,527	0,104	-0,069
-701,787	-132,558	-0,078	0,007
-700,772	-200,000	0,007	-0,061
-699,758	58,221	-0,028	-0,020
-698,743	137,924	-0,006	-0,006
-697,729	800,000	-0,079	0,159
-696,714	-200,000	0,004	0,073
-695,699	485,062	-0,073	-0,121
-694,685	107,149	0,075	-0,065
-693,670	72,596	-0,064	0,049
-692,656	-12,149	-0,041	-0,020
-691,641	800,000	0,024	-0,062
-690,627	-68,636	0,146	0,041
-689,612	358,815	0,056	0,082
-688,597	-200,000	0,001	-0,074
-687,583	800,000	0,015	0,044
-686,568	-200,000	-0,002	-0,034
-685,554	-200,000	0,005	-0,092
-684,539	46,929	0,076	0,051
-683,524	14,399	0,058	-0,033
-682,510	800,000	0,035	0,088
-681,495	-12,776	-0,065	-0,031
-680,481	210,876	-0,065	-0,074
-679,466	800,000	0,021	-0,048
-678,451	695,273	-0,037	0,072
-677,437	-128,996	-0,020	-0,002
-676,422	-200,000	0,003	-0,057
-675,408	48,787	0,038	0,026
-674,393	212,513	0,020	-0,023
-673,378	158,759	-0,040	-0,040
-672,364	-37,818	-0,286	-0,110
-671,349	-165,332	-0,106	0,003
-670,335	-79,785	-0,082	-0,020
-669,320	-176,344	-0,015	0,000
-668,305	-200,000	0,021	-0,209
-667,291	-65,741	0,079	-0,023
-666,276	-200,000	-0,015	0,091
-665,262	362,748	-0,043	-0,062
-664,247	-200,000	0,014	-0,117
-663,232	435,200	-0,054	-0,085
-662,218	-66,052	0,140	0,040
-661,203	75,205	0,033	-0,025
-660,189	-103,181	0,040	-0,007
-659,174	73,604	-0,122	0,093
-658,159	-99,188	0,053	-0,010
-657,145	359,447	-0,080	-0,117
-656,130	-200,000	-0,041	-0,170
-655,116	19,140	-0,162	0,094
-654,101	276,889	0,131	0,170
-653,086	586,449	-0,017	-0,031
-652,072	-200,000	0,019	-0,115
-651,057	-45,578	-0,018	0,006
-650,043	-12,109	-0,028	-0,013
-649,028	25,485	0,034	-0,021
-648,014	146,404	0,010	0,010
-646,999	-200,000	0,004	-0,118
-645,984	151,695	0,045	0,044
-644,970	800,000	-0,031	0,092
-643,955	800,000	-0,019	-0,049
-642,941	403,734	0,011	-0,016
-641,926	800,000	0,031	-0,065
-640,911	-80,341	-0,180	0,043
-639,897	800,000	-0,018	0,041
-638,882	800,000	-0,044	0,106
-637,868	640,607	-0,025	0,046
-636,853	-32,519	0,083	0,034
-635,838	-148,245	-0,038	-0,002
-634,824	268,080	-0,076	-0,097
-633,809	800,000	-0,051	0,140
-632,795	173,621	-0,075	0,078
-631,780	-168,378	0,066	-0,002
-630,765	-200,000	0,010	-0,096
-629,751	542,499	-0,035	-0,061
-628,736	93,423	-0,095	-0,078
-627,722	98,703	-0,036	-0,030
-626,707	800,000	-0,045	-0,128
-625,692	-91,727	-0,095	-0,020
-624,678	-200,000	-0,000	-0,063
-623,663	219,480	0,088	0,102
-622,649	114,037	-0,087	-0,077
-621,634	-75,442	-0,131	-0,034
-620,619	-147,399	0,049	-0,003
-619,605	-44,846	-0,134	0,048
-618,590	-200,000	0,008	0,045
-617,576	54,519	0,036	-0,025
-616,561	105,488	0,041	0,035
-615,546	-200,000	-0,029	-0,126
-614,532	-80,605	-0,093	-0,022
-613,517	-108,224	-0,095	-0,015
-612,503	14,049	0,049	-0,027
-611,488	-52,224	0,013	0,004
-610,474	-200,000	-0,043	0,180
-609,459	39,817	0,036	-0,023
-608,444	800,000	0,017	-0,052
-607,430	-154,167	-0,133	0,006
-606,415	-176,839	-0,075	-0,001
-605,401	231,328	-0,056	-0,066
-604,386	120,194	0,067	0,060
-603,371	-67,214	0,020	0,006
-602,357	183,837	-0,069	-0,074
-601,342	-123,904	0,044	0,005
-600,328	-72,998	0,066	-0,017
-599,313	-200,000	0,001	0,015
-598,298	-4,959	0,082	-0,041
-597,284	344,309	0,034	-0,048
-596,269	-123,890	-0,075	-0,008
-595,255	502,098	0,064	0,107
-594,240	52,779	-0,078	-0,054
-593,225	-127,859	-0,061	-0,006
-592,211	243,587	0,074	-0,090
-591,196	-200,000	0,004	-0,130
-590,182	-23,935	-0,050	0,022
-589,167	-93,557	0,112	-0,022
-588,152	34,733	-0,090	0,057
-587,138	528,931	0,022	0,038
-586,123	-54,113	-0,134	-0,044
-585,109	10,338	-0,171	-0,094
-584,094	800,000	-0,023	-0,066
-583,079	-90,643	-0,134	0,028
-582,065	-28,316	0,069	0,029
-581,050	2,207	-0,041	0,022
-580,036	800,000	0,040	0,115
-579,021	-109,833	-0,044	-0,007
-578,006	800,000	0,067	-0,153
-576,992	-110,838	-0,100	0,015
-575,977	-200,000	0,012	0,050
-574,963	-41,883	-0,137	0,051
-573,948	-83,205	-0,056	0,013
-572,934	800,000	0,040	-0,116
-571,919	-2,144	-0,085	-0,043
-570,904	-200,000	0,002	-0,086
-569,890	800,000	0,047	0,146
-568,875	196,719	0,077	-0,085
-567,861	43,728	0,072	0,047
-566,846	800,000	0,026	0,064
-565,831	800,000	0,036	0,112
-564,817	-200,000	0,003	-0,041
-563,802	-200,000	0,010	-0,204
-562,788	212,909	-0,018	-0,020
-561,773	128,866	-0,054	-0,049
-560,758	-95,226	-0,099	-0,019
-559,744	-168,343	-0,050	0,001
-558,729	290,788	0,040	-0,053
-557,715	-92,520	-0,118	0,024
-556,700	-196,413	-0,053	0,000
-555,685	-200,000	-0,013	-0,116
-554,671	-34,332	0,074	-0,029
-553,656	-200,000	-0,033	0,217
-552,642	72,464	-0,036	-0,027
-551,627	142,178	0,060	0,058
-550,612	65,290	-0,068	-0,050
-549,598	-16,896	-0,109	0,049
-548,583	213,477	0,030	0,034
-547,569	63,157	0,045	0,033
-546,554	75,602	-0,033	0,025
-545,539	5,051	0,062	0,033
-544,525	232,411	-0,061	0,073
-543,510	-93,200	-0,117	0,023
-542,496	614,443	0,014	0,026
-541,481	517,768	-0,113	-0,192
-540,466	104,877	0,173	-0,147
-539,452	800,000	-0,049	-0,122
-538,437	19,523	0,038	-0,022
-537,423	274,646	-0,065	-0,084
-536,408	-117,406	-0,144	0,019
-535,393	-5,032	-0,082	0,041
-534,379	4,400	0,067	0,036
-533,364	329,361	-0,054	-0,076
-532,350	-200,000	0,004	0,020
-531,335	-14,128	0,113	0,052
-530,321	-105,548	-0,013	-0,002
-529,306	99,260	0,034	-0,029
-528,291	105,502	-0,113	0,096
-527,277	-94,075	-0,182	-0,036
-526,262	-200,000	-0,027	-0,108
-525,248	-20,415	-0,081	-0,036
-524,233	-181,201	0,057	0,001
-523,218	-200,000	0,015	0,203
-522,204	-136,033	0,064	0,005
-521,189	800,000	-0,024	-0,052
-520,175	21,068	-0,076	-0,045
-519,160	-6,317	0,068	-0,033
-518,145	800,000	-0,043	0,097
-517,131	113,438	0,052	-0,046
-516,116	40,495	-0,123	-0,080
-515,102	-200,000	0,021	-0,102
-514,087	-200,000	0,008	0,101
-513,072	174,258	-0,133	-0,139
-512,058	793,829	-0,051	-0,101
-511,043	119,306	-0,069	-0,062
-510,029	-200,000	0,013	-0,068
-509,014	-112,522	-0,019	0,003
-507,999	-70,467	0,073	0,020
-506,985	7,446	-0,051	0,027
-505,970	292,578	-0,068	0,089
-504,956	-200,000	-0,003	-0,064
-503,941	-200,000	0,039	0,203
-502,926	800,000	-0,007	-0,018
-501,912	1,757	0,070	-0,036
-500,897	46,429	0,103	-0,069
-499,883	800,000	0,042	0,112
-498,868	-139,126	-0,163	0,012
-497,853	800,000	0,022	-0,046
-496,839	-200,000	0,011	-0,064
-495,824	800,000	0,016	0,043
-494,810	-200,000	-0,005	0,162
-493,795	-179,033	0,141	-0,002
-492,781	222,805	-0,097	0,113
-491,766	-78,971	-0,071	0,017
-490,751	160,348	-0,041	-0,041
-489,737	527,538	-0,054	0,093
-488,722	800,000	0,064	0,171
-487,708	41,083	0,136	0,089
-486,693	-200,000	0,006	0,043
-485,678	19,401	-0,028	-0,016
-484,664	-200,000	0,048	-0,168
-483,649	-200,000	-0,016	0,089
-482,635	442,558	-0,123	-0,194
-481,620	10,118	0,044	0,024
-480,605	42,859	0,054	-0,035
-479,591	-148,801	0,099	-0,006
-478,576	-49,381	0,041	0,014
-477,562	-13,873	-0,090	0,042
-476,547	-25,127	-0,060	-0,026
-475,532	357,439	-0,101	-0,145
-474,518	368,564	-0,034	0,050
-473,503	-149,653	0,139	-0,008
-472,489	26,239	0,103	0,062
-471,474	-90,582	0,150	0,031
-470,459	-200,000	0,004	0,039
-469,445	-200,000	0,005	-0,052
-468,430	692,925	0,045	-0,086
-467,416	-123,618	-0,105	-0,012
-466,401	-95,007	0,037	0,007
-465,386	20,140	0,109	-0,063
-464,372	-200,000	-0,023	0,123
-463,357	-200,000	-0,029	-0,108
-462,343	-200,000	-0,005	-0,141
-461,328	324,978	-0,141	-0,195
-460,313	-139,130	0,047	-0,004
-459,299	-79,809	0,115	0,028
-458,284	800,000	0,035	0,105
-457,270	-200,000	-0,007	-0,024
-456,255	-200,000	-0,007	0,058
-455,241	-138,463	-0,073	-0,006
-454,226	430,607	0,054	-0,084
-453,211	-200,000	-0,045	-0,189
-452,197	-200,000	-0,010	0,088
-451,182	-103,785	0,146	-0,024
-450,168	800,000	-0,042	0,105
-449,153	800,000	0,054	-0,129
-448,138	-200,000	-0,032	-0,165
-447,124	-36,194	-0,034	-0,013
-446,109	74,362	-0,075	-0,057
-445,095	-144,002	0,111	0,007
-444,080	800,000	0,045	0,090
-443,065	-200,000	-0,021	0,069
-442,051	-200,000	-0,034	-0,128
-441,036	-82,133	-0,180	0,042
-440,022	-102,933	0,015	-0,003
-439,007	-170,831	-0,164	-0,004
-437,992	-200,000	0,056	0,209
-436,978	-200,000	0,022	0,190
-435,963	10,483	-0,088	0,048
-434,949	-100,609	0,053	-0,009
-433,934	19,419	0,097	0,056
-432,919	149,901	-0,059	0,057
-431,905	800,000	0,020	0,039
-430,890	115,411	0,044	-0,039
-429,876	69,910	0,053	0,039
-428,861	-200,000	0,015	0,050
-427,846	-57,815	0,137	0,043
-426,832	800,000	-0,036	-0,076
-425,817	88,867	-0,102	-0,082
-424,803	285,267	0,045	-0,059
-423,788	-61,295	0,103	-0,031
-422,773	661,027	0,046	0,086
-421,759	774,763	-0,031	0,062
-420,744	70,864	-0,069	-0,051
-419,730	547,300	-0,036	0,062
-418,715	800,000	-0,040	0,121
-417,701	800,000	0,040	0,092
-416,686	71,200	0,073	-0,054
-415,671	31,192	0,100	0,062
-414,657	-200,000	0,011	0,178
-413,642	-200,000	0,005	0,139
-412,628	-47,626	0,061	-0,021
-411,613	373,680	0,034	-0,050
-410,598	26,067	-0,036	-0,021
-409,584	255,969	0,106	-0,130
-408,569	19,923	0,166	-0,096
-407,555	-48,352	0,060	0,021
-406,540	409,162	-0,050	0,076
-405,525	-86,182	0,162	-0,036
-404,511	-200,000	-0,003	0,112
-403,496	151,914	0,025	0,025
-402,482	-200,000	0,028	0,123
-401,467	312,694	0,044	-0,060
-400,452	211,224	0,090	0,101
-399,438	-200,000	0,006	0,113
-398,423	-134,169	0,032	-0,003
-397,409	-52,200	-0,158	0,052
-396,394	-111,642	-0,061	-0,009
-395,379	-9,354	0,169	-0,081
-394,365	608,531	0,020	-0,037
-393,350	136,678	0,091	-0,085
-392,336	-200,000	-0,022	-0,081
-391,321	800,000	-0,047	-0,137
-390,306	198,864	-0,128	-0,141
-389,292	673,925	-0,067	0,125
-388,277	800,000	0,031	-0,093
-387,263	-200,000	-0,027	-0,129
-386,248	800,000	0,055	0,151
-385,233	-134,612	-0,130	0,011
-384,219	-10,215	-0,073	-0,035
-383,204	288,980	0,141	-0,184
-382,190	115,326	-0,103	-0,091
-381,175	-152,513	-0,099	-0,005
-380,160	384,846	0,035	-0,052
-379,146	34,918	0,077	0,048
-378,131	27,768	0,091	0,055
-377,117	-200,000	-0,008	0,029
-376,102	-89,953	0,091	0,019
-375,088	-200,000	-0,026	0,089
-374,073	42,423	-0,059	-0,038
-373,058	-200,000	0,024	0,107
-372,044	455,009	-0,010	0,016
-371,029	-25,136	0,075	-0,032
-370,015	-200,000	0,009	-0,069
-369,000	142,983	0,083	0,079
-367,985	800,000	-0,017	0,040
-366,971	-200,000	-0,001	-0,033
-365,956	335,597	0,042	-0,059
-364,942	800,000	-0,021	0,054
-363,927	800,000	0,023	0,053
-362,912	-200,000	0,002	-0,092
-361,898	155,508	-0,085	0,084
-360,883	157,048	0,071	-0,071
-359,869	192,786	-0,034	-0,036
-358,854	-200,000	0,061	-0,229
-357,839	800,000	0,051	0,103
-356,825	-18,138	0,097	-0,043
-355,810	528,959	0,019	0,032
-354,796	-71,552	0,213	0,057
-353,781	86,927	-0,051	0,040
-352,766	-200,000	-0,006	0,035
-351,752	-200,000	0,008	0,056
-350,737	-170,540	0,104	0,003
-349,723	-195,364	0,139	-0,001
-348,708	22,700	0,059	0,034
-347,693	-200,000	0,017	0,062
-346,679	82,828	-0,104	-0,081
-345,664	378,771	-0,049	-0,073
-344,650	-80,018	0,040	0,010
-343,635	325,802	0,084	0,116
-342,620	-200,000	0,017	0,074
-341,606	-200,000	-0,030	-0,125
-340,591	417,055	0,037	0,057
-339,577	-11,458	-0,076	0,036
-338,562	-33,360	-0,093	-0,037
-337,548	-164,715	-0,114	0,004
-336,533	-180,341	-0,062	-0,001
-335,518	531,994	0,033	0,057
-334,504	800,000	0,012	0,024
-333,489	-101,558	0,056	-0,010
-332,475	119,696	-0,179	-0,159
-331,460	800,000	0,032	0,071
-330,445	116,361	0,072	0,063
-329,431	-200,000	0,004	-0,091
-328,416	23,164	-0,044	0,026
-327,402	63,123	0,089	0,064
-326,387	781,678	-0,049	0,096
-325,372	-27,402	-0,085	-0,035
-324,358	-200,000	0,016	0,130
-323,343	-122,678	-0,030	-0,003
-322,329	-25,676	0,179	0,075
-321,314	-72,909	0,101	-0,026
-320,299	233,457	0,035	-0,041
-319,285	-200,000	0,011	0,052
-318,270	-200,000	-0,008	-0,104
-317,256	-0,937	-0,114	0,058
-316,241	-200,000	-0,014	0,101
-315,226	58,430	-0,067	-0,047
-314,212	800,000	0,066	0,132
-313,197	578,479	-0,066	0,116
-312,183	800,000	-0,039	-0,079
-311,168	-93,003	0,087	-0,017
-310,153	218,339	-0,055	-0,064
-309,139	266,232	0,050	0,062
-308,124	800,000	0,046	-0,123
-307,110	202,689	0,061	0,068
-306,095	171,639	-0,106	-0,109
-305,080	177,808	0,054	0,057
-304,066	-200,000	0,041	0,190
-303,051	-200,000	0,022	-0,115
-302,037	-200,000	0,025	0,121
-301,022	-47,693	-0,071	0,025
-300,008	-200,000	0,010	-0,037
-298,993	800,000	0,063	0,156
-297,978	799,476	-0,036	-0,072
-296,964	800,000	-0,044	0,101
-295,949	-10,822	-0,142	0,067
-294,935	174,944	0,020	-0,021
-293,920	800,000	0,022	0,070
-292,905	-200,000	-0,021	0,124
-291,891	-88,255	-0,144	0,031
-290,876	199,232	-0,067	0,074
-289,862	800,000	0,021	0,065
-288,847	-129,090	-0,035	0,003
-287,832	-32,297	-0,061	-0,024
-286,818	-10,084	0,124	-0,058
-285,803	306,243	0,046	-0,061
-284,789	-66,978	0,148	-0,041
-283,774	49,820	0,176	0,119
-282,759	-140,958	-0,068	-0,005
-281,745	7,936	0,117	0,062
-280,730	-52,976	-0,229	0,075
-279,716	-200,000	-0,029	-0,107
-278,701	800,000	-0,018	-0,056
-277,686	-200,000	0,001	0,144
-276,672	-114,685	0,120	-0,016
-275,657	800,000	0,041	0,115
-274,643	-25,851	-0,019	-0,008
-273,628	140,893	0,103	-0,097
-272,613	-70,735	0,031	0,008
-271,599	-107,863	0,070	-0,011
-270,584	71,823	0,046	-0,034
-269,570	800,000	0,035	-0,095
-268,555	-42,233	0,176	-0,064
-267,540	800,000	0,010	-0,030
-266,526	-53,625	-0,060	-0,020
-265,511	391,239	0,003	-0,005
-264,497	800,000	0,010	-0,024
-263,482	18,740	0,109	0,062
-262,467	60,982	-0,160	0,113
-261,453	800,000	-0,062	-0,162
-260,438	800,000	0,065	-0,152
-259,424	-25,368	-0,052	0,022
-258,409	17,862	-0,058	-0,033
-257,395	301,409	0,083	0,109
-256,380	-143,309	0,097	0,007
-255,365	377,212	0,075	0,109
-254,351	325,123	-0,011	0,015
-253,336	-107,262	-0,113	-0,018
-252,322	424,331	-0,052	0,081
-251,307	46,669	0,061	0,041
-250,292	-200,000	-0,018	-0,173
-249,278	652,348	0,014	-0,026
-248,263	-200,000	-0,004	0,103
-247,249	7,422	0,055	0,029
-246,234	171,542	0,060	0,061
-245,219	264,829	-0,050	-0,062
-244,205	486,601	0,090	-0,147
-243,190	558,232	-0,066	0,115
-242,176	800,000	0,017	0,046
-241,161	175,505	0,087	0,091
-240,146	281,839	-0,038	-0,049
-239,132	-200,000	0,003	0,069
-238,117	421,831	0,070	-0,107
-237,103	501,234	0,026	-0,043
-236,088	-84,446	0,128	0,029
-235,073	-73,199	-0,119	0,031
-234,059	-147,723	0,138	0,008
-233,044	77,305	-0,053	-0,041
-232,030	241,776	-0,039	0,046
-231,015	-56,914	-0,106	-0,033
-230,000	-200,000	0,018	-0,066
-228,986	800,000	-0,041	0,083
-227,971	-99,005	0,070	0,013
-226,957	-200,000	-0,016	-0,087
-225,942	2,141	0,076	-0,039
-224,927	31,143	0,115	-0,070
-223,913	422,179	-0,087	-0,134
-222,898	-200,000	0,005	-0,037
-221,884	-59,772	-0,100	-0,030
-220,869	-177,883	0,138	-0,002
-219,855	207,635	-0,031	0,034
-218,840	-96,050	-0,018	0,003
-217,825	-11,225	0,102	-0,048
-216,811	26,619	-0,133	-0,079
-215,796	-158,606	0,093	-0,004
-214,782	800,000	-0,011	0,022
-213,767	8,151	0,079	0,042
-212,752	-4,236	0,150	0,074
-211,738	95,846	0,115	0,094
-210,723	-104,090	-0,048	0,008
-209,709	-94,672	-0,136	0,026
-208,694	800,000	-0,043	0,088
-207,679	-181,353	0,139	-0,002
-206,665	37,153	-0,085	-0,053
-205,650	-200,000	-0,020	0,080
-204,636	-200,000	-0,010	-0,037
-203,621	-200,000	0,005	0,089
-202,606	800,000	-0,002	-0,006
-201,592	-200,000	0,000	-0,042
-200,577	-200,000	-0,009	0,091
-199,563	169,537	0,042	0,043
-198,548	-22,529	0,031	0,013
-197,533	-200,000	0,014	0,159
-196,519	-200,000	-0,020	0,075
-195,504	-142,457	-0,132	0,009
-194,490	-200,000	0,024	-0,112
-193,475	-25,410	-0,051	0,021
-192,460	-200,000	-0,015	0,055
-191,446	136,825	0,123	0,115
-190,431	-200,000	-0,011	-0,043
-189,417	-63,640	-0,111	-0,032
-188,402	-99,130	-0,046	0,008
-187,387	114,720	-0,172	-0,149
-186,373	81,428	-0,088	-0,068
-185,358	-60,579	0,049	-0,015
-184,344	-200,000	0,014	-0,049
-183,329	-97,211	-0,075	0,014
-182,315	-88,065	0,062	-0,013
-181,300	-200,000	0,026	-0,086
-180,285	389,038	-0,109	-0,161
-179,271	337,382	-0,073	-0,102
-178,256	-118,271	0,038	0,005
-177,242	36,936	0,098	-0,062
-176,227	-83,283	0,155	0,035
-175,212	189,234	-0,058	0,062
-174,198	172,933	0,050	0,051
-173,183	-80,039	-0,075	0,018
-172,169	-200,000	-0,001	-0,022
-171,154	800,000	0,060	-0,171
-170,139	-200,000	-0,025	0,081
-169,125	-200,000	0,003	0,195
-168,110	-200,000	-0,003	0,066
-167,096	-180,099	0,157	0,002
-166,081	-9,657	-0,082	-0,039
-165,066	198,997	-0,143	-0,157
-164,052	-200,000	0,015	-0,174
-163,037	79,361	-0,034	-0,026
-162,023	330,011	0,072	-0,099
-161,008	47,851	0,080	0,053
-159,993	-200,000	0,053	0,198
-158,979	-200,000	-0,001	-0,172
-157,964	-7,818	-0,142	0,068
-156,950	-19,814	0,036	0,016
-155,935	-41,703	0,079	-0,029
-154,920	800,000	0,014	-0,042
-153,906	56,043	0,069	0,048
-152,891	800,000	-0,022	0,052
-151,877	-119,992	-0,128	-0,015
-150,862	-43,091	0,017	-0,006
-149,847	-84,852	0,072	-0,016
-148,833	-37,670	0,051	-0,019
-147,818	-154,545	-0,049	-0,002
-146,804	145,426	-0,062	0,059
-145,789	-25,281	0,106	0,045
-144,775	-70,260	-0,036	-0,010
-143,760	-200,000	0,023	-0,092
-142,745	191,649	-0,098	-0,105
-141,731	225,924	0,084	0,097
-140,716	438,275	0,124	0,194
-139,702	-38,234	-0,051	0,019
-138,687	-52,309	-0,089	0,029
-137,672	-170,305	0,116	-0,003
-136,658	55,566	-0,190	-0,131
-135,643	-200,000	-0,035	0,118
-134,629	406,751	0,033	-0,049
-133,614	139,732	0,101	-0,095
-132,599	800,000	-0,052	0,115
-131,585	-200,000	0,017	0,120
-130,570	95,931	-0,059	-0,048
-129,556	-136,290	-0,102	0,008
-128,541	615,404	0,054	-0,097
-127,526	800,000	-0,016	-0,035
-126,512	-2,642	0,070	-0,035
-125,497	106,377	0,083	0,070
-124,483	50,658	0,018	0,012
-123,468	8,862	0,141	0,075
-122,453	-10,882	-0,062	-0,029
-121,439	-200,000	-0,064	0,000
-120,424	-200,000	-0,002	0,021
-119,410	-72,662	-0,039	-0,010
-118,395	-100,101	0,088	-0,015
-117,380	-35,174	-0,088	0,034
-116,366	-50,393	0,114	0,038
-115,351	-7,923	-0,152	0,073
-114,337	713,202	0,031	-0,058
-113,322	74,642	0,059	-0,044
-112,307	-21,620	-0,047	-0,020
-111,293	142,242	0,058	0,055
-110,278	567,316	0,072	0,125
-109,264	-200,000	-0,001	0,037
-108,249	-24,918	-0,036	-0,015
-107,234	-24,057	0,101	-0,043
-106,220	-200,000	0,027	-0,089
-105,205	-200,000	0,009	-0,058
-104,191	-175,413	-0,093	0,002
-103,176	-101,811	0,158	0,027
-102,162	-200,000	0,006	-0,029
-101,147	-200,000	0,013	-0,073
-100,132	-200,000	0,003	-0,086
-99,118	-99,172	-0,088	0,016
-98,103	16,332	0,036	-0,020
-97,089	366,504	0,083	0,119
-96,074	-112,429	0,151	-0,021
-95,059	-106,018	-0,089	0,014
-94,045	-200,000	0,004	-0,040
-93,030	-200,000	-0,004	-0,065
-92,016	24,418	-0,139	-0,082
-91,001	-37,477	0,093	0,035
-89,986	246,720	0,015	-0,018
-88,972	378,180	0,067	0,098
-87,957	-5,389	-0,025	0,012
-86,943	445,870	0,064	0,101
-85,928	86,949	-0,119	0,093
-84,913	-56,995	0,047	-0,015
-83,899	-200,000	-0,004	-0,038
-82,884	-200,000	-0,002	-0,035
-81,870	-132,430	-0,099	0,009
-80,855	614,752	0,079	0,140
-79,840	-139,460	0,071	0,005
-78,826	-200,000	-0,005	0,068
-77,811	339,264	-0,020	-0,028
-76,797	227,914	-0,102	-0,118
-75,782	199,023	-0,042	0,045
-74,767	68,051	-0,038	-0,028
-73,753	-200,000	-0,013	0,095
-72,738	59,276	0,040	-0,028
-71,724	-200,000	-0,028	-0,098
-70,709	-63,367	0,041	-0,012
-69,694	105,358	-0,053	0,044
-68,680	-43,984	0,125	-0,044
-67,665	800,000	-0,031	-0,071
-66,651	523,272	0,046	-0,076
-65,636	-200,000	-0,007	-0,026
-64,622	-197,015	-0,088	0,000
-63,607	800,000	-0,075	-0,180
-62,592	-52,677	0,072	-0,024
-61,578	13,557	-0,059	0,032
-60,563	507,291	0,064	0,106
-59,549	-105,489	-0,123	0,020
-58,534	-66,986	-1,510	-0,420
-57,519	422,875	-1,458	-2,228
-56,505	-200,000	-0,450	-4,469
-55,490	45,323	1,101	0,719
-54,476	800,000	4,875	11,257
-53,461	-200,000	17,696	279,679
-52,446	800,000	720,230	2214,122
-51,432	558,354	1634,117	2805,946
-50,417	80,935	1657,636	1266,846
-49,403	23,880	1531,702	892,861
-48,388	17,842	1455,324	819,233
-47,373	18,303	1444,815	815,498
-46,359	17,926	1435,490	808,405
-45,344	16,155	1430,640	797,229
-44,330	16,090	1428,667	795,790
-43,315	16,071	1427,204	794,851
-42,300	16,072	1425,671	793,973
-41,286	16,140	1424,282	793,487
-40,271	16,112	1423,038	792,631
-39,257	16,121	1421,745	791,919
-38,242	16,166	1420,305	791,302
-37,227	16,183	1419,096	790,675
-36,213	16,159	1417,862	789,842
-35,198	16,123	1416,782	789,043
-34,184	16,115	1415,822	788,440
-33,169	16,067	1414,433	787,406
-32,154	16,098	1413,541	787,024
-31,140	16,166	1412,004	786,458
-30,125	16,197	1410,946	785,980
-29,111	16,181	1409,903	785,293
-28,096	16,113	1408,777	784,317
-27,082	16,066	1407,585	783,405
-26,067	16,078	1406,607	782,886
-25,052	16,059	1405,416	782,103
-24,038	16,022	1404,495	781,386
-23,023	16,049	1403,532	780,945
-22,009	16,042	1402,540	780,328
-20,994	16,003	1401,531	779,557
-19,979	16,014	1400,596	779,057
-18,965	16,015	1399,483	778,411
-17,950	15,957	1398,869	777,768
-16,936	15,999	1397,802	777,337
-15,921	15,984	1396,465	776,496
-14,906	15,974	1395,559	775,915
-13,892	15,952	1394,730	775,320
-12,877	15,992	1393,686	774,895
-11,863	16,004	1392,739	774,395
-10,848	15,946	1391,944	773,651
-9,833	15,947	1390,932	773,063
-8,819	15,923	1389,891	772,343
-7,804	15,843	1389,125	771,518
-6,790	15,838	1388,132	770,914
-5,775	15,808	1387,294	770,280
-4,760	15,858	1386,345	769,954
-3,746	15,806	1385,770	769,361
-2,731	15,861	1384,719	769,001
-1,717	15,847	1383,698	768,339
-0,702	15,819	1381,906	767,186
0,313	19,630	1302,708	740,780
1,327	36,098	706,446	439,860
2,342	55,455	125,260	85,764
3,356	4,867	16,541	8,590
4,371	-8,268	3,143	1,493
5,386	-136,448	0,533	0,043
6,400	-200,000	0,024	0,189
7,415	-55,984	-0,234	-0,074
8,429	-87,617	-0,375	-0,080
9,444	64,608	-0,254	-0,181
10,459	148,914	-0,239	-0,229
11,473	-22,930	-0,303	-0,129
12,488	66,155	-0,238	-0,171
13,502	4,159	-0,388	-0,200
14,517	27,803	-0,231	-0,138
15,531	165,943	-0,278	-0,279
16,546	54,214	-0,367	-0,249
17,561	135,044	-0,344	-0,317
18,575	248,030	-0,086	-0,103
19,590	332,537	-0,283	-0,388
20,604	-37,835	-0,189	-0,071
21,619	44,964	-0,462	-0,300
22,634	85,533	-0,530	-0,411
23,648	96,251	-0,545	-0,441
24,663	129,817	-0,364	-0,329
25,677	-14,755	-0,331	-0,150
26,692	46,732	-0,344	-0,226
27,707	107,579	-0,371	-0,312
28,721	88,805	-0,321	-0,253
29,736	118,920	-0,392	-0,343
30,750	158,476	-0,362	-0,355
31,765	123,672	-0,474	-0,421
32,780	37,311	-0,409	-0,255
33,794	-36,034	-0,501	-0,190
34,809	15,489	-0,302	-0,167
35,823	33,180	-0,429	-0,262
36,838	36,954	-0,437	-0,272
37,853	-16,766	-0,444	-0,197
38,867	356,434	-0,215	-0,303
39,882	39,698	-0,411	-0,260
40,896	-30,569	-0,394	-0,157
41,911	350,823	-0,217	-0,303
42,926	309,839	-0,262	-0,347
43,940	-3,920	-0,418	-0,204
44,955	186,062	-0,368	-0,387
45,969	150,880	-0,333	-0,320
46,984	209,678	-0,195	-0,216
47,999	-27,654	-0,317	-0,129
49,013	141,589	-0,313	-0,293
50,028	459,074	-0,227	-0,358
51,042	269,693	-0,291	-0,362
52,057	35,292	-0,401	-0,248
53,071	163,581	-0,290	-0,288
54,086	78,859	-0,363	-0,274
55,101	-13,271	-0,408	-0,186
56,115	-25,807	-0,361	-0,149
57,130	-14,356	-0,451	-0,204
58,144	136,991	-0,423	-0,390
59,159	62,637	-0,393	-0,276
60,174	40,777	-0,393	-0,249
61,188	-25,288	-0,366	-0,152
62,203	42,567	-0,342	-0,219
63,217	-60,047	-0,335	-0,100
64,232	-12,175	-0,320	-0,147
65,247	-54,738	-0,503	-0,159
66,261	-0,872	-0,390	-0,194
67,276	57,793	-0,443	-0,305
68,290	24,726	-0,375	-0,218
69,305	85,748	-0,267	-0,206
70,320	-109,336	-0,316	-0,047
71,334	176,633	-0,207	-0,213
72,349	19,591	-0,344	-0,194
73,363	-56,805	-0,317	-0,098
74,378	-36,499	-0,439	-0,165
75,393	114,306	-0,263	-0,226
76,407	58,022	-0,378	-0,260
77,422	191,046	-0,137	-0,145
78,436	250,783	-0,204	-0,245
79,451	-38,571	-0,292	-0,108
80,466	-35,270	-0,342	-0,130
81,480	81,927	-0,385	-0,293
82,495	93,314	-0,313	-0,249
83,509	23,332	-0,405	-0,234
84,524	40,791	-0,252	-0,160
85,539	152,613	-0,148	-0,143
86,553	-31,135	-0,398	-0,157
87,568	56,427	-0,162	-0,111
88,582	27,606	-0,345	-0,203
89,597	18,704	-0,252	-0,141
90,611	45,984	-0,251	-0,163
91,626	171,848	-0,227	-0,230
92,641	-70,231	-0,333	-0,088
93,655	48,437	-0,284	-0,187
94,670	88,703	-0,351	-0,274
95,684	126,554	-0,261	-0,233
96,699	-3,960	-0,322	-0,157
97,714	79,883	-0,201	-0,152
98,728	64,332	-0,214	-0,151
99,743	36,411	-0,234	-0,145
100,757	-21,182	-0,296	-0,127
101,772	56,734	-0,362	-0,247
102,787	19,280	-0,378	-0,212
103,801	-49,261	-0,303	-0,101
104,816	180,563	-0,311	-0,321
105,830	390,411	-0,184	-0,269
106,845	123,084	-0,249	-0,219
107,860	180,163	-0,262	-0,270
108,874	208,868	-0,277	-0,305
109,889	143,600	-0,257	-0,240
110,903	-77,003	-0,243	-0,059
111,918	1,350	-0,376	-0,189
112,933	115,336	-0,180	-0,155
113,947	-29,352	-0,102	-0,041
114,962	-44,846	-0,256	-0,089
115,976	31,450	-0,332	-0,199
116,991	205,758	-0,174	-0,190
118,006	40,857	-0,215	-0,136
119,020	18,052	-0,243	-0,136
120,035	21,527	-0,279	-0,159
121,049	39,119	-0,289	-0,181
122,064	148,989	-0,218	-0,207
123,079	94,336	-0,275	-0,219
124,093	26,890	-0,358	-0,210
125,108	324,321	-0,228	-0,306
126,122	-7,297	-0,328	-0,155
127,137	184,557	-0,188	-0,195
128,151	180,732	-0,250	-0,257
129,166	225,072	-0,219	-0,249
130,181	-22,065	-0,281	-0,119
131,195	-34,395	-0,358	-0,137
132,210	312,602	-0,269	-0,355
133,224	378,148	-0,147	-0,211
134,239	158,855	-0,141	-0,137
135,254	41,883	-0,180	-0,114
136,268	496,310	-0,103	-0,166
137,283	288,737	-0,231	-0,294
138,297	263,260	-0,222	-0,270
139,312	82,506	-0,242	-0,183
140,327	168,097	-0,298	-0,297
141,341	176,303	-0,253	-0,258
142,356	147,421	-0,184	-0,173
143,370	365,591	-0,166	-0,235
144,385	10,190	-0,371	-0,197
145,400	102,922	-0,210	-0,172
146,414	119,498	-0,248	-0,215
147,429	96,166	-0,306	-0,245
148,443	-8,623	-0,266	-0,124
149,458	-7,654	-0,180	-0,085
150,473	130,514	-0,204	-0,183
151,487	466,681	-0,118	-0,185
152,502	-13,337	-0,291	-0,131
153,516	91,785	-0,213	-0,167
154,531	-37,728	-0,389	-0,144
155,546	413,547	-0,144	-0,214
156,560	228,855	-0,139	-0,159
157,575	137,848	-0,158	-0,145
158,589	-102,055	-0,243	-0,041
159,604	43,915	-0,380	-0,243
160,619	420,102	-0,178	-0,267
161,633	98,162	-0,289	-0,233
162,648	161,493	-0,183	-0,179
163,662	-64,917	-0,137	-0,039
164,677	-105,602	-0,175	0,027
165,692	230,521	-0,151	-0,173
166,706	39,462	-0,288	-0,180
167,721	321,186	-0,271	-0,361
168,735	800,000	-0,062	-0,150
169,750	481,985	-0,165	-0,262
170,764	99,992	-0,170	-0,137
171,779	-64,167	-0,246	-0,070
172,794	547,479	-0,147	-0,246
173,808	-42,516	-0,266	-0,094
174,823	195,815	-0,307	-0,326
175,837	243,141	-0,271	-0,317
176,852	256,563	-0,193	-0,232
177,867	109,686	-0,141	-0,118
178,881	-61,392	-0,157	0,046
179,896	152,214	-0,208	-0,198
180,910	-72,361	-0,218	-0,056
181,925	145,130	-0,258	-0,241
182,940	107,580	-0,238	-0,198
183,954	271,567	-0,204	-0,251
184,969	405,715	-0,155	-0,228
185,983	370,289	-0,128	-0,182
186,998	800,000	-0,101	-0,216
188,013	-110,770	-0,179	0,026
189,027	1,428	-0,328	-0,164
190,042	130,955	-0,236	-0,211
191,056	-20,732	-0,346	-0,147
192,071	268,069	-0,227	-0,277
193,086	165,590	-0,114	-0,112
194,100	69,949	-0,257	-0,185
195,115	24,870	-0,265	-0,153
196,129	188,313	-0,188	-0,196
197,144	800,000	-0,131	-0,274
198,159	125,811	-0,250	-0,220
199,173	-47,755	-0,266	-0,089
200,188	800,000	-0,079	-0,160
201,202	-84,335	-0,189	-0,041
202,217	-19,818	-0,267	-0,114
203,232	18,791	-0,243	-0,135
204,246	-36,160	-0,280	-0,105
205,261	-21,958	-0,371	-0,156
206,275	100,298	-0,294	-0,237
207,290	33,521	-0,116	-0,070
208,304	-6,924	-0,289	-0,136
209,319	256,853	-0,198	-0,237
210,334	170,496	-0,164	-0,163
211,348	305,756	-0,130	-0,168
212,363	-99,793	-0,305	-0,053
213,377	42,087	-0,147	-0,093
214,392	-21,918	-0,093	-0,039
215,407	1,869	-0,259	-0,130
216,421	-200,000	-0,067	-0,235
217,436	158,185	-0,158	-0,152
218,450	161,897	-0,186	-0,181
219,465	90,496	-0,253	-0,196
220,480	-49,632	-0,187	-0,062
221,494	-12,184	-0,229	0,104
222,509	239,570	-0,115	-0,133
223,523	-65,727	-0,262	-0,073
224,538	-0,142	-0,236	-0,116
225,553	70,119	-0,157	-0,112
226,567	-35,115	-0,364	-0,137
227,582	-70,778	-0,255	-0,066
228,596	260,545	-0,200	-0,241
229,611	80,694	-0,174	-0,130
230,626	360,496	-0,126	-0,176
231,640	66,586	-0,221	-0,156
232,655	413,075	-0,178	-0,264
233,669	89,000	-0,205	-0,159
234,684	329,757	-0,108	-0,145
235,699	457,712	-0,134	-0,207
236,713	344,329	-0,085	-0,116
237,728	1,034	-0,323	-0,160
238,742	-42,212	-0,101	0,035
239,757	512,138	-0,137	-0,223
240,772	4,420	-0,169	-0,086
241,786	153,084	-0,194	-0,185
242,801	-200,000	-0,311	0,000
243,815	-109,125	-0,105	-0,015
244,830	43,512	-0,152	-0,096
245,844	92,246	-0,113	-0,088
246,859	204,936	-0,153	-0,164
247,874	529,079	-0,123	-0,203
248,888	525,750	-0,089	-0,145
249,903	172,979	-0,206	-0,206
250,917	156,452	-0,168	-0,161
251,932	-115,586	-0,139	0,018
252,947	-161,658	-0,204	-0,007
253,961	154,619	-0,125	-0,119
254,976	155,979	-0,128	-0,122
255,990	145,469	-0,206	-0,192
257,005	138,745	-0,204	-0,186
258,020	393,274	-0,109	-0,157
259,034	55,985	-0,180	-0,121
260,049	800,000	-0,058	-0,119
261,063	155,231	-0,205	-0,196
262,078	102,580	-0,180	-0,146
263,093	39,062	-0,189	-0,117
264,107	8,907	-0,191	-0,099
265,122	-71,071	-0,078	-0,020
266,136	245,469	-0,186	-0,217
267,151	-13,685	-0,145	-0,065
268,166	76,950	-0,126	-0,093
269,180	-48,959	-0,164	-0,054
270,195	145,702	-0,229	-0,212
271,209	14,392	-0,195	-0,105
272,224	686,135	-0,093	-0,169
273,239	-63,332	-0,101	0,028
274,253	-24,311	-0,246	-0,101
275,268	-200,000	-0,075	-0,233
276,282	-67,551	-0,306	-0,082
277,297	254,253	-0,233	-0,276
278,312	-136,368	-0,187	-0,015
279,326	425,883	-0,066	-0,099
280,341	739,161	0,034	0,064
281,355	114,140	-0,188	-0,158
282,370	152,900	-0,096	-0,090
283,384	-112,925	-0,108	-0,015
284,399	-73,437	-0,198	-0,050
285,414	371,374	-0,132	-0,186
286,428	118,550	-0,126	-0,108
287,443	800,000	-0,056	-0,146
288,457	-26,213	-0,176	0,071
289,472	-44,756	-0,136	-0,047
290,487	800,000	-0,083	-0,207
291,501	-79,093	-0,199	-0,046
292,516	-47,476	-0,167	-0,056
293,530	-19,279	-0,260	-0,111
294,545	437,662	-0,071	-0,107
295,560	581,195	-0,072	-0,123
296,574	266,125	-0,105	-0,127
297,589	-48,630	-0,184	-0,061
298,603	-11,607	-0,150	-0,068
299,618	216,056	-0,190	-0,209
300,633	178,540	-0,159	-0,160
301,647	161,490	-0,118	-0,114
302,662	117,782	-0,152	-0,129
303,676	-200,000	-0,005	-0,102
304,691	-200,000	0,006	0,028
305,706	61,367	-0,131	-0,090
306,720	-51,760	-0,219	-0,070
307,735	-6,022	-0,173	-0,081
308,749	-27,739	-0,117	-0,047
309,764	773,889	-0,071	-0,133
310,779	138,372	-0,057	-0,052
311,793	800,000	-0,073	-0,148
312,808	-129,861	-0,263	-0,025
313,822	-38,065	-0,208	-0,076
314,837	236,267	-0,176	-0,201
315,852	800,000	-0,078	-0,209
316,866	124,904	-0,131	-0,114
317,881	162,901	-0,146	-0,142
318,895	156,993	-0,128	-0,122
319,910	54,041	-0,165	-0,109
320,925	281,000	-0,158	-0,195
321,939	0,246	-0,165	-0,081
322,954	800,000	-0,114	-0,248
323,968	-38,322	-0,135	0,049
324,983	-97,791	-0,147	-0,026
325,997	16,975	-0,200	-0,109
327,012	-131,245	-0,147	-0,013
328,027	358,465	-0,110	-0,152
329,041	-61,088	-0,128	0,037
330,056	-88,142	-0,140	-0,029
331,070	-124,121	-0,224	-0,024
332,085	800,000	-0,085	-0,193
333,100	146,158	-0,131	-0,121
334,114	-79,248	-0,185	0,043
335,129	-200,000	-0,010	-0,240
336,143	-200,000	0,019	-0,207
337,158	-86,115	-0,051	0,011
338,173	35,302	-0,163	0,098
339,187	406,731	-0,059	0,086
340,202	551,151	-0,102	-0,169
341,216	73,754	-0,156	-0,113
342,231	116,497	-0,199	-0,167
343,246	-157,697	-0,133	-0,005
344,260	705,452	-0,032	0,059
345,275	655,561	-0,031	-0,054
346,289	379,443	-0,121	0,171
347,304	-151,430	-0,143	0,007
348,319	-87,244	-0,144	-0,030
349,333	75,996	-0,100	-0,073
350,348	-34,271	-0,187	-0,070
351,362	-200,000	0,012	-0,154
352,377	-200,000	-0,055	-0,271
353,392	-200,000	0,028	-0,134
354,406	15,804	-0,203	-0,109
355,421	209,515	1314,424	1416,850
356,435	161,248	1475,166	1417,368
