DTS Sentinel unit serial number:	SN410029Multiplexer serial number:	ORYXHardware model number:	OX2-SRSoftware version number:	ORYX F/W v4,00 Oryx Data Collector v3.7.2.0data status	okinstallation	B3 Nyhavnadifferential loss correction	single-endedforward channel	channel 1reverse channel	N/Adate	2023/11/30time	00:07:30forward acquisition time	300,00reverse acquisition time	0,00gamma	499,1914k internal	0,3210k external	0,3210temperature offset calibration	1,0000default loss term (dB/km)	0,3820temperature slope calibration	1,0000multiplexer offset coefficient	1,0000multiplexer slope coefficient	1,0000fibre end	0,00T internal ref (°C)	10,87T ext. ref 1 (°C)	-4,31T ext. ref 2 (°C)	-4,42length (m)	temperature (°C)	Stokes	anti-Stokes-744,400	61,804	-0,367	-0,265
-743,385	-200,000	0,087	0,430
-742,371	289,851	-0,111	-0,146
-741,356	800,000	0,096	0,304
-740,342	242,935	-0,209	-0,255
-739,327	-200,000	0,054	0,315
-738,312	800,000	-0,141	-0,318
-737,298	-200,000	-0,040	0,209
-736,283	81,315	-0,274	-0,214
-735,269	800,000	0,070	0,189
-734,254	-200,000	-0,127	0,000
-733,239	-41,156	-0,183	0,068
-732,225	-200,000	-0,010	-0,254
-731,210	86,324	0,124	0,099
-730,196	342,539	0,011	-0,016
-729,181	10,597	0,123	0,068
-728,167	287,784	0,058	-0,076
-727,152	-200,000	0,021	0,069
-726,137	-63,188	-0,056	0,017
-725,123	106,676	-0,064	-0,055
-724,108	26,162	-0,104	-0,063
-723,094	144,086	0,049	-0,048
-722,079	800,000	-0,009	-0,022
-721,064	-194,689	-0,151	0,001
-720,050	110,656	-0,090	-0,078
-719,035	-174,514	-0,100	0,002
-718,021	800,000	-0,075	-0,186
-717,006	-200,000	0,004	-0,060
-715,991	156,732	-0,137	-0,137
-714,977	-200,000	-0,009	-0,109
-713,962	-200,000	0,012	-0,095
-712,948	800,000	-0,028	0,068
-711,933	523,495	-0,026	0,044
-710,918	-200,000	-0,034	0,120
-709,904	191,547	0,069	-0,075
-708,889	-200,000	0,004	-0,031
-707,875	-117,305	-0,174	0,023
-706,860	42,389	0,064	-0,042
-705,845	-200,000	-0,036	0,127
-704,831	800,000	-0,043	-0,096
-703,816	262,298	-0,055	0,069
-702,802	478,068	0,071	-0,117
-701,787	329,430	-0,075	-0,105
-700,772	-200,000	-0,003	-0,129
-699,758	800,000	0,034	0,086
-698,743	110,674	-0,118	0,103
-697,729	310,636	0,050	-0,069
-696,714	23,215	-0,106	0,063
-695,699	142,057	-0,096	-0,092
-694,685	-200,000	-0,003	-0,181
-693,670	800,000	-0,012	-0,024
-692,656	63,497	-0,071	0,051
-691,641	-200,000	0,001	-0,118
-690,627	800,000	-0,033	0,097
-689,612	-116,830	-0,058	-0,008
-688,597	61,493	0,068	-0,049
-687,583	-200,000	0,017	0,079
-686,568	-28,980	0,057	0,024
-685,554	-123,197	-0,108	-0,012
-684,539	-200,000	-0,003	0,065
-683,524	-35,319	0,076	-0,030
-682,510	-38,893	0,030	0,012
-681,495	248,768	-0,086	-0,106
-680,481	773,554	-0,057	-0,113
-679,466	-55,672	-0,046	0,015
-678,451	230,784	0,082	-0,097
-677,437	-200,000	-0,007	-0,043
-676,422	479,710	0,071	0,117
-675,408	93,031	-0,045	-0,037
-674,393	-200,000	-0,040	-0,161
-673,378	523,315	-0,038	-0,065
-672,364	-200,000	0,034	-0,121
-671,349	161,155	-0,046	-0,047
-670,335	218,883	0,029	-0,033
-669,320	-200,000	-0,006	0,128
-668,305	175,468	0,046	-0,048
-667,291	800,000	0,037	-0,092
-666,276	42,489	-0,069	0,045
-665,262	800,000	0,023	-0,050
-664,247	800,000	-0,066	-0,132
-663,232	800,000	0,036	-0,073
-662,218	335,013	-0,115	-0,162
-661,203	-55,161	0,085	0,028
-660,189	-200,000	-0,011	0,045
-659,174	-25,332	-0,158	-0,067
-658,159	-200,000	0,007	-0,095
-657,145	17,309	-0,159	-0,091
-656,130	-127,521	-0,028	0,003
-655,116	-200,000	0,007	-0,022
-654,101	-200,000	-0,014	0,119
-653,086	800,000	0,052	0,113
-652,072	99,172	-0,061	-0,051
-651,057	-200,000	0,027	-0,184
-650,043	-61,873	-0,143	0,043
-649,028	716,072	0,037	0,071
-648,014	351,694	-0,026	-0,038
-646,999	-56,605	-0,050	-0,016
-645,984	215,720	-0,125	0,143
-644,970	-200,000	0,020	-0,181
-643,955	-200,000	0,012	-0,040
-642,941	-200,000	-0,009	-0,130
-641,926	88,012	0,132	0,106
-640,911	-200,000	0,001	0,156
-639,897	105,340	0,092	0,078
-638,882	-115,669	0,055	0,007
-637,868	-122,631	-0,102	-0,012
-636,853	-200,000	-0,041	-0,176
-635,838	-200,000	0,038	-0,136
-634,824	261,087	0,055	-0,068
-633,809	619,226	0,049	-0,089
-632,795	800,000	0,041	0,097
-631,780	-84,806	0,041	-0,009
-630,765	547,083	-0,066	0,114
-629,751	-95,070	-0,174	0,034
-628,736	-200,000	0,012	-0,121
-627,722	-28,744	-0,119	-0,049
-626,707	682,058	0,020	0,037
-625,692	603,647	-0,012	0,022
-624,678	136,074	-0,024	-0,022
-623,663	400,411	0,039	-0,059
-622,649	-20,672	-0,135	-0,060
-621,634	158,456	-0,068	-0,069
-620,619	-72,348	0,128	-0,034
-619,605	193,821	-0,110	-0,120
-618,590	-200,000	-0,017	0,063
-617,576	29,475	-0,076	0,047
-616,561	-109,772	0,078	-0,012
-615,546	147,984	-0,039	-0,038
-614,532	-181,353	0,148	-0,002
-613,517	53,173	-0,121	-0,083
-612,503	-169,749	0,059	-0,002
-611,488	-49,454	-0,100	-0,034
-610,474	7,833	0,060	0,032
-609,459	-200,000	0,001	0,077
-608,444	800,000	-0,013	0,037
-607,430	496,060	-0,043	0,071
-606,415	-15,914	0,052	0,024
-605,401	36,252	0,051	-0,032
-604,386	-200,000	0,003	0,068
-603,371	-200,000	-0,018	0,139
-602,357	92,479	0,114	-0,093
-601,342	-200,000	0,008	-0,070
-600,328	-200,000	-0,012	-0,103
-599,313	135,233	-0,061	0,057
-598,298	-145,038	-0,083	-0,005
-597,284	-3,399	0,013	0,006
-596,269	-75,186	0,137	0,035
-595,255	164,272	-0,076	0,077
-594,240	-200,000	0,004	-0,117
-593,225	23,225	-0,125	-0,074
-592,211	-32,498	-0,153	-0,061
-591,196	-114,121	0,116	-0,016
-590,182	-113,396	0,039	0,006
-589,167	241,650	-0,115	-0,138
-588,152	18,820	-0,083	-0,048
-587,138	-200,000	-0,009	0,069
-586,123	30,378	-0,043	0,026
-585,109	87,141	0,068	0,054
-584,094	800,000	0,084	0,169
-583,079	800,000	0,033	0,085
-582,065	-138,299	0,113	0,009
-581,050	-140,838	0,139	-0,010
-580,036	283,574	-0,042	-0,054
-579,021	-200,000	-0,019	0,065
-578,006	-140,734	-0,032	-0,002
-576,992	-200,000	-0,004	-0,135
-575,977	800,000	0,014	-0,030
-574,963	758,080	0,038	0,075
-573,948	315,987	0,064	-0,087
-572,934	424,218	0,060	-0,093
-571,919	-13,627	-0,098	-0,046
-570,904	800,000	-0,109	-0,277
-569,890	-23,445	0,063	0,027
-568,875	146,041	-0,027	-0,026
-567,861	-200,000	0,010	-0,044
-566,846	-121,835	0,076	0,009
-565,831	335,634	-0,039	-0,054
-564,817	384,599	-0,018	0,027
-563,802	-27,257	-0,073	-0,031
-562,788	800,000	0,053	-0,109
-561,773	-126,419	0,146	0,015
-560,758	11,134	-0,084	0,046
-559,744	331,814	-0,019	0,026
-558,729	15,050	-0,186	0,104
-557,715	-23,500	-0,081	0,035
-556,700	-200,000	0,014	0,082
-555,685	-93,332	-0,092	0,018
-554,671	338,596	0,105	0,148
-553,656	258,841	0,063	-0,079
-552,642	-18,344	0,118	0,053
-551,627	-60,461	-0,200	-0,061
-550,612	-59,040	-0,032	-0,010
-549,598	141,719	-0,071	-0,067
-548,583	424,467	-0,028	-0,043
-547,569	470,143	0,033	0,053
-546,554	53,474	0,080	0,055
-545,539	38,657	0,164	0,105
-544,525	211,456	-0,073	-0,083
-543,510	134,289	0,126	-0,118
-542,496	-6,579	-0,090	0,044
-541,481	-105,381	0,121	-0,020
-540,466	800,000	-0,035	0,105
-539,452	-28,308	-0,086	-0,035
-538,437	332,513	0,063	0,088
-537,423	24,351	0,070	0,042
-536,408	-157,598	-0,060	-0,003
-535,393	458,651	-0,057	-0,092
-534,379	-200,000	-0,047	-0,158
-533,364	-173,414	-0,082	0,002
-532,350	800,000	0,026	0,065
-531,335	703,428	0,053	0,102
-530,321	-200,000	-0,009	0,042
-529,306	-136,123	0,082	-0,007
-528,291	0,353	0,092	0,047
-527,277	-88,109	-0,112	-0,024
-526,262	357,097	0,058	0,083
-525,248	-27,742	0,043	0,018
-524,233	-200,000	0,001	-0,032
-523,218	-31,207	-0,057	-0,023
-522,204	62,849	0,120	0,086
-521,189	-43,632	-0,093	0,033
-520,175	-34,737	0,142	-0,055
-519,160	160,809	-0,048	0,049
-518,145	-200,000	0,025	-0,132
-517,131	-200,000	0,008	0,063
-516,116	-87,757	0,074	0,016
-515,102	-200,000	-0,005	-0,038
-514,087	-200,000	-0,008	-0,179
-513,072	116,476	0,077	-0,067
-512,058	-200,000	-0,028	0,099
-511,043	-87,745	0,061	0,013
-510,029	86,415	0,088	-0,069
-509,014	-139,688	0,137	-0,010
-507,999	-200,000	-0,010	0,133
-506,985	-13,463	-0,082	0,038
-505,970	99,838	0,005	0,004
-504,956	444,930	-0,094	0,150
-503,941	-200,000	0,016	-0,065
-502,926	800,000	-0,018	-0,042
-501,912	-200,000	-0,006	0,051
-500,897	-142,903	0,174	-0,012
-499,883	800,000	0,017	-0,038
-498,868	92,204	-0,065	-0,053
-497,853	-200,000	0,010	-0,188
-496,839	-200,000	-0,005	-0,063
-495,824	-200,000	-0,014	-0,077
-494,810	144,843	-0,074	0,071
-493,795	-200,000	-0,001	-0,039
-492,781	-200,000	0,006	0,035
-491,766	13,006	-0,027	0,015
-490,751	556,195	-0,017	0,029
-489,737	-38,871	0,014	-0,005
-488,722	-200,000	-0,002	-0,066
-487,708	80,247	0,096	0,074
-486,693	-124,005	0,069	0,008
-485,678	800,000	-0,057	-0,140
-484,664	800,000	0,005	-0,013
-483,649	-60,655	-0,118	-0,036
-482,635	-94,209	0,162	-0,032
-481,620	-89,335	-0,080	0,017
-480,605	800,000	-0,018	0,056
-479,591	800,000	0,019	-0,058
-478,576	-73,592	-0,099	-0,026
-477,562	-200,000	0,016	0,056
-476,547	313,573	0,032	0,043
-475,532	-170,937	-0,091	-0,002
-474,518	95,526	0,040	0,033
-473,503	-30,969	0,019	-0,008
-472,489	-48,058	-0,108	-0,037
-471,474	-185,971	-0,055	-0,001
-470,459	342,060	-0,163	-0,229
-469,445	-29,931	-0,092	-0,037
-468,430	-200,000	-0,007	-0,063
-467,416	-200,000	0,001	0,077
-466,401	209,254	0,044	-0,049
-465,386	-200,000	-0,020	0,135
-464,372	-200,000	0,006	-0,035
-463,357	252,982	0,071	0,087
-462,343	-42,668	-0,009	-0,003
-461,328	-200,000	-0,003	-0,104
-460,313	19,041	-0,100	-0,058
-459,299	-200,000	-0,017	0,109
-458,284	82,303	-0,094	-0,073
-457,270	13,835	-0,067	-0,037
-456,255	-72,596	0,152	0,040
-455,241	655,604	0,087	-0,160
-454,226	-200,000	0,000	-0,131
-453,211	88,623	0,031	0,024
-452,197	20,936	0,170	-0,099
-451,182	56,581	-0,080	-0,056
-450,168	800,000	-0,025	0,057
-449,153	272,268	-0,072	-0,091
-448,138	-59,606	-0,084	0,026
-447,124	-200,000	-0,026	-0,095
-446,109	112,285	-0,076	-0,066
-445,095	304,853	-0,008	0,011
-444,080	268,423	-0,040	0,051
-443,065	-59,560	0,061	-0,018
-442,051	28,469	0,055	0,033
-441,036	800,000	-0,039	-0,118
-440,022	-133,036	-0,102	0,009
-439,007	-137,423	-0,014	0,001
-437,992	800,000	0,039	0,114
-436,978	-70,720	-0,104	0,028
-435,963	-116,967	0,043	-0,006
-434,949	283,274	0,005	-0,007
-433,934	-200,000	-0,015	-0,090
-432,919	-82,038	-0,089	-0,021
-431,905	-119,007	0,069	-0,009
-430,890	-87,446	-0,032	0,007
-429,876	-163,186	-0,048	-0,002
-428,861	26,125	-0,165	0,099
-427,846	44,865	-0,034	-0,023
-426,832	177,174	0,062	0,065
-425,817	12,040	0,066	-0,036
-424,803	-200,000	0,005	0,054
-423,788	-87,133	0,129	0,028
-422,773	161,654	0,079	0,080
-421,759	-122,983	0,130	0,015
-420,744	135,867	-0,044	-0,041
-419,730	-3,373	0,076	-0,038
-418,715	311,564	-0,039	-0,052
-417,701	45,157	0,065	0,043
-416,686	800,000	0,023	0,046
-415,671	-58,325	0,119	0,037
-414,657	-110,064	0,073	-0,011
-413,642	-112,454	-0,118	0,017
-412,628	-34,517	-0,051	-0,020
-411,613	-53,319	-0,226	-0,074
-410,598	610,629	-0,073	-0,132
-409,584	-200,000	-0,000	0,062
-408,569	-200,000	0,022	0,104
-407,555	-173,179	0,091	0,002
-406,540	-200,000	-0,016	-0,072
-405,525	-38,915	-0,071	-0,026
-404,511	-57,203	-0,075	-0,023
-403,496	-2,971	-0,140	-0,070
-402,482	-200,000	0,025	-0,136
-401,467	83,005	0,007	0,005
-400,452	-116,377	-0,043	0,006
-399,438	21,222	-0,152	0,088
-398,423	-200,000	0,021	0,095
-397,409	202,862	-0,036	0,040
-396,394	316,509	-0,059	-0,079
-395,379	57,983	0,087	-0,061
-394,365	115,628	0,040	-0,035
-393,350	-200,000	0,025	0,122
-392,336	-97,804	-0,035	0,006
-391,321	670,027	0,034	-0,064
-390,306	800,000	-0,055	-0,120
-389,292	382,947	-0,059	0,087
-388,277	231,433	0,036	0,042
-387,263	-79,673	-0,022	0,005
-386,248	-200,000	0,002	-0,021
-385,233	45,862	0,017	0,011
-384,219	15,532	0,074	0,041
-383,204	-200,000	0,038	-0,141
-382,190	-16,657	-0,052	-0,023
-381,175	47,930	-0,046	0,031
-380,160	34,616	0,009	0,005
-379,146	-18,274	0,167	0,074
-378,131	-200,000	0,023	-0,143
-377,117	-32,344	0,051	0,020
-376,102	-3,056	0,018	0,009
-375,088	-130,437	-0,011	-0,001
-374,073	800,000	-0,032	-0,072
-373,058	-67,857	-0,066	-0,018
-372,044	431,003	-0,028	-0,043
-371,029	311,415	0,073	0,098
-370,015	-59,965	-0,073	0,022
-369,000	37,580	0,026	0,016
-367,985	151,625	-0,090	-0,088
-366,971	800,000	-0,009	-0,024
-365,956	800,000	0,042	0,089
-364,942	800,000	0,038	0,086
-363,927	-200,000	-0,010	0,124
-362,912	316,014	-0,019	-0,026
-361,898	38,746	-0,123	-0,078
-360,883	-150,603	-0,068	-0,004
-359,869	-200,000	0,010	0,040
-358,854	-51,713	0,045	0,015
-357,839	235,203	-0,017	0,020
-356,825	16,584	0,112	-0,063
-355,810	249,137	0,025	-0,030
-354,796	800,000	-0,106	-0,214
-353,781	-11,676	-0,052	0,024
-352,766	-138,068	-0,119	0,009
-351,752	800,000	0,025	-0,055
-350,737	800,000	-0,027	0,081
-349,723	-176,855	0,087	-0,002
-348,708	2,026	0,062	0,032
-347,693	-73,673	0,125	-0,032
-346,679	16,433	-0,048	-0,027
-345,664	800,000	-0,032	-0,081
-344,650	432,060	0,037	-0,058
-343,635	-99,345	0,132	-0,023
-342,620	398,202	-0,026	0,040
-341,606	342,145	0,096	0,135
-340,591	167,564	0,014	0,014
-339,577	800,000	0,027	0,085
-338,562	-200,000	-0,002	-0,050
-337,548	98,475	-0,063	0,052
-336,533	54,375	-0,026	0,018
-335,518	44,165	-0,067	0,044
-334,504	142,447	0,067	0,063
-333,489	-51,198	-0,155	-0,051
-332,475	294,282	0,042	-0,056
-331,460	-156,298	-0,107	0,005
-330,445	26,946	0,102	0,061
-329,431	-112,506	0,150	-0,021
-328,416	3,317	-0,103	0,053
-327,402	800,000	0,011	0,027
-326,387	12,805	0,176	-0,097
-325,372	-200,000	-0,003	-0,053
-324,358	8,304	0,078	-0,041
-323,343	800,000	-0,025	0,049
-322,329	-58,768	-0,018	-0,005
-321,314	305,144	0,047	0,062
-320,299	-55,949	0,064	-0,020
-319,285	110,496	0,075	0,064
-318,270	-13,899	-0,094	-0,043
-317,256	60,098	0,119	-0,084
-316,241	800,000	0,039	-0,079
-315,226	-117,652	0,047	-0,006
-314,212	266,979	-0,024	0,030
-313,197	800,000	-0,059	0,151
-312,183	86,743	0,062	-0,049
-311,168	-200,000	-0,024	-0,095
-310,153	372,587	-0,037	-0,054
-309,139	-175,453	0,098	-0,002
-308,124	786,152	-0,114	0,224
-307,110	560,497	-0,032	0,056
-306,095	-200,000	0,023	-0,140
-305,080	-33,481	0,141	-0,055
-304,066	-145,738	-0,180	0,011
-303,051	302,465	0,106	-0,140
-302,037	-51,692	-0,045	0,015
-301,022	95,105	0,048	0,039
-300,008	-200,000	-0,000	0,005
-298,993	287,822	0,026	-0,033
-297,978	134,416	0,037	0,034
-296,964	290,189	-0,045	0,058
-295,949	800,000	0,024	0,074
-294,935	-16,478	-0,102	-0,046
-293,920	-200,000	-0,027	0,105
-292,905	800,000	-0,032	0,066
-291,891	-84,840	0,160	-0,036
-290,876	800,000	-0,045	0,098
-289,862	548,939	-0,055	-0,095
-288,847	-20,936	0,089	-0,039
-287,832	-82,438	0,072	0,017
-286,818	-8,732	-0,073	-0,035
-285,803	145,873	0,083	0,079
-284,789	116,409	-0,058	0,051
-283,774	-200,000	-0,014	0,078
-282,759	-146,585	-0,143	0,009
-281,745	800,000	-0,040	-0,092
-280,730	-200,000	-0,039	-0,141
-279,716	-200,000	-0,023	-0,100
-278,701	-200,000	-0,007	0,103
-277,686	71,780	0,190	0,141
-276,672	561,225	-0,060	0,103
-275,657	800,000	-0,035	0,074
-274,643	-200,000	-0,010	0,066
-273,628	-200,000	-0,012	-0,068
-272,613	143,818	0,173	-0,165
-271,599	555,871	0,033	0,056
-270,584	591,587	0,086	0,152
-269,570	474,668	-0,016	0,025
-268,555	23,153	0,015	-0,008
-267,540	-125,947	0,024	-0,003
-266,526	-60,064	0,122	-0,037
-265,511	192,638	-0,047	0,051
-264,497	40,380	-0,051	-0,033
-263,482	-155,204	0,151	-0,007
-262,467	75,955	-0,116	-0,087
-261,453	-35,167	-0,047	-0,018
-260,438	800,000	-0,027	0,054
-259,424	-111,061	-0,083	0,012
-258,409	341,341	0,014	-0,019
-257,395	-200,000	-0,011	0,106
-256,380	11,783	0,057	0,031
-255,365	-58,694	-0,169	0,052
-254,351	97,567	0,106	0,086
-253,336	243,067	-0,102	0,122
-252,322	-91,325	0,053	-0,011
-251,307	-200,000	-0,010	-0,053
-250,292	16,395	0,049	0,027
-249,278	-3,952	0,126	-0,062
-248,263	-168,346	0,164	0,004
-247,249	800,000	0,028	0,067
-246,234	-117,219	0,134	0,017
-245,219	-200,000	0,004	-0,072
-244,205	36,333	0,094	-0,059
-243,190	800,000	-0,040	0,087
-242,176	534,966	0,081	0,138
-241,161	800,000	0,036	0,091
-240,146	800,000	0,019	0,040
-239,132	463,545	0,025	0,039
-238,117	-200,000	-0,025	-0,102
-237,103	98,416	0,033	-0,027
-236,088	-200,000	0,003	-0,015
-235,073	-200,000	0,017	0,089
-234,059	-200,000	0,030	0,136
-233,044	800,000	0,016	0,050
-232,030	772,222	0,018	0,035
-231,015	800,000	-0,008	0,024
-230,000	-200,000	0,011	-0,128
-228,986	-39,420	-0,059	-0,022
-227,971	-155,515	0,044	-0,002
-226,957	25,972	-0,125	0,074
-225,942	-48,050	0,068	-0,023
-224,927	-30,615	-0,082	0,033
-223,913	194,957	-0,051	0,055
-222,898	-200,000	-0,041	0,154
-221,884	-24,748	-0,093	-0,039
-220,869	61,858	0,102	-0,072
-219,855	-200,000	-0,015	0,114
-218,840	13,407	-0,066	0,036
-217,825	287,021	-0,012	-0,015
-216,811	426,165	-0,070	0,108
-215,796	498,012	-0,034	-0,057
-214,782	-200,000	0,012	-0,116
-213,767	-94,361	0,125	0,024
-212,752	-200,000	0,002	-0,033
-211,738	343,292	0,013	0,018
-210,723	148,292	-0,066	0,063
-209,709	-200,000	0,004	-0,046
-208,694	463,000	-0,070	-0,112
-207,679	-153,145	-0,153	-0,007
-206,665	-105,279	-0,032	0,005
-205,650	-200,000	0,045	0,166
-204,636	107,923	0,168	0,142
-203,621	-137,401	0,069	0,005
-202,606	-100,998	-0,133	-0,023
-201,592	-200,000	-0,001	-0,038
-200,577	339,088	0,115	-0,159
-199,563	74,082	0,067	-0,050
-198,548	262,364	-0,045	0,055
-197,533	-200,000	-0,032	0,128
-196,519	-200,000	-0,015	0,068
-195,504	-20,289	0,056	-0,024
-194,490	800,000	-0,069	-0,173
-193,475	156,781	0,058	-0,057
-192,460	448,284	0,021	-0,033
-191,446	202,477	0,047	0,052
-190,431	-200,000	0,006	0,040
-189,417	-200,000	-0,002	-0,115
-188,402	-18,277	-0,041	-0,018
-187,387	-200,000	0,005	0,082
-186,373	-160,675	0,023	-0,001
-185,358	-200,000	0,008	-0,133
-184,344	-200,000	-0,019	0,063
-183,329	800,000	-0,027	0,070
-182,315	-200,000	0,005	-0,084
-181,300	-200,000	-0,019	-0,095
-180,285	-69,827	-0,075	0,020
-179,271	-53,638	-0,067	0,022
-178,256	118,758	0,098	-0,086
-177,242	-200,000	-0,008	-0,030
-176,227	-200,000	-0,013	0,094
-175,212	76,899	0,175	0,132
-174,198	-140,437	-0,095	-0,007
-173,183	-70,612	-0,044	-0,012
-172,169	800,000	0,057	-0,114
-171,154	53,499	-0,039	0,027
-170,139	800,000	0,064	0,159
-169,125	495,059	0,059	0,097
-168,110	-200,000	0,021	0,101
-167,096	34,141	0,216	0,133
-166,081	300,193	-0,028	0,037
-165,066	-10,491	-0,051	0,024
-164,052	364,540	0,029	-0,042
-163,037	-113,623	-0,099	0,014
-162,023	-200,000	-0,007	0,029
-161,008	800,000	-0,093	0,204
-159,993	-200,000	-0,044	0,159
-158,979	317,289	-0,017	-0,023
-157,964	-112,236	-0,159	0,022
-156,950	34,275	-0,068	-0,042
-155,935	107,469	-0,055	-0,046
-154,920	-200,000	0,023	-0,077
-153,906	24,430	-0,050	0,029
-152,891	121,812	0,079	0,070
-151,877	800,000	-0,045	-0,101
-150,862	670,392	-0,067	0,123
-149,847	372,444	-0,035	0,051
-148,833	91,070	-0,033	0,026
-147,818	-21,220	0,046	0,020
-146,804	328,574	0,066	0,091
-145,789	52,768	0,088	-0,060
-144,775	800,000	0,055	-0,139
-143,760	-51,144	-0,138	-0,046
-142,745	125,904	-0,047	-0,042
-141,731	800,000	-0,043	-0,130
-140,716	50,360	0,049	0,033
-139,702	800,000	0,036	-0,111
-138,687	70,503	0,118	0,086
-137,672	480,770	0,036	0,059
-136,658	800,000	-0,030	-0,070
-135,643	800,000	-0,057	0,162
-134,629	124,624	-0,115	0,103
-133,614	74,922	-0,025	0,019
-132,599	-83,906	0,187	0,042
-131,585	46,918	0,053	0,035
-130,570	-132,678	-0,165	0,015
-129,556	-10,445	-0,150	-0,070
-128,541	112,393	-0,046	-0,040
-127,526	800,000	-0,034	-0,094
-126,512	800,000	0,024	-0,070
-125,497	-200,000	0,024	-0,135
-124,483	-200,000	0,005	0,037
-123,468	282,179	-0,062	-0,079
-122,453	-87,086	-0,148	-0,032
-121,439	800,000	-0,020	-0,061
-120,424	-44,785	0,027	-0,010
-119,410	-200,000	0,018	-0,066
-118,395	-130,190	0,054	0,005
-117,380	-200,000	-0,033	0,115
-116,366	43,611	0,105	0,068
-115,351	-103,061	-0,124	-0,021
-114,337	-200,000	-0,008	-0,094
-113,322	35,793	0,082	0,051
-112,307	-5,723	0,057	-0,027
-111,293	-47,258	-0,078	0,027
-110,278	167,748	0,053	0,053
-109,264	35,154	0,026	-0,016
-108,249	114,421	-0,052	-0,045
-107,234	-137,798	0,019	0,002
-106,220	-200,000	-0,015	0,136
-105,205	-112,493	0,042	0,006
-104,191	69,227	-0,019	0,014
-103,176	-200,000	-0,032	0,122
-102,162	494,846	0,093	0,151
-101,147	507,358	-0,096	0,158
-100,132	800,000	0,026	-0,072
-99,118	-200,000	0,016	-0,073
-98,103	46,144	-0,148	-0,097
-97,089	141,976	0,058	0,054
-96,074	-168,684	0,075	-0,002
-95,059	-200,000	0,020	0,131
-94,045	800,000	-0,063	-0,145
-93,030	33,738	-0,062	0,038
-92,016	-16,955	-0,127	-0,057
-91,001	520,148	0,058	-0,096
-89,986	357,369	-0,102	0,145
-88,972	36,521	0,086	0,053
-87,957	709,909	-0,031	-0,059
-86,943	-200,000	-0,010	0,040
-85,928	182,489	-0,099	0,104
-84,913	-16,555	-0,195	0,087
-83,899	-7,609	0,061	0,029
-82,884	319,827	0,087	-0,117
-81,870	201,115	-0,039	0,042
-80,855	-65,486	0,090	0,025
-79,840	-3,352	-0,076	0,037
-78,826	-200,000	-0,001	-0,101
-77,811	-26,912	0,071	-0,029
-76,797	-200,000	-0,016	-0,086
-75,782	-124,126	-0,073	-0,008
-74,767	579,152	0,080	0,139
-73,753	52,290	0,043	-0,029
-72,738	326,096	-0,010	0,014
-71,724	-117,533	0,026	0,003
-70,709	290,450	0,132	-0,170
-69,694	180,945	0,034	0,036
-68,680	-53,154	-0,095	0,031
-67,665	-200,000	-0,019	0,065
-66,651	-200,000	0,050	0,221
-65,636	518,539	0,040	0,066
-64,622	-22,999	-0,100	-0,042
-63,607	199,149	-0,072	-0,078
-62,592	336,305	0,044	0,060
-61,578	-125,396	0,030	0,003
-60,563	200,646	0,089	0,097
-59,549	800,000	-0,034	0,101
-58,534	23,315	-2,011	-1,164
-57,519	445,711	-1,266	-1,971
-56,505	-200,000	-0,241	-4,441
-55,490	468,148	0,933	1,482
-54,476	800,000	5,052	11,118
-53,461	-200,000	20,912	329,025
-52,446	800,000	757,421	2322,385
-51,432	550,378	1662,295	2825,927
-50,417	73,525	1663,889	1228,726
-49,403	18,720	1537,412	866,321
-48,388	12,692	1460,242	793,653
-47,373	18,994	1450,816	818,772
-46,359	15,850	1440,265	797,815
-45,344	11,012	1435,849	772,290
-44,330	10,909	1434,113	770,836
-43,315	10,894	1432,339	769,780
-42,300	10,902	1430,455	768,772
-41,286	10,939	1429,187	768,239
-40,271	10,919	1427,872	767,406
-39,257	10,876	1426,948	766,673
-38,242	10,932	1425,518	766,140
-37,227	10,956	1424,481	765,665
-36,213	10,922	1423,280	764,830
-35,198	11,008	1421,931	764,479
-34,184	10,964	1421,500	764,013
-33,169	10,953	1419,791	763,010
-32,154	10,979	1418,999	762,674
-31,140	10,961	1417,634	761,827
-30,125	11,070	1416,368	761,631
-29,111	11,020	1415,441	760,866
-28,096	10,989	1414,195	760,020
-27,082	10,907	1413,169	759,055
-26,067	10,883	1412,088	758,331
-25,052	10,917	1411,099	757,928
-24,038	10,918	1409,994	757,310
-23,023	10,919	1408,948	756,725
-22,009	10,907	1407,967	756,108
-20,994	10,875	1407,024	755,423
-19,979	10,906	1406,110	755,047
-18,965	10,891	1405,047	754,377
-17,950	10,867	1404,062	753,705
-16,936	10,849	1403,201	753,129
-15,921	10,758	1402,655	752,383
-14,906	10,813	1401,559	752,021
-13,892	10,879	1400,468	751,716
-12,877	10,813	1399,739	750,986
-11,863	10,782	1398,827	750,324
-10,848	10,800	1397,941	749,902
-9,833	10,782	1397,189	749,386
-8,819	10,730	1396,496	748,742
-7,804	10,703	1395,243	747,915
-6,790	10,704	1394,490	747,486
-5,775	10,667	1393,341	746,671
-4,760	10,770	1392,289	746,550
-3,746	10,744	1391,364	745,908
-2,731	10,706	1390,508	745,242
-1,717	10,692	1389,755	744,745
-0,702	10,725	1387,722	743,778
0,313	14,811	1301,497	716,269
1,327	31,094	692,960	418,403
2,342	48,059	120,259	79,178
3,356	4,827	16,478	8,519
4,371	1,388	3,352	1,694
5,386	-13,536	0,909	0,414
6,400	-200,000	0,133	0,455
7,415	-49,063	-0,322	-0,108
8,429	160,288	-0,187	-0,184
9,444	102,104	-0,244	-0,201
10,459	-105,034	-0,365	-0,058
11,473	209,238	-0,250	-0,276
12,488	15,566	-0,342	-0,189
13,502	-10,046	-0,303	-0,141
14,517	-40,889	-0,392	-0,142
15,531	1,902	-0,346	-0,175
16,546	66,109	-0,399	-0,285
17,561	223,110	-0,282	-0,321
18,575	46,069	-0,092	-0,060
19,590	359,739	-0,158	-0,224
20,604	-13,064	-0,295	-0,135
21,619	-15,976	-0,432	-0,193
22,634	20,955	-0,503	-0,287
23,648	157,909	-0,377	-0,368
24,663	102,331	-0,384	-0,316
25,677	242,003	-0,263	-0,310
26,692	347,057	-0,190	-0,265
27,707	56,880	-0,447	-0,306
28,721	168,067	-0,295	-0,295
29,736	39,866	-0,546	-0,344
30,750	39,115	-0,395	-0,248
31,765	-54,565	-0,388	-0,123
32,780	167,297	-0,259	-0,259
33,794	165,154	-0,216	-0,215
34,809	41,475	-0,307	-0,195
35,823	25,391	-0,328	-0,192
36,838	5,407	-0,453	-0,235
37,853	28,743	-0,475	-0,282
38,867	349,738	-0,220	-0,307
39,882	110,032	-0,285	-0,241
40,896	89,690	-0,274	-0,215
41,911	-25,113	-0,452	-0,188
42,926	25,733	-0,350	-0,204
43,940	39,355	-0,383	-0,240
44,955	15,821	-0,215	-0,119
45,969	74,315	-0,380	-0,280
46,984	119,691	-0,325	-0,283
47,999	198,312	-0,205	-0,220
49,013	-81,846	-0,379	-0,086
50,028	-34,691	-0,339	-0,130
51,042	208,289	-0,206	-0,227
52,057	152,467	-0,296	-0,284
53,071	58,331	-0,365	-0,251
54,086	-20,140	-0,280	-0,121
55,101	434,234	-0,230	-0,352
56,115	-16,459	-0,438	-0,194
57,130	-99,139	-0,339	-0,060
58,144	-16,984	-0,412	-0,182
59,159	144,441	-0,335	-0,314
60,174	-150,794	-0,380	-0,020
61,188	52,467	-0,282	-0,189
62,203	106,653	-0,346	-0,288
63,217	-98,763	-0,292	-0,052
64,232	-107,607	-0,385	-0,058
65,247	12,096	-0,334	-0,180
66,261	195,087	-0,341	-0,364
67,276	140,129	-0,275	-0,254
68,290	85,571	-0,281	-0,217
69,305	-15,170	-0,317	-0,142
70,320	78,826	-0,368	-0,276
71,334	341,249	-0,153	-0,210
72,349	155,546	-0,295	-0,285
73,363	184,694	-0,236	-0,246
74,378	56,568	-0,233	-0,158
75,393	-34,529	-0,392	-0,150
76,407	643,137	-0,106	-0,189
77,422	59,410	-0,209	-0,144
78,436	187,357	-0,262	-0,274
79,451	107,450	-0,344	-0,287
80,466	-3,400	-0,362	-0,176
81,480	59,211	-0,436	-0,300
82,495	61,159	-0,334	-0,232
83,509	118,121	-0,256	-0,221
84,524	214,280	-0,250	-0,277
85,539	78,174	-0,264	-0,197
86,553	-54,747	-0,312	-0,098
87,568	-33,147	-0,224	-0,087
88,582	177,006	-0,271	-0,276
89,597	58,671	-0,275	-0,189
90,611	-34,146	-0,322	-0,123
91,626	-27,243	-0,350	-0,142
92,641	164,252	-0,260	-0,257
93,655	26,554	-0,317	-0,185
94,670	424,293	-0,142	-0,215
95,684	-52,690	-0,409	-0,131
96,699	43,055	-0,182	-0,116
97,714	-34,475	-0,235	-0,090
98,728	-136,647	-0,284	-0,023
99,743	264,166	-0,110	-0,135
100,757	175,126	-0,189	-0,191
101,772	222,393	-0,188	-0,212
102,787	46,795	-0,402	-0,261
103,801	20,009	-0,229	-0,129
104,816	-20,504	-0,271	-0,116
105,830	66,079	-0,301	-0,214
106,845	-72,262	-0,372	-0,096
107,860	184,234	-0,265	-0,275
108,874	25,638	-0,332	-0,193
109,889	227,328	-0,212	-0,242
110,903	84,586	-0,214	-0,164
111,918	-17,519	-0,341	-0,149
112,933	-66,231	-0,321	-0,089
113,947	87,396	-0,193	-0,149
114,962	-79,482	-0,247	0,058
115,976	-69,583	-0,316	-0,084
116,991	-4,615	-0,367	-0,176
118,006	137,121	-0,181	-0,165
119,020	-34,470	-0,259	-0,099
120,035	59,160	-0,245	-0,168
121,049	-0,992	-0,204	-0,101
122,064	-39,658	-0,267	-0,097
123,079	42,794	-0,224	-0,142
124,093	-82,580	-0,293	-0,066
125,108	168,824	-0,187	-0,186
126,122	31,305	-0,291	-0,174
127,137	0,862	-0,193	-0,096
128,151	8,092	-0,258	-0,135
129,166	286,797	-0,201	-0,254
130,181	52,169	-0,242	-0,160
131,195	185,235	-0,263	-0,273
132,210	29,940	-0,285	-0,169
133,224	245,353	-0,223	-0,262
134,239	226,625	-0,236	-0,268
135,254	-24,607	-0,236	-0,098
136,268	43,653	-0,204	-0,130
137,283	-94,081	-0,400	-0,076
138,297	75,636	-0,232	-0,170
139,312	109,012	-0,299	-0,249
140,327	370,989	-0,099	-0,141
141,341	-48,318	-0,321	-0,107
142,356	212,458	-0,143	-0,157
143,370	308,658	-0,134	-0,175
144,385	121,364	-0,283	-0,246
145,400	64,979	-0,313	-0,220
146,414	48,415	-0,304	-0,198
147,429	46,794	-0,288	-0,186
148,443	30,268	-0,251	-0,149
149,458	70,685	-0,350	-0,252
150,473	-35,587	-0,246	-0,092
151,487	-29,528	-0,256	-0,102
152,502	-98,838	-0,369	-0,065
153,516	0,951	-0,323	-0,161
154,531	103,803	-0,256	-0,209
155,546	230,396	-0,229	-0,262
156,560	214,718	-0,062	-0,069
157,575	-64,712	-0,239	-0,067
158,589	-1,957	-0,297	-0,145
159,604	153,598	-0,261	-0,249
160,619	66,854	-0,388	-0,275
161,633	175,497	-0,145	-0,146
162,648	360,348	-0,159	-0,221
163,662	620,206	-0,074	-0,130
164,677	-124,288	-0,134	-0,014
165,692	34,820	-0,301	-0,183
166,706	212,528	-0,179	-0,197
167,721	44,812	-0,224	-0,143
168,735	180,706	-0,185	-0,189
169,750	14,478	-0,222	-0,120
170,764	3,442	-0,273	-0,138
171,779	-109,162	-0,242	-0,035
172,794	63,590	-0,273	-0,190
173,808	-200,000	-0,053	-0,210
174,823	234,697	-0,239	-0,275
175,837	92,809	-0,306	-0,240
176,852	39,260	-0,197	-0,122
177,867	-4,248	-0,237	-0,114
178,881	51,416	-0,219	-0,144
179,896	-174,647	-0,281	-0,005
180,910	36,032	-0,216	-0,132
181,925	82,257	-0,311	-0,234
182,940	47,281	-0,267	-0,173
183,954	-74,081	-0,278	-0,069
184,969	501,288	-0,128	-0,206
185,983	-22,934	-0,227	-0,094
186,998	-27,301	-0,185	-0,074
188,013	24,539	-0,249	-0,142
189,027	36,097	-0,314	-0,192
190,042	7,488	-0,238	-0,123
191,056	127,834	-0,165	-0,145
192,071	62,156	-0,243	-0,168
193,086	-5,010	-0,191	-0,091
194,100	416,543	0,015	-0,022
195,115	384,120	-0,113	-0,162
196,129	281,166	-0,175	-0,218
197,144	93,263	-0,246	-0,193
198,159	44,962	-0,227	-0,144
199,173	-39,693	-0,207	-0,075
200,188	-95,360	-0,202	-0,037
201,202	283,299	-0,153	-0,191
202,217	115,791	-0,202	-0,172
203,232	-12,372	-0,086	-0,039
204,246	341,970	-0,165	-0,224
205,261	632,079	-0,178	-0,314
206,275	268,128	-0,078	-0,095
207,290	316,906	-0,190	-0,249
208,304	-109,140	-0,237	-0,034
209,319	84,698	-0,160	-0,121
210,334	54,531	-0,247	-0,165
211,348	-52,357	-0,281	0,090
212,363	109,112	-0,183	-0,151
213,377	62,459	-0,093	-0,065
214,392	-79,643	-0,240	-0,056
215,407	-80,326	-0,282	-0,065
216,421	-42,989	-0,313	-0,109
217,436	91,905	-0,105	-0,082
218,450	195,087	-0,162	-0,171
219,465	134,679	-0,166	-0,149
220,480	800,000	-0,087	-0,190
221,494	174,545	-0,072	-0,072
222,509	-71,714	-0,236	0,061
223,523	121,385	-0,132	-0,114
224,538	127,456	-0,176	-0,155
225,553	80,689	-0,220	-0,164
226,567	-47,095	-0,240	-0,081
227,582	271,666	-0,226	-0,276
228,596	800,000	-0,082	-0,251
229,611	436,309	-0,117	-0,177
230,626	-10,340	-0,197	-0,090
231,640	615,497	-0,164	-0,286
232,655	27,432	-0,255	-0,148
233,669	675,174	-0,143	-0,258
234,684	92,796	-0,233	-0,181
235,699	-75,525	-0,105	0,026
236,713	153,792	-0,162	-0,153
237,728	109,164	-0,055	-0,046
238,742	87,476	-0,141	-0,108
239,757	79,861	-0,140	-0,104
240,772	365,109	-0,096	-0,133
241,786	297,560	-0,142	-0,180
242,801	800,000	-0,139	-0,268
243,815	-51,873	-0,146	0,047
244,830	11,474	-0,123	-0,065
245,844	133,064	-0,113	-0,101
246,859	-62,001	-0,246	-0,070
247,874	800,000	-0,127	-0,277
248,888	499,735	-0,113	-0,181
249,903	321,687	-0,086	-0,113
250,917	206,056	-0,207	-0,222
251,932	37,727	-0,130	-0,080
252,947	800,000	-0,100	-0,277
253,961	147,481	-0,159	-0,148
254,976	174,266	-0,217	-0,216
255,990	-53,119	-0,240	-0,076
257,005	-85,628	-0,130	-0,028
258,020	-18,686	-0,282	-0,121
259,034	101,713	-0,178	-0,143
260,049	800,000	-0,080	-0,157
261,063	251,593	-0,141	-0,166
262,078	109,507	-0,242	-0,200
263,093	1,824	-0,269	-0,133
264,107	68,352	-0,255	-0,180
265,122	19,546	-0,190	-0,105
266,136	-147,643	-0,243	0,014
267,151	160,203	-0,152	-0,146
268,166	-66,372	-0,040	0,011
269,180	53,175	-0,293	-0,193
270,195	800,000	-0,103	-0,264
271,209	238,320	-0,135	-0,155
272,224	518,160	-0,138	-0,223
273,239	169,731	-0,125	-0,123
274,253	68,539	-0,095	-0,067
275,268	707,171	-0,107	-0,195
276,282	28,851	-0,235	-0,137
277,297	75,444	-0,124	-0,090
278,312	79,889	-0,199	-0,147
279,326	136,065	-0,048	-0,043
280,341	-3,026	-0,120	-0,057
281,355	-2,546	-0,134	-0,064
282,370	68,073	-0,109	-0,076
283,384	64,090	-0,137	-0,095
284,399	77,040	-0,209	-0,153
285,414	18,041	-0,122	-0,067
286,428	800,000	-0,103	-0,227
287,443	-179,637	-0,084	-0,001
288,457	164,380	-0,140	-0,136
289,472	301,649	-0,200	-0,255
290,487	760,470	-0,087	-0,162
291,501	5,408	-0,103	-0,052
292,516	-1,219	-0,293	-0,142
293,530	383,238	-0,103	-0,147
294,545	435,353	-0,140	-0,210
295,560	800,000	-0,064	-0,146
296,574	197,463	-0,033	0,035
297,589	-200,000	-0,022	-0,177
298,603	214,572	-0,210	-0,229
299,618	-37,417	-0,166	0,061
300,633	-67,915	-0,212	-0,056
301,647	47,724	-0,190	-0,122
302,662	223,770	-0,081	-0,090
303,676	120,152	-0,069	-0,059
304,691	-64,620	-0,116	-0,032
305,706	-56,694	-0,226	-0,068
306,720	-105,495	-0,170	-0,026
307,735	254,196	-0,150	-0,176
308,749	-96,756	-0,074	0,013
309,764	-36,460	-0,145	0,053
310,779	345,487	-0,167	-0,226
311,793	-200,000	0,001	-0,126
312,808	-118,072	-0,181	-0,022
313,822	-95,970	-0,164	-0,030
314,837	-147,209	-0,163	0,009
315,852	438,628	-0,136	-0,205
316,866	800,000	-0,054	-0,126
317,881	-48,806	-0,143	-0,047
318,895	72,420	-0,160	-0,114
319,910	-103,039	-0,132	-0,021
320,925	-24,087	-0,161	-0,066
321,939	60,650	-0,173	-0,117
322,954	-3,495	-0,153	-0,073
323,968	97,720	-0,103	-0,081
324,983	26,322	-0,153	0,087
325,997	-30,981	-0,262	-0,101
327,012	426,899	-0,093	-0,138
328,027	-2,669	-0,202	-0,096
329,041	354,111	-0,078	-0,106
330,056	173,708	-0,124	-0,123
331,070	-64,985	-0,063	0,017
332,085	716,473	-0,103	-0,188
333,100	-122,148	-0,071	0,008
334,114	-40,611	-0,254	-0,090
335,129	446,056	-0,113	-0,171
336,143	270,106	-0,089	-0,107
337,158	-49,755	-0,200	-0,065
338,173	-54,490	-0,053	0,016
339,187	-200,000	-0,011	-0,083
340,202	78,606	-0,208	-0,152
341,216	-51,902	-0,250	-0,079
342,231	66,937	-0,128	-0,089
343,246	-75,506	-0,088	-0,021
344,260	-200,000	-0,030	-0,241
345,275	800,000	-0,036	-0,073
346,289	-16,817	-0,111	-0,048
347,304	157,405	-0,100	-0,095
348,319	164,700	-0,129	-0,124
349,333	130,565	-0,171	-0,150
350,348	148,375	-0,124	-0,115
351,362	75,960	-0,128	0,092
352,377	-33,708	-0,151	-0,057
353,392	234,449	-0,090	-0,101
354,406	-94,017	-0,150	-0,028
355,421	207,431	1310,750	1400,689
356,435	159,571	1470,970	1401,176
