DTS Sentinel unit serial number:	SN410029Multiplexer serial number:	ORYXHardware model number:	OX2-SRSoftware version number:	ORYX F/W v4,00 Oryx Data Collector v3.7.2.0data status	okinstallation	B3 Nyhavnadifferential loss correction	single-endedforward channel	channel 1reverse channel	N/Adate	2023/12/04time	19:32:30forward acquisition time	300,00reverse acquisition time	0,00gamma	499,1914k internal	0,3200k external	0,3200temperature offset calibration	1,0000default loss term (dB/km)	0,3820temperature slope calibration	1,0000multiplexer offset coefficient	1,0000multiplexer slope coefficient	1,0000fibre end	0,00T internal ref (°C)	14,62T ext. ref 1 (°C)	-0,71T ext. ref 2 (°C)	-0,72length (m)	temperature (°C)	Stokes	anti-Stokes-744,400	356,478	-0,106	-0,154
-743,385	-200,000	-0,084	0,346
-742,371	201,921	-0,180	-0,202
-741,356	-200,000	-0,031	0,370
-740,342	-51,618	-0,211	-0,071
-739,327	-200,000	-0,012	0,202
-738,312	50,802	-0,342	-0,235
-737,298	-200,000	0,062	0,211
-736,283	-200,000	-0,010	-0,209
-735,269	-200,000	-0,043	0,357
-734,254	76,387	-0,257	-0,198
-733,239	111,146	-0,095	0,083
-732,225	-200,000	0,062	-0,311
-731,210	298,857	0,089	0,120
-730,196	-200,000	0,048	0,175
-729,181	-200,000	-0,027	0,088
-728,167	-200,000	0,027	0,123
-727,152	419,820	-0,067	-0,104
-726,137	572,625	-0,080	-0,142
-725,123	-52,851	-0,141	-0,047
-724,108	58,832	-0,034	0,025
-723,094	-86,158	0,039	-0,009
-722,079	148,878	-0,076	-0,075
-721,064	703,493	0,070	0,135
-720,050	51,153	-0,033	0,022
-719,035	-53,958	0,066	-0,022
-718,021	-200,000	-0,004	0,016
-717,006	-200,000	0,005	-0,111
-715,991	37,295	-0,032	0,020
-714,977	-14,967	-0,064	-0,030
-713,962	-200,000	0,014	0,058
-712,948	-200,000	0,005	0,138
-711,933	-72,999	0,127	-0,034
-710,918	-134,923	-0,194	0,017
-709,904	-200,000	0,000	0,045
-708,889	-200,000	-0,005	-0,042
-707,875	-200,000	0,005	-0,166
-706,860	-7,051	-0,106	-0,052
-705,845	46,447	0,025	-0,017
-704,831	-200,000	-0,019	-0,082
-703,816	-198,995	-0,078	-0,000
-702,802	-200,000	0,013	-0,069
-701,787	-26,762	-0,118	0,050
-700,772	305,715	-0,047	0,063
-699,758	-200,000	0,009	-0,141
-698,743	620,057	0,034	0,063
-697,729	-200,000	-0,014	-0,100
-696,714	-64,754	-0,121	0,035
-695,699	-200,000	0,005	-0,059
-694,685	800,000	0,030	-0,062
-693,670	-56,981	-0,103	0,033
-692,656	260,198	-0,058	0,074
-691,641	-87,100	0,167	-0,037
-690,627	229,918	-0,025	0,030
-689,612	-200,000	0,015	0,102
-688,597	-111,142	-0,043	-0,006
-687,583	309,442	-0,039	0,054
-686,568	-60,449	0,051	-0,016
-685,554	-200,000	-0,006	-0,035
-684,539	299,624	-0,028	0,038
-683,524	800,000	-0,028	-0,081
-682,510	-200,000	0,025	-0,118
-681,495	-116,286	-0,162	-0,022
-680,481	-200,000	0,007	-0,129
-679,466	-200,000	0,009	-0,104
-678,451	350,001	-0,091	0,130
-677,437	115,052	0,052	0,046
-676,422	-119,181	0,055	-0,007
-675,408	-130,316	0,208	0,020
-674,393	-200,000	-0,009	-0,061
-673,378	-200,000	0,009	-0,039
-672,364	115,304	-0,038	0,033
-671,349	146,134	0,059	0,058
-670,335	-128,162	-0,097	0,010
-669,320	143,661	-0,109	0,105
-668,305	800,000	-0,033	0,098
-667,291	-145,009	-0,097	0,006
-666,276	-200,000	-0,000	0,061
-665,262	-200,000	0,020	-0,099
-664,247	12,029	0,015	0,008
-663,232	-81,381	0,160	0,038
-662,218	800,000	-0,025	-0,054
-661,203	3,099	0,093	0,049
-660,189	-102,130	-0,091	-0,016
-659,174	-200,000	0,018	-0,123
-658,159	-135,259	-0,165	0,014
-657,145	-83,559	-0,074	0,017
-656,130	800,000	-0,009	-0,020
-655,116	-92,446	0,068	0,014
-654,101	-122,120	0,054	0,006
-653,086	48,164	-0,045	0,030
-652,072	-200,000	-0,010	0,041
-651,057	-200,000	-0,047	-0,190
-650,043	395,011	-0,088	-0,134
-649,028	-200,000	-0,018	-0,111
-648,014	208,184	-0,048	0,054
-646,999	-58,441	-0,106	-0,033
-645,984	278,690	-0,078	0,102
-644,970	34,488	-0,128	0,081
-643,955	503,767	-0,060	0,101
-642,941	798,188	0,009	-0,017
-641,926	65,677	-0,090	-0,066
-640,911	53,077	0,119	0,082
-639,897	39,530	0,168	0,109
-638,882	534,454	0,032	0,056
-637,868	800,000	-0,017	-0,039
-636,853	-51,860	-0,101	0,034
-635,838	-91,110	-0,079	-0,016
-634,824	20,233	0,061	0,035
-633,809	-200,000	-0,034	-0,128
-632,795	-182,615	0,237	0,003
-631,780	-129,999	-0,027	0,003
-630,765	103,019	-0,034	-0,029
-629,751	-12,319	-0,118	-0,056
-628,736	-98,572	-0,115	0,021
-627,722	414,251	-0,018	-0,028
-626,707	800,000	-0,022	-0,044
-625,692	691,965	0,054	0,102
-624,678	-131,337	0,044	-0,004
-623,663	130,438	0,076	-0,070
-622,649	32,080	-0,138	0,086
-621,634	76,201	0,067	-0,051
-620,619	-113,271	-0,144	0,020
-619,605	-200,000	-0,009	0,030
-618,590	800,000	-0,050	-0,108
-617,576	-121,907	0,012	0,001
-616,561	-26,134	-0,166	-0,070
-615,546	-28,561	-0,046	0,019
-614,532	-37,861	-0,068	0,026
-613,517	-110,987	-0,043	-0,006
-612,503	276,501	-0,063	-0,081
-611,488	800,000	0,050	0,157
-610,474	-81,920	-0,029	-0,007
-609,459	-17,374	-0,092	-0,042
-608,444	30,588	-0,074	0,046
-607,430	39,814	-0,025	0,016
-606,415	280,104	-0,078	-0,101
-605,401	800,000	0,037	0,110
-604,386	286,801	0,054	-0,071
-603,371	-200,000	0,006	0,122
-602,357	-200,000	0,006	-0,092
-601,342	-200,000	-0,007	0,078
-600,328	-200,000	-0,010	-0,055
-599,313	-106,205	-0,048	0,008
-598,298	-6,276	0,041	-0,020
-597,284	268,043	0,084	-0,107
-596,269	-38,136	0,058	0,022
-595,255	228,553	0,069	0,082
-594,240	83,832	0,043	0,034
-593,225	-200,000	0,016	-0,112
-592,211	-103,098	-0,174	-0,029
-591,196	373,646	0,051	0,075
-590,182	81,528	0,066	-0,052
-589,167	-54,276	-0,099	0,032
-588,152	-66,471	-0,040	0,011
-587,138	-159,115	0,072	0,003
-586,123	-56,133	-0,163	-0,052
-585,109	-200,000	-0,027	-0,154
-584,094	-200,000	0,015	-0,073
-583,079	-52,005	-0,038	0,013
-582,065	55,746	0,166	0,116
-581,050	-200,000	0,012	0,098
-580,036	515,141	-0,056	0,096
-579,021	-200,000	-0,008	-0,068
-578,006	-191,823	-0,066	0,000
-576,992	3,450	-0,074	-0,039
-575,977	-65,572	-0,067	-0,019
-574,963	-59,101	0,094	0,029
-573,948	137,725	-0,018	-0,017
-572,934	22,847	0,103	-0,061
-571,919	428,825	-0,044	-0,068
-570,904	-5,257	-0,108	0,054
-569,890	-102,091	-0,145	0,025
-568,875	346,228	0,034	0,049
-567,861	-87,602	-0,102	0,022
-566,846	50,074	-0,054	0,037
-565,831	85,814	0,051	0,041
-564,817	12,760	-0,132	-0,073
-563,802	110,491	-0,038	-0,033
-562,788	98,606	-0,072	-0,060
-561,773	-36,688	0,090	-0,035
-560,758	14,119	0,106	0,059
-559,744	113,303	0,096	0,084
-558,729	36,798	0,024	-0,015
-557,715	-200,000	-0,005	-0,104
-556,700	60,182	0,023	0,016
-555,685	305,343	-0,046	-0,062
-554,671	-38,082	-0,073	-0,028
-553,656	-80,289	0,058	-0,014
-552,642	54,377	0,066	-0,045
-551,627	-45,106	-0,037	0,013
-550,612	-74,907	0,118	-0,030
-549,598	121,235	-0,103	-0,093
-548,583	351,363	-0,059	0,084
-547,569	-0,318	-0,010	0,005
-546,554	-152,185	0,117	0,006
-545,539	-200,000	-0,012	-0,044
-544,525	101,638	0,044	-0,037
-543,510	-49,904	-0,127	-0,043
-542,496	-200,000	0,003	-0,021
-541,481	126,568	-0,035	-0,032
-540,466	38,727	-0,015	-0,010
-539,452	-13,710	0,174	0,081
-538,437	64,247	0,063	-0,046
-537,423	-200,000	0,004	0,039
-536,408	-151,455	0,105	-0,006
-535,393	-21,118	-0,081	0,036
-534,379	9,387	-0,064	-0,035
-533,364	800,000	0,032	-0,090
-532,350	800,000	0,022	0,048
-531,335	377,946	0,057	-0,084
-530,321	-200,000	0,022	0,144
-529,306	800,000	-0,022	0,050
-528,291	120,912	-0,126	-0,113
-527,277	446,401	0,033	-0,052
-526,262	131,540	0,011	-0,010
-525,248	-91,154	0,096	0,020
-524,233	-87,306	0,082	-0,018
-523,218	-200,000	-0,005	0,080
-522,204	127,690	0,052	0,047
-521,189	67,095	-0,124	-0,091
-520,175	-40,993	-0,060	0,022
-519,160	-200,000	0,006	-0,116
-518,145	129,742	0,136	0,126
-517,131	-88,560	0,189	-0,040
-516,116	4,543	0,090	-0,048
-515,102	-0,195	0,100	-0,051
-514,087	800,000	-0,024	0,055
-513,072	800,000	0,048	-0,102
-512,058	159,777	-0,110	-0,110
-511,043	103,229	0,073	0,062
-510,029	73,856	-0,027	-0,020
-509,014	-64,430	-0,084	0,025
-507,999	-122,400	0,139	0,016
-506,985	800,000	0,034	-0,076
-505,970	-187,934	-0,111	-0,001
-504,956	-200,000	-0,001	0,030
-503,941	-55,342	-0,029	-0,009
-502,926	312,261	0,080	0,109
-501,912	-190,615	0,154	0,001
-500,897	-200,000	-0,013	-0,063
-499,883	-52,772	-0,112	-0,037
-498,868	68,649	0,009	-0,006
-497,853	-102,155	0,055	0,009
-496,839	800,000	0,040	0,086
-495,824	731,052	-0,019	-0,037
-494,810	-139,998	-0,072	-0,005
-493,795	11,876	0,065	0,036
-492,781	-200,000	-0,011	0,085
-491,766	800,000	0,017	0,045
-490,751	-62,178	-0,049	0,015
-489,737	169,103	0,063	-0,064
-488,722	274,907	0,020	0,025
-487,708	800,000	0,037	-0,119
-486,693	57,995	-0,078	0,055
-485,678	-123,397	-0,164	0,019
-484,664	-200,000	0,023	-0,131
-483,649	254,887	-0,042	-0,052
-482,635	95,985	-0,136	-0,112
-481,620	785,158	0,067	-0,133
-480,605	800,000	0,020	-0,057
-479,591	800,000	0,027	-0,064
-478,576	93,587	-0,091	0,074
-477,562	498,120	-0,026	-0,043
-476,547	-92,332	-0,036	0,007
-475,532	383,060	-0,055	0,081
-474,518	800,000	0,031	0,073
-473,503	324,383	-0,041	0,057
-472,489	-200,000	-0,043	0,220
-471,474	-65,443	-0,104	0,030
-470,459	-200,000	-0,006	0,047
-469,445	-69,556	-0,162	0,044
-468,430	-136,228	0,108	0,009
-467,416	-200,000	-0,004	-0,024
-466,401	-200,000	0,012	-0,080
-465,386	369,702	0,076	0,110
-464,372	142,089	0,056	0,053
-463,357	189,009	-0,100	-0,108
-462,343	-1,879	-0,097	0,049
-461,328	458,677	0,012	-0,018
-460,313	-83,803	-0,047	-0,011
-459,299	-43,491	0,098	-0,035
-458,284	-119,649	0,088	-0,011
-457,270	-93,898	-0,094	0,018
-456,255	-200,000	0,002	-0,129
-455,241	-200,000	0,008	-0,057
-454,226	800,000	-0,028	0,066
-453,211	-21,578	-0,144	-0,063
-452,197	142,507	-0,076	0,073
-451,182	-34,066	0,043	-0,017
-450,168	363,242	-0,033	0,048
-449,153	-200,000	-0,018	-0,115
-448,138	2,854	0,077	0,040
-447,124	240,013	0,027	0,032
-446,109	-200,000	0,013	-0,085
-445,095	-141,633	-0,081	-0,006
-444,080	287,577	0,060	-0,078
-443,065	138,297	0,103	0,098
-442,051	-29,874	0,110	0,045
-441,036	-112,580	-0,169	-0,024
-440,022	-200,000	0,026	-0,098
-439,007	-64,658	0,055	-0,016
-437,992	627,766	-0,008	0,015
-436,978	-34,506	-0,070	0,027
-435,963	360,521	0,048	0,069
-434,949	-164,239	-0,088	-0,003
-433,934	40,449	0,050	-0,032
-432,919	-200,000	-0,003	-0,130
-431,905	800,000	0,021	0,057
-430,890	-91,798	-0,056	0,011
-429,876	227,335	0,071	0,083
-428,861	-92,199	0,135	0,027
-427,846	35,087	-0,083	0,052
-426,832	124,500	0,008	-0,007
-425,817	381,135	-0,070	-0,104
-424,803	-32,068	0,070	-0,028
-423,788	133,797	-0,099	-0,092
-422,773	800,000	-0,065	0,136
-421,759	-200,000	0,030	0,149
-420,744	16,893	-0,149	-0,085
-419,730	-109,788	-0,161	-0,024
-418,715	800,000	0,013	-0,040
-417,701	-150,644	-0,135	0,007
-416,686	31,093	-0,113	0,070
-415,671	132,857	0,073	0,068
-414,657	374,344	0,032	-0,046
-413,642	-46,595	0,068	-0,024
-412,628	-85,823	-0,077	0,017
-411,613	-101,396	-0,086	-0,015
-410,598	-200,000	-0,021	0,149
-409,584	697,920	0,009	-0,016
-408,569	-200,000	-0,026	0,159
-407,555	373,995	-0,077	0,113
-406,540	-24,777	0,084	0,035
-405,525	122,998	-0,056	0,050
-404,511	576,077	0,048	-0,084
-403,496	-35,911	-0,050	-0,019
-402,482	437,516	0,066	-0,103
-401,467	800,000	0,035	0,104
-400,452	-3,676	0,062	0,031
-399,438	800,000	-0,012	-0,029
-398,423	318,613	0,015	-0,020
-397,409	-58,400	-0,096	-0,030
-396,394	-37,436	-0,112	-0,043
-395,379	800,000	-0,028	-0,062
-394,365	407,856	0,071	0,108
-393,350	-200,000	0,002	0,023
-392,336	-105,640	0,086	0,014
-391,321	62,669	-0,050	0,036
-390,306	-106,038	0,106	0,017
-389,292	-101,808	-0,118	0,020
-388,277	-84,252	-0,049	-0,011
-387,263	233,929	0,059	-0,070
-386,248	667,143	-0,026	-0,049
-385,233	43,165	0,206	0,135
-384,219	0,252	-0,016	0,008
-383,204	-200,000	-0,013	0,062
-382,190	153,423	-0,113	-0,111
-381,175	132,361	-0,033	0,031
-380,160	71,315	-0,103	-0,076
-379,146	-127,578	0,069	0,007
-378,131	800,000	-0,045	0,128
-377,117	-200,000	-0,009	0,051
-376,102	186,928	-0,056	-0,059
-375,088	-190,884	-0,085	-0,001
-374,073	-139,319	0,102	0,008
-373,058	-47,033	-0,122	0,043
-372,044	11,371	0,033	-0,018
-371,029	-90,327	0,104	0,021
-370,015	-200,000	0,014	-0,103
-369,000	-200,000	0,029	-0,204
-367,985	346,909	-0,047	-0,067
-366,971	-135,295	0,129	0,011
-365,956	-30,922	-0,062	-0,025
-364,942	-168,945	0,110	-0,003
-363,927	-200,000	0,022	0,074
-362,912	12,374	-0,093	-0,051
-361,898	-178,309	-0,103	0,002
-360,883	-53,625	0,067	-0,022
-359,869	170,369	0,024	0,025
-358,854	-158,043	-0,052	-0,002
-357,839	200,104	0,069	0,076
-356,825	800,000	0,049	0,118
-355,810	208,903	0,059	-0,067
-354,796	800,000	0,065	0,163
-353,781	-85,546	-0,084	-0,019
-352,766	87,786	-0,059	-0,047
-351,752	-60,539	-0,168	-0,051
-350,737	-200,000	0,058	0,209
-349,723	92,405	0,064	0,052
-348,708	-200,000	-0,022	-0,104
-347,693	800,000	-0,035	0,102
-346,679	265,382	-0,044	-0,055
-345,664	-200,000	0,011	0,108
-344,650	-74,260	0,147	0,038
-343,635	-159,678	-0,051	-0,002
-342,620	5,885	-0,070	0,037
-341,606	47,283	0,018	-0,012
-340,591	60,633	0,046	-0,032
-339,577	-2,271	0,070	-0,035
-338,562	-200,000	0,003	-0,201
-337,548	0,691	-0,065	0,033
-336,533	20,416	-0,092	0,053
-335,518	-200,000	-0,033	-0,109
-334,504	259,174	-0,066	0,082
-333,489	800,000	0,034	-0,092
-332,475	-63,616	0,053	-0,016
-331,460	-143,794	-0,051	0,003
-330,445	-200,000	-0,021	-0,068
-329,431	223,002	-0,100	0,116
-328,416	-107,399	0,089	0,014
-327,402	539,383	-0,055	0,095
-326,387	-50,806	0,019	-0,006
-325,372	149,219	-0,072	0,070
-324,358	-119,201	-0,168	-0,021
-323,343	14,777	0,040	-0,022
-322,329	149,898	-0,083	0,080
-321,314	101,224	0,043	0,035
-320,299	-200,000	-0,009	0,030
-319,285	-110,691	0,179	-0,026
-318,270	152,157	-0,043	0,042
-317,256	-161,308	-0,075	-0,003
-316,241	287,378	0,015	-0,019
-315,226	22,382	0,085	0,050
-314,212	-128,868	0,153	-0,015
-313,197	29,537	0,135	0,082
-312,183	-200,000	0,008	0,155
-311,168	-200,000	-0,017	0,090
-310,153	150,966	-0,078	0,076
-309,139	-41,113	-0,029	0,011
-308,124	-200,000	-0,013	-0,101
-307,110	184,760	-0,006	0,006
-306,095	-177,906	0,137	0,002
-305,080	235,822	0,099	0,117
-304,066	243,166	0,123	-0,148
-303,051	20,138	0,083	-0,048
-302,037	405,457	-0,075	-0,114
-301,022	-0,477	0,086	0,044
-300,008	435,539	0,122	0,191
-298,993	704,628	-0,042	0,080
-297,978	-200,000	-0,053	0,195
-296,964	-132,785	-0,059	-0,005
-295,949	-11,636	0,093	0,043
-294,935	717,164	-0,047	0,090
-293,920	41,826	-0,057	0,037
-292,905	-26,221	-0,097	0,040
-291,891	3,998	0,123	0,064
-290,876	27,870	0,029	0,018
-289,862	-67,672	0,081	-0,023
-288,847	-83,631	-0,175	-0,040
-287,832	-169,029	0,063	0,002
-286,818	60,632	0,031	-0,022
-285,803	-27,408	-0,132	0,054
-284,789	764,092	0,118	0,230
-283,774	178,754	0,065	-0,068
-282,759	350,123	0,086	-0,122
-281,745	-43,945	0,054	0,019
-280,730	417,183	0,052	-0,080
-279,716	800,000	-0,047	-0,148
-278,701	-1,651	-0,066	0,033
-277,686	-135,791	0,139	0,012
-276,672	-200,000	-0,014	-0,067
-275,657	800,000	-0,071	0,148
-274,643	-47,549	-0,042	0,015
-273,628	196,024	0,123	-0,133
-272,613	-200,000	-0,055	-0,181
-271,599	-200,000	-0,023	-0,197
-270,584	-200,000	-0,003	-0,060
-269,570	-200,000	-0,001	0,062
-268,555	-200,000	-0,022	0,084
-267,540	-75,007	-0,081	-0,021
-266,526	0,901	0,037	-0,019
-265,511	-200,000	-0,015	-0,102
-264,497	-137,408	0,111	0,009
-263,482	-133,910	0,082	-0,007
-262,467	329,046	-0,112	0,154
-261,453	800,000	-0,063	0,140
-260,438	-85,977	0,141	-0,031
-259,424	-200,000	0,011	-0,086
-258,409	-200,000	0,004	-0,052
-257,395	-196,516	0,237	0,001
-256,380	48,272	-0,062	0,042
-255,365	-111,088	-0,089	0,013
-254,351	213,433	0,117	0,132
-253,336	-200,000	0,003	-0,146
-252,322	-113,347	-0,202	0,028
-251,307	637,888	0,009	-0,016
-250,292	-200,000	-0,002	0,101
-249,278	-200,000	0,025	0,206
-248,263	11,669	0,025	-0,013
-247,249	-0,297	0,105	0,053
-246,234	32,907	-0,055	0,034
-245,219	531,144	0,023	-0,040
-244,205	800,000	-0,046	0,109
-243,190	-200,000	-0,034	-0,122
-242,176	17,593	0,163	0,092
-241,161	159,532	0,082	-0,081
-240,146	591,421	0,023	-0,041
-239,132	800,000	0,058	-0,128
-238,117	234,200	-0,080	-0,094
-237,103	62,675	-0,135	0,096
-236,088	-144,189	0,048	-0,003
-235,073	800,000	-0,046	0,104
-234,059	800,000	-0,022	0,056
-233,044	-139,775	-0,152	-0,011
-232,030	-177,133	0,045	-0,001
-231,015	-200,000	-0,003	0,011
-230,000	-200,000	-0,013	-0,091
-228,986	367,906	0,030	-0,043
-227,971	191,911	0,036	-0,039
-226,957	-200,000	-0,021	0,096
-225,942	205,751	0,126	0,139
-224,927	130,795	-0,041	-0,038
-223,913	206,502	-0,103	-0,115
-222,898	62,002	-0,034	-0,024
-221,884	-56,791	0,204	0,064
-220,869	-166,938	0,056	-0,002
-219,855	-50,249	-0,146	-0,049
-218,840	-112,024	0,099	-0,014
-217,825	-105,407	-0,074	-0,012
-216,811	134,072	0,110	-0,102
-215,796	105,241	0,081	-0,068
-214,782	66,826	-0,065	-0,047
-213,767	-103,680	-0,061	0,010
-212,752	182,149	0,062	-0,065
-211,738	-42,194	0,076	-0,028
-210,723	147,476	0,108	-0,104
-209,709	-200,000	0,006	-0,069
-208,694	-38,823	0,101	-0,038
-207,679	800,000	0,026	-0,069
-206,665	64,887	-0,088	0,063
-205,650	800,000	0,052	0,119
-204,636	99,436	0,095	0,078
-203,621	682,116	-0,031	-0,057
-202,606	800,000	0,040	-0,116
-201,592	-77,548	-0,104	-0,026
-200,577	-150,878	-0,085	-0,005
-199,563	800,000	-0,030	0,075
-198,548	-200,000	0,037	0,135
-197,533	-200,000	-0,002	-0,089
-196,519	295,156	0,093	0,121
-195,504	529,594	0,046	-0,078
-194,490	137,762	0,075	0,070
-193,475	-113,187	-0,027	-0,004
-192,460	-89,541	-0,110	-0,023
-191,446	-154,378	-0,015	-0,001
-190,431	132,945	-0,029	-0,027
-189,417	-156,459	0,058	-0,003
-188,402	-64,746	0,043	-0,012
-187,387	800,000	0,029	-0,068
-186,373	12,094	0,014	-0,008
-185,358	-99,671	0,119	-0,021
-184,344	-200,000	0,018	0,186
-183,329	-119,401	0,050	-0,006
-182,315	-116,944	0,161	0,021
-181,300	-6,160	-0,007	0,003
-180,285	-146,568	-0,094	-0,006
-179,271	-200,000	0,011	-0,062
-178,256	148,087	0,046	-0,044
-177,242	113,531	0,078	0,067
-176,227	800,000	0,038	-0,099
-175,212	-189,165	-0,109	-0,001
-174,198	479,149	0,062	-0,100
-173,183	800,000	0,025	-0,072
-172,169	800,000	-0,023	-0,068
-171,154	-87,056	0,076	-0,016
-170,139	-200,000	-0,003	-0,016
-169,125	-78,413	0,096	-0,023
-168,110	-16,843	0,106	-0,047
-167,096	48,979	-0,058	-0,039
-166,081	53,261	-0,057	0,039
-165,066	800,000	-0,031	-0,076
-164,052	750,868	-0,031	0,060
-163,037	800,000	-0,022	-0,050
-162,023	-41,305	-0,019	0,007
-161,008	156,148	0,117	0,115
-159,993	-200,000	-0,032	-0,141
-158,979	259,373	0,121	-0,148
-157,964	41,493	-0,051	0,033
-156,950	-200,000	0,022	-0,110
-155,935	800,000	0,055	0,132
-154,920	-200,000	0,009	-0,072
-153,906	-200,000	-0,026	0,093
-152,891	-25,081	0,076	0,032
-151,877	800,000	0,013	-0,029
-150,862	27,827	0,078	0,047
-149,847	800,000	-0,045	-0,106
-148,833	130,385	-0,055	-0,050
-147,818	-48,439	0,160	0,054
-146,804	800,000	0,008	0,017
-145,789	610,382	0,037	-0,066
-144,775	-200,000	0,000	0,089
-143,760	105,197	-0,018	-0,015
-142,745	-200,000	0,009	-0,124
-141,731	-97,421	0,083	0,015
-140,716	27,849	0,072	-0,043
-139,702	-200,000	-0,011	0,058
-138,687	1,013	0,082	-0,041
-137,672	556,779	-0,058	-0,099
-136,658	286,789	-0,032	-0,042
-135,643	-7,890	0,087	-0,042
-134,629	-200,000	-0,016	0,123
-133,614	800,000	-0,006	0,014
-132,599	112,173	0,106	-0,091
-131,585	-200,000	-0,040	0,135
-130,570	-99,100	0,123	0,022
-129,556	-114,694	-0,118	-0,016
-128,541	-6,377	-0,099	-0,048
-127,526	-200,000	0,020	-0,112
-126,512	5,692	-0,093	-0,049
-125,497	-200,000	-0,021	-0,091
-124,483	-69,913	-0,093	0,025
-123,468	-158,086	-0,016	0,001
-122,453	-49,418	-0,071	0,024
-121,439	-200,000	0,007	0,033
-120,424	762,662	-0,002	-0,004
-119,410	453,412	0,053	-0,084
-118,395	-200,000	0,028	0,139
-117,380	56,449	0,103	0,071
-116,366	-83,377	-0,080	-0,018
-115,351	-72,663	-0,097	-0,025
-114,337	195,804	0,077	-0,083
-113,322	800,000	-0,030	-0,082
-112,307	-28,579	-0,060	0,025
-111,293	-87,939	0,095	-0,020
-110,278	-200,000	-0,012	0,076
-109,264	800,000	-0,024	-0,067
-108,249	-39,569	-0,068	-0,025
-107,234	28,218	-0,146	0,087
-106,220	158,336	0,039	-0,039
-105,205	67,444	-0,055	-0,040
-104,191	-200,000	-0,001	0,064
-103,176	-200,000	-0,002	0,028
-102,162	-200,000	0,045	-0,169
-101,147	-45,059	0,115	-0,040
-100,132	751,416	0,049	-0,093
-99,118	-200,000	-0,008	-0,168
-98,103	-200,000	0,003	0,027
-97,089	105,874	-0,152	0,127
-96,074	527,229	0,011	0,019
-95,059	289,728	0,039	-0,051
-94,045	-87,805	-0,078	0,017
-93,030	33,572	0,077	-0,048
-92,016	111,877	-0,080	-0,069
-91,001	-74,321	0,109	-0,028
-89,986	157,702	-0,118	0,116
-88,972	391,545	0,068	0,100
-87,957	123,126	0,057	-0,051
-86,943	800,000	-0,032	0,089
-85,928	130,048	0,029	0,027
-84,913	-200,000	-0,038	-0,183
-83,899	-200,000	-0,068	-0,000
-82,884	-56,520	-0,023	-0,007
-81,870	-30,227	-0,082	0,033
-80,855	-200,000	-0,020	-0,116
-79,840	-138,562	0,062	0,005
-78,826	-200,000	0,004	-0,123
-77,811	800,000	0,054	-0,109
-76,797	259,423	-0,054	-0,066
-75,782	278,771	0,053	-0,068
-74,767	-86,585	-0,110	0,024
-73,753	-74,181	-0,214	0,054
-72,738	-1,467	-0,152	-0,076
-71,724	-64,260	-0,002	0,001
-70,709	156,560	0,022	0,022
-69,694	800,000	-0,011	0,028
-68,680	-120,047	0,129	-0,016
-67,665	97,248	-0,116	0,094
-66,651	800,000	-0,024	0,051
-65,636	-10,576	0,043	-0,020
-64,622	-200,000	-0,004	0,030
-63,607	800,000	0,033	-0,080
-62,592	-200,000	0,012	-0,164
-61,578	800,000	-0,054	-0,152
-60,563	-200,000	0,008	-0,083
-59,549	800,000	0,025	0,063
-58,534	-37,783	-1,510	-0,566
-57,519	423,643	-1,350	-2,062
-56,505	-200,000	-0,542	-4,560
-55,490	138,391	0,954	0,887
-54,476	800,000	4,882	11,332
-53,461	-200,000	18,485	295,452
-52,446	800,000	730,245	2252,389
-51,432	558,297	1646,616	2824,264
-50,417	79,061	1667,615	1263,598
-49,403	22,521	1541,036	890,435
-48,388	16,485	1464,174	816,740
-47,373	17,819	1453,882	817,404
-46,359	17,095	1444,329	808,532
-45,344	14,763	1439,653	794,733
-44,330	14,687	1437,770	793,298
-43,315	14,705	1436,166	792,470
-42,300	14,681	1434,494	791,399
-41,286	14,711	1433,259	790,830
-40,271	14,690	1432,019	790,013
-39,257	14,689	1430,884	789,353
-38,242	14,725	1429,433	788,693
-37,227	14,693	1428,521	788,007
-36,213	14,712	1427,067	787,262
-35,198	14,734	1425,798	786,635
-34,184	14,800	1424,813	786,370
-33,169	14,690	1423,759	785,237
-32,154	14,683	1422,771	784,631
-31,140	14,714	1421,271	783,917
-30,125	14,752	1420,227	783,492
-29,111	14,760	1418,839	782,733
-28,096	14,723	1417,843	781,977
-27,082	14,675	1416,972	781,238
-26,067	14,681	1415,621	780,491
-25,052	14,663	1414,466	779,740
-24,038	14,626	1413,753	779,143
-23,023	14,645	1412,940	778,749
-22,009	14,638	1411,770	778,042
-20,994	14,605	1410,881	777,367
-19,979	14,610	1410,019	776,886
-18,965	14,576	1409,115	776,198
-17,950	14,567	1408,047	775,537
-16,936	14,608	1406,870	775,048
-15,921	14,568	1405,827	774,256
-14,906	14,573	1404,958	773,770
-13,892	14,572	1404,127	773,278
-12,877	14,535	1403,300	772,616
-11,863	14,522	1402,560	772,122
-10,848	14,556	1401,420	771,620
-9,833	14,510	1400,586	770,918
-8,819	14,480	1399,791	770,308
-7,804	14,448	1398,831	769,599
-6,790	14,458	1397,619	768,949
-5,775	14,502	1396,489	768,502
-4,760	14,469	1395,751	767,911
-3,746	14,450	1394,929	767,342
-2,731	14,441	1393,945	766,728
-1,717	14,404	1393,395	766,225
-0,702	14,428	1391,360	765,186
0,313	18,301	1309,765	738,234
1,327	34,733	706,128	436,061
2,342	53,290	124,384	84,220
3,356	3,277	16,563	8,503
4,371	1,957	3,290	1,674
5,386	39,278	0,604	0,382
6,400	-200,000	0,030	0,218
7,415	102,670	-0,274	-0,227
8,429	247,733	-0,239	-0,286
9,444	76,358	-0,313	-0,234
10,459	79,488	-0,295	-0,223
11,473	122,791	-0,193	-0,171
12,488	400,908	-0,168	-0,250
13,502	-125,949	-0,423	-0,044
14,517	-93,327	-0,326	-0,063
15,531	-17,472	-0,396	-0,175
16,546	-46,073	-0,361	-0,125
17,561	39,795	-0,539	-0,341
18,575	672,329	-0,133	-0,245
19,590	-21,266	-0,378	-0,162
20,604	-167,201	-0,201	0,006
21,619	88,485	-0,447	-0,351
22,634	81,692	-0,471	-0,360
23,648	267,815	-0,338	-0,419
24,663	251,791	-0,324	-0,390
25,677	139,885	-0,378	-0,352
26,692	105,121	-0,334	-0,279
27,707	9,026	-0,414	-0,220
28,721	122,296	-0,313	-0,276
29,736	23,815	-0,532	-0,309
30,750	289,503	-0,223	-0,287
31,765	167,882	-0,250	-0,251
32,780	352,626	-0,300	-0,422
33,794	227,208	-0,322	-0,370
34,809	203,971	-0,287	-0,314
35,823	10,034	-0,411	-0,219
36,838	101,492	-0,376	-0,309
37,853	29,186	-0,438	-0,262
38,867	193,275	-0,371	-0,396
39,882	181,839	-0,277	-0,288
40,896	344,378	-0,281	-0,390
41,911	47,427	-0,384	-0,252
42,926	0,523	-0,383	-0,192
43,940	31,348	-0,391	-0,236
44,955	51,944	-0,346	-0,232
45,969	-52,703	-0,350	-0,113
46,984	216,087	-0,252	-0,283
47,999	-2,263	-0,349	-0,172
49,013	-16,618	-0,364	-0,162
50,028	109,030	-0,254	-0,214
51,042	177,587	-0,327	-0,336
52,057	39,522	-0,481	-0,303
53,071	251,432	-0,356	-0,427
54,086	34,753	-0,273	-0,168
55,101	-16,737	-0,254	-0,113
56,115	128,367	-0,210	-0,189
57,130	105,409	-0,419	-0,349
58,144	317,004	-0,250	-0,334
59,159	53,072	-0,398	-0,268
60,174	168,024	-0,331	-0,331
61,188	157,741	-0,374	-0,365
62,203	38,090	-0,301	-0,188
63,217	83,851	-0,286	-0,219
64,232	-129,096	-0,412	-0,040
65,247	36,838	-0,397	-0,246
66,261	68,150	-0,358	-0,258
67,276	34,756	-0,467	-0,287
68,290	191,682	-0,280	-0,297
69,305	-40,481	-0,408	-0,148
70,320	-33,474	-0,408	-0,158
71,334	40,174	-0,306	-0,193
72,349	40,191	-0,453	-0,286
73,363	104,390	-0,370	-0,306
74,378	84,939	-0,382	-0,294
75,393	209,258	-0,303	-0,335
76,407	11,065	-0,297	-0,159
77,422	-54,434	-0,299	-0,095
78,436	145,818	-0,249	-0,234
79,451	7,694	-0,358	-0,188
80,466	-24,599	-0,362	-0,151
81,480	-53,249	-0,344	-0,110
82,495	28,164	-0,217	-0,129
83,509	132,003	-0,302	-0,273
84,524	-27,139	-0,315	-0,128
85,539	-59,627	-0,173	-0,052
86,553	-159,694	-0,270	-0,010
87,568	-6,335	-0,369	-0,176
88,582	12,771	-0,340	-0,184
89,597	250,326	-0,224	-0,268
90,611	354,552	-0,138	-0,193
91,626	133,826	-0,166	-0,151
92,641	77,780	-0,220	-0,164
93,655	26,192	-0,297	-0,174
94,670	208,073	-0,188	-0,207
95,684	209,723	-0,252	-0,278
96,699	20,487	-0,342	-0,194
97,714	124,325	-0,295	-0,261
98,728	42,800	-0,266	-0,170
99,743	-3,462	-0,286	-0,139
100,757	10,059	-0,297	-0,158
101,772	207,686	-0,239	-0,262
102,787	-45,892	-0,336	-0,116
103,801	2,084	-0,302	-0,152
104,816	-70,904	-0,306	-0,080
105,830	58,375	-0,196	-0,135
106,845	-12,923	-0,202	-0,092
107,860	800,000	-0,094	-0,251
108,874	122,560	-0,227	-0,199
109,889	-98,787	-0,333	-0,059
110,903	138,121	-0,278	-0,255
111,918	304,678	-0,144	-0,188
112,933	-26,787	-0,181	-0,074
113,947	54,299	-0,354	-0,239
114,962	-16,389	-0,427	-0,189
115,976	8,470	-0,289	-0,152
116,991	142,232	-0,345	-0,321
118,006	149,408	-0,262	-0,249
119,020	47,840	-0,219	-0,143
120,035	124,047	-0,361	-0,318
121,049	41,810	-0,249	-0,158
122,064	252,997	-0,198	-0,236
123,079	29,187	-0,269	-0,160
124,093	83,282	-0,271	-0,206
125,108	243,483	-0,280	-0,330
126,122	96,229	-0,186	-0,149
127,137	-34,262	-0,221	-0,085
128,151	10,175	-0,299	-0,159
129,166	251,853	-0,224	-0,268
130,181	247,900	-0,163	-0,194
131,195	117,501	-0,247	-0,213
132,210	18,138	-0,338	-0,188
133,224	72,033	-0,274	-0,200
134,239	293,832	-0,149	-0,191
135,254	800,000	-0,080	-0,185
136,268	139,243	-0,173	-0,159
137,283	-15,980	-0,127	-0,056
138,297	216,911	-0,249	-0,277
139,312	63,905	-0,159	-0,112
140,327	-14,482	-0,370	-0,166
141,341	-200,000	-0,010	-0,228
142,356	46,933	-0,160	-0,104
143,370	163,373	-0,255	-0,251
144,385	95,509	-0,286	-0,228
145,400	424,222	-0,088	-0,133
146,414	69,825	-0,303	-0,218
147,429	115,999	-0,244	-0,209
148,443	438,918	-0,198	-0,303
149,458	-58,898	-0,312	-0,094
150,473	307,879	-0,221	-0,288
151,487	56,688	-0,140	-0,095
152,502	72,941	-0,215	-0,157
153,516	85,617	-0,376	-0,288
154,531	191,190	-0,203	-0,214
155,546	-101,872	-0,230	-0,038
156,560	-46,880	-0,323	-0,110
157,575	-30,618	-0,183	-0,072
158,589	125,139	-0,201	-0,177
159,604	129,008	-0,156	-0,139
160,619	53,374	-0,215	-0,144
161,633	74,135	-0,271	-0,198
162,648	800,000	-0,186	-0,384
163,662	-23,417	-0,201	-0,084
164,677	-35,960	-0,179	-0,067
165,692	117,316	-0,168	-0,144
166,706	160,690	-0,188	-0,183
167,721	22,229	-0,181	-0,103
168,735	87,270	-0,319	-0,246
169,750	17,255	-0,196	-0,108
170,764	213,205	-0,194	-0,214
171,779	103,987	-0,139	-0,114
172,794	152,632	-0,155	-0,148
173,808	19,802	-0,165	-0,092
174,823	-80,034	-0,322	-0,075
175,837	68,112	-0,195	-0,139
176,852	236,583	-0,128	-0,148
177,867	188,442	-0,167	-0,174
178,881	129,173	-0,165	-0,147
179,896	30,749	-0,087	-0,052
180,910	205,079	-0,162	-0,176
181,925	133,611	-0,223	-0,201
182,940	118,702	-0,202	-0,174
183,954	-40,515	-0,207	-0,074
184,969	-40,323	-0,187	-0,067
185,983	155,715	-0,203	-0,195
186,998	208,041	-0,226	-0,247
188,013	385,212	-0,140	-0,202
189,027	140,431	-0,223	-0,205
190,042	34,326	-0,288	-0,175
191,056	473,380	-0,174	-0,274
192,071	-11,401	-0,243	-0,111
193,086	-106,356	-0,240	-0,037
194,100	-33,276	-0,172	-0,066
195,115	56,774	-0,216	-0,146
196,129	229,844	-0,155	-0,176
197,144	166,822	-0,178	-0,176
198,159	155,758	-0,225	-0,216
199,173	390,812	-0,203	-0,293
200,188	-74,816	-0,087	-0,022
201,202	9,130	-0,251	-0,131
202,217	800,000	-0,092	-0,236
203,232	160,553	-0,181	-0,176
204,246	160,998	-0,226	-0,220
205,261	304,962	-0,179	-0,232
206,275	-101,588	-0,253	-0,042
207,290	-103,238	-0,159	-0,026
208,304	-29,179	-0,169	-0,067
209,319	763,823	-0,116	-0,219
210,334	43,883	-0,131	-0,083
211,348	800,000	-0,093	-0,206
212,363	-32,515	-0,214	-0,083
213,377	224,382	-0,209	-0,235
214,392	29,417	-0,219	-0,129
215,407	356,449	-0,082	-0,114
216,421	52,473	-0,198	-0,131
217,436	-45,133	-0,311	-0,107
218,450	209,251	-0,173	-0,189
219,465	12,108	-0,153	-0,081
220,480	329,845	-0,159	-0,213
221,494	800,000	-0,099	-0,230
222,509	182,465	-0,081	-0,083
223,523	169,761	-0,129	-0,128
224,538	402,712	-0,117	-0,172
225,553	562,489	-0,191	-0,321
226,567	-16,794	-0,382	-0,167
227,582	217,721	-0,186	-0,206
228,596	-200,000	-0,044	-0,156
229,611	798,982	-0,090	-0,173
230,626	161,653	-0,214	-0,208
231,640	287,552	-0,096	-0,120
232,655	-102,085	-0,259	-0,043
233,669	751,051	-0,130	-0,245
234,684	119,771	-0,217	-0,186
235,699	113,505	-0,160	-0,135
236,713	338,487	-0,131	-0,177
237,728	88,766	-0,101	-0,078
238,742	417,125	-0,103	-0,153
239,757	229,365	-0,132	-0,149
240,772	8,098	-0,193	-0,100
241,786	315,115	-0,235	-0,307
242,801	-99,641	-0,302	-0,052
243,815	571,666	-0,054	-0,092
244,830	8,611	-0,201	-0,105
245,844	800,000	-0,071	-0,160
246,859	-13,342	-0,263	-0,118
247,874	-200,000	-0,068	-0,219
248,888	126,369	-0,175	-0,153
249,903	-60,774	-0,299	-0,087
250,917	193,777	-0,203	-0,213
251,932	486,280	-0,181	-0,287
252,947	266,062	-0,048	-0,058
253,961	139,828	-0,161	-0,147
254,976	-126,598	-0,253	-0,026
255,990	12,485	-0,149	-0,079
257,005	-122,316	-0,197	-0,022
258,020	666,452	-0,130	-0,234
259,034	81,008	-0,218	-0,163
260,049	108,629	-0,156	-0,129
261,063	48,319	-0,191	-0,124
262,078	-24,890	-0,266	-0,109
263,093	-40,376	-0,383	-0,137
264,107	83,508	-0,248	-0,186
265,122	-50,505	-0,200	0,065
266,136	71,390	-0,125	-0,090
267,151	-52,643	-0,146	-0,046
268,166	-29,024	-0,159	-0,063
269,180	800,000	-0,059	-0,154
270,195	26,019	-0,184	-0,106
271,209	-200,000	-0,044	-0,170
272,224	800,000	0,063	-0,165
273,239	5,057	-0,107	0,054
274,253	-68,971	-0,179	0,047
275,268	81,220	-0,232	-0,173
276,282	168,891	-0,155	-0,153
277,297	75,482	-0,197	-0,143
278,312	267,110	-0,145	-0,176
279,326	-200,000	-0,003	-0,045
280,341	-139,134	-0,213	0,016
281,355	201,120	-0,164	-0,174
282,370	800,000	-0,117	-0,287
283,384	800,000	-0,087	-0,200
284,399	12,109	-0,203	-0,108
285,414	652,377	-0,115	-0,205
286,428	548,246	-0,060	-0,100
287,443	400,763	-0,052	-0,075
288,457	-64,486	-0,193	0,054
289,472	28,097	-0,150	-0,087
290,487	210,950	-0,174	-0,189
291,501	187,755	-0,155	-0,160
292,516	348,580	-0,170	-0,232
293,530	-63,815	-0,285	-0,080
294,545	7,715	-0,054	-0,028
295,560	57,657	-0,141	-0,095
296,574	-63,970	-0,108	-0,030
297,589	617,098	-0,127	-0,221
298,603	42,621	-0,184	-0,115
299,618	800,000	-0,076	-0,166
300,633	498,465	-0,146	-0,233
301,647	272,468	-0,130	-0,158
302,662	-163,683	-0,148	-0,005
303,676	746,949	-0,035	-0,064
304,691	800,000	-0,123	-0,310
305,706	396,979	-0,143	-0,206
306,720	-200,000	0,025	-0,151
307,735	-110,864	-0,117	0,016
308,749	466,203	-0,058	-0,089
309,764	-38,289	-0,189	-0,069
310,779	-5,187	-0,114	-0,054
311,793	94,628	-0,194	-0,152
312,808	336,040	-0,205	-0,274
313,822	75,840	-0,186	-0,135
314,837	21,936	-0,099	-0,056
315,852	184,405	-0,118	-0,120
316,866	593,151	-0,060	-0,102
317,881	73,721	-0,142	-0,102
318,895	85,089	-0,142	-0,107
319,910	400,321	-0,089	-0,129
320,925	-65,094	-0,196	-0,054
321,939	119,258	-0,112	-0,095
322,954	-19,563	0,073	0,031
323,968	-138,174	-0,186	0,014
324,983	29,025	0,061	0,035
325,997	22,429	-0,071	0,040
327,012	-93,730	-0,208	-0,039
328,027	46,647	-0,153	-0,098
329,041	101,731	-0,181	-0,145
330,056	-200,000	-0,013	-0,093
331,070	41,233	-0,083	-0,052
332,085	-200,000	-0,029	-0,118
333,100	-72,817	-0,159	-0,040
334,114	259,468	-0,109	-0,130
335,129	87,569	-0,236	-0,180
336,143	-38,163	-0,040	-0,015
337,158	-200,000	-0,012	-0,139
338,173	-200,000	0,018	-0,057
339,187	264,067	-0,116	-0,139
340,202	-39,909	-0,292	-0,104
341,216	419,195	-0,070	-0,103
342,231	-22,428	-0,192	-0,079
343,246	800,000	-0,026	-0,055
344,260	99,998	-0,150	-0,119
345,275	-200,000	-0,018	-0,069
346,289	575,031	-0,038	-0,064
347,304	-200,000	-0,136	0,000
348,319	242,904	-0,171	-0,198
349,333	800,000	-0,093	-0,240
350,348	800,000	-0,092	-0,250
351,362	-200,000	-0,058	-0,187
352,377	71,142	-0,109	0,077
353,392	303,123	-0,060	-0,077
354,406	-78,233	-0,118	0,028
355,421	207,284	1317,002	1411,311
356,435	159,450	1478,008	1411,818
