DTS Sentinel unit serial number:	SN410029Multiplexer serial number:	ORYXHardware model number:	OX2-SRSoftware version number:	ORYX F/W v4,00 Oryx Data Collector v3.7.2.0data status	okinstallation	B3 Nyhavnadifferential loss correction	single-endedforward channel	channel 1reverse channel	N/Adate	2023/11/30time	15:07:30forward acquisition time	300,00reverse acquisition time	0,00gamma	499,1914k internal	0,3208k external	0,3208temperature offset calibration	1,0000default loss term (dB/km)	0,3820temperature slope calibration	1,0000multiplexer offset coefficient	1,0000multiplexer slope coefficient	1,0000fibre end	0,00T internal ref (°C)	12,18T ext. ref 1 (°C)	-1,96T ext. ref 2 (°C)	-2,00length (m)	temperature (°C)	Stokes	anti-Stokes-744,400	19,230	-0,276	-0,160
-743,385	-200,000	0,053	0,407
-742,371	62,750	-0,207	-0,150
-741,356	-200,000	0,056	0,195
-740,342	800,000	-0,103	-0,244
-739,327	-200,000	-0,078	0,359
-738,312	800,000	-0,093	-0,270
-737,298	-200,000	0,050	0,199
-736,283	81,548	-0,215	-0,168
-735,269	-200,000	0,075	0,325
-734,254	800,000	-0,142	-0,348
-733,239	-66,082	-0,190	0,055
-732,225	305,422	-0,216	-0,292
-731,210	-5,447	0,188	0,093
-730,196	-105,002	-0,218	0,036
-729,181	11,992	0,134	0,074
-728,167	-154,546	-0,125	0,006
-727,152	27,149	0,074	0,045
-726,137	-185,774	-0,082	0,001
-725,123	775,617	-0,050	-0,099
-724,108	21,252	0,133	-0,078
-723,094	52,842	-0,112	-0,078
-722,079	19,179	-0,168	-0,098
-721,064	-200,000	-0,008	-0,075
-720,050	-54,283	-0,079	-0,026
-719,035	800,000	-0,057	-0,116
-718,021	96,744	-0,059	-0,049
-717,006	-200,000	0,013	-0,066
-715,991	800,000	-0,021	-0,065
-714,977	800,000	-0,025	-0,079
-713,962	704,109	0,022	0,042
-712,948	-132,091	-0,105	-0,010
-711,933	-200,000	0,021	-0,092
-710,918	-51,911	-0,083	-0,028
-709,904	238,924	-0,133	-0,160
-708,889	800,000	-0,028	0,068
-707,875	444,843	-0,108	-0,173
-706,860	213,186	-0,059	-0,068
-705,845	-200,000	-0,036	0,130
-704,831	-135,526	0,109	0,009
-703,816	170,377	-0,075	0,078
-702,802	623,977	-0,077	0,141
-701,787	-200,000	0,013	0,121
-700,772	-32,664	0,059	0,024
-699,758	-90,752	-0,167	0,035
-698,743	4,874	0,059	0,031
-697,729	376,304	0,050	0,074
-696,714	800,000	-0,062	0,148
-695,699	36,283	0,119	0,076
-694,685	92,356	-0,049	-0,040
-693,670	10,972	-0,090	0,050
-692,656	-200,000	-0,006	-0,044
-691,641	-200,000	-0,005	0,037
-690,627	172,224	0,048	0,050
-689,612	40,633	0,119	-0,078
-688,597	117,653	-0,067	-0,059
-687,583	188,610	-0,121	-0,131
-686,568	-49,181	-0,074	-0,025
-685,554	-133,027	-0,132	0,012
-684,539	800,000	-0,011	-0,026
-683,524	-200,000	-0,032	-0,115
-682,510	-143,308	0,196	0,013
-681,495	331,723	-0,069	0,097
-680,481	31,894	-0,158	-0,098
-679,466	21,998	0,032	0,019
-678,451	800,000	0,013	-0,034
-677,437	180,690	0,141	0,150
-676,422	404,701	-0,043	0,065
-675,408	800,000	0,052	-0,153
-674,393	541,697	0,051	0,088
-673,378	-88,825	-0,028	0,006
-672,364	-200,000	-0,046	0,000
-671,349	-200,000	0,032	0,126
-670,335	764,828	-0,027	0,052
-669,320	692,292	0,041	0,078
-668,305	800,000	0,057	0,179
-667,291	-200,000	0,007	0,050
-666,276	106,320	0,101	-0,087
-665,262	-200,000	-0,015	-0,067
-664,247	-17,026	-0,156	-0,071
-663,232	-182,758	-0,102	0,001
-662,218	-200,000	0,043	0,156
-661,203	-44,774	0,071	0,025
-660,189	800,000	-0,024	-0,059
-659,174	-200,000	0,021	0,217
-658,159	-72,504	-0,069	-0,018
-657,145	136,104	0,134	-0,126
-656,130	800,000	0,030	0,064
-655,116	133,632	-0,065	0,061
-654,101	-97,916	0,063	-0,012
-653,086	-200,000	-0,022	-0,100
-652,072	-200,000	-0,017	-0,060
-651,057	464,144	-0,130	-0,210
-650,043	-34,109	0,071	-0,028
-649,028	202,324	0,077	0,086
-648,014	122,614	-0,086	0,078
-646,999	-200,000	-0,009	0,059
-645,984	-9,753	0,093	-0,045
-644,970	-109,400	0,043	0,006
-643,955	-94,675	0,088	-0,017
-642,941	-42,513	-0,145	0,053
-641,926	120,553	0,033	0,030
-640,911	-200,000	-0,012	-0,059
-639,897	-79,497	0,066	-0,016
-638,882	800,000	-0,050	0,120
-637,868	-200,000	-0,001	0,036
-636,853	-200,000	-0,021	-0,190
-635,838	17,932	-0,052	0,030
-634,824	-66,807	-0,100	0,028
-633,809	800,000	-0,040	-0,116
-632,795	-200,000	0,000	0,053
-631,780	-8,455	-0,016	-0,008
-630,765	52,792	0,025	0,017
-629,751	-76,209	0,044	0,011
-628,736	800,000	-0,062	-0,165
-627,722	79,567	-0,144	-0,111
-626,707	-200,000	0,026	-0,187
-625,692	-200,000	-0,019	0,102
-624,678	-136,126	-0,071	0,006
-623,663	-200,000	0,020	-0,075
-622,649	-172,144	-0,086	0,002
-621,634	-17,898	-0,116	-0,052
-620,619	-200,000	0,030	0,116
-619,605	-98,057	0,052	-0,010
-618,590	247,425	0,118	0,145
-617,576	437,183	-0,033	0,053
-616,561	181,266	0,025	-0,026
-615,546	-175,059	-0,094	-0,002
-614,532	-199,156	-0,174	0,001
-613,517	-200,000	-0,001	-0,057
-612,503	800,000	0,004	-0,012
-611,488	169,728	-0,053	0,054
-610,474	117,114	0,035	0,031
-609,459	35,678	0,102	-0,064
-608,444	-107,952	0,078	0,012
-607,430	-20,166	0,014	0,006
-606,415	800,000	0,039	0,087
-605,401	-71,257	-0,072	-0,019
-604,386	254,118	-0,064	0,079
-603,371	75,295	0,064	-0,049
-602,357	-81,963	-0,081	-0,019
-601,342	-200,000	0,008	0,089
-600,328	43,675	0,074	-0,049
-599,313	-200,000	-0,005	-0,097
-598,298	-200,000	0,006	0,214
-597,284	800,000	0,011	0,031
-596,269	-42,605	-0,052	0,019
-595,255	-200,000	0,012	-0,076
-594,240	96,815	0,128	-0,106
-593,225	134,734	-0,068	-0,064
-592,211	800,000	-0,041	0,115
-591,196	-47,032	-0,216	-0,075
-590,182	241,103	0,050	-0,061
-589,167	213,097	0,035	0,040
-588,152	-200,000	0,044	0,167
-587,138	800,000	-0,055	0,125
-586,123	266,670	-0,015	0,018
-585,109	753,513	0,088	-0,172
-584,094	-132,165	0,020	0,002
-583,079	146,500	0,136	-0,132
-582,065	-200,000	0,020	-0,099
-581,050	-2,465	0,048	-0,024
-580,036	336,842	-0,038	-0,053
-579,021	800,000	-0,040	-0,120
-578,006	-78,050	-0,080	-0,020
-576,992	67,061	0,063	-0,046
-575,977	-200,000	0,040	0,156
-574,963	97,991	0,141	0,117
-573,948	-200,000	-0,026	0,149
-572,934	-14,127	-0,123	-0,057
-571,919	224,366	0,041	-0,048
-570,904	272,268	0,047	-0,060
-569,890	420,358	-0,078	-0,121
-568,875	-39,126	-0,037	-0,014
-567,861	244,325	0,028	0,034
-566,846	-200,000	0,022	-0,131
-565,831	-14,450	-0,016	-0,008
-564,817	-117,565	0,028	0,004
-563,802	-50,157	-0,127	0,043
-562,788	-200,000	0,023	-0,183
-561,773	166,818	-0,087	0,089
-560,758	-4,084	-0,064	-0,032
-559,744	-156,554	0,164	-0,007
-558,729	-200,000	0,030	0,177
-557,715	-59,693	-0,178	0,055
-556,700	431,153	-0,062	-0,097
-555,685	-4,422	-0,066	-0,033
-554,671	207,050	0,015	-0,017
-553,656	200,748	0,074	0,082
-552,642	47,494	0,017	0,011
-551,627	-45,636	-0,091	-0,032
-550,612	-130,636	-0,033	0,003
-549,598	133,952	0,043	-0,040
-548,583	800,000	-0,030	0,062
-547,569	-200,000	0,002	-0,051
-546,554	800,000	0,057	0,173
-545,539	-21,768	0,096	-0,042
-544,525	74,842	0,056	-0,042
-543,510	800,000	0,063	0,160
-542,496	134,241	-0,031	-0,029
-541,481	748,062	-0,094	-0,184
-540,466	52,261	0,086	-0,059
-539,452	20,637	0,062	0,036
-538,437	212,512	0,105	0,120
-537,423	259,182	0,081	0,101
-536,408	284,351	-0,032	-0,041
-535,393	-200,000	0,008	-0,051
-534,379	-182,897	-0,121	-0,002
-533,364	413,546	-0,017	-0,027
-532,350	1,338	0,063	-0,032
-531,335	463,009	0,023	-0,038
-530,321	148,582	0,012	0,012
-529,306	-19,440	0,049	0,022
-528,291	130,373	-0,055	-0,051
-527,277	-44,164	-0,055	-0,020
-526,262	-97,523	0,093	-0,017
-525,248	800,000	-0,018	-0,054
-524,233	-121,861	0,079	0,009
-523,218	-200,000	0,009	-0,056
-522,204	26,214	-0,100	0,060
-521,189	-160,062	-0,157	-0,006
-520,175	800,000	-0,025	-0,059
-519,160	248,809	-0,095	0,116
-518,145	-95,435	0,107	-0,021
-517,131	-6,795	-0,066	0,032
-516,116	-152,192	-0,108	-0,006
-515,102	205,105	-0,063	0,070
-514,087	-135,081	-0,052	0,004
-513,072	88,463	0,095	-0,076
-512,058	-200,000	0,001	0,093
-511,043	-57,429	0,008	0,003
-510,029	-200,000	0,125	0,000
-509,014	130,557	0,088	0,081
-507,999	-90,008	0,107	-0,022
-506,985	356,033	0,031	-0,045
-505,970	200,210	0,085	-0,094
-504,956	-200,000	0,003	-0,056
-503,941	-200,000	0,031	0,120
-502,926	17,088	0,075	-0,043
-501,912	-200,000	-0,017	0,070
-500,897	427,959	-0,071	0,111
-499,883	-200,000	0,013	-0,135
-498,868	557,299	-0,036	0,063
-497,853	557,442	-0,032	-0,055
-496,839	-57,245	0,050	0,016
-495,824	800,000	0,050	0,148
-494,810	-125,293	0,086	-0,009
-493,795	-0,967	0,110	-0,056
-492,781	-40,506	-0,182	-0,068
-491,766	524,478	-0,111	-0,189
-490,751	-95,411	-0,086	-0,016
-489,737	-13,528	0,083	-0,039
-488,722	73,704	-0,043	-0,033
-487,708	305,273	0,066	-0,089
-486,693	-200,000	-0,100	-0,000
-485,678	-43,392	-0,021	-0,008
-484,664	-132,253	-0,094	-0,009
-483,649	442,214	0,084	-0,133
-482,635	800,000	-0,025	-0,073
-481,620	105,732	0,026	-0,022
-480,605	-83,274	0,124	0,028
-479,591	-88,530	-0,081	-0,017
-478,576	-200,000	0,003	-0,118
-477,562	-200,000	-0,004	-0,068
-476,547	405,867	-0,045	-0,068
-475,532	-200,000	0,024	-0,082
-474,518	-63,763	0,120	0,035
-473,503	-13,031	0,085	-0,040
-472,489	-16,582	-0,062	0,028
-471,474	420,646	-0,032	0,049
-470,459	-200,000	0,002	-0,138
-469,445	238,231	-0,055	0,066
-468,430	647,070	-0,064	-0,117
-467,416	-70,089	0,088	-0,024
-466,401	-200,000	-0,005	-0,019
-465,386	52,546	0,077	-0,053
-464,372	124,036	-0,130	0,117
-463,357	327,480	-0,068	0,094
-462,343	206,516	0,037	-0,042
-461,328	-200,000	-0,007	0,080
-460,313	36,919	-0,079	-0,050
-459,299	179,650	0,072	0,076
-458,284	-57,177	0,031	-0,010
-457,270	-200,000	0,004	0,056
-456,255	-74,925	0,107	-0,027
-455,241	-98,678	-0,036	-0,007
-454,226	330,253	0,109	-0,150
-453,211	38,719	-0,076	0,049
-452,197	800,000	0,019	-0,049
-451,182	213,935	0,006	0,007
-450,168	800,000	0,052	0,152
-449,153	127,424	0,057	-0,052
-448,138	-200,000	-0,005	0,040
-447,124	776,736	0,021	0,041
-446,109	343,315	-0,059	0,083
-445,095	-77,156	0,059	0,015
-444,080	-36,617	-0,163	0,063
-443,065	-200,000	0,005	0,117
-442,051	290,316	-0,082	-0,107
-441,036	56,727	0,083	-0,058
-440,022	64,023	-0,037	-0,027
-439,007	-50,122	0,035	-0,012
-437,992	-200,000	0,011	0,039
-436,978	591,655	-0,048	0,085
-435,963	-200,000	-0,009	0,048
-434,949	-200,000	0,025	0,116
-433,934	800,000	0,027	-0,082
-432,919	800,000	0,016	-0,032
-431,905	39,531	0,070	-0,045
-430,890	212,971	0,067	0,076
-429,876	368,513	0,087	0,127
-428,861	-49,505	0,027	0,009
-427,846	-102,003	-0,070	0,012
-426,832	800,000	0,032	0,080
-425,817	299,637	-0,086	-0,114
-424,803	206,030	-0,057	-0,063
-423,788	-57,974	0,088	-0,027
-422,773	69,965	0,113	-0,084
-421,759	-103,155	0,100	0,017
-420,744	-43,704	-0,141	-0,051
-419,730	303,424	-0,045	-0,060
-418,715	-200,000	0,019	-0,083
-417,701	635,773	-0,021	-0,039
-416,686	-17,869	0,033	-0,015
-415,671	716,360	0,059	0,113
-414,657	800,000	0,018	0,036
-413,642	800,000	0,041	-0,084
-412,628	-103,492	-0,052	-0,009
-411,613	-83,868	-0,166	0,037
-410,598	-199,621	-0,028	0,000
-409,584	-200,000	-0,006	-0,059
-408,569	-200,000	-0,030	0,000
-407,555	575,629	-0,044	0,078
-406,540	-188,810	0,039	-0,000
-405,525	800,000	-0,044	-0,129
-404,511	44,287	-0,092	-0,060
-403,496	-25,981	-0,115	0,048
-402,482	-200,000	0,032	0,190
-401,467	-115,023	0,032	0,004
-400,452	-29,863	0,109	-0,044
-399,438	-191,823	0,142	-0,001
-398,423	-40,549	0,089	-0,033
-397,409	-31,525	-0,016	0,007
-396,394	-200,000	-0,014	-0,072
-395,379	-200,000	-0,018	0,119
-394,365	195,423	0,035	-0,038
-393,350	39,663	0,025	0,016
-392,336	555,300	0,022	0,038
-391,321	64,312	-0,041	0,030
-390,306	-186,569	-0,097	0,001
-389,292	-115,752	-0,031	-0,004
-388,277	76,268	-0,047	0,036
-387,263	-200,000	-0,017	0,199
-386,248	762,028	-0,020	0,039
-385,233	59,289	0,063	-0,044
-384,219	-200,000	0,024	0,144
-383,204	-200,000	-0,027	-0,133
-382,190	-41,223	-0,117	-0,043
-381,175	311,896	0,037	0,049
-380,160	156,092	0,069	0,068
-379,146	332,767	0,064	0,089
-378,131	54,779	0,157	0,108
-377,117	188,456	-0,045	-0,048
-376,102	800,000	-0,008	0,019
-375,088	-200,000	0,013	-0,052
-374,073	136,144	-0,109	-0,102
-373,058	83,776	0,053	0,041
-372,044	227,165	0,066	-0,077
-371,029	-200,000	0,075	-0,000
-370,015	117,347	-0,053	0,047
-369,000	553,027	-0,068	0,118
-367,985	-128,091	-0,124	-0,013
-366,971	217,801	0,033	0,038
-365,956	-25,068	-0,073	0,031
-364,942	800,000	-0,017	-0,036
-363,927	-200,000	0,005	0,113
-362,912	262,889	0,089	0,110
-361,898	216,147	-0,031	-0,035
-360,883	-34,734	0,055	0,021
-359,869	5,385	0,030	-0,016
-358,854	74,199	-0,058	0,044
-357,839	-29,453	-0,054	-0,022
-356,825	-63,737	-0,046	-0,013
-355,810	-125,125	0,071	0,008
-354,796	-115,775	-0,078	0,010
-353,781	-83,561	-0,146	0,033
-352,766	-200,000	0,020	0,089
-351,752	-200,000	0,013	-0,115
-350,737	-21,875	0,103	-0,044
-349,723	-200,000	-0,031	0,117
-348,708	220,836	0,061	0,071
-347,693	-56,255	-0,061	-0,019
-346,679	-200,000	0,007	-0,191
-345,664	330,644	-0,041	0,056
-344,650	531,564	-0,041	0,070
-343,635	21,573	0,028	0,016
-342,620	132,828	0,065	-0,060
-341,606	46,154	0,060	0,040
-340,591	21,572	0,078	-0,045
-339,577	556,756	-0,043	-0,075
-338,562	518,726	-0,075	-0,126
-337,548	563,923	0,036	0,063
-336,533	-200,000	-0,011	-0,067
-335,518	-200,000	-0,033	0,135
-334,504	-71,360	-0,053	0,014
-333,489	259,521	-0,081	0,100
-332,475	38,969	-0,025	-0,016
-331,460	82,352	-0,067	0,052
-330,445	8,627	0,181	-0,097
-329,431	-124,705	0,118	0,013
-328,416	84,467	0,035	0,027
-327,402	-77,478	0,200	-0,049
-326,387	-120,493	-0,050	0,006
-325,372	-200,000	-0,061	-0,216
-324,358	44,482	-0,042	-0,028
-323,343	-55,371	-0,052	0,016
-322,329	800,000	-0,052	0,157
-321,314	6,436	0,143	0,076
-320,299	-65,854	0,058	0,016
-319,285	17,569	-0,086	-0,049
-318,270	-200,000	-0,005	0,073
-317,256	-200,000	-0,009	-0,157
-316,241	29,738	0,046	0,028
-315,226	216,743	0,075	0,085
-314,212	-70,423	0,111	-0,030
-313,197	-11,502	0,097	0,045
-312,183	266,822	0,079	-0,099
-311,168	-89,528	0,043	0,009
-310,153	-34,911	-0,074	0,029
-309,139	-163,229	-0,122	-0,004
-308,124	258,590	0,054	-0,067
-307,110	-44,435	0,062	0,022
-306,095	39,157	-0,124	0,079
-305,080	-133,852	-0,171	0,015
-304,066	257,537	-0,100	-0,124
-303,051	-142,591	-0,110	0,008
-302,037	-200,000	-0,017	-0,100
-301,022	-200,000	0,031	0,106
-300,008	-116,933	0,182	-0,023
-298,993	-200,000	-0,002	-0,070
-297,978	68,589	-0,100	0,073
-296,964	669,794	-0,015	-0,027
-295,949	-125,175	0,097	-0,010
-294,935	-200,000	-0,009	-0,102
-293,920	68,389	-0,037	-0,027
-292,905	800,000	-0,020	-0,057
-291,891	25,185	0,102	-0,060
-290,876	23,958	-0,176	0,103
-289,862	-38,998	-0,153	-0,057
-288,847	800,000	-0,038	-0,094
-287,832	-135,809	-0,134	-0,011
-286,818	-68,874	-0,146	-0,040
-285,803	-200,000	0,035	0,132
-284,789	800,000	0,029	0,079
-283,774	-200,000	-0,030	0,118
-282,759	379,266	-0,056	0,082
-281,745	8,897	-0,040	-0,021
-280,730	800,000	0,023	-0,050
-279,716	800,000	0,021	-0,057
-278,701	344,308	0,111	0,155
-277,686	-200,000	0,029	0,183
-276,672	29,138	0,085	-0,051
-275,657	47,726	0,107	0,071
-274,643	-21,697	-0,002	-0,001
-273,628	-200,000	0,005	-0,048
-272,613	154,053	-0,082	-0,080
-271,599	545,605	0,106	0,182
-270,584	74,227	-0,036	0,027
-269,570	266,903	0,039	0,048
-268,555	36,476	0,087	-0,054
-267,540	-200,000	-0,003	0,011
-266,526	800,000	-0,032	0,092
-265,511	800,000	0,018	-0,044
-264,497	-127,570	-0,095	0,010
-263,482	-173,122	-0,111	0,002
-262,467	-100,640	0,076	0,013
-261,453	-200,000	-0,007	0,155
-260,438	-200,000	0,010	0,075
-259,424	18,389	0,073	0,041
-258,409	-91,840	-0,088	-0,018
-257,395	-35,881	0,047	0,018
-256,380	800,000	-0,057	0,127
-255,365	-200,000	-0,002	0,047
-254,351	-200,000	0,015	-0,075
-253,336	-200,000	-0,008	-0,033
-252,322	17,824	0,077	-0,044
-251,307	-73,383	0,092	-0,024
-250,292	80,505	-0,122	-0,094
-249,278	-13,683	0,032	-0,015
-248,263	-138,598	0,076	0,006
-247,249	4,412	0,057	-0,030
-246,234	-160,934	-0,041	-0,002
-245,219	-17,736	-0,018	-0,008
-244,205	-75,223	0,122	-0,031
-243,190	-200,000	0,008	0,038
-242,176	-200,000	-0,021	0,084
-241,161	-10,639	-0,076	-0,036
-240,146	-28,377	0,039	0,016
-239,132	-200,000	0,000	-0,027
-238,117	94,369	-0,094	-0,076
-237,103	1,876	-0,186	-0,095
-236,088	-64,997	0,029	-0,008
-235,073	-30,387	0,106	0,043
-234,059	677,537	-0,027	0,051
-233,044	-200,000	-0,001	-0,011
-232,030	153,362	-0,084	-0,082
-231,015	-200,000	0,000	-0,175
-230,000	-200,000	0,002	0,026
-228,986	-50,713	-0,134	-0,044
-227,971	-200,000	-0,009	0,148
-226,957	272,773	0,033	0,041
-225,942	-76,067	-0,077	-0,019
-224,927	260,544	-0,096	-0,118
-223,913	-73,084	-0,115	-0,030
-222,898	800,000	-0,003	0,007
-221,884	-200,000	-0,008	-0,044
-220,869	800,000	-0,034	0,106
-219,855	1,438	0,044	0,022
-218,840	787,289	-0,024	-0,048
-217,825	-200,000	0,007	0,069
-216,811	288,628	0,085	0,110
-215,796	152,436	-0,109	0,106
-214,782	391,853	0,049	-0,073
-213,767	-35,087	-0,054	0,021
-212,752	460,595	0,074	0,118
-211,738	660,082	0,103	0,190
-210,723	407,463	-0,106	0,159
-209,709	153,482	-0,078	-0,076
-208,694	85,424	0,071	-0,056
-207,679	210,886	0,111	0,124
-206,665	800,000	-0,048	-0,127
-205,650	-200,000	-0,005	0,105
-204,636	-200,000	0,022	0,154
-203,621	-144,775	0,032	-0,002
-202,606	42,322	0,014	-0,009
-201,592	-35,611	-0,095	0,036
-200,577	669,243	-0,028	-0,052
-199,563	351,177	-0,018	-0,025
-198,548	-137,020	0,082	-0,007
-197,533	120,723	0,097	0,086
-196,519	37,582	0,116	0,073
-195,504	800,000	0,003	-0,006
-194,490	-200,000	-0,066	-0,232
-193,475	-138,420	-0,077	0,006
-192,460	-200,000	-0,015	-0,048
-191,446	-200,000	-0,006	0,061
-190,431	-200,000	0,144	0,000
-189,417	-200,000	0,017	0,132
-188,402	65,231	-0,041	-0,030
-187,387	-200,000	-0,048	-0,162
-186,373	-200,000	0,003	-0,092
-185,358	169,601	0,063	0,064
-184,344	3,975	0,084	-0,044
-183,329	-97,023	-0,045	-0,008
-182,315	-200,000	-0,005	-0,069
-181,300	-107,052	-0,103	0,016
-180,285	-200,000	-0,014	-0,136
-179,271	-200,000	0,048	-0,178
-178,256	-200,000	-0,007	-0,098
-177,242	205,681	-0,011	0,012
-176,227	-39,633	0,093	0,034
-175,212	129,276	-0,074	0,067
-174,198	-39,589	-0,099	0,037
-173,183	385,336	0,080	-0,117
-172,169	-200,000	0,007	-0,072
-171,154	492,215	-0,014	-0,023
-170,139	-98,250	0,137	-0,025
-169,125	201,426	0,029	-0,031
-168,110	-74,522	0,132	0,034
-167,096	-116,206	0,129	0,017
-166,081	129,700	0,079	-0,071
-165,066	-200,000	-0,001	-0,094
-164,052	-183,002	-0,097	0,001
-163,037	253,904	-0,079	0,096
-162,023	-78,237	0,200	0,048
-161,008	-200,000	0,029	0,099
-159,993	-200,000	0,023	0,090
-158,979	-136,050	0,075	-0,006
-157,964	-75,944	-0,101	0,025
-156,950	-96,654	0,092	-0,017
-155,935	-57,383	-0,065	-0,020
-154,920	-200,000	-0,004	-0,074
-153,906	-200,000	0,004	-0,123
-152,891	-135,440	0,006	0,001
-151,877	111,951	-0,095	0,081
-150,862	-113,190	0,084	0,012
-149,847	800,000	-0,018	-0,039
-148,833	-200,000	0,010	-0,144
-147,818	800,000	-0,031	0,062
-146,804	43,016	0,006	-0,004
-145,789	800,000	-0,033	0,069
-144,775	-200,000	0,008	0,063
-143,760	67,625	-0,077	0,056
-142,745	-75,264	-0,039	0,010
-141,731	-144,916	-0,032	0,002
-140,716	-200,000	-0,014	0,048
-139,702	128,918	0,063	-0,057
-138,687	138,072	0,051	0,047
-137,672	-19,179	-0,069	-0,030
-136,658	-200,000	0,022	-0,091
-135,643	737,310	0,036	-0,069
-134,629	38,176	0,073	0,046
-133,614	224,072	0,107	0,122
-132,599	47,023	0,100	0,066
-131,585	-29,731	-0,065	0,026
-130,570	800,000	-0,018	-0,036
-129,556	-200,000	0,003	-0,158
-128,541	139,508	-0,076	-0,071
-127,526	-13,383	0,189	-0,086
-126,512	-86,425	0,210	-0,045
-125,497	-104,916	-0,016	0,003
-124,483	-2,021	0,058	0,029
-123,468	55,842	0,041	-0,028
-122,453	-200,000	0,007	0,044
-121,439	115,746	-0,042	-0,037
-120,424	-200,000	0,005	0,122
-119,410	800,000	-0,071	0,152
-118,395	-103,754	0,083	-0,014
-117,380	145,151	-0,022	0,020
-116,366	213,887	0,066	0,075
-115,351	-77,809	-0,058	-0,014
-114,337	-99,183	-0,127	0,023
-113,322	800,000	-0,019	0,045
-112,307	-91,989	0,148	-0,029
-111,293	-200,000	-0,009	0,191
-110,278	38,563	0,103	0,065
-109,264	0,664	-0,052	0,026
-108,249	800,000	0,062	-0,159
-107,234	-200,000	0,015	-0,076
-106,220	-28,961	0,118	-0,048
-105,205	92,818	0,100	0,080
-104,191	93,911	-0,057	0,046
-103,176	-89,273	-0,045	-0,009
-102,162	-31,226	0,130	-0,052
-101,147	-17,362	-0,082	-0,036
-100,132	800,000	0,010	0,022
-99,118	32,261	-0,079	-0,048
-98,103	800,000	-0,022	-0,064
-97,089	-200,000	0,019	0,086
-96,074	53,229	0,106	0,071
-95,059	-120,580	-0,073	0,009
-94,045	-52,713	0,111	0,036
-93,030	-59,541	0,046	-0,014
-92,016	-200,000	-0,014	0,172
-91,001	-31,402	-0,082	0,032
-89,986	-61,918	-0,027	-0,008
-88,972	800,000	0,059	0,137
-87,957	-81,951	-0,140	0,032
-86,943	-200,000	0,000	0,049
-85,928	-200,000	0,013	0,090
-84,913	129,620	-0,027	0,025
-83,899	800,000	0,024	-0,052
-82,884	-73,310	0,156	0,040
-81,870	800,000	0,053	0,108
-80,855	800,000	-0,032	0,084
-79,840	99,246	0,089	0,073
-78,826	-81,759	-0,176	0,040
-77,811	800,000	0,029	-0,081
-76,797	-15,533	0,059	-0,026
-75,782	44,862	-0,064	0,041
-74,767	596,946	-0,050	0,089
-73,753	-133,987	0,035	-0,003
-72,738	314,321	0,059	0,079
-71,724	43,279	-0,088	0,057
-70,709	-200,000	-0,012	-0,051
-69,694	-200,000	-0,017	-0,102
-68,680	800,000	-0,038	-0,114
-67,665	348,697	0,043	0,059
-66,651	385,035	-0,067	-0,097
-65,636	-92,603	0,159	-0,031
-64,622	55,340	-0,052	-0,035
-63,607	-92,570	0,060	0,012
-62,592	-200,000	0,017	-0,076
-61,578	21,504	-0,087	0,050
-60,563	113,038	-0,130	0,111
-59,549	800,000	-0,022	-0,053
-58,534	12,365	-1,679	-0,911
-57,519	387,832	-1,343	-1,969
-56,505	-200,000	-0,397	-4,468
-55,490	339,097	0,848	1,171
-54,476	800,000	5,095	11,343
-53,461	-200,000	19,910	329,173
-52,446	800,000	747,554	2322,901
-51,432	557,464	1656,433	2832,219
-50,417	75,729	1666,005	1242,258
-49,403	20,055	1539,178	874,607
-48,388	14,011	1461,477	801,192
-47,373	18,713	1451,694	818,400
-46,359	16,629	1440,973	802,393
-45,344	12,298	1436,498	779,233
-44,330	12,183	1434,698	777,679
-43,315	12,203	1433,095	776,872
-42,300	12,219	1431,290	775,941
-41,286	12,284	1430,084	775,565
-40,271	12,219	1428,668	774,458
-39,257	12,218	1427,397	773,730
-38,242	12,254	1426,287	773,273
-37,227	12,247	1424,919	772,465
-36,213	12,277	1423,793	771,965
-35,198	12,288	1422,417	771,243
-34,184	12,346	1421,481	770,978
-33,169	12,243	1420,149	769,739
-32,154	12,336	1419,186	769,622
-31,140	12,309	1417,881	768,760
-30,125	12,321	1417,001	768,306
-29,111	12,315	1415,542	767,455
-28,096	12,250	1414,763	766,701
-27,082	12,262	1413,467	766,024
-26,067	12,214	1412,679	765,340
-25,052	12,230	1411,431	764,710
-24,038	12,204	1410,379	763,984
-23,023	12,186	1409,670	763,489
-22,009	12,216	1408,205	762,803
-20,994	12,196	1407,503	762,300
-19,979	12,139	1406,595	761,511
-18,965	12,199	1405,552	761,195
-17,950	12,164	1404,618	760,497
-16,936	12,169	1403,896	760,100
-15,921	12,124	1402,844	759,291
-14,906	12,090	1402,103	758,703
-13,892	12,143	1400,837	758,230
-12,877	12,116	1400,015	757,632
-11,863	12,115	1399,281	757,198
-10,848	12,062	1398,373	756,435
-9,833	12,053	1397,391	755,832
-8,819	12,043	1396,666	755,360
-7,804	12,038	1395,643	754,753
-6,790	12,023	1394,906	754,257
-5,775	12,013	1393,761	753,562
-4,760	12,017	1392,654	752,951
-3,746	12,005	1391,800	752,407
-2,731	12,003	1391,147	752,012
-1,717	11,988	1390,209	751,406
-0,702	11,971	1388,375	750,305
0,313	15,925	1304,071	722,920
1,327	32,126	697,863	423,955
2,342	49,423	121,796	80,765
3,356	0,790	16,468	8,296
4,371	-1,361	3,338	1,657
5,386	11,484	0,672	0,362
6,400	800,000	0,122	0,287
7,415	-95,283	-0,301	-0,057
8,429	-96,092	-0,363	-0,067
9,444	50,131	-0,354	-0,236
10,459	-36,642	-0,273	-0,103
11,473	7,216	-0,338	-0,177
12,488	-85,203	-0,217	-0,047
13,502	-47,828	-0,334	-0,114
14,517	136,765	-0,291	-0,268
15,531	57,959	-0,363	-0,250
16,546	83,936	-0,340	-0,261
17,561	29,553	-0,430	-0,257
18,575	-65,165	-0,184	-0,052
19,590	35,551	-0,249	-0,154
20,604	34,971	-0,287	-0,177
21,619	129,446	-0,440	-0,396
22,634	114,227	-0,466	-0,400
23,648	178,870	-0,364	-0,375
24,663	98,311	-0,237	-0,193
25,677	21,257	-0,313	-0,179
26,692	58,515	-0,272	-0,188
27,707	128,180	-0,293	-0,263
28,721	-66,244	-0,433	-0,121
29,736	67,954	-0,306	-0,221
30,750	81,012	-0,387	-0,294
31,765	-19,297	-0,397	-0,173
32,780	62,817	-0,305	-0,214
33,794	5,887	-0,311	-0,162
34,809	86,870	-0,301	-0,234
35,823	78,425	-0,399	-0,299
36,838	163,677	-0,326	-0,323
37,853	159,841	-0,321	-0,315
38,867	116,096	-0,310	-0,267
39,882	71,810	-0,409	-0,299
40,896	31,504	-0,427	-0,258
41,911	201,725	-0,192	-0,208
42,926	120,285	-0,312	-0,273
43,940	40,273	-0,444	-0,280
44,955	97,723	-0,399	-0,322
45,969	260,795	-0,274	-0,334
46,984	-59,421	-0,359	-0,108
47,999	103,993	-0,255	-0,211
49,013	-83,107	-0,362	-0,081
50,028	89,837	-0,351	-0,275
51,042	27,072	-0,430	-0,253
52,057	-5,592	-0,371	-0,178
53,071	291,748	-0,202	-0,258
54,086	-18,830	-0,379	-0,165
55,101	123,425	-0,387	-0,341
56,115	-28,267	-0,394	-0,159
57,130	163,493	-0,311	-0,308
58,144	78,791	-0,350	-0,262
59,159	-64,316	-0,335	-0,095
60,174	-20,201	-0,394	-0,170
61,188	94,140	-0,258	-0,206
62,203	190,323	-0,368	-0,388
63,217	-40,494	-0,183	-0,066
64,232	-1,827	-0,324	-0,160
65,247	86,838	-0,409	-0,317
66,261	78,516	-0,351	-0,263
67,276	57,180	-0,412	-0,281
68,290	3,391	-0,407	-0,207
69,305	-97,365	-0,386	-0,070
70,320	90,206	-0,298	-0,234
71,334	-43,686	-0,179	-0,063
72,349	-20,346	-0,336	-0,144
73,363	-2,694	-0,380	-0,186
74,378	-108,166	-0,433	-0,065
75,393	6,027	-0,345	-0,179
76,407	-25,922	-0,321	-0,132
77,422	349,942	-0,186	-0,258
78,436	62,100	-0,147	-0,102
79,451	140,115	-0,328	-0,303
80,466	-54,543	-0,407	-0,129
81,480	5,576	-0,357	-0,184
82,495	91,428	-0,276	-0,218
83,509	522,258	-0,132	-0,217
84,524	-28,471	-0,405	-0,163
85,539	-68,659	-0,337	-0,091
86,553	-22,029	-0,296	-0,126
87,568	8,145	-0,401	-0,210
88,582	313,043	-0,206	-0,272
89,597	-78,840	-0,353	-0,084
90,611	-22,097	-0,156	-0,066
91,626	565,464	-0,119	-0,203
92,641	76,944	-0,266	-0,198
93,655	-110,376	-0,326	-0,047
94,670	-27,595	-0,319	-0,129
95,684	-3,597	-0,492	-0,238
96,699	106,178	-0,295	-0,245
97,714	-200,000	-0,281	0,000
98,728	-106,523	-0,297	-0,046
99,743	-1,357	-0,224	-0,110
100,757	88,569	-0,275	-0,214
101,772	375,813	-0,192	-0,275
102,787	-51,430	-0,298	-0,097
103,801	141,205	-0,195	-0,181
104,816	536,894	-0,180	-0,300
105,830	22,575	-0,331	-0,189
106,845	293,733	-0,228	-0,292
107,860	206,178	-0,152	-0,165
108,874	450,601	-0,147	-0,228
109,889	163,343	-0,311	-0,306
110,903	194,560	-0,206	-0,219
111,918	215,144	-0,124	-0,138
112,933	44,339	-0,298	-0,191
113,947	-79,083	-0,200	-0,047
114,962	-67,442	-0,315	-0,086
115,976	189,335	-0,225	-0,236
116,991	242,840	-0,171	-0,200
118,006	120,811	-0,304	-0,264
119,020	28,012	-0,289	-0,170
120,035	197,213	-0,238	-0,254
121,049	26,374	-0,250	-0,146
122,064	-112,485	-0,230	-0,032
123,079	-147,766	-0,347	-0,020
124,093	124,248	-0,357	-0,313
125,108	800,000	-0,147	-0,298
126,122	1,275	-0,225	-0,113
127,137	262,425	-0,149	-0,181
128,151	-41,879	-0,325	-0,116
129,166	-127,143	-0,217	-0,022
130,181	429,583	-0,173	-0,263
131,195	-67,822	-0,202	-0,055
132,210	54,414	-0,320	-0,215
133,224	267,611	-0,166	-0,204
134,239	114,516	-0,221	-0,188
135,254	116,053	-0,225	-0,192
136,268	99,694	-0,236	-0,191
137,283	17,511	-0,235	-0,130
138,297	241,125	-0,202	-0,236
139,312	89,108	-0,299	-0,232
140,327	18,204	-0,340	-0,189
141,341	70,427	-0,200	-0,144
142,356	229,934	-0,231	-0,264
143,370	107,719	-0,191	-0,159
144,385	64,281	-0,297	-0,208
145,400	243,681	-0,201	-0,236
146,414	-30,042	-0,387	-0,153
147,429	120,632	-0,220	-0,191
148,443	-138,804	-0,213	-0,016
149,458	127,932	-0,284	-0,252
150,473	4,913	-0,144	-0,074
151,487	800,000	-0,123	-0,243
152,502	152,436	-0,184	-0,175
153,516	-59,828	-0,310	-0,092
154,531	108,159	-0,354	-0,294
155,546	385,980	-0,211	-0,304
156,560	167,079	-0,175	-0,173
157,575	-16,110	-0,157	-0,069
158,589	-59,958	-0,334	-0,099
159,604	121,699	-0,247	-0,215
160,619	104,816	-0,295	-0,242
161,633	169,876	-0,205	-0,205
162,648	-86,066	-0,210	-0,045
163,662	130,313	-0,130	-0,116
164,677	274,953	-0,161	-0,199
165,692	461,767	-0,122	-0,190
166,706	-173,524	-0,374	-0,008
167,721	655,828	-0,081	-0,146
168,735	36,029	-0,292	-0,179
169,750	-56,581	-0,062	0,019
170,764	4,281	-0,155	-0,079
171,779	-36,587	-0,263	-0,098
172,794	25,614	-0,109	-0,063
173,808	171,556	-0,164	-0,164
174,823	445,924	-0,186	-0,285
175,837	22,196	-0,169	-0,096
176,852	90,796	-0,276	-0,215
177,867	319,716	-0,193	-0,255
178,881	53,051	-0,180	-0,120
179,896	490,930	-0,102	-0,164
180,910	85,163	-0,282	-0,215
181,925	374,373	-0,096	-0,137
182,940	281,424	-0,197	-0,245
183,954	443,375	-0,170	-0,260
184,969	89,313	-0,157	-0,122
185,983	800,000	-0,080	-0,195
186,998	-135,921	-0,124	-0,010
188,013	224,811	-0,212	-0,238
189,027	800,000	-0,148	-0,338
190,042	275,167	-0,246	-0,304
191,056	153,846	-0,139	-0,132
192,071	-12,175	-0,322	-0,146
193,086	800,000	-0,094	-0,204
194,100	81,029	-0,083	-0,062
195,115	-112,638	-0,217	-0,030
196,129	-29,109	-0,253	-0,100
197,144	431,532	-0,187	-0,282
198,159	40,092	-0,288	-0,179
199,173	-42,905	-0,279	-0,098
200,188	-0,609	-0,196	-0,096
201,202	167,823	-0,129	-0,127
202,217	-200,000	-0,012	-0,050
203,232	58,890	-0,237	-0,162
204,246	-200,000	-0,020	-0,212
205,261	49,607	-0,279	-0,182
206,275	800,000	-0,184	-0,455
207,290	48,695	-0,240	-0,156
208,304	124,393	-0,255	-0,222
209,319	-29,575	-0,195	-0,077
210,334	-34,231	-0,189	-0,072
211,348	59,792	-0,302	-0,206
212,363	743,323	-0,122	-0,228
213,377	87,701	-0,077	-0,059
214,392	543,988	-0,077	-0,128
215,407	218,845	-0,191	-0,212
216,421	50,563	-0,202	-0,132
217,436	203,451	-0,197	-0,212
218,450	17,140	-0,148	-0,081
219,465	230,821	-0,175	-0,199
220,480	416,738	-0,091	-0,135
221,494	6,716	-0,163	-0,084
222,509	-64,491	-0,193	-0,054
223,523	259,603	-0,126	-0,151
224,538	88,426	-0,164	-0,126
225,553	-140,460	-0,236	0,017
226,567	-53,582	-0,157	0,049
227,582	32,935	-0,197	-0,118
228,596	-36,792	-0,233	-0,086
229,611	-10,888	-0,220	-0,100
230,626	80,282	-0,164	-0,122
231,640	800,000	-0,059	-0,151
232,655	624,105	-0,127	-0,221
233,669	228,358	-0,162	-0,183
234,684	-61,979	-0,292	-0,084
235,699	507,077	-0,070	-0,112
236,713	80,118	-0,135	-0,100
237,728	-124,546	-0,276	-0,029
238,742	-70,847	-0,193	-0,050
239,757	17,243	-0,230	-0,126
240,772	168,493	-0,235	-0,232
241,786	78,071	-0,219	-0,162
242,801	-200,000	-0,057	-0,208
243,815	307,639	-0,090	-0,116
244,830	-200,000	-0,060	-0,265
245,844	10,262	-0,181	-0,095
246,859	-94,910	-0,223	-0,041
247,874	137,033	-0,133	-0,120
248,888	-22,625	-0,136	-0,057
249,903	163,274	-0,171	-0,166
250,917	220,513	-0,174	-0,193
251,932	644,390	-0,069	-0,123
252,947	800,000	-0,072	-0,191
253,961	679,862	-0,134	-0,242
254,976	46,711	-0,195	-0,125
255,990	800,000	-0,104	-0,221
257,005	-200,000	-0,185	0,000
258,020	-50,296	-0,073	0,024
259,034	-114,474	-0,170	-0,022
260,049	800,000	-0,041	-0,114
261,063	-20,224	-0,184	-0,078
262,078	194,493	-0,231	-0,242
263,093	-45,457	-0,173	-0,059
264,107	-200,000	-0,019	-0,163
265,122	-93,104	-0,145	-0,028
266,136	800,000	-0,015	0,038
267,151	-95,454	-0,142	-0,026
268,166	-93,969	-0,262	-0,049
269,180	-122,368	-0,223	-0,025
270,195	348,661	-0,192	-0,262
271,209	800,000	-0,093	-0,250
272,224	-17,057	-0,129	-0,056
273,239	-200,000	-0,017	-0,052
274,253	389,863	-0,103	-0,147
275,268	338,408	-0,126	-0,169
276,282	519,506	-0,088	-0,142
277,297	-200,000	-0,016	-0,209
278,312	-119,231	-0,136	0,016
279,326	320,219	-0,093	-0,122
280,341	437,223	-0,064	-0,097
281,355	49,314	-0,189	-0,122
282,370	-17,554	-0,103	-0,044
283,384	-18,390	-0,169	0,072
284,399	65,780	-0,145	-0,101
285,414	41,489	-0,138	-0,086
286,428	-35,900	-0,162	-0,060
287,443	-200,000	-0,001	-0,150
288,457	416,786	-0,114	-0,168
289,472	198,411	-0,190	-0,200
290,487	43,843	-0,206	-0,129
291,501	-43,797	-0,176	-0,061
292,516	-200,000	-0,030	-0,111
293,530	507,323	-0,078	-0,124
294,545	127,755	-0,091	-0,079
295,560	-88,835	-0,202	-0,041
296,574	51,786	-0,204	-0,133
297,589	-106,836	-0,232	-0,035
298,603	315,760	-0,128	-0,167
299,618	62,870	-0,135	-0,092
300,633	-13,832	-0,164	-0,072
301,647	202,514	-0,052	0,055
302,662	381,358	-0,073	-0,103
303,676	428,616	-0,102	-0,152
304,691	-48,724	-0,201	-0,066
305,706	-65,326	-0,230	-0,063
306,720	131,543	-0,203	-0,180
307,735	-48,790	-0,120	-0,039
308,749	-193,052	-0,128	0,001
309,764	204,019	-0,123	-0,131
310,779	-3,396	-0,108	-0,051
311,793	195,840	-0,128	-0,134
312,808	87,626	-0,123	-0,093
313,822	-116,929	-0,213	-0,026
314,837	-22,765	-0,220	-0,091
315,852	-154,777	0,022	0,001
316,866	800,000	-0,086	-0,177
317,881	378,150	-0,102	-0,144
318,895	-90,578	-0,070	-0,014
319,910	-65,060	-0,082	-0,023
320,925	55,235	-0,154	-0,102
321,939	-146,087	-0,215	0,013
322,954	-200,000	-0,064	-0,213
323,968	800,000	-0,051	-0,133
324,983	-4,908	-0,150	0,071
325,997	61,395	-0,166	-0,113
327,012	-81,302	-0,253	-0,057
328,027	-200,000	0,005	-0,104
329,041	-2,946	-0,172	0,082
330,056	36,664	-0,192	-0,116
331,070	66,378	-0,164	-0,114
332,085	-104,589	-0,116	-0,018
333,100	60,226	-0,179	-0,121
334,114	637,360	-0,137	-0,240
335,129	27,545	-0,125	-0,072
336,143	-42,246	-0,145	-0,051
337,158	-200,000	-0,044	-0,161
338,173	9,613	-0,097	-0,050
339,187	-200,000	-0,019	-0,061
340,202	-62,864	-0,146	-0,041
341,216	772,566	-0,134	-0,252
342,231	48,557	-0,122	-0,078
343,246	404,313	-0,122	-0,177
344,260	211,770	-0,159	-0,172
345,275	3,186	-0,073	-0,036
346,289	-52,705	-0,216	-0,068
347,304	250,744	-0,086	-0,100
348,319	82,138	-0,131	-0,097
349,333	58,128	-0,136	-0,091
350,348	-184,279	-0,207	-0,002
351,362	350,197	-0,100	-0,136
352,377	160,409	-0,113	0,108
353,392	-80,844	-0,069	0,016
354,406	71,275	-0,128	-0,091
355,421	205,328	1312,999	1397,518
356,435	157,864	1473,512	1398,018
