DTS Sentinel unit serial number:	SN410029Multiplexer serial number:	ORYXHardware model number:	OX2-SRSoftware version number:	ORYX F/W v4,00 Oryx Data Collector v3.7.2.0data status	okinstallation	B3 Nyhavnadifferential loss correction	single-endedforward channel	channel 1reverse channel	N/Adate	2023/12/03time	12:37:30forward acquisition time	300,00reverse acquisition time	0,00gamma	499,1914k internal	0,3201k external	0,3201temperature offset calibration	1,0000default loss term (dB/km)	0,3820temperature slope calibration	1,0000multiplexer offset coefficient	1,0000multiplexer slope coefficient	1,0000fibre end	0,00T internal ref (°C)	14,21T ext. ref 1 (°C)	0,34T ext. ref 2 (°C)	0,32length (m)	temperature (°C)	Stokes	anti-Stokes-744,400	82,606	-0,231	-0,182
-743,385	-200,000	0,009	0,316
-742,371	153,484	-0,212	-0,212
-741,356	-200,000	-0,036	0,294
-740,342	43,171	-0,185	-0,123
-739,327	-200,000	0,047	0,446
-738,312	361,534	-0,197	-0,288
-737,298	-200,000	0,018	0,237
-736,283	79,218	-0,182	-0,142
-735,269	-200,000	-0,002	0,237
-734,254	-200,000	-0,003	-0,265
-733,239	19,172	-0,214	0,124
-732,225	392,834	-0,182	-0,277
-731,210	76,185	0,194	0,149
-730,196	800,000	-0,023	0,049
-729,181	282,733	-0,099	0,130
-728,167	187,302	-0,100	0,108
-727,152	60,929	-0,063	0,045
-726,137	-22,725	-0,183	-0,080
-725,123	88,703	-0,030	0,025
-724,108	-72,800	-0,241	-0,064
-723,094	-18,200	-0,120	-0,054
-722,079	-10,685	-0,080	-0,038
-721,064	-200,000	-0,015	-0,073
-720,050	-90,856	0,088	-0,018
-719,035	-138,908	-0,130	-0,010
-718,021	-106,079	-0,059	-0,010
-717,006	279,609	-0,109	-0,142
-715,991	-200,000	0,019	-0,115
-714,977	800,000	0,040	-0,096
-713,962	-121,735	0,003	-0,000
-712,948	-53,378	-0,078	-0,026
-711,933	-51,397	0,086	0,029
-710,918	-27,829	-0,062	-0,026
-709,904	92,279	-0,142	-0,116
-708,889	-83,383	-0,113	0,026
-707,875	764,688	-0,094	0,186
-706,860	67,964	0,031	0,023
-705,845	458,759	0,040	-0,065
-704,831	-200,000	0,013	-0,049
-703,816	83,073	-0,013	0,011
-702,802	-200,000	-0,097	0,000
-701,787	-65,487	-0,046	0,013
-700,772	403,403	0,025	-0,038
-699,758	-200,000	-0,016	-0,054
-698,743	-120,132	-0,113	0,014
-697,729	-200,000	-0,002	0,026
-696,714	795,018	0,011	0,021
-695,699	-200,000	-0,025	-0,149
-694,685	-32,131	-0,050	0,020
-693,670	800,000	-0,015	-0,042
-692,656	800,000	-0,036	-0,098
-691,641	-200,000	0,019	-0,081
-690,627	525,767	-0,038	0,066
-689,612	-33,442	0,007	-0,003
-688,597	-49,603	-0,123	0,042
-687,583	141,438	-0,091	-0,087
-686,568	85,282	-0,054	0,043
-685,554	-200,000	0,005	-0,051
-684,539	-28,863	-0,094	-0,039
-683,524	-126,546	-0,076	0,008
-682,510	-14,720	0,153	-0,071
-681,495	95,891	-0,092	-0,076
-680,481	800,000	0,025	0,076
-679,466	-134,293	-0,071	-0,006
-678,451	800,000	-0,046	-0,094
-677,437	-82,533	0,118	0,028
-676,422	93,829	-0,131	-0,108
-675,408	214,981	-0,064	-0,073
-674,393	-100,363	-0,066	0,012
-673,378	-0,826	-0,055	0,028
-672,364	-200,000	-0,020	0,092
-671,349	-37,234	-0,101	0,039
-670,335	325,820	0,061	-0,085
-669,320	64,392	-0,035	-0,026
-668,305	414,049	0,006	-0,009
-667,291	56,434	-0,044	0,031
-666,276	-200,000	-0,003	-0,094
-665,262	650,413	-0,060	-0,112
-664,247	-200,000	-0,041	-0,143
-663,232	-141,696	0,090	-0,006
-662,218	-132,143	-0,040	0,004
-661,203	167,760	0,077	0,079
-660,189	-62,736	-0,064	0,019
-659,174	-38,708	-0,172	-0,066
-658,159	-200,000	0,009	-0,131
-657,145	-31,617	-0,134	0,054
-656,130	159,654	-0,052	0,053
-655,116	-141,524	0,124	-0,009
-654,101	-200,000	-0,005	0,019
-653,086	184,465	0,050	-0,054
-652,072	14,039	0,070	-0,040
-651,057	-71,723	-0,121	-0,032
-650,043	800,000	0,049	-0,132
-649,028	-33,334	-0,033	-0,013
-648,014	248,480	0,097	0,120
-646,999	-200,000	-0,011	-0,170
-645,984	800,000	0,070	0,148
-644,970	-200,000	0,005	-0,016
-643,955	313,189	-0,058	0,079
-642,941	-20,978	-0,074	0,033
-641,926	-134,711	0,058	0,005
-640,911	-200,000	-0,001	-0,015
-639,897	800,000	0,046	0,120
-638,882	16,660	-0,079	0,045
-637,868	-88,085	-0,128	0,028
-636,853	-200,000	0,037	-0,142
-635,838	509,822	0,021	-0,035
-634,824	-26,240	-0,107	0,045
-633,809	-200,000	0,103	0,000
-632,795	151,689	0,018	-0,018
-631,780	-76,135	0,098	-0,025
-630,765	112,797	-0,077	-0,068
-629,751	-200,000	0,038	-0,139
-628,736	-64,833	-0,109	-0,032
-627,722	-76,713	-0,065	0,016
-626,707	-200,000	0,002	-0,118
-625,692	702,843	0,053	0,102
-624,678	-200,000	0,012	0,125
-623,663	-5,058	0,068	0,034
-622,649	-200,000	-0,011	0,099
-621,634	238,365	-0,127	-0,153
-620,619	-62,700	-0,090	0,027
-619,605	-0,999	0,142	0,073
-618,590	417,639	0,067	0,104
-617,576	-200,000	-0,004	0,075
-616,561	-62,414	-0,111	-0,033
-615,546	-119,518	0,073	-0,009
-614,532	800,000	-0,040	-0,116
-613,517	-200,000	-0,017	-0,142
-612,503	-200,000	-0,001	-0,059
-611,488	-106,185	-0,090	-0,014
-610,474	178,897	0,101	-0,107
-609,459	-7,700	-0,125	0,061
-608,444	-127,316	-0,173	0,018
-607,430	230,316	-0,177	-0,210
-606,415	-200,000	0,044	-0,177
-605,401	-140,973	-0,083	0,006
-604,386	77,855	0,092	0,071
-603,371	-200,000	0,005	0,188
-602,357	-43,159	-0,069	-0,025
-601,342	-8,235	-0,112	-0,054
-600,328	44,438	-0,140	0,093
-599,313	-93,756	0,150	0,030
-598,298	203,488	-0,017	0,019
-597,284	345,486	-0,080	0,114
-596,269	197,854	0,153	0,169
-595,255	-200,000	0,046	0,177
-594,240	-118,599	-0,068	0,009
-593,225	-200,000	-0,002	-0,008
-592,211	386,504	0,062	0,093
-591,196	-200,000	-0,011	0,064
-590,182	472,643	0,098	0,160
-589,167	-200,000	0,006	0,023
-588,152	86,100	0,031	-0,025
-587,138	-176,281	-0,114	0,002
-586,123	-200,000	-0,027	0,130
-585,109	800,000	0,008	-0,020
-584,094	-76,674	-0,130	-0,033
-583,079	-200,000	0,005	0,098
-582,065	432,713	-0,035	-0,055
-581,050	-30,416	0,090	0,037
-580,036	-200,000	-0,006	0,052
-579,021	800,000	0,070	-0,157
-578,006	-89,400	-0,120	0,025
-576,992	-43,792	0,091	0,033
-575,977	500,209	-0,132	0,221
-574,963	-188,995	0,070	0,001
-573,948	-117,935	0,061	-0,008
-572,934	-36,036	0,091	-0,035
-571,919	-200,000	0,005	-0,085
-570,904	-200,000	-0,034	-0,125
-569,890	554,493	-0,041	-0,071
-568,875	142,870	0,110	-0,105
-567,861	140,560	-0,047	0,045
-566,846	411,984	-0,023	-0,036
-565,831	115,996	-0,056	-0,049
-564,817	-12,279	-0,034	-0,016
-563,802	-70,714	-0,061	-0,017
-562,788	800,000	0,085	0,205
-561,773	-200,000	0,027	0,133
-560,758	-200,000	0,020	0,092
-559,744	270,828	0,013	-0,016
-558,729	800,000	0,010	-0,028
-557,715	496,859	-0,031	-0,052
-556,700	139,413	-0,108	-0,102
-555,685	-55,628	0,119	-0,038
-554,671	-75,069	-0,081	0,021
-553,656	3,867	0,085	-0,045
-552,642	16,748	-0,029	-0,016
-551,627	-200,000	0,016	0,166
-550,612	800,000	0,022	0,048
-549,598	83,597	0,060	-0,047
-548,583	319,877	-0,048	-0,066
-547,569	297,977	0,019	-0,026
-546,554	-77,260	0,122	-0,030
-545,539	800,000	0,036	0,078
-544,525	109,449	-0,074	0,064
-543,510	-7,195	0,105	0,051
-542,496	-54,196	0,053	0,017
-541,481	94,473	0,110	-0,090
-540,466	6,552	0,130	-0,069
-539,452	-200,000	0,016	0,055
-538,437	800,000	-0,017	-0,042
-537,423	260,850	0,058	0,072
-536,408	800,000	-0,020	-0,047
-535,393	88,157	-0,018	-0,014
-534,379	-82,102	-0,113	0,026
-533,364	27,182	-0,101	-0,061
-532,350	124,998	-0,070	0,064
-531,335	264,210	0,061	0,077
-530,321	85,732	-0,118	0,094
-529,306	-76,897	0,181	0,045
-528,291	-200,000	-0,035	-0,115
-527,277	417,111	-0,047	-0,073
-526,262	344,323	-0,079	-0,112
-525,248	94,075	0,078	-0,064
-524,233	314,889	-0,029	-0,040
-523,218	96,520	0,176	0,145
-522,204	800,000	-0,050	0,129
-521,189	-39,115	0,102	0,038
-520,175	-111,555	-0,116	0,017
-519,160	691,803	0,056	-0,106
-518,145	624,757	-0,048	-0,088
-517,131	800,000	0,026	0,053
-516,116	-122,407	-0,128	-0,015
-515,102	516,198	0,057	-0,096
-514,087	-200,000	0,006	-0,067
-513,072	211,233	0,055	0,063
-512,058	800,000	-0,025	0,075
-511,043	97,293	-0,147	-0,122
-510,029	-142,867	0,107	0,007
-509,014	-200,000	0,006	0,059
-507,999	800,000	0,058	0,120
-506,985	-200,000	0,022	-0,080
-505,970	800,000	0,010	-0,027
-504,956	800,000	-0,032	-0,095
-503,941	-200,000	-0,023	-0,145
-502,926	300,100	-0,051	-0,068
-501,912	120,565	-0,089	0,080
-500,897	800,000	0,021	-0,049
-499,883	330,418	-0,040	-0,055
-498,868	-119,284	-0,086	-0,011
-497,853	-196,736	0,128	-0,001
-496,839	302,534	-0,058	0,078
-495,824	-92,493	0,069	-0,014
-494,810	78,298	-0,097	0,075
-493,795	284,344	0,051	0,066
-492,781	-200,000	0,031	0,135
-491,766	-86,509	-0,131	-0,029
-490,751	12,704	0,137	-0,076
-489,737	546,320	-0,031	0,053
-488,722	800,000	0,058	0,145
-487,708	231,973	0,133	0,157
-486,693	455,399	-0,086	0,138
-485,678	-84,402	0,134	0,030
-484,664	-28,733	-0,151	-0,062
-483,649	800,000	-0,042	0,090
-482,635	20,205	0,140	0,081
-481,620	535,425	-0,026	-0,045
-480,605	-50,036	0,093	0,032
-479,591	800,000	0,052	0,140
-478,576	513,073	0,050	0,084
-477,562	115,220	-0,052	-0,046
-476,547	344,280	-0,050	-0,071
-475,532	800,000	0,009	-0,022
-474,518	-133,610	0,092	-0,008
-473,503	18,694	-0,025	0,014
-472,489	85,555	0,160	0,127
-471,474	-200,000	0,001	0,101
-470,459	-16,742	-0,051	0,023
-469,445	130,787	-0,103	0,095
-468,430	-200,000	0,017	-0,156
-467,416	201,247	0,099	0,110
-466,401	431,936	-0,052	0,082
-465,386	-200,000	0,013	0,115
-464,372	-200,000	-0,006	-0,047
-463,357	329,025	-0,047	0,065
-462,343	-200,000	0,019	0,108
-461,328	183,178	0,114	-0,121
-460,313	-200,000	-0,028	-0,116
-459,299	-51,960	0,201	-0,067
-458,284	-141,464	-0,047	0,003
-457,270	90,771	-0,084	-0,068
-456,255	-23,762	0,011	0,005
-455,241	-52,849	-0,039	-0,013
-454,226	-200,000	-0,001	-0,097
-453,211	50,981	-0,018	-0,012
-452,197	-61,766	0,043	-0,013
-451,182	800,000	0,028	-0,076
-450,168	15,435	-0,103	0,058
-449,153	-127,867	0,057	-0,006
-448,138	666,744	-0,054	-0,101
-447,124	-200,000	-0,001	-0,210
-446,109	497,006	-0,035	0,059
-445,095	-34,628	-0,124	0,048
-444,080	544,180	0,046	0,079
-443,065	800,000	0,031	0,085
-442,051	-200,000	-0,001	-0,076
-441,036	205,472	-0,033	0,037
-440,022	800,000	-0,024	-0,049
-439,007	104,393	0,092	-0,078
-437,992	157,830	-0,091	0,090
-436,978	-165,105	0,054	0,002
-435,963	411,579	-0,035	0,054
-434,949	107,924	0,037	0,031
-433,934	17,870	-0,042	0,024
-432,919	600,674	0,076	-0,137
-431,905	-200,000	-0,023	-0,108
-430,890	696,717	0,072	0,136
-429,876	-200,000	-0,002	0,053
-428,861	180,731	0,045	0,047
-427,846	87,607	0,068	-0,054
-426,832	129,500	-0,079	0,073
-425,817	-86,064	-0,059	-0,013
-424,803	-144,397	0,049	0,003
-423,788	-124,740	-0,054	0,006
-422,773	-76,171	-0,056	-0,014
-421,759	-200,000	0,030	0,133
-420,744	1,415	-0,126	0,065
-419,730	160,547	0,069	-0,069
-418,715	284,325	-0,070	-0,090
-417,701	-68,423	-0,038	0,011
-416,686	-200,000	-0,013	0,042
-415,671	167,406	0,039	0,040
-414,657	-87,793	0,069	0,015
-413,642	-15,592	0,113	-0,052
-412,628	-65,447	-0,086	-0,025
-411,613	-200,000	-0,013	-0,058
-410,598	268,630	0,017	0,022
-409,584	-117,378	-0,133	0,017
-408,569	800,000	0,050	0,134
-407,555	-71,240	0,068	0,018
-406,540	-34,164	0,104	-0,041
-405,525	152,440	-0,116	-0,114
-404,511	-181,108	-0,120	0,002
-403,496	-200,000	-0,003	-0,019
-402,482	179,815	0,119	-0,126
-401,467	-63,105	-0,144	-0,042
-400,452	-61,236	0,107	-0,032
-399,438	-54,651	-0,041	-0,013
-398,423	192,119	0,080	-0,087
-397,409	-200,000	-0,006	-0,139
-396,394	-43,404	-0,109	-0,039
-395,379	-97,963	0,061	0,011
-394,365	-200,000	-0,021	-0,098
-393,350	242,955	-0,031	0,038
-392,336	115,408	-0,055	0,048
-391,321	-22,319	-0,056	-0,024
-390,306	83,257	-0,163	0,127
-389,292	-200,000	0,028	-0,099
-388,277	800,000	-0,030	0,060
-387,263	37,660	-0,069	-0,044
-386,248	-67,415	0,079	0,022
-385,233	128,054	0,028	-0,026
-384,219	-25,114	0,130	0,055
-383,204	279,172	-0,034	-0,044
-382,190	-12,129	0,064	0,030
-381,175	226,000	-0,072	0,084
-380,160	-181,261	0,137	0,002
-379,146	-159,282	0,102	0,004
-378,131	462,561	0,076	0,122
-377,117	800,000	0,028	-0,071
-376,102	329,049	0,082	-0,113
-375,088	-200,000	0,006	0,039
-374,073	800,000	0,033	-0,075
-373,058	-85,440	0,064	-0,014
-372,044	618,185	-0,026	-0,047
-371,029	-200,000	0,001	-0,093
-370,015	-200,000	0,024	0,088
-369,000	269,534	-0,107	0,134
-367,985	-47,632	0,063	-0,022
-366,971	14,693	-0,060	-0,033
-365,956	711,058	0,056	-0,107
-364,942	-200,000	0,007	0,039
-363,927	800,000	-0,066	0,157
-362,912	-17,570	-0,087	0,039
-361,898	606,349	0,025	-0,045
-360,883	-161,889	0,110	0,004
-359,869	-127,281	-0,140	-0,014
-358,854	-95,604	0,146	-0,028
-357,839	800,000	-0,019	0,059
-356,825	290,659	0,057	0,074
-355,810	216,590	-0,072	0,082
-354,796	-200,000	0,007	-0,042
-353,781	-200,000	0,007	-0,034
-352,766	235,808	-0,029	-0,034
-351,752	-200,000	0,012	-0,040
-350,737	-200,000	0,001	0,023
-349,723	800,000	-0,031	-0,078
-348,708	119,116	-0,040	-0,036
-347,693	-200,000	0,002	-0,023
-346,679	800,000	-0,021	-0,059
-345,664	-200,000	-0,005	-0,031
-344,650	504,360	-0,042	0,070
-343,635	661,826	0,065	0,121
-342,620	-148,340	0,048	-0,003
-341,606	800,000	-0,047	0,096
-340,591	236,095	0,159	-0,189
-339,577	-200,000	0,011	-0,157
-338,562	276,330	-0,050	-0,064
-337,548	93,995	-0,035	-0,028
-336,533	-183,770	-0,203	0,002
-335,518	31,050	0,009	-0,006
-334,504	-200,000	0,024	0,118
-333,489	-57,738	-0,074	0,023
-332,475	309,767	0,086	-0,116
-331,460	-200,000	-0,013	-0,129
-330,445	-200,000	-0,009	-0,048
-329,431	-90,615	0,072	-0,015
-328,416	-86,977	0,119	0,026
-327,402	277,862	0,053	0,068
-326,387	-200,000	-0,034	0,115
-325,372	190,419	-0,010	0,010
-324,358	40,128	0,059	-0,038
-323,343	-200,000	-0,004	-0,037
-322,329	-59,407	0,075	0,023
-321,314	-200,000	0,002	-0,031
-320,299	182,830	0,081	0,085
-319,285	-74,063	0,186	-0,048
-318,270	-200,000	-0,015	-0,168
-317,256	-200,000	0,011	0,042
-316,241	137,929	0,146	0,137
-315,226	676,844	-0,016	-0,030
-314,212	709,765	-0,058	0,110
-313,197	-126,907	0,132	0,014
-312,183	620,963	0,014	0,025
-311,168	104,724	0,141	0,118
-310,153	-200,000	-0,051	-0,189
-309,139	65,335	-0,102	0,074
-308,124	19,644	0,103	-0,059
-307,110	-200,000	-0,006	-0,051
-306,095	73,373	-0,093	0,069
-305,080	-200,000	0,002	-0,069
-304,066	-200,000	0,026	-0,154
-303,051	698,401	0,065	-0,123
-302,037	423,879	0,044	0,068
-301,022	800,000	-0,033	0,104
-300,008	31,484	-0,078	0,048
-298,993	-200,000	-0,030	-0,148
-297,978	667,549	0,015	0,028
-296,964	48,589	-0,105	0,070
-295,949	-18,167	-0,086	-0,038
-294,935	-200,000	-0,003	-0,038
-293,920	-144,937	0,130	-0,008
-292,905	411,851	0,003	0,004
-291,891	589,041	0,039	-0,069
-290,876	133,046	-0,049	0,046
-289,862	408,913	0,031	-0,047
-288,847	-200,000	0,035	-0,140
-287,832	722,185	-0,042	-0,081
-286,818	-200,000	-0,010	0,096
-285,803	395,428	-0,050	-0,075
-284,789	-200,000	0,001	-0,013
-283,774	-93,670	0,052	0,010
-282,759	451,061	-0,042	-0,067
-281,745	-31,290	-0,146	-0,058
-280,730	331,713	0,019	-0,026
-279,716	-46,130	-0,091	0,032
-278,701	-113,846	-0,132	0,018
-277,686	-200,000	-0,011	-0,064
-276,672	55,691	0,056	-0,039
-275,657	-200,000	0,020	0,070
-274,643	-120,775	0,122	0,015
-273,628	-117,459	-0,024	-0,003
-272,613	64,028	-0,026	0,019
-271,599	-20,832	-0,043	-0,019
-270,584	-46,365	0,079	0,028
-269,570	351,241	-0,039	0,055
-268,555	-93,103	-0,066	0,013
-267,540	-200,000	-0,032	-0,149
-266,526	-144,288	0,148	-0,010
-265,511	-200,000	0,006	-0,109
-264,497	281,917	0,079	-0,101
-263,482	800,000	-0,025	-0,053
-262,467	163,704	-0,120	-0,121
-261,453	263,761	0,069	0,086
-260,438	-195,872	-0,076	-0,000
-259,424	-83,603	-0,137	0,031
-258,409	-25,159	-0,076	-0,032
-257,395	-200,000	0,017	0,059
-256,380	800,000	-0,041	0,096
-255,365	389,469	0,069	0,103
-254,351	-7,609	0,105	-0,050
-253,336	119,818	0,016	-0,014
-252,322	-122,856	-0,026	-0,003
-251,307	800,000	-0,016	-0,043
-250,292	204,062	-0,061	-0,067
-249,278	-200,000	-0,016	0,075
-248,263	32,156	0,067	0,041
-247,249	2,067	0,068	0,035
-246,234	67,539	-0,036	0,026
-245,219	-159,469	-0,128	0,005
-244,205	-13,171	0,096	-0,044
-243,190	159,699	0,072	-0,071
-242,176	-1,061	0,109	-0,055
-241,161	581,650	-0,028	0,050
-240,146	-84,164	-0,046	0,010
-239,132	122,073	0,033	-0,029
-238,117	-4,858	-0,089	-0,043
-237,103	800,000	-0,015	0,039
-236,088	-200,000	-0,024	0,130
-235,073	-200,000	0,003	0,135
-234,059	-90,206	0,063	0,013
-233,044	502,687	0,065	0,107
-232,030	27,457	-0,077	-0,046
-231,015	218,139	-0,054	0,062
-230,000	-42,851	-0,116	0,042
-228,986	-200,000	0,005	-0,067
-227,971	107,950	0,094	-0,080
-226,957	-108,126	0,145	0,022
-225,942	800,000	0,007	0,016
-224,927	800,000	0,026	-0,068
-223,913	-120,246	-0,115	-0,014
-222,898	300,199	-0,057	0,075
-221,884	-67,929	-0,061	-0,017
-220,869	412,073	-0,075	0,114
-219,855	160,530	-0,026	0,026
-218,840	558,610	0,039	0,068
-217,825	800,000	-0,040	0,089
-216,811	-46,947	0,141	0,049
-215,796	-200,000	0,040	-0,145
-214,782	265,321	-0,072	-0,090
-213,767	237,208	-0,029	0,035
-212,752	70,844	0,126	0,093
-211,738	-68,636	-0,047	0,013
-210,723	-49,568	-0,051	-0,017
-209,709	-90,347	-0,056	0,012
-208,694	46,234	0,025	0,016
-207,679	800,000	-0,072	-0,162
-206,665	8,191	0,030	-0,016
-205,650	-136,827	0,158	0,013
-204,636	-200,000	-0,007	0,028
-203,621	-200,000	0,005	-0,025
-202,606	-87,036	-0,114	-0,025
-201,592	-113,838	-0,116	-0,016
-200,577	-200,000	-0,004	0,073
-199,563	-82,859	0,073	0,017
-198,548	-61,941	0,112	0,033
-197,533	8,746	0,029	-0,015
-196,519	43,632	0,055	0,036
-195,504	-6,076	-0,095	0,046
-194,490	5,037	-0,159	-0,083
-193,475	800,000	0,094	-0,219
-192,460	-4,533	-0,087	-0,043
-191,446	12,192	-0,076	0,042
-190,431	58,287	0,058	0,040
-189,417	280,335	0,066	-0,084
-188,402	115,798	0,113	-0,098
-187,387	800,000	0,038	0,081
-186,373	-200,000	0,031	-0,108
-185,358	-200,000	-0,018	-0,109
-184,344	-91,010	-0,091	0,018
-183,329	-29,819	-0,113	0,046
-182,315	-26,209	-0,071	0,030
-181,300	-97,597	-0,048	0,009
-180,285	800,000	-0,040	-0,122
-179,271	-1,153	-0,013	-0,006
-178,256	338,814	-0,047	0,066
-177,242	-200,000	-0,040	0,131
-176,227	30,595	0,095	0,058
-175,212	-23,548	-0,096	-0,041
-174,198	-200,000	0,002	0,167
-173,183	270,151	-0,041	0,052
-172,169	148,751	-0,172	-0,165
-171,154	-200,000	-0,030	0,099
-170,139	179,027	0,078	0,081
-169,125	16,639	0,091	0,051
-168,110	-124,480	0,064	0,007
-167,096	-180,031	-0,011	0,000
-166,081	-144,066	0,068	0,004
-165,066	2,024	-0,135	-0,069
-164,052	332,513	-0,099	-0,136
-163,037	-200,000	0,018	-0,158
-162,023	-42,167	0,034	0,012
-161,008	-42,294	0,189	0,068
-159,993	116,063	0,070	0,061
-158,979	48,002	-0,212	0,140
-157,964	94,963	0,063	-0,051
-156,950	-200,000	-0,038	-0,166
-155,935	35,991	0,050	-0,031
-154,920	-114,906	0,008	-0,001
-153,906	-60,903	0,056	-0,017
-152,891	800,000	0,030	-0,072
-151,877	28,147	-0,099	-0,059
-150,862	400,906	-0,044	-0,065
-149,847	421,868	0,041	0,062
-148,833	-200,000	-0,005	-0,077
-147,818	-200,000	0,012	0,053
-146,804	345,120	0,022	0,031
-145,789	-73,976	-0,047	-0,012
-144,775	-136,624	-0,093	-0,008
-143,760	-146,628	0,063	0,004
-142,745	99,216	-0,041	-0,034
-141,731	350,418	0,024	0,034
-140,716	105,336	-0,095	0,079
-139,702	-200,000	-0,012	0,160
-138,687	73,751	-0,100	0,075
-137,672	306,661	-0,020	-0,027
-136,658	-200,000	-0,008	0,068
-135,643	-80,310	0,113	-0,027
-134,629	800,000	0,049	0,110
-133,614	-146,988	0,068	-0,004
-132,599	-200,000	-0,022	0,101
-131,585	50,977	0,037	0,025
-130,570	146,806	-0,085	-0,081
-129,556	-200,000	0,020	-0,124
-128,541	-200,000	-0,034	-0,171
-127,526	-89,809	0,045	-0,009
-126,512	-145,506	-0,113	0,007
-125,497	166,503	-0,061	0,062
-124,483	-58,780	0,190	0,058
-123,468	-117,743	-0,076	-0,010
-122,453	91,835	-0,092	-0,073
-121,439	-76,809	-0,092	-0,023
-120,424	-97,052	0,103	-0,019
-119,410	-93,053	0,043	0,008
-118,395	-200,000	-0,027	0,088
-117,380	-200,000	-0,026	0,119
-116,366	-18,740	0,071	0,031
-115,351	-105,784	-0,087	0,014
-114,337	-35,876	-0,030	0,012
-113,322	800,000	0,041	-0,118
-112,307	225,120	-0,055	0,063
-111,293	311,104	-0,056	-0,074
-110,278	53,805	0,020	-0,014
-109,264	-149,531	-0,053	0,003
-108,249	800,000	-0,048	0,106
-107,234	-123,958	-0,158	0,017
-106,220	-200,000	0,009	-0,127
-105,205	-15,842	-0,142	-0,064
-104,191	108,477	0,044	0,037
-103,176	563,368	-0,079	0,136
-102,162	-200,000	-0,016	0,104
-101,147	-200,000	-0,025	0,153
-100,132	-55,798	0,078	-0,025
-99,118	40,221	-0,056	0,036
-98,103	159,631	0,035	-0,034
-97,089	800,000	-0,018	-0,057
-96,074	800,000	0,018	0,055
-95,059	800,000	-0,034	0,084
-94,045	246,352	0,032	0,038
-93,030	-68,039	-0,080	-0,022
-92,016	800,000	-0,050	-0,103
-91,001	87,236	0,101	0,079
-89,986	-200,000	0,022	0,125
-88,972	596,893	0,059	0,103
-87,957	68,563	-0,041	-0,030
-86,943	168,584	0,046	0,046
-85,928	-200,000	-0,009	-0,063
-84,913	219,177	-0,058	-0,066
-83,899	59,354	-0,019	0,013
-82,884	-14,794	-0,025	-0,012
-81,870	-37,246	0,115	-0,043
-80,855	10,965	0,058	0,031
-79,840	-200,000	-0,011	0,120
-78,826	-55,212	-0,169	0,054
-77,811	-200,000	-0,012	0,043
-76,797	-15,880	0,055	-0,025
-75,782	800,000	0,035	-0,108
-74,767	35,708	0,105	0,065
-73,753	-200,000	0,038	0,123
-72,738	-77,687	-0,055	-0,013
-71,724	-200,000	-0,015	-0,075
-70,709	-200,000	0,013	-0,139
-69,694	-66,167	-0,119	0,033
-68,680	-199,131	-0,069	0,000
-67,665	-53,845	-0,056	0,018
-66,651	518,583	0,069	0,114
-65,636	75,666	-0,124	-0,092
-64,622	800,000	0,040	0,101
-63,607	146,599	-0,095	-0,090
-62,592	-128,984	0,061	0,006
-61,578	-63,194	0,208	0,060
-60,563	800,000	-0,061	0,127
-59,549	154,347	-0,036	-0,035
-58,534	-35,162	-1,562	-0,599
-57,519	420,087	-1,385	-2,107
-56,505	-200,000	-0,523	-4,496
-55,490	209,374	1,088	1,209
-54,476	800,000	4,705	10,921
-53,461	-200,000	18,526	299,142
-52,446	800,000	732,726	2267,921
-51,432	562,868	1648,840	2836,593
-50,417	78,742	1667,847	1261,800
-49,403	22,150	1540,826	888,180
-48,388	16,055	1463,645	814,133
-47,373	17,764	1453,332	816,601
-46,359	16,905	1443,976	807,198
-45,344	14,304	1439,345	792,148
-44,330	14,287	1437,255	790,881
-43,315	14,251	1435,584	789,762
-42,300	14,277	1433,968	788,966
-41,286	14,269	1432,865	788,287
-40,271	14,333	1431,179	787,633
-39,257	14,252	1430,150	786,651
-38,242	14,274	1428,827	785,995
-37,227	14,312	1427,891	785,630
-36,213	14,353	1426,346	784,945
-35,198	14,329	1425,163	784,150
-34,184	14,324	1424,201	783,565
-33,169	14,287	1422,743	782,558
-32,154	14,373	1421,532	782,265
-31,140	14,334	1420,507	781,487
-30,125	14,338	1419,444	780,888
-29,111	14,311	1418,226	780,059
-28,096	14,304	1417,241	779,454
-27,082	14,264	1416,244	778,686
-26,067	14,259	1414,935	777,915
-25,052	14,215	1414,092	777,215
-24,038	14,241	1412,992	776,698
-23,023	14,210	1412,370	776,181
-22,009	14,208	1411,113	775,451
-20,994	14,171	1410,276	774,787
-19,979	14,209	1409,244	774,365
-18,965	14,145	1408,289	773,513
-17,950	14,168	1407,368	773,080
-16,936	14,162	1406,404	772,494
-15,921	14,152	1405,236	771,774
-14,906	14,135	1404,464	771,240
-13,892	14,145	1403,367	770,657
-12,877	14,153	1402,565	770,219
-11,863	14,139	1401,789	769,697
-10,848	14,133	1400,928	769,170
-9,833	14,106	1400,044	768,527
-8,819	14,089	1399,027	767,857
-7,804	14,050	1398,225	767,205
-6,790	14,059	1397,016	766,557
-5,775	14,057	1396,101	766,012
-4,760	14,074	1395,055	765,489
-3,746	14,042	1394,513	765,011
-2,731	14,047	1393,498	764,445
-1,717	14,048	1392,673	763,969
-0,702	14,053	1390,791	762,931
0,313	18,039	1309,396	736,688
1,327	34,569	705,787	435,353
2,342	53,198	124,192	84,031
3,356	7,592	16,499	8,706
4,371	13,183	3,206	1,752
5,386	-15,085	0,631	0,285
6,400	800,000	0,058	0,136
7,415	66,467	-0,203	-0,146
8,429	-115,138	-0,266	-0,035
9,444	139,621	-0,320	-0,298
10,459	-89,817	-0,324	-0,066
11,473	-96,257	-0,439	-0,082
12,488	-29,536	-0,300	-0,120
13,502	43,734	-0,327	-0,211
14,517	62,716	-0,390	-0,275
15,531	282,416	-0,236	-0,300
16,546	229,515	-0,312	-0,361
17,561	77,334	-0,354	-0,266
18,575	-46,655	-0,139	-0,048
19,590	294,098	-0,122	-0,158
20,604	198,873	-0,162	-0,176
21,619	18,410	-0,387	-0,218
22,634	53,657	-0,556	-0,376
23,648	11,925	-0,335	-0,181
24,663	115,278	-0,435	-0,375
25,677	50,341	-0,332	-0,221
26,692	56,198	-0,277	-0,189
27,707	-17,653	-0,394	-0,174
28,721	-15,922	-0,356	-0,159
29,736	190,802	-0,257	-0,273
30,750	165,484	-0,463	-0,462
31,765	77,512	-0,392	-0,294
32,780	196,260	-0,327	-0,351
33,794	63,854	-0,177	-0,126
34,809	57,873	-0,312	-0,215
35,823	13,865	-0,345	-0,189
36,838	70,484	-0,333	-0,243
37,853	113,754	-0,342	-0,293
38,867	79,809	-0,465	-0,352
39,882	320,527	-0,254	-0,341
40,896	48,276	-0,335	-0,220
41,911	304,510	-0,209	-0,274
42,926	-43,131	-0,345	-0,122
43,940	-42,135	-0,517	-0,185
44,955	98,166	-0,344	-0,279
45,969	82,178	-0,433	-0,330
46,984	45,780	-0,299	-0,195
47,999	154,052	-0,272	-0,263
49,013	37,942	-0,349	-0,218
50,028	-32,065	-0,403	-0,158
51,042	-31,316	-0,461	-0,182
52,057	-44,923	-0,429	-0,150
53,071	94,618	-0,320	-0,256
54,086	237,049	-0,289	-0,337
55,101	78,597	-0,331	-0,249
56,115	65,010	-0,274	-0,195
57,130	55,759	-0,438	-0,298
58,144	71,464	-0,313	-0,228
59,159	44,756	-0,308	-0,199
60,174	64,996	-0,402	-0,285
61,188	99,304	-0,456	-0,371
62,203	-8,939	-0,229	-0,108
63,217	-63,052	-0,388	-0,112
64,232	37,310	-0,261	-0,162
65,247	-31,224	-0,279	-0,110
66,261	7,281	-0,362	-0,190
67,276	39,998	-0,349	-0,220
68,290	113,054	-0,406	-0,347
69,305	-35,627	-0,408	-0,155
70,320	87,030	-0,298	-0,232
71,334	-45,070	-0,296	-0,103
72,349	-53,045	-0,373	-0,120
73,363	140,730	-0,401	-0,372
74,378	196,258	-0,347	-0,372
75,393	66,758	-0,452	-0,323
76,407	-67,509	-0,400	-0,110
77,422	243,654	-0,208	-0,245
78,436	90,632	-0,306	-0,241
79,451	32,184	-0,278	-0,168
80,466	8,957	-0,378	-0,200
81,480	21,615	-0,350	-0,200
82,495	-14,814	-0,319	-0,143
83,509	216,907	-0,193	-0,216
84,524	-5,588	-0,329	-0,158
85,539	623,320	-0,140	-0,249
86,553	174,738	-0,200	-0,204
87,568	43,363	-0,298	-0,191
88,582	45,461	-0,297	-0,192
89,597	61,796	-0,325	-0,227
90,611	-31,489	-0,293	-0,115
91,626	-104,368	-0,317	-0,051
92,641	116,447	-0,257	-0,221
93,655	35,044	-0,289	-0,177
94,670	-82,497	-0,265	-0,060
95,684	99,500	-0,247	-0,201
96,699	6,343	-0,375	-0,195
97,714	-0,710	-0,359	-0,178
98,728	147,077	-0,292	-0,276
99,743	112,647	-0,263	-0,224
100,757	260,867	-0,224	-0,273
101,772	-19,145	-0,254	-0,110
102,787	361,223	-0,191	-0,270
103,801	230,827	-0,336	-0,386
104,816	33,909	-0,287	-0,175
105,830	-7,081	-0,215	-0,102
106,845	-120,039	-0,305	-0,036
107,860	147,696	-0,200	-0,189
108,874	-145,274	-0,307	-0,019
109,889	198,305	-0,237	-0,255
110,903	44,875	-0,255	-0,164
111,918	410,637	-0,167	-0,249
112,933	71,612	-0,166	-0,121
113,947	130,655	-0,218	-0,196
114,962	64,378	-0,281	-0,198
115,976	169,718	-0,275	-0,275
116,991	67,984	-0,387	-0,277
118,006	121,063	-0,204	-0,178
119,020	-6,716	-0,236	-0,112
120,035	95,686	-0,212	-0,169
121,049	33,393	-0,313	-0,190
122,064	107,482	-0,152	-0,127
123,079	-102,130	-0,264	-0,044
124,093	78,579	-0,288	-0,216
125,108	62,966	-0,318	-0,222
126,122	101,470	-0,273	-0,223
127,137	19,740	-0,251	-0,141
128,151	81,292	-0,251	-0,189
129,166	396,831	-0,175	-0,256
130,181	272,693	-0,307	-0,379
131,195	209,260	-0,260	-0,285
132,210	21,820	-0,390	-0,222
133,224	63,535	-0,298	-0,209
134,239	10,101	-0,202	-0,107
135,254	563,806	-0,171	-0,290
136,268	323,079	-0,184	-0,246
137,283	106,681	-0,178	-0,148
138,297	-58,819	-0,256	-0,077
139,312	-88,732	-0,352	-0,072
140,327	97,135	-0,261	-0,209
141,341	49,664	-0,245	-0,161
142,356	64,750	-0,204	-0,144
143,370	32,210	-0,209	-0,126
144,385	26,682	-0,238	-0,139
145,400	70,811	-0,325	-0,235
146,414	60,724	-0,281	-0,194
147,429	14,295	-0,301	-0,164
148,443	49,261	-0,312	-0,205
149,458	111,692	-0,187	-0,157
150,473	85,312	-0,169	-0,129
151,487	51,428	-0,252	-0,167
152,502	207,534	-0,207	-0,226
153,516	246,968	-0,257	-0,304
154,531	106,353	-0,254	-0,210
155,546	321,713	-0,159	-0,212
156,560	203,782	-0,195	-0,211
157,575	4,285	-0,243	-0,124
158,589	26,482	-0,251	-0,146
159,604	-81,860	-0,313	-0,071
160,619	15,984	-0,339	-0,186
161,633	1,095	-0,199	-0,100
162,648	201,247	-0,297	-0,320
163,662	526,546	-0,180	-0,297
164,677	17,188	-0,311	-0,171
165,692	647,089	-0,069	-0,123
166,706	73,048	-0,305	-0,222
167,721	45,508	-0,325	-0,209
168,735	37,173	-0,307	-0,189
169,750	71,270	-0,222	-0,160
170,764	95,584	-0,186	-0,148
171,779	6,489	-0,205	-0,106
172,794	5,077	-0,279	-0,143
173,808	45,048	-0,263	-0,168
174,823	71,765	-0,346	-0,250
175,837	185,087	-0,138	-0,143
176,852	395,861	-0,203	-0,296
177,867	160,439	-0,092	-0,090
178,881	12,212	-0,209	-0,112
179,896	-166,416	-0,179	0,005
180,910	-153,129	-0,352	-0,017
181,925	44,253	-0,234	-0,149
182,940	206,153	-0,188	-0,204
183,954	269,487	-0,098	-0,120
184,969	7,540	-0,216	-0,112
185,983	330,226	-0,081	-0,109
186,998	610,471	-0,148	-0,259
188,013	-3,855	-0,124	-0,060
189,027	66,086	-0,316	-0,223
190,042	264,305	-0,137	-0,167
191,056	-1,569	-0,293	-0,143
192,071	196,106	-0,191	-0,203
193,086	39,757	-0,347	-0,216
194,100	-1,707	-0,259	-0,127
195,115	-107,666	-0,329	-0,050
196,129	16,273	-0,276	-0,151
197,144	123,914	-0,181	-0,158
198,159	59,096	-0,299	-0,204
199,173	242,582	-0,206	-0,241
200,188	71,911	-0,236	-0,170
201,202	417,667	-0,091	-0,135
202,217	96,922	-0,118	-0,094
203,232	266,421	-0,115	-0,140
204,246	-49,014	-0,157	-0,052
205,261	57,040	-0,273	-0,185
206,275	-96,150	-0,213	-0,039
207,290	197,071	-0,178	-0,189
208,304	-200,000	-0,048	-0,217
209,319	46,926	-0,251	-0,162
210,334	58,460	-0,212	-0,144
211,348	35,588	-0,118	-0,072
212,363	8,538	-0,251	-0,131
213,377	-21,757	-0,198	-0,084
214,392	58,101	-0,310	-0,210
215,407	376,736	-0,134	-0,191
216,421	171,290	-0,138	-0,138
217,436	5,050	-0,224	-0,114
218,450	-11,524	-0,187	-0,085
219,465	-200,000	-0,056	-0,198
220,480	622,281	-0,102	-0,179
221,494	800,000	-0,091	-0,191
222,509	213,604	-0,120	-0,132
223,523	218,607	-0,104	-0,115
224,538	800,000	-0,109	-0,248
225,553	59,345	-0,201	-0,137
226,567	11,262	-0,195	-0,103
227,582	-200,000	-0,285	0,000
228,596	-47,193	-0,218	-0,073
229,611	55,407	-0,173	-0,116
230,626	-48,023	-0,274	-0,091
231,640	-23,337	-0,292	-0,121
232,655	-2,507	-0,185	-0,089
233,669	111,935	-0,193	-0,161
234,684	-48,892	-0,296	-0,098
235,699	-25,248	-0,260	-0,106
236,713	132,086	-0,092	-0,082
237,728	-58,829	-0,120	-0,036
238,742	-188,816	-0,230	0,002
239,757	147,993	-0,149	-0,139
240,772	238,605	-0,223	-0,257
241,786	-18,359	-0,184	-0,079
242,801	69,013	-0,169	-0,120
243,815	-162,028	-0,194	-0,007
244,830	-152,635	-0,195	0,009
245,844	-27,561	-0,211	-0,085
246,859	-8,657	-0,198	-0,092
247,874	800,000	-0,078	-0,212
248,888	196,696	-0,108	-0,114
249,903	276,158	-0,065	-0,080
250,917	-18,069	-0,159	-0,069
251,932	1,484	-0,253	-0,125
252,947	-79,025	-0,106	-0,025
253,961	248,159	-0,134	-0,157
254,976	272,895	-0,211	-0,258
255,990	246,923	-0,202	-0,236
257,005	38,228	-0,228	-0,140
258,020	-200,000	0,023	-0,261
259,034	705,143	-0,131	-0,240
260,049	-80,432	-0,262	-0,060
261,063	800,000	-0,078	-0,155
262,078	120,801	-0,275	-0,237
263,093	-45,863	-0,226	-0,077
264,107	106,922	-0,194	-0,159
265,122	800,000	-0,057	-0,146
266,136	148,860	-0,099	-0,093
267,151	217,409	-0,129	-0,142
268,166	-72,570	-0,219	-0,056
269,180	-28,563	-0,180	-0,071
270,195	121,685	-0,136	-0,117
271,209	25,866	-0,256	-0,147
272,224	137,016	-0,251	-0,226
273,239	492,798	-0,039	-0,062
274,253	492,749	-0,178	-0,282
275,268	736,021	-0,064	-0,120
276,282	603,431	-0,137	-0,236
277,297	800,000	-0,156	-0,347
278,312	179,321	-0,197	-0,199
279,326	80,595	-0,077	0,057
280,341	240,973	-0,105	-0,122
281,355	-12,077	-0,218	-0,098
282,370	20,858	-0,251	-0,140
283,384	76,303	-0,193	-0,141
284,399	800,000	-0,068	-0,148
285,414	634,174	-0,094	-0,165
286,428	-134,013	-0,102	-0,009
287,443	20,333	-0,209	-0,116
288,457	-7,583	-0,145	-0,067
289,472	703,067	-0,055	-0,101
290,487	91,852	-0,137	-0,106
291,501	157,920	-0,141	-0,135
292,516	800,000	-0,098	-0,193
293,530	-8,530	-0,178	-0,082
294,545	-68,733	-0,218	0,058
295,560	-17,524	-0,181	0,078
296,574	-62,390	-0,132	-0,038
297,589	268,351	-0,118	-0,142
298,603	7,056	-0,192	-0,098
299,618	356,060	-0,068	-0,094
300,633	-178,314	-0,244	-0,004
301,647	-114,392	-0,088	-0,012
302,662	-159,673	-0,146	-0,005
303,676	22,303	-0,241	-0,135
304,691	81,851	-0,140	-0,104
305,706	318,382	-0,120	-0,157
306,720	590,905	-0,137	-0,234
307,735	316,298	-0,094	-0,123
308,749	-166,644	-0,118	-0,003
309,764	-144,031	-0,218	0,014
310,779	437,755	-0,015	0,022
311,793	31,151	-0,106	-0,062
312,808	24,117	-0,193	-0,109
313,822	180,207	-0,186	-0,188
314,837	523,338	-0,130	-0,212
315,852	-200,000	-0,035	-0,165
316,866	13,680	-0,128	-0,068
317,881	41,972	-0,087	-0,054
318,895	297,954	-0,137	-0,174
319,910	51,258	-0,131	-0,085
320,925	-6,532	-0,163	-0,076
321,939	-78,695	-0,149	-0,035
322,954	-127,962	-0,241	0,023
323,968	-110,244	-0,095	-0,013
324,983	-8,118	-0,255	-0,118
325,997	-121,819	-0,114	-0,013
327,012	49,321	-0,203	-0,131
328,027	-14,184	-0,126	-0,055
329,041	15,198	-0,133	-0,071
330,056	800,000	-0,072	-0,157
331,070	-192,069	-0,140	0,001
332,085	-113,800	-0,112	0,015
333,100	-123,256	-0,155	-0,017
334,114	30,952	-0,165	-0,097
335,129	94,660	-0,097	-0,076
336,143	632,765	-0,045	-0,078
337,158	394,687	-0,067	-0,096
338,173	352,455	-0,051	-0,070
339,187	73,860	-0,160	0,115
340,202	213,061	-0,131	-0,142
341,216	-138,481	-0,055	-0,004
342,231	47,557	-0,109	-0,070
343,246	-99,520	-0,238	-0,041
344,260	336,851	-0,078	-0,104
345,275	132,517	-0,149	-0,132
346,289	380,416	-0,055	-0,077
347,304	-200,000	0,006	-0,024
348,319	-172,949	-0,158	-0,003
349,333	-42,887	-0,174	-0,060
350,348	-37,482	-0,112	-0,041
351,362	-60,099	-0,237	-0,069
352,377	9,523	-0,126	-0,065
353,392	-118,397	-0,098	-0,012
354,406	38,730	-0,111	-0,068
355,421	209,938	1313,527	1415,254
356,435	161,597	1474,125	1415,765
