DTS Sentinel unit serial number:	SN410029Multiplexer serial number:	ORYXHardware model number:	OX2-SRSoftware version number:	ORYX F/W v4,00 Oryx Data Collector v3.7.2.0data status	okinstallation	B3 Nyhavnadifferential loss correction	single-endedforward channel	channel 1reverse channel	N/Adate	2023/11/30time	01:02:30forward acquisition time	300,00reverse acquisition time	0,00gamma	499,1914k internal	0,3210k external	0,3210temperature offset calibration	1,0000default loss term (dB/km)	0,3820temperature slope calibration	1,0000multiplexer offset coefficient	1,0000multiplexer slope coefficient	1,0000fibre end	0,00T internal ref (°C)	10,75T ext. ref 1 (°C)	-4,73T ext. ref 2 (°C)	-4,85length (m)	temperature (°C)	Stokes	anti-Stokes-744,400	-200,000	-0,059	-0,214
-743,385	-200,000	0,009	0,202
-742,371	206,722	-0,174	-0,197
-741,356	-200,000	-0,057	0,313
-740,342	231,261	-0,170	-0,202
-739,327	-200,000	-0,004	0,375
-738,312	238,830	-0,198	-0,239
-737,298	-200,000	0,000	0,135
-736,283	-200,000	-0,039	-0,140
-735,269	-200,000	0,095	0,349
-734,254	-200,000	-0,057	-0,407
-733,239	3,421	-0,171	0,090
-732,225	107,921	-0,147	-0,127
-731,210	-43,962	0,076	0,027
-730,196	800,000	-0,062	-0,150
-729,181	63,728	-0,047	-0,034
-728,167	800,000	-0,026	-0,058
-727,152	535,608	-0,081	-0,139
-726,137	196,892	-0,035	-0,039
-725,123	254,817	-0,036	0,045
-724,108	-147,300	-0,081	0,005
-723,094	7,349	-0,139	-0,075
-722,079	-99,324	-0,087	-0,016
-721,064	-84,084	-0,072	-0,017
-720,050	-200,000	-0,005	-0,104
-719,035	-42,205	-0,081	0,030
-718,021	90,452	0,035	-0,029
-717,006	511,230	-0,016	-0,027
-715,991	181,996	-0,063	-0,067
-714,977	164,898	-0,109	-0,112
-713,962	-30,805	-0,117	-0,048
-712,948	-200,000	-0,016	-0,072
-711,933	-200,000	-0,034	0,134
-710,918	227,632	-0,086	-0,102
-709,904	-143,655	-0,185	0,013
-708,889	-54,337	0,047	-0,015
-707,875	-200,000	0,000	0,024
-706,860	-33,689	0,040	0,016
-705,845	10,685	0,055	0,030
-704,831	449,975	-0,020	0,032
-703,816	800,000	-0,038	0,082
-702,802	49,244	0,093	0,063
-701,787	462,107	-0,066	-0,107
-700,772	569,969	0,032	-0,056
-699,758	-200,000	-0,008	0,061
-698,743	241,690	-0,073	0,089
-697,729	50,962	0,061	-0,042
-696,714	-200,000	-0,014	-0,047
-695,699	72,561	-0,100	-0,076
-694,685	130,298	0,064	-0,059
-693,670	800,000	-0,021	-0,049
-692,656	-71,160	0,088	0,024
-691,641	256,591	-0,078	-0,097
-690,627	7,755	0,098	-0,053
-689,612	258,601	0,051	-0,064
-688,597	-71,467	-0,138	-0,037
-687,583	256,582	-0,097	-0,121
-686,568	800,000	-0,061	-0,141
-685,554	233,921	-0,088	-0,106
-684,539	-200,000	-0,009	0,068
-683,524	-200,000	0,002	0,047
-682,510	-200,000	0,001	0,091
-681,495	92,998	-0,066	-0,054
-680,481	165,612	0,069	0,071
-679,466	-161,126	-0,167	0,006
-678,451	-118,434	-0,072	-0,009
-677,437	-159,945	0,073	0,003
-676,422	800,000	0,043	-0,109
-675,408	-46,174	0,075	-0,027
-674,393	800,000	-0,071	0,147
-673,378	-200,000	0,001	-0,043
-672,364	800,000	0,023	-0,068
-671,349	29,728	-0,057	0,035
-670,335	603,561	0,030	0,054
-669,320	-200,000	-0,012	0,067
-668,305	72,294	0,101	0,076
-667,291	-173,779	-0,009	-0,000
-666,276	800,000	0,023	0,071
-665,262	-82,918	-0,096	-0,022
-664,247	-71,884	-0,075	0,020
-663,232	114,030	-0,096	-0,084
-662,218	-200,000	-0,025	0,079
-661,203	38,731	-0,111	0,071
-660,189	656,943	-0,049	-0,091
-659,174	-35,835	0,152	-0,059
-658,159	-101,215	-0,088	-0,015
-657,145	-200,000	-0,010	0,034
-656,130	81,739	0,027	0,021
-655,116	-200,000	-0,002	0,077
-654,101	184,121	-0,016	0,017
-653,086	-136,861	-0,140	0,011
-652,072	800,000	-0,054	-0,109
-651,057	36,422	-0,093	-0,059
-650,043	800,000	-0,072	-0,170
-649,028	30,854	0,033	-0,021
-648,014	-12,529	0,050	0,023
-646,999	742,764	-0,065	0,126
-645,984	-200,000	0,021	0,076
-644,970	-150,006	0,121	-0,007
-643,955	-200,000	-0,064	-0,212
-642,941	800,000	-0,045	-0,111
-641,926	96,312	-0,037	-0,031
-640,911	2,269	0,075	0,039
-639,897	-53,838	0,102	0,033
-638,882	670,570	0,046	0,087
-637,868	-146,718	-0,054	0,003
-636,853	83,568	-0,063	-0,050
-635,838	92,318	-0,117	-0,095
-634,824	-200,000	-0,005	0,108
-633,809	800,000	0,014	-0,038
-632,795	447,687	0,073	0,116
-631,780	-200,000	0,000	0,054
-630,765	800,000	-0,036	-0,074
-629,751	-200,000	0,003	0,089
-628,736	77,627	0,062	-0,047
-627,722	-62,510	0,126	0,038
-626,707	211,444	-0,071	0,081
-625,692	-89,506	0,038	-0,008
-624,678	800,000	0,024	0,049
-623,663	-134,128	-0,124	0,011
-622,649	-171,637	-0,147	-0,003
-621,634	144,508	-0,043	-0,042
-620,619	-76,064	-0,084	0,021
-619,605	107,848	0,066	0,057
-618,590	62,199	-0,079	-0,057
-617,576	32,691	0,043	0,027
-616,561	-200,000	0,045	0,201
-615,546	-179,504	-0,070	-0,001
-614,532	-13,765	0,071	-0,033
-613,517	-200,000	-0,013	0,066
-612,503	-200,000	-0,015	0,061
-611,488	44,918	-0,056	0,037
-610,474	457,930	-0,029	0,046
-609,459	-21,189	0,086	-0,038
-608,444	-111,612	-0,139	0,020
-607,430	38,403	-0,126	0,081
-606,415	-53,649	0,048	-0,016
-605,401	-148,090	-0,088	0,005
-604,386	-57,998	-0,019	-0,006
-603,371	-122,876	0,041	-0,005
-602,357	-92,368	-0,048	-0,010
-601,342	147,866	-0,045	-0,044
-600,328	89,298	0,015	-0,012
-599,313	-200,000	-0,032	-0,142
-598,298	800,000	0,036	-0,076
-597,284	-94,723	0,035	0,007
-596,269	-200,000	-0,021	0,076
-595,255	606,911	0,034	0,061
-594,240	271,423	0,084	-0,107
-593,225	800,000	-0,040	-0,100
-592,211	800,000	0,040	-0,102
-591,196	704,051	-0,028	-0,054
-590,182	-170,333	0,108	-0,003
-589,167	-33,114	0,159	0,063
-588,152	28,779	0,111	-0,067
-587,138	-54,247	-0,074	-0,024
-586,123	123,484	0,021	0,019
-585,109	120,076	0,070	-0,063
-584,094	424,430	-0,037	0,057
-583,079	102,046	0,097	0,082
-582,065	-22,174	0,142	0,062
-581,050	-84,946	0,063	0,014
-580,036	345,767	-0,072	-0,102
-579,021	-200,000	0,001	-0,117
-578,006	800,000	0,016	-0,037
-576,992	-99,634	-0,184	0,033
-575,977	283,269	0,130	-0,169
-574,963	481,735	-0,028	0,046
-573,948	223,644	0,010	0,012
-572,934	-165,618	0,092	-0,003
-571,919	800,000	0,016	-0,047
-570,904	324,765	-0,092	0,127
-569,890	-0,699	-0,044	0,022
-568,875	-107,469	0,184	-0,029
-567,861	-48,812	0,034	0,012
-566,846	241,692	0,035	0,042
-565,831	-200,000	0,015	0,075
-564,817	-77,348	-0,057	-0,014
-563,802	274,626	0,088	-0,113
-562,788	249,482	-0,041	-0,050
-561,773	84,173	-0,035	0,028
-560,758	-200,000	0,006	0,090
-559,744	-200,000	-0,004	0,086
-558,729	487,231	-0,114	0,188
-557,715	-200,000	0,004	-0,025
-556,700	-48,345	0,034	-0,012
-555,685	-200,000	-0,008	-0,067
-554,671	414,564	0,012	0,019
-553,656	300,372	-0,016	-0,021
-552,642	-200,000	-0,006	-0,057
-551,627	-200,000	0,041	-0,137
-550,612	84,687	0,045	0,036
-549,598	800,000	0,034	-0,076
-548,583	668,143	-0,071	0,133
-547,569	-72,077	0,072	0,019
-546,554	-1,076	-0,064	-0,033
-545,539	-54,045	0,086	-0,028
-544,525	-107,873	-0,038	-0,006
-543,510	-55,063	0,111	-0,036
-542,496	800,000	-0,053	0,148
-541,481	46,180	-0,111	-0,074
-540,466	91,787	-0,104	0,084
-539,452	-71,311	0,068	-0,018
-538,437	245,167	0,065	-0,078
-537,423	-200,000	0,030	0,100
-536,408	1,411	-0,138	0,071
-535,393	407,599	-0,091	0,139
-534,379	-200,000	0,002	-0,035
-533,364	-65,317	-0,227	-0,065
-532,350	-173,212	0,055	-0,001
-531,335	68,799	-0,064	-0,047
-530,321	200,098	0,051	0,057
-529,306	117,143	-0,114	0,101
-528,291	-121,935	0,092	-0,011
-527,277	13,731	0,093	0,052
-526,262	639,317	0,055	-0,101
-525,248	139,512	0,066	-0,062
-524,233	-3,527	-0,153	-0,076
-523,218	511,692	-0,015	-0,026
-522,204	800,000	-0,045	0,133
-521,189	-109,736	-0,072	0,011
-520,175	53,445	0,072	-0,050
-519,160	528,965	-0,051	0,087
-518,145	63,038	-0,029	0,021
-517,131	-114,776	0,051	-0,007
-516,116	164,517	0,077	0,078
-515,102	152,617	-0,151	-0,148
-514,087	800,000	-0,055	0,123
-513,072	-22,657	-0,040	-0,017
-512,058	800,000	0,062	-0,128
-511,043	-75,408	0,129	0,033
-510,029	-93,674	0,061	0,012
-509,014	-98,879	-0,127	0,023
-507,999	800,000	0,015	-0,033
-506,985	800,000	-0,048	-0,152
-505,970	196,362	-0,047	-0,052
-504,956	800,000	-0,020	0,041
-503,941	437,196	-0,066	0,103
-502,926	-128,091	0,247	0,025
-501,912	-77,603	0,070	-0,017
-500,897	-4,751	0,057	0,028
-499,883	-200,000	-0,003	0,059
-498,868	-19,082	-0,120	-0,054
-497,853	434,372	-0,033	-0,051
-496,839	-21,469	0,041	-0,018
-495,824	-200,000	-0,016	0,116
-494,810	405,606	-0,020	-0,030
-493,795	-120,052	-0,033	0,004
-492,781	-38,253	-0,063	-0,024
-491,766	161,215	-0,016	-0,016
-490,751	668,376	-0,068	0,126
-489,737	26,104	0,099	-0,059
-488,722	-200,000	-0,003	0,017
-487,708	800,000	0,036	0,106
-486,693	17,214	-0,121	0,069
-485,678	155,653	0,049	0,049
-484,664	-200,000	-0,032	-0,163
-483,649	-1,535	-0,057	-0,029
-482,635	-165,487	-0,198	0,006
-481,620	800,000	0,046	0,141
-480,605	-200,000	0,028	0,140
-479,591	800,000	0,047	-0,099
-478,576	-88,963	-0,014	0,003
-477,562	-124,098	0,148	-0,017
-476,547	-21,950	-0,046	0,020
-475,532	-200,000	0,012	-0,113
-474,518	48,309	-0,059	0,040
-473,503	138,528	0,074	0,070
-472,489	80,608	0,161	-0,124
-471,474	-142,443	-0,118	0,008
-470,459	800,000	0,041	0,092
-469,445	232,301	-0,131	-0,155
-468,430	61,003	-0,099	-0,070
-467,416	294,585	-0,047	0,062
-466,401	-200,000	-0,008	-0,076
-465,386	775,153	-0,052	0,101
-464,372	-200,000	-0,016	-0,120
-463,357	800,000	0,036	-0,102
-462,343	79,876	-0,172	-0,132
-461,328	118,186	-0,011	-0,010
-460,313	62,712	-0,045	-0,032
-459,299	765,869	0,025	0,048
-458,284	98,222	-0,033	0,028
-457,270	-104,761	0,025	0,004
-456,255	-88,779	-0,073	0,015
-455,241	-200,000	0,009	-0,113
-454,226	776,822	-0,059	-0,116
-453,211	508,815	-0,011	0,019
-452,197	-14,710	0,066	0,030
-451,182	-60,711	-0,044	-0,013
-450,168	272,617	0,086	0,109
-449,153	800,000	-0,030	0,090
-448,138	-200,000	0,008	-0,036
-447,124	-200,000	0,005	0,063
-446,109	353,265	-0,081	0,115
-445,095	685,955	0,005	0,009
-444,080	111,395	0,148	0,128
-443,065	428,040	0,056	0,087
-442,051	800,000	0,028	-0,063
-441,036	-200,000	0,010	0,092
-440,022	800,000	0,044	-0,116
-439,007	628,738	-0,097	-0,177
-437,992	104,607	-0,071	0,060
-436,978	129,582	0,058	0,053
-435,963	800,000	-0,031	0,069
-434,949	77,714	0,042	-0,032
-433,934	800,000	0,044	-0,114
-432,919	257,409	-0,064	0,079
-431,905	-88,648	-0,030	-0,006
-430,890	-200,000	0,001	-0,044
-429,876	-107,264	-0,025	0,004
-428,861	-7,224	-0,119	-0,058
-427,846	430,451	-0,081	0,127
-426,832	-112,202	-0,087	-0,012
-425,817	-67,356	-0,050	0,014
-424,803	-38,867	0,047	0,018
-423,788	-178,286	0,107	0,002
-422,773	461,884	0,109	0,174
-421,759	-57,724	-0,031	0,010
-420,744	28,881	0,123	-0,074
-419,730	800,000	-0,029	0,063
-418,715	-164,789	-0,130	-0,004
-417,701	800,000	-0,065	-0,156
-416,686	391,266	0,026	0,039
-415,671	800,000	-0,007	0,015
-414,657	54,104	-0,013	0,009
-413,642	-200,000	-0,016	-0,058
-412,628	-200,000	-0,011	0,169
-411,613	200,797	-0,034	-0,038
-410,598	800,000	0,018	-0,040
-409,584	-22,241	-0,018	-0,008
-408,569	-87,386	0,165	0,035
-407,555	-200,000	0,011	-0,087
-406,540	-101,542	-0,043	-0,007
-405,525	-200,000	0,005	0,084
-404,511	412,964	0,010	-0,015
-403,496	-193,768	0,051	-0,000
-402,482	461,738	0,092	0,147
-401,467	-200,000	0,003	0,071
-400,452	-78,239	-0,069	-0,017
-399,438	-125,651	0,062	-0,007
-398,423	486,652	-0,024	0,039
-397,409	181,447	-0,074	-0,078
-396,394	-197,690	-0,128	0,001
-395,379	-22,043	0,130	0,056
-394,365	21,078	-0,039	0,022
-393,350	-200,000	-0,004	-0,127
-392,336	-200,000	0,004	0,190
-391,321	13,900	-0,081	0,045
-390,306	-195,778	-0,108	-0,001
-389,292	-74,443	-0,048	0,012
-388,277	14,544	0,077	-0,043
-387,263	196,294	0,062	-0,068
-386,248	84,564	0,111	0,087
-385,233	137,903	0,017	-0,016
-384,219	12,179	-0,124	-0,068
-383,204	-141,113	0,027	0,002
-382,190	240,383	-0,125	-0,150
-381,175	-44,267	-0,156	-0,055
-380,160	-148,295	0,067	0,004
-379,146	-90,556	-0,025	0,005
-378,131	22,401	0,061	0,036
-377,117	-200,000	0,001	0,071
-376,102	-164,133	0,117	0,004
-375,088	-200,000	0,012	-0,092
-374,073	103,021	0,030	0,025
-373,058	-23,684	0,248	0,106
-372,044	664,711	0,089	0,164
-371,029	102,839	0,081	0,068
-370,015	-200,000	-0,013	0,070
-369,000	-161,530	-0,034	0,001
-367,985	63,462	0,045	0,032
-366,971	81,497	0,049	0,038
-365,956	-121,918	-0,050	-0,006
-364,942	173,261	0,112	0,115
-363,927	-13,734	-0,058	-0,027
-362,912	-10,340	-0,025	0,012
-361,898	-115,174	0,087	-0,012
-360,883	800,000	-0,059	-0,130
-359,869	800,000	0,009	0,025
-358,854	-200,000	0,048	-0,184
-357,839	771,203	0,043	-0,083
-356,825	-116,982	0,068	-0,009
-355,810	84,564	0,027	-0,021
-354,796	27,552	0,102	-0,061
-353,781	800,000	-0,016	-0,044
-352,766	-200,000	0,020	-0,108
-351,752	-12,336	-0,014	-0,007
-350,737	245,310	0,057	0,069
-349,723	21,239	0,079	0,045
-348,708	185,146	-0,021	0,023
-347,693	-91,663	-0,131	0,026
-346,679	-200,000	0,043	-0,137
-345,664	231,547	0,045	-0,053
-344,650	800,000	-0,020	-0,049
-343,635	13,313	0,088	-0,048
-342,620	-9,020	-0,052	0,025
-341,606	-83,256	0,047	-0,011
-340,591	153,407	-0,009	0,009
-339,577	80,209	-0,135	-0,103
-338,562	800,000	0,011	0,028
-337,548	800,000	0,033	0,068
-336,533	-200,000	0,005	0,057
-335,518	-200,000	-0,012	0,041
-334,504	-137,834	-0,098	0,008
-333,489	-168,698	-0,041	0,001
-332,475	73,976	0,131	-0,098
-331,460	800,000	-0,016	-0,033
-330,445	-200,000	-0,012	-0,063
-329,431	527,880	-0,066	-0,111
-328,416	-52,846	0,118	0,038
-327,402	133,238	0,071	-0,065
-326,387	242,499	0,084	0,100
-325,372	800,000	-0,030	-0,078
-324,358	336,814	0,034	-0,048
-323,343	-200,000	0,013	-0,091
-322,329	-200,000	-0,005	-0,019
-321,314	-101,823	0,026	-0,004
-320,299	70,044	-0,098	-0,072
-319,285	-200,000	0,012	0,049
-318,270	800,000	-0,031	0,062
-317,256	-98,494	-0,119	-0,021
-316,241	4,127	-0,086	0,045
-315,226	165,420	0,064	-0,064
-314,212	233,203	0,092	0,108
-313,197	411,848	0,028	0,042
-312,183	141,705	-0,091	-0,086
-311,168	800,000	-0,005	0,011
-310,153	-200,000	0,001	-0,039
-309,139	300,494	-0,030	-0,039
-308,124	-200,000	-0,002	0,143
-307,110	18,463	-0,065	-0,037
-306,095	64,954	-0,058	-0,042
-305,080	124,374	-0,021	-0,019
-304,066	-200,000	-0,017	-0,129
-303,051	-200,000	-0,001	-0,013
-302,037	-200,000	-0,048	-0,154
-301,022	150,488	-0,077	-0,074
-300,008	-79,361	-0,146	0,035
-298,993	-200,000	0,012	0,090
-297,978	-200,000	0,001	0,131
-296,964	-50,205	-0,051	0,017
-295,949	567,159	-0,056	-0,097
-294,935	778,592	0,047	0,092
-293,920	-200,000	-0,002	-0,024
-292,905	800,000	-0,009	0,026
-291,891	-10,017	0,049	0,023
-290,876	526,587	-0,042	0,071
-289,862	46,819	-0,067	0,044
-288,847	222,550	0,044	-0,051
-287,832	571,376	-0,065	0,113
-286,818	-107,779	0,080	0,012
-285,803	-47,545	-0,021	-0,007
-284,789	194,724	-0,005	-0,005
-283,774	-70,223	-0,129	-0,035
-282,759	469,584	-0,039	-0,063
-281,745	238,108	0,064	-0,075
-280,730	-200,000	-0,009	-0,118
-279,716	-200,000	-0,010	-0,046
-278,701	-16,091	-0,115	-0,052
-277,686	178,261	0,089	0,092
-276,672	469,325	-0,024	-0,039
-275,657	-26,024	0,149	0,062
-274,643	331,495	-0,054	-0,075
-273,628	-200,000	0,003	-0,249
-272,613	50,816	0,111	0,075
-271,599	413,797	0,064	0,097
-270,584	-200,000	-0,030	0,135
-269,570	391,192	-0,034	0,050
-268,555	285,100	-0,022	-0,028
-267,540	-113,396	-0,146	0,020
-266,526	-200,000	0,027	-0,112
-265,511	-200,000	0,004	-0,074
-264,497	-32,439	0,138	-0,054
-263,482	-76,278	-0,100	-0,025
-262,467	281,474	-0,039	-0,050
-261,453	-31,864	-0,044	-0,018
-260,438	-144,156	0,068	0,004
-259,424	-146,113	0,032	0,002
-258,409	800,000	-0,032	-0,077
-257,395	-144,132	0,032	0,002
-256,380	-136,903	0,042	-0,003
-255,365	-200,000	0,042	0,139
-254,351	149,094	-0,057	-0,054
-253,336	90,776	-0,120	0,096
-252,322	-2,330	-0,065	-0,032
-251,307	628,201	0,028	0,050
-250,292	-62,918	0,107	0,031
-249,278	800,000	0,064	-0,151
-248,263	-200,000	-0,025	-0,079
-247,249	-17,109	-0,178	0,080
-246,234	471,229	0,036	-0,058
-245,219	-144,905	-0,071	0,005
-244,205	-126,343	-0,101	-0,011
-243,190	800,000	-0,018	-0,056
-242,176	-111,543	0,104	-0,015
-241,161	-200,000	-0,010	0,134
-240,146	272,193	0,089	-0,112
-239,132	-165,694	0,042	-0,001
-238,117	-59,874	-0,034	-0,010
-237,103	-200,000	0,046	-0,159
-236,088	-132,678	0,192	-0,017
-235,073	390,794	-0,024	0,035
-234,059	-98,171	0,278	-0,050
-233,044	-40,596	-0,161	-0,059
-232,030	-33,054	0,093	-0,037
-231,015	-180,918	-0,056	0,001
-230,000	-93,201	-0,126	0,025
-228,986	-143,311	-0,133	-0,009
-227,971	224,185	0,109	-0,126
-226,957	-200,000	0,008	0,163
-225,942	-200,000	0,027	0,148
-224,927	-119,050	0,141	0,017
-223,913	-200,000	-0,004	-0,055
-222,898	111,377	-0,060	-0,052
-221,884	180,803	0,104	-0,109
-220,869	175,717	0,096	0,099
-219,855	52,174	0,066	0,044
-218,840	-200,000	-0,005	0,042
-217,825	-200,000	-0,007	0,032
-216,811	-200,000	0,004	-0,040
-215,796	-0,916	-0,029	-0,014
-214,782	-0,532	0,114	0,057
-213,767	420,987	0,059	-0,091
-212,752	510,839	0,016	-0,026
-211,738	-17,326	0,094	0,042
-210,723	107,184	0,047	-0,040
-209,709	80,703	-0,040	-0,030
-208,694	356,859	-0,085	0,121
-207,679	-49,117	0,099	-0,033
-206,665	-85,520	0,175	0,038
-205,650	590,072	0,060	0,105
-204,636	800,000	-0,029	0,073
-203,621	800,000	-0,048	0,130
-202,606	-200,000	-0,018	0,122
-201,592	800,000	0,039	-0,097
-200,577	-200,000	0,003	-0,074
-199,563	-47,941	0,132	0,045
-198,548	-200,000	-0,021	0,075
-197,533	-149,879	0,020	-0,001
-196,519	174,528	0,161	0,165
-195,504	-38,532	-0,086	0,032
-194,490	260,278	-0,086	-0,105
-193,475	-156,400	-0,226	-0,010
-192,460	-200,000	0,029	-0,100
-191,446	-200,000	-0,008	-0,169
-190,431	-170,416	0,170	0,004
-189,417	272,401	-0,079	-0,099
-188,402	143,856	-0,062	0,059
-187,387	583,106	0,031	0,054
-186,373	-200,000	-0,011	-0,040
-185,358	800,000	-0,051	0,152
-184,344	800,000	0,064	0,155
-183,329	-137,377	-0,169	0,013
-182,315	-38,648	0,156	0,058
-181,300	25,035	-0,046	-0,027
-180,285	800,000	-0,011	0,022
-179,271	-114,143	-0,063	-0,009
-178,256	-31,311	0,122	-0,049
-177,242	682,174	0,049	0,091
-176,227	-200,000	-0,003	-0,057
-175,212	470,095	-0,055	-0,088
-174,198	-15,603	-0,116	0,052
-173,183	-6,561	-0,143	0,069
-172,169	728,497	-0,042	-0,081
-171,154	777,301	-0,068	-0,133
-170,139	39,190	0,127	-0,080
-169,125	-30,152	0,107	0,043
-168,110	-200,000	0,025	0,162
-167,096	-21,615	-0,210	0,090
-166,081	-42,822	0,190	0,068
-165,066	800,000	0,023	-0,048
-164,052	-200,000	-0,012	-0,148
-163,037	-200,000	-0,005	-0,123
-162,023	-200,000	-0,018	0,080
-161,008	483,052	0,028	-0,046
-159,993	-200,000	0,006	0,086
-158,979	-25,163	0,103	0,043
-157,964	-200,000	-0,009	-0,075
-156,950	-60,644	-0,125	0,037
-155,935	-10,011	-0,072	0,034
-154,920	-200,000	0,007	0,022
-153,906	-200,000	0,030	0,112
-152,891	-200,000	0,020	-0,083
-151,877	-1,873	0,023	-0,011
-150,862	41,257	-0,032	0,021
-149,847	-136,493	0,137	0,011
-148,833	63,580	-0,065	0,046
-147,818	301,773	0,002	0,002
-146,804	151,404	0,052	0,050
-145,789	-141,302	0,146	0,010
-144,775	-25,782	-0,076	-0,032
-143,760	-200,000	0,004	0,086
-142,745	118,788	-0,153	-0,133
-141,731	-200,000	-0,022	0,222
-140,716	-73,906	-0,095	0,024
-139,702	-82,471	0,100	-0,023
-138,687	-12,476	0,133	0,061
-137,672	661,174	0,046	-0,084
-136,658	158,846	-0,086	0,085
-135,643	218,923	-0,012	0,014
-134,629	102,684	0,109	-0,091
-133,614	-200,000	-0,003	-0,019
-132,599	-200,000	-0,006	0,115
-131,585	-200,000	0,012	0,077
-130,570	-89,120	-0,088	-0,018
-129,556	-200,000	-0,002	-0,125
-128,541	161,551	-0,079	-0,079
-127,526	-200,000	-0,027	0,174
-126,512	49,317	0,064	0,043
-125,497	800,000	0,064	0,140
-124,483	123,730	-0,043	-0,038
-123,468	-46,403	0,063	0,022
-122,453	-33,074	0,089	0,035
-121,439	-22,780	0,104	-0,044
-120,424	-53,576	-0,026	0,008
-119,410	502,685	-0,019	-0,031
-118,395	142,501	-0,051	-0,048
-117,380	102,639	0,027	0,022
-116,366	340,261	-0,038	0,052
-115,351	-161,609	-0,113	0,004
-114,337	-186,042	-0,064	-0,001
-113,322	-106,250	0,101	0,016
-112,307	-64,207	-0,031	0,009
-111,293	800,000	0,043	0,100
-110,278	144,737	0,045	0,043
-109,264	-14,739	0,127	0,057
-108,249	32,595	0,081	-0,049
-107,234	-200,000	0,011	-0,126
-106,220	-130,015	0,103	-0,010
-105,205	0,040	-0,031	0,015
-104,191	-71,696	0,086	0,022
-103,176	162,855	-0,023	-0,023
-102,162	800,000	0,049	0,128
-101,147	-111,124	-0,042	-0,006
-100,132	-200,000	0,032	-0,230
-99,118	65,410	0,134	-0,096
-98,103	-91,748	-0,066	-0,013
-97,089	-200,000	0,032	0,183
-96,074	800,000	0,079	0,165
-95,059	128,649	0,032	0,029
-94,045	64,667	-0,079	0,056
-93,030	189,419	0,058	-0,062
-92,016	-200,000	0,033	-0,154
-91,001	-200,000	-0,008	0,033
-89,986	-79,217	-0,153	0,036
-88,972	50,082	0,093	0,062
-87,957	202,633	-0,018	0,020
-86,943	515,712	-0,091	-0,151
-85,928	800,000	0,017	0,034
-84,913	800,000	0,022	-0,061
-83,899	15,373	-0,006	0,003
-82,884	281,501	0,021	0,026
-81,870	32,314	0,095	0,058
-80,855	-200,000	-0,003	0,171
-79,840	73,664	-0,034	-0,025
-78,826	800,000	0,032	0,083
-77,811	10,293	0,062	-0,033
-76,797	49,646	-0,059	0,039
-75,782	-200,000	0,025	0,196
-74,767	-200,000	-0,021	0,162
-73,753	-200,000	-0,013	-0,101
-72,738	-200,000	0,010	0,081
-71,724	-200,000	0,005	-0,078
-70,709	156,630	-0,133	-0,130
-69,694	215,415	0,126	-0,142
-68,680	435,440	-0,117	-0,180
-67,665	-118,247	0,129	-0,016
-66,651	-63,180	0,147	-0,043
-65,636	708,991	0,048	-0,090
-64,622	800,000	-0,017	0,040
-63,607	98,140	0,015	0,013
-62,592	616,547	-0,042	0,075
-61,578	37,712	0,134	-0,084
-60,563	800,000	0,049	0,139
-59,549	-200,000	-0,034	0,224
-58,534	29,267	-1,895	-1,134
-57,519	395,123	-1,402	-2,071
-56,505	-200,000	-0,351	-4,351
-55,490	417,502	0,951	1,440
-54,476	800,000	5,027	11,161
-53,461	-200,000	21,021	330,600
-52,446	800,000	757,857	2327,859
-51,432	551,031	1662,356	2827,239
-50,417	73,424	1663,712	1228,013
-49,403	18,602	1536,925	865,403
-48,388	12,560	1460,046	792,864
-47,373	19,006	1450,805	818,777
-46,359	15,768	1440,118	797,302
-45,344	10,871	1435,832	771,568
-44,330	10,814	1433,805	770,172
-43,315	10,780	1432,097	769,062
-42,300	10,770	1430,319	768,029
-41,286	10,834	1429,142	767,674
-40,271	10,788	1427,860	766,734
-39,257	10,808	1426,655	766,150
-38,242	10,823	1425,637	765,645
-37,227	10,824	1424,399	764,955
-36,213	10,823	1423,093	764,218
-35,198	10,841	1422,042	763,708
-34,184	10,883	1421,091	763,365
-33,169	10,815	1419,743	762,292
-32,154	10,894	1418,773	762,113
-31,140	10,845	1417,597	761,222
-30,125	10,891	1416,406	760,769
-29,111	10,844	1415,329	759,936
-28,096	10,868	1414,214	759,424
-27,082	10,735	1413,028	758,130
-26,067	10,723	1412,204	757,603
-25,052	10,821	1410,874	757,319
-24,038	10,791	1410,017	756,689
-23,023	10,794	1409,020	756,135
-22,009	10,762	1407,846	755,326
-20,994	10,761	1406,884	754,777
-19,979	10,752	1406,113	754,290
-18,965	10,739	1405,055	753,632
-17,950	10,731	1404,122	753,066
-16,936	10,717	1403,408	752,586
-15,921	10,689	1402,280	751,821
-14,906	10,699	1401,440	751,388
-13,892	10,717	1400,301	750,829
-12,877	10,688	1399,575	750,276
-11,863	10,712	1398,735	749,908
-10,848	10,679	1397,843	749,247
-9,833	10,635	1396,808	748,459
-8,819	10,601	1396,136	747,913
-7,804	10,572	1395,305	747,301
-6,790	10,646	1394,144	746,995
-5,775	10,631	1393,098	746,334
-4,760	10,600	1392,220	745,689
-3,746	10,605	1391,342	745,214
-2,731	10,571	1390,630	744,647
-1,717	10,548	1389,871	744,102
-0,702	10,589	1387,869	743,192
0,313	14,582	1301,108	715,032
1,327	30,780	692,167	417,194
2,342	47,858	120,031	78,946
3,356	1,908	16,535	8,386
4,371	4,270	3,412	1,757
5,386	-22,770	0,999	0,424
6,400	800,000	0,194	0,562
7,415	-38,222	-0,185	-0,069
8,429	17,432	-0,239	-0,133
9,444	134,731	-0,286	-0,262
10,459	-49,179	-0,427	-0,143
11,473	148,237	-0,253	-0,241
12,488	-42,636	-0,250	-0,089
13,502	376,044	-0,144	-0,208
14,517	436,999	-0,162	-0,249
15,531	-28,614	-0,271	-0,109
16,546	165,299	-0,210	-0,209
17,561	162,958	-0,292	-0,289
18,575	-200,000	-0,033	-0,217
19,590	50,909	-0,266	-0,178
20,604	-39,567	-0,329	-0,121
21,619	8,948	-0,467	-0,248
22,634	-6,935	-0,444	-0,212
23,648	168,298	-0,371	-0,372
24,663	202,754	-0,307	-0,334
25,677	-47,474	-0,411	-0,140
26,692	127,767	-0,259	-0,232
27,707	10,850	-0,351	-0,188
28,721	104,665	-0,371	-0,307
29,736	70,510	-0,473	-0,344
30,750	161,456	-0,379	-0,374
31,765	77,481	-0,392	-0,294
32,780	178,922	-0,257	-0,264
33,794	-14,378	-0,364	-0,164
34,809	161,150	-0,263	-0,259
35,823	45,795	-0,371	-0,241
36,838	102,909	-0,379	-0,312
37,853	92,152	-0,428	-0,339
38,867	87,186	-0,391	-0,304
39,882	102,959	-0,248	-0,204
40,896	37,688	-0,461	-0,287
41,911	-18,704	-0,358	-0,156
42,926	158,918	-0,276	-0,269
43,940	95,099	-0,298	-0,239
44,955	324,746	-0,328	-0,442
45,969	60,004	-0,210	-0,145
46,984	-9,961	-0,413	-0,192
47,999	-20,347	-0,229	-0,099
49,013	-0,008	-0,347	-0,173
50,028	14,427	-0,316	-0,173
51,042	-9,775	-0,425	-0,198
52,057	53,381	-0,371	-0,249
53,071	38,786	-0,244	-0,153
54,086	60,245	-0,336	-0,233
55,101	38,675	-0,377	-0,236
56,115	56,575	-0,301	-0,205
57,130	47,977	-0,307	-0,201
58,144	97,114	-0,370	-0,298
59,159	-50,977	-0,388	-0,127
60,174	107,601	-0,379	-0,317
61,188	24,568	-0,368	-0,213
62,203	-28,112	-0,344	-0,139
63,217	-57,620	-0,273	-0,084
64,232	70,060	-0,345	-0,249
65,247	89,074	-0,318	-0,248
66,261	94,484	-0,490	-0,390
67,276	12,693	-0,400	-0,216
68,290	-46,574	-0,459	-0,157
69,305	112,268	-0,203	-0,172
70,320	17,885	-0,215	-0,120
71,334	13,140	-0,347	-0,188
72,349	79,787	-0,365	-0,274
73,363	92,997	-0,328	-0,260
74,378	111,267	-0,248	-0,209
75,393	6,798	-0,468	-0,244
76,407	88,512	-0,346	-0,269
77,422	34,904	-0,238	-0,145
78,436	-54,828	-0,268	-0,084
79,451	123,585	-0,303	-0,267
80,466	327,271	-0,203	-0,273
81,480	138,278	-0,260	-0,239
82,495	122,842	-0,249	-0,219
83,509	22,021	-0,305	-0,174
84,524	165,818	-0,101	-0,100
85,539	53,357	-0,307	-0,206
86,553	-69,718	-0,438	-0,116
87,568	49,376	-0,291	-0,192
88,582	163,879	-0,241	-0,238
89,597	55,013	-0,269	-0,181
90,611	175,963	-0,239	-0,244
91,626	404,480	-0,192	-0,283
92,641	-103,159	-0,257	-0,042
93,655	354,255	-0,234	-0,326
94,670	220,290	-0,263	-0,295
95,684	-25,194	-0,374	-0,154
96,699	211,590	-0,248	-0,274
97,714	49,868	-0,318	-0,210
98,728	164,108	-0,263	-0,259
99,743	22,159	-0,268	-0,153
100,757	72,614	-0,212	-0,154
101,772	232,240	-0,185	-0,213
102,787	186,605	-0,258	-0,269
103,801	273,012	-0,189	-0,234
104,816	150,362	-0,135	-0,128
105,830	-69,023	-0,232	-0,062
106,845	231,527	-0,213	-0,244
107,860	18,679	-0,368	-0,205
108,874	47,812	-0,175	-0,114
109,889	122,021	-0,341	-0,297
110,903	-61,031	-0,328	-0,096
111,918	176,074	-0,252	-0,255
112,933	-79,867	-0,221	-0,052
113,947	91,316	-0,135	-0,105
114,962	-183,744	-0,242	-0,003
115,976	-32,911	-0,242	-0,093
116,991	-84,852	-0,289	-0,063
118,006	-36,067	-0,225	-0,084
119,020	21,673	-0,339	-0,192
120,035	-4,276	-0,281	-0,135
121,049	97,568	-0,184	-0,148
122,064	-91,900	-0,157	-0,031
123,079	-20,508	-0,284	-0,121
124,093	131,089	-0,293	-0,263
125,108	108,857	-0,279	-0,232
126,122	142,263	-0,161	-0,149
127,137	-49,595	-0,277	-0,091
128,151	69,327	-0,262	-0,188
129,166	26,818	-0,163	-0,095
130,181	135,050	-0,285	-0,259
131,195	-16,821	-0,239	-0,105
132,210	313,478	-0,203	-0,267
133,224	78,769	-0,318	-0,237
134,239	232,180	-0,227	-0,260
135,254	-18,805	-0,257	-0,111
136,268	152,642	-0,185	-0,176
137,283	-69,771	-0,232	-0,061
138,297	55,851	-0,281	-0,190
139,312	86,773	-0,270	-0,208
140,327	598,307	-0,112	-0,195
141,341	3,247	-0,205	-0,104
142,356	225,002	-0,162	-0,183
143,370	219,476	-0,196	-0,218
144,385	53,218	-0,308	-0,205
145,400	59,909	-0,294	-0,202
146,414	16,491	-0,241	-0,132
147,429	-116,599	-0,261	-0,033
148,443	16,867	-0,275	-0,151
149,458	800,000	-0,083	-0,161
150,473	90,235	-0,197	-0,154
151,487	87,261	-0,190	-0,146
152,502	523,624	-0,132	-0,217
153,516	139,964	-0,178	-0,163
154,531	160,194	-0,261	-0,254
155,546	-27,623	-0,203	-0,082
156,560	-16,101	-0,220	-0,097
157,575	166,128	-0,163	-0,161
158,589	-27,443	-0,277	-0,111
159,604	180,672	-0,201	-0,206
160,619	-31,254	-0,321	-0,125
161,633	88,459	-0,162	-0,125
162,648	232,343	-0,143	-0,164
163,662	102,377	-0,209	-0,170
164,677	43,383	-0,196	-0,124
165,692	18,465	-0,229	-0,127
166,706	19,189	-0,310	-0,172
167,721	106,341	-0,193	-0,159
168,735	126,940	-0,240	-0,211
169,750	431,769	-0,196	-0,297
170,764	269,592	-0,133	-0,163
171,779	182,707	-0,164	-0,169
172,794	-138,724	-0,139	0,010
173,808	100,595	-0,142	-0,115
174,823	13,318	-0,275	-0,148
175,837	363,900	-0,169	-0,236
176,852	657,024	-0,170	-0,304
177,867	116,334	-0,248	-0,211
178,881	239,397	-0,201	-0,233
179,896	138,940	-0,142	-0,130
180,910	-155,977	-0,240	0,010
181,925	22,524	-0,270	-0,153
182,940	170,843	-0,314	-0,312
183,954	263,631	-0,116	-0,140
184,969	40,349	-0,269	-0,167
185,983	-76,697	-0,256	-0,062
186,998	68,854	-0,113	-0,080
188,013	-71,615	-0,262	-0,067
189,027	551,931	-0,160	-0,268
190,042	244,676	-0,181	-0,212
191,056	800,000	-0,110	-0,216
192,071	311,220	-0,190	-0,248
193,086	494,228	-0,176	-0,281
194,100	-33,179	-0,155	-0,059
195,115	260,030	-0,145	-0,174
196,129	-114,401	-0,208	-0,027
197,144	224,198	-0,203	-0,227
198,159	180,777	-0,186	-0,190
199,173	666,123	-0,080	-0,143
200,188	46,633	-0,168	-0,108
201,202	159,768	-0,186	-0,179
202,217	-4,270	-0,144	-0,069
203,232	40,346	-0,141	-0,088
204,246	1,546	-0,259	-0,129
205,261	695,181	-0,149	-0,272
206,275	70,302	-0,182	-0,130
207,290	23,903	-0,077	-0,044
208,304	59,193	-0,122	-0,083
209,319	428,620	-0,106	-0,160
210,334	97,570	-0,200	-0,159
211,348	271,676	-0,173	-0,211
212,363	468,095	-0,148	-0,230
213,377	-99,972	-0,122	-0,021
214,392	177,481	-0,176	-0,178
215,407	800,000	-0,088	-0,207
216,421	204,704	-0,275	-0,296
217,436	631,776	-0,073	-0,129
218,450	288,752	-0,124	-0,156
219,465	59,782	-0,288	-0,196
220,480	-143,442	-0,109	0,007
221,494	-200,000	-0,067	-0,238
222,509	43,569	-0,141	-0,089
223,523	315,014	-0,092	-0,120
224,538	148,360	-0,125	-0,117
225,553	197,926	-0,179	-0,190
226,567	800,000	-0,085	-0,180
227,582	151,543	-0,192	-0,181
228,596	-151,199	-0,231	-0,012
229,611	-65,951	-0,213	-0,059
230,626	571,678	-0,086	-0,145
231,640	-51,442	-0,143	-0,046
232,655	238,733	-0,164	-0,189
233,669	-136,281	-0,235	0,019
234,684	160,549	-0,187	-0,180
235,699	206,838	-0,152	-0,163
236,713	-18,106	-0,167	-0,072
237,728	-7,525	-0,175	-0,081
238,742	-200,000	0,000	-0,270
239,757	-200,000	-0,079	-0,253
240,772	6,467	-0,312	-0,160
241,786	38,373	-0,278	-0,171
242,801	-84,535	-0,232	-0,050
243,815	-200,000	-0,013	-0,199
244,830	-156,950	-0,192	0,008
245,844	19,648	-0,161	-0,089
246,859	-39,391	-0,224	-0,081
247,874	-13,092	-0,249	-0,111
248,888	220,109	-0,171	-0,189
249,903	486,326	-0,066	-0,105
250,917	-178,392	-0,220	0,003
251,932	-122,586	-0,279	-0,031
252,947	-1,874	-0,221	-0,107
253,961	694,570	-0,164	-0,299
254,976	274,525	-0,132	-0,161
255,990	284,053	-0,122	-0,152
257,005	-113,587	-0,160	-0,021
258,020	-3,704	-0,206	-0,098
259,034	137,985	-0,143	-0,129
260,049	-158,674	-0,144	-0,006
261,063	-3,757	-0,240	-0,114
262,078	-109,524	-0,191	-0,028
263,093	36,264	-0,291	-0,176
264,107	-37,872	-0,264	-0,096
265,122	21,574	-0,219	-0,123
266,136	62,880	-0,056	-0,038
267,151	-69,943	-0,249	-0,065
268,166	55,772	-0,119	-0,079
269,180	-126,186	-0,253	-0,026
270,195	720,461	-0,096	-0,176
271,209	120,015	-0,237	-0,203
272,224	-92,439	-0,091	0,018
273,239	800,000	-0,081	-0,156
274,253	-4,295	-0,066	0,031
275,268	41,384	-0,212	-0,132
276,282	72,755	-0,195	-0,140
277,297	-45,001	-0,262	-0,089
278,312	95,020	-0,226	-0,177
279,326	-47,926	-0,177	0,059
280,341	800,000	-0,048	-0,144
281,355	800,000	-0,066	-0,168
282,370	81,150	-0,068	-0,050
283,384	-3,179	-0,238	-0,114
284,399	800,000	-0,090	-0,190
285,414	203,420	-0,221	-0,236
286,428	167,393	-0,077	-0,075
287,443	221,977	-0,041	-0,046
288,457	-87,620	-0,208	0,043
289,472	800,000	-0,069	-0,183
290,487	3,269	-0,188	-0,094
291,501	177,610	-0,128	-0,128
292,516	74,531	-0,204	-0,147
293,530	-43,861	-0,045	-0,016
294,545	-197,697	-0,233	-0,001
295,560	-148,532	-0,113	-0,006
296,574	-113,309	-0,153	-0,020
297,589	221,139	-0,177	-0,195
298,603	156,312	-0,126	-0,120
299,618	281,136	-0,066	-0,081
300,633	800,000	-0,062	-0,140
301,647	-69,957	-0,123	-0,032
302,662	13,088	-0,077	-0,041
303,676	338,607	-0,127	-0,170
304,691	-61,278	-0,193	-0,055
305,706	19,255	-0,238	-0,131
306,720	464,800	-0,098	-0,151
307,735	591,305	-0,112	-0,191
308,749	35,932	0,010	0,006
309,764	52,501	-0,098	-0,064
310,779	330,335	-0,085	-0,113
311,793	457,139	-0,147	-0,225
312,808	100,487	-0,122	-0,097
313,822	378,625	-0,087	-0,123
314,837	-23,277	-0,198	-0,081
315,852	-200,000	-0,007	-0,066
316,866	-66,646	-0,142	0,038
317,881	-103,234	-0,184	-0,029
318,895	36,824	-0,081	-0,049
319,910	216,638	-0,204	-0,222
320,925	103,206	-0,178	-0,143
321,939	5,993	-0,129	-0,065
322,954	299,909	-0,097	-0,122
323,968	-200,000	-0,011	-0,086
324,983	-146,247	-0,238	-0,014
325,997	-62,392	-0,159	-0,045
327,012	13,033	-0,140	-0,074
328,027	-139,417	-0,243	-0,018
329,041	-200,000	0,041	-0,184
330,056	104,618	-0,116	-0,093
331,070	-20,970	-0,097	-0,040
332,085	119,580	-0,135	-0,115
333,100	7,452	-0,218	-0,111
334,114	76,910	-0,103	-0,075
335,129	165,493	-0,222	-0,215
336,143	-19,669	-0,092	-0,039
337,158	147,270	-0,112	-0,104
338,173	20,361	-0,142	-0,078
339,187	800,000	-0,099	-0,192
340,202	-200,000	-0,025	-0,136
341,216	116,850	-0,140	-0,118
342,231	241,783	-0,097	-0,111
343,246	187,991	-0,154	-0,157
344,260	294,797	-0,059	-0,074
345,275	620,881	-0,075	-0,130
346,289	800,000	-0,034	0,067
347,304	185,394	-0,168	-0,171
348,319	114,137	-0,191	-0,159
349,333	299,759	-0,168	-0,212
350,348	800,000	-0,052	-0,141
351,362	800,000	-0,027	-0,072
352,377	-52,227	-0,163	0,051
353,392	7,640	-0,150	-0,076
354,406	519,994	-0,073	-0,117
355,421	206,973	1313,543	1402,209
356,435	159,200	1474,096	1402,691
