DTS Sentinel unit serial number:	SN410029Multiplexer serial number:	ORYXHardware model number:	OX2-SRSoftware version number:	ORYX F/W v4,00 Oryx Data Collector v3.7.2.0data status	okinstallation	B3 Nyhavnadifferential loss correction	single-endedforward channel	channel 1reverse channel	N/Adate	2023/12/03time	17:47:30forward acquisition time	300,00reverse acquisition time	0,00gamma	499,1914k internal	0,3198k external	0,3198temperature offset calibration	1,0000default loss term (dB/km)	0,3820temperature slope calibration	1,0000multiplexer offset coefficient	1,0000multiplexer slope coefficient	1,0000fibre end	0,00T internal ref (°C)	14,81T ext. ref 1 (°C)	-0,58T ext. ref 2 (°C)	-0,62length (m)	temperature (°C)	Stokes	anti-Stokes-744,400	79,457	-0,255	-0,199
-743,385	-200,000	-0,002	0,248
-742,371	303,049	-0,135	-0,183
-741,356	-200,000	-0,064	0,354
-740,342	369,455	-0,120	-0,177
-739,327	-200,000	0,085	0,289
-738,312	302,588	-0,202	-0,272
-737,298	-200,000	-0,034	0,165
-736,283	382,990	-0,213	-0,319
-735,269	-200,000	-0,107	0,347
-734,254	54,879	-0,219	-0,154
-733,239	-11,048	-0,286	0,137
-732,225	466,074	-0,096	-0,157
-731,210	-200,000	-0,009	0,104
-730,196	-200,000	0,013	-0,051
-729,181	661,023	0,032	-0,061
-728,167	32,380	0,131	0,082
-727,152	800,000	-0,032	-0,079
-726,137	800,000	0,036	-0,082
-725,123	-25,230	-0,137	-0,059
-724,108	-117,369	-0,066	-0,009
-723,094	800,000	-0,073	-0,171
-722,079	406,035	-0,093	-0,144
-721,064	800,000	0,028	-0,068
-720,050	-10,598	-0,147	-0,070
-719,035	-141,776	-0,054	0,004
-718,021	-67,692	-0,157	0,044
-717,006	800,000	-0,004	0,013
-715,991	800,000	-0,064	-0,131
-714,977	800,000	0,044	-0,126
-713,962	-200,000	0,021	-0,071
-712,948	-165,331	0,028	-0,001
-711,933	-200,000	-0,013	0,087
-710,918	-1,207	0,043	-0,022
-709,904	-70,157	0,041	0,011
-708,889	241,796	-0,063	-0,077
-707,875	-93,305	-0,178	-0,036
-706,860	480,398	-0,118	-0,196
-705,845	800,000	-0,016	-0,048
-704,831	-200,000	0,047	0,155
-703,816	-84,080	0,106	-0,024
-702,802	69,652	-0,030	-0,023
-701,787	-40,406	-0,104	0,039
-700,772	341,261	-0,069	-0,099
-699,758	37,574	0,108	-0,070
-698,743	800,000	-0,022	0,051
-697,729	-67,820	0,063	0,018
-696,714	-200,000	0,025	0,140
-695,699	161,271	-0,138	0,141
-694,685	-200,000	0,004	-0,134
-693,670	218,202	-0,114	-0,133
-692,656	-200,000	0,030	0,113
-691,641	-53,085	-0,026	0,009
-690,627	-200,000	0,014	0,152
-689,612	-119,398	0,067	0,008
-688,597	-153,292	0,047	0,002
-687,583	800,000	-0,049	-0,103
-686,568	170,895	0,026	0,027
-685,554	-10,965	-0,081	-0,039
-684,539	89,063	0,079	0,064
-683,524	181,897	0,036	-0,039
-682,510	38,973	0,082	-0,053
-681,495	31,124	0,048	0,030
-680,481	21,053	-0,040	-0,024
-679,466	-29,912	-0,152	-0,063
-678,451	-200,000	0,022	-0,074
-677,437	86,818	-0,050	-0,040
-676,422	-200,000	0,023	0,144
-675,408	413,501	-0,096	0,149
-674,393	494,204	0,007	-0,012
-673,378	-200,000	-0,006	-0,048
-672,364	-200,000	-0,010	0,107
-671,349	153,867	-0,052	-0,052
-670,335	526,480	-0,091	-0,157
-669,320	252,183	0,057	0,071
-668,305	11,147	-0,068	-0,037
-667,291	800,000	-0,010	-0,028
-666,276	-128,792	-0,291	0,029
-665,262	800,000	0,033	-0,090
-664,247	-94,417	0,113	-0,022
-663,232	-200,000	0,014	0,121
-662,218	-48,178	0,096	-0,033
-661,203	-200,000	-0,007	0,143
-660,189	423,481	-0,039	0,061
-659,174	-51,837	-0,080	-0,027
-658,159	-126,047	-0,079	0,009
-657,145	28,861	-0,092	-0,057
-656,130	-200,000	0,001	-0,081
-655,116	-200,000	0,017	-0,120
-654,101	-200,000	-0,016	0,090
-653,086	131,495	0,026	0,024
-652,072	780,271	-0,015	0,029
-651,057	-200,000	0,019	-0,158
-650,043	800,000	-0,017	0,051
-649,028	4,223	0,114	0,060
-648,014	260,736	0,041	0,051
-646,999	3,071	-0,082	-0,043
-645,984	-88,882	0,066	0,014
-644,970	800,000	-0,040	-0,117
-643,955	-152,672	-0,065	0,003
-642,941	43,252	-0,068	0,045
-641,926	-57,506	-0,044	0,014
-640,911	-165,755	-0,026	0,001
-639,897	189,010	0,061	0,066
-638,882	554,980	0,037	0,064
-637,868	-200,000	-0,011	0,100
-636,853	-22,361	-0,052	0,023
-635,838	800,000	-0,035	-0,078
-634,824	231,942	-0,058	0,069
-633,809	-28,095	0,151	-0,063
-632,795	-133,460	-0,060	0,005
-631,780	-200,000	0,034	0,144
-630,765	-90,101	-0,029	0,006
-629,751	800,000	0,019	0,053
-628,736	9,332	-0,082	-0,045
-627,722	-75,836	-0,146	-0,037
-626,707	-69,484	0,010	0,003
-625,692	153,578	0,039	-0,039
-624,678	-182,570	0,077	0,001
-623,663	800,000	-0,026	-0,053
-622,649	335,570	-0,069	-0,097
-621,634	274,150	-0,088	-0,113
-620,619	-200,000	0,044	-0,181
-619,605	105,818	-0,012	0,010
-618,590	-200,000	0,030	0,105
-617,576	-1,854	0,081	0,041
-616,561	45,993	0,107	-0,072
-615,546	93,070	0,050	0,041
-614,532	189,357	-0,018	0,020
-613,517	-200,000	0,005	-0,087
-612,503	800,000	-0,020	0,041
-611,488	373,572	0,057	0,084
-610,474	-32,816	-0,059	0,024
-609,459	800,000	0,044	0,131
-608,444	248,632	-0,093	0,114
-607,430	800,000	-0,065	-0,179
-606,415	-118,599	-0,093	-0,012
-605,401	-78,039	0,113	0,028
-604,386	411,231	-0,063	0,097
-603,371	-198,093	-0,057	-0,000
-602,357	-200,000	0,009	0,125
-601,342	5,877	-0,123	-0,066
-600,328	-30,211	-0,050	-0,021
-599,313	352,015	-0,015	0,022
-598,298	52,401	-0,050	0,035
-597,284	136,187	-0,113	0,106
-596,269	689,022	-0,028	0,053
-595,255	-155,019	0,016	0,001
-594,240	284,757	0,100	0,131
-593,225	-30,279	-0,043	-0,018
-592,211	45,011	-0,213	-0,142
-591,196	800,000	-0,060	-0,133
-590,182	-141,803	0,186	-0,013
-589,167	133,944	0,104	-0,098
-588,152	-102,694	-0,159	0,027
-587,138	-200,000	-0,027	-0,144
-586,123	41,960	-0,097	0,064
-585,109	-200,000	0,001	-0,088
-584,094	545,002	0,056	-0,097
-583,079	154,838	0,032	-0,032
-582,065	548,756	0,039	0,068
-581,050	-107,954	0,034	0,005
-580,036	190,776	0,072	0,078
-579,021	69,372	-0,125	0,093
-578,006	-126,778	0,042	0,004
-576,992	294,789	-0,028	0,038
-575,977	800,000	0,054	-0,172
-574,963	442,276	-0,035	0,055
-573,948	-200,000	-0,012	-0,039
-572,934	-200,000	0,003	0,152
-571,919	6,862	-0,114	-0,061
-570,904	215,262	-0,024	0,027
-569,890	800,000	-0,047	0,099
-568,875	-200,000	0,011	-0,162
-567,861	91,125	0,019	0,015
-566,846	-154,892	-0,064	0,003
-565,831	-4,042	-0,028	-0,014
-564,817	59,951	0,029	-0,021
-563,802	447,067	-0,079	0,126
-562,788	531,053	0,050	0,086
-561,773	-200,000	-0,010	-0,070
-560,758	-75,472	0,057	0,015
-559,744	800,000	-0,035	0,100
-558,729	-63,396	0,010	-0,003
-557,715	-200,000	-0,013	-0,050
-556,700	-200,000	-0,013	-0,041
-555,685	-11,118	-0,035	0,017
-554,671	-37,616	-0,129	0,050
-553,656	800,000	-0,040	0,100
-552,642	-102,695	0,170	0,029
-551,627	-200,000	-0,017	-0,111
-550,612	-200,000	0,002	0,014
-549,598	-3,173	-0,201	-0,101
-548,583	-200,000	-0,007	0,112
-547,569	-39,132	0,087	0,033
-546,554	-120,125	-0,075	-0,009
-545,539	28,028	-0,065	0,039
-544,525	122,627	-0,019	-0,017
-543,510	-200,000	0,020	-0,088
-542,496	487,212	0,122	-0,201
-541,481	217,158	-0,038	-0,044
-540,466	-133,014	-0,189	-0,017
-539,452	129,958	0,027	0,025
-538,437	108,050	0,067	0,057
-537,423	-78,166	0,010	-0,002
-536,408	-65,854	-0,091	0,026
-535,393	-117,864	-0,120	-0,015
-534,379	-200,000	-0,014	0,105
-533,364	-200,000	0,006	0,041
-532,350	192,516	-0,129	-0,141
-531,335	72,412	0,067	0,050
-530,321	-200,000	-0,013	0,069
-529,306	-200,000	0,004	-0,015
-528,291	472,140	-0,044	0,072
-527,277	-175,357	0,063	0,001
-526,262	181,094	-0,104	-0,111
-525,248	800,000	0,044	0,123
-524,233	-125,624	-0,096	0,010
-523,218	273,103	0,078	0,099
-522,204	-200,000	-0,009	-0,095
-521,189	-143,246	-0,067	0,005
-520,175	-144,421	-0,052	0,003
-519,160	-155,626	0,097	-0,004
-518,145	91,264	0,096	-0,078
-517,131	202,147	0,081	0,090
-516,116	-8,384	0,095	0,046
-515,102	242,645	0,018	-0,021
-514,087	159,553	-0,054	0,055
-513,072	-107,390	-0,068	0,011
-512,058	-35,950	-0,077	-0,030
-511,043	-200,000	0,017	-0,060
-510,029	-200,000	-0,010	0,092
-509,014	4,695	0,071	0,038
-507,999	361,301	-0,034	-0,049
-506,985	283,744	-0,051	0,067
-505,970	60,765	-0,198	0,142
-504,956	-200,000	0,031	0,111
-503,941	107,079	-0,052	-0,045
-502,926	-131,765	0,142	0,013
-501,912	-176,327	0,178	-0,003
-500,897	800,000	0,050	-0,119
-499,883	-148,354	-0,061	-0,004
-498,868	-200,000	-0,005	-0,052
-497,853	-74,971	-0,115	-0,030
-496,839	33,382	-0,142	0,089
-495,824	-103,502	0,068	-0,011
-494,810	-200,000	0,023	0,086
-493,795	-200,000	0,021	-0,085
-492,781	520,048	0,044	-0,075
-491,766	178,994	0,095	-0,100
-490,751	-27,385	0,052	-0,022
-489,737	513,346	-0,069	-0,117
-488,722	800,000	0,037	0,103
-487,708	-88,060	-0,029	-0,006
-486,693	272,761	0,098	0,126
-485,678	-65,617	-0,066	0,019
-484,664	96,621	-0,099	-0,081
-483,649	465,080	-0,063	-0,102
-482,635	-9,946	0,141	0,067
-481,620	-160,033	-0,127	-0,005
-480,605	-200,000	-0,022	0,073
-479,591	800,000	-0,052	0,155
-478,576	319,730	0,004	0,005
-477,562	78,704	0,118	-0,091
-476,547	-52,433	-0,083	-0,028
-475,532	-70,388	-0,134	-0,036
-474,518	-104,580	-0,054	0,009
-473,503	800,000	0,010	-0,027
-472,489	-200,000	-0,007	-0,080
-471,474	-99,126	-0,125	0,023
-470,459	34,013	-0,137	-0,086
-469,445	-200,000	0,002	-0,048
-468,430	97,095	0,113	-0,093
-467,416	207,173	0,026	-0,030
-466,401	326,417	-0,045	-0,062
-465,386	-48,871	0,082	-0,028
-464,372	-21,165	-0,058	0,026
-463,357	-160,271	-0,074	-0,003
-462,343	-32,466	-0,177	-0,071
-461,328	-200,000	0,034	0,137
-460,313	800,000	-0,036	-0,112
-459,299	67,013	0,039	0,028
-458,284	-15,134	0,055	-0,025
-457,270	-84,902	0,135	0,030
-456,255	599,639	0,082	-0,147
-455,241	-200,000	0,008	-0,065
-454,226	398,944	-0,005	0,008
-453,211	800,000	-0,035	-0,083
-452,197	-200,000	0,002	0,050
-451,182	-67,157	0,102	-0,029
-450,168	645,417	0,047	0,087
-449,153	-200,000	-0,001	-0,084
-448,138	7,820	0,056	-0,030
-447,124	-200,000	0,029	-0,183
-446,109	800,000	-0,025	-0,072
-445,095	-20,293	-0,009	-0,004
-444,080	-32,450	-0,027	-0,011
-443,065	-64,990	0,155	0,045
-442,051	800,000	-0,011	0,023
-441,036	-131,798	-0,109	0,010
-440,022	218,520	0,058	-0,066
-439,007	496,665	0,089	-0,148
-437,992	800,000	-0,035	0,099
-436,978	-200,000	0,011	0,096
-435,963	-119,387	0,190	0,023
-434,949	-134,792	-0,092	-0,008
-433,934	-200,000	-0,029	-0,110
-432,919	251,496	-0,052	-0,064
-431,905	-200,000	0,007	0,096
-430,890	-129,869	0,074	0,007
-429,876	-200,000	-0,020	-0,110
-428,861	96,923	0,074	0,061
-427,846	-200,000	-0,041	-0,157
-426,832	363,207	0,041	-0,059
-425,817	-45,941	0,067	-0,024
-424,803	210,866	0,089	0,100
-423,788	-200,000	0,015	-0,110
-422,773	-58,516	-0,167	0,052
-421,759	621,841	0,118	0,215
-420,744	405,447	0,068	-0,103
-419,730	-200,000	0,028	-0,110
-418,715	36,016	0,038	0,024
-417,701	491,676	-0,060	0,100
-416,686	-200,000	0,011	-0,129
-415,671	-45,178	0,127	0,045
-414,657	-107,503	-0,099	0,015
-413,642	800,000	-0,042	-0,116
-412,628	-200,000	0,014	-0,097
-411,613	-200,000	-0,015	-0,049
-410,598	422,143	0,040	0,063
-409,584	781,211	0,075	-0,148
-408,569	-200,000	-0,071	0,283
-407,555	-67,820	-0,045	0,013
-406,540	800,000	0,034	-0,075
-405,525	800,000	0,019	0,054
-404,511	-123,923	-0,100	0,011
-403,496	45,022	-0,058	0,038
-402,482	292,770	-0,057	0,075
-401,467	87,679	0,153	0,122
-400,452	-70,952	0,111	0,030
-399,438	-103,772	-0,109	-0,018
-398,423	-200,000	-0,014	-0,144
-397,409	97,568	-0,035	0,029
-396,394	-200,000	-0,005	-0,025
-395,379	428,677	-0,024	-0,037
-394,365	183,692	0,087	0,093
-393,350	800,000	0,030	0,064
-392,336	-131,810	0,098	0,009
-391,321	415,910	0,047	-0,073
-390,306	-137,893	-0,046	0,004
-389,292	136,876	0,106	-0,099
-388,277	-5,151	0,105	-0,052
-387,263	294,365	-0,092	0,121
-386,248	447,956	0,159	0,252
-385,233	800,000	-0,021	-0,046
-384,219	688,420	0,031	-0,059
-383,204	18,459	0,072	-0,041
-382,190	14,816	-0,038	0,021
-381,175	-133,874	0,077	-0,007
-380,160	-200,000	0,002	0,056
-379,146	-200,000	0,015	-0,059
-378,131	-200,000	-0,011	-0,036
-377,117	31,018	0,045	-0,028
-376,102	-57,082	-0,170	-0,054
-375,088	-31,713	0,066	-0,026
-374,073	-93,116	-0,131	0,026
-373,058	-78,393	0,042	0,010
-372,044	190,489	0,030	0,032
-371,029	800,000	0,023	-0,050
-370,015	-25,397	0,038	0,016
-369,000	83,945	0,009	0,007
-367,985	-200,000	-0,000	-0,019
-366,971	800,000	-0,025	-0,058
-365,956	179,917	0,101	0,107
-364,942	407,010	0,034	0,052
-363,927	30,185	0,106	0,065
-362,912	-27,854	0,015	0,006
-361,898	249,959	-0,088	-0,107
-360,883	122,292	0,066	0,060
-359,869	389,075	0,041	-0,062
-358,854	-200,000	-0,019	0,070
-357,839	800,000	0,042	0,091
-356,825	338,468	-0,061	-0,085
-355,810	-26,916	0,111	-0,046
-354,796	34,341	0,105	-0,065
-353,781	-200,000	0,038	-0,226
-352,766	599,348	-0,039	0,070
-351,752	-74,276	0,084	0,022
-350,737	-43,991	0,060	0,021
-349,723	-200,000	0,044	0,163
-348,708	-116,081	-0,022	-0,003
-347,693	222,550	-0,026	-0,029
-346,679	9,561	0,058	-0,031
-345,664	-66,259	-0,109	-0,031
-344,650	-105,163	0,074	-0,012
-343,635	120,256	-0,087	-0,078
-342,620	-200,000	-0,026	0,157
-341,606	-24,290	0,077	0,033
-340,591	73,206	0,093	0,070
-339,577	800,000	-0,022	0,064
-338,562	5,101	-0,117	-0,062
-337,548	-99,299	0,049	0,009
-336,533	187,872	0,082	0,088
-335,518	-62,872	0,034	0,010
-334,504	192,314	0,035	-0,038
-333,489	87,225	-0,021	-0,017
-332,475	322,791	-0,104	-0,142
-331,460	10,148	0,133	-0,072
-330,445	343,239	0,058	-0,082
-329,431	274,153	0,061	0,077
-328,416	-142,152	0,073	0,005
-327,402	-94,731	0,017	-0,003
-326,387	747,721	-0,091	0,177
-325,372	-80,840	-0,107	0,025
-324,358	267,641	-0,052	-0,066
-323,343	-9,556	-0,049	0,023
-322,329	800,000	-0,035	0,109
-321,314	-200,000	-0,008	-0,081
-320,299	42,221	-0,039	0,025
-319,285	334,789	0,049	0,068
-318,270	139,026	0,018	-0,016
-317,256	800,000	-0,044	-0,103
-316,241	111,195	0,075	-0,065
-315,226	-121,269	0,146	0,017
-314,212	800,000	0,038	0,114
-313,197	253,853	0,070	-0,085
-312,183	19,720	-0,102	-0,058
-311,168	-200,000	-0,031	0,118
-310,153	196,785	0,130	-0,142
-309,139	-200,000	-0,014	-0,157
-308,124	-125,650	0,054	0,006
-307,110	-59,235	0,118	0,036
-306,095	-26,700	-0,050	-0,021
-305,080	-93,720	0,102	-0,020
-304,066	30,486	-0,044	-0,027
-303,051	-200,000	0,009	-0,069
-302,037	800,000	0,016	-0,040
-301,022	25,953	-0,091	0,054
-300,008	-200,000	-0,035	0,111
-298,993	684,900	-0,013	-0,024
-297,978	166,165	-0,089	0,090
-296,964	800,000	-0,063	0,135
-295,949	-159,128	0,056	-0,002
-294,935	800,000	-0,072	-0,166
-293,920	473,729	0,053	0,085
-292,905	137,645	0,025	0,024
-291,891	339,754	-0,027	-0,038
-290,876	-200,000	-0,025	0,082
-289,862	-200,000	0,018	0,105
-288,847	313,919	0,029	0,039
-287,832	-103,586	-0,053	0,009
-286,818	800,000	0,035	0,081
-285,803	-200,000	-0,019	-0,148
-284,789	800,000	0,036	-0,106
-283,774	542,987	-0,082	0,140
-282,759	-200,000	0,010	0,138
-281,745	-138,004	-0,147	0,012
-280,730	-200,000	0,003	-0,013
-279,716	800,000	0,007	-0,018
-278,701	-200,000	0,002	-0,112
-277,686	-47,601	0,043	-0,015
-276,672	-200,000	0,034	0,114
-275,657	184,728	-0,093	0,099
-274,643	164,012	-0,072	-0,072
-273,628	800,000	0,038	-0,098
-272,613	-200,000	0,007	-0,122
-271,599	316,206	0,037	0,050
-270,584	487,842	-0,080	0,131
-269,570	79,887	0,082	0,063
-268,555	800,000	0,029	0,063
-267,540	-200,000	-0,066	-0,207
-266,526	53,408	-0,093	0,063
-265,511	-200,000	-0,012	0,077
-264,497	-140,199	0,063	0,005
-263,482	-64,757	0,083	0,024
-262,467	-200,000	0,051	-0,191
-261,453	147,384	0,031	0,030
-260,438	800,000	-0,067	-0,148
-259,424	-200,000	0,023	-0,079
-258,409	-176,867	-0,145	0,003
-257,395	-115,182	0,090	-0,012
-256,380	259,268	-0,104	0,128
-255,365	260,600	0,059	0,073
-254,351	51,333	0,132	-0,090
-253,336	-103,239	-0,038	0,006
-252,322	675,749	0,042	-0,078
-251,307	67,885	-0,089	-0,065
-250,292	237,988	0,083	-0,099
-249,278	-134,859	0,021	-0,002
-248,263	-126,013	0,019	-0,002
-247,249	30,235	-0,019	-0,012
-246,234	272,721	-0,080	-0,102
-245,219	-200,000	-0,012	-0,102
-244,205	115,657	-0,050	-0,044
-243,190	-200,000	0,002	-0,049
-242,176	45,323	-0,078	0,051
-241,161	153,967	0,036	0,036
-240,146	457,397	-0,034	0,053
-239,132	96,027	0,036	0,030
-238,117	-200,000	0,002	0,067
-237,103	800,000	-0,036	0,082
-236,088	-77,897	-0,078	0,019
-235,073	-200,000	-0,021	-0,089
-234,059	13,858	0,040	0,022
-233,044	800,000	-0,045	0,117
-232,030	-43,354	-0,081	-0,029
-231,015	-200,000	0,028	-0,149
-230,000	49,809	0,045	0,030
-228,986	168,355	-0,060	0,061
-227,971	569,045	0,014	0,025
-226,957	88,757	0,063	0,050
-225,942	36,770	0,075	0,047
-224,927	121,778	-0,051	0,046
-223,913	-9,514	-0,098	-0,046
-222,898	-124,214	-0,047	-0,005
-221,884	-28,409	-0,100	0,041
-220,869	-200,000	-0,011	-0,101
-219,855	27,660	0,161	0,096
-218,840	369,387	0,027	-0,039
-217,825	-200,000	0,014	0,094
-216,811	-200,000	0,003	0,018
-215,796	294,594	0,067	0,088
-214,782	-200,000	0,016	0,079
-213,767	533,554	-0,065	-0,110
-212,752	-60,350	0,114	-0,034
-211,738	559,683	0,107	0,185
-210,723	-8,429	-0,054	0,026
-209,709	-87,624	-0,129	0,028
-208,694	800,000	-0,045	-0,135
-207,679	-76,545	0,034	-0,008
-206,665	0,532	0,063	0,032
-205,650	96,396	0,094	0,077
-204,636	-71,755	0,106	0,028
-203,621	-200,000	0,013	-0,054
-202,606	399,914	0,057	-0,086
-201,592	-200,000	-0,014	-0,103
-200,577	294,972	0,053	-0,069
-199,563	-147,225	0,063	0,004
-198,548	314,326	0,067	0,090
-197,533	339,124	0,063	-0,088
-196,519	-200,000	-0,011	-0,053
-195,504	-46,581	-0,087	0,030
-194,490	800,000	-0,088	-0,215
-193,475	-35,785	0,028	-0,011
-192,460	153,751	0,079	0,078
-191,446	167,966	-0,026	0,027
-190,431	800,000	-0,063	0,127
-189,417	126,454	0,046	0,042
-188,402	-1,737	-0,124	0,062
-187,387	-94,024	-0,060	0,012
-186,373	800,000	0,067	0,134
-185,358	-200,000	-0,005	0,016
-184,344	800,000	-0,051	0,102
-183,329	-36,907	0,150	0,057
-182,315	800,000	-0,046	0,092
-181,300	30,343	-0,019	0,011
-180,285	71,760	0,118	-0,087
-179,271	-200,000	-0,008	0,059
-178,256	-200,000	-0,020	-0,187
-177,242	-76,545	-0,060	0,015
-176,227	-57,051	0,158	0,049
-175,212	105,083	-0,066	0,056
-174,198	-200,000	-0,015	-0,077
-173,183	-115,372	-0,153	0,020
-172,169	-89,460	-0,105	-0,022
-171,154	-111,138	0,116	-0,017
-170,139	-11,804	-0,097	0,045
-169,125	-200,000	0,038	0,180
-168,110	115,401	-0,097	-0,084
-167,096	63,199	0,058	-0,041
-166,081	148,847	-0,131	-0,126
-165,066	-105,695	0,083	-0,013
-164,052	800,000	0,040	0,096
-163,037	448,582	0,047	-0,073
-162,023	-83,578	-0,061	0,014
-161,008	-200,000	-0,000	-0,049
-159,993	-179,306	0,100	0,002
-158,979	-53,159	-0,063	0,020
-157,964	-66,096	0,025	-0,007
-156,950	33,879	0,114	0,070
-155,935	87,224	-0,054	0,043
-154,920	-200,000	-0,002	0,109
-153,906	412,214	0,010	-0,014
-152,891	7,533	0,021	0,011
-151,877	800,000	0,042	0,128
-150,862	800,000	-0,041	-0,123
-149,847	-200,000	-0,002	0,011
-148,833	440,928	-0,041	0,063
-147,818	-29,386	-0,085	-0,034
-146,804	-200,000	-0,004	0,015
-145,789	-67,273	-0,072	-0,020
-144,775	800,000	0,035	-0,095
-143,760	-200,000	0,004	-0,028
-142,745	111,965	-0,067	-0,058
-141,731	-186,969	-0,127	0,001
-140,716	-200,000	-0,008	-0,058
-139,702	20,489	0,099	0,057
-138,687	-200,000	0,023	0,079
-137,672	-200,000	-0,011	0,096
-136,658	-104,501	0,098	0,016
-135,643	-200,000	0,014	-0,055
-134,629	800,000	0,026	0,055
-133,614	74,961	0,063	0,047
-132,599	-1,079	-0,057	-0,029
-131,585	211,137	0,117	0,131
-130,570	72,485	-0,092	-0,068
-129,556	358,474	0,073	0,104
-128,541	-128,003	-0,057	-0,006
-127,526	-71,528	-0,150	-0,040
-126,512	140,013	-0,109	0,102
-125,497	550,014	0,024	-0,041
-124,483	800,000	0,078	-0,180
-123,468	-200,000	-0,038	0,126
-122,453	-200,000	-0,004	-0,072
-121,439	-102,415	-0,084	0,014
-120,424	705,605	-0,056	0,106
-119,410	-7,229	0,007	-0,004
-118,395	-20,649	0,094	-0,041
-117,380	-200,000	0,002	-0,045
-116,366	-69,273	-0,194	0,052
-115,351	425,091	-0,066	0,102
-114,337	-19,863	-0,076	-0,033
-113,322	-38,802	0,123	-0,046
-112,307	-95,500	-0,163	-0,031
-111,293	-181,067	0,068	-0,001
-110,278	800,000	0,062	0,177
-109,264	-200,000	0,033	0,113
-108,249	59,159	-0,150	-0,105
-107,234	-103,839	0,100	-0,016
-106,220	-200,000	-0,007	-0,023
-105,205	121,898	0,089	0,079
-104,191	377,477	0,074	0,108
-103,176	113,502	0,059	0,051
-102,162	548,918	0,038	0,064
-101,147	-112,032	-0,159	-0,023
-100,132	-200,000	-0,014	0,127
-99,118	-111,453	0,098	-0,014
-98,103	88,379	0,120	-0,095
-97,089	800,000	0,021	-0,041
-96,074	149,648	-0,090	0,087
-95,059	682,162	0,082	0,152
-94,045	-74,257	-0,112	-0,029
-93,030	800,000	-0,087	-0,192
-92,016	727,008	-0,067	-0,127
-91,001	-200,000	-0,026	0,090
-89,986	119,045	0,027	-0,024
-88,972	168,638	-0,013	0,013
-87,957	-200,000	-0,025	-0,186
-86,943	-200,000	-0,015	-0,222
-85,928	651,933	-0,079	-0,143
-84,913	339,021	-0,046	0,064
-83,899	-200,000	-0,019	-0,082
-82,884	148,147	0,024	-0,023
-81,870	-200,000	0,020	0,083
-80,855	-200,000	0,006	-0,038
-79,840	417,343	0,056	0,085
-78,826	-200,000	0,018	0,064
-77,811	800,000	-0,048	-0,131
-76,797	800,000	0,024	0,068
-75,782	373,861	0,090	-0,131
-74,767	800,000	0,030	0,059
-73,753	238,632	-0,083	-0,098
-72,738	800,000	0,007	-0,016
-71,724	-200,000	0,004	-0,033
-70,709	170,760	-0,032	-0,032
-69,694	800,000	-0,040	-0,110
-68,680	29,573	0,109	-0,066
-67,665	-75,234	-0,019	0,005
-66,651	-174,214	0,154	-0,003
-65,636	38,004	-0,044	0,028
-64,622	-65,123	-0,114	-0,032
-63,607	379,557	-0,059	0,086
-62,592	-200,000	-0,002	-0,059
-61,578	-94,730	0,067	0,013
-60,563	45,554	0,145	-0,095
-59,549	751,067	-0,054	0,103
-58,534	-57,564	-1,574	-0,486
-57,519	431,260	-1,468	-2,262
-56,505	-200,000	-0,627	-4,359
-55,490	208,786	1,043	1,159
-54,476	800,000	4,739	10,928
-53,461	-200,000	18,242	291,266
-52,446	800,000	728,588	2243,037
-51,432	558,810	1644,818	2823,852
-50,417	79,234	1666,197	1264,131
-49,403	22,696	1539,786	891,117
-48,388	16,666	1463,068	817,476
-47,373	17,852	1452,960	817,516
-46,359	17,196	1443,293	808,901
-45,344	14,962	1438,609	795,567
-44,330	14,894	1436,565	794,079
-43,315	14,874	1434,872	793,018
-42,300	14,880	1433,452	792,232
-41,286	14,924	1432,306	791,774
-40,271	14,903	1430,889	790,862
-39,257	14,838	1429,818	789,929
-38,242	14,871	1428,435	789,291
-37,227	14,930	1427,257	788,885
-36,213	14,930	1425,801	788,052
-35,198	14,944	1424,500	787,368
-34,184	14,936	1423,859	786,944
-33,169	14,889	1422,430	785,898
-32,154	14,926	1421,434	785,494
-31,140	14,937	1419,860	784,646
-30,125	14,972	1418,972	784,287
-29,111	14,952	1417,746	783,483
-28,096	14,938	1416,677	782,795
-27,082	14,846	1415,644	781,762
-26,067	14,841	1414,530	781,091
-25,052	14,842	1413,522	780,511
-24,038	14,817	1412,573	779,839
-23,023	14,771	1411,633	779,070
-22,009	14,811	1410,568	778,642
-20,994	14,773	1409,645	777,920
-19,979	14,792	1408,823	777,524
-18,965	14,764	1407,770	776,782
-17,950	14,750	1406,929	776,222
-16,936	14,778	1405,757	775,677
-15,921	14,712	1404,840	774,833
-14,906	14,712	1403,869	774,266
-13,892	14,776	1402,845	773,966
-12,877	14,756	1402,029	773,395
-11,863	14,729	1401,310	772,839
-10,848	14,763	1400,293	772,408
-9,833	14,717	1399,433	771,687
-8,819	14,634	1398,630	770,827
-7,804	14,654	1397,581	770,315
-6,790	14,640	1396,532	769,639
-5,775	14,609	1395,544	768,920
-4,760	14,633	1394,612	768,489
-3,746	14,619	1393,875	767,986
-2,731	14,672	1392,801	767,609
-1,717	14,642	1391,980	766,990
-0,702	14,641	1390,210	765,978
0,313	18,319	1309,093	738,359
1,327	34,519	706,437	436,011
2,342	53,183	124,420	84,251
3,356	0,515	16,722	8,435
4,371	-5,988	3,220	1,554
5,386	-40,734	0,541	0,197
6,400	-200,000	-0,045	0,150
7,415	-4,622	-0,265	-0,129
8,429	108,172	-0,226	-0,191
9,444	53,927	-0,293	-0,199
10,459	6,600	-0,359	-0,188
11,473	77,325	-0,320	-0,240
12,488	-124,464	-0,199	-0,022
13,502	-3,833	-0,346	-0,169
14,517	-154,391	-0,405	0,019
15,531	65,703	-0,242	-0,173
16,546	95,152	-0,263	-0,211
17,561	171,043	-0,394	-0,400
18,575	-129,914	-0,196	0,019
19,590	-7,629	-0,199	-0,095
20,604	164,589	-0,254	-0,253
21,619	-25,988	-0,474	-0,196
22,634	18,549	-0,533	-0,301
23,648	55,113	-0,544	-0,371
24,663	180,724	-0,365	-0,379
25,677	236,859	-0,166	-0,194
26,692	-23,313	-0,273	-0,115
27,707	116,712	-0,405	-0,351
28,721	79,614	-0,329	-0,250
29,736	57,162	-0,361	-0,248
30,750	15,373	-0,434	-0,240
31,765	198,723	-0,310	-0,336
32,780	62,569	-0,397	-0,280
33,794	63,599	-0,203	-0,144
34,809	70,213	-0,323	-0,235
35,823	-40,730	-0,400	-0,146
36,838	140,035	-0,323	-0,301
37,853	22,501	-0,372	-0,214
38,867	199,732	-0,330	-0,358
39,882	61,323	-0,419	-0,294
40,896	168,161	-0,249	-0,250
41,911	-42,850	-0,388	-0,138
42,926	62,428	-0,305	-0,215
43,940	62,760	-0,367	-0,258
44,955	138,196	-0,337	-0,312
45,969	121,329	-0,354	-0,311
46,984	40,692	-0,381	-0,242
47,999	-33,423	-0,205	-0,079
49,013	-6,965	-0,362	-0,173
50,028	188,582	-0,288	-0,304
51,042	195,776	-0,306	-0,328
52,057	-26,716	-0,488	-0,200
53,071	42,251	-0,354	-0,226
54,086	78,265	-0,314	-0,236
55,101	-72,819	-0,314	-0,081
56,115	-54,037	-0,485	-0,155
57,130	121,978	-0,393	-0,346
58,144	86,930	-0,317	-0,246
59,159	-10,296	-0,335	-0,156
60,174	-11,296	-0,228	-0,105
61,188	119,042	-0,317	-0,276
62,203	-37,286	-0,300	-0,113
63,217	217,052	-0,222	-0,249
64,232	31,937	-0,445	-0,270
65,247	64,843	-0,275	-0,195
66,261	76,201	-0,297	-0,221
67,276	111,238	-0,389	-0,330
68,290	-46,200	-0,402	-0,138
69,305	133,950	-0,355	-0,324
70,320	22,468	-0,198	-0,114
71,334	-60,180	-0,344	-0,102
72,349	70,028	-0,255	-0,185
73,363	24,099	-0,443	-0,257
74,378	66,781	-0,317	-0,227
75,393	800,000	-0,074	-0,166
76,407	-14,257	-0,430	-0,194
77,422	-200,000	-0,092	-0,323
78,436	-23,151	-0,321	-0,135
79,451	-80,482	-0,292	-0,068
80,466	113,247	-0,390	-0,332
81,480	-87,423	-0,363	-0,077
82,495	-20,523	-0,278	-0,119
83,509	61,329	-0,167	-0,117
84,524	133,407	-0,234	-0,213
85,539	99,577	-0,210	-0,171
86,553	-83,928	-0,240	-0,053
87,568	-26,789	-0,270	-0,110
88,582	54,358	-0,403	-0,272
89,597	104,976	-0,358	-0,296
90,611	-116,950	-0,359	-0,046
91,626	159,584	-0,301	-0,295
92,641	-16,476	-0,262	-0,116
93,655	131,817	-0,239	-0,216
94,670	144,802	-0,322	-0,303
95,684	160,903	-0,209	-0,205
96,699	35,367	-0,348	-0,214
97,714	122,872	-0,167	-0,147
98,728	28,208	-0,260	-0,154
99,743	5,076	-0,304	-0,157
100,757	26,238	-0,337	-0,197
101,772	25,291	-0,392	-0,228
102,787	454,584	-0,213	-0,333
103,801	364,450	-0,253	-0,358
104,816	29,575	-0,303	-0,180
105,830	36,449	-0,254	-0,157
106,845	22,427	-0,308	-0,176
107,860	-12,885	-0,264	-0,120
108,874	20,859	-0,312	-0,177
109,889	-28,544	-0,251	-0,101
110,903	15,343	-0,312	-0,171
111,918	75,681	-0,264	-0,196
112,933	-51,103	-0,480	-0,157
113,947	-58,967	-0,245	-0,074
114,962	-30,223	-0,364	-0,144
115,976	63,357	-0,278	-0,195
116,991	37,767	-0,247	-0,154
118,006	68,786	-0,182	-0,131
119,020	68,299	-0,289	-0,208
120,035	-24,004	-0,263	-0,110
121,049	82,540	-0,143	-0,108
122,064	71,514	-0,323	-0,235
123,079	37,992	-0,281	-0,175
124,093	-57,464	-0,336	-0,103
125,108	12,301	-0,294	-0,158
126,122	-108,250	-0,172	-0,026
127,137	220,285	-0,250	-0,281
128,151	-11,189	-0,382	-0,176
129,166	4,997	-0,209	-0,107
130,181	176,084	-0,214	-0,218
131,195	699,859	-0,155	-0,288
132,210	275,008	-0,195	-0,242
133,224	207,088	-0,195	-0,213
134,239	15,439	-0,233	-0,128
135,254	86,184	-0,310	-0,239
136,268	142,282	-0,181	-0,168
137,283	-35,817	-0,227	-0,086
138,297	14,886	-0,233	-0,127
139,312	367,150	-0,198	-0,280
140,327	68,562	-0,213	-0,153
141,341	-75,853	-0,263	-0,065
142,356	800,000	-0,093	-0,194
143,370	222,284	-0,152	-0,171
144,385	141,388	-0,209	-0,194
145,400	57,222	-0,288	-0,196
146,414	-92,045	-0,357	-0,070
147,429	181,880	-0,213	-0,220
148,443	107,221	-0,252	-0,210
149,458	143,526	-0,210	-0,196
150,473	6,354	-0,268	-0,139
151,487	118,215	-0,191	-0,165
152,502	626,183	-0,177	-0,313
153,516	58,946	-0,305	-0,209
154,531	43,821	-0,225	-0,144
155,546	83,538	-0,240	-0,183
156,560	190,809	-0,177	-0,186
157,575	99,388	-0,132	-0,106
158,589	171,741	-0,220	-0,221
159,604	153,940	-0,133	-0,127
160,619	0,951	-0,328	-0,164
161,633	169,852	-0,201	-0,201
162,648	304,979	-0,176	-0,229
163,662	800,000	-0,140	-0,302
164,677	-99,833	-0,331	-0,057
165,692	55,353	-0,246	-0,166
166,706	-46,814	-0,314	-0,107
167,721	70,004	-0,302	-0,217
168,735	246,904	-0,194	-0,229
169,750	-16,289	-0,318	-0,140
170,764	173,512	-0,198	-0,199
171,779	620,072	-0,183	-0,322
172,794	-53,085	-0,224	-0,071
173,808	42,186	-0,228	-0,144
174,823	582,313	-0,167	-0,287
175,837	-200,000	-0,054	-0,171
176,852	4,907	-0,305	-0,156
177,867	394,737	-0,151	-0,220
178,881	32,463	-0,195	-0,117
179,896	102,657	-0,240	-0,196
180,910	316,455	-0,153	-0,202
181,925	47,305	-0,257	-0,166
182,940	117,131	-0,257	-0,220
183,954	31,333	-0,281	-0,168
184,969	181,084	-0,099	-0,101
185,983	-156,088	-0,302	0,013
186,998	-65,454	-0,155	-0,043
188,013	328,919	-0,042	-0,057
189,027	-3,001	-0,280	-0,136
190,042	9,582	-0,174	-0,092
191,056	6,046	-0,247	-0,127
192,071	283,329	-0,192	-0,241
193,086	800,000	-0,083	-0,181
194,100	66,063	-0,150	-0,106
195,115	-33,678	-0,186	-0,071
196,129	28,196	-0,269	-0,158
197,144	255,031	-0,137	-0,164
198,159	57,961	-0,173	-0,118
199,173	101,534	-0,116	-0,094
200,188	-125,265	-0,291	-0,031
201,202	-200,000	-0,205	-0,001
202,217	89,294	-0,259	-0,201
203,232	-85,694	-0,235	-0,050
204,246	161,106	-0,186	-0,181
205,261	237,598	-0,114	-0,132
206,275	177,227	-0,186	-0,188
207,290	-7,526	-0,174	-0,081
208,304	197,307	-0,208	-0,221
209,319	11,391	-0,115	-0,061
210,334	752,863	-0,114	-0,214
211,348	2,332	-0,214	-0,107
212,363	-89,719	-0,281	-0,057
213,377	-38,958	-0,150	-0,055
214,392	-97,976	-0,297	-0,053
215,407	257,659	-0,143	-0,172
216,421	800,000	-0,069	-0,156
217,436	82,444	-0,262	-0,198
218,450	800,000	-0,120	-0,241
219,465	20,763	-0,302	-0,169
220,480	-94,733	-0,172	-0,032
221,494	300,739	-0,161	-0,207
222,509	-181,037	-0,232	-0,003
223,523	81,018	-0,066	-0,049
224,538	61,966	-0,191	-0,132
225,553	-13,215	-0,318	-0,143
226,567	166,850	-0,185	-0,183
227,582	22,090	-0,143	-0,081
228,596	-39,826	-0,230	-0,083
229,611	-74,282	-0,225	-0,056
230,626	-122,695	-0,124	-0,014
231,640	51,313	-0,312	-0,205
232,655	445,476	-0,206	-0,314
233,669	-76,909	-0,234	-0,056
234,684	-12,098	-0,299	-0,135
235,699	-105,027	-0,220	-0,035
236,713	662,135	-0,024	0,043
237,728	220,844	-0,136	-0,151
238,742	-35,347	-0,195	-0,073
239,757	150,477	-0,093	-0,087
240,772	38,075	-0,269	-0,166
241,786	10,940	-0,188	-0,099
242,801	-62,919	-0,235	-0,067
243,815	-135,517	-0,131	-0,011
244,830	-0,806	-0,173	-0,085
245,844	-149,070	-0,235	0,013
246,859	-200,000	-0,001	-0,085
247,874	-7,144	-0,184	-0,086
248,888	-121,181	-0,189	-0,022
249,903	42,099	-0,214	-0,134
250,917	173,259	-0,141	-0,141
251,932	705,071	-0,053	-0,097
252,947	-48,142	-0,205	-0,068
253,961	40,814	-0,153	-0,095
254,976	713,298	-0,098	-0,180
255,990	6,006	-0,205	-0,105
257,005	341,792	-0,172	-0,234
258,020	-54,636	-0,272	0,085
259,034	135,612	-0,116	-0,104
260,049	-17,499	-0,292	-0,127
261,063	191,785	-0,085	-0,089
262,078	204,260	-0,176	-0,189
263,093	217,864	-0,101	-0,112
264,107	82,003	-0,148	-0,111
265,122	363,115	-0,042	-0,059
266,136	117,952	-0,189	-0,161
267,151	165,477	-0,192	-0,188
268,166	-108,334	-0,252	0,037
269,180	196,462	-0,132	-0,139
270,195	226,580	-0,156	-0,176
271,209	419,362	-0,102	-0,151
272,224	-200,000	-0,017	-0,163
273,239	-139,533	-0,057	-0,004
274,253	-146,389	-0,206	-0,012
275,268	161,233	-0,122	-0,118
276,282	-91,829	-0,136	-0,026
277,297	-44,277	-0,181	-0,062
278,312	800,000	-0,046	-0,123
279,326	9,420	-0,126	-0,066
280,341	440,193	-0,123	-0,186
281,355	-105,367	-0,272	-0,042
282,370	-95,986	-0,157	-0,029
283,384	302,809	-0,163	-0,209
284,399	6,223	-0,278	-0,142
285,414	257,421	-0,197	-0,234
286,428	-70,067	-0,196	-0,051
287,443	126,810	-0,215	-0,188
288,457	-39,582	-0,167	-0,060
289,472	210,961	-0,118	-0,128
290,487	-61,929	-0,242	-0,070
291,501	-88,130	-0,153	-0,031
292,516	63,809	-0,202	-0,140
293,530	-100,234	-0,176	-0,030
294,545	-76,510	-0,115	0,028
295,560	-172,528	-0,072	-0,002
296,574	800,000	-0,078	-0,172
297,589	-9,692	-0,164	-0,075
298,603	-61,030	-0,211	-0,061
299,618	-59,368	-0,192	-0,057
300,633	197,981	-0,137	-0,145
301,647	-169,206	-0,152	-0,004
302,662	152,853	-0,047	-0,044
303,676	-200,000	0,002	-0,103
304,691	391,431	-0,164	-0,236
305,706	-30,561	-0,158	-0,061
306,720	161,580	-0,140	-0,135
307,735	59,908	-0,188	0,128
308,749	-200,000	-0,027	-0,087
309,764	-148,143	-0,143	-0,008
310,779	683,171	-0,100	-0,181
311,793	-151,435	-0,155	-0,008
312,808	75,907	-0,054	-0,039
313,822	95,172	-0,199	-0,156
314,837	557,119	-0,088	-0,147
315,852	800,000	-0,130	-0,292
316,866	800,000	-0,076	-0,197
317,881	104,130	-0,106	-0,086
318,895	24,803	-0,199	-0,113
319,910	331,224	-0,092	-0,122
320,925	14,137	-0,150	-0,080
321,939	540,472	-0,102	-0,168
322,954	274,671	-0,133	0,163
323,968	-12,331	-0,006	-0,003
324,983	-200,000	-0,041	-0,126
325,997	656,778	-0,062	-0,110
327,012	168,523	-0,069	-0,068
328,027	72,008	-0,138	-0,098
329,041	-28,547	-0,270	-0,107
330,056	170,688	-0,172	-0,169
331,070	601,335	-0,087	-0,149
332,085	-45,839	-0,121	0,041
333,100	-200,000	-0,013	0,056
334,114	190,451	-0,138	-0,143
335,129	28,568	-0,126	-0,073
336,143	800,000	-0,084	-0,187
337,158	800,000	-0,107	-0,228
338,173	415,393	-0,103	-0,152
339,187	233,229	-0,124	-0,140
340,202	335,116	-0,155	-0,207
341,216	100,148	-0,191	-0,153
342,231	4,623	-0,198	-0,100
343,246	24,034	-0,123	-0,069
344,260	-11,705	-0,169	-0,076
345,275	161,248	-0,057	-0,055
346,289	29,538	-0,113	-0,066
347,304	379,340	-0,136	-0,191
348,319	-31,869	-0,099	-0,038
349,333	185,439	-0,153	-0,156
350,348	61,830	-0,197	-0,135
351,362	244,957	-0,089	-0,103
352,377	215,079	-0,122	-0,133
353,392	800,000	-0,045	-0,130
354,406	508,545	0,036	-0,057
355,421	209,429	1315,174	1416,696
356,435	161,191	1475,939	1417,194
