DTS Sentinel unit serial number:	SN410029Multiplexer serial number:	ORYXHardware model number:	OX2-SRSoftware version number:	ORYX F/W v4,00 Oryx Data Collector v3.7.2.0data status	okinstallation	B3 Nyhavnadifferential loss correction	single-endedforward channel	channel 1reverse channel	N/Adate	2023/12/03time	09:32:30forward acquisition time	300,00reverse acquisition time	0,00gamma	499,1914k internal	0,3201k external	0,3201temperature offset calibration	1,0000default loss term (dB/km)	0,3820temperature slope calibration	1,0000multiplexer offset coefficient	1,0000multiplexer slope coefficient	1,0000fibre end	0,00T internal ref (°C)	13,35T ext. ref 1 (°C)	-1,67T ext. ref 2 (°C)	-1,70length (m)	temperature (°C)	Stokes	anti-Stokes-744,400	-200,000	-0,038	-0,281
-743,385	800,000	-0,088	0,248
-742,371	202,076	-0,160	-0,180
-741,356	-200,000	-0,045	0,364
-740,342	800,000	-0,091	-0,221
-739,327	-200,000	0,003	0,262
-738,312	132,328	-0,261	-0,244
-737,298	186,879	-0,195	0,211
-736,283	60,472	-0,153	-0,110
-735,269	-200,000	0,019	0,188
-734,254	108,747	-0,235	-0,204
-733,239	-62,681	-0,206	-0,062
-732,225	351,758	-0,126	-0,182
-731,210	147,803	0,066	0,065
-730,196	-200,000	-0,043	-0,224
-729,181	234,511	0,030	-0,036
-728,167	800,000	0,097	-0,221
-727,152	-113,731	0,126	0,018
-726,137	-103,056	-0,177	0,030
-725,123	33,882	-0,132	-0,083
-724,108	382,775	-0,083	-0,125
-723,094	-200,000	-0,041	-0,173
-722,079	-27,301	0,049	0,021
-721,064	34,011	0,107	0,068
-720,050	-85,125	0,048	-0,011
-719,035	-7,391	0,105	-0,052
-718,021	194,816	-0,096	-0,106
-717,006	-200,000	-0,014	-0,112
-715,991	663,730	0,046	-0,086
-714,977	-141,969	-0,124	0,009
-713,962	470,566	-0,060	0,098
-712,948	-30,250	-0,163	0,067
-711,933	-53,059	-0,121	0,040
-710,918	-142,654	-0,080	-0,006
-709,904	293,748	-0,057	0,076
-708,889	-2,111	-0,071	-0,036
-707,875	269,769	0,124	-0,159
-706,860	145,151	-0,043	0,042
-705,845	-110,451	-0,095	-0,014
-704,831	-97,103	-0,086	-0,016
-703,816	-125,915	-0,106	-0,011
-702,802	4,408	-0,028	-0,015
-701,787	496,047	0,062	-0,105
-700,772	-34,786	-0,036	0,014
-699,758	-52,420	-0,060	-0,020
-698,743	-200,000	0,002	0,036
-697,729	308,459	0,088	-0,119
-696,714	605,494	0,003	0,006
-695,699	800,000	0,069	-0,211
-694,685	800,000	-0,092	-0,204
-693,670	-200,000	0,015	-0,133
-692,656	636,309	0,034	0,063
-691,641	-137,723	0,070	0,006
-690,627	800,000	0,055	0,130
-689,612	-41,768	0,076	0,028
-688,597	107,459	-0,055	0,048
-687,583	-200,000	0,028	-0,111
-686,568	-46,499	-0,133	0,047
-685,554	800,000	0,058	-0,131
-684,539	-200,000	-0,016	-0,082
-683,524	-81,530	-0,136	-0,032
-682,510	-200,000	-0,003	0,038
-681,495	82,461	0,103	-0,081
-680,481	18,851	-0,040	0,023
-679,466	-75,532	0,056	0,014
-678,451	141,545	-0,031	0,030
-677,437	453,430	-0,042	-0,068
-676,422	268,270	-0,043	0,055
-675,408	800,000	-0,048	0,107
-674,393	-81,242	0,068	0,016
-673,378	-78,016	0,085	0,021
-672,364	-200,000	0,007	0,028
-671,349	74,250	-0,022	-0,017
-670,335	-200,000	-0,025	-0,103
-669,320	-17,906	0,132	0,060
-668,305	-153,809	0,084	0,004
-667,291	-70,305	-0,064	-0,018
-666,276	54,705	-0,153	0,107
-665,262	-200,000	-0,005	-0,038
-664,247	119,808	-0,107	-0,096
-663,232	-145,947	0,091	-0,006
-662,218	9,649	-0,116	0,063
-661,203	-59,073	0,066	0,021
-660,189	508,157	-0,036	-0,060
-659,174	462,206	-0,029	0,046
-658,159	-67,174	-0,137	-0,039
-657,145	-96,431	0,239	0,045
-656,130	-200,000	0,006	0,029
-655,116	-80,945	-0,053	0,013
-654,101	-32,521	-0,104	0,042
-653,086	-200,000	0,011	-0,075
-652,072	-133,798	-0,112	0,010
-651,057	479,485	-0,068	-0,113
-650,043	-200,000	-0,041	-0,145
-649,028	-128,034	-0,082	0,008
-648,014	-6,866	-0,089	0,044
-646,999	-199,997	-0,059	0,000
-645,984	800,000	0,028	-0,067
-644,970	9,745	-0,090	-0,049
-643,955	-129,210	0,015	-0,002
-642,941	289,678	-0,113	-0,149
-641,926	-111,178	-0,109	-0,016
-640,911	-200,000	0,003	0,016
-639,897	800,000	-0,060	0,186
-638,882	-159,367	0,114	-0,005
-637,868	-57,502	0,025	0,008
-636,853	37,523	0,063	-0,040
-635,838	800,000	0,058	-0,129
-634,824	800,000	0,018	0,044
-633,809	385,865	0,055	0,082
-632,795	-107,744	-0,113	-0,018
-631,780	-122,836	-0,059	0,007
-630,765	7,611	0,137	-0,074
-629,751	800,000	0,016	0,035
-628,736	-121,652	-0,100	-0,012
-627,722	13,132	-0,162	-0,091
-626,707	86,257	-0,046	0,037
-625,692	29,921	-0,043	0,027
-624,678	47,844	-0,043	-0,029
-623,663	800,000	-0,034	-0,077
-622,649	-200,000	0,006	0,036
-621,634	-135,126	-0,065	-0,006
-620,619	-200,000	0,046	-0,220
-619,605	-32,216	-0,087	-0,035
-618,590	352,071	-0,039	0,056
-617,576	-18,315	0,118	0,053
-616,561	208,191	-0,010	0,011
-615,546	-58,317	-0,025	-0,008
-614,532	184,501	0,089	-0,095
-613,517	800,000	0,029	-0,058
-612,503	-128,700	-0,102	-0,010
-611,488	-115,841	0,128	0,017
-610,474	-58,801	0,091	0,028
-609,459	-56,205	-0,051	-0,016
-608,444	218,998	0,051	-0,059
-607,430	-155,149	-0,081	0,004
-606,415	-16,770	-0,050	-0,023
-605,401	11,899	0,140	-0,078
-604,386	800,000	0,077	0,181
-603,371	-200,000	0,032	0,119
-602,357	-126,483	-0,130	0,014
-601,342	-200,000	-0,022	0,135
-600,328	800,000	-0,070	-0,165
-599,313	-200,000	-0,008	-0,040
-598,298	206,578	-0,105	-0,118
-597,284	-120,920	-0,036	-0,004
-596,269	-200,000	0,014	-0,153
-595,255	-49,477	0,020	-0,007
-594,240	800,000	0,055	0,119
-593,225	-200,000	-0,006	-0,067
-592,211	-8,381	-0,052	-0,025
-591,196	800,000	0,034	-0,079
-590,182	760,672	-0,023	0,045
-589,167	167,838	-0,040	0,041
-588,152	127,305	-0,049	-0,045
-587,138	3,748	-0,234	-0,123
-586,123	800,000	-0,032	0,069
-585,109	-200,000	-0,011	-0,048
-584,094	2,818	0,090	0,047
-583,079	243,481	-0,045	-0,054
-582,065	800,000	0,018	0,048
-581,050	-200,000	0,007	-0,093
-580,036	552,141	-0,040	0,069
-579,021	-68,197	-0,041	-0,011
-578,006	800,000	-0,014	0,037
-576,992	-108,641	-0,099	-0,015
-575,977	800,000	0,038	-0,081
-574,963	112,615	0,075	-0,065
-573,948	201,907	0,074	-0,083
-572,934	-48,220	0,110	0,038
-571,919	-23,983	-0,152	-0,065
-570,904	800,000	-0,071	-0,186
-569,890	207,978	-0,056	-0,063
-568,875	-70,826	-0,154	-0,042
-567,861	-150,445	0,162	0,009
-566,846	-200,000	0,006	0,078
-565,831	-200,000	-0,004	-0,048
-564,817	37,047	0,097	-0,062
-563,802	-105,011	-0,215	-0,035
-562,788	800,000	0,052	-0,121
-561,773	-200,000	-0,017	-0,071
-560,758	800,000	0,032	0,068
-559,744	-23,266	0,086	0,037
-558,729	-55,959	-0,150	-0,048
-557,715	-48,613	0,216	0,075
-556,700	71,774	0,101	-0,076
-555,685	-49,395	-0,056	-0,019
-554,671	508,364	0,041	-0,069
-553,656	-200,000	0,047	0,156
-552,642	286,370	0,056	-0,073
-551,627	-57,514	-0,093	-0,029
-550,612	45,098	0,009	-0,006
-549,598	-200,000	0,001	0,055
-548,583	800,000	-0,041	0,118
-547,569	-66,583	-0,091	0,026
-546,554	164,790	0,056	0,057
-545,539	-23,979	-0,097	0,042
-544,525	215,141	-0,079	0,090
-543,510	-91,815	-0,064	0,013
-542,496	-200,000	-0,027	-0,165
-541,481	-200,000	0,008	0,117
-540,466	2,201	0,139	0,072
-539,452	-143,728	-0,027	-0,002
-538,437	-104,361	0,071	-0,012
-537,423	800,000	-0,039	0,093
-536,408	800,000	-0,056	-0,126
-535,393	-78,074	0,071	0,018
-534,379	-17,953	-0,133	-0,060
-533,364	35,220	0,042	-0,026
-532,350	-121,935	0,078	-0,009
-531,335	143,761	0,062	0,060
-530,321	-79,141	0,088	-0,021
-529,306	413,411	-0,082	-0,127
-528,291	48,617	-0,152	-0,103
-527,277	800,000	-0,040	-0,127
-526,262	24,596	0,134	0,080
-525,248	347,110	0,037	-0,053
-524,233	463,320	-0,083	-0,134
-523,218	-106,041	0,101	0,016
-522,204	245,378	0,010	0,012
-521,189	496,288	0,024	-0,039
-520,175	70,325	-0,087	0,064
-519,160	78,592	-0,095	-0,073
-518,145	-11,069	0,060	0,028
-517,131	31,197	0,150	-0,092
-516,116	12,016	0,092	0,051
-515,102	-30,459	-0,132	-0,054
-514,087	-0,175	-0,111	-0,057
-513,072	765,291	0,035	-0,070
-512,058	-167,999	-0,035	0,001
-511,043	101,645	-0,041	0,035
-510,029	-200,000	-0,025	0,083
-509,014	592,938	0,023	-0,041
-507,999	-200,000	0,021	0,086
-506,985	-97,614	-0,106	0,020
-505,970	-157,646	-0,136	-0,006
-504,956	184,210	-0,108	-0,115
-503,941	-200,000	-0,011	0,108
-502,926	114,936	0,103	0,091
-501,912	800,000	0,045	-0,097
-500,897	185,414	0,126	0,135
-499,883	261,828	0,053	0,067
-498,868	128,908	-0,097	-0,090
-497,853	800,000	-0,042	-0,090
-496,839	81,340	0,028	0,022
-495,824	-200,000	-0,008	0,040
-494,810	-113,731	-0,146	0,020
-493,795	43,636	0,121	0,080
-492,781	-200,000	0,041	-0,135
-491,766	800,000	0,023	-0,057
-490,751	-28,600	-0,102	0,042
-489,737	144,482	-0,095	0,091
-488,722	492,675	-0,053	-0,088
-487,708	97,760	-0,075	0,062
-486,693	217,486	0,025	0,029
-485,678	53,371	-0,020	0,014
-484,664	131,767	-0,131	-0,121
-483,649	-93,601	-0,044	-0,009
-482,635	-17,566	0,076	-0,034
-481,620	-40,584	-0,055	-0,020
-480,605	121,370	-0,057	0,051
-479,591	800,000	0,039	-0,090
-478,576	-102,195	0,007	-0,001
-477,562	150,987	0,041	-0,041
-476,547	-115,652	-0,042	-0,006
-475,532	800,000	0,039	-0,106
-474,518	585,679	-0,014	0,025
-473,503	-200,000	-0,032	0,165
-472,489	-71,754	0,064	0,017
-471,474	-98,206	0,158	0,029
-470,459	-151,348	0,015	-0,001
-469,445	800,000	-0,106	0,217
-468,430	350,415	-0,034	-0,049
-467,416	104,676	0,044	-0,037
-466,401	-200,000	-0,015	0,291
-465,386	-64,916	0,089	0,026
-464,372	45,769	-0,229	-0,152
-463,357	108,331	-0,038	-0,033
-462,343	800,000	-0,048	-0,120
-461,328	-101,146	-0,085	0,015
-460,313	-200,000	0,025	0,083
-459,299	-43,217	0,065	0,023
-458,284	157,265	-0,058	0,058
-457,270	-200,000	-0,009	0,031
-456,255	800,000	-0,035	-0,074
-455,241	-200,000	-0,032	-0,162
-454,226	412,983	0,007	0,011
-453,211	-83,327	0,152	-0,035
-452,197	-142,383	-0,056	0,004
-451,182	318,026	-0,134	0,183
-450,168	-39,526	0,070	0,026
-449,153	201,930	-0,063	0,070
-448,138	99,052	-0,003	0,003
-447,124	-200,000	-0,001	-0,044
-446,109	800,000	0,018	0,042
-445,095	-200,000	0,014	0,090
-444,080	187,745	0,020	0,022
-443,065	151,651	-0,071	0,070
-442,051	23,894	0,068	-0,040
-441,036	-200,000	0,036	-0,120
-440,022	-92,834	0,139	0,028
-439,007	-79,836	0,083	0,020
-437,992	-200,000	0,008	0,044
-436,978	147,374	0,010	0,010
-435,963	-200,000	0,023	0,120
-434,949	-31,090	0,046	-0,019
-433,934	800,000	-0,063	-0,178
-432,919	283,538	0,050	-0,065
-431,905	91,356	-0,069	-0,055
-430,890	81,698	0,090	0,070
-429,876	0,410	0,096	-0,049
-428,861	13,916	-0,067	-0,037
-427,846	17,083	0,106	-0,060
-426,832	54,562	-0,099	-0,068
-425,817	-20,389	-0,041	0,018
-424,803	-200,000	-0,031	-0,171
-423,788	235,706	-0,136	0,161
-422,773	560,854	-0,084	0,147
-421,759	-200,000	0,003	0,157
-420,744	759,791	-0,032	-0,063
-419,730	-47,646	-0,034	0,012
-418,715	-8,152	0,117	0,056
-417,701	-108,782	-0,096	-0,015
-416,686	-200,000	-0,028	-0,094
-415,671	-200,000	-0,001	0,086
-414,657	44,285	0,074	0,048
-413,642	800,000	0,020	-0,054
-412,628	63,515	0,044	0,031
-411,613	-114,693	-0,129	0,017
-410,598	-161,246	0,118	0,004
-409,584	-200,000	0,024	0,168
-408,569	56,409	0,100	0,070
-407,555	395,805	-0,043	0,065
-406,540	182,156	-0,104	0,111
-405,525	-200,000	0,010	0,077
-404,511	800,000	-0,009	-0,025
-403,496	-200,000	-0,057	-0,227
-402,482	800,000	0,050	0,115
-401,467	-200,000	-0,008	0,047
-400,452	308,262	0,070	0,094
-399,438	-55,666	0,135	0,043
-398,423	51,100	0,076	-0,052
-397,409	104,774	-0,036	0,030
-396,394	-57,230	-0,116	-0,037
-395,379	189,550	0,078	-0,083
-394,365	37,931	-0,085	0,054
-393,350	-8,782	0,081	0,039
-392,336	113,930	-0,084	0,073
-391,321	-58,811	0,107	0,033
-390,306	94,080	-0,075	-0,061
-389,292	-200,000	0,016	-0,077
-388,277	-72,478	-0,060	-0,016
-387,263	-80,345	0,127	0,030
-386,248	416,665	0,065	0,100
-385,233	800,000	-0,010	0,029
-384,219	-105,898	-0,015	0,002
-383,204	-96,085	0,090	-0,017
-382,190	168,565	0,029	-0,030
-381,175	28,716	-0,096	-0,058
-380,160	63,198	0,089	-0,064
-379,146	647,515	0,044	0,081
-378,131	-22,715	-0,120	0,052
-377,117	246,053	-0,034	-0,042
-376,102	-91,952	0,021	-0,004
-375,088	33,864	-0,093	0,058
-374,073	-132,880	0,081	0,007
-373,058	11,974	0,107	0,059
-372,044	446,775	-0,025	0,040
-371,029	800,000	0,034	-0,067
-370,015	374,984	-0,039	0,057
-369,000	51,111	-0,111	0,075
-367,985	279,929	-0,021	0,026
-366,971	116,688	0,084	-0,074
-365,956	568,438	0,028	0,049
-364,942	-200,000	-0,013	0,153
-363,927	42,649	0,067	-0,044
-362,912	-200,000	-0,022	0,075
-361,898	-61,540	-0,097	0,029
-360,883	294,849	0,031	-0,041
-359,869	-200,000	-0,002	0,011
-358,854	-80,178	0,123	-0,029
-357,839	-160,391	0,097	-0,004
-356,825	-6,334	0,153	-0,074
-355,810	-200,000	0,002	0,059
-354,796	-39,628	-0,084	0,031
-353,781	-111,571	-0,099	-0,014
-352,766	800,000	0,034	-0,098
-351,752	103,971	-0,050	0,042
-350,737	800,000	-0,028	0,078
-349,723	-200,000	-0,019	-0,104
-348,708	-71,890	0,102	-0,027
-347,693	118,761	0,099	-0,088
-346,679	551,766	-0,008	0,013
-345,664	35,002	-0,091	-0,057
-344,650	242,921	-0,138	0,166
-343,635	-200,000	-0,010	-0,096
-342,620	800,000	-0,040	0,104
-341,606	-151,697	0,073	-0,004
-340,591	-93,031	-0,055	-0,011
-339,577	-23,876	0,052	-0,022
-338,562	-200,000	-0,014	-0,069
-337,548	-200,000	0,032	-0,121
-336,533	-20,714	0,147	0,064
-335,518	800,000	0,046	-0,135
-334,504	116,060	0,051	0,044
-333,489	-103,672	0,021	-0,003
-332,475	-200,000	-0,017	-0,099
-331,460	-200,000	-0,027	0,122
-330,445	97,019	0,049	-0,040
-329,431	185,716	0,027	-0,029
-328,416	608,862	0,061	-0,110
-327,402	-200,000	0,011	0,156
-326,387	-27,812	-0,067	0,028
-325,372	-200,000	0,016	-0,075
-324,358	800,000	-0,096	-0,194
-323,343	-200,000	-0,059	-0,196
-322,329	410,335	0,049	-0,075
-321,314	187,634	0,091	0,097
-320,299	100,485	-0,076	0,063
-319,285	280,711	-0,041	-0,052
-318,270	223,941	0,132	-0,153
-317,256	-200,000	0,002	-0,051
-316,241	378,287	0,060	0,087
-315,226	95,718	0,075	0,061
-314,212	-108,042	0,096	0,015
-313,197	800,000	0,032	-0,064
-312,183	-142,259	-0,126	-0,009
-311,168	-53,602	-0,064	-0,021
-310,153	800,000	-0,018	0,046
-309,139	-59,807	-0,120	-0,036
-308,124	-75,031	0,025	0,006
-307,110	-41,532	0,058	0,021
-306,095	-200,000	0,006	-0,021
-305,080	27,284	0,089	0,053
-304,066	800,000	0,031	-0,073
-303,051	68,249	-0,047	-0,034
-302,037	-34,330	-0,066	-0,026
-301,022	-72,601	0,089	-0,023
-300,008	181,872	0,059	0,062
-298,993	-144,624	0,110	0,007
-297,978	59,641	0,058	0,041
-296,964	58,448	-0,028	-0,019
-295,949	367,229	-0,041	-0,060
-294,935	762,168	-0,009	0,017
-293,920	-200,000	0,005	-0,072
-292,905	575,932	0,055	0,096
-291,891	-10,086	0,037	-0,018
-290,876	504,518	-0,065	-0,108
-289,862	-55,442	0,066	0,021
-288,847	714,960	-0,061	-0,115
-287,832	-41,421	0,050	0,018
-286,818	117,494	0,055	-0,048
-285,803	160,416	0,039	0,039
-284,789	91,923	-0,157	0,126
-283,774	612,248	0,066	0,119
-282,759	-180,669	0,105	0,002
-281,745	-124,944	-0,045	-0,005
-280,730	434,724	-0,031	-0,048
-279,716	-200,000	-0,014	0,061
-278,701	800,000	-0,029	-0,069
-277,686	-200,000	0,006	0,020
-276,672	-200,000	-0,001	-0,077
-275,657	800,000	0,018	0,038
-274,643	16,507	-0,086	0,048
-273,628	-200,000	-0,014	0,084
-272,613	50,665	-0,052	0,035
-271,599	-38,492	-0,074	0,028
-270,584	91,184	0,037	-0,030
-269,570	54,746	-0,050	0,034
-268,555	-0,456	-0,028	0,014
-267,540	9,206	-0,162	-0,087
-266,526	-200,000	-0,006	-0,084
-265,511	-200,000	0,010	-0,099
-264,497	-200,000	-0,003	-0,078
-263,482	800,000	0,052	0,123
-262,467	156,942	0,153	0,151
-261,453	-147,760	-0,101	0,006
-260,438	238,048	-0,118	-0,141
-259,424	111,440	0,032	-0,027
-258,409	323,057	0,047	0,064
-257,395	-200,000	0,000	0,044
-256,380	35,906	0,044	-0,027
-255,365	140,640	0,066	-0,062
-254,351	-200,000	-0,002	0,024
-253,336	485,770	-0,042	-0,069
-252,322	22,178	0,108	-0,063
-251,307	92,999	-0,107	-0,087
-250,292	-39,523	0,094	0,035
-249,278	-151,816	0,116	-0,006
-248,263	800,000	0,038	0,113
-247,249	800,000	0,078	0,161
-246,234	650,974	-0,071	0,130
-245,219	800,000	-0,054	-0,125
-244,205	734,446	-0,031	-0,059
-243,190	-200,000	0,019	-0,097
-242,176	-143,962	0,038	-0,002
-241,161	-200,000	-0,002	0,088
-240,146	-200,000	-0,010	0,115
-239,132	800,000	0,031	0,087
-238,117	-154,882	-0,082	-0,004
-237,103	-200,000	0,003	0,047
-236,088	74,594	-0,039	-0,029
-235,073	800,000	0,051	0,145
-234,059	-140,913	0,013	0,001
-233,044	217,169	0,012	0,013
-232,030	-200,000	-0,011	-0,048
-231,015	199,096	0,106	-0,116
-230,000	-200,000	0,014	0,052
-228,986	686,499	0,046	-0,087
-227,971	-122,708	-0,089	-0,010
-226,957	-200,000	-0,006	-0,026
-225,942	280,768	0,088	0,113
-224,927	166,241	0,086	-0,087
-223,913	800,000	0,025	-0,059
-222,898	800,000	-0,003	0,008
-221,884	-200,000	-0,018	0,102
-220,869	557,005	0,061	-0,104
-219,855	454,993	0,083	0,132
-218,840	-200,000	0,012	0,079
-217,825	440,589	0,025	0,039
-216,811	-174,880	0,082	0,002
-215,796	-100,551	-0,110	0,019
-214,782	-63,438	-0,109	-0,032
-213,767	-200,000	0,001	0,082
-212,752	-5,546	0,081	-0,040
-211,738	-200,000	-0,007	0,112
-210,723	-200,000	0,001	0,100
-209,709	-65,343	0,093	0,026
-208,694	-128,522	0,126	-0,013
-207,679	49,944	0,064	-0,043
-206,665	208,737	-0,081	-0,090
-205,650	284,652	0,071	0,092
-204,636	-11,190	0,134	0,063
-203,621	-200,000	-0,014	-0,059
-202,606	188,045	-0,055	-0,058
-201,592	-122,940	0,058	-0,007
-200,577	-72,898	-0,083	0,021
-199,563	-200,000	-0,013	0,141
-198,548	512,757	0,082	0,136
-197,533	-72,390	-0,089	-0,023
-196,519	578,241	0,051	0,089
-195,504	800,000	0,022	-0,054
-194,490	107,861	0,129	-0,109
-193,475	224,154	-0,107	-0,124
-192,460	800,000	0,026	0,074
-191,446	800,000	0,023	0,072
-190,431	800,000	-0,018	0,051
-189,417	-200,000	0,024	0,102
-188,402	575,045	-0,058	-0,100
-187,387	58,099	0,054	-0,038
-186,373	142,855	-0,146	0,138
-185,358	-200,000	0,042	-0,139
-184,344	800,000	0,048	0,117
-183,329	79,418	0,084	0,064
-182,315	-25,461	-0,035	0,015
-181,300	291,347	-0,058	0,075
-180,285	-200,000	0,006	-0,062
-179,271	158,948	-0,042	0,042
-178,256	-29,873	-0,139	0,056
-177,242	44,856	0,052	0,034
-176,227	-200,000	0,007	0,044
-175,212	150,633	0,082	0,079
-174,198	-120,556	0,055	0,007
-173,183	290,603	0,056	0,072
-172,169	-119,589	0,015	0,002
-171,154	-200,000	0,003	-0,069
-170,139	-27,140	0,078	-0,032
-169,125	473,109	0,017	0,027
-168,110	229,154	-0,028	0,033
-167,096	800,000	-0,043	0,096
-166,081	763,313	0,044	-0,085
-165,066	32,755	0,092	-0,056
-164,052	-102,246	0,004	0,001
-163,037	148,249	-0,117	-0,112
-162,023	700,547	0,029	0,055
-161,008	122,168	-0,091	0,081
-159,993	-200,000	-0,022	0,119
-158,979	-200,000	0,003	-0,016
-157,964	-15,855	0,042	0,019
-156,950	-200,000	-0,005	-0,074
-155,935	159,094	-0,032	0,032
-154,920	524,549	-0,030	-0,050
-153,906	800,000	-0,013	-0,027
-152,891	-86,184	0,086	-0,019
-151,877	285,566	-0,067	-0,086
-150,862	-52,537	-0,065	0,021
-149,847	-96,406	0,019	-0,004
-148,833	800,000	-0,022	0,049
-147,818	800,000	-0,017	0,039
-146,804	18,145	0,086	0,049
-145,789	18,064	0,129	-0,073
-144,775	-26,611	-0,099	-0,041
-143,760	-200,000	0,008	0,121
-142,745	-200,000	-0,018	0,094
-141,731	-70,726	0,037	-0,010
-140,716	800,000	-0,035	-0,100
-139,702	-148,306	0,028	0,002
-138,687	800,000	0,047	0,105
-137,672	87,833	-0,049	0,039
-136,658	312,435	0,121	-0,162
-135,643	316,345	-0,038	0,051
-134,629	738,536	-0,060	-0,114
-133,614	607,652	-0,038	0,068
-132,599	71,711	0,074	0,055
-131,585	800,000	-0,028	-0,067
-130,570	-60,460	0,120	-0,036
-129,556	-200,000	-0,021	0,134
-128,541	-200,000	-0,003	-0,031
-127,526	360,193	-0,024	-0,034
-126,512	-200,000	-0,018	0,169
-125,497	146,428	0,140	0,134
-124,483	-3,149	0,132	0,065
-123,468	-89,070	-0,091	-0,019
-122,453	-66,958	0,041	-0,011
-121,439	61,147	0,052	-0,036
-120,424	-64,427	0,029	0,008
-119,410	-83,409	0,008	-0,002
-118,395	360,262	-0,069	0,099
-117,380	127,952	0,062	0,056
-116,366	-200,000	-0,024	0,112
-115,351	265,355	-0,047	-0,059
-114,337	130,022	-0,130	-0,118
-113,322	-49,468	0,143	0,048
-112,307	-129,332	-0,019	-0,002
-111,293	-200,000	0,015	0,160
-110,278	-200,000	0,037	0,130
-109,264	-200,000	0,042	0,165
-108,249	800,000	-0,009	-0,023
-107,234	-117,142	-0,119	0,015
-106,220	146,428	0,032	0,031
-105,205	-107,755	0,094	0,014
-104,191	-200,000	0,017	0,061
-103,176	528,321	0,037	0,062
-102,162	-140,377	0,135	0,010
-101,147	264,996	0,039	0,048
-100,132	-47,326	-0,087	-0,030
-99,118	-70,851	-0,044	-0,012
-98,103	10,283	0,054	-0,029
-97,089	-33,157	-0,173	0,068
-96,074	-200,000	-0,038	-0,123
-95,059	-16,011	-0,023	0,010
-94,045	-147,239	-0,131	0,008
-93,030	531,853	0,040	-0,068
-92,016	800,000	0,008	-0,021
-91,001	81,507	0,029	0,022
-89,986	800,000	0,026	0,056
-88,972	-200,000	-0,005	-0,052
-87,957	-21,835	-0,095	0,041
-86,943	-200,000	0,052	-0,204
-85,928	-47,574	-0,075	0,026
-84,913	-49,822	-0,054	-0,018
-83,899	10,224	0,019	0,010
-82,884	95,928	-0,063	-0,051
-81,870	690,936	0,058	0,108
-80,855	800,000	-0,056	0,145
-79,840	-200,000	-0,010	0,128
-78,826	560,291	-0,110	-0,190
-77,811	800,000	0,030	-0,090
-76,797	260,233	-0,024	-0,030
-75,782	-6,698	0,067	0,032
-74,767	156,905	0,031	-0,030
-73,753	-46,001	-0,073	0,025
-72,738	-200,000	-0,001	-0,138
-71,724	800,000	-0,011	0,026
-70,709	360,608	-0,015	0,022
-69,694	-163,955	-0,100	-0,003
-68,680	27,088	-0,085	-0,050
-67,665	134,391	0,105	0,097
-66,651	-200,000	0,009	0,032
-65,636	-5,434	0,053	0,025
-64,622	-133,668	-0,108	-0,009
-63,607	-69,382	-0,117	-0,032
-62,592	-163,959	0,083	0,003
-61,578	101,055	-0,087	0,072
-60,563	20,094	0,149	0,085
-59,549	394,164	-0,019	-0,028
-58,534	-11,115	-1,750	-0,814
-57,519	349,895	-1,415	-1,985
-56,505	-200,000	-0,399	-4,634
-55,490	280,359	1,036	1,314
-54,476	800,000	4,708	10,970
-53,461	-200,000	19,210	320,624
-52,446	-200,000	740,731	2336,144
-51,432	573,784	1655,582	2870,115
-50,417	78,329	1671,023	1262,059
-49,403	21,364	1543,981	885,972
-48,388	15,226	1466,375	811,589
-47,373	17,998	1456,657	819,576
-46,359	16,708	1446,657	807,731
-45,344	13,467	1442,129	789,642
-44,330	13,386	1439,920	788,012
-43,315	13,423	1438,151	787,190
-42,300	13,423	1436,660	786,341
-41,286	13,434	1435,344	785,644
-40,271	13,374	1434,095	784,645
-39,257	13,394	1432,743	783,969
-38,242	13,442	1431,298	783,373
-37,227	13,429	1430,270	782,721
-36,213	13,437	1429,087	782,079
-35,198	13,420	1427,912	781,325
-34,184	13,471	1426,894	780,980
-33,169	13,400	1425,628	779,916
-32,154	13,473	1424,339	779,528
-31,140	13,461	1423,126	778,775
-30,125	13,492	1422,015	778,283
-29,111	13,454	1420,988	777,513
-28,096	13,474	1419,856	776,957
-27,082	13,426	1418,624	776,022
-26,067	13,374	1417,616	775,195
-25,052	13,433	1416,253	774,696
-24,038	13,397	1415,509	774,091
-23,023	13,351	1414,658	773,379
-22,009	13,341	1413,828	772,848
-20,994	13,353	1412,609	772,206
-19,979	13,322	1411,744	771,555
-18,965	13,319	1410,798	770,995
-17,950	13,320	1409,944	770,503
-16,936	13,353	1409,140	770,190
-15,921	13,262	1407,874	769,040
-14,906	13,270	1407,005	768,573
-13,892	13,293	1406,017	768,110
-12,877	13,292	1405,173	767,614
-11,863	13,342	1403,903	767,119
-10,848	13,241	1403,550	766,425
-9,833	13,224	1402,637	765,818
-8,819	13,227	1401,530	765,198
-7,804	13,247	1400,681	764,795
-6,790	13,201	1399,785	764,065
-5,775	13,215	1398,486	763,391
-4,760	13,177	1397,718	762,762
-3,746	13,164	1396,874	762,211
-2,731	13,193	1396,150	761,922
-1,717	13,147	1395,063	761,085
-0,702	13,172	1393,306	760,212
0,313	17,023	1310,030	732,612
1,327	33,247	703,826	431,102
2,342	51,405	123,247	82,688
3,356	2,641	16,572	8,470
4,371	16,410	3,062	1,706
5,386	-25,298	0,608	0,253
6,400	-200,000	0,021	0,152
7,415	7,137	-0,287	-0,151
8,429	107,763	-0,289	-0,243
9,444	-14,322	-0,394	-0,179
10,459	112,162	-0,346	-0,295
11,473	44,764	-0,306	-0,198
12,488	-83,426	-0,287	-0,065
13,502	-40,337	-0,299	-0,109
14,517	-49,729	-0,231	-0,077
15,531	247,801	-0,251	-0,301
16,546	63,830	-0,374	-0,265
17,561	120,155	-0,325	-0,285
18,575	-24,580	-0,137	-0,057
19,590	115,911	-0,164	-0,142
20,604	-70,667	-0,417	-0,110
21,619	33,512	-0,429	-0,262
22,634	182,222	-0,378	-0,394
23,648	147,069	-0,440	-0,418
24,663	32,394	-0,307	-0,187
25,677	9,231	-0,350	-0,186
26,692	80,347	-0,312	-0,237
27,707	28,315	-0,382	-0,227
28,721	51,188	-0,337	-0,225
29,736	-10,087	-0,488	-0,228
30,750	27,948	-0,474	-0,281
31,765	46,732	-0,411	-0,269
32,780	-20,211	-0,458	-0,198
33,794	349,141	-0,193	-0,270
34,809	93,168	-0,374	-0,298
35,823	188,020	-0,271	-0,286
36,838	435,532	-0,304	-0,467
37,853	71,553	-0,409	-0,300
38,867	160,717	-0,262	-0,258
39,882	-149,587	-0,383	-0,021
40,896	7,482	-0,269	-0,141
41,911	110,588	-0,420	-0,356
42,926	71,993	-0,334	-0,245
43,940	140,791	-0,335	-0,312
44,955	79,340	-0,359	-0,271
45,969	204,930	-0,309	-0,338
46,984	14,939	-0,398	-0,219
47,999	208,037	-0,305	-0,337
49,013	75,013	-0,294	-0,218
50,028	-32,301	-0,292	-0,114
51,042	48,607	-0,409	-0,270
52,057	-40,654	-0,493	-0,179
53,071	344,637	-0,264	-0,366
54,086	145,999	-0,257	-0,243
55,101	194,350	-0,263	-0,281
56,115	464,762	-0,184	-0,291
57,130	113,166	-0,244	-0,208
58,144	30,360	-0,383	-0,230
59,159	-26,085	-0,469	-0,193
60,174	8,243	-0,414	-0,218
61,188	100,264	-0,345	-0,281
62,203	182,120	-0,320	-0,332
63,217	188,252	-0,263	-0,277
64,232	163,100	-0,227	-0,224
65,247	10,022	-0,364	-0,194
66,261	155,517	-0,372	-0,361
67,276	16,744	-0,389	-0,216
68,290	40,146	-0,334	-0,211
69,305	50,910	-0,348	-0,232
70,320	-29,449	-0,365	-0,146
71,334	-44,834	-0,403	-0,140
72,349	-1,895	-0,421	-0,207
73,363	97,029	-0,346	-0,279
74,378	-11,396	-0,501	-0,231
75,393	64,666	-0,339	-0,240
76,407	339,750	-0,202	-0,277
77,422	193,801	-0,236	-0,251
78,436	34,926	-0,332	-0,204
79,451	261,678	-0,331	-0,404
80,466	43,481	-0,363	-0,233
81,480	59,209	-0,407	-0,281
82,495	62,331	-0,364	-0,255
83,509	60,135	-0,301	-0,209
84,524	-29,278	-0,163	-0,065
85,539	-12,380	-0,214	-0,098
86,553	-7,224	-0,350	-0,166
87,568	-57,893	-0,292	-0,089
88,582	-105,404	-0,393	-0,062
89,597	-24,088	-0,426	-0,178
90,611	333,539	-0,150	-0,204
91,626	-157,233	-0,313	-0,013
92,641	-12,318	-0,230	-0,105
93,655	87,489	-0,234	-0,182
94,670	27,540	-0,355	-0,209
95,684	135,644	-0,334	-0,305
96,699	-60,417	-0,266	-0,079
97,714	75,863	-0,294	-0,218
98,728	-62,788	-0,337	-0,097
99,743	83,385	-0,216	-0,165
100,757	-80,050	-0,373	-0,087
101,772	21,795	-0,202	-0,115
102,787	31,218	-0,359	-0,215
103,801	498,512	-0,196	-0,317
104,816	-53,981	-0,325	-0,103
105,830	110,286	-0,242	-0,203
106,845	-24,053	-0,313	-0,131
107,860	11,991	-0,173	-0,093
108,874	-13,920	-0,311	-0,140
109,889	55,849	-0,272	-0,184
110,903	50,023	-0,286	-0,189
111,918	14,402	-0,190	-0,104
112,933	242,041	-0,258	-0,302
113,947	12,763	-0,279	-0,150
114,962	1,388	-0,252	-0,127
115,976	12,414	-0,304	-0,164
116,991	11,392	-0,314	-0,168
118,006	416,850	-0,169	-0,253
119,020	9,738	-0,288	-0,152
120,035	589,354	-0,167	-0,289
121,049	104,309	-0,184	-0,152
122,064	97,122	-0,167	-0,134
123,079	-69,670	-0,332	-0,088
124,093	689,622	-0,105	-0,193
125,108	131,850	-0,242	-0,218
126,122	214,273	-0,221	-0,245
127,137	89,668	-0,180	-0,141
128,151	61,594	-0,213	-0,148
129,166	212,588	-0,220	-0,243
130,181	36,725	-0,199	-0,123
131,195	359,739	-0,178	-0,250
132,210	14,357	-0,375	-0,204
133,224	140,025	-0,250	-0,231
134,239	42,073	-0,200	-0,126
135,254	-53,005	-0,188	-0,060
136,268	196,886	-0,193	-0,206
137,283	17,867	-0,312	-0,173
138,297	206,149	-0,218	-0,238
139,312	30,249	-0,376	-0,224
140,327	20,488	-0,380	-0,214
141,341	104,054	-0,149	-0,123
142,356	17,594	-0,339	-0,188
143,370	-99,465	-0,129	0,022
144,385	800,000	-0,137	-0,266
145,400	117,746	-0,206	-0,177
146,414	174,696	-0,304	-0,307
147,429	119,167	-0,282	-0,244
148,443	55,849	-0,233	-0,158
149,458	87,643	-0,249	-0,192
150,473	160,781	-0,124	-0,121
151,487	151,352	-0,142	-0,135
152,502	286,445	-0,167	-0,210
153,516	-68,310	-0,228	-0,062
154,531	89,933	-0,175	-0,136
155,546	-8,309	-0,289	-0,135
156,560	187,652	-0,229	-0,239
157,575	305,392	-0,119	-0,155
158,589	-78,101	-0,188	-0,045
159,604	149,222	-0,165	-0,156
160,619	-1,257	-0,261	-0,128
161,633	-64,345	-0,198	-0,056
162,648	30,109	-0,332	-0,197
163,662	114,246	-0,274	-0,232
164,677	616,982	-0,070	-0,123
165,692	-39,116	-0,232	-0,085
166,706	16,912	-0,262	-0,144
167,721	52,603	-0,357	-0,237
168,735	800,000	-0,106	-0,273
169,750	-41,588	-0,200	-0,071
170,764	120,961	-0,169	-0,147
171,779	-128,571	-0,190	-0,018
172,794	-86,105	-0,245	-0,052
173,808	158,101	-0,175	-0,169
174,823	220,199	-0,170	-0,191
175,837	-116,928	-0,403	-0,051
176,852	75,139	-0,169	-0,124
177,867	-35,582	-0,248	-0,093
178,881	416,531	-0,188	-0,280
179,896	55,225	-0,253	-0,170
180,910	213,138	-0,186	-0,205
181,925	-103,403	-0,274	-0,044
182,940	48,346	-0,237	-0,154
183,954	97,480	-0,287	-0,229
184,969	160,374	-0,095	-0,092
185,983	219,739	-0,145	-0,161
186,998	414,799	-0,228	-0,339
188,013	496,459	-0,241	-0,388
189,027	29,951	-0,345	-0,204
190,042	-25,921	-0,327	-0,134
191,056	306,805	-0,179	-0,232
192,071	168,993	-0,126	-0,125
193,086	-21,319	-0,062	-0,026
194,100	279,512	-0,117	-0,145
195,115	100,688	-0,236	-0,191
196,129	673,263	-0,148	-0,268
197,144	10,504	-0,296	-0,156
198,159	25,829	-0,285	-0,165
199,173	-89,702	-0,276	-0,056
200,188	-164,245	-0,082	0,003
201,202	232,094	-0,235	-0,269
202,217	135,588	-0,254	-0,230
203,232	224,914	-0,159	-0,179
204,246	156,187	-0,290	-0,278
205,261	292,466	-0,191	-0,243
206,275	137,602	-0,286	-0,260
207,290	-57,105	-0,138	-0,042
208,304	7,563	-0,214	-0,111
209,319	235,708	-0,170	-0,196
210,334	148,362	-0,220	-0,207
211,348	88,444	-0,193	-0,148
212,363	-8,152	-0,237	-0,110
213,377	195,036	-0,103	-0,109
214,392	-71,229	-0,114	-0,029
215,407	92,884	-0,175	-0,137
216,421	77,356	-0,197	-0,145
217,436	-25,571	-0,254	-0,104
218,450	370,658	-0,130	-0,183
219,465	193,233	-0,239	-0,251
220,480	116,607	-0,189	-0,161
221,494	-31,136	-0,260	0,101
222,509	216,322	-0,112	-0,124
223,523	69,323	-0,106	-0,076
224,538	800,000	-0,117	-0,244
225,553	111,561	-0,197	-0,165
226,567	-30,867	-0,166	-0,065
227,582	170,410	-0,116	-0,115
228,596	112,339	-0,069	-0,058
229,611	393,193	-0,066	-0,095
230,626	174,861	-0,200	-0,201
231,640	256,039	-0,076	-0,091
232,655	-64,765	-0,179	-0,050
233,669	496,507	-0,139	-0,222
234,684	-200,000	-0,043	-0,157
235,699	38,340	-0,172	-0,106
236,713	-62,873	-0,193	-0,055
237,728	-200,000	0,006	-0,142
238,742	177,442	-0,199	-0,202
239,757	67,832	-0,174	-0,123
240,772	2,220	-0,403	-0,201
241,786	337,256	-0,143	-0,193
242,801	-7,749	-0,182	-0,085
243,815	41,185	-0,128	-0,080
244,830	800,000	-0,070	-0,137
245,844	-200,000	-0,034	-0,157
246,859	80,480	-0,271	-0,202
247,874	179,230	-0,279	-0,283
248,888	85,253	-0,155	-0,118
249,903	257,978	-0,088	-0,105
250,917	56,647	-0,183	-0,123
251,932	-142,195	-0,229	-0,015
252,947	161,002	-0,177	-0,171
253,961	64,787	-0,183	-0,128
254,976	121,655	-0,152	-0,131
255,990	318,334	-0,182	-0,239
257,005	-118,188	-0,113	0,014
258,020	71,994	-0,068	-0,049
259,034	-119,470	-0,224	-0,027
260,049	800,000	-0,097	-0,253
261,063	55,646	-0,191	-0,128
262,078	215,569	-0,274	-0,301
263,093	438,500	-0,116	-0,176
264,107	103,682	-0,168	-0,137
265,122	127,073	-0,253	-0,221
266,136	-8,916	-0,207	-0,095
267,151	299,834	-0,176	-0,224
268,166	358,125	-0,129	-0,178
269,180	31,574	-0,262	-0,155
270,195	-51,253	-0,228	-0,073
271,209	145,985	-0,096	-0,089
272,224	434,378	-0,123	-0,185
273,239	800,000	-0,035	-0,099
274,253	-28,870	-0,175	-0,069
275,268	-92,434	-0,128	0,025
276,282	-98,573	-0,166	-0,029
277,297	-139,988	-0,191	-0,014
278,312	27,842	-0,183	-0,106
279,326	-65,625	-0,156	-0,043
280,341	-200,000	-0,052	-0,171
281,355	-200,000	-0,016	-0,221
282,370	-39,316	-0,181	-0,065
283,384	78,107	-0,243	-0,179
284,399	452,561	-0,211	-0,323
285,414	51,577	-0,223	-0,146
286,428	-18,208	-0,191	-0,082
287,443	-61,525	-0,069	0,020
288,457	50,096	-0,164	-0,107
289,472	310,939	-0,198	-0,257
290,487	181,899	-0,154	-0,157
291,501	28,848	-0,206	-0,120
292,516	143,030	-0,129	-0,118
293,530	-200,000	-0,011	-0,185
294,545	33,714	-0,163	-0,098
295,560	474,911	-0,059	-0,093
296,574	350,236	-0,170	-0,233
297,589	77,921	-0,165	-0,121
298,603	78,391	-0,147	-0,108
299,618	-172,037	-0,203	-0,004
300,633	253,946	-0,060	-0,071
301,647	-84,342	-0,060	0,013
302,662	-94,578	-0,067	-0,012
303,676	133,884	-0,119	-0,106
304,691	21,110	-0,191	-0,107
305,706	267,562	-0,213	-0,257
306,720	312,378	-0,151	-0,195
307,735	295,414	-0,065	-0,083
308,749	80,579	-0,175	0,130
309,764	-80,072	-0,111	0,025
310,779	318,994	-0,168	-0,220
311,793	-71,614	-0,280	-0,071
312,808	244,187	-0,177	-0,205
313,822	-33,073	-0,187	-0,071
314,837	-200,000	-0,006	-0,052
315,852	-200,000	-0,028	-0,145
316,866	306,452	-0,076	-0,098
317,881	449,100	-0,082	-0,125
318,895	99,317	-0,137	-0,109
319,910	158,847	-0,263	-0,251
320,925	13,121	-0,137	-0,073
321,939	-168,625	-0,051	-0,001
322,954	91,765	-0,141	-0,109
323,968	85,305	-0,138	-0,104
324,983	261,802	-0,103	-0,123
325,997	236,662	-0,084	-0,095
327,012	228,712	-0,198	-0,223
328,027	425,517	-0,183	-0,272
329,041	800,000	-0,116	-0,262
330,056	800,000	-0,059	-0,135
331,070	-124,099	-0,101	-0,011
332,085	-62,553	-0,185	-0,052
333,100	420,932	-0,060	-0,089
334,114	800,000	-0,026	-0,053
335,129	69,563	-0,135	-0,096
336,143	219,656	-0,165	-0,181
337,158	387,518	-0,124	-0,176
338,173	-127,137	-0,051	-0,005
339,187	230,758	-0,106	-0,119
340,202	66,173	-0,216	-0,150
341,216	800,000	-0,095	-0,244
342,231	-17,742	-0,169	-0,072
343,246	219,203	-0,169	-0,186
344,260	800,000	-0,063	-0,169
345,275	94,275	-0,139	-0,109
346,289	-41,130	-0,135	-0,048
347,304	-7,797	-0,261	-0,120
348,319	46,922	-0,173	-0,110
349,333	402,271	-0,136	-0,196
350,348	-22,504	-0,097	-0,040
351,362	800,000	-0,111	-0,226
352,377	99,317	-0,127	-0,101
353,392	-64,006	-0,082	-0,023
354,406	-105,957	-0,254	-0,039
355,421	208,816	1315,902	1414,366
356,435	160,686	1476,790	1414,867
