DTS Sentinel unit serial number:	SN410029Multiplexer serial number:	ORYXHardware model number:	OX2-SRSoftware version number:	ORYX F/W v4,00 Oryx Data Collector v3.7.2.0data status	okinstallation	B3 Nyhavnadifferential loss correction	single-endedforward channel	channel 1reverse channel	N/Adate	2023/11/29time	14:17:30forward acquisition time	300,00reverse acquisition time	0,00gamma	499,1914k internal	0,3211k external	0,3211temperature offset calibration	1,0000default loss term (dB/km)	0,3820temperature slope calibration	1,0000multiplexer offset coefficient	1,0000multiplexer slope coefficient	1,0000fibre end	0,00T internal ref (°C)	10,81T ext. ref 1 (°C)	-3,23T ext. ref 2 (°C)	-3,36length (m)	temperature (°C)	Stokes	anti-Stokes-744,400	533,953	-0,181	-0,313
-743,385	680,822	0,103	0,195
-742,371	421,770	-0,114	-0,177
-741,356	-200,000	-0,037	0,232
-740,342	236,541	-0,212	-0,254
-739,327	-200,000	0,005	0,108
-738,312	116,107	-0,345	-0,307
-737,298	-200,000	0,008	0,244
-736,283	328,487	-0,102	-0,142
-735,269	-200,000	0,098	0,344
-734,254	110,526	-0,341	-0,297
-733,239	110,597	-0,091	0,079
-732,225	-200,000	-0,100	-0,381
-731,210	85,239	0,141	0,112
-730,196	699,458	-0,021	-0,040
-729,181	-200,000	0,000	0,050
-728,167	491,607	-0,049	-0,082
-727,152	126,997	0,050	-0,046
-726,137	-200,000	-0,035	0,144
-725,123	-166,240	0,070	0,002
-724,108	98,740	-0,104	-0,087
-723,094	-58,825	-0,161	-0,050
-722,079	-84,245	-0,129	0,029
-721,064	-200,000	0,038	-0,132
-720,050	-200,000	0,001	0,015
-719,035	-200,000	-0,019	0,094
-718,021	800,000	0,035	0,090
-717,006	-66,351	-0,106	-0,030
-715,991	297,466	-0,085	-0,113
-714,977	157,043	-0,031	0,031
-713,962	800,000	-0,039	-0,086
-712,948	-53,871	0,126	0,041
-711,933	-21,019	-0,077	0,034
-710,918	302,859	0,062	0,084
-709,904	-76,142	-0,124	-0,032
-708,889	-84,350	0,046	-0,010
-707,875	-100,876	-0,132	0,023
-706,860	262,262	0,021	0,027
-705,845	123,175	-0,071	-0,064
-704,831	-200,000	-0,001	0,272
-703,816	249,063	-0,111	0,136
-702,802	30,379	-0,074	-0,046
-701,787	-169,963	-0,114	0,003
-700,772	26,460	-0,091	-0,055
-699,758	-158,643	-0,120	-0,005
-698,743	141,412	0,088	0,084
-697,729	367,524	0,032	0,046
-696,714	-139,360	-0,069	-0,005
-695,699	-47,101	-0,066	0,023
-694,685	-200,000	0,016	-0,218
-693,670	395,380	0,028	-0,043
-692,656	75,390	-0,038	-0,029
-691,641	34,556	-0,052	-0,033
-690,627	25,082	0,062	0,037
-689,612	800,000	-0,036	0,075
-688,597	-93,524	0,028	-0,006
-687,583	-200,000	0,009	0,038
-686,568	-151,300	-0,115	0,006
-685,554	800,000	-0,020	-0,057
-684,539	-200,000	0,016	-0,063
-683,524	297,630	0,047	0,062
-682,510	221,315	0,073	0,085
-681,495	-200,000	0,030	0,153
-680,481	-99,585	-0,097	0,017
-679,466	-200,000	-0,007	-0,121
-678,451	-141,200	-0,067	0,005
-677,437	-200,000	-0,006	-0,094
-676,422	307,647	0,141	0,191
-675,408	590,150	0,038	0,067
-674,393	-200,000	0,008	0,116
-673,378	800,000	-0,013	0,028
-672,364	-94,760	-0,116	-0,023
-671,349	531,263	0,021	-0,035
-670,335	-4,778	0,069	-0,034
-669,320	114,219	-0,054	0,048
-668,305	-200,000	0,023	-0,075
-667,291	-15,486	-0,137	-0,063
-666,276	-20,996	-0,156	-0,069
-665,262	557,749	0,054	-0,094
-664,247	-16,412	-0,113	-0,051
-663,232	-86,725	-0,158	0,035
-662,218	-200,000	0,042	0,185
-661,203	800,000	0,050	0,109
-660,189	-137,390	-0,114	0,009
-659,174	-200,000	0,013	-0,077
-658,159	800,000	-0,031	-0,074
-657,145	182,392	0,022	-0,024
-656,130	-56,299	0,043	0,014
-655,116	800,000	0,051	0,113
-654,101	-91,765	-0,069	0,014
-653,086	-52,238	0,076	-0,025
-652,072	-200,000	0,040	-0,129
-651,057	-157,345	-0,056	-0,002
-650,043	0,278	-0,095	-0,049
-649,028	308,647	0,072	-0,098
-648,014	-120,295	-0,057	-0,007
-646,999	30,122	-0,134	0,082
-645,984	14,884	-0,066	0,037
-644,970	307,807	-0,061	-0,082
-643,955	800,000	-0,034	-0,083
-642,941	800,000	-0,054	-0,171
-641,926	100,207	-0,092	-0,077
-640,911	58,426	0,077	0,055
-639,897	-108,507	-0,052	-0,008
-638,882	-200,000	-0,040	-0,138
-637,868	549,584	0,007	-0,011
-636,853	78,834	0,027	0,020
-635,838	-22,082	-0,128	-0,056
-634,824	-200,000	-0,015	-0,181
-633,809	-68,894	0,223	-0,062
-632,795	-96,272	-0,157	0,030
-631,780	170,751	0,053	0,055
-630,765	-200,000	0,005	0,048
-629,751	-200,000	0,026	-0,084
-628,736	47,472	-0,188	-0,126
-627,722	312,151	-0,063	-0,086
-626,707	-10,110	-0,038	-0,018
-625,692	560,619	-0,047	-0,083
-624,678	800,000	0,033	0,067
-623,663	-200,000	0,009	-0,036
-622,649	647,307	0,065	-0,121
-621,634	8,829	-0,124	-0,067
-620,619	81,547	-0,132	-0,103
-619,605	7,465	0,082	0,044
-618,590	-124,424	0,118	0,013
-617,576	37,161	-0,065	-0,042
-616,561	-19,192	0,043	0,019
-615,546	390,679	-0,046	0,068
-614,532	15,264	-0,085	-0,048
-613,517	800,000	0,057	-0,118
-612,503	18,523	0,053	0,030
-611,488	-200,000	-0,020	0,087
-610,474	171,243	0,096	-0,099
-609,459	-103,214	-0,093	-0,016
-608,444	131,582	-0,034	0,031
-607,430	242,650	0,110	0,133
-606,415	-105,752	-0,117	-0,019
-605,401	-200,000	-0,004	0,092
-604,386	-200,000	0,017	0,100
-603,371	56,260	0,051	-0,036
-602,357	-200,000	-0,012	-0,046
-601,342	-200,000	0,014	-0,109
-600,328	770,461	-0,129	-0,255
-599,313	-200,000	0,000	-0,165
-598,298	-200,000	-0,003	-0,085
-597,284	-200,000	0,004	0,023
-596,269	-200,000	-0,005	-0,049
-595,255	184,037	0,049	0,053
-594,240	800,000	-0,031	0,068
-593,225	66,542	-0,057	0,042
-592,211	65,484	-0,085	0,062
-591,196	-101,562	-0,102	0,018
-590,182	337,305	0,025	0,035
-589,167	206,256	-0,063	0,070
-588,152	5,335	-0,078	0,041
-587,138	40,448	-0,049	-0,032
-586,123	800,000	-0,063	0,150
-585,109	121,338	0,113	-0,102
-584,094	74,420	-0,102	0,077
-583,079	-21,638	0,153	0,067
-582,065	144,813	-0,040	0,039
-581,050	-85,917	-0,134	0,030
-580,036	-200,000	0,007	0,114
-579,021	276,070	-0,034	-0,044
-578,006	48,958	-0,027	-0,018
-576,992	249,598	-0,025	-0,031
-575,977	240,496	0,073	-0,087
-574,963	-200,000	0,017	0,068
-573,948	-200,000	-0,001	0,025
-572,934	150,223	-0,050	-0,049
-571,919	268,222	0,096	-0,121
-570,904	-200,000	-0,005	-0,167
-569,890	800,000	-0,031	-0,075
-568,875	479,601	-0,021	0,035
-567,861	166,533	-0,062	0,063
-566,846	-200,000	-0,004	-0,118
-565,831	95,982	0,022	0,018
-564,817	-48,515	-0,153	0,053
-563,802	-200,000	0,012	-0,083
-562,788	800,000	0,015	-0,048
-561,773	107,050	-0,090	0,077
-560,758	-122,586	0,134	0,015
-559,744	312,275	-0,059	0,079
-558,729	488,770	0,049	0,081
-557,715	-74,040	0,139	-0,036
-556,700	204,418	-0,099	-0,111
-555,685	-200,000	0,016	-0,135
-554,671	800,000	-0,071	-0,151
-553,656	-18,749	0,073	-0,033
-552,642	800,000	0,042	0,090
-551,627	-56,467	-0,165	0,052
-550,612	221,667	-0,060	0,070
-549,598	664,981	0,064	-0,119
-548,583	31,929	-0,069	-0,043
-547,569	-70,751	-0,114	-0,031
-546,554	-121,520	0,133	0,016
-545,539	10,665	-0,063	0,035
-544,525	31,679	-0,017	-0,010
-543,510	-200,000	-0,062	-0,271
-542,496	-21,775	-0,119	-0,052
-541,481	-111,000	0,049	-0,007
-540,466	-200,000	-0,000	-0,059
-539,452	690,034	-0,035	-0,066
-538,437	800,000	0,031	0,068
-537,423	-200,000	0,004	-0,144
-536,408	-174,826	-0,073	0,001
-535,393	-56,219	-0,170	-0,054
-534,379	-179,343	0,065	0,001
-533,364	-200,000	-0,048	0,214
-532,350	-38,115	0,204	0,077
-531,335	-200,000	-0,015	0,131
-530,321	-98,868	0,083	-0,015
-529,306	9,036	0,231	0,125
-528,291	-200,000	0,012	0,046
-527,277	800,000	0,012	-0,036
-526,262	-142,954	0,208	0,014
-525,248	-109,974	-0,150	-0,022
-524,233	60,592	0,052	0,037
-523,218	79,451	0,049	-0,038
-522,204	-70,478	-0,021	0,006
-521,189	342,682	-0,122	-0,172
-520,175	229,968	-0,087	-0,103
-519,160	252,441	-0,031	-0,038
-518,145	-200,000	-0,007	-0,061
-517,131	-200,000	-0,015	0,161
-516,116	-82,916	0,077	-0,018
-515,102	173,442	0,048	-0,050
-514,087	369,754	-0,066	0,097
-513,072	-9,226	-0,047	-0,022
-512,058	800,000	0,017	-0,037
-511,043	123,003	-0,071	0,064
-510,029	135,952	0,061	0,057
-509,014	-24,353	0,052	-0,022
-507,999	-200,000	0,025	-0,103
-506,985	507,134	0,020	0,034
-505,970	63,763	-0,093	-0,067
-504,956	263,330	0,104	-0,130
-503,941	36,498	0,080	0,051
-502,926	-200,000	0,035	0,132
-501,912	-63,472	0,048	0,014
-500,897	-200,000	-0,010	-0,074
-499,883	-38,202	0,083	0,031
-498,868	-4,140	-0,021	-0,010
-497,853	-200,000	-0,031	-0,099
-496,839	-200,000	0,001	-0,080
-495,824	-200,000	0,028	0,104
-494,810	76,985	0,180	0,137
-493,795	654,044	0,062	-0,115
-492,781	6,975	-0,129	0,069
-491,766	-200,000	-0,002	-0,121
-490,751	-62,841	-0,051	-0,015
-489,737	5,931	-0,042	-0,022
-488,722	800,000	-0,031	0,094
-487,708	-193,024	-0,059	0,000
-486,693	800,000	0,021	-0,052
-485,678	-161,349	0,067	-0,002
-484,664	445,106	-0,063	-0,099
-483,649	-200,000	0,001	0,077
-482,635	516,892	0,017	0,029
-481,620	232,295	0,073	0,086
-480,605	-33,517	0,060	0,024
-479,591	-153,373	-0,050	-0,002
-478,576	276,567	-0,030	0,039
-477,562	289,211	-0,015	-0,020
-476,547	-61,396	-0,110	0,033
-475,532	800,000	0,017	0,040
-474,518	378,433	-0,065	-0,096
-473,503	-200,000	-0,001	0,024
-472,489	188,846	0,056	0,060
-471,474	2,936	-0,050	0,026
-470,459	800,000	0,048	-0,146
-469,445	764,096	0,027	-0,053
-468,430	80,833	-0,038	-0,029
-467,416	-200,000	0,002	-0,084
-466,401	331,746	0,023	0,032
-465,386	57,928	0,104	0,073
-464,372	60,942	0,061	-0,043
-463,357	-200,000	-0,006	-0,088
-462,343	-174,672	-0,148	-0,003
-461,328	-67,633	0,053	-0,015
-460,313	800,000	-0,036	0,111
-459,299	-200,000	0,037	0,214
-458,284	580,660	0,106	0,186
-457,270	324,411	-0,098	-0,134
-456,255	94,768	0,015	-0,013
-455,241	-200,000	0,007	-0,112
-454,226	-200,000	0,017	0,062
-453,211	-200,000	-0,011	0,134
-452,197	-200,000	0,003	0,083
-451,182	-200,000	0,020	-0,079
-450,168	312,123	0,061	0,083
-449,153	704,330	-0,069	0,130
-448,138	800,000	0,028	-0,071
-447,124	699,052	-0,097	0,183
-446,109	-200,000	0,021	0,103
-445,095	800,000	0,007	-0,016
-444,080	800,000	0,021	0,049
-443,065	77,439	0,087	0,066
-442,051	-24,639	0,145	-0,062
-441,036	-73,165	-0,123	0,032
-440,022	10,007	0,020	-0,011
-439,007	57,487	0,088	0,061
-437,992	-200,000	-0,031	-0,122
-436,978	26,089	0,047	0,028
-435,963	-49,312	-0,052	-0,018
-434,949	268,016	0,053	0,067
-433,934	800,000	-0,042	0,111
-432,919	-200,000	-0,002	0,037
-431,905	189,242	-0,027	0,029
-430,890	134,007	0,015	0,014
-429,876	-61,344	0,099	0,030
-428,861	743,082	0,055	0,106
-427,846	800,000	-0,061	-0,161
-426,832	-200,000	0,017	-0,130
-425,817	800,000	-0,062	-0,150
-424,803	-200,000	-0,013	-0,080
-423,788	-87,047	0,104	-0,022
-422,773	-162,513	-0,042	0,001
-421,759	800,000	-0,029	0,058
-420,744	420,037	-0,012	0,018
-419,730	-200,000	-0,003	-0,155
-418,715	72,070	0,049	-0,036
-417,701	58,738	-0,088	-0,062
-416,686	438,915	0,090	-0,141
-415,671	-101,666	0,126	-0,022
-414,657	233,066	0,074	0,087
-413,642	-200,000	-0,005	-0,057
-412,628	-200,000	0,006	0,100
-411,613	81,406	-0,105	-0,081
-410,598	-200,000	0,012	-0,051
-409,584	-112,487	0,071	0,010
-408,569	14,834	0,043	-0,024
-407,555	273,793	-0,104	0,131
-406,540	-58,652	-0,167	0,052
-405,525	22,120	-0,118	-0,069
-404,511	-200,000	0,019	-0,121
-403,496	-155,135	-0,072	0,003
-402,482	11,296	0,080	0,044
-401,467	800,000	-0,031	0,097
-400,452	-200,000	0,016	0,097
-399,438	132,639	0,062	-0,057
-398,423	-200,000	0,005	-0,017
-397,409	800,000	0,042	-0,124
-396,394	-200,000	0,003	-0,013
-395,379	4,834	0,079	0,042
-394,365	-200,000	0,019	0,112
-393,350	800,000	0,058	0,138
-392,336	64,087	0,071	0,051
-391,321	8,238	-0,067	-0,036
-390,306	-92,921	-0,100	-0,020
-389,292	-200,000	-0,002	-0,101
-388,277	800,000	0,034	0,086
-387,263	-128,148	-0,101	-0,010
-386,248	-134,197	0,114	-0,010
-385,233	-113,475	0,050	0,007
-384,219	800,000	0,044	0,134
-383,204	800,000	-0,025	0,059
-382,190	170,954	0,082	-0,084
-381,175	-200,000	-0,016	0,120
-380,160	183,310	-0,083	-0,087
-379,146	287,617	0,042	0,054
-378,131	-200,000	-0,067	-0,000
-377,117	38,390	-0,099	-0,063
-376,102	286,383	0,069	0,090
-375,088	-101,727	-0,136	0,023
-374,073	124,331	-0,086	0,077
-373,058	-200,000	0,007	0,038
-372,044	625,378	-0,035	0,064
-371,029	-66,189	0,114	0,032
-370,015	-22,859	0,084	0,036
-369,000	-54,201	-0,197	0,064
-367,985	33,827	0,035	0,022
-366,971	-6,678	0,186	0,090
-365,956	-200,000	-0,009	-0,037
-364,942	0,943	0,134	-0,069
-363,927	800,000	-0,030	-0,059
-362,912	19,277	0,054	-0,031
-361,898	60,187	-0,084	0,059
-360,883	-177,712	0,043	0,001
-359,869	230,624	0,098	0,114
-358,854	-91,489	0,246	-0,050
-357,839	308,383	-0,057	0,076
-356,825	468,563	0,072	-0,116
-355,810	3,524	0,059	0,030
-354,796	-100,723	-0,070	-0,012
-353,781	799,559	0,031	-0,061
-352,766	-200,000	-0,045	-0,157
-351,752	53,139	-0,131	-0,089
-350,737	143,673	0,092	0,087
-349,723	86,109	0,116	-0,091
-348,708	-200,000	-0,017	0,062
-347,693	-138,481	-0,021	0,002
-346,679	66,418	0,061	-0,044
-345,664	164,805	0,058	-0,059
-344,650	-200,000	0,005	-0,023
-343,635	-71,291	0,119	-0,031
-342,620	-37,250	0,231	0,088
-341,606	63,415	-0,014	0,010
-340,591	-200,000	-0,002	0,008
-339,577	-200,000	0,029	-0,187
-338,562	-200,000	-0,006	-0,071
-337,548	-200,000	0,003	0,073
-336,533	155,500	0,045	0,044
-335,518	530,446	0,119	0,201
-334,504	800,000	0,008	-0,020
-333,489	-82,148	-0,078	0,018
-332,475	90,605	-0,058	0,047
-331,460	-200,000	-0,090	0,000
-330,445	440,463	-0,045	-0,070
-329,431	518,814	-0,024	-0,040
-328,416	-123,099	0,190	0,021
-327,402	-31,703	0,032	-0,013
-326,387	800,000	0,026	-0,057
-325,372	-200,000	-0,003	0,011
-324,358	212,352	0,031	0,035
-323,343	343,762	0,027	0,038
-322,329	84,841	0,137	0,107
-321,314	-121,696	0,060	0,007
-320,299	-61,152	-0,135	0,040
-319,285	-200,000	0,013	-0,125
-318,270	19,557	-0,128	-0,073
-317,256	-96,817	0,080	0,015
-316,241	213,494	0,067	-0,075
-315,226	-200,000	0,004	0,167
-314,212	642,509	0,045	-0,082
-313,197	-50,598	-0,049	-0,016
-312,183	-114,326	0,264	-0,036
-311,168	-16,605	-0,145	0,065
-310,153	1,045	0,048	0,025
-309,139	-200,000	0,024	-0,164
-308,124	-200,000	0,006	-0,077
-307,110	325,625	0,017	0,024
-306,095	-17,607	0,085	0,038
-305,080	-200,000	-0,033	0,185
-304,066	-2,131	-0,028	-0,014
-303,051	513,153	-0,064	-0,107
-302,037	410,892	-0,047	0,071
-301,022	-200,000	0,041	-0,135
-300,008	800,000	0,080	0,161
-298,993	648,509	0,051	-0,094
-297,978	749,331	0,051	0,099
-296,964	193,858	-0,035	-0,038
-295,949	-200,000	0,006	-0,073
-294,935	84,073	-0,135	0,105
-293,920	-200,000	0,000	-0,080
-292,905	-123,428	0,087	-0,010
-291,891	-69,785	0,029	-0,008
-290,876	110,005	-0,041	-0,035
-289,862	0,454	0,089	-0,045
-288,847	303,609	-0,045	-0,060
-287,832	332,914	-0,083	-0,115
-286,818	592,996	0,018	-0,031
-285,803	-200,000	0,010	0,129
-284,789	-76,680	0,033	-0,008
-283,774	435,829	-0,076	0,118
-282,759	800,000	0,041	0,103
-281,745	-34,289	0,057	0,022
-280,730	-200,000	-0,013	-0,096
-279,716	-200,000	0,009	-0,030
-278,701	-88,548	-0,065	-0,014
-277,686	132,161	0,028	-0,026
-276,672	-93,236	0,127	0,025
-275,657	-200,000	0,013	0,117
-274,643	-131,642	-0,118	-0,011
-273,628	-200,000	0,010	0,181
-272,613	-74,303	-0,100	-0,026
-271,599	-200,000	-0,007	0,031
-270,584	729,232	0,080	0,153
-269,570	-200,000	0,026	-0,150
-268,555	800,000	-0,020	-0,047
-267,540	-200,000	0,006	0,091
-266,526	-200,000	0,037	-0,135
-265,511	346,210	-0,108	-0,151
-264,497	64,619	-0,111	-0,080
-263,482	-200,000	0,013	-0,049
-262,467	477,435	-0,090	0,145
-261,453	219,264	0,075	-0,085
-260,438	491,309	0,041	-0,067
-259,424	-40,994	0,111	0,041
-258,409	-200,000	-0,012	-0,078
-257,395	22,201	-0,042	0,024
-256,380	11,232	0,205	0,111
-255,365	76,223	0,012	-0,009
-254,351	-26,777	-0,067	0,028
-253,336	0,073	0,120	0,060
-252,322	17,439	-0,112	0,063
-251,307	15,467	-0,101	-0,056
-250,292	-29,190	0,175	-0,071
-249,278	-200,000	0,003	0,116
-248,263	-173,672	0,023	0,000
-247,249	484,662	-0,006	-0,009
-246,234	103,760	-0,102	0,085
-245,219	131,966	-0,102	-0,094
-244,205	800,000	-0,022	-0,054
-243,190	5,208	0,036	-0,019
-242,176	800,000	0,048	0,140
-241,161	-143,654	-0,090	-0,006
-240,146	800,000	0,041	-0,093
-239,132	608,008	-0,037	-0,065
-238,117	-90,043	-0,143	-0,029
-237,103	87,240	0,088	-0,069
-236,088	-200,000	0,002	-0,086
-235,073	800,000	0,010	0,020
-234,059	-17,685	-0,072	0,032
-233,044	30,256	-0,090	-0,054
-232,030	-148,299	0,029	-0,002
-231,015	-41,564	-0,099	0,036
-230,000	-32,801	-0,211	-0,083
-228,986	800,000	-0,042	-0,089
-227,971	-188,421	0,057	-0,000
-226,957	-200,000	-0,022	0,081
-225,942	535,546	-0,034	0,058
-224,927	257,493	0,113	0,138
-223,913	800,000	-0,027	-0,064
-222,898	-80,037	-0,023	0,005
-221,884	232,075	-0,102	-0,119
-220,869	240,426	0,103	0,122
-219,855	98,453	0,049	0,040
-218,840	800,000	0,099	0,196
-217,825	-200,000	0,004	0,027
-216,811	-127,180	0,127	-0,013
-215,796	220,851	0,092	0,105
-214,782	800,000	-0,050	0,122
-213,767	48,071	0,077	0,051
-212,752	-200,000	-0,007	0,159
-211,738	127,019	-0,107	0,096
-210,723	613,367	-0,011	0,019
-209,709	-35,754	-0,061	-0,023
-208,694	51,521	-0,089	-0,060
-207,679	140,950	0,055	0,051
-206,665	800,000	-0,065	0,167
-205,650	-200,000	0,007	-0,040
-204,636	-200,000	0,060	0,224
-203,621	-121,153	-0,125	0,015
-202,606	198,115	-0,041	-0,045
-201,592	-200,000	-0,017	-0,067
-200,577	-200,000	0,025	-0,211
-199,563	800,000	-0,011	-0,025
-198,548	113,923	0,078	-0,067
-197,533	-200,000	-0,006	0,093
-196,519	702,667	0,025	-0,047
-195,504	-200,000	0,007	0,025
-194,490	97,931	-0,077	0,063
-193,475	782,687	-0,078	-0,152
-192,460	-200,000	0,020	-0,073
-191,446	-10,459	0,079	0,037
-190,431	120,298	0,073	-0,064
-189,417	17,630	0,136	0,076
-188,402	800,000	0,015	0,040
-187,387	236,258	0,026	0,030
-186,373	4,777	0,043	0,022
-185,358	-106,696	-0,142	-0,022
-184,344	360,622	0,042	0,060
-183,329	150,236	0,128	-0,123
-182,315	800,000	0,005	-0,010
-181,300	737,240	0,062	0,118
-180,285	-70,348	-0,087	-0,023
-179,271	-200,000	0,018	0,094
-178,256	73,588	0,010	-0,007
-177,242	208,879	0,041	-0,046
-176,227	-62,105	0,106	0,031
-175,212	-200,000	0,015	-0,078
-174,198	-200,000	0,004	0,054
-173,183	-49,771	0,020	0,007
-172,169	-200,000	-0,038	0,146
-171,154	111,244	-0,099	-0,085
-170,139	-34,411	-0,051	0,020
-169,125	-98,414	-0,093	-0,017
-168,110	800,000	-0,043	0,095
-167,096	760,679	0,039	0,076
-166,081	-49,604	-0,145	0,049
-165,066	-200,000	0,003	-0,046
-164,052	-23,752	0,079	0,034
-163,037	252,614	-0,076	0,092
-162,023	-200,000	0,031	-0,136
-161,008	-33,999	0,017	-0,007
-159,993	800,000	0,018	-0,055
-158,979	226,986	-0,039	0,045
-157,964	471,463	-0,073	0,117
-156,950	-5,258	-0,092	0,045
-155,935	-200,000	-0,011	0,044
-154,920	56,877	0,044	-0,030
-153,906	-200,000	-0,048	0,185
-152,891	800,000	-0,065	0,160
-151,877	800,000	-0,009	-0,020
-150,862	-120,059	-0,185	0,022
-149,847	7,837	-0,089	0,047
-148,833	-200,000	0,009	0,118
-147,818	-200,000	-0,031	0,180
-146,804	78,387	0,013	-0,010
-145,789	471,938	-0,114	-0,183
-144,775	167,343	0,022	-0,022
-143,760	3,847	0,034	-0,018
-142,745	-200,000	-0,012	-0,047
-141,731	120,558	-0,051	-0,045
-140,716	-68,112	0,052	0,014
-139,702	-200,000	0,029	0,154
-138,687	114,682	0,011	-0,009
-137,672	-200,000	0,049	-0,158
-136,658	-200,000	0,016	-0,082
-135,643	27,963	-0,087	0,052
-134,629	149,518	0,090	-0,086
-133,614	550,894	0,062	0,105
-132,599	8,014	-0,026	0,014
-131,585	-200,000	-0,004	0,032
-130,570	800,000	-0,054	0,126
-129,556	20,154	-0,027	-0,016
-128,541	299,605	-0,083	-0,109
-127,526	800,000	-0,039	-0,086
-126,512	-26,713	0,150	0,062
-125,497	197,892	0,045	-0,049
-124,483	800,000	0,029	0,085
-123,468	-200,000	-0,005	0,073
-122,453	-200,000	-0,010	-0,047
-121,439	-200,000	0,002	-0,101
-120,424	160,171	-0,012	0,012
-119,410	-200,000	0,012	0,187
-118,395	-121,161	0,051	-0,006
-117,380	-200,000	-0,017	0,072
-116,366	-200,000	0,033	0,105
-115,351	-200,000	0,003	0,059
-114,337	326,572	-0,051	-0,069
-113,322	-35,224	-0,176	-0,067
-112,307	-77,256	0,097	0,024
-111,293	-200,000	-0,006	-0,019
-110,278	81,455	0,036	-0,027
-109,264	-200,000	0,039	0,159
-108,249	650,504	-0,080	-0,145
-107,234	-152,792	-0,080	0,004
-106,220	800,000	0,047	-0,097
-105,205	103,338	-0,079	0,065
-104,191	800,000	0,064	0,133
-103,176	800,000	0,055	-0,140
-102,162	7,997	-0,028	0,015
-101,147	-27,743	-0,159	-0,065
-100,132	800,000	-0,013	-0,040
-99,118	-200,000	0,000	-0,124
-98,103	-191,597	0,025	-0,000
-97,089	90,485	-0,049	0,039
-96,074	-200,000	0,044	0,263
-95,059	-200,000	-0,032	0,109
-94,045	800,000	-0,042	-0,112
-93,030	-40,597	0,023	-0,008
-92,016	-41,222	-0,114	-0,041
-91,001	-98,011	0,115	0,021
-89,986	782,997	-0,018	-0,034
-88,972	218,807	0,095	0,107
-87,957	220,402	-0,055	0,062
-86,943	-200,000	-0,015	-0,075
-85,928	-93,783	0,090	0,017
-84,913	-137,942	-0,120	-0,009
-83,899	-200,000	-0,023	0,098
-82,884	-101,724	0,063	0,011
-81,870	-200,000	0,011	0,112
-80,855	-200,000	-0,066	0,000
-79,840	313,321	0,020	-0,026
-78,826	617,602	0,033	-0,058
-77,811	131,767	0,072	-0,065
-76,797	113,026	-0,126	-0,108
-75,782	-94,742	0,089	-0,017
-74,767	-145,807	0,171	0,011
-73,753	-20,895	0,055	-0,024
-72,738	-46,546	-0,176	0,061
-71,724	-189,582	-0,087	0,001
-70,709	-200,000	0,007	-0,064
-69,694	-186,164	-0,103	-0,001
-68,680	139,119	0,025	-0,023
-67,665	99,982	0,069	0,057
-66,651	-200,000	0,007	-0,044
-65,636	-145,266	-0,053	-0,003
-64,622	-200,000	0,035	-0,125
-63,607	748,826	-0,025	-0,047
-62,592	-200,000	0,020	0,119
-61,578	302,902	-0,045	0,060
-60,563	-151,089	0,046	-0,002
-59,549	800,000	0,048	0,122
-58,534	14,638	-1,879	-1,033
-57,519	506,499	-1,331	-2,187
-56,505	-200,000	-0,219	-4,460
-55,490	402,998	0,849	1,264
-54,476	800,000	5,158	11,596
-53,461	-200,000	20,673	328,503
-52,446	800,000	756,691	2321,237
-51,432	550,731	1661,398	2824,143
-50,417	73,440	1663,314	1227,433
-49,403	18,663	1536,414	865,166
-48,388	12,666	1459,206	792,687
-47,373	18,936	1450,275	817,902
-46,359	15,802	1439,369	796,812
-45,344	10,943	1435,003	771,231
-44,330	10,855	1433,110	769,764
-43,315	10,814	1431,384	768,614
-42,300	10,789	1429,743	767,583
-41,286	10,874	1428,407	767,240
-40,271	10,844	1426,975	766,298
-39,257	10,826	1425,814	765,555
-38,242	10,843	1424,817	765,071
-37,227	10,877	1423,600	764,552
-36,213	10,895	1422,344	763,930
-35,198	10,919	1421,027	763,306
-34,184	10,949	1420,516	763,141
-33,169	10,834	1419,163	761,844
-32,154	10,906	1418,003	761,529
-31,140	10,941	1416,645	760,936
-30,125	10,941	1415,680	760,388
-29,111	10,910	1414,503	759,580
-28,096	10,908	1413,396	758,946
-27,082	10,887	1412,197	758,170
-26,067	10,837	1411,052	757,291
-25,052	10,885	1409,946	756,894
-24,038	10,843	1409,035	756,177
-23,023	10,836	1408,080	755,601
-22,009	10,858	1406,896	755,040
-20,994	10,778	1406,323	754,327
-19,979	10,824	1405,231	753,928
-18,965	10,790	1404,182	753,178
-17,950	10,787	1403,289	752,653
-16,936	10,739	1402,522	751,987
-15,921	10,683	1401,676	751,243
-14,906	10,748	1400,502	750,887
-13,892	10,794	1399,522	750,545
-12,877	10,775	1399,012	750,157
-11,863	10,760	1397,900	749,461
-10,848	10,731	1397,038	748,832
-9,833	10,685	1396,286	748,185
-8,819	10,664	1395,421	747,598
-7,804	10,646	1394,516	746,997
-6,790	10,667	1393,512	746,527
-5,775	10,687	1392,214	745,898
-4,760	10,669	1391,338	745,311
-3,746	10,704	1390,223	744,850
-2,731	10,631	1389,699	744,201
-1,717	10,643	1388,971	743,838
-0,702	10,668	1387,202	742,973
0,313	14,700	1300,908	715,215
1,327	31,018	692,826	418,004
2,342	47,756	120,204	78,997
3,356	2,467	16,535	8,415
4,371	11,970	3,377	1,825
5,386	-26,890	0,929	0,381
6,400	800,000	0,180	0,389
7,415	800,000	-0,110	-0,280
8,429	66,489	-0,283	-0,202
9,444	385,096	-0,187	-0,273
10,459	-120,333	-0,196	-0,023
11,473	23,370	-0,266	-0,154
12,488	61,844	-0,273	-0,191
13,502	6,843	-0,322	-0,169
14,517	-116,564	-0,296	-0,038
15,531	-42,331	-0,430	-0,154
16,546	37,098	-0,318	-0,198
17,561	-0,631	-0,392	-0,195
18,575	-81,106	-0,222	-0,051
19,590	97,561	-0,193	-0,156
20,604	-41,420	-0,268	-0,096
21,619	69,400	-0,436	-0,316
22,634	5,319	-0,538	-0,278
23,648	328,912	-0,318	-0,431
24,663	139,564	-0,432	-0,401
25,677	35,952	-0,340	-0,210
26,692	-82,517	-0,325	-0,074
27,707	129,331	-0,382	-0,343
28,721	90,908	-0,401	-0,316
29,736	-38,834	-0,410	-0,151
30,750	7,245	-0,499	-0,261
31,765	27,847	-0,349	-0,207
32,780	188,449	-0,256	-0,270
33,794	61,924	-0,384	-0,269
34,809	324,334	-0,289	-0,389
35,823	14,927	-0,309	-0,170
36,838	126,492	-0,311	-0,276
37,853	110,466	-0,275	-0,232
38,867	-4,105	-0,316	-0,154
39,882	202,501	-0,151	-0,164
40,896	269,309	-0,216	-0,267
41,911	133,373	-0,323	-0,294
42,926	287,156	-0,286	-0,364
43,940	30,042	-0,379	-0,226
44,955	-49,767	-0,290	-0,096
45,969	-11,995	-0,367	-0,168
46,984	56,631	-0,334	-0,228
47,999	-123,618	-0,446	-0,049
49,013	7,755	-0,193	-0,101
50,028	57,825	-0,314	-0,216
51,042	2,826	-0,366	-0,186
52,057	160,581	-0,288	-0,282
53,071	112,996	-0,350	-0,298
54,086	67,081	-0,395	-0,282
55,101	111,874	-0,251	-0,212
56,115	97,543	-0,343	-0,276
57,130	-99,794	-0,357	-0,062
58,144	-62,678	-0,423	-0,122
59,159	45,417	-0,381	-0,246
60,174	23,289	-0,399	-0,230
61,188	4,635	-0,449	-0,230
62,203	42,841	-0,327	-0,208
63,217	269,492	-0,215	-0,266
64,232	211,001	-0,328	-0,363
65,247	60,132	-0,346	-0,240
66,261	28,805	-0,360	-0,213
67,276	112,265	-0,386	-0,327
68,290	109,921	-0,336	-0,282
69,305	59,178	-0,401	-0,276
70,320	-163,261	-0,356	-0,012
71,334	-48,103	-0,426	-0,143
72,349	10,946	-0,500	-0,267
73,363	89,210	-0,295	-0,230
74,378	-81,162	-0,448	-0,103
75,393	-74,337	-0,443	-0,111
76,407	-16,306	-0,306	-0,135
77,422	-96,262	-0,300	-0,055
78,436	-105,369	-0,219	-0,035
79,451	212,802	-0,266	-0,295
80,466	85,578	-0,283	-0,218
81,480	106,587	-0,251	-0,209
82,495	-132,943	-0,194	-0,017
83,509	293,945	-0,199	-0,255
84,524	159,042	-0,213	-0,207
85,539	184,112	-0,195	-0,202
86,553	65,808	-0,174	-0,123
87,568	294,459	-0,199	-0,255
88,582	313,157	-0,202	-0,266
89,597	60,934	-0,228	-0,158
90,611	-126,172	-0,243	-0,025
91,626	57,577	-0,189	-0,129
92,641	6,147	-0,290	-0,150
93,655	107,000	-0,175	-0,145
94,670	107,508	-0,222	-0,185
95,684	82,656	-0,271	-0,205
96,699	-97,089	-0,258	-0,047
97,714	24,271	-0,211	-0,122
98,728	167,944	-0,225	-0,224
99,743	-35,879	-0,329	-0,124
100,757	-82,912	-0,210	-0,047
101,772	89,960	-0,357	-0,279
102,787	15,635	-0,314	-0,172
103,801	101,713	-0,235	-0,192
104,816	110,047	-0,304	-0,255
105,830	-183,825	-0,175	0,002
106,845	-65,135	-0,227	-0,063
107,860	-117,481	-0,341	-0,043
108,874	23,820	-0,226	-0,130
109,889	153,517	-0,268	-0,257
110,903	57,881	-0,225	-0,154
111,918	-91,169	-0,339	-0,067
112,933	425,011	-0,168	-0,253
113,947	-10,216	-0,319	-0,147
114,962	-13,078	-0,270	-0,122
115,976	95,542	-0,166	-0,132
116,991	263,512	-0,095	-0,116
118,006	-51,861	-0,300	-0,097
119,020	-32,594	-0,232	-0,090
120,035	-95,525	-0,209	-0,039
121,049	62,491	-0,301	-0,209
122,064	-48,227	-0,278	-0,093
123,079	76,863	-0,141	-0,104
124,093	108,289	-0,202	-0,168
125,108	-21,301	-0,405	-0,172
126,122	162,850	-0,074	-0,073
127,137	159,590	-0,222	-0,216
128,151	-38,773	-0,207	-0,076
129,166	40,787	-0,143	-0,090
130,181	48,997	-0,319	-0,208
131,195	148,176	-0,278	-0,262
132,210	21,910	-0,383	-0,217
133,224	76,279	-0,245	-0,181
134,239	-29,547	-0,312	-0,124
135,254	-87,349	-0,228	-0,048
136,268	63,328	-0,187	-0,131
137,283	-42,357	-0,301	-0,106
138,297	800,000	-0,101	-0,281
139,312	26,007	-0,277	-0,161
140,327	42,047	-0,321	-0,203
141,341	-2,815	-0,262	-0,127
142,356	-54,025	-0,252	-0,079
143,370	-99,443	-0,146	-0,025
144,385	-99,347	-0,198	-0,034
145,400	-48,617	-0,343	-0,114
146,414	-91,408	-0,382	-0,075
147,429	-99,007	-0,331	-0,058
148,443	-114,915	-0,277	0,036
149,458	-1,833	-0,253	-0,124
150,473	-44,853	-0,257	-0,089
151,487	60,042	-0,226	-0,155
152,502	89,702	-0,213	-0,166
153,516	122,335	-0,192	-0,167
154,531	-43,387	-0,406	-0,142
155,546	174,588	-0,185	-0,187
156,560	169,652	-0,188	-0,187
157,575	82,260	-0,203	-0,153
158,589	732,281	-0,081	-0,152
159,604	-137,304	-0,256	-0,020
160,619	-57,681	-0,328	-0,099
161,633	66,495	-0,165	-0,116
162,648	147,874	-0,265	-0,248
163,662	361,403	-0,124	-0,173
164,677	141,962	-0,152	-0,140
165,692	635,951	-0,131	-0,232
166,706	45,902	-0,141	-0,090
167,721	203,449	-0,221	-0,238
168,735	326,497	-0,259	-0,346
169,750	4,987	-0,207	-0,105
170,764	-135,006	-0,199	-0,016
171,779	271,389	-0,170	-0,209
172,794	130,821	-0,190	-0,169
173,808	77,951	-0,166	-0,123
174,823	377,214	-0,202	-0,288
175,837	71,739	-0,215	-0,155
176,852	176,483	-0,191	-0,193
177,867	31,129	-0,124	-0,074
178,881	186,210	-0,171	-0,177
179,896	-66,846	-0,216	-0,059
180,910	-70,049	-0,172	-0,045
181,925	93,127	-0,200	-0,157
182,940	3,624	-0,280	-0,141
183,954	54,180	-0,250	-0,167
184,969	36,321	-0,232	-0,142
185,983	-26,546	-0,119	-0,048
186,998	71,700	-0,185	-0,133
188,013	105,958	-0,270	-0,221
189,027	-3,574	-0,256	-0,123
190,042	2,139	-0,156	-0,078
191,056	-17,150	-0,226	-0,098
192,071	-37,288	-0,258	-0,095
193,086	-29,665	-0,246	-0,097
194,100	221,739	-0,174	-0,194
195,115	329,327	-0,158	-0,212
196,129	226,992	-0,172	-0,194
197,144	-91,028	-0,157	0,031
198,159	-70,643	-0,270	-0,070
199,173	144,547	-0,189	-0,175
200,188	800,000	-0,041	-0,100
201,202	128,945	-0,199	-0,176
202,217	13,634	-0,216	-0,116
203,232	800,000	-0,159	-0,310
204,246	-101,256	-0,117	-0,020
205,261	230,830	-0,144	-0,164
206,275	396,581	-0,144	-0,208
207,290	-40,723	-0,225	-0,080
208,304	-43,997	-0,181	0,063
209,319	-144,927	-0,249	0,016
210,334	8,811	-0,192	-0,100
211,348	118,810	-0,224	-0,192
212,363	800,000	-0,083	-0,178
213,377	92,969	-0,218	-0,171
214,392	94,645	-0,248	-0,195
215,407	-32,495	-0,315	-0,121
216,421	-198,223	-0,155	-0,001
217,436	56,723	-0,237	-0,160
218,450	214,699	-0,194	-0,213
219,465	144,959	-0,177	-0,164
220,480	120,544	-0,179	-0,154
221,494	-111,821	-0,156	-0,022
222,509	122,664	-0,149	-0,129
223,523	315,801	-0,174	-0,228
224,538	800,000	-0,048	-0,144
225,553	-29,295	-0,187	-0,074
226,567	57,606	-0,250	-0,169
227,582	226,321	-0,114	-0,128
228,596	156,908	-0,227	-0,217
229,611	-62,896	-0,153	-0,043
230,626	-84,944	-0,139	-0,030
231,640	129,215	-0,117	-0,103
232,655	-200,000	-0,068	-0,249
233,669	215,952	-0,217	-0,238
234,684	93,887	-0,125	-0,098
235,699	37,299	-0,185	-0,113
236,713	262,700	-0,124	-0,150
237,728	-93,519	-0,215	-0,041
238,742	383,909	-0,115	-0,164
239,757	-52,552	-0,342	-0,108
240,772	197,240	-0,223	-0,235
241,786	-0,185	-0,184	-0,090
242,801	800,000	-0,080	-0,207
243,815	-43,517	-0,192	-0,066
244,830	-188,484	-0,134	0,001
245,844	21,609	-0,205	-0,115
246,859	-34,068	-0,094	-0,035
247,874	-141,166	-0,272	0,019
248,888	-169,292	-0,283	0,007
249,903	142,675	-0,204	-0,188
250,917	28,703	-0,127	-0,074
251,932	214,304	-0,179	-0,196
252,947	0,417	-0,106	-0,052
253,961	128,033	-0,149	-0,131
254,976	800,000	-0,128	-0,255
255,990	202,227	-0,186	-0,198
257,005	117,252	-0,031	0,026
258,020	-96,931	-0,147	-0,026
259,034	181,137	-0,080	-0,082
260,049	121,491	-0,145	-0,125
261,063	161,285	-0,111	-0,107
262,078	280,288	-0,157	-0,193
263,093	28,958	-0,184	-0,107
264,107	189,746	-0,086	-0,089
265,122	181,487	-0,198	-0,201
266,136	-58,881	-0,158	-0,047
267,151	17,776	-0,212	-0,116
268,166	235,436	-0,156	-0,177
269,180	-29,524	-0,220	-0,086
270,195	215,840	-0,171	-0,187
271,209	800,000	-0,100	-0,197
272,224	-45,541	-0,117	-0,040
273,239	-118,145	-0,193	0,023
274,253	-78,360	-0,144	0,034
275,268	59,908	-0,208	-0,141
276,282	277,733	-0,145	-0,178
277,297	-6,472	-0,110	-0,051
278,312	118,900	-0,238	-0,203
279,326	-47,998	-0,257	-0,085
280,341	-12,386	-0,108	-0,048
281,355	-155,596	-0,177	0,008
282,370	-48,857	-0,163	-0,053
283,384	451,613	-0,143	-0,218
284,399	312,190	-0,157	-0,203
285,414	800,000	-0,085	-0,163
286,428	-23,324	-0,247	-0,102
287,443	184,875	-0,149	-0,152
288,457	732,039	-0,089	-0,165
289,472	-74,053	-0,124	-0,031
290,487	63,937	-0,314	-0,216
291,501	175,657	-0,157	-0,157
292,516	150,095	-0,224	-0,209
293,530	356,756	-0,153	-0,211
294,545	-114,354	-0,096	-0,013
295,560	-15,182	-0,157	-0,069
296,574	162,500	-0,050	0,048
297,589	194,016	-0,153	-0,160
298,603	247,586	-0,152	-0,177
299,618	52,504	-0,290	-0,190
300,633	186,357	-0,153	-0,156
301,647	8,638	0,049	0,025
302,662	-4,806	-0,087	0,041
303,676	286,447	-0,140	-0,174
304,691	10,661	-0,161	-0,084
305,706	-52,157	-0,082	-0,026
306,720	-51,950	-0,184	-0,058
307,735	800,000	-0,031	-0,090
308,749	-52,524	-0,153	-0,048
309,764	-138,541	-0,149	-0,011
310,779	800,000	-0,036	-0,081
311,793	377,042	-0,099	-0,139
312,808	-48,176	-0,183	-0,060
313,822	-5,591	-0,167	-0,078
314,837	49,559	-0,229	-0,148
315,852	440,263	-0,076	-0,115
316,866	-64,826	-0,176	0,049
317,881	-54,233	-0,074	0,023
318,895	292,547	-0,140	-0,176
319,910	346,608	-0,190	-0,258
320,925	22,407	-0,176	-0,098
321,939	8,069	-0,198	-0,102
322,954	-83,623	-0,126	-0,027
323,968	123,151	-0,135	-0,116
324,983	-97,634	-0,131	-0,023
325,997	393,228	-0,133	-0,191
327,012	-72,560	-0,133	-0,033
328,027	-70,595	-0,097	-0,025
329,041	800,000	-0,048	-0,107
330,056	-146,767	-0,185	-0,011
331,070	62,217	-0,087	-0,060
332,085	-53,041	-0,257	0,081
333,100	80,074	-0,201	-0,148
334,114	-78,056	-0,240	-0,056
335,129	-200,000	-0,016	-0,082
336,143	170,699	-0,152	-0,149
337,158	-26,084	-0,130	-0,052
338,173	-188,468	-0,187	0,002
339,187	686,869	-0,060	-0,108
340,202	800,000	-0,046	-0,115
341,216	-28,982	-0,230	-0,090
342,231	-94,133	-0,155	-0,029
343,246	-146,816	-0,170	0,010
344,260	-200,000	-0,014	-0,127
345,275	20,563	-0,147	-0,081
346,289	-110,769	-0,163	0,023
347,304	-115,931	-0,137	-0,017
348,319	-200,000	-0,011	-0,156
349,333	116,585	-0,174	-0,146
350,348	4,385	-0,178	-0,089
351,362	340,555	-0,115	-0,154
352,377	-129,928	-0,115	0,011
353,392	-166,895	-0,178	-0,005
354,406	59,206	-0,148	-0,100
355,421	210,013	1305,923	1402,806
356,435	161,661	1465,571	1403,302
