DTS Sentinel unit serial number:	SN410029Multiplexer serial number:	ORYXHardware model number:	OX2-SRSoftware version number:	ORYX F/W v4,00 Oryx Data Collector v3.7.2.0data status	okinstallation	B3 Nyhavnadifferential loss correction	single-endedforward channel	channel 1reverse channel	N/Adate	2023/11/29time	19:07:30forward acquisition time	300,00reverse acquisition time	0,00gamma	499,1914k internal	0,3209k external	0,3209temperature offset calibration	1,0000default loss term (dB/km)	0,3820temperature slope calibration	1,0000multiplexer offset coefficient	1,0000multiplexer slope coefficient	1,0000fibre end	0,00T internal ref (°C)	11,00T ext. ref 1 (°C)	-4,31T ext. ref 2 (°C)	-4,43length (m)	temperature (°C)	Stokes	anti-Stokes-744,400	189,854	-0,271	-0,295
-743,385	-200,000	0,060	0,224
-742,371	800,000	-0,075	-0,190
-741,356	800,000	0,152	0,426
-740,342	58,028	-0,177	-0,126
-739,327	-200,000	-0,048	0,211
-738,312	235,542	-0,160	-0,192
-737,298	-200,000	0,008	0,225
-736,283	800,000	-0,098	-0,218
-735,269	536,475	0,119	0,206
-734,254	471,694	-0,158	-0,260
-733,239	584,379	-0,142	0,255
-732,225	371,657	-0,186	-0,274
-731,210	800,000	0,064	0,138
-730,196	516,030	-0,109	-0,186
-729,181	-18,378	-0,044	0,020
-728,167	185,465	-0,084	-0,090
-727,152	-200,000	-0,007	-0,157
-726,137	698,692	-0,042	-0,080
-725,123	800,000	0,010	-0,027
-724,108	264,807	-0,130	-0,164
-723,094	-200,000	0,025	-0,223
-722,079	491,525	0,095	-0,159
-721,064	-200,000	0,026	-0,089
-720,050	800,000	0,018	-0,044
-719,035	-1,353	0,063	0,032
-718,021	283,810	-0,044	-0,057
-717,006	-59,250	-0,130	-0,040
-715,991	622,922	-0,078	-0,142
-714,977	-200,000	0,021	-0,110
-713,962	-99,586	0,093	-0,017
-712,948	-178,365	0,058	-0,001
-711,933	7,845	0,075	-0,041
-710,918	-119,428	-0,290	-0,036
-709,904	-200,000	0,005	-0,133
-708,889	-59,983	-0,105	-0,032
-707,875	-200,000	0,033	-0,159
-706,860	219,787	0,069	-0,080
-705,845	212,969	0,036	-0,041
-704,831	696,324	-0,019	-0,037
-703,816	-200,000	-0,038	0,161
-702,802	84,921	0,054	0,043
-701,787	-93,664	-0,188	-0,037
-700,772	-33,442	0,008	0,003
-699,758	800,000	-0,056	-0,125
-698,743	-109,365	-0,086	0,013
-697,729	-153,334	0,112	0,006
-696,714	321,246	-0,045	0,062
-695,699	-40,523	-0,013	0,005
-694,685	608,028	0,081	-0,146
-693,670	297,107	-0,069	-0,092
-692,656	543,760	0,028	-0,048
-691,641	-159,196	0,087	0,003
-690,627	800,000	-0,050	0,152
-689,612	62,712	0,062	-0,045
-688,597	800,000	0,043	0,124
-687,583	-200,000	-0,007	-0,118
-686,568	-200,000	0,023	0,075
-685,554	-131,171	0,158	-0,015
-684,539	154,266	-0,074	0,074
-683,524	114,374	0,086	-0,076
-682,510	319,004	-0,015	0,021
-681,495	57,231	0,043	-0,030
-680,481	89,084	-0,026	0,021
-679,466	-24,548	-0,102	-0,044
-678,451	-200,000	-0,053	-0,196
-677,437	-93,871	-0,025	-0,005
-676,422	800,000	0,018	-0,050
-675,408	800,000	0,025	-0,074
-674,393	502,644	-0,063	-0,105
-673,378	319,116	-0,117	-0,161
-672,364	-126,276	-0,063	0,007
-671,349	-137,203	0,070	0,006
-670,335	608,189	0,064	0,116
-669,320	98,907	0,075	-0,062
-668,305	-133,328	-0,075	0,007
-667,291	32,208	0,062	-0,039
-666,276	800,000	-0,055	-0,117
-665,262	116,695	0,048	-0,043
-664,247	-200,000	-0,017	0,082
-663,232	-56,169	-0,154	-0,049
-662,218	398,784	-0,055	0,083
-661,203	-130,721	-0,093	-0,009
-660,189	-59,633	-0,149	-0,046
-659,174	-200,000	0,004	-0,099
-658,159	-60,585	-0,065	0,020
-657,145	-200,000	0,004	0,065
-656,130	-140,490	0,105	0,008
-655,116	-99,764	-0,022	-0,004
-654,101	162,640	-0,084	0,085
-653,086	-21,290	0,101	-0,044
-652,072	-40,068	-0,088	0,033
-651,057	-115,442	-0,073	0,010
-650,043	800,000	-0,060	-0,152
-649,028	194,927	0,074	-0,082
-648,014	-200,000	0,002	0,078
-646,999	386,624	-0,087	0,130
-645,984	800,000	0,052	0,119
-644,970	-132,922	-0,205	-0,019
-643,955	-39,008	-0,038	-0,015
-642,941	109,129	-0,151	-0,131
-641,926	800,000	-0,075	-0,162
-640,911	151,820	0,032	0,032
-639,897	-181,293	0,164	0,002
-638,882	-117,996	-0,023	-0,003
-637,868	-200,000	-0,035	0,153
-636,853	-111,768	0,109	-0,016
-635,838	479,231	-0,053	-0,087
-634,824	-109,006	0,006	-0,001
-633,809	-139,180	0,053	-0,004
-632,795	-56,960	0,071	0,023
-631,780	49,308	0,051	0,034
-630,765	37,584	-0,118	-0,076
-629,751	800,000	-0,010	-0,023
-628,736	221,003	0,072	-0,084
-627,722	243,693	-0,032	-0,038
-626,707	-200,000	-0,010	-0,034
-625,692	764,996	0,039	-0,077
-624,678	-200,000	0,010	0,057
-623,663	-200,000	0,005	0,030
-622,649	660,755	-0,039	-0,073
-621,634	-200,000	0,043	-0,154
-620,619	319,035	0,035	-0,049
-619,605	800,000	-0,016	0,049
-618,590	309,358	0,010	0,013
-617,576	-200,000	0,006	-0,040
-616,561	-41,112	-0,044	-0,016
-615,546	64,191	0,036	-0,026
-614,532	518,238	-0,051	-0,086
-613,517	115,109	0,059	-0,052
-612,503	77,396	-0,067	-0,051
-611,488	101,177	0,074	0,063
-610,474	215,613	0,043	0,049
-609,459	261,987	0,040	0,050
-608,444	228,223	0,047	-0,056
-607,430	87,024	-0,064	0,051
-606,415	12,775	-0,057	0,032
-605,401	800,000	0,065	-0,132
-604,386	-100,560	-0,079	-0,014
-603,371	108,239	-0,036	-0,031
-602,357	81,013	0,049	0,038
-601,342	574,361	-0,033	0,058
-600,328	-200,000	-0,018	-0,059
-599,313	-27,096	-0,094	-0,039
-598,298	800,000	0,009	-0,023
-597,284	232,443	-0,101	-0,120
-596,269	-16,580	0,028	-0,013
-595,255	-57,822	0,049	-0,015
-594,240	-200,000	0,011	-0,078
-593,225	-200,000	-0,011	-0,059
-592,211	202,907	0,018	0,020
-591,196	-10,623	-0,037	-0,017
-590,182	-69,557	-0,125	-0,034
-589,167	121,100	-0,108	0,097
-588,152	-68,786	0,129	-0,036
-587,138	-98,951	-0,075	0,014
-586,123	-200,000	-0,017	0,146
-585,109	63,374	-0,073	-0,052
-584,094	166,183	-0,100	-0,103
-583,079	-200,000	0,008	0,098
-582,065	-200,000	-0,010	-0,052
-581,050	124,274	0,057	0,052
-580,036	-36,053	-0,126	-0,049
-579,021	793,586	-0,045	-0,090
-578,006	0,069	0,014	0,007
-576,992	800,000	0,033	-0,102
-575,977	-64,376	0,097	-0,028
-574,963	-120,447	-0,094	-0,011
-573,948	492,597	-0,097	0,160
-572,934	459,543	0,018	-0,028
-571,919	152,652	-0,065	0,064
-570,904	-200,000	-0,019	-0,061
-569,890	679,587	0,085	-0,161
-568,875	745,988	-0,003	0,006
-567,861	422,924	0,016	0,025
-566,846	-146,456	0,117	0,007
-565,831	-200,000	0,019	-0,066
-564,817	-83,580	0,099	0,023
-563,802	552,756	0,016	-0,028
-562,788	168,722	-0,057	-0,058
-561,773	487,408	0,038	-0,062
-560,758	144,908	-0,060	0,058
-559,744	291,440	0,087	0,114
-558,729	214,049	-0,029	0,033
-557,715	198,586	-0,113	0,124
-556,700	32,651	-0,019	-0,012
-555,685	800,000	0,012	-0,038
-554,671	-94,436	-0,059	0,011
-553,656	-26,480	0,036	-0,015
-552,642	4,294	0,065	-0,034
-551,627	-200,000	0,001	0,047
-550,612	-200,000	0,007	-0,121
-549,598	800,000	0,031	-0,082
-548,583	80,540	-0,060	-0,046
-547,569	-200,000	-0,022	0,098
-546,554	-40,232	0,119	0,045
-545,539	-200,000	-0,019	0,106
-544,525	800,000	0,016	0,035
-543,510	13,743	-0,030	0,017
-542,496	121,190	-0,081	-0,072
-541,481	-200,000	0,047	-0,245
-540,466	-3,418	0,106	0,053
-539,452	-200,000	-0,004	0,086
-538,437	-125,325	0,015	0,002
-537,423	-200,000	-0,031	-0,129
-536,408	389,356	-0,041	-0,061
-535,393	66,978	-0,101	-0,074
-534,379	108,246	-0,056	-0,048
-533,364	108,178	0,081	0,069
-532,350	-200,000	-0,028	0,115
-531,335	195,420	0,079	0,087
-530,321	-33,489	-0,080	0,032
-529,306	800,000	0,058	0,166
-528,291	-185,615	-0,195	0,002
-527,277	27,688	-0,060	0,036
-526,262	-200,000	-0,049	-0,156
-525,248	-200,000	0,168	0,000
-524,233	-64,959	0,106	0,031
-523,218	482,473	0,147	0,240
-522,204	-120,297	0,083	0,010
-521,189	-186,374	-0,090	0,001
-520,175	-111,872	-0,120	0,017
-519,160	645,988	0,064	-0,119
-518,145	-10,509	-0,077	0,036
-517,131	15,954	0,070	-0,039
-516,116	-25,538	-0,110	0,046
-515,102	315,540	-0,048	-0,065
-514,087	-200,000	0,059	-0,290
-513,072	399,437	-0,069	-0,105
-512,058	-84,974	0,102	0,023
-511,043	228,129	0,125	-0,147
-510,029	-200,000	0,007	0,074
-509,014	-200,000	0,016	0,072
-507,999	-17,477	-0,050	0,023
-506,985	-200,000	-0,010	-0,102
-505,970	-146,531	0,138	-0,009
-504,956	209,432	-0,084	0,095
-503,941	-200,000	0,051	0,189
-502,926	-31,677	-0,038	-0,015
-501,912	-200,000	-0,010	0,120
-500,897	-66,131	0,040	0,011
-499,883	78,048	-0,069	0,053
-498,868	-61,581	-0,056	-0,017
-497,853	-200,000	0,004	-0,071
-496,839	-179,173	-0,122	-0,002
-495,824	122,296	0,034	0,031
-494,810	215,057	-0,016	-0,018
-493,795	-24,296	0,091	0,039
-492,781	-200,000	0,024	0,095
-491,766	800,000	-0,041	-0,083
-490,751	-97,165	0,123	0,023
-489,737	110,176	0,065	-0,056
-488,722	-200,000	-0,012	0,110
-487,708	-19,775	0,032	-0,014
-486,693	-200,000	0,000	0,055
-485,678	186,919	-0,124	0,133
-484,664	141,697	-0,096	-0,091
-483,649	-78,224	-0,083	0,020
-482,635	-161,409	0,064	-0,002
-481,620	-200,000	-0,024	-0,155
-480,605	800,000	-0,018	-0,054
-479,591	-200,000	-0,023	0,107
-478,576	56,073	-0,131	0,091
-477,562	239,819	-0,050	-0,060
-476,547	-49,892	0,114	0,039
-475,532	-200,000	-0,028	-0,120
-474,518	-200,000	-0,007	0,116
-473,503	-200,000	0,002	0,049
-472,489	800,000	0,014	0,035
-471,474	-86,584	0,030	0,006
-470,459	800,000	0,012	-0,035
-469,445	-200,000	0,016	-0,070
-468,430	-200,000	0,019	-0,111
-467,416	210,711	0,091	0,103
-466,401	-106,267	-0,006	-0,001
-465,386	-22,972	-0,077	0,033
-464,372	-200,000	0,001	0,139
-463,357	-139,967	-0,143	0,011
-462,343	114,314	-0,126	-0,110
-461,328	800,000	-0,058	0,161
-460,313	47,318	-0,022	-0,015
-459,299	800,000	0,054	0,118
-458,284	101,169	0,021	0,018
-457,270	371,381	-0,035	0,051
-456,255	139,898	-0,032	0,030
-455,241	-44,667	-0,088	0,031
-454,226	-158,369	0,068	-0,003
-453,211	-200,000	-0,020	-0,108
-452,197	-75,358	0,084	-0,021
-451,182	-38,437	-0,119	0,045
-450,168	408,515	0,057	0,086
-449,153	656,913	0,017	0,031
-448,138	-171,671	0,086	0,002
-447,124	-94,857	0,027	-0,005
-446,109	251,799	0,057	-0,069
-445,095	713,919	-0,027	0,051
-444,080	-200,000	-0,012	-0,062
-443,065	118,190	0,089	0,079
-442,051	-95,668	0,173	-0,033
-441,036	-42,424	0,059	-0,021
-440,022	-154,466	-0,067	0,003
-439,007	53,573	-0,103	-0,071
-437,992	265,443	0,059	0,074
-436,978	201,518	0,044	0,049
-435,963	-200,000	0,031	0,157
-434,949	-39,267	-0,104	-0,039
-433,934	613,022	0,020	0,035
-432,919	277,921	-0,054	-0,069
-431,905	161,577	0,079	0,079
-430,890	727,250	0,018	0,035
-429,876	-60,291	0,106	0,032
-428,861	800,000	0,048	0,116
-427,846	-4,431	0,145	0,071
-426,832	-95,632	0,088	-0,017
-425,817	-54,579	-0,109	-0,035
-424,803	-58,606	-0,073	-0,023
-423,788	-111,864	0,124	0,018
-422,773	-200,000	0,017	0,087
-421,759	220,349	-0,027	0,031
-420,744	-31,315	-0,031	0,013
-419,730	-66,960	0,132	0,037
-418,715	154,914	0,072	-0,071
-417,701	-200,000	0,080	0,000
-416,686	-59,112	0,090	0,028
-415,671	800,000	-0,076	0,157
-414,657	-200,000	-0,005	-0,102
-413,642	-69,023	0,064	0,017
-412,628	-40,197	-0,082	0,031
-411,613	-200,000	0,000	-0,004
-410,598	-200,000	0,007	0,078
-409,584	-200,000	-0,013	0,219
-408,569	-200,000	0,024	0,103
-407,555	800,000	-0,042	0,091
-406,540	-200,000	0,009	0,100
-405,525	-53,143	-0,187	-0,061
-404,511	28,513	0,041	0,025
-403,496	-96,561	-0,125	0,023
-402,482	-135,293	-0,143	0,012
-401,467	-151,208	0,108	-0,006
-400,452	800,000	0,039	0,091
-399,438	-46,706	0,128	-0,045
-398,423	259,662	-0,037	0,046
-397,409	209,967	-0,064	-0,072
-396,394	-10,697	0,089	-0,042
-395,379	-200,000	0,003	0,118
-394,365	0,688	-0,007	-0,004
-393,350	23,602	0,048	-0,028
-392,336	63,063	0,058	-0,042
-391,321	800,000	0,018	-0,044
-390,306	-200,000	-0,013	0,103
-389,292	93,183	-0,095	-0,077
-388,277	-101,360	0,060	-0,010
-387,263	29,126	-0,020	-0,012
-386,248	243,766	-0,053	-0,063
-385,233	-200,000	0,031	0,141
-384,219	-200,000	-0,004	-0,061
-383,204	-82,610	-0,098	-0,023
-382,190	-200,000	-0,012	-0,062
-381,175	-200,000	-0,044	-0,241
-380,160	326,180	0,056	-0,077
-379,146	-188,036	-0,125	0,001
-378,131	-46,492	0,172	-0,060
-377,117	-139,788	-0,096	-0,007
-376,102	89,341	0,028	-0,022
-375,088	104,027	0,085	0,071
-374,073	155,886	0,030	-0,029
-373,058	-200,000	-0,028	0,139
-372,044	78,734	0,084	0,064
-371,029	-200,000	0,002	0,027
-370,015	2,635	0,105	-0,054
-369,000	-200,000	0,026	-0,108
-367,985	70,726	-0,111	0,082
-366,971	391,285	-0,062	-0,092
-365,956	-70,635	0,084	-0,022
-364,942	-200,000	-0,004	0,069
-363,927	800,000	0,010	-0,027
-362,912	800,000	0,038	0,111
-361,898	4,106	-0,087	-0,045
-360,883	111,466	-0,052	0,045
-359,869	14,964	-0,085	-0,048
-358,854	-200,000	-0,010	0,064
-357,839	-200,000	0,013	0,150
-356,825	332,296	-0,017	0,024
-355,810	-200,000	-0,008	0,055
-354,796	34,852	0,161	0,100
-353,781	45,690	-0,106	-0,070
-352,766	302,930	-0,067	-0,088
-351,752	96,505	0,106	-0,087
-350,737	-200,000	0,001	0,076
-349,723	591,988	0,041	0,072
-348,708	-200,000	-0,000	0,056
-347,693	58,478	-0,012	-0,008
-346,679	94,591	-0,180	-0,146
-345,664	-200,000	-0,016	0,056
-344,650	-107,918	0,047	0,007
-343,635	76,445	0,003	0,002
-342,620	14,766	-0,029	-0,016
-341,606	-200,000	-0,045	-0,179
-340,591	-97,112	-0,177	0,033
-339,577	800,000	0,027	-0,075
-338,562	-177,699	0,041	0,001
-337,548	217,440	0,048	0,055
-336,533	74,025	0,066	0,050
-335,518	-81,887	0,016	0,004
-334,504	-200,000	-0,028	-0,167
-333,489	316,764	-0,063	-0,085
-332,475	73,595	-0,068	0,051
-331,460	800,000	0,040	0,099
-330,445	63,655	0,038	0,027
-329,431	238,051	-0,103	0,123
-328,416	-200,000	0,030	0,122
-327,402	-200,000	0,004	-0,028
-326,387	-200,000	-0,150	0,000
-325,372	94,578	0,039	-0,032
-324,358	-66,628	-0,108	0,030
-323,343	155,551	0,062	0,061
-322,329	-200,000	0,017	0,128
-321,314	117,215	0,011	0,010
-320,299	-200,000	-0,029	-0,134
-319,285	-200,000	-0,008	0,057
-318,270	800,000	-0,010	-0,029
-317,256	372,277	0,037	0,053
-316,241	-47,825	-0,090	0,031
-315,226	-88,103	0,272	-0,058
-314,212	-200,000	0,004	0,063
-313,197	421,014	0,115	0,177
-312,183	-119,509	0,077	0,009
-311,168	-73,768	-0,136	-0,035
-310,153	184,056	-0,067	-0,071
-309,139	800,000	0,058	0,146
-308,124	-200,000	-0,028	-0,100
-307,110	137,953	-0,061	-0,057
-306,095	-200,000	0,008	0,060
-305,080	800,000	0,045	0,096
-304,066	109,421	0,037	-0,032
-303,051	-200,000	0,001	-0,049
-302,037	800,000	0,083	-0,172
-301,022	-200,000	0,001	-0,082
-300,008	-117,114	0,096	-0,012
-298,993	800,000	-0,008	-0,021
-297,978	-111,524	0,102	0,015
-296,964	349,467	-0,037	0,053
-295,949	-89,984	-0,097	-0,020
-294,935	8,271	-0,119	-0,064
-293,920	-124,806	0,105	0,011
-292,905	208,289	0,055	0,062
-291,891	-138,397	-0,115	0,009
-290,876	-200,000	0,014	0,113
-289,862	-29,644	-0,103	0,042
-288,847	800,000	-0,028	-0,085
-287,832	211,154	-0,067	-0,076
-286,818	-43,621	-0,066	-0,024
-285,803	-157,232	0,059	0,003
-284,789	800,000	0,026	0,063
-283,774	-200,000	0,008	0,039
-282,759	-148,913	0,143	-0,008
-281,745	82,772	0,014	0,011
-280,730	219,766	-0,036	0,041
-279,716	-106,534	-0,094	0,015
-278,701	127,317	-0,059	0,053
-277,686	672,353	0,049	0,091
-276,672	44,263	0,176	0,115
-275,657	-200,000	-0,012	-0,112
-274,643	-35,971	-0,182	-0,070
-273,628	341,347	0,043	-0,061
-272,613	-200,000	-0,011	-0,087
-271,599	-9,019	-0,076	-0,036
-270,584	335,549	0,085	0,117
-269,570	294,228	-0,026	0,034
-268,555	86,441	-0,013	-0,010
-267,540	57,066	-0,040	0,028
-266,526	-36,688	0,048	0,018
-265,511	23,436	-0,087	0,051
-264,497	-94,322	0,073	-0,014
-263,482	120,606	0,043	-0,038
-262,467	-200,000	0,003	-0,085
-261,453	-48,759	0,130	0,044
-260,438	-175,007	0,090	0,002
-259,424	800,000	-0,018	-0,056
-258,409	-1,569	0,022	-0,011
-257,395	-187,327	0,227	-0,002
-256,380	-200,000	0,014	-0,063
-255,365	-200,000	0,007	0,072
-254,351	48,146	-0,137	0,091
-253,336	-200,000	-0,020	-0,095
-252,322	155,338	-0,093	0,091
-251,307	74,240	-0,036	0,027
-250,292	-108,019	-0,023	0,003
-249,278	800,000	0,006	-0,012
-248,263	15,120	0,055	0,030
-247,249	-200,000	0,005	0,054
-246,234	-200,000	-0,028	-0,097
-245,219	800,000	0,043	-0,093
-244,205	-200,000	0,009	-0,092
-243,190	707,347	-0,059	-0,111
-242,176	70,402	0,037	0,027
-241,161	-200,000	0,021	-0,088
-240,146	420,089	-0,086	0,131
-239,132	-200,000	0,012	0,064
-238,117	-200,000	0,004	-0,058
-237,103	374,474	-0,061	0,088
-236,088	800,000	-0,032	-0,072
-235,073	-155,431	0,135	-0,006
-234,059	249,533	0,100	0,121
-233,044	-50,967	-0,060	0,020
-232,030	800,000	0,076	-0,165
-231,015	277,542	-0,138	-0,175
-230,000	-200,000	-0,025	-0,106
-228,986	128,578	0,075	0,068
-227,971	-54,046	-0,092	-0,029
-226,957	347,080	0,023	0,033
-225,942	-122,377	0,105	-0,012
-224,927	-200,000	-0,001	0,020
-223,913	-200,000	-0,017	-0,137
-222,898	419,423	-0,088	-0,135
-221,884	800,000	0,027	-0,066
-220,869	744,502	0,043	0,082
-219,855	369,364	-0,065	0,094
-218,840	-200,000	0,030	0,159
-217,825	-200,000	0,012	-0,090
-216,811	85,168	-0,034	-0,027
-215,796	-22,447	-0,084	0,036
-214,782	-200,000	-0,019	-0,111
-213,767	800,000	0,118	-0,244
-212,752	800,000	-0,030	0,069
-211,738	-47,534	0,029	-0,010
-210,723	124,098	0,069	0,061
-209,709	-200,000	-0,001	-0,083
-208,694	-118,695	0,126	0,016
-207,679	-97,224	0,038	0,007
-206,665	-135,790	-0,028	-0,002
-205,650	-110,995	-0,069	0,010
-204,636	53,484	0,017	-0,012
-203,621	-200,000	-0,015	-0,071
-202,606	-5,427	-0,121	0,059
-201,592	288,148	-0,043	0,055
-200,577	800,000	0,058	0,116
-199,563	-11,843	-0,085	-0,040
-198,548	-109,637	0,097	0,014
-197,533	110,457	0,069	0,059
-196,519	-21,265	-0,112	-0,048
-195,504	-200,000	0,024	0,125
-194,490	586,598	0,016	0,029
-193,475	164,560	-0,076	-0,076
-192,460	800,000	-0,037	-0,105
-191,446	-200,000	-0,026	0,112
-190,431	759,113	0,008	-0,015
-189,417	348,205	-0,044	0,062
-188,402	154,685	0,033	0,032
-187,387	289,035	0,093	-0,120
-186,373	339,710	0,060	-0,083
-185,358	-200,000	-0,031	-0,153
-184,344	-9,510	0,103	0,049
-183,329	-119,769	-0,019	-0,002
-182,315	-0,393	0,075	-0,038
-181,300	-22,633	0,079	-0,034
-180,285	81,705	-0,139	-0,106
-179,271	-200,000	0,007	-0,122
-178,256	-200,000	-0,019	-0,132
-177,242	-125,761	0,056	0,006
-176,227	-200,000	-0,011	0,058
-175,212	-200,000	0,037	0,167
-174,198	317,433	-0,096	-0,129
-173,183	-104,263	0,032	-0,005
-172,169	21,500	-0,170	0,098
-171,154	-200,000	-0,013	0,118
-170,139	-40,310	0,075	0,028
-169,125	156,212	-0,048	0,047
-168,110	178,073	0,030	-0,031
-167,096	25,643	0,066	0,039
-166,081	-200,000	0,020	-0,180
-165,066	-96,118	-0,088	-0,016
-164,052	642,521	-0,031	0,057
-163,037	420,792	0,014	0,021
-162,023	-9,283	0,034	-0,016
-161,008	228,121	0,080	0,092
-159,993	-161,357	0,122	-0,004
-158,979	651,126	-0,045	0,082
-157,964	82,887	0,075	-0,058
-156,950	546,977	0,046	-0,078
-155,935	-31,841	-0,095	0,038
-154,920	119,018	0,056	-0,049
-153,906	0,557	0,151	-0,076
-152,891	-53,023	-0,147	-0,048
-151,877	800,000	-0,033	-0,088
-150,862	-200,000	-0,042	-0,132
-149,847	-200,000	-0,014	0,094
-148,833	-200,000	-0,029	0,098
-147,818	98,756	0,035	-0,029
-146,804	-200,000	0,038	0,181
-145,789	-200,000	-0,014	0,086
-144,775	800,000	-0,055	-0,148
-143,760	244,935	-0,127	-0,151
-142,745	157,153	-0,053	-0,052
-141,731	800,000	-0,034	0,069
-140,716	-72,628	0,082	-0,021
-139,702	-153,483	0,213	0,010
-138,687	-161,010	-0,168	-0,006
-137,672	-200,000	0,038	-0,139
-136,658	60,304	-0,040	-0,028
-135,643	800,000	0,025	0,077
-134,629	-98,115	0,063	-0,011
-133,614	289,851	0,091	0,117
-132,599	-110,335	-0,056	-0,008
-131,585	98,990	-0,015	0,013
-130,570	-79,756	-0,153	0,036
-129,556	800,000	-0,038	0,098
-128,541	63,025	-0,043	0,030
-127,526	28,528	-0,137	-0,082
-126,512	-200,000	-0,044	0,170
-125,497	410,105	0,020	-0,031
-124,483	330,921	0,082	-0,113
-123,468	-64,521	-0,055	-0,016
-122,453	140,916	0,107	-0,100
-121,439	109,539	-0,131	-0,111
-120,424	30,397	-0,174	-0,105
-119,410	273,802	-0,028	0,035
-118,395	-105,167	0,111	0,018
-117,380	-139,510	0,115	-0,009
-116,366	238,126	0,042	-0,049
-115,351	-116,544	-0,108	-0,014
-114,337	18,900	-0,033	0,019
-113,322	-125,108	0,098	0,011
-112,307	-47,476	-0,111	-0,038
-111,293	-66,024	0,158	0,044
-110,278	800,000	0,017	-0,034
-109,264	19,034	-0,033	0,019
-108,249	-200,000	0,010	0,351
-107,234	-200,000	0,016	-0,078
-106,220	10,250	-0,069	0,037
-105,205	800,000	0,088	-0,175
-104,191	-134,945	0,073	0,006
-103,176	-198,482	0,148	0,001
-102,162	-200,000	-0,027	0,139
-101,147	227,495	-0,105	0,121
-100,132	100,025	0,171	-0,140
-99,118	-200,000	0,037	0,128
-98,103	374,595	-0,051	0,074
-97,089	97,114	-0,041	-0,033
-96,074	-200,000	0,000	0,047
-95,059	800,000	0,051	-0,102
-94,045	392,754	-0,034	-0,050
-93,030	0,220	0,094	0,047
-92,016	800,000	-0,031	0,062
-91,001	-200,000	-0,027	-0,093
-89,986	-200,000	-0,001	0,027
-88,972	-200,000	0,006	0,116
-87,957	551,513	-0,088	0,150
-86,943	-200,000	0,017	-0,059
-85,928	-104,445	-0,093	0,015
-84,913	15,042	-0,089	-0,049
-83,899	144,957	0,030	-0,028
-82,884	-179,968	-0,049	-0,001
-81,870	114,839	0,171	-0,148
-80,855	-152,609	-0,051	-0,003
-79,840	-200,000	0,012	-0,098
-78,826	-200,000	-0,005	-0,052
-77,811	-73,303	-0,097	-0,025
-76,797	-55,243	-0,079	-0,025
-75,782	398,430	0,018	-0,026
-74,767	-200,000	-0,038	0,170
-73,753	800,000	-0,030	0,088
-72,738	242,020	-0,037	-0,044
-71,724	-200,000	-0,021	0,139
-70,709	-200,000	0,029	0,203
-69,694	-73,824	-0,089	0,023
-68,680	319,177	-0,088	-0,118
-67,665	42,612	0,026	-0,017
-66,651	800,000	-0,039	0,079
-65,636	-66,672	-0,051	0,014
-64,622	-6,090	-0,092	-0,044
-63,607	800,000	0,050	0,133
-62,592	-99,956	-0,114	-0,020
-61,578	-200,000	0,009	-0,074
-60,563	-200,000	0,036	0,145
-59,549	800,000	0,020	0,049
-58,534	19,293	-2,006	-1,135
-57,519	450,900	-1,333	-2,087
-56,505	-200,000	-0,395	-4,263
-55,490	462,250	0,945	1,494
-54,476	800,000	5,119	11,260
-53,461	-200,000	20,826	328,923
-52,446	800,000	756,564	2321,657
-51,432	550,256	1662,244	2826,239
-50,417	73,649	1664,703	1230,241
-49,403	18,861	1537,494	867,279
-48,388	12,871	1460,289	794,732
-47,373	19,026	1451,327	819,404
-46,359	15,939	1440,659	798,642
-45,344	11,145	1436,116	773,244
-44,330	11,038	1434,437	771,802
-43,315	10,993	1432,642	770,592
-42,300	11,051	1430,658	769,770
-41,286	11,058	1429,623	769,212
-40,271	11,042	1428,282	768,385
-39,257	11,053	1427,032	767,733
-38,242	11,068	1426,014	767,229
-37,227	11,078	1424,743	766,561
-36,213	11,068	1423,585	765,858
-35,198	11,103	1422,463	765,391
-34,184	11,100	1421,604	764,884
-33,169	11,030	1420,308	763,827
-32,154	11,140	1419,262	763,753
-31,140	11,129	1417,690	762,826
-30,125	11,154	1416,824	762,446
-29,111	11,135	1415,592	761,664
-28,096	11,112	1414,531	760,953
-27,082	11,069	1413,206	760,009
-26,067	11,005	1412,517	759,310
-25,052	11,084	1411,146	758,911
-24,038	11,010	1410,483	758,178
-23,023	10,991	1409,462	757,511
-22,009	10,983	1408,306	756,819
-20,994	11,026	1407,242	756,421
-19,979	11,046	1406,342	756,000
-18,965	11,003	1405,511	755,321
-17,950	11,003	1404,597	754,800
-16,936	11,019	1403,719	754,376
-15,921	10,894	1402,638	753,182
-14,906	10,945	1401,570	752,817
-13,892	10,977	1400,544	752,384
-12,877	10,917	1400,107	751,838
-11,863	10,920	1399,270	751,375
-10,848	10,921	1398,225	750,790
-9,833	10,875	1397,267	750,030
-8,819	10,838	1396,711	749,529
-7,804	10,839	1395,729	748,980
-6,790	10,868	1394,738	748,550
-5,775	10,850	1393,565	747,809
-4,760	10,863	1392,499	747,265
-3,746	10,835	1391,788	746,726
-2,731	10,869	1390,741	746,292
-1,717	10,805	1390,078	745,612
-0,702	10,809	1388,158	744,568
0,313	14,752	1301,930	716,416
1,327	30,954	693,405	418,453
2,342	47,848	120,263	79,118
3,356	-2,338	16,568	8,170
4,371	10,711	3,409	1,830
5,386	-31,075	0,902	0,357
6,400	800,000	0,153	0,431
7,415	-40,200	-0,307	-0,112
8,429	84,000	-0,249	-0,191
9,444	46,197	-0,291	-0,190
10,459	15,007	-0,363	-0,200
11,473	-39,019	-0,426	-0,157
12,488	83,614	-0,171	-0,132
13,502	-17,570	-0,403	-0,178
14,517	6,273	-0,365	-0,190
15,531	136,401	-0,343	-0,316
16,546	99,895	-0,324	-0,265
17,561	81,948	-0,442	-0,337
18,575	-133,550	-0,198	-0,017
19,590	121,647	-0,342	-0,300
20,604	-166,217	-0,280	-0,008
21,619	210,078	-0,287	-0,317
22,634	220,751	-0,384	-0,434
23,648	198,872	-0,400	-0,432
24,663	113,794	-0,350	-0,299
25,677	88,732	-0,287	-0,225
26,692	107,958	-0,274	-0,230
27,707	-27,383	-0,348	-0,142
28,721	103,965	-0,226	-0,187
29,736	22,950	-0,387	-0,223
30,750	129,727	-0,396	-0,357
31,765	159,674	-0,392	-0,385
32,780	28,170	-0,377	-0,224
33,794	353,541	-0,232	-0,325
34,809	249,824	-0,194	-0,232
35,823	20,094	-0,357	-0,202
36,838	28,020	-0,334	-0,198
37,853	259,564	-0,397	-0,483
38,867	92,704	-0,305	-0,242
39,882	144,345	-0,285	-0,268
40,896	81,678	-0,317	-0,241
41,911	236,328	-0,299	-0,348
42,926	-25,184	-0,351	-0,146
43,940	47,997	-0,351	-0,231
44,955	173,546	-0,438	-0,445
45,969	21,813	-0,363	-0,207
46,984	-0,158	-0,336	-0,167
47,999	49,549	-0,320	-0,212
49,013	101,117	-0,315	-0,258
50,028	31,912	-0,317	-0,192
51,042	116,195	-0,325	-0,279
52,057	109,573	-0,271	-0,228
53,071	151,672	-0,326	-0,312
54,086	50,231	-0,236	-0,156
55,101	-58,263	-0,369	-0,112
56,115	104,969	-0,362	-0,300
57,130	-59,725	-0,452	-0,135
58,144	171,542	-0,385	-0,388
59,159	-48,385	-0,366	-0,123
60,174	50,391	-0,394	-0,261
61,188	-116,401	-0,381	-0,049
62,203	110,307	-0,292	-0,246
63,217	65,776	-0,213	-0,152
64,232	-35,418	-0,218	-0,083
65,247	-93,748	-0,334	-0,064
66,261	69,351	-0,406	-0,293
67,276	-40,120	-0,432	-0,157
68,290	86,802	-0,226	-0,175
69,305	-14,843	-0,393	-0,176
70,320	-30,673	-0,208	-0,082
71,334	-164,416	-0,136	-0,004
72,349	5,977	-0,341	-0,177
73,363	37,798	-0,439	-0,273
74,378	3,201	-0,366	-0,186
75,393	-97,274	-0,297	-0,054
76,407	-66,259	-0,240	-0,067
77,422	69,973	-0,221	-0,160
78,436	140,280	-0,216	-0,200
79,451	102,762	-0,261	-0,214
80,466	64,236	-0,441	-0,311
81,480	104,921	-0,312	-0,258
82,495	134,004	-0,241	-0,219
83,509	78,291	-0,369	-0,276
84,524	14,768	-0,246	-0,134
85,539	-121,618	-0,231	0,026
86,553	-135,522	-0,217	0,018
87,568	98,482	-0,285	-0,230
88,582	120,431	-0,262	-0,228
89,597	361,604	-0,220	-0,309
90,611	84,199	-0,276	-0,211
91,626	-35,713	-0,235	-0,089
92,641	85,172	-0,297	-0,228
93,655	-27,715	-0,436	-0,176
94,670	66,445	-0,335	-0,238
95,684	-57,643	-0,268	-0,082
96,699	98,109	-0,274	-0,221
97,714	-53,592	-0,305	-0,097
98,728	-6,148	-0,152	-0,072
99,743	125,490	-0,379	-0,335
100,757	-24,386	-0,314	-0,130
101,772	28,579	-0,243	-0,143
102,787	162,489	-0,309	-0,303
103,801	125,005	-0,119	-0,105
104,816	254,188	-0,295	-0,354
105,830	232,474	-0,190	-0,218
106,845	-39,324	-0,247	-0,090
107,860	130,023	-0,139	-0,125
108,874	67,360	-0,273	-0,194
109,889	-1,032	-0,326	-0,161
110,903	195,368	-0,213	-0,226
111,918	-200,000	-0,052	-0,277
112,933	75,276	-0,313	-0,230
113,947	227,412	-0,176	-0,201
114,962	-94,020	-0,250	-0,048
115,976	245,820	-0,242	-0,286
116,991	-0,555	-0,292	-0,144
118,006	124,194	-0,275	-0,241
119,020	537,657	-0,141	-0,234
120,035	-13,089	-0,223	-0,101
121,049	-83,919	-0,317	-0,070
122,064	-15,284	-0,289	-0,129
123,079	268,731	-0,166	-0,203
124,093	1,867	-0,316	-0,159
125,108	59,310	-0,273	-0,187
126,122	181,109	-0,149	-0,153
127,137	-88,302	-0,360	-0,075
128,151	-184,745	-0,275	-0,003
129,166	-151,630	-0,305	-0,015
130,181	-12,443	-0,326	-0,148
131,195	11,471	-0,256	-0,136
132,210	-0,565	-0,268	-0,132
133,224	197,385	-0,216	-0,230
134,239	-19,183	-0,249	-0,107
135,254	-72,226	-0,276	-0,071
136,268	471,005	-0,160	-0,251
137,283	800,000	-0,153	-0,303
138,297	68,968	-0,255	-0,183
139,312	53,231	-0,225	-0,150
140,327	110,863	-0,253	-0,212
141,341	191,300	-0,223	-0,235
142,356	24,845	-0,200	-0,116
143,370	-28,060	-0,287	-0,115
144,385	-200,000	-0,110	-0,359
145,400	80,341	-0,246	-0,184
146,414	202,762	-0,259	-0,279
147,429	389,572	-0,110	-0,159
148,443	119,376	-0,272	-0,234
149,458	-133,429	-0,264	0,023
150,473	-76,769	-0,267	-0,065
151,487	166,520	-0,234	-0,231
152,502	69,114	-0,282	-0,202
153,516	49,973	-0,238	-0,156
154,531	-24,144	-0,316	-0,131
155,546	3,308	-0,289	-0,146
156,560	102,036	-0,276	-0,224
157,575	127,047	-0,114	-0,100
158,589	137,142	-0,224	-0,204
159,604	-19,125	-0,312	-0,135
160,619	334,354	-0,285	-0,385
161,633	-67,798	-0,352	-0,095
162,648	123,688	-0,198	-0,173
163,662	358,066	-0,162	-0,225
164,677	128,825	-0,282	-0,250
165,692	86,393	-0,208	-0,160
166,706	206,779	-0,264	-0,286
167,721	37,303	-0,385	-0,237
168,735	44,603	-0,260	-0,166
169,750	-117,311	-0,246	-0,031
170,764	157,344	-0,158	-0,152
171,779	208,730	-0,145	-0,158
172,794	305,199	-0,125	-0,162
173,808	-111,446	-0,292	-0,041
174,823	253,173	-0,211	-0,251
175,837	326,363	-0,148	-0,198
176,852	77,067	-0,228	-0,168
177,867	173,656	-0,138	-0,139
178,881	418,401	-0,194	-0,289
179,896	357,550	-0,117	-0,162
180,910	-30,275	-0,159	-0,062
181,925	63,638	-0,229	-0,160
182,940	49,487	-0,141	-0,092
183,954	14,153	-0,287	-0,155
184,969	-141,382	-0,244	-0,017
185,983	-123,205	-0,264	-0,029
186,998	-200,000	-0,017	-0,280
188,013	-86,696	-0,384	0,081
189,027	185,259	-0,143	-0,148
190,042	-49,325	-0,248	-0,082
191,056	19,349	-0,359	-0,200
192,071	14,562	-0,278	-0,150
193,086	428,318	-0,047	-0,071
194,100	51,448	-0,104	-0,068
195,115	52,811	-0,201	-0,133
196,129	2,573	-0,188	-0,094
197,144	800,000	-0,072	-0,218
198,159	144,330	-0,158	-0,147
199,173	39,867	-0,218	-0,136
200,188	109,194	-0,212	-0,176
201,202	22,420	-0,168	-0,095
202,217	-36,544	-0,200	-0,074
203,232	-11,761	-0,301	-0,136
204,246	41,290	-0,263	-0,164
205,261	116,684	-0,221	-0,188
206,275	114,240	-0,190	-0,160
207,290	528,988	-0,108	-0,178
208,304	25,875	-0,102	-0,059
209,319	-200,000	-0,034	-0,131
210,334	121,543	-0,228	-0,197
211,348	-47,206	-0,307	-0,103
212,363	-51,368	-0,172	-0,055
213,377	-157,752	-0,093	-0,004
214,392	-91,853	-0,124	0,024
215,407	800,000	-0,058	-0,168
216,421	204,159	-0,158	-0,170
217,436	268,897	-0,187	-0,228
218,450	-164,045	-0,141	0,004
219,465	-21,669	-0,350	-0,147
220,480	-200,000	-0,014	-0,231
221,494	800,000	-0,064	-0,149
222,509	-200,000	-0,081	-0,339
223,523	715,036	-0,156	-0,288
224,538	800,000	-0,106	-0,235
225,553	378,901	-0,188	-0,267
226,567	327,735	-0,189	-0,252
227,582	299,410	-0,096	-0,123
228,596	51,483	-0,242	-0,159
229,611	800,000	-0,089	-0,173
230,626	-26,361	-0,176	-0,071
231,640	-6,913	-0,108	-0,050
232,655	144,885	-0,232	-0,215
233,669	44,321	-0,215	-0,136
234,684	39,498	-0,217	-0,134
235,699	110,416	-0,235	-0,195
236,713	545,133	-0,085	-0,142
237,728	-200,000	-0,035	-0,140
238,742	21,839	-0,204	-0,115
239,757	293,396	-0,158	-0,199
240,772	226,391	-0,202	-0,227
241,786	-72,913	-0,306	-0,077
242,801	34,101	-0,158	-0,095
243,815	-61,430	-0,205	-0,059
244,830	701,145	-0,082	-0,150
245,844	15,503	-0,324	-0,175
246,859	-114,025	-0,210	-0,028
247,874	323,803	-0,094	-0,124
248,888	72,890	-0,311	-0,224
249,903	-110,615	-0,146	0,021
250,917	-56,324	-0,235	-0,072
251,932	231,337	-0,156	-0,177
252,947	-119,745	-0,036	-0,004
253,961	159,522	-0,202	-0,194
254,976	-80,276	-0,157	-0,036
255,990	-55,988	-0,191	-0,058
257,005	788,002	-0,134	-0,255
258,020	-200,000	-0,033	-0,146
259,034	59,956	-0,221	-0,150
260,049	154,300	-0,178	-0,168
261,063	692,471	-0,063	-0,115
262,078	71,924	-0,193	-0,139
263,093	180,669	-0,227	-0,230
264,107	83,042	-0,204	-0,153
265,122	-59,946	-0,070	-0,021
266,136	257,041	-0,133	-0,158
267,151	-8,014	-0,200	-0,093
268,166	-2,802	-0,298	-0,143
269,180	687,918	-0,136	-0,246
270,195	408,048	-0,145	-0,212
271,209	-15,958	-0,218	-0,095
272,224	-200,000	-0,053	-0,273
273,239	-111,457	-0,254	-0,035
274,253	459,231	-0,116	-0,179
275,268	-200,000	-0,025	-0,128
276,282	-42,225	-0,199	-0,070
277,297	13,947	-0,339	-0,181
278,312	12,914	-0,277	-0,147
279,326	-200,000	-0,020	-0,115
280,341	-200,000	0,011	0,050
281,355	363,781	-0,098	-0,136
282,370	142,941	-0,146	-0,134
283,384	-33,029	-0,235	-0,089
284,399	-36,358	-0,211	-0,078
285,414	-23,355	-0,188	0,077
286,428	-51,229	-0,149	-0,048
287,443	228,575	-0,110	-0,124
288,457	800,000	-0,117	-0,262
289,472	800,000	-0,106	-0,229
290,487	-113,876	-0,036	0,005
291,501	-3,538	-0,276	-0,131
292,516	194,449	-0,149	-0,155
293,530	-111,717	-0,024	0,003
294,545	-90,689	-0,124	-0,024
295,560	-159,913	-0,113	-0,004
296,574	347,219	-0,080	-0,108
297,589	101,739	-0,178	-0,142
298,603	-101,074	-0,166	-0,028
299,618	135,763	-0,072	-0,065
300,633	49,428	-0,036	-0,023
301,647	752,418	-0,131	-0,244
302,662	-113,380	-0,065	-0,009
303,676	-41,530	-0,089	-0,031
304,691	38,270	-0,141	-0,086
305,706	514,022	-0,121	-0,195
306,720	-85,306	-0,291	-0,062
307,735	-78,658	-0,187	-0,044
308,749	149,653	-0,098	-0,091
309,764	557,925	-0,149	-0,247
310,779	800,000	-0,042	-0,102
311,793	800,000	-0,042	-0,120
312,808	629,369	-0,119	-0,208
313,822	-200,000	-0,019	-0,189
314,837	663,836	-0,079	-0,141
315,852	-93,576	-0,084	-0,016
316,866	-200,000	-0,007	0,047
317,881	-148,884	-0,129	0,007
318,895	-0,112	-0,156	-0,076
319,910	230,977	-0,042	0,048
320,925	800,000	-0,054	-0,117
321,939	636,772	-0,147	-0,257
322,954	31,673	-0,038	0,022
323,968	315,010	-0,077	-0,100
324,983	88,853	-0,218	-0,166
325,997	143,796	-0,206	-0,189
327,012	453,620	-0,116	-0,177
328,027	-200,000	-0,029	-0,111
329,041	757,041	-0,094	-0,174
330,056	-88,599	-0,160	-0,032
331,070	30,168	-0,078	0,046
332,085	-115,638	-0,099	0,013
333,100	30,547	-0,137	-0,080
334,114	199,480	-0,136	-0,143
335,129	800,000	-0,073	-0,200
336,143	85,996	-0,230	-0,174
337,158	-200,000	-0,043	-0,152
338,173	-31,254	-0,177	-0,068
339,187	-117,881	-0,155	-0,019
340,202	218,206	-0,121	-0,132
341,216	68,519	-0,215	-0,151
342,231	-165,214	-0,223	0,007
343,246	77,076	-0,169	-0,123
344,260	-79,266	-0,153	-0,035
345,275	-139,181	-0,106	0,008
346,289	-148,043	-0,274	-0,015
347,304	166,298	-0,127	0,124
348,319	-48,482	-0,136	-0,045
349,333	540,174	-0,067	-0,110
350,348	-35,904	-0,188	-0,069
351,362	3,107	-0,111	-0,055
352,377	-200,000	-0,016	-0,104
353,392	-38,668	-0,108	-0,039
354,406	144,271	-0,149	-0,136
355,421	205,808	1310,289	1395,596
356,435	158,258	1470,445	1396,089
