DTS Sentinel unit serial number:	SN410029Multiplexer serial number:	ORYXHardware model number:	OX2-SRSoftware version number:	ORYX F/W v4,00 Oryx Data Collector v3.7.2.0data status	okinstallation	B3 Nyhavnadifferential loss correction	single-endedforward channel	channel 1reverse channel	N/Adate	2023/11/29time	17:42:30forward acquisition time	300,00reverse acquisition time	0,00gamma	499,1914k internal	0,3209k external	0,3209temperature offset calibration	1,0000default loss term (dB/km)	0,3820temperature slope calibration	1,0000multiplexer offset coefficient	1,0000multiplexer slope coefficient	1,0000fibre end	0,00T internal ref (°C)	11,27T ext. ref 1 (°C)	-4,03T ext. ref 2 (°C)	-4,13length (m)	temperature (°C)	Stokes	anti-Stokes-744,400	212,405	-0,206	-0,236
-743,385	-200,000	0,081	0,282
-742,371	322,572	-0,182	-0,253
-741,356	800,000	0,096	0,257
-740,342	380,097	-0,175	-0,260
-739,327	800,000	0,131	0,319
-738,312	350,698	-0,213	-0,306
-737,298	-200,000	-0,068	0,299
-736,283	296,064	-0,176	-0,235
-735,269	-200,000	0,056	0,273
-734,254	63,339	-0,200	-0,145
-733,239	17,370	-0,239	0,138
-732,225	222,976	-0,158	-0,185
-731,210	-95,964	0,189	0,036
-730,196	-104,217	-0,137	-0,023
-729,181	-200,000	0,013	-0,063
-728,167	800,000	-0,052	0,145
-727,152	-128,939	-0,044	-0,004
-726,137	-200,000	-0,015	0,066
-725,123	800,000	-0,032	0,074
-724,108	373,821	-0,015	-0,022
-723,094	96,002	-0,205	-0,170
-722,079	24,571	-0,117	0,070
-721,064	58,136	0,066	-0,047
-720,050	714,879	-0,032	0,062
-719,035	-142,611	-0,110	0,008
-718,021	266,220	0,065	-0,083
-717,006	233,287	0,050	0,059
-715,991	-200,000	0,024	-0,076
-714,977	-0,143	0,008	0,004
-713,962	-200,000	0,005	-0,027
-712,948	158,409	-0,042	0,042
-711,933	-142,996	0,092	0,006
-710,918	-74,949	0,142	-0,037
-709,904	50,610	-0,146	0,100
-708,889	-200,000	-0,006	-0,136
-707,875	-200,000	-0,003	-0,095
-706,860	493,684	0,057	0,096
-705,845	800,000	-0,048	0,130
-704,831	-200,000	-0,001	0,088
-703,816	374,475	0,015	-0,023
-702,802	-200,000	0,001	-0,206
-701,787	464,067	-0,106	-0,172
-700,772	-200,000	-0,011	-0,072
-699,758	116,295	0,041	-0,036
-698,743	-200,000	-0,003	0,026
-697,729	73,451	-0,023	-0,017
-696,714	-47,010	-0,019	0,007
-695,699	-0,682	-0,164	-0,084
-694,685	-200,000	-0,005	0,026
-693,670	-147,249	0,057	-0,003
-692,656	362,565	-0,017	0,025
-691,641	-114,136	0,175	-0,024
-690,627	800,000	0,016	0,044
-689,612	-200,000	0,025	0,082
-688,597	103,783	-0,069	-0,059
-687,583	-41,332	-0,142	-0,053
-686,568	462,746	-0,044	-0,072
-685,554	107,293	0,042	0,036
-684,539	-200,000	-0,002	0,079
-683,524	23,095	0,068	0,040
-682,510	70,557	-0,155	0,116
-681,495	471,332	-0,075	0,122
-680,481	-200,000	0,002	0,095
-679,466	-200,000	-0,008	-0,147
-678,451	-89,357	-0,058	-0,012
-677,437	800,000	-0,024	-0,053
-676,422	360,038	0,117	0,170
-675,408	-17,694	-0,058	-0,026
-674,393	339,957	-0,038	0,054
-673,378	20,420	0,090	0,052
-672,364	38,019	-0,148	-0,095
-671,349	40,366	-0,056	-0,036
-670,335	436,892	-0,052	0,083
-669,320	386,765	0,051	-0,077
-668,305	-70,724	0,056	-0,015
-667,291	-177,852	-0,045	0,001
-666,276	-10,811	0,059	-0,028
-665,262	-200,000	-0,005	-0,039
-664,247	28,535	0,146	0,089
-663,232	-64,853	0,040	-0,012
-662,218	40,228	0,057	0,037
-661,203	-128,568	-0,206	0,021
-660,189	72,727	-0,118	0,089
-659,174	529,078	-0,030	0,051
-658,159	22,845	0,085	-0,050
-657,145	503,776	0,021	0,035
-656,130	369,824	-0,068	-0,100
-655,116	124,991	0,079	-0,072
-654,101	800,000	-0,019	0,044
-653,086	46,093	0,050	-0,033
-652,072	178,662	-0,087	-0,092
-651,057	452,674	0,041	0,066
-650,043	30,090	-0,171	-0,105
-649,028	-85,644	-0,095	0,021
-648,014	-200,000	0,003	-0,009
-646,999	-36,132	-0,066	0,025
-645,984	166,967	0,039	-0,040
-644,970	-200,000	0,003	-0,060
-643,955	-2,654	-0,039	-0,020
-642,941	-200,000	-0,016	-0,131
-641,926	64,952	-0,059	-0,043
-640,911	166,698	0,029	0,030
-639,897	-4,678	-0,090	0,045
-638,882	117,613	-0,040	0,035
-637,868	-200,000	-0,007	0,093
-636,853	74,183	0,068	-0,052
-635,838	-89,646	-0,121	0,025
-634,824	-64,848	-0,224	0,065
-633,809	-88,644	0,189	-0,040
-632,795	21,053	0,026	0,015
-631,780	800,000	0,018	0,051
-630,765	430,982	-0,047	0,074
-629,751	-143,317	-0,077	0,005
-628,736	800,000	-0,026	-0,058
-627,722	-45,186	0,144	-0,051
-626,707	-200,000	-0,020	-0,078
-625,692	541,838	-0,035	0,061
-624,678	800,000	-0,028	-0,082
-623,663	-62,076	-0,129	-0,038
-622,649	-60,381	-0,018	-0,005
-621,634	-200,000	-0,013	-0,114
-620,619	9,969	0,058	0,032
-619,605	-200,000	-0,050	-0,163
-618,590	-198,096	0,076	-0,000
-617,576	-200,000	-0,002	-0,070
-616,561	-200,000	-0,018	0,064
-615,546	-21,294	-0,066	-0,029
-614,532	-200,000	0,024	-0,130
-613,517	-200,000	-0,052	-0,218
-612,503	-14,185	-0,147	0,068
-611,488	-29,879	0,125	0,051
-610,474	800,000	0,028	-0,070
-609,459	355,325	-0,059	-0,085
-608,444	0,950	0,079	0,041
-607,430	-200,000	0,017	-0,226
-606,415	103,317	0,039	0,033
-605,401	-111,229	0,096	0,014
-604,386	609,693	-0,044	-0,079
-603,371	73,172	-0,077	-0,058
-602,357	800,000	-0,091	0,186
-601,342	4,447	0,047	0,025
-600,328	719,919	-0,044	-0,085
-599,313	800,000	0,035	-0,070
-598,298	-200,000	-0,020	-0,175
-597,284	514,321	-0,032	0,053
-596,269	-31,792	0,059	-0,024
-595,255	-200,000	-0,001	0,161
-594,240	199,271	0,142	0,157
-593,225	-57,711	-0,057	-0,018
-592,211	-71,477	0,086	0,023
-591,196	-200,000	0,006	-0,064
-590,182	-200,000	0,009	-0,109
-589,167	234,493	0,122	0,145
-588,152	487,572	-0,083	0,137
-587,138	-13,751	-0,156	0,073
-586,123	-64,878	0,176	-0,051
-585,109	-120,143	-0,123	-0,015
-584,094	-83,569	0,106	-0,024
-583,079	707,095	-0,082	-0,156
-582,065	187,752	0,020	-0,022
-581,050	-91,475	0,128	0,026
-580,036	-200,000	0,001	-0,206
-579,021	-200,000	-0,013	-0,102
-578,006	800,000	-0,059	-0,152
-576,992	-200,000	-0,020	-0,191
-575,977	104,490	-0,024	-0,021
-574,963	623,461	-0,078	0,143
-573,948	-123,572	0,135	-0,015
-572,934	643,731	-0,054	0,099
-571,919	414,725	-0,071	-0,109
-570,904	-3,782	0,040	0,020
-569,890	-200,000	-0,025	-0,082
-568,875	-37,626	0,067	0,026
-567,861	202,550	-0,068	0,076
-566,846	-82,995	-0,041	-0,010
-565,831	92,243	-0,102	0,083
-564,817	-200,000	0,004	-0,033
-563,802	309,760	-0,095	-0,128
-562,788	-162,022	0,032	0,001
-561,773	-200,000	-0,013	0,188
-560,758	0,471	-0,086	0,044
-559,744	125,616	-0,042	-0,038
-558,729	800,000	0,029	-0,081
-557,715	54,813	-0,055	0,038
-556,700	15,884	0,088	0,050
-555,685	-145,865	-0,166	-0,010
-554,671	505,504	-0,088	0,148
-553,656	-36,723	0,230	0,089
-552,642	-200,000	0,009	-0,041
-551,627	-62,366	-0,097	-0,029
-550,612	-200,000	-0,002	-0,057
-549,598	31,957	-0,028	0,018
-548,583	800,000	-0,051	0,156
-547,569	-0,611	0,159	0,081
-546,554	62,034	0,097	0,070
-545,539	-200,000	0,002	0,172
-544,525	-200,000	0,011	-0,125
-543,510	-180,895	-0,068	-0,001
-542,496	171,697	-0,079	0,082
-541,481	238,835	-0,041	-0,049
-540,466	24,838	0,028	0,017
-539,452	45,475	-0,009	-0,006
-538,437	186,937	0,059	-0,064
-537,423	590,724	0,035	0,062
-536,408	599,889	-0,045	0,081
-535,393	800,000	0,016	0,036
-534,379	-70,945	0,158	-0,043
-533,364	716,119	-0,048	0,093
-532,350	800,000	-0,022	0,054
-531,335	174,852	0,078	0,082
-530,321	-200,000	-0,001	-0,015
-529,306	80,745	-0,047	-0,037
-528,291	-20,915	-0,119	-0,052
-527,277	-39,203	0,014	0,005
-526,262	-137,641	-0,010	0,001
-525,248	-21,722	-0,047	0,021
-524,233	-200,000	-0,005	0,083
-523,218	230,109	-0,061	-0,072
-522,204	-200,000	-0,015	-0,086
-521,189	800,000	0,009	-0,021
-520,175	407,344	-0,086	-0,132
-519,160	-200,000	0,024	-0,084
-518,145	377,002	0,065	0,096
-517,131	107,502	-0,091	-0,078
-516,116	174,564	0,130	-0,135
-515,102	-200,000	0,006	-0,023
-514,087	-200,000	-0,022	-0,094
-513,072	13,264	-0,040	-0,022
-512,058	59,420	0,087	0,061
-511,043	634,557	-0,024	0,044
-510,029	372,808	0,071	0,104
-509,014	458,487	-0,116	0,186
-507,999	-156,504	0,043	-0,002
-506,985	-125,594	0,005	0,001
-505,970	-200,000	-0,042	-0,184
-504,956	27,918	-0,043	-0,026
-503,941	72,342	-0,050	-0,037
-502,926	-77,479	0,157	-0,039
-501,912	272,155	0,069	-0,088
-500,897	79,114	-0,039	0,030
-499,883	420,198	0,055	-0,084
-498,868	-66,831	-0,186	-0,052
-497,853	-134,846	-0,028	0,002
-496,839	-200,000	0,006	0,081
-495,824	-200,000	-0,013	-0,072
-494,810	800,000	-0,022	0,045
-493,795	800,000	-0,044	0,095
-492,781	43,136	0,078	0,051
-491,766	-39,031	-0,116	-0,044
-490,751	99,007	-0,072	-0,060
-489,737	-102,124	0,184	0,031
-488,722	-200,000	0,011	0,049
-487,708	278,470	0,054	0,069
-486,693	133,853	-0,077	0,072
-485,678	151,095	0,070	0,069
-484,664	358,359	-0,033	-0,048
-483,649	-200,000	-0,006	-0,023
-482,635	800,000	-0,039	0,083
-481,620	800,000	-0,023	-0,053
-480,605	-23,522	0,070	0,030
-479,591	800,000	0,079	0,248
-478,576	-3,204	-0,097	-0,049
-477,562	62,801	-0,031	0,022
-476,547	800,000	0,001	0,002
-475,532	-7,513	0,102	-0,049
-474,518	-111,788	-0,086	0,012
-473,503	-12,550	0,091	-0,042
-472,489	545,286	0,038	0,066
-471,474	-200,000	0,003	0,017
-470,459	-200,000	-0,019	-0,149
-469,445	525,757	-0,042	-0,072
-468,430	298,807	-0,076	-0,100
-467,416	164,911	0,120	0,122
-466,401	-131,746	-0,153	-0,014
-465,386	23,737	0,045	-0,027
-464,372	-172,791	0,064	0,001
-463,357	25,825	-0,056	-0,034
-462,343	4,745	0,013	0,007
-461,328	281,665	-0,144	-0,186
-460,313	-200,000	-0,029	0,100
-459,299	-200,000	0,011	0,078
-458,284	518,478	0,033	0,056
-457,270	-35,280	-0,061	0,024
-456,255	-63,041	0,082	-0,024
-455,241	-200,000	0,007	0,028
-454,226	152,129	-0,177	-0,174
-453,211	94,688	0,076	-0,062
-452,197	-200,000	-0,004	0,034
-451,182	107,364	0,108	-0,092
-450,168	199,698	-0,040	0,044
-449,153	-22,387	0,052	-0,023
-448,138	-80,348	-0,147	0,035
-447,124	331,864	-0,047	0,065
-446,109	-116,257	0,177	0,023
-445,095	800,000	-0,051	0,115
-444,080	371,568	0,041	0,060
-443,065	83,139	0,061	-0,047
-442,051	55,933	0,111	0,077
-441,036	-122,033	-0,154	-0,018
-440,022	-44,889	0,045	-0,016
-439,007	297,783	-0,010	0,014
-437,992	4,086	0,006	-0,003
-436,978	-195,344	0,157	0,001
-435,963	185,334	0,025	0,026
-434,949	-200,000	0,025	0,120
-433,934	800,000	-0,023	0,068
-432,919	219,422	0,065	-0,075
-431,905	37,453	0,057	0,036
-430,890	-20,683	0,079	0,034
-429,876	-200,000	0,010	0,111
-428,861	-200,000	-0,006	0,042
-427,846	22,055	-0,090	0,053
-426,832	-200,000	-0,029	0,107
-425,817	-200,000	0,012	0,145
-424,803	7,014	-0,088	-0,047
-423,788	47,394	0,077	0,051
-422,773	-89,643	0,038	-0,008
-421,759	-200,000	0,003	0,078
-420,744	-200,000	0,004	0,077
-419,730	111,553	-0,076	-0,066
-418,715	-119,272	0,108	-0,013
-417,701	-77,216	0,115	-0,028
-416,686	791,549	-0,039	0,077
-415,671	214,008	0,060	0,068
-414,657	24,798	0,108	0,064
-413,642	-200,000	0,010	-0,068
-412,628	-123,660	-0,064	0,007
-411,613	-115,805	0,111	0,015
-410,598	-200,000	0,003	-0,021
-409,584	-77,220	0,135	0,033
-408,569	12,460	0,069	-0,038
-407,555	171,607	0,074	0,076
-406,540	-200,000	-0,011	0,204
-405,525	-200,000	-0,016	0,071
-404,511	-107,284	-0,079	-0,012
-403,496	-200,000	0,017	-0,139
-402,482	800,000	0,007	-0,020
-401,467	773,817	-0,019	-0,037
-400,452	-47,605	0,098	-0,034
-399,438	152,774	0,103	0,101
-398,423	475,414	0,008	-0,012
-397,409	260,101	-0,037	0,046
-396,394	-39,930	0,068	0,025
-395,379	800,000	-0,063	-0,146
-394,365	-148,004	0,119	-0,007
-393,350	-105,439	0,073	-0,012
-392,336	-93,508	-0,095	0,019
-391,321	-145,802	-0,232	-0,015
-390,306	-49,496	0,104	-0,035
-389,292	-200,000	-0,004	0,041
-388,277	81,916	-0,054	0,042
-387,263	83,238	0,079	-0,061
-386,248	501,311	0,082	0,135
-385,233	-200,000	-0,025	-0,145
-384,219	800,000	-0,032	-0,098
-383,204	-124,740	0,097	0,011
-382,190	-109,263	-0,131	-0,020
-381,175	-141,217	0,039	0,003
-380,160	48,819	0,133	-0,089
-379,146	-200,000	-0,004	0,060
-378,131	454,781	-0,042	0,066
-377,117	-200,000	0,004	-0,034
-376,102	-24,918	-0,194	-0,082
-375,088	-46,123	0,179	-0,063
-374,073	800,000	0,038	0,084
-373,058	-200,000	0,002	0,012
-372,044	81,758	-0,058	0,045
-371,029	563,468	0,037	-0,064
-370,015	-143,444	-0,173	0,012
-369,000	97,560	0,023	0,019
-367,985	209,186	0,032	0,036
-366,971	-49,262	-0,086	-0,029
-365,956	-33,625	-0,023	-0,009
-364,942	12,211	0,094	0,052
-363,927	-141,373	0,043	0,003
-362,912	427,275	-0,049	-0,076
-361,898	-200,000	0,018	-0,124
-360,883	-200,000	0,023	-0,082
-359,869	-105,878	-0,115	0,018
-358,854	800,000	-0,055	-0,149
-357,839	-81,841	0,033	0,008
-356,825	44,035	0,154	0,100
-355,810	386,745	-0,029	-0,042
-354,796	-39,948	0,048	-0,018
-353,781	-200,000	-0,001	-0,036
-352,766	-2,484	-0,048	-0,024
-351,752	14,610	-0,035	-0,020
-350,737	-200,000	-0,005	-0,032
-349,723	344,285	0,035	-0,049
-348,708	-59,469	0,093	0,028
-347,693	-63,656	0,079	-0,023
-346,679	-107,682	-0,150	-0,023
-345,664	-200,000	0,021	0,076
-344,650	41,352	0,044	-0,028
-343,635	428,605	-0,048	-0,074
-342,620	258,635	-0,022	0,028
-341,606	-65,414	0,046	-0,013
-340,591	101,469	-0,056	0,047
-339,577	68,687	0,057	0,042
-338,562	800,000	-0,044	-0,102
-337,548	-75,560	0,104	-0,026
-336,533	42,382	-0,017	-0,011
-335,518	334,093	-0,057	0,079
-334,504	-151,970	0,196	-0,010
-333,489	587,528	-0,019	0,034
-332,475	-200,000	-0,018	-0,111
-331,460	361,650	0,087	-0,124
-330,445	800,000	-0,028	0,063
-329,431	800,000	0,057	0,122
-328,416	-200,000	-0,001	0,011
-327,402	800,000	0,058	0,143
-326,387	-32,757	0,128	0,050
-325,372	343,797	-0,068	-0,096
-324,358	-200,000	-0,008	-0,102
-323,343	572,905	-0,020	-0,035
-322,329	-166,373	0,147	0,004
-321,314	-10,269	-0,069	0,033
-320,299	120,339	0,141	0,125
-319,285	-163,213	-0,050	-0,002
-318,270	-28,053	-0,139	-0,057
-317,256	-65,729	0,115	0,033
-316,241	135,313	0,026	0,024
-315,226	800,000	-0,033	0,100
-314,212	69,717	0,216	0,158
-313,197	800,000	-0,059	-0,128
-312,183	271,710	-0,069	-0,086
-311,168	199,872	0,073	-0,081
-310,153	27,795	-0,106	-0,064
-309,139	499,840	-0,092	0,152
-308,124	2,478	-0,036	-0,019
-307,110	100,233	0,067	-0,055
-306,095	403,751	0,090	0,136
-305,080	-200,000	-0,002	0,125
-304,066	-200,000	-0,012	0,049
-303,051	313,209	-0,021	-0,028
-302,037	-64,303	-0,061	-0,018
-301,022	-100,769	-0,017	-0,003
-300,008	-86,008	0,058	0,013
-298,993	-148,561	-0,027	-0,002
-297,978	-200,000	0,006	0,079
-296,964	223,724	-0,083	-0,096
-295,949	-145,662	0,041	-0,003
-294,935	510,544	-0,074	-0,124
-293,920	661,157	-0,020	-0,037
-292,905	-17,991	-0,101	0,045
-291,891	-86,774	0,098	0,021
-290,876	474,219	-0,013	0,021
-289,862	800,000	-0,042	0,104
-288,847	37,464	-0,139	-0,088
-287,832	800,000	0,020	0,045
-286,818	-200,000	-0,014	-0,065
-285,803	-127,364	0,183	0,019
-284,789	-156,723	-0,026	0,001
-283,774	800,000	0,046	0,096
-282,759	-37,375	-0,146	0,055
-281,745	800,000	0,015	-0,045
-280,730	160,633	-0,060	-0,059
-279,716	-3,818	-0,076	-0,038
-278,701	-191,592	0,086	-0,001
-277,686	-200,000	0,013	0,162
-276,672	800,000	0,034	0,104
-275,657	-107,327	-0,061	-0,009
-274,643	-39,106	-0,083	0,031
-273,628	800,000	-0,023	-0,064
-272,613	90,953	0,018	-0,014
-271,599	-200,000	0,013	0,077
-270,584	130,219	0,040	0,036
-269,570	133,412	0,015	-0,014
-268,555	-200,000	-0,009	-0,124
-267,540	800,000	-0,036	-0,078
-266,526	207,517	0,044	0,050
-265,511	146,845	-0,056	-0,054
-264,497	-200,000	0,013	0,063
-263,482	355,809	0,041	0,058
-262,467	0,715	0,075	-0,038
-261,453	-200,000	-0,003	0,047
-260,438	-200,000	-0,006	-0,136
-259,424	-63,086	0,151	0,044
-258,409	-200,000	0,018	0,145
-257,395	110,715	0,097	0,083
-256,380	800,000	0,082	0,181
-255,365	92,087	-0,109	0,087
-254,351	68,544	0,096	-0,070
-253,336	277,121	-0,010	-0,012
-252,322	-48,719	-0,096	-0,033
-251,307	-200,000	-0,008	0,042
-250,292	-200,000	-0,021	-0,108
-249,278	135,996	0,054	-0,050
-248,263	-162,062	0,106	-0,004
-247,249	-17,510	0,127	-0,057
-246,234	-200,000	0,001	-0,119
-245,219	-45,650	-0,079	-0,028
-244,205	-171,985	-0,045	-0,001
-243,190	82,468	-0,039	-0,030
-242,176	-200,000	-0,010	-0,045
-241,161	191,302	0,068	-0,073
-240,146	-200,000	0,011	-0,050
-239,132	59,540	0,121	-0,084
-238,117	600,759	-0,020	0,035
-237,103	73,850	-0,133	-0,099
-236,088	-10,382	-0,086	-0,040
-235,073	48,591	0,085	-0,056
-234,059	329,254	-0,040	0,055
-233,044	-83,469	0,130	0,029
-232,030	-90,175	-0,069	-0,014
-231,015	96,820	-0,140	-0,114
-230,000	-30,953	0,032	0,013
-228,986	-168,940	0,095	-0,002
-227,971	356,981	0,007	0,010
-226,957	160,935	-0,071	-0,070
-225,942	-37,253	0,046	0,017
-224,927	-95,841	-0,238	0,045
-223,913	-136,512	-0,133	0,011
-222,898	49,624	0,026	-0,017
-221,884	220,466	-0,067	0,076
-220,869	-63,482	-0,033	-0,010
-219,855	-200,000	-0,001	0,226
-218,840	456,097	-0,070	0,111
-217,825	-65,736	0,076	0,021
-216,811	-200,000	-0,001	0,154
-215,796	124,492	-0,072	0,064
-214,782	-31,617	-0,047	-0,019
-213,767	-200,000	0,017	-0,059
-212,752	501,404	-0,055	0,090
-211,738	800,000	0,069	0,169
-210,723	72,708	-0,085	-0,063
-209,709	800,000	-0,009	0,027
-208,694	-56,984	-0,097	0,030
-207,679	-200,000	0,000	-0,045
-206,665	-200,000	-0,010	0,063
-205,650	140,868	0,028	0,026
-204,636	-4,851	0,092	-0,045
-203,621	420,871	0,029	0,045
-202,606	-78,948	-0,044	0,011
-201,592	-200,000	-0,033	-0,107
-200,577	-200,000	-0,014	-0,093
-199,563	-10,533	-0,119	-0,056
-198,548	-13,629	0,126	-0,058
-197,533	126,891	0,040	-0,036
-196,519	-62,676	0,154	-0,045
-195,504	-124,207	-0,081	-0,009
-194,490	-200,000	-0,093	0,000
-193,475	39,247	-0,076	-0,048
-192,460	100,960	-0,127	0,105
-191,446	3,195	0,120	0,062
-190,431	220,535	0,085	0,097
-189,417	-64,764	0,112	0,032
-188,402	-200,000	-0,006	-0,043
-187,387	-99,047	-0,078	0,014
-186,373	52,528	-0,032	-0,022
-185,358	-106,956	-0,048	0,008
-184,344	-37,042	0,043	-0,016
-183,329	263,983	0,057	0,071
-182,315	259,817	0,039	-0,048
-181,300	381,076	-0,054	-0,080
-180,285	323,902	-0,005	-0,007
-179,271	-200,000	0,023	0,148
-178,256	-200,000	-0,021	-0,070
-177,242	191,380	0,044	0,047
-176,227	-49,797	-0,084	0,028
-175,212	800,000	-0,052	0,117
-174,198	800,000	0,013	-0,027
-173,183	-0,300	0,059	0,030
-172,169	55,823	0,010	0,007
-171,154	495,899	-0,055	-0,090
-170,139	195,041	0,022	0,024
-169,125	408,203	0,060	0,091
-168,110	800,000	-0,022	0,059
-167,096	800,000	-0,033	0,065
-166,081	-37,774	-0,071	0,027
-165,066	237,033	0,070	0,083
-164,052	86,589	0,087	-0,068
-163,037	187,762	0,051	0,054
-162,023	58,926	-0,111	-0,078
-161,008	-51,691	0,058	0,019
-159,993	-200,000	0,009	-0,037
-158,979	10,781	-0,102	-0,055
-157,964	126,754	0,105	-0,094
-156,950	-200,000	-0,056	-0,180
-155,935	-200,000	-0,017	-0,176
-154,920	613,488	0,043	-0,077
-153,906	-17,787	-0,114	0,050
-152,891	-83,076	0,103	-0,023
-151,877	110,104	-0,058	0,049
-150,862	800,000	-0,058	0,168
-149,847	98,188	-0,103	0,084
-148,833	-24,420	0,112	0,047
-147,818	-32,992	0,120	-0,047
-146,804	54,197	0,049	0,033
-145,789	83,849	-0,101	0,078
-144,775	325,779	-0,055	-0,074
-143,760	33,530	-0,069	0,042
-142,745	150,697	-0,031	0,030
-141,731	-134,366	0,088	0,008
-140,716	-200,000	0,012	0,119
-139,702	-200,000	0,028	0,095
-138,687	-200,000	0,009	0,132
-137,672	-200,000	0,002	-0,086
-136,658	111,544	-0,072	-0,061
-135,643	-200,000	-0,010	-0,117
-134,629	337,952	-0,030	0,041
-133,614	-153,254	-0,102	-0,005
-132,599	459,503	-0,021	-0,033
-131,585	-178,274	0,099	-0,002
-130,570	-200,000	-0,014	0,158
-129,556	800,000	0,017	0,041
-128,541	800,000	0,049	-0,112
-127,526	-101,383	-0,115	-0,020
-126,512	526,371	0,047	0,079
-125,497	-200,000	-0,001	-0,051
-124,483	-75,243	0,136	-0,034
-123,468	121,043	0,046	0,040
-122,453	800,000	-0,026	-0,063
-121,439	2,462	0,068	0,035
-120,424	800,000	0,053	-0,111
-119,410	684,765	-0,019	0,036
-118,395	-42,590	0,127	0,046
-117,380	-200,000	-0,027	0,100
-116,366	-200,000	0,000	0,024
-115,351	-86,191	-0,080	-0,017
-114,337	-127,783	0,104	-0,011
-113,322	800,000	0,035	-0,088
-112,307	-200,000	0,045	0,185
-111,293	-200,000	-0,024	0,207
-110,278	-72,432	-0,164	0,043
-109,264	-200,000	-0,026	0,118
-108,249	-43,621	0,089	-0,031
-107,234	247,829	-0,037	0,045
-106,220	-200,000	0,002	-0,102
-105,205	462,520	0,034	0,054
-104,191	-3,731	-0,086	-0,042
-103,176	-68,574	0,037	0,010
-102,162	89,068	0,030	0,023
-101,147	75,804	-0,087	0,065
-100,132	77,102	0,120	-0,090
-99,118	800,000	0,039	0,095
-98,103	-72,234	-0,104	0,027
-97,089	111,771	0,099	0,085
-96,074	-200,000	0,008	0,128
-95,059	-200,000	-0,055	0,179
-94,045	136,879	0,063	0,059
-93,030	-200,000	-0,012	0,041
-92,016	1,980	-0,158	-0,081
-91,001	-200,000	-0,018	-0,076
-89,986	33,003	0,056	0,034
-88,972	295,055	-0,039	0,050
-87,957	-200,000	-0,001	0,119
-86,943	800,000	0,024	0,048
-85,928	358,707	0,029	0,041
-84,913	-118,163	0,033	-0,004
-83,899	602,053	0,037	0,065
-82,884	-200,000	-0,014	-0,046
-81,870	-140,347	0,105	0,008
-80,855	800,000	0,027	-0,062
-79,840	-137,615	-0,076	-0,006
-78,826	-102,144	0,033	0,006
-77,811	-125,256	-0,112	0,012
-76,797	478,308	0,031	-0,050
-75,782	-22,934	0,076	0,032
-74,767	800,000	-0,057	0,127
-73,753	530,251	-0,034	-0,057
-72,738	58,958	-0,095	0,066
-71,724	337,232	-0,154	-0,212
-70,709	-200,000	0,035	0,133
-69,694	384,569	-0,044	-0,065
-68,680	289,773	0,060	0,078
-67,665	-200,000	0,007	0,075
-66,651	150,824	0,092	0,088
-65,636	115,960	-0,108	0,094
-64,622	-98,363	0,090	-0,016
-63,607	-200,000	-0,011	0,108
-62,592	425,223	-0,077	-0,117
-61,578	-200,000	-0,042	-0,178
-60,563	95,881	-0,038	-0,031
-59,549	63,364	-0,015	0,011
-58,534	7,040	-1,790	-0,940
-57,519	529,039	-1,298	-2,173
-56,505	-200,000	-0,263	-4,331
-55,490	385,544	0,869	1,270
-54,476	800,000	5,087	11,296
-53,461	-200,000	20,653	327,057
-52,446	800,000	753,238	2315,235
-51,432	551,331	1659,090	2823,524
-50,417	73,865	1663,942	1230,964
-49,403	19,069	1537,245	868,324
-48,388	13,127	1459,730	795,784
-47,373	18,817	1450,286	817,932
-46,359	16,076	1439,676	798,869
-45,344	11,366	1435,742	774,215
-44,330	11,300	1433,735	772,788
-43,315	11,322	1431,758	771,794
-42,300	11,309	1430,206	770,867
-41,286	11,339	1428,862	770,251
-40,271	11,302	1427,334	769,224
-39,257	11,352	1426,202	768,819
-38,242	11,350	1425,076	768,172
-37,227	11,309	1423,961	767,348
-36,213	11,310	1422,610	766,591
-35,198	11,365	1421,665	766,314
-34,184	11,388	1420,824	765,940
-33,169	11,303	1419,443	764,763
-32,154	11,346	1418,375	764,360
-31,140	11,389	1417,131	763,863
-30,125	11,417	1416,079	763,396
-29,111	11,340	1414,994	762,418
-28,096	11,353	1413,708	761,759
-27,082	11,272	1412,571	760,734
-26,067	11,336	1411,445	760,397
-25,052	11,312	1410,457	759,724
-24,038	11,324	1409,482	759,222
-23,023	11,290	1408,473	758,490
-22,009	11,307	1407,282	757,900
-20,994	11,264	1406,553	757,274
-19,979	11,276	1405,480	756,722
-18,965	11,248	1404,709	756,147
-17,950	11,250	1403,832	755,653
-16,936	11,282	1402,963	755,305
-15,921	11,175	1402,204	754,368
-14,906	11,227	1400,906	753,881
-13,892	11,253	1400,024	753,500
-12,877	11,197	1399,250	752,790
-11,863	11,203	1398,283	752,272
-10,848	11,165	1397,509	751,649
-9,833	11,193	1396,527	751,221
-8,819	11,121	1395,751	750,440
-7,804	11,093	1395,104	749,931
-6,790	11,105	1393,655	749,177
-5,775	11,061	1393,088	748,638
-4,760	11,086	1391,787	748,025
-3,746	11,105	1391,015	747,667
-2,731	11,052	1390,232	746,975
-1,717	11,093	1389,232	746,594
-0,702	11,067	1387,398	745,463
0,313	15,110	1301,712	717,948
1,327	31,286	694,389	419,859
2,342	48,850	120,679	79,788
3,356	-0,075	16,457	8,241
4,371	0,285	3,331	1,672
5,386	-19,785	0,968	0,420
6,400	800,000	0,179	0,377
7,415	110,771	-0,170	-0,145
8,429	611,567	-0,129	-0,229
9,444	-32,197	-0,247	-0,097
10,459	157,021	-0,293	-0,286
11,473	12,397	-0,377	-0,204
12,488	62,685	-0,295	-0,208
13,502	132,486	-0,351	-0,319
14,517	37,902	-0,389	-0,243
15,531	142,575	-0,333	-0,312
16,546	32,438	-0,281	-0,171
17,561	76,109	-0,432	-0,322
18,575	-21,481	-0,057	-0,024
19,590	38,897	-0,320	-0,201
20,604	-9,481	-0,211	-0,099
21,619	-3,165	-0,570	-0,279
22,634	189,996	-0,204	-0,216
23,648	171,141	-0,351	-0,355
24,663	92,674	-0,495	-0,393
25,677	45,672	-0,388	-0,252
26,692	175,113	-0,350	-0,357
27,707	-145,550	-0,353	-0,022
28,721	86,548	-0,416	-0,323
29,736	156,265	-0,345	-0,336
30,750	-10,042	-0,442	-0,206
31,765	76,667	-0,373	-0,278
32,780	113,979	-0,395	-0,338
33,794	35,962	-0,344	-0,213
34,809	103,536	-0,319	-0,263
35,823	120,815	-0,264	-0,231
36,838	152,713	-0,309	-0,297
37,853	-10,433	-0,455	-0,211
38,867	-10,910	-0,422	-0,196
39,882	-52,543	-0,337	-0,109
40,896	80,525	-0,285	-0,216
41,911	174,808	-0,284	-0,290
42,926	522,392	-0,249	-0,413
43,940	40,454	-0,509	-0,322
44,955	89,549	-0,400	-0,313
45,969	161,514	-0,224	-0,221
46,984	-91,278	-0,370	-0,074
47,999	13,637	-0,315	-0,171
49,013	17,732	-0,287	-0,160
50,028	29,646	-0,309	-0,184
51,042	482,129	-0,171	-0,273
52,057	125,780	-0,327	-0,290
53,071	147,535	-0,381	-0,361
54,086	-29,373	-0,365	-0,146
55,101	12,329	-0,274	-0,148
56,115	38,238	-0,371	-0,231
57,130	130,076	-0,196	-0,176
58,144	-46,144	-0,576	-0,198
59,159	55,613	-0,413	-0,280
60,174	76,856	-0,393	-0,293
61,188	91,193	-0,357	-0,281
62,203	7,507	-0,346	-0,181
63,217	15,794	-0,333	-0,184
64,232	13,135	-0,311	-0,168
65,247	22,734	-0,270	-0,155
66,261	400,546	-0,143	-0,211
67,276	75,509	-0,314	-0,233
68,290	329,380	-0,234	-0,316
69,305	185,992	-0,214	-0,223
70,320	-92,423	-0,185	-0,036
71,334	361,955	-0,219	-0,310
72,349	-16,335	-0,368	-0,163
73,363	11,531	-0,338	-0,181
74,378	289,887	-0,263	-0,335
75,393	17,784	-0,455	-0,253
76,407	-156,449	-0,434	-0,019
77,422	-20,486	-0,172	-0,074
78,436	42,650	-0,226	-0,144
79,451	58,672	-0,283	-0,195
80,466	-18,554	-0,297	-0,129
81,480	52,383	-0,339	-0,226
82,495	-11,803	-0,350	-0,161
83,509	-59,802	-0,291	-0,087
84,524	-53,927	-0,333	-0,106
85,539	-11,488	-0,323	-0,148
86,553	6,985	-0,324	-0,169
87,568	13,121	-0,418	-0,226
88,582	6,017	-0,323	-0,167
89,597	193,405	-0,171	-0,181
90,611	85,050	-0,325	-0,249
91,626	-70,624	-0,286	-0,075
92,641	1,772	-0,283	-0,143
93,655	29,584	-0,290	-0,172
94,670	-31,570	-0,319	-0,125
95,684	-8,075	-0,350	-0,164
96,699	25,412	-0,291	-0,169
97,714	-18,108	-0,148	-0,065
98,728	15,483	-0,363	-0,199
99,743	-48,053	-0,230	-0,077
100,757	-14,048	-0,300	-0,135
101,772	203,393	-0,188	-0,204
102,787	44,893	-0,354	-0,227
103,801	169,375	-0,249	-0,249
104,816	-24,348	-0,329	-0,136
105,830	77,342	-0,306	-0,228
106,845	-52,334	-0,239	-0,077
107,860	40,868	-0,219	-0,138
108,874	761,829	-0,218	-0,416
109,889	651,679	-0,135	-0,243
110,903	183,723	-0,163	-0,168
111,918	156,928	-0,231	-0,224
112,933	-9,556	-0,276	-0,128
113,947	-64,941	-0,316	-0,089
114,962	-113,787	-0,136	-0,018
115,976	-20,236	-0,315	-0,135
116,991	12,524	-0,349	-0,187
118,006	47,147	-0,343	-0,223
119,020	118,197	-0,195	-0,168
120,035	307,282	-0,184	-0,241
121,049	135,758	-0,274	-0,249
122,064	800,000	-0,105	-0,218
123,079	-35,474	-0,311	-0,117
124,093	-6,191	-0,266	-0,126
125,108	4,782	-0,268	-0,137
126,122	93,599	-0,363	-0,287
127,137	5,143	-0,356	-0,182
128,151	259,799	-0,162	-0,196
129,166	-47,253	-0,237	-0,080
130,181	18,422	-0,359	-0,200
131,195	-59,205	-0,269	-0,080
132,210	15,742	-0,309	-0,169
133,224	146,954	-0,204	-0,191
134,239	141,378	-0,208	-0,192
135,254	-51,433	-0,190	-0,062
136,268	-21,378	-0,309	-0,131
137,283	25,152	-0,333	-0,192
138,297	21,694	-0,252	-0,143
139,312	-72,732	-0,332	-0,085
140,327	268,262	-0,163	-0,200
141,341	74,271	-0,242	-0,177
142,356	83,760	-0,227	-0,172
143,370	-161,963	-0,186	-0,006
144,385	800,000	-0,073	-0,193
145,400	-57,183	-0,252	-0,077
146,414	237,755	-0,230	-0,266
147,429	12,440	-0,372	-0,199
148,443	240,201	-0,273	-0,318
149,458	-160,190	-0,308	-0,011
150,473	-41,541	-0,363	-0,129
151,487	19,549	-0,375	-0,209
152,502	232,435	-0,159	-0,182
153,516	-100,630	-0,310	-0,053
154,531	110,407	-0,266	-0,222
155,546	62,936	-0,246	-0,171
156,560	6,459	-0,236	-0,122
157,575	147,966	-0,066	-0,062
158,589	449,769	-0,168	-0,259
159,604	367,088	-0,233	-0,328
160,619	800,000	-0,112	-0,315
161,633	-200,000	-0,064	-0,222
162,648	227,733	-0,129	-0,146
163,662	-115,731	-0,191	0,025
164,677	259,244	-0,204	-0,246
165,692	-0,861	-0,198	-0,097
166,706	-62,434	-0,299	-0,086
167,721	108,164	-0,191	-0,159
168,735	69,131	-0,376	-0,268
169,750	53,747	-0,262	-0,175
170,764	-57,508	-0,241	-0,073
171,779	110,556	-0,150	-0,126
172,794	-23,119	-0,206	-0,086
173,808	129,930	-0,250	-0,223
174,823	308,526	-0,159	-0,207
175,837	306,973	-0,095	-0,123
176,852	228,944	-0,266	-0,302
177,867	-200,000	-0,002	-0,138
178,881	250,227	-0,174	-0,206
179,896	207,378	-0,150	-0,163
180,910	527,126	-0,115	-0,189
181,925	-17,872	-0,349	-0,151
182,940	282,447	-0,141	-0,176
183,954	30,410	-0,141	-0,083
184,969	24,302	-0,232	-0,133
185,983	57,633	-0,199	-0,135
186,998	303,306	-0,108	-0,140
188,013	130,097	-0,162	-0,144
189,027	1,404	-0,252	-0,125
190,042	149,729	-0,170	-0,160
191,056	111,189	-0,213	-0,178
192,071	-29,789	-0,190	-0,075
193,086	-41,409	-0,129	-0,046
194,100	-75,343	-0,208	-0,051
195,115	800,000	-0,038	-0,089
196,129	170,378	-0,217	-0,215
197,144	395,688	-0,199	-0,290
198,159	-10,042	-0,260	-0,119
199,173	142,778	-0,093	-0,086
200,188	217,129	-0,135	-0,150
201,202	-200,000	-0,061	-0,228
202,217	212,753	-0,133	-0,145
203,232	39,983	-0,260	-0,162
204,246	-71,974	-0,175	-0,045
205,261	540,320	-0,152	-0,252
206,275	-52,705	-0,240	-0,076
207,290	-200,000	-0,043	-0,133
208,304	-48,672	-0,213	-0,071
209,319	16,854	-0,163	-0,089
210,334	-59,381	-0,294	-0,087
211,348	151,020	-0,140	-0,132
212,363	35,618	-0,217	-0,132
213,377	155,203	-0,176	-0,168
214,392	525,181	-0,077	-0,127
215,407	-131,532	-0,199	-0,018
216,421	-98,438	-0,134	0,024
217,436	216,376	-0,144	-0,159
218,450	-200,000	-0,004	-0,208
219,465	-72,433	-0,218	-0,055
220,480	202,037	-0,116	-0,124
221,494	-200,000	-0,033	-0,127
222,509	-44,792	-0,154	0,053
223,523	-80,278	-0,129	-0,030
224,538	112,939	-0,157	-0,132
225,553	239,514	-0,222	-0,256
226,567	-3,162	-0,205	-0,099
227,582	351,900	-0,130	-0,178
228,596	498,927	-0,069	-0,110
229,611	-138,447	-0,207	-0,016
230,626	-31,542	-0,192	-0,074
231,640	239,495	-0,161	-0,186
232,655	80,174	-0,161	-0,119
233,669	-27,244	-0,290	-0,116
234,684	16,756	-0,158	-0,086
235,699	195,385	-0,106	-0,111
236,713	-44,592	-0,047	0,016
237,728	81,064	-0,157	-0,117
238,742	60,390	-0,124	-0,085
239,757	800,000	-0,114	-0,223
240,772	-151,947	-0,275	-0,014
241,786	51,728	-0,133	-0,088
242,801	31,695	-0,087	-0,052
243,815	-147,448	-0,312	-0,018
244,830	545,962	-0,087	0,143
245,844	800,000	-0,040	-0,104
246,859	39,292	-0,202	-0,125
247,874	800,000	-0,108	-0,254
248,888	207,741	-0,160	-0,172
249,903	222,678	-0,161	-0,179
250,917	-73,030	-0,072	0,018
251,932	259,772	-0,148	-0,176
252,947	69,345	-0,143	-0,101
253,961	286,693	-0,115	-0,143
254,976	198,341	-0,280	-0,296
255,990	39,349	-0,164	-0,101
257,005	28,973	-0,178	-0,104
258,020	-101,427	-0,221	-0,037
259,034	144,547	-0,163	-0,150
260,049	-38,177	-0,158	-0,057
261,063	-189,292	-0,198	-0,002
262,078	329,173	-0,163	-0,217
263,093	409,489	-0,152	-0,223
264,107	-56,184	-0,203	-0,062
265,122	-32,996	-0,181	-0,069
266,136	113,642	-0,173	-0,145
267,151	126,842	-0,171	-0,150
268,166	23,070	-0,221	-0,125
269,180	204,832	-0,243	-0,261
270,195	163,897	-0,167	-0,162
271,209	-200,000	-0,007	-0,149
272,224	48,793	-0,177	-0,114
273,239	-12,484	-0,277	-0,124
274,253	66,835	-0,133	-0,093
275,268	257,194	-0,103	-0,122
276,282	65,268	-0,383	-0,267
277,297	-105,121	-0,250	-0,039
278,312	68,857	-0,203	-0,144
279,326	-154,692	-0,097	-0,004
280,341	-35,508	-0,121	-0,045
281,355	-163,951	-0,043	0,001
282,370	-85,533	-0,124	-0,026
283,384	7,489	-0,228	-0,117
284,399	-48,350	-0,182	-0,060
285,414	86,385	-0,146	0,111
286,428	458,463	-0,102	-0,157
287,443	498,758	-0,156	-0,249
288,457	-76,295	-0,079	-0,019
289,472	-200,000	-0,191	0,000
290,487	-104,208	-0,280	-0,044
291,501	-200,000	-0,046	-0,205
292,516	43,807	-0,196	-0,123
293,530	-41,587	-0,271	-0,095
294,545	755,018	-0,123	-0,230
295,560	-94,901	-0,110	-0,020
296,574	227,968	-0,052	-0,058
297,589	-81,847	-0,261	-0,058
298,603	31,103	-0,160	-0,094
299,618	-95,726	-0,224	-0,041
300,633	216,159	-0,145	-0,159
301,647	-129,532	-0,147	-0,014
302,662	155,404	-0,074	-0,070
303,676	-130,219	-0,135	-0,012
304,691	-17,034	-0,049	0,021
305,706	10,954	-0,262	-0,137
306,720	770,488	-0,067	-0,126
307,735	-200,000	-0,000	-0,008
308,749	-50,028	-0,025	-0,008
309,764	-40,473	-0,194	0,069
310,779	200,846	-0,147	-0,155
311,793	800,000	-0,092	-0,175
312,808	51,760	-0,112	-0,073
313,822	161,535	-0,139	-0,134
314,837	-10,697	-0,114	0,051
315,852	108,466	-0,077	-0,063
316,866	130,909	-0,147	-0,130
317,881	-98,100	-0,132	-0,023
318,895	485,026	-0,036	0,056
319,910	291,413	-0,173	-0,217
320,925	103,602	-0,176	-0,142
321,939	116,417	-0,145	-0,122
322,954	-6,817	-0,058	0,027
323,968	-37,706	-0,043	0,016
324,983	-99,641	-0,034	0,006
325,997	9,941	-0,153	-0,080
327,012	177,177	-0,126	-0,126
328,027	209,690	-0,091	-0,098
329,041	22,528	-0,335	-0,188
330,056	-125,470	-0,162	-0,017
331,070	59,588	-0,160	-0,108
332,085	193,776	-0,145	-0,151
333,100	-77,022	-0,214	-0,051
334,114	422,494	-0,067	-0,099
335,129	548,588	-0,117	-0,193
336,143	-49,384	-0,118	-0,038
337,158	395,801	-0,088	-0,126
338,173	82,798	-0,080	-0,059
339,187	-200,000	-0,007	-0,115
340,202	-200,000	-0,020	-0,096
341,216	800,000	-0,058	-0,117
342,231	800,000	-0,051	-0,110
343,246	-128,208	-0,177	0,017
344,260	-200,000	-0,018	0,137
345,275	-91,122	-0,129	-0,025
346,289	-90,589	-0,035	-0,007
347,304	275,406	-0,156	-0,190
348,319	61,387	-0,239	-0,163
349,333	233,371	-0,101	0,114
350,348	-200,000	-0,004	-0,070
351,362	184,989	-0,150	-0,152
352,377	-96,767	-0,161	0,029
353,392	-36,082	-0,131	-0,048
354,406	-33,256	-0,079	-0,030
355,421	207,591	1308,653	1399,460
356,435	159,705	1468,610	1399,956
