DTS Sentinel unit serial number:	SN410029Multiplexer serial number:	ORYXHardware model number:	OX2-SRSoftware version number:	ORYX F/W v4,00 Oryx Data Collector v3.7.2.0data status	okinstallation	B3 Nyhavnadifferential loss correction	single-endedforward channel	channel 1reverse channel	N/Adate	2023/11/30time	15:17:30forward acquisition time	300,00reverse acquisition time	0,00gamma	499,1914k internal	0,3208k external	0,3208temperature offset calibration	1,0000default loss term (dB/km)	0,3820temperature slope calibration	1,0000multiplexer offset coefficient	1,0000multiplexer slope coefficient	1,0000fibre end	0,00T internal ref (°C)	12,29T ext. ref 1 (°C)	-1,84T ext. ref 2 (°C)	-1,88length (m)	temperature (°C)	Stokes	anti-Stokes-744,400	196,919	-0,204	-0,227
-743,385	-200,000	-0,016	0,231
-742,371	800,000	-0,059	-0,139
-741,356	-200,000	0,083	0,360
-740,342	741,033	-0,125	-0,246
-739,327	-200,000	-0,003	0,320
-738,312	1,884	-0,371	-0,194
-737,298	-200,000	0,075	0,274
-736,283	181,217	-0,192	-0,205
-735,269	-200,000	-0,011	0,390
-734,254	323,462	-0,178	-0,247
-733,239	-123,365	-0,238	0,027
-732,225	800,000	-0,096	-0,230
-731,210	-97,782	0,105	0,020
-730,196	800,000	0,053	-0,118
-729,181	800,000	0,048	0,104
-728,167	-145,140	-0,124	-0,008
-727,152	573,498	0,069	-0,123
-726,137	-73,019	0,080	0,021
-725,123	-154,996	-0,156	0,007
-724,108	247,663	-0,077	-0,094
-723,094	740,876	-0,037	-0,073
-722,079	-200,000	-0,024	-0,106
-721,064	-15,906	-0,074	-0,034
-720,050	369,891	-0,016	-0,024
-719,035	-13,886	0,069	-0,032
-718,021	79,099	-0,119	-0,092
-717,006	-112,629	-0,105	-0,015
-715,991	-200,000	-0,015	-0,066
-714,977	-25,857	-0,081	-0,035
-713,962	-200,000	0,004	0,049
-712,948	-200,000	-0,023	0,103
-711,933	55,743	0,055	-0,039
-710,918	-68,079	0,070	-0,020
-709,904	-100,221	-0,135	-0,024
-708,889	-200,000	0,003	0,161
-707,875	174,211	-0,042	-0,044
-706,860	-200,000	-0,002	-0,047
-705,845	-137,181	0,117	0,010
-704,831	529,801	0,068	-0,117
-703,816	472,085	0,078	0,127
-702,802	-102,084	-0,126	0,022
-701,787	118,626	-0,063	0,056
-700,772	-200,000	-0,030	-0,204
-699,758	-200,000	-0,009	0,035
-698,743	-30,948	0,100	0,041
-697,729	-200,000	-0,025	0,094
-696,714	-6,320	0,054	-0,027
-695,699	710,070	-0,022	0,042
-694,685	-200,000	-0,007	-0,117
-693,670	-103,452	-0,099	0,017
-692,656	-83,541	0,027	-0,006
-691,641	26,418	0,143	-0,087
-690,627	800,000	0,051	0,110
-689,612	-200,000	-0,003	0,144
-688,597	41,308	-0,089	-0,058
-687,583	-173,503	-0,069	-0,001
-686,568	-50,523	-0,090	-0,031
-685,554	-93,639	0,137	-0,027
-684,539	360,534	0,058	-0,084
-683,524	233,755	0,020	0,023
-682,510	-200,000	0,011	-0,066
-681,495	213,634	-0,068	-0,078
-680,481	54,118	-0,085	-0,059
-679,466	343,926	-0,051	-0,073
-678,451	302,582	-0,054	-0,073
-677,437	-43,153	-0,124	0,045
-676,422	-200,000	-0,006	0,073
-675,408	110,159	-0,151	0,131
-674,393	-56,798	0,047	0,015
-673,378	-22,942	-0,149	-0,065
-672,364	63,160	-0,094	-0,068
-671,349	360,050	0,064	0,093
-670,335	-67,217	-0,100	0,028
-669,320	-97,744	0,035	0,006
-668,305	-68,803	-0,146	0,040
-667,291	-200,000	0,002	-0,061
-666,276	-3,507	-0,072	-0,036
-665,262	81,503	-0,019	0,015
-664,247	237,812	0,037	0,044
-663,232	800,000	0,021	0,044
-662,218	-200,000	0,008	0,050
-661,203	340,338	-0,043	-0,061
-660,189	-64,191	-0,097	-0,029
-659,174	-200,000	-0,008	-0,042
-658,159	-24,330	-0,083	-0,035
-657,145	800,000	-0,061	-0,163
-656,130	437,173	-0,070	-0,111
-655,116	-200,000	0,006	0,053
-654,101	20,652	0,058	0,034
-653,086	-200,000	-0,017	0,088
-652,072	-156,980	-0,103	0,004
-651,057	-200,000	0,005	-0,080
-650,043	-200,000	-0,019	-0,082
-649,028	-56,677	-0,120	0,038
-648,014	752,897	0,061	0,120
-646,999	-200,000	-0,001	-0,127
-645,984	211,011	-0,041	0,047
-644,970	621,592	-0,011	0,021
-643,955	72,033	-0,112	-0,084
-642,941	800,000	0,034	-0,070
-641,926	-200,000	0,005	-0,053
-640,911	-92,314	-0,128	0,026
-639,897	800,000	-0,089	0,194
-638,882	10,476	-0,028	0,015
-637,868	-200,000	0,002	0,016
-636,853	168,281	-0,067	0,069
-635,838	-153,424	-0,058	0,003
-634,824	123,930	-0,075	-0,068
-633,809	-106,593	0,036	-0,006
-632,795	-200,000	0,002	0,177
-631,780	18,699	0,109	0,063
-630,765	800,000	0,025	-0,071
-629,751	-200,000	-0,023	-0,154
-628,736	-10,952	-0,135	-0,064
-627,722	-200,000	-0,018	0,074
-626,707	508,877	-0,056	0,095
-625,692	-200,000	0,000	0,028
-624,678	-62,371	0,184	0,055
-623,663	255,884	-0,036	-0,045
-622,649	800,000	-0,038	-0,080
-621,634	70,220	-0,011	0,008
-620,619	800,000	-0,035	-0,102
-619,605	-113,273	-0,130	0,018
-618,590	256,018	-0,062	-0,078
-617,576	73,786	-0,081	0,061
-616,561	800,000	0,031	0,094
-615,546	88,537	0,052	-0,042
-614,532	36,577	-0,052	0,033
-613,517	-200,000	-0,003	0,021
-612,503	800,000	-0,048	-0,101
-611,488	135,685	0,018	-0,017
-610,474	14,230	-0,100	0,056
-609,459	-43,056	0,053	-0,019
-608,444	-56,279	-0,117	0,037
-607,430	96,437	-0,039	0,032
-606,415	303,422	0,036	-0,049
-605,401	-101,158	-0,105	-0,018
-604,386	-145,694	0,125	0,008
-603,371	800,000	-0,051	-0,105
-602,357	-94,104	0,108	-0,021
-601,342	60,126	-0,080	0,057
-600,328	-89,330	-0,122	-0,026
-599,313	-67,700	-0,073	-0,020
-598,298	-43,342	-0,149	0,054
-597,284	800,000	0,037	-0,108
-596,269	238,771	0,023	0,027
-595,255	-200,000	0,019	0,094
-594,240	-200,000	0,014	-0,173
-593,225	111,556	-0,083	-0,073
-592,211	311,060	0,041	0,056
-591,196	-7,660	0,043	0,021
-590,182	116,844	0,055	-0,049
-589,167	117,319	-0,113	0,100
-588,152	800,000	-0,052	0,113
-587,138	198,858	0,106	0,117
-586,123	180,992	-0,042	0,044
-585,109	-200,000	-0,000	-0,062
-584,094	44,702	0,010	0,006
-583,079	8,165	-0,008	-0,005
-582,065	70,901	-0,113	0,085
-581,050	-200,000	0,020	0,116
-580,036	773,927	0,065	0,129
-579,021	-127,388	0,138	0,014
-578,006	-1,041	-0,092	-0,047
-576,992	347,546	-0,041	0,059
-575,977	37,053	0,157	0,100
-574,963	18,616	0,061	0,035
-573,948	-200,000	0,037	-0,145
-572,934	-200,000	-0,027	-0,092
-571,919	-64,797	-0,053	0,015
-570,904	183,726	0,013	0,014
-569,890	-200,000	0,007	-0,037
-568,875	800,000	0,031	-0,096
-567,861	-200,000	0,013	-0,047
-566,846	125,910	0,069	0,063
-565,831	444,794	0,011	-0,017
-564,817	540,643	0,076	-0,131
-563,802	374,799	0,022	0,032
-562,788	-200,000	-0,034	-0,127
-561,773	-189,841	-0,047	0,000
-560,758	-148,506	-0,005	-0,000
-559,744	-200,000	-0,001	-0,019
-558,729	243,848	-0,080	-0,097
-557,715	-200,000	0,017	-0,079
-556,700	800,000	-0,028	-0,083
-555,685	-154,124	-0,156	0,007
-554,671	800,000	0,022	-0,069
-553,656	-200,000	0,002	0,016
-552,642	-38,611	-0,068	0,026
-551,627	531,764	-0,070	0,119
-550,612	223,517	-0,053	0,061
-549,598	800,000	0,041	0,096
-548,583	800,000	0,020	0,050
-547,569	800,000	-0,013	0,037
-546,554	-76,230	0,076	0,019
-545,539	289,032	0,073	-0,095
-544,525	413,015	-0,037	0,058
-543,510	-52,435	0,095	-0,031
-542,496	-200,000	-0,004	0,043
-541,481	-143,947	-0,072	-0,005
-540,466	-84,878	0,023	0,005
-539,452	800,000	0,037	0,083
-538,437	516,270	-0,024	-0,041
-537,423	13,504	0,087	0,049
-536,408	260,086	0,090	0,112
-535,393	205,474	-0,068	-0,076
-534,379	-200,000	0,006	0,121
-533,364	-200,000	-0,030	0,122
-532,350	-200,000	0,000	0,012
-531,335	346,364	-0,006	0,009
-530,321	800,000	0,024	0,070
-529,306	20,301	-0,114	-0,066
-528,291	-200,000	-0,003	-0,085
-527,277	-73,633	0,105	-0,027
-526,262	54,850	0,164	-0,114
-525,248	565,548	0,038	0,066
-524,233	464,984	0,018	0,029
-523,218	39,182	0,110	-0,071
-522,204	132,595	0,069	0,064
-521,189	-105,084	-0,083	0,014
-520,175	1,773	-0,062	0,032
-519,160	-20,064	0,100	-0,044
-518,145	211,306	-0,056	0,063
-517,131	-200,000	-0,006	-0,048
-516,116	355,110	0,042	0,060
-515,102	-200,000	0,004	-0,062
-514,087	171,877	-0,037	-0,038
-513,072	194,317	0,056	-0,061
-512,058	-200,000	0,022	0,086
-511,043	213,629	-0,100	0,114
-510,029	17,213	0,079	-0,045
-509,014	208,178	0,075	0,084
-507,999	-137,328	0,107	0,009
-506,985	-43,417	-0,063	-0,023
-505,970	604,674	0,016	0,028
-504,956	800,000	0,035	-0,075
-503,941	-200,000	-0,005	0,090
-502,926	294,985	0,047	-0,062
-501,912	-200,000	0,043	0,149
-500,897	800,000	-0,044	0,118
-499,883	-200,000	-0,010	0,133
-498,868	800,000	-0,065	0,147
-497,853	262,099	-0,038	-0,047
-496,839	-89,899	-0,185	0,038
-495,824	-10,774	0,082	0,039
-494,810	-76,609	-0,043	-0,011
-493,795	-200,000	-0,007	-0,068
-492,781	14,695	-0,044	0,025
-491,766	-101,675	-0,082	-0,014
-490,751	610,063	0,026	-0,046
-489,737	-200,000	0,034	0,151
-488,722	-200,000	-0,019	0,072
-487,708	8,049	0,051	-0,027
-486,693	6,034	-0,052	-0,027
-485,678	-200,000	-0,007	-0,026
-484,664	-200,000	0,053	-0,205
-483,649	-169,612	-0,103	-0,003
-482,635	220,934	-0,009	0,010
-481,620	-200,000	0,020	0,219
-480,605	800,000	-0,027	-0,077
-479,591	553,502	0,080	0,138
-478,576	-22,263	0,052	0,023
-477,562	-4,662	-0,034	-0,017
-476,547	-50,425	-0,158	-0,053
-475,532	-9,072	0,127	-0,061
-474,518	77,778	0,041	0,031
-473,503	27,292	0,092	0,056
-472,489	-200,000	0,033	0,131
-471,474	-42,154	0,225	-0,082
-470,459	-200,000	-0,015	0,074
-469,445	410,542	-0,051	0,078
-468,430	800,000	-0,052	-0,104
-467,416	418,012	-0,022	-0,034
-466,401	169,171	-0,029	-0,030
-465,386	-200,000	0,023	-0,081
-464,372	800,000	0,060	-0,144
-463,357	88,552	-0,016	0,013
-462,343	-200,000	0,011	-0,051
-461,328	-200,000	-0,010	-0,075
-460,313	508,654	0,028	-0,048
-459,299	-200,000	0,004	0,059
-458,284	800,000	0,020	0,060
-457,270	-58,771	0,098	-0,030
-456,255	-17,801	0,058	-0,026
-455,241	-69,296	-0,049	-0,013
-454,226	-200,000	0,022	0,111
-453,211	-164,973	0,143	-0,004
-452,197	-120,689	-0,117	0,014
-451,182	-50,745	-0,132	0,044
-450,168	-171,566	0,068	-0,002
-449,153	-65,508	-0,062	-0,018
-448,138	289,789	-0,057	-0,074
-447,124	318,021	-0,030	-0,041
-446,109	328,940	-0,024	0,033
-445,095	-104,577	0,060	0,010
-444,080	118,623	0,030	-0,027
-443,065	-200,000	0,009	0,082
-442,051	-25,271	-0,077	-0,033
-441,036	-162,272	-0,072	-0,003
-440,022	399,242	0,085	-0,127
-439,007	-151,170	-0,099	0,005
-437,992	396,274	0,108	-0,162
-436,978	-46,304	0,058	-0,020
-435,963	-200,000	-0,015	-0,124
-434,949	800,000	-0,025	-0,074
-433,934	-200,000	0,007	0,079
-432,919	-84,991	-0,038	0,008
-431,905	152,411	-0,043	-0,042
-430,890	129,963	-0,058	0,053
-429,876	-149,192	0,114	0,006
-428,861	258,424	0,045	0,056
-427,846	-200,000	-0,005	0,037
-426,832	224,791	0,075	-0,087
-425,817	-103,670	0,060	-0,010
-424,803	-171,532	-0,086	-0,002
-423,788	-48,025	-0,164	0,057
-422,773	268,166	-0,083	0,104
-421,759	-200,000	-0,001	-0,059
-420,744	-155,749	-0,073	0,003
-419,730	-20,326	-0,124	0,055
-418,715	-200,000	-0,007	-0,059
-417,701	411,600	-0,080	-0,122
-416,686	-143,699	0,081	-0,005
-415,671	69,906	0,095	0,070
-414,657	333,596	0,024	0,034
-413,642	-200,000	-0,022	-0,115
-412,628	-200,000	-0,005	-0,028
-411,613	-200,000	0,003	-0,013
-410,598	-79,094	0,119	-0,029
-409,584	105,452	-0,029	0,025
-408,569	800,000	0,047	-0,132
-407,555	15,097	-0,036	-0,020
-406,540	-39,851	0,169	0,063
-405,525	53,276	-0,072	-0,049
-404,511	-4,840	-0,080	-0,039
-403,496	119,667	-0,008	-0,007
-402,482	800,000	0,045	-0,101
-401,467	-122,680	0,071	0,008
-400,452	800,000	-0,022	0,059
-399,438	408,465	-0,053	-0,081
-398,423	98,838	-0,156	-0,129
-397,409	800,000	-0,059	-0,150
-396,394	29,683	-0,084	-0,051
-395,379	200,868	0,018	0,020
-394,365	-32,742	0,030	0,012
-393,350	-56,364	-0,074	0,023
-392,336	-93,161	0,072	0,014
-391,321	445,061	0,058	0,092
-390,306	-92,300	-0,076	0,015
-389,292	10,403	0,041	-0,022
-388,277	-200,000	0,052	-0,215
-387,263	-70,927	0,135	0,036
-386,248	-200,000	-0,006	0,142
-385,233	35,952	0,116	0,073
-384,219	112,818	-0,096	0,083
-383,204	235,583	0,038	-0,045
-382,190	-200,000	0,021	-0,083
-381,175	-200,000	-0,012	-0,126
-380,160	228,514	0,059	-0,068
-379,146	-71,882	0,135	0,036
-378,131	-104,717	0,033	-0,005
-377,117	-149,031	0,159	-0,009
-376,102	-200,000	-0,008	-0,095
-375,088	110,248	-0,019	-0,016
-374,073	216,575	0,072	-0,082
-373,058	-70,869	0,050	-0,013
-372,044	-52,436	0,107	0,035
-371,029	337,683	0,065	0,091
-370,015	-22,359	0,167	0,072
-369,000	-200,000	-0,054	0,188
-367,985	-75,085	0,160	0,041
-366,971	-94,054	0,075	0,015
-365,956	-179,869	0,227	-0,003
-364,942	-87,147	0,091	0,020
-363,927	-151,351	0,034	-0,002
-362,912	4,018	-0,112	0,058
-361,898	580,101	-0,045	0,079
-360,883	-83,098	-0,138	0,032
-359,869	-16,562	-0,054	0,024
-358,854	34,414	0,128	0,080
-357,839	219,256	-0,052	0,059
-356,825	-5,257	0,154	0,076
-355,810	-200,000	-0,004	0,036
-354,796	1,818	0,117	0,060
-353,781	-86,946	-0,192	-0,041
-352,766	-14,952	0,010	-0,005
-351,752	-161,320	-0,049	0,002
-350,737	60,848	0,056	0,040
-349,723	-187,916	0,065	-0,001
-348,708	-200,000	-0,011	0,081
-347,693	161,130	-0,038	0,038
-346,679	-200,000	0,026	-0,128
-345,664	374,648	-0,012	-0,018
-344,650	-127,712	0,067	0,007
-343,635	550,670	0,007	-0,012
-342,620	193,024	0,076	0,082
-341,606	86,809	-0,074	-0,058
-340,591	152,505	-0,069	-0,068
-339,577	-153,303	0,105	-0,005
-338,562	59,110	-0,119	-0,084
-337,548	-17,465	0,062	-0,028
-336,533	-200,000	-0,004	0,019
-335,518	-200,000	0,009	0,127
-334,504	-200,000	0,002	0,148
-333,489	161,583	0,048	-0,048
-332,475	-200,000	0,003	-0,091
-331,460	143,427	-0,031	-0,030
-330,445	-200,000	0,001	-0,100
-329,431	50,679	0,108	0,073
-328,416	-200,000	0,016	0,127
-327,402	-94,581	0,038	-0,007
-326,387	800,000	0,009	-0,023
-325,372	202,268	-0,124	0,137
-324,358	-83,242	0,060	0,014
-323,343	-200,000	0,019	0,181
-322,329	-99,022	0,141	-0,025
-321,314	109,361	0,088	-0,076
-320,299	197,898	0,038	-0,041
-319,285	552,345	-0,029	0,050
-318,270	-22,636	-0,163	0,070
-317,256	196,479	0,128	-0,139
-316,241	288,334	-0,078	-0,101
-315,226	-200,000	0,020	0,149
-314,212	-85,387	0,091	-0,020
-313,197	279,508	0,034	0,044
-312,183	-129,366	-0,137	-0,013
-311,168	-200,000	-0,013	0,053
-310,153	-118,878	-0,091	0,011
-309,139	217,858	-0,039	0,045
-308,124	267,362	-0,048	0,060
-307,110	-82,969	0,119	0,027
-306,095	163,564	0,078	0,078
-305,080	105,631	-0,070	-0,059
-304,066	-45,420	-0,081	0,028
-303,051	205,227	-0,034	0,038
-302,037	-200,000	0,023	-0,228
-301,022	800,000	-0,051	-0,112
-300,008	-200,000	0,004	0,136
-298,993	800,000	0,032	0,068
-297,978	-200,000	0,028	-0,138
-296,964	81,636	0,029	-0,023
-295,949	-11,980	-0,028	-0,013
-294,935	645,278	-0,041	0,076
-293,920	-200,000	0,013	-0,052
-292,905	67,859	0,026	0,019
-291,891	-200,000	0,027	0,115
-290,876	183,205	0,066	-0,069
-289,862	86,971	0,104	0,082
-288,847	-200,000	0,021	-0,096
-287,832	-105,538	-0,117	0,019
-286,818	800,000	0,057	-0,114
-285,803	800,000	0,031	-0,068
-284,789	-31,850	-0,055	-0,022
-283,774	800,000	-0,008	0,021
-282,759	-200,000	-0,003	0,062
-281,745	72,449	-0,110	-0,082
-280,730	180,021	-0,119	-0,125
-279,716	-200,000	-0,020	0,076
-278,701	-57,814	0,041	0,013
-277,686	301,230	0,046	0,061
-276,672	558,576	0,034	-0,059
-275,657	-108,446	-0,072	0,011
-274,643	-200,000	0,022	-0,106
-273,628	379,226	-0,118	-0,173
-272,613	61,909	-0,051	-0,036
-271,599	-193,736	0,100	0,001
-270,584	-200,000	0,005	0,042
-269,570	800,000	0,018	-0,055
-268,555	-200,000	-0,050	-0,202
-267,540	800,000	0,014	-0,038
-266,526	-89,238	-0,095	-0,020
-265,511	-200,000	0,014	0,058
-264,497	-200,000	0,000	0,108
-263,482	-131,411	0,103	-0,010
-262,467	-78,918	-0,033	0,008
-261,453	10,360	-0,024	0,013
-260,438	139,433	0,050	0,047
-259,424	28,440	0,013	0,008
-258,409	98,296	-0,032	-0,026
-257,395	800,000	0,047	0,134
-256,380	800,000	-0,054	0,145
-255,365	-65,527	-0,112	-0,032
-254,351	-153,117	-0,063	0,003
-253,336	485,176	-0,069	-0,113
-252,322	234,006	-0,072	-0,084
-251,307	65,747	0,056	-0,040
-250,292	412,963	-0,029	-0,044
-249,278	-200,000	-0,015	-0,067
-248,263	112,764	0,023	0,020
-247,249	-200,000	-0,006	-0,042
-246,234	-200,000	0,024	-0,114
-245,219	35,043	0,068	-0,043
-244,205	-56,375	-0,053	-0,017
-243,190	-112,948	-0,025	-0,004
-242,176	800,000	0,022	0,056
-241,161	-200,000	0,042	0,205
-240,146	800,000	0,026	0,063
-239,132	-110,350	-0,053	0,008
-238,117	57,953	-0,045	-0,031
-237,103	-200,000	-0,016	-0,104
-236,088	-200,000	-0,029	-0,091
-235,073	-200,000	0,017	-0,250
-234,059	-104,979	-0,085	-0,014
-233,044	-200,000	0,014	0,194
-232,030	-41,079	-0,066	-0,024
-231,015	148,385	0,063	0,061
-230,000	-200,000	-0,001	-0,112
-228,986	-148,511	-0,125	0,007
-227,971	-46,630	-0,083	0,029
-226,957	199,157	-0,052	0,056
-225,942	37,458	-0,121	-0,076
-224,927	108,146	0,013	-0,011
-223,913	-200,000	-0,007	0,023
-222,898	-133,880	-0,131	0,011
-221,884	110,873	0,067	-0,057
-220,869	-45,370	0,128	0,045
-219,855	-99,770	-0,079	0,014
-218,840	800,000	-0,036	0,074
-217,825	779,852	-0,032	0,063
-216,811	-200,000	-0,006	-0,030
-215,796	-107,606	0,028	0,004
-214,782	691,388	-0,039	0,072
-213,767	228,944	0,030	-0,034
-212,752	437,732	0,122	0,190
-211,738	622,812	-0,065	0,117
-210,723	-200,000	-0,003	0,073
-209,709	-165,299	-0,128	-0,004
-208,694	265,876	0,140	-0,174
-207,679	96,826	-0,090	0,073
-206,665	410,532	0,100	0,151
-205,650	99,312	-0,076	-0,063
-204,636	543,737	0,051	0,086
-203,621	388,119	0,078	-0,114
-202,606	-17,899	-0,101	-0,045
-201,592	-197,506	-0,089	0,000
-200,577	-200,000	-0,009	-0,095
-199,563	75,386	0,055	0,042
-198,548	166,900	0,016	-0,016
-197,533	-47,785	0,025	0,008
-196,519	-37,667	0,084	0,032
-195,504	800,000	-0,064	-0,138
-194,490	197,215	0,036	-0,039
-193,475	93,244	-0,148	-0,119
-192,460	-200,000	-0,016	0,062
-191,446	207,006	-0,037	0,041
-190,431	800,000	0,034	0,068
-189,417	386,245	-0,035	-0,052
-188,402	-111,889	-0,237	-0,034
-187,387	-200,000	-0,037	-0,147
-186,373	-200,000	-0,001	0,031
-185,358	-200,000	0,019	0,115
-184,344	-6,494	0,049	-0,024
-183,329	-99,062	0,069	-0,012
-182,315	800,000	0,036	0,093
-181,300	800,000	0,045	-0,129
-180,285	49,920	-0,078	-0,052
-179,271	-200,000	0,039	-0,128
-178,256	47,314	0,068	0,045
-177,242	52,032	0,083	0,056
-176,227	132,719	0,083	0,076
-175,212	755,179	-0,056	-0,108
-174,198	-106,766	0,108	-0,017
-173,183	-200,000	0,024	-0,276
-172,169	800,000	-0,038	-0,111
-171,154	-167,732	-0,029	-0,001
-170,139	94,773	0,092	0,074
-169,125	13,471	0,159	0,087
-168,110	19,607	-0,040	-0,023
-167,096	76,507	-0,072	0,054
-166,081	800,000	0,035	-0,088
-165,066	-113,856	-0,203	-0,028
-164,052	-123,407	-0,124	-0,014
-163,037	313,944	0,056	0,075
-162,023	-112,859	0,071	0,010
-161,008	800,000	0,053	0,140
-159,993	-167,710	0,115	0,003
-158,979	15,989	0,039	-0,022
-157,964	247,102	0,068	-0,082
-156,950	-200,000	0,005	0,067
-155,935	-200,000	-0,009	-0,039
-154,920	-60,240	-0,127	0,038
-153,906	-200,000	-0,012	0,074
-152,891	-112,327	0,195	0,027
-151,877	93,724	-0,069	0,056
-150,862	-37,495	-0,117	-0,044
-149,847	800,000	0,063	-0,126
-148,833	-200,000	-0,035	0,157
-147,818	800,000	0,028	-0,062
-146,804	231,608	-0,102	0,119
-145,789	34,119	-0,067	0,041
-144,775	800,000	-0,015	0,035
-143,760	-67,645	-0,302	0,083
-142,745	239,321	-0,047	-0,055
-141,731	-200,000	-0,030	-0,124
-140,716	126,593	-0,081	-0,072
-139,702	-106,086	0,043	0,007
-138,687	800,000	-0,023	0,052
-137,672	276,985	0,033	-0,042
-136,658	369,364	0,072	0,103
-135,643	764,387	-0,054	0,105
-134,629	95,092	-0,078	0,063
-133,614	321,422	0,053	-0,072
-132,599	-200,000	0,030	0,139
-131,585	-51,708	-0,037	-0,012
-130,570	-200,000	-0,021	0,089
-129,556	-13,434	-0,037	0,017
-128,541	149,669	0,022	-0,021
-127,526	-67,897	-0,060	-0,017
-126,512	43,023	-0,051	-0,033
-125,497	-200,000	0,035	0,315
-124,483	-200,000	0,041	0,217
-123,468	800,000	-0,024	-0,048
-122,453	-200,000	-0,026	-0,091
-121,439	244,975	-0,041	0,048
-120,424	-3,988	0,125	0,061
-119,410	15,954	-0,157	-0,087
-118,395	240,187	0,048	-0,057
-117,380	-200,000	-0,038	0,162
-116,366	699,292	0,065	0,121
-115,351	12,853	-0,136	-0,074
-114,337	-57,957	0,152	-0,047
-113,322	104,533	-0,024	-0,020
-112,307	800,000	0,011	0,030
-111,293	25,408	0,083	-0,049
-110,278	590,337	0,049	0,086
-109,264	79,791	0,096	0,073
-108,249	-147,261	-0,159	0,009
-107,234	-105,084	-0,179	0,029
-106,220	349,760	-0,118	-0,165
-105,205	-82,340	0,078	0,018
-104,191	-59,734	0,101	-0,031
-103,176	53,204	0,031	0,021
-102,162	54,394	0,022	-0,015
-101,147	800,000	-0,064	0,177
-100,132	-200,000	-0,009	-0,069
-99,118	-200,000	0,010	-0,046
-98,103	-200,000	-0,035	0,131
-97,089	-200,000	0,001	0,107
-96,074	134,491	-0,061	-0,056
-95,059	800,000	-0,004	0,011
-94,045	-127,777	-0,117	0,012
-93,030	47,986	-0,098	-0,065
-92,016	-78,801	-0,045	0,011
-91,001	-21,435	0,149	-0,064
-89,986	54,445	0,072	-0,049
-88,972	-122,310	0,094	0,011
-87,957	800,000	-0,012	0,030
-86,943	256,279	0,021	0,025
-85,928	-200,000	0,002	-0,069
-84,913	-200,000	-0,005	-0,061
-83,899	-200,000	0,009	-0,092
-82,884	-81,375	0,132	-0,031
-81,870	224,395	-0,018	0,020
-80,855	-142,287	0,090	-0,006
-79,840	104,140	-0,051	0,043
-78,826	46,309	-0,165	0,108
-77,811	395,464	-0,059	0,087
-76,797	175,680	-0,031	0,032
-75,782	-74,638	0,040	0,010
-74,767	267,832	0,083	0,103
-73,753	378,055	-0,023	0,033
-72,738	-98,415	-0,167	-0,030
-71,724	-44,240	-0,222	-0,078
-70,709	-200,000	0,028	-0,155
-69,694	437,850	-0,052	0,081
-68,680	-146,250	0,091	-0,006
-67,665	2,171	0,081	0,041
-66,651	-172,437	0,081	0,002
-65,636	50,286	-0,110	0,073
-64,622	800,000	-0,043	-0,085
-63,607	456,739	-0,064	0,100
-62,592	-98,363	-0,124	-0,022
-61,578	-73,922	0,043	-0,011
-60,563	-15,153	0,018	-0,008
-59,549	800,000	0,063	0,144
-58,534	-32,046	-1,843	-0,725
-57,519	391,917	-1,394	-2,052
-56,505	-200,000	-0,309	-4,324
-55,490	429,019	0,790	1,210
-54,476	800,000	5,153	11,453
-53,461	-200,000	19,801	329,913
-52,446	-200,000	745,988	2328,429
-51,432	561,934	1654,855	2839,010
-50,417	76,106	1665,879	1244,244
-49,403	20,211	1538,855	875,333
-48,388	14,140	1461,442	801,903
-47,373	18,660	1451,719	818,267
-46,359	16,633	1441,247	802,670
-45,344	12,400	1436,557	779,857
-44,330	12,285	1434,843	778,343
-43,315	12,304	1433,269	777,551
-42,300	12,352	1431,298	776,677
-41,286	12,332	1430,073	775,890
-40,271	12,312	1428,785	775,062
-39,257	12,310	1427,430	774,289
-38,242	12,357	1426,442	773,944
-37,227	12,410	1425,066	773,418
-36,213	12,367	1423,782	772,485
-35,198	12,347	1422,609	771,725
-34,184	12,445	1421,615	771,617
-33,169	12,309	1420,393	770,281
-32,154	12,391	1419,351	770,075
-31,140	12,411	1418,135	769,477
-30,125	12,480	1416,725	769,005
-29,111	12,428	1415,821	768,243
-28,096	12,394	1414,731	767,457
-27,082	12,319	1413,806	766,575
-26,067	12,327	1412,675	765,970
-25,052	12,325	1411,489	765,285
-24,038	12,304	1410,645	764,701
-23,023	12,333	1409,378	764,119
-22,009	12,294	1408,402	763,377
-20,994	12,281	1407,399	762,741
-19,979	12,264	1406,692	762,247
-18,965	12,250	1405,697	761,614
-17,950	12,265	1404,883	761,212
-16,936	12,270	1404,032	760,742
-15,921	12,276	1402,909	760,134
-14,906	12,246	1402,069	759,508
-13,892	12,255	1401,170	759,036
-12,877	12,233	1400,190	758,369
-11,863	12,199	1399,344	757,722
-10,848	12,177	1398,352	757,055
-9,833	12,172	1397,537	756,560
-8,819	12,098	1396,825	755,800
-7,804	12,129	1396,009	755,474
-6,790	12,132	1394,880	754,845
-5,775	12,227	1393,606	754,566
-4,760	12,134	1392,953	753,754
-3,746	12,121	1391,939	753,116
-2,731	12,122	1391,190	752,686
-1,717	12,090	1390,392	752,077
-0,702	12,110	1388,470	751,097
0,313	16,087	1304,587	724,001
1,327	32,427	698,407	425,025
2,342	49,791	122,061	81,094
3,356	0,996	16,422	8,286
4,371	15,643	3,178	1,758
5,386	-5,218	0,630	0,305
6,400	-200,000	0,095	0,459
7,415	-102,184	-0,437	-0,073
8,429	-188,925	-0,188	0,002
9,444	38,563	-0,294	-0,184
10,459	29,212	-0,286	-0,171
11,473	-200,000	-0,284	0,001
12,488	200,706	-0,247	-0,268
13,502	7,557	-0,397	-0,209
14,517	33,010	-0,272	-0,166
15,531	157,680	-0,342	-0,334
16,546	-11,379	-0,366	-0,169
17,561	117,062	-0,356	-0,308
18,575	-127,154	-0,216	-0,022
19,590	144,471	-0,219	-0,206
20,604	-6,249	-0,314	-0,150
21,619	37,983	-0,429	-0,268
22,634	365,741	-0,349	-0,497
23,648	80,279	-0,372	-0,282
24,663	5,978	-0,427	-0,222
25,677	-18,519	-0,311	-0,136
26,692	83,945	-0,291	-0,223
27,707	97,324	-0,370	-0,299
28,721	14,321	-0,552	-0,303
29,736	570,488	-0,221	-0,381
30,750	38,537	-0,470	-0,295
31,765	45,953	-0,425	-0,276
32,780	800,000	-0,202	-0,469
33,794	203,974	-0,329	-0,359
34,809	4,742	-0,349	-0,180
35,823	172,013	-0,229	-0,231
36,838	88,032	-0,397	-0,309
37,853	333,871	-0,294	-0,401
38,867	207,845	-0,302	-0,332
39,882	64,601	-0,272	-0,193
40,896	43,412	-0,318	-0,204
41,911	79,020	-0,353	-0,266
42,926	31,922	-0,330	-0,199
43,940	22,335	-0,491	-0,282
44,955	207,249	-0,358	-0,393
45,969	70,807	-0,309	-0,225
46,984	129,725	-0,302	-0,272
47,999	432,845	-0,164	-0,251
49,013	6,307	-0,301	-0,157
50,028	213,778	-0,223	-0,248
51,042	150,571	-0,369	-0,353
52,057	127,077	-0,261	-0,233
53,071	289,756	-0,263	-0,336
54,086	-2,178	-0,386	-0,190
55,101	-7,602	-0,406	-0,192
56,115	92,383	-0,289	-0,229
57,130	101,576	-0,340	-0,278
58,144	22,872	-0,502	-0,289
59,159	337,020	-0,240	-0,328
60,174	140,479	-0,323	-0,299
61,188	101,059	-0,347	-0,283
62,203	83,916	-0,341	-0,261
63,217	153,231	-0,195	-0,187
64,232	29,776	-0,352	-0,210
65,247	99,360	-0,273	-0,221
66,261	291,338	-0,257	-0,329
67,276	215,045	-0,372	-0,414
68,290	57,838	-0,301	-0,207
69,305	100,983	-0,359	-0,293
70,320	-116,619	-0,333	-0,042
71,334	170,460	-0,193	-0,194
72,349	260,663	-0,298	-0,362
73,363	112,508	-0,366	-0,311
74,378	32,639	-0,388	-0,235
75,393	190,914	-0,251	-0,266
76,407	248,684	-0,250	-0,298
77,422	-3,595	-0,282	-0,137
78,436	18,216	-0,320	-0,179
79,451	104,018	-0,194	-0,160
80,466	-39,554	-0,336	-0,123
81,480	-50,923	-0,330	-0,108
82,495	110,804	-0,295	-0,249
83,509	278,959	-0,265	-0,333
84,524	48,024	-0,232	-0,152
85,539	113,650	-0,243	-0,207
86,553	50,310	-0,305	-0,202
87,568	155,732	-0,234	-0,226
88,582	78,465	-0,263	-0,197
89,597	-26,249	-0,352	-0,144
90,611	124,469	-0,226	-0,199
91,626	21,501	-0,154	-0,087
92,641	38,198	-0,302	-0,188
93,655	-8,435	-0,278	-0,130
94,670	95,707	-0,316	-0,252
95,684	92,080	-0,288	-0,227
96,699	132,958	-0,209	-0,189
97,714	-5,258	-0,136	-0,065
98,728	222,539	-0,164	-0,185
99,743	187,093	-0,281	-0,294
100,757	51,848	-0,279	-0,186
101,772	263,658	-0,244	-0,297
102,787	101,636	-0,397	-0,324
103,801	28,114	-0,315	-0,186
104,816	-125,211	-0,254	-0,027
105,830	32,674	-0,255	-0,154
106,845	13,160	-0,085	-0,046
107,860	-116,882	-0,267	-0,034
108,874	222,648	-0,098	-0,110
109,889	70,595	-0,265	-0,192
110,903	211,707	-0,164	-0,181
111,918	-85,313	-0,266	-0,058
112,933	84,396	-0,250	-0,191
113,947	140,318	-0,238	-0,220
114,962	11,939	-0,307	-0,164
115,976	-7,377	-0,347	-0,164
116,991	-63,410	-0,432	-0,123
118,006	70,164	-0,289	-0,208
119,020	130,982	-0,193	-0,174
120,035	-159,645	-0,252	-0,010
121,049	31,978	-0,216	-0,130
122,064	25,002	-0,298	-0,172
123,079	259,683	-0,184	-0,222
124,093	1,917	-0,289	-0,145
125,108	202,228	-0,249	-0,268
126,122	313,237	-0,178	-0,234
127,137	140,504	-0,108	-0,100
128,151	113,130	-0,201	-0,170
129,166	59,081	-0,280	-0,192
130,181	258,545	-0,259	-0,312
131,195	267,588	-0,209	-0,256
132,210	179,322	-0,159	-0,162
133,224	144,770	-0,215	-0,200
134,239	528,431	-0,128	-0,211
135,254	76,596	-0,124	-0,092
136,268	9,151	-0,331	-0,174
137,283	-19,478	-0,145	-0,062
138,297	-5,882	-0,287	-0,136
139,312	93,592	-0,290	-0,229
140,327	456,188	-0,147	-0,229
141,341	110,934	-0,113	-0,095
142,356	-146,498	-0,219	0,013
143,370	140,520	-0,162	-0,149
144,385	362,033	-0,128	-0,179
145,400	72,943	-0,304	-0,221
146,414	-44,230	-0,348	-0,121
147,429	153,512	-0,144	-0,138
148,443	50,241	-0,176	-0,116
149,458	109,737	-0,213	-0,178
150,473	-97,446	-0,282	-0,051
151,487	800,000	-0,094	-0,276
152,502	82,976	-0,313	-0,237
153,516	388,966	-0,141	-0,204
154,531	98,623	-0,172	-0,138
155,546	28,154	-0,231	-0,135
156,560	-38,477	-0,153	-0,056
157,575	31,078	-0,253	-0,151
158,589	-72,443	-0,287	-0,073
159,604	26,896	-0,197	-0,115
160,619	135,075	-0,201	-0,182
161,633	44,278	-0,260	-0,166
162,648	471,274	-0,144	-0,226
163,662	-8,061	-0,240	-0,112
164,677	-66,114	-0,142	-0,039
165,692	20,278	-0,300	-0,168
166,706	126,145	-0,224	-0,198
167,721	-51,259	-0,385	-0,125
168,735	43,840	-0,262	-0,167
169,750	-116,819	-0,229	-0,029
170,764	-144,770	-0,248	-0,016
171,779	-44,564	-0,207	-0,072
172,794	164,768	-0,142	-0,139
173,808	224,645	-0,235	-0,264
174,823	160,208	-0,260	-0,252
175,837	278,650	-0,227	-0,282
176,852	325,603	-0,180	-0,240
177,867	96,286	-0,264	-0,210
178,881	119,876	-0,135	-0,116
179,896	-52,210	-0,220	-0,070
180,910	-63,635	-0,278	-0,079
181,925	800,000	-0,129	-0,263
182,940	0,442	-0,349	-0,173
183,954	109,846	-0,176	-0,147
184,969	-140,798	-0,144	0,010
185,983	716,372	-0,113	-0,210
186,998	148,292	-0,157	-0,148
188,013	-17,069	-0,147	-0,064
189,027	28,925	-0,182	-0,107
190,042	89,384	-0,176	-0,136
191,056	110,574	-0,250	-0,208
192,071	382,947	-0,203	-0,291
193,086	-95,111	-0,263	0,049
194,100	-39,661	-0,226	0,082
195,115	154,422	-0,190	-0,181
196,129	35,537	-0,359	-0,218
197,144	67,657	-0,233	-0,165
198,159	-9,072	-0,204	-0,095
199,173	-132,476	-0,203	-0,018
200,188	44,791	-0,335	-0,213
201,202	289,492	-0,201	-0,253
202,217	170,881	-0,133	-0,132
203,232	1,175	-0,296	-0,147
204,246	350,129	-0,180	-0,247
205,261	9,084	-0,231	-0,121
206,275	145,363	-0,304	-0,282
207,290	-131,136	-0,266	-0,024
208,304	-101,271	-0,277	-0,046
209,319	-16,039	-0,150	-0,066
210,334	88,381	-0,094	-0,073
211,348	152,360	-0,304	-0,288
212,363	162,239	-0,164	-0,159
213,377	-38,573	-0,309	-0,113
214,392	292,695	-0,129	-0,163
215,407	147,274	-0,157	-0,147
216,421	-200,000	-0,006	-0,256
217,436	-98,886	-0,174	0,030
218,450	25,137	-0,176	-0,101
219,465	146,211	-0,140	-0,131
220,480	212,952	-0,228	-0,249
221,494	-103,006	-0,321	0,052
222,509	9,407	-0,180	-0,094
223,523	800,000	-0,049	0,103
224,538	29,290	-0,187	-0,110
225,553	-82,707	-0,234	-0,052
226,567	106,792	-0,116	-0,095
227,582	12,274	-0,141	-0,075
228,596	-35,668	-0,244	-0,091
229,611	-91,813	-0,276	-0,054
230,626	32,846	-0,218	-0,130
231,640	64,621	-0,147	-0,103
232,655	-4,303	-0,232	-0,111
233,669	115,810	-0,181	-0,153
234,684	505,738	-0,123	-0,199
235,699	76,774	-0,167	-0,123
236,713	160,208	-0,105	-0,102
237,728	-98,589	-0,218	0,038
238,742	-122,073	-0,301	-0,034
239,757	331,916	-0,162	-0,216
240,772	425,393	-0,085	-0,127
241,786	-200,000	-0,020	-0,104
242,801	800,000	-0,103	-0,240
243,815	-200,000	0,037	-0,135
244,830	-129,336	-0,301	-0,029
245,844	800,000	-0,054	-0,132
246,859	142,949	-0,111	-0,102
247,874	268,770	-0,218	-0,265
248,888	560,882	-0,192	-0,322
249,903	-9,387	-0,242	-0,111
250,917	50,040	-0,264	-0,172
251,932	93,295	-0,225	-0,175
252,947	344,280	-0,112	-0,152
253,961	-4,192	-0,191	-0,091
254,976	4,557	-0,234	-0,118
255,990	139,451	-0,197	-0,179
257,005	-28,167	-0,303	-0,120
258,020	-5,353	-0,218	-0,103
259,034	141,025	-0,082	-0,075
260,049	-119,577	-0,223	-0,026
261,063	640,404	-0,124	-0,219
262,078	245,409	-0,146	-0,170
263,093	-6,086	-0,180	-0,084
264,107	-19,592	-0,188	-0,080
265,122	129,923	-0,128	-0,113
266,136	0,919	-0,261	-0,129
267,151	108,049	-0,136	-0,112
268,166	800,000	-0,088	-0,235
269,180	40,594	-0,187	-0,116
270,195	74,317	-0,200	-0,145
271,209	-56,764	-0,182	-0,055
272,224	161,766	-0,136	-0,131
273,239	660,693	-0,154	-0,275
274,253	89,879	-0,150	-0,115
275,268	440,159	-0,152	-0,230
276,282	-42,692	-0,107	-0,037
277,297	101,630	-0,251	-0,202
278,312	132,860	-0,220	-0,195
279,326	85,484	-0,082	-0,062
280,341	261,763	-0,165	-0,197
281,355	430,402	-0,104	-0,156
282,370	-25,248	-0,239	-0,097
283,384	94,985	-0,255	-0,200
284,399	57,128	-0,226	-0,151
285,414	190,045	-0,137	-0,142
286,428	161,685	-0,198	-0,191
287,443	138,361	-0,109	-0,098
288,457	367,033	-0,162	-0,225
289,472	-200,000	-0,022	-0,126
290,487	-107,664	-0,042	0,006
291,501	170,053	-0,192	-0,190
292,516	800,000	-0,115	-0,252
293,530	226,994	-0,102	-0,115
294,545	800,000	-0,076	-0,160
295,560	545,482	0,055	-0,091
296,574	800,000	-0,068	-0,151
297,589	800,000	-0,115	-0,241
298,603	-40,674	-0,222	-0,079
299,618	-200,000	-0,013	-0,104
300,633	800,000	-0,124	-0,248
301,647	-29,494	-0,199	0,078
302,662	69,898	-0,225	-0,159
303,676	-200,000	0,016	-0,164
304,691	490,184	-0,117	-0,185
305,706	-200,000	-0,045	-0,213
306,720	27,892	-0,277	-0,160
307,735	800,000	-0,070	-0,191
308,749	284,552	-0,124	-0,154
309,764	-23,494	-0,194	0,080
310,779	55,327	-0,083	-0,055
311,793	160,364	-0,130	-0,125
312,808	-68,586	-0,135	-0,036
313,822	-189,014	-0,155	0,001
314,837	-106,089	-0,198	-0,030
315,852	-75,716	-0,158	-0,038
316,866	336,763	-0,045	0,061
317,881	-119,071	-0,132	0,016
318,895	800,000	-0,075	-0,153
319,910	-96,427	-0,213	-0,038
320,925	-38,270	-0,201	-0,073
321,939	192,330	-0,122	-0,126
322,954	459,058	-0,092	-0,142
323,968	193,303	-0,141	-0,146
324,983	800,000	-0,025	-0,053
325,997	-103,062	-0,132	0,021
327,012	-70,158	-0,278	-0,072
328,027	-149,410	-0,150	-0,008
329,041	-67,505	-0,098	-0,026
330,056	-23,776	-0,196	-0,080
331,070	113,402	-0,202	-0,169
332,085	-31,103	-0,048	-0,019
333,100	43,851	-0,175	-0,109
334,114	-26,506	-0,205	-0,082
335,129	243,645	-0,204	-0,234
336,143	144,304	-0,134	-0,122
337,158	-200,000	-0,006	0,038
338,173	-4,615	-0,117	-0,055
339,187	-58,803	-0,124	-0,037
340,202	-0,265	-0,213	0,103
341,216	40,280	-0,248	-0,153
342,231	5,770	-0,153	-0,077
343,246	240,305	-0,106	-0,121
344,260	-0,103	-0,120	0,058
345,275	-122,588	-0,149	0,016
346,289	416,781	-0,078	-0,114
347,304	-9,770	-0,109	0,049
348,319	-187,354	-0,126	0,001
349,333	-17,921	-0,210	-0,090
350,348	53,060	-0,218	-0,143
351,362	-53,867	-0,204	-0,063
352,377	34,150	-0,081	-0,048
353,392	766,481	-0,023	0,043
354,406	800,000	-0,062	0,123
355,421	206,492	1313,314	1401,582
356,435	158,811	1473,858	1402,084
