DTS Sentinel unit serial number:	SN410029Multiplexer serial number:	ORYXHardware model number:	OX2-SRSoftware version number:	ORYX F/W v4,00 Oryx Data Collector v3.7.2.0data status	okinstallation	B3 Nyhavnadifferential loss correction	single-endedforward channel	channel 1reverse channel	N/Adate	2023/12/05time	04:32:30forward acquisition time	300,00reverse acquisition time	0,00gamma	499,1914k internal	0,3201k external	0,3201temperature offset calibration	1,0000default loss term (dB/km)	0,3820temperature slope calibration	1,0000multiplexer offset coefficient	1,0000multiplexer slope coefficient	1,0000fibre end	0,00T internal ref (°C)	14,14T ext. ref 1 (°C)	-0,82T ext. ref 2 (°C)	-0,85length (m)	temperature (°C)	Stokes	anti-Stokes-744,400	312,208	-0,224	-0,306
-743,385	800,000	0,120	0,372
-742,371	395,541	-0,169	-0,257
-741,356	-200,000	-0,076	0,250
-740,342	-200,000	-0,036	-0,170
-739,327	-200,000	0,025	0,339
-738,312	340,149	-0,152	-0,216
-737,298	-200,000	-0,004	0,327
-736,283	97,944	-0,189	-0,158
-735,269	-200,000	-0,023	0,245
-734,254	328,200	-0,196	-0,274
-733,239	-43,207	-0,206	0,076
-732,225	-200,000	0,031	-0,170
-731,210	213,351	0,088	0,101
-730,196	-200,000	0,040	-0,165
-729,181	-200,000	0,004	-0,198
-728,167	117,542	0,030	-0,027
-727,152	200,099	-0,026	0,029
-726,137	483,589	-0,020	0,033
-725,123	800,000	-0,046	-0,116
-724,108	284,063	-0,109	-0,143
-723,094	-200,000	-0,021	-0,217
-722,079	44,413	-0,078	0,052
-721,064	-22,952	-0,085	-0,037
-720,050	-69,995	-0,087	0,024
-719,035	251,560	-0,061	-0,076
-718,021	-200,000	0,006	-0,055
-717,006	369,902	0,050	-0,074
-715,991	-86,875	-0,189	0,042
-714,977	94,688	-0,058	-0,048
-713,962	-49,899	-0,067	-0,023
-712,948	-200,000	0,037	0,133
-711,933	-200,000	-0,011	-0,161
-710,918	-101,183	-0,169	-0,030
-709,904	-89,397	-0,123	-0,026
-708,889	800,000	-0,034	-0,083
-707,875	764,523	-0,097	-0,192
-706,860	800,000	-0,046	-0,114
-705,845	-171,920	-0,164	-0,004
-704,831	-105,504	-0,039	-0,006
-703,816	800,000	0,032	-0,084
-702,802	800,000	-0,012	0,035
-701,787	590,508	-0,025	-0,044
-700,772	-97,725	-0,098	-0,018
-699,758	11,612	0,072	0,040
-698,743	129,399	0,083	0,077
-697,729	-200,000	-0,039	0,155
-696,714	117,227	0,077	-0,069
-695,699	-36,313	-0,049	-0,019
-694,685	-200,000	-0,029	-0,174
-693,670	-200,000	-0,010	0,063
-692,656	-35,742	-0,088	0,034
-691,641	-200,000	-0,012	-0,082
-690,627	-128,124	-0,057	-0,006
-689,612	-23,425	0,087	0,038
-688,597	263,029	0,039	0,049
-687,583	-27,110	-0,160	-0,068
-686,568	451,083	-0,100	-0,161
-685,554	-200,000	-0,029	-0,114
-684,539	-31,164	-0,105	0,043
-683,524	64,303	0,030	0,022
-682,510	800,000	0,079	0,161
-681,495	-136,459	-0,081	-0,007
-680,481	423,914	-0,084	-0,131
-679,466	-129,067	-0,169	-0,017
-678,451	800,000	-0,041	-0,111
-677,437	-151,299	-0,142	-0,008
-676,422	-200,000	0,003	0,168
-675,408	538,747	0,013	0,022
-674,393	174,573	-0,036	-0,038
-673,378	800,000	0,043	0,110
-672,364	-200,000	-0,028	-0,165
-671,349	-200,000	-0,060	-0,240
-670,335	-103,437	0,072	0,012
-669,320	8,233	0,038	-0,021
-668,305	-147,946	0,138	-0,008
-667,291	-123,833	-0,025	-0,003
-666,276	26,564	-0,045	-0,028
-665,262	-157,421	-0,101	-0,004
-664,247	-200,000	0,014	-0,140
-663,232	-200,000	-0,007	-0,090
-662,218	-200,000	0,008	0,068
-661,203	-120,948	0,086	-0,010
-660,189	126,798	-0,142	-0,131
-659,174	161,588	0,070	0,071
-658,159	19,067	-0,069	-0,040
-657,145	800,000	-0,070	-0,172
-656,130	-93,356	0,108	-0,021
-655,116	289,783	0,105	0,139
-654,101	-200,000	-0,001	0,053
-653,086	-200,000	-0,044	0,179
-652,072	144,854	0,090	-0,087
-651,057	-142,084	-0,141	0,010
-650,043	800,000	-0,030	-0,087
-649,028	-77,691	0,114	-0,028
-648,014	-200,000	0,027	0,099
-646,999	113,117	-0,043	0,038
-645,984	45,563	0,114	0,076
-644,970	36,083	-0,034	-0,022
-643,955	438,470	-0,082	-0,129
-642,941	15,552	-0,043	-0,024
-641,926	-200,000	0,001	0,022
-640,911	787,106	-0,080	-0,160
-639,897	-35,160	0,111	0,044
-638,882	543,452	-0,042	-0,073
-637,868	-200,000	0,004	-0,013
-636,853	416,194	-0,080	-0,124
-635,838	39,758	-0,111	0,072
-634,824	800,000	-0,040	0,126
-633,809	-200,000	0,033	-0,107
-632,795	-200,000	0,004	0,113
-631,780	-39,721	-0,040	0,015
-630,765	41,633	-0,134	-0,088
-629,751	164,323	-0,033	0,034
-628,736	-137,542	0,087	0,007
-627,722	109,838	-0,076	0,066
-626,707	430,412	0,010	-0,016
-625,692	39,419	-0,085	0,055
-624,678	92,388	0,090	0,074
-623,663	-200,000	-0,004	-0,101
-622,649	-40,830	-0,117	0,044
-621,634	76,342	0,164	-0,126
-620,619	800,000	0,039	-0,081
-619,605	-11,416	0,054	0,026
-618,590	-24,252	0,051	-0,022
-617,576	800,000	0,035	0,096
-616,561	121,425	0,026	-0,023
-615,546	691,378	0,057	-0,109
-614,532	-200,000	-0,037	-0,177
-613,517	800,000	0,059	0,125
-612,503	200,658	0,043	0,048
-611,488	800,000	-0,027	-0,056
-610,474	-67,903	-0,038	-0,011
-609,459	125,347	0,178	-0,162
-608,444	-200,000	0,006	-0,030
-607,430	-83,637	-0,079	-0,018
-606,415	58,692	-0,074	0,052
-605,401	-53,664	0,099	-0,032
-604,386	15,546	-0,130	-0,074
-603,371	111,214	-0,013	-0,012
-602,357	-200,000	0,003	0,178
-601,342	-140,757	0,118	0,009
-600,328	91,283	-0,048	-0,039
-599,313	-200,000	0,031	-0,157
-598,298	125,519	-0,093	-0,085
-597,284	-170,256	0,161	0,004
-596,269	-19,170	-0,071	-0,032
-595,255	800,000	0,036	0,088
-594,240	512,360	-0,053	0,089
-593,225	36,639	-0,106	-0,067
-592,211	-200,000	-0,007	0,052
-591,196	-200,000	0,003	0,063
-590,182	800,000	0,019	0,042
-589,167	294,745	-0,036	0,048
-588,152	-164,341	-0,082	0,003
-587,138	800,000	0,041	0,111
-586,123	800,000	0,009	-0,027
-585,109	-200,000	0,007	-0,107
-584,094	-86,626	-0,106	-0,023
-583,079	800,000	0,031	0,095
-582,065	255,022	0,062	0,077
-581,050	-200,000	0,001	-0,065
-580,036	-200,000	-0,019	0,092
-579,021	33,336	-0,082	0,051
-578,006	-48,597	-0,112	-0,039
-576,992	-55,900	-0,086	-0,028
-575,977	8,699	0,110	-0,060
-574,963	-77,867	-0,087	-0,022
-573,948	-200,000	-0,003	0,039
-572,934	-129,015	-0,096	-0,010
-571,919	-200,000	0,031	-0,105
-570,904	-200,000	0,019	-0,094
-569,890	580,541	-0,049	0,087
-568,875	141,295	0,073	-0,070
-567,861	-9,529	-0,059	-0,028
-566,846	312,877	0,086	-0,117
-565,831	-104,063	-0,082	-0,014
-564,817	76,381	0,056	-0,043
-563,802	61,880	-0,148	-0,107
-562,788	-200,000	-0,000	-0,076
-561,773	800,000	-0,048	0,122
-560,758	691,853	-0,045	-0,086
-559,744	800,000	0,052	0,113
-558,729	-200,000	-0,037	0,244
-557,715	194,342	-0,142	-0,156
-556,700	-200,000	0,050	-0,196
-555,685	19,848	-0,093	0,054
-554,671	335,238	-0,035	0,050
-553,656	-120,403	0,100	0,012
-552,642	-200,000	0,039	-0,137
-551,627	108,876	0,018	0,016
-550,612	-200,000	-0,013	0,095
-549,598	-21,902	0,121	0,053
-548,583	800,000	-0,018	-0,049
-547,569	435,455	-0,150	0,237
-546,554	42,222	-0,113	-0,074
-545,539	127,458	0,007	0,006
-544,525	-92,848	-0,074	-0,015
-543,510	39,929	0,083	0,054
-542,496	-136,926	-0,070	-0,006
-541,481	-200,000	0,046	-0,150
-540,466	-200,000	-0,002	-0,048
-539,452	249,947	0,044	0,054
-538,437	-106,531	0,181	0,029
-537,423	-200,000	0,022	0,080
-536,408	136,536	-0,039	-0,037
-535,393	-52,215	0,031	0,010
-534,379	276,357	-0,092	0,118
-533,364	-200,000	0,026	-0,111
-532,350	800,000	-0,018	-0,056
-531,335	-200,000	0,043	-0,141
-530,321	-82,479	0,087	0,020
-529,306	173,943	-0,027	0,028
-528,291	-200,000	0,008	-0,120
-527,277	-200,000	-0,011	-0,143
-526,262	-114,625	-0,051	-0,007
-525,248	-200,000	0,003	0,057
-524,233	-111,780	0,120	0,017
-523,218	491,176	-0,014	-0,022
-522,204	2,180	0,006	-0,003
-521,189	79,748	0,074	-0,057
-520,175	800,000	-0,036	-0,084
-519,160	800,000	0,045	-0,121
-518,145	-200,000	0,003	-0,029
-517,131	167,571	0,076	0,077
-516,116	-93,688	0,066	-0,013
-515,102	-112,880	-0,013	-0,002
-514,087	123,376	0,016	-0,015
-513,072	800,000	-0,024	-0,057
-512,058	-59,719	-0,147	0,045
-511,043	-118,723	-0,094	-0,012
-510,029	125,127	0,051	0,046
-509,014	17,482	-0,033	-0,019
-507,999	-6,911	-0,132	-0,064
-506,985	-96,850	-0,124	-0,023
-505,970	800,000	0,022	-0,046
-504,956	59,128	0,076	-0,054
-503,941	-15,517	0,072	-0,033
-502,926	52,405	-0,035	0,024
-501,912	-93,236	0,051	-0,010
-500,897	123,611	0,033	-0,030
-499,883	402,660	0,090	0,137
-498,868	-200,000	0,005	-0,091
-497,853	-200,000	0,007	-0,235
-496,839	42,841	0,103	0,067
-495,824	-106,368	-0,167	0,027
-494,810	-200,000	0,000	-0,027
-493,795	442,436	0,040	0,064
-492,781	-200,000	-0,010	0,073
-491,766	-69,912	0,015	-0,004
-490,751	108,212	0,084	-0,072
-489,737	-68,230	-0,073	0,020
-488,722	800,000	-0,048	0,146
-487,708	-51,318	0,083	-0,028
-486,693	42,585	0,078	-0,051
-485,678	-159,064	-0,088	-0,004
-484,664	-200,000	-0,018	-0,128
-483,649	684,059	-0,058	0,109
-482,635	84,663	0,122	-0,096
-481,620	800,000	-0,011	-0,034
-480,605	55,732	0,113	0,079
-479,591	106,049	-0,071	0,061
-478,576	8,231	-0,134	0,072
-477,562	588,469	-0,068	-0,121
-476,547	-137,307	-0,180	-0,014
-475,532	673,975	-0,031	0,059
-474,518	800,000	-0,048	-0,107
-473,503	83,930	0,095	0,075
-472,489	-200,000	0,029	0,099
-471,474	-82,368	0,142	0,033
-470,459	-68,777	0,205	-0,057
-469,445	-56,257	-0,053	-0,017
-468,430	46,428	0,175	-0,117
-467,416	-200,000	0,025	-0,086
-466,401	-200,000	-0,017	-0,053
-465,386	-200,000	0,022	0,076
-464,372	207,220	-0,037	0,042
-463,357	-14,916	-0,147	-0,068
-462,343	800,000	0,021	0,048
-461,328	161,225	-0,033	-0,033
-460,313	299,385	0,108	-0,144
-459,299	352,839	0,033	0,047
-458,284	800,000	-0,048	0,141
-457,270	97,332	0,084	-0,069
-456,255	-33,991	-0,115	-0,045
-455,241	721,433	-0,062	-0,119
-454,226	-200,000	0,024	-0,114
-453,211	93,913	0,034	0,028
-452,197	-200,000	0,015	0,100
-451,182	-104,004	0,064	0,011
-450,168	-200,000	-0,039	0,180
-449,153	782,757	-0,092	0,182
-448,138	800,000	0,047	-0,108
-447,124	800,000	-0,027	0,072
-446,109	-36,527	0,110	-0,042
-445,095	354,819	0,058	-0,083
-444,080	-200,000	0,000	-0,014
-443,065	320,002	0,095	0,130
-442,051	224,701	-0,056	-0,065
-441,036	800,000	-0,076	-0,183
-440,022	269,279	-0,071	0,090
-439,007	-122,999	-0,023	0,003
-437,992	-185,425	0,038	0,000
-436,978	282,533	-0,027	0,035
-435,963	-200,000	0,011	0,155
-434,949	-200,000	0,001	-0,036
-433,934	205,395	-0,075	-0,084
-432,919	-200,000	-0,019	-0,100
-431,905	-14,663	-0,088	-0,041
-430,890	-177,551	-0,090	0,002
-429,876	-200,000	0,053	0,177
-428,861	13,384	-0,058	0,032
-427,846	800,000	0,036	0,085
-426,832	-200,000	-0,009	-0,074
-425,817	-119,016	-0,132	0,016
-424,803	684,683	-0,132	0,248
-423,788	-200,000	0,012	0,147
-422,773	800,000	-0,054	0,168
-421,759	-15,676	-0,045	0,021
-420,744	-86,571	0,091	0,020
-419,730	721,907	0,016	-0,030
-418,715	-200,000	0,001	0,089
-417,701	-200,000	-0,024	-0,080
-416,686	800,000	0,040	-0,091
-415,671	-134,632	-0,085	0,007
-414,657	800,000	-0,028	0,059
-413,642	800,000	-0,021	-0,043
-412,628	154,359	0,090	-0,089
-411,613	201,278	-0,069	-0,076
-410,598	-200,000	-0,003	0,011
-409,584	177,008	0,046	-0,048
-408,569	6,202	0,104	0,055
-407,555	-200,000	0,010	-0,074
-406,540	293,042	-0,038	0,050
-405,525	-200,000	0,028	-0,110
-404,511	111,880	0,054	-0,047
-403,496	56,108	-0,074	0,052
-402,482	26,761	0,039	0,023
-401,467	200,197	0,108	0,119
-400,452	-200,000	0,005	-0,052
-399,438	-200,000	0,013	0,088
-398,423	-41,767	-0,107	0,039
-397,409	-200,000	-0,009	0,113
-396,394	90,092	-0,048	0,039
-395,379	78,691	0,093	-0,071
-394,365	175,968	0,075	-0,078
-393,350	648,868	0,033	0,061
-392,336	264,042	-0,020	0,025
-391,321	-40,015	-0,165	-0,062
-390,306	-200,000	-0,045	-0,190
-389,292	20,833	0,056	-0,032
-388,277	-200,000	-0,021	-0,199
-387,263	-200,000	0,007	-0,047
-386,248	-200,000	0,009	-0,037
-385,233	390,531	-0,071	0,106
-384,219	-200,000	0,016	0,145
-383,204	93,931	-0,124	0,101
-382,190	216,964	-0,056	-0,065
-381,175	-106,660	-0,155	0,024
-380,160	190,843	0,077	0,083
-379,146	-200,000	-0,014	-0,091
-378,131	534,033	0,049	0,083
-377,117	248,036	0,046	-0,056
-376,102	-30,001	0,017	-0,007
-375,088	303,143	0,082	-0,109
-374,073	-200,000	-0,015	-0,081
-373,058	-109,791	0,071	0,011
-372,044	-60,697	0,040	-0,012
-371,029	29,323	0,142	0,086
-370,015	65,164	-0,075	0,054
-369,000	-200,000	-0,016	0,095
-367,985	-200,000	0,049	-0,169
-366,971	800,000	-0,042	0,113
-365,956	-57,689	0,068	0,021
-364,942	489,130	0,102	-0,168
-363,927	59,213	-0,084	0,059
-362,912	-200,000	-0,021	0,117
-361,898	-200,000	-0,023	-0,152
-360,883	774,063	-0,028	0,056
-359,869	729,631	-0,039	0,076
-358,854	30,774	0,105	0,064
-357,839	-42,551	0,057	-0,021
-356,825	5,077	0,103	-0,054
-355,810	223,216	-0,060	0,070
-354,796	423,838	0,040	0,062
-353,781	628,138	0,062	0,113
-352,766	238,100	-0,081	0,096
-351,752	185,783	-0,046	-0,049
-350,737	-54,356	0,075	0,024
-349,723	256,053	0,108	0,133
-348,708	-24,184	0,036	0,015
-347,693	224,888	0,062	0,072
-346,679	800,000	-0,035	-0,077
-345,664	-200,000	-0,011	-0,068
-344,650	-139,329	-0,025	0,002
-343,635	-116,978	0,092	-0,012
-342,620	25,222	-0,079	0,047
-341,606	575,585	0,026	0,045
-340,591	273,402	-0,063	-0,080
-339,577	800,000	0,045	-0,122
-338,562	-200,000	-0,017	0,106
-337,548	-200,000	-0,001	-0,004
-336,533	800,000	0,017	-0,039
-335,518	-171,029	0,060	0,001
-334,504	173,849	0,046	0,048
-333,489	294,424	-0,033	-0,043
-332,475	302,488	-0,073	-0,097
-331,460	394,186	-0,071	-0,106
-330,445	-65,901	-0,024	-0,007
-329,431	-25,923	-0,082	0,034
-328,416	-200,000	-0,033	0,108
-327,402	-200,000	0,000	0,108
-326,387	12,270	-0,063	-0,034
-325,372	-24,329	-0,060	-0,025
-324,358	800,000	0,070	-0,153
-323,343	800,000	-0,030	0,064
-322,329	-82,527	0,213	0,049
-321,314	402,038	-0,076	0,115
-320,299	773,577	0,039	0,076
-319,285	-64,119	0,071	-0,020
-318,270	-200,000	0,009	-0,093
-317,256	76,531	0,061	0,047
-316,241	-200,000	-0,034	-0,141
-315,226	399,194	0,068	0,103
-314,212	-111,873	-0,034	0,005
-313,197	312,826	-0,013	0,017
-312,183	-200,000	0,006	-0,057
-311,168	-160,553	-0,099	0,004
-310,153	-8,453	-0,060	-0,029
-309,139	-80,908	0,019	-0,005
-308,124	592,020	-0,025	-0,045
-307,110	-200,000	-0,001	0,098
-306,095	-45,718	0,157	0,055
-305,080	64,414	0,089	0,064
-304,066	-57,483	-0,091	-0,028
-303,051	715,690	-0,156	-0,297
-302,037	-109,238	0,042	-0,006
-301,022	34,948	0,075	0,047
-300,008	103,753	-0,063	-0,053
-298,993	15,501	0,109	-0,061
-297,978	-200,000	-0,013	0,162
-296,964	78,581	0,016	-0,012
-295,949	220,637	-0,009	-0,010
-294,935	184,809	-0,120	0,127
-293,920	151,361	-0,136	0,132
-292,905	376,296	-0,030	0,044
-291,891	-200,000	0,029	0,150
-290,876	-89,650	-0,013	-0,003
-289,862	-200,000	-0,007	0,146
-288,847	-80,210	0,082	-0,019
-287,832	-124,021	-0,069	-0,008
-286,818	144,257	-0,034	0,032
-285,803	-92,414	-0,024	-0,005
-284,789	332,446	-0,051	0,071
-283,774	800,000	0,034	0,079
-282,759	-200,000	-0,004	-0,021
-281,745	-86,373	-0,046	-0,010
-280,730	399,912	-0,085	0,127
-279,716	-200,000	0,017	0,065
-278,701	199,497	0,095	-0,105
-277,686	-30,519	0,102	0,041
-276,672	800,000	-0,024	0,048
-275,657	-90,327	0,141	-0,029
-274,643	62,376	0,038	0,027
-273,628	-200,000	0,003	-0,053
-272,613	-1,694	0,094	-0,047
-271,599	-198,653	0,090	-0,000
-270,584	-200,000	-0,038	0,130
-269,570	23,200	0,101	0,059
-268,555	-117,960	0,083	-0,010
-267,540	-200,000	0,004	-0,030
-266,526	93,921	0,070	-0,057
-265,511	500,138	0,015	-0,025
-264,497	-200,000	0,034	0,123
-263,482	-66,878	0,142	0,040
-262,467	250,772	0,053	0,065
-261,453	-200,000	0,012	0,051
-260,438	-60,416	-0,033	0,010
-259,424	484,056	-0,039	-0,063
-258,409	800,000	-0,030	0,070
-257,395	-200,000	0,042	0,155
-256,380	-21,921	0,028	0,012
-255,365	237,431	0,039	0,046
-254,351	129,995	-0,063	0,057
-253,336	38,458	-0,055	-0,035
-252,322	3,845	-0,085	-0,044
-251,307	-50,277	0,066	-0,022
-250,292	-200,000	0,016	-0,123
-249,278	83,712	0,147	0,114
-248,263	-154,000	-0,118	0,006
-247,249	800,000	0,049	-0,103
-246,234	49,183	-0,036	-0,024
-245,219	800,000	0,021	-0,061
-244,205	107,000	-0,109	0,092
-243,190	44,960	0,030	-0,019
-242,176	-200,000	0,002	-0,054
-241,161	78,319	0,065	0,050
-240,146	116,889	0,081	0,071
-239,132	283,237	0,065	-0,084
-238,117	-200,000	-0,018	-0,071
-237,103	54,850	0,058	-0,040
-236,088	266,828	-0,041	0,052
-235,073	5,452	0,076	0,040
-234,059	126,430	0,134	0,121
-233,044	-148,694	0,092	0,005
-232,030	-121,210	-0,023	-0,003
-231,015	800,000	0,055	-0,142
-230,000	-200,000	-0,012	-0,053
-228,986	-130,581	0,141	0,013
-227,971	-181,976	0,207	0,003
-226,957	800,000	0,004	-0,009
-225,942	-200,000	0,023	0,129
-224,927	-172,950	0,101	-0,002
-223,913	-125,715	-0,291	-0,031
-222,898	314,239	-0,056	-0,076
-221,884	-200,000	0,011	0,036
-220,869	-200,000	0,024	0,092
-219,855	-148,728	0,179	0,010
-218,840	-200,000	0,004	-0,022
-217,825	-76,127	-0,078	-0,020
-216,811	-200,000	0,001	-0,066
-215,796	-31,169	-0,088	0,035
-214,782	800,000	0,007	-0,014
-213,767	218,819	-0,119	-0,136
-212,752	-200,000	0,028	-0,155
-211,738	287,161	0,104	0,134
-210,723	-53,603	-0,080	-0,026
-209,709	-38,319	-0,088	0,033
-208,694	248,755	-0,070	0,085
-207,679	301,640	-0,091	0,120
-206,665	800,000	-0,029	0,065
-205,650	-55,171	-0,053	0,017
-204,636	-200,000	0,026	0,084
-203,621	15,178	-0,096	0,053
-202,606	-115,222	-0,168	-0,022
-201,592	236,600	-0,042	0,049
-200,577	21,630	-0,089	-0,051
-199,563	402,213	-0,055	-0,083
-198,548	59,777	-0,040	-0,028
-197,533	-83,820	0,047	0,011
-196,519	-54,542	0,082	0,026
-195,504	-31,320	0,060	-0,024
-194,490	-141,016	-0,058	0,004
-193,475	-200,000	0,036	0,127
-192,460	693,764	0,007	0,013
-191,446	-200,000	-0,012	0,076
-190,431	-130,224	-0,095	0,009
-189,417	376,738	-0,043	-0,063
-188,402	266,759	-0,066	-0,082
-187,387	800,000	0,035	-0,088
-186,373	133,130	-0,074	-0,068
-185,358	-200,000	0,016	-0,055
-184,344	475,642	0,058	-0,093
-183,329	79,740	-0,083	-0,063
-182,315	79,094	0,064	0,049
-181,300	-32,928	-0,038	-0,015
-180,285	149,761	-0,067	-0,065
-179,271	-113,389	0,065	-0,009
-178,256	800,000	-0,035	0,089
-177,242	-200,000	0,026	0,156
-176,227	-38,458	0,165	0,062
-175,212	-122,802	-0,033	-0,004
-174,198	56,303	0,027	-0,019
-173,183	78,679	-0,076	0,058
-172,169	633,677	-0,053	0,097
-171,154	-200,000	0,002	-0,102
-170,139	-60,311	0,035	0,011
-169,125	-200,000	-0,005	0,056
-168,110	-13,740	0,080	0,036
-167,096	-200,000	0,027	-0,105
-166,081	232,047	-0,050	-0,058
-165,066	800,000	-0,026	-0,074
-164,052	-49,781	-0,078	-0,026
-163,037	-164,216	0,033	-0,001
-162,023	-155,073	0,127	0,006
-161,008	167,499	0,049	0,049
-159,993	-200,000	0,013	-0,043
-158,979	125,025	0,099	-0,089
-157,964	-166,469	-0,257	-0,007
-156,950	460,030	0,030	-0,047
-155,935	-200,000	-0,016	-0,134
-154,920	-79,075	0,155	-0,037
-153,906	-200,000	-0,012	0,097
-152,891	100,073	-0,062	-0,051
-151,877	-42,291	0,111	0,040
-150,862	120,310	-0,112	-0,099
-149,847	50,972	0,051	0,035
-148,833	48,232	-0,094	0,062
-147,818	102,648	0,050	-0,041
-146,804	63,066	0,111	-0,079
-145,789	-200,000	0,003	0,071
-144,775	676,701	0,028	-0,052
-143,760	334,626	-0,046	-0,064
-142,745	82,333	-0,066	-0,051
-141,731	148,780	0,060	-0,057
-140,716	365,417	0,029	0,041
-139,702	26,708	-0,050	-0,030
-138,687	-200,000	-0,015	0,085
-137,672	547,017	0,039	-0,067
-136,658	214,094	-0,039	-0,043
-135,643	34,311	0,109	-0,067
-134,629	-15,812	-0,072	0,033
-133,614	210,588	0,011	0,012
-132,599	91,966	0,054	0,043
-131,585	721,510	-0,035	-0,066
-130,570	166,309	-0,088	0,089
-129,556	761,903	-0,046	0,089
-128,541	-34,868	-0,133	-0,051
-127,526	800,000	0,044	0,099
-126,512	-200,000	0,006	0,039
-125,497	-200,000	0,013	0,068
-124,483	-200,000	-0,010	0,084
-123,468	100,385	-0,071	0,058
-122,453	-200,000	-0,003	-0,169
-121,439	-131,337	0,200	-0,019
-120,424	-145,812	-0,111	-0,007
-119,410	32,471	0,125	0,076
-118,395	-102,329	-0,074	0,012
-117,380	424,596	0,080	0,122
-116,366	195,815	0,025	-0,027
-115,351	-200,000	0,006	-0,061
-114,337	134,025	-0,071	-0,065
-113,322	12,824	0,117	0,064
-112,307	-110,418	-0,117	-0,017
-111,293	55,147	0,073	-0,050
-110,278	-140,957	0,060	-0,004
-109,264	800,000	0,037	0,096
-108,249	800,000	0,073	-0,184
-107,234	-125,923	0,075	0,008
-106,220	-3,308	-0,138	0,068
-105,205	67,022	-0,039	-0,028
-104,191	-83,655	-0,010	0,002
-103,176	14,161	0,137	0,075
-102,162	568,108	0,030	-0,052
-101,147	-200,000	-0,019	0,120
-100,132	-200,000	0,008	-0,091
-99,118	800,000	0,030	0,086
-98,103	800,000	-0,034	-0,077
-97,089	-200,000	-0,020	-0,080
-96,074	-132,111	0,024	0,002
-95,059	-200,000	-0,024	-0,087
-94,045	800,000	-0,026	-0,076
-93,030	12,658	-0,065	0,036
-92,016	-97,881	-0,104	0,019
-91,001	-200,000	0,005	0,023
-89,986	-134,097	0,107	0,009
-88,972	-200,000	0,030	0,137
-87,957	-200,000	-0,009	0,054
-86,943	-190,444	0,025	0,000
-85,928	800,000	0,038	-0,088
-84,913	800,000	-0,014	-0,043
-83,899	23,771	-0,042	-0,024
-82,884	-46,249	-0,013	-0,004
-81,870	-200,000	0,009	0,050
-80,855	-74,784	0,113	0,029
-79,840	165,955	0,140	0,140
-78,826	-26,473	-0,131	-0,054
-77,811	-200,000	-0,007	-0,147
-76,797	-200,000	0,013	-0,091
-75,782	10,663	-0,130	-0,070
-74,767	-1,984	0,066	0,033
-73,753	497,211	-0,052	0,085
-72,738	-200,000	0,019	-0,081
-71,724	-54,802	-0,037	0,012
-70,709	495,341	-0,034	-0,056
-69,694	800,000	-0,006	-0,013
-68,680	-149,917	-0,079	0,004
-67,665	299,026	0,050	0,065
-66,651	22,138	0,214	-0,124
-65,636	800,000	-0,027	0,058
-64,622	214,615	0,014	0,016
-63,607	800,000	0,043	0,094
-62,592	-75,179	0,024	0,006
-61,578	247,186	0,108	0,129
-60,563	-14,610	0,017	-0,008
-59,549	-200,000	0,022	0,169
-58,534	-46,927	-1,607	-0,553
-57,519	349,969	-1,462	-2,051
-56,505	-200,000	-0,690	-4,668
-55,490	155,788	0,900	0,879
-54,476	800,000	5,076	11,390
-53,461	-200,000	18,814	305,369
-52,446	800,000	736,319	2291,250
-51,432	566,455	1652,447	2849,952
-50,417	78,921	1670,088	1264,357
-49,403	22,090	1542,967	889,075
-48,388	16,040	1465,722	815,184
-47,373	17,767	1455,868	818,011
-46,359	16,856	1446,105	808,123
-45,344	14,238	1441,676	793,086
-44,330	14,204	1439,526	791,709
-43,315	14,238	1437,697	790,832
-42,300	14,223	1436,084	789,840
-41,286	14,216	1434,944	789,152
-40,271	14,210	1433,582	788,340
-39,257	14,187	1432,347	787,519
-38,242	14,216	1431,247	787,024
-37,227	14,294	1429,859	786,599
-36,213	14,223	1428,811	785,655
-35,198	14,250	1427,380	784,965
-34,184	14,286	1426,397	784,566
-33,169	14,211	1425,355	783,605
-32,154	14,261	1424,236	783,195
-31,140	14,267	1422,570	782,273
-30,125	14,319	1421,614	781,964
-29,111	14,246	1420,666	781,069
-28,096	14,209	1419,689	780,327
-27,082	14,165	1418,503	779,436
-26,067	14,160	1417,494	778,825
-25,052	14,197	1416,121	778,214
-24,038	14,160	1415,400	777,614
-23,023	14,165	1414,331	777,016
-22,009	14,131	1413,329	776,276
-20,994	14,135	1412,350	775,727
-19,979	14,130	1411,608	775,265
-18,965	14,083	1410,382	774,342
-17,950	14,109	1409,717	774,069
-16,936	14,093	1408,519	773,303
-15,921	14,050	1407,575	772,555
-14,906	14,060	1406,715	772,097
-13,892	14,093	1405,688	771,657
-12,877	14,112	1404,747	771,200
-11,863	14,071	1403,895	770,509
-10,848	14,039	1403,241	769,973
-9,833	14,019	1402,239	769,298
-8,819	14,024	1401,203	768,724
-7,804	14,011	1400,357	768,169
-6,790	13,969	1399,387	767,409
-5,775	13,981	1398,178	766,772
-4,760	13,982	1397,367	766,303
-3,746	13,945	1396,543	765,648
-2,731	13,969	1395,760	765,299
-1,717	13,986	1394,709	764,771
-0,702	13,947	1392,891	763,563
0,313	17,799	1310,929	736,481
1,327	33,846	706,101	433,868
2,342	51,876	124,069	83,424
3,356	2,748	16,663	8,522
4,371	2,242	3,122	1,592
5,386	-45,979	0,641	0,222
6,400	-200,000	0,053	0,323
7,415	-50,912	-0,252	-0,083
8,429	17,103	-0,097	-0,054
9,444	20,559	-0,381	-0,217
10,459	-57,328	-0,290	-0,089
11,473	61,814	-0,326	-0,229
12,488	194,320	-0,254	-0,273
13,502	111,203	-0,393	-0,335
14,517	-57,492	-0,330	-0,102
15,531	-7,873	-0,485	-0,230
16,546	241,368	-0,183	-0,217
17,561	8,665	-0,436	-0,231
18,575	-192,596	-0,149	0,001
19,590	114,138	-0,226	-0,195
20,604	84,077	-0,190	-0,146
21,619	43,984	-0,342	-0,221
22,634	53,006	-0,437	-0,295
23,648	94,398	-0,417	-0,334
24,663	83,538	-0,475	-0,366
25,677	117,021	-0,323	-0,280
26,692	25,918	-0,369	-0,217
27,707	-21,838	-0,415	-0,178
28,721	126,352	-0,357	-0,319
29,736	110,286	-0,337	-0,285
30,750	93,123	-0,411	-0,328
31,765	269,960	-0,277	-0,345
32,780	20,324	-0,345	-0,196
33,794	8,143	-0,331	-0,175
34,809	62,347	-0,317	-0,223
35,823	209,311	-0,388	-0,429
36,838	132,389	-0,219	-0,199
37,853	143,099	-0,385	-0,361
38,867	55,565	-0,389	-0,265
39,882	24,803	-0,347	-0,202
40,896	338,687	-0,248	-0,342
41,911	65,024	-0,335	-0,238
42,926	137,161	-0,264	-0,243
43,940	-51,043	-0,491	-0,161
44,955	69,448	-0,438	-0,317
45,969	226,528	-0,423	-0,485
46,984	135,241	-0,360	-0,330
47,999	111,836	-0,329	-0,280
49,013	53,513	-0,361	-0,244
50,028	33,543	-0,336	-0,205
51,042	33,670	-0,428	-0,261
52,057	60,156	-0,386	-0,268
53,071	141,955	-0,384	-0,359
54,086	26,587	-0,410	-0,241
55,101	-75,223	-0,342	-0,085
56,115	-25,303	-0,344	-0,143
57,130	70,404	-0,327	-0,237
58,144	174,402	-0,390	-0,398
59,159	93,674	-0,301	-0,240
60,174	28,156	-0,365	-0,217
61,188	75,298	-0,254	-0,189
62,203	-198,309	-0,321	-0,001
63,217	-5,604	-0,257	-0,123
64,232	-36,752	-0,442	-0,166
65,247	109,182	-0,346	-0,291
66,261	63,510	-0,399	-0,282
67,276	142,426	-0,422	-0,394
68,290	31,031	-0,404	-0,243
69,305	128,962	-0,275	-0,247
70,320	54,386	-0,409	-0,277
71,334	34,985	-0,314	-0,193
72,349	192,704	-0,271	-0,288
73,363	83,340	-0,325	-0,248
74,378	263,340	-0,317	-0,388
75,393	-38,919	-0,300	-0,111
76,407	90,414	-0,361	-0,284
77,422	102,046	-0,288	-0,236
78,436	-26,093	-0,203	-0,083
79,451	169,321	-0,270	-0,271
80,466	371,475	-0,195	-0,279
81,480	37,420	-0,421	-0,262
82,495	137,178	-0,294	-0,270
83,509	-38,279	-0,260	-0,096
84,524	340,587	-0,141	-0,194
85,539	207,827	-0,231	-0,254
86,553	37,582	-0,344	-0,214
87,568	214,248	-0,284	-0,317
88,582	123,031	-0,304	-0,267
89,597	113,374	-0,296	-0,252
90,611	149,161	-0,301	-0,286
91,626	-51,843	-0,250	-0,081
92,641	-13,186	-0,318	-0,145
93,655	27,923	-0,197	-0,116
94,670	220,019	-0,220	-0,248
95,684	60,448	-0,391	-0,271
96,699	7,837	-0,342	-0,179
97,714	2,165	-0,305	-0,154
98,728	-31,475	-0,260	-0,102
99,743	240,909	-0,171	-0,200
100,757	-25,203	-0,361	-0,149
101,772	58,489	-0,311	-0,214
102,787	451,490	-0,176	-0,274
103,801	197,054	-0,232	-0,248
104,816	161,196	-0,285	-0,279
105,830	111,315	-0,187	-0,158
106,845	300,182	-0,164	-0,212
107,860	13,164	-0,291	-0,158
108,874	86,733	-0,299	-0,231
109,889	320,252	-0,217	-0,290
110,903	151,439	-0,183	-0,175
111,918	64,505	-0,295	-0,208
112,933	151,808	-0,242	-0,231
113,947	-44,169	-0,255	-0,089
114,962	56,761	-0,279	-0,190
115,976	147,880	-0,190	-0,179
116,991	184,812	-0,243	-0,253
118,006	-37,399	-0,325	-0,121
119,020	176,216	-0,147	-0,150
120,035	289,037	-0,209	-0,266
121,049	-49,086	-0,331	-0,110
122,064	39,045	-0,134	-0,083
123,079	-49,704	-0,336	-0,111
124,093	18,318	-0,216	-0,120
125,108	38,095	-0,358	-0,223
126,122	4,233	-0,291	-0,149
127,137	-66,736	-0,175	-0,048
128,151	-14,779	-0,257	-0,115
129,166	125,613	-0,242	-0,214
130,181	-7,968	-0,216	-0,102
131,195	-87,839	-0,423	-0,088
132,210	37,437	-0,254	-0,157
133,224	-36,735	-0,250	-0,093
134,239	278,688	-0,167	-0,209
135,254	183,004	-0,227	-0,234
136,268	38,891	-0,332	-0,207
137,283	-47,553	-0,256	-0,086
138,297	98,043	-0,285	-0,229
139,312	116,985	-0,198	-0,170
140,327	17,563	-0,428	-0,237
141,341	172,199	-0,170	-0,171
142,356	-7,193	-0,154	-0,073
143,370	35,406	-0,258	-0,158
144,385	624,624	-0,117	-0,207
145,400	198,122	-0,249	-0,267
146,414	409,362	-0,246	-0,365
147,429	110,098	-0,274	-0,230
148,443	93,043	-0,141	-0,112
149,458	-4,192	-0,301	-0,145
150,473	-119,535	-0,201	-0,024
151,487	117,678	-0,254	-0,219
152,502	-43,692	-0,255	-0,089
153,516	-15,664	-0,349	-0,155
154,531	88,349	-0,219	-0,169
155,546	113,851	-0,280	-0,237
156,560	42,906	-0,188	-0,120
157,575	-46,691	-0,311	-0,106
158,589	49,351	-0,172	-0,113
159,604	-33,554	-0,268	-0,103
160,619	-20,477	-0,180	-0,077
161,633	-98,274	-0,212	-0,038
162,648	61,719	-0,244	-0,169
163,662	53,576	-0,323	-0,216
164,677	38,147	-0,196	-0,121
165,692	55,989	-0,282	-0,191
166,706	50,070	-0,289	-0,190
167,721	12,588	-0,330	-0,177
168,735	92,450	-0,249	-0,196
169,750	179,935	-0,103	-0,105
170,764	211,373	-0,259	-0,285
171,779	-41,953	-0,200	-0,071
172,794	-1,507	-0,296	-0,145
173,808	11,463	-0,190	-0,101
174,823	113,586	-0,190	-0,161
175,837	800,000	-0,154	-0,316
176,852	-50,910	-0,250	-0,081
177,867	-46,971	-0,213	-0,072
178,881	104,009	-0,254	-0,208
179,896	177,459	-0,178	-0,181
180,910	39,416	-0,257	-0,160
181,925	46,555	-0,230	-0,148
182,940	-15,631	-0,235	-0,104
183,954	5,515	-0,269	-0,138
184,969	119,673	-0,156	-0,135
185,983	36,006	-0,245	-0,150
186,998	21,227	-0,197	-0,111
188,013	-17,535	-0,262	-0,114
189,027	239,625	-0,159	-0,185
190,042	142,063	-0,202	-0,187
191,056	-200,000	-0,113	-0,371
192,071	-44,739	-0,226	-0,078
193,086	78,215	-0,288	-0,214
194,100	800,000	-0,057	-0,163
195,115	-11,654	-0,241	-0,110
196,129	221,272	-0,286	-0,320
197,144	-16,124	-0,292	-0,129
198,159	45,222	-0,368	-0,236
199,173	-20,725	-0,271	-0,115
200,188	758,484	-0,067	-0,127
201,202	80,458	-0,207	-0,155
202,217	29,469	-0,302	-0,178
203,232	120,827	-0,248	-0,215
204,246	16,393	-0,250	-0,137
205,261	800,000	-0,102	-0,210
206,275	223,475	-0,221	-0,248
207,290	-83,634	-0,255	-0,056
208,304	206,584	-0,075	-0,081
209,319	130,004	-0,156	-0,139
210,334	-101,816	-0,286	-0,048
211,348	586,745	-0,118	-0,202
212,363	-19,665	-0,249	-0,107
213,377	-23,410	-0,114	-0,047
214,392	220,570	-0,246	-0,274
215,407	168,354	-0,152	-0,150
216,421	787,534	-0,069	-0,132
217,436	-101,310	-0,321	-0,054
218,450	73,009	-0,260	-0,188
219,465	101,122	-0,172	-0,139
220,480	-200,000	-0,337	-0,001
221,494	-200,000	-0,071	-0,229
222,509	61,027	-0,174	-0,119
223,523	7,685	-0,212	-0,110
224,538	25,199	-0,187	-0,107
225,553	-58,669	-0,162	-0,048
226,567	552,936	-0,105	-0,176
227,582	136,504	-0,217	-0,197
228,596	107,601	-0,152	-0,126
229,611	-97,019	-0,269	-0,048
230,626	25,074	-0,228	-0,131
231,640	800,000	-0,102	-0,232
232,655	529,978	-0,186	-0,306
233,669	-69,324	-0,191	-0,050
234,684	469,092	-0,115	-0,180
235,699	-60,122	-0,162	-0,048
236,713	128,486	-0,093	-0,082
237,728	-25,571	-0,278	-0,113
238,742	16,222	-0,193	-0,105
239,757	-74,035	-0,232	-0,058
240,772	52,518	-0,230	-0,152
241,786	800,000	-0,127	-0,334
242,801	110,941	-0,242	-0,201
243,815	311,882	-0,152	-0,198
244,830	124,927	-0,114	-0,100
245,844	-138,799	-0,245	0,018
246,859	-107,600	-0,114	0,017
247,874	171,619	-0,144	-0,143
248,888	138,448	-0,191	-0,174
249,903	46,689	-0,180	-0,116
250,917	102,397	-0,139	-0,113
251,932	-200,000	-0,024	-0,166
252,947	-119,650	-0,246	-0,029
253,961	-7,529	-0,236	-0,110
254,976	51,993	-0,233	-0,153
255,990	31,323	-0,353	-0,209
257,005	40,399	-0,197	-0,122
258,020	-119,915	-0,135	-0,016
259,034	-49,453	-0,272	-0,089
260,049	421,480	-0,139	-0,207
261,063	-200,000	-0,069	-0,240
262,078	800,000	-0,073	-0,168
263,093	79,848	-0,227	-0,168
264,107	-200,000	0,003	-0,092
265,122	-42,759	-0,194	-0,068
266,136	2,446	-0,195	-0,097
267,151	17,711	-0,191	-0,105
268,166	84,222	-0,151	0,114
269,180	67,087	-0,129	-0,091
270,195	387,895	-0,184	-0,264
271,209	272,216	-0,223	-0,272
272,224	-1,934	-0,200	-0,097
273,239	-79,984	-0,212	-0,049
274,253	284,010	-0,199	-0,248
275,268	-38,886	-0,194	0,070
276,282	126,362	-0,137	-0,120
277,297	55,528	-0,187	-0,125
278,312	280,475	-0,149	-0,184
279,326	79,925	-0,134	-0,099
280,341	576,968	-0,028	-0,047
281,355	12,177	-0,128	-0,068
282,370	462,509	-0,156	-0,241
283,384	260,911	-0,129	-0,154
284,399	-7,997	-0,157	-0,073
285,414	452,665	-0,106	-0,162
286,428	-112,084	-0,174	0,024
287,443	233,330	-0,163	-0,186
288,457	707,505	-0,074	-0,136
289,472	481,674	-0,086	-0,135
290,487	-8,098	-0,190	0,088
291,501	95,153	-0,201	-0,158
292,516	53,368	-0,197	-0,130
293,530	74,859	-0,152	-0,110
294,545	222,452	-0,135	-0,150
295,560	172,669	-0,112	-0,111
296,574	800,000	-0,067	-0,147
297,589	97,386	-0,128	-0,101
298,603	582,019	-0,121	-0,205
299,618	-31,063	-0,195	0,075
300,633	800,000	-0,040	0,076
301,647	593,426	-0,119	-0,203
302,662	170,647	-0,165	-0,163
303,676	103,610	-0,111	-0,090
304,691	-119,172	-0,213	-0,025
305,706	213,767	-0,186	-0,203
306,720	81,707	-0,177	-0,132
307,735	800,000	-0,056	-0,107
308,749	-200,000	-0,010	-0,080
309,764	361,026	-0,100	-0,138
310,779	-85,756	-0,125	-0,026
311,793	78,602	-0,079	-0,058
312,808	118,425	-0,146	-0,124
313,822	175,981	-0,200	-0,200
314,837	800,000	-0,094	-0,193
315,852	-200,000	-0,030	-0,217
316,866	-200,000	-0,040	-0,224
317,881	82,040	-0,173	-0,129
318,895	-38,478	-0,148	-0,054
319,910	113,905	-0,202	-0,169
320,925	91,498	-0,168	-0,130
321,939	-200,000	-0,024	-0,244
322,954	-200,000	-0,022	-0,067
323,968	-200,000	-0,005	-0,143
324,983	800,000	-0,045	-0,095
325,997	292,398	-0,168	-0,211
327,012	289,404	-0,099	-0,124
328,027	-5,882	-0,200	-0,094
329,041	213,617	-0,127	-0,138
330,056	-200,000	0,010	-0,182
331,070	-73,752	-0,087	-0,022
332,085	-11,478	-0,180	0,081
333,100	298,086	-0,118	-0,150
334,114	-155,542	-0,175	-0,008
335,129	-81,860	-0,194	-0,043
336,143	27,259	-0,160	-0,092
337,158	383,878	-0,056	-0,080
338,173	115,863	-0,057	0,048
339,187	-156,808	-0,105	-0,004
340,202	472,045	-0,042	-0,065
341,216	-84,776	-0,213	-0,046
342,231	209,204	-0,111	-0,120
343,246	102,676	-0,131	-0,105
344,260	523,069	-0,149	-0,242
345,275	123,605	-0,162	-0,139
346,289	-58,326	-0,095	-0,028
347,304	-104,719	-0,161	0,025
348,319	-10,774	-0,195	-0,088
349,333	355,965	-0,116	-0,159
350,348	-84,075	-0,195	-0,042
351,362	18,600	-0,144	-0,079
352,377	-200,000	-0,011	-0,174
353,392	29,662	-0,103	-0,060
354,406	248,433	-0,130	-0,151
355,421	209,706	1314,574	1415,625
356,435	161,405	1475,280	1416,102
