DTS Sentinel unit serial number:	SN410029Multiplexer serial number:	ORYXHardware model number:	OX2-SRSoftware version number:	ORYX F/W v4,00 Oryx Data Collector v3.7.2.0data status	okinstallation	B3 Nyhavnadifferential loss correction	single-endedforward channel	channel 1reverse channel	N/Adate	2023/12/04time	08:12:30forward acquisition time	300,00reverse acquisition time	0,00gamma	499,1914k internal	0,3205k external	0,3205temperature offset calibration	1,0000default loss term (dB/km)	0,3820temperature slope calibration	1,0000multiplexer offset coefficient	1,0000multiplexer slope coefficient	1,0000fibre end	0,00T internal ref (°C)	12,59T ext. ref 1 (°C)	-1,75T ext. ref 2 (°C)	-1,78length (m)	temperature (°C)	Stokes	anti-Stokes-744,400	179,400	-0,194	-0,207
-743,385	-200,000	0,014	0,278
-742,371	346,140	-0,185	-0,264
-741,356	-200,000	-0,044	0,281
-740,342	268,377	-0,088	-0,112
-739,327	-200,000	-0,097	0,399
-738,312	-65,349	-0,260	-0,075
-737,298	-200,000	0,056	0,336
-736,283	79,452	-0,312	-0,243
-735,269	-200,000	0,084	0,317
-734,254	216,101	-0,238	-0,275
-733,239	218,772	-0,182	0,211
-732,225	59,369	-0,170	-0,121
-731,210	-125,502	0,069	-0,008
-730,196	-200,000	0,046	-0,157
-729,181	-7,165	0,034	-0,017
-728,167	214,441	-0,036	-0,041
-727,152	-200,000	0,018	0,237
-726,137	107,448	-0,077	-0,066
-725,123	-51,154	-0,082	0,028
-724,108	-200,000	-0,037	-0,211
-723,094	-92,288	-0,257	-0,052
-722,079	130,923	-0,065	-0,060
-721,064	800,000	0,040	-0,093
-720,050	800,000	0,031	-0,076
-719,035	22,729	-0,139	0,082
-718,021	-101,906	-0,197	-0,034
-717,006	800,000	-0,080	-0,170
-715,991	291,603	-0,075	-0,099
-714,977	42,360	-0,035	0,023
-713,962	800,000	-0,011	0,028
-712,948	800,000	-0,050	0,151
-711,933	751,984	-0,080	0,157
-710,918	-200,000	0,018	0,081
-709,904	23,527	0,045	0,027
-708,889	-200,000	0,033	-0,132
-707,875	-38,708	-0,102	0,039
-706,860	5,842	-0,078	-0,042
-705,845	140,681	0,017	-0,016
-704,831	800,000	0,027	-0,065
-703,816	-18,359	0,100	0,045
-702,802	721,520	-0,051	0,098
-701,787	421,984	-0,075	-0,116
-700,772	257,879	0,055	-0,069
-699,758	-42,206	0,141	-0,052
-698,743	-200,000	0,046	0,182
-697,729	198,279	0,042	0,047
-696,714	-200,000	-0,020	0,069
-695,699	390,697	-0,042	0,063
-694,685	15,841	0,063	-0,036
-693,670	-112,618	0,060	-0,009
-692,656	146,422	0,085	-0,083
-691,641	-58,637	0,049	0,015
-690,627	-129,911	0,067	0,007
-689,612	-200,000	0,024	0,097
-688,597	-200,000	-0,014	-0,053
-687,583	-200,000	0,006	-0,048
-686,568	66,615	0,085	-0,062
-685,554	-200,000	0,009	-0,046
-684,539	-200,000	-0,018	-0,146
-683,524	-200,000	-0,006	-0,085
-682,510	-92,839	-0,082	0,016
-681,495	60,348	-0,122	-0,087
-680,481	-42,005	-0,197	0,073
-679,466	399,881	-0,048	-0,073
-678,451	-7,912	-0,056	0,027
-677,437	-125,774	0,052	0,006
-676,422	6,413	0,025	-0,014
-675,408	800,000	0,016	0,040
-674,393	-4,157	-0,036	-0,018
-673,378	-172,786	-0,062	-0,001
-672,364	18,382	0,076	-0,044
-671,349	125,923	-0,068	0,063
-670,335	116,304	-0,116	-0,103
-669,320	-72,373	0,026	-0,007
-668,305	-200,000	-0,010	0,091
-667,291	800,000	0,017	0,047
-666,276	6,919	-0,200	-0,108
-665,262	-80,087	-0,128	-0,031
-664,247	800,000	-0,053	-0,109
-663,232	250,809	0,076	0,094
-662,218	-200,000	-0,010	0,048
-661,203	260,208	0,053	0,066
-660,189	-47,571	0,127	-0,044
-659,174	-120,881	-0,062	-0,008
-658,159	-134,809	-0,239	0,021
-657,145	-111,376	-0,039	0,006
-656,130	-200,000	0,001	-0,035
-655,116	-23,713	-0,171	0,074
-654,101	-157,862	0,060	-0,003
-653,086	-92,322	0,140	0,028
-652,072	61,038	-0,054	0,039
-651,057	-93,743	0,048	0,010
-650,043	37,797	-0,075	0,048
-649,028	-77,313	-0,085	0,021
-648,014	508,045	-0,058	-0,098
-646,999	-74,544	0,057	-0,015
-645,984	-140,336	0,088	-0,007
-644,970	385,350	-0,014	0,022
-643,955	-73,207	0,174	0,046
-642,941	-200,000	-0,016	-0,119
-641,926	800,000	-0,042	-0,097
-640,911	-182,722	0,082	-0,001
-639,897	-67,431	0,175	-0,050
-638,882	-121,040	0,070	0,008
-637,868	55,438	0,037	-0,026
-636,853	380,325	-0,053	-0,079
-635,838	-3,956	-0,122	-0,061
-634,824	-5,761	0,015	0,007
-633,809	800,000	0,028	-0,073
-632,795	46,653	-0,050	0,033
-631,780	384,700	-0,050	0,075
-630,765	-82,300	-0,031	0,007
-629,751	327,162	0,048	-0,067
-628,736	239,362	-0,066	-0,079
-627,722	104,088	0,057	0,048
-626,707	33,702	-0,068	-0,043
-625,692	-200,000	0,004	0,078
-624,678	-200,000	0,011	0,038
-623,663	-200,000	-0,036	0,121
-622,649	800,000	-0,024	-0,059
-621,634	734,459	-0,058	-0,113
-620,619	664,761	-0,024	-0,045
-619,605	280,139	-0,037	0,049
-618,590	-200,000	0,014	-0,050
-617,576	143,050	-0,132	0,127
-616,561	-52,031	-0,138	0,046
-615,546	85,265	0,068	-0,054
-614,532	-200,000	-0,045	-0,149
-613,517	800,000	0,039	-0,123
-612,503	-200,000	0,009	-0,063
-611,488	-200,000	0,091	0,000
-610,474	800,000	0,011	0,025
-609,459	800,000	0,010	0,025
-608,444	-96,901	-0,048	-0,009
-607,430	-200,000	-0,003	-0,133
-606,415	-200,000	-0,010	0,104
-605,401	63,369	0,038	0,028
-604,386	-200,000	0,013	0,065
-603,371	-35,392	0,012	-0,005
-602,357	314,424	0,064	0,088
-601,342	74,986	-0,055	-0,042
-600,328	121,467	-0,025	-0,022
-599,313	-200,000	0,017	-0,068
-598,298	172,653	-0,047	-0,049
-597,284	136,853	-0,066	-0,063
-596,269	-200,000	-0,018	-0,097
-595,255	800,000	-0,052	0,153
-594,240	114,999	-0,051	-0,045
-593,225	91,730	-0,100	-0,081
-592,211	-65,543	-0,025	-0,007
-591,196	6,209	0,110	-0,059
-590,182	-87,782	-0,105	0,023
-589,167	-2,489	-0,140	0,071
-588,152	-71,186	0,198	0,053
-587,138	-200,000	-0,013	-0,045
-586,123	-200,000	-0,047	-0,170
-585,109	106,419	-0,069	-0,059
-584,094	-12,415	0,129	-0,060
-583,079	-168,975	0,100	-0,003
-582,065	45,027	0,105	-0,070
-581,050	553,300	0,023	0,040
-580,036	-200,000	-0,089	0,000
-579,021	55,431	-0,022	-0,015
-578,006	-46,696	-0,130	0,046
-576,992	150,603	0,117	-0,114
-575,977	-128,980	-0,041	-0,004
-574,963	-5,878	0,075	-0,037
-573,948	-200,000	0,010	-0,097
-572,934	193,409	-0,140	-0,153
-571,919	-53,919	0,053	0,017
-570,904	-200,000	0,015	-0,105
-569,890	15,769	-0,063	-0,035
-568,875	-200,000	-0,001	-0,014
-567,861	97,475	0,039	-0,033
-566,846	99,838	-0,103	0,086
-565,831	525,202	-0,035	0,060
-564,817	-200,000	0,024	-0,109
-563,802	-200,000	-0,009	0,063
-562,788	-11,737	-0,096	0,045
-561,773	52,723	0,081	-0,056
-560,758	800,000	-0,015	-0,043
-559,744	368,716	-0,061	0,090
-558,729	800,000	-0,056	0,147
-557,715	631,051	-0,034	-0,062
-556,700	57,621	-0,092	-0,065
-555,685	800,000	-0,033	-0,099
-554,671	231,350	-0,027	-0,032
-553,656	800,000	0,044	0,108
-552,642	-200,000	0,004	0,046
-551,627	-200,000	0,019	0,074
-550,612	-200,000	0,027	-0,089
-549,598	138,630	0,048	-0,045
-548,583	800,000	-0,012	-0,031
-547,569	23,142	-0,049	0,029
-546,554	4,973	0,098	-0,052
-545,539	707,487	-0,074	0,141
-544,525	800,000	-0,024	0,054
-543,510	384,234	0,072	-0,107
-542,496	-0,530	-0,059	0,030
-541,481	-0,538	-0,129	-0,066
-540,466	-102,866	0,100	0,017
-539,452	92,796	0,056	0,045
-538,437	26,282	-0,028	0,017
-537,423	-4,106	-0,095	0,047
-536,408	800,000	-0,023	-0,073
-535,393	163,416	0,019	-0,020
-534,379	164,263	-0,063	-0,064
-533,364	58,598	-0,057	-0,040
-532,350	115,351	0,116	-0,102
-531,335	800,000	-0,032	0,071
-530,321	12,285	0,164	0,091
-529,306	39,467	-0,038	0,025
-528,291	-23,270	-0,080	0,034
-527,277	-99,145	0,035	0,006
-526,262	-118,183	-0,080	0,010
-525,248	83,892	0,136	0,107
-524,233	-53,564	0,120	0,039
-523,218	4,427	0,110	-0,058
-522,204	-200,000	0,016	-0,099
-521,189	-150,418	-0,120	0,007
-520,175	623,134	0,012	0,021
-519,160	-130,300	-0,110	-0,011
-518,145	-200,000	-0,012	0,062
-517,131	-35,140	0,094	0,037
-516,116	182,506	0,104	0,110
-515,102	800,000	-0,016	-0,048
-514,087	-4,346	-0,062	0,031
-513,072	-200,000	0,002	-0,244
-512,058	-200,000	0,008	-0,059
-511,043	547,963	-0,073	-0,126
-510,029	-46,041	0,109	0,039
-509,014	64,405	0,046	-0,033
-507,999	208,182	0,104	0,117
-506,985	-86,115	0,045	0,010
-505,970	-4,863	-0,146	0,072
-504,956	800,000	-0,015	0,031
-503,941	-84,965	0,136	0,030
-502,926	-181,570	0,105	0,001
-501,912	350,337	0,096	0,137
-500,897	58,271	0,107	0,075
-499,883	297,627	-0,086	0,114
-498,868	200,182	0,151	-0,168
-497,853	-70,254	-0,122	0,033
-496,839	-200,000	0,014	-0,052
-495,824	-144,998	0,148	-0,010
-494,810	148,432	0,108	0,105
-493,795	-200,000	0,026	0,106
-492,781	-128,866	-0,082	0,008
-491,766	-102,519	-0,095	0,016
-490,751	207,596	0,096	-0,108
-489,737	127,399	-0,171	-0,156
-488,722	-163,228	-0,114	-0,004
-487,708	568,855	0,050	-0,088
-486,693	-200,000	0,020	-0,137
-485,678	-86,314	-0,124	-0,027
-484,664	221,557	0,040	0,046
-483,649	-70,128	-0,056	0,015
-482,635	294,967	0,073	-0,096
-481,620	800,000	-0,035	-0,073
-480,605	134,571	-0,032	-0,030
-479,591	-129,899	0,047	0,005
-478,576	31,655	-0,048	0,030
-477,562	-24,053	0,085	-0,036
-476,547	-60,723	-0,048	-0,014
-475,532	390,152	-0,028	0,042
-474,518	-108,192	-0,097	-0,015
-473,503	-69,986	0,038	0,010
-472,489	-200,000	0,002	0,248
-471,474	-7,038	-0,031	-0,015
-470,459	105,136	0,082	-0,070
-469,445	-200,000	-0,004	-0,061
-468,430	32,777	0,082	-0,051
-467,416	-90,124	-0,058	0,012
-466,401	-116,472	0,055	0,007
-465,386	109,102	0,117	0,100
-464,372	634,646	0,035	0,063
-463,357	27,998	-0,077	-0,046
-462,343	385,774	-0,084	-0,125
-461,328	318,377	-0,072	-0,098
-460,313	-200,000	-0,007	0,095
-459,299	-26,670	0,088	0,037
-458,284	64,359	0,087	0,063
-457,270	-44,448	-0,101	0,036
-456,255	-20,445	-0,062	-0,027
-455,241	-76,356	-0,033	-0,008
-454,226	364,893	0,019	0,027
-453,211	4,443	0,078	-0,041
-452,197	238,095	0,020	0,024
-451,182	-78,869	-0,048	-0,012
-450,168	-200,000	-0,038	0,188
-449,153	-86,469	0,166	-0,036
-448,138	-18,627	-0,092	0,041
-447,124	23,749	0,022	-0,013
-446,109	800,000	0,016	0,038
-445,095	-70,037	0,036	-0,010
-444,080	-200,000	-0,040	0,152
-443,065	-63,295	0,159	-0,047
-442,051	24,795	-0,101	-0,060
-441,036	11,024	-0,101	-0,055
-440,022	102,118	0,095	0,080
-439,007	-200,000	0,042	0,150
-437,992	11,026	-0,149	0,081
-436,978	-200,000	0,000	0,006
-435,963	27,316	-0,136	0,082
-434,949	675,784	0,014	0,026
-433,934	39,733	-0,061	0,039
-432,919	164,149	0,069	-0,070
-431,905	800,000	-0,027	-0,083
-430,890	608,737	0,053	-0,095
-429,876	244,783	-0,036	-0,043
-428,861	-69,482	0,024	0,007
-427,846	-200,000	0,010	-0,066
-426,832	-102,151	-0,089	-0,015
-425,817	800,000	-0,021	-0,059
-424,803	-77,578	-0,164	-0,040
-423,788	-200,000	0,044	-0,146
-422,773	211,011	-0,121	0,137
-421,759	82,447	0,024	0,019
-420,744	-200,000	-0,023	0,099
-419,730	-200,000	0,020	-0,092
-418,715	-200,000	-0,041	-0,132
-417,701	454,402	-0,066	-0,105
-416,686	331,500	-0,060	0,084
-415,671	-46,007	0,116	-0,041
-414,657	-47,636	-0,093	0,032
-413,642	800,000	0,033	-0,086
-412,628	-200,000	0,025	-0,083
-411,613	-82,768	-0,089	0,020
-410,598	388,031	0,054	0,080
-409,584	-200,000	-0,046	0,148
-408,569	241,507	0,087	0,105
-407,555	-200,000	-0,011	0,085
-406,540	370,350	-0,109	0,159
-405,525	457,154	0,056	-0,090
-404,511	-133,698	-0,053	0,005
-403,496	-9,873	-0,158	0,075
-402,482	-14,830	0,039	-0,018
-401,467	-78,433	0,204	0,050
-400,452	37,614	-0,087	0,055
-399,438	-49,046	-0,180	0,061
-398,423	-200,000	0,001	-0,022
-397,409	-200,000	0,038	-0,164
-396,394	-25,686	0,070	-0,030
-395,379	229,841	-0,073	-0,086
-394,365	-200,000	0,008	0,034
-393,350	14,589	0,087	0,049
-392,336	14,351	-0,023	0,013
-391,321	-200,000	-0,000	0,061
-390,306	319,020	-0,109	-0,148
-389,292	444,086	0,079	-0,124
-388,277	-28,635	0,022	-0,009
-387,263	341,351	0,043	0,060
-386,248	-200,000	-0,003	0,109
-385,233	300,901	0,046	-0,060
-384,219	-44,618	0,124	-0,044
-383,204	800,000	-0,019	0,040
-382,190	-200,000	-0,002	0,096
-381,175	-118,844	-0,097	-0,012
-380,160	10,582	-0,044	0,024
-379,146	-157,718	-0,034	0,001
-378,131	-98,325	0,086	0,016
-377,117	17,438	-0,039	0,022
-376,102	512,524	-0,049	-0,083
-375,088	103,785	-0,059	0,049
-374,073	-200,000	0,000	-0,093
-373,058	18,613	0,095	0,054
-372,044	74,493	0,026	0,019
-371,029	-114,581	0,198	0,027
-370,015	800,000	-0,030	-0,060
-369,000	130,774	-0,046	-0,043
-367,985	589,365	-0,068	0,121
-366,971	-16,719	-0,115	-0,052
-365,956	-64,873	0,049	-0,014
-364,942	245,996	0,009	-0,010
-363,927	61,568	-0,017	-0,012
-362,912	-35,698	-0,177	0,068
-361,898	27,303	-0,040	0,024
-360,883	-79,574	-0,097	-0,023
-359,869	274,637	0,036	0,046
-358,854	-200,000	-0,004	-0,014
-357,839	-200,000	0,014	-0,077
-356,825	23,485	-0,018	-0,010
-355,810	25,071	-0,077	0,046
-354,796	-105,821	0,096	-0,015
-353,781	173,614	-0,046	0,048
-352,766	800,000	0,053	-0,107
-351,752	21,074	0,009	0,005
-350,737	-79,586	0,052	0,013
-349,723	113,251	-0,054	-0,047
-348,708	206,666	-0,033	-0,036
-347,693	282,868	0,010	0,012
-346,679	-29,521	-0,022	-0,009
-345,664	203,176	-0,034	-0,037
-344,650	119,334	-0,066	-0,058
-343,635	590,828	0,022	-0,039
-342,620	-114,583	0,208	0,028
-341,606	54,148	-0,122	0,084
-340,591	800,000	-0,025	-0,060
-339,577	-200,000	0,018	-0,134
-338,562	681,448	-0,040	-0,075
-337,548	439,403	0,014	0,022
-336,533	71,910	-0,093	0,069
-335,518	265,974	0,052	0,064
-334,504	163,441	0,018	0,018
-333,489	-164,711	-0,135	0,004
-332,475	149,165	-0,084	-0,082
-331,460	-200,000	-0,004	0,018
-330,445	333,257	0,027	-0,037
-329,431	83,470	0,027	0,021
-328,416	-200,000	-0,023	-0,184
-327,402	27,240	-0,110	-0,066
-326,387	800,000	0,047	0,121
-325,372	-108,383	0,046	-0,007
-324,358	800,000	-0,027	-0,055
-323,343	-200,000	0,005	0,085
-322,329	-200,000	-0,004	0,078
-321,314	-200,000	0,018	0,091
-320,299	-200,000	0,009	0,157
-319,285	-47,038	0,046	0,016
-318,270	432,080	0,036	-0,055
-317,256	223,388	0,090	0,104
-316,241	142,608	0,117	0,111
-315,226	179,304	-0,017	-0,018
-314,212	585,979	0,043	0,075
-313,197	-200,000	-0,047	0,151
-312,183	800,000	-0,034	0,087
-311,168	-200,000	-0,043	-0,157
-310,153	-104,955	-0,072	0,012
-309,139	46,736	-0,070	-0,046
-308,124	458,220	0,012	0,019
-307,110	-200,000	0,018	0,109
-306,095	-200,000	-0,016	0,052
-305,080	-200,000	-0,020	-0,083
-304,066	35,732	-0,050	-0,032
-303,051	326,979	0,057	-0,079
-302,037	93,667	0,050	-0,041
-301,022	92,144	0,023	-0,019
-300,008	800,000	-0,030	0,093
-298,993	800,000	0,048	0,112
-297,978	-200,000	-0,009	0,043
-296,964	74,375	-0,049	-0,037
-295,949	-200,000	0,012	-0,174
-294,935	-200,000	0,016	0,119
-293,920	-115,810	-0,097	0,013
-292,905	-200,000	0,005	-0,152
-291,891	-0,868	0,159	0,080
-290,876	276,011	0,059	0,075
-289,862	-60,236	-0,061	-0,018
-288,847	-200,000	0,014	-0,156
-287,832	149,244	0,076	-0,073
-286,818	271,545	0,040	0,051
-285,803	800,000	0,032	0,076
-284,789	-200,000	0,054	0,232
-283,774	-21,812	0,120	0,052
-282,759	131,909	0,066	0,060
-281,745	-7,884	0,047	0,023
-280,730	-47,276	0,038	-0,013
-279,716	-200,000	0,027	-0,106
-278,701	800,000	-0,011	0,029
-277,686	-118,580	0,051	-0,006
-276,672	-45,997	-0,034	-0,012
-275,657	800,000	0,035	0,106
-274,643	202,552	-0,067	-0,074
-273,628	-28,145	-0,187	0,077
-272,613	312,667	-0,079	-0,106
-271,599	800,000	0,053	0,161
-270,584	-13,697	0,104	-0,048
-269,570	105,560	0,091	0,077
-268,555	-200,000	-0,017	0,073
-267,540	216,805	0,093	-0,106
-266,526	-61,353	-0,174	-0,052
-265,511	56,045	0,087	-0,060
-264,497	222,019	0,015	0,017
-263,482	-198,754	0,049	-0,000
-262,467	-108,863	0,074	0,011
-261,453	-126,515	0,191	0,020
-260,438	-45,714	0,022	0,008
-259,424	423,602	-0,077	-0,118
-258,409	-200,000	0,031	-0,135
-257,395	-15,722	0,135	0,061
-256,380	-132,091	0,056	0,005
-255,365	-200,000	0,003	0,032
-254,351	800,000	-0,022	0,063
-253,336	800,000	-0,070	-0,216
-252,322	-76,806	-0,081	0,020
-251,307	800,000	-0,026	-0,058
-250,292	11,979	0,076	-0,042
-249,278	-60,848	0,124	0,037
-248,263	800,000	0,077	0,228
-247,249	-200,000	0,001	0,039
-246,234	301,832	0,025	-0,033
-245,219	4,860	-0,053	0,028
-244,205	37,150	0,104	-0,065
-243,190	251,928	-0,074	-0,089
-242,176	148,581	0,062	-0,060
-241,161	800,000	-0,040	0,087
-240,146	236,572	-0,046	0,054
-239,132	284,944	-0,021	0,026
-238,117	-200,000	0,024	-0,122
-237,103	-200,000	0,000	-0,039
-236,088	-200,000	-0,015	-0,145
-235,073	800,000	-0,051	0,133
-234,059	-200,000	-0,005	0,087
-233,044	-54,110	0,049	0,016
-232,030	233,041	0,027	0,032
-231,015	-34,705	-0,124	-0,048
-230,000	39,547	0,106	-0,067
-228,986	-200,000	0,003	0,068
-227,971	-200,000	0,001	0,120
-226,957	9,824	0,108	0,058
-225,942	247,085	-0,052	0,062
-224,927	-75,901	-0,028	-0,007
-223,913	182,053	0,062	-0,065
-222,898	-200,000	0,009	-0,031
-221,884	758,607	0,071	0,138
-220,869	-200,000	0,014	0,123
-219,855	-41,311	0,067	-0,024
-218,840	613,657	0,061	0,109
-217,825	625,483	-0,018	0,032
-216,811	-58,098	0,137	-0,042
-215,796	800,000	-0,045	-0,094
-214,782	-200,000	-0,051	0,176
-213,767	37,280	0,099	-0,062
-212,752	-90,652	0,108	0,022
-211,738	117,716	0,100	-0,088
-210,723	-135,922	-0,182	0,015
-209,709	7,560	0,037	0,020
-208,694	73,321	-0,120	-0,089
-207,679	640,489	-0,053	0,097
-206,665	-99,348	0,123	0,022
-205,650	-200,000	0,010	-0,077
-204,636	800,000	-0,042	-0,103
-203,621	506,063	0,040	-0,065
-202,606	-65,723	-0,185	-0,052
-201,592	38,526	-0,073	-0,046
-200,577	107,626	0,112	0,095
-199,563	-108,851	-0,061	-0,009
-198,548	359,272	-0,034	0,049
-197,533	-166,165	0,152	-0,004
-196,519	540,870	-0,013	-0,023
-195,504	-66,854	0,052	-0,015
-194,490	-200,000	0,001	0,084
-193,475	-200,000	-0,010	0,036
-192,460	-68,590	0,101	0,028
-191,446	-200,000	-0,016	0,090
-190,431	-88,257	0,129	-0,027
-189,417	85,584	0,143	0,112
-188,402	-145,391	0,047	0,003
-187,387	-47,085	-0,142	-0,049
-186,373	-62,332	-0,073	0,022
-185,358	403,870	0,046	0,069
-184,344	-200,000	0,019	0,108
-183,329	525,115	0,060	0,101
-182,315	800,000	-0,027	0,055
-181,300	-45,569	-0,208	0,073
-180,285	344,496	0,055	0,077
-179,271	-5,398	-0,094	-0,046
-178,256	-200,000	0,014	0,122
-177,242	800,000	0,038	0,101
-176,227	-28,688	0,021	0,008
-175,212	14,247	0,109	0,060
-174,198	-160,459	0,147	-0,005
-173,183	-200,000	-0,027	-0,085
-172,169	-200,000	-0,026	-0,115
-171,154	89,117	-0,041	-0,032
-170,139	-200,000	0,001	-0,037
-169,125	-200,000	0,013	-0,088
-168,110	0,645	-0,139	-0,070
-167,096	343,966	-0,106	-0,148
-166,081	206,396	-0,039	0,043
-165,066	-65,865	-0,139	-0,039
-164,052	800,000	0,051	-0,108
-163,037	-93,270	0,109	0,021
-162,023	300,660	-0,047	-0,062
-161,008	-200,000	0,000	0,058
-159,993	64,996	-0,045	0,032
-158,979	-200,000	-0,014	-0,060
-157,964	181,240	0,013	-0,014
-156,950	22,682	-0,072	0,042
-155,935	-200,000	-0,005	-0,037
-154,920	4,313	-0,037	0,019
-153,906	-200,000	-0,012	0,187
-152,891	-200,000	-0,038	0,131
-151,877	-200,000	0,020	0,107
-150,862	800,000	-0,021	0,045
-149,847	-200,000	0,064	-0,201
-148,833	-121,381	-0,188	0,022
-147,818	3,177	-0,069	0,036
-146,804	98,732	0,072	-0,059
-145,789	-200,000	0,014	-0,100
-144,775	-29,083	-0,142	-0,058
-143,760	800,000	-0,026	-0,057
-142,745	-200,000	-0,003	-0,031
-141,731	432,771	-0,059	-0,092
-140,716	-96,167	0,082	-0,015
-139,702	112,497	0,053	-0,046
-138,687	143,656	0,053	0,050
-137,672	-13,565	0,085	0,039
-136,658	800,000	-0,037	-0,112
-135,643	-200,000	0,029	-0,124
-134,629	800,000	-0,016	-0,042
-133,614	90,284	0,100	-0,079
-132,599	-77,198	0,143	-0,035
-131,585	182,285	0,046	0,049
-130,570	635,235	-0,047	0,085
-129,556	-85,434	-0,100	0,022
-128,541	-73,186	0,094	0,024
-127,526	-200,000	-0,014	-0,073
-126,512	-159,215	0,073	0,003
-125,497	-200,000	-0,002	-0,030
-124,483	-200,000	0,001	0,052
-123,468	-148,615	-0,037	0,002
-122,453	48,263	-0,054	-0,036
-121,439	800,000	0,052	-0,102
-120,424	800,000	0,042	-0,113
-119,410	-200,000	0,003	0,081
-118,395	600,274	0,089	0,157
-117,380	41,323	0,095	-0,061
-116,366	-200,000	-0,004	0,091
-115,351	-38,264	-0,045	-0,017
-114,337	-159,828	0,092	-0,004
-113,322	86,001	0,073	0,057
-112,307	-52,931	-0,035	0,011
-111,293	800,000	-0,092	0,228
-110,278	241,356	0,010	-0,012
-109,264	-134,542	-0,037	0,003
-108,249	-200,000	-0,015	0,100
-107,234	-200,000	0,009	0,068
-106,220	-200,000	-0,019	-0,153
-105,205	37,309	-0,052	0,033
-104,191	-114,401	0,132	-0,018
-103,176	-200,000	0,001	0,209
-102,162	7,180	-0,059	0,031
-101,147	487,792	0,023	-0,038
-100,132	249,147	0,026	-0,032
-99,118	5,831	0,053	0,028
-98,103	169,515	-0,124	-0,125
-97,089	51,721	0,031	0,021
-96,074	41,076	0,030	-0,019
-95,059	-15,194	-0,095	0,043
-94,045	213,394	0,045	0,051
-93,030	64,216	-0,018	-0,013
-92,016	414,249	0,036	-0,054
-91,001	196,594	0,037	-0,040
-89,986	800,000	0,041	0,110
-88,972	-200,000	-0,011	-0,086
-87,957	-200,000	-0,016	-0,099
-86,943	-200,000	0,010	0,059
-85,928	-9,499	0,184	-0,086
-84,913	30,831	0,088	0,053
-83,899	-200,000	0,031	-0,162
-82,884	95,819	0,137	0,111
-81,870	578,383	0,091	0,159
-80,855	245,662	0,052	0,062
-79,840	204,952	-0,041	0,046
-78,826	-200,000	0,023	0,081
-77,811	171,303	0,010	0,010
-76,797	207,406	-0,085	-0,094
-75,782	-65,812	-0,187	0,053
-74,767	299,350	0,070	0,092
-73,753	96,086	0,078	0,063
-72,738	464,065	-0,008	-0,012
-71,724	574,522	0,054	-0,093
-70,709	71,543	-0,033	-0,024
-69,694	-200,000	0,007	-0,088
-68,680	326,576	0,062	-0,084
-67,665	-200,000	-0,015	0,060
-66,651	35,298	0,103	-0,063
-65,636	-43,917	-0,111	-0,039
-64,622	262,536	-0,112	-0,138
-63,607	-58,640	0,052	-0,016
-62,592	-69,698	0,081	-0,022
-61,578	239,603	0,080	0,095
-60,563	-200,000	-0,021	0,124
-59,549	3,360	-0,180	0,092
-58,534	13,888	-1,617	-0,887
-57,519	438,012	-1,347	-2,084
-56,505	-200,000	-0,458	-4,626
-55,490	390,880	0,959	1,411
-54,476	800,000	4,860	10,970
-53,461	-200,000	19,618	326,298
-52,446	800,000	746,432	2328,736
-51,432	563,303	1657,797	2849,422
-50,417	76,583	1670,399	1251,187
-49,403	20,530	1543,647	880,480
-48,388	14,428	1466,210	806,654
-47,373	18,204	1456,262	819,373
-46,359	16,470	1446,006	805,267
-45,344	12,698	1441,428	784,637
-44,330	12,615	1439,635	783,233
-43,315	12,603	1437,970	782,238
-42,300	12,644	1436,112	781,392
-41,286	12,646	1434,891	780,705
-40,271	12,637	1433,740	780,005
-39,257	12,631	1432,370	779,200
-38,242	12,664	1431,078	778,626
-37,227	12,695	1429,841	778,068
-36,213	12,689	1428,346	777,195
-35,198	12,655	1427,382	776,480
-34,184	12,719	1426,332	776,178
-33,169	12,678	1424,923	775,187
-32,154	12,686	1423,902	774,639
-31,140	12,726	1422,432	773,997
-30,125	12,746	1421,553	773,586
-29,111	12,708	1420,504	772,801
-28,096	12,703	1419,333	772,111
-27,082	12,621	1418,219	771,087
-26,067	12,598	1417,068	770,323
-25,052	12,580	1416,238	769,756
-24,038	12,600	1415,138	769,225
-23,023	12,572	1414,183	768,543
-22,009	12,582	1413,169	768,005
-20,994	12,592	1412,247	767,522
-19,979	12,604	1411,140	766,946
-18,965	12,555	1410,357	766,263
-17,950	12,532	1409,526	765,671
-16,936	12,568	1408,579	765,295
-15,921	12,526	1407,566	764,519
-14,906	12,539	1406,612	764,032
-13,892	12,560	1405,616	763,559
-12,877	12,536	1404,797	762,971
-11,863	12,522	1403,998	762,438
-10,848	12,507	1403,086	761,845
-9,833	12,491	1402,088	761,199
-8,819	12,428	1401,496	760,554
-7,804	12,433	1400,523	760,018
-6,790	12,418	1399,288	759,246
-5,775	12,451	1398,438	758,909
-4,760	12,436	1397,289	758,187
-3,746	12,398	1396,383	757,491
-2,731	12,406	1395,545	757,040
-1,717	12,356	1394,666	756,304
-0,702	12,400	1392,851	755,494
0,313	16,402	1308,784	728,352
1,327	32,865	700,966	427,969
2,342	50,483	122,433	81,685
3,356	1,670	16,541	8,390
4,371	9,411	3,214	1,714
5,386	-56,930	0,681	0,211
6,400	800,000	0,147	0,317
7,415	196,661	-0,126	-0,135
8,429	133,740	-0,324	-0,296
9,444	159,561	-0,298	-0,293
10,459	85,515	-0,344	-0,266
11,473	116,618	-0,272	-0,235
12,488	-35,011	-0,221	-0,085
13,502	14,222	-0,412	-0,226
14,517	125,137	-0,251	-0,223
15,531	150,491	-0,293	-0,281
16,546	104,125	-0,262	-0,217
17,561	60,325	-0,422	-0,294
18,575	45,105	-0,105	0,068
19,590	160,645	-0,227	-0,224
20,604	-32,284	-0,312	-0,122
21,619	68,311	-0,321	-0,232
22,634	98,298	-0,414	-0,337
23,648	128,075	-0,358	-0,322
24,663	76,134	-0,299	-0,223
25,677	-89,233	-0,416	-0,086
26,692	-0,970	-0,382	-0,190
27,707	95,261	-0,285	-0,229
28,721	-17,437	-0,317	-0,140
29,736	191,040	-0,325	-0,345
30,750	137,712	-0,371	-0,343
31,765	332,261	-0,294	-0,402
32,780	27,060	-0,384	-0,226
33,794	-100,089	-0,419	-0,073
34,809	157,892	-0,408	-0,399
35,823	35,788	-0,307	-0,190
36,838	88,421	-0,331	-0,259
37,853	149,802	-0,280	-0,267
38,867	14,772	-0,512	-0,281
39,882	137,314	-0,389	-0,358
40,896	643,771	-0,117	-0,211
41,911	128,154	-0,270	-0,242
42,926	103,549	-0,294	-0,243
43,940	181,004	-0,405	-0,420
44,955	130,479	-0,439	-0,396
45,969	17,274	-0,333	-0,185
46,984	27,514	-0,306	-0,181
47,999	382,662	-0,257	-0,373
49,013	-21,886	-0,403	-0,172
50,028	179,010	-0,317	-0,327
51,042	3,454	-0,416	-0,213
52,057	93,751	-0,419	-0,334
53,071	-8,615	-0,307	-0,145
54,086	63,010	-0,275	-0,193
55,101	74,072	-0,378	-0,279
56,115	-23,024	-0,341	-0,144
57,130	298,343	-0,229	-0,296
58,144	-0,535	-0,430	-0,214
59,159	-16,653	-0,440	-0,195
60,174	170,854	-0,386	-0,389
61,188	-32,886	-0,377	-0,147
62,203	148,818	-0,232	-0,221
63,217	3,298	-0,359	-0,183
64,232	-15,591	-0,382	-0,170
65,247	33,571	-0,386	-0,235
66,261	4,541	-0,370	-0,190
67,276	-31,193	-0,428	-0,169
68,290	84,239	-0,344	-0,264
69,305	-46,793	-0,328	-0,112
70,320	-54,642	-0,412	-0,130
71,334	-56,921	-0,377	-0,116
72,349	27,977	-0,211	-0,124
73,363	74,644	-0,376	-0,278
74,378	196,545	-0,349	-0,374
75,393	132,540	-0,264	-0,239
76,407	8,913	-0,316	-0,167
77,422	96,802	-0,183	-0,147
78,436	-112,191	-0,387	-0,054
79,451	103,057	-0,269	-0,221
80,466	-39,712	-0,350	-0,128
81,480	37,690	-0,443	-0,276
82,495	-44,751	-0,297	-0,104
83,509	-39,058	-0,356	-0,131
84,524	-16,799	-0,279	-0,123
85,539	-11,972	-0,237	-0,108
86,553	103,920	-0,231	-0,191
87,568	13,257	-0,230	-0,124
88,582	-55,196	-0,350	-0,110
89,597	-34,632	-0,209	-0,080
90,611	713,800	-0,097	-0,181
91,626	430,112	-0,122	-0,186
92,641	40,156	-0,348	-0,219
93,655	82,227	-0,293	-0,223
94,670	241,866	-0,261	-0,306
95,684	231,170	-0,264	-0,304
96,699	-16,098	-0,390	-0,173
97,714	-37,557	-0,332	-0,123
98,728	308,485	-0,140	-0,184
99,743	206,094	-0,226	-0,247
100,757	-7,353	-0,237	-0,112
101,772	241,064	-0,296	-0,347
102,787	27,279	-0,298	-0,175
103,801	39,006	-0,349	-0,218
104,816	34,902	-0,284	-0,174
105,830	-200,000	-0,076	-0,290
106,845	68,214	-0,212	-0,152
107,860	115,401	-0,284	-0,243
108,874	94,338	-0,155	-0,123
109,889	2,188	-0,234	-0,118
110,903	800,000	-0,120	-0,292
111,918	-21,963	-0,276	-0,117
112,933	193,394	-0,162	-0,172
113,947	88,538	-0,219	-0,170
114,962	-23,233	-0,427	-0,179
115,976	-34,961	-0,395	-0,150
116,991	14,487	-0,398	-0,217
118,006	142,944	-0,277	-0,258
119,020	319,430	-0,129	-0,172
120,035	445,705	-0,200	-0,309
121,049	316,678	-0,151	-0,200
122,064	3,597	-0,301	-0,153
123,079	258,746	-0,156	-0,188
124,093	386,318	-0,204	-0,295
125,108	76,989	-0,346	-0,257
126,122	-17,832	-0,378	-0,165
127,137	75,256	-0,263	-0,193
128,151	22,638	-0,308	-0,176
129,166	96,484	-0,210	-0,168
130,181	-90,602	-0,347	-0,070
131,195	91,787	-0,165	-0,129
132,210	-12,418	-0,331	-0,150
133,224	230,278	-0,208	-0,238
134,239	-87,798	-0,246	-0,051
135,254	92,513	-0,246	-0,194
136,268	-60,435	-0,242	-0,071
137,283	-100,552	-0,204	-0,035
138,297	63,806	-0,309	-0,216
139,312	115,200	-0,283	-0,241
140,327	179,111	-0,226	-0,231
141,341	-51,310	-0,188	-0,061
142,356	8,498	-0,255	-0,134
143,370	135,854	-0,254	-0,231
144,385	21,797	-0,208	-0,118
145,400	207,909	-0,141	-0,154
146,414	183,843	-0,262	-0,271
147,429	134,876	-0,221	-0,200
148,443	-38,435	-0,346	-0,127
149,458	28,493	-0,231	-0,136
150,473	-100,421	-0,335	-0,057
151,487	136,284	-0,218	-0,198
152,502	-21,073	-0,346	-0,147
153,516	44,953	-0,413	-0,265
154,531	23,977	-0,339	-0,194
155,546	-48,373	-0,258	-0,086
156,560	-102,994	-0,145	-0,024
157,575	-123,141	-0,178	-0,020
158,589	-62,558	-0,191	-0,055
159,604	-68,283	-0,323	-0,087
160,619	26,434	-0,117	-0,068
161,633	-119,717	-0,228	-0,027
162,648	243,429	-0,228	-0,267
163,662	-97,729	-0,278	-0,050
164,677	-0,298	-0,232	-0,114
165,692	-11,520	-0,235	-0,107
166,706	-68,364	-0,342	-0,092
167,721	-3,941	-0,340	-0,164
168,735	-83,756	-0,257	-0,057
169,750	170,632	-0,201	-0,200
170,764	800,000	-0,043	-0,084
171,779	34,655	-0,249	-0,151
172,794	-27,924	-0,237	-0,095
173,808	176,856	-0,229	-0,232
174,823	32,096	-0,347	-0,208
175,837	204,571	-0,262	-0,283
176,852	-0,533	-0,202	-0,099
177,867	-35,643	-0,222	-0,083
178,881	-167,455	-0,175	0,005
179,896	159,957	-0,166	-0,161
180,910	54,465	-0,287	-0,192
181,925	36,263	-0,170	-0,104
182,940	13,710	-0,264	-0,142
183,954	338,934	-0,234	-0,319
184,969	98,314	-0,228	-0,182
185,983	-17,733	-0,132	-0,057
186,998	100,369	-0,130	-0,105
188,013	-72,483	-0,183	-0,047
189,027	144,983	-0,296	-0,275
190,042	-144,282	-0,341	-0,022
191,056	79,595	-0,206	-0,154
192,071	556,799	-0,145	-0,244
193,086	-49,962	-0,206	-0,067
194,100	415,218	-0,157	-0,233
195,115	-135,064	-0,155	-0,013
196,129	629,239	-0,140	-0,246
197,144	446,385	-0,239	-0,366
198,159	217,506	-0,171	-0,189
199,173	65,262	-0,168	-0,118
200,188	-38,724	-0,172	-0,063
201,202	-113,049	-0,123	-0,017
202,217	68,661	-0,147	-0,104
203,232	26,115	-0,274	-0,158
204,246	78,776	-0,131	-0,097
205,261	118,687	-0,166	-0,142
206,275	-200,000	-0,027	-0,106
207,290	83,760	-0,306	-0,232
208,304	-85,928	-0,172	0,037
209,319	23,272	-0,278	-0,158
210,334	-97,947	-0,141	-0,025
211,348	800,000	-0,141	-0,321
212,363	595,228	-0,125	-0,216
213,377	-200,000	0,019	-0,115
214,392	129,025	-0,220	-0,195
215,407	58,095	-0,066	-0,045
216,421	148,472	-0,231	-0,216
217,436	218,823	-0,169	-0,188
218,450	52,531	-0,271	-0,179
219,465	222,763	-0,263	-0,294
220,480	249,197	-0,059	-0,070
221,494	511,269	-0,059	-0,096
222,509	686,820	-0,076	-0,139
223,523	-47,882	-0,192	-0,064
224,538	59,428	-0,246	-0,168
225,553	42,877	-0,223	-0,141
226,567	-12,803	-0,279	-0,125
227,582	-58,051	-0,169	-0,051
228,596	-73,907	-0,263	-0,066
229,611	-15,659	-0,094	-0,041
230,626	663,711	-0,082	-0,147
231,640	136,733	-0,087	-0,078
232,655	111,010	-0,221	-0,184
233,669	346,704	-0,142	-0,194
234,684	193,075	-0,165	-0,173
235,699	436,144	-0,139	-0,211
236,713	94,022	-0,096	-0,075
237,728	103,991	-0,178	-0,145
238,742	192,407	-0,163	-0,170
239,757	-38,551	-0,117	-0,043
240,772	0,826	-0,284	-0,140
241,786	301,280	-0,096	-0,123
242,801	170,178	-0,199	-0,197
243,815	282,007	-0,127	-0,158
244,830	87,742	-0,199	-0,152
245,844	-20,006	-0,162	-0,069
246,859	8,837	-0,293	-0,152
247,874	30,305	-0,191	-0,113
248,888	319,637	-0,162	-0,214
249,903	12,750	-0,143	0,076
250,917	238,000	-0,097	-0,112
251,932	-142,425	-0,177	-0,012
252,947	-61,923	-0,104	-0,030
253,961	-48,028	-0,207	-0,069
254,976	41,175	-0,198	-0,123
255,990	184,609	-0,209	-0,214
257,005	-13,850	-0,237	-0,105
258,020	113,143	-0,086	-0,072
259,034	-125,212	-0,194	-0,020
260,049	121,348	-0,188	-0,162
261,063	800,000	-0,120	-0,236
262,078	301,450	-0,163	-0,208
263,093	800,000	-0,076	-0,192
264,107	616,234	-0,068	-0,119
265,122	710,590	-0,123	-0,225
266,136	48,973	-0,080	-0,052
267,151	28,742	-0,097	-0,057
268,166	-44,274	-0,217	-0,075
269,180	-157,966	-0,293	-0,012
270,195	151,053	-0,224	-0,210
271,209	592,192	-0,168	-0,288
272,224	-144,024	-0,190	0,012
273,239	-200,000	-0,008	-0,035
274,253	-121,705	-0,166	-0,019
275,268	25,772	-0,209	-0,120
276,282	91,270	-0,193	-0,150
277,297	20,655	-0,170	-0,094
278,312	140,738	-0,184	-0,168
279,326	21,175	-0,136	-0,076
280,341	800,000	-0,093	-0,181
281,355	75,621	-0,143	-0,104
282,370	70,586	-0,286	-0,204
283,384	41,073	-0,298	-0,185
284,399	113,693	-0,236	-0,198
285,414	800,000	-0,107	-0,220
286,428	60,943	-0,198	-0,135
287,443	89,199	-0,091	-0,070
288,457	493,537	-0,023	-0,036
289,472	493,306	-0,077	-0,122
290,487	-24,985	-0,266	-0,108
291,501	-13,579	-0,220	-0,098
292,516	-120,463	-0,158	-0,018
293,530	120,997	-0,092	-0,078
294,545	-200,000	-0,045	-0,137
295,560	91,764	-0,174	-0,135
296,574	-32,394	-0,172	-0,066
297,589	-37,966	-0,112	-0,041
298,603	232,958	-0,055	-0,063
299,618	-20,789	-0,155	-0,065
300,633	-155,212	-0,201	0,009
301,647	519,246	-0,115	-0,185
302,662	-83,241	-0,178	0,039
303,676	-96,019	-0,163	0,030
304,691	-37,124	-0,238	-0,087
305,706	245,297	-0,158	-0,183
306,720	80,039	-0,205	-0,152
307,735	-92,345	0,020	0,004
308,749	43,742	-0,173	-0,108
309,764	-15,990	-0,197	-0,086
310,779	-37,401	-0,153	-0,056
311,793	-45,261	-0,185	-0,063
312,808	279,864	-0,116	-0,143
313,822	-134,008	-0,183	0,015
314,837	120,078	-0,221	-0,188
315,852	19,429	-0,136	-0,075
316,866	-200,000	-0,026	-0,081
317,881	800,000	-0,071	-0,141
318,895	78,305	-0,186	-0,137
319,910	35,158	-0,153	-0,092
320,925	339,342	-0,152	-0,204
321,939	339,167	-0,132	-0,177
322,954	800,000	-0,122	-0,237
323,968	-200,000	-0,065	-0,197
324,983	-86,367	-0,140	-0,029
325,997	16,431	-0,120	0,065
327,012	43,280	-0,124	-0,078
328,027	94,202	-0,154	-0,120
329,041	-55,855	-0,201	-0,061
330,056	325,859	-0,076	0,100
331,070	-86,637	-0,083	0,017
332,085	-45,360	-0,103	-0,035
333,100	-44,567	-0,240	-0,082
334,114	121,744	-0,198	-0,169
335,129	98,340	-0,149	-0,118
336,143	294,122	-0,074	-0,093
337,158	15,575	-0,069	0,037
338,173	-44,781	-0,181	-0,062
339,187	670,110	-0,127	-0,227
340,202	680,176	-0,122	-0,219
341,216	-200,000	-0,077	-0,243
342,231	56,917	-0,239	-0,159
343,246	89,713	-0,111	-0,085
344,260	-200,000	-0,031	-0,241
345,275	220,467	-0,135	0,149
346,289	81,533	-0,178	-0,132
347,304	249,702	-0,137	-0,159
348,319	80,531	-0,081	-0,060
349,333	800,000	-0,109	-0,234
350,348	-200,000	-0,030	-0,133
351,362	503,504	-0,099	-0,158
352,377	126,720	-0,085	-0,073
353,392	-34,691	-0,057	-0,021
354,406	119,302	-0,150	-0,127
355,421	207,973	1316,825	1411,116
356,435	160,002	1477,804	1411,590
