DTS Sentinel unit serial number:	SN410029Multiplexer serial number:	ORYXHardware model number:	OX2-SRSoftware version number:	ORYX F/W v4,00 Oryx Data Collector v3.7.2.0data status	okinstallation	B3 Nyhavnadifferential loss correction	single-endedforward channel	channel 1reverse channel	N/Adate	2023/12/04time	14:57:30forward acquisition time	300,00reverse acquisition time	0,00gamma	499,1914k internal	0,3200k external	0,3200temperature offset calibration	1,0000default loss term (dB/km)	0,3820temperature slope calibration	1,0000multiplexer offset coefficient	1,0000multiplexer slope coefficient	1,0000fibre end	0,00T internal ref (°C)	15,06T ext. ref 1 (°C)	0,28T ext. ref 2 (°C)	0,26length (m)	temperature (°C)	Stokes	anti-Stokes-744,400	258,933	-0,266	-0,334
-743,385	-200,000	-0,013	0,351
-742,371	123,227	-0,223	-0,203
-741,356	740,654	0,147	0,288
-740,342	210,618	-0,222	-0,254
-739,327	-200,000	-0,034	0,342
-738,312	-71,047	-0,421	-0,114
-737,298	-200,000	0,089	0,286
-736,283	148,400	-0,280	-0,275
-735,269	428,750	0,119	0,188
-734,254	225,784	-0,148	-0,174
-733,239	189,844	-0,135	0,147
-732,225	163,531	-0,214	-0,219
-731,210	800,000	0,052	0,163
-730,196	-49,208	-0,021	-0,007
-729,181	211,645	-0,053	-0,061
-728,167	139,713	0,035	0,034
-727,152	-200,000	-0,020	-0,089
-726,137	-124,198	-0,080	-0,009
-725,123	507,837	0,032	-0,055
-724,108	58,932	-0,051	0,036
-723,094	-48,599	-0,063	-0,022
-722,079	-200,000	-0,012	-0,081
-721,064	-95,475	0,128	0,025
-720,050	-200,000	-0,012	-0,063
-719,035	-200,000	0,000	-0,057
-718,021	76,540	0,015	0,011
-717,006	14,565	-0,194	-0,110
-715,991	687,130	-0,055	-0,105
-714,977	71,125	-0,065	0,049
-713,962	-17,939	-0,020	-0,009
-712,948	-101,381	-0,114	0,020
-711,933	800,000	-0,052	0,132
-710,918	-200,000	0,007	0,099
-709,904	223,825	0,075	-0,088
-708,889	-151,816	-0,115	0,006
-707,875	800,000	0,048	-0,106
-706,860	-71,930	-0,114	0,031
-705,845	366,414	0,079	0,116
-704,831	-44,796	0,123	-0,044
-703,816	400,498	-0,034	-0,052
-702,802	82,434	-0,104	-0,082
-701,787	46,852	-0,088	-0,059
-700,772	-30,573	-0,071	-0,029
-699,758	-88,462	0,112	0,024
-698,743	800,000	-0,011	0,032
-697,729	42,461	0,095	0,062
-696,714	271,661	-0,059	-0,076
-695,699	78,761	0,097	-0,075
-694,685	-8,375	-0,056	0,027
-693,670	-4,445	0,078	0,039
-692,656	-200,000	-0,005	-0,047
-691,641	173,300	0,096	0,100
-690,627	800,000	0,049	0,149
-689,612	187,753	-0,097	0,105
-688,597	111,884	0,019	0,016
-687,583	22,105	-0,025	-0,015
-686,568	800,000	0,016	-0,046
-685,554	-200,000	0,006	-0,025
-684,539	155,304	-0,111	-0,111
-683,524	249,579	0,097	0,120
-682,510	-200,000	-0,004	0,037
-681,495	97,211	-0,027	0,023
-680,481	-200,000	0,000	-0,102
-679,466	71,263	-0,016	-0,012
-678,451	222,748	0,058	-0,068
-677,437	387,558	0,058	0,087
-676,422	-13,877	0,142	0,066
-675,408	-132,635	0,213	0,020
-674,393	800,000	-0,019	0,060
-673,378	-18,559	-0,114	0,051
-672,364	274,950	-0,051	-0,065
-671,349	800,000	0,024	0,075
-670,335	258,157	0,037	0,047
-669,320	171,524	0,093	0,097
-668,305	-0,885	0,134	0,068
-667,291	97,322	-0,058	0,048
-666,276	137,379	-0,040	0,038
-665,262	21,227	-0,100	0,059
-664,247	800,000	-0,071	0,154
-663,232	-18,883	0,042	0,019
-662,218	-200,000	-0,002	0,091
-661,203	-100,638	0,101	0,018
-660,189	-110,601	-0,117	-0,017
-659,174	-72,467	-0,069	-0,018
-658,159	-200,000	0,027	-0,123
-657,145	-42,485	-0,139	0,051
-656,130	269,172	-0,057	-0,073
-655,116	70,882	0,121	-0,091
-654,101	-200,000	-0,035	0,148
-653,086	246,068	0,049	-0,060
-652,072	-200,000	0,030	-0,125
-651,057	-200,000	-0,006	-0,058
-650,043	619,896	-0,062	-0,114
-649,028	-170,506	-0,152	0,004
-648,014	800,000	-0,054	0,119
-646,999	800,000	0,018	-0,040
-645,984	-200,000	-0,000	0,044
-644,970	-65,446	-0,143	0,041
-643,955	-200,000	0,020	-0,070
-642,941	130,586	-0,011	-0,010
-641,926	-200,000	-0,007	-0,037
-640,911	-200,000	0,131	0,000
-639,897	-12,230	0,026	0,012
-638,882	-200,000	-0,007	0,166
-637,868	249,128	-0,134	0,165
-636,853	166,374	0,074	-0,076
-635,838	68,406	-0,063	-0,047
-634,824	-200,000	-0,005	-0,174
-633,809	312,375	-0,026	-0,035
-632,795	-140,065	-0,095	-0,007
-631,780	792,049	0,053	-0,106
-630,765	800,000	0,032	-0,067
-629,751	-184,084	0,109	0,001
-628,736	-105,942	-0,082	-0,013
-627,722	800,000	0,061	-0,140
-626,707	344,903	0,071	-0,102
-625,692	-105,293	0,024	-0,004
-624,678	222,542	0,089	0,104
-623,663	-96,982	-0,117	-0,022
-622,649	800,000	-0,044	-0,140
-621,634	800,000	0,030	0,090
-620,619	127,587	-0,072	-0,066
-619,605	-21,818	-0,044	-0,019
-618,590	212,222	-0,018	0,021
-617,576	-200,000	0,021	0,106
-616,561	191,597	0,009	-0,010
-615,546	-200,000	-0,004	0,063
-614,532	-200,000	-0,014	0,060
-613,517	-2,359	-0,099	-0,050
-612,503	160,965	0,061	-0,061
-611,488	-200,000	-0,023	0,161
-610,474	79,159	-0,143	0,111
-609,459	-200,000	-0,011	0,043
-608,444	-51,876	-0,130	0,044
-607,430	-9,544	0,058	0,028
-606,415	-76,425	0,082	0,021
-605,401	43,024	-0,037	-0,024
-604,386	-120,647	-0,097	0,012
-603,371	623,013	0,057	0,104
-602,357	106,117	-0,146	0,125
-601,342	-43,379	0,036	0,013
-600,328	-131,491	0,011	0,001
-599,313	117,613	-0,167	-0,149
-598,298	83,725	-0,105	-0,083
-597,284	-189,927	0,093	0,001
-596,269	-87,919	0,133	0,029
-595,255	78,235	-0,041	-0,032
-594,240	-9,076	-0,072	0,035
-593,225	-171,314	-0,095	0,002
-592,211	60,314	-0,092	-0,066
-591,196	-200,000	0,006	0,062
-590,182	-25,663	0,067	0,029
-589,167	-46,371	0,143	0,051
-588,152	-0,878	-0,177	-0,090
-587,138	-58,450	0,034	-0,010
-586,123	-200,000	0,034	-0,273
-585,109	-200,000	0,035	-0,170
-584,094	337,212	-0,061	0,086
-583,079	319,005	0,091	-0,125
-582,065	36,458	0,073	0,047
-581,050	800,000	-0,030	-0,063
-580,036	216,846	-0,112	0,129
-579,021	19,602	-0,092	-0,053
-578,006	800,000	0,007	-0,022
-576,992	131,408	-0,056	-0,052
-575,977	-200,000	-0,007	-0,118
-574,963	800,000	0,005	0,013
-573,948	218,499	0,117	0,136
-572,934	-135,673	-0,039	-0,003
-571,919	-200,000	0,026	0,101
-570,904	155,920	0,035	-0,035
-569,890	-200,000	0,002	0,038
-568,875	-200,000	0,000	-0,096
-567,861	353,932	-0,071	0,103
-566,846	250,630	-0,059	0,073
-565,831	-200,000	-0,013	0,107
-564,817	-52,027	0,023	-0,008
-563,802	-128,473	-0,189	-0,019
-562,788	-200,000	0,017	-0,218
-561,773	-200,000	0,006	-0,087
-560,758	578,695	0,082	-0,145
-559,744	-62,934	0,017	0,005
-558,729	387,597	-0,041	0,061
-557,715	219,033	-0,034	0,039
-556,700	299,040	0,070	-0,094
-555,685	-200,000	-0,003	-0,111
-554,671	-200,000	0,028	-0,101
-553,656	-200,000	0,019	-0,078
-552,642	175,108	0,120	-0,125
-551,627	442,758	0,019	-0,030
-550,612	-72,449	0,132	0,035
-549,598	308,213	-0,089	0,120
-548,583	8,510	-0,075	-0,040
-547,569	-14,249	0,102	0,047
-546,554	391,525	-0,069	-0,104
-545,539	800,000	0,019	0,060
-544,525	-106,606	0,086	-0,014
-543,510	-200,000	-0,008	-0,095
-542,496	-200,000	0,006	0,038
-541,481	800,000	-0,041	0,105
-540,466	-47,708	-0,070	-0,024
-539,452	-200,000	-0,010	-0,079
-538,437	-6,991	0,114	0,055
-537,423	800,000	0,004	-0,012
-536,408	-48,736	-0,074	0,025
-535,393	-52,806	-0,079	-0,026
-534,379	474,267	-0,083	-0,135
-533,364	-200,000	-0,002	-0,043
-532,350	61,081	0,055	-0,040
-531,335	-200,000	0,025	0,127
-530,321	800,000	-0,015	0,046
-529,306	800,000	0,030	0,091
-528,291	241,821	-0,042	0,051
-527,277	1,273	-0,019	-0,010
-526,262	-129,780	0,072	0,007
-525,248	-36,027	-0,046	0,018
-524,233	38,126	0,100	0,064
-523,218	59,269	0,027	0,019
-522,204	-162,247	-0,009	0,000
-521,189	-78,193	0,188	-0,046
-520,175	800,000	0,017	0,054
-519,160	610,649	-0,065	-0,117
-518,145	-70,476	0,026	-0,007
-517,131	-106,208	0,080	-0,013
-516,116	248,599	0,093	-0,114
-515,102	-31,416	0,113	0,046
-514,087	800,000	-0,039	0,095
-513,072	97,727	-0,117	-0,097
-512,058	125,340	0,063	-0,058
-511,043	800,000	0,017	-0,036
-510,029	-200,000	0,018	0,073
-509,014	-200,000	-0,019	0,077
-507,999	29,215	0,083	0,051
-506,985	-54,813	-0,160	-0,052
-505,970	226,343	0,082	-0,096
-504,956	-200,000	0,009	-0,067
-503,941	237,259	-0,070	0,084
-502,926	-107,403	0,049	0,008
-501,912	-144,820	0,143	-0,009
-500,897	-200,000	-0,002	0,071
-499,883	-122,916	-0,099	-0,011
-498,868	-150,836	-0,060	0,003
-497,853	82,909	-0,123	-0,096
-496,839	316,922	-0,072	-0,098
-495,824	-68,552	-0,085	-0,024
-494,810	-128,738	0,070	0,007
-493,795	114,182	-0,057	0,050
-492,781	100,028	-0,085	-0,071
-491,766	300,645	-0,056	0,075
-490,751	-200,000	0,012	0,047
-489,737	800,000	-0,056	-0,125
-488,722	31,334	0,144	0,089
-487,708	-200,000	-0,014	-0,068
-486,693	-20,658	-0,036	0,016
-485,678	-97,454	-0,161	-0,030
-484,664	800,000	0,015	-0,041
-483,649	59,937	0,129	-0,092
-482,635	-200,000	-0,006	-0,095
-481,620	-77,825	0,014	-0,003
-480,605	452,871	0,062	0,099
-479,591	-200,000	0,005	0,209
-478,576	123,084	-0,012	0,011
-477,562	-200,000	-0,046	-0,162
-476,547	-200,000	-0,026	-0,136
-475,532	-0,008	0,124	0,063
-474,518	450,706	0,054	-0,085
-473,503	-200,000	-0,007	-0,031
-472,489	756,921	0,017	-0,034
-471,474	-200,000	-0,022	-0,167
-470,459	130,674	0,029	-0,026
-469,445	-109,536	-0,077	-0,012
-468,430	40,164	-0,113	-0,073
-467,416	-77,849	0,085	-0,021
-466,401	-116,774	0,050	0,006
-465,386	800,000	-0,024	0,060
-464,372	800,000	-0,048	0,140
-463,357	377,871	-0,101	0,149
-462,343	-102,481	-0,021	-0,004
-461,328	-45,397	-0,030	0,011
-460,313	-200,000	0,020	0,116
-459,299	800,000	0,039	0,088
-458,284	33,607	-0,088	0,055
-457,270	46,676	-0,012	0,008
-456,255	162,395	-0,015	0,015
-455,241	-118,369	-0,114	-0,014
-454,226	800,000	-0,052	-0,138
-453,211	128,277	-0,046	0,042
-452,197	-200,000	0,002	0,087
-451,182	-200,000	0,016	0,110
-450,168	-200,000	-0,006	0,133
-449,153	147,786	0,018	-0,018
-448,138	146,877	0,077	-0,075
-447,124	-8,190	-0,085	-0,041
-446,109	50,539	-0,129	0,088
-445,095	-67,462	-0,027	0,008
-444,080	-151,576	0,124	-0,006
-443,065	-200,000	-0,028	0,091
-442,051	-153,392	-0,027	-0,001
-441,036	-200,000	0,017	-0,094
-440,022	-54,196	0,058	-0,019
-439,007	-14,210	-0,175	0,081
-437,992	248,135	0,118	0,143
-436,978	507,500	0,039	-0,065
-435,963	52,035	0,075	-0,051
-434,949	-13,291	-0,043	0,020
-433,934	800,000	-0,043	-0,099
-432,919	-200,000	-0,033	0,108
-431,905	-42,819	-0,108	-0,039
-430,890	78,469	0,132	-0,101
-429,876	11,990	-0,031	0,017
-428,861	-37,199	-0,072	0,027
-427,846	102,726	0,031	-0,026
-426,832	32,906	-0,094	-0,058
-425,817	-39,090	-0,062	0,023
-424,803	133,023	-0,070	-0,065
-423,788	467,822	0,091	0,148
-422,773	800,000	-0,069	0,179
-421,759	169,339	0,087	0,090
-420,744	-27,202	0,015	0,006
-419,730	-200,000	0,004	-0,069
-418,715	-200,000	-0,003	-0,015
-417,701	800,000	-0,138	-0,333
-416,686	264,414	0,108	-0,135
-415,671	-64,897	0,165	0,048
-414,657	-200,000	0,031	0,140
-413,642	163,357	-0,038	-0,039
-412,628	98,304	-0,033	-0,028
-411,613	-156,223	-0,108	-0,005
-410,598	237,107	-0,063	-0,075
-409,584	-93,343	0,144	0,028
-408,569	219,267	0,055	-0,063
-407,555	-200,000	-0,000	0,045
-406,540	23,516	-0,034	0,020
-405,525	-125,430	-0,027	-0,003
-404,511	-200,000	-0,006	0,044
-403,496	-200,000	-0,007	0,109
-402,482	-200,000	-0,021	-0,173
-401,467	-106,987	0,033	0,005
-400,452	287,343	0,110	0,143
-399,438	511,319	-0,049	0,082
-398,423	-200,000	-0,005	0,070
-397,409	-60,746	-0,066	0,020
-396,394	80,676	0,101	0,078
-395,379	-31,970	0,037	-0,015
-394,365	-27,434	0,091	-0,038
-393,350	800,000	0,044	0,122
-392,336	-200,000	0,034	0,140
-391,321	-24,743	0,052	-0,022
-390,306	-52,606	-0,113	-0,037
-389,292	364,978	-0,090	-0,130
-388,277	335,491	0,079	-0,110
-387,263	-82,935	0,095	0,022
-386,248	33,266	-0,069	0,043
-385,233	-138,010	0,163	0,013
-384,219	-200,000	0,023	-0,077
-383,204	63,345	-0,029	-0,021
-382,190	-200,000	0,005	-0,168
-381,175	-200,000	-0,024	-0,103
-380,160	275,805	0,015	-0,019
-379,146	691,576	-0,008	-0,014
-378,131	9,932	0,057	0,031
-377,117	-53,951	-0,087	0,028
-376,102	-111,397	-0,107	0,016
-375,088	-200,000	0,028	0,203
-374,073	-169,640	0,073	-0,002
-373,058	88,478	0,050	-0,040
-372,044	464,328	0,051	0,082
-371,029	-200,000	0,024	0,096
-370,015	-200,000	0,025	-0,167
-369,000	236,698	0,084	-0,100
-367,985	175,457	-0,063	-0,065
-366,971	800,000	0,068	-0,161
-365,956	-200,000	0,008	0,054
-364,942	-189,146	0,206	0,002
-363,927	-200,000	0,015	0,135
-362,912	381,738	0,065	-0,096
-361,898	727,169	-0,016	-0,030
-360,883	800,000	0,010	-0,031
-359,869	79,484	-0,057	-0,044
-358,854	-200,000	0,006	-0,097
-357,839	466,519	0,038	0,061
-356,825	-200,000	0,007	0,067
-355,810	238,135	0,082	-0,097
-354,796	25,725	-0,075	0,045
-353,781	2,053	-0,133	-0,069
-352,766	9,866	0,086	-0,046
-351,752	-200,000	0,016	0,081
-350,737	-35,898	0,181	0,070
-349,723	361,222	-0,078	0,112
-348,708	-200,000	0,029	0,159
-347,693	270,523	-0,040	-0,051
-346,679	-200,000	-0,008	-0,062
-345,664	-25,648	-0,056	0,024
-344,650	-200,000	0,010	-0,095
-343,635	630,558	0,048	0,087
-342,620	76,475	0,068	0,051
-341,606	139,556	-0,080	0,075
-340,591	2,591	0,097	-0,050
-339,577	800,000	0,052	0,123
-338,562	60,349	-0,045	0,032
-337,548	174,600	-0,083	0,086
-336,533	-134,202	0,031	0,003
-335,518	701,866	0,067	0,127
-334,504	760,998	-0,028	-0,055
-333,489	15,081	0,053	0,030
-332,475	-16,364	0,033	0,015
-331,460	205,239	-0,054	0,060
-330,445	13,991	-0,023	-0,013
-329,431	30,849	-0,050	0,030
-328,416	376,477	0,078	0,114
-327,402	-144,340	0,171	0,011
-326,387	800,000	-0,071	-0,173
-325,372	-200,000	0,014	0,045
-324,358	166,478	0,031	0,032
-323,343	-200,000	-0,036	-0,124
-322,329	-151,461	-0,037	0,002
-321,314	77,925	0,039	0,030
-320,299	57,260	-0,083	-0,058
-319,285	800,000	0,055	0,128
-318,270	70,040	-0,070	0,052
-317,256	800,000	0,026	-0,080
-316,241	-200,000	0,003	-0,053
-315,226	-200,000	0,011	-0,046
-314,212	182,114	-0,077	0,082
-313,197	225,415	-0,069	0,080
-312,183	152,325	-0,064	0,063
-311,168	195,728	0,054	0,059
-310,153	-130,958	0,054	0,005
-309,139	354,437	-0,003	0,004
-308,124	-200,000	0,011	-0,140
-307,110	800,000	0,029	-0,059
-306,095	67,746	-0,146	0,107
-305,080	31,531	0,083	0,051
-304,066	-200,000	0,024	0,109
-303,051	270,128	-0,053	-0,067
-302,037	104,105	-0,103	-0,087
-301,022	800,000	0,044	0,107
-300,008	-200,000	0,000	0,030
-298,993	382,624	-0,028	0,042
-297,978	-21,166	0,037	0,016
-296,964	534,726	-0,037	-0,063
-295,949	14,821	0,119	-0,066
-294,935	800,000	-0,038	-0,106
-293,920	-142,531	0,053	-0,004
-292,905	21,805	0,082	0,048
-291,891	-93,659	0,187	-0,037
-290,876	-200,000	-0,006	-0,076
-289,862	752,106	-0,005	-0,010
-288,847	-170,799	-0,028	-0,001
-287,832	-42,277	0,088	-0,032
-286,818	-200,000	-0,024	0,079
-285,803	800,000	-0,063	0,145
-284,789	392,668	-0,089	0,132
-283,774	-81,482	0,102	0,024
-282,759	-200,000	-0,006	0,030
-281,745	-116,816	-0,049	0,006
-280,730	69,043	-0,087	0,064
-279,716	-79,133	0,182	-0,044
-278,701	359,583	0,041	-0,059
-277,686	-63,545	-0,030	-0,009
-276,672	-6,524	-0,120	-0,058
-275,657	-1,736	0,052	0,026
-274,643	-93,147	-0,060	0,012
-273,628	90,769	0,042	-0,033
-272,613	103,473	-0,082	-0,069
-271,599	-111,501	0,147	0,021
-270,584	3,342	0,075	0,039
-269,570	800,000	0,046	0,104
-268,555	18,377	0,072	0,041
-267,540	800,000	0,026	-0,071
-266,526	10,923	-0,043	0,023
-265,511	223,900	0,016	-0,018
-264,497	-148,298	-0,104	0,006
-263,482	137,928	0,045	0,042
-262,467	92,486	0,049	-0,040
-261,453	-200,000	-0,027	-0,107
-260,438	-32,466	-0,136	-0,054
-259,424	-200,000	-0,011	-0,050
-258,409	18,695	-0,125	-0,071
-257,395	131,880	-0,074	-0,068
-256,380	325,848	-0,016	0,021
-255,365	-200,000	-0,005	0,075
-254,351	40,885	0,023	-0,015
-253,336	-96,389	-0,087	0,016
-252,322	-200,000	-0,009	0,056
-251,307	-200,000	-0,015	-0,061
-250,292	-96,740	0,081	-0,015
-249,278	358,465	-0,069	0,098
-248,263	-2,555	0,040	0,020
-247,249	-137,750	0,048	0,004
-246,234	-27,706	-0,079	-0,033
-245,219	590,399	-0,038	0,067
-244,205	-64,583	0,069	0,020
-243,190	188,107	0,009	0,009
-242,176	564,886	0,033	-0,057
-241,161	-49,628	-0,026	-0,009
-240,146	-174,828	0,072	-0,001
-239,132	800,000	0,049	-0,099
-238,117	800,000	-0,024	0,068
-237,103	-109,332	-0,066	0,010
-236,088	-5,733	-0,068	-0,033
-235,073	180,054	-0,085	-0,089
-234,059	-200,000	0,030	0,115
-233,044	-49,609	0,043	-0,015
-232,030	109,012	0,094	-0,080
-231,015	-44,787	-0,058	0,021
-230,000	-200,000	0,007	-0,029
-228,986	214,587	0,039	-0,044
-227,971	-43,931	0,075	0,027
-226,957	-1,863	0,058	-0,029
-225,942	-165,820	0,111	0,003
-224,927	125,608	-0,082	-0,074
-223,913	56,884	-0,081	-0,056
-222,898	-200,000	-0,003	-0,118
-221,884	-25,169	0,018	-0,008
-220,869	-200,000	-0,014	0,089
-219,855	69,202	0,129	-0,094
-218,840	-67,221	0,120	-0,033
-217,825	-164,920	-0,145	0,005
-216,811	-80,547	-0,035	-0,008
-215,796	-95,207	-0,117	0,022
-214,782	131,035	-0,017	0,016
-213,767	2,270	0,054	0,028
-212,752	-73,672	0,092	0,024
-211,738	-200,000	0,010	-0,045
-210,723	-39,860	-0,100	0,037
-209,709	52,968	0,109	0,074
-208,694	-200,000	0,016	-0,096
-207,679	141,074	0,018	0,017
-206,665	-50,899	-0,064	0,021
-205,650	464,041	-0,046	0,074
-204,636	-88,189	0,043	-0,009
-203,621	-200,000	0,026	-0,110
-202,606	-200,000	0,004	-0,068
-201,592	-200,000	-0,033	-0,146
-200,577	478,065	0,046	0,075
-199,563	144,716	0,055	0,052
-198,548	-82,987	0,160	0,036
-197,533	-102,824	0,111	-0,019
-196,519	139,133	-0,127	0,119
-195,504	800,000	-0,013	0,040
-194,490	136,616	-0,116	-0,108
-193,475	122,628	-0,116	-0,103
-192,460	-53,716	0,148	0,048
-191,446	676,624	-0,017	0,032
-190,431	-200,000	0,004	-0,099
-189,417	-151,329	0,112	-0,006
-188,402	-138,731	-0,105	0,008
-187,387	150,431	0,043	-0,042
-186,373	-84,640	-0,192	0,043
-185,358	800,000	0,029	0,063
-184,344	-200,000	-0,005	0,164
-183,329	-108,175	-0,026	0,004
-182,315	-200,000	-0,033	-0,158
-181,300	-200,000	0,004	0,038
-180,285	-200,000	0,009	-0,033
-179,271	-51,251	-0,040	-0,013
-178,256	-200,000	0,003	0,096
-177,242	142,827	0,119	0,113
-176,227	-61,109	-0,044	-0,013
-175,212	-165,788	0,069	-0,002
-174,198	800,000	0,066	0,147
-173,183	74,537	-0,087	-0,065
-172,169	-200,000	0,001	-0,068
-171,154	30,760	-0,031	0,019
-170,139	800,000	0,024	0,050
-169,125	-18,155	0,128	0,057
-168,110	511,499	-0,047	0,079
-167,096	6,507	0,105	0,055
-166,081	309,091	0,049	0,065
-165,066	69,176	-0,063	-0,046
-164,052	-200,000	-0,016	-0,066
-163,037	-200,000	0,004	0,025
-162,023	409,640	-0,058	0,088
-161,008	-200,000	0,005	0,094
-159,993	359,998	0,049	0,071
-158,979	-200,000	-0,003	-0,027
-157,964	-200,000	-0,005	-0,050
-156,950	-37,704	-0,095	-0,036
-155,935	120,259	-0,018	-0,016
-154,920	-71,984	0,152	0,040
-153,906	77,118	-0,057	0,043
-152,891	-200,000	0,034	0,108
-151,877	-35,098	-0,064	0,025
-150,862	190,027	-0,123	-0,131
-149,847	320,875	0,040	-0,055
-148,833	-123,427	0,114	-0,013
-147,818	344,034	0,089	0,124
-146,804	522,699	0,085	0,143
-145,789	-93,442	0,082	-0,016
-144,775	800,000	-0,040	-0,088
-143,760	-200,000	-0,033	-0,184
-142,745	-136,250	0,147	-0,012
-141,731	-200,000	-0,014	-0,070
-140,716	-200,000	-0,009	0,056
-139,702	19,929	0,168	-0,096
-138,687	513,513	0,045	0,075
-137,672	676,408	0,032	-0,060
-136,658	-200,000	0,075	-0,248
-135,643	-200,000	0,012	-0,067
-134,629	-114,117	-0,103	-0,014
-133,614	467,804	0,102	0,163
-132,599	800,000	-0,075	0,153
-131,585	-40,218	-0,078	0,029
-130,570	800,000	0,019	-0,047
-129,556	751,124	-0,042	-0,081
-128,541	-169,301	-0,092	0,002
-127,526	214,472	0,048	-0,054
-126,512	-158,374	-0,066	0,003
-125,497	-176,822	0,111	-0,002
-124,483	241,304	-0,047	0,056
-123,468	-104,923	0,114	0,018
-122,453	392,799	-0,023	-0,034
-121,439	800,000	-0,011	-0,030
-120,424	-200,000	-0,009	-0,049
-119,410	-101,610	0,118	0,020
-118,395	-200,000	0,008	0,262
-117,380	608,478	0,070	0,124
-116,366	-26,641	0,101	0,042
-115,351	800,000	-0,005	0,012
-114,337	93,811	-0,018	0,014
-113,322	-125,662	-0,085	0,009
-112,307	-13,047	-0,132	-0,061
-111,293	538,862	0,016	0,026
-110,278	-72,265	0,115	0,030
-109,264	800,000	0,064	-0,172
-108,249	-200,000	-0,003	-0,239
-107,234	216,230	-0,058	-0,066
-106,220	-49,729	0,023	0,008
-105,205	800,000	-0,039	-0,078
-104,191	-200,000	0,006	-0,140
-103,176	-125,061	0,121	-0,013
-102,162	-200,000	0,004	0,030
-101,147	-200,000	-0,031	-0,200
-100,132	-34,664	-0,050	-0,019
-99,118	204,571	-0,059	-0,065
-98,103	-200,000	-0,002	0,033
-97,089	-200,000	0,008	0,042
-96,074	-11,692	0,068	0,032
-95,059	800,000	-0,021	0,045
-94,045	-200,000	0,006	0,073
-93,030	49,891	0,087	-0,058
-92,016	-200,000	-0,011	-0,074
-91,001	-118,551	-0,023	0,003
-89,986	16,772	0,039	-0,022
-88,972	-200,000	-0,017	-0,056
-87,957	21,208	-0,044	-0,025
-86,943	83,943	0,087	0,067
-85,928	-72,175	-0,109	-0,028
-84,913	80,285	-0,040	-0,030
-83,899	-200,000	0,007	0,145
-82,884	599,573	-0,067	0,119
-81,870	157,368	-0,005	0,005
-80,855	-200,000	-0,003	0,151
-79,840	-200,000	0,011	-0,073
-78,826	473,177	-0,117	-0,188
-77,811	142,417	-0,106	-0,100
-76,797	8,460	0,089	-0,047
-75,782	800,000	-0,028	0,064
-74,767	79,214	-0,016	-0,012
-73,753	-200,000	0,005	-0,130
-72,738	217,518	-0,026	-0,030
-71,724	-31,538	-0,036	0,014
-70,709	-200,000	-0,001	-0,023
-69,694	-82,328	0,073	0,017
-68,680	-200,000	-0,008	-0,035
-67,665	-200,000	-0,025	-0,187
-66,651	30,541	0,091	0,055
-65,636	-200,000	0,028	0,100
-64,622	-3,398	-0,043	0,021
-63,607	-200,000	-0,029	-0,134
-62,592	-200,000	0,035	0,114
-61,578	130,538	0,018	-0,016
-60,563	-200,000	-0,008	0,026
-59,549	44,824	0,161	0,105
-58,534	-54,921	-1,536	-0,488
-57,519	425,174	-1,384	-2,117
-56,505	-200,000	-0,488	-4,484
-55,490	82,359	1,176	0,903
-54,476	800,000	4,955	11,393
-53,461	-200,000	18,341	287,393
-52,446	800,000	727,442	2226,074
-51,432	553,844	1643,079	2808,583
-50,417	79,259	1665,051	1262,423
-49,403	22,893	1538,824	890,881
-48,388	16,894	1462,245	817,497
-47,373	17,865	1452,128	816,487
-46,359	17,261	1442,524	808,168
-45,344	15,193	1437,855	795,651
-44,330	15,129	1435,830	794,189
-43,315	15,087	1434,271	793,099
-42,300	15,127	1432,476	792,266
-41,286	15,178	1431,307	791,830
-40,271	15,162	1429,939	790,964
-39,257	15,121	1428,869	790,145
-38,242	15,139	1427,639	789,521
-37,227	15,185	1426,253	788,941
-36,213	15,202	1424,985	788,288
-35,198	15,147	1424,018	787,460
-34,184	15,154	1423,293	787,061
-33,169	15,101	1421,771	785,939
-32,154	15,174	1420,901	785,770
-31,140	15,172	1419,468	784,939
-30,125	15,193	1418,287	784,354
-29,111	15,167	1417,403	783,711
-28,096	15,151	1416,186	782,934
-27,082	15,110	1414,895	781,993
-26,067	15,099	1413,849	781,334
-25,052	15,072	1412,883	780,643
-24,038	15,071	1411,821	780,018
-23,023	15,067	1410,837	779,427
-22,009	15,047	1409,799	778,729
-20,994	15,047	1408,684	778,082
-19,979	15,046	1408,017	777,678
-18,965	15,048	1407,025	777,109
-17,950	15,058	1405,941	776,525
-16,936	15,026	1405,224	775,949
-15,921	14,962	1404,015	774,954
-14,906	14,977	1403,122	774,499
-13,892	15,021	1402,137	774,127
-12,877	14,980	1401,175	773,377
-11,863	15,008	1400,357	773,023
-10,848	14,975	1399,500	772,369
-9,833	14,920	1398,697	771,640
-8,819	14,951	1397,585	771,138
-7,804	14,923	1396,754	770,518
-6,790	14,912	1395,619	769,813
-5,775	14,927	1394,704	769,345
-4,760	14,906	1393,793	768,717
-3,746	14,906	1392,971	768,231
-2,731	14,891	1392,206	767,710
-1,717	14,868	1391,381	767,118
-0,702	14,914	1389,266	766,134
0,313	18,678	1308,453	738,992
1,327	34,973	706,660	436,858
2,342	53,840	124,639	84,594
3,356	3,380	16,644	8,549
4,371	8,696	3,162	1,680
5,386	-40,103	0,673	0,247
6,400	-200,000	0,028	0,199
7,415	62,705	-0,184	-0,130
8,429	316,041	-0,201	-0,270
9,444	-40,877	-0,351	-0,128
10,459	-2,979	-0,353	-0,173
11,473	43,190	-0,380	-0,245
12,488	-69,461	-0,235	-0,063
13,502	103,455	-0,302	-0,250
14,517	-16,403	-0,349	-0,156
15,531	72,384	-0,300	-0,221
16,546	-19,294	-0,498	-0,217
17,561	155,595	-0,363	-0,353
18,575	-115,491	-0,255	-0,033
19,590	229,567	-0,192	-0,222
20,604	-135,788	-0,262	-0,022
21,619	13,841	-0,320	-0,176
22,634	13,614	-0,536	-0,293
23,648	67,032	-0,372	-0,267
24,663	134,384	-0,380	-0,348
25,677	15,005	-0,393	-0,217
26,692	-0,220	-0,325	-0,163
27,707	87,220	-0,256	-0,200
28,721	344,393	-0,219	-0,305
29,736	-7,539	-0,325	-0,154
30,750	-2,007	-0,448	-0,221
31,765	84,668	-0,352	-0,271
32,780	173,731	-0,450	-0,459
33,794	52,243	-0,271	-0,182
34,809	383,424	-0,313	-0,456
35,823	5,294	-0,384	-0,199
36,838	110,357	-0,324	-0,274
37,853	26,469	-0,451	-0,266
38,867	68,855	-0,334	-0,242
39,882	181,108	-0,334	-0,347
40,896	1,199	-0,314	-0,159
41,911	6,496	-0,457	-0,239
42,926	6,117	-0,431	-0,225
43,940	89,217	-0,269	-0,211
44,955	710,302	-0,236	-0,441
45,969	77,233	-0,335	-0,251
46,984	43,479	-0,334	-0,215
47,999	19,989	-0,324	-0,183
49,013	255,786	-0,270	-0,326
50,028	40,891	-0,343	-0,218
51,042	88,051	-0,512	-0,400
52,057	59,849	-0,406	-0,282
53,071	134,147	-0,346	-0,316
54,086	445,238	-0,237	-0,367
55,101	216,128	-0,260	-0,291
56,115	92,541	-0,275	-0,218
57,130	81,326	-0,317	-0,241
58,144	71,994	-0,327	-0,240
59,159	334,776	-0,328	-0,448
60,174	64,803	-0,252	-0,179
61,188	1,312	-0,360	-0,181
62,203	-70,182	-0,355	-0,094
63,217	45,573	-0,349	-0,226
64,232	65,037	-0,385	-0,273
65,247	-12,345	-0,396	-0,181
66,261	49,628	-0,384	-0,254
67,276	79,714	-0,389	-0,294
68,290	48,561	-0,289	-0,190
69,305	53,029	-0,329	-0,221
70,320	308,363	-0,156	-0,206
71,334	13,899	-0,276	-0,150
72,349	191,069	-0,344	-0,364
73,363	106,986	-0,266	-0,222
74,378	95,086	-0,195	-0,156
75,393	-1,641	-0,300	-0,148
76,407	-16,941	-0,261	-0,115
77,422	-30,282	-0,288	-0,114
78,436	-56,092	-0,313	-0,098
79,451	177,515	-0,295	-0,302
80,466	193,991	-0,300	-0,320
81,480	98,110	-0,265	-0,215
82,495	107,330	-0,281	-0,235
83,509	379,305	-0,218	-0,314
84,524	211,772	-0,242	-0,268
85,539	-32,197	-0,327	-0,128
86,553	8,636	-0,325	-0,171
87,568	83,201	-0,270	-0,206
88,582	424,086	-0,281	-0,425
89,597	406,598	-0,226	-0,336
90,611	-56,731	-0,354	-0,109
91,626	-84,288	-0,168	-0,037
92,641	133,279	-0,184	-0,167
93,655	14,438	-0,201	-0,110
94,670	50,015	-0,299	-0,198
95,684	94,179	-0,319	-0,254
96,699	-51,565	-0,388	-0,126
97,714	-5,982	-0,262	-0,125
98,728	-18,452	-0,269	-0,118
99,743	-39,162	-0,327	-0,120
100,757	76,839	-0,335	-0,250
101,772	23,847	-0,331	-0,191
102,787	284,837	-0,225	-0,285
103,801	800,000	-0,119	-0,290
104,816	-80,522	-0,382	-0,089
105,830	-158,333	-0,237	0,009
106,845	-18,901	-0,402	-0,175
107,860	255,093	-0,286	-0,344
108,874	-78,078	-0,386	-0,092
109,889	35,368	-0,175	-0,107
110,903	152,261	-0,288	-0,276
111,918	-29,690	-0,222	-0,088
112,933	-50,625	-0,346	-0,114
113,947	620,528	-0,112	-0,198
114,962	326,766	-0,252	-0,339
115,976	51,591	-0,353	-0,235
116,991	75,639	-0,241	-0,178
118,006	137,409	-0,248	-0,228
119,020	-40,125	-0,248	-0,090
120,035	15,669	-0,217	-0,119
121,049	42,259	-0,211	-0,134
122,064	17,121	-0,195	-0,108
123,079	0,257	-0,334	-0,166
124,093	177,801	-0,261	-0,267
125,108	-150,067	-0,273	-0,015
126,122	-141,736	-0,284	-0,020
127,137	13,607	-0,174	-0,094
128,151	-64,141	-0,210	-0,059
129,166	230,925	-0,195	-0,224
130,181	731,580	-0,046	0,086
131,195	167,417	-0,308	-0,306
132,210	79,527	-0,353	-0,264
133,224	68,175	-0,196	-0,140
134,239	15,582	-0,197	-0,108
135,254	-12,564	-0,224	-0,102
136,268	-89,143	-0,316	-0,065
137,283	-13,694	-0,101	-0,045
138,297	-24,788	-0,214	-0,089
139,312	33,063	-0,212	-0,128
140,327	95,841	-0,206	-0,164
141,341	44,662	-0,151	-0,097
142,356	-89,283	-0,288	-0,059
143,370	35,691	-0,249	-0,153
144,385	414,609	-0,143	-0,213
145,400	-30,668	-0,294	-0,116
146,414	117,352	-0,246	-0,211
147,429	159,819	-0,255	-0,248
148,443	73,719	-0,280	-0,205
149,458	3,005	-0,186	-0,094
150,473	28,562	-0,247	-0,146
151,487	140,284	-0,300	-0,277
152,502	-5,305	-0,336	-0,161
153,516	167,286	-0,187	-0,185
154,531	87,359	-0,244	-0,188
155,546	83,256	-0,271	-0,206
156,560	92,708	-0,295	-0,232
157,575	478,972	-0,148	-0,235
158,589	-29,453	-0,212	-0,084
159,604	-55,110	-0,207	-0,064
160,619	37,035	-0,344	-0,212
161,633	-19,839	-0,227	-0,098
162,648	-95,972	-0,327	-0,060
163,662	631,956	-0,182	-0,322
164,677	166,649	-0,246	-0,244
165,692	-62,280	-0,353	-0,102
166,706	139,093	-0,294	-0,270
167,721	76,107	-0,258	-0,190
168,735	36,515	-0,214	-0,132
169,750	93,160	-0,262	-0,207
170,764	72,521	-0,233	-0,169
171,779	723,206	-0,098	-0,183
172,794	160,615	-0,233	-0,227
173,808	147,479	-0,230	-0,216
174,823	14,260	-0,284	-0,154
175,837	148,584	-0,287	-0,270
176,852	-74,406	-0,258	-0,064
177,867	-200,000	-0,005	-0,089
178,881	-83,234	-0,247	-0,055
179,896	55,189	-0,252	-0,169
180,910	179,939	-0,176	-0,180
181,925	49,926	-0,251	-0,165
182,940	800,000	-0,118	-0,232
183,954	251,017	-0,167	-0,198
184,969	536,949	-0,108	-0,180
185,983	152,627	-0,208	-0,198
186,998	221,922	-0,158	-0,177
188,013	-86,863	-0,285	-0,060
189,027	-17,429	-0,319	-0,139
190,042	380,306	-0,139	-0,199
191,056	-85,082	-0,239	-0,052
192,071	-31,792	-0,206	-0,080
193,086	-69,348	-0,242	-0,064
194,100	369,920	-0,098	-0,138
195,115	-108,889	-0,245	-0,036
196,129	382,243	-0,127	-0,182
197,144	-6,067	-0,246	-0,116
198,159	302,980	-0,149	-0,192
199,173	-34,412	-0,183	-0,069
200,188	219,108	-0,105	-0,117
201,202	496,899	-0,056	-0,090
202,217	88,463	-0,121	-0,094
203,232	-28,240	-0,303	-0,121
204,246	34,774	-0,225	-0,136
205,261	144,059	-0,172	-0,160
206,275	-101,585	-0,236	-0,039
207,290	82,474	-0,182	-0,137
208,304	-57,382	-0,209	-0,063
209,319	-128,559	-0,194	-0,019
210,334	800,000	-0,120	-0,300
211,348	120,830	-0,204	-0,176
212,363	800,000	-0,117	-0,293
213,377	194,838	-0,266	-0,280
214,392	30,975	-0,119	-0,071
215,407	99,840	-0,173	-0,139
216,421	-5,687	-0,336	-0,159
217,436	254,683	-0,140	-0,167
218,450	67,434	-0,266	-0,188
219,465	800,000	-0,085	-0,254
220,480	148,003	-0,204	-0,191
221,494	-23,483	-0,136	0,057
222,509	44,271	-0,191	-0,121
223,523	126,330	-0,157	-0,138
224,538	-200,000	-0,001	-0,154
225,553	301,337	-0,141	-0,182
226,567	122,972	-0,288	-0,250
227,582	176,194	-0,183	-0,185
228,596	22,671	-0,208	-0,118
229,611	94,863	-0,171	-0,135
230,626	112,927	-0,164	-0,137
231,640	15,561	-0,235	-0,128
232,655	326,247	-0,226	-0,301
233,669	62,448	-0,231	-0,159
234,684	49,812	-0,269	-0,176
235,699	-200,000	-0,171	-0,000
236,713	-142,834	-0,175	0,012
237,728	123,170	-0,238	-0,207
238,742	226,848	-0,142	-0,160
239,757	-31,816	-0,175	-0,068
240,772	32,409	-0,206	-0,123
241,786	-41,748	-0,311	-0,110
242,801	-55,306	-0,219	-0,068
243,815	800,000	-0,083	-0,215
244,830	800,000	-0,089	-0,241
245,844	370,857	-0,161	-0,227
246,859	154,805	-0,182	-0,174
247,874	159,497	-0,187	-0,180
248,888	39,960	-0,310	-0,192
249,903	21,299	-0,190	-0,106
250,917	3,521	-0,276	-0,139
251,932	-142,623	-0,290	-0,019
252,947	175,374	-0,133	-0,134
253,961	440,632	-0,123	-0,187
254,976	516,588	-0,102	-0,165
255,990	-113,895	-0,215	-0,029
257,005	226,656	-0,167	-0,188
258,020	-200,000	-0,007	-0,030
259,034	769,733	-0,150	-0,284
260,049	21,063	-0,142	-0,080
261,063	470,391	-0,162	-0,252
262,078	800,000	-0,080	-0,170
263,093	-40,103	-0,271	-0,097
264,107	-144,483	-0,125	-0,008
265,122	216,011	-0,127	-0,140
266,136	-13,695	-0,159	0,071
267,151	103,970	-0,159	-0,129
268,166	800,000	-0,086	-0,215
269,180	20,113	-0,195	-0,109
270,195	282,430	-0,104	-0,129
271,209	-155,081	-0,201	0,009
272,224	-23,884	-0,150	-0,062
273,239	800,000	-0,032	-0,075
274,253	35,075	-0,166	-0,100
275,268	-11,062	-0,105	-0,048
276,282	8,031	-0,111	-0,057
277,297	66,852	-0,127	-0,089
278,312	302,795	-0,187	-0,240
279,326	369,642	-0,155	-0,218
280,341	17,272	-0,147	-0,080
281,355	-32,523	-0,129	-0,049
282,370	35,039	-0,146	-0,088
283,384	158,128	-0,041	-0,040
284,399	-114,167	-0,112	0,015
285,414	41,005	-0,241	-0,150
286,428	800,000	-0,065	-0,190
287,443	-111,659	-0,116	-0,016
288,457	-130,747	-0,040	-0,004
289,472	-16,675	-0,229	-0,100
290,487	-79,815	-0,157	-0,036
291,501	12,979	-0,216	-0,115
292,516	213,940	-0,195	-0,213
293,530	799,615	-0,068	-0,131
294,545	-119,564	-0,227	-0,027
295,560	27,645	-0,170	-0,098
296,574	-66,232	-0,082	-0,022
297,589	-200,000	-0,041	-0,129
298,603	-63,164	-0,213	-0,060
299,618	61,481	-0,192	-0,132
300,633	-109,865	-0,141	0,020
301,647	-72,748	-0,103	-0,026
302,662	-75,880	-0,194	-0,047
303,676	-23,251	-0,157	-0,065
304,691	80,183	-0,108	-0,080
305,706	277,231	-0,159	0,195
306,720	123,674	-0,107	-0,092
307,735	15,541	-0,138	-0,074
308,749	-133,286	-0,067	0,006
309,764	87,581	-0,103	-0,079
310,779	174,918	-0,115	-0,115
311,793	143,902	-0,114	-0,104
312,808	-61,699	-0,270	-0,077
313,822	277,913	-0,136	-0,167
314,837	-106,614	-0,172	0,026
315,852	-168,921	-0,076	0,002
316,866	43,751	-0,105	0,066
317,881	-116,858	-0,144	-0,018
318,895	79,798	-0,112	-0,083
319,910	628,363	-0,137	-0,240
320,925	100,330	-0,267	-0,213
321,939	60,291	-0,150	-0,102
322,954	61,880	-0,131	-0,089
323,968	385,792	-0,069	-0,098
324,983	186,524	-0,070	-0,072
325,997	292,062	-0,158	-0,198
327,012	800,000	-0,131	-0,260
328,027	667,051	-0,029	-0,052
329,041	-116,652	-0,123	0,015
330,056	363,781	-0,120	-0,166
331,070	-56,970	-0,114	0,034
332,085	75,863	-0,079	-0,057
333,100	95,247	-0,139	-0,109
334,114	355,429	-0,120	-0,165
335,129	800,000	-0,139	-0,308
336,143	424,154	-0,191	-0,283
337,158	323,219	-0,139	-0,183
338,173	-22,986	-0,148	0,061
339,187	-119,966	-0,120	0,014
340,202	-200,000	0,010	-0,035
341,216	313,378	-0,106	-0,137
342,231	26,601	-0,166	-0,095
343,246	464,992	-0,118	-0,182
344,260	68,152	-0,128	-0,090
345,275	679,414	0,053	-0,095
346,289	202,194	-0,081	-0,086
347,304	390,650	-0,126	-0,180
348,319	305,775	-0,189	-0,242
349,333	800,000	-0,097	-0,226
350,348	800,000	-0,090	-0,200
351,362	-200,000	-0,045	-0,185
352,377	148,355	-0,122	-0,113
353,392	800,000	-0,043	-0,089
354,406	342,052	-0,089	-0,120
355,421	209,772	1314,839	1416,294
356,435	161,462	1475,589	1416,796
