DTS Sentinel unit serial number:	SN410029Multiplexer serial number:	ORYXHardware model number:	OX2-SRSoftware version number:	ORYX F/W v4,00 Oryx Data Collector v3.7.2.0data status	okinstallation	B3 Nyhavnadifferential loss correction	single-endedforward channel	channel 1reverse channel	N/Adate	2023/11/29time	23:37:30forward acquisition time	300,00reverse acquisition time	0,00gamma	499,1914k internal	0,3210k external	0,3210temperature offset calibration	1,0000default loss term (dB/km)	0,3820temperature slope calibration	1,0000multiplexer offset coefficient	1,0000multiplexer slope coefficient	1,0000fibre end	0,00T internal ref (°C)	10,89T ext. ref 1 (°C)	-4,02T ext. ref 2 (°C)	-4,11length (m)	temperature (°C)	Stokes	anti-Stokes-744,400	211,895	-0,200	-0,229
-743,385	-200,000	0,024	0,267
-742,371	201,280	-0,067	-0,075
-741,356	-200,000	-0,074	0,245
-740,342	575,152	-0,164	-0,292
-739,327	-200,000	-0,040	0,379
-738,312	338,609	-0,172	-0,244
-737,298	-200,000	-0,008	0,190
-736,283	800,000	-0,071	-0,225
-735,269	-200,000	0,005	0,337
-734,254	572,844	-0,137	-0,242
-733,239	117,342	-0,029	0,026
-732,225	88,201	-0,120	-0,097
-731,210	344,447	0,107	0,152
-730,196	-200,000	-0,015	0,117
-729,181	800,000	-0,027	-0,074
-728,167	-200,000	0,006	-0,138
-727,152	123,398	0,098	-0,089
-726,137	800,000	-0,048	0,112
-725,123	72,209	-0,055	-0,042
-724,108	800,000	0,030	-0,084
-723,094	800,000	-0,046	0,115
-722,079	800,000	-0,068	-0,194
-721,064	-181,366	-0,111	-0,002
-720,050	199,689	-0,063	0,071
-719,035	-200,000	-0,006	-0,144
-718,021	168,999	-0,121	-0,125
-717,006	669,979	-0,062	-0,117
-715,991	50,946	0,064	-0,044
-714,977	800,000	0,022	-0,057
-713,962	186,894	-0,052	-0,056
-712,948	-200,000	0,014	0,070
-711,933	272,380	-0,061	0,078
-710,918	41,484	0,059	0,039
-709,904	701,544	-0,077	-0,147
-708,889	800,000	0,015	-0,036
-707,875	-142,784	-0,048	-0,003
-706,860	195,380	0,041	-0,045
-705,845	73,887	0,048	0,037
-704,831	179,550	0,115	0,122
-703,816	478,428	-0,042	0,069
-702,802	95,155	0,095	-0,078
-701,787	742,936	0,050	-0,098
-700,772	-61,327	0,014	0,004
-699,758	143,061	-0,022	0,022
-698,743	371,964	-0,010	0,014
-697,729	-149,479	0,031	0,002
-696,714	-118,868	0,044	0,006
-695,699	-200,000	-0,016	0,058
-694,685	209,932	-0,073	-0,084
-693,670	800,000	0,043	-0,119
-692,656	47,891	-0,039	-0,026
-691,641	53,921	0,020	0,014
-690,627	-200,000	0,006	0,080
-689,612	-200,000	0,003	-0,124
-688,597	-32,376	0,072	0,029
-687,583	484,126	-0,030	0,050
-686,568	1,906	-0,132	-0,068
-685,554	316,965	-0,019	0,027
-684,539	-200,000	0,017	-0,076
-683,524	242,049	0,066	0,080
-682,510	800,000	0,042	0,112
-681,495	107,386	-0,043	0,037
-680,481	525,735	-0,039	-0,067
-679,466	800,000	-0,058	-0,148
-678,451	800,000	-0,039	-0,089
-677,437	800,000	0,049	-0,132
-676,422	-131,882	0,061	-0,006
-675,408	99,888	-0,159	-0,133
-674,393	-128,412	-0,143	0,015
-673,378	800,000	-0,042	-0,132
-672,364	800,000	-0,034	0,072
-671,349	128,994	-0,090	0,083
-670,335	-200,000	-0,001	-0,073
-669,320	319,837	0,034	-0,047
-668,305	78,030	0,034	0,026
-667,291	251,658	-0,090	-0,111
-666,276	455,573	0,026	-0,043
-665,262	-200,000	0,000	0,100
-664,247	76,137	-0,086	-0,065
-663,232	298,431	0,070	0,093
-662,218	-160,722	-0,068	0,003
-661,203	53,906	0,118	-0,082
-660,189	94,590	0,010	0,009
-659,174	-200,000	0,025	-0,140
-658,159	225,661	-0,129	-0,151
-657,145	800,000	-0,020	-0,046
-656,130	-172,823	0,043	0,001
-655,116	-106,522	0,231	0,037
-654,101	-96,589	0,092	-0,017
-653,086	481,838	0,072	0,119
-652,072	-179,005	-0,111	-0,002
-651,057	8,839	-0,162	-0,088
-650,043	54,886	0,089	-0,062
-649,028	145,952	-0,087	-0,084
-648,014	457,084	0,065	-0,104
-646,999	183,264	-0,024	0,026
-645,984	-142,895	-0,114	0,008
-644,970	800,000	-0,001	0,002
-643,955	705,083	-0,028	0,054
-642,941	-200,000	0,009	0,072
-641,926	235,144	0,055	0,065
-640,911	800,000	0,037	0,105
-639,897	440,039	0,041	-0,065
-638,882	-200,000	0,001	-0,061
-637,868	7,297	-0,090	0,049
-636,853	28,918	0,045	-0,028
-635,838	-200,000	-0,032	-0,105
-634,824	-200,000	-0,013	-0,124
-633,809	159,445	-0,052	0,052
-632,795	800,000	0,005	0,013
-631,780	125,454	0,050	-0,045
-630,765	800,000	0,028	0,068
-629,751	-45,385	0,038	-0,013
-628,736	-158,204	-0,106	-0,004
-627,722	800,000	0,029	-0,071
-626,707	-200,000	-0,014	-0,050
-625,692	-200,000	-0,005	0,129
-624,678	-41,283	-0,108	-0,040
-623,663	-96,274	-0,115	0,022
-622,649	800,000	-0,030	-0,083
-621,634	-114,476	-0,033	0,005
-620,619	800,000	-0,044	-0,099
-619,605	-0,582	-0,137	-0,070
-618,590	-200,000	0,011	-0,051
-617,576	39,630	0,073	-0,047
-616,561	-76,824	-0,098	-0,024
-615,546	417,434	0,011	-0,017
-614,532	604,582	-0,036	-0,065
-613,517	-27,116	0,084	-0,035
-612,503	-40,230	0,085	-0,032
-611,488	-200,000	-0,015	0,092
-610,474	19,763	0,170	0,098
-609,459	-120,082	-0,073	-0,009
-608,444	212,574	0,061	0,070
-607,430	-200,000	-0,004	-0,156
-606,415	-200,000	-0,016	-0,131
-605,401	84,697	-0,041	-0,033
-604,386	-200,000	-0,001	-0,060
-603,371	-200,000	0,002	0,064
-602,357	586,752	-0,015	-0,026
-601,342	800,000	-0,067	-0,141
-600,328	61,103	0,082	0,059
-599,313	-81,065	0,061	-0,014
-598,298	443,255	-0,101	-0,160
-597,284	-200,000	-0,029	0,155
-596,269	-30,978	0,089	-0,036
-595,255	-89,353	-0,119	0,025
-594,240	145,838	-0,081	0,078
-593,225	-121,744	0,081	0,010
-592,211	-200,000	-0,004	-0,088
-591,196	800,000	-0,036	0,100
-590,182	542,216	0,016	0,028
-589,167	3,884	0,137	-0,072
-588,152	800,000	0,037	0,110
-587,138	-40,154	0,115	-0,043
-586,123	-42,391	-0,083	0,030
-585,109	402,532	-0,108	-0,165
-584,094	-200,000	0,011	-0,039
-583,079	126,860	0,066	-0,060
-582,065	800,000	0,002	-0,006
-581,050	-200,000	-0,012	0,161
-580,036	-10,285	0,082	-0,039
-579,021	800,000	0,030	-0,061
-578,006	431,695	-0,080	-0,125
-576,992	89,817	0,117	-0,094
-575,977	690,231	-0,091	-0,172
-574,963	-200,000	0,028	0,100
-573,948	-200,000	-0,001	0,089
-572,934	-121,447	-0,124	-0,015
-571,919	800,000	-0,038	0,084
-570,904	800,000	0,015	-0,035
-569,890	-140,600	0,074	-0,005
-568,875	-200,000	0,003	-0,047
-567,861	184,281	-0,068	-0,072
-566,846	43,984	-0,079	0,052
-565,831	129,459	0,045	-0,042
-564,817	154,591	0,018	-0,018
-563,802	135,938	-0,066	-0,062
-562,788	713,665	0,045	-0,087
-561,773	-200,000	0,022	0,073
-560,758	800,000	-0,022	0,063
-559,744	-200,000	0,031	-0,117
-558,729	107,772	-0,132	-0,113
-557,715	40,484	0,088	-0,057
-556,700	-200,000	0,020	0,066
-555,685	-20,901	-0,069	0,030
-554,671	621,194	-0,031	-0,057
-553,656	22,356	0,007	-0,004
-552,642	800,000	0,003	0,009
-551,627	-200,000	0,019	-0,084
-550,612	-200,000	-0,022	-0,086
-549,598	65,245	-0,082	-0,059
-548,583	84,553	0,028	-0,022
-547,569	-37,508	-0,076	-0,029
-546,554	-149,563	0,048	0,003
-545,539	-200,000	0,072	0,241
-544,525	-115,930	0,089	0,012
-543,510	52,040	-0,054	-0,037
-542,496	-8,863	-0,079	-0,038
-541,481	7,550	0,053	0,028
-540,466	-33,913	0,021	0,008
-539,452	253,875	-0,005	0,006
-538,437	-78,947	-0,080	-0,019
-537,423	-17,387	0,011	-0,005
-536,408	200,304	-0,071	-0,079
-535,393	-200,000	0,006	-0,113
-534,379	193,759	-0,065	-0,071
-533,364	-135,372	0,024	-0,002
-532,350	-200,000	-0,030	0,153
-531,335	6,299	0,116	-0,062
-530,321	-200,000	0,011	-0,081
-529,306	-150,461	-0,082	0,004
-528,291	-62,745	0,014	0,004
-527,277	-11,286	0,073	-0,034
-526,262	483,342	-0,015	0,025
-525,248	376,368	-0,025	0,038
-524,233	97,022	0,087	0,072
-523,218	656,071	-0,015	0,028
-522,204	580,343	-0,033	-0,059
-521,189	-52,384	-0,040	0,013
-520,175	-90,085	-0,178	0,037
-519,160	800,000	0,022	0,048
-518,145	800,000	0,031	0,089
-517,131	-200,000	0,013	0,045
-516,116	-200,000	0,002	0,027
-515,102	397,784	-0,028	-0,042
-514,087	-124,732	-0,037	0,004
-513,072	-75,909	-0,108	-0,027
-512,058	465,864	0,010	0,017
-511,043	-200,000	0,001	-0,048
-510,029	800,000	0,038	-0,099
-509,014	800,000	-0,064	0,155
-507,999	-162,555	0,114	0,004
-506,985	-111,241	-0,031	-0,004
-505,970	68,995	0,015	-0,011
-504,956	237,458	-0,026	0,031
-503,941	-27,042	-0,012	-0,005
-502,926	527,529	-0,016	-0,027
-501,912	738,191	0,045	-0,088
-500,897	-70,648	0,096	0,026
-499,883	106,508	0,058	0,049
-498,868	-200,000	-0,003	-0,010
-497,853	-200,000	0,003	0,021
-496,839	93,978	0,026	0,021
-495,824	-200,000	0,015	0,181
-494,810	-200,000	-0,001	0,077
-493,795	-200,000	0,015	0,156
-492,781	80,189	-0,087	-0,067
-491,766	-200,000	-0,041	0,147
-490,751	-4,236	0,117	-0,058
-489,737	32,007	0,041	-0,025
-488,722	107,836	0,033	0,028
-487,708	-62,581	-0,073	-0,022
-486,693	-200,000	-0,013	0,054
-485,678	206,088	-0,061	0,068
-484,664	116,549	0,040	-0,035
-483,649	-156,947	0,087	0,004
-482,635	-27,494	0,044	0,018
-481,620	-200,000	-0,020	0,126
-480,605	778,595	0,041	0,080
-479,591	443,436	0,077	-0,122
-478,576	-200,000	-0,025	-0,086
-477,562	98,437	-0,100	-0,082
-476,547	396,538	-0,087	-0,131
-475,532	118,642	-0,087	-0,077
-474,518	722,989	-0,016	0,030
-473,503	466,050	0,053	-0,085
-472,489	-200,000	-0,010	-0,048
-471,474	-200,000	0,034	0,151
-470,459	-200,000	-0,007	-0,078
-469,445	119,787	-0,128	-0,114
-468,430	-200,000	-0,027	-0,103
-467,416	147,317	0,117	0,113
-466,401	-200,000	-0,000	0,013
-465,386	-200,000	0,060	0,000
-464,372	-153,881	0,133	-0,006
-463,357	-162,256	-0,119	0,004
-462,343	800,000	0,030	-0,081
-461,328	-200,000	0,012	-0,101
-460,313	58,130	-0,075	-0,053
-459,299	-23,579	-0,044	0,019
-458,284	46,377	0,076	0,050
-457,270	-102,556	-0,052	-0,009
-456,255	93,014	-0,170	-0,137
-455,241	-72,705	-0,083	-0,022
-454,226	-88,557	0,058	-0,012
-453,211	-200,000	0,019	-0,117
-452,197	333,887	0,040	-0,055
-451,182	-200,000	0,012	0,169
-450,168	471,355	0,087	0,141
-449,153	-183,706	0,139	-0,002
-448,138	169,505	-0,154	-0,158
-447,124	18,291	0,081	-0,046
-446,109	285,207	-0,073	0,095
-445,095	-65,601	0,066	0,019
-444,080	127,390	0,075	-0,068
-443,065	563,699	0,003	-0,006
-442,051	800,000	-0,036	-0,077
-441,036	800,000	0,022	-0,046
-440,022	39,034	-0,065	0,041
-439,007	115,035	0,087	0,076
-437,992	800,000	-0,036	0,073
-436,978	419,831	0,035	-0,054
-435,963	313,228	0,077	-0,103
-434,949	-200,000	0,005	0,059
-433,934	273,101	-0,088	0,112
-432,919	800,000	0,055	-0,142
-431,905	-200,000	0,005	0,052
-430,890	-200,000	-0,012	-0,075
-429,876	-92,053	0,162	-0,033
-428,861	245,218	0,059	-0,071
-427,846	800,000	-0,042	-0,092
-426,832	49,034	-0,136	0,091
-425,817	-200,000	-0,003	-0,106
-424,803	735,896	-0,088	0,169
-423,788	800,000	-0,027	-0,063
-422,773	-103,251	0,085	-0,014
-421,759	529,200	0,038	0,064
-420,744	-200,000	0,005	0,063
-419,730	-106,713	0,019	-0,003
-418,715	-121,338	-0,097	-0,011
-417,701	-155,564	-0,082	-0,004
-416,686	150,476	-0,095	-0,092
-415,671	800,000	0,005	0,012
-414,657	-200,000	-0,010	0,067
-413,642	800,000	0,008	0,021
-412,628	-108,423	0,140	-0,021
-411,613	197,156	-0,093	-0,102
-410,598	-200,000	0,014	-0,133
-409,584	526,042	0,067	0,114
-408,569	-187,673	0,192	-0,002
-407,555	137,330	-0,085	0,079
-406,540	-200,000	0,003	-0,095
-405,525	-6,449	0,095	0,046
-404,511	-138,314	0,017	-0,001
-403,496	122,122	-0,067	0,060
-402,482	-200,000	0,004	-0,020
-401,467	-9,280	0,085	-0,040
-400,452	7,299	0,088	0,047
-399,438	-200,000	-0,003	-0,117
-398,423	800,000	0,035	-0,103
-397,409	228,669	0,058	-0,068
-396,394	-11,873	0,072	-0,034
-395,379	800,000	-0,018	0,049
-394,365	800,000	0,009	0,028
-393,350	-66,210	0,070	0,020
-392,336	-200,000	0,008	0,119
-391,321	420,025	0,044	-0,067
-390,306	-200,000	-0,029	0,131
-389,292	-167,787	-0,061	-0,002
-388,277	177,574	-0,074	0,077
-387,263	-200,000	-0,007	-0,023
-386,248	-200,000	0,002	-0,042
-385,233	-200,000	-0,011	-0,041
-384,219	-200,000	-0,003	-0,039
-383,204	48,529	-0,138	-0,092
-382,190	-22,968	0,087	-0,038
-381,175	48,297	0,031	0,021
-380,160	85,372	0,062	-0,049
-379,146	-200,000	0,038	0,124
-378,131	-135,066	0,065	-0,006
-377,117	426,137	0,019	-0,029
-376,102	-143,870	-0,121	-0,008
-375,088	544,030	-0,063	-0,108
-374,073	-0,463	-0,039	0,020
-373,058	-92,403	0,103	0,021
-372,044	192,475	0,078	0,084
-371,029	-53,000	-0,074	-0,024
-370,015	93,587	0,063	0,051
-369,000	61,124	-0,054	-0,038
-367,985	-200,000	0,004	-0,084
-366,971	106,245	-0,080	-0,068
-365,956	-200,000	-0,002	-0,070
-364,942	593,426	0,084	0,149
-363,927	-200,000	0,009	0,070
-362,912	114,548	-0,071	-0,062
-361,898	-27,026	-0,141	0,058
-360,883	-143,220	-0,076	-0,005
-359,869	178,550	-0,068	-0,072
-358,854	303,624	0,055	0,072
-357,839	-200,000	-0,018	0,089
-356,825	319,748	-0,045	0,061
-355,810	630,471	-0,025	0,045
-354,796	335,543	-0,045	-0,063
-353,781	563,896	0,063	-0,109
-352,766	-200,000	0,010	0,210
-351,752	-53,247	-0,072	-0,023
-350,737	-200,000	0,059	0,198
-349,723	378,567	-0,034	0,050
-348,708	631,245	0,031	-0,057
-347,693	-200,000	-0,008	0,149
-346,679	214,993	-0,019	0,021
-345,664	75,101	-0,089	-0,067
-344,650	677,849	-0,044	0,083
-343,635	138,528	0,071	-0,066
-342,620	-200,000	-0,040	0,130
-341,606	1,468	-0,151	0,077
-340,591	800,000	0,024	-0,068
-339,577	800,000	-0,087	-0,173
-338,562	-119,075	-0,075	0,009
-337,548	28,345	0,097	0,058
-336,533	-141,810	-0,134	-0,009
-335,518	-114,061	0,113	0,016
-334,504	131,546	0,028	0,026
-333,489	340,732	-0,098	0,137
-332,475	-40,688	-0,043	-0,016
-331,460	275,732	-0,044	0,055
-330,445	-200,000	-0,022	-0,106
-329,431	-200,000	-0,008	0,124
-328,416	430,761	0,053	0,083
-327,402	-101,366	0,105	0,018
-326,387	-200,000	0,010	-0,056
-325,372	-200,000	0,022	0,000
-324,358	-200,000	-0,005	-0,035
-323,343	162,641	-0,039	0,039
-322,329	0,931	0,110	0,056
-321,314	-200,000	0,016	0,110
-320,299	-200,000	-0,024	0,156
-319,285	74,011	0,070	-0,052
-318,270	227,724	0,067	0,078
-317,256	-37,107	-0,066	0,025
-316,241	339,259	0,031	0,043
-315,226	-200,000	0,002	0,111
-314,212	223,731	-0,088	0,101
-313,197	246,632	0,101	0,122
-312,183	-200,000	0,025	0,105
-311,168	800,000	-0,019	0,046
-310,153	3,994	-0,120	0,062
-309,139	-200,000	-0,002	-0,044
-308,124	69,667	0,028	-0,021
-307,110	-1,591	0,149	0,074
-306,095	17,233	-0,098	0,055
-305,080	383,770	-0,060	0,088
-304,066	152,102	0,054	-0,053
-303,051	-200,000	-0,001	-0,066
-302,037	49,443	-0,073	0,049
-301,022	800,000	0,044	0,112
-300,008	734,890	0,071	0,135
-298,993	-16,350	-0,049	-0,022
-297,978	-2,118	0,056	0,028
-296,964	109,836	-0,045	0,038
-295,949	-2,422	-0,145	-0,072
-294,935	-17,921	-0,101	0,045
-293,920	-200,000	0,032	0,154
-292,905	-200,000	-0,010	0,047
-291,891	-200,000	0,002	-0,049
-290,876	33,389	-0,031	-0,019
-289,862	127,650	-0,144	0,131
-288,847	-200,000	-0,039	0,150
-287,832	800,000	0,035	0,098
-286,818	-14,217	0,028	0,013
-285,803	800,000	0,053	-0,135
-284,789	633,524	0,043	0,078
-283,774	-0,616	0,202	0,102
-282,759	10,441	0,093	-0,050
-281,745	-20,730	-0,039	0,017
-280,730	-69,503	-0,154	0,042
-279,716	649,583	0,075	-0,137
-278,701	668,966	-0,027	-0,051
-277,686	-90,363	-0,084	-0,017
-276,672	-58,384	0,064	0,020
-275,657	1,512	-0,035	0,018
-274,643	800,000	0,033	-0,089
-273,628	-200,000	0,022	-0,105
-272,613	-110,943	-0,037	0,005
-271,599	358,462	-0,100	0,142
-270,584	-18,967	0,075	-0,033
-269,570	273,518	0,085	0,107
-268,555	800,000	-0,043	0,089
-267,540	-200,000	0,022	0,109
-266,526	20,417	-0,051	-0,029
-265,511	-72,229	0,111	-0,029
-264,497	37,354	0,027	-0,017
-263,482	17,951	0,177	-0,100
-262,467	-200,000	-0,052	0,000
-261,453	8,101	0,102	0,054
-260,438	-200,000	0,003	-0,092
-259,424	-9,049	-0,138	-0,065
-258,409	600,977	0,054	-0,096
-257,395	57,900	0,152	0,106
-256,380	-191,252	0,056	0,000
-255,365	-200,000	0,010	0,100
-254,351	51,170	-0,039	-0,026
-253,336	467,638	-0,037	0,059
-252,322	325,810	-0,045	0,062
-251,307	-28,712	0,152	0,062
-250,292	-71,297	0,102	-0,027
-249,278	38,284	0,043	-0,027
-248,263	800,000	-0,038	0,104
-247,249	-97,011	0,125	-0,023
-246,234	135,534	-0,100	-0,093
-245,219	-200,000	-0,010	0,170
-244,205	-124,895	0,149	0,016
-243,190	-200,000	-0,039	-0,167
-242,176	-51,472	0,084	0,028
-241,161	22,460	0,046	-0,027
-240,146	61,452	-0,027	0,019
-239,132	73,274	0,100	0,074
-238,117	-27,943	-0,040	-0,017
-237,103	-72,291	0,122	-0,032
-236,088	-200,000	0,009	-0,078
-235,073	-158,089	0,091	0,004
-234,059	454,170	0,045	-0,072
-233,044	664,696	0,015	-0,027
-232,030	-200,000	0,050	0,165
-231,015	-200,000	-0,008	-0,039
-230,000	178,452	-0,089	-0,093
-228,986	-79,189	0,092	0,022
-227,971	-136,646	0,047	-0,004
-226,957	771,638	-0,013	-0,025
-225,942	-115,791	-0,032	-0,004
-224,927	-104,272	-0,055	0,009
-223,913	22,936	-0,122	-0,071
-222,898	-200,000	-0,019	-0,087
-221,884	322,814	-0,059	-0,080
-220,869	62,691	0,107	-0,076
-219,855	-57,615	0,027	-0,008
-218,840	-112,512	-0,143	-0,020
-217,825	800,000	-0,065	-0,175
-216,811	800,000	0,031	-0,085
-215,796	-167,755	0,062	0,002
-214,782	733,743	0,049	0,094
-213,767	-135,754	0,122	0,010
-212,752	-27,932	0,023	0,009
-211,738	-200,000	-0,001	0,085
-210,723	800,000	-0,026	-0,067
-209,709	123,941	-0,052	-0,046
-208,694	800,000	0,027	0,084
-207,679	-200,000	-0,006	0,100
-206,665	-23,510	-0,049	0,021
-205,650	800,000	0,023	0,067
-204,636	-200,000	0,000	0,061
-203,621	400,284	0,049	-0,073
-202,606	-147,588	-0,116	0,007
-201,592	258,573	-0,108	-0,133
-200,577	800,000	-0,022	-0,044
-199,563	396,200	0,032	0,048
-198,548	176,069	0,100	0,103
-197,533	-74,729	0,052	-0,013
-196,519	800,000	0,046	0,142
-195,504	-200,000	0,011	-0,044
-194,490	-200,000	0,002	0,211
-193,475	-150,374	-0,077	-0,004
-192,460	-200,000	0,016	-0,101
-191,446	-200,000	-0,007	-0,067
-190,431	17,088	-0,009	-0,005
-189,417	-74,611	0,078	-0,020
-188,402	-176,980	-0,146	-0,003
-187,387	-167,279	0,026	0,001
-186,373	44,408	-0,090	-0,059
-185,358	800,000	0,041	0,107
-184,344	-200,000	0,015	0,074
-183,329	-200,000	-0,013	0,150
-182,315	-200,000	0,027	-0,117
-181,300	-200,000	0,028	-0,109
-180,285	369,362	0,051	0,073
-179,271	-200,000	0,045	-0,155
-178,256	-44,730	-0,111	0,039
-177,242	800,000	0,048	-0,103
-176,227	-200,000	0,018	0,122
-175,212	-35,208	-0,028	0,011
-174,198	-128,656	-0,028	0,003
-173,183	722,801	0,015	-0,029
-172,169	-200,000	-0,042	-0,193
-171,154	619,839	-0,080	-0,143
-170,139	13,880	0,026	-0,014
-169,125	-94,669	0,061	0,012
-168,110	67,454	-0,060	-0,043
-167,096	-19,925	0,139	-0,061
-166,081	-74,949	-0,057	0,014
-165,066	-151,227	0,051	0,003
-164,052	-174,500	-0,068	-0,001
-163,037	-68,176	-0,232	0,063
-162,023	-138,084	0,099	-0,008
-161,008	231,788	0,073	0,085
-159,993	-33,147	0,095	-0,037
-158,979	-164,530	-0,090	-0,003
-157,964	-200,000	-0,009	-0,085
-156,950	286,880	0,084	0,108
-155,935	800,000	-0,047	-0,099
-154,920	-168,508	-0,042	-0,001
-153,906	642,415	0,054	0,098
-152,891	-59,591	-0,125	-0,038
-151,877	631,110	-0,044	0,079
-150,862	-92,753	0,112	0,022
-149,847	18,884	-0,077	0,044
-148,833	-47,731	-0,155	-0,053
-147,818	197,322	-0,079	-0,086
-146,804	113,995	0,065	-0,056
-145,789	-89,708	0,216	0,044
-144,775	-200,000	0,023	-0,102
-143,760	-100,233	-0,118	0,021
-142,745	91,773	0,137	-0,109
-141,731	800,000	-0,023	-0,051
-140,716	139,332	0,074	0,069
-139,702	74,893	0,047	0,035
-138,687	334,678	0,048	-0,067
-137,672	-200,000	0,000	0,021
-136,658	82,221	0,063	-0,049
-135,643	-98,500	0,103	0,018
-134,629	-118,712	0,174	-0,021
-133,614	-76,274	-0,097	0,024
-132,599	339,034	-0,045	-0,062
-131,585	60,629	0,093	0,065
-130,570	144,695	0,084	-0,080
-129,556	38,982	-0,032	0,020
-128,541	-200,000	0,007	-0,050
-127,526	-200,000	0,019	-0,068
-126,512	-200,000	-0,049	-0,196
-125,497	223,064	0,078	0,089
-124,483	-21,970	0,105	0,045
-123,468	477,993	0,027	0,043
-122,453	-125,286	-0,087	0,009
-121,439	605,300	0,066	-0,117
-120,424	429,008	-0,058	0,089
-119,410	53,569	0,052	-0,036
-118,395	41,144	-0,028	0,018
-117,380	-200,000	0,014	0,176
-116,366	-200,000	0,014	-0,076
-115,351	106,817	-0,097	-0,082
-114,337	-200,000	-0,018	-0,096
-113,322	800,000	-0,013	0,031
-112,307	102,338	-0,063	-0,052
-111,293	-200,000	-0,012	0,082
-110,278	-200,000	-0,019	0,131
-109,264	-32,490	0,133	-0,052
-108,249	800,000	-0,049	0,116
-107,234	-26,040	-0,164	-0,068
-106,220	115,198	-0,065	0,056
-105,205	800,000	0,083	0,193
-104,191	118,645	0,059	-0,051
-103,176	-200,000	0,027	0,116
-102,162	58,016	0,114	0,079
-101,147	471,198	-0,078	-0,125
-100,132	-56,074	-0,118	-0,037
-99,118	800,000	-0,060	0,129
-98,103	-159,520	-0,099	-0,004
-97,089	-36,286	0,109	0,042
-96,074	-55,147	0,128	0,041
-95,059	75,511	-0,147	-0,110
-94,045	-200,000	0,005	-0,019
-93,030	800,000	0,048	-0,104
-92,016	-31,394	0,110	0,043
-91,001	-200,000	0,027	0,125
-89,986	231,562	-0,016	-0,018
-88,972	-200,000	0,001	0,090
-87,957	118,655	0,097	0,085
-86,943	83,235	0,046	-0,035
-85,928	70,392	-0,044	0,032
-84,913	800,000	-0,017	-0,034
-83,899	-200,000	0,008	-0,048
-82,884	111,938	-0,052	0,044
-81,870	-200,000	-0,009	-0,051
-80,855	-51,757	0,154	0,050
-79,840	-200,000	0,004	0,183
-78,826	-131,158	-0,060	-0,006
-77,811	261,222	0,111	-0,136
-76,797	276,297	-0,015	-0,019
-75,782	106,728	0,140	0,118
-74,767	62,109	0,103	0,073
-73,753	92,856	0,076	0,061
-72,738	-12,053	-0,058	-0,027
-71,724	-200,000	-0,014	0,067
-70,709	40,420	0,126	-0,080
-69,694	800,000	0,049	-0,107
-68,680	186,191	0,105	-0,110
-67,665	-55,783	0,085	0,027
-66,651	-42,231	-0,054	0,019
-65,636	629,282	0,026	0,046
-64,622	225,552	-0,054	0,061
-63,607	-46,067	-0,132	-0,046
-62,592	-31,048	-0,089	0,035
-61,578	-5,593	0,011	0,005
-60,563	-200,000	0,018	0,127
-59,549	-200,000	-0,052	0,221
-58,534	-3,777	-1,956	-0,956
-57,519	357,703	-1,363	-1,926
-56,505	-200,000	-0,293	-4,368
-55,490	464,840	0,895	1,419
-54,476	800,000	4,980	11,155
-53,461	-200,000	20,843	328,738
-52,446	800,000	757,028	2322,061
-51,432	550,675	1662,367	2826,637
-50,417	73,542	1664,122	1228,969
-49,403	18,762	1537,263	866,439
-48,388	12,723	1460,126	793,735
-47,373	18,983	1450,834	818,722
-46,359	15,934	1440,248	798,197
-45,344	10,973	1436,269	772,321
-44,330	10,952	1434,093	771,017
-43,315	10,917	1432,438	769,930
-42,300	10,924	1430,462	768,875
-41,286	10,956	1429,278	768,357
-40,271	10,939	1428,081	767,603
-39,257	10,949	1426,636	766,843
-38,242	10,944	1425,576	766,221
-37,227	10,907	1424,756	765,571
-36,213	10,925	1423,414	764,907
-35,198	10,977	1422,287	764,520
-34,184	11,006	1421,293	764,089
-33,169	10,935	1419,847	762,945
-32,154	10,983	1418,864	762,616
-31,140	10,984	1417,669	761,947
-30,125	11,067	1416,544	761,703
-29,111	11,048	1415,397	760,966
-28,096	10,993	1414,471	760,178
-27,082	10,940	1413,050	759,138
-26,067	10,942	1412,131	758,623
-25,052	10,949	1411,221	758,137
-24,038	10,896	1410,129	757,273
-23,023	10,932	1408,942	756,774
-22,009	10,924	1408,032	756,213
-20,994	10,916	1407,036	755,615
-19,979	10,859	1406,166	754,851
-18,965	10,886	1405,153	754,404
-17,950	10,884	1404,263	753,884
-16,936	10,856	1403,584	753,358
-15,921	10,822	1402,527	752,606
-14,906	10,862	1401,477	752,198
-13,892	10,866	1400,494	751,659
-12,877	10,808	1399,855	751,017
-11,863	10,816	1398,932	750,527
-10,848	10,809	1398,115	750,028
-9,833	10,808	1397,037	749,416
-8,819	10,733	1396,401	748,696
-7,804	10,757	1395,289	748,183
-6,790	10,738	1394,387	747,582
-5,775	10,810	1393,233	747,267
-4,760	10,748	1392,256	746,424
-3,746	10,734	1391,469	745,909
-2,731	10,730	1390,651	745,422
-1,717	10,757	1389,642	744,976
-0,702	10,725	1387,862	743,844
0,313	14,826	1301,696	716,435
1,327	31,275	693,176	418,939
2,342	48,749	120,178	79,387
3,356	0,775	16,429	8,271
4,371	0,621	3,415	1,717
5,386	-10,360	0,941	0,438
6,400	-200,000	0,025	0,468
7,415	290,525	-0,155	-0,199
8,429	-64,702	-0,292	-0,083
9,444	154,137	-0,186	-0,180
10,459	94,408	-0,270	-0,216
11,473	-21,387	-0,341	-0,146
12,488	-84,860	-0,249	-0,055
13,502	-10,768	-0,305	-0,141
14,517	142,008	-0,281	-0,263
15,531	135,071	-0,373	-0,342
16,546	-27,237	-0,393	-0,160
17,561	110,094	-0,364	-0,308
18,575	-35,506	-0,250	-0,095
19,590	202,507	-0,272	-0,296
20,604	-84,197	-0,292	-0,065
21,619	104,010	-0,397	-0,328
22,634	57,272	-0,506	-0,348
23,648	325,820	-0,319	-0,431
24,663	235,518	-0,373	-0,434
25,677	249,139	-0,249	-0,298
26,692	164,281	-0,348	-0,346
27,707	76,886	-0,465	-0,347
28,721	64,286	-0,357	-0,253
29,736	59,074	-0,438	-0,303
30,750	20,835	-0,355	-0,202
31,765	441,857	-0,270	-0,418
32,780	89,482	-0,450	-0,353
33,794	234,878	-0,267	-0,311
34,809	31,043	-0,402	-0,242
35,823	68,765	-0,204	-0,147
36,838	119,757	-0,327	-0,285
37,853	162,561	-0,278	-0,275
38,867	32,694	-0,376	-0,228
39,882	-8,272	-0,498	-0,235
40,896	529,345	-0,222	-0,371
41,911	-62,050	-0,338	-0,099
42,926	80,407	-0,360	-0,272
43,940	-25,210	-0,315	-0,131
44,955	50,913	-0,405	-0,269
45,969	52,837	-0,418	-0,280
46,984	16,428	-0,312	-0,173
47,999	-32,359	-0,392	-0,153
49,013	-21,324	-0,354	-0,151
50,028	-9,930	-0,317	-0,148
51,042	86,104	-0,360	-0,278
52,057	45,493	-0,422	-0,273
53,071	195,390	-0,262	-0,280
54,086	-112,738	-0,377	-0,052
55,101	42,596	-0,265	-0,169
56,115	-73,386	-0,328	-0,084
57,130	-8,462	-0,343	-0,161
58,144	-18,298	-0,295	-0,129
59,159	74,670	-0,380	-0,280
60,174	79,343	-0,390	-0,293
61,188	85,278	-0,327	-0,251
62,203	-59,599	-0,449	-0,134
63,217	-3,642	-0,308	-0,150
64,232	10,903	-0,273	-0,146
65,247	-1,636	-0,354	-0,174
66,261	20,764	-0,308	-0,175
67,276	-37,776	-0,341	-0,127
68,290	48,552	-0,291	-0,191
69,305	36,356	-0,229	-0,142
70,320	35,611	-0,328	-0,202
71,334	45,759	-0,340	-0,220
72,349	71,468	-0,287	-0,209
73,363	2,443	-0,426	-0,216
74,378	-31,591	-0,412	-0,162
75,393	-16,156	-0,238	-0,106
76,407	-5,804	-0,258	-0,123
77,422	29,173	-0,414	-0,246
78,436	-36,816	-0,219	-0,082
79,451	33,036	-0,362	-0,219
80,466	24,618	-0,307	-0,178
81,480	86,844	-0,414	-0,320
82,495	-17,720	-0,263	-0,115
83,509	162,604	-0,180	-0,177
84,524	26,645	-0,266	-0,155
85,539	29,071	-0,369	-0,219
86,553	5,324	-0,275	-0,142
87,568	-6,877	-0,373	-0,177
88,582	279,435	-0,238	-0,298
89,597	-13,406	-0,267	-0,121
90,611	-77,040	-0,299	-0,073
91,626	-24,079	-0,278	-0,116
92,641	-68,595	-0,354	-0,095
93,655	32,524	-0,250	-0,151
94,670	-8,442	-0,340	-0,159
95,684	-65,848	-0,491	-0,137
96,699	70,209	-0,330	-0,238
97,714	306,769	-0,167	-0,218
98,728	102,583	-0,135	-0,111
99,743	96,972	-0,314	-0,252
100,757	57,070	-0,215	-0,147
101,772	-71,908	-0,356	-0,092
102,787	345,124	-0,246	-0,338
103,801	800,000	-0,138	-0,325
104,816	-33,625	-0,247	-0,095
105,830	66,736	-0,243	-0,173
106,845	157,776	-0,244	-0,237
107,860	106,659	-0,204	-0,169
108,874	136,897	-0,216	-0,197
109,889	0,409	-0,257	-0,128
110,903	-64,248	-0,342	-0,097
111,918	-29,573	-0,343	-0,136
112,933	-6,253	-0,173	-0,082
113,947	4,665	-0,187	-0,096
114,962	231,841	-0,308	-0,354
115,976	73,435	-0,283	-0,207
116,991	177,921	-0,225	-0,230
118,006	50,498	-0,281	-0,185
119,020	223,007	-0,207	-0,234
120,035	170,562	-0,228	-0,229
121,049	288,171	-0,197	-0,249
122,064	-107,960	-0,367	-0,055
123,079	-91,750	-0,179	0,035
124,093	128,059	-0,338	-0,300
125,108	-89,359	-0,266	-0,054
126,122	93,143	-0,236	-0,186
127,137	800,000	-0,118	-0,247
128,151	-90,737	-0,313	-0,062
129,166	40,747	-0,211	-0,132
130,181	-6,351	-0,254	-0,121
131,195	47,223	-0,370	-0,240
132,210	161,136	-0,295	-0,288
133,224	321,671	-0,197	-0,262
134,239	-42,106	-0,280	-0,099
135,254	-17,478	-0,228	-0,100
136,268	397,086	-0,117	-0,171
137,283	-21,404	-0,267	-0,113
138,297	60,357	-0,241	-0,166
139,312	49,378	-0,318	-0,208
140,327	223,570	-0,221	-0,249
141,341	-15,260	-0,230	-0,102
142,356	126,606	-0,249	-0,219
143,370	-137,118	-0,244	-0,019
144,385	383,198	-0,172	-0,247
145,400	121,617	-0,267	-0,232
146,414	103,097	-0,274	-0,223
147,429	159,102	-0,244	-0,237
148,443	-44,313	-0,370	-0,128
149,458	800,000	-0,094	-0,192
150,473	177,308	-0,253	-0,256
151,487	-147,463	-0,304	-0,018
152,502	127,013	-0,178	-0,157
153,516	-14,523	-0,379	-0,169
154,531	-4,248	-0,299	-0,143
155,546	-19,204	-0,316	-0,136
156,560	305,147	-0,169	-0,219
157,575	-68,233	-0,109	-0,029
158,589	-23,828	-0,258	-0,107
159,604	80,908	-0,280	-0,210
160,619	277,650	-0,259	-0,322
161,633	256,429	-0,147	-0,175
162,648	119,118	-0,186	-0,160
163,662	151,864	-0,121	-0,115
164,677	-51,283	-0,152	-0,049
165,692	-68,212	-0,312	-0,084
166,706	110,212	-0,202	-0,168
167,721	98,171	-0,238	-0,190
168,735	56,289	-0,193	-0,130
169,750	153,892	-0,201	-0,192
170,764	-11,864	-0,225	-0,102
171,779	79,054	-0,234	-0,174
172,794	-44,239	-0,259	-0,090
173,808	260,012	-0,140	-0,168
174,823	119,050	-0,174	-0,150
175,837	375,743	-0,242	-0,344
176,852	65,792	-0,235	-0,165
177,867	54,885	-0,278	-0,186
178,881	137,874	-0,146	-0,133
179,896	-11,324	-0,247	-0,112
180,910	128,594	-0,187	-0,165
181,925	-107,836	-0,178	-0,027
182,940	306,555	-0,329	-0,426
183,954	24,587	-0,284	-0,163
184,969	54,113	-0,260	-0,173
185,983	529,614	-0,115	-0,190
186,998	519,658	-0,101	-0,165
188,013	45,884	-0,183	-0,117
189,027	-75,945	-0,365	-0,089
190,042	121,492	-0,274	-0,237
191,056	-33,063	-0,244	-0,093
192,071	391,133	-0,151	-0,218
193,086	-21,804	-0,179	-0,075
194,100	101,688	-0,155	-0,125
195,115	522,495	-0,102	-0,167
196,129	-200,000	-0,089	-0,300
197,144	21,051	-0,262	-0,147
198,159	334,799	-0,159	-0,215
199,173	28,739	-0,161	-0,094
200,188	800,000	-0,041	-0,125
201,202	230,941	-0,223	-0,253
202,217	-101,654	-0,151	-0,025
203,232	193,149	-0,133	-0,140
204,246	282,913	-0,147	-0,183
205,261	-34,780	-0,261	-0,099
206,275	181,899	-0,166	-0,169
207,290	117,206	-0,130	-0,110
208,304	-170,065	-0,180	-0,004
209,319	-79,851	-0,146	-0,034
210,334	74,263	-0,172	-0,125
211,348	-200,000	-0,057	-0,235
212,363	149,363	-0,190	-0,178
213,377	113,965	-0,269	-0,227
214,392	385,919	-0,211	-0,302
215,407	250,196	-0,074	-0,087
216,421	-200,000	-0,040	-0,160
217,436	232,877	-0,140	-0,159
218,450	383,977	-0,164	-0,235
219,465	375,028	-0,162	-0,230
220,480	113,255	-0,266	-0,224
221,494	-200,000	-0,020	-0,102
222,509	-40,626	-0,159	-0,057
223,523	-200,000	-0,017	-0,184
224,538	244,433	-0,137	-0,160
225,553	145,792	-0,303	-0,281
226,567	51,428	-0,139	-0,091
227,582	800,000	-0,089	-0,189
228,596	-29,758	-0,181	-0,071
229,611	116,337	-0,174	-0,147
230,626	-200,000	-0,029	-0,096
231,640	-84,167	-0,174	-0,038
232,655	207,054	-0,135	-0,146
233,669	72,847	-0,277	-0,199
234,684	-54,041	-0,260	-0,081
235,699	92,616	-0,170	-0,132
236,713	800,000	-0,099	-0,218
237,728	-2,645	-0,213	-0,102
238,742	-24,829	-0,189	-0,077
239,757	61,632	-0,167	-0,115
240,772	-21,208	-0,282	-0,118
241,786	380,451	-0,144	-0,204
242,801	-98,913	-0,105	-0,018
243,815	-25,820	-0,209	-0,085
244,830	93,547	-0,171	-0,133
245,844	350,886	-0,189	-0,259
246,859	401,426	-0,086	-0,125
247,874	800,000	-0,095	-0,243
248,888	9,247	-0,313	-0,163
249,903	23,737	-0,066	-0,037
250,917	103,426	-0,171	-0,138
251,932	310,041	-0,137	-0,178
252,947	184,568	-0,107	-0,109
253,961	-4,633	-0,152	-0,072
254,976	-56,224	-0,176	-0,054
255,990	-40,498	-0,211	-0,075
257,005	774,587	-0,087	-0,165
258,020	119,961	-0,133	-0,114
259,034	-152,885	-0,192	-0,009
260,049	56,969	-0,295	-0,198
261,063	347,411	-0,179	-0,244
262,078	37,010	-0,271	-0,165
263,093	316,489	-0,101	-0,132
264,107	242,647	-0,186	-0,215
265,122	-114,315	-0,184	-0,024
266,136	-98,249	-0,256	-0,045
267,151	164,525	-0,137	-0,134
268,166	511,441	-0,038	-0,060
269,180	217,392	-0,221	-0,243
270,195	4,614	-0,229	-0,116
271,209	14,860	-0,175	-0,094
272,224	79,887	-0,148	-0,109
273,239	-75,127	-0,190	0,047
274,253	61,541	-0,175	-0,120
275,268	-54,118	-0,152	-0,047
276,282	20,132	-0,184	-0,102
277,297	202,921	-0,233	-0,248
278,312	800,000	-0,065	-0,138
279,326	-190,600	-0,050	-0,000
280,341	-20,685	-0,141	0,060
281,355	800,000	-0,011	0,023
282,370	16,413	-0,126	-0,068
283,384	-91,095	-0,258	-0,050
284,399	628,345	-0,137	-0,239
285,414	399,740	-0,147	-0,212
286,428	41,883	-0,178	-0,111
287,443	45,104	-0,177	-0,112
288,457	-69,131	-0,224	-0,059
289,472	-106,965	-0,103	-0,016
290,487	61,165	-0,152	-0,104
291,501	212,939	-0,234	-0,255
292,516	21,976	-0,211	-0,118
293,530	-200,000	0,014	-0,151
294,545	280,869	-0,158	-0,194
295,560	172,915	-0,118	-0,117
296,574	-11,008	-0,154	-0,069
297,589	-10,217	-0,237	-0,108
298,603	210,366	-0,165	-0,178
299,618	228,604	-0,150	-0,168
300,633	56,556	-0,069	-0,046
301,647	-15,409	-0,159	-0,070
302,662	-43,769	-0,247	-0,085
303,676	-20,686	-0,124	-0,052
304,691	696,705	-0,130	-0,236
305,706	800,000	-0,062	-0,120
306,720	627,736	-0,123	-0,214
307,735	-33,111	-0,148	-0,056
308,749	-59,030	-0,197	-0,058
309,764	-28,689	-0,062	-0,024
310,779	1,243	-0,162	-0,080
311,793	-95,516	-0,183	0,033
312,808	145,274	-0,125	-0,115
313,822	495,128	-0,022	-0,035
314,837	4,974	-0,235	-0,118
315,852	-99,837	-0,176	-0,030
316,866	-23,022	-0,063	-0,026
317,881	-13,972	-0,086	0,038
318,895	-65,639	-0,079	-0,022
319,910	370,699	-0,071	-0,099
320,925	139,207	-0,202	-0,183
321,939	63,017	-0,163	-0,112
322,954	627,997	-0,027	-0,047
323,968	-134,041	-0,095	0,008
324,983	271,715	-0,091	-0,110
325,997	800,000	-0,076	-0,218
327,012	-14,623	-0,169	-0,074
328,027	-33,315	-0,166	-0,063
329,041	-98,688	-0,188	-0,032
330,056	-76,733	-0,043	0,010
331,070	-92,912	-0,306	-0,058
332,085	-183,869	-0,099	-0,001
333,100	135,327	-0,231	-0,206
334,114	182,987	-0,119	-0,120
335,129	115,729	-0,159	-0,133
336,143	20,128	-0,149	-0,082
337,158	385,923	-0,116	-0,165
338,173	-50,089	-0,098	0,031
339,187	-85,498	-0,114	-0,024
340,202	612,716	-0,105	-0,181
341,216	349,779	-0,075	-0,101
342,231	-200,000	-0,018	-0,241
343,246	-109,812	-0,243	-0,035
344,260	-31,141	-0,165	-0,063
345,275	-28,081	0,088	-0,035
346,289	-120,790	-0,248	0,028
347,304	105,074	-0,267	-0,216
348,319	-111,233	-0,174	0,024
349,333	261,652	-0,093	-0,111
350,348	800,000	-0,081	-0,157
351,362	22,835	-0,114	-0,064
352,377	800,000	0,026	-0,075
353,392	87,050	-0,175	-0,132
354,406	-200,000	-0,056	-0,185
355,421	208,101	1310,100	1402,004
356,435	160,116	1470,237	1402,495
