DTS Sentinel unit serial number:	SN410029Multiplexer serial number:	ORYXHardware model number:	OX2-SRSoftware version number:	ORYX F/W v4,00 Oryx Data Collector v3.7.2.0data status	okinstallation	B3 Nyhavnadifferential loss correction	single-endedforward channel	channel 1reverse channel	N/Adate	2023/12/03time	03:42:30forward acquisition time	300,00reverse acquisition time	0,00gamma	499,1914k internal	0,3201k external	0,3201temperature offset calibration	1,0000default loss term (dB/km)	0,3820temperature slope calibration	1,0000multiplexer offset coefficient	1,0000multiplexer slope coefficient	1,0000fibre end	0,00T internal ref (°C)	13,31T ext. ref 1 (°C)	-1,80T ext. ref 2 (°C)	-1,81length (m)	temperature (°C)	Stokes	anti-Stokes-744,400	10,018	-0,217	-0,120
-743,385	-200,000	0,076	0,256
-742,371	539,019	-0,151	-0,261
-741,356	-200,000	0,018	0,253
-740,342	216,834	-0,236	-0,274
-739,327	800,000	0,129	0,282
-738,312	115,096	-0,105	-0,093
-737,298	205,030	-0,154	0,174
-736,283	-200,000	-0,010	-0,148
-735,269	495,824	0,122	0,204
-734,254	800,000	-0,126	-0,273
-733,239	242,571	-0,220	0,268
-732,225	-200,000	-0,048	-0,265
-731,210	-121,719	0,109	-0,013
-730,196	-25,457	-0,089	-0,038
-729,181	-155,253	-0,132	0,006
-728,167	-200,000	-0,012	-0,040
-727,152	-60,749	0,079	0,024
-726,137	30,450	-0,110	0,068
-725,123	120,157	-0,052	0,047
-724,108	223,687	-0,080	-0,094
-723,094	362,652	-0,020	-0,029
-722,079	-30,952	-0,179	-0,073
-721,064	18,167	-0,042	0,024
-720,050	-147,267	-0,052	0,003
-719,035	153,898	-0,017	0,017
-718,021	800,000	0,019	-0,050
-717,006	-77,169	-0,077	-0,019
-715,991	518,627	-0,098	-0,168
-714,977	-200,000	-0,003	-0,110
-713,962	-200,000	0,007	-0,149
-712,948	43,856	0,042	0,028
-711,933	800,000	0,062	0,182
-710,918	800,000	-0,034	-0,101
-709,904	6,444	-0,233	-0,125
-708,889	274,097	0,041	-0,052
-707,875	-200,000	0,007	-0,171
-706,860	-200,000	-0,002	-0,053
-705,845	348,951	0,023	0,033
-704,831	21,314	0,068	-0,040
-703,816	452,152	0,125	-0,201
-702,802	-41,508	-0,089	0,033
-701,787	60,640	-0,091	-0,066
-700,772	-78,295	0,046	0,011
-699,758	-15,073	0,059	-0,028
-698,743	-166,231	0,204	0,006
-697,729	57,833	-0,059	-0,042
-696,714	193,539	-0,042	0,046
-695,699	154,167	-0,066	-0,066
-694,685	309,045	0,054	-0,074
-693,670	-150,085	-0,140	0,008
-692,656	-16,090	-0,100	0,046
-691,641	-78,839	-0,051	0,012
-690,627	-136,815	0,118	0,010
-689,612	-187,942	-0,155	0,001
-688,597	-103,043	-0,130	0,022
-687,583	279,482	-0,062	0,081
-686,568	114,005	0,062	-0,055
-685,554	207,513	0,070	-0,079
-684,539	-89,423	0,091	0,019
-683,524	800,000	-0,026	0,063
-682,510	-200,000	-0,009	0,047
-681,495	-200,000	0,009	-0,113
-680,481	370,942	0,102	-0,150
-679,466	-200,000	-0,061	-0,197
-678,451	-172,267	-0,148	-0,003
-677,437	393,819	0,048	-0,072
-676,422	-84,882	-0,115	0,026
-675,408	-132,896	-0,104	-0,009
-674,393	3,177	-0,040	-0,021
-673,378	-12,388	-0,086	-0,040
-672,364	-12,740	-0,106	-0,050
-671,349	-91,242	-0,131	0,027
-670,335	25,378	0,044	0,026
-669,320	-200,000	0,009	-0,126
-668,305	-200,000	-0,023	0,090
-667,291	111,101	0,069	0,060
-666,276	157,786	-0,079	-0,080
-665,262	189,630	-0,085	-0,093
-664,247	82,607	-0,101	-0,080
-663,232	-200,000	0,033	0,147
-662,218	477,344	-0,065	-0,106
-661,203	7,758	-0,049	0,026
-660,189	-86,876	-0,199	0,044
-659,174	-200,000	-0,001	0,026
-658,159	800,000	0,012	-0,031
-657,145	-200,000	-0,043	-0,162
-656,130	-200,000	0,040	-0,247
-655,116	181,891	0,064	-0,069
-654,101	-53,617	0,091	-0,030
-653,086	-83,454	0,027	0,006
-652,072	-200,000	0,009	-0,035
-651,057	380,695	-0,093	-0,138
-650,043	169,531	0,035	-0,036
-649,028	-56,166	0,064	0,021
-648,014	-100,543	-0,035	-0,006
-646,999	-200,000	-0,008	0,192
-645,984	771,891	0,045	0,089
-644,970	768,533	-0,097	-0,191
-643,955	800,000	0,029	0,060
-642,941	286,267	-0,038	0,050
-641,926	800,000	-0,026	0,067
-640,911	-200,000	0,003	0,030
-639,897	-200,000	0,019	0,136
-638,882	9,257	-0,115	-0,063
-637,868	-55,807	-0,089	-0,029
-636,853	-41,507	-0,102	-0,038
-635,838	-141,111	0,044	0,003
-634,824	-124,861	-0,034	-0,004
-633,809	597,763	-0,001	-0,001
-632,795	-118,387	-0,073	0,009
-631,780	-200,000	-0,007	0,034
-630,765	800,000	-0,033	-0,082
-629,751	42,576	-0,077	-0,051
-628,736	-200,000	0,007	-0,194
-627,722	800,000	0,053	-0,109
-626,707	-200,000	-0,041	-0,202
-625,692	-200,000	-0,047	0,168
-624,678	-200,000	-0,004	-0,074
-623,663	162,427	-0,064	0,065
-622,649	-9,393	-0,127	-0,061
-621,634	-200,000	-0,022	-0,127
-620,619	518,331	0,029	-0,049
-619,605	-200,000	-0,017	0,108
-618,590	-168,141	0,074	-0,002
-617,576	469,438	0,072	-0,117
-616,561	-148,401	0,087	-0,005
-615,546	89,988	-0,055	-0,044
-614,532	-61,451	-0,099	-0,030
-613,517	-200,000	0,009	0,030
-612,503	82,577	0,136	0,107
-611,488	34,645	0,056	0,035
-610,474	-200,000	-0,008	0,104
-609,459	-75,410	0,028	-0,007
-608,444	800,000	0,051	-0,139
-607,430	-200,000	-0,026	-0,148
-606,415	275,501	-0,045	0,058
-605,401	239,310	-0,104	-0,125
-604,386	406,737	0,030	0,046
-603,371	252,307	-0,018	-0,022
-602,357	-130,098	0,164	0,016
-601,342	40,360	0,046	-0,030
-600,328	-200,000	0,033	-0,138
-599,313	-62,421	0,065	0,019
-598,298	-169,120	-0,120	0,003
-597,284	-33,791	0,127	0,050
-596,269	-200,000	0,016	0,118
-595,255	45,958	0,055	0,037
-594,240	-65,903	-0,024	-0,007
-593,225	-94,789	-0,093	0,018
-592,211	288,219	0,033	-0,044
-591,196	800,000	0,019	0,048
-590,182	800,000	0,017	-0,047
-589,167	-43,562	0,117	0,042
-588,152	-36,255	0,099	-0,038
-587,138	117,613	-0,096	-0,085
-586,123	-143,977	-0,056	-0,004
-585,109	-91,121	0,024	-0,005
-584,094	800,000	-0,019	-0,038
-583,079	3,432	0,034	-0,018
-582,065	372,422	0,050	-0,074
-581,050	-4,582	-0,081	-0,040
-580,036	42,061	0,060	0,039
-579,021	-160,148	-0,090	-0,003
-578,006	-107,416	0,047	0,007
-576,992	-117,227	-0,148	0,019
-575,977	-26,240	0,072	0,030
-574,963	800,000	-0,037	-0,099
-573,948	-112,352	0,073	-0,010
-572,934	-148,747	0,058	-0,003
-571,919	329,801	-0,069	0,097
-570,904	-200,000	-0,031	-0,106
-569,890	-200,000	-0,013	-0,098
-568,875	-83,568	0,065	0,015
-567,861	21,377	0,019	-0,011
-566,846	518,474	0,047	-0,080
-565,831	258,986	0,041	0,051
-564,817	-75,022	-0,213	0,055
-563,802	800,000	0,018	-0,046
-562,788	373,168	-0,107	-0,157
-561,773	508,463	-0,027	0,046
-560,758	199,572	0,072	-0,080
-559,744	800,000	0,027	0,077
-558,729	-26,587	-0,083	-0,035
-557,715	-200,000	0,010	0,054
-556,700	546,080	-0,044	0,076
-555,685	784,050	-0,018	-0,036
-554,671	-82,498	-0,111	0,026
-553,656	293,147	-0,085	-0,112
-552,642	-30,309	0,037	-0,015
-551,627	-200,000	-0,021	0,160
-550,612	179,149	-0,055	-0,058
-549,598	-200,000	-0,011	-0,056
-548,583	-82,034	-0,199	-0,046
-547,569	-181,528	0,038	-0,001
-546,554	-166,258	0,090	0,003
-545,539	-200,000	-0,028	0,105
-544,525	-67,755	0,162	0,045
-543,510	18,917	-0,122	0,070
-542,496	-22,709	-0,033	0,014
-541,481	40,991	-0,073	-0,048
-540,466	445,412	0,130	-0,207
-539,452	174,465	0,065	-0,068
-538,437	250,148	0,094	0,115
-537,423	153,964	-0,137	0,136
-536,408	-200,000	-0,036	0,167
-535,393	46,927	-0,131	-0,088
-534,379	0,503	-0,086	-0,044
-533,364	-115,917	-0,141	0,019
-532,350	64,506	0,032	0,023
-531,335	97,373	0,088	0,073
-530,321	-200,000	0,010	-0,038
-529,306	-200,000	0,023	0,137
-528,291	227,969	-0,054	-0,063
-527,277	95,398	-0,052	-0,043
-526,262	532,964	0,067	0,114
-525,248	166,675	-0,064	-0,066
-524,233	195,373	0,021	-0,023
-523,218	-200,000	0,014	-0,072
-522,204	-200,000	-0,012	0,043
-521,189	-200,000	-0,007	-0,041
-520,175	-200,000	0,035	0,259
-519,160	482,263	-0,040	0,066
-518,145	800,000	-0,033	-0,100
-517,131	800,000	0,021	0,048
-516,116	-200,000	0,008	-0,057
-515,102	-200,000	-0,013	0,095
-514,087	-200,000	0,005	-0,092
-513,072	-3,260	0,060	-0,030
-512,058	-124,677	-0,015	0,002
-511,043	800,000	-0,008	-0,021
-510,029	25,934	0,104	0,062
-509,014	189,683	0,117	0,127
-507,999	338,053	-0,043	0,060
-506,985	-200,000	-0,032	-0,159
-505,970	-64,593	0,016	-0,005
-504,956	-200,000	-0,012	-0,078
-503,941	476,640	0,092	0,150
-502,926	262,506	0,109	0,137
-501,912	-48,157	-0,058	-0,020
-500,897	-47,673	-0,067	0,023
-499,883	-99,404	0,080	0,014
-498,868	800,000	0,077	-0,167
-497,853	366,821	-0,060	0,087
-496,839	-200,000	0,016	0,064
-495,824	770,652	0,046	-0,091
-494,810	75,907	0,057	0,044
-493,795	-135,821	0,152	-0,013
-492,781	-3,822	-0,037	-0,019
-491,766	-80,761	-0,036	-0,008
-490,751	39,290	-0,064	-0,041
-489,737	-200,000	-0,002	-0,155
-488,722	101,395	0,171	0,143
-487,708	57,453	-0,022	0,015
-486,693	130,685	0,079	0,073
-485,678	-144,230	0,037	0,002
-484,664	-119,119	0,045	0,006
-483,649	33,674	-0,100	-0,062
-482,635	-90,950	-0,128	-0,026
-481,620	203,238	0,064	-0,071
-480,605	-30,295	0,061	0,025
-479,591	-200,000	0,009	0,039
-478,576	115,343	0,074	-0,065
-477,562	-54,499	-0,093	0,030
-476,547	524,799	0,024	0,040
-475,532	106,130	0,055	-0,047
-474,518	-98,544	0,091	0,017
-473,503	-31,094	0,227	0,092
-472,489	-200,000	-0,022	0,160
-471,474	-80,128	0,011	0,003
-470,459	197,170	-0,077	-0,085
-469,445	-200,000	0,021	-0,121
-468,430	-51,329	-0,143	0,048
-467,416	55,184	0,116	-0,081
-466,401	-155,778	0,069	-0,003
-465,386	470,090	0,052	0,084
-464,372	239,937	-0,072	0,087
-463,357	146,884	0,032	-0,031
-462,343	787,128	0,035	-0,069
-461,328	-200,000	0,009	-0,106
-460,313	-162,961	0,056	-0,002
-459,299	504,154	0,060	0,100
-458,284	800,000	-0,025	-0,068
-457,270	-200,000	0,003	0,011
-456,255	-200,000	-0,023	-0,073
-455,241	393,029	-0,085	-0,128
-454,226	137,038	-0,089	-0,083
-453,211	800,000	-0,015	-0,039
-452,197	-200,000	-0,018	-0,085
-451,182	-200,000	0,029	0,111
-450,168	-51,539	-0,040	0,013
-449,153	-99,848	0,086	-0,015
-448,138	-133,982	-0,047	0,004
-447,124	-200,000	-0,047	-0,172
-446,109	-200,000	0,015	-0,059
-445,095	-47,124	-0,054	0,019
-444,080	-118,250	0,109	0,014
-443,065	114,624	-0,126	0,110
-442,051	-80,227	0,056	0,013
-441,036	-200,000	-0,135	-0,000
-440,022	461,610	-0,075	-0,120
-439,007	77,016	-0,169	-0,129
-437,992	800,000	-0,007	-0,021
-436,978	7,586	-0,027	-0,014
-435,963	-200,000	-0,017	-0,083
-434,949	23,754	-0,053	-0,031
-433,934	-106,533	-0,088	-0,014
-432,919	800,000	0,056	-0,122
-431,905	-66,891	-0,045	-0,013
-430,890	-102,341	0,100	0,017
-429,876	-200,000	0,005	0,100
-428,861	151,185	0,059	0,058
-427,846	-200,000	-0,005	-0,058
-426,832	-200,000	-0,013	0,121
-425,817	-22,482	-0,061	-0,027
-424,803	-128,471	0,021	-0,002
-423,788	207,240	0,047	-0,052
-422,773	-36,829	-0,097	0,037
-421,759	800,000	-0,012	0,037
-420,744	-200,000	-0,005	0,082
-419,730	37,835	0,152	0,097
-418,715	764,258	0,035	-0,069
-417,701	-200,000	-0,021	-0,113
-416,686	7,824	0,047	-0,025
-415,671	-200,000	0,016	0,085
-414,657	800,000	0,063	0,132
-413,642	646,371	0,016	0,030
-412,628	638,670	0,049	-0,089
-411,613	94,904	-0,141	-0,115
-410,598	-200,000	0,007	0,065
-409,584	-200,000	0,001	-0,088
-408,569	368,498	0,030	0,044
-407,555	557,641	0,049	0,085
-406,540	-200,000	-0,064	-0,229
-405,525	-200,000	-0,020	0,069
-404,511	800,000	-0,031	0,096
-403,496	27,669	0,064	0,038
-402,482	-200,000	-0,021	-0,079
-401,467	800,000	-0,042	0,114
-400,452	800,000	0,025	-0,071
-399,438	185,462	0,064	-0,069
-398,423	382,481	-0,023	-0,034
-397,409	-200,000	0,012	-0,077
-396,394	-200,000	0,010	-0,036
-395,379	614,458	0,088	0,158
-394,365	-200,000	-0,009	0,077
-393,350	800,000	-0,028	0,061
-392,336	671,414	0,013	0,025
-391,321	5,601	-0,088	0,047
-390,306	24,609	-0,051	-0,030
-389,292	-200,000	-0,007	-0,178
-388,277	496,788	0,064	-0,106
-387,263	442,643	0,053	0,083
-386,248	-200,000	0,029	0,114
-385,233	166,154	0,164	0,167
-384,219	-200,000	0,010	0,068
-383,204	-200,000	0,004	-0,041
-382,190	192,556	0,089	-0,097
-381,175	-72,069	-0,117	-0,031
-380,160	106,423	0,112	-0,095
-379,146	127,863	-0,034	0,031
-378,131	151,740	0,101	0,099
-377,117	67,272	-0,076	0,056
-376,102	-34,395	-0,125	-0,049
-375,088	-66,797	0,066	-0,019
-374,073	-49,138	-0,029	0,010
-373,058	800,000	0,025	0,065
-372,044	-81,169	-0,083	0,020
-371,029	43,236	-0,025	-0,016
-370,015	800,000	0,045	-0,121
-369,000	-74,582	-0,173	-0,044
-367,985	800,000	0,017	-0,049
-366,971	-200,000	0,007	0,065
-365,956	44,797	0,111	0,073
-364,942	281,372	0,045	0,058
-363,927	60,994	-0,053	0,038
-362,912	-62,542	-0,065	-0,019
-361,898	-200,000	-0,010	-0,179
-360,883	71,588	-0,064	-0,048
-359,869	-121,714	0,123	0,014
-358,854	800,000	0,014	-0,030
-357,839	-200,000	0,025	-0,092
-356,825	-200,000	0,023	0,083
-355,810	766,335	-0,069	0,136
-354,796	-200,000	0,029	-0,103
-353,781	-111,729	0,110	0,016
-352,766	800,000	-0,011	-0,023
-351,752	-200,000	0,011	-0,134
-350,737	344,223	0,036	-0,051
-349,723	148,226	0,115	0,111
-348,708	136,455	0,010	-0,010
-347,693	-200,000	-0,021	-0,154
-346,679	-17,876	-0,177	-0,079
-345,664	47,138	0,025	0,017
-344,650	216,027	0,025	-0,029
-343,635	-163,481	-0,111	-0,004
-342,620	65,002	0,110	0,079
-341,606	326,705	-0,064	-0,087
-340,591	67,540	-0,036	0,026
-339,577	-200,000	-0,014	0,069
-338,562	-200,000	0,014	-0,109
-337,548	-200,000	0,011	0,103
-336,533	693,896	0,031	0,059
-335,518	-200,000	-0,015	0,222
-334,504	15,763	0,084	0,047
-333,489	12,910	-0,058	-0,032
-332,475	45,654	0,115	0,076
-331,460	228,336	-0,030	-0,035
-330,445	600,628	0,076	-0,136
-329,431	-200,000	0,000	-0,022
-328,416	737,841	-0,045	0,086
-327,402	-200,000	0,016	0,115
-326,387	394,516	0,045	-0,068
-325,372	-43,351	-0,040	-0,014
-324,358	-133,455	0,128	-0,011
-323,343	100,450	-0,099	-0,082
-322,329	567,266	-0,018	0,031
-321,314	-200,000	-0,005	0,093
-320,299	303,978	-0,057	0,076
-319,285	800,000	0,055	-0,127
-318,270	-21,557	-0,030	0,013
-317,256	-89,897	-0,287	-0,059
-316,241	562,005	0,021	-0,037
-315,226	122,590	-0,121	0,109
-314,212	-200,000	0,001	0,080
-313,197	-88,470	-0,082	0,017
-312,183	800,000	-0,016	-0,039
-311,168	-200,000	0,007	-0,045
-310,153	-45,621	-0,083	-0,029
-309,139	-94,135	-0,016	-0,003
-308,124	-150,252	0,087	-0,005
-307,110	304,460	-0,045	0,060
-306,095	63,644	-0,125	0,089
-305,080	-100,731	0,161	0,028
-304,066	-200,000	0,019	0,076
-303,051	800,000	0,042	-0,103
-302,037	-200,000	0,036	-0,151
-301,022	-6,764	0,078	-0,038
-300,008	-9,732	0,023	0,011
-298,993	-200,000	0,050	0,172
-297,978	800,000	0,072	0,176
-296,964	800,000	0,026	-0,070
-295,949	800,000	-0,022	-0,055
-294,935	-200,000	0,008	0,056
-293,920	-200,000	-0,046	0,268
-292,905	-38,226	0,069	-0,026
-291,891	72,426	0,123	0,092
-290,876	-134,457	-0,077	-0,007
-289,862	-136,997	-0,025	-0,002
-288,847	75,794	-0,113	-0,085
-287,832	800,000	-0,040	-0,100
-286,818	-200,000	0,002	0,050
-285,803	800,000	-0,032	-0,071
-284,789	800,000	-0,026	0,053
-283,774	-200,000	-0,004	0,100
-282,759	189,131	0,035	0,038
-281,745	-133,752	-0,017	-0,001
-280,730	62,911	-0,111	0,079
-279,716	-82,784	-0,056	-0,013
-278,701	8,320	0,104	0,056
-277,686	-200,000	0,025	-0,125
-276,672	-103,942	-0,045	-0,007
-275,657	-200,000	-0,006	-0,066
-274,643	33,037	-0,092	-0,057
-273,628	491,256	-0,032	-0,053
-272,613	120,449	0,113	-0,100
-271,599	800,000	0,018	0,055
-270,584	91,925	0,050	0,040
-269,570	515,389	0,027	-0,044
-268,555	-130,008	0,065	-0,006
-267,540	800,000	-0,007	-0,017
-266,526	-139,329	-0,093	-0,007
-265,511	-18,308	-0,041	-0,018
-264,497	800,000	0,053	0,132
-263,482	74,619	0,065	0,049
-262,467	142,794	0,068	0,064
-261,453	-77,772	0,113	0,028
-260,438	-200,000	-0,004	-0,064
-259,424	-6,363	0,095	-0,046
-258,409	-60,380	0,072	0,022
-257,395	800,000	-0,022	0,047
-256,380	-108,232	0,100	0,015
-255,365	-200,000	0,006	0,120
-254,351	-41,787	0,024	-0,009
-253,336	-200,000	-0,031	-0,107
-252,322	-48,419	-0,164	0,056
-251,307	800,000	0,049	0,149
-250,292	-127,629	0,072	-0,007
-249,278	315,717	0,088	-0,119
-248,263	-200,000	-0,011	0,104
-247,249	-107,611	0,110	-0,017
-246,234	458,965	-0,034	0,054
-245,219	-92,659	-0,122	0,024
-244,205	-130,564	-0,079	-0,007
-243,190	324,244	0,029	-0,040
-242,176	-200,000	0,132	0,000
-241,161	510,252	-0,090	0,151
-240,146	800,000	-0,019	0,041
-239,132	-200,000	-0,011	-0,075
-238,117	592,389	0,015	-0,026
-237,103	88,657	-0,054	-0,043
-236,088	-169,487	0,088	0,002
-235,073	347,531	0,069	0,097
-234,059	79,483	0,077	-0,059
-233,044	-142,731	-0,137	0,009
-232,030	-86,135	0,039	0,008
-231,015	-200,000	-0,026	-0,154
-230,000	183,010	-0,137	-0,144
-228,986	-150,628	0,067	0,004
-227,971	55,609	0,082	0,057
-226,957	103,043	-0,072	0,060
-225,942	-92,971	0,034	0,007
-224,927	252,033	-0,111	0,135
-223,913	159,118	-0,104	-0,103
-222,898	-84,533	0,100	0,022
-221,884	800,000	0,028	-0,086
-220,869	-22,749	0,125	-0,054
-219,855	204,962	0,071	0,079
-218,840	165,960	0,101	-0,102
-217,825	-200,000	0,038	0,145
-216,811	32,652	-0,068	-0,042
-215,796	800,000	0,037	-0,111
-214,782	-57,710	-0,089	0,028
-213,767	-200,000	-0,007	-0,069
-212,752	-4,835	0,109	-0,053
-211,738	291,624	0,062	0,081
-210,723	-200,000	0,033	0,109
-209,709	74,073	0,033	0,024
-208,694	-63,182	0,022	0,006
-207,679	-139,332	0,117	0,009
-206,665	56,311	-0,058	0,040
-205,650	470,884	0,019	0,030
-204,636	72,589	0,102	0,076
-203,621	-200,000	-0,065	0,225
-202,606	416,252	0,064	-0,097
-201,592	800,000	-0,015	0,032
-200,577	449,439	-0,052	-0,082
-199,563	-43,634	-0,058	-0,021
-198,548	800,000	-0,038	0,092
-197,533	110,026	-0,089	0,076
-196,519	-3,135	0,056	-0,028
-195,504	-164,534	-0,054	0,002
-194,490	-46,146	-0,169	0,059
-193,475	175,154	-0,073	-0,076
-192,460	227,784	-0,030	0,035
-191,446	800,000	-0,016	0,032
-190,431	761,979	-0,018	-0,035
-189,417	19,141	0,126	0,072
-188,402	-83,675	0,055	-0,012
-187,387	691,498	-0,050	-0,095
-186,373	7,146	-0,235	-0,124
-185,358	67,457	-0,027	0,020
-184,344	-115,686	0,099	-0,013
-183,329	289,903	0,018	-0,023
-182,315	800,000	-0,009	0,021
-181,300	-141,940	-0,115	0,008
-180,285	548,205	0,029	-0,049
-179,271	-200,000	0,023	-0,142
-178,256	5,706	0,018	0,010
-177,242	57,787	-0,024	0,017
-176,227	-200,000	0,001	0,085
-175,212	-200,000	0,015	0,071
-174,198	-200,000	0,012	0,111
-173,183	800,000	-0,042	0,132
-172,169	-200,000	0,003	-0,066
-171,154	-200,000	0,004	-0,015
-170,139	1,501	0,076	0,039
-169,125	-200,000	-0,051	0,195
-168,110	-200,000	0,034	0,143
-167,096	62,780	-0,041	-0,029
-166,081	800,000	-0,017	-0,037
-165,066	-200,000	-0,012	-0,063
-164,052	98,244	-0,110	-0,090
-163,037	76,614	0,022	-0,017
-162,023	-9,298	0,108	-0,051
-161,008	-200,000	-0,006	0,094
-159,993	174,862	0,114	-0,118
-158,979	66,900	-0,022	-0,016
-157,964	-140,030	-0,145	0,011
-156,950	110,222	-0,039	0,034
-155,935	397,983	-0,062	0,092
-154,920	-115,896	0,121	0,016
-153,906	600,676	0,057	-0,100
-152,891	165,798	-0,083	-0,084
-151,877	47,037	-0,017	-0,012
-150,862	-200,000	0,001	0,049
-149,847	18,185	-0,109	0,062
-148,833	-19,282	0,059	-0,026
-147,818	245,046	-0,105	-0,125
-146,804	34,932	0,074	0,046
-145,789	15,457	0,068	-0,038
-144,775	-200,000	0,042	0,182
-143,760	-5,167	-0,113	-0,055
-142,745	154,104	-0,093	0,091
-141,731	800,000	0,040	0,080
-140,716	260,426	0,025	0,031
-139,702	800,000	-0,028	-0,074
-138,687	18,797	0,102	-0,058
-137,672	-200,000	-0,002	0,015
-136,658	-200,000	0,027	0,139
-135,643	79,058	-0,077	-0,059
-134,629	-94,200	0,073	0,014
-133,614	94,334	0,107	-0,086
-132,599	800,000	-0,070	0,153
-131,585	-129,293	-0,045	-0,004
-130,570	396,954	-0,062	0,093
-129,556	627,229	-0,081	-0,146
-128,541	622,561	-0,009	-0,017
-127,526	-30,377	-0,158	0,063
-126,512	-125,005	0,053	0,006
-125,497	-200,000	0,011	-0,066
-124,483	15,926	-0,068	0,038
-123,468	-119,118	-0,097	0,012
-122,453	80,782	0,088	-0,068
-121,439	338,304	-0,070	0,098
-120,424	800,000	0,037	0,079
-119,410	-123,334	0,117	0,013
-118,395	279,479	0,081	0,103
-117,380	41,999	0,090	0,058
-116,366	7,502	0,040	-0,021
-115,351	-62,983	-0,101	0,029
-114,337	800,000	-0,018	0,052
-113,322	-200,000	0,009	0,038
-112,307	-63,947	0,075	-0,022
-111,293	19,088	-0,073	0,041
-110,278	277,101	0,134	0,169
-109,264	4,933	0,091	0,047
-108,249	121,580	-0,094	-0,083
-107,234	-60,267	-0,022	0,007
-106,220	-106,581	-0,125	-0,020
-105,205	14,636	0,073	0,040
-104,191	-19,678	-0,088	-0,039
-103,176	537,080	0,092	0,156
-102,162	-119,244	-0,199	0,024
-101,147	800,000	-0,018	0,053
-100,132	314,279	-0,096	-0,128
-99,118	-6,461	-0,131	-0,063
-98,103	-200,000	0,001	0,102
-97,089	-200,000	-0,007	0,164
-96,074	300,708	-0,008	0,011
-95,059	459,066	0,058	0,092
-94,045	-200,000	0,016	-0,084
-93,030	451,988	-0,058	-0,091
-92,016	-145,274	-0,178	0,011
-91,001	-200,000	0,008	0,159
-89,986	-61,657	0,188	-0,056
-88,972	759,578	0,031	-0,061
-87,957	-200,000	0,009	-0,089
-86,943	-123,133	-0,093	0,010
-85,928	39,594	-0,091	-0,058
-84,913	595,140	0,072	0,127
-83,899	134,698	-0,081	0,074
-82,884	276,904	0,032	0,041
-81,870	196,668	0,094	0,102
-80,855	-158,182	0,095	-0,004
-79,840	-200,000	-0,008	-0,071
-78,826	446,543	0,030	0,046
-77,811	-200,000	0,022	0,158
-76,797	-52,619	-0,078	-0,025
-75,782	111,104	-0,047	-0,040
-74,767	-1,147	0,159	-0,080
-73,753	800,000	-0,040	0,082
-72,738	-17,690	0,130	0,058
-71,724	48,511	0,052	-0,034
-70,709	-35,762	0,111	0,042
-69,694	303,790	0,057	0,075
-68,680	159,308	0,102	-0,101
-67,665	24,602	0,043	-0,025
-66,651	311,303	-0,005	0,007
-65,636	676,470	-0,052	0,096
-64,622	18,887	-0,050	0,028
-63,607	-200,000	-0,001	-0,193
-62,592	97,127	0,018	-0,015
-61,578	-200,000	0,005	-0,067
-60,563	-200,000	0,001	0,051
-59,549	-200,000	-0,011	0,102
-58,534	-6,327	-1,699	-0,818
-57,519	379,018	-1,382	-2,010
-56,505	-200,000	-0,514	-4,555
-55,490	213,640	0,946	1,060
-54,476	800,000	5,003	11,397
-53,461	-200,000	19,241	319,977
-52,446	-200,000	741,003	2334,811
-51,432	573,375	1655,498	2869,114
-50,417	78,264	1671,236	1261,875
-49,403	21,324	1543,932	885,725
-48,388	15,184	1466,419	811,400
-47,373	17,934	1456,743	819,302
-46,359	16,643	1446,699	807,431
-45,344	13,461	1441,833	789,439
-44,330	13,365	1440,066	787,984
-43,315	13,390	1438,202	787,049
-42,300	13,396	1436,617	786,181
-41,286	13,393	1435,338	785,437
-40,271	13,393	1433,956	784,648
-39,257	13,346	1432,752	783,735
-38,242	13,407	1431,425	783,269
-37,227	13,392	1430,308	782,554
-36,213	13,417	1429,145	782,006
-35,198	13,381	1427,748	781,039
-34,184	13,435	1426,887	780,790
-33,169	13,357	1425,655	779,718
-32,154	13,428	1424,393	779,331
-31,140	13,429	1423,000	778,546
-30,125	13,407	1422,075	777,904
-29,111	13,453	1420,830	777,406
-28,096	13,425	1419,683	776,617
-27,082	13,370	1418,756	775,823
-26,067	13,349	1417,526	775,018
-25,052	13,343	1416,426	774,359
-24,038	13,336	1415,447	773,757
-23,023	13,333	1414,518	773,207
-22,009	13,350	1413,152	772,508
-20,994	13,331	1412,518	772,044
-19,979	13,277	1411,822	771,378
-18,965	13,237	1410,972	770,693
-17,950	13,282	1409,925	770,304
-16,936	13,309	1408,661	769,711
-15,921	13,240	1407,731	768,850
-14,906	13,233	1407,110	768,445
-13,892	13,275	1405,764	767,876
-12,877	13,294	1404,933	767,482
-11,863	13,288	1404,176	767,007
-10,848	13,236	1403,349	766,285
-9,833	13,215	1402,505	765,693
-8,819	13,158	1401,665	764,940
-7,804	13,131	1400,889	764,361
-6,790	13,146	1399,682	763,741
-5,775	13,148	1398,671	763,167
-4,760	13,161	1397,615	762,622
-3,746	13,178	1396,696	762,168
-2,731	13,118	1396,069	761,520
-1,717	13,109	1395,244	760,998
-0,702	13,096	1393,355	759,875
0,313	17,003	1310,061	732,535
1,327	33,270	703,674	431,057
2,342	51,040	123,329	82,598
3,356	4,617	16,559	8,573
4,371	-1,415	3,238	1,610
5,386	-67,931	0,705	0,193
6,400	-200,000	0,036	0,325
7,415	166,150	-0,186	-0,186
8,429	87,687	-0,202	-0,158
9,444	170,756	-0,205	-0,208
10,459	-100,030	-0,336	-0,059
11,473	-103,191	-0,288	-0,048
12,488	83,038	-0,339	-0,260
13,502	71,112	-0,385	-0,282
14,517	280,827	-0,155	-0,196
15,531	79,623	-0,501	-0,380
16,546	64,123	-0,435	-0,309
17,561	29,140	-0,353	-0,211
18,575	-120,683	-0,216	0,026
19,590	83,797	-0,218	-0,168
20,604	106,088	-0,248	-0,207
21,619	70,676	-0,349	-0,255
22,634	69,632	-0,437	-0,317
23,648	34,965	-0,455	-0,280
24,663	108,823	-0,343	-0,289
25,677	800,000	-0,139	-0,321
26,692	6,395	-0,471	-0,246
27,707	185,911	-0,279	-0,294
28,721	165,114	-0,310	-0,309
29,736	63,558	-0,399	-0,282
30,750	57,770	-0,374	-0,258
31,765	12,163	-0,496	-0,269
32,780	90,499	-0,304	-0,240
33,794	-41,255	-0,487	-0,176
34,809	83,001	-0,472	-0,362
35,823	40,143	-0,404	-0,256
36,838	30,336	-0,387	-0,233
37,853	44,981	-0,542	-0,352
38,867	118,793	-0,484	-0,422
39,882	-3,998	-0,333	-0,162
40,896	-106,138	-0,336	-0,053
41,911	60,205	-0,326	-0,227
42,926	1,432	-0,444	-0,224
43,940	6,988	-0,417	-0,219
44,955	198,487	-0,336	-0,362
45,969	110,181	-0,397	-0,336
46,984	6,552	-0,297	-0,155
47,999	101,778	-0,416	-0,342
49,013	40,771	-0,297	-0,189
50,028	4,080	-0,330	-0,170
51,042	73,830	-0,412	-0,304
52,057	149,118	-0,292	-0,278
53,071	212,697	-0,248	-0,276
54,086	13,634	-0,401	-0,219
55,101	152,818	-0,268	-0,258
56,115	56,409	-0,212	-0,145
57,130	254,422	-0,167	-0,202
58,144	-18,993	-0,330	-0,144
59,159	109,602	-0,287	-0,242
60,174	117,742	-0,384	-0,333
61,188	155,394	-0,318	-0,308
62,203	-51,579	-0,357	-0,117
63,217	112,980	-0,341	-0,290
64,232	125,766	-0,244	-0,217
65,247	79,225	-0,353	-0,266
66,261	168,839	-0,391	-0,393
67,276	371,451	-0,237	-0,339
68,290	14,262	-0,404	-0,221
69,305	137,234	-0,213	-0,196
70,320	39,733	-0,371	-0,234
71,334	25,768	-0,326	-0,191
72,349	105,140	-0,316	-0,262
73,363	43,505	-0,331	-0,212
74,378	186,421	-0,272	-0,285
75,393	43,018	-0,366	-0,234
76,407	202,648	-0,310	-0,337
77,422	154,335	-0,199	-0,192
78,436	78,129	-0,273	-0,204
79,451	182,555	-0,220	-0,228
80,466	-2,953	-0,445	-0,217
81,480	197,116	-0,329	-0,353
82,495	202,504	-0,191	-0,207
83,509	82,230	-0,250	-0,190
84,524	-42,255	-0,200	-0,071
85,539	-17,382	-0,260	-0,115
86,553	173,978	-0,254	-0,258
87,568	61,134	-0,325	-0,226
88,582	97,422	-0,326	-0,263
89,597	112,381	-0,266	-0,226
90,611	10,827	-0,361	-0,193
91,626	-48,529	-0,207	-0,069
92,641	-39,894	-0,256	-0,093
93,655	183,918	-0,211	-0,220
94,670	73,380	-0,291	-0,214
95,684	144,276	-0,275	-0,258
96,699	155,274	-0,214	-0,207
97,714	162,443	-0,210	-0,206
98,728	379,494	-0,166	-0,239
99,743	-93,488	-0,300	-0,058
100,757	29,963	-0,181	-0,108
101,772	21,009	-0,279	-0,158
102,787	249,649	-0,179	-0,213
103,801	800,000	-0,113	-0,231
104,816	82,721	-0,242	-0,184
105,830	46,827	-0,270	-0,176
106,845	314,738	-0,167	-0,221
107,860	322,357	-0,155	-0,207
108,874	86,419	-0,330	-0,255
109,889	231,366	-0,179	-0,206
110,903	64,144	-0,238	-0,168
111,918	88,222	-0,221	-0,172
112,933	183,174	-0,244	-0,253
113,947	48,649	-0,189	-0,124
114,962	55,543	-0,322	-0,218
115,976	103,653	-0,174	-0,143
116,991	23,306	-0,242	-0,139
118,006	307,730	-0,122	-0,160
119,020	32,492	-0,271	-0,164
120,035	121,934	-0,189	-0,165
121,049	-41,366	-0,255	-0,091
122,064	-43,692	-0,214	-0,075
123,079	-12,120	-0,249	-0,114
124,093	8,938	-0,298	-0,157
125,108	76,407	-0,231	-0,171
126,122	-86,825	-0,269	-0,057
127,137	-25,221	-0,242	-0,100
128,151	-36,899	-0,214	-0,080
129,166	57,069	-0,183	-0,125
130,181	-80,808	-0,228	-0,052
131,195	60,277	-0,273	-0,189
132,210	59,615	-0,165	-0,114
133,224	155,937	-0,138	-0,133
134,239	522,934	-0,126	-0,207
135,254	24,714	-0,201	-0,116
136,268	-25,674	-0,276	-0,113
137,283	437,857	-0,150	-0,229
138,297	721,113	-0,145	-0,271
139,312	383,125	-0,158	-0,228
140,327	11,547	-0,260	-0,139
141,341	158,835	-0,156	-0,152
142,356	255,909	-0,211	-0,254
143,370	297,499	-0,145	-0,187
144,385	-76,895	-0,316	-0,077
145,400	-26,441	-0,270	-0,110
146,414	348,875	-0,198	-0,273
147,429	117,916	-0,253	-0,218
148,443	66,596	-0,346	-0,246
149,458	118,182	-0,210	-0,181
150,473	1,722	-0,299	-0,150
151,487	250,304	-0,111	-0,132
152,502	61,230	-0,265	-0,183
153,516	46,502	-0,181	-0,117
154,531	107,431	-0,218	-0,181
155,546	329,347	-0,217	-0,292
156,560	-171,645	-0,114	-0,003
157,575	81,446	-0,183	-0,138
158,589	89,548	-0,249	-0,194
159,604	529,944	-0,116	-0,192
160,619	-7,613	-0,394	-0,185
161,633	-22,439	-0,241	-0,102
162,648	-49,134	-0,385	-0,128
163,662	-54,392	-0,183	-0,058
164,677	425,480	-0,155	-0,234
165,692	-113,499	-0,245	0,033
166,706	75,294	-0,230	-0,169
167,721	72,244	-0,268	-0,194
168,735	-153,512	-0,171	0,008
169,750	172,259	-0,218	-0,219
170,764	-44,433	-0,233	-0,081
171,779	187,774	-0,168	-0,175
172,794	-10,166	-0,219	-0,101
173,808	339,344	-0,161	-0,219
174,823	109,099	-0,257	-0,214
175,837	-7,385	-0,308	-0,145
176,852	178,322	-0,256	-0,260
177,867	-33,143	-0,203	-0,078
178,881	71,972	-0,150	-0,109
179,896	-15,505	-0,062	-0,028
180,910	-37,197	-0,317	-0,117
181,925	308,893	-0,168	-0,219
182,940	13,799	-0,350	-0,189
183,954	-22,478	-0,262	-0,110
184,969	96,049	-0,143	-0,113
185,983	-42,570	-0,205	-0,072
186,998	90,438	-0,318	-0,248
188,013	19,489	-0,216	-0,121
189,027	304,875	-0,205	-0,266
190,042	48,207	-0,257	-0,167
191,056	-12,382	-0,242	-0,109
192,071	-43,299	-0,067	-0,023
193,086	23,889	-0,193	-0,110
194,100	800,000	-0,073	-0,144
195,115	169,272	-0,203	-0,202
196,129	4,611	-0,177	-0,090
197,144	120,222	-0,257	-0,222
198,159	800,000	-0,127	-0,319
199,173	212,683	-0,196	-0,216
200,188	123,670	-0,153	-0,134
201,202	43,534	-0,072	-0,046
202,217	30,977	-0,211	-0,126
203,232	243,929	-0,160	-0,187
204,246	234,055	-0,225	-0,258
205,261	268,921	-0,204	-0,249
206,275	102,040	-0,198	-0,160
207,290	-200,000	-0,004	-0,040
208,304	1,770	-0,095	-0,047
209,319	-78,677	-0,242	-0,057
210,334	240,764	-0,199	-0,231
211,348	98,299	-0,236	-0,189
212,363	163,632	-0,166	-0,162
213,377	-1,792	-0,173	-0,084
214,392	-6,850	-0,190	-0,089
215,407	178,557	-0,195	-0,198
216,421	607,432	-0,083	-0,144
217,436	800,000	-0,103	-0,207
218,450	1,687	-0,292	-0,146
219,465	226,692	-0,196	-0,221
220,480	55,910	-0,201	-0,135
221,494	-200,000	0,009	-0,118
222,509	-60,411	-0,206	-0,060
223,523	800,000	-0,080	-0,221
224,538	453,564	-0,146	-0,224
225,553	182,466	-0,194	-0,198
226,567	-71,134	-0,160	-0,041
227,582	286,234	-0,186	-0,233
228,596	790,417	-0,135	-0,258
229,611	-200,000	-0,052	-0,192
230,626	88,865	-0,263	-0,203
231,640	19,444	-0,191	-0,106
232,655	133,334	-0,146	-0,131
233,669	135,688	-0,201	-0,181
234,684	117,330	-0,184	-0,156
235,699	84,063	-0,184	-0,139
236,713	-4,023	-0,192	-0,092
237,728	209,237	-0,137	-0,148
238,742	37,413	-0,110	-0,067
239,757	65,823	-0,199	-0,140
240,772	234,569	-0,235	-0,269
241,786	-50,645	-0,275	-0,089
242,801	71,265	-0,177	-0,127
243,815	109,232	-0,242	-0,200
244,830	-113,489	-0,138	-0,018
245,844	69,625	-0,159	-0,114
246,859	146,687	-0,206	-0,192
247,874	414,480	-0,143	-0,212
248,888	-12,430	-0,199	-0,090
249,903	194,317	-0,271	-0,285
250,917	461,628	-0,166	-0,257
251,932	87,041	-0,238	-0,182
252,947	8,762	-0,236	-0,123
253,961	-94,978	-0,216	-0,040
254,976	-17,387	-0,208	-0,090
255,990	180,406	-0,214	-0,217
257,005	-200,000	-0,047	-0,153
258,020	-145,427	-0,255	-0,016
259,034	339,015	-0,143	-0,193
260,049	-200,000	-0,023	-0,183
261,063	723,055	-0,149	-0,276
262,078	255,509	-0,134	-0,159
263,093	266,628	-0,199	-0,242
264,107	385,729	-0,106	-0,152
265,122	10,922	-0,194	-0,102
266,136	800,000	-0,045	-0,128
267,151	240,021	-0,162	-0,187
268,166	40,960	-0,194	-0,121
269,180	538,725	-0,139	-0,230
270,195	297,542	-0,152	-0,194
271,209	69,698	-0,170	-0,121
272,224	184,819	-0,119	-0,122
273,239	756,040	-0,129	-0,242
274,253	81,183	-0,158	-0,118
275,268	-46,208	-0,172	-0,058
276,282	86,765	-0,224	-0,171
277,297	47,292	-0,226	-0,145
278,312	-6,550	-0,313	-0,147
279,326	480,280	-0,166	-0,261
280,341	11,176	-0,097	-0,051
281,355	-77,986	-0,168	-0,040
282,370	1,866	-0,122	-0,061
283,384	-154,818	-0,105	0,005
284,399	447,852	-0,105	-0,160
285,414	93,358	-0,144	-0,113
286,428	572,746	-0,118	-0,199
287,443	31,044	-0,155	-0,091
288,457	-171,511	-0,120	-0,003
289,472	550,350	-0,054	0,090
290,487	70,106	-0,190	-0,135
291,501	800,000	-0,118	-0,244
292,516	-200,000	-0,025	-0,168
293,530	148,238	-0,136	-0,126
294,545	125,548	-0,130	-0,113
295,560	800,000	-0,035	-0,072
296,574	800,000	-0,086	-0,195
297,589	-74,346	-0,090	-0,022
298,603	-46,796	-0,269	-0,090
299,618	-128,163	-0,321	-0,031
300,633	517,590	-0,091	-0,148
301,647	145,300	-0,143	-0,132
302,662	52,819	-0,196	-0,129
303,676	-200,000	-0,017	-0,130
304,691	163,615	-0,083	-0,081
305,706	665,257	-0,102	-0,182
306,720	-4,325	-0,239	-0,113
307,735	-200,000	-0,024	-0,099
308,749	-177,159	-0,341	-0,006
309,764	37,893	-0,139	-0,085
310,779	-147,897	-0,170	-0,010
311,793	-177,840	-0,041	-0,001
312,808	-174,303	-0,182	-0,004
313,822	-38,622	-0,104	-0,038
314,837	55,390	-0,131	-0,087
315,852	418,590	-0,101	-0,149
316,866	121,646	-0,138	-0,118
317,881	-20,939	-0,194	0,081
318,895	322,950	-0,154	-0,203
319,910	507,463	-0,103	-0,165
320,925	800,000	-0,043	-0,098
321,939	30,494	-0,157	-0,092
322,954	67,085	-0,132	-0,093
323,968	19,379	-0,266	-0,147
324,983	43,253	-0,165	-0,104
325,997	-86,754	-0,178	-0,037
327,012	92,883	-0,090	-0,070
328,027	-200,000	-0,023	-0,079
329,041	39,517	-0,136	-0,084
330,056	374,555	-0,041	-0,058
331,070	277,132	-0,044	-0,054
332,085	52,999	-0,178	-0,117
333,100	-9,269	-0,232	-0,106
334,114	-34,172	-0,180	-0,068
335,129	110,005	-0,249	-0,205
336,143	7,867	-0,246	-0,126
337,158	136,267	-0,117	-0,105
338,173	-65,628	-0,182	-0,050
339,187	39,132	-0,108	0,066
340,202	-105,095	-0,142	0,022
341,216	-192,589	-0,247	0,002
342,231	-125,798	-0,115	0,012
343,246	288,899	-0,137	-0,171
344,260	150,421	-0,106	-0,099
345,275	96,049	-0,066	-0,052
346,289	-200,000	-0,066	-0,209
347,304	396,990	-0,123	-0,176
348,319	100,639	-0,173	-0,138
349,333	800,000	-0,035	-0,072
350,348	109,842	-0,145	-0,119
351,362	27,208	-0,154	-0,089
352,377	286,627	-0,060	-0,074
353,392	-44,644	-0,210	-0,072
354,406	-76,625	-0,067	0,016
355,421	209,089	1314,673	1413,854
356,435	160,910	1475,389	1414,346
