DTS Sentinel unit serial number:	SN410029Multiplexer serial number:	ORYXHardware model number:	OX2-SRSoftware version number:	ORYX F/W v4,00 Oryx Data Collector v3.7.2.0data status	okinstallation	B3 Nyhavnadifferential loss correction	single-endedforward channel	channel 1reverse channel	N/Adate	2023/11/30time	21:52:30forward acquisition time	300,00reverse acquisition time	0,00gamma	499,1914k internal	0,3210k external	0,3210temperature offset calibration	1,0000default loss term (dB/km)	0,3820temperature slope calibration	1,0000multiplexer offset coefficient	1,0000multiplexer slope coefficient	1,0000fibre end	0,00T internal ref (°C)	10,37T ext. ref 1 (°C)	-5,02T ext. ref 2 (°C)	-5,16length (m)	temperature (°C)	Stokes	anti-Stokes-744,400	266,274	-0,171	-0,217
-743,385	-200,000	-0,038	0,381
-742,371	-200,000	-0,050	-0,245
-741,356	800,000	-0,104	0,302
-740,342	800,000	-0,094	-0,213
-739,327	-200,000	0,040	0,350
-738,312	22,397	-0,258	-0,152
-737,298	-200,000	-0,077	0,261
-736,283	-29,564	-0,244	-0,101
-735,269	-200,000	-0,044	0,280
-734,254	75,108	-0,117	-0,089
-733,239	-91,701	-0,333	0,068
-732,225	264,077	-0,150	-0,189
-731,210	-83,795	0,213	-0,049
-730,196	223,241	-0,085	-0,100
-729,181	-200,000	0,014	-0,081
-728,167	295,530	0,098	-0,130
-727,152	721,074	-0,119	-0,231
-726,137	71,117	-0,099	-0,075
-725,123	282,448	-0,077	-0,101
-724,108	-160,058	-0,185	-0,007
-723,094	723,517	-0,040	-0,078
-722,079	258,115	-0,103	-0,129
-721,064	800,000	-0,067	-0,198
-720,050	-145,017	-0,055	-0,004
-719,035	102,465	-0,076	-0,064
-718,021	774,372	0,017	0,034
-717,006	-188,462	-0,139	-0,001
-715,991	-50,971	-0,090	-0,030
-714,977	347,277	0,044	-0,063
-713,962	75,098	-0,081	0,061
-712,948	774,413	0,088	0,174
-711,933	-200,000	-0,098	0,000
-710,918	-200,000	0,058	0,000
-709,904	-46,028	-0,080	-0,028
-708,889	-126,672	-0,109	-0,012
-707,875	203,635	-0,031	-0,034
-706,860	-200,000	0,010	0,045
-705,845	-200,000	-0,008	-0,068
-704,831	136,102	0,026	-0,024
-703,816	128,314	-0,077	0,071
-702,802	800,000	0,026	-0,055
-701,787	1,874	-0,047	0,024
-700,772	162,602	0,037	-0,038
-699,758	594,226	-0,091	-0,164
-698,743	800,000	-0,034	0,089
-697,729	22,408	-0,118	-0,070
-696,714	0,626	0,044	-0,023
-695,699	-126,273	-0,084	-0,009
-694,685	800,000	-0,043	-0,105
-693,670	-200,000	0,004	-0,018
-692,656	148,905	-0,095	-0,093
-691,641	218,512	0,064	-0,074
-690,627	93,843	-0,064	0,053
-689,612	-200,000	0,003	-0,113
-688,597	-96,648	-0,185	0,035
-687,583	179,492	-0,108	-0,115
-686,568	143,097	-0,211	-0,203
-685,554	76,265	-0,083	0,064
-684,539	-36,343	-0,046	-0,018
-683,524	-200,000	-0,019	-0,097
-682,510	-200,000	0,001	-0,092
-681,495	537,845	-0,068	0,117
-680,481	800,000	-0,050	-0,103
-679,466	800,000	0,019	-0,051
-678,451	-200,000	-0,015	-0,110
-677,437	800,000	0,014	-0,037
-676,422	487,117	0,030	0,049
-675,408	361,425	-0,046	-0,067
-674,393	800,000	-0,042	-0,099
-673,378	26,195	-0,174	0,105
-672,364	118,217	-0,145	0,129
-671,349	257,068	0,050	-0,062
-670,335	40,623	0,031	0,020
-669,320	-68,781	-0,080	0,022
-668,305	-133,841	-0,014	-0,001
-667,291	220,304	0,028	0,032
-666,276	45,542	-0,072	-0,048
-665,262	-200,000	0,008	-0,034
-664,247	736,863	0,065	-0,127
-663,232	-139,658	0,181	-0,014
-662,218	180,189	-0,098	-0,104
-661,203	800,000	0,017	-0,049
-660,189	229,268	0,084	-0,099
-659,174	800,000	-0,009	-0,021
-658,159	-32,127	0,052	-0,021
-657,145	-200,000	-0,014	-0,106
-656,130	36,217	-0,069	-0,044
-655,116	232,272	-0,014	0,017
-654,101	-200,000	-0,030	0,110
-653,086	24,954	-0,074	0,044
-652,072	-6,313	-0,068	-0,034
-651,057	6,297	0,023	-0,013
-650,043	401,042	-0,082	0,125
-649,028	-200,000	-0,008	-0,032
-648,014	416,070	0,106	0,164
-646,999	354,011	-0,046	0,066
-645,984	60,097	0,111	-0,079
-644,970	-31,098	-0,058	-0,024
-643,955	27,481	-0,139	-0,084
-642,941	187,611	-0,002	-0,003
-641,926	54,048	-0,100	0,069
-640,911	263,719	0,089	0,113
-639,897	-82,760	-0,038	0,009
-638,882	-57,567	-0,148	0,047
-637,868	174,342	0,127	0,133
-636,853	274,141	-0,023	-0,029
-635,838	-109,700	0,164	0,025
-634,824	352,837	-0,038	0,055
-633,809	800,000	-0,013	-0,035
-632,795	-45,003	0,114	0,041
-631,780	195,498	0,067	0,073
-630,765	87,542	0,062	0,049
-629,751	25,037	-0,046	-0,028
-628,736	-23,628	-0,148	-0,064
-627,722	-111,887	0,092	0,013
-626,707	-177,050	-0,063	-0,001
-625,692	531,681	-0,057	-0,098
-624,678	734,760	0,038	0,074
-623,663	9,539	0,115	0,062
-622,649	800,000	-0,033	-0,084
-621,634	288,584	-0,019	-0,025
-620,619	-200,000	-0,004	-0,134
-619,605	33,947	-0,049	0,031
-618,590	-59,924	-0,083	0,025
-617,576	-106,087	-0,076	-0,012
-616,561	-93,289	-0,111	-0,022
-615,546	247,711	-0,035	-0,043
-614,532	-200,000	-0,014	-0,066
-613,517	-112,427	0,118	-0,017
-612,503	-200,000	0,017	-0,131
-611,488	-95,862	-0,077	0,015
-610,474	-16,030	-0,100	-0,045
-609,459	-7,753	0,057	0,028
-608,444	274,907	0,065	-0,083
-607,430	800,000	-0,051	-0,106
-606,415	-200,000	-0,020	-0,065
-605,401	554,172	-0,056	-0,097
-604,386	15,642	0,083	-0,047
-603,371	800,000	0,034	-0,077
-602,357	-141,409	-0,180	0,013
-601,342	800,000	-0,024	-0,069
-600,328	44,137	-0,041	-0,027
-599,313	465,420	0,090	-0,145
-598,298	181,247	-0,035	0,038
-597,284	116,485	-0,051	0,045
-596,269	-200,000	-0,009	0,078
-595,255	-39,761	-0,030	0,011
-594,240	-142,771	0,044	-0,003
-593,225	412,921	0,042	-0,064
-592,211	-62,720	0,087	-0,026
-591,196	583,091	-0,018	-0,032
-590,182	-200,000	0,006	-0,051
-589,167	-14,487	0,110	0,051
-588,152	-68,630	-0,084	-0,023
-587,138	694,308	0,049	0,093
-586,123	800,000	-0,071	-0,156
-585,109	-200,000	0,001	-0,059
-584,094	-88,573	-0,171	0,036
-583,079	33,831	0,132	0,082
-582,065	800,000	-0,039	0,079
-581,050	92,753	0,051	0,042
-580,036	-38,881	0,177	-0,067
-579,021	213,984	-0,083	0,095
-578,006	125,926	-0,061	-0,055
-576,992	800,000	0,054	-0,122
-575,977	-200,000	-0,038	0,173
-574,963	-200,000	-0,008	-0,096
-573,948	196,299	-0,051	-0,056
-572,934	-7,073	-0,039	0,019
-571,919	800,000	-0,055	-0,124
-570,904	-200,000	-0,002	0,015
-569,890	-116,820	-0,021	-0,003
-568,875	100,549	0,070	0,059
-567,861	138,827	-0,115	0,109
-566,846	223,515	-0,072	-0,084
-565,831	-133,448	-0,032	0,003
-564,817	170,811	-0,104	-0,107
-563,802	-85,705	-0,134	0,030
-562,788	320,285	-0,055	0,076
-561,773	-19,610	-0,041	-0,018
-560,758	8,027	0,134	-0,072
-559,744	-200,000	-0,017	-0,114
-558,729	-200,000	0,008	-0,049
-557,715	-200,000	0,008	-0,051
-556,700	-200,000	0,008	0,142
-555,685	-31,513	0,130	0,052
-554,671	800,000	-0,043	0,113
-553,656	212,399	-0,067	-0,076
-552,642	800,000	0,031	0,087
-551,627	-99,456	0,063	-0,011
-550,612	-87,986	0,036	-0,008
-549,598	-69,807	0,031	-0,009
-548,583	-98,248	-0,027	-0,005
-547,569	-143,237	0,150	0,010
-546,554	-145,215	0,038	-0,002
-545,539	-99,057	0,073	0,013
-544,525	-90,549	-0,017	0,003
-543,510	127,471	-0,066	-0,060
-542,496	-51,210	-0,068	-0,023
-541,481	-68,879	0,024	-0,007
-540,466	-47,852	0,200	-0,069
-539,452	1,106	0,019	-0,010
-538,437	258,444	0,086	-0,107
-537,423	-14,682	-0,107	-0,049
-536,408	-82,004	-0,127	-0,030
-535,393	258,904	-0,133	-0,166
-534,379	56,039	-0,112	-0,078
-533,364	800,000	-0,017	-0,047
-532,350	39,164	-0,028	-0,018
-531,335	-200,000	0,005	-0,089
-530,321	-80,965	-0,028	-0,007
-529,306	-200,000	-0,008	-0,184
-528,291	-200,000	0,001	0,072
-527,277	-200,000	-0,015	-0,084
-526,262	430,393	-0,052	0,082
-525,248	-91,479	0,106	-0,022
-524,233	800,000	0,027	0,071
-523,218	-200,000	-0,016	-0,088
-522,204	9,395	-0,085	-0,046
-521,189	-2,256	-0,095	0,048
-520,175	-200,000	0,041	-0,142
-519,160	-200,000	-0,014	-0,066
-518,145	278,986	-0,043	-0,056
-517,131	674,049	0,093	0,175
-516,116	14,633	-0,052	0,029
-515,102	128,665	0,054	0,049
-514,087	550,899	0,062	0,107
-513,072	-89,694	-0,156	-0,033
-512,058	-200,000	0,008	-0,072
-511,043	340,048	-0,014	0,020
-510,029	-200,000	-0,015	0,143
-509,014	44,884	0,021	0,014
-507,999	-200,000	0,004	-0,049
-506,985	148,115	0,076	-0,074
-505,970	-87,087	-0,118	-0,026
-504,956	101,996	-0,047	0,040
-503,941	425,617	0,040	0,062
-502,926	-200,000	-0,003	-0,019
-501,912	-93,732	0,053	-0,010
-500,897	-109,406	0,074	-0,011
-499,883	800,000	-0,052	-0,122
-498,868	212,163	-0,065	-0,074
-497,853	-87,080	0,177	-0,038
-496,839	12,704	-0,103	-0,057
-495,824	-200,000	-0,032	0,193
-494,810	-139,942	-0,039	0,003
-493,795	-150,763	0,137	-0,007
-492,781	-200,000	-0,012	-0,062
-491,766	223,429	-0,025	-0,029
-490,751	92,251	-0,088	-0,071
-489,737	595,055	-0,011	-0,019
-488,722	-200,000	-0,041	0,135
-487,708	-123,870	-0,020	-0,002
-486,693	-57,200	-0,054	-0,017
-485,678	15,691	-0,020	-0,011
-484,664	-200,000	0,022	-0,141
-483,649	72,043	-0,036	0,027
-482,635	800,000	0,026	-0,075
-481,620	201,097	0,122	0,135
-480,605	-33,845	0,127	-0,050
-479,591	349,470	-0,126	-0,179
-478,576	503,504	0,015	0,025
-477,562	800,000	0,051	-0,113
-476,547	-142,563	-0,028	-0,002
-475,532	247,197	0,071	-0,086
-474,518	608,241	0,050	0,091
-473,503	517,394	0,036	0,061
-472,489	-24,547	0,119	-0,051
-471,474	800,000	0,041	-0,099
-470,459	-39,254	-0,129	0,048
-469,445	119,056	-0,116	0,103
-468,430	561,445	0,007	-0,012
-467,416	-31,544	-0,260	-0,104
-466,401	83,789	0,115	0,090
-465,386	277,756	-0,126	0,162
-464,372	-200,000	0,006	0,080
-463,357	800,000	-0,023	-0,060
-462,343	24,666	-0,094	-0,056
-461,328	-200,000	0,028	-0,157
-460,313	30,518	0,083	-0,051
-459,299	172,469	-0,071	-0,074
-458,284	-125,800	0,047	-0,005
-457,270	234,935	-0,029	-0,034
-456,255	81,566	0,100	-0,078
-455,241	-4,264	0,062	0,031
-454,226	-200,000	-0,035	0,136
-453,211	38,005	0,089	0,057
-452,197	-29,694	0,061	0,025
-451,182	116,192	0,044	0,039
-450,168	-200,000	0,058	0,204
-449,153	-61,619	-0,075	-0,022
-448,138	-96,648	0,002	-0,000
-447,124	45,123	0,016	-0,010
-446,109	47,962	-0,029	-0,019
-445,095	-200,000	-0,015	-0,179
-444,080	-200,000	0,008	0,036
-443,065	800,000	-0,012	-0,037
-442,051	-200,000	0,016	0,064
-441,036	-42,545	-0,065	-0,024
-440,022	-200,000	-0,031	0,120
-439,007	800,000	-0,074	0,166
-437,992	18,099	-0,104	-0,059
-436,978	-200,000	0,003	-0,095
-435,963	800,000	0,053	-0,107
-434,949	-49,037	-0,016	-0,005
-433,934	60,248	-0,035	0,025
-432,919	37,121	-0,137	0,087
-431,905	800,000	-0,036	-0,089
-430,890	-200,000	0,013	0,162
-429,876	-200,000	0,027	0,126
-428,861	-120,029	-0,053	-0,006
-427,846	-200,000	0,004	0,107
-426,832	-82,451	0,140	-0,032
-425,817	-200,000	-0,035	-0,119
-424,803	-84,417	-0,062	0,014
-423,788	-55,545	0,131	0,042
-422,773	769,170	0,022	0,043
-421,759	8,658	0,081	0,044
-420,744	-29,309	-0,075	0,031
-419,730	155,227	0,013	0,013
-418,715	59,482	-0,038	0,027
-417,701	800,000	-0,014	-0,036
-416,686	800,000	0,033	0,069
-415,671	687,635	0,068	0,128
-414,657	253,422	0,026	-0,032
-413,642	-36,409	0,068	0,026
-412,628	152,764	0,063	-0,062
-411,613	-200,000	-0,008	-0,059
-410,598	-68,114	-0,053	0,015
-409,584	20,406	0,103	-0,059
-408,569	191,186	0,154	0,166
-407,555	-45,050	0,043	0,015
-406,540	15,145	-0,115	-0,065
-405,525	13,432	-0,071	-0,040
-404,511	182,849	-0,122	-0,129
-403,496	-200,000	-0,021	0,110
-402,482	-51,723	0,111	0,037
-401,467	113,357	-0,088	0,077
-400,452	577,308	0,084	0,148
-399,438	247,135	0,061	-0,074
-398,423	-200,000	0,001	0,034
-397,409	800,000	0,036	-0,089
-396,394	-200,000	0,003	-0,058
-395,379	21,313	-0,203	0,118
-394,365	308,354	0,066	0,089
-393,350	-21,491	0,159	0,069
-392,336	-200,000	0,007	-0,087
-391,321	16,220	-0,075	-0,042
-390,306	800,000	-0,044	-0,106
-389,292	800,000	0,009	-0,023
-388,277	-123,214	-0,094	0,011
-387,263	-87,751	0,145	-0,031
-386,248	-162,814	-0,115	-0,004
-385,233	-70,683	0,063	-0,017
-384,219	-200,000	-0,022	0,132
-383,204	632,391	0,039	-0,071
-382,190	-17,301	-0,116	0,052
-381,175	634,729	0,051	0,093
-380,160	-88,395	0,101	0,021
-379,146	-200,000	0,000	0,019
-378,131	-200,000	-0,027	0,087
-377,117	40,113	0,074	-0,048
-376,102	461,561	-0,131	-0,210
-375,088	227,547	0,034	0,040
-374,073	800,000	-0,064	-0,163
-373,058	395,649	0,027	0,041
-372,044	-164,116	0,169	0,005
-371,029	-25,152	0,061	0,026
-370,015	-200,000	-0,022	0,094
-369,000	-200,000	-0,012	-0,071
-367,985	-85,640	-0,071	0,016
-366,971	136,187	-0,144	0,135
-365,956	61,287	0,073	0,052
-364,942	800,000	0,047	0,106
-363,927	25,076	-0,171	0,101
-362,912	-88,859	0,236	0,050
-361,898	68,523	0,020	-0,015
-360,883	-108,172	0,100	-0,015
-359,869	800,000	-0,024	-0,068
-358,854	800,000	0,061	0,179
-357,839	309,459	0,051	0,068
-356,825	319,977	0,051	0,070
-355,810	-8,904	-0,089	-0,042
-354,796	-93,530	0,104	-0,020
-353,781	800,000	-0,019	-0,046
-352,766	100,337	0,014	-0,012
-351,752	236,067	-0,092	0,109
-350,737	472,571	0,086	0,139
-349,723	-43,595	0,119	0,043
-348,708	-70,404	0,101	0,027
-347,693	-6,660	0,070	0,034
-346,679	543,754	-0,029	0,049
-345,664	800,000	-0,033	0,079
-344,650	-69,480	-0,164	0,045
-343,635	-146,499	0,256	-0,016
-342,620	-85,940	0,074	0,016
-341,606	289,975	0,020	0,026
-340,591	60,664	-0,170	0,120
-339,577	-77,689	0,049	0,012
-338,562	54,751	-0,150	-0,103
-337,548	-99,008	0,076	0,014
-336,533	800,000	-0,006	0,016
-335,518	6,745	0,153	0,081
-334,504	-5,189	-0,025	0,012
-333,489	59,406	0,015	0,011
-332,475	-174,068	-0,033	-0,001
-331,460	155,533	0,038	0,037
-330,445	-43,328	-0,143	-0,051
-329,431	-3,290	0,074	0,037
-328,416	-200,000	0,000	-0,049
-327,402	108,889	-0,004	0,004
-326,387	-23,081	-0,021	-0,009
-325,372	-200,000	-0,029	-0,102
-324,358	-93,924	-0,113	-0,022
-323,343	-200,000	-0,018	0,077
-322,329	-93,152	0,084	0,017
-321,314	800,000	-0,026	0,075
-320,299	-200,000	-0,014	0,105
-319,285	132,950	0,122	-0,113
-318,270	-82,263	-0,190	0,044
-317,256	-50,655	-0,028	0,009
-316,241	-69,592	0,210	0,057
-315,226	-43,437	-0,120	0,043
-314,212	-146,319	0,176	-0,011
-313,197	106,279	-0,060	0,051
-312,183	-16,848	0,052	0,023
-311,168	800,000	-0,050	0,115
-310,153	-112,765	-0,102	0,014
-309,139	800,000	-0,012	-0,025
-308,124	-200,000	-0,006	-0,025
-307,110	-64,963	0,087	0,025
-306,095	-72,219	0,068	0,018
-305,080	800,000	-0,004	0,010
-304,066	-59,573	0,019	0,006
-303,051	-200,000	0,007	-0,087
-302,037	-73,284	-0,070	0,018
-301,022	800,000	-0,052	0,141
-300,008	108,380	0,177	0,150
-298,993	333,337	0,036	-0,049
-297,978	-193,280	-0,031	0,000
-296,964	199,178	0,098	-0,107
-295,949	145,704	-0,134	-0,128
-294,935	-200,000	0,003	0,024
-293,920	-88,072	0,045	0,010
-292,905	-164,372	0,072	-0,002
-291,891	-96,497	0,164	0,031
-290,876	128,824	0,041	0,037
-289,862	-200,000	0,008	0,034
-288,847	-56,697	-0,068	-0,021
-287,832	42,462	0,081	0,053
-286,818	209,685	-0,055	-0,062
-285,803	109,626	-0,100	0,085
-284,789	7,568	0,089	0,047
-283,774	800,000	0,040	0,084
-282,759	-126,880	-0,052	-0,005
-281,745	255,162	-0,012	-0,015
-280,730	792,310	0,064	-0,126
-279,716	-200,000	-0,008	-0,123
-278,701	31,628	0,067	0,041
-277,686	51,921	0,041	-0,028
-276,672	-200,000	-0,009	0,159
-275,657	800,000	0,043	0,110
-274,643	-200,000	-0,010	-0,049
-273,628	-200,000	-0,027	-0,132
-272,613	410,214	-0,061	-0,092
-271,599	-12,654	0,085	0,039
-270,584	186,052	0,099	0,105
-269,570	520,420	-0,025	0,043
-268,555	-11,957	-0,081	-0,038
-267,540	140,970	0,065	-0,061
-266,526	152,809	-0,042	-0,041
-265,511	-82,668	-0,096	-0,022
-264,497	800,000	0,007	-0,021
-263,482	800,000	-0,024	0,065
-262,467	340,706	-0,050	0,070
-261,453	23,450	0,123	0,072
-260,438	800,000	-0,033	-0,090
-259,424	-200,000	-0,024	-0,090
-258,409	-37,143	-0,108	0,041
-257,395	-68,637	0,128	-0,035
-256,380	114,033	0,035	-0,031
-255,365	-92,527	0,089	0,018
-254,351	-200,000	-0,009	0,053
-253,336	-41,590	0,110	-0,040
-252,322	800,000	0,034	-0,095
-251,307	315,174	-0,034	-0,045
-250,292	800,000	0,010	0,022
-249,278	783,908	0,053	0,103
-248,263	-200,000	0,009	-0,062
-247,249	-200,000	-0,006	0,024
-246,234	-200,000	0,010	-0,114
-245,219	354,354	-0,044	-0,062
-244,205	-68,950	-0,033	0,009
-243,190	800,000	-0,027	-0,082
-242,176	5,192	-0,104	-0,054
-241,161	764,214	0,049	0,096
-240,146	-84,704	0,059	0,013
-239,132	800,000	0,017	0,050
-238,117	800,000	-0,013	-0,026
-237,103	-200,000	-0,002	-0,184
-236,088	-200,000	-0,025	-0,091
-235,073	27,830	0,035	0,021
-234,059	-200,000	0,025	0,173
-233,044	32,467	0,024	0,015
-232,030	-200,000	0,007	-0,093
-231,015	-200,000	-0,004	-0,091
-230,000	-17,004	-0,102	0,046
-228,986	800,000	0,072	-0,145
-227,971	633,707	-0,042	-0,076
-226,957	800,000	-0,042	0,116
-225,942	304,388	0,045	0,059
-224,927	66,176	-0,121	0,087
-223,913	800,000	0,007	0,019
-222,898	514,835	-0,025	-0,042
-221,884	800,000	-0,009	-0,017
-220,869	-200,000	0,034	0,135
-219,855	82,649	-0,181	0,140
-218,840	767,113	0,048	0,094
-217,825	97,599	-0,043	0,035
-216,811	-200,000	-0,062	-0,206
-215,796	305,620	-0,023	0,031
-214,782	383,048	-0,056	0,082
-213,767	-17,527	-0,092	0,041
-212,752	-167,832	0,139	-0,004
-211,738	54,244	0,116	-0,080
-210,723	68,376	0,133	-0,096
-209,709	255,070	0,031	-0,038
-208,694	14,575	-0,120	-0,066
-207,679	-200,000	0,026	-0,114
-206,665	669,547	0,053	-0,097
-205,650	129,783	0,063	0,058
-204,636	92,671	-0,149	0,119
-203,621	114,455	-0,040	-0,035
-202,606	97,443	-0,030	-0,024
-201,592	22,194	-0,113	0,065
-200,577	800,000	-0,027	-0,068
-199,563	31,907	0,044	-0,027
-198,548	-112,087	-0,047	-0,007
-197,533	369,537	-0,042	-0,060
-196,519	481,358	0,012	0,020
-195,504	290,643	0,032	0,042
-194,490	800,000	0,037	-0,093
-193,475	-172,652	0,147	0,003
-192,460	-169,122	0,043	-0,001
-191,446	45,223	-0,100	-0,065
-190,431	204,194	-0,005	-0,006
-189,417	233,863	0,095	-0,111
-188,402	-81,352	-0,123	0,029
-187,387	-200,000	0,020	-0,067
-186,373	-58,316	-0,109	0,033
-185,358	64,077	0,033	0,023
-184,344	-27,339	-0,045	-0,018
-183,329	61,656	0,041	0,029
-182,315	-46,451	-0,075	-0,026
-181,300	299,107	0,047	-0,061
-180,285	-200,000	0,005	-0,056
-179,271	670,756	-0,027	0,050
-178,256	-131,483	-0,103	-0,010
-177,242	-200,000	-0,013	-0,077
-176,227	-38,163	-0,030	-0,011
-175,212	373,075	0,079	0,114
-174,198	-134,021	-0,147	-0,013
-173,183	42,087	-0,144	0,093
-172,169	-200,000	0,000	0,067
-171,154	-200,000	0,012	0,048
-170,139	-48,118	0,102	0,035
-169,125	45,922	0,124	-0,081
-168,110	-4,870	0,054	-0,026
-167,096	170,094	0,051	0,052
-166,081	-200,000	0,035	0,125
-165,066	-200,000	0,002	-0,069
-164,052	164,802	0,023	0,023
-163,037	800,000	-0,026	0,068
-162,023	130,748	-0,056	0,051
-161,008	129,897	-0,093	-0,085
-159,993	72,400	0,072	0,053
-158,979	228,631	-0,032	0,037
-157,964	55,756	0,034	0,023
-156,950	-184,040	-0,078	-0,001
-155,935	498,246	0,041	-0,068
-154,920	800,000	0,032	0,082
-153,906	-39,467	-0,069	0,026
-152,891	-52,732	0,131	0,043
-151,877	95,460	-0,063	0,051
-150,862	-134,572	0,040	0,003
-149,847	221,681	-0,068	-0,078
-148,833	42,482	-0,057	0,037
-147,818	-68,326	0,131	0,036
-146,804	-200,000	-0,033	0,117
-145,789	-18,214	0,013	0,006
-144,775	101,119	-0,106	-0,087
-143,760	89,949	0,052	-0,041
-142,745	-200,000	0,017	-0,084
-141,731	-93,074	0,106	0,021
-140,716	271,163	0,135	0,169
-139,702	329,366	-0,044	-0,060
-138,687	-36,136	0,038	-0,015
-137,672	171,647	-0,103	0,105
-136,658	-39,107	-0,106	0,039
-135,643	-200,000	-0,029	0,140
-134,629	168,524	0,031	-0,031
-133,614	-200,000	-0,011	-0,164
-132,599	-200,000	0,014	0,051
-131,585	70,461	-0,139	0,101
-130,570	-200,000	0,008	-0,029
-129,556	140,209	-0,053	-0,050
-128,541	772,669	0,046	-0,089
-127,526	297,241	0,054	0,070
-126,512	-69,468	0,065	-0,017
-125,497	-178,695	0,162	0,003
-124,483	-200,000	-0,023	0,100
-123,468	-200,000	-0,003	0,044
-122,453	125,494	0,096	-0,086
-121,439	159,931	-0,040	0,039
-120,424	155,770	0,028	-0,027
-119,410	-98,259	0,080	0,014
-118,395	800,000	-0,036	-0,085
-117,380	800,000	-0,039	-0,104
-116,366	323,406	0,074	0,100
-115,351	672,336	-0,072	0,133
-114,337	-200,000	-0,017	-0,153
-113,322	-200,000	-0,007	0,075
-112,307	-200,000	-0,041	0,134
-111,293	652,620	-0,002	-0,004
-110,278	-57,389	0,053	-0,016
-109,264	800,000	-0,015	0,038
-108,249	-49,116	-0,050	-0,017
-107,234	-200,000	0,003	-0,116
-106,220	11,649	0,022	0,012
-105,205	119,172	-0,012	0,010
-104,191	-97,820	0,070	-0,013
-103,176	56,723	-0,051	-0,035
-102,162	153,083	0,041	-0,040
-101,147	800,000	0,034	-0,078
-100,132	-200,000	0,009	-0,061
-99,118	600,245	-0,021	0,036
-98,103	-200,000	0,014	-0,128
-97,089	-200,000	-0,025	0,088
-96,074	-200,000	-0,008	0,094
-95,059	-41,774	-0,012	-0,004
-94,045	-200,000	-0,023	-0,103
-93,030	-152,716	0,011	-0,001
-92,016	215,224	0,023	-0,026
-91,001	800,000	-0,023	-0,073
-89,986	-200,000	0,013	-0,091
-88,972	-133,735	-0,064	-0,006
-87,957	-159,051	0,053	-0,002
-86,943	-200,000	-0,017	-0,073
-85,928	-17,607	-0,125	-0,055
-84,913	83,446	-0,054	-0,042
-83,899	-200,000	-0,019	-0,064
-82,884	-200,000	0,025	0,090
-81,870	-32,567	0,075	0,030
-80,855	800,000	0,062	0,155
-79,840	-200,000	0,004	-0,084
-78,826	-15,683	-0,071	-0,032
-77,811	-200,000	-0,013	0,090
-76,797	-2,650	0,015	0,007
-75,782	-118,828	0,019	-0,002
-74,767	-92,703	0,182	-0,036
-73,753	-80,159	0,044	0,010
-72,738	800,000	0,053	-0,128
-71,724	-126,945	-0,047	0,005
-70,709	-72,575	-0,101	-0,026
-69,694	-200,000	0,025	0,103
-68,680	55,366	-0,123	0,084
-67,665	13,827	0,135	0,074
-66,651	-101,829	0,083	0,014
-65,636	528,749	-0,056	-0,094
-64,622	800,000	0,030	-0,091
-63,607	800,000	-0,032	-0,078
-62,592	30,500	-0,155	-0,094
-61,578	-72,347	0,107	-0,028
-60,563	334,240	-0,035	0,048
-59,549	244,402	-0,112	0,134
-58,534	42,030	-2,041	-1,306
-57,519	411,962	-1,384	-2,082
-56,505	-200,000	-0,400	-4,498
-55,490	413,781	0,907	1,366
-54,476	800,000	5,230	11,736
-53,461	-200,000	21,102	341,802
-52,446	800,000	759,894	2359,466
-51,432	558,913	1663,997	2846,445
-50,417	73,808	1664,129	1230,336
-49,403	18,221	1537,801	864,000
-48,388	12,248	1460,914	791,860
-47,373	19,525	1452,131	822,053
-46,359	15,663	1441,380	797,533
-45,344	10,485	1437,116	770,448
-44,330	10,419	1435,201	769,074
-43,315	10,438	1433,144	768,029
-42,300	10,430	1431,709	767,192
-41,286	10,436	1430,299	766,435
-40,271	10,377	1429,177	765,523
-39,257	10,402	1428,070	765,020
-38,242	10,448	1427,070	764,672
-37,227	10,437	1425,784	763,901
-36,213	10,452	1424,514	763,261
-35,198	10,444	1423,344	762,566
-34,184	10,494	1422,494	762,318
-33,169	10,461	1420,978	761,317
-32,154	10,504	1419,973	760,954
-31,140	10,484	1418,597	760,088
-30,125	10,468	1417,803	759,557
-29,111	10,440	1416,804	758,862
-28,096	10,440	1415,504	758,136
-27,082	10,419	1414,096	757,252
-26,067	10,387	1413,207	756,597
-25,052	10,424	1412,095	756,145
-24,038	10,400	1411,064	755,452
-23,023	10,432	1410,137	755,074
-22,009	10,414	1409,111	754,412
-20,994	10,442	1407,901	753,862
-19,979	10,392	1407,298	753,277
-18,965	10,350	1406,523	752,636
-17,950	10,330	1405,415	751,921
-16,936	10,342	1404,724	751,575
-15,921	10,265	1403,693	750,634
-14,906	10,345	1402,690	750,442
-13,892	10,353	1401,780	749,960
-12,877	10,294	1400,891	749,181
-11,863	10,296	1400,112	748,747
-10,848	10,295	1399,372	748,317
-9,833	10,275	1398,110	747,520
-8,819	10,201	1397,471	746,805
-7,804	10,202	1396,618	746,320
-6,790	10,227	1395,530	745,827
-5,775	10,232	1394,548	745,294
-4,760	10,234	1393,404	744,664
-3,746	10,234	1392,509	744,156
-2,731	10,231	1391,613	743,632
-1,717	10,208	1390,923	743,128
-0,702	10,196	1389,129	742,088
0,313	14,138	1301,527	713,379
1,327	30,178	691,194	415,273
2,342	46,872	119,647	78,321
3,356	1,489	16,547	8,370
4,371	12,876	3,589	1,951
5,386	-17,211	1,106	0,490
6,400	800,000	0,183	0,555
7,415	-70,150	-0,155	-0,041
8,429	-1,902	-0,372	-0,184
9,444	95,891	-0,205	-0,165
10,459	77,660	-0,273	-0,205
11,473	215,988	-0,207	-0,232
12,488	135,580	-0,258	-0,236
13,502	136,988	-0,252	-0,232
14,517	168,057	-0,220	-0,221
15,531	186,445	-0,295	-0,310
16,546	205,837	-0,356	-0,390
17,561	163,386	-0,316	-0,313
18,575	135,354	-0,128	-0,117
19,590	210,888	-0,233	-0,258
20,604	324,558	-0,127	-0,171
21,619	39,744	-0,432	-0,273
22,634	91,883	-0,511	-0,405
23,648	250,966	-0,216	-0,259
24,663	55,040	-0,361	-0,245
25,677	289,088	-0,238	-0,304
26,692	59,091	-0,315	-0,218
27,707	65,783	-0,359	-0,256
28,721	50,427	-0,411	-0,273
29,736	-19,184	-0,321	-0,140
30,750	-58,859	-0,418	-0,126
31,765	-20,333	-0,393	-0,170
32,780	101,801	-0,405	-0,332
33,794	224,623	-0,256	-0,291
34,809	37,506	-0,416	-0,259
35,823	286,876	-0,315	-0,401
36,838	40,436	-0,390	-0,247
37,853	165,116	-0,344	-0,342
38,867	256,493	-0,358	-0,434
39,882	147,614	-0,318	-0,302
40,896	304,614	-0,162	-0,212
41,911	63,233	-0,240	-0,169
42,926	19,537	-0,436	-0,246
43,940	36,679	-0,377	-0,233
44,955	167,107	-0,349	-0,348
45,969	457,097	-0,203	-0,319
46,984	-18,872	-0,373	-0,163
47,999	46,399	-0,279	-0,182
49,013	-43,969	-0,402	-0,141
50,028	35,873	-0,467	-0,288
51,042	74,948	-0,346	-0,256
52,057	92,570	-0,286	-0,226
53,071	14,786	-0,416	-0,228
54,086	16,603	-0,380	-0,210
55,101	38,946	-0,306	-0,191
56,115	-19,392	-0,292	-0,126
57,130	7,273	-0,339	-0,177
58,144	138,568	-0,352	-0,324
59,159	32,279	-0,290	-0,176
60,174	91,466	-0,357	-0,281
61,188	103,141	-0,346	-0,284
62,203	203,859	-0,357	-0,389
63,217	683,769	-0,236	-0,433
64,232	-20,467	-0,400	-0,172
65,247	36,082	-0,372	-0,229
66,261	79,141	-0,340	-0,256
67,276	140,294	-0,248	-0,230
68,290	39,843	-0,306	-0,192
69,305	24,270	-0,225	-0,130
70,320	-48,392	-0,304	-0,102
71,334	37,968	-0,273	-0,170
72,349	3,128	-0,393	-0,200
73,363	59,903	-0,305	-0,211
74,378	80,781	-0,378	-0,286
75,393	17,401	-0,340	-0,189
76,407	141,123	-0,234	-0,217
77,422	-121,134	-0,502	-0,058
78,436	43,933	-0,325	-0,208
79,451	144,738	-0,230	-0,215
80,466	72,867	-0,396	-0,290
81,480	28,728	-0,341	-0,202
82,495	-102,023	-0,257	-0,043
83,509	101,971	-0,194	-0,159
84,524	77,814	-0,210	-0,157
85,539	31,340	-0,330	-0,198
86,553	-74,891	-0,268	-0,067
87,568	39,194	-0,323	-0,202
88,582	78,451	-0,188	-0,140
89,597	-91,864	-0,298	-0,059
90,611	-27,822	-0,310	-0,125
91,626	-66,335	-0,331	-0,091
92,641	0,743	-0,290	-0,145
93,655	93,740	-0,336	-0,267
94,670	51,412	-0,284	-0,189
95,684	54,261	-0,266	-0,179
96,699	-81,687	-0,346	-0,079
97,714	-36,026	-0,227	-0,085
98,728	36,533	-0,202	-0,125
99,743	333,755	-0,200	-0,271
100,757	66,005	-0,250	-0,177
101,772	-20,552	-0,249	-0,106
102,787	33,700	-0,285	-0,173
103,801	194,277	-0,283	-0,301
104,816	183,888	-0,249	-0,258
105,830	-39,294	-0,281	-0,103
106,845	53,075	-0,200	-0,134
107,860	29,221	-0,310	-0,184
108,874	-27,011	-0,309	-0,125
109,889	28,325	-0,308	-0,182
110,903	-43,187	-0,408	-0,144
111,918	-15,632	-0,293	-0,130
112,933	91,892	-0,167	-0,131
113,947	-87,159	-0,152	-0,032
114,962	-133,815	-0,310	-0,027
115,976	101,951	-0,305	-0,249
116,991	281,753	-0,231	-0,290
118,006	-95,276	-0,243	-0,045
119,020	-62,933	-0,282	-0,081
120,035	334,183	-0,124	-0,168
121,049	85,514	-0,216	-0,166
122,064	-49,797	-0,246	-0,081
123,079	242,871	-0,213	-0,250
124,093	-24,405	-0,289	-0,120
125,108	163,425	-0,191	-0,188
126,122	150,689	-0,227	-0,215
127,137	81,949	-0,241	-0,182
128,151	-41,491	-0,320	-0,114
129,166	27,828	-0,217	-0,127
130,181	253,163	-0,150	-0,178
131,195	437,235	-0,147	-0,225
132,210	86,853	-0,364	-0,280
133,224	82,445	-0,248	-0,188
134,239	-12,083	-0,405	-0,184
135,254	276,688	-0,212	-0,263
136,268	139,943	-0,225	-0,206
137,283	98,354	-0,200	-0,161
138,297	42,008	-0,328	-0,207
139,312	169,343	-0,215	-0,215
140,327	-33,665	-0,345	-0,132
141,341	167,645	-0,190	-0,189
142,356	20,600	-0,200	-0,113
143,370	-69,870	-0,293	-0,077
144,385	31,236	-0,220	-0,131
145,400	385,128	-0,119	-0,171
146,414	137,161	-0,221	-0,202
147,429	336,485	-0,190	-0,257
148,443	334,975	-0,149	-0,202
149,458	-200,000	-0,158	0,000
150,473	147,306	-0,199	-0,187
151,487	-3,555	-0,257	-0,124
152,502	589,907	-0,084	-0,145
153,516	185,575	-0,250	-0,259
154,531	526,085	-0,147	-0,242
155,546	-149,168	-0,270	-0,015
156,560	126,249	-0,268	-0,236
157,575	-38,633	-0,292	-0,107
158,589	161,121	-0,176	-0,171
159,604	55,817	-0,327	-0,220
160,619	-14,916	-0,287	-0,127
161,633	67,108	-0,320	-0,227
162,648	-58,912	-0,185	-0,055
163,662	80,078	-0,210	-0,157
164,677	130,314	-0,238	-0,212
165,692	33,565	-0,202	-0,122
166,706	99,052	-0,212	-0,170
167,721	35,543	-0,278	-0,169
168,735	457,398	-0,137	-0,212
169,750	61,603	-0,182	-0,126
170,764	-0,352	-0,317	-0,156
171,779	767,687	-0,087	-0,165
172,794	158,344	-0,157	-0,151
173,808	-114,867	-0,278	0,036
174,823	679,886	-0,144	-0,263
175,837	-93,980	-0,253	-0,048
176,852	375,565	-0,228	-0,325
177,867	70,561	-0,211	-0,152
178,881	185,285	-0,194	-0,201
179,896	-116,505	-0,199	-0,025
180,910	-135,275	-0,286	-0,023
181,925	800,000	-0,073	-0,146
182,940	71,817	-0,306	-0,220
183,954	165,459	-0,204	-0,201
184,969	39,968	-0,288	-0,179
185,983	-84,311	-0,179	-0,039
186,998	-200,000	-0,031	-0,105
188,013	-5,517	-0,346	-0,164
189,027	329,154	-0,103	-0,138
190,042	800,000	-0,129	-0,269
191,056	-138,491	-0,338	-0,025
192,071	18,298	-0,275	-0,152
193,086	129,997	-0,186	-0,165
194,100	88,908	-0,149	-0,115
195,115	202,088	-0,128	-0,137
196,129	148,509	-0,227	-0,212
197,144	-102,795	-0,196	-0,032
198,159	-15,377	-0,162	-0,072
199,173	203,676	-0,202	-0,217
200,188	-57,892	-0,231	-0,069
201,202	-74,223	-0,060	-0,015
202,217	4,340	-0,208	-0,106
203,232	196,253	-0,140	-0,147
204,246	85,758	-0,256	-0,195
205,261	10,756	-0,305	-0,161
206,275	-54,110	-0,236	-0,074
207,290	-160,362	-0,163	-0,006
208,304	70,960	-0,147	-0,106
209,319	54,072	-0,207	-0,138
210,334	140,343	-0,164	-0,150
211,348	31,546	-0,235	-0,139
212,363	92,658	-0,283	-0,221
213,377	428,687	-0,183	-0,274
214,392	-34,063	-0,206	-0,078
215,407	243,531	-0,198	-0,231
216,421	-62,112	-0,124	-0,036
217,436	169,162	-0,221	-0,219
218,450	143,855	-0,252	-0,232
219,465	800,000	-0,132	-0,348
220,480	17,551	-0,156	-0,085
221,494	662,728	-0,150	-0,269
222,509	108,525	-0,128	-0,106
223,523	294,967	-0,138	-0,175
224,538	-16,103	-0,125	-0,055
225,553	149,813	-0,241	-0,226
226,567	14,650	-0,359	-0,194
227,582	353,714	-0,125	-0,172
228,596	-200,000	-0,037	-0,170
229,611	27,781	-0,082	-0,048
230,626	-19,800	-0,267	-0,114
231,640	164,788	-0,204	-0,199
232,655	103,348	-0,154	-0,125
233,669	-15,977	-0,128	-0,056
234,684	19,805	-0,186	-0,103
235,699	-150,802	-0,243	-0,013
236,713	663,945	-0,093	-0,167
237,728	248,065	-0,168	-0,197
238,742	57,063	-0,129	-0,087
239,757	152,958	-0,241	-0,228
240,772	228,046	-0,193	-0,217
241,786	173,335	-0,166	-0,165
242,801	201,788	-0,182	-0,195
243,815	800,000	-0,074	-0,158
244,830	-80,419	-0,141	-0,032
245,844	104,308	-0,162	-0,132
246,859	396,919	-0,148	-0,214
247,874	800,000	-0,141	-0,305
248,888	354,404	-0,155	-0,214
249,903	43,709	-0,265	-0,167
250,917	104,261	-0,102	-0,083
251,932	288,064	-0,165	-0,207
252,947	-85,750	-0,226	0,048
253,961	7,111	-0,239	-0,123
254,976	-0,843	-0,183	-0,089
255,990	-20,606	-0,294	-0,124
257,005	229,693	-0,200	-0,226
258,020	250,932	-0,145	-0,170
259,034	-58,660	-0,190	-0,056
260,049	-161,007	-0,153	-0,005
261,063	-12,179	-0,102	-0,046
262,078	510,863	-0,140	-0,226
263,093	144,794	-0,181	-0,167
264,107	-121,510	-0,134	0,015
265,122	-26,098	-0,229	-0,092
266,136	-34,261	-0,174	-0,065
267,151	73,755	-0,192	-0,138
268,166	186,490	-0,209	-0,214
269,180	204,378	-0,106	-0,113
270,195	56,221	-0,209	-0,139
271,209	800,000	-0,102	-0,204
272,224	800,000	-0,061	-0,179
273,239	800,000	-0,093	-0,184
274,253	199,819	-0,161	-0,171
275,268	800,000	-0,047	-0,135
276,282	172,657	-0,246	-0,244
277,297	294,869	-0,178	-0,225
278,312	351,447	-0,104	-0,142
279,326	80,419	-0,161	-0,119
280,341	286,076	-0,059	0,074
281,355	425,760	-0,086	-0,128
282,370	172,291	-0,257	-0,254
283,384	-200,000	0,005	-0,133
284,399	382,307	-0,111	-0,158
285,414	732,216	-0,106	-0,196
286,428	96,081	-0,184	-0,145
287,443	211,529	-0,110	-0,119
288,457	145,874	-0,100	-0,092
289,472	500,670	-0,067	-0,107
290,487	80,573	-0,210	-0,156
291,501	-53,755	-0,168	-0,053
292,516	168,851	-0,170	-0,167
293,530	-44,453	-0,188	-0,064
294,545	-96,838	-0,182	-0,033
295,560	-108,785	-0,209	-0,030
296,574	-61,484	-0,116	-0,033
297,589	800,000	-0,055	-0,159
298,603	399,235	-0,056	-0,081
299,618	-46,510	-0,106	-0,036
300,633	800,000	-0,088	-0,226
301,647	22,186	-0,128	-0,072
302,662	-8,324	-0,250	-0,115
303,676	-82,598	-0,146	-0,032
304,691	429,965	-0,112	-0,167
305,706	56,933	-0,206	-0,138
306,720	682,113	-0,119	-0,214
307,735	-138,611	-0,172	-0,013
308,749	41,444	-0,252	-0,156
309,764	-47,918	-0,204	-0,068
310,779	84,886	-0,178	-0,134
311,793	-200,000	-0,028	-0,113
312,808	144,207	-0,141	-0,129
313,822	800,000	-0,077	-0,181
314,837	-101,103	-0,202	-0,034
315,852	-200,000	0,020	-0,079
316,866	324,401	-0,118	-0,155
317,881	218,136	-0,115	-0,127
318,895	510,139	-0,118	-0,188
319,910	800,000	-0,072	-0,150
320,925	212,610	-0,081	-0,087
321,939	0,159	-0,151	-0,074
322,954	189,103	-0,111	-0,114
323,968	184,043	-0,068	-0,069
324,983	-89,868	-0,027	-0,005
325,997	-62,947	-0,134	0,038
327,012	-122,214	-0,207	-0,023
328,027	-20,617	-0,183	-0,077
329,041	-19,859	-0,103	-0,044
330,056	458,201	0,034	-0,051
331,070	64,673	-0,121	-0,083
332,085	-161,448	-0,064	0,002
333,100	-30,511	-0,143	-0,055
334,114	76,687	-0,144	-0,105
335,129	-5,592	-0,162	-0,076
336,143	147,965	-0,133	-0,122
337,158	149,388	-0,165	-0,153
338,173	-200,000	-0,034	-0,134
339,187	-200,000	-0,041	-0,159
340,202	800,000	-0,040	-0,110
341,216	-30,681	-0,156	-0,060
342,231	56,457	-0,166	-0,111
343,246	445,798	-0,087	-0,132
344,260	-89,922	-0,078	-0,015
345,275	-16,871	-0,078	0,034
346,289	-58,902	-0,146	0,043
347,304	800,000	-0,039	-0,089
348,319	485,999	-0,088	-0,137
349,333	42,498	-0,071	-0,044
350,348	212,424	-0,154	-0,167
351,362	-138,060	-0,259	-0,019
352,377	591,624	-0,025	0,043
353,392	-88,790	-0,178	-0,036
354,406	-80,633	-0,112	-0,025
355,421	207,894	1311,348	1402,720
356,435	159,942	1471,642	1403,195
