DTS Sentinel unit serial number:	SN410029Multiplexer serial number:	ORYXHardware model number:	OX2-SRSoftware version number:	ORYX F/W v4,00 Oryx Data Collector v3.7.2.0data status	okinstallation	B3 Nyhavnadifferential loss correction	single-endedforward channel	channel 1reverse channel	N/Adate	2023/12/01time	17:07:30forward acquisition time	300,00reverse acquisition time	0,00gamma	499,1914k internal	0,3205k external	0,3205temperature offset calibration	1,0000default loss term (dB/km)	0,3820temperature slope calibration	1,0000multiplexer offset coefficient	1,0000multiplexer slope coefficient	1,0000fibre end	0,00T internal ref (°C)	13,85T ext. ref 1 (°C)	0,06T ext. ref 2 (°C)	0,04length (m)	temperature (°C)	Stokes	anti-Stokes-744,400	102,234	-0,352	-0,298
-743,385	800,000	-0,085	0,217
-742,371	490,108	-0,138	-0,230
-741,356	-200,000	0,046	0,240
-740,342	48,032	-0,320	-0,217
-739,327	-200,000	0,096	0,382
-738,312	182,600	-0,198	-0,212
-737,298	-200,000	-0,024	0,181
-736,283	320,124	-0,136	-0,188
-735,269	-200,000	0,009	0,384
-734,254	229,134	-0,209	-0,248
-733,239	-51,439	-0,263	0,089
-732,225	167,075	-0,132	-0,136
-731,210	57,905	0,101	0,072
-730,196	-200,000	0,015	0,060
-729,181	-65,289	-0,094	0,027
-728,167	-52,073	0,010	0,003
-727,152	223,717	-0,045	-0,053
-726,137	-130,238	-0,058	-0,006
-725,123	200,176	0,033	-0,037
-724,108	191,632	-0,096	-0,105
-723,094	96,672	0,049	-0,040
-722,079	-32,931	-0,057	0,023
-721,064	45,546	0,102	-0,068
-720,050	800,000	-0,056	0,130
-719,035	-43,225	-0,049	0,018
-718,021	-200,000	-0,010	-0,127
-717,006	621,790	-0,079	-0,145
-715,991	800,000	-0,021	-0,048
-714,977	85,471	-0,172	-0,137
-713,962	-73,770	-0,042	0,011
-712,948	430,132	0,051	-0,081
-711,933	-85,274	-0,057	-0,013
-710,918	-58,572	0,108	-0,034
-709,904	-200,000	-0,011	-0,048
-708,889	-115,250	-0,084	0,011
-707,875	-7,683	-0,059	-0,029
-706,860	106,908	-0,066	-0,057
-705,845	61,920	0,048	0,034
-704,831	765,072	-0,073	0,145
-703,816	40,679	0,069	-0,045
-702,802	-97,866	-0,157	-0,029
-701,787	-200,000	-0,020	-0,190
-700,772	18,004	-0,099	-0,057
-699,758	17,832	-0,096	-0,056
-698,743	45,778	0,065	0,043
-697,729	-200,000	0,020	0,074
-696,714	800,000	0,036	0,080
-695,699	-30,453	-0,167	0,068
-694,685	185,867	-0,135	-0,145
-693,670	782,594	-0,087	-0,174
-692,656	-57,299	-0,061	-0,019
-691,641	34,873	0,066	-0,042
-690,627	220,255	0,034	0,040
-689,612	42,970	0,063	0,042
-688,597	-21,735	-0,089	-0,039
-687,583	35,449	0,049	0,031
-686,568	-143,332	0,011	0,001
-685,554	259,685	-0,030	-0,038
-684,539	57,351	0,153	-0,108
-683,524	626,941	-0,039	-0,072
-682,510	164,630	-0,021	-0,022
-681,495	-200,000	0,017	-0,127
-680,481	-173,563	-0,194	-0,004
-679,466	535,110	-0,101	-0,174
-678,451	102,715	0,107	-0,091
-677,437	-200,000	-0,079	-0,000
-676,422	800,000	0,035	0,079
-675,408	84,532	-0,159	0,126
-674,393	191,311	0,032	-0,034
-673,378	-3,086	-0,022	0,011
-672,364	2,439	-0,199	-0,104
-671,349	-200,000	-0,017	-0,161
-670,335	-200,000	-0,001	0,039
-669,320	-90,045	0,073	0,015
-668,305	295,953	0,080	0,106
-667,291	-60,507	-0,139	0,042
-666,276	1,482	-0,005	0,003
-665,262	47,212	0,034	0,023
-664,247	469,855	0,077	-0,126
-663,232	-80,482	-0,142	0,034
-662,218	250,617	0,044	0,055
-661,203	146,400	0,069	-0,068
-660,189	800,000	-0,069	0,205
-659,174	-49,583	-0,071	0,024
-658,159	-87,263	-0,115	-0,025
-657,145	166,215	-0,060	0,061
-656,130	786,238	-0,050	-0,099
-655,116	136,099	0,024	0,023
-654,101	280,231	0,088	0,113
-653,086	-164,196	-0,079	0,003
-652,072	424,385	-0,032	-0,051
-651,057	-126,668	-0,205	0,022
-650,043	-48,009	0,061	0,021
-649,028	800,000	0,016	-0,047
-648,014	-200,000	0,002	0,045
-646,999	-167,101	-0,071	-0,002
-645,984	-185,578	0,059	0,001
-644,970	126,163	0,061	-0,055
-643,955	-200,000	-0,035	-0,127
-642,941	-200,000	0,003	0,088
-641,926	-15,894	-0,089	0,041
-640,911	85,156	0,113	-0,090
-639,897	-34,567	0,099	-0,039
-638,882	-200,000	-0,019	-0,078
-637,868	800,000	-0,024	-0,065
-636,853	-200,000	-0,002	-0,054
-635,838	-200,000	-0,042	-0,161
-634,824	-163,822	-0,075	-0,002
-633,809	274,856	-0,049	0,063
-632,795	310,598	-0,063	0,085
-631,780	37,151	-0,068	0,043
-630,765	80,669	-0,026	0,020
-629,751	-53,162	-0,159	-0,053
-628,736	-200,000	-0,012	-0,113
-627,722	185,856	-0,080	-0,086
-626,707	-15,575	-0,041	0,019
-625,692	119,675	0,097	0,087
-624,678	326,202	-0,026	0,037
-623,663	-200,000	-0,012	-0,046
-622,649	14,137	0,098	-0,055
-621,634	685,929	-0,081	-0,153
-620,619	473,945	-0,030	0,050
-619,605	800,000	-0,034	0,101
-618,590	-200,000	-0,035	0,147
-617,576	-103,024	0,121	0,021
-616,561	800,000	0,045	0,107
-615,546	120,305	0,049	-0,044
-614,532	189,713	0,101	-0,109
-613,517	-200,000	0,016	0,057
-612,503	168,446	0,020	-0,020
-611,488	505,289	-0,045	0,075
-610,474	-23,184	-0,128	0,055
-609,459	-200,000	-0,015	-0,057
-608,444	-49,787	-0,109	-0,037
-607,430	-200,000	0,015	0,063
-606,415	-200,000	-0,022	0,130
-605,401	22,108	-0,088	-0,052
-604,386	86,081	0,109	-0,086
-603,371	32,423	0,126	0,078
-602,357	155,840	0,043	0,043
-601,342	-200,000	-0,014	-0,149
-600,328	-179,696	-0,184	-0,003
-599,313	-200,000	0,000	-0,076
-598,298	277,328	-0,018	-0,023
-597,284	800,000	-0,028	0,063
-596,269	15,023	-0,084	0,047
-595,255	-44,026	0,198	0,072
-594,240	199,625	-0,040	0,044
-593,225	-69,456	0,113	0,031
-592,211	-56,380	-0,125	-0,040
-591,196	52,965	0,077	0,053
-590,182	-49,540	0,106	0,036
-589,167	57,422	-0,013	0,009
-588,152	-108,070	0,075	0,012
-587,138	352,823	-0,037	-0,053
-586,123	800,000	-0,022	-0,068
-585,109	-200,000	0,018	-0,101
-584,094	-118,212	-0,093	-0,012
-583,079	209,894	0,071	0,081
-582,065	800,000	-0,052	0,136
-581,050	216,761	-0,068	0,078
-580,036	150,963	-0,118	0,116
-579,021	81,696	-0,048	-0,038
-578,006	112,527	-0,072	0,063
-576,992	-200,000	0,112	-0,000
-575,977	-41,332	0,052	0,019
-574,963	-200,000	-0,008	-0,135
-573,948	77,143	-0,056	-0,043
-572,934	213,030	0,063	-0,072
-571,919	-200,000	0,026	-0,088
-570,904	-12,148	-0,088	-0,042
-569,890	-200,000	-0,022	-0,101
-568,875	0,267	-0,028	-0,014
-567,861	-200,000	0,000	0,004
-566,846	649,163	-0,039	0,072
-565,831	-164,249	0,120	-0,004
-564,817	16,129	-0,094	-0,053
-563,802	-170,816	-0,062	-0,002
-562,788	-200,000	0,037	0,160
-561,773	17,426	0,130	0,074
-560,758	-131,186	0,089	0,008
-559,744	227,228	0,082	0,096
-558,729	-17,408	0,078	0,035
-557,715	-197,090	0,072	0,000
-556,700	482,130	0,021	-0,034
-555,685	-72,142	-0,068	-0,018
-554,671	215,643	0,012	-0,013
-553,656	145,008	0,038	0,037
-552,642	179,890	-0,071	0,075
-551,627	324,954	0,054	-0,074
-550,612	-200,000	-0,001	0,088
-549,598	105,498	-0,048	0,041
-548,583	800,000	0,010	0,028
-547,569	346,984	0,033	-0,047
-546,554	-92,457	-0,080	-0,016
-545,539	-200,000	-0,011	0,063
-544,525	-200,000	0,003	-0,065
-543,510	-200,000	-0,000	0,027
-542,496	800,000	-0,026	-0,057
-541,481	-92,496	-0,159	0,032
-540,466	-36,760	0,034	-0,013
-539,452	-127,640	0,020	-0,002
-538,437	-17,707	0,049	0,022
-537,423	-200,000	0,014	0,062
-536,408	-28,302	0,124	-0,051
-535,393	-200,000	0,019	-0,104
-534,379	81,666	-0,075	-0,058
-533,364	800,000	-0,046	0,125
-532,350	800,000	0,029	0,066
-531,335	-44,325	-0,155	0,056
-530,321	15,031	-0,083	0,047
-529,306	-200,000	-0,012	0,141
-528,291	72,999	0,040	-0,030
-527,277	500,299	-0,014	-0,023
-526,262	260,504	-0,042	0,053
-525,248	-122,351	-0,139	-0,016
-524,233	-200,000	-0,005	0,158
-523,218	-198,774	0,028	0,000
-522,204	758,690	0,053	-0,103
-521,189	800,000	0,041	-0,093
-520,175	64,010	0,060	0,043
-519,160	353,468	-0,045	-0,064
-518,145	2,575	-0,037	-0,019
-517,131	-129,510	0,091	-0,009
-516,116	-200,000	-0,007	0,097
-515,102	-200,000	-0,019	0,123
-514,087	-11,467	-0,073	0,034
-513,072	-200,000	-0,007	-0,029
-512,058	-115,042	-0,041	0,005
-511,043	79,142	0,076	0,058
-510,029	309,708	0,043	-0,057
-509,014	-200,000	0,028	-0,145
-507,999	800,000	-0,090	0,181
-506,985	213,507	0,048	0,054
-505,970	168,663	-0,079	-0,081
-504,956	-200,000	0,017	-0,084
-503,941	5,462	-0,049	-0,026
-502,926	-34,886	0,093	0,037
-501,912	82,400	0,111	0,087
-500,897	452,706	-0,061	0,097
-499,883	-27,518	-0,046	-0,019
-498,868	-113,698	0,104	0,014
-497,853	-200,000	0,046	0,000
-496,839	28,834	-0,020	-0,012
-495,824	38,849	0,094	0,060
-494,810	97,923	0,040	-0,033
-493,795	419,927	0,014	0,021
-492,781	69,587	-0,051	0,038
-491,766	477,175	-0,019	-0,031
-490,751	112,140	-0,053	0,046
-489,737	-11,751	0,102	0,048
-488,722	521,228	0,031	0,053
-487,708	-200,000	0,015	-0,069
-486,693	19,695	0,148	0,085
-485,678	114,640	-0,093	0,081
-484,664	800,000	0,055	-0,158
-483,649	-200,000	-0,013	-0,159
-482,635	6,588	-0,186	-0,099
-481,620	-200,000	-0,012	-0,040
-480,605	-53,116	0,106	-0,035
-479,591	-22,796	-0,045	0,019
-478,576	260,319	0,025	-0,032
-477,562	800,000	-0,032	-0,085
-476,547	-200,000	-0,003	-0,126
-475,532	-200,000	-0,004	-0,122
-474,518	-105,908	0,102	-0,016
-473,503	800,000	0,054	0,136
-472,489	-60,811	0,080	0,024
-471,474	647,275	-0,019	0,035
-470,459	-82,276	-0,096	-0,022
-469,445	-40,746	0,118	-0,044
-468,430	382,169	-0,027	-0,041
-467,416	192,118	0,086	0,093
-466,401	-24,146	0,132	0,056
-465,386	171,310	-0,053	-0,054
-464,372	70,060	-0,034	0,025
-463,357	800,000	-0,031	-0,088
-462,343	309,393	-0,038	-0,051
-461,328	800,000	0,012	-0,033
-460,313	-200,000	-0,006	-0,038
-459,299	800,000	-0,042	0,115
-458,284	-123,327	0,117	-0,013
-457,270	15,719	-0,077	0,043
-456,255	246,868	0,042	-0,051
-455,241	47,650	0,045	-0,030
-454,226	57,981	-0,064	-0,045
-453,211	-1,244	0,039	-0,020
-452,197	367,691	0,055	0,080
-451,182	43,427	-0,110	0,072
-450,168	-21,014	0,109	-0,048
-449,153	-200,000	-0,023	-0,117
-448,138	-200,000	0,011	-0,050
-447,124	594,735	-0,062	0,111
-446,109	790,670	-0,025	0,050
-445,095	-142,845	-0,115	-0,008
-444,080	-200,000	0,023	-0,079
-443,065	800,000	-0,018	0,058
-442,051	638,892	0,032	0,060
-441,036	-41,058	-0,109	-0,040
-440,022	189,466	-0,097	-0,105
-439,007	-200,000	-0,036	-0,115
-437,992	-129,999	0,139	0,014
-436,978	351,122	0,033	-0,047
-435,963	261,599	0,056	-0,070
-434,949	-93,175	-0,047	-0,009
-433,934	-79,350	-0,008	-0,002
-432,919	-200,000	-0,012	0,101
-431,905	231,680	0,080	-0,094
-430,890	800,000	0,014	0,035
-429,876	800,000	-0,053	0,143
-428,861	800,000	0,055	-0,116
-427,846	800,000	0,003	0,008
-426,832	-130,266	-0,187	0,018
-425,817	800,000	-0,011	-0,033
-424,803	353,932	-0,077	-0,110
-423,788	-7,039	-0,020	0,010
-422,773	800,000	-0,025	0,070
-421,759	-200,000	-0,032	-0,146
-420,744	-74,620	-0,028	0,007
-419,730	353,219	0,024	-0,034
-418,715	-200,000	-0,021	-0,081
-417,701	390,075	0,043	0,064
-416,686	-200,000	-0,001	-0,053
-415,671	-63,191	0,027	0,008
-414,657	-200,000	-0,003	0,084
-413,642	800,000	-0,004	-0,014
-412,628	-27,369	0,057	0,024
-411,613	-200,000	-0,017	0,071
-410,598	-15,497	0,096	0,044
-409,584	211,232	-0,073	0,082
-408,569	-200,000	-0,015	-0,050
-407,555	-176,601	0,096	-0,002
-406,540	-45,386	-0,031	0,011
-405,525	41,627	0,074	0,048
-404,511	-200,000	0,004	0,033
-403,496	800,000	0,066	-0,153
-402,482	31,760	0,097	-0,060
-401,467	-101,747	0,039	0,007
-400,452	324,354	0,042	0,058
-399,438	-200,000	0,012	0,112
-398,423	254,720	0,086	-0,106
-397,409	-180,199	0,059	0,001
-396,394	-18,288	-0,093	-0,041
-395,379	-4,718	-0,041	0,020
-394,365	71,758	0,116	-0,086
-393,350	127,593	-0,062	0,056
-392,336	-200,000	0,021	-0,083
-391,321	206,549	0,038	-0,043
-390,306	793,787	-0,020	0,041
-389,292	-6,073	-0,114	0,056
-388,277	581,792	-0,008	-0,014
-387,263	800,000	0,056	0,143
-386,248	71,425	0,144	-0,107
-385,233	-25,195	0,009	-0,004
-384,219	197,304	-0,068	0,074
-383,204	1,347	-0,080	0,041
-382,190	-167,393	-0,093	-0,003
-381,175	-95,448	-0,077	-0,015
-380,160	-200,000	0,034	-0,213
-379,146	144,558	-0,052	0,049
-378,131	-200,000	-0,004	0,032
-377,117	270,507	-0,032	-0,040
-376,102	295,620	0,051	-0,067
-375,088	116,192	-0,144	0,126
-374,073	-200,000	-0,023	-0,093
-373,058	-82,173	0,090	-0,021
-372,044	221,370	0,059	0,068
-371,029	235,025	-0,008	0,009
-370,015	-9,486	-0,070	-0,033
-369,000	51,548	0,122	0,083
-367,985	62,089	-0,021	0,015
-366,971	-200,000	0,010	0,053
-365,956	5,370	0,144	0,076
-364,942	26,892	0,133	-0,080
-363,927	48,023	-0,039	-0,026
-362,912	127,163	0,131	-0,119
-361,898	52,846	-0,154	-0,105
-360,883	-200,000	-0,011	0,064
-359,869	-126,155	-0,071	-0,007
-358,854	63,922	0,060	0,043
-357,839	216,160	0,053	-0,060
-356,825	-200,000	0,004	-0,123
-355,810	150,165	-0,081	-0,079
-354,796	101,219	-0,087	0,073
-353,781	348,409	-0,055	0,078
-352,766	-200,000	-0,033	-0,182
-351,752	122,579	-0,073	0,065
-350,737	-82,614	0,107	0,025
-349,723	800,000	0,032	0,072
-348,708	565,810	0,062	0,107
-347,693	219,377	-0,033	-0,038
-346,679	-200,000	-0,019	-0,114
-345,664	-200,000	-0,008	-0,069
-344,650	328,274	-0,025	0,034
-343,635	800,000	0,031	-0,068
-342,620	75,963	-0,093	0,070
-341,606	-200,000	-0,005	0,099
-340,591	-120,965	-0,034	-0,004
-339,577	-115,538	-0,069	0,009
-338,562	178,459	-0,035	0,036
-337,548	-199,485	0,066	-0,000
-336,533	128,928	0,007	0,006
-335,518	-105,470	0,057	0,009
-334,504	604,731	0,025	-0,044
-333,489	286,811	-0,037	-0,048
-332,475	113,278	-0,018	0,016
-331,460	334,156	0,096	0,133
-330,445	494,447	0,065	-0,107
-329,431	56,216	0,111	0,077
-328,416	25,410	0,077	0,046
-327,402	637,686	-0,007	0,013
-326,387	-200,000	0,000	-0,081
-325,372	254,896	-0,017	-0,021
-324,358	-200,000	-0,005	-0,033
-323,343	695,158	0,014	-0,027
-322,329	-200,000	0,001	0,078
-321,314	91,499	0,032	0,026
-320,299	188,724	-0,028	-0,030
-319,285	800,000	0,025	0,071
-318,270	-200,000	-0,001	0,038
-317,256	-200,000	-0,035	-0,133
-316,241	324,280	-0,116	-0,159
-315,226	-200,000	-0,004	0,135
-314,212	-200,000	-0,017	0,079
-313,197	-47,365	0,088	-0,031
-312,183	116,519	-0,037	0,032
-311,168	-110,464	-0,126	-0,018
-310,153	-5,913	-0,085	0,041
-309,139	-200,000	-0,002	0,034
-308,124	-200,000	0,015	0,132
-307,110	-200,000	0,025	0,079
-306,095	-200,000	0,024	-0,117
-305,080	-200,000	0,001	0,031
-304,066	800,000	0,021	-0,066
-303,051	800,000	0,026	-0,076
-302,037	-110,806	0,047	0,007
-301,022	-200,000	-0,033	0,134
-300,008	-61,933	-0,088	-0,026
-298,993	787,784	0,069	0,136
-297,978	-135,459	0,094	0,008
-296,964	-153,651	-0,107	0,005
-295,949	-166,366	-0,110	0,003
-294,935	-108,881	-0,153	-0,023
-293,920	-200,000	0,013	-0,164
-292,905	-46,861	-0,023	-0,008
-291,891	800,000	0,016	0,044
-290,876	145,852	0,032	0,030
-289,862	-200,000	-0,009	0,153
-288,847	-200,000	-0,006	0,112
-287,832	-200,000	0,020	0,130
-286,818	-200,000	0,015	0,077
-285,803	-64,822	0,105	-0,030
-284,789	84,340	0,099	-0,077
-283,774	-200,000	0,006	0,064
-282,759	251,164	0,023	-0,029
-281,745	258,738	-0,039	-0,048
-280,730	27,743	-0,123	-0,073
-279,716	516,113	-0,051	-0,086
-278,701	192,520	0,059	0,063
-277,686	-16,684	0,076	-0,034
-276,672	121,582	-0,119	0,106
-275,657	800,000	-0,046	0,099
-274,643	-54,376	-0,089	0,029
-273,628	223,596	-0,027	-0,031
-272,613	-200,000	-0,026	-0,133
-271,599	800,000	-0,046	0,102
-270,584	-200,000	-0,026	0,129
-269,570	-200,000	-0,005	-0,093
-268,555	-200,000	-0,022	0,085
-267,540	94,762	0,047	-0,038
-266,526	37,783	0,139	-0,088
-265,511	-68,166	0,038	-0,011
-264,497	215,336	0,026	0,030
-263,482	800,000	0,078	0,229
-262,467	-200,000	-0,019	0,084
-261,453	-55,826	-0,040	-0,013
-260,438	-40,390	-0,132	0,048
-259,424	91,560	-0,089	-0,071
-258,409	-118,957	-0,010	-0,001
-257,395	594,007	-0,054	-0,096
-256,380	216,128	-0,064	0,072
-255,365	-132,603	-0,093	-0,008
-254,351	-200,000	0,031	0,100
-253,336	-200,000	0,031	-0,109
-252,322	45,896	-0,067	0,044
-251,307	25,844	-0,097	-0,057
-250,292	13,107	0,115	0,063
-249,278	-200,000	0,015	-0,110
-248,263	-90,003	0,102	0,021
-247,249	-200,000	-0,009	-0,036
-246,234	372,834	0,110	-0,159
-245,219	17,397	-0,069	0,039
-244,205	248,522	0,067	-0,081
-243,190	376,851	-0,044	0,065
-242,176	-5,333	-0,136	0,066
-241,161	800,000	-0,033	-0,065
-240,146	-200,000	0,026	-0,113
-239,132	78,628	-0,133	-0,102
-238,117	110,821	-0,032	0,027
-237,103	800,000	0,036	0,088
-236,088	-200,000	0,001	-0,011
-235,073	590,812	0,027	0,048
-234,059	194,041	0,100	0,109
-233,044	32,725	0,090	0,055
-232,030	-200,000	0,002	0,036
-231,015	31,806	0,069	0,042
-230,000	-76,278	-0,105	-0,026
-228,986	-190,385	0,114	-0,001
-227,971	712,088	0,016	0,031
-226,957	-160,869	0,167	0,006
-225,942	-111,059	0,059	0,009
-224,927	-200,000	0,006	0,030
-223,913	8,327	0,081	-0,043
-222,898	347,816	0,048	-0,067
-221,884	63,152	-0,037	-0,027
-220,869	-75,550	-0,118	-0,030
-219,855	800,000	-0,020	0,053
-218,840	-24,738	0,074	-0,031
-217,825	-26,661	0,031	0,013
-216,811	214,820	-0,055	-0,062
-215,796	793,774	0,038	-0,076
-214,782	-200,000	-0,011	-0,040
-213,767	411,483	0,058	-0,088
-212,752	147,366	-0,048	-0,046
-211,738	-56,924	0,095	0,030
-210,723	-200,000	-0,002	0,035
-209,709	-158,377	0,120	-0,005
-208,694	-200,000	0,026	-0,120
-207,679	40,818	-0,043	0,027
-206,665	200,597	-0,068	0,074
-205,650	-101,183	0,094	0,016
-204,636	-149,980	-0,081	-0,004
-203,621	100,317	0,182	0,150
-202,606	-200,000	-0,013	-0,086
-201,592	519,464	-0,084	0,140
-200,577	-200,000	-0,002	-0,029
-199,563	-200,000	-0,022	-0,117
-198,548	447,833	0,056	0,088
-197,533	397,377	0,076	0,114
-196,519	419,462	0,057	0,087
-195,504	28,126	-0,051	-0,031
-194,490	800,000	0,018	0,041
-193,475	-108,091	-0,130	-0,020
-192,460	800,000	0,013	-0,028
-191,446	129,251	-0,085	0,078
-190,431	-200,000	0,051	0,173
-189,417	489,566	-0,021	0,035
-188,402	800,000	-0,041	-0,086
-187,387	176,906	-0,149	-0,155
-186,373	342,636	-0,047	0,065
-185,358	800,000	-0,028	0,064
-184,344	11,944	0,154	0,084
-183,329	582,432	-0,038	-0,067
-182,315	-29,383	0,036	-0,015
-181,300	-200,000	0,011	-0,072
-180,285	-200,000	-0,021	-0,073
-179,271	1,444	0,035	-0,018
-178,256	-110,592	-0,073	-0,011
-177,242	800,000	-0,052	0,109
-176,227	150,626	0,065	0,063
-175,212	-200,000	0,007	-0,115
-174,198	95,755	-0,051	0,041
-173,183	-10,463	0,040	-0,019
-172,169	172,957	-0,042	-0,043
-171,154	559,791	-0,025	-0,044
-170,139	-94,929	-0,101	-0,019
-169,125	-107,337	0,073	0,011
-168,110	201,917	0,091	-0,100
-167,096	800,000	0,016	0,043
-166,081	-200,000	0,045	-0,161
-165,066	235,752	-0,017	-0,020
-164,052	396,993	-0,055	-0,081
-163,037	3,468	0,079	-0,041
-162,023	-200,000	0,031	0,115
-161,008	38,493	0,121	-0,076
-159,993	-64,734	0,003	-0,001
-158,979	63,381	0,056	0,040
-157,964	-53,858	-0,154	-0,050
-156,950	215,327	0,042	-0,047
-155,935	800,000	-0,059	0,136
-154,920	-56,637	0,164	-0,051
-153,906	15,781	-0,031	-0,017
-152,891	3,043	-0,113	-0,058
-151,877	-138,012	-0,044	-0,003
-150,862	-31,240	0,158	-0,063
-149,847	-103,830	-0,118	-0,019
-148,833	-200,000	0,015	-0,051
-147,818	800,000	-0,017	-0,051
-146,804	244,567	-0,073	-0,087
-145,789	241,548	0,064	-0,076
-144,775	-24,493	0,043	-0,018
-143,760	164,370	-0,053	-0,053
-142,745	-82,548	-0,139	-0,032
-141,731	-40,156	-0,152	0,056
-140,716	49,461	0,056	-0,038
-139,702	171,237	-0,078	0,080
-138,687	-117,878	-0,034	-0,004
-137,672	-43,495	0,098	-0,035
-136,658	-114,453	-0,144	0,019
-135,643	800,000	0,027	0,077
-134,629	451,749	0,020	0,031
-133,614	142,243	0,090	0,084
-132,599	800,000	0,038	0,092
-131,585	535,339	0,038	0,064
-130,570	-126,138	0,091	-0,010
-129,556	-140,704	0,033	-0,002
-128,541	-41,115	-0,009	-0,003
-127,526	-200,000	-0,023	-0,107
-126,512	-46,901	0,235	0,081
-125,497	191,999	-0,074	0,080
-124,483	280,535	0,087	-0,111
-123,468	44,105	0,145	-0,094
-122,453	-110,496	-0,094	-0,014
-121,439	-11,369	-0,204	-0,095
-120,424	-200,000	0,004	-0,099
-119,410	-200,000	-0,002	0,138
-118,395	800,000	-0,014	0,040
-117,380	800,000	-0,015	0,030
-116,366	800,000	0,018	-0,043
-115,351	-111,092	0,109	-0,016
-114,337	185,186	-0,133	-0,141
-113,322	189,027	0,063	0,067
-112,307	74,839	0,054	-0,041
-111,293	-121,464	0,080	-0,009
-110,278	-98,019	-0,061	0,011
-109,264	72,640	0,030	-0,022
-108,249	-21,409	-0,041	0,017
-107,234	-164,670	-0,083	-0,003
-106,220	66,990	-0,030	-0,022
-105,205	-200,000	-0,006	0,149
-104,191	-200,000	0,001	-0,047
-103,176	-200,000	-0,004	-0,056
-102,162	188,449	0,102	0,109
-101,147	-31,774	-0,014	0,006
-100,132	184,935	0,116	-0,123
-99,118	463,302	-0,045	0,071
-98,103	362,700	0,019	-0,028
-97,089	326,378	0,053	0,072
-96,074	-31,000	0,070	-0,028
-95,059	587,651	0,045	-0,079
-94,045	800,000	0,053	-0,136
-93,030	236,616	-0,130	-0,152
-92,016	-30,764	0,144	0,057
-91,001	800,000	0,016	0,035
-89,986	-200,000	0,023	-0,083
-88,972	625,228	0,071	-0,128
-87,957	-200,000	0,034	0,130
-86,943	-200,000	0,036	-0,187
-85,928	-103,645	-0,144	0,024
-84,913	214,189	-0,032	-0,036
-83,899	16,280	0,082	-0,046
-82,884	-119,867	-0,130	-0,016
-81,870	238,393	0,088	0,103
-80,855	269,552	-0,035	-0,043
-79,840	-200,000	-0,024	-0,095
-78,826	800,000	0,013	-0,035
-77,811	-200,000	0,003	-0,040
-76,797	110,855	0,092	0,078
-75,782	-200,000	-0,009	-0,177
-74,767	-126,814	-0,092	-0,010
-73,753	98,751	-0,103	0,084
-72,738	-189,490	-0,094	-0,001
-71,724	168,853	0,115	0,116
-70,709	3,790	-0,081	-0,041
-69,694	800,000	-0,033	-0,072
-68,680	-200,000	-0,006	-0,050
-67,665	59,313	-0,050	-0,034
-66,651	366,084	-0,031	0,045
-65,636	206,531	-0,059	-0,065
-64,622	80,381	-0,006	0,005
-63,607	51,026	-0,101	-0,068
-62,592	-171,895	0,038	0,001
-61,578	112,973	0,123	-0,106
-60,563	-200,000	-0,011	0,050
-59,549	258,748	0,085	0,104
-58,534	-49,166	-1,667	-0,560
-57,519	343,758	-1,487	-2,068
-56,505	-200,000	-0,355	-4,387
-55,490	102,123	0,856	0,707
-54,476	800,000	5,097	11,614
-53,461	-200,000	18,543	304,076
-52,446	800,000	734,975	2277,590
-51,432	562,062	1649,103	2831,763
-50,417	78,242	1666,159	1256,364
-49,403	21,760	1539,513	884,303
-48,388	15,757	1462,021	810,738
-47,373	17,868	1452,231	815,434
-46,359	16,859	1442,418	805,072
-45,344	14,023	1437,607	788,831
-44,330	13,885	1435,786	787,142
-43,315	13,883	1434,346	786,314
-42,300	13,884	1432,685	785,374
-41,286	13,948	1431,149	784,804
-40,271	13,889	1430,055	783,897
-39,257	13,860	1428,756	783,013
-38,242	13,921	1427,639	782,660
-37,227	13,942	1426,474	782,092
-36,213	13,960	1425,041	781,360
-35,198	13,940	1423,886	780,602
-34,184	13,990	1422,908	780,266
-33,169	13,895	1421,657	779,104
-32,154	13,969	1420,385	778,725
-31,140	13,987	1419,022	778,030
-30,125	13,971	1418,210	777,478
-29,111	13,971	1416,984	776,775
-28,096	13,920	1415,993	775,961
-27,082	13,908	1414,705	775,168
-26,067	13,847	1413,742	774,326
-25,052	13,877	1412,723	773,875
-24,038	13,846	1411,712	773,145
-23,023	13,825	1410,734	772,480
-22,009	13,850	1409,718	772,014
-20,994	13,799	1409,162	771,437
-19,979	13,829	1408,030	770,929
-18,965	13,804	1406,923	770,175
-17,950	13,798	1406,040	769,636
-16,936	13,844	1405,096	769,299
-15,921	13,819	1403,840	768,466
-14,906	13,849	1402,817	768,015
-13,892	13,814	1401,961	767,352
-12,877	13,820	1401,314	766,994
-11,863	13,809	1400,548	766,496
-10,848	13,795	1399,574	765,868
-9,833	13,787	1398,595	765,265
-8,819	13,731	1397,791	764,534
-7,804	13,701	1396,905	763,882
-6,790	13,656	1395,740	763,005
-5,775	13,714	1394,756	762,704
-4,760	13,705	1393,752	762,085
-3,746	13,712	1392,706	761,516
-2,731	13,693	1392,222	761,129
-1,717	13,666	1391,316	760,482
-0,702	13,654	1389,467	759,387
0,313	17,656	1307,719	733,142
1,327	34,191	703,891	432,761
2,342	52,866	123,532	83,347
3,356	1,874	16,684	8,474
4,371	9,761	3,252	1,737
5,386	-54,122	0,626	0,200
6,400	-200,000	0,038	0,307
7,415	-26,669	-0,271	-0,112
8,429	147,699	-0,327	-0,311
9,444	39,202	-0,434	-0,274
10,459	18,801	-0,295	-0,166
11,473	33,580	-0,265	-0,162
12,488	26,367	-0,245	-0,144
13,502	173,288	-0,262	-0,267
14,517	107,069	-0,257	-0,215
15,531	125,781	-0,325	-0,289
16,546	156,846	-0,297	-0,290
17,561	800,000	-0,214	-0,442
18,575	200,197	-0,142	-0,154
19,590	-19,897	-0,307	-0,133
20,604	-151,191	-0,382	-0,020
21,619	49,339	-0,426	-0,282
22,634	92,926	-0,514	-0,410
23,648	240,938	-0,343	-0,405
24,663	54,205	-0,483	-0,327
25,677	44,871	-0,417	-0,270
26,692	25,322	-0,348	-0,203
27,707	169,110	-0,183	-0,184
28,721	92,421	-0,366	-0,291
29,736	24,758	-0,384	-0,224
30,750	150,650	-0,312	-0,299
31,765	-69,011	-0,480	-0,130
32,780	128,867	-0,469	-0,422
33,794	46,936	-0,268	-0,175
34,809	169,248	-0,378	-0,380
35,823	31,534	-0,421	-0,255
36,838	62,792	-0,358	-0,252
37,853	23,638	-0,346	-0,200
38,867	274,962	-0,351	-0,439
39,882	181,706	-0,292	-0,303
40,896	146,717	-0,260	-0,246
41,911	10,934	-0,410	-0,220
42,926	87,841	-0,344	-0,269
43,940	-18,314	-0,331	-0,145
44,955	14,328	-0,497	-0,272
45,969	61,755	-0,427	-0,299
46,984	505,127	-0,233	-0,382
47,999	105,865	-0,316	-0,263
49,013	210,067	-0,297	-0,328
50,028	57,277	-0,417	-0,286
51,042	157,548	-0,300	-0,292
52,057	183,690	-0,218	-0,227
53,071	-4,502	-0,413	-0,200
54,086	49,537	-0,346	-0,228
55,101	-56,316	-0,491	-0,152
56,115	149,388	-0,266	-0,254
57,130	99,544	-0,233	-0,190
58,144	298,875	-0,227	-0,295
59,159	111,865	-0,345	-0,292
60,174	118,199	-0,364	-0,316
61,188	99,104	-0,405	-0,328
62,203	184,143	-0,235	-0,245
63,217	-47,078	-0,336	-0,115
64,232	127,476	-0,317	-0,283
65,247	100,022	-0,371	-0,302
66,261	-47,270	-0,466	-0,159
67,276	14,370	-0,375	-0,205
68,290	184,684	-0,272	-0,284
69,305	-30,383	-0,284	-0,113
70,320	64,016	-0,168	-0,119
71,334	-10,466	-0,384	-0,178
72,349	205,236	-0,260	-0,284
73,363	4,513	-0,392	-0,202
74,378	-3,640	-0,236	-0,115
75,393	12,839	-0,305	-0,165
76,407	85,152	-0,272	-0,209
77,422	121,137	-0,277	-0,242
78,436	83,478	-0,256	-0,195
79,451	69,047	-0,209	-0,150
80,466	45,315	-0,362	-0,234
81,480	24,264	-0,367	-0,212
82,495	94,098	-0,237	-0,189
83,509	31,555	-0,281	-0,169
84,524	26,499	-0,248	-0,145
85,539	143,121	-0,321	-0,299
86,553	-100,690	-0,262	-0,045
87,568	242,936	-0,204	-0,240
88,582	59,412	-0,312	-0,215
89,597	453,216	-0,229	-0,356
90,611	-36,265	-0,357	-0,134
91,626	56,718	-0,279	-0,190
92,641	-86,781	-0,260	-0,055
93,655	-1,794	-0,251	-0,123
94,670	32,201	-0,322	-0,194
95,684	-6,259	-0,292	-0,139
96,699	-41,746	-0,218	-0,078
97,714	13,080	-0,269	-0,146
98,728	45,233	-0,143	-0,092
99,743	-41,976	-0,314	-0,112
100,757	-67,916	-0,253	-0,069
101,772	49,052	-0,295	-0,194
102,787	-5,937	-0,361	-0,172
103,801	700,333	-0,166	-0,308
104,816	262,145	-0,160	-0,194
105,830	137,031	-0,225	-0,206
106,845	406,481	-0,125	-0,185
107,860	-9,271	-0,360	-0,168
108,874	-42,250	-0,211	-0,075
109,889	75,278	-0,264	-0,194
110,903	109,824	-0,267	-0,224
111,918	206,797	-0,307	-0,335
112,933	-29,947	-0,338	-0,134
113,947	611,344	-0,140	-0,246
114,962	236,224	-0,268	-0,310
115,976	22,154	-0,317	-0,181
116,991	26,397	-0,344	-0,201
118,006	64,041	-0,319	-0,224
119,020	533,588	-0,126	-0,210
120,035	110,286	-0,226	-0,190
121,049	-200,000	-0,071	-0,235
122,064	-58,300	-0,175	-0,053
123,079	116,052	-0,179	-0,153
124,093	58,633	-0,333	-0,228
125,108	119,317	-0,321	-0,278
126,122	40,910	-0,232	-0,146
127,137	56,644	-0,147	-0,099
128,151	-89,144	-0,227	-0,047
129,166	-97,555	-0,218	-0,039
130,181	188,146	-0,281	-0,293
131,195	251,371	-0,150	-0,178
132,210	108,222	-0,303	-0,253
133,224	-18,623	-0,356	-0,154
134,239	8,038	-0,192	-0,100
135,254	800,000	-0,113	-0,247
136,268	-70,815	-0,317	-0,083
137,283	-188,947	-0,195	0,002
138,297	99,399	-0,261	-0,211
139,312	128,759	-0,315	-0,280
140,327	48,259	-0,246	-0,161
141,341	-28,493	-0,234	-0,094
142,356	48,404	-0,189	-0,123
143,370	160,076	-0,166	-0,162
144,385	-12,289	-0,278	-0,127
145,400	346,268	-0,214	-0,294
146,414	17,648	-0,309	-0,171
147,429	43,201	-0,246	-0,156
148,443	94,761	-0,210	-0,166
149,458	67,631	-0,208	-0,148
150,473	41,079	-0,315	-0,198
151,487	44,575	-0,280	-0,179
152,502	42,149	-0,180	-0,114
153,516	196,517	-0,256	-0,272
154,531	184,810	-0,231	-0,239
155,546	14,718	-0,243	-0,132
156,560	73,844	-0,187	-0,136
157,575	-72,340	-0,205	-0,053
158,589	158,940	-0,187	-0,181
159,604	254,718	-0,149	-0,178
160,619	149,106	-0,259	-0,244
161,633	270,010	-0,159	-0,195
162,648	-92,635	-0,282	-0,055
163,662	-98,999	-0,231	-0,040
164,677	198,032	-0,096	-0,102
165,692	4,632	-0,132	-0,067
166,706	9,053	-0,185	-0,097
167,721	64,631	-0,263	-0,184
168,735	147,192	-0,193	-0,181
169,750	497,374	-0,160	-0,257
170,764	800,000	-0,165	-0,335
171,779	-28,960	-0,210	-0,084
172,794	0,033	-0,295	-0,146
173,808	17,133	-0,242	-0,133
174,823	108,243	-0,269	-0,223
175,837	128,206	-0,161	-0,143
176,852	-123,358	-0,248	0,027
177,867	-3,285	-0,179	-0,086
178,881	53,168	-0,238	-0,158
179,896	-91,211	-0,190	0,038
180,910	0,526	-0,201	-0,100
181,925	118,457	-0,248	-0,213
182,940	114,194	-0,196	-0,166
183,954	144,253	-0,299	-0,278
184,969	28,335	-0,185	-0,109
185,983	-82,593	-0,212	-0,047
186,998	-158,320	-0,171	0,007
188,013	-23,448	-0,273	-0,113
189,027	227,053	-0,184	-0,208
190,042	135,949	-0,245	-0,222
191,056	-50,228	-0,261	-0,085
192,071	81,160	-0,224	-0,168
193,086	39,029	-0,152	-0,094
194,100	121,110	-0,178	-0,154
195,115	-79,877	-0,268	0,062
196,129	39,878	-0,154	-0,096
197,144	-19,328	-0,179	-0,077
198,159	220,725	-0,155	-0,173
199,173	243,756	-0,154	-0,180
200,188	54,599	-0,179	-0,120
201,202	617,627	-0,086	-0,151
202,217	217,586	-0,213	-0,236
203,232	-30,657	-0,133	-0,052
204,246	572,770	-0,175	-0,297
205,261	528,656	-0,189	-0,311
206,275	62,461	-0,196	-0,136
207,290	165,697	-0,118	-0,116
208,304	31,809	-0,230	-0,137
209,319	43,192	-0,189	-0,119
210,334	88,943	-0,250	-0,193
211,348	78,801	-0,221	-0,164
212,363	-0,615	-0,182	-0,089
213,377	47,223	-0,200	-0,129
214,392	253,531	-0,048	-0,056
215,407	394,861	-0,109	-0,159
216,421	206,899	-0,202	-0,219
217,436	-11,258	-0,322	-0,147
218,450	212,440	-0,145	-0,159
219,465	87,909	-0,268	-0,206
220,480	289,329	-0,247	-0,311
221,494	401,299	-0,197	-0,287
222,509	5,692	-0,166	-0,085
223,523	-98,275	-0,241	-0,042
224,538	-103,349	-0,260	-0,042
225,553	243,014	-0,173	-0,202
226,567	44,021	-0,240	-0,152
227,582	82,348	-0,258	-0,194
228,596	-200,000	-0,032	-0,357
229,611	800,000	-0,057	-0,147
230,626	-85,859	-0,184	0,039
231,640	263,787	-0,117	-0,141
232,655	154,051	-0,185	-0,176
233,669	159,405	-0,128	-0,124
234,684	-58,362	-0,284	-0,085
235,699	97,017	-0,173	-0,137
236,713	22,256	-0,211	-0,119
237,728	435,526	-0,130	-0,197
238,742	-163,728	-0,123	-0,004
239,757	-36,662	-0,280	-0,104
240,772	450,277	-0,117	-0,180
241,786	39,933	-0,316	-0,196
242,801	111,215	-0,060	-0,050
243,815	274,141	-0,151	-0,185
244,830	-200,000	-0,006	-0,158
245,844	-48,476	-0,055	-0,018
246,859	71,272	-0,206	-0,147
247,874	-139,053	-0,297	-0,022
248,888	73,681	-0,179	-0,130
249,903	211,289	-0,218	-0,238
250,917	421,336	-0,092	-0,136
251,932	-31,378	-0,195	-0,075
252,947	21,818	-0,262	-0,147
253,961	110,447	-0,198	-0,164
254,976	235,632	-0,138	-0,158
255,990	240,919	-0,174	-0,201
257,005	516,129	-0,159	-0,258
258,020	68,472	-0,141	-0,100
259,034	22,259	-0,186	-0,105
260,049	2,638	-0,151	-0,075
261,063	-18,522	-0,209	-0,090
262,078	-20,752	-0,127	-0,054
263,093	-200,000	-0,035	-0,114
264,107	186,956	-0,223	-0,230
265,122	82,456	-0,123	-0,092
266,136	302,393	0,019	-0,024
267,151	341,040	-0,102	-0,138
268,166	-43,220	-0,210	-0,073
269,180	800,000	-0,057	-0,134
270,195	51,226	-0,269	-0,176
271,209	93,058	-0,182	-0,142
272,224	30,921	-0,204	-0,120
273,239	203,493	-0,193	-0,206
274,253	407,745	-0,161	-0,236
275,268	73,523	-0,124	-0,090
276,282	28,058	-0,143	-0,083
277,297	0,013	-0,255	-0,125
278,312	231,439	-0,156	-0,177
279,326	-76,551	-0,144	-0,035
280,341	263,348	-0,106	-0,127
281,355	45,363	-0,141	-0,090
282,370	-73,237	-0,106	0,027
283,384	44,951	-0,289	-0,183
284,399	113,368	-0,172	-0,144
285,414	137,903	-0,201	-0,181
286,428	129,146	-0,197	-0,173
287,443	-73,894	-0,279	-0,069
288,457	-32,160	-0,234	-0,090
289,472	-86,024	-0,185	0,039
290,487	305,782	-0,176	-0,226
291,501	316,844	-0,169	-0,220
292,516	348,260	-0,093	-0,126
293,530	-200,000	-0,017	-0,083
294,545	-200,000	-0,030	-0,122
295,560	219,710	-0,028	0,031
296,574	800,000	-0,069	-0,135
297,589	144,152	-0,135	-0,124
298,603	-200,000	-0,051	-0,171
299,618	50,561	-0,144	-0,094
300,633	-29,965	-0,222	-0,087
301,647	10,991	0,027	-0,014
302,662	-153,386	-0,099	0,005
303,676	308,971	-0,110	-0,142
304,691	221,413	-0,166	-0,184
305,706	17,119	-0,187	-0,102
306,720	93,492	-0,166	-0,129
307,735	73,767	-0,080	0,058
308,749	-83,619	-0,113	0,025
309,764	-21,504	-0,081	-0,034
310,779	147,746	-0,068	-0,063
311,793	-30,634	-0,170	-0,066
312,808	-110,802	-0,207	-0,029
313,822	451,592	-0,059	-0,090
314,837	72,464	-0,201	-0,144
315,852	-200,000	0,000	-0,083
316,866	800,000	-0,104	-0,202
317,881	5,714	-0,159	-0,080
318,895	43,592	-0,138	-0,087
319,910	-111,989	-0,176	-0,024
320,925	279,189	-0,156	-0,192
321,939	133,363	-0,132	-0,117
322,954	-200,000	-0,005	-0,165
323,968	800,000	-0,010	-0,030
324,983	187,744	0,011	0,011
325,997	753,029	-0,094	-0,175
327,012	-5,117	-0,145	-0,068
328,027	98,600	-0,089	-0,070
329,041	113,069	-0,230	-0,191
330,056	378,864	-0,069	-0,098
331,070	420,121	-0,138	-0,204
332,085	167,542	-0,191	-0,186
333,100	-126,096	-0,177	-0,018
334,114	186,429	-0,097	-0,099
335,129	-44,818	-0,186	0,063
336,143	-14,578	-0,176	-0,077
337,158	800,000	-0,023	0,055
338,173	-200,000	-0,014	-0,152
339,187	-200,000	-0,016	0,059
340,202	14,798	-0,174	0,093
341,216	433,301	-0,106	-0,158
342,231	251,584	-0,121	-0,142
343,246	135,335	-0,125	-0,112
344,260	-176,693	-0,119	0,002
345,275	800,000	-0,066	-0,126
346,289	128,836	-0,131	-0,115
347,304	-88,694	-0,220	-0,044
348,319	-64,758	-0,250	-0,069
349,333	-168,518	-0,278	0,007
350,348	121,065	-0,153	-0,130
351,362	661,028	-0,075	-0,133
352,377	-200,000	-0,018	-0,104
353,392	-157,385	-0,117	0,005
354,406	800,000	-0,107	-0,300
355,421	208,878	1313,997	1410,731
356,435	160,742	1474,649	1411,247
