DTS Sentinel unit serial number:	SN410029Multiplexer serial number:	ORYXHardware model number:	OX2-SRSoftware version number:	ORYX F/W v4,00 Oryx Data Collector v3.7.2.0data status	okinstallation	B3 Nyhavnadifferential loss correction	single-endedforward channel	channel 1reverse channel	N/Adate	2023/12/01time	19:32:30forward acquisition time	300,00reverse acquisition time	0,00gamma	499,1914k internal	0,3199k external	0,3199temperature offset calibration	1,0000default loss term (dB/km)	0,3820temperature slope calibration	1,0000multiplexer offset coefficient	1,0000multiplexer slope coefficient	1,0000fibre end	0,00T internal ref (°C)	15,50T ext. ref 1 (°C)	1,31T ext. ref 2 (°C)	1,30length (m)	temperature (°C)	Stokes	anti-Stokes-744,400	65,691	-0,271	-0,199
-743,385	-200,000	0,066	0,306
-742,371	23,809	-0,080	-0,048
-741,356	800,000	0,126	0,366
-740,342	77,647	-0,166	-0,128
-739,327	800,000	0,102	0,266
-738,312	204,897	-0,268	-0,303
-737,298	-200,000	-0,089	0,311
-736,283	134,540	-0,224	-0,211
-735,269	-200,000	-0,036	0,307
-734,254	230,543	-0,136	-0,162
-733,239	87,548	-0,121	0,097
-732,225	212,170	-0,155	-0,178
-731,210	-149,810	0,112	-0,006
-730,196	-200,000	0,010	-0,099
-729,181	-23,728	0,095	-0,041
-728,167	33,205	-0,008	0,005
-727,152	-200,000	0,016	-0,098
-726,137	223,337	-0,127	-0,149
-725,123	61,246	0,082	-0,059
-724,108	800,000	-0,088	-0,179
-723,094	137,264	-0,120	-0,114
-722,079	-200,000	0,004	-0,207
-721,064	-11,774	0,027	0,013
-720,050	97,125	0,091	-0,076
-719,035	82,530	-0,057	-0,045
-718,021	280,493	-0,035	-0,046
-717,006	-200,000	-0,010	-0,058
-715,991	800,000	-0,060	-0,132
-714,977	98,093	-0,136	-0,114
-713,962	169,140	0,054	-0,057
-712,948	597,955	0,043	-0,078
-711,933	800,000	0,028	0,078
-710,918	-200,000	-0,008	-0,161
-709,904	-200,000	0,003	0,058
-708,889	-44,568	-0,132	0,048
-707,875	800,000	-0,051	0,122
-706,860	373,167	-0,015	-0,022
-705,845	800,000	-0,046	0,120
-704,831	-43,590	0,082	0,030
-703,816	-200,000	-0,011	0,059
-702,802	800,000	-0,012	0,034
-701,787	-61,896	-0,066	0,020
-700,772	-153,773	-0,158	0,008
-699,758	94,053	-0,076	-0,063
-698,743	-200,000	-0,002	0,044
-697,729	-24,079	-0,029	-0,012
-696,714	120,250	-0,054	-0,048
-695,699	-75,962	-0,061	-0,016
-694,685	-200,000	0,031	0,101
-693,670	-91,183	-0,052	-0,011
-692,656	-200,000	0,013	-0,098
-691,641	41,276	0,132	0,087
-690,627	164,089	0,040	0,041
-689,612	-105,119	-0,109	-0,018
-688,597	146,645	0,026	-0,026
-687,583	496,597	-0,098	-0,164
-686,568	169,336	-0,028	0,029
-685,554	-200,000	-0,020	-0,134
-684,539	576,729	0,030	0,053
-683,524	-39,580	-0,062	-0,023
-682,510	126,494	-0,137	0,126
-681,495	-200,000	-0,011	0,071
-680,481	800,000	0,034	0,086
-679,466	800,000	-0,077	-0,162
-678,451	-200,000	0,010	0,033
-677,437	70,364	-0,099	-0,074
-676,422	571,207	-0,063	0,112
-675,408	800,000	0,003	0,008
-674,393	-129,778	0,060	-0,006
-673,378	21,715	-0,065	-0,038
-672,364	-200,000	0,021	-0,080
-671,349	800,000	0,016	-0,043
-670,335	800,000	0,049	0,144
-669,320	283,866	0,066	0,086
-668,305	-34,028	-0,039	0,015
-667,291	250,122	0,040	-0,049
-666,276	-158,719	-0,053	-0,002
-665,262	-200,000	0,005	-0,026
-664,247	-97,429	-0,216	-0,040
-663,232	-200,000	-0,005	-0,052
-662,218	800,000	0,008	0,016
-661,203	7,427	-0,053	-0,029
-660,189	497,904	-0,046	0,077
-659,174	-47,087	-0,035	0,012
-658,159	-200,000	0,005	-0,044
-657,145	531,968	-0,031	-0,053
-656,130	800,000	0,036	0,086
-655,116	-9,260	-0,088	0,043
-654,101	176,274	-0,101	0,106
-653,086	311,957	0,049	-0,067
-652,072	-118,166	0,060	-0,008
-651,057	65,368	-0,071	0,052
-650,043	800,000	0,044	-0,098
-649,028	800,000	-0,048	-0,121
-648,014	-200,000	-0,018	0,068
-646,999	69,260	0,051	-0,038
-645,984	490,277	0,067	-0,112
-644,970	-83,268	-0,063	-0,015
-643,955	148,375	-0,171	-0,168
-642,941	97,052	-0,114	-0,094
-641,926	103,041	-0,145	0,123
-640,911	680,131	0,016	-0,030
-639,897	80,482	0,048	0,038
-638,882	732,663	-0,055	0,108
-637,868	760,565	-0,008	-0,016
-636,853	-200,000	-0,020	-0,083
-635,838	-141,079	-0,184	-0,013
-634,824	-68,790	-0,150	0,042
-633,809	-61,046	0,112	-0,034
-632,795	-89,090	-0,057	0,012
-631,780	-200,000	-0,020	0,098
-630,765	-109,935	0,085	-0,013
-629,751	259,877	0,056	-0,071
-628,736	-91,008	-0,068	-0,014
-627,722	-103,765	-0,161	-0,027
-626,707	-200,000	-0,002	-0,021
-625,692	-200,000	-0,010	-0,049
-624,678	23,443	0,031	0,018
-623,663	-200,000	-0,048	0,000
-622,649	42,310	-0,040	-0,026
-621,634	-200,000	-0,024	0,103
-620,619	800,000	0,024	-0,071
-619,605	-200,000	0,016	-0,087
-618,590	-168,427	-0,086	-0,002
-617,576	800,000	-0,040	0,085
-616,561	221,677	-0,038	0,045
-615,546	-61,153	-0,039	-0,012
-614,532	-99,060	-0,118	0,022
-613,517	800,000	-0,115	-0,263
-612,503	-184,261	-0,058	0,001
-611,488	-14,962	0,102	0,047
-610,474	33,589	-0,073	0,046
-609,459	162,808	0,082	0,083
-608,444	-87,934	-0,145	-0,031
-607,430	760,114	0,059	-0,117
-606,415	52,044	-0,091	-0,063
-605,401	632,371	0,055	0,102
-604,386	131,028	0,102	-0,095
-603,371	367,785	0,084	0,123
-602,357	800,000	-0,022	0,064
-601,342	-20,869	-0,163	0,072
-600,328	7,357	-0,029	0,016
-599,313	-200,000	0,003	-0,165
-598,298	-26,261	0,151	0,064
-597,284	-48,299	0,123	-0,043
-596,269	39,882	0,171	-0,111
-595,255	-148,374	-0,037	0,002
-594,240	-47,495	-0,068	-0,024
-593,225	-200,000	0,030	0,104
-592,211	21,848	-0,081	-0,048
-591,196	256,660	-0,056	-0,070
-590,182	242,621	-0,021	-0,025
-589,167	74,371	-0,088	-0,067
-588,152	-200,000	0,029	0,155
-587,138	283,331	0,075	0,098
-586,123	-134,015	-0,111	-0,010
-585,109	104,737	0,040	0,034
-584,094	800,000	0,023	0,050
-583,079	-200,000	-0,005	-0,038
-582,065	800,000	0,053	0,116
-581,050	65,357	0,069	0,050
-580,036	495,183	-0,029	0,049
-579,021	216,149	-0,047	-0,054
-578,006	9,600	-0,083	-0,045
-576,992	-200,000	0,037	-0,133
-575,977	-200,000	0,001	0,038
-574,963	58,283	-0,128	0,091
-573,948	224,132	-0,061	-0,071
-572,934	-200,000	0,032	-0,192
-571,919	-200,000	0,002	-0,135
-570,904	800,000	-0,074	-0,158
-569,890	-36,241	0,112	-0,044
-568,875	144,486	0,043	-0,042
-567,861	-181,215	-0,056	0,001
-566,846	293,735	0,096	-0,127
-565,831	-189,280	0,055	0,000
-564,817	-37,006	0,056	-0,022
-563,802	562,648	0,072	-0,126
-562,788	519,124	-0,027	-0,046
-561,773	800,000	-0,058	-0,124
-560,758	-200,000	0,001	-0,057
-559,744	800,000	-0,023	0,049
-558,729	184,660	0,018	-0,020
-557,715	-200,000	-0,044	-0,179
-556,700	800,000	0,014	-0,035
-555,685	-122,285	-0,147	-0,017
-554,671	-200,000	-0,006	-0,130
-553,656	-200,000	-0,006	0,145
-552,642	-64,627	0,043	0,013
-551,627	21,013	-0,078	-0,046
-550,612	-125,226	0,186	-0,020
-549,598	243,419	-0,025	0,031
-548,583	327,111	0,019	0,026
-547,569	800,000	-0,038	0,116
-546,554	-200,000	-0,003	-0,017
-545,539	-124,149	0,113	0,013
-544,525	342,398	-0,033	0,047
-543,510	566,537	0,103	-0,182
-542,496	-148,814	-0,089	-0,005
-541,481	-200,000	-0,021	-0,135
-540,466	107,901	-0,047	-0,040
-539,452	98,646	0,041	0,034
-538,437	-200,000	-0,033	0,115
-537,423	-200,000	-0,000	-0,006
-536,408	-200,000	-0,022	-0,166
-535,393	-200,000	-0,012	-0,101
-534,379	255,067	0,043	0,054
-533,364	-25,082	0,074	-0,031
-532,350	800,000	0,067	-0,135
-531,335	789,912	-0,066	0,132
-530,321	22,516	-0,080	0,047
-529,306	-34,664	0,159	0,063
-528,291	-77,387	0,168	0,042
-527,277	800,000	-0,030	0,082
-526,262	240,823	-0,044	0,054
-525,248	-200,000	-0,024	-0,095
-524,233	-200,000	0,007	0,166
-523,218	-28,402	0,080	0,033
-522,204	-200,000	-0,003	0,086
-521,189	-200,000	0,003	0,115
-520,175	424,045	-0,056	-0,088
-519,160	56,887	0,071	-0,050
-518,145	179,378	0,006	0,006
-517,131	-162,991	0,125	-0,004
-516,116	656,892	-0,029	0,054
-515,102	771,809	-0,061	-0,121
-514,087	-45,003	-0,104	-0,037
-513,072	-200,000	-0,012	0,051
-512,058	-39,552	0,083	-0,031
-511,043	-118,379	0,119	0,015
-510,029	410,366	0,080	0,122
-509,014	-200,000	-0,008	0,080
-507,999	-17,337	0,160	0,072
-506,985	-200,000	-0,015	0,092
-505,970	194,177	-0,033	-0,037
-504,956	344,231	-0,044	0,063
-503,941	502,115	0,020	-0,033
-502,926	282,017	0,045	-0,058
-501,912	-74,113	-0,180	0,047
-500,897	-52,699	0,057	-0,019
-499,883	38,342	0,077	0,050
-498,868	343,211	-0,078	0,110
-497,853	29,140	-0,090	0,055
-496,839	-14,518	-0,054	-0,025
-495,824	426,364	0,054	0,084
-494,810	-51,098	-0,044	0,015
-493,795	-70,044	0,197	-0,054
-492,781	-200,000	0,023	0,125
-491,766	-142,856	-0,181	0,013
-490,751	800,000	-0,051	-0,120
-489,737	246,497	-0,101	0,123
-488,722	-43,170	0,035	0,013
-487,708	106,264	0,053	0,045
-486,693	-108,020	0,079	-0,012
-485,678	253,770	0,057	0,071
-484,664	0,311	0,103	0,053
-483,649	800,000	-0,061	0,143
-482,635	19,463	-0,030	0,017
-481,620	419,900	-0,103	0,159
-480,605	-200,000	0,018	-0,120
-479,591	98,641	-0,058	-0,048
-478,576	-127,681	-0,173	0,018
-477,562	28,182	-0,025	-0,015
-476,547	-200,000	-0,000	-0,033
-475,532	-200,000	0,004	-0,147
-474,518	307,375	0,077	-0,104
-473,503	-92,096	-0,010	-0,002
-472,489	-200,000	-0,027	0,148
-471,474	-107,311	-0,065	-0,010
-470,459	-200,000	0,003	-0,045
-469,445	154,667	-0,072	-0,072
-468,430	116,170	-0,081	0,071
-467,416	727,660	0,074	0,143
-466,401	230,928	0,075	0,088
-465,386	105,847	0,100	0,085
-464,372	420,204	-0,043	0,066
-463,357	128,982	0,051	-0,047
-462,343	522,604	-0,050	-0,084
-461,328	-200,000	-0,007	-0,071
-460,313	-200,000	-0,002	0,074
-459,299	0,420	0,068	0,035
-458,284	21,045	0,058	-0,034
-457,270	58,674	0,131	0,093
-456,255	800,000	0,015	-0,044
-455,241	-200,000	-0,002	-0,080
-454,226	-200,000	-0,004	-0,022
-453,211	-150,323	-0,105	0,006
-452,197	332,395	0,026	0,036
-451,182	-73,343	0,246	-0,064
-450,168	-2,374	0,081	-0,040
-449,153	-180,031	0,045	-0,001
-448,138	-27,972	-0,090	-0,037
-447,124	627,138	-0,059	0,107
-446,109	-85,213	0,066	0,015
-445,095	173,872	-0,118	-0,122
-444,080	-200,000	-0,002	0,086
-443,065	206,382	0,029	-0,032
-442,051	-67,843	-0,013	-0,004
-441,036	-200,000	-0,012	0,114
-440,022	-200,000	0,020	0,066
-439,007	765,436	0,033	0,064
-437,992	35,161	0,016	0,010
-436,978	-34,437	0,107	0,042
-435,963	4,229	-0,065	0,034
-434,949	-173,334	-0,070	0,001
-433,934	-200,000	-0,011	0,047
-432,919	-200,000	-0,005	0,020
-431,905	-200,000	-0,004	0,029
-430,890	207,728	0,026	-0,030
-429,876	800,000	-0,040	0,105
-428,861	7,965	0,134	0,072
-427,846	-4,472	-0,152	-0,075
-426,832	-102,511	-0,101	-0,017
-425,817	170,908	-0,241	-0,248
-424,803	-33,289	-0,055	-0,022
-423,788	-12,609	0,112	0,052
-422,773	-178,402	-0,047	-0,001
-421,759	32,609	0,104	0,065
-420,744	76,028	-0,055	-0,042
-419,730	-92,056	0,032	-0,006
-418,715	63,182	-0,102	-0,073
-417,701	-200,000	0,015	0,221
-416,686	800,000	0,053	0,131
-415,671	34,807	-0,080	-0,050
-414,657	-200,000	-0,018	0,115
-413,642	228,380	-0,045	-0,053
-412,628	365,345	-0,054	0,078
-411,613	153,446	0,073	-0,072
-410,598	102,774	0,024	-0,020
-409,584	-148,051	0,115	0,007
-408,569	75,500	0,077	0,058
-407,555	34,653	-0,072	-0,045
-406,540	33,093	0,129	0,080
-405,525	-200,000	-0,002	-0,097
-404,511	-200,000	0,015	-0,194
-403,496	126,979	0,119	-0,109
-402,482	142,901	0,079	-0,075
-401,467	-165,810	-0,054	0,002
-400,452	-105,755	0,126	0,020
-399,438	-71,991	-0,066	-0,017
-398,423	-200,000	-0,020	0,094
-397,409	22,022	-0,049	0,029
-396,394	-116,507	-0,124	0,016
-395,379	-200,000	-0,035	0,134
-394,365	294,250	-0,045	0,059
-393,350	271,012	0,049	0,061
-392,336	-200,000	-0,013	0,060
-391,321	86,410	0,073	0,058
-390,306	800,000	-0,045	-0,112
-389,292	343,377	0,066	0,092
-388,277	-3,114	0,079	-0,039
-387,263	64,881	0,037	-0,027
-386,248	202,133	0,114	-0,126
-385,233	-1,699	0,043	-0,022
-384,219	358,449	0,008	0,011
-383,204	273,708	0,091	0,115
-382,190	496,548	-0,092	0,153
-381,175	41,033	-0,124	-0,080
-380,160	-103,970	0,144	-0,024
-379,146	-200,000	0,028	0,134
-378,131	106,380	-0,016	-0,013
-377,117	-34,783	0,074	0,029
-376,102	93,645	-0,187	-0,152
-375,088	42,093	-0,130	0,085
-374,073	-200,000	0,003	0,165
-373,058	-113,365	0,102	0,014
-372,044	-17,364	0,109	0,049
-371,029	-8,451	0,077	0,037
-370,015	-24,543	-0,125	-0,053
-369,000	800,000	0,025	-0,068
-367,985	-200,000	-0,005	0,025
-366,971	-200,000	-0,021	-0,075
-365,956	299,315	-0,077	-0,103
-364,942	171,952	-0,047	0,049
-363,927	800,000	0,096	0,202
-362,912	800,000	-0,013	0,034
-361,898	104,347	0,092	0,078
-360,883	347,785	-0,064	-0,091
-359,869	-200,000	0,019	-0,071
-358,854	-200,000	0,012	0,065
-357,839	348,729	-0,074	0,105
-356,825	-113,519	0,138	0,019
-355,810	-200,000	0,009	-0,091
-354,796	-200,000	0,007	-0,046
-353,781	-200,000	-0,009	0,144
-352,766	283,038	-0,101	-0,130
-351,752	46,376	0,135	0,090
-350,737	-84,396	0,097	0,022
-349,723	389,241	0,055	0,082
-348,708	-55,385	-0,146	0,047
-347,693	800,000	-0,031	0,073
-346,679	-200,000	0,010	-0,050
-345,664	613,672	-0,121	0,217
-344,650	-178,581	0,136	0,002
-343,635	-14,817	0,114	0,052
-342,620	146,534	0,059	0,057
-341,606	-92,354	0,035	-0,007
-340,591	-200,000	0,011	-0,061
-339,577	72,179	0,095	-0,071
-338,562	-200,000	0,018	-0,131
-337,548	800,000	-0,041	0,096
-336,533	400,699	-0,022	-0,033
-335,518	-152,491	0,094	-0,005
-334,504	158,931	-0,032	0,032
-333,489	800,000	0,078	-0,169
-332,475	267,317	-0,053	0,066
-331,460	4,083	-0,096	0,050
-330,445	-67,485	0,063	-0,017
-329,431	58,746	0,080	0,056
-328,416	-200,000	-0,008	0,162
-327,402	-200,000	0,012	0,049
-326,387	-83,689	0,058	-0,013
-325,372	-200,000	0,016	-0,150
-324,358	41,941	0,067	0,043
-323,343	22,997	-0,148	-0,086
-322,329	38,668	-0,068	-0,043
-321,314	-200,000	-0,019	-0,111
-320,299	800,000	0,039	-0,110
-319,285	619,365	-0,060	0,108
-318,270	136,926	-0,040	-0,037
-317,256	-200,000	-0,022	-0,131
-316,241	-25,010	-0,072	0,030
-315,226	-200,000	-0,003	-0,013
-314,212	-200,000	0,014	0,125
-313,197	153,050	0,058	0,057
-312,183	113,697	0,054	-0,047
-311,168	-79,142	-0,063	0,015
-310,153	627,798	0,043	-0,078
-309,139	71,476	-0,070	-0,052
-308,124	-74,248	0,145	-0,037
-307,110	174,537	-0,025	-0,025
-306,095	-52,887	0,202	0,066
-305,080	155,199	-0,021	-0,020
-304,066	800,000	0,018	0,057
-303,051	47,940	0,048	-0,032
-302,037	-200,000	0,016	-0,103
-301,022	164,946	-0,073	-0,074
-300,008	204,326	0,075	0,084
-298,993	800,000	-0,055	0,128
-297,978	-200,000	0,019	0,082
-296,964	107,102	0,108	-0,092
-295,949	69,403	-0,068	-0,050
-294,935	30,199	-0,048	0,029
-293,920	-38,023	0,090	-0,034
-292,905	-56,434	0,029	0,009
-291,891	-200,000	0,015	0,093
-290,876	-3,084	-0,126	-0,063
-289,862	-200,000	-0,001	0,052
-288,847	-200,000	0,019	-0,162
-287,832	-104,949	-0,090	0,015
-286,818	-200,000	-0,004	-0,055
-285,803	-200,000	-0,002	-0,092
-284,789	56,683	-0,036	-0,025
-283,774	800,000	0,025	0,062
-282,759	21,156	-0,067	0,039
-281,745	363,545	0,030	0,043
-280,730	-200,000	0,020	0,132
-279,716	-111,385	-0,092	-0,013
-278,701	-81,914	0,107	0,025
-277,686	800,000	-0,096	0,192
-276,672	668,450	0,042	0,078
-275,657	109,722	-0,049	0,042
-274,643	-200,000	-0,007	0,215
-273,628	-200,000	0,057	-0,282
-272,613	80,209	0,025	0,019
-271,599	232,118	0,039	-0,046
-270,584	800,000	-0,008	-0,017
-269,570	108,460	0,042	0,036
-268,555	800,000	0,003	0,008
-267,540	70,230	0,074	-0,054
-266,526	-200,000	0,001	-0,131
-265,511	115,190	-0,060	0,052
-264,497	-200,000	0,000	-0,108
-263,482	-200,000	0,060	0,214
-262,467	345,828	-0,117	-0,165
-261,453	-28,826	-0,080	0,033
-260,438	782,662	-0,049	-0,097
-259,424	-200,000	-0,031	-0,161
-258,409	-180,575	-0,089	0,001
-257,395	52,985	0,090	0,061
-256,380	-48,294	0,014	0,005
-255,365	770,653	0,065	0,127
-254,351	-200,000	0,006	0,110
-253,336	-129,536	-0,108	0,011
-252,322	800,000	0,039	-0,080
-251,307	-200,000	0,012	-0,053
-250,292	-34,917	0,065	0,025
-249,278	-91,397	0,027	0,006
-248,263	25,684	0,060	0,036
-247,249	800,000	-0,008	-0,027
-246,234	490,112	0,064	-0,105
-245,219	-200,000	0,012	-0,080
-244,205	-200,000	-0,001	-0,077
-243,190	800,000	-0,080	-0,177
-242,176	-15,362	-0,015	0,007
-241,161	-23,120	0,103	0,044
-240,146	62,729	-0,107	-0,076
-239,132	-200,000	0,001	-0,012
-238,117	42,567	-0,075	0,049
-237,103	-200,000	0,002	-0,141
-236,088	6,225	-0,081	0,043
-235,073	107,051	-0,071	0,060
-234,059	-71,982	-0,063	0,017
-233,044	215,554	0,137	0,155
-232,030	-108,940	-0,044	-0,007
-231,015	-69,273	-0,143	-0,039
-230,000	800,000	0,035	-0,088
-228,986	-24,560	0,122	-0,052
-227,971	-25,012	0,145	-0,061
-226,957	-200,000	0,017	0,067
-225,942	-200,000	0,021	0,152
-224,927	-200,000	-0,023	0,192
-223,913	-200,000	0,004	0,026
-222,898	583,180	0,023	-0,040
-221,884	800,000	-0,017	0,042
-220,869	125,600	-0,068	0,062
-219,855	-200,000	-0,013	0,209
-218,840	57,155	0,064	0,045
-217,825	279,474	0,043	0,055
-216,811	31,854	0,012	0,007
-215,796	-97,128	-0,108	0,020
-214,782	-188,183	-0,076	0,001
-213,767	87,416	-0,030	-0,024
-212,752	742,377	0,058	-0,112
-211,738	599,626	-0,019	0,035
-210,723	197,472	0,062	0,068
-209,709	-200,000	0,021	0,109
-208,694	-200,000	0,019	-0,201
-207,679	800,000	0,043	-0,089
-206,665	165,384	-0,086	-0,086
-205,650	-200,000	0,005	0,057
-204,636	517,632	-0,045	0,075
-203,621	-6,075	-0,036	-0,017
-202,606	-43,578	0,177	0,063
-201,592	800,000	0,020	-0,048
-200,577	218,286	-0,075	-0,085
-199,563	54,363	-0,071	-0,049
-198,548	-200,000	-0,002	-0,021
-197,533	51,864	0,093	0,063
-196,519	170,804	-0,086	-0,088
-195,504	-3,158	0,079	0,039
-194,490	-200,000	0,011	-0,066
-193,475	-200,000	-0,000	-0,022
-192,460	-200,000	0,001	0,158
-191,446	-115,523	0,044	-0,006
-190,431	552,683	-0,039	0,067
-189,417	-200,000	-0,024	-0,138
-188,402	757,580	-0,028	-0,054
-187,387	70,556	0,046	0,034
-186,373	4,349	0,056	-0,029
-185,358	473,718	-0,082	-0,132
-184,344	102,224	-0,048	0,040
-183,329	-200,000	-0,018	0,063
-182,315	-176,542	0,116	0,002
-181,300	-72,222	-0,142	0,037
-180,285	-119,286	0,053	-0,006
-179,271	605,462	-0,044	-0,079
-178,256	-200,000	0,033	-0,133
-177,242	494,845	0,047	-0,077
-176,227	-120,094	0,011	-0,001
-175,212	-98,968	-0,054	-0,010
-174,198	11,709	0,039	-0,021
-173,183	-200,000	0,005	0,061
-172,169	149,845	-0,038	0,037
-171,154	181,766	0,094	-0,098
-170,139	788,078	0,012	-0,024
-169,125	326,888	0,112	0,154
-168,110	-177,969	-0,090	-0,001
-167,096	431,270	-0,055	-0,085
-166,081	-21,179	-0,023	-0,010
-165,066	-200,000	-0,009	-0,128
-164,052	31,003	-0,067	-0,041
-163,037	356,777	0,014	-0,020
-162,023	-115,394	-0,062	-0,008
-161,008	-136,773	0,081	0,007
-159,993	800,000	0,020	0,062
-158,979	585,971	-0,060	-0,105
-157,964	800,000	-0,008	-0,018
-156,950	237,946	0,014	-0,017
-155,935	-52,190	-0,108	-0,035
-154,920	-75,206	0,143	0,036
-153,906	503,810	0,068	0,112
-152,891	234,136	-0,051	-0,060
-151,877	137,799	0,012	0,011
-150,862	-95,079	-0,073	0,014
-149,847	61,160	-0,097	-0,069
-148,833	-200,000	0,002	0,057
-147,818	800,000	-0,043	0,110
-146,804	236,311	-0,024	0,028
-145,789	-81,407	0,076	-0,018
-144,775	469,971	-0,036	-0,057
-143,760	650,658	-0,024	-0,044
-142,745	50,940	0,028	-0,019
-141,731	-200,000	0,015	-0,074
-140,716	3,687	0,085	0,044
-139,702	-78,109	-0,009	-0,002
-138,687	-200,000	0,017	-0,055
-137,672	-200,000	0,038	-0,195
-136,658	617,072	-0,033	-0,058
-135,643	162,055	-0,082	-0,081
-134,629	-49,284	0,014	-0,005
-133,614	644,070	-0,037	-0,068
-132,599	-144,227	-0,020	0,001
-131,585	800,000	0,060	0,121
-130,570	-55,305	0,101	-0,032
-129,556	-187,482	-0,172	-0,002
-128,541	469,292	0,043	-0,069
-127,526	177,596	0,013	-0,013
-126,512	-95,898	0,192	-0,036
-125,497	-200,000	0,006	0,078
-124,483	-61,982	-0,113	0,033
-123,468	104,118	0,144	-0,120
-122,453	145,937	-0,082	-0,078
-121,439	-200,000	-0,026	0,087
-120,424	-200,000	0,022	0,069
-119,410	-51,353	0,062	-0,020
-118,395	-200,000	0,015	0,213
-117,380	800,000	0,060	0,138
-116,366	-71,828	-0,136	-0,036
-115,351	273,523	-0,039	-0,050
-114,337	-200,000	-0,016	-0,134
-113,322	-40,469	-0,047	-0,017
-112,307	332,600	-0,037	0,050
-111,293	-200,000	0,006	-0,040
-110,278	800,000	0,029	0,084
-109,264	-16,018	-0,127	0,057
-108,249	-55,794	0,047	-0,015
-107,234	230,247	0,076	-0,088
-106,220	-36,423	-0,091	0,034
-105,205	660,922	0,028	0,052
-104,191	86,304	0,061	0,048
-103,176	-145,162	0,063	-0,004
-102,162	-106,758	0,131	0,021
-101,147	270,545	-0,045	-0,056
-100,132	-200,000	-0,014	-0,136
-99,118	-76,209	-0,092	0,023
-98,103	95,882	-0,123	-0,099
-97,089	27,870	0,108	-0,065
-96,074	44,683	0,099	0,065
-95,059	-41,602	0,168	0,061
-94,045	-200,000	0,006	0,104
-93,030	130,498	-0,092	0,084
-92,016	605,446	0,034	-0,061
-91,001	-12,221	0,033	0,015
-89,986	-89,003	-0,115	-0,024
-88,972	800,000	0,070	0,201
-87,957	70,282	0,041	-0,030
-86,943	800,000	-0,028	0,088
-85,928	52,544	-0,095	0,065
-84,913	-200,000	0,015	-0,074
-83,899	272,897	0,117	-0,147
-82,884	192,964	0,076	-0,081
-81,870	-76,033	-0,030	-0,008
-80,855	800,000	0,034	0,094
-79,840	-154,092	-0,128	-0,006
-78,826	800,000	0,066	-0,164
-77,811	131,463	-0,093	-0,084
-76,797	-200,000	0,003	0,011
-75,782	-200,000	0,039	0,137
-74,767	-104,666	0,091	-0,015
-73,753	21,160	0,073	0,042
-72,738	-52,406	0,044	0,014
-71,724	-200,000	0,006	0,058
-70,709	800,000	0,043	-0,125
-69,694	-94,525	0,042	-0,008
-68,680	59,939	-0,088	-0,061
-67,665	800,000	0,018	0,053
-66,651	800,000	-0,084	0,182
-65,636	256,023	0,049	0,060
-64,622	-200,000	0,011	0,058
-63,607	101,865	-0,040	-0,033
-62,592	120,750	-0,067	0,059
-61,578	93,735	0,057	0,046
-60,563	16,728	-0,045	0,025
-59,549	202,316	-0,067	0,073
-58,534	-77,123	-1,469	-0,360
-57,519	421,694	-1,469	-2,239
-56,505	-200,000	-0,441	-4,389
-55,490	168,467	0,791	0,799
-54,476	800,000	4,716	11,306
-53,461	-200,000	17,900	286,301
-52,446	800,000	722,425	2233,085
-51,432	562,623	1636,644	2816,459
-50,417	80,484	1660,058	1265,313
-49,403	23,411	1533,891	890,987
-48,388	17,309	1457,603	817,224
-47,373	18,061	1447,293	815,019
-46,359	17,592	1437,671	807,333
-45,344	15,629	1433,084	795,390
-44,330	15,538	1431,118	793,834
-43,315	15,575	1429,559	793,113
-42,300	15,595	1427,759	792,177
-41,286	15,646	1426,746	791,825
-40,271	15,581	1425,328	790,701
-39,257	15,612	1424,142	790,156
-38,242	15,624	1422,948	789,520
-37,227	15,591	1421,698	788,638
-36,213	15,642	1420,111	787,968
-35,198	15,545	1419,427	787,100
-34,184	15,620	1418,301	786,799
-33,169	15,548	1417,099	785,763
-32,154	15,621	1415,964	785,444
-31,140	15,597	1414,566	784,526
-30,125	15,651	1413,650	784,240
-29,111	15,652	1412,120	783,362
-28,096	15,648	1411,132	782,763
-27,082	15,480	1410,304	781,490
-26,067	15,552	1409,103	781,127
-25,052	15,534	1407,883	780,336
-24,038	15,498	1406,991	779,645
-23,023	15,520	1406,078	779,208
-22,009	15,509	1404,979	778,519
-20,994	15,465	1404,296	777,903
-19,979	15,486	1403,071	777,291
-18,965	15,451	1402,218	776,628
-17,950	15,415	1401,324	775,934
-16,936	15,494	1400,134	775,610
-15,921	15,396	1399,220	774,618
-14,906	15,401	1398,157	774,023
-13,892	15,427	1397,219	773,593
-12,877	15,407	1396,365	772,998
-11,863	15,441	1395,182	772,470
-10,848	15,420	1394,574	772,004
-9,833	15,412	1393,712	771,457
-8,819	15,380	1392,684	770,709
-7,804	15,328	1391,692	769,891
-6,790	15,335	1390,658	769,322
-5,775	15,343	1389,745	768,821
-4,760	15,375	1388,791	768,412
-3,746	15,327	1388,081	767,767
-2,731	15,340	1387,174	767,293
-1,717	15,283	1386,364	766,556
-0,702	15,316	1384,485	765,638
0,313	19,213	1304,733	739,484
1,327	35,402	706,582	437,965
2,342	54,472	125,004	85,125
3,356	2,921	16,715	8,563
4,371	12,212	2,985	1,622
5,386	-39,515	0,466	0,172
6,400	478,869	0,061	0,098
7,415	-92,193	-0,455	-0,090
8,429	-40,436	-0,339	-0,124
9,444	186,497	-0,297	-0,313
10,459	60,999	-0,317	-0,222
11,473	104,699	-0,299	-0,249
12,488	4,628	-0,345	-0,179
13,502	96,278	-0,371	-0,300
14,517	-58,513	-0,413	-0,126
15,531	121,987	-0,282	-0,249
16,546	117,437	-0,366	-0,319
17,561	3,990	-0,494	-0,254
18,575	-34,510	-0,277	-0,107
19,590	224,182	-0,176	-0,201
20,604	-53,641	-0,240	-0,077
21,619	-6,981	-0,496	-0,237
22,634	121,905	-0,469	-0,414
23,648	56,576	-0,323	-0,222
24,663	142,270	-0,403	-0,378
25,677	-52,025	-0,336	-0,110
26,692	63,840	-0,230	-0,163
27,707	24,733	-0,419	-0,244
28,721	74,408	-0,404	-0,300
29,736	173,589	-0,322	-0,328
30,750	197,075	-0,389	-0,419
31,765	28,173	-0,402	-0,239
32,780	54,790	-0,378	-0,257
33,794	57,868	-0,266	-0,184
34,809	-109,860	-0,368	-0,054
35,823	35,385	-0,345	-0,213
36,838	800,000	-0,195	-0,426
37,853	251,161	-0,379	-0,456
38,867	82,173	-0,398	-0,304
39,882	232,413	-0,201	-0,234
40,896	175,379	-0,309	-0,316
41,911	180,425	-0,323	-0,335
42,926	200,873	-0,379	-0,411
43,940	79,459	-0,328	-0,248
44,955	44,862	-0,355	-0,230
45,969	-1,543	-0,325	-0,161
46,984	52,260	-0,349	-0,235
47,999	-93,461	-0,401	-0,078
49,013	335,204	-0,179	-0,245
50,028	179,528	-0,397	-0,411
51,042	111,802	-0,336	-0,286
52,057	112,098	-0,227	-0,193
53,071	115,983	-0,305	-0,263
54,086	100,722	-0,349	-0,286
55,101	-52,965	-0,434	-0,140
56,115	108,407	-0,311	-0,262
57,130	2,616	-0,312	-0,159
58,144	-57,179	-0,441	-0,136
59,159	62,707	-0,442	-0,311
60,174	109,171	-0,408	-0,344
61,188	131,678	-0,304	-0,275
62,203	4,968	-0,413	-0,213
63,217	63,883	-0,440	-0,311
64,232	107,140	-0,355	-0,297
65,247	44,579	-0,286	-0,185
66,261	-80,807	-0,382	-0,088
67,276	48,606	-0,331	-0,218
68,290	-49,014	-0,356	-0,119
69,305	101,670	-0,417	-0,342
70,320	-103,046	-0,224	-0,037
71,334	1,605	-0,321	-0,162
72,349	241,531	-0,288	-0,339
73,363	125,565	-0,243	-0,216
74,378	5,648	-0,315	-0,163
75,393	72,673	-0,256	-0,188
76,407	99,035	-0,230	-0,187
77,422	-53,325	-0,466	-0,149
78,436	92,795	-0,203	-0,161
79,451	231,551	-0,266	-0,308
80,466	16,032	-0,448	-0,248
81,480	-137,265	-0,399	-0,031
82,495	51,526	-0,289	-0,193
83,509	72,417	-0,273	-0,200
84,524	87,997	-0,259	-0,202
85,539	1,693	-0,210	-0,106
86,553	6,012	-0,249	-0,129
87,568	56,059	-0,218	-0,148
88,582	99,217	-0,327	-0,265
89,597	91,976	-0,278	-0,219
90,611	-15,963	-0,339	-0,151
91,626	261,863	-0,223	-0,273
92,641	-121,089	-0,337	-0,039
93,655	161,967	-0,265	-0,261
94,670	232,707	-0,181	-0,209
95,684	-18,266	-0,326	-0,142
96,699	-60,531	-0,318	-0,094
97,714	-36,389	-0,389	-0,146
98,728	451,346	-0,160	-0,249
99,743	60,037	-0,261	-0,181
100,757	99,653	-0,268	-0,217
101,772	132,587	-0,296	-0,268
102,787	277,872	-0,175	-0,219
103,801	-9,253	-0,324	-0,151
104,816	335,011	-0,152	-0,208
105,830	-48,581	-0,271	-0,091
106,845	56,320	-0,157	-0,107
107,860	40,645	-0,284	-0,179
108,874	97,073	-0,191	-0,154
109,889	123,907	-0,277	-0,244
110,903	78,044	-0,365	-0,273
111,918	126,422	-0,264	-0,234
112,933	113,062	-0,193	-0,164
113,947	-8,015	-0,293	-0,138
114,962	-79,817	-0,339	-0,079
115,976	30,721	-0,357	-0,213
116,991	55,100	-0,215	-0,145
118,006	106,050	-0,254	-0,211
119,020	-121,968	-0,427	0,049
120,035	9,468	-0,277	-0,146
121,049	257,669	-0,139	-0,168
122,064	136,510	-0,205	-0,188
123,079	127,616	-0,192	-0,171
124,093	1,155	-0,305	-0,153
125,108	227,693	-0,260	-0,297
126,122	118,377	-0,332	-0,287
127,137	39,297	-0,305	-0,191
128,151	345,831	-0,199	-0,275
129,166	800,000	-0,083	-0,164
130,181	2,450	-0,211	-0,107
131,195	10,521	-0,309	-0,164
132,210	408,942	-0,216	-0,321
133,224	3,845	-0,257	-0,131
134,239	3,643	-0,298	-0,152
135,254	-122,694	-0,360	-0,040
136,268	21,359	-0,201	-0,114
137,283	592,976	-0,143	-0,248
138,297	-130,421	-0,337	-0,032
139,312	66,838	-0,254	-0,180
140,327	-2,215	-0,311	-0,152
141,341	355,855	-0,218	-0,304
142,356	91,358	-0,202	-0,159
143,370	-4,726	-0,209	-0,100
144,385	37,264	-0,303	-0,187
145,400	-52,486	-0,261	-0,084
146,414	110,124	-0,115	-0,096
147,429	-104,234	-0,245	-0,039
148,443	38,131	-0,234	-0,145
149,458	267,471	-0,121	-0,148
150,473	146,113	-0,285	-0,267
151,487	95,910	-0,193	-0,154
152,502	380,890	-0,195	-0,280
153,516	153,008	-0,204	-0,195
154,531	265,115	-0,239	-0,291
155,546	-4,084	-0,278	-0,134
156,560	117,250	-0,177	-0,152
157,575	18,252	-0,228	-0,127
158,589	156,994	-0,203	-0,196
159,604	32,163	-0,239	-0,144
160,619	193,346	-0,253	-0,267
161,633	97,118	-0,242	-0,194
162,648	176,837	-0,251	-0,255
163,662	326,970	-0,150	-0,201
164,677	-106,971	-0,206	-0,031
165,692	-53,106	-0,213	-0,068
166,706	-21,791	-0,262	-0,111
167,721	82,919	-0,248	-0,188
168,735	8,583	-0,260	-0,136
169,750	126,676	-0,117	-0,103
170,764	42,430	-0,303	-0,192
171,779	112,572	-0,167	-0,141
172,794	219,368	-0,156	-0,174
173,808	-9,406	-0,207	-0,096
174,823	-63,995	-0,160	-0,045
175,837	38,100	-0,152	-0,094
176,852	266,759	-0,196	-0,239
177,867	333,274	-0,120	-0,163
178,881	257,037	-0,117	-0,140
179,896	-9,824	-0,229	-0,106
180,910	-8,488	-0,263	-0,123
181,925	45,227	-0,276	-0,177
182,940	94,891	-0,219	-0,174
183,954	72,001	-0,169	-0,122
184,969	199,414	-0,213	-0,228
185,983	-139,631	-0,166	-0,012
186,998	262,878	-0,113	-0,137
188,013	800,000	-0,134	-0,287
189,027	117,415	-0,252	-0,216
190,042	143,122	-0,135	-0,125
191,056	286,263	-0,205	-0,258
192,071	-85,226	-0,190	-0,041
193,086	-79,742	-0,140	-0,033
194,100	75,741	-0,148	-0,109
195,115	60,556	-0,237	-0,163
196,129	-54,134	-0,200	-0,063
197,144	777,179	-0,113	-0,217
198,159	20,424	-0,247	-0,139
199,173	-200,000	-0,068	-0,215
200,188	46,393	-0,134	-0,087
201,202	-122,164	-0,244	0,027
202,217	-64,759	-0,309	-0,087
203,232	-9,481	-0,287	-0,133
204,246	312,043	-0,212	-0,277
205,261	800,000	-0,107	-0,208
206,275	422,851	-0,083	-0,124
207,290	-32,472	-0,196	-0,076
208,304	-46,223	-0,245	-0,083
209,319	237,992	-0,122	-0,141
210,334	-35,706	-0,341	-0,128
211,348	335,351	-0,146	-0,197
212,363	-200,000	-0,067	-0,267
213,377	24,289	-0,312	-0,179
214,392	-156,590	-0,127	0,005
215,407	-180,117	-0,175	0,003
216,421	6,752	-0,155	-0,080
217,436	49,784	-0,138	-0,090
218,450	-32,876	-0,340	-0,131
219,465	17,615	-0,260	-0,143
220,480	72,807	-0,149	-0,108
221,494	-66,083	-0,238	-0,065
222,509	191,790	-0,160	-0,167
223,523	28,401	-0,142	-0,083
224,538	-102,830	-0,215	-0,035
225,553	433,972	-0,153	-0,231
226,567	-117,381	-0,197	-0,024
227,582	-84,536	-0,237	-0,051
228,596	-59,086	-0,202	-0,060
229,611	402,731	-0,096	-0,140
230,626	-28,972	-0,253	-0,100
231,640	189,174	-0,132	-0,137
232,655	497,005	-0,116	-0,185
233,669	58,587	-0,179	-0,121
234,684	-140,554	-0,218	-0,015
235,699	452,843	-0,034	0,053
236,713	-101,446	-0,110	-0,018
237,728	-10,349	-0,227	-0,104
238,742	-160,443	-0,278	0,010
239,757	-24,973	-0,225	-0,092
240,772	152,570	-0,226	-0,214
241,786	549,647	-0,116	-0,194
242,801	22,988	-0,246	-0,140
243,815	123,010	-0,073	-0,063
244,830	232,965	-0,094	-0,107
245,844	160,540	-0,180	-0,174
246,859	172,175	-0,224	-0,223
247,874	81,506	-0,297	-0,223
248,888	17,749	-0,111	-0,061
249,903	116,435	-0,178	-0,151
250,917	-200,000	-0,030	0,111
251,932	77,086	-0,185	-0,136
252,947	334,747	-0,091	-0,122
253,961	-49,839	-0,242	-0,079
254,976	52,888	-0,289	-0,191
255,990	257,274	-0,203	-0,243
257,005	-48,893	-0,037	-0,012
258,020	-200,000	-0,011	0,036
259,034	163,839	-0,145	-0,141
260,049	-178,645	-0,204	0,003
261,063	-91,489	-0,102	-0,020
262,078	383,470	-0,126	-0,180
263,093	-88,866	-0,249	-0,051
264,107	-200,000	-0,006	-0,074
265,122	-142,170	-0,107	-0,007
266,136	368,687	-0,178	-0,250
267,151	24,906	-0,223	-0,128
268,166	42,004	-0,183	-0,115
269,180	38,087	-0,109	-0,067
270,195	79,665	-0,179	-0,132
271,209	-45,649	-0,238	-0,081
272,224	135,178	-0,106	-0,095
273,239	-72,436	-0,159	0,040
274,253	739,769	-0,062	0,115
275,268	163,817	-0,107	-0,104
276,282	800,000	-0,063	-0,173
277,297	144,215	-0,213	-0,196
278,312	8,231	-0,234	-0,121
279,326	116,399	-0,132	-0,112
280,341	44,981	-0,133	-0,085
281,355	787,638	-0,084	-0,161
282,370	293,417	-0,184	-0,232
283,384	20,847	-0,124	-0,069
284,399	37,224	-0,089	-0,054
285,414	62,379	-0,152	-0,105
286,428	-115,768	-0,179	-0,023
287,443	568,365	-0,026	-0,045
288,457	62,515	-0,117	-0,081
289,472	-67,589	-0,156	-0,042
290,487	-21,477	-0,260	-0,109
291,501	182,312	-0,130	-0,132
292,516	93,127	-0,257	-0,200
293,530	-12,389	-0,100	0,045
294,545	-16,197	-0,202	-0,088
295,560	122,613	-0,118	-0,102
296,574	465,492	-0,122	-0,189
297,589	-14,920	-0,219	-0,096
298,603	-76,459	-0,120	-0,029
299,618	151,958	-0,126	-0,119
300,633	354,530	-0,104	-0,143
301,647	-6,674	-0,022	-0,010
302,662	-28,320	-0,082	0,032
303,676	800,000	-0,101	-0,213
304,691	-103,170	-0,220	-0,036
305,706	23,346	-0,225	-0,127
306,720	157,963	-0,166	-0,158
307,735	-112,328	-0,244	0,033
308,749	258,345	-0,116	-0,138
309,764	-49,169	-0,098	-0,032
310,779	-200,000	-0,022	-0,074
311,793	5,544	-0,184	-0,093
312,808	800,000	-0,100	-0,207
313,822	346,561	-0,143	-0,195
314,837	-200,000	-0,045	-0,220
315,852	31,635	-0,167	-0,099
316,866	110,849	-0,167	-0,138
317,881	-37,715	-0,224	-0,082
318,895	-99,569	-0,114	-0,020
319,910	191,718	-0,188	-0,195
320,925	-27,417	-0,231	-0,092
321,939	280,101	-0,111	-0,137
322,954	114,255	-0,133	-0,112
323,968	37,880	-0,115	-0,070
324,983	-53,392	-0,173	-0,054
325,997	-93,506	-0,192	-0,036
327,012	254,181	-0,153	-0,180
328,027	327,681	-0,083	-0,110
329,041	-23,920	-0,114	-0,047
330,056	-16,165	-0,081	0,035
331,070	-200,000	0,012	-0,075
332,085	-101,768	-0,060	-0,010
333,100	-62,962	-0,164	-0,046
334,114	-62,638	-0,051	0,014
335,129	17,506	-0,096	-0,052
336,143	256,312	-0,212	-0,250
337,158	751,970	-0,070	-0,130
338,173	38,566	-0,114	0,070
339,187	800,000	-0,047	-0,124
340,202	-143,755	-0,122	-0,008
341,216	-200,000	-0,015	-0,063
342,231	277,236	-0,157	-0,192
343,246	800,000	-0,096	-0,184
344,260	-200,000	-0,062	-0,241
345,275	111,286	-0,146	-0,121
346,289	2,428	-0,103	-0,051
347,304	-31,960	-0,126	-0,048
348,319	-25,625	-0,070	-0,028
349,333	2,076	-0,204	-0,101
350,348	165,753	-0,136	-0,132
351,362	679,279	-0,084	-0,152
352,377	602,100	-0,084	-0,144
353,392	-116,959	-0,123	0,015
354,406	247,093	-0,114	-0,133
355,421	209,502	1312,716	1413,734
356,435	161,248	1473,229	1414,270
