DTS Sentinel unit serial number:	SN410029Multiplexer serial number:	ORYXHardware model number:	OX2-SRSoftware version number:	ORYX F/W v4,00 Oryx Data Collector v3.7.2.0data status	okinstallation	B3 Nyhavnadifferential loss correction	single-endedforward channel	channel 1reverse channel	N/Adate	2023/11/29time	21:02:30forward acquisition time	300,00reverse acquisition time	0,00gamma	499,1914k internal	0,3209k external	0,3209temperature offset calibration	1,0000default loss term (dB/km)	0,3820temperature slope calibration	1,0000multiplexer offset coefficient	1,0000multiplexer slope coefficient	1,0000fibre end	0,00T internal ref (°C)	10,82T ext. ref 1 (°C)	-4,23T ext. ref 2 (°C)	-4,31length (m)	temperature (°C)	Stokes	anti-Stokes-744,400	800,000	-0,134	-0,304
-743,385	-200,000	-0,062	0,224
-742,371	-200,000	-0,002	-0,114
-741,356	-200,000	-0,008	0,305
-740,342	-200,000	-0,065	-0,267
-739,327	-200,000	-0,037	0,368
-738,312	800,000	-0,128	-0,360
-737,298	522,171	-0,141	0,242
-736,283	164,771	-0,145	-0,149
-735,269	-200,000	0,015	0,231
-734,254	179,595	-0,164	-0,174
-733,239	-72,435	-0,306	-0,081
-732,225	43,161	-0,200	-0,132
-731,210	-59,537	0,077	0,024
-730,196	243,523	-0,022	-0,027
-729,181	-200,000	-0,019	0,121
-728,167	10,946	0,146	0,081
-727,152	-37,638	-0,003	-0,001
-726,137	309,366	0,028	0,039
-725,123	-123,084	-0,170	0,020
-724,108	4,220	0,058	0,031
-723,094	-200,000	-0,044	-0,202
-722,079	148,661	-0,068	-0,066
-721,064	159,035	0,062	0,062
-720,050	318,081	0,036	0,049
-719,035	-81,323	-0,070	0,017
-718,021	-200,000	0,003	-0,043
-717,006	-111,467	-0,131	0,019
-715,991	198,936	-0,030	-0,034
-714,977	800,000	-0,049	-0,111
-713,962	800,000	0,079	-0,214
-712,948	800,000	0,015	-0,040
-711,933	211,425	-0,045	0,052
-710,918	800,000	-0,023	-0,047
-709,904	15,245	-0,100	0,057
-708,889	130,683	-0,065	-0,060
-707,875	94,010	0,075	-0,062
-706,860	213,773	0,053	-0,061
-705,845	-49,650	0,029	0,010
-704,831	-39,353	0,096	0,036
-703,816	800,000	0,050	0,118
-702,802	-200,000	-0,044	0,150
-701,787	-99,651	0,130	0,023
-700,772	800,000	0,036	-0,110
-699,758	-34,346	-0,081	0,032
-698,743	-150,183	0,064	0,004
-697,729	100,429	-0,126	0,106
-696,714	-200,000	0,015	-0,088
-695,699	158,373	-0,171	0,171
-694,685	800,000	-0,039	-0,083
-693,670	302,125	-0,077	-0,104
-692,656	78,542	0,107	-0,083
-691,641	800,000	-0,022	-0,048
-690,627	-168,974	0,182	0,005
-689,612	800,000	0,060	0,131
-688,597	74,674	-0,088	0,067
-687,583	141,980	-0,148	0,142
-686,568	98,591	0,097	-0,081
-685,554	447,652	-0,071	-0,114
-684,539	-131,098	0,011	0,001
-683,524	62,035	0,053	-0,038
-682,510	15,965	-0,141	0,080
-681,495	151,940	-0,099	0,097
-680,481	15,048	0,084	-0,048
-679,466	12,748	0,034	0,019
-678,451	491,773	-0,034	-0,056
-677,437	116,132	-0,074	0,065
-676,422	23,829	-0,254	-0,151
-675,408	2,069	0,063	0,033
-674,393	159,872	-0,058	0,058
-673,378	-200,000	-0,020	-0,176
-672,364	287,299	-0,068	-0,089
-671,349	-200,000	-0,004	0,137
-670,335	-115,251	0,159	0,021
-669,320	54,479	-0,068	-0,047
-668,305	-9,718	0,057	-0,027
-667,291	-144,733	0,118	-0,008
-666,276	108,908	-0,112	-0,097
-665,262	718,242	0,070	-0,135
-664,247	62,397	0,111	-0,080
-663,232	800,000	-0,014	-0,033
-662,218	419,965	0,025	0,038
-661,203	800,000	0,025	0,053
-660,189	800,000	0,054	0,111
-659,174	-60,061	-0,063	0,019
-658,159	800,000	-0,061	0,135
-657,145	-45,072	0,051	0,018
-656,130	-200,000	0,026	0,134
-655,116	-200,000	-0,002	-0,026
-654,101	-200,000	-0,021	-0,119
-653,086	-113,686	-0,167	-0,023
-652,072	210,427	0,027	-0,031
-651,057	-200,000	-0,015	0,084
-650,043	-200,000	0,012	-0,183
-649,028	622,867	0,050	-0,092
-648,014	183,507	0,080	-0,086
-646,999	-117,497	0,104	-0,013
-645,984	216,400	-0,063	-0,072
-644,970	581,151	0,031	0,055
-643,955	-45,707	-0,131	-0,047
-642,941	-200,000	0,006	-0,080
-641,926	86,207	-0,028	-0,023
-640,911	800,000	0,002	0,006
-639,897	-200,000	0,006	0,196
-638,882	-200,000	0,021	0,135
-637,868	303,736	-0,078	-0,105
-636,853	134,272	-0,079	-0,074
-635,838	257,042	-0,052	0,065
-634,824	-200,000	0,001	0,086
-633,809	-89,949	0,153	-0,032
-632,795	5,729	-0,023	0,012
-631,780	136,557	0,075	-0,071
-630,765	304,993	-0,038	-0,052
-629,751	-20,937	0,051	0,022
-628,736	32,787	-0,116	-0,072
-627,722	-26,298	-0,073	0,031
-626,707	466,519	-0,037	-0,061
-625,692	-33,886	0,228	-0,090
-624,678	88,802	0,097	0,077
-623,663	167,258	-0,059	-0,061
-622,649	800,000	-0,062	-0,178
-621,634	267,195	-0,109	-0,138
-620,619	-200,000	-0,008	-0,069
-619,605	393,326	-0,085	0,128
-618,590	-200,000	-0,024	0,101
-617,576	-188,547	-0,104	-0,001
-616,561	-200,000	0,020	-0,160
-615,546	-131,906	-0,091	-0,008
-614,532	257,876	0,038	0,048
-613,517	-51,489	-0,074	0,025
-612,503	273,970	-0,053	0,067
-611,488	348,712	-0,024	0,034
-610,474	559,304	-0,023	-0,040
-609,459	-200,000	-0,004	-0,093
-608,444	517,474	-0,088	-0,150
-607,430	-32,033	-0,115	-0,046
-606,415	67,150	-0,043	-0,032
-605,401	-26,026	-0,105	0,044
-604,386	800,000	0,020	-0,046
-603,371	-54,814	-0,046	0,015
-602,357	55,109	-0,138	-0,096
-601,342	501,412	-0,006	-0,011
-600,328	800,000	-0,029	-0,070
-599,313	-191,502	0,129	-0,001
-598,298	-128,565	0,042	0,004
-597,284	-163,923	0,021	-0,001
-596,269	800,000	-0,015	0,039
-595,255	800,000	-0,026	0,080
-594,240	30,408	-0,126	-0,078
-593,225	8,939	0,021	-0,012
-592,211	-200,000	0,026	-0,094
-591,196	-62,184	-0,078	0,023
-590,182	135,970	0,063	-0,060
-589,167	800,000	0,004	0,012
-588,152	-200,000	-0,001	0,111
-587,138	-27,755	-0,159	-0,066
-586,123	800,000	0,036	-0,086
-585,109	-200,000	-0,043	-0,151
-584,094	91,966	-0,067	-0,054
-583,079	305,102	0,065	-0,087
-582,065	-73,831	0,033	0,008
-581,050	174,283	0,074	-0,077
-580,036	-116,414	-0,074	-0,010
-579,021	-200,000	0,015	-0,053
-578,006	-200,000	-0,002	-0,099
-576,992	153,231	-0,086	0,084
-575,977	-109,369	-0,029	-0,004
-574,963	-113,906	0,056	-0,008
-573,948	105,591	-0,061	0,052
-572,934	312,494	-0,046	0,062
-571,919	354,837	-0,088	0,127
-570,904	-113,680	-0,021	-0,003
-569,890	-111,772	-0,104	0,015
-568,875	4,831	0,050	-0,026
-567,861	-99,845	0,087	-0,015
-566,846	107,859	-0,008	-0,007
-565,831	724,910	-0,030	0,058
-564,817	41,604	0,040	0,026
-563,802	800,000	-0,039	-0,080
-562,788	-200,000	-0,026	-0,116
-561,773	86,628	0,047	0,038
-560,758	124,971	0,026	-0,024
-559,744	800,000	0,050	0,110
-558,729	800,000	0,006	0,013
-557,715	800,000	0,001	-0,002
-556,700	24,876	-0,073	-0,044
-555,685	-200,000	0,016	-0,135
-554,671	66,201	0,110	0,080
-553,656	-200,000	-0,024	0,110
-552,642	386,415	-0,018	0,027
-551,627	-147,552	-0,097	0,006
-550,612	47,783	0,160	-0,107
-549,598	-200,000	0,011	-0,054
-548,583	15,588	-0,093	0,052
-547,569	-105,461	0,099	-0,016
-546,554	-41,417	-0,073	0,027
-545,539	-200,000	0,001	0,127
-544,525	-200,000	0,012	0,165
-543,510	291,908	0,099	-0,130
-542,496	-200,000	-0,002	-0,092
-541,481	-200,000	0,000	-0,062
-540,466	-200,000	0,002	-0,054
-539,452	-200,000	0,029	0,141
-538,437	-200,000	0,016	0,105
-537,423	-189,326	0,019	-0,000
-536,408	-76,434	0,129	0,032
-535,393	86,123	-0,182	-0,144
-534,379	219,167	-0,085	-0,097
-533,364	800,000	0,024	-0,076
-532,350	299,352	0,083	0,111
-531,335	88,349	-0,063	0,050
-530,321	448,187	-0,045	-0,072
-529,306	617,427	0,056	0,102
-528,291	-200,000	-0,021	-0,072
-527,277	706,805	-0,013	0,024
-526,262	-73,267	0,120	0,031
-525,248	168,250	-0,050	0,051
-524,233	-200,000	-0,017	0,054
-523,218	-200,000	0,030	0,151
-522,204	60,930	0,023	0,016
-521,189	-18,326	-0,159	-0,071
-520,175	9,467	0,118	0,064
-519,160	402,603	0,108	0,164
-518,145	-200,000	0,006	0,036
-517,131	79,443	-0,055	0,042
-516,116	206,881	-0,075	-0,085
-515,102	-200,000	-0,020	0,098
-514,087	-200,000	-0,025	0,122
-513,072	-200,000	-0,012	-0,051
-512,058	-200,000	-0,037	0,140
-511,043	800,000	0,021	-0,057
-510,029	424,018	-0,026	-0,041
-509,014	100,574	0,054	0,045
-507,999	-72,677	-0,059	0,015
-506,985	-200,000	-0,027	-0,111
-505,970	-200,000	0,001	0,089
-504,956	192,883	0,037	0,040
-503,941	-86,782	-0,128	-0,028
-502,926	89,648	0,014	0,012
-501,912	-200,000	0,008	-0,039
-500,897	-84,492	0,042	0,009
-499,883	58,806	0,051	-0,036
-498,868	800,000	0,081	-0,177
-497,853	-29,808	-0,033	-0,013
-496,839	-200,000	-0,037	-0,148
-495,824	-151,134	0,064	0,003
-494,810	169,073	-0,094	0,096
-493,795	800,000	-0,041	0,103
-492,781	800,000	-0,021	-0,057
-491,766	127,990	0,023	-0,021
-490,751	767,473	-0,034	-0,067
-489,737	92,276	-0,194	-0,157
-488,722	-1,484	0,135	0,068
-487,708	-200,000	0,012	-0,055
-486,693	800,000	0,025	-0,053
-485,678	431,777	-0,041	-0,064
-484,664	71,959	-0,054	-0,040
-483,649	-200,000	-0,020	-0,139
-482,635	-122,681	0,094	0,011
-481,620	587,036	0,072	-0,128
-480,605	213,042	0,022	0,025
-479,591	371,453	-0,051	0,075
-478,576	183,783	0,111	-0,118
-477,562	284,167	-0,050	-0,064
-476,547	800,000	-0,067	-0,136
-475,532	124,969	-0,075	-0,068
-474,518	43,097	0,048	-0,032
-473,503	385,892	0,060	0,089
-472,489	-26,131	0,117	0,049
-471,474	-200,000	0,018	0,060
-470,459	-58,488	-0,074	-0,023
-469,445	-65,141	-0,145	-0,042
-468,430	86,734	0,067	-0,053
-467,416	-200,000	0,023	0,075
-466,401	-200,000	0,012	-0,045
-465,386	-129,054	0,100	0,010
-464,372	187,087	-0,060	-0,064
-463,357	168,973	0,109	-0,111
-462,343	305,319	-0,059	0,079
-461,328	317,332	-0,087	-0,119
-460,313	146,641	0,025	0,025
-459,299	23,766	0,130	-0,077
-458,284	227,988	-0,091	-0,107
-457,270	9,072	-0,058	0,031
-456,255	108,899	0,071	0,061
-455,241	229,962	-0,041	-0,048
-454,226	423,555	-0,053	0,082
-453,211	778,946	0,052	0,102
-452,197	375,773	-0,053	0,078
-451,182	-200,000	0,043	0,155
-450,168	123,542	-0,063	0,057
-449,153	82,714	0,041	0,032
-448,138	800,000	0,038	0,086
-447,124	26,447	-0,075	-0,045
-446,109	124,860	-0,080	0,072
-445,095	349,842	0,025	-0,035
-444,080	-200,000	0,025	0,131
-443,065	545,608	-0,022	0,038
-442,051	-200,000	0,014	-0,047
-441,036	-200,000	0,013	-0,128
-440,022	467,177	0,119	-0,191
-439,007	573,828	0,059	-0,104
-437,992	-200,000	0,015	-0,105
-436,978	-200,000	0,013	0,047
-435,963	800,000	-0,010	-0,027
-434,949	7,382	-0,031	-0,017
-433,934	-200,000	-0,130	-0,000
-432,919	188,437	0,069	-0,074
-431,905	-200,000	-0,009	-0,095
-430,890	-2,474	-0,118	-0,059
-429,876	-91,208	0,206	0,042
-428,861	-28,241	-0,136	-0,056
-427,846	-200,000	0,003	0,060
-426,832	20,204	-0,025	0,015
-425,817	-200,000	0,019	-0,166
-424,803	-7,365	0,020	-0,010
-423,788	-88,410	0,094	0,020
-422,773	-73,398	0,097	0,025
-421,759	478,575	0,054	-0,088
-420,744	100,085	0,071	-0,059
-419,730	332,665	-0,043	-0,059
-418,715	11,637	-0,025	0,014
-417,701	-111,073	-0,151	-0,022
-416,686	-63,726	0,117	0,034
-415,671	-200,000	0,014	0,070
-414,657	181,993	-0,018	0,020
-413,642	-200,000	-0,017	0,088
-412,628	777,469	0,027	-0,053
-411,613	800,000	-0,028	0,059
-410,598	170,437	-0,101	-0,104
-409,584	57,323	-0,050	0,035
-408,569	800,000	-0,008	-0,015
-407,555	50,413	0,221	0,149
-406,540	800,000	0,009	0,024
-405,525	-131,663	-0,066	0,006
-404,511	800,000	0,030	0,089
-403,496	-200,000	0,023	-0,159
-402,482	800,000	0,052	-0,107
-401,467	-94,090	0,092	0,018
-400,452	-200,000	-0,043	0,177
-399,438	-88,057	0,117	0,025
-398,423	-150,079	0,051	0,003
-397,409	-131,864	-0,132	0,012
-396,394	581,839	0,124	-0,218
-395,379	213,119	0,081	-0,091
-394,365	-200,000	0,027	0,140
-393,350	-99,674	0,130	-0,023
-392,336	-200,000	0,045	0,147
-391,321	-74,633	-0,171	0,044
-390,306	534,256	0,019	-0,032
-389,292	18,851	0,129	0,074
-388,277	-131,361	0,107	-0,010
-387,263	152,337	0,073	-0,071
-386,248	145,099	0,146	-0,140
-385,233	-47,245	-0,083	-0,029
-384,219	800,000	-0,020	0,054
-383,204	155,358	-0,106	-0,104
-382,190	20,035	0,065	0,037
-381,175	-88,093	-0,117	-0,025
-380,160	253,118	-0,052	-0,064
-379,146	-7,276	0,130	0,063
-378,131	660,388	0,018	-0,033
-377,117	-17,446	0,111	-0,050
-376,102	-27,762	-0,154	-0,064
-375,088	264,971	-0,098	-0,123
-374,073	-67,374	0,223	-0,062
-373,058	-200,000	-0,009	0,032
-372,044	-150,377	0,231	0,012
-371,029	126,256	0,077	0,070
-370,015	4,866	-0,038	-0,020
-369,000	-53,116	-0,098	-0,032
-367,985	-164,211	0,086	0,003
-366,971	-81,270	-0,108	0,025
-365,956	-105,978	0,139	-0,022
-364,942	-200,000	0,021	0,078
-363,927	-102,080	-0,151	-0,026
-362,912	-200,000	-0,005	0,028
-361,898	800,000	-0,025	-0,051
-360,883	-19,664	0,056	-0,025
-359,869	-200,000	0,010	0,073
-358,854	-200,000	-0,008	0,049
-357,839	-200,000	0,007	-0,035
-356,825	-112,143	0,044	0,006
-355,810	-77,007	-0,082	-0,020
-354,796	-18,352	-0,047	-0,021
-353,781	800,000	0,026	-0,063
-352,766	-87,506	-0,089	-0,019
-351,752	-200,000	-0,013	0,083
-350,737	-200,000	0,007	0,165
-349,723	-101,632	-0,037	-0,006
-348,708	14,130	0,064	0,036
-347,693	-163,845	-0,094	0,003
-346,679	-200,000	-0,002	-0,013
-345,664	-200,000	0,032	0,113
-344,650	-149,746	-0,058	-0,003
-343,635	12,785	0,149	0,082
-342,620	-23,864	0,097	-0,041
-341,606	-84,958	0,090	-0,020
-340,591	16,123	-0,142	0,080
-339,577	182,617	-0,055	0,058
-338,562	-200,000	-0,012	-0,130
-337,548	74,308	-0,063	-0,047
-336,533	-7,064	0,066	-0,032
-335,518	207,985	0,125	0,140
-334,504	-28,474	0,062	0,025
-333,489	126,921	0,072	0,065
-332,475	-200,000	-0,034	0,182
-331,460	-61,601	-0,171	-0,051
-330,445	-200,000	0,004	0,080
-329,431	-34,382	0,113	-0,044
-328,416	-123,683	-0,054	0,006
-327,402	19,392	0,155	0,089
-326,387	-9,347	0,086	0,041
-325,372	114,643	0,042	-0,036
-324,358	800,000	-0,016	-0,037
-323,343	-76,949	0,087	-0,022
-322,329	-47,300	0,132	0,046
-321,314	-200,000	-0,022	0,094
-320,299	125,116	-0,091	0,082
-319,285	402,493	0,027	0,041
-318,270	-200,000	0,033	-0,162
-317,256	231,582	-0,063	-0,074
-316,241	677,780	0,052	0,098
-315,226	800,000	0,029	0,069
-314,212	-77,971	0,058	0,014
-313,197	-102,101	-0,076	0,013
-312,183	-28,873	-0,103	0,042
-311,168	64,026	-0,099	0,071
-310,153	-26,966	-0,157	-0,065
-309,139	-106,522	0,124	-0,019
-308,124	53,350	0,117	-0,080
-307,110	-31,941	-0,044	-0,017
-306,095	-200,000	-0,017	0,054
-305,080	43,617	0,047	0,030
-304,066	-200,000	-0,035	-0,155
-303,051	-200,000	-0,034	0,126
-302,037	553,267	-0,064	-0,110
-301,022	-200,000	-0,002	0,032
-300,008	10,515	0,087	0,047
-298,993	-16,560	-0,114	-0,051
-297,978	741,029	0,050	0,096
-296,964	677,262	0,035	-0,065
-295,949	-104,631	-0,082	0,013
-294,935	-200,000	0,051	0,216
-293,920	-86,759	0,093	0,020
-292,905	-200,000	-0,000	-0,057
-291,891	800,000	0,052	-0,110
-290,876	-200,000	0,026	-0,091
-289,862	-200,000	-0,002	-0,027
-288,847	-91,438	-0,101	0,020
-287,832	-200,000	-0,003	0,076
-286,818	102,962	-0,109	-0,091
-285,803	8,369	0,059	0,031
-284,789	-34,397	0,038	0,015
-283,774	-53,805	-0,171	0,055
-282,759	800,000	-0,015	0,042
-281,745	-200,000	-0,006	0,085
-280,730	24,658	0,063	0,037
-279,716	179,042	0,054	-0,057
-278,701	292,454	-0,071	0,092
-277,686	163,441	0,118	0,118
-276,672	-72,635	0,175	0,046
-275,657	-2,761	0,161	-0,080
-274,643	-18,376	-0,133	-0,059
-273,628	-200,000	-0,028	0,143
-272,613	379,235	-0,070	-0,103
-271,599	-148,891	0,056	-0,003
-270,584	284,611	-0,062	0,080
-269,570	-200,000	-0,013	0,136
-268,555	-200,000	-0,002	-0,038
-267,540	147,303	0,054	-0,052
-266,526	-81,081	-0,056	0,013
-265,511	-77,835	-0,032	0,008
-264,497	38,105	-0,045	-0,028
-263,482	-57,474	0,108	-0,034
-262,467	126,638	-0,054	0,049
-261,453	82,817	0,074	-0,057
-260,438	121,509	0,075	-0,067
-259,424	93,340	-0,071	-0,057
-258,409	-200,000	0,011	0,093
-257,395	153,348	0,015	0,014
-256,380	-200,000	0,026	0,121
-255,365	-200,000	0,031	0,138
-254,351	-65,654	-0,029	-0,008
-253,336	162,036	0,019	0,019
-252,322	410,559	-0,077	-0,116
-251,307	-20,158	-0,115	-0,050
-250,292	-14,056	0,086	0,039
-249,278	-114,727	0,144	0,019
-248,263	-42,304	0,054	-0,020
-247,249	-200,000	0,005	0,075
-246,234	-200,000	0,029	-0,124
-245,219	-200,000	-0,021	-0,079
-244,205	-200,000	0,007	-0,029
-243,190	-200,000	0,023	-0,104
-242,176	440,767	-0,037	0,057
-241,161	-200,000	0,024	0,205
-240,146	-200,000	0,001	0,051
-239,132	-26,863	-0,086	0,035
-238,117	-98,520	-0,270	-0,049
-237,103	-46,390	0,073	0,025
-236,088	-44,934	-0,036	-0,013
-235,073	-72,050	0,005	0,001
-234,059	289,336	0,122	0,157
-233,044	-200,000	0,007	0,084
-232,030	419,342	-0,043	0,065
-231,015	380,276	-0,035	0,051
-230,000	139,973	0,027	0,025
-228,986	-60,727	-0,075	-0,022
-227,971	-200,000	0,016	0,059
-226,957	800,000	0,034	0,068
-225,942	800,000	-0,037	0,091
-224,927	66,544	-0,079	0,057
-223,913	-200,000	0,026	-0,239
-222,898	800,000	0,045	-0,095
-221,884	504,221	0,017	-0,029
-220,869	-152,273	0,050	0,003
-219,855	142,235	0,136	0,128
-218,840	-120,130	0,081	-0,010
-217,825	239,022	0,054	0,064
-216,811	-200,000	-0,009	0,060
-215,796	-200,000	0,017	-0,069
-214,782	800,000	-0,073	-0,174
-213,767	72,562	0,059	-0,044
-212,752	-200,000	-0,010	0,057
-211,738	-200,000	0,024	0,101
-210,723	87,559	0,080	0,063
-209,709	800,000	-0,026	0,054
-208,694	-35,095	0,082	0,032
-207,679	106,958	0,026	0,022
-206,665	160,764	0,078	0,078
-205,650	14,092	0,147	0,081
-204,636	421,687	0,019	0,030
-203,621	800,000	-0,023	0,055
-202,606	-200,000	-0,005	0,195
-201,592	77,824	-0,033	-0,025
-200,577	119,909	-0,018	-0,016
-199,563	-131,179	-0,089	-0,008
-198,548	-200,000	-0,004	-0,025
-197,533	800,000	0,059	0,179
-196,519	322,310	-0,089	0,121
-195,504	-117,986	-0,085	0,011
-194,490	228,978	-0,109	-0,126
-193,475	225,429	0,082	-0,095
-192,460	508,745	0,032	0,053
-191,446	135,164	0,040	0,037
-190,431	800,000	0,028	0,071
-189,417	309,241	0,054	0,072
-188,402	270,303	-0,060	0,076
-187,387	-200,000	0,027	-0,096
-186,373	50,688	-0,108	0,072
-185,358	47,831	-0,064	-0,042
-184,344	-141,973	-0,094	0,007
-183,329	-1,811	0,066	0,033
-182,315	134,424	0,016	-0,014
-181,300	-28,027	-0,049	-0,020
-180,285	-200,000	-0,012	-0,038
-179,271	-200,000	-0,012	0,089
-178,256	-200,000	0,017	-0,088
-177,242	-49,898	0,127	-0,042
-176,227	800,000	0,027	0,084
-175,212	800,000	-0,088	0,177
-174,198	272,826	-0,028	-0,035
-173,183	-135,229	-0,078	0,007
-172,169	-54,061	-0,189	0,061
-171,154	-200,000	-0,025	0,106
-170,139	-72,057	0,151	0,040
-169,125	25,814	-0,086	-0,051
-168,110	800,000	-0,020	-0,042
-167,096	-200,000	-0,024	0,076
-166,081	304,334	0,021	0,027
-165,066	-27,838	-0,150	-0,061
-164,052	329,775	-0,091	-0,125
-163,037	-5,381	-0,038	-0,018
-162,023	-76,625	0,009	-0,002
-161,008	-92,593	-0,031	-0,006
-159,993	-200,000	-0,001	0,065
-158,979	800,000	0,027	0,085
-157,964	490,121	-0,094	-0,153
-156,950	423,615	-0,068	-0,104
-155,935	580,616	0,077	-0,134
-154,920	-200,000	-0,013	-0,083
-153,906	246,668	0,041	0,049
-152,891	249,153	0,066	-0,079
-151,877	-200,000	0,021	0,148
-150,862	-91,217	-0,049	-0,010
-149,847	-200,000	-0,055	0,179
-148,833	439,599	0,040	-0,063
-147,818	232,206	0,015	0,018
-146,804	147,115	-0,055	0,052
-145,789	-63,977	-0,113	0,033
-144,775	800,000	0,005	0,013
-143,760	800,000	-0,033	0,091
-142,745	529,986	0,056	0,094
-141,731	502,265	0,074	-0,122
-140,716	35,325	0,168	-0,104
-139,702	800,000	-0,032	0,083
-138,687	-200,000	0,007	0,087
-137,672	-190,158	0,035	-0,000
-136,658	-200,000	-0,018	-0,166
-135,643	16,720	0,032	-0,018
-134,629	122,210	-0,049	0,043
-133,614	-179,892	0,084	0,001
-132,599	-200,000	0,009	0,176
-131,585	42,581	-0,123	0,079
-130,570	800,000	0,107	-0,217
-129,556	-200,000	-0,004	-0,063
-128,541	-102,132	0,165	0,028
-127,526	81,058	-0,029	-0,022
-126,512	204,838	0,079	-0,087
-125,497	171,498	-0,021	-0,022
-124,483	20,558	0,123	-0,070
-123,468	-200,000	-0,002	0,059
-122,453	-75,578	-0,107	0,027
-121,439	321,127	0,017	-0,024
-120,424	800,000	0,006	-0,013
-119,410	100,115	0,059	-0,048
-118,395	70,290	0,081	0,059
-117,380	-38,820	0,162	0,060
-116,366	135,632	0,109	-0,101
-115,351	-200,000	-0,007	-0,072
-114,337	25,298	-0,096	0,056
-113,322	28,515	-0,100	-0,060
-112,307	800,000	-0,020	-0,059
-111,293	247,524	-0,001	-0,002
-110,278	-36,570	-0,014	-0,005
-109,264	1,551	0,036	-0,018
-108,249	-200,000	-0,003	-0,028
-107,234	58,549	-0,060	-0,042
-106,220	-31,543	-0,091	-0,036
-105,205	122,560	0,102	0,091
-104,191	112,017	0,115	0,098
-103,176	-200,000	0,032	0,107
-102,162	-200,000	-0,012	-0,053
-101,147	-172,314	0,027	-0,001
-100,132	35,557	-0,053	-0,033
-99,118	-200,000	-0,026	-0,123
-98,103	110,426	0,053	-0,045
-97,089	-200,000	-0,010	0,065
-96,074	169,348	-0,026	0,026
-95,059	-200,000	0,016	0,093
-94,045	-62,595	-0,123	0,036
-93,030	341,682	-0,043	-0,059
-92,016	254,107	-0,017	-0,020
-91,001	561,674	0,046	0,079
-89,986	-118,718	0,073	-0,009
-88,972	319,165	-0,048	0,065
-87,957	-200,000	0,011	0,051
-86,943	39,285	-0,164	0,104
-85,928	-200,000	0,023	-0,110
-84,913	-4,569	0,136	-0,066
-83,899	399,850	-0,058	-0,086
-82,884	126,538	0,051	0,046
-81,870	37,432	0,131	0,082
-80,855	-200,000	0,006	0,056
-79,840	104,993	-0,103	-0,086
-78,826	8,853	-0,108	-0,057
-77,811	-200,000	-0,005	-0,126
-76,797	182,093	-0,050	-0,052
-75,782	-200,000	-0,014	-0,079
-74,767	125,486	0,116	-0,104
-73,753	47,661	0,067	-0,044
-72,738	230,456	0,050	-0,058
-71,724	-131,801	-0,016	0,001
-70,709	-200,000	0,034	0,187
-69,694	-28,226	0,072	-0,029
-68,680	800,000	0,012	-0,036
-67,665	-124,019	0,082	0,009
-66,651	-119,370	-0,064	0,008
-65,636	653,336	0,017	0,031
-64,622	-200,000	-0,003	0,066
-63,607	-200,000	0,029	-0,213
-62,592	-200,000	-0,007	0,029
-61,578	9,758	0,126	-0,068
-60,563	26,649	-0,149	0,088
-59,549	800,000	0,077	0,211
-58,534	-10,979	-1,865	-0,866
-57,519	401,770	-1,367	-2,034
-56,505	-200,000	-0,451	-4,363
-55,490	494,849	0,864	1,407
-54,476	800,000	5,064	11,089
-53,461	-200,000	20,929	329,781
-52,446	800,000	757,857	2324,290
-51,432	549,599	1662,349	2824,730
-50,417	73,393	1663,803	1228,133
-49,403	18,682	1536,832	865,903
-48,388	12,656	1459,910	793,392
-47,373	18,968	1450,831	818,750
-46,359	15,827	1439,900	797,596
-45,344	10,879	1436,037	771,846
-44,330	10,862	1433,949	770,613
-43,315	10,849	1432,151	769,551
-42,300	10,875	1430,287	768,645
-41,286	10,926	1428,991	768,160
-40,271	10,842	1427,841	767,113
-39,257	10,852	1426,637	766,482
-38,242	10,879	1425,561	766,004
-37,227	10,886	1424,531	765,451
-36,213	10,863	1423,201	764,597
-35,198	10,903	1421,883	764,047
-34,184	10,942	1421,131	763,798
-33,169	10,858	1419,729	762,620
-32,154	10,921	1418,748	762,356
-31,140	10,958	1417,295	761,719
-30,125	10,953	1416,446	761,212
-29,111	10,895	1415,574	760,440
-28,096	10,888	1414,089	759,580
-27,082	10,860	1413,069	758,868
-26,067	10,857	1411,767	758,127
-25,052	10,908	1410,821	757,827
-24,038	10,863	1409,834	757,056
-23,023	10,853	1408,913	756,485
-22,009	10,823	1407,899	755,768
-20,994	10,853	1406,819	755,301
-19,979	10,823	1405,861	754,614
-18,965	10,824	1405,024	754,140
-17,950	10,771	1404,146	753,392
-16,936	10,798	1403,332	753,052
-15,921	10,711	1402,389	752,108
-14,906	10,733	1401,409	751,659
-13,892	10,836	1400,169	751,439
-12,877	10,768	1399,784	750,888
-11,863	10,750	1398,836	750,268
-10,848	10,738	1397,910	749,683
-9,833	10,721	1396,771	748,963
-8,819	10,675	1396,103	748,363
-7,804	10,669	1395,240	747,845
-6,790	10,684	1394,223	747,336
-5,775	10,658	1393,186	746,632
-4,760	10,654	1392,114	746,008
-3,746	10,681	1391,209	745,622
-2,731	10,679	1390,414	745,156
-1,717	10,658	1389,606	744,595
-0,702	10,661	1387,539	743,473
0,313	14,688	1301,251	715,688
1,327	30,955	692,358	417,777
2,342	48,109	120,031	79,056
3,356	1,297	16,470	8,321
4,371	5,922	3,386	1,763
5,386	-1,993	0,831	0,411
6,400	-200,000	0,121	0,512
7,415	-139,294	-0,075	0,006
8,429	-2,492	-0,196	-0,097
9,444	-196,804	-0,398	0,002
10,459	-13,175	-0,197	-0,090
11,473	29,112	-0,358	-0,214
12,488	91,058	-0,200	-0,158
13,502	20,465	-0,279	-0,158
14,517	-66,551	-0,233	-0,065
15,531	8,557	-0,447	-0,236
16,546	-48,669	-0,452	-0,152
17,561	-7,265	-0,390	-0,186
18,575	53,315	-0,161	-0,108
19,590	39,057	-0,308	-0,193
20,604	-35,308	-0,163	-0,062
21,619	31,306	-0,440	-0,266
22,634	114,816	-0,427	-0,367
23,648	362,581	-0,350	-0,496
24,663	36,768	-0,403	-0,250
25,677	-21,722	-0,416	-0,178
26,692	114,987	-0,258	-0,222
27,707	189,186	-0,209	-0,221
28,721	-9,933	-0,434	-0,203
29,736	64,796	-0,426	-0,303
30,750	-0,306	-0,429	-0,214
31,765	53,823	-0,286	-0,193
32,780	159,352	-0,352	-0,345
33,794	219,591	-0,338	-0,382
34,809	-30,390	-0,355	-0,141
35,823	-23,219	-0,311	-0,131
36,838	87,941	-0,393	-0,306
37,853	248,162	-0,331	-0,395
38,867	163,755	-0,332	-0,329
39,882	450,077	-0,245	-0,382
40,896	65,282	-0,403	-0,286
41,911	196,420	-0,342	-0,367
42,926	43,352	-0,334	-0,214
43,940	251,228	-0,303	-0,363
44,955	185,269	-0,415	-0,434
45,969	-1,392	-0,420	-0,208
46,984	54,753	-0,276	-0,187
47,999	31,116	-0,423	-0,255
49,013	156,461	-0,217	-0,210
50,028	54,768	-0,274	-0,185
51,042	20,559	-0,331	-0,187
52,057	143,945	-0,354	-0,331
53,071	102,505	-0,342	-0,281
54,086	110,261	-0,269	-0,227
55,101	41,225	-0,422	-0,268
56,115	595,610	-0,162	-0,283
57,130	253,616	-0,289	-0,347
58,144	4,938	-0,349	-0,180
59,159	101,566	-0,342	-0,280
60,174	149,225	-0,451	-0,429
61,188	201,355	-0,277	-0,300
62,203	133,413	-0,240	-0,218
63,217	41,418	-0,319	-0,202
64,232	56,785	-0,359	-0,245
65,247	-20,624	-0,362	-0,155
66,261	16,876	-0,294	-0,163
67,276	-78,450	-0,284	-0,068
68,290	109,718	-0,247	-0,208
69,305	129,559	-0,297	-0,266
70,320	-55,508	-0,354	-0,111
71,334	-13,894	-0,279	-0,126
72,349	244,760	-0,309	-0,365
73,363	103,713	-0,267	-0,220
74,378	113,291	-0,337	-0,287
75,393	-24,994	-0,258	-0,107
76,407	147,992	-0,255	-0,241
77,422	93,396	-0,234	-0,186
78,436	12,743	-0,347	-0,187
79,451	117,185	-0,322	-0,277
80,466	63,212	-0,401	-0,281
81,480	3,103	-0,406	-0,206
82,495	257,562	-0,214	-0,258
83,509	171,745	-0,168	-0,170
84,524	170,144	-0,269	-0,270
85,539	-95,109	-0,438	0,082
86,553	20,097	-0,238	-0,134
87,568	90,896	-0,169	-0,133
88,582	87,658	-0,231	-0,179
89,597	166,951	-0,290	-0,288
90,611	-24,688	-0,217	-0,090
91,626	253,148	-0,166	-0,199
92,641	104,493	-0,213	-0,175
93,655	147,959	-0,291	-0,275
94,670	263,283	-0,253	-0,308
95,684	73,333	-0,367	-0,268
96,699	140,723	-0,245	-0,227
97,714	-21,408	-0,312	-0,133
98,728	-75,001	-0,219	-0,055
99,743	102,303	-0,248	-0,203
100,757	-26,261	-0,342	-0,140
101,772	-20,669	-0,218	-0,093
102,787	143,107	-0,217	-0,202
103,801	584,822	-0,094	-0,161
104,816	1,642	-0,257	-0,129
105,830	216,603	-0,145	-0,161
106,845	-104,856	-0,279	-0,044
107,860	49,541	-0,189	-0,124
108,874	172,291	-0,280	-0,282
109,889	-17,759	-0,293	-0,128
110,903	20,603	-0,280	-0,158
111,918	303,708	-0,211	-0,273
112,933	147,503	-0,252	-0,238
113,947	-30,610	-0,179	-0,070
114,962	-38,481	-0,396	-0,146
115,976	84,378	-0,296	-0,226
116,991	161,723	-0,168	-0,164
118,006	179,834	-0,214	-0,219
119,020	-110,659	-0,254	-0,036
120,035	-72,179	-0,091	0,023
121,049	-117,299	-0,208	-0,026
122,064	-163,447	-0,227	-0,007
123,079	800,000	-0,109	-0,221
124,093	-114,500	-0,264	-0,035
125,108	17,315	-0,311	-0,172
126,122	41,538	-0,291	-0,184
127,137	193,069	-0,191	-0,201
128,151	39,316	-0,271	-0,169
129,166	-97,616	-0,233	-0,042
130,181	197,316	-0,175	-0,187
131,195	-14,309	-0,286	-0,128
132,210	-33,520	-0,269	-0,103
133,224	-127,842	-0,279	-0,028
134,239	57,739	-0,212	-0,144
135,254	161,255	-0,169	-0,165
136,268	128,724	-0,213	-0,189
137,283	52,474	-0,243	-0,162
138,297	30,769	-0,284	-0,169
139,312	101,259	-0,207	-0,168
140,327	-29,090	-0,225	-0,090
141,341	800,000	-0,086	-0,247
142,356	45,569	-0,239	-0,154
143,370	800,000	-0,137	-0,288
144,385	76,597	-0,262	-0,193
145,400	-65,881	-0,278	-0,077
146,414	6,354	-0,299	-0,154
147,429	381,434	-0,252	-0,362
148,443	44,454	-0,247	-0,157
149,458	37,315	-0,282	-0,174
150,473	12,325	-0,118	-0,063
151,487	84,630	-0,238	-0,181
152,502	-124,655	-0,199	-0,021
153,516	57,265	-0,249	-0,169
154,531	10,162	-0,249	-0,131
155,546	-26,863	-0,206	-0,084
156,560	255,304	-0,113	-0,135
157,575	9,848	-0,268	-0,141
158,589	188,018	-0,183	-0,191
159,604	22,809	-0,220	-0,125
160,619	240,993	-0,265	-0,308
161,633	218,579	-0,178	-0,198
162,648	243,023	-0,165	-0,193
163,662	135,006	-0,124	-0,112
164,677	-34,055	-0,196	-0,075
165,692	79,914	-0,267	-0,200
166,706	65,307	-0,213	-0,150
167,721	121,639	-0,292	-0,253
168,735	-75,062	-0,225	-0,055
169,750	47,210	-0,319	-0,206
170,764	55,729	-0,246	-0,165
171,779	800,000	-0,068	-0,163
172,794	71,587	-0,235	-0,170
173,808	-92,024	-0,218	-0,043
174,823	333,035	-0,107	-0,144
175,837	82,379	-0,183	-0,138
176,852	660,633	-0,094	-0,169
177,867	219,670	-0,116	-0,129
178,881	10,348	-0,200	-0,105
179,896	26,458	-0,299	-0,173
180,910	231,709	-0,087	-0,099
181,925	-71,443	-0,310	-0,080
182,940	-114,341	-0,234	-0,031
183,954	-72,710	-0,225	-0,057
184,969	91,401	-0,073	0,057
185,983	-69,374	-0,192	-0,051
186,998	205,934	-0,171	-0,185
188,013	125,708	-0,100	-0,087
189,027	90,236	-0,192	-0,149
190,042	65,082	-0,292	-0,204
191,056	38,505	-0,225	-0,139
192,071	-89,878	-0,123	-0,025
193,086	310,308	-0,129	-0,167
194,100	171,389	-0,186	-0,185
195,115	67,927	-0,220	-0,156
196,129	754,710	-0,141	-0,267
197,144	67,446	-0,255	-0,180
198,159	242,574	-0,167	-0,195
199,173	-129,781	-0,197	0,019
200,188	-66,620	-0,278	-0,076
201,202	95,608	-0,236	-0,187
202,217	800,000	-0,063	-0,131
203,232	527,668	-0,147	-0,240
204,246	257,299	-0,103	-0,123
205,261	3,404	-0,136	-0,069
206,275	-67,091	-0,192	-0,052
207,290	73,938	-0,054	-0,039
208,304	330,429	-0,083	-0,112
209,319	25,099	-0,224	-0,128
210,334	286,257	-0,102	-0,128
211,348	70,776	-0,273	-0,196
212,363	719,877	-0,156	-0,289
213,377	220,886	-0,234	-0,261
214,392	408,927	-0,099	-0,145
215,407	124,407	-0,168	-0,147
216,421	60,866	-0,283	-0,194
217,436	-9,693	-0,236	-0,108
218,450	325,582	-0,157	-0,208
219,465	197,797	-0,171	-0,181
220,480	97,737	-0,183	-0,145
221,494	-82,479	-0,293	-0,065
222,509	228,584	-0,097	-0,109
223,523	-41,143	-0,222	-0,079
224,538	142,069	-0,256	-0,235
225,553	102,705	-0,225	-0,182
226,567	74,622	-0,288	-0,209
227,582	15,893	-0,196	-0,107
228,596	184,420	-0,178	-0,182
229,611	205,462	-0,097	-0,105
230,626	119,387	-0,110	-0,094
231,640	53,269	-0,192	-0,127
232,655	800,000	-0,039	-0,114
233,669	18,769	-0,208	-0,115
234,684	-178,954	-0,351	0,005
235,699	93,803	-0,098	-0,077
236,713	-172,147	-0,162	0,004
237,728	103,525	-0,088	-0,071
238,742	-20,173	-0,169	-0,072
239,757	44,399	-0,210	-0,133
240,772	-14,554	-0,228	-0,101
241,786	-40,844	-0,233	-0,083
242,801	198,215	-0,140	-0,148
243,815	-56,717	-0,213	-0,065
244,830	-8,901	-0,165	-0,076
245,844	262,365	-0,133	-0,159
246,859	-36,522	-0,270	-0,100
247,874	227,891	-0,089	-0,100
248,888	82,486	-0,183	-0,137
249,903	23,132	-0,107	-0,061
250,917	114,019	-0,118	-0,099
251,932	-90,669	-0,151	0,030
252,947	120,731	-0,108	-0,093
253,961	800,000	-0,061	-0,150
254,976	231,462	-0,237	-0,268
255,990	364,032	-0,043	-0,060
257,005	-24,033	-0,255	-0,105
258,020	610,567	-0,044	-0,076
259,034	112,822	-0,146	-0,122
260,049	5,426	-0,119	-0,060
261,063	558,640	-0,141	-0,235
262,078	59,333	-0,245	-0,166
263,093	218,343	-0,182	-0,200
264,107	430,470	-0,099	-0,148
265,122	292,984	-0,168	-0,212
266,136	17,535	-0,111	-0,061
267,151	-200,000	-0,025	-0,117
268,166	103,974	-0,116	-0,094
269,180	280,021	-0,112	-0,138
270,195	180,064	-0,154	-0,155
271,209	81,061	-0,225	-0,167
272,224	69,647	-0,164	-0,116
273,239	-10,830	-0,075	0,034
274,253	-66,388	-0,122	0,033
275,268	-34,304	-0,149	-0,056
276,282	120,629	-0,104	-0,089
277,297	-89,195	-0,174	-0,035
278,312	-37,027	-0,125	0,046
279,326	277,258	-0,048	-0,059
280,341	160,836	-0,173	-0,166
281,355	-95,920	-0,203	0,037
282,370	800,000	-0,051	-0,107
283,384	-200,000	-0,018	-0,060
284,399	30,934	-0,196	-0,115
285,414	59,135	-0,224	-0,151
286,428	800,000	-0,108	-0,237
287,443	-200,000	0,016	-0,131
288,457	722,462	-0,109	-0,200
289,472	800,000	-0,077	-0,162
290,487	245,368	-0,118	-0,137
291,501	95,516	-0,229	-0,179
292,516	171,073	-0,164	-0,161
293,530	213,233	-0,138	-0,150
294,545	800,000	-0,039	-0,089
295,560	592,555	-0,099	-0,170
296,574	-8,739	-0,056	0,026
297,589	-35,253	-0,087	-0,032
298,603	800,000	-0,103	-0,241
299,618	-84,247	-0,213	-0,046
300,633	361,370	-0,134	-0,185
301,647	-167,049	-0,285	-0,008
302,662	-22,936	-0,190	-0,078
303,676	658,290	-0,084	-0,150
304,691	10,165	-0,193	-0,101
305,706	177,074	-0,211	-0,211
306,720	265,997	-0,063	-0,075
307,735	80,448	-0,060	-0,045
308,749	56,424	-0,137	-0,091
309,764	-21,984	-0,186	-0,077
310,779	-149,871	-0,205	-0,011
311,793	-55,389	-0,208	-0,064
312,808	-83,556	-0,161	-0,035
313,822	-18,366	-0,197	-0,084
314,837	374,046	-0,075	-0,105
315,852	-69,772	-0,052	-0,014
316,866	-113,405	-0,156	-0,021
317,881	-17,629	-0,118	0,051
318,895	206,214	-0,115	-0,123
319,910	172,678	-0,175	-0,173
320,925	-200,000	-0,061	-0,200
321,939	255,018	-0,111	-0,131
322,954	-94,662	-0,199	0,037
323,968	800,000	-0,015	-0,041
324,983	56,770	-0,196	-0,131
325,997	800,000	-0,111	-0,269
327,012	157,053	-0,105	-0,100
328,027	311,256	-0,137	-0,177
329,041	350,841	-0,125	-0,171
330,056	427,220	-0,152	-0,226
331,070	538,366	-0,057	-0,093
332,085	570,032	-0,097	-0,163
333,100	75,786	-0,047	-0,034
334,114	-34,869	-0,254	-0,094
335,129	104,106	-0,088	-0,071
336,143	107,745	-0,129	-0,105
337,158	-181,273	-0,192	0,003
338,173	212,942	-0,109	-0,119
339,187	-75,749	-0,238	-0,057
340,202	-150,002	-0,098	0,005
341,216	265,419	-0,163	-0,195
342,231	289,718	-0,076	0,095
343,246	-101,744	-0,159	-0,026
344,260	176,441	-0,135	-0,134
345,275	108,933	-0,144	-0,118
346,289	72,476	-0,117	-0,083
347,304	-200,000	0,021	-0,208
348,319	-71,674	-0,191	-0,048
349,333	-200,000	-0,024	-0,200
350,348	335,763	-0,107	-0,143
351,362	-111,494	-0,266	-0,037
352,377	-25,131	-0,219	-0,088
353,392	-184,516	-0,085	0,001
354,406	-119,191	-0,140	0,016
355,421	207,570	1306,342	1396,564
356,435	159,683	1466,016	1397,037
