DTS Sentinel unit serial number:	SN410029Multiplexer serial number:	ORYXHardware model number:	OX2-SRSoftware version number:	ORYX F/W v4,00 Oryx Data Collector v3.7.2.0data status	okinstallation	B3 Nyhavnadifferential loss correction	single-endedforward channel	channel 1reverse channel	N/Adate	2023/12/01time	02:37:30forward acquisition time	300,00reverse acquisition time	0,00gamma	499,1914k internal	0,3211k external	0,3211temperature offset calibration	1,0000default loss term (dB/km)	0,3820temperature slope calibration	1,0000multiplexer offset coefficient	1,0000multiplexer slope coefficient	1,0000fibre end	0,00T internal ref (°C)	8,56T ext. ref 1 (°C)	-6,64T ext. ref 2 (°C)	-6,77length (m)	temperature (°C)	Stokes	anti-Stokes-744,400	111,398	-0,265	-0,232
-743,385	200,289	-0,213	0,238
-742,371	87,898	-0,100	-0,080
-741,356	-200,000	0,023	0,335
-740,342	-97,337	-0,273	-0,051
-739,327	-200,000	0,019	0,290
-738,312	241,158	-0,147	-0,178
-737,298	800,000	-0,076	0,195
-736,283	-45,001	-0,245	-0,088
-735,269	-200,000	0,012	0,251
-734,254	-11,398	-0,191	-0,091
-733,239	65,493	-0,150	0,110
-732,225	630,415	-0,097	-0,178
-731,210	126,377	0,061	0,056
-730,196	90,152	-0,053	-0,043
-729,181	497,262	0,085	-0,142
-728,167	21,334	-0,119	-0,070
-727,152	-167,763	-0,145	-0,004
-726,137	8,763	0,007	-0,004
-725,123	-200,000	-0,032	-0,103
-724,108	-123,496	-0,014	0,002
-723,094	800,000	-0,075	-0,201
-722,079	386,004	-0,034	-0,051
-721,064	2,760	-0,110	-0,058
-720,050	-22,445	-0,061	0,027
-719,035	167,012	0,086	0,088
-718,021	356,401	0,036	-0,052
-717,006	-123,478	-0,112	-0,013
-715,991	563,869	-0,049	-0,087
-714,977	-167,954	-0,193	-0,005
-713,962	-200,000	0,016	-0,076
-712,948	61,016	-0,087	0,062
-711,933	46,782	-0,035	-0,024
-710,918	578,363	-0,055	-0,099
-709,904	218,919	-0,055	-0,064
-708,889	-200,000	-0,056	-0,183
-707,875	275,547	0,055	-0,071
-706,860	67,499	-0,054	-0,040
-705,845	-200,000	-0,007	-0,068
-704,831	-24,511	0,085	-0,036
-703,816	275,723	-0,051	0,065
-702,802	800,000	-0,025	-0,074
-701,787	-200,000	-0,031	-0,120
-700,772	-200,000	-0,006	-0,033
-699,758	128,861	0,059	-0,055
-698,743	-112,961	0,054	-0,008
-697,729	37,372	-0,049	0,031
-696,714	-62,541	0,098	-0,029
-695,699	-42,775	0,138	-0,051
-694,685	-164,634	0,025	0,001
-693,670	261,131	-0,016	-0,020
-692,656	97,384	0,031	0,026
-691,641	96,989	0,209	0,173
-690,627	17,125	0,106	-0,061
-689,612	-200,000	-0,012	-0,059
-688,597	-23,914	0,058	0,025
-687,583	-200,000	0,005	0,068
-686,568	-118,600	-0,036	0,005
-685,554	135,925	0,091	-0,085
-684,539	684,366	0,057	0,108
-683,524	566,120	0,048	0,085
-682,510	800,000	0,067	0,142
-681,495	-79,121	-0,074	0,018
-680,481	-17,624	-0,113	-0,051
-679,466	-200,000	0,006	-0,107
-678,451	179,564	-0,072	-0,076
-677,437	160,084	-0,032	-0,032
-676,422	504,236	-0,089	-0,150
-675,408	39,030	-0,146	-0,094
-674,393	614,343	0,047	-0,086
-673,378	800,000	-0,045	-0,097
-672,364	-69,532	-0,063	0,017
-671,349	17,035	-0,144	-0,082
-670,335	-200,000	0,014	-0,100
-669,320	569,020	-0,042	-0,074
-668,305	-200,000	-0,051	-0,168
-667,291	11,591	-0,141	-0,078
-666,276	199,873	-0,081	-0,090
-665,262	-200,000	-0,003	0,117
-664,247	-200,000	-0,024	-0,145
-663,232	-28,337	-0,122	-0,051
-662,218	29,985	0,036	0,022
-661,203	164,250	0,182	0,186
-660,189	-200,000	-0,030	-0,170
-659,174	-200,000	0,004	-0,074
-658,159	-117,869	-0,058	0,007
-657,145	-200,000	0,004	-0,129
-656,130	-57,825	0,079	0,025
-655,116	-200,000	-0,022	-0,109
-654,101	-200,000	0,026	0,159
-653,086	69,890	0,132	0,098
-652,072	-85,134	-0,091	-0,020
-651,057	-82,513	-0,027	0,006
-650,043	-200,000	-0,002	-0,156
-649,028	106,757	-0,087	-0,074
-648,014	-100,406	-0,066	-0,012
-646,999	800,000	-0,009	-0,021
-645,984	-200,000	-0,013	-0,046
-644,970	-116,919	-0,016	-0,002
-643,955	107,057	-0,018	-0,016
-642,941	67,052	-0,092	0,067
-641,926	170,066	-0,105	0,108
-640,911	800,000	0,051	0,139
-639,897	-200,000	0,002	-0,040
-638,882	-108,081	-0,093	-0,014
-637,868	143,951	0,015	0,014
-636,853	90,888	0,035	-0,028
-635,838	-200,000	0,006	-0,104
-634,824	-200,000	-0,005	0,038
-633,809	177,937	-0,084	0,088
-632,795	-103,842	0,070	-0,012
-631,780	-33,472	0,140	0,056
-630,765	57,629	-0,035	-0,025
-629,751	-101,476	0,022	0,004
-628,736	-200,000	0,004	-0,071
-627,722	-200,000	0,023	-0,167
-626,707	571,848	0,076	0,133
-625,692	561,745	-0,062	0,109
-624,678	-38,017	-0,059	-0,022
-623,663	-200,000	0,035	0,149
-622,649	213,548	-0,045	-0,052
-621,634	800,000	0,010	-0,030
-620,619	91,095	0,046	-0,037
-619,605	-4,942	0,049	-0,024
-618,590	19,934	-0,053	0,031
-617,576	-39,019	0,100	-0,038
-616,561	82,365	0,039	0,030
-615,546	397,804	0,023	-0,035
-614,532	-200,000	-0,046	-0,167
-613,517	303,816	-0,051	-0,068
-612,503	-200,000	0,010	-0,044
-611,488	800,000	0,022	-0,070
-610,474	-200,000	-0,009	-0,076
-609,459	-200,000	0,005	-0,023
-608,444	800,000	-0,054	-0,128
-607,430	-8,606	-0,109	-0,053
-606,415	-200,000	0,029	-0,140
-605,401	-73,013	-0,023	0,006
-604,386	474,839	0,017	0,027
-603,371	278,003	-0,033	0,042
-602,357	730,041	0,012	-0,022
-601,342	-84,967	-0,111	-0,025
-600,328	-133,159	-0,086	-0,008
-599,313	-54,558	0,140	-0,045
-598,298	-155,450	-0,005	0,000
-597,284	32,521	-0,064	0,040
-596,269	-34,533	0,019	0,008
-595,255	800,000	-0,023	-0,064
-594,240	-200,000	-0,006	-0,119
-593,225	85,444	0,079	-0,062
-592,211	-105,396	0,059	0,010
-591,196	-200,000	0,013	-0,080
-590,182	-110,860	0,097	0,014
-589,167	-44,603	-0,012	-0,004
-588,152	374,479	-0,021	-0,032
-587,138	111,042	0,064	-0,055
-586,123	346,143	0,040	-0,057
-585,109	800,000	-0,039	-0,083
-584,094	103,374	0,098	-0,083
-583,079	-200,000	0,020	-0,107
-582,065	51,241	0,081	0,055
-581,050	62,102	0,007	0,005
-580,036	-116,412	-0,087	0,011
-579,021	117,674	0,073	0,065
-578,006	124,539	-0,061	0,055
-576,992	-1,352	-0,045	-0,023
-575,977	235,247	-0,064	-0,076
-574,963	-24,164	-0,048	0,021
-573,948	214,731	0,018	0,021
-572,934	-49,406	-0,090	0,031
-571,919	-16,816	0,114	0,052
-570,904	709,441	0,085	-0,162
-569,890	800,000	-0,048	0,103
-568,875	-200,000	-0,004	-0,072
-567,861	558,365	-0,053	0,093
-566,846	-78,308	-0,177	0,043
-565,831	-200,000	-0,012	-0,133
-564,817	10,373	-0,036	0,020
-563,802	285,682	-0,067	-0,087
-562,788	658,887	-0,009	-0,017
-561,773	-200,000	-0,041	-0,139
-560,758	-200,000	0,031	-0,164
-559,744	-200,000	0,029	0,120
-558,729	800,000	-0,026	0,077
-557,715	421,699	0,010	0,015
-556,700	60,145	0,013	-0,009
-555,685	-200,000	0,013	0,070
-554,671	-102,723	-0,131	-0,022
-553,656	181,001	-0,047	-0,050
-552,642	246,020	0,044	-0,054
-551,627	-13,754	0,056	-0,026
-550,612	-33,720	-0,052	-0,021
-549,598	-23,695	-0,088	0,038
-548,583	516,756	-0,116	-0,196
-547,569	97,117	-0,049	0,040
-546,554	92,231	0,101	0,082
-545,539	22,451	0,041	0,024
-544,525	135,970	-0,104	0,098
-543,510	800,000	0,034	-0,092
-542,496	-200,000	-0,013	-0,043
-541,481	-200,000	-0,013	-0,108
-540,466	-147,194	0,060	0,004
-539,452	-200,000	-0,016	0,070
-538,437	-200,000	0,014	0,100
-537,423	-200,000	-0,008	0,077
-536,408	54,299	-0,044	0,030
-535,393	-200,000	-0,011	0,047
-534,379	-123,882	-0,114	-0,013
-533,364	-119,395	-0,139	-0,017
-532,350	27,941	0,108	0,065
-531,335	152,301	0,052	0,051
-530,321	-102,011	0,107	-0,018
-529,306	129,022	0,052	-0,048
-528,291	319,831	-0,055	0,075
-527,277	134,978	-0,037	-0,034
-526,262	-200,000	-0,001	0,041
-525,248	-28,754	0,088	0,036
-524,233	-7,042	0,081	0,040
-523,218	-200,000	0,019	0,140
-522,204	-200,000	0,000	-0,034
-521,189	10,406	-0,108	-0,059
-520,175	462,442	-0,032	-0,051
-519,160	-99,731	0,090	-0,016
-518,145	220,189	0,089	-0,102
-517,131	124,755	0,057	-0,051
-516,116	-200,000	0,002	0,060
-515,102	-200,000	0,004	-0,092
-514,087	356,173	0,063	0,090
-513,072	-200,000	0,000	0,016
-512,058	800,000	-0,035	0,078
-511,043	-176,508	-0,064	-0,001
-510,029	-180,121	0,010	0,000
-509,014	-161,069	-0,100	0,004
-507,999	79,595	0,033	0,026
-506,985	800,000	0,020	0,040
-505,970	800,000	-0,022	-0,045
-504,956	-28,664	0,054	-0,022
-503,941	92,981	-0,096	-0,078
-502,926	-168,909	0,030	0,001
-501,912	-114,770	0,075	-0,010
-500,897	-117,629	0,082	0,011
-499,883	60,548	-0,141	-0,100
-498,868	517,952	-0,059	-0,099
-497,853	800,000	-0,039	-0,108
-496,839	532,836	-0,018	-0,031
-495,824	183,508	0,059	0,062
-494,810	-200,000	0,021	0,134
-493,795	254,560	0,041	0,050
-492,781	-38,255	-0,067	0,025
-491,766	-200,000	-0,013	0,045
-490,751	-200,000	-0,013	-0,046
-489,737	332,992	0,020	0,027
-488,722	637,704	0,072	0,131
-487,708	188,807	0,069	-0,074
-486,693	202,537	0,050	0,055
-485,678	-144,947	0,070	-0,004
-484,664	-113,651	-0,155	-0,021
-483,649	-59,441	0,082	0,025
-482,635	800,000	-0,012	0,033
-481,620	-29,846	0,063	0,026
-480,605	-124,088	-0,006	0,001
-479,591	800,000	-0,027	0,054
-478,576	198,121	0,110	0,121
-477,562	8,187	-0,057	-0,031
-476,547	800,000	0,022	0,065
-475,532	-200,000	-0,014	0,048
-474,518	263,447	0,056	-0,070
-473,503	-200,000	0,021	0,094
-472,489	-41,430	-0,118	0,043
-471,474	-200,000	-0,002	-0,055
-470,459	-200,000	-0,026	-0,123
-469,445	90,402	-0,035	-0,028
-468,430	100,044	0,048	0,040
-467,416	3,241	0,121	0,063
-466,401	800,000	0,063	0,126
-465,386	44,139	0,043	-0,028
-464,372	-160,464	0,014	-0,001
-463,357	177,487	-0,078	-0,081
-462,343	306,548	-0,112	-0,149
-461,328	79,388	0,031	0,024
-460,313	-200,000	0,015	0,126
-459,299	-146,655	0,102	-0,006
-458,284	178,515	0,111	0,116
-457,270	-67,147	-0,060	-0,017
-456,255	-95,387	0,104	0,020
-455,241	-118,583	-0,085	0,011
-454,226	72,714	-0,038	0,028
-453,211	-50,273	-0,139	-0,047
-452,197	230,536	0,051	-0,059
-451,182	-46,642	0,121	0,042
-450,168	18,293	-0,070	0,040
-449,153	289,551	-0,029	0,038
-448,138	35,182	-0,087	-0,055
-447,124	-18,425	0,092	0,041
-446,109	800,000	-0,055	-0,160
-445,095	-127,340	0,095	-0,010
-444,080	-65,847	-0,104	0,030
-443,065	-151,593	0,092	0,005
-442,051	88,268	-0,058	0,046
-441,036	179,945	-0,027	-0,029
-440,022	212,033	0,107	-0,120
-439,007	141,203	0,067	0,063
-437,992	-200,000	0,006	0,079
-436,978	-200,000	-0,008	0,215
-435,963	182,540	-0,074	-0,078
-434,949	-123,004	-0,040	0,005
-433,934	158,291	-0,047	-0,047
-432,919	-200,000	0,005	0,050
-431,905	15,436	0,044	0,025
-430,890	-200,000	0,020	-0,082
-429,876	-200,000	-0,011	0,159
-428,861	-70,963	0,035	-0,009
-427,846	160,413	0,041	-0,041
-426,832	-8,679	-0,150	0,072
-425,817	59,221	-0,006	-0,004
-424,803	223,981	-0,110	0,128
-423,788	-107,060	0,061	0,010
-422,773	218,449	0,042	0,048
-421,759	-200,000	-0,021	-0,090
-420,744	538,564	-0,048	-0,083
-419,730	-75,046	-0,196	-0,050
-418,715	0,559	-0,065	0,033
-417,701	45,309	0,050	-0,033
-416,686	-200,000	0,009	0,077
-415,671	-149,215	0,047	0,003
-414,657	-200,000	-0,031	0,137
-413,642	-71,489	-0,032	-0,009
-412,628	-45,544	0,151	0,053
-411,613	161,069	-0,124	0,124
-410,598	800,000	-0,048	0,121
-409,584	-200,000	0,138	0,000
-408,569	-122,076	0,129	-0,015
-407,555	-200,000	0,006	0,057
-406,540	800,000	0,011	0,027
-405,525	-5,357	0,086	0,042
-404,511	-200,000	-0,011	0,036
-403,496	-200,000	0,015	0,092
-402,482	223,980	-0,079	-0,091
-401,467	322,232	-0,066	-0,090
-400,452	-200,000	0,001	0,021
-399,438	-200,000	-0,018	0,086
-398,423	-200,000	0,004	0,029
-397,409	-65,663	-0,080	0,023
-396,394	-39,441	-0,052	0,019
-395,379	33,406	0,023	-0,014
-394,365	-29,015	-0,037	0,015
-393,350	-200,000	0,008	-0,125
-392,336	-200,000	-0,001	0,024
-391,321	-61,066	-0,141	0,042
-390,306	-200,000	-0,001	0,052
-389,292	-114,279	-0,049	0,007
-388,277	-15,595	-0,092	0,042
-387,263	-200,000	0,008	-0,098
-386,248	42,231	0,057	0,037
-385,233	167,169	0,044	0,044
-384,219	19,905	0,073	-0,042
-383,204	193,014	-0,124	-0,134
-382,190	-200,000	0,020	0,086
-381,175	-88,579	0,098	0,021
-380,160	321,463	-0,081	0,110
-379,146	800,000	-0,033	0,097
-378,131	-118,845	-0,023	0,003
-377,117	44,721	0,062	0,041
-376,102	-200,000	-0,063	-0,214
-375,088	341,924	-0,064	-0,090
-374,073	-200,000	-0,004	-0,087
-373,058	-54,439	0,133	0,043
-372,044	800,000	0,029	-0,059
-371,029	199,464	0,028	0,031
-370,015	-200,000	0,006	0,154
-369,000	632,383	-0,090	-0,163
-367,985	-82,371	-0,124	-0,029
-366,971	-200,000	0,023	-0,107
-365,956	-99,148	-0,041	-0,007
-364,942	309,333	-0,067	0,089
-363,927	-14,516	0,065	0,030
-362,912	-146,777	-0,057	0,003
-361,898	-3,556	-0,085	0,042
-360,883	-200,000	-0,008	-0,040
-359,869	-200,000	0,017	-0,070
-358,854	-200,000	0,009	-0,089
-357,839	34,085	-0,088	0,054
-356,825	107,221	0,144	0,122
-355,810	203,574	0,036	0,040
-354,796	800,000	-0,052	-0,118
-353,781	18,005	-0,078	-0,044
-352,766	150,768	0,094	-0,091
-351,752	-36,335	0,082	0,032
-350,737	-139,427	0,124	0,009
-349,723	-200,000	0,011	0,093
-348,708	-144,076	-0,009	-0,001
-347,693	-58,632	0,247	-0,076
-346,679	-78,620	-0,066	0,016
-345,664	-141,090	-0,062	0,004
-344,650	-122,479	0,018	0,002
-343,635	245,081	-0,036	-0,044
-342,620	134,146	0,046	0,042
-341,606	-200,000	-0,017	-0,063
-340,591	-200,000	0,004	0,027
-339,577	-126,527	-0,211	-0,022
-338,562	465,254	-0,075	-0,120
-337,548	-200,000	-0,007	0,191
-336,533	-65,640	0,122	0,035
-335,518	800,000	-0,055	0,136
-334,504	-200,000	-0,006	0,024
-333,489	-200,000	0,003	0,040
-332,475	141,888	0,070	-0,067
-331,460	-23,656	0,149	-0,063
-330,445	-200,000	0,021	-0,083
-329,431	-200,000	-0,010	-0,116
-328,416	125,595	-0,061	0,055
-327,402	300,687	-0,038	-0,050
-326,387	800,000	-0,021	0,045
-325,372	-49,520	0,014	0,005
-324,358	-200,000	-0,015	-0,196
-323,343	800,000	0,056	-0,123
-322,329	198,614	0,033	0,036
-321,314	-10,554	0,126	0,059
-320,299	147,442	-0,014	0,013
-319,285	176,249	-0,006	-0,006
-318,270	17,096	0,074	0,042
-317,256	-200,000	-0,005	-0,017
-316,241	15,661	0,072	-0,040
-315,226	-200,000	-0,007	0,084
-314,212	-79,105	0,039	-0,009
-313,197	-200,000	-0,014	0,057
-312,183	73,416	-0,093	0,069
-311,168	292,186	-0,038	-0,049
-310,153	73,539	-0,074	0,055
-309,139	-200,000	0,002	0,114
-308,124	800,000	0,043	0,121
-307,110	19,054	0,107	0,061
-306,095	131,127	-0,008	0,007
-305,080	800,000	0,037	0,106
-304,066	800,000	0,069	0,148
-303,051	-200,000	0,005	-0,062
-302,037	-37,114	0,081	0,031
-301,022	-200,000	-0,003	0,016
-300,008	221,462	0,054	-0,062
-298,993	-200,000	-0,007	0,025
-297,978	800,000	0,033	0,097
-296,964	257,139	0,091	-0,112
-295,949	523,941	0,067	0,112
-294,935	335,319	-0,044	0,061
-293,920	800,000	-0,011	-0,033
-292,905	-79,430	0,069	0,016
-291,891	800,000	0,075	0,192
-290,876	157,776	0,113	0,111
-289,862	800,000	-0,014	-0,036
-288,847	-197,157	-0,039	-0,000
-287,832	-200,000	0,005	-0,115
-286,818	390,325	-0,062	0,092
-285,803	-65,427	0,039	-0,011
-284,789	196,207	-0,083	-0,091
-283,774	135,018	-0,052	0,048
-282,759	800,000	-0,018	-0,039
-281,745	-200,000	0,005	0,116
-280,730	-69,025	-0,093	-0,025
-279,716	267,944	0,145	0,181
-278,701	115,434	-0,076	-0,066
-277,686	800,000	0,065	0,182
-276,672	-200,000	0,001	-0,005
-275,657	800,000	0,044	0,096
-274,643	50,135	-0,116	0,078
-273,628	-200,000	-0,001	-0,038
-272,613	22,122	-0,117	0,068
-271,599	156,582	-0,059	0,058
-270,584	-144,810	0,077	-0,005
-269,570	-160,612	0,092	-0,003
-268,555	800,000	0,069	-0,162
-267,540	594,577	-0,096	-0,170
-266,526	149,061	0,023	-0,022
-265,511	-83,399	-0,162	0,037
-264,497	-102,866	0,089	-0,015
-263,482	352,556	-0,076	0,108
-262,467	4,353	0,067	-0,035
-261,453	800,000	-0,038	0,108
-260,438	417,970	0,024	0,037
-259,424	41,164	-0,104	-0,067
-258,409	-200,000	0,028	-0,102
-257,395	-125,319	0,120	-0,013
-256,380	800,000	0,095	0,208
-255,365	-163,178	0,128	-0,004
-254,351	-100,208	0,049	-0,009
-253,336	800,000	0,028	0,061
-252,322	193,394	-0,014	0,015
-251,307	36,668	-0,078	0,049
-250,292	800,000	0,027	0,052
-249,278	77,200	0,049	-0,037
-248,263	800,000	0,028	0,068
-247,249	-139,523	-0,123	0,009
-246,234	-200,000	0,002	0,056
-245,219	-200,000	0,007	-0,093
-244,205	800,000	-0,038	-0,099
-243,190	800,000	0,018	-0,055
-242,176	-200,000	-0,006	0,088
-241,161	-115,951	0,122	-0,016
-240,146	600,081	-0,037	-0,066
-239,132	-12,878	0,078	-0,036
-238,117	-141,991	-0,151	0,011
-237,103	734,931	-0,086	0,164
-236,088	705,532	0,049	-0,092
-235,073	67,099	-0,124	-0,090
-234,059	-64,066	0,139	0,040
-233,044	-35,744	0,094	0,036
-232,030	-200,000	0,011	-0,088
-231,015	-97,026	-0,079	0,014
-230,000	-146,362	-0,135	0,008
-228,986	224,713	-0,089	-0,102
-227,971	-23,602	0,069	0,029
-226,957	-200,000	0,030	0,130
-225,942	-200,000	-0,013	0,152
-224,927	9,029	-0,056	-0,030
-223,913	800,000	-0,042	-0,109
-222,898	-124,471	-0,028	-0,003
-221,884	-78,176	-0,032	0,008
-220,869	90,998	0,059	0,047
-219,855	9,141	-0,170	0,091
-218,840	800,000	-0,049	0,105
-217,825	130,508	-0,047	-0,043
-216,811	-36,824	-0,148	-0,056
-215,796	-200,000	-0,022	-0,114
-214,782	-43,154	-0,017	0,006
-213,767	800,000	0,041	0,102
-212,752	-56,601	0,057	-0,018
-211,738	407,289	-0,031	0,047
-210,723	-200,000	-0,039	-0,172
-209,709	359,794	-0,035	0,050
-208,694	-200,000	-0,000	-0,004
-207,679	-22,675	0,129	-0,055
-206,665	-20,455	0,130	0,057
-205,650	-200,000	0,002	-0,011
-204,636	800,000	0,078	0,218
-203,621	-70,992	0,051	0,014
-202,606	800,000	0,024	-0,059
-201,592	47,631	-0,034	-0,023
-200,577	-99,106	-0,110	0,020
-199,563	-15,740	0,113	-0,051
-198,548	800,000	0,022	-0,043
-197,533	558,708	0,065	0,112
-196,519	-200,000	-0,004	0,090
-195,504	800,000	-0,029	-0,073
-194,490	184,592	-0,036	-0,038
-193,475	711,717	0,047	-0,089
-192,460	-142,322	0,077	0,005
-191,446	-54,940	-0,055	0,017
-190,431	-29,502	0,058	-0,023
-189,417	-200,000	0,011	0,072
-188,402	-200,000	0,004	-0,029
-187,387	171,444	0,164	-0,167
-186,373	92,730	-0,077	0,062
-185,358	116,374	0,077	-0,067
-184,344	33,879	-0,127	-0,078
-183,329	106,164	0,030	0,026
-182,315	-200,000	0,044	0,153
-181,300	49,132	0,003	-0,002
-180,285	408,981	-0,033	-0,050
-179,271	-9,263	-0,162	-0,077
-178,256	-4,140	0,105	-0,051
-177,242	-108,438	-0,015	0,002
-176,227	-111,587	0,198	-0,028
-175,212	-43,541	-0,022	0,008
-174,198	-53,461	-0,034	-0,011
-173,183	800,000	-0,032	-0,088
-172,169	-92,708	-0,085	-0,017
-171,154	126,388	-0,054	-0,048
-170,139	-200,000	0,002	-0,070
-169,125	-100,128	0,142	-0,025
-168,110	78,510	0,084	0,064
-167,096	800,000	0,045	-0,113
-166,081	387,401	-0,020	-0,029
-165,066	-200,000	0,017	-0,089
-164,052	-200,000	-0,027	-0,101
-163,037	800,000	-0,039	-0,110
-162,023	-200,000	0,023	-0,131
-161,008	-15,772	-0,045	0,020
-159,993	-200,000	0,014	-0,047
-158,979	126,188	-0,048	-0,043
-157,964	-45,932	0,061	-0,021
-156,950	800,000	-0,016	-0,043
-155,935	169,981	-0,119	-0,120
-154,920	51,329	0,088	0,059
-153,906	508,156	0,030	-0,050
-152,891	295,453	0,013	0,016
-151,877	800,000	0,018	-0,050
-150,862	100,585	-0,052	0,043
-149,847	732,726	-0,078	0,148
-148,833	106,689	-0,105	-0,088
-147,818	-200,000	0,006	-0,151
-146,804	-9,665	-0,050	-0,023
-145,789	-200,000	0,005	-0,019
-144,775	-200,000	-0,002	0,030
-143,760	-142,853	-0,057	-0,004
-142,745	-133,565	-0,124	0,011
-141,731	641,815	-0,055	0,100
-140,716	800,000	0,015	-0,038
-139,702	-200,000	0,004	0,011
-138,687	-200,000	-0,032	-0,126
-137,672	174,208	-0,087	-0,089
-136,658	-59,654	0,043	-0,013
-135,643	340,979	-0,044	0,061
-134,629	-32,262	-0,131	0,051
-133,614	800,000	-0,037	0,106
-132,599	-104,544	-0,048	-0,008
-131,585	649,306	0,053	-0,097
-130,570	-52,166	-0,151	-0,049
-129,556	223,183	0,043	-0,049
-128,541	-200,000	0,005	-0,130
-127,526	602,936	-0,076	-0,134
-126,512	-95,361	0,148	0,028
-125,497	171,332	0,026	-0,026
-124,483	37,956	0,098	-0,061
-123,468	-162,151	-0,094	0,003
-122,453	-46,418	-0,081	0,028
-121,439	-163,988	0,014	0,000
-120,424	-200,000	-0,019	-0,201
-119,410	-200,000	-0,021	0,146
-118,395	-200,000	0,034	0,154
-117,380	24,469	-0,074	-0,043
-116,366	-109,910	0,019	-0,003
-115,351	800,000	-0,042	-0,091
-114,337	-36,019	0,060	-0,023
-113,322	153,584	-0,009	-0,008
-112,307	-200,000	-0,001	0,026
-111,293	-47,014	0,057	0,019
-110,278	-52,066	0,150	0,049
-109,264	-200,000	0,006	-0,102
-108,249	800,000	-0,047	0,092
-107,234	-200,000	-0,009	-0,034
-106,220	-101,551	-0,096	-0,016
-105,205	154,037	-0,067	-0,065
-104,191	-91,226	0,122	0,025
-103,176	-161,618	0,101	0,004
-102,162	21,328	-0,102	-0,059
-101,147	800,000	0,015	-0,030
-100,132	70,637	0,031	0,022
-99,118	-98,553	-0,130	-0,023
-98,103	-37,510	0,025	-0,009
-97,089	-155,326	0,093	-0,004
-96,074	229,134	-0,008	-0,010
-95,059	-84,025	0,060	-0,013
-94,045	800,000	-0,021	0,044
-93,030	-0,454	-0,050	-0,025
-92,016	-24,243	-0,092	0,038
-91,001	-39,533	-0,131	-0,048
-89,986	-93,226	0,034	-0,007
-88,972	531,823	-0,027	0,046
-87,957	-148,276	0,195	-0,011
-86,943	-41,712	-0,060	-0,022
-85,928	783,157	-0,017	-0,032
-84,913	400,926	-0,022	0,033
-83,899	-118,625	-0,194	-0,024
-82,884	153,317	-0,038	-0,037
-81,870	126,839	0,072	-0,065
-80,855	-9,811	0,073	-0,034
-79,840	85,784	0,029	0,023
-78,826	296,919	-0,066	-0,086
-77,811	16,908	-0,180	-0,100
-76,797	-60,089	0,046	-0,014
-75,782	348,964	0,054	0,075
-74,767	-200,000	0,020	0,171
-73,753	37,582	-0,104	-0,065
-72,738	541,523	-0,015	0,026
-71,724	-200,000	0,030	0,120
-70,709	148,621	-0,044	-0,042
-69,694	800,000	0,032	-0,095
-68,680	635,567	-0,040	-0,072
-67,665	-200,000	0,035	0,119
-66,651	-51,941	0,141	0,046
-65,636	59,904	-0,006	-0,004
-64,622	-85,870	0,090	0,020
-63,607	800,000	-0,052	-0,138
-62,592	-200,000	0,009	-0,142
-61,578	800,000	0,027	0,056
-60,563	-200,000	0,027	0,112
-59,549	-200,000	-0,016	0,149
-58,534	44,263	-2,187	-1,414
-57,519	333,375	-1,215	-1,663
-56,505	-200,000	-0,527	-4,632
-55,490	353,598	0,973	1,367
-54,476	800,000	5,408	12,136
-53,461	-200,000	22,214	346,844
-52,446	800,000	759,201	2306,656
-51,432	535,161	1651,070	2774,057
-50,417	68,854	1649,560	1194,019
-49,403	16,215	1525,281	846,568
-48,388	10,382	1450,349	776,880
-47,373	19,418	1442,491	815,814
-46,359	13,872	1431,168	783,133
-45,344	8,727	1427,253	756,556
-44,330	8,685	1425,339	755,309
-43,315	8,627	1423,487	754,026
-42,300	8,673	1421,670	753,252
-41,286	8,687	1420,443	752,636
-40,271	8,633	1419,161	751,671
-39,257	8,668	1418,078	751,233
-38,242	8,707	1416,930	750,778
-37,227	8,677	1415,972	750,101
-36,213	8,627	1414,631	749,127
-35,198	8,644	1413,350	748,497
-34,184	8,678	1412,413	748,131
-33,169	8,611	1410,921	746,995
-32,154	8,632	1409,884	746,515
-31,140	8,620	1408,800	745,857
-30,125	8,704	1407,569	745,569
-29,111	8,677	1406,295	744,737
-28,096	8,654	1405,281	744,064
-27,082	8,564	1404,282	743,085
-26,067	8,573	1403,252	742,552
-25,052	8,598	1401,917	741,933
-24,038	8,600	1400,968	741,412
-23,023	8,565	1400,199	740,813
-22,009	8,558	1399,167	740,201
-20,994	8,526	1397,999	739,409
-19,979	8,568	1397,222	739,163
-18,965	8,561	1396,066	738,489
-17,950	8,514	1395,145	737,752
-16,936	8,497	1394,379	737,239
-15,921	8,483	1393,403	736,631
-14,906	8,503	1392,465	736,198
-13,892	8,507	1391,460	735,657
-12,877	8,547	1390,540	735,324
-11,863	8,498	1390,004	734,784
-10,848	8,496	1389,090	734,265
-9,833	8,454	1388,251	733,598
-8,819	8,425	1387,243	732,904
-7,804	8,411	1386,301	732,310
-6,790	8,402	1385,066	731,589
-5,775	8,401	1384,358	731,179
-4,760	8,433	1383,245	730,713
-3,746	8,432	1382,232	730,140
-2,731	8,465	1381,410	729,833
-1,717	8,432	1380,682	729,266
-0,702	8,380	1379,018	728,121
0,313	12,368	1289,818	699,153
1,327	28,071	680,992	404,326
2,342	43,374	117,233	75,405
3,356	-1,487	16,531	8,194
4,371	9,578	3,846	2,048
5,386	-6,544	1,431	0,685
6,400	-200,000	0,184	0,636
7,415	148,106	-0,177	-0,169
8,429	35,318	-0,355	-0,219
9,444	9,687	-0,202	-0,108
10,459	-13,311	-0,286	-0,130
11,473	89,655	-0,270	-0,212
12,488	7,745	-0,094	-0,050
13,502	-35,562	-0,260	-0,099
14,517	-73,827	-0,254	-0,064
15,531	54,587	-0,397	-0,269
16,546	-22,606	-0,383	-0,162
17,561	166,187	-0,251	-0,251
18,575	-76,561	-0,174	-0,043
19,590	13,529	-0,315	-0,172
20,604	68,412	-0,199	-0,144
21,619	80,427	-0,481	-0,364
22,634	398,292	-0,330	-0,488
23,648	19,703	-0,448	-0,253
24,663	265,454	-0,255	-0,313
25,677	464,949	-0,269	-0,425
26,692	132,533	-0,406	-0,369
27,707	-27,711	-0,289	-0,117
28,721	46,145	-0,476	-0,310
29,736	18,431	-0,373	-0,209
30,750	-7,278	-0,413	-0,196
31,765	59,603	-0,379	-0,263
32,780	42,813	-0,471	-0,301
33,794	99,653	-0,326	-0,265
34,809	-8,090	-0,435	-0,205
35,823	-23,055	-0,348	-0,147
36,838	8,023	-0,296	-0,155
37,853	52,212	-0,285	-0,191
38,867	52,575	-0,272	-0,182
39,882	69,097	-0,244	-0,176
40,896	-0,729	-0,341	-0,169
41,911	44,916	-0,313	-0,202
42,926	138,028	-0,232	-0,214
43,940	82,321	-0,422	-0,321
44,955	112,367	-0,299	-0,254
45,969	-20,560	-0,450	-0,193
46,984	208,503	-0,289	-0,318
47,999	90,553	-0,334	-0,262
49,013	67,008	-0,279	-0,200
50,028	125,580	-0,364	-0,323
51,042	43,850	-0,280	-0,180
52,057	92,444	-0,321	-0,254
53,071	-8,532	-0,536	-0,252
54,086	38,248	-0,358	-0,223
55,101	118,557	-0,330	-0,286
56,115	217,531	-0,253	-0,283
57,130	39,091	-0,307	-0,192
58,144	156,946	-0,298	-0,289
59,159	-27,141	-0,523	-0,213
60,174	181,723	-0,301	-0,311
61,188	137,837	-0,276	-0,253
62,203	-30,480	-0,449	-0,178
63,217	800,000	-0,150	-0,306
64,232	34,353	-0,373	-0,228
65,247	-34,445	-0,278	-0,106
66,261	11,377	-0,365	-0,195
67,276	287,917	-0,350	-0,445
68,290	7,261	-0,480	-0,250
69,305	-24,368	-0,490	-0,204
70,320	74,943	-0,320	-0,236
71,334	-25,656	-0,327	-0,135
72,349	-34,785	-0,348	-0,132
73,363	64,379	-0,308	-0,217
74,378	-144,744	-0,330	-0,021
75,393	7,121	-0,406	-0,211
76,407	169,767	-0,167	-0,167
77,422	108,673	-0,239	-0,200
78,436	65,557	-0,346	-0,245
79,451	-45,974	-0,356	-0,122
80,466	53,468	-0,399	-0,268
81,480	137,996	-0,278	-0,255
82,495	-45,501	-0,361	-0,125
83,509	51,929	-0,249	-0,166
84,524	-126,257	-0,248	-0,026
85,539	-52,804	-0,171	-0,055
86,553	90,928	-0,295	-0,232
87,568	193,484	-0,275	-0,291
88,582	39,663	-0,325	-0,204
89,597	39,930	-0,306	-0,192
90,611	96,955	-0,290	-0,232
91,626	-112,026	-0,319	-0,044
92,641	74,620	-0,216	-0,159
93,655	86,687	-0,213	-0,164
94,670	230,550	-0,312	-0,357
95,684	-6,162	-0,351	-0,167
96,699	23,375	-0,281	-0,161
97,714	18,497	-0,262	-0,146
98,728	-116,403	-0,304	-0,039
99,743	-54,653	-0,267	-0,084
100,757	44,117	-0,365	-0,234
101,772	116,676	-0,256	-0,219
102,787	38,095	-0,288	-0,179
103,801	-34,395	-0,401	-0,153
104,816	-64,949	-0,172	-0,048
105,830	229,234	-0,146	-0,166
106,845	-7,238	-0,240	-0,113
107,860	39,215	-0,310	-0,194
108,874	27,109	-0,242	-0,142
109,889	-11,782	-0,378	-0,173
110,903	26,562	-0,302	-0,176
111,918	103,363	-0,351	-0,288
112,933	67,640	-0,189	-0,135
113,947	114,194	-0,354	-0,301
114,962	59,378	-0,317	-0,218
115,976	-39,676	-0,302	-0,110
116,991	-56,731	-0,334	-0,103
118,006	189,735	-0,213	-0,223
119,020	52,236	-0,177	-0,118
120,035	350,126	-0,179	-0,248
121,049	800,000	-0,119	-0,234
122,064	157,842	-0,231	-0,224
123,079	-22,893	-0,249	-0,104
124,093	-30,985	-0,199	-0,078
125,108	46,483	-0,307	-0,199
126,122	13,572	-0,274	-0,148
127,137	16,182	-0,343	-0,188
128,151	254,964	-0,151	-0,181
129,166	-56,156	-0,296	-0,091
130,181	17,676	-0,375	-0,208
131,195	260,822	-0,215	-0,260
132,210	312,184	-0,224	-0,294
133,224	17,935	-0,304	-0,168
134,239	210,603	-0,159	-0,174
135,254	171,790	-0,200	-0,200
136,268	800,000	-0,103	-0,205
137,283	37,331	-0,312	-0,192
138,297	179,142	-0,256	-0,261
139,312	-63,209	-0,319	-0,091
140,327	305,456	-0,241	-0,313
141,341	-61,933	-0,339	-0,098
142,356	-68,331	-0,310	-0,083
143,370	800,000	-0,073	-0,160
144,385	77,591	-0,142	-0,105
145,400	157,607	-0,153	-0,148
146,414	431,650	-0,114	-0,172
147,429	-29,732	-0,326	-0,129
148,443	36,261	-0,263	-0,161
149,458	29,276	-0,240	-0,142
150,473	12,839	-0,278	-0,149
151,487	99,401	-0,263	-0,212
152,502	28,607	-0,249	-0,146
153,516	-23,713	-0,281	-0,117
154,531	75,298	-0,187	-0,137
155,546	38,034	-0,239	-0,147
156,560	155,827	-0,233	-0,223
157,575	1,533	-0,202	-0,101
158,589	-32,883	-0,206	-0,079
159,604	1,617	-0,268	-0,134
160,619	159,137	-0,259	-0,250
161,633	291,645	-0,265	-0,337
162,648	102,674	-0,192	-0,156
163,662	6,519	-0,242	-0,125
164,677	24,748	-0,191	-0,110
165,692	-28,588	-0,165	0,066
166,706	72,781	-0,191	-0,139
167,721	2,000	-0,258	-0,129
168,735	152,089	-0,201	-0,190
169,750	204,010	-0,163	-0,176
170,764	87,057	-0,229	-0,176
171,779	-96,340	-0,182	-0,033
172,794	9,291	-0,177	0,093
173,808	131,312	-0,162	-0,144
174,823	82,665	-0,171	-0,129
175,837	100,434	-0,233	-0,188
176,852	107,921	-0,181	-0,150
177,867	-14,314	-0,333	-0,148
178,881	150,957	-0,149	-0,140
179,896	331,552	-0,183	-0,245
180,910	210,156	-0,150	-0,163
181,925	-69,315	-0,296	-0,078
182,940	-200,000	-0,083	-0,263
183,954	81,948	-0,130	-0,097
184,969	121,090	-0,183	-0,158
185,983	45,427	-0,187	-0,119
186,998	-60,668	-0,288	-0,084
188,013	187,535	-0,190	-0,196
189,027	-39,110	-0,226	-0,082
190,042	96,691	-0,183	-0,145
191,056	265,870	-0,184	-0,223
192,071	-84,479	-0,220	-0,048
193,086	112,959	-0,200	-0,168
194,100	-79,655	-0,146	-0,034
195,115	-69,825	-0,191	-0,050
196,129	-43,554	-0,243	-0,085
197,144	371,766	-0,206	-0,291
198,159	-200,000	-0,051	-0,197
199,173	91,140	-0,129	-0,100
200,188	105,977	-0,172	-0,141
201,202	244,779	-0,182	-0,212
202,217	-35,088	-0,230	-0,086
203,232	396,904	-0,152	-0,221
204,246	-55,717	-0,277	-0,085
205,261	144,370	-0,239	-0,221
206,275	-200,000	-0,018	-0,068
207,290	255,440	-0,132	-0,157
208,304	200,759	-0,140	-0,149
209,319	268,870	-0,153	-0,186
210,334	77,370	-0,244	-0,180
211,348	726,594	-0,189	-0,351
212,363	9,416	-0,295	-0,154
213,377	116,109	-0,176	-0,149
214,392	91,801	-0,207	-0,161
215,407	-76,925	-0,237	-0,057
216,421	-83,140	-0,176	-0,039
217,436	32,803	-0,209	-0,125
218,450	34,073	-0,248	-0,149
219,465	-89,034	-0,289	-0,059
220,480	800,000	-0,035	-0,072
221,494	202,025	-0,194	-0,207
222,509	1,603	-0,214	-0,106
223,523	-200,000	0,001	-0,174
224,538	-42,084	-0,207	-0,073
225,553	-2,337	-0,228	-0,110
226,567	418,594	-0,185	-0,274
227,582	-17,284	-0,200	-0,087
228,596	52,263	-0,141	-0,093
229,611	720,981	-0,087	-0,160
230,626	-54,799	-0,195	-0,060
231,640	54,418	-0,155	-0,103
232,655	0,783	-0,231	-0,114
233,669	34,626	-0,293	-0,176
234,684	79,504	-0,255	-0,189
235,699	175,990	-0,103	-0,103
236,713	542,140	-0,083	-0,138
237,728	47,826	-0,163	-0,105
238,742	78,928	-0,232	-0,172
239,757	69,140	-0,213	-0,151
240,772	800,000	-0,122	-0,313
241,786	743,098	-0,137	-0,255
242,801	800,000	-0,136	-0,314
243,815	-58,843	-0,238	-0,071
244,830	-23,039	-0,166	-0,069
245,844	21,184	-0,295	-0,165
246,859	-15,815	-0,234	-0,103
247,874	-3,137	-0,318	-0,152
248,888	-45,998	-0,246	-0,083
249,903	32,995	-0,163	-0,097
250,917	-28,806	-0,118	-0,047
251,932	567,357	-0,080	-0,135
252,947	800,000	-0,103	-0,273
253,961	218,949	-0,204	-0,225
254,976	503,192	-0,204	-0,327
255,990	124,049	-0,162	-0,141
257,005	800,000	-0,103	-0,249
258,020	158,013	-0,128	-0,122
259,034	208,766	-0,153	-0,166
260,049	139,589	-0,097	-0,088
261,063	438,487	-0,162	-0,244
262,078	-200,000	0,011	-0,154
263,093	107,806	-0,139	-0,114
264,107	-75,005	-0,169	-0,041
265,122	35,971	-0,144	-0,087
266,136	-36,554	-0,102	-0,038
267,151	333,870	-0,103	0,138
268,166	800,000	-0,124	-0,260
269,180	190,690	-0,202	-0,209
270,195	0,770	-0,320	-0,157
271,209	165,864	-0,183	-0,179
272,224	-200,000	-0,014	-0,209
273,239	326,878	-0,071	-0,094
274,253	37,276	-0,187	-0,114
275,268	800,000	-0,111	-0,252
276,282	800,000	-0,113	-0,236
277,297	176,536	-0,211	-0,212
278,312	152,922	-0,178	-0,168
279,326	800,000	-0,087	-0,219
280,341	-13,750	-0,178	-0,079
281,355	72,958	-0,158	-0,113
282,370	320,150	-0,146	-0,192
283,384	75,424	-0,118	-0,086
284,399	-13,803	-0,209	-0,093
285,414	111,162	-0,176	-0,146
286,428	51,689	0,023	-0,015
287,443	-8,035	-0,103	-0,048
288,457	37,840	-0,250	-0,153
289,472	87,834	-0,087	-0,066
290,487	94,874	-0,150	-0,117
291,501	637,773	-0,136	-0,238
292,516	-200,000	-0,035	-0,137
293,530	800,000	-0,097	-0,186
294,545	800,000	-0,025	-0,075
295,560	532,003	-0,075	-0,122
296,574	0,447	-0,117	-0,057
297,589	38,318	-0,238	-0,145
298,603	356,895	-0,135	-0,185
299,618	168,939	-0,084	0,082
300,633	22,800	-0,163	-0,091
301,647	-159,896	-0,177	-0,007
302,662	136,249	-0,068	-0,061
303,676	-86,125	-0,166	-0,035
304,691	363,702	-0,127	-0,175
305,706	-35,624	-0,214	-0,079
306,720	-14,315	-0,025	0,011
307,735	-65,598	-0,236	-0,065
308,749	583,189	-0,064	-0,108
309,764	228,848	-0,106	-0,119
310,779	112,262	-0,160	-0,133
311,793	54,949	-0,148	-0,098
312,808	194,910	-0,199	-0,207
313,822	800,000	-0,103	-0,231
314,837	132,322	-0,215	-0,191
315,852	-107,632	-0,220	0,033
316,866	800,000	-0,022	0,054
317,881	164,917	-0,168	-0,163
318,895	-200,000	-0,062	-0,187
319,910	163,114	-0,129	-0,125
320,925	74,580	-0,136	-0,098
321,939	-99,375	-0,196	-0,034
322,954	-63,302	-0,031	-0,009
323,968	4,732	-0,118	-0,059
324,983	-0,983	-0,113	-0,055
325,997	-114,868	-0,201	0,026
327,012	16,124	-0,231	-0,124
328,027	66,404	-0,063	-0,044
329,041	800,000	-0,102	-0,239
330,056	-137,279	-0,105	0,008
331,070	306,947	-0,070	-0,089
332,085	-56,834	-0,108	0,033
333,100	-169,092	-0,295	0,007
334,114	800,000	-0,048	-0,104
335,129	151,996	-0,084	-0,079
336,143	-200,000	-0,059	-0,185
337,158	44,598	-0,093	0,059
338,173	72,189	-0,058	0,041
339,187	118,763	-0,158	-0,133
340,202	420,104	-0,037	-0,055
341,216	-68,915	-0,125	-0,033
342,231	-47,334	-0,222	-0,073
343,246	391,712	-0,110	-0,158
344,260	28,799	-0,175	-0,101
345,275	-129,080	-0,157	-0,015
346,289	-96,928	-0,134	0,024
347,304	-143,326	-0,180	-0,012
348,319	198,818	-0,195	-0,205
349,333	283,652	-0,192	-0,237
350,348	-83,332	-0,086	-0,019
351,362	92,001	-0,069	-0,053
352,377	637,923	-0,093	-0,163
353,392	690,246	-0,073	-0,131
354,406	-125,541	-0,243	-0,025
355,421	206,275	1311,317	1397,318
356,435	158,630	1471,579	1397,764
