DTS Sentinel unit serial number:	SN410029Multiplexer serial number:	ORYXHardware model number:	OX2-SRSoftware version number:	ORYX F/W v4,00 Oryx Data Collector v3.7.2.0data status	okinstallation	B3 Nyhavnadifferential loss correction	single-endedforward channel	channel 1reverse channel	N/Adate	2023/11/29time	16:47:30forward acquisition time	300,00reverse acquisition time	0,00gamma	499,1914k internal	0,3209k external	0,3209temperature offset calibration	1,0000default loss term (dB/km)	0,3820temperature slope calibration	1,0000multiplexer offset coefficient	1,0000multiplexer slope coefficient	1,0000fibre end	0,00T internal ref (°C)	11,43T ext. ref 1 (°C)	-3,81T ext. ref 2 (°C)	-3,95length (m)	temperature (°C)	Stokes	anti-Stokes-744,400	329,510	-0,218	-0,305
-743,385	-200,000	-0,002	0,323
-742,371	299,974	-0,119	-0,160
-741,356	-200,000	-0,002	0,306
-740,342	118,577	-0,187	-0,168
-739,327	800,000	0,107	0,270
-738,312	800,000	-0,178	-0,384
-737,298	-200,000	0,035	0,220
-736,283	251,540	-0,198	-0,245
-735,269	-200,000	0,059	0,431
-734,254	-130,422	-0,051	-0,005
-733,239	-68,870	-0,246	0,068
-732,225	-200,000	-0,095	-0,344
-731,210	106,687	0,081	0,070
-730,196	-143,943	-0,152	-0,010
-729,181	-53,029	-0,088	-0,029
-728,167	-68,498	0,052	-0,014
-727,152	109,912	-0,043	-0,038
-726,137	-74,939	-0,049	-0,013
-725,123	128,600	-0,074	-0,069
-724,108	175,433	-0,185	-0,195
-723,094	-128,022	-0,144	-0,015
-722,079	719,956	0,017	0,034
-721,064	-200,000	0,043	0,000
-720,050	-153,430	0,040	0,002
-719,035	200,952	0,048	-0,054
-718,021	-200,000	-0,015	-0,094
-717,006	-134,785	-0,200	0,017
-715,991	-175,938	-0,108	-0,002
-714,977	-33,839	0,011	-0,004
-713,962	-71,842	-0,134	-0,036
-712,948	-134,298	0,093	0,008
-711,933	-200,000	0,002	0,057
-710,918	-200,000	0,004	0,032
-709,904	-68,120	-0,085	-0,024
-708,889	-200,000	-0,009	-0,071
-707,875	405,086	-0,079	-0,121
-706,860	-29,315	0,024	-0,010
-705,845	-56,699	0,095	0,030
-704,831	-99,522	0,022	0,004
-703,816	-200,000	-0,016	0,166
-702,802	800,000	-0,033	0,079
-701,787	117,001	-0,005	0,004
-700,772	-72,032	-0,092	0,024
-699,758	-5,593	-0,185	-0,091
-698,743	-127,273	0,069	-0,007
-697,729	800,000	0,058	0,176
-696,714	800,000	0,045	0,137
-695,699	-17,385	-0,132	-0,060
-694,685	-200,000	-0,007	-0,092
-693,670	800,000	-0,051	-0,126
-692,656	-85,318	-0,064	-0,014
-691,641	-200,000	0,001	-0,023
-690,627	-97,455	0,124	0,023
-689,612	800,000	-0,042	0,107
-688,597	-99,633	-0,060	0,011
-687,583	-44,261	-0,030	-0,011
-686,568	272,027	-0,026	0,034
-685,554	-35,167	-0,114	-0,045
-684,539	-96,700	0,137	-0,026
-683,524	-121,363	-0,066	0,008
-682,510	77,254	0,132	0,102
-681,495	33,082	-0,158	0,099
-680,481	-59,851	-0,145	0,045
-679,466	-143,589	-0,024	-0,002
-678,451	28,466	-0,008	-0,005
-677,437	-200,000	-0,016	0,101
-676,422	16,671	0,021	0,012
-675,408	-200,000	-0,001	0,067
-674,393	75,434	-0,114	0,087
-673,378	450,071	-0,075	-0,120
-672,364	250,033	-0,075	0,092
-671,349	522,386	-0,054	-0,092
-670,335	159,437	0,017	-0,017
-669,320	354,570	0,078	-0,113
-668,305	-200,000	0,002	0,045
-667,291	370,746	-0,073	0,107
-666,276	-173,867	0,106	0,002
-665,262	800,000	-0,047	-0,123
-664,247	-68,743	-0,131	0,036
-663,232	52,045	-0,051	-0,035
-662,218	83,682	0,151	0,119
-661,203	800,000	0,009	-0,022
-660,189	800,000	-0,018	-0,052
-659,174	-200,000	-0,007	-0,042
-658,159	800,000	0,021	-0,059
-657,145	-7,000	-0,086	-0,042
-656,130	794,018	-0,049	-0,099
-655,116	36,330	-0,083	-0,053
-654,101	-200,000	-0,015	0,079
-653,086	-200,000	-0,013	-0,094
-652,072	800,000	0,023	-0,069
-651,057	-200,000	-0,002	-0,173
-650,043	557,110	-0,088	-0,153
-649,028	100,985	0,052	0,044
-648,014	-83,020	0,158	0,037
-646,999	374,124	0,038	-0,056
-645,984	-15,146	-0,076	0,035
-644,970	-18,283	0,109	0,049
-643,955	-200,000	-0,023	-0,120
-642,941	-128,447	0,050	-0,005
-641,926	-114,678	0,157	-0,021
-640,911	-151,964	-0,094	0,005
-639,897	298,294	-0,019	-0,026
-638,882	-200,000	-0,004	0,131
-637,868	-21,183	-0,101	0,045
-636,853	293,894	-0,077	-0,102
-635,838	98,700	-0,049	-0,041
-634,824	216,339	-0,068	-0,078
-633,809	559,373	0,043	-0,076
-632,795	-30,427	0,057	-0,023
-631,780	106,659	-0,034	-0,029
-630,765	-200,000	0,008	-0,086
-629,751	-2,213	-0,073	-0,037
-628,736	-200,000	0,003	-0,017
-627,722	8,704	-0,181	-0,098
-626,707	-200,000	-0,003	-0,080
-625,692	-97,109	0,115	0,021
-624,678	-200,000	0,008	-0,082
-623,663	213,162	0,027	-0,031
-622,649	800,000	0,012	-0,031
-621,634	-200,000	0,027	-0,121
-620,619	-52,730	-0,102	-0,034
-619,605	-15,757	-0,035	0,016
-618,590	800,000	0,079	0,173
-617,576	-200,000	-0,021	0,079
-616,561	185,363	-0,106	-0,114
-615,546	-38,578	-0,036	-0,014
-614,532	-91,400	0,047	0,010
-613,517	-3,630	-0,066	-0,033
-612,503	11,494	-0,128	0,071
-611,488	-161,107	-0,054	0,002
-610,474	-30,121	0,034	0,014
-609,459	-200,000	-0,041	0,168
-608,444	237,157	-0,100	0,120
-607,430	-200,000	0,018	0,060
-606,415	-109,596	0,072	0,011
-605,401	239,334	-0,158	-0,191
-604,386	622,558	0,024	0,044
-603,371	-37,729	0,147	0,056
-602,357	800,000	-0,036	0,082
-601,342	-149,299	0,035	0,002
-600,328	-200,000	-0,004	-0,120
-599,313	-93,757	-0,176	-0,035
-598,298	210,565	0,035	-0,040
-597,284	-33,861	0,118	0,047
-596,269	15,210	-0,052	0,029
-595,255	-70,368	0,163	-0,044
-594,240	-169,784	-0,077	0,002
-593,225	-200,000	-0,016	-0,145
-592,211	318,377	0,038	-0,053
-591,196	460,093	-0,070	0,113
-590,182	-13,346	-0,088	-0,041
-589,167	358,183	-0,039	-0,056
-588,152	17,138	0,068	0,039
-587,138	800,000	-0,014	-0,042
-586,123	-200,000	0,037	-0,217
-585,109	10,281	0,061	0,033
-584,094	61,923	-0,037	-0,026
-583,079	-106,949	-0,097	0,015
-582,065	35,904	0,054	0,034
-581,050	60,064	0,128	0,091
-580,036	-70,220	-0,131	-0,036
-579,021	-66,518	0,087	-0,025
-578,006	385,094	-0,069	-0,103
-576,992	24,699	-0,146	-0,087
-575,977	475,762	-0,106	-0,173
-574,963	800,000	0,017	0,048
-573,948	-200,000	0,014	0,105
-572,934	13,061	0,071	0,039
-571,919	-98,828	0,052	-0,009
-570,904	105,171	0,042	-0,036
-569,890	-97,993	-0,069	-0,013
-568,875	-200,000	0,025	0,084
-567,861	293,834	0,062	0,081
-566,846	34,892	0,071	0,045
-565,831	-200,000	-0,043	0,157
-564,817	6,502	0,124	-0,066
-563,802	-91,742	0,069	0,014
-562,788	-200,000	0,021	0,125
-561,773	-148,272	-0,162	-0,009
-560,758	59,713	0,138	0,098
-559,744	-103,321	0,054	-0,009
-558,729	800,000	0,027	-0,063
-557,715	151,242	0,014	-0,013
-556,700	78,829	-0,123	-0,095
-555,685	-200,000	0,036	-0,116
-554,671	-200,000	0,003	0,021
-553,656	117,888	-0,073	-0,064
-552,642	800,000	0,009	-0,025
-551,627	800,000	0,102	0,209
-550,612	-97,251	-0,100	0,019
-549,598	-57,580	0,064	-0,020
-548,583	-6,761	-0,217	-0,106
-547,569	-200,000	-0,008	-0,148
-546,554	-17,709	-0,055	0,025
-545,539	437,393	-0,033	0,053
-544,525	258,437	-0,040	0,049
-543,510	-109,008	-0,149	-0,023
-542,496	800,000	-0,039	0,089
-541,481	153,485	-0,079	-0,078
-540,466	-200,000	0,020	0,092
-539,452	800,000	0,027	0,077
-538,437	102,040	0,113	0,095
-537,423	385,016	-0,033	0,049
-536,408	454,730	-0,045	-0,073
-535,393	434,362	-0,059	-0,092
-534,379	137,638	0,043	-0,040
-533,364	800,000	0,088	-0,175
-532,350	162,368	-0,042	0,042
-531,335	77,827	-0,092	-0,070
-530,321	16,098	-0,100	0,057
-529,306	-200,000	0,025	-0,205
-528,291	-200,000	0,009	-0,172
-527,277	800,000	-0,025	-0,052
-526,262	70,054	-0,095	0,070
-525,248	800,000	0,034	0,083
-524,233	754,260	0,051	0,100
-523,218	800,000	-0,053	-0,151
-522,204	166,177	-0,092	-0,094
-521,189	-78,036	-0,127	-0,031
-520,175	-49,550	0,064	-0,022
-519,160	592,304	0,104	-0,186
-518,145	-200,000	0,003	-0,021
-517,131	-200,000	0,048	0,217
-516,116	328,159	-0,026	-0,036
-515,102	-200,000	-0,021	-0,161
-514,087	-80,566	-0,099	-0,023
-513,072	-200,000	-0,001	-0,084
-512,058	-200,000	-0,025	0,096
-511,043	-128,470	-0,153	-0,015
-510,029	350,520	-0,036	0,051
-509,014	199,881	-0,080	0,088
-507,999	707,355	-0,033	0,062
-506,985	289,147	-0,030	0,039
-505,970	800,000	0,024	0,059
-504,956	154,028	-0,119	-0,117
-503,941	800,000	-0,038	-0,077
-502,926	-50,483	0,058	0,020
-501,912	-107,171	0,155	0,024
-500,897	-200,000	-0,016	0,103
-499,883	185,680	0,018	0,019
-498,868	-200,000	-0,009	0,061
-497,853	-200,000	0,021	-0,126
-496,839	-200,000	-0,035	0,118
-495,824	-200,000	0,003	0,114
-494,810	-173,350	0,116	-0,002
-493,795	13,282	0,055	-0,031
-492,781	30,794	0,066	-0,041
-491,766	-11,692	0,051	0,024
-490,751	120,799	-0,098	-0,088
-489,737	-156,137	0,077	0,003
-488,722	223,497	0,060	0,070
-487,708	2,129	0,115	0,060
-486,693	91,521	0,048	0,038
-485,678	800,000	0,056	-0,117
-484,664	800,000	-0,048	-0,147
-483,649	479,765	-0,059	-0,096
-482,635	-200,000	-0,005	-0,123
-481,620	69,500	-0,164	-0,121
-480,605	-133,478	-0,039	0,003
-479,591	-73,449	-0,231	0,060
-478,576	4,386	0,064	-0,034
-477,562	-200,000	-0,039	-0,163
-476,547	187,062	-0,077	-0,083
-475,532	452,643	-0,083	-0,133
-474,518	-161,238	0,047	-0,002
-473,503	124,288	-0,061	-0,055
-472,489	-200,000	0,003	-0,054
-471,474	-66,838	-0,055	0,016
-470,459	-98,994	0,092	0,017
-469,445	-130,729	-0,145	0,014
-468,430	800,000	-0,035	0,074
-467,416	141,702	0,084	0,080
-466,401	800,000	-0,044	-0,099
-465,386	800,000	-0,034	0,070
-464,372	-200,000	-0,023	-0,107
-463,357	156,245	0,080	-0,079
-462,343	800,000	0,007	0,022
-461,328	-11,372	0,115	-0,054
-460,313	-87,700	0,138	-0,030
-459,299	-39,931	0,007	-0,003
-458,284	-72,177	0,118	0,031
-457,270	-47,612	-0,066	0,023
-456,255	148,167	0,059	0,057
-455,241	-200,000	0,010	0,076
-454,226	-76,216	-0,120	0,030
-453,211	800,000	-0,044	0,114
-452,197	538,898	-0,011	0,020
-451,182	-200,000	0,006	0,079
-450,168	-62,095	0,146	-0,044
-449,153	-46,188	-0,121	-0,042
-448,138	800,000	0,017	0,050
-447,124	-200,000	-0,009	-0,063
-446,109	-148,558	-0,286	-0,017
-445,095	-200,000	0,048	0,170
-444,080	-63,674	0,062	0,018
-443,065	-200,000	0,003	0,102
-442,051	446,574	0,044	0,069
-441,036	10,846	0,142	-0,077
-440,022	-200,000	-0,010	0,043
-439,007	214,545	0,039	-0,045
-437,992	-84,796	0,080	0,018
-436,978	-4,248	-0,039	-0,019
-435,963	800,000	0,045	0,129
-434,949	-200,000	0,008	0,136
-433,934	-83,697	-0,040	0,009
-432,919	-200,000	-0,016	-0,092
-431,905	103,582	-0,065	0,055
-430,890	800,000	0,033	0,070
-429,876	434,302	0,057	-0,089
-428,861	800,000	0,029	-0,065
-427,846	283,437	0,030	0,038
-426,832	-200,000	-0,018	-0,104
-425,817	-200,000	-0,027	-0,149
-424,803	262,979	0,060	0,075
-423,788	-105,380	-0,051	-0,008
-422,773	800,000	-0,035	0,081
-421,759	-99,447	0,021	0,004
-420,744	-200,000	0,007	0,056
-419,730	-45,915	-0,088	-0,031
-418,715	254,346	-0,084	0,104
-417,701	187,395	0,071	0,076
-416,686	-27,067	0,096	0,040
-415,671	-200,000	-0,013	-0,079
-414,657	433,053	-0,029	-0,046
-413,642	-4,213	-0,113	-0,056
-412,628	800,000	-0,057	0,139
-411,613	-200,000	0,006	-0,105
-410,598	-200,000	0,000	0,096
-409,584	-200,000	-0,001	-0,073
-408,569	800,000	0,044	-0,117
-407,555	355,703	0,125	0,179
-406,540	475,797	0,013	0,021
-405,525	-91,164	-0,144	-0,029
-404,511	-152,506	-0,057	0,003
-403,496	-121,496	0,025	-0,003
-402,482	139,572	0,107	0,101
-401,467	303,023	0,087	-0,116
-400,452	289,543	0,094	0,122
-399,438	546,189	0,088	0,151
-398,423	-24,019	-0,103	0,044
-397,409	-200,000	0,022	-0,117
-396,394	-200,000	-0,018	0,059
-395,379	432,810	-0,054	0,084
-394,365	-175,586	0,157	0,003
-393,350	10,500	0,053	0,029
-392,336	-200,000	0,004	0,050
-391,321	30,977	-0,035	0,021
-390,306	36,914	-0,074	0,047
-389,292	-36,421	-0,046	-0,018
-388,277	-38,727	0,056	-0,021
-387,263	-119,289	0,123	-0,015
-386,248	172,551	0,089	0,092
-385,233	515,183	-0,048	0,080
-384,219	-200,000	0,003	-0,106
-383,204	-161,296	-0,137	0,005
-382,190	128,061	-0,034	0,031
-381,175	-200,000	0,005	-0,168
-380,160	84,221	-0,081	-0,063
-379,146	800,000	-0,028	-0,073
-378,131	31,622	0,063	0,038
-377,117	310,313	-0,066	0,089
-376,102	800,000	-0,021	-0,062
-375,088	-57,865	-0,055	-0,017
-374,073	-200,000	-0,025	-0,098
-373,058	86,133	0,080	-0,063
-372,044	-61,161	-0,080	0,024
-371,029	417,234	-0,040	0,062
-370,015	-67,510	-0,138	0,039
-369,000	800,000	-0,035	-0,094
-367,985	198,613	0,026	-0,029
-366,971	-200,000	0,000	-0,069
-365,956	-200,000	-0,015	0,116
-364,942	-85,410	0,109	0,024
-363,927	800,000	0,046	0,135
-362,912	775,521	0,072	0,142
-361,898	-128,179	0,121	0,012
-360,883	219,019	-0,089	-0,102
-359,869	-108,745	0,071	-0,011
-358,854	12,578	-0,027	0,015
-357,839	-200,000	0,006	-0,034
-356,825	-200,000	0,012	0,155
-355,810	8,605	0,026	0,014
-354,796	-134,664	0,079	-0,007
-353,781	250,997	-0,050	-0,060
-352,766	-200,000	0,015	-0,100
-351,752	14,494	0,080	-0,045
-350,737	230,836	0,064	0,074
-349,723	-200,000	0,002	-0,020
-348,708	-200,000	-0,007	0,089
-347,693	-12,989	-0,057	-0,026
-346,679	-62,444	-0,073	-0,021
-345,664	800,000	-0,064	-0,169
-344,650	-65,996	-0,093	0,026
-343,635	-200,000	0,001	0,010
-342,620	-200,000	0,033	0,113
-341,606	-158,124	-0,049	0,002
-340,591	381,750	0,096	-0,142
-339,577	-200,000	-0,013	-0,123
-338,562	-49,660	0,122	0,041
-337,548	-200,000	-0,014	0,073
-336,533	-200,000	0,011	0,091
-335,518	-200,000	0,003	0,061
-334,504	-46,826	0,147	0,051
-333,489	195,593	-0,034	-0,037
-332,475	202,328	0,027	0,030
-331,460	706,270	0,049	-0,092
-330,445	-115,910	0,208	-0,027
-329,431	-58,047	-0,056	0,017
-328,416	-1,460	0,174	0,087
-327,402	253,203	-0,054	0,066
-326,387	-73,654	0,028	0,007
-325,372	800,000	-0,058	-0,141
-324,358	179,207	0,025	-0,026
-323,343	-200,000	0,026	0,140
-322,329	629,174	-0,057	0,103
-321,314	-113,019	0,089	-0,012
-320,299	648,518	-0,063	0,116
-319,285	-35,773	0,141	0,054
-318,270	726,942	-0,019	-0,037
-317,256	31,104	-0,068	-0,042
-316,241	82,583	-0,059	-0,046
-315,226	-144,718	0,121	0,008
-314,212	-144,311	0,119	-0,008
-313,197	183,604	-0,040	0,042
-312,183	-200,000	-0,022	0,139
-311,168	48,387	0,050	0,034
-310,153	-44,868	-0,122	-0,043
-309,139	-63,102	0,072	0,021
-308,124	44,920	0,110	-0,072
-307,110	401,294	0,057	0,085
-306,095	127,745	-0,019	0,017
-305,080	88,963	0,026	-0,020
-304,066	-2,104	-0,008	-0,004
-303,051	-200,000	-0,031	-0,108
-302,037	800,000	-0,052	-0,159
-301,022	-71,774	-0,073	0,019
-300,008	800,000	-0,012	-0,030
-298,993	33,192	0,070	0,043
-297,978	800,000	-0,036	0,077
-296,964	800,000	0,002	0,006
-295,949	97,006	-0,041	0,034
-294,935	62,786	-0,068	-0,048
-293,920	-200,000	0,002	0,017
-292,905	19,666	0,134	-0,076
-291,891	-38,989	0,076	0,028
-290,876	90,532	-0,119	-0,095
-289,862	-74,012	0,051	0,013
-288,847	-35,977	-0,018	-0,007
-287,832	19,401	0,061	0,035
-286,818	-92,562	0,040	-0,008
-285,803	-200,000	-0,016	0,065
-284,789	800,000	0,037	-0,108
-283,774	-123,857	-0,128	-0,014
-282,759	15,435	0,092	0,051
-281,745	-62,778	-0,027	-0,008
-280,730	122,739	0,059	-0,052
-279,716	-200,000	-0,010	-0,071
-278,701	239,501	0,046	0,055
-277,686	98,761	-0,097	0,080
-276,672	-200,000	0,011	0,036
-275,657	800,000	-0,056	-0,146
-274,643	-200,000	-0,003	-0,065
-273,628	35,669	-0,091	0,057
-272,613	135,933	0,025	0,023
-271,599	271,169	-0,062	0,077
-270,584	239,050	0,057	0,068
-269,570	800,000	-0,016	0,045
-268,555	-200,000	0,021	0,076
-267,540	8,586	-0,098	-0,052
-266,526	800,000	0,021	0,042
-265,511	-116,620	-0,044	-0,006
-264,497	66,909	0,105	-0,076
-263,482	-21,816	-0,030	-0,013
-262,467	-134,192	-0,020	-0,002
-261,453	-200,000	0,001	0,102
-260,438	390,637	-0,088	-0,130
-259,424	-6,476	0,023	0,011
-258,409	141,325	0,073	0,069
-257,395	401,048	0,018	0,027
-256,380	-200,000	-0,003	-0,037
-255,365	-108,901	-0,087	-0,013
-254,351	-78,028	0,043	-0,010
-253,336	9,516	-0,203	0,109
-252,322	246,379	0,085	-0,102
-251,307	78,392	-0,113	-0,086
-250,292	-200,000	-0,026	-0,128
-249,278	262,724	0,097	-0,120
-248,263	-200,000	-0,008	0,026
-247,249	-200,000	0,011	0,085
-246,234	-50,985	-0,123	0,041
-245,219	-24,743	-0,053	-0,022
-244,205	-25,756	-0,030	-0,013
-243,190	14,447	-0,029	0,016
-242,176	-62,059	-0,109	0,032
-241,161	-81,852	0,181	-0,042
-240,146	-200,000	0,023	0,081
-239,132	156,102	0,073	-0,072
-238,117	-200,000	0,001	0,010
-237,103	-95,507	0,089	-0,017
-236,088	-200,000	-0,032	-0,102
-235,073	800,000	-0,016	0,044
-234,059	-21,639	0,096	0,042
-233,044	-104,116	0,115	0,019
-232,030	-17,411	-0,066	-0,029
-231,015	-59,176	-0,129	-0,039
-230,000	203,792	-0,067	-0,074
-228,986	96,083	0,081	0,065
-227,971	488,350	-0,090	0,147
-226,957	716,528	0,073	0,138
-225,942	-16,346	-0,047	0,021
-224,927	228,454	0,053	0,062
-223,913	34,705	-0,052	0,032
-222,898	-120,751	-0,111	0,013
-221,884	-200,000	0,005	0,105
-220,869	155,435	-0,066	0,064
-219,855	358,360	0,027	0,038
-218,840	-176,258	0,108	0,002
-217,825	447,106	-0,051	0,081
-216,811	800,000	-0,010	-0,020
-215,796	-81,690	-0,085	0,020
-214,782	1,631	-0,067	0,034
-213,767	800,000	0,018	0,044
-212,752	-200,000	0,019	0,183
-211,738	800,000	-0,062	0,131
-210,723	-115,389	0,063	-0,008
-209,709	138,611	-0,047	0,044
-208,694	800,000	-0,087	0,181
-207,679	32,050	0,084	-0,051
-206,665	-200,000	-0,026	-0,233
-205,650	-200,000	0,011	0,044
-204,636	83,076	-0,097	0,075
-203,621	10,292	-0,115	-0,062
-202,606	-61,611	-0,028	-0,008
-201,592	-169,881	-0,097	-0,002
-200,577	-58,355	0,091	-0,028
-199,563	-200,000	-0,003	0,015
-198,548	-19,016	0,105	0,046
-197,533	74,394	0,069	-0,051
-196,519	-200,000	0,001	0,041
-195,504	64,791	0,100	-0,072
-194,490	-200,000	-0,016	-0,097
-193,475	112,536	-0,080	-0,069
-192,460	421,652	-0,032	0,049
-191,446	86,820	0,075	-0,059
-190,431	197,045	0,124	0,135
-189,417	239,179	0,070	-0,082
-188,402	-78,796	0,177	-0,043
-187,387	800,000	-0,021	-0,053
-186,373	-109,290	0,110	-0,016
-185,358	102,858	0,072	-0,060
-184,344	91,028	0,086	-0,069
-183,329	-30,625	-0,067	0,027
-182,315	111,366	0,055	-0,047
-181,300	757,005	-0,030	-0,057
-180,285	27,029	0,068	0,041
-179,271	-200,000	0,014	0,044
-178,256	800,000	0,052	0,135
-177,242	193,372	0,048	0,052
-176,227	-53,413	-0,033	-0,011
-175,212	48,046	0,055	0,036
-174,198	493,939	-0,066	0,108
-173,183	-173,659	0,065	0,001
-172,169	74,024	0,126	0,094
-171,154	-10,693	0,122	-0,057
-170,139	202,606	0,043	-0,047
-169,125	393,144	0,061	0,090
-168,110	-122,617	0,109	-0,012
-167,096	-200,000	0,013	0,053
-166,081	-14,441	-0,157	0,071
-165,066	-200,000	-0,028	-0,308
-164,052	42,239	0,046	0,030
-163,037	75,132	-0,067	-0,050
-162,023	800,000	0,011	0,035
-161,008	-132,867	-0,088	0,008
-159,993	34,595	0,099	0,061
-158,979	-200,000	-0,011	-0,051
-157,964	39,420	-0,079	-0,050
-156,950	-77,798	0,113	-0,027
-155,935	-200,000	-0,022	0,071
-154,920	-200,000	0,008	0,067
-153,906	-200,000	-0,001	-0,058
-152,891	117,648	0,057	0,050
-151,877	148,801	0,119	-0,114
-150,862	-200,000	-0,009	-0,215
-149,847	800,000	0,034	0,081
-148,833	157,298	0,027	0,027
-147,818	800,000	0,049	0,139
-146,804	-200,000	-0,012	0,056
-145,789	22,639	-0,048	0,028
-144,775	-10,482	-0,007	-0,003
-143,760	800,000	-0,049	0,141
-142,745	-54,775	-0,123	0,039
-141,731	-24,719	0,127	0,053
-140,716	-200,000	-0,029	0,104
-139,702	800,000	-0,031	0,094
-138,687	800,000	0,015	0,042
-137,672	296,849	-0,054	0,071
-136,658	800,000	0,019	-0,044
-135,643	-48,811	0,056	-0,019
-134,629	44,728	-0,121	-0,079
-133,614	800,000	-0,061	0,130
-132,599	-181,115	0,075	0,001
-131,585	-200,000	-0,009	0,139
-130,570	-200,000	-0,019	0,188
-129,556	800,000	-0,034	0,097
-128,541	-42,685	0,119	-0,043
-127,526	713,570	0,066	-0,124
-126,512	3,646	0,156	-0,080
-125,497	-47,666	0,130	0,045
-124,483	-200,000	-0,003	-0,051
-123,468	-200,000	0,015	-0,055
-122,453	-65,235	-0,089	0,025
-121,439	-99,402	-0,115	0,020
-120,424	76,031	0,035	-0,026
-119,410	358,439	0,041	0,057
-118,395	-91,600	0,032	-0,006
-117,380	111,317	0,021	0,018
-116,366	-96,593	0,182	-0,034
-115,351	-27,626	-0,095	-0,039
-114,337	800,000	-0,026	-0,075
-113,322	43,156	0,025	-0,016
-112,307	-47,915	-0,112	0,038
-111,293	126,801	0,067	0,060
-110,278	665,568	0,024	0,045
-109,264	-200,000	-0,035	-0,159
-108,249	219,923	-0,132	-0,150
-107,234	-200,000	-0,005	-0,105
-106,220	136,209	-0,047	-0,043
-105,205	101,842	-0,126	0,104
-104,191	193,053	0,127	0,136
-103,176	426,277	0,080	0,122
-102,162	-89,082	0,107	-0,022
-101,147	243,651	-0,069	0,082
-100,132	800,000	0,020	0,064
-99,118	314,388	-0,117	-0,157
-98,103	129,386	-0,088	0,079
-97,089	-27,829	-0,101	-0,041
-96,074	523,203	-0,052	0,086
-95,059	-88,717	0,048	-0,010
-94,045	-200,000	-0,012	0,068
-93,030	-200,000	0,005	-0,042
-92,016	176,313	0,073	-0,075
-91,001	35,724	0,109	-0,067
-89,986	-65,364	-0,032	-0,009
-88,972	103,631	0,045	0,037
-87,957	-200,000	0,002	0,011
-86,943	-6,411	-0,047	-0,023
-85,928	-17,647	0,063	-0,028
-84,913	-200,000	0,021	-0,100
-83,899	-200,000	-0,022	0,117
-82,884	449,717	0,085	0,134
-81,870	-0,072	-0,012	0,006
-80,855	8,809	0,059	0,031
-79,840	800,000	-0,058	0,131
-78,826	-130,213	-0,175	-0,017
-77,811	481,535	0,030	0,048
-76,797	-15,964	-0,151	-0,068
-75,782	42,611	-0,084	-0,054
-74,767	-200,000	0,023	0,112
-73,753	302,153	-0,085	0,112
-72,738	-200,000	0,001	0,014
-71,724	234,592	-0,177	-0,207
-70,709	-109,722	0,082	-0,012
-69,694	-30,615	-0,085	-0,034
-68,680	-53,161	0,170	0,055
-67,665	560,648	0,115	0,197
-66,651	40,975	0,123	-0,078
-65,636	267,519	-0,060	-0,074
-64,622	-84,454	-0,116	0,026
-63,607	46,536	-0,076	0,050
-62,592	-200,000	-0,056	-0,204
-61,578	35,587	0,034	0,021
-60,563	800,000	-0,039	-0,094
-59,549	-200,000	-0,024	0,138
-58,534	36,584	-1,809	-1,126
-57,519	630,479	-1,238	-2,222
-56,505	-200,000	-0,433	-4,431
-55,490	350,349	0,920	1,288
-54,476	800,000	5,046	11,496
-53,461	-200,000	20,517	327,190
-52,446	800,000	752,545	2312,374
-51,432	550,335	1657,990	2819,497
-50,417	74,027	1663,404	1231,355
-49,403	19,299	1536,916	869,281
-48,388	13,241	1459,681	796,284
-47,373	18,832	1450,051	817,847
-46,359	16,152	1439,625	799,178
-45,344	11,536	1435,307	774,765
-44,330	11,501	1433,219	773,440
-43,315	11,493	1431,399	772,390
-42,300	11,472	1429,728	771,360
-41,286	11,482	1428,494	770,708
-40,271	11,457	1427,295	769,914
-39,257	11,452	1425,975	769,146
-38,242	11,536	1424,693	768,825
-37,227	11,491	1423,688	768,037
-36,213	11,506	1422,428	767,396
-35,198	11,472	1421,546	766,733
-34,184	11,511	1420,532	766,337
-33,169	11,480	1418,991	765,331
-32,154	11,578	1417,780	765,108
-31,140	11,507	1416,722	764,172
-30,125	11,551	1415,652	763,772
-29,111	11,570	1414,588	763,259
-28,096	11,550	1413,348	762,464
-27,082	11,491	1412,255	761,569
-26,067	11,455	1411,376	760,893
-25,052	11,464	1410,129	760,233
-24,038	11,438	1409,202	759,582
-23,023	11,447	1408,296	759,108
-22,009	11,452	1406,928	758,363
-20,994	11,458	1406,044	757,882
-19,979	11,479	1405,134	757,461
-18,965	11,436	1404,314	756,789
-17,950	11,390	1403,640	756,178
-16,936	11,411	1402,706	755,747
-15,921	11,415	1401,579	755,125
-14,906	11,329	1400,643	754,190
-13,892	11,351	1399,753	753,785
-12,877	11,399	1398,787	753,460
-11,863	11,413	1397,853	752,990
-10,848	11,359	1397,030	752,265
-9,833	11,334	1396,133	751,636
-8,819	11,255	1395,443	750,872
-7,804	11,250	1394,471	750,294
-6,790	11,282	1393,432	749,851
-5,775	11,285	1392,555	749,363
-4,760	11,343	1391,444	749,005
-3,746	11,282	1390,634	748,260
-2,731	11,277	1389,662	747,680
-1,717	11,241	1388,844	747,049
-0,702	11,278	1387,120	746,258
0,313	15,238	1301,612	718,425
1,327	31,520	694,299	420,321
2,342	48,743	120,759	79,798
3,356	2,320	16,429	8,359
4,371	6,214	3,409	1,778
5,386	-34,825	0,854	0,328
6,400	-200,000	0,000	0,452
7,415	218,001	-0,177	-0,200
8,429	-29,920	-0,303	-0,121
9,444	72,814	-0,311	-0,229
10,459	-25,798	-0,378	-0,156
11,473	-14,770	-0,246	-0,111
12,488	18,542	-0,380	-0,214
13,502	-38,344	-0,258	-0,096
14,517	-168,582	-0,217	-0,006
15,531	-23,911	-0,452	-0,190
16,546	220,754	-0,327	-0,370
17,561	88,864	-0,370	-0,290
18,575	92,515	-0,121	-0,096
19,590	121,490	-0,280	-0,246
20,604	25,011	-0,310	-0,181
21,619	84,058	-0,373	-0,286
22,634	553,688	-0,264	-0,449
23,648	175,237	-0,327	-0,334
24,663	39,841	-0,360	-0,227
25,677	102,359	-0,424	-0,349
26,692	163,247	-0,326	-0,323
27,707	64,442	-0,282	-0,200
28,721	-38,439	-0,398	-0,147
29,736	124,514	-0,381	-0,337
30,750	269,404	-0,329	-0,408
31,765	80,118	-0,355	-0,268
32,780	171,298	-0,391	-0,395
33,794	3,028	-0,441	-0,225
34,809	51,108	-0,409	-0,272
35,823	45,949	-0,345	-0,224
36,838	70,355	-0,381	-0,277
37,853	88,552	-0,344	-0,269
38,867	64,535	-0,464	-0,329
39,882	122,238	-0,201	-0,177
40,896	48,483	-0,213	-0,140
41,911	30,319	-0,324	-0,194
42,926	88,875	-0,364	-0,285
43,940	-0,353	-0,414	-0,206
44,955	0,268	-0,446	-0,223
45,969	-14,694	-0,348	-0,156
46,984	160,736	-0,317	-0,311
47,999	-18,440	-0,393	-0,172
49,013	-0,890	-0,374	-0,186
50,028	25,836	-0,340	-0,199
51,042	315,499	-0,198	-0,263
52,057	740,714	-0,163	-0,308
53,071	105,637	-0,321	-0,267
54,086	-3,733	-0,330	-0,161
55,101	130,092	-0,287	-0,258
56,115	-23,854	-0,341	-0,143
57,130	39,322	-0,459	-0,288
58,144	137,620	-0,422	-0,388
59,159	0,560	-0,361	-0,181
60,174	49,402	-0,323	-0,213
61,188	532,153	-0,193	-0,322
62,203	-11,928	-0,460	-0,211
63,217	26,164	-0,296	-0,173
64,232	26,746	-0,321	-0,188
65,247	34,531	-0,481	-0,294
66,261	105,060	-0,435	-0,360
67,276	-8,288	-0,409	-0,193
68,290	62,728	-0,368	-0,258
69,305	196,798	-0,294	-0,314
70,320	24,118	-0,339	-0,196
71,334	-104,046	-0,207	-0,033
72,349	69,322	-0,287	-0,207
73,363	152,075	-0,236	-0,225
74,378	-24,219	-0,405	-0,169
75,393	40,887	-0,321	-0,203
76,407	-4,229	-0,370	-0,179
77,422	-90,522	-0,347	-0,070
78,436	35,238	-0,255	-0,156
79,451	-12,308	-0,176	-0,080
80,466	113,569	-0,280	-0,238
81,480	-130,301	-0,369	0,035
82,495	44,379	-0,310	-0,199
83,509	96,060	-0,358	-0,287
84,524	-51,995	-0,191	-0,062
85,539	-77,897	-0,329	-0,079
86,553	197,038	-0,222	-0,238
87,568	30,392	-0,306	-0,183
88,582	52,504	-0,252	-0,168
89,597	-4,444	-0,401	-0,194
90,611	-5,208	-0,346	-0,166
91,626	223,151	-0,297	-0,336
92,641	251,157	-0,238	-0,284
93,655	2,373	-0,269	-0,136
94,670	111,311	-0,222	-0,187
95,684	70,707	-0,297	-0,215
96,699	-33,669	-0,369	-0,142
97,714	258,732	-0,256	-0,310
98,728	-22,076	-0,338	-0,143
99,743	56,827	-0,238	-0,162
100,757	215,543	-0,176	-0,196
101,772	-24,294	-0,326	-0,135
102,787	37,008	-0,324	-0,200
103,801	-17,667	-0,481	-0,210
104,816	-55,775	-0,291	-0,090
105,830	-59,926	-0,317	-0,094
106,845	-24,157	-0,279	-0,116
107,860	4,773	-0,266	-0,136
108,874	-39,552	-0,341	-0,124
109,889	498,851	-0,178	-0,288
110,903	8,205	-0,329	-0,172
111,918	40,574	-0,275	-0,173
112,933	102,508	-0,125	-0,102
113,947	-11,101	-0,247	-0,113
114,962	-0,085	-0,236	-0,117
115,976	68,293	-0,316	-0,226
116,991	167,836	-0,210	-0,208
118,006	-29,743	-0,122	-0,049
119,020	83,635	-0,296	-0,225
120,035	97,536	-0,181	-0,145
121,049	-39,967	-0,161	-0,058
122,064	13,251	-0,341	-0,184
123,079	53,900	-0,218	-0,146
124,093	324,697	-0,210	-0,280
125,108	83,133	-0,181	-0,137
126,122	-29,318	-0,313	-0,124
127,137	90,283	-0,237	-0,185
128,151	129,417	-0,128	-0,115
129,166	46,331	-0,215	-0,139
130,181	361,121	-0,180	-0,253
131,195	800,000	-0,051	-0,107
132,210	154,659	-0,232	-0,223
133,224	102,455	-0,207	-0,169
134,239	-110,268	-0,228	-0,033
135,254	88,385	-0,330	-0,255
136,268	-11,913	-0,242	-0,110
137,283	-185,472	-0,173	0,002
138,297	-28,159	-0,171	-0,069
139,312	-89,114	-0,348	-0,071
140,327	242,430	-0,210	-0,246
141,341	-200,000	-0,009	-0,107
142,356	101,245	-0,231	-0,187
143,370	11,813	-0,326	-0,174
144,385	221,865	-0,184	-0,206
145,400	23,908	-0,195	-0,112
146,414	23,246	-0,178	-0,101
147,429	112,119	-0,136	-0,115
148,443	-8,291	-0,198	-0,093
149,458	124,591	-0,157	-0,138
150,473	305,460	-0,203	-0,264
151,487	188,553	-0,181	-0,189
152,502	59,463	-0,301	-0,206
153,516	664,866	-0,186	-0,336
154,531	177,612	-0,278	-0,283
155,546	200,655	-0,272	-0,292
156,560	-137,385	-0,302	-0,024
157,575	248,661	-0,134	-0,158
158,589	21,964	-0,148	-0,084
159,604	-80,170	-0,348	-0,080
160,619	124,848	-0,205	-0,180
161,633	66,081	-0,312	-0,220
162,648	200,261	-0,173	-0,185
163,662	130,013	-0,225	-0,201
164,677	-46,101	-0,351	-0,120
165,692	-88,283	-0,196	-0,041
166,706	-40,350	-0,291	-0,105
167,721	-200,000	-0,073	-0,304
168,735	265,782	-0,249	-0,303
169,750	800,000	-0,040	-0,118
170,764	246,501	-0,059	-0,069
171,779	416,411	-0,154	-0,230
172,794	-75,968	-0,207	-0,050
173,808	-135,806	-0,193	-0,016
174,823	25,350	-0,233	-0,134
175,837	800,000	-0,083	-0,252
176,852	86,370	-0,201	-0,154
177,867	60,989	-0,306	-0,211
178,881	-77,977	-0,239	-0,057
179,896	-123,599	-0,251	-0,027
180,910	-127,832	-0,283	-0,028
181,925	12,232	-0,221	-0,118
182,940	248,608	-0,192	-0,226
183,954	-25,012	-0,225	-0,092
184,969	437,665	-0,116	-0,176
185,983	-39,486	-0,210	-0,076
186,998	-39,173	-0,096	0,035
188,013	257,697	-0,166	-0,199
189,027	-75,628	-0,314	-0,077
190,042	-25,946	-0,408	-0,166
191,056	-6,039	-0,269	-0,127
192,071	219,670	-0,139	-0,155
193,086	105,999	-0,200	-0,165
194,100	31,970	-0,296	-0,177
195,115	45,553	-0,095	-0,060
196,129	129,681	-0,136	-0,120
197,144	250,633	-0,198	-0,234
198,159	96,218	-0,244	-0,193
199,173	800,000	-0,165	-0,321
200,188	289,650	-0,156	-0,197
201,202	-48,420	-0,211	0,070
202,217	164,829	-0,167	-0,163
203,232	193,009	-0,174	-0,182
204,246	366,412	-0,127	-0,179
205,261	-48,404	-0,167	-0,055
206,275	-21,900	-0,331	-0,139
207,290	208,781	-0,166	-0,180
208,304	13,392	-0,132	-0,071
209,319	181,125	-0,215	-0,219
210,334	118,975	-0,148	-0,127
211,348	245,888	-0,290	-0,339
212,363	126,221	-0,151	-0,132
213,377	-69,416	-0,196	-0,052
214,392	593,644	-0,107	-0,183
215,407	800,000	-0,076	-0,161
216,421	230,912	-0,162	-0,184
217,436	-51,789	-0,279	-0,089
218,450	86,403	-0,209	-0,160
219,465	113,632	-0,220	-0,185
220,480	-160,483	-0,188	-0,007
221,494	-200,000	-0,017	-0,129
222,509	228,427	-0,124	-0,140
223,523	29,323	-0,217	-0,127
224,538	24,597	-0,219	-0,125
225,553	4,315	-0,208	-0,105
226,567	561,834	-0,118	-0,199
227,582	40,327	-0,221	-0,137
228,596	-12,828	-0,153	-0,069
229,611	-39,589	-0,178	-0,064
230,626	-38,221	-0,170	-0,062
231,640	-54,370	-0,408	-0,127
232,655	0,791	-0,265	-0,131
233,669	-12,190	-0,220	-0,099
234,684	339,277	-0,068	-0,092
235,699	231,743	-0,060	-0,068
236,713	-43,936	-0,219	-0,076
237,728	409,138	-0,078	-0,114
238,742	14,883	-0,187	-0,101
239,757	15,321	-0,218	-0,118
240,772	-86,791	-0,253	-0,053
241,786	181,593	-0,216	-0,220
242,801	33,692	-0,144	-0,087
243,815	85,235	-0,085	-0,065
244,830	-25,354	-0,224	-0,091
245,844	579,371	-0,104	-0,176
246,859	-64,794	-0,069	-0,019
247,874	-16,326	-0,300	-0,131
248,888	28,316	-0,063	-0,037
249,903	365,192	-0,126	-0,176
250,917	742,275	-0,052	-0,097
251,932	661,268	-0,117	-0,209
252,947	22,401	-0,200	-0,113
253,961	19,454	-0,225	-0,125
254,976	346,527	-0,179	-0,244
255,990	10,558	-0,281	-0,148
257,005	738,531	-0,093	-0,172
258,020	-44,574	-0,060	0,020
259,034	43,965	-0,161	-0,102
260,049	-75,855	-0,190	0,046
261,063	205,458	-0,073	-0,078
262,078	-119,791	-0,158	-0,019
263,093	800,000	-0,065	-0,126
264,107	-159,726	-0,060	-0,002
265,122	-31,203	-0,170	-0,066
266,136	-200,000	-0,040	-0,190
267,151	-110,674	-0,101	-0,014
268,166	656,687	-0,166	-0,296
269,180	-13,962	-0,143	-0,064
270,195	-11,512	-0,238	-0,108
271,209	-107,181	-0,308	-0,046
272,224	307,405	-0,017	-0,022
273,239	-42,870	-0,139	0,048
274,253	-38,595	-0,136	-0,049
275,268	-137,683	-0,197	-0,015
276,282	-98,422	-0,320	-0,056
277,297	110,215	-0,208	-0,172
278,312	-56,435	-0,137	-0,042
279,326	-67,036	-0,169	-0,046
280,341	167,687	-0,120	-0,118
281,355	84,943	-0,161	-0,121
282,370	92,809	-0,123	-0,095
283,384	-53,072	-0,187	-0,059
284,399	51,572	-0,181	-0,118
285,414	408,370	-0,121	-0,177
286,428	640,775	-0,076	-0,133
287,443	527,837	-0,003	-0,004
288,457	-88,528	-0,148	-0,030
289,472	-200,000	-0,015	-0,070
290,487	564,926	-0,148	-0,247
291,501	-133,099	-0,175	-0,015
292,516	-78,091	-0,183	-0,043
293,530	132,794	-0,170	-0,151
294,545	-79,125	-0,150	0,035
295,560	-200,000	-0,035	0,126
296,574	-23,487	-0,084	-0,034
297,589	-74,695	-0,215	0,053
298,603	266,343	-0,022	-0,027
299,618	247,814	-0,030	0,035
300,633	230,018	-0,136	-0,153
301,647	-50,356	-0,246	0,079
302,662	-72,691	-0,152	-0,038
303,676	-92,546	-0,171	-0,033
304,691	-16,267	-0,197	-0,086
305,706	112,680	-0,211	-0,175
306,720	-15,058	-0,262	-0,115
307,735	263,597	-0,033	-0,040
308,749	429,401	-0,075	-0,111
309,764	-71,685	-0,155	0,039
310,779	8,463	-0,157	0,081
311,793	-169,583	-0,134	-0,003
312,808	127,617	-0,259	-0,226
313,822	151,999	-0,180	-0,168
314,837	-7,402	-0,258	-0,119
315,852	87,785	-0,097	-0,073
316,866	-105,664	-0,087	-0,013
317,881	800,000	0,020	-0,050
318,895	-70,763	-0,190	-0,049
319,910	-119,459	-0,210	0,025
320,925	731,603	-0,089	-0,164
321,939	-105,246	-0,064	-0,010
322,954	64,837	-0,082	-0,057
323,968	-8,346	-0,081	-0,037
324,983	800,000	-0,085	-0,199
325,997	-130,930	-0,240	-0,022
327,012	800,000	-0,092	-0,212
328,027	27,188	-0,172	-0,099
329,041	800,000	-0,043	-0,096
330,056	208,504	-0,182	-0,195
331,070	106,735	-0,126	-0,102
332,085	-82,117	-0,177	-0,039
333,100	592,612	-0,110	-0,187
334,114	137,655	-0,100	-0,090
335,129	335,304	-0,091	-0,122
336,143	-88,025	-0,116	0,024
337,158	-200,000	-0,029	-0,096
338,173	-2,757	-0,139	-0,066
339,187	35,243	-0,093	-0,056
340,202	538,412	-0,098	-0,160
341,216	15,615	-0,164	-0,088
342,231	219,343	-0,160	-0,176
343,246	23,778	-0,189	-0,106
344,260	-76,948	-0,097	-0,023
345,275	-141,344	-0,143	-0,010
346,289	-78,810	-0,183	0,042
347,304	20,621	-0,189	-0,104
348,319	1,377	-0,093	-0,046
349,333	61,399	-0,257	-0,175
350,348	-15,214	-0,221	-0,097
351,362	800,000	-0,059	-0,149
352,377	800,000	-0,049	-0,125
353,392	-29,804	-0,074	-0,029
354,406	-169,008	-0,157	-0,004
355,421	207,404	1308,183	1398,350
356,435	159,550	1468,106	1398,854
