DTS Sentinel unit serial number:	SN410029Multiplexer serial number:	ORYXHardware model number:	OX2-SRSoftware version number:	ORYX F/W v4,00 Oryx Data Collector v3.7.2.0data status	okinstallation	B3 Nyhavnadifferential loss correction	single-endedforward channel	channel 1reverse channel	N/Adate	2023/12/02time	00:57:30forward acquisition time	300,00reverse acquisition time	0,00gamma	499,1914k internal	0,3196k external	0,3196temperature offset calibration	1,0000default loss term (dB/km)	0,3820temperature slope calibration	1,0000multiplexer offset coefficient	1,0000multiplexer slope coefficient	1,0000fibre end	0,00T internal ref (°C)	16,36T ext. ref 1 (°C)	1,95T ext. ref 2 (°C)	1,95length (m)	temperature (°C)	Stokes	anti-Stokes-744,400	800,000	-0,155	-0,409
-743,385	-200,000	-0,077	0,448
-742,371	362,701	-0,128	-0,188
-741,356	-200,000	0,018	0,391
-740,342	181,165	-0,244	-0,261
-739,327	-200,000	0,098	0,343
-738,312	89,464	-0,273	-0,222
-737,298	800,000	0,176	0,390
-736,283	231,661	-0,145	-0,173
-735,269	161,158	0,244	0,249
-734,254	29,124	-0,204	-0,126
-733,239	23,751	-0,225	0,134
-732,225	78,430	-0,274	-0,213
-731,210	-57,242	0,131	0,042
-730,196	270,599	0,048	-0,061
-729,181	658,637	-0,051	0,096
-728,167	-113,148	-0,068	0,010
-727,152	800,000	0,046	-0,100
-726,137	104,447	-0,089	-0,076
-725,123	-200,000	0,036	-0,139
-724,108	-145,229	-0,079	0,005
-723,094	384,813	-0,086	-0,130
-722,079	-114,295	-0,054	-0,008
-721,064	-126,621	0,031	0,003
-720,050	174,012	0,049	0,051
-719,035	-129,266	-0,040	0,004
-718,021	56,317	0,021	0,015
-717,006	30,222	-0,034	-0,021
-715,991	48,428	-0,116	-0,079
-714,977	-200,000	-0,015	-0,092
-713,962	134,871	-0,116	-0,109
-712,948	73,750	-0,062	0,047
-711,933	194,629	-0,040	0,045
-710,918	242,254	0,039	-0,047
-709,904	800,000	-0,026	-0,076
-708,889	93,675	-0,140	-0,115
-707,875	800,000	0,030	-0,069
-706,860	182,862	-0,050	0,054
-705,845	800,000	0,008	0,021
-704,831	-200,000	-0,009	0,031
-703,816	286,953	-0,029	0,039
-702,802	58,232	-0,123	-0,088
-701,787	225,787	0,074	-0,087
-700,772	800,000	-0,052	-0,121
-699,758	165,026	0,041	0,042
-698,743	-56,687	0,014	-0,005
-697,729	-200,000	-0,009	-0,060
-696,714	176,699	0,083	-0,088
-695,699	52,775	-0,014	-0,009
-694,685	47,987	-0,017	0,011
-693,670	-200,000	0,039	-0,208
-692,656	-200,000	0,008	-0,097
-691,641	122,717	0,089	-0,081
-690,627	-200,000	0,011	0,170
-689,612	20,739	-0,064	-0,037
-688,597	-121,961	-0,111	0,013
-687,583	-200,000	0,008	0,094
-686,568	408,603	-0,106	-0,164
-685,554	-85,117	0,081	-0,018
-684,539	36,388	-0,028	-0,018
-683,524	800,000	-0,050	0,133
-682,510	-37,421	-0,033	-0,013
-681,495	800,000	-0,025	-0,052
-680,481	-200,000	-0,011	-0,111
-679,466	144,016	-0,077	-0,075
-678,451	247,858	-0,132	-0,163
-677,437	-200,000	-0,011	-0,059
-676,422	527,572	-0,030	0,052
-675,408	-61,784	-0,082	0,025
-674,393	-58,479	-0,127	0,040
-673,378	-200,000	-0,014	-0,105
-672,364	110,893	-0,027	-0,024
-671,349	800,000	-0,017	-0,047
-670,335	-200,000	0,001	-0,014
-669,320	-200,000	0,110	0,000
-668,305	-42,668	-0,024	-0,009
-667,291	541,465	-0,008	-0,014
-666,276	-200,000	0,023	-0,146
-665,262	-59,198	-0,111	0,034
-664,247	-200,000	-0,004	-0,067
-663,232	-59,197	0,062	-0,019
-662,218	-200,000	0,015	-0,057
-661,203	-200,000	-0,029	-0,137
-660,189	371,415	0,078	-0,116
-659,174	-122,968	-0,099	-0,011
-658,159	800,000	-0,023	-0,061
-657,145	542,263	-0,042	-0,074
-656,130	418,723	-0,053	0,083
-655,116	800,000	-0,050	0,143
-654,101	-200,000	-0,004	0,032
-653,086	131,985	0,007	0,007
-652,072	108,284	0,138	-0,120
-651,057	125,590	-0,107	-0,098
-650,043	-200,000	-0,023	-0,156
-649,028	-200,000	0,022	-0,087
-648,014	121,455	0,032	0,029
-646,999	-167,667	0,025	-0,001
-645,984	416,755	-0,069	-0,107
-644,970	-200,000	-0,015	-0,056
-643,955	-200,000	-0,004	0,056
-642,941	-19,945	-0,128	-0,057
-641,926	-200,000	-0,002	0,007
-640,911	61,385	-0,039	0,028
-639,897	-90,467	0,111	0,023
-638,882	-129,589	0,098	0,010
-637,868	-200,000	-0,010	-0,032
-636,853	529,004	-0,026	-0,045
-635,838	800,000	0,044	-0,111
-634,824	127,319	-0,047	-0,043
-633,809	-36,741	-0,088	-0,034
-632,795	303,541	0,117	0,158
-631,780	104,911	-0,022	-0,019
-630,765	627,457	0,045	0,082
-629,751	-173,462	-0,069	0,001
-628,736	800,000	-0,066	-0,171
-627,722	-200,000	0,012	0,044
-626,707	-200,000	0,005	0,035
-625,692	-200,000	-0,003	-0,028
-624,678	800,000	-0,047	-0,100
-623,663	800,000	0,013	-0,040
-622,649	111,209	-0,050	0,044
-621,634	99,056	0,037	0,031
-620,619	86,457	0,015	-0,012
-619,605	-154,701	0,101	-0,005
-618,590	206,690	0,028	0,032
-617,576	493,045	0,019	-0,031
-616,561	800,000	0,062	-0,127
-615,546	-130,940	0,010	-0,001
-614,532	-200,000	-0,002	-0,041
-613,517	61,752	-0,197	-0,142
-612,503	-200,000	0,047	-0,157
-611,488	800,000	-0,051	0,123
-610,474	800,000	0,035	-0,073
-609,459	-5,188	0,042	-0,021
-608,444	556,976	-0,014	0,025
-607,430	-45,251	0,041	-0,015
-606,415	524,011	0,036	-0,061
-605,401	-113,336	-0,169	0,024
-604,386	-46,149	-0,027	0,010
-603,371	288,507	-0,048	0,063
-602,357	21,214	-0,089	0,052
-601,342	63,559	0,033	-0,024
-600,328	-200,000	0,002	-0,099
-599,313	212,361	-0,019	0,022
-598,298	172,585	0,083	0,087
-597,284	-4,494	0,083	0,042
-596,269	79,330	-0,032	0,025
-595,255	79,488	0,015	-0,012
-594,240	-111,116	-0,099	-0,015
-593,225	-200,000	-0,004	-0,052
-592,211	76,109	0,122	-0,094
-591,196	-31,443	-0,096	0,039
-590,182	184,096	0,058	0,063
-589,167	29,574	0,085	0,052
-588,152	52,155	-0,138	-0,095
-587,138	-143,500	-0,062	-0,004
-586,123	800,000	-0,033	-0,105
-585,109	-92,177	-0,184	-0,037
-584,094	26,362	-0,099	-0,060
-583,079	-200,000	-0,010	0,112
-582,065	748,867	0,048	0,095
-581,050	-200,000	-0,014	-0,130
-580,036	445,550	-0,043	-0,068
-579,021	461,597	-0,036	-0,059
-578,006	-4,180	-0,124	-0,062
-576,992	108,618	-0,054	-0,046
-575,977	-120,801	0,085	0,010
-574,963	547,312	0,028	0,049
-573,948	-74,395	0,052	0,014
-572,934	-32,743	0,075	0,030
-571,919	-29,379	-0,098	-0,040
-570,904	-34,391	-0,270	0,107
-569,890	67,199	0,077	0,056
-568,875	-200,000	0,003	0,084
-567,861	122,224	0,035	-0,032
-566,846	146,272	-0,051	-0,050
-565,831	-110,631	-0,006	0,001
-564,817	613,855	0,054	-0,098
-563,802	-48,149	-0,060	0,021
-562,788	-46,474	0,136	-0,048
-561,773	320,633	-0,067	0,092
-560,758	69,744	0,103	0,077
-559,744	800,000	-0,053	0,142
-558,729	-200,000	0,029	0,134
-557,715	-1,490	-0,070	-0,036
-556,700	-200,000	-0,006	0,127
-555,685	-25,099	0,051	-0,022
-554,671	-21,382	0,058	-0,025
-553,656	-99,755	0,147	0,026
-552,642	565,370	0,089	0,157
-551,627	-72,451	-0,033	0,009
-550,612	-200,000	0,012	-0,182
-549,598	800,000	0,042	-0,134
-548,583	241,813	0,066	-0,080
-547,569	800,000	-0,040	-0,109
-546,554	74,938	0,102	-0,078
-545,539	-40,840	-0,145	0,054
-544,525	49,417	0,100	-0,068
-543,510	-9,682	0,097	0,046
-542,496	85,865	-0,134	0,107
-541,481	70,415	-0,106	-0,079
-540,466	61,933	0,100	-0,072
-539,452	-114,692	0,048	-0,007
-538,437	-11,811	-0,069	0,033
-537,423	-200,000	0,020	0,096
-536,408	372,547	-0,037	-0,055
-535,393	-200,000	0,002	-0,260
-534,379	276,307	-0,064	-0,082
-533,364	177,239	0,020	-0,021
-532,350	63,262	0,117	0,084
-531,335	-27,515	0,014	0,006
-530,321	541,742	0,026	0,045
-529,306	-165,280	0,067	0,002
-528,291	-200,000	0,003	-0,074
-527,277	351,268	0,032	-0,045
-526,262	117,254	-0,037	-0,033
-525,248	-121,738	0,091	0,011
-524,233	-9,646	-0,054	0,026
-523,218	-200,000	-0,010	-0,035
-522,204	-200,000	-0,011	0,049
-521,189	740,070	-0,045	-0,088
-520,175	137,072	-0,084	-0,080
-519,160	800,000	0,021	0,059
-518,145	-200,000	0,005	0,129
-517,131	-187,293	0,120	-0,001
-516,116	327,852	0,059	0,081
-515,102	-200,000	-0,005	-0,108
-514,087	279,596	0,020	0,026
-513,072	374,492	-0,009	-0,014
-512,058	45,791	0,039	0,026
-511,043	-200,000	-0,003	-0,058
-510,029	158,571	0,055	0,056
-509,014	800,000	0,038	-0,088
-507,999	-200,000	0,014	0,061
-506,985	800,000	-0,042	-0,086
-505,970	800,000	-0,059	-0,144
-504,956	47,855	0,045	-0,030
-503,941	-200,000	0,007	-0,048
-502,926	800,000	-0,015	0,041
-501,912	-4,344	0,189	0,094
-500,897	-27,552	-0,144	0,060
-499,883	-8,678	-0,193	0,093
-498,868	229,734	-0,059	0,069
-497,853	800,000	0,008	-0,022
-496,839	-200,000	-0,000	-0,012
-495,824	-43,539	0,157	0,057
-494,810	-200,000	0,008	0,086
-493,795	19,707	0,055	0,032
-492,781	-126,285	-0,146	0,015
-491,766	-106,723	0,072	0,011
-490,751	-74,882	-0,094	0,024
-489,737	-101,491	0,040	0,007
-488,722	189,126	0,038	-0,041
-487,708	195,319	-0,119	-0,131
-486,693	57,993	0,091	0,064
-485,678	-36,569	-0,138	0,053
-484,664	-148,225	0,051	0,003
-483,649	-65,617	-0,072	-0,021
-482,635	800,000	-0,023	0,057
-481,620	775,247	-0,050	-0,099
-480,605	-47,038	0,089	0,031
-479,591	165,843	0,018	0,018
-478,576	20,304	-0,065	-0,038
-477,562	18,266	-0,093	-0,053
-476,547	774,000	-0,085	-0,168
-475,532	150,108	0,073	0,072
-474,518	58,643	-0,113	0,080
-473,503	-71,712	0,072	0,019
-472,489	-134,717	0,158	0,014
-471,474	-159,174	0,025	-0,001
-470,459	-163,870	0,090	-0,003
-469,445	-200,000	0,008	-0,113
-468,430	-200,000	0,008	-0,138
-467,416	81,237	0,057	0,044
-466,401	-187,021	-0,061	0,001
-465,386	-129,014	0,073	-0,007
-464,372	-200,000	0,030	-0,120
-463,357	800,000	0,034	-0,088
-462,343	28,953	0,034	-0,021
-461,328	800,000	-0,042	-0,106
-460,313	-200,000	0,011	-0,112
-459,299	785,783	-0,036	0,072
-458,284	-200,000	-0,008	-0,054
-457,270	-49,461	-0,168	-0,057
-456,255	-200,000	-0,028	0,127
-455,241	20,319	-0,054	0,031
-454,226	800,000	-0,057	-0,148
-453,211	-200,000	0,014	-0,247
-452,197	-200,000	0,005	0,071
-451,182	423,523	0,021	-0,033
-450,168	-200,000	0,008	-0,044
-449,153	800,000	-0,060	0,123
-448,138	641,620	-0,033	-0,061
-447,124	346,792	0,034	0,048
-446,109	23,428	-0,081	0,048
-445,095	-26,475	0,040	-0,017
-444,080	97,013	-0,076	0,063
-443,065	-200,000	-0,001	0,016
-442,051	-78,365	0,154	0,038
-441,036	478,227	0,077	-0,126
-440,022	85,303	0,064	-0,051
-439,007	628,586	0,054	0,098
-437,992	-144,564	0,037	0,002
-436,978	800,000	-0,075	0,172
-435,963	800,000	0,095	0,192
-434,949	800,000	-0,023	0,057
-433,934	85,874	-0,095	-0,076
-432,919	-155,641	-0,044	0,002
-431,905	-200,000	-0,015	0,074
-430,890	-20,864	-0,034	-0,015
-429,876	-33,014	0,097	0,038
-428,861	124,647	0,074	0,067
-427,846	-127,520	-0,140	0,014
-426,832	159,232	-0,111	-0,111
-425,817	38,046	-0,098	-0,062
-424,803	-55,130	0,026	-0,008
-423,788	-200,000	0,006	-0,034
-422,773	-10,181	0,062	0,030
-421,759	-200,000	0,029	0,094
-420,744	397,328	0,019	-0,029
-419,730	-82,783	-0,063	0,015
-418,715	-200,000	0,020	-0,076
-417,701	800,000	0,018	-0,041
-416,686	-200,000	0,001	-0,081
-415,671	198,461	-0,034	-0,038
-414,657	124,169	-0,032	0,029
-413,642	-200,000	0,020	0,139
-412,628	-100,354	-0,082	0,014
-411,613	-200,000	-0,033	-0,118
-410,598	486,906	-0,057	-0,094
-409,584	-100,566	0,040	0,007
-408,569	-200,000	0,025	0,112
-407,555	-200,000	0,045	0,146
-406,540	-200,000	-0,017	-0,055
-405,525	150,645	0,016	0,016
-404,511	-200,000	0,002	0,059
-403,496	-48,923	-0,052	0,018
-402,482	174,680	0,051	0,053
-401,467	10,186	-0,068	-0,037
-400,452	800,000	0,051	-0,122
-399,438	800,000	0,053	-0,123
-398,423	-200,000	0,027	0,108
-397,409	232,421	-0,074	-0,088
-396,394	800,000	-0,019	-0,054
-395,379	-200,000	-0,035	0,163
-394,365	-63,621	0,097	-0,029
-393,350	240,260	0,014	0,017
-392,336	439,323	-0,035	0,055
-391,321	190,005	-0,018	0,019
-390,306	-100,939	-0,111	-0,019
-389,292	19,778	0,104	0,060
-388,277	260,167	0,056	0,070
-387,263	333,412	-0,039	0,054
-386,248	-200,000	0,026	-0,111
-385,233	-200,000	0,005	0,147
-384,219	-200,000	-0,004	-0,137
-383,204	-19,086	0,028	-0,012
-382,190	-4,436	-0,036	0,018
-381,175	116,942	0,030	0,026
-380,160	80,707	0,173	0,134
-379,146	-200,000	0,006	0,122
-378,131	-109,117	0,110	0,017
-377,117	-118,379	0,099	-0,012
-376,102	-200,000	0,029	-0,160
-375,088	155,033	-0,024	-0,023
-374,073	502,487	0,045	-0,074
-373,058	-200,000	-0,034	0,108
-372,044	181,028	0,165	-0,175
-371,029	89,423	-0,051	-0,040
-370,015	67,379	-0,147	0,107
-369,000	70,829	0,027	-0,020
-367,985	479,813	0,017	-0,028
-366,971	11,537	0,048	-0,026
-365,956	223,311	-0,065	0,075
-364,942	-78,570	0,103	0,025
-363,927	128,380	-0,009	0,008
-362,912	-35,034	0,078	-0,030
-361,898	-92,089	-0,124	-0,025
-360,883	216,584	0,079	0,091
-359,869	66,523	-0,036	-0,026
-358,854	55,736	-0,014	0,010
-357,839	800,000	0,016	0,049
-356,825	-1,169	-0,145	0,073
-355,810	-108,946	-0,132	0,020
-354,796	96,661	-0,057	0,047
-353,781	135,644	-0,058	0,054
-352,766	-200,000	-0,001	-0,077
-351,752	-200,000	-0,010	0,059
-350,737	-200,000	0,029	0,173
-349,723	96,720	0,072	0,059
-348,708	-150,613	-0,075	0,004
-347,693	743,107	0,091	-0,176
-346,679	528,065	-0,035	-0,059
-345,664	33,739	0,037	-0,023
-344,650	380,317	-0,046	-0,069
-343,635	-100,733	-0,016	0,003
-342,620	-200,000	-0,026	0,111
-341,606	-17,347	0,100	-0,045
-340,591	-200,000	0,015	-0,121
-339,577	800,000	-0,088	-0,205
-338,562	800,000	-0,029	-0,076
-337,548	128,244	0,030	-0,027
-336,533	-200,000	0,040	-0,205
-335,518	192,863	0,064	0,070
-334,504	156,405	-0,074	0,073
-333,489	17,172	-0,091	0,052
-332,475	-200,000	0,015	-0,125
-331,460	646,961	0,013	-0,024
-330,445	27,548	0,013	-0,008
-329,431	310,371	0,109	0,146
-328,416	122,114	-0,041	0,037
-327,402	117,033	0,040	0,035
-326,387	-200,000	0,015	0,089
-325,372	272,569	-0,034	-0,043
-324,358	168,440	-0,101	-0,104
-323,343	-39,390	-0,040	-0,015
-322,329	-200,000	0,021	0,069
-321,314	151,305	-0,011	-0,011
-320,299	-200,000	0,002	0,017
-319,285	-200,000	0,002	0,081
-318,270	-16,719	-0,095	0,043
-317,256	2,733	-0,128	-0,066
-316,241	-45,236	0,079	0,028
-315,226	62,266	0,090	-0,064
-314,212	78,602	0,123	-0,094
-313,197	-32,780	0,066	-0,026
-312,183	800,000	-0,015	0,038
-311,168	800,000	0,022	-0,069
-310,153	292,865	0,081	-0,105
-309,139	2,903	0,074	0,038
-308,124	-159,658	-0,076	0,003
-307,110	155,859	0,119	0,118
-306,095	-21,231	0,169	0,074
-305,080	11,477	-0,110	-0,060
-304,066	800,000	-0,026	-0,076
-303,051	10,544	-0,134	-0,073
-302,037	-188,764	0,018	0,000
-301,022	440,430	0,043	0,067
-300,008	-200,000	0,027	-0,089
-298,993	-34,686	0,040	0,015
-297,978	-200,000	0,021	0,139
-296,964	138,252	-0,039	0,037
-295,949	101,269	0,036	-0,030
-294,935	145,275	-0,064	-0,061
-293,920	-180,399	0,138	-0,002
-292,905	552,586	0,068	-0,118
-291,891	509,598	0,051	0,085
-290,876	106,005	0,060	-0,051
-289,862	74,644	0,031	-0,023
-288,847	-111,846	-0,007	0,001
-287,832	-109,088	-0,033	-0,005
-286,818	-200,000	0,021	0,098
-285,803	-57,565	0,068	0,021
-284,789	-150,862	0,060	0,003
-283,774	-81,026	-0,061	-0,014
-282,759	-200,000	-0,041	0,137
-281,745	-56,845	-0,042	-0,013
-280,730	-96,037	-0,018	0,003
-279,716	-128,466	-0,019	0,002
-278,701	95,747	0,178	0,145
-277,686	357,206	-0,134	0,191
-276,672	-35,160	0,107	0,042
-275,657	44,939	0,041	0,027
-274,643	313,936	-0,051	-0,068
-273,628	-104,581	-0,171	-0,028
-272,613	11,400	-0,138	-0,076
-271,599	617,561	0,064	-0,115
-270,584	24,659	-0,121	-0,072
-269,570	-69,776	0,030	0,008
-268,555	800,000	-0,023	0,068
-267,540	-102,882	-0,168	-0,028
-266,526	-200,000	0,031	-0,111
-265,511	-78,940	-0,055	0,013
-264,497	8,431	-0,047	-0,025
-263,482	131,437	-0,061	0,056
-262,467	-101,292	0,067	0,012
-261,453	397,596	-0,079	0,118
-260,438	260,870	-0,067	0,083
-259,424	51,006	-0,102	-0,069
-258,409	118,659	-0,059	0,052
-257,395	-200,000	0,022	0,117
-256,380	13,777	0,133	0,074
-255,365	35,058	-0,051	0,032
-254,351	383,676	-0,045	0,066
-253,336	-200,000	-0,006	0,157
-252,322	39,491	-0,087	0,056
-251,307	187,364	-0,058	0,062
-250,292	-200,000	-0,010	0,050
-249,278	106,399	0,096	0,081
-248,263	276,932	0,119	0,151
-247,249	-200,000	-0,036	0,142
-246,234	-0,611	-0,018	-0,009
-245,219	432,366	-0,067	0,104
-244,205	-187,863	-0,087	-0,001
-243,190	428,474	0,019	-0,030
-242,176	633,094	-0,010	-0,018
-241,161	426,956	0,055	0,086
-240,146	-200,000	0,014	-0,053
-239,132	-37,847	0,171	0,065
-238,117	136,466	-0,061	-0,057
-237,103	-200,000	0,022	-0,109
-236,088	800,000	0,025	0,057
-235,073	-200,000	-0,013	0,115
-234,059	-200,000	0,001	0,026
-233,044	257,338	-0,077	0,095
-232,030	672,452	-0,056	0,104
-231,015	339,256	0,053	-0,075
-230,000	-180,741	-0,097	0,001
-228,986	-200,000	-0,010	0,136
-227,971	15,211	0,168	-0,094
-226,957	-200,000	0,016	-0,093
-225,942	-15,692	0,075	0,034
-224,927	81,371	-0,058	0,045
-223,913	-64,103	-0,051	0,015
-222,898	-60,560	0,112	0,034
-221,884	120,200	0,102	0,090
-220,869	800,000	0,027	0,055
-219,855	130,633	-0,059	0,054
-218,840	274,433	0,112	0,142
-217,825	-84,767	0,053	0,012
-216,811	-200,000	-0,001	-0,103
-215,796	-74,900	-0,033	0,008
-214,782	-163,346	0,034	0,001
-213,767	-104,923	-0,057	0,009
-212,752	-84,992	0,142	0,032
-211,738	12,214	0,083	-0,045
-210,723	12,692	-0,117	-0,064
-209,709	367,166	-0,011	-0,015
-208,694	326,337	0,056	-0,077
-207,679	236,483	-0,028	-0,033
-206,665	-200,000	-0,005	-0,083
-205,650	-200,000	-0,004	-0,073
-204,636	32,304	-0,064	0,039
-203,621	800,000	0,079	0,177
-202,606	-200,000	0,050	-0,000
-201,592	311,939	0,056	-0,076
-200,577	-60,874	0,149	-0,045
-199,563	523,078	-0,042	0,070
-198,548	-200,000	0,005	0,048
-197,533	397,002	0,023	0,035
-196,519	160,566	-0,043	-0,042
-195,504	-200,000	-0,003	0,041
-194,490	-200,000	-0,018	-0,174
-193,475	-194,426	0,072	0,000
-192,460	51,857	-0,109	0,074
-191,446	-9,362	-0,077	0,036
-190,431	266,034	-0,084	0,105
-189,417	-200,000	-0,003	-0,023
-188,402	-200,000	0,005	0,042
-187,387	46,311	-0,071	-0,047
-186,373	-123,981	0,079	-0,009
-185,358	115,222	0,029	-0,025
-184,344	313,004	0,052	0,070
-183,329	800,000	-0,029	0,072
-182,315	31,591	0,057	0,035
-181,300	800,000	0,023	0,053
-180,285	14,866	-0,103	-0,057
-179,271	-200,000	-0,013	-0,108
-178,256	-200,000	0,037	-0,165
-177,242	61,189	0,061	0,043
-176,227	-134,356	0,128	-0,011
-175,212	204,994	-0,062	0,069
-174,198	693,380	-0,040	-0,075
-173,183	800,000	-0,044	-0,127
-172,169	800,000	-0,071	-0,183
-171,154	138,177	-0,070	-0,066
-170,139	9,461	-0,054	0,029
-169,125	-200,000	0,023	0,084
-168,110	800,000	0,048	0,097
-167,096	-200,000	0,008	-0,103
-166,081	71,699	-0,086	0,064
-165,066	263,404	-0,064	-0,079
-164,052	518,123	0,034	-0,057
-163,037	-136,745	0,119	-0,010
-162,023	800,000	0,059	0,142
-161,008	-101,603	0,082	0,014
-159,993	205,070	-0,030	0,033
-158,979	-200,000	-0,041	-0,132
-157,964	-200,000	-0,015	-0,114
-156,950	-106,621	0,024	0,004
-155,935	-149,052	0,097	-0,005
-154,920	-74,027	-0,143	0,037
-153,906	133,797	0,137	0,127
-152,891	185,470	-0,089	0,094
-151,877	-200,000	-0,006	-0,116
-150,862	713,337	-0,072	0,136
-149,847	-157,072	0,024	0,001
-148,833	-38,283	-0,232	0,087
-147,818	207,537	0,110	-0,122
-146,804	64,608	-0,122	0,087
-145,789	800,000	-0,023	0,064
-144,775	472,197	-0,036	-0,059
-143,760	-200,000	-0,016	-0,091
-142,745	761,019	-0,033	0,065
-141,731	40,183	0,038	0,024
-140,716	673,948	0,022	0,041
-139,702	-200,000	-0,010	0,037
-138,687	800,000	-0,069	0,154
-137,672	8,867	-0,043	-0,023
-136,658	-200,000	-0,027	0,155
-135,643	800,000	-0,047	0,095
-134,629	163,469	-0,079	0,079
-133,614	-9,658	0,062	-0,029
-132,599	240,241	0,058	0,069
-131,585	-42,869	0,103	0,037
-130,570	339,253	-0,060	-0,084
-129,556	-135,532	-0,081	-0,007
-128,541	800,000	0,013	0,029
-127,526	-86,034	-0,034	0,007
-126,512	800,000	0,017	-0,048
-125,497	-124,695	0,071	0,008
-124,483	27,916	0,070	0,042
-123,468	147,135	-0,042	-0,040
-122,453	-200,000	-0,007	-0,038
-121,439	161,277	-0,057	0,057
-120,424	-47,759	-0,031	-0,011
-119,410	-148,281	0,027	0,002
-118,395	-165,934	-0,060	0,002
-117,380	202,797	0,073	-0,081
-116,366	-200,000	0,014	-0,064
-115,351	269,922	-0,054	-0,067
-114,337	181,007	-0,077	-0,080
-113,322	-95,981	0,028	-0,005
-112,307	122,133	0,077	0,069
-111,293	375,057	0,040	0,058
-110,278	-200,000	0,000	0,097
-109,264	-200,000	0,021	0,169
-108,249	-200,000	0,026	0,172
-107,234	-27,055	-0,109	-0,045
-106,220	4,292	0,151	0,078
-105,205	425,734	0,024	0,038
-104,191	800,000	-0,033	0,099
-103,176	246,673	-0,042	0,051
-102,162	175,758	-0,047	0,049
-101,147	800,000	0,030	0,092
-100,132	-200,000	0,024	-0,098
-99,118	800,000	-0,068	-0,168
-98,103	509,449	-0,023	0,038
-97,089	-200,000	-0,021	0,091
-96,074	73,871	0,048	-0,036
-95,059	800,000	-0,018	0,052
-94,045	-64,122	-0,052	0,015
-93,030	140,131	-0,118	-0,110
-92,016	51,229	-0,054	0,036
-91,001	-101,090	-0,106	-0,018
-89,986	132,780	-0,119	0,109
-88,972	114,673	0,142	0,123
-87,957	36,032	-0,052	0,032
-86,943	-132,646	-0,063	-0,006
-85,928	54,683	-0,082	-0,056
-84,913	-47,638	-0,087	-0,030
-83,899	800,000	0,040	0,097
-82,884	80,999	0,050	0,039
-81,870	179,519	-0,057	-0,060
-80,855	197,682	0,078	0,084
-79,840	262,439	-0,047	-0,058
-78,826	800,000	0,023	-0,045
-77,811	-61,925	0,078	0,023
-76,797	480,085	-0,064	-0,104
-75,782	-200,000	0,009	-0,169
-74,767	-155,606	0,199	-0,009
-73,753	-100,554	-0,062	0,011
-72,738	-74,469	0,124	-0,031
-71,724	155,165	-0,063	-0,062
-70,709	-82,349	0,016	-0,004
-69,694	83,481	-0,158	-0,122
-68,680	497,173	0,059	0,097
-67,665	260,617	-0,069	0,085
-66,651	340,744	-0,109	0,151
-65,636	114,922	0,065	0,056
-64,622	-11,905	-0,191	0,088
-63,607	-81,379	0,016	-0,004
-62,592	251,257	0,098	0,119
-61,578	-200,000	0,034	0,142
-60,563	105,244	0,175	0,147
-59,549	-200,000	-0,030	0,104
-58,534	-88,541	-1,354	-0,284
-57,519	348,570	-1,587	-2,226
-56,505	-200,000	-0,514	-4,485
-55,490	77,516	0,886	0,668
-54,476	800,000	4,776	11,406
-53,461	-200,000	17,475	273,233
-52,446	800,000	717,723	2193,209
-51,432	553,169	1631,735	2792,112
-50,417	81,128	1656,093	1267,001
-49,403	24,176	1530,347	893,818
-48,388	18,212	1453,814	820,403
-47,373	18,440	1443,306	815,532
-46,359	18,094	1434,049	808,620
-45,344	16,484	1429,359	798,302
-44,330	16,357	1427,658	796,716
-43,315	16,452	1425,793	796,094
-42,300	16,446	1424,082	795,083
-41,286	16,457	1422,992	794,492
-40,271	16,465	1421,691	793,773
-39,257	16,447	1420,396	792,933
-38,242	16,489	1419,089	792,371
-37,227	16,482	1417,961	791,675
-36,213	16,429	1416,571	790,620
-35,198	16,466	1415,404	790,110
-34,184	16,475	1414,399	789,558
-33,169	16,419	1413,242	788,621
-32,154	16,473	1412,249	788,288
-31,140	16,485	1410,891	787,556
-30,125	16,515	1409,745	787,024
-29,111	16,508	1408,611	786,327
-28,096	16,475	1407,400	785,465
-27,082	16,415	1406,530	784,669
-26,067	16,423	1405,136	783,896
-25,052	16,368	1404,152	783,061
-24,038	16,334	1403,378	782,439
-23,023	16,347	1402,193	781,810
-22,009	16,337	1401,187	781,172
-20,994	16,300	1400,426	780,544
-19,979	16,346	1399,347	780,123
-18,965	16,318	1398,295	779,376
-17,950	16,339	1397,309	778,896
-16,936	16,346	1396,288	778,325
-15,921	16,277	1395,450	777,506
-14,906	16,282	1394,378	776,902
-13,892	16,285	1393,549	776,426
-12,877	16,310	1392,658	776,011
-11,863	16,343	1391,598	775,542
-10,848	16,270	1390,730	774,694
-9,833	16,252	1389,844	774,085
-8,819	16,255	1388,751	773,459
-7,804	16,219	1387,944	772,811
-6,790	16,166	1386,990	772,009
-5,775	16,172	1385,887	771,391
-4,760	16,151	1385,197	770,880
-3,746	16,154	1384,543	770,499
-2,731	16,163	1383,530	769,947
-1,717	16,124	1382,640	769,240
-0,702	16,165	1380,559	768,241
0,313	20,069	1302,364	742,690
1,327	36,485	707,795	441,717
2,342	56,283	125,640	86,378
3,356	6,965	16,460	8,666
4,371	24,685	3,050	1,785
5,386	9,304	0,481	0,257
6,400	70,466	0,129	0,095
7,415	15,471	-0,245	-0,136
8,429	295,470	-0,243	-0,316
9,444	31,417	-0,331	-0,201
10,459	167,105	-0,257	-0,258
11,473	-123,692	-0,405	-0,045
12,488	3,007	-0,306	-0,157
13,502	66,373	-0,308	-0,221
14,517	61,389	-0,348	-0,245
15,531	334,709	-0,237	-0,325
16,546	76,939	-0,340	-0,256
17,561	58,414	-0,275	-0,191
18,575	-67,252	-0,175	-0,048
19,590	37,583	-0,368	-0,231
20,604	139,728	-0,120	-0,112
21,619	-0,784	-0,391	-0,195
22,634	30,786	-0,417	-0,252
23,648	18,069	-0,419	-0,236
24,663	37,828	-0,500	-0,314
25,677	20,519	-0,380	-0,217
26,692	12,209	-0,248	-0,135
27,707	148,953	-0,218	-0,208
28,721	-11,931	-0,461	-0,213
29,736	59,312	-0,364	-0,253
30,750	194,612	-0,387	-0,416
31,765	-10,766	-0,447	-0,208
32,780	204,660	-0,300	-0,330
33,794	-52,978	-0,374	-0,121
34,809	19,680	-0,352	-0,200
35,823	13,050	-0,386	-0,210
36,838	228,108	-0,290	-0,334
37,853	68,582	-0,450	-0,325
38,867	63,096	-0,409	-0,289
39,882	199,011	-0,331	-0,358
40,896	51,342	-0,268	-0,179
41,911	92,903	-0,344	-0,275
42,926	-27,634	-0,429	-0,175
43,940	-20,255	-0,429	-0,186
44,955	89,652	-0,408	-0,321
45,969	21,209	-0,354	-0,202
46,984	19,439	-0,321	-0,182
47,999	14,890	-0,463	-0,255
49,013	74,755	-0,385	-0,286
50,028	-53,563	-0,364	-0,117
51,042	185,059	-0,219	-0,229
52,057	54,257	-0,412	-0,279
53,071	215,916	-0,301	-0,338
54,086	122,300	-0,211	-0,186
55,101	-24,184	-0,392	-0,164
56,115	179,979	-0,321	-0,332
57,130	218,430	-0,345	-0,390
58,144	163,921	-0,393	-0,391
59,159	60,249	-0,315	-0,219
60,174	3,474	-0,487	-0,250
61,188	145,484	-0,272	-0,257
62,203	162,553	-0,253	-0,250
63,217	71,112	-0,362	-0,264
64,232	51,389	-0,270	-0,180
65,247	81,858	-0,322	-0,246
66,261	800,000	-0,181	-0,411
67,276	12,669	-0,312	-0,169
68,290	126,405	-0,356	-0,317
69,305	124,987	-0,334	-0,297
70,320	69,642	-0,238	-0,172
71,334	-26,747	-0,332	-0,136
72,349	-49,954	-0,330	-0,110
73,363	19,920	-0,403	-0,228
74,378	49,908	-0,399	-0,264
75,393	125,417	-0,304	-0,270
76,407	-32,047	-0,251	-0,099
77,422	-78,211	-0,303	-0,073
78,436	132,948	-0,148	-0,135
79,451	132,053	-0,252	-0,228
80,466	55,664	-0,278	-0,189
81,480	83,737	-0,328	-0,251
82,495	18,821	-0,287	-0,161
83,509	36,461	-0,206	-0,128
84,524	-11,080	-0,205	-0,095
85,539	200,879	-0,162	-0,176
86,553	-50,519	-0,374	-0,123
87,568	59,466	-0,366	-0,253
88,582	57,577	-0,302	-0,207
89,597	126,747	-0,250	-0,223
90,611	80,952	-0,262	-0,199
91,626	103,026	-0,205	-0,169
92,641	136,607	-0,122	-0,112
93,655	128,132	-0,172	-0,154
94,670	389,127	-0,215	-0,314
95,684	-37,101	-0,419	-0,157
96,699	-50,939	-0,327	-0,107
97,714	67,820	-0,187	-0,134
98,728	-28,195	-0,316	-0,128
99,743	-169,133	-0,226	-0,006
100,757	47,308	-0,214	-0,140
101,772	-28,444	-0,340	-0,137
102,787	-1,862	-0,311	-0,153
103,801	35,885	-0,337	-0,208
104,816	-51,729	-0,255	-0,083
105,830	244,625	-0,188	-0,222
106,845	-41,863	-0,274	-0,098
107,860	37,855	-0,271	-0,169
108,874	12,894	-0,190	-0,103
109,889	115,097	-0,215	-0,184
110,903	106,355	-0,267	-0,222
111,918	176,639	-0,221	-0,226
112,933	33,359	-0,296	-0,180
113,947	403,200	-0,172	-0,254
114,962	55,868	-0,175	-0,119
115,976	-78,414	-0,312	-0,074
116,991	103,752	-0,234	-0,193
118,006	278,735	-0,159	-0,200
119,020	174,856	-0,251	-0,255
120,035	345,691	-0,142	-0,196
121,049	129,982	-0,252	-0,226
122,064	136,274	-0,263	-0,240
123,079	-94,967	-0,212	-0,040
124,093	18,474	-0,334	-0,186
125,108	154,999	-0,239	-0,231
126,122	49,435	-0,390	-0,257
127,137	52,332	-0,242	-0,161
128,151	193,580	-0,057	-0,060
129,166	-47,544	-0,233	-0,079
130,181	69,582	-0,217	-0,156
131,195	110,667	-0,182	-0,153
132,210	-107,730	-0,196	-0,030
133,224	140,942	-0,236	-0,218
134,239	242,897	-0,153	-0,179
135,254	285,643	-0,105	-0,133
136,268	67,856	-0,193	-0,138
137,283	5,799	-0,228	-0,118
138,297	197,012	-0,212	-0,226
139,312	91,699	-0,182	-0,143
140,327	252,658	-0,208	-0,249
141,341	-52,414	-0,300	-0,097
142,356	6,889	-0,185	-0,096
143,370	193,340	-0,152	-0,161
144,385	422,052	-0,179	-0,270
145,400	389,460	-0,151	-0,219
146,414	221,537	-0,259	-0,291
147,429	-17,294	-0,390	-0,171
148,443	-0,981	-0,271	-0,134
149,458	274,340	-0,121	-0,150
150,473	-104,270	-0,177	-0,028
151,487	10,362	-0,166	-0,088
152,502	57,999	-0,308	-0,210
153,516	63,724	-0,292	-0,205
154,531	164,744	-0,313	-0,309
155,546	-103,378	-0,202	0,033
156,560	67,473	-0,227	-0,162
157,575	63,099	-0,095	-0,066
158,589	45,430	-0,225	-0,145
159,604	-59,442	-0,290	-0,086
160,619	-41,507	-0,327	-0,117
161,633	-99,326	-0,245	-0,043
162,648	12,690	-0,211	-0,114
163,662	-22,853	-0,267	-0,112
164,677	266,427	-0,218	-0,266
165,692	-93,014	-0,255	-0,049
166,706	34,672	-0,209	-0,127
167,721	193,499	-0,211	-0,223
168,735	-42,913	-0,308	-0,108
169,750	-42,488	-0,254	-0,090
170,764	-40,025	-0,185	-0,067
171,779	65,214	-0,177	-0,125
172,794	129,419	-0,262	-0,234
173,808	89,510	-0,185	-0,144
174,823	1,928	-0,243	-0,122
175,837	212,738	-0,302	-0,333
176,852	53,291	-0,199	-0,133
177,867	42,813	-0,208	-0,132
178,881	-48,761	-0,241	-0,080
179,896	174,744	-0,230	-0,232
180,910	49,995	-0,264	-0,174
181,925	200,537	-0,168	-0,180
182,940	135,037	-0,276	-0,250
183,954	532,821	-0,218	-0,362
184,969	502,668	-0,220	-0,356
185,983	80,523	-0,234	-0,175
186,998	-62,487	-0,168	-0,048
188,013	118,315	-0,197	-0,170
189,027	800,000	-0,178	-0,373
190,042	75,740	-0,228	-0,168
191,056	28,033	-0,279	-0,163
192,071	-43,334	-0,233	-0,082
193,086	-36,763	-0,152	-0,057
194,100	66,731	-0,076	-0,054
195,115	131,971	-0,146	-0,131
196,129	380,474	-0,174	-0,249
197,144	143,195	-0,239	-0,221
198,159	-17,295	-0,260	-0,114
199,173	516,974	-0,180	-0,294
200,188	99,500	-0,174	-0,140
201,202	28,647	-0,105	-0,062
202,217	-153,358	-0,287	0,014
203,232	146,071	-0,214	-0,200
204,246	221,119	-0,179	-0,201
205,261	-122,235	-0,197	-0,022
206,275	-200,000	-0,088	-0,271
207,290	183,449	-0,153	-0,158
208,304	-35,002	-0,191	-0,072
209,319	88,033	-0,181	-0,140
210,334	-100,858	-0,168	-0,028
211,348	393,921	-0,076	-0,110
212,363	123,383	-0,199	-0,174
213,377	800,000	-0,069	-0,171
214,392	109,095	-0,188	-0,156
215,407	-91,485	-0,115	-0,023
216,421	-200,000	-0,148	-0,000
217,436	800,000	-0,111	-0,317
218,450	138,089	-0,188	-0,171
219,465	-9,214	-0,236	-0,109
220,480	59,384	-0,223	-0,153
221,494	800,000	-0,054	-0,151
222,509	-154,227	-0,201	0,009
223,523	-25,552	-0,209	-0,085
224,538	97,925	-0,193	-0,154
225,553	44,937	-0,188	-0,120
226,567	59,715	-0,151	-0,103
227,582	-93,020	-0,208	-0,040
228,596	-2,679	-0,104	-0,050
229,611	26,209	-0,137	-0,079
230,626	82,177	-0,161	-0,121
231,640	-27,177	-0,198	0,080
232,655	147,478	-0,251	-0,235
233,669	339,626	-0,156	-0,212
234,684	-42,510	-0,249	-0,088
235,699	-45,459	-0,225	-0,077
236,713	408,178	-0,159	-0,234
237,728	-109,964	-0,222	0,032
238,742	110,964	-0,116	0,097
239,757	150,854	-0,174	-0,164
240,772	377,558	-0,093	-0,132
241,786	306,251	-0,133	-0,172
242,801	-129,242	-0,085	-0,008
243,815	-86,786	-0,252	0,053
244,830	-96,314	-0,212	0,039
245,844	-86,358	-0,074	-0,016
246,859	29,481	-0,181	-0,106
247,874	41,321	-0,163	-0,102
248,888	800,000	-0,137	-0,278
249,903	-200,000	-0,053	-0,223
250,917	800,000	-0,130	-0,280
251,932	13,256	-0,181	-0,097
252,947	143,554	-0,108	-0,100
253,961	-88,446	-0,189	-0,039
254,976	-15,033	-0,126	-0,056
255,990	-41,285	-0,117	-0,041
257,005	125,156	-0,176	-0,154
258,020	-18,428	-0,181	-0,078
259,034	40,295	-0,090	0,056
260,049	800,000	-0,042	-0,124
261,063	800,000	-0,053	-0,153
262,078	17,815	-0,062	-0,034
263,093	228,833	-0,168	-0,190
264,107	26,511	-0,248	-0,143
265,122	238,472	-0,152	-0,175
266,136	298,715	-0,082	-0,105
267,151	113,356	-0,223	-0,187
268,166	-200,000	-0,058	-0,236
269,180	56,472	-0,224	-0,151
270,195	340,674	-0,142	-0,192
271,209	-38,712	-0,244	-0,089
272,224	10,083	-0,189	-0,099
273,239	37,220	-0,139	-0,085
274,253	-27,410	-0,088	0,035
275,268	-139,420	-0,106	0,008
276,282	-200,000	-0,042	-0,188
277,297	86,321	-0,221	-0,169
278,312	29,837	-0,277	-0,163
279,326	-68,881	-0,204	0,054
280,341	-200,000	-0,039	-0,156
281,355	7,644	-0,148	-0,076
282,370	-200,000	-0,021	-0,148
283,384	163,714	-0,240	-0,233
284,399	-116,174	-0,111	-0,014
285,414	-52,442	-0,188	-0,060
286,428	95,102	-0,158	-0,125
287,443	190,092	-0,121	-0,125
288,457	-64,925	-0,187	-0,052
289,472	222,494	-0,152	-0,170
290,487	131,334	-0,122	-0,108
291,501	31,474	-0,147	-0,087
292,516	-78,898	-0,115	-0,027
293,530	-52,368	-0,077	-0,024
294,545	363,384	-0,069	-0,096
295,560	345,179	-0,071	-0,097
296,574	795,803	-0,096	-0,184
297,589	297,466	-0,185	-0,236
298,603	238,606	-0,100	-0,115
299,618	100,238	-0,193	-0,154
300,633	-86,712	-0,170	-0,036
301,647	22,319	-0,153	-0,086
302,662	-20,476	-0,108	-0,046
303,676	25,449	0,022	-0,012
304,691	800,000	-0,063	-0,176
305,706	243,333	-0,153	-0,177
306,720	800,000	-0,080	-0,168
307,735	-85,106	-0,337	-0,072
308,749	128,070	-0,119	-0,105
309,764	-125,515	-0,222	-0,023
310,779	-90,839	-0,155	-0,031
311,793	-104,677	-0,230	-0,036
312,808	250,167	-0,222	-0,260
313,822	668,925	-0,136	-0,244
314,837	65,991	-0,144	-0,101
315,852	211,067	-0,101	-0,110
316,866	-8,785	-0,048	0,022
317,881	411,538	-0,095	-0,139
318,895	32,555	-0,236	-0,140
319,910	15,054	-0,194	-0,105
320,925	-200,000	-0,056	-0,174
321,939	-162,259	-0,135	-0,005
322,954	-46,829	-0,063	0,021
323,968	9,196	-0,050	0,026
324,983	-149,313	-0,149	-0,008
325,997	36,086	-0,140	-0,085
327,012	230,408	-0,054	-0,061
328,027	-2,970	-0,206	-0,099
329,041	241,811	-0,166	-0,192
330,056	-64,664	-0,099	0,027
331,070	305,061	-0,093	-0,119
332,085	185,406	-0,089	-0,091
333,100	265,674	-0,129	-0,155
334,114	-152,513	-0,190	-0,009
335,129	-200,000	-0,061	-0,237
336,143	133,448	-0,104	-0,093
337,158	143,893	-0,098	-0,090
338,173	-23,185	-0,136	-0,056
339,187	800,000	-0,017	-0,050
340,202	800,000	0,023	-0,051
341,216	800,000	-0,090	-0,192
342,231	-40,678	-0,135	-0,048
343,246	-32,302	-0,133	-0,051
344,260	128,341	-0,115	-0,100
345,275	354,972	-0,085	-0,116
346,289	44,798	-0,091	-0,058
347,304	226,082	-0,075	-0,083
348,319	300,997	-0,134	-0,171
349,333	152,970	-0,212	-0,199
350,348	117,640	-0,130	-0,110
351,362	295,037	-0,145	-0,183
352,377	194,120	-0,073	-0,076
353,392	425,900	-0,116	-0,172
354,406	-31,445	-0,194	-0,075
355,421	209,687	1311,903	1415,052
356,435	161,393	1472,332	1415,588
