DTS Sentinel unit serial number:	SN410029Multiplexer serial number:	ORYXHardware model number:	OX2-SRSoftware version number:	ORYX F/W v4,00 Oryx Data Collector v3.7.2.0data status	okinstallation	B3 Nyhavnadifferential loss correction	single-endedforward channel	channel 1reverse channel	N/Adate	2023/12/02time	23:17:30forward acquisition time	300,00reverse acquisition time	0,00gamma	499,1914k internal	0,3201k external	0,3201temperature offset calibration	1,0000default loss term (dB/km)	0,3820temperature slope calibration	1,0000multiplexer offset coefficient	1,0000multiplexer slope coefficient	1,0000fibre end	0,00T internal ref (°C)	13,25T ext. ref 1 (°C)	-1,70T ext. ref 2 (°C)	-1,73length (m)	temperature (°C)	Stokes	anti-Stokes-744,400	800,000	-0,120	-0,364
-743,385	-200,000	0,095	0,378
-742,371	720,102	-0,174	-0,339
-741,356	-200,000	0,060	0,328
-740,342	58,954	-0,263	-0,188
-739,327	445,217	0,134	0,214
-738,312	327,014	-0,078	-0,108
-737,298	-200,000	0,001	0,314
-736,283	281,219	-0,135	-0,176
-735,269	-200,000	-0,021	0,272
-734,254	146,227	-0,256	-0,249
-733,239	-51,633	-0,309	0,104
-732,225	-200,000	-0,055	-0,182
-731,210	12,356	-0,071	0,040
-730,196	-200,000	0,008	-0,063
-729,181	69,830	-0,124	-0,093
-728,167	510,494	-0,101	-0,171
-727,152	115,518	-0,118	-0,105
-726,137	800,000	-0,059	-0,166
-725,123	29,131	-0,039	-0,024
-724,108	110,864	-0,097	-0,085
-723,094	800,000	-0,086	-0,177
-722,079	-30,138	0,027	0,011
-721,064	-8,814	0,102	0,050
-720,050	55,866	0,038	0,027
-719,035	133,613	-0,043	-0,041
-718,021	226,949	-0,105	-0,124
-717,006	10,676	-0,169	-0,094
-715,991	26,904	-0,079	0,048
-714,977	-200,000	0,005	-0,125
-713,962	-149,064	-0,108	-0,006
-712,948	93,138	0,129	0,106
-711,933	800,000	-0,026	-0,068
-710,918	-133,743	-0,130	0,012
-709,904	-200,000	0,022	-0,159
-708,889	-200,000	-0,008	-0,205
-707,875	-155,733	-0,161	-0,007
-706,860	303,653	0,015	0,020
-705,845	-23,611	0,058	0,025
-704,831	227,142	0,034	0,041
-703,816	800,000	-0,021	-0,062
-702,802	57,977	0,027	0,019
-701,787	-200,000	0,017	0,062
-700,772	800,000	-0,022	0,067
-699,758	-74,327	0,109	-0,028
-698,743	-200,000	-0,019	0,145
-697,729	85,957	-0,044	-0,035
-696,714	87,059	-0,092	-0,074
-695,699	-119,256	-0,021	-0,003
-694,685	-32,277	-0,039	-0,016
-693,670	-176,338	-0,159	-0,003
-692,656	-60,341	0,051	-0,016
-691,641	-82,042	0,126	0,030
-690,627	447,544	0,116	0,186
-689,612	-112,313	0,149	0,021
-688,597	800,000	-0,043	-0,091
-687,583	-138,893	-0,185	-0,014
-686,568	-77,408	-0,021	-0,005
-685,554	527,955	0,060	-0,104
-684,539	280,054	0,069	-0,090
-683,524	654,984	0,020	-0,038
-682,510	111,469	-0,075	-0,066
-681,495	687,971	-0,030	0,058
-680,481	10,821	-0,058	-0,032
-679,466	800,000	0,055	-0,119
-678,451	16,188	-0,093	-0,053
-677,437	800,000	0,076	0,183
-676,422	-118,341	-0,091	0,012
-675,408	-92,324	-0,256	0,052
-674,393	185,968	0,098	0,105
-673,378	401,440	-0,063	-0,096
-672,364	-6,513	-0,107	0,053
-671,349	-200,000	-0,018	-0,237
-670,335	800,000	0,015	0,033
-669,320	479,269	0,039	-0,064
-668,305	-59,501	0,118	-0,037
-667,291	72,256	-0,049	0,037
-666,276	-43,353	-0,057	-0,021
-665,262	176,034	-0,031	-0,033
-664,247	44,103	-0,038	-0,025
-663,232	-55,408	0,043	0,014
-662,218	-45,823	0,083	0,030
-661,203	-48,230	-0,071	0,025
-660,189	314,571	0,040	0,055
-659,174	-200,000	-0,031	-0,104
-658,159	-200,000	0,002	-0,012
-657,145	58,023	-0,064	0,045
-656,130	-37,971	0,121	-0,046
-655,116	639,939	-0,069	-0,127
-654,101	800,000	0,007	-0,017
-653,086	90,929	-0,126	-0,102
-652,072	-200,000	0,002	-0,018
-651,057	124,138	-0,148	-0,135
-650,043	27,769	-0,139	0,085
-649,028	22,287	-0,066	-0,039
-648,014	-200,000	-0,005	0,024
-646,999	267,859	-0,020	-0,025
-645,984	223,776	0,036	-0,042
-644,970	-200,000	-0,020	-0,070
-643,955	-40,592	0,162	-0,061
-642,941	-2,750	-0,099	0,050
-641,926	-142,469	-0,084	0,006
-640,911	800,000	-0,041	-0,085
-639,897	152,612	0,019	-0,018
-638,882	-200,000	-0,001	0,007
-637,868	-79,892	-0,145	0,035
-636,853	-200,000	0,048	-0,214
-635,838	800,000	-0,048	-0,112
-634,824	133,959	0,004	0,004
-633,809	-79,969	0,110	-0,027
-632,795	800,000	-0,022	-0,050
-631,780	-200,000	-0,047	-0,156
-630,765	179,513	-0,067	0,071
-629,751	63,877	-0,078	-0,057
-628,736	-110,866	-0,059	-0,009
-627,722	113,582	-0,010	-0,009
-626,707	250,301	0,023	-0,029
-625,692	72,556	0,148	0,111
-624,678	-7,841	-0,116	-0,057
-623,663	-16,514	0,044	-0,020
-622,649	83,133	-0,131	-0,103
-621,634	7,320	-0,054	-0,029
-620,619	-119,843	-0,021	-0,003
-619,605	507,788	-0,057	-0,096
-618,590	-200,000	-0,003	-0,042
-617,576	-9,284	0,050	0,024
-616,561	-200,000	0,013	-0,130
-615,546	-0,106	0,025	0,013
-614,532	-34,531	-0,116	-0,046
-613,517	800,000	-0,010	0,030
-612,503	-200,000	-0,007	0,084
-611,488	-0,519	-0,041	0,021
-610,474	-200,000	-0,003	0,015
-609,459	800,000	0,006	0,016
-608,444	229,282	-0,100	-0,119
-607,430	-72,306	0,115	0,030
-606,415	121,766	0,024	-0,022
-605,401	-125,318	0,109	-0,012
-604,386	195,561	0,053	0,058
-603,371	490,385	0,091	0,150
-602,357	-41,818	0,091	-0,034
-601,342	-200,000	0,026	-0,188
-600,328	448,959	0,062	-0,098
-599,313	-200,000	0,016	-0,090
-598,298	526,089	-0,008	-0,013
-597,284	16,692	-0,061	0,035
-596,269	412,295	0,069	-0,106
-595,255	800,000	0,019	0,049
-594,240	-117,595	-0,110	-0,014
-593,225	-200,000	0,005	-0,059
-592,211	-132,921	-0,186	-0,017
-591,196	535,806	-0,036	-0,063
-590,182	800,000	0,042	-0,100
-589,167	-169,672	0,146	-0,004
-588,152	32,327	-0,056	-0,035
-587,138	373,898	-0,021	-0,031
-586,123	240,886	-0,031	-0,038
-585,109	312,781	0,054	-0,073
-584,094	-7,574	-0,046	0,023
-583,079	-200,000	-0,013	-0,075
-582,065	-57,074	0,237	0,075
-581,050	530,266	-0,046	-0,079
-580,036	87,657	0,048	0,038
-579,021	-200,000	-0,008	-0,058
-578,006	-200,000	0,005	-0,121
-576,992	-116,389	-0,076	0,010
-575,977	800,000	-0,019	0,044
-574,963	745,019	0,015	0,029
-573,948	-37,119	-0,086	0,033
-572,934	-51,061	-0,034	-0,011
-571,919	64,402	-0,183	-0,133
-570,904	-15,946	-0,161	-0,074
-569,890	800,000	0,020	0,055
-568,875	-200,000	0,000	-0,029
-567,861	-29,697	0,120	0,049
-566,846	602,753	-0,042	-0,076
-565,831	271,651	-0,019	-0,024
-564,817	73,190	0,010	-0,007
-563,802	-200,000	-0,016	-0,171
-562,788	9,099	-0,038	-0,021
-561,773	676,592	-0,033	-0,062
-560,758	-62,798	-0,080	0,024
-559,744	-200,000	-0,012	0,041
-558,729	-79,310	-0,071	0,017
-557,715	-200,000	-0,015	-0,068
-556,700	75,465	-0,089	0,068
-555,685	-13,163	0,041	0,019
-554,671	-24,941	0,118	-0,050
-553,656	103,765	0,053	0,045
-552,642	800,000	0,059	0,157
-551,627	-94,767	-0,094	-0,018
-550,612	800,000	0,023	0,052
-549,598	800,000	-0,062	0,144
-548,583	-200,000	0,034	-0,159
-547,569	-200,000	-0,010	-0,056
-546,554	-4,554	-0,149	0,074
-545,539	-200,000	0,009	-0,048
-544,525	270,535	-0,045	-0,057
-543,510	71,742	0,115	-0,086
-542,496	574,484	-0,030	0,053
-541,481	-113,225	-0,137	0,019
-540,466	-200,000	-0,012	0,052
-539,452	800,000	-0,043	0,127
-538,437	-200,000	0,006	-0,047
-537,423	92,011	0,062	0,050
-536,408	9,122	-0,056	0,030
-535,393	22,023	-0,086	0,051
-534,379	590,955	-0,081	-0,146
-533,364	-116,214	0,127	0,017
-532,350	800,000	0,071	0,153
-531,335	-200,000	0,038	-0,146
-530,321	800,000	0,011	-0,024
-529,306	-0,192	-0,104	0,053
-528,291	-164,480	-0,105	0,003
-527,277	109,315	-0,129	-0,111
-526,262	425,779	-0,021	-0,032
-525,248	-200,000	0,000	0,011
-524,233	28,490	0,084	0,051
-523,218	487,162	-0,073	0,121
-522,204	-12,742	0,016	0,008
-521,189	128,327	-0,110	-0,101
-520,175	-200,000	-0,022	-0,150
-519,160	230,190	0,022	0,026
-518,145	-200,000	-0,005	0,097
-517,131	278,901	0,104	0,134
-516,116	-138,431	0,121	-0,009
-515,102	-182,672	0,192	0,002
-514,087	-126,241	0,054	-0,006
-513,072	-200,000	0,039	-0,164
-512,058	-57,492	-0,138	-0,043
-511,043	-73,670	-0,070	-0,018
-510,029	425,626	0,025	-0,038
-509,014	-89,141	-0,043	0,009
-507,999	64,469	0,066	-0,048
-506,985	-200,000	0,015	-0,103
-505,970	41,448	-0,107	-0,070
-504,956	319,205	-0,056	-0,076
-503,941	800,000	0,085	0,173
-502,926	800,000	-0,026	0,069
-501,912	602,138	0,068	0,122
-500,897	-57,310	-0,036	0,011
-499,883	-200,000	-0,043	0,148
-498,868	-75,198	0,022	-0,006
-497,853	-78,988	-0,080	0,019
-496,839	300,061	0,077	-0,102
-495,824	-200,000	-0,012	0,135
-494,810	170,359	0,059	0,061
-493,795	-200,000	-0,006	0,099
-492,781	151,838	-0,078	0,077
-491,766	355,799	-0,180	-0,258
-490,751	324,999	0,078	-0,108
-489,737	800,000	-0,050	0,135
-488,722	-5,929	0,028	0,014
-487,708	183,253	0,112	0,119
-486,693	-200,000	-0,002	0,066
-485,678	115,985	-0,095	-0,083
-484,664	304,472	-0,016	0,022
-483,649	197,162	0,081	0,089
-482,635	-200,000	0,009	-0,038
-481,620	615,312	-0,025	0,046
-480,605	-200,000	0,005	0,108
-479,591	421,797	-0,037	0,057
-478,576	-155,829	0,198	0,009
-477,562	-137,831	-0,140	-0,011
-476,547	46,532	-0,063	0,042
-475,532	-106,010	0,114	-0,018
-474,518	800,000	0,012	-0,025
-473,503	800,000	0,023	0,049
-472,489	-200,000	-0,019	-0,073
-471,474	115,839	-0,063	0,056
-470,459	99,614	-0,043	-0,036
-469,445	-42,891	0,045	0,016
-468,430	800,000	-0,003	-0,006
-467,416	90,210	0,063	-0,051
-466,401	-118,457	0,236	0,030
-465,386	-81,464	0,166	-0,039
-464,372	-126,483	-0,174	-0,018
-463,357	-95,988	-0,099	-0,019
-462,343	3,652	0,033	-0,017
-461,328	-200,000	-0,002	0,035
-460,313	800,000	0,042	-0,101
-459,299	800,000	0,057	-0,149
-458,284	-128,317	0,062	0,006
-457,270	-86,195	-0,159	0,035
-456,255	-200,000	0,002	-0,115
-455,241	94,259	-0,084	-0,068
-454,226	-200,000	0,013	0,111
-453,211	-200,000	-0,001	0,129
-452,197	800,000	-0,020	0,056
-451,182	207,738	0,048	-0,054
-450,168	-200,000	0,007	0,039
-449,153	-200,000	0,036	-0,139
-448,138	800,000	-0,052	0,105
-447,124	-58,194	-0,092	0,029
-446,109	216,153	-0,015	-0,017
-445,095	253,158	-0,074	0,091
-444,080	-200,000	0,024	0,098
-443,065	18,172	0,070	-0,040
-442,051	532,148	-0,094	-0,161
-441,036	800,000	0,030	-0,072
-440,022	213,986	-0,108	0,122
-439,007	630,479	-0,042	-0,077
-437,992	-200,000	0,027	0,112
-436,978	-200,000	0,021	-0,115
-435,963	-109,065	0,087	0,013
-434,949	800,000	0,046	0,105
-433,934	203,255	-0,012	-0,013
-432,919	-200,000	-0,012	-0,053
-431,905	125,980	-0,064	-0,058
-430,890	800,000	-0,016	0,044
-429,876	-200,000	0,016	0,117
-428,861	-103,221	-0,070	-0,012
-427,846	-200,000	0,007	0,082
-426,832	-61,332	-0,098	-0,029
-425,817	132,396	0,045	0,041
-424,803	-40,635	-0,043	0,016
-423,788	800,000	0,034	0,088
-422,773	-200,000	0,003	0,031
-421,759	158,922	0,043	0,043
-420,744	-91,431	0,066	-0,013
-419,730	367,635	-0,089	-0,129
-418,715	647,057	0,096	-0,176
-417,701	164,644	-0,044	-0,045
-416,686	-200,000	-0,005	-0,094
-415,671	-105,298	-0,063	-0,010
-414,657	45,996	0,127	-0,084
-413,642	-127,342	0,048	-0,005
-412,628	-35,748	-0,093	-0,036
-411,613	366,878	-0,032	-0,046
-410,598	-200,000	-0,001	0,059
-409,584	-200,000	0,004	-0,079
-408,569	-52,630	-0,071	0,023
-407,555	433,354	-0,049	0,077
-406,540	-54,157	-0,030	0,010
-405,525	567,181	-0,077	-0,135
-404,511	138,902	-0,051	-0,049
-403,496	17,109	-0,105	-0,060
-402,482	-147,438	0,015	0,001
-401,467	3,094	0,109	0,056
-400,452	-138,970	0,102	0,008
-399,438	111,346	0,073	0,063
-398,423	507,290	0,043	-0,072
-397,409	438,163	-0,072	-0,113
-396,394	35,922	0,040	-0,025
-395,379	-200,000	-0,006	0,071
-394,365	800,000	0,062	0,137
-393,350	207,306	0,060	0,068
-392,336	357,030	-0,028	-0,041
-391,321	-200,000	-0,011	0,083
-390,306	324,256	0,019	0,025
-389,292	-86,765	0,060	-0,013
-388,277	800,000	-0,064	-0,170
-387,263	800,000	-0,025	0,055
-386,248	-68,867	0,129	0,035
-385,233	42,858	0,074	0,048
-384,219	17,814	0,199	0,114
-383,204	-200,000	0,020	0,096
-382,190	-161,238	-0,060	0,002
-381,175	360,194	0,043	0,062
-380,160	800,000	0,027	0,058
-379,146	102,157	0,070	-0,058
-378,131	43,261	-0,129	0,084
-377,117	449,374	-0,025	0,040
-376,102	35,015	0,137	-0,086
-375,088	47,329	0,033	-0,022
-374,073	115,360	0,059	-0,051
-373,058	139,808	0,018	-0,017
-372,044	-52,443	0,091	-0,030
-371,029	-86,592	0,129	-0,028
-370,015	-200,000	0,012	-0,096
-369,000	198,793	0,058	0,064
-367,985	-75,206	-0,152	-0,039
-366,971	740,290	-0,072	0,139
-365,956	-57,177	0,063	0,020
-364,942	246,441	0,064	0,077
-363,927	-200,000	0,024	0,094
-362,912	532,763	0,048	0,081
-361,898	-132,742	-0,041	-0,004
-360,883	33,782	-0,164	-0,102
-359,869	63,251	0,055	0,039
-358,854	446,500	0,026	-0,042
-357,839	340,308	0,062	0,087
-356,825	-200,000	0,013	0,048
-355,810	443,953	0,044	-0,069
-354,796	-200,000	0,001	-0,067
-353,781	7,419	-0,100	-0,054
-352,766	800,000	0,027	-0,069
-351,752	-97,856	0,064	0,012
-350,737	-38,404	0,152	0,057
-349,723	-200,000	-0,007	0,025
-348,708	-67,261	0,085	0,024
-347,693	-128,216	-0,076	0,008
-346,679	-200,000	0,007	-0,026
-345,664	217,036	-0,105	-0,120
-344,650	-68,971	0,071	0,020
-343,635	-111,487	-0,085	-0,012
-342,620	667,155	0,045	0,084
-341,606	-99,897	0,134	0,024
-340,591	-200,000	0,022	0,099
-339,577	31,811	-0,106	-0,065
-338,562	-28,155	0,080	-0,033
-337,548	800,000	-0,006	0,013
-336,533	307,230	0,076	0,102
-335,518	-41,745	0,066	0,024
-334,504	-158,906	-0,070	0,003
-333,489	109,307	0,172	-0,147
-332,475	297,022	-0,109	-0,143
-331,460	-200,000	0,016	-0,178
-330,445	-200,000	0,016	0,052
-329,431	484,979	0,062	0,101
-328,416	-170,524	-0,253	-0,006
-327,402	76,394	0,176	0,133
-326,387	660,790	-0,085	0,158
-325,372	202,511	0,074	-0,081
-324,358	153,883	-0,034	0,033
-323,343	-200,000	0,000	-0,110
-322,329	-200,000	0,006	0,095
-321,314	-121,323	0,042	-0,005
-320,299	800,000	0,027	0,085
-319,285	-121,638	0,084	-0,010
-318,270	13,846	-0,080	0,044
-317,256	45,964	-0,140	0,093
-316,241	-112,048	-0,156	-0,022
-315,226	26,343	0,034	-0,020
-314,212	-200,000	0,003	-0,014
-313,197	9,755	0,081	-0,044
-312,183	-26,657	0,126	0,053
-311,168	475,037	0,011	0,019
-310,153	119,469	-0,130	-0,115
-309,139	-200,000	0,001	-0,119
-308,124	-120,401	0,200	0,024
-307,110	800,000	0,020	-0,053
-306,095	13,911	0,118	0,065
-305,080	675,971	0,039	-0,073
-304,066	166,040	-0,081	-0,082
-303,051	-73,514	0,106	0,027
-302,037	-200,000	0,022	0,074
-301,022	800,000	-0,009	0,023
-300,008	-50,019	0,112	0,038
-298,993	288,516	-0,054	0,070
-297,978	1,092	-0,063	0,032
-296,964	-85,306	-0,065	-0,014
-295,949	800,000	0,019	-0,057
-294,935	-13,361	-0,140	-0,065
-293,920	-200,000	-0,058	-0,191
-292,905	143,776	0,105	0,100
-291,891	79,967	0,166	-0,128
-290,876	-60,946	0,057	-0,017
-289,862	-29,253	-0,104	0,042
-288,847	258,751	-0,051	-0,063
-287,832	-44,038	0,163	-0,058
-286,818	-115,661	-0,092	0,012
-285,803	70,407	-0,061	-0,045
-284,789	35,471	0,034	0,021
-283,774	800,000	0,037	0,111
-282,759	537,266	-0,095	0,162
-281,745	506,509	-0,013	-0,022
-280,730	166,057	-0,037	-0,037
-279,716	800,000	-0,015	0,037
-278,701	-129,208	-0,184	-0,018
-277,686	800,000	-0,051	0,110
-276,672	-22,745	0,092	0,039
-275,657	-200,000	0,034	0,131
-274,643	-54,598	-0,138	0,044
-273,628	-200,000	0,044	-0,173
-272,613	-200,000	-0,009	0,129
-271,599	-129,281	0,134	0,013
-270,584	-200,000	0,006	0,029
-269,570	-74,164	0,110	-0,028
-268,555	800,000	0,057	-0,118
-267,540	-200,000	-0,020	-0,124
-266,526	-200,000	-0,022	-0,070
-265,511	144,877	-0,054	-0,051
-264,497	-86,673	-0,046	-0,010
-263,482	-200,000	-0,014	0,108
-262,467	61,179	-0,062	-0,044
-261,453	-60,106	0,030	-0,009
-260,438	510,973	0,012	0,020
-259,424	104,035	-0,048	0,040
-258,409	-200,000	0,027	0,111
-257,395	-75,416	0,157	-0,040
-256,380	445,785	0,048	-0,076
-255,365	473,384	-0,063	-0,101
-254,351	40,624	0,076	0,049
-253,336	416,132	0,069	-0,106
-252,322	-137,545	-0,069	-0,005
-251,307	800,000	0,016	0,047
-250,292	-200,000	-0,006	0,020
-249,278	224,860	0,021	0,024
-248,263	-200,000	0,010	0,171
-247,249	-200,000	-0,030	0,205
-246,234	252,789	-0,028	0,035
-245,219	-200,000	0,020	0,124
-244,205	62,562	0,106	-0,076
-243,190	-200,000	0,004	-0,038
-242,176	800,000	0,023	0,057
-241,161	29,875	-0,069	0,042
-240,146	800,000	-0,035	-0,082
-239,132	27,009	-0,106	0,063
-238,117	800,000	-0,013	0,037
-237,103	248,768	0,018	0,021
-236,088	415,918	0,096	-0,147
-235,073	-200,000	0,023	-0,135
-234,059	800,000	0,040	0,111
-233,044	800,000	-0,014	0,032
-232,030	188,032	-0,063	0,067
-231,015	-200,000	0,001	0,020
-230,000	800,000	-0,008	-0,021
-228,986	-80,046	-0,160	-0,038
-227,971	88,878	0,047	-0,037
-226,957	-32,336	0,108	-0,043
-225,942	127,492	-0,118	0,106
-224,927	-200,000	0,001	0,043
-223,913	-131,097	-0,110	0,010
-222,898	-200,000	-0,005	-0,031
-221,884	-39,424	0,076	0,028
-220,869	800,000	0,007	0,015
-219,855	-200,000	-0,028	0,126
-218,840	-161,705	0,134	-0,005
-217,825	-58,682	-0,075	0,023
-216,811	800,000	0,009	-0,020
-215,796	-200,000	-0,019	-0,083
-214,782	-200,000	-0,017	0,174
-213,767	-47,758	0,164	0,056
-212,752	-128,124	0,100	-0,010
-211,738	-28,276	0,095	0,039
-210,723	10,263	0,043	-0,023
-209,709	-111,000	-0,075	-0,011
-208,694	-167,833	-0,105	0,003
-207,679	800,000	-0,061	0,186
-206,665	87,247	-0,061	0,048
-205,650	-103,828	0,103	-0,017
-204,636	603,094	-0,025	-0,044
-203,621	-6,494	0,078	0,038
-202,606	-200,000	0,009	-0,041
-201,592	-152,409	0,099	0,005
-200,577	-200,000	0,054	-0,198
-199,563	800,000	-0,035	0,091
-198,548	-200,000	-0,005	0,064
-197,533	800,000	-0,031	0,063
-196,519	-200,000	-0,018	0,124
-195,504	22,847	0,016	-0,010
-194,490	-88,130	-0,112	-0,024
-193,475	800,000	-0,032	0,082
-192,460	-6,449	0,078	0,038
-191,446	251,799	0,073	0,088
-190,431	-115,077	0,061	0,008
-189,417	-86,435	0,044	0,010
-188,402	593,113	-0,031	-0,055
-187,387	-129,053	-0,086	0,008
-186,373	49,200	0,158	0,105
-185,358	386,367	0,049	-0,072
-184,344	62,812	0,051	-0,036
-183,329	585,885	-0,061	-0,107
-182,315	-200,000	0,034	-0,113
-181,300	-93,114	-0,094	-0,019
-180,285	-120,124	-0,160	0,019
-179,271	285,643	-0,054	-0,070
-178,256	729,572	-0,044	-0,084
-177,242	-200,000	-0,006	0,102
-176,227	800,000	0,042	0,115
-175,212	-5,408	-0,089	0,043
-174,198	246,388	0,033	-0,040
-173,183	-153,932	-0,087	0,004
-172,169	5,015	-0,059	0,031
-171,154	113,853	-0,029	0,025
-170,139	800,000	0,028	-0,068
-169,125	-200,000	-0,036	0,127
-168,110	-200,000	-0,017	0,063
-167,096	-200,000	-0,023	0,132
-166,081	152,800	0,100	0,097
-165,066	800,000	0,016	0,043
-164,052	-97,838	-0,108	0,020
-163,037	28,918	0,109	-0,065
-162,023	800,000	0,016	0,039
-161,008	-78,927	-0,067	0,016
-159,993	378,136	-0,056	0,082
-158,979	-70,625	-0,167	-0,045
-157,964	-200,000	0,000	0,008
-156,950	27,998	-0,129	-0,077
-155,935	800,000	-0,034	-0,083
-154,920	-123,081	0,177	0,020
-153,906	363,874	0,062	0,088
-152,891	146,808	0,195	0,187
-151,877	-101,418	-0,066	-0,011
-150,862	-127,460	-0,036	0,004
-149,847	-93,513	0,064	-0,012
-148,833	-136,104	-0,019	-0,002
-147,818	-182,364	0,141	0,002
-146,804	207,216	-0,081	0,090
-145,789	-32,653	-0,142	-0,056
-144,775	640,000	-0,030	0,055
-143,760	186,507	-0,067	-0,071
-142,745	428,393	0,097	-0,150
-141,731	44,229	0,075	0,049
-140,716	-110,403	0,113	0,017
-139,702	320,247	0,042	0,057
-138,687	535,731	0,040	0,068
-137,672	800,000	-0,042	0,094
-136,658	-200,000	0,017	-0,068
-135,643	-200,000	0,009	-0,080
-134,629	33,654	-0,073	0,045
-133,614	-200,000	-0,018	-0,135
-132,599	652,994	-0,011	-0,020
-131,585	137,314	-0,038	0,035
-130,570	-200,000	-0,023	0,000
-129,556	345,299	0,073	-0,102
-128,541	800,000	-0,050	-0,149
-127,526	-66,331	0,098	-0,027
-126,512	-27,134	-0,054	-0,022
-125,497	35,829	0,096	0,060
-124,483	-200,000	-0,010	0,110
-123,468	-200,000	-0,002	0,068
-122,453	800,000	0,045	-0,100
-121,439	0,719	-0,100	-0,051
-120,424	-28,211	0,062	-0,025
-119,410	19,260	0,064	0,036
-118,395	-55,221	0,056	0,018
-117,380	-200,000	-0,022	-0,080
-116,366	119,011	-0,055	0,048
-115,351	-200,000	-0,000	-0,007
-114,337	184,858	-0,049	-0,051
-113,322	5,178	-0,041	0,021
-112,307	-6,115	0,048	-0,023
-111,293	-200,000	-0,020	-0,124
-110,278	800,000	0,071	0,198
-109,264	-38,939	-0,089	0,033
-108,249	800,000	-0,042	-0,086
-107,234	253,704	-0,074	0,090
-106,220	-60,001	-0,079	-0,024
-105,205	59,691	-0,057	0,040
-104,191	-19,391	0,040	0,017
-103,176	-200,000	0,016	0,081
-102,162	-115,117	0,019	0,003
-101,147	-36,697	0,067	-0,025
-100,132	800,000	-0,026	-0,074
-99,118	248,030	-0,078	-0,094
-98,103	-116,322	-0,098	0,013
-97,089	170,388	0,064	0,065
-96,074	-129,300	-0,064	0,006
-95,059	417,057	0,108	0,164
-94,045	-200,000	0,013	-0,063
-93,030	800,000	-0,034	0,078
-92,016	90,981	-0,117	-0,093
-91,001	-145,751	0,134	-0,008
-89,986	205,418	-0,038	-0,042
-88,972	-200,000	0,004	-0,176
-87,957	-200,000	0,018	0,155
-86,943	-200,000	0,020	0,080
-85,928	291,253	-0,126	-0,163
-84,913	800,000	-0,013	-0,038
-83,899	82,888	-0,075	0,058
-82,884	-200,000	-0,009	-0,066
-81,870	748,746	0,061	0,117
-80,855	-200,000	-0,024	0,131
-79,840	80,664	-0,075	0,057
-78,826	800,000	0,042	0,112
-77,811	-110,469	-0,174	-0,025
-76,797	153,115	-0,080	-0,078
-75,782	111,183	0,038	0,032
-74,767	492,375	0,059	0,097
-73,753	-200,000	-0,017	-0,083
-72,738	-200,000	-0,015	-0,062
-71,724	-33,105	-0,092	0,036
-70,709	-85,596	-0,155	-0,034
-69,694	-200,000	0,008	-0,047
-68,680	9,027	-0,060	0,032
-67,665	48,882	0,080	-0,053
-66,651	-171,868	0,044	-0,001
-65,636	-200,000	-0,002	0,035
-64,622	-181,310	0,033	-0,000
-63,607	263,852	-0,109	-0,135
-62,592	-120,151	0,065	-0,008
-61,578	800,000	0,045	0,104
-60,563	-151,275	0,097	0,005
-59,549	270,620	-0,028	0,035
-58,534	-5,061	-1,594	-0,774
-57,519	418,975	-1,393	-2,116
-56,505	-200,000	-0,449	-4,637
-55,490	236,440	0,958	1,124
-54,476	800,000	5,019	11,531
-53,461	-200,000	19,108	320,230
-52,446	-200,000	741,578	2334,188
-51,432	572,698	1655,912	2868,058
-50,417	78,091	1671,103	1260,707
-49,403	21,220	1544,138	885,184
-48,388	15,140	1466,302	811,002
-47,373	17,971	1456,662	819,320
-46,359	16,622	1446,690	807,207
-45,344	13,368	1442,039	788,990
-44,330	13,255	1440,036	787,325
-43,315	13,278	1438,189	786,390
-42,300	13,304	1436,700	785,671
-41,286	13,346	1435,262	785,054
-40,271	13,290	1434,031	784,081
-39,257	13,232	1432,755	783,079
-38,242	13,326	1431,367	782,733
-37,227	13,371	1430,258	782,310
-36,213	13,291	1428,937	781,180
-35,198	13,348	1427,554	780,660
-34,184	13,395	1426,699	780,384
-33,169	13,337	1425,455	779,399
-32,154	13,321	1424,279	778,649
-31,140	13,403	1422,800	778,199
-30,125	13,423	1421,867	777,751
-29,111	13,379	1420,687	776,868
-28,096	13,354	1419,734	776,199
-27,082	13,295	1418,678	775,311
-26,067	13,270	1417,539	774,541
-25,052	13,275	1416,425	773,925
-24,038	13,276	1415,286	773,274
-23,023	13,218	1414,552	772,572
-22,009	13,269	1413,377	772,141
-20,994	13,237	1412,482	771,471
-19,979	13,250	1411,714	771,080
-18,965	13,198	1410,817	770,315
-17,950	13,213	1409,838	769,820
-16,936	13,231	1408,985	769,410
-15,921	13,193	1407,723	768,511
-14,906	13,179	1406,901	767,966
-13,892	13,236	1405,821	767,614
-12,877	13,189	1405,008	766,918
-11,863	13,170	1404,317	766,423
-10,848	13,174	1403,352	765,884
-9,833	13,142	1402,393	765,181
-8,819	13,086	1401,631	764,474
-7,804	13,065	1400,680	763,827
-6,790	13,102	1399,787	763,482
-5,775	13,096	1398,497	762,718
-4,760	13,091	1397,582	762,168
-3,746	13,096	1396,728	761,694
-2,731	13,095	1395,910	761,213
-1,717	13,037	1395,123	760,486
-0,702	13,074	1393,214	759,588
0,313	16,989	1310,050	732,359
1,327	33,537	703,314	431,384
2,342	51,845	123,181	82,802
3,356	4,208	16,546	8,542
4,371	5,321	3,257	1,693
5,386	65,630	0,552	0,395
6,400	134,331	0,115	0,105
7,415	-18,733	-0,297	-0,131
8,429	95,097	-0,226	-0,182
9,444	195,390	-0,232	-0,249
10,459	22,126	-0,364	-0,209
11,473	-129,963	-0,267	-0,026
12,488	-29,141	-0,305	-0,123
13,502	57,394	-0,375	-0,259
14,517	-24,456	-0,298	-0,125
15,531	162,464	-0,253	-0,251
16,546	-25,925	-0,278	-0,115
17,561	50,097	-0,340	-0,226
18,575	-155,591	-0,261	0,012
19,590	800,000	-0,154	-0,305
20,604	5,077	-0,324	-0,168
21,619	76,017	-0,467	-0,348
22,634	-4,525	-0,574	-0,279
23,648	95,309	-0,390	-0,313
24,663	89,370	-0,320	-0,251
25,677	154,379	-0,319	-0,309
26,692	-63,896	-0,400	-0,115
27,707	-11,168	-0,469	-0,217
28,721	80,009	-0,439	-0,333
29,736	115,692	-0,367	-0,317
30,750	119,727	-0,381	-0,333
31,765	85,752	-0,393	-0,305
32,780	-70,787	-0,393	-0,104
33,794	77,323	-0,315	-0,236
34,809	181,452	-0,370	-0,384
35,823	88,235	-0,281	-0,220
36,838	27,878	-0,391	-0,232
37,853	188,653	-0,345	-0,365
38,867	79,669	-0,379	-0,286
39,882	552,855	-0,279	-0,474
40,896	113,434	-0,337	-0,289
41,911	-101,519	-0,315	-0,053
42,926	-113,281	-0,316	-0,043
43,940	118,031	-0,322	-0,279
44,955	83,280	-0,337	-0,258
45,969	81,017	-0,340	-0,258
46,984	132,462	-0,405	-0,368
47,999	169,272	-0,214	-0,216
49,013	232,693	-0,216	-0,250
50,028	-62,408	-0,418	-0,122
51,042	63,511	-0,348	-0,246
52,057	135,924	-0,346	-0,318
53,071	47,336	-0,226	-0,148
54,086	122,345	-0,289	-0,254
55,101	-41,167	-0,293	-0,106
56,115	-45,734	-0,285	-0,099
57,130	75,437	-0,350	-0,260
58,144	111,311	-0,368	-0,312
59,159	164,030	-0,421	-0,418
60,174	358,881	-0,214	-0,302
61,188	14,349	-0,393	-0,215
62,203	24,128	-0,323	-0,187
63,217	-18,642	-0,270	-0,118
64,232	168,881	-0,334	-0,335
65,247	72,261	-0,386	-0,283
66,261	11,581	-0,391	-0,210
67,276	-38,492	-0,297	-0,110
68,290	-5,163	-0,357	-0,172
69,305	-38,255	-0,403	-0,149
70,320	-52,851	-0,319	-0,103
71,334	47,378	-0,273	-0,178
72,349	9,350	-0,341	-0,181
73,363	27,205	-0,403	-0,237
74,378	116,224	-0,341	-0,294
75,393	185,542	-0,285	-0,298
76,407	5,363	-0,314	-0,162
77,422	-102,766	-0,448	-0,074
78,436	-125,953	-0,225	0,023
79,451	92,221	-0,193	-0,152
80,466	50,789	-0,286	-0,190
81,480	67,851	-0,378	-0,271
82,495	-5,493	-0,321	-0,154
83,509	-16,767	-0,330	-0,146
84,524	-66,427	-0,211	-0,058
85,539	-15,645	-0,304	-0,136
86,553	42,752	-0,308	-0,197
87,568	-94,007	-0,301	-0,058
88,582	84,252	-0,292	-0,224
89,597	175,261	-0,237	-0,241
90,611	8,886	-0,421	-0,222
91,626	188,960	-0,205	-0,216
92,641	269,667	-0,281	-0,347
93,655	-52,792	-0,247	-0,079
94,670	175,101	-0,232	-0,236
95,684	61,086	-0,348	-0,242
96,699	24,073	-0,291	-0,168
97,714	62,993	-0,261	-0,183
98,728	56,169	-0,311	-0,211
99,743	38,896	-0,434	-0,272
100,757	37,091	-0,262	-0,162
101,772	-43,456	-0,346	-0,122
102,787	92,419	-0,308	-0,243
103,801	165,446	-0,275	-0,272
104,816	43,728	-0,297	-0,190
105,830	-34,674	-0,223	-0,085
106,845	-109,014	-0,193	-0,028
107,860	-128,458	-0,183	-0,018
108,874	101,900	-0,307	-0,251
109,889	231,120	-0,318	-0,366
110,903	119,367	-0,246	-0,214
111,918	220,076	-0,195	-0,219
112,933	58,216	-0,216	-0,148
113,947	220,004	-0,242	-0,272
114,962	29,971	-0,233	-0,139
115,976	121,586	-0,232	-0,202
116,991	100,999	-0,239	-0,195
118,006	78,542	-0,280	-0,209
119,020	278,329	-0,207	-0,259
120,035	9,234	-0,289	-0,152
121,049	58,844	-0,165	-0,114
122,064	-47,990	-0,316	-0,106
123,079	800,000	-0,127	-0,289
124,093	126,605	-0,300	-0,266
125,108	196,066	-0,293	-0,312
126,122	100,442	-0,218	-0,177
127,137	-35,813	-0,183	-0,069
128,151	127,771	-0,170	-0,151
129,166	-65,126	-0,248	-0,070
130,181	120,610	-0,333	-0,290
131,195	70,138	-0,320	-0,231
132,210	218,144	-0,238	-0,266
133,224	-27,989	-0,359	-0,145
134,239	85,135	-0,135	-0,104
135,254	104,420	-0,181	-0,149
136,268	104,628	-0,204	-0,168
137,283	-109,131	-0,226	0,033
138,297	84,726	-0,273	-0,209
139,312	-48,241	-0,222	-0,075
140,327	-18,440	-0,235	-0,102
141,341	44,867	-0,172	-0,110
142,356	152,342	-0,158	-0,151
143,370	104,963	-0,268	-0,220
144,385	50,325	-0,240	-0,158
145,400	17,956	-0,283	-0,157
146,414	277,199	-0,226	-0,282
147,429	-75,179	-0,254	-0,063
148,443	-29,150	-0,307	-0,122
149,458	183,216	-0,215	-0,222
150,473	105,203	-0,207	-0,171
151,487	61,496	-0,286	-0,199
152,502	76,092	-0,251	-0,185
153,516	282,408	-0,210	-0,263
154,531	207,371	-0,288	-0,314
155,546	193,217	-0,241	-0,255
156,560	62,648	-0,153	-0,106
157,575	-42,971	-0,221	-0,078
158,589	81,218	-0,313	-0,236
159,604	-21,257	-0,348	-0,148
160,619	290,190	-0,170	-0,216
161,633	81,475	-0,214	-0,161
162,648	110,954	-0,257	-0,216
163,662	-8,010	-0,142	-0,067
164,677	140,610	-0,217	-0,200
165,692	-36,861	-0,277	-0,103
166,706	174,708	-0,264	-0,266
167,721	214,855	-0,237	-0,263
168,735	522,519	-0,276	-0,454
169,750	109,494	-0,228	-0,190
170,764	77,338	-0,200	-0,148
171,779	-86,943	-0,272	-0,057
172,794	22,598	-0,296	-0,168
173,808	-82,383	-0,241	-0,054
174,823	-18,862	-0,338	-0,146
175,837	-30,257	-0,240	-0,094
176,852	35,340	-0,180	-0,110
177,867	159,712	-0,125	-0,121
178,881	174,371	-0,107	-0,108
179,896	372,064	-0,151	-0,215
180,910	14,471	-0,165	-0,089
181,925	-7,027	-0,258	-0,121
182,940	5,588	-0,315	-0,161
183,954	-51,220	-0,182	-0,059
184,969	167,719	-0,102	-0,101
185,983	315,833	-0,168	-0,221
186,998	326,598	-0,180	-0,240
188,013	-88,535	-0,189	-0,039
189,027	109,404	-0,217	-0,181
190,042	395,720	-0,181	-0,263
191,056	73,946	-0,238	-0,173
192,071	465,451	-0,096	-0,150
193,086	-200,000	-0,038	-0,137
194,100	86,981	-0,186	-0,143
195,115	152,857	-0,196	-0,187
196,129	-43,196	-0,228	-0,080
197,144	242,055	-0,163	-0,190
198,159	-11,981	-0,290	-0,132
199,173	50,342	-0,238	-0,156
200,188	18,274	-0,069	0,038
201,202	299,549	-0,058	0,075
202,217	412,687	-0,157	-0,233
203,232	162,139	-0,226	-0,220
204,246	-200,000	-0,002	-0,192
205,261	214,489	-0,221	-0,244
206,275	-200,000	-0,061	-0,286
207,290	62,242	-0,167	-0,115
208,304	-113,553	-0,152	-0,020
209,319	45,685	-0,245	-0,157
210,334	-22,924	-0,210	-0,088
211,348	800,000	-0,103	-0,271
212,363	107,775	-0,256	-0,212
213,377	-120,725	-0,158	0,018
214,392	-81,952	-0,265	-0,060
215,407	-84,244	-0,186	-0,041
216,421	-97,500	-0,164	-0,029
217,436	-26,483	-0,131	-0,053
218,450	41,503	-0,205	-0,129
219,465	105,184	-0,148	-0,122
220,480	45,514	-0,215	-0,137
221,494	-51,868	-0,172	-0,055
222,509	544,979	-0,031	-0,051
223,523	17,315	-0,217	-0,119
224,538	-150,712	-0,263	-0,014
225,553	-57,764	-0,355	-0,107
226,567	-7,792	-0,230	-0,107
227,582	26,916	-0,058	0,034
228,596	-6,590	-0,203	-0,096
229,611	43,011	-0,095	-0,060
230,626	800,000	-0,111	-0,244
231,640	45,622	-0,156	-0,100
232,655	25,271	-0,239	-0,137
233,669	489,428	-0,180	-0,286
234,684	42,486	-0,256	-0,161
235,699	1,420	-0,170	-0,085
236,713	-113,013	0,103	-0,014
237,728	105,108	-0,144	-0,117
238,742	-144,666	-0,269	-0,017
239,757	17,134	-0,282	-0,155
240,772	82,807	-0,235	-0,177
241,786	170,750	-0,235	-0,233
242,801	8,579	-0,201	-0,104
243,815	-19,182	-0,170	-0,073
244,830	-54,758	-0,207	-0,064
245,844	431,056	-0,177	-0,266
246,859	79,272	-0,275	-0,204
247,874	58,425	-0,178	-0,121
248,888	-91,360	-0,106	-0,021
249,903	74,804	-0,198	-0,144
250,917	189,911	-0,091	0,095
251,932	221,679	-0,132	-0,147
252,947	80,226	-0,161	-0,120
253,961	-39,352	-0,301	-0,109
254,976	777,310	-0,109	-0,207
255,990	278,370	-0,100	-0,124
257,005	66,640	-0,161	-0,113
258,020	646,946	-0,084	-0,150
259,034	208,115	-0,071	-0,077
260,049	39,908	-0,154	-0,095
261,063	627,723	-0,100	-0,176
262,078	192,848	-0,106	-0,111
263,093	292,821	-0,157	-0,199
264,107	-13,884	-0,241	-0,107
265,122	-75,901	-0,182	-0,044
266,136	15,011	-0,245	-0,132
267,151	87,689	-0,098	-0,075
268,166	49,287	-0,222	-0,144
269,180	-8,382	-0,196	-0,091
270,195	634,468	-0,086	-0,151
271,209	-114,110	-0,190	-0,025
272,224	-88,155	-0,212	-0,043
273,239	-6,133	-0,156	-0,073
274,253	71,730	-0,175	-0,125
275,268	125,067	-0,242	-0,211
276,282	-24,556	-0,212	-0,087
277,297	311,831	-0,132	-0,171
278,312	209,060	-0,127	-0,137
279,326	-6,884	-0,266	-0,124
280,341	131,649	-0,167	-0,149
281,355	-99,783	-0,249	-0,043
282,370	-97,823	-0,284	-0,050
283,384	25,112	-0,306	-0,175
284,399	58,967	-0,209	-0,142
285,414	62,161	-0,284	-0,195
286,428	-31,151	-0,193	-0,075
287,443	126,818	-0,130	-0,114
288,457	225,972	-0,150	-0,168
289,472	-68,395	-0,228	-0,061
290,487	39,181	-0,154	-0,095
291,501	215,851	-0,137	-0,151
292,516	54,315	-0,214	-0,142
293,530	169,857	-0,163	-0,161
294,545	-57,627	-0,144	-0,043
295,560	68,617	-0,050	-0,035
296,574	110,976	-0,133	-0,111
297,589	29,027	-0,210	-0,123
298,603	-94,068	-0,145	-0,027
299,618	617,788	-0,097	-0,169
300,633	-133,876	-0,084	0,007
301,647	9,141	-0,061	-0,032
302,662	-0,903	-0,156	-0,076
303,676	-34,758	-0,094	-0,035
304,691	39,316	-0,172	-0,106
305,706	-4,687	-0,227	-0,107
306,720	202,014	-0,196	-0,209
307,735	-14,454	-0,205	0,091
308,749	123,835	-0,070	0,060
309,764	-15,313	-0,130	-0,057
310,779	133,321	-0,153	-0,136
311,793	127,542	-0,193	-0,169
312,808	-35,760	-0,102	-0,038
313,822	95,084	-0,264	-0,206
314,837	-10,710	-0,233	-0,106
315,852	-145,401	-0,087	0,005
316,866	343,106	-0,093	-0,126
317,881	-161,444	-0,172	0,006
318,895	525,983	-0,079	-0,128
319,910	37,486	-0,155	-0,095
320,925	216,281	-0,116	-0,127
321,939	-200,000	-0,048	-0,170
322,954	715,302	-0,083	-0,151
323,968	69,275	-0,112	-0,079
324,983	383,015	-0,084	-0,119
325,997	-200,000	-0,017	-0,154
327,012	-86,822	-0,175	-0,037
328,027	-0,577	-0,108	-0,052
329,041	17,605	-0,140	-0,076
330,056	-200,000	-0,009	0,097
331,070	-200,000	0,030	-0,216
332,085	-200,000	-0,024	-0,136
333,100	127,832	-0,063	-0,055
334,114	233,259	-0,172	-0,195
335,129	51,352	-0,191	-0,125
336,143	128,424	-0,194	-0,170
337,158	-40,252	-0,153	-0,054
338,173	-152,185	-0,090	-0,004
339,187	-19,273	-0,193	-0,082
340,202	800,000	-0,032	-0,064
341,216	212,357	-0,087	-0,095
342,231	466,552	-0,108	-0,167
343,246	155,500	-0,141	-0,133
344,260	-32,650	-0,083	-0,031
345,275	-200,000	-0,009	-0,033
346,289	-125,089	-0,088	0,009
347,304	675,302	-0,113	-0,202
348,319	125,298	-0,110	-0,095
349,333	185,556	-0,126	-0,129
350,348	94,242	-0,132	-0,103
351,362	129,187	-0,076	-0,067
352,377	316,682	-0,153	-0,199
353,392	800,000	-0,077	-0,178
354,406	297,048	-0,146	-0,185
355,421	211,623	1310,895	1417,233
356,435	162,960	1471,159	1417,727
