DTS Sentinel unit serial number:	SN410029Multiplexer serial number:	ORYXHardware model number:	OX2-SRSoftware version number:	ORYX F/W v4,00 Oryx Data Collector v3.7.2.0data status	okinstallation	B3 Nyhavnadifferential loss correction	single-endedforward channel	channel 1reverse channel	N/Adate	2023/11/29time	10:57:30forward acquisition time	300,00reverse acquisition time	0,00gamma	499,1914k internal	0,3212k external	0,3212temperature offset calibration	1,0000default loss term (dB/km)	0,3820temperature slope calibration	1,0000multiplexer offset coefficient	1,0000multiplexer slope coefficient	1,0000fibre end	0,00T internal ref (°C)	9,49T ext. ref 1 (°C)	-5,58T ext. ref 2 (°C)	-5,72length (m)	temperature (°C)	Stokes	anti-Stokes-744,400	754,935	-0,147	-0,289
-743,385	-200,000	0,025	0,154
-742,371	410,013	-0,144	-0,222
-741,356	800,000	0,096	0,296
-740,342	-26,978	-0,230	-0,097
-739,327	-200,000	0,038	0,185
-738,312	-200,000	-0,078	-0,254
-737,298	464,461	-0,168	0,273
-736,283	533,965	-0,118	-0,204
-735,269	-200,000	0,032	0,246
-734,254	361,135	-0,163	-0,238
-733,239	-21,796	-0,179	0,079
-732,225	-200,000	-0,024	-0,127
-731,210	-30,531	0,117	0,048
-730,196	-200,000	-0,039	0,188
-729,181	-8,029	-0,041	-0,020
-728,167	-200,000	-0,011	-0,052
-727,152	-108,611	-0,193	-0,030
-726,137	233,969	-0,083	-0,099
-725,123	-164,414	0,102	-0,003
-724,108	228,248	-0,094	-0,111
-723,094	-200,000	-0,004	0,035
-722,079	-71,325	-0,153	0,041
-721,064	-20,888	0,133	0,059
-720,050	58,805	-0,047	-0,034
-719,035	153,368	-0,051	0,050
-718,021	387,051	0,034	0,051
-717,006	-200,000	0,011	-0,115
-715,991	-128,241	-0,236	-0,024
-714,977	559,690	-0,030	-0,053
-713,962	-200,000	-0,005	-0,098
-712,948	-200,000	0,006	0,051
-711,933	114,873	-0,052	-0,046
-710,918	-26,252	-0,039	-0,016
-709,904	84,994	-0,098	-0,078
-708,889	-193,343	-0,183	0,001
-707,875	800,000	-0,044	-0,102
-706,860	-200,000	0,001	-0,160
-705,845	800,000	0,067	-0,146
-704,831	800,000	0,028	0,079
-703,816	52,358	-0,068	-0,047
-702,802	-200,000	-0,012	0,151
-701,787	342,860	0,018	-0,026
-700,772	-200,000	0,002	-0,047
-699,758	352,631	-0,061	-0,088
-698,743	-148,956	0,044	0,003
-697,729	17,107	0,038	0,022
-696,714	-200,000	0,002	0,017
-695,699	-91,409	-0,158	-0,032
-694,685	-200,000	0,018	-0,109
-693,670	14,818	-0,078	-0,044
-692,656	292,961	0,073	-0,096
-691,641	-200,000	0,009	0,174
-690,627	33,233	-0,092	0,057
-689,612	170,803	0,094	0,097
-688,597	218,020	-0,024	0,028
-687,583	-200,000	0,007	0,070
-686,568	-29,461	0,024	0,010
-685,554	423,546	0,067	0,105
-684,539	-3,935	0,122	0,061
-683,524	-7,365	-0,130	-0,063
-682,510	23,370	0,058	-0,034
-681,495	122,634	-0,081	-0,073
-680,481	-21,978	-0,048	-0,021
-679,466	113,738	-0,066	0,058
-678,451	-67,297	-0,145	0,041
-677,437	-153,882	-0,125	-0,006
-676,422	800,000	0,045	0,092
-675,408	800,000	0,064	-0,198
-674,393	800,000	-0,030	0,062
-673,378	95,029	-0,062	0,051
-672,364	-200,000	0,003	-0,128
-671,349	800,000	-0,072	-0,155
-670,335	373,885	0,068	0,100
-669,320	164,517	-0,035	-0,035
-668,305	48,481	0,122	0,083
-667,291	53,882	-0,130	-0,090
-666,276	-200,000	0,028	-0,092
-665,262	-200,000	-0,001	0,025
-664,247	388,758	-0,042	-0,063
-663,232	-200,000	-0,021	-0,123
-662,218	-200,000	0,034	0,223
-661,203	217,075	0,085	0,098
-660,189	-107,632	-0,145	-0,023
-659,174	51,757	-0,092	0,063
-658,159	-31,872	0,119	0,048
-657,145	11,478	-0,181	-0,100
-656,130	-113,026	-0,198	0,028
-655,116	-200,000	-0,001	-0,003
-654,101	0,166	-0,152	-0,078
-653,086	-54,800	0,056	-0,018
-652,072	-200,000	0,018	-0,065
-651,057	54,480	0,137	-0,095
-650,043	-51,556	-0,070	-0,023
-649,028	674,357	-0,010	-0,019
-648,014	308,389	-0,043	0,058
-646,999	-39,616	-0,055	0,021
-645,984	-200,000	0,000	0,027
-644,970	126,723	-0,038	0,035
-643,955	126,271	-0,041	0,037
-642,941	-43,367	-0,128	-0,046
-641,926	143,492	-0,041	-0,040
-640,911	-86,643	-0,092	0,020
-639,897	-139,918	0,100	0,007
-638,882	99,819	-0,043	0,036
-637,868	800,000	0,023	-0,058
-636,853	158,019	-0,183	-0,183
-635,838	-14,426	0,010	-0,004
-634,824	2,654	-0,063	0,033
-633,809	-200,000	-0,008	0,028
-632,795	-200,000	-0,010	0,069
-631,780	800,000	-0,017	-0,051
-630,765	800,000	0,039	-0,079
-629,751	31,229	-0,106	-0,065
-628,736	-200,000	0,005	0,088
-627,722	-200,000	-0,003	0,140
-626,707	-120,729	-0,110	-0,013
-625,692	113,537	0,066	-0,058
-624,678	-117,150	0,151	-0,020
-623,663	71,698	-0,084	0,063
-622,649	98,087	-0,162	-0,134
-621,634	-39,057	0,047	-0,018
-620,619	800,000	0,082	0,180
-619,605	-200,000	-0,007	-0,045
-618,590	800,000	-0,088	0,188
-617,576	34,978	0,073	-0,046
-616,561	-200,000	0,043	-0,169
-615,546	34,782	0,027	0,017
-614,532	-200,000	-0,034	-0,144
-613,517	800,000	0,031	0,062
-612,503	422,384	0,037	-0,058
-611,488	-16,124	0,150	-0,069
-610,474	-75,230	0,086	-0,022
-609,459	800,000	-0,016	-0,043
-608,444	-200,000	0,027	-0,252
-607,430	-30,764	-0,176	0,071
-606,415	54,689	0,018	0,013
-605,401	800,000	-0,069	0,206
-604,386	-200,000	-0,007	0,131
-603,371	-200,000	0,011	0,057
-602,357	59,921	-0,164	-0,117
-601,342	-200,000	-0,026	-0,115
-600,328	0,691	-0,054	0,028
-599,313	-31,913	-0,076	-0,031
-598,298	285,249	-0,064	-0,084
-597,284	31,585	0,034	-0,021
-596,269	-200,000	0,006	0,030
-595,255	87,116	-0,119	0,095
-594,240	-200,000	0,013	0,165
-593,225	-200,000	-0,022	-0,112
-592,211	74,219	-0,055	-0,042
-591,196	-200,000	0,015	-0,075
-590,182	243,372	-0,051	0,062
-589,167	-200,000	-0,021	0,088
-588,152	-75,680	-0,128	-0,033
-587,138	800,000	0,048	-0,103
-586,123	-200,000	0,013	-0,095
-585,109	-8,212	-0,019	-0,009
-584,094	-46,549	-0,101	-0,035
-583,079	800,000	-0,015	0,045
-582,065	321,779	-0,036	0,050
-581,050	-200,000	-0,005	0,042
-580,036	265,679	-0,091	-0,114
-579,021	52,944	-0,167	-0,115
-578,006	178,006	-0,053	0,056
-576,992	194,352	-0,029	0,032
-575,977	415,900	-0,045	0,069
-574,963	-200,000	0,005	0,032
-573,948	-137,093	-0,123	-0,010
-572,934	-77,752	0,023	-0,006
-571,919	-200,000	-0,008	-0,124
-570,904	-200,000	-0,006	-0,046
-569,890	-11,037	0,084	0,040
-568,875	350,205	-0,041	0,059
-567,861	100,964	0,047	-0,039
-566,846	-75,603	0,071	-0,018
-565,831	296,663	0,030	-0,040
-564,817	36,198	0,109	-0,069
-563,802	-84,973	-0,179	-0,040
-562,788	0,671	0,169	0,087
-561,773	-200,000	-0,044	-0,143
-560,758	-129,210	0,103	0,010
-559,744	32,112	0,091	-0,056
-558,729	545,825	-0,058	-0,100
-557,715	-100,555	0,081	0,014
-556,700	-130,596	-0,077	-0,007
-555,685	-110,101	0,121	-0,018
-554,671	33,953	-0,086	-0,054
-553,656	-157,289	0,200	-0,009
-552,642	-173,759	0,110	0,002
-551,627	64,222	-0,071	0,052
-550,612	155,623	-0,061	0,061
-549,598	-51,953	-0,086	0,029
-548,583	800,000	-0,019	-0,041
-547,569	-200,000	-0,011	-0,178
-546,554	-69,578	0,141	-0,039
-545,539	-200,000	-0,005	-0,083
-544,525	106,908	0,039	-0,033
-543,510	66,939	-0,117	0,086
-542,496	-200,000	0,018	-0,087
-541,481	-111,065	0,055	0,008
-540,466	53,913	0,051	0,035
-539,452	156,381	-0,057	-0,056
-538,437	28,307	0,121	0,073
-537,423	800,000	0,050	0,101
-536,408	-200,000	0,024	0,142
-535,393	679,998	-0,070	-0,131
-534,379	-18,142	-0,050	0,023
-533,364	140,239	0,062	-0,059
-532,350	247,239	-0,007	-0,008
-531,335	-59,369	0,108	-0,033
-530,321	-18,686	-0,128	0,057
-529,306	4,992	-0,122	0,065
-528,291	-200,000	0,020	-0,175
-527,277	195,385	-0,041	-0,045
-526,262	800,000	-0,052	-0,125
-525,248	-67,211	0,094	0,026
-524,233	-200,000	0,002	0,064
-523,218	221,492	-0,097	0,113
-522,204	-73,486	-0,069	0,018
-521,189	-13,089	0,030	-0,014
-520,175	84,482	-0,120	-0,094
-519,160	564,932	-0,098	-0,171
-518,145	16,004	-0,126	0,071
-517,131	310,913	0,093	0,126
-516,116	-137,692	-0,109	0,009
-515,102	-200,000	0,004	0,031
-514,087	800,000	-0,054	-0,114
-513,072	60,685	-0,033	0,023
-512,058	13,782	-0,051	-0,029
-511,043	-10,073	0,073	-0,035
-510,029	142,414	0,032	0,030
-509,014	232,696	0,038	0,045
-507,999	-16,301	-0,030	0,014
-506,985	-109,205	-0,047	0,007
-505,970	-200,000	0,018	-0,123
-504,956	800,000	-0,054	-0,146
-503,941	-70,766	0,109	-0,029
-502,926	800,000	0,050	-0,144
-501,912	101,168	0,109	-0,091
-500,897	452,680	0,050	0,080
-499,883	800,000	-0,010	-0,031
-498,868	256,260	-0,072	-0,089
-497,853	-94,485	-0,107	0,021
-496,839	-160,838	0,087	-0,003
-495,824	-128,443	-0,143	-0,014
-494,810	800,000	0,034	0,097
-493,795	156,953	0,115	0,114
-492,781	20,492	0,039	0,022
-491,766	-81,043	-0,130	0,031
-490,751	-26,209	-0,190	-0,080
-489,737	-80,708	0,079	-0,019
-488,722	-200,000	-0,005	-0,023
-487,708	80,701	-0,062	0,048
-486,693	800,000	0,071	0,199
-485,678	-200,000	-0,009	0,061
-484,664	800,000	-0,022	0,060
-483,649	800,000	-0,080	-0,170
-482,635	160,216	0,061	-0,062
-481,620	251,865	-0,024	0,030
-480,605	398,269	-0,054	-0,082
-479,591	435,259	-0,059	0,093
-478,576	-24,567	-0,177	-0,075
-477,562	-36,313	-0,046	0,018
-476,547	-200,000	0,002	-0,023
-475,532	-200,000	-0,014	0,054
-474,518	-1,389	-0,085	0,043
-473,503	-200,000	-0,020	-0,145
-472,489	265,449	0,068	0,086
-471,474	800,000	0,028	0,068
-470,459	-20,123	0,147	0,065
-469,445	-200,000	0,011	-0,038
-468,430	-200,000	-0,000	0,091
-467,416	-41,011	-0,049	-0,018
-466,401	-156,485	-0,074	-0,003
-465,386	51,086	0,114	-0,077
-464,372	-200,000	0,003	-0,056
-463,357	166,088	-0,083	0,084
-462,343	400,633	-0,049	-0,074
-461,328	-58,967	-0,096	-0,030
-460,313	119,224	0,029	0,026
-459,299	-195,372	0,054	-0,000
-458,284	800,000	-0,033	0,077
-457,270	-200,000	0,000	-0,019
-456,255	-76,414	0,030	0,008
-455,241	-200,000	-0,009	-0,119
-454,226	-200,000	-0,008	-0,026
-453,211	800,000	0,023	0,072
-452,197	243,646	-0,124	0,150
-451,182	-200,000	0,001	0,068
-450,168	305,127	0,092	0,122
-449,153	800,000	-0,042	0,089
-448,138	-200,000	-0,020	0,163
-447,124	-200,000	0,001	-0,045
-446,109	-192,087	0,144	0,001
-445,095	37,162	0,063	-0,040
-444,080	62,787	0,098	-0,070
-443,065	-200,000	0,008	0,039
-442,051	-50,877	0,097	-0,032
-441,036	486,907	-0,076	-0,124
-440,022	800,000	0,044	-0,089
-439,007	369,170	-0,031	-0,045
-437,992	432,976	0,015	0,024
-436,978	-200,000	0,001	-0,023
-435,963	-144,916	0,032	0,002
-434,949	-200,000	-0,009	-0,051
-433,934	-70,747	-0,071	-0,019
-432,919	800,000	-0,020	0,044
-431,905	-50,681	0,071	-0,024
-430,890	755,741	0,039	0,076
-429,876	10,918	0,070	-0,038
-428,861	-12,965	0,103	-0,048
-427,846	-150,187	0,160	0,009
-426,832	12,526	-0,036	-0,020
-425,817	800,000	0,046	-0,131
-424,803	95,248	0,105	0,086
-423,788	134,107	0,048	-0,045
-422,773	-75,321	0,037	0,009
-421,759	800,000	-0,029	0,070
-420,744	-71,618	0,038	0,010
-419,730	280,254	-0,038	0,049
-418,715	-79,930	0,070	-0,017
-417,701	-52,856	-0,084	0,027
-416,686	-80,446	0,166	0,039
-415,671	264,601	-0,037	0,047
-414,657	-158,277	0,064	0,003
-413,642	207,815	-0,056	0,063
-412,628	-200,000	0,004	0,012
-411,613	-20,378	-0,225	0,099
-410,598	362,495	-0,031	0,045
-409,584	800,000	0,061	0,138
-408,569	800,000	0,055	-0,118
-407,555	800,000	0,042	0,089
-406,540	-200,000	0,005	0,077
-405,525	26,028	-0,069	0,041
-404,511	-24,030	-0,052	-0,022
-403,496	32,006	0,086	-0,053
-402,482	61,604	-0,039	-0,028
-401,467	-34,974	0,065	0,025
-400,452	-200,000	0,002	0,149
-399,438	-61,303	0,191	-0,057
-398,423	-128,721	-0,119	-0,012
-397,409	42,394	-0,064	-0,041
-396,394	251,864	-0,034	0,042
-395,379	424,715	0,044	0,068
-394,365	466,074	-0,012	0,019
-393,350	-200,000	0,015	0,056
-392,336	-200,000	0,010	0,117
-391,321	-140,678	0,083	-0,006
-390,306	-55,225	-0,202	0,065
-389,292	-41,391	-0,058	-0,021
-388,277	116,072	0,109	0,095
-387,263	-200,000	0,010	0,191
-386,248	377,257	-0,063	0,092
-385,233	-18,361	0,123	0,055
-384,219	-34,580	0,107	0,042
-383,204	-200,000	0,011	0,045
-382,190	800,000	0,052	0,139
-381,175	-200,000	-0,027	-0,115
-380,160	148,324	0,079	0,077
-379,146	-200,000	0,012	0,135
-378,131	-107,277	-0,104	0,016
-377,117	82,929	-0,027	-0,021
-376,102	209,053	-0,077	-0,086
-375,088	190,737	-0,019	0,020
-374,073	-200,000	0,013	0,047
-373,058	153,727	0,061	0,060
-372,044	245,885	-0,091	-0,110
-371,029	-120,322	-0,012	0,002
-370,015	-95,808	0,086	-0,016
-369,000	255,836	-0,045	0,056
-367,985	800,000	-0,065	-0,170
-366,971	120,621	-0,077	-0,068
-365,956	-200,000	-0,002	0,127
-364,942	800,000	0,008	0,019
-363,927	0,890	0,106	0,054
-362,912	-200,000	0,009	-0,037
-361,898	520,240	0,017	-0,028
-360,883	-200,000	-0,004	-0,121
-359,869	589,226	0,072	-0,127
-358,854	-70,540	0,081	-0,022
-357,839	-21,680	-0,047	-0,020
-356,825	-200,000	-0,007	0,085
-355,810	22,621	-0,031	0,018
-354,796	-134,285	0,110	0,009
-353,781	82,044	-0,041	-0,031
-352,766	377,330	-0,032	0,048
-351,752	215,520	0,149	0,169
-350,737	-137,990	-0,117	-0,009
-349,723	-56,288	0,056	-0,018
-348,708	133,641	0,083	0,077
-347,693	134,618	0,065	0,061
-346,679	-200,000	-0,004	-0,022
-345,664	234,197	-0,088	-0,103
-344,650	-200,000	0,042	-0,190
-343,635	800,000	0,037	0,084
-342,620	239,944	0,083	0,099
-341,606	-74,031	0,097	-0,025
-340,591	-131,891	-0,086	-0,008
-339,577	72,892	-0,050	-0,037
-338,562	137,787	-0,043	0,040
-337,548	155,552	-0,030	0,030
-336,533	-175,114	0,066	0,001
-335,518	62,450	-0,088	-0,063
-334,504	286,805	0,084	0,109
-333,489	167,640	0,098	0,099
-332,475	598,645	-0,055	-0,097
-331,460	118,838	-0,089	0,078
-330,445	800,000	-0,052	0,128
-329,431	-41,724	0,125	0,046
-328,416	236,946	0,076	-0,090
-327,402	441,181	0,070	0,110
-326,387	-200,000	-0,021	-0,097
-325,372	490,733	0,110	-0,180
-324,358	-200,000	0,003	0,020
-323,343	60,634	0,124	0,088
-322,329	-200,000	0,007	0,043
-321,314	-200,000	0,033	-0,170
-320,299	37,624	0,009	0,006
-319,285	127,998	0,089	-0,080
-318,270	-75,834	0,034	-0,009
-317,256	-97,085	-0,047	-0,009
-316,241	488,443	-0,012	-0,020
-315,226	154,719	0,067	-0,065
-314,212	69,276	0,157	0,115
-313,197	131,697	0,106	0,097
-312,183	27,873	0,060	-0,036
-311,168	538,814	-0,034	0,058
-310,153	125,953	0,071	0,064
-309,139	800,000	-0,018	-0,040
-308,124	800,000	0,027	0,079
-307,110	-76,143	-0,066	-0,016
-306,095	39,728	0,037	0,023
-305,080	-200,000	0,006	0,058
-304,066	-200,000	-0,022	-0,110
-303,051	56,790	-0,095	0,065
-302,037	800,000	-0,042	-0,118
-301,022	800,000	0,062	0,135
-300,008	-200,000	0,017	0,074
-298,993	-32,158	0,069	0,027
-297,978	47,845	-0,080	0,053
-296,964	620,424	0,016	-0,029
-295,949	-75,279	-0,192	-0,048
-294,935	800,000	-0,015	-0,041
-293,920	-113,121	-0,120	0,017
-292,905	25,355	-0,052	0,030
-291,891	-200,000	-0,003	0,021
-290,876	-200,000	-0,031	0,244
-289,862	800,000	0,061	-0,137
-288,847	176,573	-0,138	-0,143
-287,832	250,828	0,048	-0,058
-286,818	-200,000	-0,001	-0,089
-285,803	37,649	0,015	0,009
-284,789	670,454	0,045	0,083
-283,774	498,593	0,048	0,079
-282,759	-200,000	0,007	-0,142
-281,745	-141,907	-0,048	-0,003
-280,730	24,287	0,088	0,051
-279,716	-200,000	-0,003	-0,024
-278,701	-79,523	-0,058	0,014
-277,686	-1,550	0,267	-0,133
-276,672	31,625	0,094	0,057
-275,657	800,000	-0,025	0,066
-274,643	675,169	-0,036	-0,067
-273,628	126,707	-0,038	-0,034
-272,613	686,856	0,068	0,127
-271,599	299,112	0,008	0,011
-270,584	-200,000	-0,019	0,063
-269,570	352,918	0,063	0,089
-268,555	272,470	0,094	0,118
-267,540	30,508	-0,051	-0,031
-266,526	-200,000	0,003	-0,065
-265,511	117,729	-0,045	-0,039
-264,497	54,351	0,088	0,060
-263,482	-42,498	0,058	0,021
-262,467	248,774	-0,041	0,049
-261,453	49,415	-0,010	0,007
-260,438	800,000	-0,036	0,091
-259,424	-163,816	-0,023	0,001
-258,409	-159,421	0,135	-0,005
-257,395	-200,000	0,003	0,031
-256,380	41,511	-0,082	-0,053
-255,365	238,402	0,129	0,152
-254,351	-200,000	-0,014	0,109
-253,336	199,353	-0,068	-0,074
-252,322	48,768	-0,077	-0,051
-251,307	800,000	-0,029	0,079
-250,292	-87,744	0,079	-0,017
-249,278	366,183	-0,056	0,080
-248,263	515,592	-0,039	0,065
-247,249	-200,000	-0,006	0,171
-246,234	110,305	-0,080	-0,069
-245,219	-152,272	-0,105	0,005
-244,205	484,647	-0,064	-0,104
-243,190	-200,000	0,002	0,017
-242,176	-150,323	-0,089	-0,005
-241,161	800,000	0,020	0,059
-240,146	681,818	0,048	-0,090
-239,132	-161,309	-0,077	0,003
-238,117	549,464	-0,002	-0,004
-237,103	321,928	-0,107	-0,145
-236,088	800,000	0,025	0,055
-235,073	-200,000	0,020	0,154
-234,059	-139,445	-0,050	-0,004
-233,044	358,687	0,068	-0,097
-232,030	-62,105	0,034	-0,010
-231,015	-61,643	-0,085	-0,025
-230,000	800,000	0,044	-0,093
-228,986	134,914	0,048	-0,044
-227,971	735,024	-0,019	0,037
-226,957	800,000	-0,044	0,131
-225,942	-200,000	0,014	0,093
-224,927	-145,408	0,069	-0,004
-223,913	132,300	-0,057	0,052
-222,898	283,723	-0,044	0,056
-221,884	-134,066	0,072	-0,006
-220,869	-200,000	0,018	-0,089
-219,855	-91,941	-0,096	-0,019
-218,840	695,749	-0,021	-0,040
-217,825	-104,732	0,117	-0,019
-216,811	-200,000	-0,010	-0,101
-215,796	800,000	-0,068	-0,151
-214,782	-25,411	0,036	-0,015
-213,767	800,000	0,027	-0,073
-212,752	-200,000	0,044	-0,146
-211,738	-16,490	0,054	0,024
-210,723	342,081	0,070	-0,097
-209,709	-71,332	-0,073	-0,019
-208,694	-89,395	-0,009	0,002
-207,679	-35,679	-0,136	0,052
-206,665	228,929	0,092	0,107
-205,650	-200,000	0,002	0,037
-204,636	209,957	0,075	-0,083
-203,621	291,609	0,031	-0,041
-202,606	-167,308	0,077	-0,002
-201,592	245,250	-0,023	-0,027
-200,577	-200,000	0,005	0,053
-199,563	800,000	-0,032	-0,097
-198,548	27,824	0,104	0,062
-197,533	-107,144	0,120	-0,019
-196,519	90,394	-0,078	-0,062
-195,504	-129,804	-0,050	-0,005
-194,490	-49,875	-0,105	-0,035
-193,475	-200,000	-0,015	-0,161
-192,460	-125,594	0,069	-0,007
-191,446	800,000	0,049	0,111
-190,431	-51,057	0,231	0,076
-189,417	639,268	0,067	-0,122
-188,402	-69,222	0,083	0,023
-187,387	-37,406	0,140	-0,053
-186,373	-149,145	0,069	0,004
-185,358	-200,000	0,007	-0,079
-184,344	67,939	0,041	-0,030
-183,329	-200,000	-0,010	-0,045
-182,315	10,745	-0,093	-0,050
-181,300	-200,000	-0,062	-0,198
-180,285	800,000	-0,035	-0,089
-179,271	432,632	-0,029	0,045
-178,256	-200,000	0,026	-0,135
-177,242	104,567	0,070	-0,059
-176,227	584,841	-0,050	0,087
-175,212	-7,301	-0,047	0,022
-174,198	255,890	-0,029	-0,035
-173,183	38,277	-0,104	0,066
-172,169	-200,000	-0,059	-0,184
-171,154	-200,000	-0,013	-0,075
-170,139	-200,000	0,011	0,050
-169,125	800,000	-0,043	0,121
-168,110	177,900	0,076	0,079
-167,096	-100,055	0,079	0,014
-166,081	800,000	-0,030	-0,089
-165,066	98,658	-0,058	-0,048
-164,052	449,068	-0,030	0,048
-163,037	-63,186	0,139	0,040
-162,023	-200,000	0,039	0,136
-161,008	-101,688	0,131	-0,022
-159,993	526,539	-0,067	-0,112
-158,979	444,052	-0,046	0,071
-157,964	-200,000	0,012	-0,065
-156,950	-138,517	-0,109	-0,008
-155,935	800,000	-0,050	0,105
-154,920	-7,087	-0,022	0,010
-153,906	800,000	0,058	0,132
-152,891	-55,241	-0,037	-0,012
-151,877	199,536	0,073	-0,080
-150,862	-134,667	-0,135	0,011
-149,847	-200,000	-0,016	-0,061
-148,833	65,774	0,079	0,057
-147,818	-200,000	0,031	-0,125
-146,804	25,630	0,056	0,033
-145,789	-161,092	0,092	-0,003
-144,775	-10,555	-0,058	0,027
-143,760	-200,000	0,013	-0,097
-142,745	402,190	-0,100	-0,150
-141,731	800,000	-0,012	0,031
-140,716	-28,863	0,112	0,045
-139,702	800,000	-0,061	0,122
-138,687	-200,000	0,015	0,093
-137,672	24,074	-0,136	0,079
-136,658	-149,262	-0,091	-0,005
-135,643	-32,329	0,091	-0,036
-134,629	-82,127	-0,025	0,006
-133,614	-32,243	-0,066	-0,026
-132,599	17,039	-0,089	0,050
-131,585	800,000	-0,017	0,052
-130,570	68,353	-0,051	-0,037
-129,556	-200,000	-0,023	0,092
-128,541	-200,000	0,025	0,094
-127,526	-77,668	-0,134	-0,033
-126,512	80,736	0,035	0,027
-125,497	-88,451	0,150	-0,031
-124,483	-113,319	0,092	0,013
-123,468	-131,941	-0,132	-0,012
-122,453	41,982	-0,052	0,033
-121,439	33,428	0,101	0,062
-120,424	354,633	-0,069	0,097
-119,410	-10,231	-0,132	-0,062
-118,395	-21,104	0,091	0,039
-117,380	-54,505	0,058	-0,019
-116,366	243,412	0,077	-0,092
-115,351	-37,004	-0,178	0,067
-114,337	100,767	0,032	-0,027
-113,322	102,332	-0,053	-0,044
-112,307	112,793	0,037	0,032
-111,293	-27,819	0,105	-0,043
-110,278	4,719	0,136	-0,071
-109,264	658,593	-0,054	-0,100
-108,249	-200,000	-0,034	0,193
-107,234	34,955	-0,021	-0,013
-106,220	-23,819	-0,032	-0,013
-105,205	160,861	0,030	-0,030
-104,191	618,518	-0,026	0,047
-103,176	125,949	0,069	0,062
-102,162	683,496	0,027	0,049
-101,147	-200,000	-0,001	-0,032
-100,132	-126,769	-0,100	-0,010
-99,118	179,243	-0,050	-0,052
-98,103	-200,000	-0,006	0,029
-97,089	-200,000	-0,005	0,111
-96,074	-33,680	0,032	-0,012
-95,059	-69,229	-0,044	0,012
-94,045	273,355	-0,041	-0,051
-93,030	-200,000	0,006	-0,044
-92,016	65,641	-0,058	-0,041
-91,001	-59,603	0,050	-0,015
-89,986	-70,105	0,071	0,019
-88,972	638,950	-0,039	-0,070
-87,957	-200,000	0,024	0,077
-86,943	33,425	0,092	-0,056
-85,928	-200,000	-0,010	0,061
-84,913	800,000	0,035	-0,084
-83,899	-200,000	0,003	0,076
-82,884	122,884	-0,013	0,011
-81,870	-28,632	-0,069	-0,028
-80,855	249,603	0,039	0,047
-79,840	-51,570	0,097	-0,032
-78,826	196,342	0,176	0,190
-77,811	-200,000	0,020	-0,091
-76,797	-157,702	0,029	-0,001
-75,782	-3,696	-0,041	0,020
-74,767	-5,404	0,178	-0,086
-73,753	-36,011	-0,099	0,038
-72,738	-200,000	-0,004	0,062
-71,724	271,875	-0,015	-0,019
-70,709	316,990	-0,056	0,075
-69,694	800,000	0,025	-0,055
-68,680	-200,000	0,043	0,234
-67,665	54,785	0,171	0,116
-66,651	-200,000	-0,016	0,066
-65,636	18,142	0,034	-0,019
-64,622	505,375	-0,020	-0,033
-63,607	-9,453	0,149	-0,070
-62,592	20,532	0,022	-0,013
-61,578	-8,994	0,102	-0,048
-60,563	-200,000	0,027	0,110
-59,549	114,160	-0,050	-0,043
-58,534	34,508	-1,980	-1,218
-57,519	458,390	-1,193	-1,880
-56,505	-200,000	-0,340	-4,398
-55,490	515,474	0,939	1,553
-54,476	800,000	5,029	11,445
-53,461	-200,000	21,742	344,440
-52,446	800,000	763,336	2347,835
-51,432	548,849	1662,249	2821,223
-50,417	71,667	1658,169	1214,414
-49,403	17,255	1531,899	855,362
-48,388	11,305	1455,581	784,015
-47,373	19,451	1447,378	818,593
-46,359	14,865	1436,329	790,543
-45,344	9,634	1431,926	763,226
-44,330	9,579	1430,304	762,069
-43,315	9,504	1428,531	760,735
-42,300	9,534	1426,610	759,827
-41,286	9,594	1425,351	759,407
-40,271	9,509	1424,142	758,331
-39,257	9,547	1423,063	757,907
-38,242	9,613	1421,943	757,593
-37,227	9,547	1420,899	756,694
-36,213	9,567	1419,688	756,116
-35,198	9,621	1418,422	755,663
-34,184	9,630	1417,243	755,050
-33,169	9,510	1416,225	753,910
-32,154	9,574	1415,125	753,595
-31,140	9,571	1413,825	752,860
-30,125	9,629	1412,624	752,465
-29,111	9,590	1411,545	751,676
-28,096	9,554	1410,385	750,860
-27,082	9,539	1409,034	750,042
-26,067	9,493	1407,979	749,235
-25,052	9,503	1407,006	748,733
-24,038	9,564	1405,988	748,446
-23,023	9,485	1405,145	747,599
-22,009	9,489	1404,134	747,050
-20,994	9,511	1403,084	746,567
-19,979	9,539	1402,217	746,205
-18,965	9,498	1401,270	745,477
-17,950	9,506	1400,362	745,005
-16,936	9,422	1399,619	744,190
-15,921	9,424	1398,500	743,574
-14,906	9,441	1397,640	743,164
-13,892	9,471	1396,635	742,741
-12,877	9,454	1395,811	742,196
-11,863	9,459	1395,020	741,769
-10,848	9,415	1393,903	740,942
-9,833	9,361	1393,181	740,277
-8,819	9,324	1392,249	739,580
-7,804	9,331	1391,404	739,133
-6,790	9,338	1390,178	738,488
-5,775	9,304	1389,450	737,914
-4,760	9,343	1388,390	737,503
-3,746	9,381	1387,379	737,110
-2,731	9,341	1386,485	736,422
-1,717	9,317	1385,794	735,915
-0,702	9,348	1383,902	735,022
0,313	13,427	1295,982	706,926
1,327	29,502	687,034	411,052
2,342	46,094	118,539	77,262
3,356	1,239	16,465	8,310
4,371	-7,464	3,722	1,770
5,386	-7,569	1,184	0,562
6,400	-200,000	0,142	0,607
7,415	-65,961	-0,320	-0,089
8,429	145,862	-0,201	-0,190
9,444	88,129	-0,305	-0,239
10,459	-5,458	-0,291	-0,140
11,473	9,458	-0,211	-0,112
12,488	-45,646	-0,229	-0,079
13,502	41,107	-0,329	-0,209
14,517	43,448	-0,390	-0,250
15,531	97,061	-0,279	-0,225
16,546	16,596	-0,423	-0,235
17,561	91,602	-0,363	-0,287
18,575	-2,282	-0,162	-0,080
19,590	800,000	-0,135	-0,264
20,604	175,688	-0,227	-0,232
21,619	169,828	-0,415	-0,417
22,634	128,138	-0,414	-0,371
23,648	165,332	-0,403	-0,402
24,663	154,984	-0,403	-0,390
25,677	258,056	-0,252	-0,306
26,692	-47,569	-0,297	-0,101
27,707	-84,885	-0,364	-0,080
28,721	169,616	-0,369	-0,371
29,736	107,940	-0,400	-0,335
30,750	48,881	-0,448	-0,295
31,765	81,222	-0,370	-0,281
32,780	93,423	-0,376	-0,299
33,794	151,541	-0,278	-0,266
34,809	12,892	-0,268	-0,145
35,823	47,998	-0,396	-0,260
36,838	184,639	-0,279	-0,291
37,853	216,723	-0,411	-0,460
38,867	62,597	-0,444	-0,311
39,882	455,229	-0,223	-0,348
40,896	89,275	-0,320	-0,250
41,911	-54,029	-0,464	-0,147
42,926	19,341	-0,373	-0,210
43,940	41,697	-0,384	-0,244
44,955	-57,402	-0,391	-0,120
45,969	66,874	-0,309	-0,221
46,984	48,932	-0,359	-0,236
47,999	138,912	-0,268	-0,247
49,013	7,329	-0,366	-0,191
50,028	86,573	-0,391	-0,303
51,042	-58,852	-0,253	-0,076
52,057	44,454	-0,441	-0,284
53,071	328,024	-0,231	-0,312
54,086	-56,525	-0,378	-0,117
55,101	9,343	-0,307	-0,163
56,115	-23,274	-0,389	-0,164
57,130	-162,020	-0,358	0,012
58,144	50,520	-0,369	-0,245
59,159	8,169	-0,345	-0,181
60,174	131,860	-0,299	-0,270
61,188	-75,493	-0,268	-0,067
62,203	-50,903	-0,386	-0,127
63,217	289,699	-0,185	-0,236
64,232	-86,384	-0,388	-0,083
65,247	-23,970	-0,431	-0,180
66,261	103,457	-0,249	-0,205
67,276	166,232	-0,424	-0,422
68,290	135,060	-0,280	-0,255
69,305	169,693	-0,313	-0,313
70,320	-76,222	-0,220	-0,054
71,334	-26,102	-0,345	-0,142
72,349	72,123	-0,292	-0,212
73,363	98,570	-0,370	-0,299
74,378	65,416	-0,274	-0,194
75,393	-28,626	-0,424	-0,170
76,407	40,734	-0,305	-0,192
77,422	-69,594	-0,292	-0,078
78,436	73,055	-0,293	-0,214
79,451	11,885	-0,243	-0,130
80,466	-143,487	-0,246	-0,016
81,480	264,146	-0,253	-0,309
82,495	19,605	-0,345	-0,194
83,509	214,681	-0,167	-0,185
84,524	28,822	-0,215	-0,127
85,539	20,233	-0,336	-0,189
86,553	-88,863	-0,335	0,069
87,568	190,230	-0,226	-0,238
88,582	56,516	-0,325	-0,221
89,597	226,769	-0,252	-0,287
90,611	-66,980	-0,279	-0,076
91,626	-200,000	-0,062	-0,221
92,641	-11,788	-0,299	-0,137
93,655	12,945	-0,379	-0,204
94,670	-47,956	-0,285	-0,096
95,684	135,085	-0,219	-0,199
96,699	428,172	-0,180	-0,272
97,714	584,253	-0,180	-0,311
98,728	65,916	-0,188	-0,133
99,743	257,170	-0,156	-0,188
100,757	26,989	-0,286	-0,167
101,772	59,743	-0,275	-0,189
102,787	67,875	-0,356	-0,254
103,801	-53,332	-0,324	-0,103
104,816	296,675	-0,159	-0,205
105,830	160,731	-0,167	-0,163
106,845	-112,408	-0,347	-0,048
107,860	-81,921	-0,314	-0,071
108,874	-14,506	-0,360	-0,161
109,889	97,108	-0,214	-0,171
110,903	-98,276	-0,230	-0,041
111,918	-59,481	-0,397	-0,118
112,933	385,678	-0,151	-0,218
113,947	91,802	-0,248	-0,195
114,962	-23,284	-0,167	-0,070
115,976	137,898	-0,406	-0,372
116,991	346,698	-0,212	-0,291
118,006	162,217	-0,198	-0,194
119,020	38,459	-0,333	-0,207
120,035	631,271	-0,106	-0,188
121,049	-49,323	-0,195	-0,064
122,064	6,537	-0,179	-0,093
123,079	281,211	-0,184	-0,230
124,093	434,122	-0,171	-0,261
125,108	148,933	-0,216	-0,204
126,122	70,383	-0,232	-0,167
127,137	-49,580	-0,267	-0,088
128,151	138,356	-0,154	-0,141
129,166	-108,597	-0,265	-0,039
130,181	-4,480	-0,308	-0,148
131,195	199,339	-0,225	-0,241
132,210	146,679	-0,244	-0,229
133,224	348,806	-0,148	-0,204
134,239	16,889	-0,257	-0,141
135,254	340,394	-0,091	-0,124
136,268	125,928	-0,215	-0,189
137,283	56,179	-0,294	-0,199
138,297	74,412	-0,283	-0,207
139,312	323,986	-0,182	-0,243
140,327	-83,751	-0,178	-0,039
141,341	82,440	-0,249	-0,188
142,356	99,560	-0,270	-0,218
143,370	372,635	-0,103	-0,147
144,385	183,029	-0,251	-0,258
145,400	174,157	-0,225	-0,227
146,414	-25,923	-0,229	-0,094
147,429	181,961	-0,218	-0,223
148,443	50,812	-0,246	-0,162
149,458	-106,204	-0,293	0,045
150,473	-97,248	-0,253	0,046
151,487	594,236	-0,171	-0,296
152,502	164,616	-0,170	-0,167
153,516	177,072	-0,228	-0,232
154,531	324,095	-0,181	-0,241
155,546	271,878	-0,248	-0,304
156,560	800,000	-0,067	-0,130
157,575	528,385	-0,080	-0,131
158,589	69,553	-0,140	-0,100
159,604	-200,000	-0,080	-0,260
160,619	175,733	-0,290	-0,293
161,633	199,557	-0,261	-0,278
162,648	-65,291	-0,178	-0,049
163,662	64,687	-0,173	-0,121
164,677	63,706	-0,233	-0,163
165,692	40,586	-0,245	-0,153
166,706	14,253	-0,225	-0,122
167,721	189,896	-0,210	-0,219
168,735	36,109	-0,285	-0,174
169,750	64,730	-0,136	-0,095
170,764	135,650	-0,167	-0,151
171,779	62,135	-0,176	-0,122
172,794	-21,952	-0,137	-0,058
173,808	-86,850	-0,299	-0,063
174,823	-62,418	-0,190	-0,055
175,837	12,345	-0,292	-0,156
176,852	171,958	-0,218	-0,218
177,867	15,423	-0,179	-0,097
178,881	800,000	-0,075	-0,153
179,896	-30,539	-0,216	-0,085
180,910	493,619	-0,114	-0,183
181,925	116,665	-0,287	-0,245
182,940	103,670	-0,297	-0,242
183,954	125,002	-0,300	-0,263
184,969	-4,150	-0,203	-0,097
185,983	233,334	-0,073	-0,084
186,998	133,499	-0,071	-0,063
188,013	301,312	-0,134	-0,172
189,027	369,511	-0,206	-0,290
190,042	157,827	-0,290	-0,279
191,056	20,465	-0,322	-0,180
192,071	228,995	-0,179	-0,202
193,086	72,860	-0,112	-0,081
194,100	93,897	-0,205	-0,161
195,115	173,262	-0,251	-0,251
196,129	-39,327	-0,234	-0,085
197,144	49,569	-0,193	-0,126
198,159	-24,409	-0,289	-0,119
199,173	800,000	-0,071	-0,161
200,188	48,214	-0,236	-0,152
201,202	800,000	-0,077	-0,189
202,217	-116,597	-0,249	0,031
203,232	-128,301	-0,317	-0,031
204,246	250,674	-0,175	-0,206
205,261	177,556	-0,155	-0,157
206,275	262,770	-0,092	-0,111
207,290	489,509	-0,164	-0,261
208,304	800,000	-0,088	-0,177
209,319	-141,348	-0,271	0,019
210,334	-30,633	-0,155	-0,060
211,348	800,000	-0,068	-0,190
212,363	89,128	-0,132	-0,101
213,377	175,267	-0,245	-0,246
214,392	139,261	-0,196	-0,179
215,407	-147,320	-0,209	0,012
216,421	39,520	-0,250	-0,155
217,436	230,147	-0,162	-0,184
218,450	278,616	-0,162	-0,201
219,465	147,669	-0,132	-0,123
220,480	600,243	-0,071	-0,123
221,494	-200,000	-0,057	-0,259
222,509	115,832	-0,213	-0,181
223,523	-78,997	-0,178	-0,042
224,538	108,716	-0,255	-0,210
225,553	-14,551	-0,234	-0,104
226,567	140,551	-0,271	-0,247
227,582	403,376	-0,154	-0,225
228,596	4,731	-0,199	-0,101
229,611	-200,000	0,004	-0,079
230,626	-57,231	-0,286	-0,086
231,640	-58,359	-0,291	-0,087
232,655	-21,284	-0,257	-0,108
233,669	17,922	-0,142	-0,078
234,684	-30,800	-0,221	-0,086
235,699	603,723	-0,073	-0,125
236,713	-200,000	-0,026	-0,115
237,728	86,735	-0,235	-0,179
238,742	37,618	-0,064	-0,039
239,757	176,720	-0,112	-0,112
240,772	148,855	-0,192	-0,179
241,786	81,924	-0,163	-0,122
242,801	-200,000	-0,276	0,000
243,815	69,323	-0,137	-0,097
244,830	-122,513	-0,258	-0,029
245,844	112,762	-0,168	-0,141
246,859	-68,948	-0,176	-0,047
247,874	77,947	-0,121	-0,089
248,888	49,426	-0,235	-0,152
249,903	-89,700	-0,147	-0,029
250,917	-85,052	-0,200	-0,043
251,932	-200,000	-0,041	-0,179
252,947	-58,228	-0,231	-0,069
253,961	-171,333	-0,229	0,005
254,976	-60,921	-0,177	-0,051
255,990	-109,802	-0,267	-0,038
257,005	-89,204	-0,271	-0,055
258,020	800,000	-0,055	-0,122
259,034	-16,846	-0,177	-0,077
260,049	-34,430	-0,142	-0,053
261,063	-124,274	-0,130	-0,014
262,078	580,127	-0,107	-0,181
263,093	-68,917	-0,244	-0,065
264,107	140,909	-0,173	-0,158
265,122	-82,404	-0,234	-0,052
266,136	-152,828	-0,218	-0,010
267,151	94,550	-0,242	-0,189
268,166	188,487	-0,193	-0,199
269,180	127,653	-0,208	-0,182
270,195	-126,239	-0,036	-0,004
271,209	362,665	-0,171	-0,237
272,224	376,927	-0,125	-0,176
273,239	18,481	-0,116	0,064
274,253	-17,411	-0,119	-0,052
275,268	6,908	-0,130	-0,066
276,282	73,036	-0,152	-0,109
277,297	364,826	-0,185	-0,257
278,312	137,266	-0,125	-0,113
279,326	-200,000	-0,037	-0,188
280,341	103,986	-0,085	-0,069
281,355	-200,000	-0,026	-0,131
282,370	612,927	-0,141	-0,244
283,384	298,401	-0,128	-0,162
284,399	71,632	-0,115	-0,082
285,414	86,668	-0,167	-0,126
286,428	229,676	-0,148	-0,166
287,443	800,000	-0,065	-0,149
288,457	465,862	-0,084	-0,129
289,472	-103,394	-0,202	-0,032
290,487	-45,041	-0,213	-0,073
291,501	42,597	-0,131	-0,082
292,516	237,994	-0,144	-0,165
293,530	64,120	-0,131	-0,091
294,545	-174,963	-0,167	-0,003
295,560	493,687	-0,131	-0,208
296,574	35,675	-0,163	-0,098
297,589	105,147	-0,121	-0,098
298,603	181,484	-0,133	-0,134
299,618	-94,911	-0,156	0,029
300,633	800,000	-0,052	-0,128
301,647	121,036	-0,108	-0,093
302,662	-200,000	-0,039	-0,122
303,676	-24,181	-0,246	-0,100
304,691	228,056	-0,187	-0,210
305,706	0,480	-0,201	-0,098
306,720	181,728	-0,127	-0,129
307,735	427,774	-0,075	-0,112
308,749	-151,502	-0,136	-0,007
309,764	-74,249	-0,066	0,016
310,779	800,000	-0,089	-0,183
311,793	-110,670	-0,253	-0,035
312,808	-1,270	-0,218	-0,105
313,822	445,118	-0,082	-0,124
314,837	800,000	-0,143	-0,298
315,852	-200,000	0,012	-0,104
316,866	300,231	-0,061	-0,078
317,881	-200,000	-0,030	-0,164
318,895	-200,000	-0,039	-0,165
319,910	32,514	-0,211	-0,125
320,925	-56,566	-0,106	-0,032
321,939	-87,320	-0,185	-0,038
322,954	23,107	-0,092	-0,052
323,968	-78,915	-0,152	0,035
324,983	391,302	-0,094	-0,134
325,997	258,838	-0,125	-0,148
327,012	-163,378	-0,128	-0,004
328,027	800,000	-0,075	-0,155
329,041	800,000	-0,144	-0,309
330,056	95,699	-0,152	-0,119
331,070	239,261	-0,103	-0,117
332,085	92,374	-0,146	-0,113
333,100	95,528	-0,128	-0,100
334,114	30,059	-0,195	-0,114
335,129	-100,433	-0,179	-0,030
336,143	275,504	-0,124	-0,151
337,158	21,346	-0,122	-0,068
338,173	-36,665	-0,107	-0,039
339,187	158,940	-0,078	-0,075
340,202	124,879	-0,123	-0,106
341,216	39,909	-0,160	-0,098
342,231	259,140	-0,146	-0,172
343,246	64,554	-0,189	-0,130
344,260	-200,000	-0,013	-0,216
345,275	-148,573	-0,143	0,008
346,289	-144,098	-0,066	0,004
347,304	317,577	-0,092	-0,119
348,319	430,969	-0,130	-0,193
349,333	800,000	-0,101	-0,238
350,348	80,243	-0,178	-0,131
351,362	305,945	-0,088	-0,113
352,377	155,822	-0,107	-0,101
353,392	-154,963	-0,095	-0,004
354,406	393,686	-0,071	-0,101
355,421	208,442	1305,024	1396,901
356,435	160,392	1464,522	1397,373
