DTS Sentinel unit serial number:	SN410029Multiplexer serial number:	ORYXHardware model number:	OX2-SRSoftware version number:	ORYX F/W v4,00 Oryx Data Collector v3.7.2.0data status	okinstallation	B3 Nyhavnadifferential loss correction	single-endedforward channel	channel 1reverse channel	N/Adate	2023/12/05time	05:37:30forward acquisition time	300,00reverse acquisition time	0,00gamma	499,1914k internal	0,3201k external	0,3201temperature offset calibration	1,0000default loss term (dB/km)	0,3820temperature slope calibration	1,0000multiplexer offset coefficient	1,0000multiplexer slope coefficient	1,0000fibre end	0,00T internal ref (°C)	14,02T ext. ref 1 (°C)	-0,99T ext. ref 2 (°C)	-1,02length (m)	temperature (°C)	Stokes	anti-Stokes-744,400	345,749	-0,206	-0,295
-743,385	-200,000	0,010	0,396
-742,371	323,542	-0,143	-0,199
-741,356	-200,000	-0,001	0,327
-740,342	1,525	-0,281	-0,147
-739,327	-200,000	-0,012	0,195
-738,312	707,164	-0,174	-0,335
-737,298	-44,444	-0,089	0,032
-736,283	256,738	-0,178	-0,223
-735,269	-200,000	0,036	0,232
-734,254	215,875	-0,207	-0,239
-733,239	-26,244	-0,234	0,099
-732,225	38,728	-0,141	-0,091
-731,210	-200,000	0,003	0,071
-730,196	322,643	-0,034	0,047
-729,181	-200,000	-0,003	-0,075
-728,167	84,013	-0,158	-0,126
-727,152	276,455	-0,052	-0,068
-726,137	-200,000	-0,013	-0,182
-725,123	-134,748	-0,129	0,011
-724,108	-200,000	0,012	-0,141
-723,094	800,000	-0,081	-0,179
-722,079	253,718	-0,092	-0,114
-721,064	-200,000	-0,020	-0,093
-720,050	350,995	-0,024	-0,035
-719,035	125,108	-0,081	-0,074
-718,021	800,000	0,025	-0,053
-717,006	-141,695	-0,002	0,000
-715,991	-200,000	-0,011	-0,159
-714,977	294,898	-0,121	-0,161
-713,962	330,078	-0,065	-0,092
-712,948	800,000	0,048	0,140
-711,933	54,860	-0,042	0,030
-710,918	-187,198	-0,010	0,000
-709,904	-105,199	-0,090	0,015
-708,889	80,294	-0,138	-0,107
-707,875	-149,441	-0,104	-0,006
-706,860	-83,973	0,089	-0,020
-705,845	800,000	0,036	-0,080
-704,831	-34,916	0,035	0,014
-703,816	-79,928	0,077	0,019
-702,802	-195,310	-0,080	-0,000
-701,787	162,096	0,077	-0,078
-700,772	349,722	-0,118	-0,169
-699,758	800,000	0,029	-0,067
-698,743	12,401	0,040	0,022
-697,729	-122,446	0,050	0,006
-696,714	264,624	0,097	-0,123
-695,699	141,047	-0,043	-0,042
-694,685	80,025	-0,054	-0,042
-693,670	800,000	-0,017	-0,034
-692,656	-200,000	-0,010	-0,038
-691,641	591,963	0,042	0,076
-690,627	104,391	0,100	0,086
-689,612	-44,930	0,055	-0,020
-688,597	280,107	0,015	0,020
-687,583	800,000	0,060	-0,158
-686,568	-32,893	0,017	0,007
-685,554	345,663	0,050	0,071
-684,539	68,836	-0,097	-0,072
-683,524	460,935	0,072	0,117
-682,510	-45,861	0,136	0,049
-681,495	-200,000	-0,011	-0,076
-680,481	77,270	-0,084	-0,065
-679,466	800,000	-0,069	-0,170
-678,451	-200,000	0,020	-0,096
-677,437	-200,000	0,023	0,132
-676,422	581,643	0,055	0,099
-675,408	-52,633	-0,088	-0,029
-674,393	800,000	-0,050	-0,105
-673,378	123,331	-0,012	-0,011
-672,364	-69,694	-0,132	0,036
-671,349	562,586	-0,042	-0,074
-670,335	-79,827	0,017	0,004
-669,320	43,911	-0,056	-0,037
-668,305	467,894	-0,075	0,122
-667,291	-200,000	0,043	0,140
-666,276	553,864	-0,066	-0,116
-665,262	690,927	-0,095	-0,181
-664,247	533,067	-0,035	0,060
-663,232	126,999	0,030	-0,027
-662,218	76,428	0,143	-0,110
-661,203	-144,676	0,037	-0,002
-660,189	-200,000	0,009	0,156
-659,174	-200,000	-0,043	-0,205
-658,159	-200,000	0,003	-0,126
-657,145	12,810	-0,037	-0,021
-656,130	-68,229	0,125	0,035
-655,116	72,920	-0,092	-0,070
-654,101	-127,335	0,133	-0,014
-653,086	184,637	-0,099	0,106
-652,072	-200,000	0,003	-0,057
-651,057	16,620	-0,130	-0,074
-650,043	79,113	0,031	-0,024
-649,028	-200,000	0,012	-0,057
-648,014	617,268	-0,076	0,139
-646,999	-51,140	0,106	0,036
-645,984	-200,000	-0,021	-0,156
-644,970	-14,292	0,067	-0,031
-643,955	769,991	-0,106	-0,211
-642,941	-164,415	-0,101	0,003
-641,926	105,752	-0,031	0,027
-640,911	8,735	0,057	-0,031
-639,897	-200,000	-0,016	0,095
-638,882	-103,283	-0,065	0,011
-637,868	375,848	-0,017	0,025
-636,853	293,943	0,028	-0,037
-635,838	408,518	-0,057	0,087
-634,824	79,888	0,012	-0,009
-633,809	21,195	-0,014	-0,008
-632,795	-66,797	-0,085	-0,024
-631,780	50,232	0,040	-0,027
-630,765	-200,000	0,008	-0,174
-629,751	97,880	-0,063	0,052
-628,736	176,794	-0,104	-0,109
-627,722	501,160	0,013	-0,021
-626,707	-60,068	0,048	-0,015
-625,692	-200,000	0,002	0,032
-624,678	137,172	0,059	0,056
-623,663	-40,849	-0,047	-0,018
-622,649	-14,186	-0,136	-0,063
-621,634	800,000	-0,036	-0,084
-620,619	-200,000	-0,011	-0,060
-619,605	-109,157	0,037	0,006
-618,590	-78,525	-0,036	0,009
-617,576	-200,000	0,008	-0,052
-616,561	-162,464	-0,088	-0,003
-615,546	195,131	-0,028	0,031
-614,532	-86,079	-0,103	-0,023
-613,517	299,492	0,037	0,050
-612,503	-4,349	-0,067	0,033
-611,488	673,542	-0,072	0,136
-610,474	-200,000	0,010	0,110
-609,459	167,641	0,101	-0,104
-608,444	-43,906	0,122	-0,044
-607,430	165,103	-0,149	-0,153
-606,415	-200,000	-0,003	-0,193
-605,401	-200,000	0,012	0,052
-604,386	800,000	0,099	0,210
-603,371	800,000	0,034	0,083
-602,357	-83,843	0,047	0,011
-601,342	-200,000	-0,002	0,028
-600,328	429,853	-0,023	-0,036
-599,313	-104,623	-0,092	0,015
-598,298	50,991	-0,130	-0,089
-597,284	72,591	0,048	0,036
-596,269	81,782	-0,062	-0,049
-595,255	121,875	-0,039	0,035
-594,240	151,519	-0,066	-0,065
-593,225	-95,942	-0,159	0,030
-592,211	-200,000	0,029	-0,156
-591,196	-160,884	-0,104	0,004
-590,182	-63,772	0,104	0,031
-589,167	11,848	0,066	0,037
-588,152	401,376	-0,046	0,071
-587,138	460,920	-0,080	0,129
-586,123	-148,560	-0,081	-0,005
-585,109	-200,000	-0,043	-0,214
-584,094	157,597	-0,075	-0,075
-583,079	169,006	0,039	-0,040
-582,065	174,564	0,049	-0,051
-581,050	-200,000	-0,013	-0,057
-580,036	-157,420	-0,090	-0,004
-579,021	-200,000	-0,047	-0,169
-578,006	800,000	-0,056	-0,139
-576,992	-97,307	-0,054	-0,010
-575,977	-72,627	0,039	0,010
-574,963	-160,316	0,158	-0,006
-573,948	266,147	-0,053	0,067
-572,934	-131,195	-0,105	-0,010
-571,919	-89,265	0,108	-0,023
-570,904	800,000	-0,052	-0,157
-569,890	559,368	-0,045	-0,079
-568,875	-12,643	0,060	0,028
-567,861	226,732	0,005	-0,006
-566,846	-200,000	0,002	-0,015
-565,831	-200,000	-0,012	0,053
-564,817	800,000	-0,043	-0,108
-563,802	800,000	0,051	0,124
-562,788	-200,000	-0,025	0,085
-561,773	236,192	0,062	-0,074
-560,758	800,000	-0,016	-0,051
-559,744	-23,077	0,030	-0,013
-558,729	328,742	0,065	0,090
-557,715	21,216	-0,119	-0,070
-556,700	13,265	0,092	-0,051
-555,685	208,759	-0,035	0,040
-554,671	-200,000	0,014	0,114
-553,656	-113,140	0,126	-0,018
-552,642	532,453	-0,047	0,081
-551,627	800,000	-0,042	0,116
-550,612	800,000	-0,022	-0,059
-549,598	320,926	-0,088	-0,121
-548,583	-200,000	0,018	-0,058
-547,569	-52,038	-0,056	0,019
-546,554	113,507	0,069	-0,061
-545,539	-145,823	-0,110	0,007
-544,525	-101,474	0,219	-0,038
-543,510	-191,427	0,069	-0,000
-542,496	-200,000	0,002	0,020
-541,481	-200,000	-0,011	-0,039
-540,466	-200,000	0,043	-0,232
-539,452	-97,415	0,111	-0,021
-538,437	-200,000	-0,025	0,184
-537,423	-200,000	0,002	-0,115
-536,408	800,000	-0,022	0,066
-535,393	28,539	-0,064	-0,039
-534,379	-200,000	0,015	-0,097
-533,364	341,668	0,047	-0,066
-532,350	63,307	0,062	-0,045
-531,335	800,000	0,056	0,129
-530,321	361,447	-0,037	0,053
-529,306	-21,345	-0,046	0,020
-528,291	185,571	0,101	0,108
-527,277	92,807	0,005	-0,004
-526,262	282,435	-0,078	0,102
-525,248	800,000	0,034	-0,075
-524,233	231,234	0,055	0,065
-523,218	-135,357	0,081	0,007
-522,204	418,643	0,050	-0,077
-521,189	-146,205	-0,167	0,010
-520,175	110,043	-0,077	-0,066
-519,160	800,000	0,071	-0,170
-518,145	-200,000	0,036	-0,115
-517,131	-155,987	0,073	0,003
-516,116	576,581	-0,030	0,053
-515,102	-137,345	0,056	0,004
-514,087	-157,149	-0,103	-0,004
-513,072	-110,356	-0,106	-0,016
-512,058	10,290	0,011	-0,006
-511,043	10,662	0,115	0,063
-510,029	-35,129	-0,083	0,033
-509,014	-200,000	0,040	0,148
-507,999	372,319	-0,057	-0,083
-506,985	-200,000	0,003	0,091
-505,970	-57,448	-0,092	-0,029
-504,956	-16,863	-0,104	-0,047
-503,941	800,000	0,030	-0,085
-502,926	-67,551	0,036	0,010
-501,912	210,571	0,021	-0,023
-500,897	384,429	-0,041	0,061
-499,883	115,052	0,073	-0,064
-498,868	516,147	0,066	-0,112
-497,853	-200,000	-0,033	-0,107
-496,839	-200,000	-0,002	-0,050
-495,824	492,341	0,070	0,117
-494,810	235,618	-0,012	0,014
-493,795	-133,222	-0,112	-0,010
-492,781	800,000	-0,058	0,132
-491,766	-38,372	-0,138	-0,052
-490,751	45,599	-0,077	0,051
-489,737	800,000	0,016	0,048
-488,722	-200,000	-0,012	0,071
-487,708	46,527	-0,098	0,065
-486,693	-200,000	0,011	0,058
-485,678	-200,000	-0,000	-0,021
-484,664	361,657	0,015	-0,022
-483,649	54,108	0,100	0,069
-482,635	338,654	0,063	-0,089
-481,620	-200,000	0,009	-0,030
-480,605	493,376	0,089	0,148
-479,591	-200,000	0,004	0,092
-478,576	-200,000	0,008	-0,062
-477,562	210,482	-0,030	-0,034
-476,547	333,691	-0,047	0,066
-475,532	-160,523	-0,097	-0,004
-474,518	-63,789	0,042	0,012
-473,503	-32,224	0,117	0,047
-472,489	42,328	-0,116	-0,076
-471,474	-200,000	0,029	0,144
-470,459	-46,950	-0,082	0,029
-469,445	507,163	-0,113	-0,189
-468,430	315,423	0,100	0,136
-467,416	231,326	-0,059	-0,069
-466,401	153,958	0,093	0,092
-465,386	-58,873	-0,021	-0,006
-464,372	-90,723	-0,045	-0,009
-463,357	-113,483	0,063	-0,009
-462,343	192,347	0,043	-0,047
-461,328	35,457	-0,167	-0,105
-460,313	201,622	0,107	-0,119
-459,299	-90,186	0,076	0,016
-458,284	154,312	-0,088	0,087
-457,270	-118,278	-0,031	-0,004
-456,255	-157,664	0,137	0,006
-455,241	800,000	-0,051	-0,103
-454,226	266,723	0,021	-0,026
-453,211	800,000	-0,053	-0,165
-452,197	-200,000	-0,003	-0,021
-451,182	-155,848	0,060	-0,003
-450,168	-67,882	0,020	0,006
-449,153	-103,634	0,046	-0,008
-448,138	-200,000	0,007	-0,129
-447,124	71,179	-0,070	0,052
-446,109	208,864	-0,095	0,107
-445,095	800,000	0,025	0,067
-444,080	419,099	0,048	0,074
-443,065	178,904	-0,005	-0,005
-442,051	-54,937	-0,099	-0,032
-441,036	-162,921	0,111	0,004
-440,022	-200,000	-0,018	-0,065
-439,007	73,813	0,034	0,025
-437,992	229,333	0,104	0,122
-436,978	490,606	-0,051	0,084
-435,963	180,840	-0,124	0,131
-434,949	-200,000	-0,020	0,107
-433,934	-200,000	0,035	-0,170
-432,919	66,012	0,057	-0,042
-431,905	-33,793	0,113	0,045
-430,890	-98,625	-0,085	-0,015
-429,876	-200,000	-0,009	0,042
-428,861	-60,754	0,148	0,045
-427,846	-81,024	-0,040	0,009
-426,832	-7,270	-0,080	-0,039
-425,817	800,000	-0,055	-0,119
-424,803	800,000	-0,019	-0,040
-423,788	-200,000	0,009	-0,119
-422,773	-74,296	0,096	0,025
-421,759	800,000	-0,025	-0,054
-420,744	61,844	-0,035	0,025
-419,730	-200,000	0,017	-0,058
-418,715	6,108	0,059	-0,031
-417,701	59,779	-0,115	-0,081
-416,686	-200,000	0,034	0,135
-415,671	-111,792	0,050	0,007
-414,657	157,206	0,114	-0,113
-413,642	-45,920	-0,072	0,025
-412,628	-200,000	0,000	-0,087
-411,613	29,964	-0,087	0,053
-410,598	-58,599	-0,133	-0,041
-409,584	800,000	-0,011	-0,030
-408,569	95,592	0,033	0,027
-407,555	-149,000	-0,085	0,005
-406,540	-60,634	-0,117	-0,035
-405,525	800,000	0,032	-0,094
-404,511	-172,731	-0,152	-0,003
-403,496	-101,844	0,052	0,009
-402,482	-16,223	0,082	0,037
-401,467	-200,000	0,009	-0,031
-400,452	195,377	0,039	-0,043
-399,438	234,500	-0,060	0,071
-398,423	-52,962	-0,050	-0,016
-397,409	-41,473	-0,160	-0,059
-396,394	800,000	-0,006	0,017
-395,379	-81,111	-0,214	0,050
-394,365	-124,428	0,107	0,012
-393,350	134,893	0,068	0,064
-392,336	800,000	0,036	0,074
-391,321	69,392	0,049	-0,036
-390,306	-200,000	-0,024	0,147
-389,292	458,577	0,071	-0,113
-388,277	57,541	0,119	-0,083
-387,263	-20,940	-0,057	0,025
-386,248	-200,000	-0,003	0,088
-385,233	77,433	0,096	-0,073
-384,219	-71,476	-0,085	0,023
-383,204	69,391	0,097	-0,072
-382,190	-200,000	0,038	-0,123
-381,175	-200,000	-0,003	0,038
-380,160	33,988	0,150	0,094
-379,146	-200,000	0,002	-0,109
-378,131	203,798	0,012	-0,013
-377,117	-102,032	0,058	-0,010
-376,102	800,000	0,059	-0,169
-375,088	136,135	-0,104	-0,097
-374,073	236,492	0,035	-0,042
-373,058	112,115	0,057	0,050
-372,044	592,134	-0,020	0,035
-371,029	800,000	0,021	-0,047
-370,015	800,000	0,053	0,140
-369,000	200,487	-0,159	0,176
-367,985	800,000	-0,066	-0,196
-366,971	-97,927	0,059	-0,011
-365,956	-90,100	0,062	-0,013
-364,942	95,829	0,022	0,018
-363,927	86,651	0,022	-0,017
-362,912	-200,000	-0,015	0,049
-361,898	-200,000	0,015	-0,054
-360,883	-17,624	-0,145	-0,065
-359,869	751,020	0,053	-0,102
-358,854	-66,420	0,135	0,038
-357,839	800,000	-0,048	0,133
-356,825	23,901	-0,062	0,037
-355,810	800,000	0,018	-0,039
-354,796	-123,405	-0,051	-0,006
-353,781	279,073	-0,049	-0,063
-352,766	-200,000	0,008	0,036
-351,752	-106,902	-0,094	-0,015
-350,737	-149,732	0,067	0,004
-349,723	-101,749	0,172	0,029
-348,708	-200,000	0,009	0,087
-347,693	66,396	0,137	0,100
-346,679	390,851	0,033	-0,050
-345,664	138,312	0,035	-0,033
-344,650	-93,813	0,209	-0,041
-343,635	127,802	-0,039	0,036
-342,620	800,000	0,027	0,078
-341,606	-131,897	-0,007	-0,001
-340,591	-65,241	0,132	-0,038
-339,577	258,788	0,108	-0,133
-338,562	411,576	0,106	-0,161
-337,548	-106,973	-0,046	-0,007
-336,533	800,000	-0,058	0,152
-335,518	-85,336	0,049	-0,011
-334,504	593,743	-0,011	0,019
-333,489	-54,088	-0,060	0,020
-332,475	-200,000	0,012	-0,170
-331,460	-129,562	-0,088	-0,009
-330,445	-200,000	-0,012	-0,130
-329,431	245,155	0,041	0,050
-328,416	770,479	-0,050	0,099
-327,402	174,338	0,069	0,072
-326,387	-145,129	0,041	0,003
-325,372	-200,000	0,004	0,103
-324,358	-92,579	0,134	-0,027
-323,343	-37,339	0,018	0,007
-322,329	-25,345	0,013	0,006
-321,314	431,287	0,090	0,141
-320,299	-200,000	-0,002	0,011
-319,285	457,362	0,071	0,113
-318,270	41,471	-0,177	-0,114
-317,256	-200,000	0,005	-0,083
-316,241	0,147	-0,056	-0,028
-315,226	371,912	-0,055	-0,080
-314,212	179,848	-0,040	0,042
-313,197	-56,053	0,083	0,026
-312,183	-80,980	-0,046	0,011
-311,168	379,054	-0,052	-0,077
-310,153	-200,000	0,019	-0,097
-309,139	80,097	0,030	-0,023
-308,124	-200,000	0,014	0,044
-307,110	133,547	0,051	0,047
-306,095	664,526	0,040	0,073
-305,080	-133,491	0,053	0,005
-304,066	518,362	-0,028	-0,047
-303,051	-200,000	-0,001	-0,019
-302,037	-200,000	0,004	0,050
-301,022	-122,086	0,143	0,017
-300,008	-13,750	-0,047	-0,022
-298,993	800,000	0,022	-0,052
-297,978	800,000	0,013	0,032
-296,964	-6,110	-0,087	0,042
-295,949	-200,000	0,014	0,113
-294,935	800,000	-0,019	0,046
-293,920	-200,000	0,025	0,135
-292,905	7,641	0,076	0,041
-291,891	206,722	0,111	0,124
-290,876	800,000	-0,069	0,146
-289,862	422,289	0,020	0,031
-288,847	-61,319	0,032	-0,010
-287,832	-4,667	-0,078	-0,038
-286,818	-200,000	0,011	-0,110
-285,803	-200,000	0,034	-0,154
-284,789	-27,401	-0,027	-0,011
-283,774	312,027	0,041	0,056
-282,759	-200,000	-0,007	-0,125
-281,745	-1,801	-0,078	0,039
-280,730	-200,000	0,036	0,130
-279,716	163,747	-0,109	0,110
-278,701	380,467	-0,035	0,051
-277,686	-69,634	0,106	-0,029
-276,672	-81,578	-0,058	0,014
-275,657	-200,000	0,005	-0,042
-274,643	166,645	-0,068	0,069
-273,628	800,000	-0,025	-0,076
-272,613	41,138	-0,104	-0,067
-271,599	-91,241	0,063	0,013
-270,584	403,108	0,097	0,146
-269,570	-200,000	0,000	-0,040
-268,555	672,226	0,069	0,128
-267,540	800,000	0,039	-0,088
-266,526	490,747	-0,045	0,074
-265,511	82,418	0,068	0,053
-264,497	-28,343	0,049	0,020
-263,482	-99,713	-0,088	-0,016
-262,467	148,892	0,099	-0,096
-261,453	-200,000	0,036	0,160
-260,438	196,443	-0,062	0,067
-259,424	-200,000	0,000	-0,051
-258,409	4,328	-0,094	-0,049
-257,395	5,436	0,098	0,051
-256,380	-0,258	-0,038	-0,019
-255,365	24,686	0,107	-0,063
-254,351	-58,460	-0,098	-0,030
-253,336	274,650	0,025	-0,032
-252,322	137,740	-0,069	-0,065
-251,307	514,963	0,086	-0,145
-250,292	-200,000	-0,002	-0,069
-249,278	-23,604	0,102	0,043
-248,263	-200,000	-0,006	0,048
-247,249	608,104	0,070	0,125
-246,234	-200,000	-0,019	0,157
-245,219	153,156	-0,101	0,099
-244,205	-30,168	0,077	0,031
-243,190	-99,540	0,092	-0,016
-242,176	-200,000	-0,003	0,061
-241,161	-200,000	0,004	0,201
-240,146	800,000	0,024	0,051
-239,132	-27,392	0,221	0,091
-238,117	305,316	-0,022	-0,029
-237,103	-150,303	-0,063	-0,003
-236,088	-200,000	-0,012	-0,039
-235,073	-159,752	0,077	0,003
-234,059	800,000	0,029	0,068
-233,044	-75,590	-0,112	0,028
-232,030	484,401	-0,032	-0,052
-231,015	-200,000	-0,007	0,056
-230,000	-200,000	-0,004	-0,051
-228,986	-200,000	0,005	-0,103
-227,971	-200,000	-0,005	-0,071
-226,957	800,000	-0,041	0,123
-225,942	800,000	0,009	-0,024
-224,927	118,615	-0,096	0,085
-223,913	34,881	-0,093	0,058
-222,898	2,281	-0,093	0,048
-221,884	34,611	0,067	-0,042
-220,869	800,000	-0,024	-0,065
-219,855	-131,624	0,146	0,014
-218,840	-17,308	-0,068	-0,030
-217,825	-95,366	0,108	-0,021
-216,811	-21,100	0,095	-0,041
-215,796	-200,000	-0,004	0,035
-214,782	-200,000	-0,019	0,117
-213,767	354,990	-0,102	-0,146
-212,752	13,670	0,043	0,024
-211,738	65,205	0,148	0,107
-210,723	-200,000	-0,023	0,073
-209,709	800,000	-0,050	-0,121
-208,694	800,000	-0,036	-0,079
-207,679	-103,403	-0,014	-0,002
-206,665	-200,000	0,012	-0,093
-205,650	-200,000	0,012	0,062
-204,636	-16,552	-0,158	0,071
-203,621	-200,000	0,008	0,040
-202,606	800,000	0,031	0,093
-201,592	800,000	0,019	0,041
-200,577	-200,000	-0,024	-0,088
-199,563	287,762	-0,078	0,101
-198,548	250,514	0,020	0,025
-197,533	-32,461	-0,042	0,017
-196,519	-200,000	-0,027	0,110
-195,504	100,776	-0,112	0,093
-194,490	128,604	-0,102	0,093
-193,475	-31,345	-0,121	0,048
-192,460	113,082	0,037	0,032
-191,446	62,156	-0,043	0,031
-190,431	32,666	0,009	0,005
-189,417	-200,000	0,027	0,115
-188,402	-74,894	-0,214	-0,054
-187,387	72,996	-0,070	-0,052
-186,373	105,757	-0,059	-0,050
-185,358	-92,889	0,036	-0,007
-184,344	800,000	0,035	0,102
-183,329	690,025	-0,060	0,113
-182,315	-4,935	0,176	0,086
-181,300	-200,000	0,007	0,054
-180,285	-200,000	-0,026	-0,161
-179,271	-200,000	0,003	0,060
-178,256	-88,813	-0,030	-0,006
-177,242	70,918	0,083	-0,061
-176,227	800,000	0,021	0,044
-175,212	-200,000	0,005	-0,083
-174,198	-200,000	-0,002	-0,030
-173,183	800,000	0,044	0,118
-172,169	-200,000	0,000	-0,119
-171,154	800,000	0,053	-0,131
-170,139	-125,918	0,086	0,009
-169,125	-76,034	0,100	0,025
-168,110	-134,523	-0,117	-0,010
-167,096	15,263	0,043	-0,024
-166,081	-133,423	-0,090	0,008
-165,066	-11,790	0,063	0,029
-164,052	-200,000	0,001	0,084
-163,037	-93,379	-0,123	-0,024
-162,023	-76,564	0,197	-0,049
-161,008	-39,515	0,024	-0,009
-159,993	70,399	0,104	0,077
-158,979	-200,000	0,017	0,118
-157,964	-200,000	-0,011	0,037
-156,950	-200,000	-0,031	-0,114
-155,935	-200,000	-0,019	0,197
-154,920	207,905	0,045	-0,050
-153,906	-112,971	0,098	0,014
-152,891	97,099	0,097	-0,079
-151,877	459,896	0,003	-0,005
-150,862	800,000	-0,029	-0,090
-149,847	-101,708	-0,161	0,027
-148,833	235,243	0,057	0,067
-147,818	-11,927	0,180	0,084
-146,804	-61,379	-0,077	-0,023
-145,789	575,301	-0,037	-0,064
-144,775	-92,593	-0,075	-0,015
-143,760	650,792	0,034	-0,061
-142,745	189,283	0,044	0,047
-141,731	-151,678	0,028	-0,001
-140,716	-66,134	-0,058	0,016
-139,702	800,000	0,048	0,110
-138,687	-119,531	0,143	-0,017
-137,672	-200,000	-0,054	-0,000
-136,658	74,780	0,092	0,069
-135,643	215,906	-0,074	-0,084
-134,629	267,106	-0,039	-0,049
-133,614	228,446	0,064	0,074
-132,599	-200,000	0,013	-0,057
-131,585	-133,765	0,100	-0,009
-130,570	-200,000	0,020	-0,075
-129,556	-200,000	0,024	-0,087
-128,541	383,433	0,092	-0,134
-127,526	-105,071	-0,033	0,005
-126,512	-200,000	-0,001	-0,011
-125,497	-200,000	0,002	-0,043
-124,483	-20,594	0,084	-0,037
-123,468	-188,328	-0,106	-0,001
-122,453	-62,123	0,051	0,015
-121,439	-80,613	-0,217	0,051
-120,424	-27,353	0,124	-0,051
-119,410	378,351	0,093	0,135
-118,395	567,413	0,107	0,185
-117,380	206,115	0,072	-0,080
-116,366	-200,000	-0,021	-0,071
-115,351	52,112	0,048	-0,032
-114,337	-117,049	-0,092	-0,012
-113,322	43,494	-0,046	-0,030
-112,307	-200,000	0,015	-0,113
-111,293	-157,744	0,176	0,007
-110,278	-47,434	0,089	-0,031
-109,264	-87,845	0,075	0,016
-108,249	-200,000	-0,003	0,092
-107,234	-10,928	0,064	-0,030
-106,220	82,435	0,053	0,041
-105,205	-200,000	-0,009	-0,056
-104,191	-200,000	-0,001	0,122
-103,176	762,985	0,046	0,088
-102,162	-97,874	-0,061	0,011
-101,147	-98,381	-0,202	-0,036
-100,132	37,421	0,177	-0,111
-99,118	126,285	-0,110	-0,099
-98,103	228,396	0,042	0,048
-97,089	42,919	0,063	-0,041
-96,074	105,694	0,131	-0,110
-95,059	-100,998	0,109	0,019
-94,045	123,999	-0,029	-0,026
-93,030	35,284	0,110	-0,068
-92,016	-200,000	-0,003	0,036
-91,001	485,150	-0,015	-0,024
-89,986	671,513	0,092	-0,170
-88,972	-200,000	0,015	0,154
-87,957	-200,000	0,016	0,086
-86,943	-106,568	0,065	-0,010
-85,928	-76,634	-0,068	0,017
-84,913	441,886	-0,044	-0,069
-83,899	-147,135	-0,027	-0,002
-82,884	567,688	0,017	0,030
-81,870	-13,074	0,084	0,039
-80,855	73,767	0,051	0,038
-79,840	-109,156	-0,038	-0,006
-78,826	800,000	-0,042	0,095
-77,811	-200,000	-0,051	-0,235
-76,797	289,221	0,012	-0,016
-75,782	123,227	0,110	0,098
-74,767	433,696	-0,057	0,089
-73,753	800,000	-0,055	0,108
-72,738	-58,860	-0,055	-0,017
-71,724	264,915	-0,059	0,074
-70,709	55,499	-0,021	0,014
-69,694	-200,000	0,001	-0,086
-68,680	-200,000	-0,027	-0,155
-67,665	800,000	-0,031	0,071
-66,651	-200,000	0,017	0,117
-65,636	-20,825	0,107	-0,046
-64,622	-200,000	0,039	-0,165
-63,607	-41,897	-0,083	0,030
-62,592	75,591	0,084	-0,063
-61,578	800,000	0,057	0,157
-60,563	-18,698	-0,033	-0,014
-59,549	411,429	-0,067	-0,101
-58,534	-13,127	-1,456	-0,667
-57,519	322,485	-1,410	-1,907
-56,505	-200,000	-0,561	-4,556
-55,490	186,146	0,926	0,976
-54,476	800,000	5,017	11,445
-53,461	-200,000	18,890	307,637
-52,446	800,000	737,644	2304,506
-51,432	570,639	1654,063	2861,147
-50,417	79,098	1670,749	1265,752
-49,403	22,033	1543,651	889,176
-48,388	15,871	1466,567	814,824
-47,373	17,737	1456,375	818,145
-46,359	16,820	1446,563	808,204
-45,344	14,161	1442,240	793,021
-44,330	14,111	1440,033	791,535
-43,315	14,091	1438,246	790,426
-42,300	14,112	1436,661	789,623
-41,286	14,108	1435,573	788,978
-40,271	14,067	1434,257	788,024
-39,257	14,098	1432,836	787,361
-38,242	14,104	1431,764	786,771
-37,227	14,143	1430,407	786,177
-36,213	14,109	1429,173	785,308
-35,198	14,114	1428,052	784,684
-34,184	14,178	1426,979	784,367
-33,169	14,077	1425,684	783,144
-32,154	14,124	1424,659	782,776
-31,140	14,128	1423,454	782,102
-30,125	14,163	1422,281	781,589
-29,111	14,118	1421,128	780,712
-28,096	14,044	1420,126	779,784
-27,082	14,071	1418,906	779,207
-26,067	14,087	1417,767	778,629
-25,052	14,038	1416,749	777,804
-24,038	14,047	1415,644	777,210
-23,023	14,036	1414,959	776,752
-22,009	14,021	1413,833	776,033
-20,994	13,972	1413,000	775,317
-19,979	13,985	1412,368	774,998
-18,965	14,012	1411,128	774,416
-17,950	13,992	1410,268	773,817
-16,936	14,000	1409,242	773,261
-15,921	13,977	1408,072	772,481
-14,906	13,976	1407,195	771,965
-13,892	13,965	1406,255	771,366
-12,877	13,944	1405,429	770,787
-11,863	13,971	1404,494	770,367
-10,848	13,949	1403,658	769,778
-9,833	13,916	1402,980	769,221
-8,819	13,898	1401,915	768,522
-7,804	13,866	1400,997	767,837
-6,790	13,871	1399,844	767,203
-5,775	13,896	1398,657	766,637
-4,760	13,849	1398,076	766,070
-3,746	13,855	1397,128	765,544
-2,731	13,885	1396,195	765,146
-1,717	13,845	1395,410	764,498
-0,702	13,864	1393,454	763,483
0,313	17,695	1311,261	736,209
1,327	34,097	705,771	434,240
2,342	52,755	123,913	83,664
3,356	2,976	16,540	8,472
4,371	-0,535	3,151	1,577
5,386	-58,621	0,647	0,197
6,400	800,000	0,095	0,270
7,415	153,437	-0,166	-0,160
8,429	10,731	-0,318	-0,171
9,444	31,145	-0,302	-0,183
10,459	280,315	-0,298	-0,377
11,473	-114,742	-0,170	0,023
12,488	57,263	-0,314	-0,217
13,502	66,930	-0,326	-0,235
14,517	35,463	-0,263	-0,163
15,531	5,213	-0,513	-0,266
16,546	41,823	-0,286	-0,183
17,561	84,574	-0,201	-0,156
18,575	171,358	-0,153	-0,155
19,590	27,803	-0,270	-0,161
20,604	10,492	-0,240	-0,129
21,619	25,777	-0,525	-0,308
22,634	73,449	-0,456	-0,337
23,648	165,050	-0,364	-0,363
24,663	251,138	-0,381	-0,458
25,677	183,892	-0,257	-0,269
26,692	4,799	-0,322	-0,167
27,707	40,966	-0,381	-0,243
28,721	190,781	-0,307	-0,326
29,736	-45,404	-0,543	-0,189
30,750	21,462	-0,430	-0,246
31,765	186,832	-0,389	-0,410
32,780	98,566	-0,393	-0,320
33,794	21,649	-0,325	-0,186
34,809	74,568	-0,355	-0,263
35,823	224,348	-0,377	-0,430
36,838	104,381	-0,451	-0,374
37,853	93,835	-0,358	-0,286
38,867	30,640	-0,445	-0,268
39,882	97,827	-0,313	-0,253
40,896	137,935	-0,256	-0,237
41,911	329,546	-0,245	-0,333
42,926	7,121	-0,300	-0,157
43,940	8,897	-0,406	-0,215
44,955	220,223	-0,266	-0,301
45,969	-2,707	-0,351	-0,173
46,984	52,854	-0,363	-0,244
47,999	49,124	-0,223	-0,148
49,013	-24,064	-0,358	-0,150
50,028	-10,842	-0,264	-0,123
51,042	290,036	-0,221	-0,283
52,057	19,289	-0,355	-0,200
53,071	-23,905	-0,303	-0,127
54,086	225,250	-0,245	-0,280
55,101	-65,030	-0,330	-0,093
56,115	172,543	-0,247	-0,251
57,130	71,064	-0,357	-0,260
58,144	215,133	-0,326	-0,364
59,159	119,412	-0,355	-0,310
60,174	90,543	-0,292	-0,230
61,188	65,823	-0,316	-0,225
62,203	-143,221	-0,353	0,024
63,217	-141,288	-0,344	-0,024
64,232	58,804	-0,367	-0,253
65,247	84,002	-0,420	-0,323
66,261	9,640	-0,356	-0,189
67,276	31,271	-0,349	-0,210
68,290	32,518	-0,388	-0,236
69,305	-200,000	-0,117	-0,406
70,320	-37,381	-0,442	-0,165
71,334	50,182	-0,366	-0,243
72,349	32,848	-0,340	-0,207
73,363	290,901	-0,313	-0,400
74,378	58,956	-0,504	-0,348
75,393	19,017	-0,345	-0,194
76,407	53,636	-0,188	-0,127
77,422	70,056	-0,175	-0,127
78,436	32,083	-0,332	-0,201
79,451	42,469	-0,246	-0,157
80,466	56,476	-0,311	-0,212
81,480	164,007	-0,314	-0,311
82,495	76,837	-0,213	-0,159
83,509	30,922	-0,265	-0,159
84,524	-76,872	-0,297	-0,072
85,539	-18,140	-0,245	-0,107
86,553	-107,427	-0,324	-0,049
87,568	-40,929	-0,297	-0,107
88,582	171,055	-0,260	-0,262
89,597	132,435	-0,288	-0,261
90,611	127,633	-0,293	-0,261
91,626	37,325	-0,168	-0,104
92,641	-50,821	-0,232	-0,076
93,655	-32,673	-0,380	-0,148
94,670	-80,891	-0,247	-0,057
95,684	94,151	-0,273	-0,217
96,699	321,084	-0,207	-0,276
97,714	147,923	-0,258	-0,244
98,728	-121,168	-0,200	-0,023
99,743	69,971	-0,271	-0,196
100,757	76,053	-0,263	-0,195
101,772	-32,424	-0,191	-0,074
102,787	179,076	-0,279	-0,287
103,801	36,130	-0,320	-0,197
104,816	36,587	-0,196	-0,121
105,830	-36,083	-0,109	-0,041
106,845	101,099	-0,202	-0,165
107,860	-60,329	-0,323	-0,096
108,874	-92,929	-0,303	-0,059
109,889	-50,625	-0,364	-0,120
110,903	240,022	-0,147	-0,172
111,918	181,947	-0,228	-0,236
112,933	-200,000	-0,056	-0,239
113,947	-46,489	-0,477	-0,163
114,962	-38,496	-0,130	-0,048
115,976	33,634	-0,205	-0,125
116,991	96,240	-0,310	-0,248
118,006	221,128	-0,260	-0,293
119,020	-6,749	-0,309	-0,147
120,035	-36,659	-0,187	-0,070
121,049	57,705	-0,230	-0,157
122,064	168,906	-0,254	-0,254
123,079	120,909	-0,191	-0,167
124,093	-14,113	-0,397	-0,179
125,108	143,034	-0,268	-0,250
126,122	532,193	-0,162	-0,269
127,137	352,574	-0,151	-0,210
128,151	326,291	-0,120	-0,161
129,166	60,875	-0,205	-0,142
130,181	-150,169	-0,303	-0,016
131,195	149,580	-0,178	-0,169
132,210	293,801	-0,207	-0,266
133,224	70,961	-0,222	-0,161
134,239	439,648	-0,161	-0,247
135,254	64,634	-0,180	-0,127
136,268	153,754	-0,188	-0,180
137,283	12,450	-0,180	-0,097
138,297	251,113	-0,225	-0,268
139,312	35,351	-0,325	-0,199
140,327	42,658	-0,297	-0,189
141,341	0,197	-0,282	-0,140
142,356	-200,000	-0,084	-0,293
143,370	16,796	-0,187	-0,103
144,385	25,265	-0,259	-0,150
145,400	-21,136	-0,434	-0,185
146,414	-17,443	-0,278	-0,122
147,429	133,412	-0,275	-0,249
148,443	276,696	-0,248	-0,308
149,458	800,000	-0,123	-0,355
150,473	3,702	-0,343	-0,174
151,487	-8,274	-0,144	-0,067
152,502	-124,409	-0,311	-0,033
153,516	800,000	-0,129	-0,309
154,531	76,384	-0,326	-0,241
155,546	288,982	-0,202	-0,256
156,560	700,068	-0,110	-0,204
157,575	172,055	-0,191	-0,192
158,589	-63,381	-0,229	-0,065
159,604	293,768	-0,169	-0,215
160,619	7,618	-0,260	-0,135
161,633	133,986	-0,240	-0,217
162,648	282,176	-0,207	-0,259
163,662	-25,063	-0,178	-0,073
164,677	-67,625	-0,176	-0,048
165,692	-97,444	-0,225	-0,040
166,706	126,808	-0,248	-0,219
167,721	537,548	-0,192	-0,319
168,735	313,598	-0,261	-0,344
169,750	107,955	-0,268	-0,223
170,764	-53,406	-0,353	-0,112
171,779	21,506	-0,233	-0,132
172,794	34,343	-0,181	-0,110
173,808	-26,066	-0,240	-0,098
174,823	116,068	-0,284	-0,243
175,837	-69,778	-0,159	-0,042
176,852	208,723	-0,218	-0,238
177,867	108,530	-0,218	-0,181
178,881	148,378	-0,164	-0,154
179,896	10,396	-0,140	-0,074
180,910	-56,577	-0,205	-0,063
181,925	-42,901	-0,321	-0,113
182,940	413,566	-0,184	-0,273
183,954	80,199	-0,362	-0,271
184,969	326,467	-0,207	-0,277
185,983	273,907	-0,155	-0,191
186,998	67,238	-0,222	-0,157
188,013	8,437	-0,265	-0,139
189,027	255,729	-0,153	-0,182
190,042	177,980	-0,186	-0,189
191,056	226,551	-0,213	-0,241
192,071	119,429	-0,125	-0,108
193,086	578,276	-0,050	-0,086
194,100	27,994	-0,190	-0,111
195,115	99,341	-0,340	-0,273
196,129	-101,637	-0,196	-0,033
197,144	116,223	-0,249	-0,212
198,159	-53,077	-0,224	-0,071
199,173	-96,947	-0,199	-0,036
200,188	116,474	-0,087	-0,074
201,202	-16,349	-0,269	-0,118
202,217	202,914	-0,103	-0,111
203,232	-38,693	-0,208	0,076
204,246	-25,200	-0,335	-0,137
205,261	197,824	-0,243	-0,259
206,275	356,244	-0,150	-0,208
207,290	7,171	-0,182	-0,094
208,304	177,559	-0,140	-0,142
209,319	-95,122	-0,326	-0,061
210,334	325,677	-0,112	-0,150
211,348	-3,941	-0,233	-0,112
212,363	118,236	-0,298	-0,255
213,377	191,610	-0,211	-0,221
214,392	280,401	-0,139	-0,174
215,407	282,497	-0,133	-0,166
216,421	142,154	-0,168	-0,155
217,436	159,883	-0,156	-0,151
218,450	-117,426	-0,211	-0,026
219,465	338,058	-0,139	-0,188
220,480	312,430	-0,171	-0,223
221,494	27,644	-0,189	-0,110
222,509	-109,425	-0,158	0,023
223,523	264,109	-0,189	-0,229
224,538	49,088	-0,157	-0,102
225,553	-11,921	-0,230	-0,104
226,567	800,000	-0,096	-0,195
227,582	-37,986	-0,265	-0,097
228,596	276,297	-0,203	-0,251
229,611	86,939	-0,185	-0,142
230,626	28,351	-0,102	0,059
231,640	281,918	-0,217	-0,270
232,655	196,910	-0,188	-0,199
233,669	123,847	-0,236	-0,206
234,684	121,926	-0,175	-0,152
235,699	115,461	-0,209	-0,177
236,713	38,767	-0,040	-0,025
237,728	-89,461	-0,138	-0,028
238,742	408,732	-0,174	-0,256
239,757	355,928	-0,175	-0,243
240,772	46,159	-0,159	-0,102
241,786	43,406	-0,265	-0,167
242,801	-56,512	-0,190	-0,058
243,815	91,223	-0,138	-0,107
244,830	98,299	-0,082	0,066
245,844	-7,065	-0,277	-0,130
246,859	-73,317	-0,219	-0,055
247,874	53,764	-0,199	-0,132
248,888	546,240	-0,150	-0,249
249,903	306,080	-0,143	-0,184
250,917	-154,054	-0,184	-0,009
251,932	38,517	-0,205	-0,127
252,947	-160,747	-0,135	0,005
253,961	38,423	-0,275	-0,169
254,976	38,383	-0,140	-0,086
255,990	-200,000	-0,070	-0,231
257,005	720,246	0,027	-0,050
258,020	89,956	-0,268	-0,207
259,034	-177,134	-0,217	-0,004
260,049	-148,047	-0,146	-0,008
261,063	231,579	-0,091	-0,104
262,078	559,785	-0,200	-0,335
263,093	-55,396	-0,223	-0,069
264,107	-58,064	-0,199	-0,060
265,122	239,025	-0,136	-0,157
266,136	-52,276	-0,142	-0,045
267,151	109,267	-0,198	-0,163
268,166	52,848	-0,115	-0,076
269,180	649,401	-0,151	-0,269
270,195	52,876	-0,317	-0,209
271,209	-87,376	-0,139	-0,029
272,224	746,483	-0,122	-0,229
273,239	39,481	-0,156	-0,097
274,253	204,457	-0,149	-0,160
275,268	-126,245	-0,175	-0,018
276,282	-73,675	-0,226	-0,056
277,297	653,794	-0,115	-0,204
278,312	306,501	-0,097	-0,124
279,326	-22,517	-0,104	-0,043
280,341	-59,318	-0,151	0,045
281,355	164,365	-0,110	-0,107
282,370	82,538	-0,136	-0,102
283,384	51,984	-0,203	-0,133
284,399	220,385	-0,159	-0,176
285,414	136,022	-0,181	-0,163
286,428	170,053	-0,141	-0,139
287,443	294,868	-0,058	-0,073
288,457	-200,000	-0,006	-0,039
289,472	800,000	-0,147	-0,293
290,487	-138,441	-0,198	-0,015
291,501	136,456	-0,140	-0,126
292,516	-10,637	-0,121	-0,055
293,530	-200,000	-0,027	-0,086
294,545	1,289	-0,196	-0,097
295,560	-108,599	-0,113	-0,017
296,574	-35,368	-0,174	-0,065
297,589	800,000	-0,091	-0,198
298,603	-55,862	-0,086	-0,026
299,618	-58,835	-0,177	-0,053
300,633	800,000	-0,032	-0,082
301,647	125,597	-0,127	-0,110
302,662	158,690	-0,190	-0,182
303,676	523,788	-0,066	-0,107
304,691	56,914	-0,173	-0,116
305,706	18,189	-0,157	-0,086
306,720	180,478	-0,192	-0,194
307,735	-200,000	-0,029	-0,165
308,749	495,167	-0,167	-0,265
309,764	-67,425	-0,148	0,040
310,779	-76,535	-0,020	-0,005
311,793	-59,045	-0,277	-0,082
312,808	18,133	-0,193	-0,106
313,822	-83,297	-0,234	-0,051
314,837	9,291	-0,153	-0,080
315,852	-200,000	-0,076	-0,248
316,866	342,237	-0,116	-0,157
317,881	651,887	-0,039	-0,070
318,895	800,000	-0,064	-0,135
319,910	379,240	-0,102	-0,144
320,925	-42,306	-0,270	-0,094
321,939	-65,752	-0,097	-0,027
322,954	15,618	-0,088	0,048
323,968	800,000	-0,045	-0,104
324,983	115,250	-0,065	-0,055
325,997	-200,000	-0,009	0,075
327,012	85,689	-0,122	-0,093
328,027	90,288	-0,204	-0,157
329,041	325,342	-0,164	-0,217
330,056	-79,857	-0,112	-0,026
331,070	-105,181	-0,164	0,026
332,085	86,914	-0,092	0,070
333,100	-71,322	-0,059	-0,015
334,114	11,793	-0,134	-0,070
335,129	442,318	-0,068	-0,103
336,143	-136,117	-0,197	-0,016
337,158	-200,000	-0,027	-0,267
338,173	135,306	-0,161	-0,144
339,187	-89,543	-0,166	-0,033
340,202	98,793	-0,133	-0,105
341,216	-200,000	0,002	-0,211
342,231	82,426	-0,178	-0,133
343,246	50,422	-0,143	-0,093
344,260	-104,801	-0,121	-0,019
345,275	20,080	-0,087	-0,048
346,289	300,801	-0,068	-0,087
347,304	-200,000	-0,032	-0,149
348,319	-83,411	-0,193	-0,042
349,333	468,887	-0,116	-0,179
350,348	800,000	-0,076	-0,187
351,362	88,834	-0,121	-0,092
352,377	333,629	-0,059	0,079
353,392	-27,932	-0,121	-0,048
354,406	233,446	-0,134	-0,152
355,421	209,404	1313,872	1413,949
356,435	161,160	1474,508	1414,437
