DTS Sentinel unit serial number:	SN410029Multiplexer serial number:	ORYXHardware model number:	OX2-SRSoftware version number:	ORYX F/W v4,00 Oryx Data Collector v3.7.2.0data status	okinstallation	B3 Nyhavnadifferential loss correction	single-endedforward channel	channel 1reverse channel	N/Adate	2023/12/01time	11:02:30forward acquisition time	300,00reverse acquisition time	0,00gamma	499,1914k internal	0,3214k external	0,3214temperature offset calibration	1,0000default loss term (dB/km)	0,3820temperature slope calibration	1,0000multiplexer offset coefficient	1,0000multiplexer slope coefficient	1,0000fibre end	0,00T internal ref (°C)	8,25T ext. ref 1 (°C)	-5,89T ext. ref 2 (°C)	-5,98length (m)	temperature (°C)	Stokes	anti-Stokes-744,400	361,014	-0,272	-0,397
-743,385	-200,000	-0,008	0,365
-742,371	84,163	-0,175	-0,139
-741,356	800,000	-0,112	0,240
-740,342	490,255	-0,152	-0,253
-739,327	-200,000	-0,073	0,267
-738,312	125,243	-0,146	-0,134
-737,298	800,000	0,106	0,312
-736,283	8,892	-0,212	-0,116
-735,269	380,850	-0,216	0,322
-734,254	56,752	-0,188	-0,132
-733,239	-17,808	-0,225	0,102
-732,225	-200,000	-0,032	-0,235
-731,210	216,931	0,111	0,128
-730,196	40,567	-0,165	-0,108
-729,181	-200,000	-0,012	-0,055
-728,167	-200,000	-0,001	-0,124
-727,152	-200,000	-0,039	-0,179
-726,137	-200,000	-0,012	0,107
-725,123	-200,000	0,034	-0,127
-724,108	-200,000	-0,001	-0,100
-723,094	56,256	-0,017	0,012
-722,079	-200,000	0,016	0,102
-721,064	327,831	0,029	-0,041
-720,050	365,663	-0,040	-0,058
-719,035	396,440	-0,058	-0,088
-718,021	115,410	0,029	-0,025
-717,006	-200,000	0,001	0,043
-715,991	139,478	-0,053	-0,051
-714,977	-1,035	-0,093	-0,047
-713,962	-86,157	-0,039	-0,009
-712,948	89,566	-0,056	0,045
-711,933	-200,000	0,005	0,032
-710,918	-200,000	-0,036	-0,194
-709,904	393,276	-0,081	-0,122
-708,889	-69,904	0,045	0,012
-707,875	205,835	-0,128	-0,144
-706,860	800,000	0,031	-0,081
-705,845	800,000	0,102	0,213
-704,831	-144,351	-0,041	-0,003
-703,816	800,000	0,041	0,088
-702,802	-200,000	-0,025	0,146
-701,787	-157,148	-0,092	0,004
-700,772	232,648	0,089	0,106
-699,758	-74,610	0,025	0,007
-698,743	301,015	0,154	-0,206
-697,729	636,175	-0,086	0,159
-696,714	66,832	-0,039	0,028
-695,699	-200,000	0,031	0,114
-694,685	226,623	-0,080	-0,094
-693,670	379,156	0,078	-0,115
-692,656	114,510	-0,046	0,040
-691,641	-83,575	0,145	-0,033
-690,627	-200,000	0,008	0,064
-689,612	-200,000	-0,016	-0,122
-688,597	-76,504	-0,105	0,026
-687,583	-120,351	-0,088	-0,011
-686,568	23,424	-0,120	-0,071
-685,554	-200,000	-0,001	0,004
-684,539	-200,000	0,002	-0,029
-683,524	251,630	0,018	0,022
-682,510	-138,222	-0,085	-0,007
-681,495	299,967	-0,074	-0,098
-680,481	501,801	-0,031	-0,051
-679,466	-200,000	-0,004	0,042
-678,451	255,731	-0,038	0,047
-677,437	379,484	0,031	0,045
-676,422	-200,000	-0,003	0,104
-675,408	-200,000	-0,020	-0,142
-674,393	8,266	0,082	0,044
-673,378	251,556	-0,042	0,052
-672,364	778,253	-0,042	0,083
-671,349	-200,000	-0,019	0,068
-670,335	-103,046	-0,063	0,011
-669,320	580,773	0,052	0,092
-668,305	-200,000	-0,035	0,117
-667,291	647,702	0,019	0,035
-666,276	-136,303	0,114	0,009
-665,262	800,000	0,041	0,116
-664,247	201,996	-0,065	-0,073
-663,232	797,754	0,048	0,096
-662,218	-200,000	-0,043	0,214
-661,203	-40,088	-0,072	-0,027
-660,189	-153,767	-0,146	-0,007
-659,174	800,000	-0,004	-0,012
-658,159	-1,952	-0,060	-0,030
-657,145	800,000	-0,021	-0,052
-656,130	792,099	-0,003	0,006
-655,116	73,790	0,100	-0,076
-654,101	46,803	-0,145	-0,097
-653,086	-154,944	0,053	-0,002
-652,072	-200,000	-0,049	-0,213
-651,057	46,134	0,008	0,005
-650,043	800,000	-0,038	-0,108
-649,028	-24,178	-0,080	0,034
-648,014	49,039	-0,075	-0,051
-646,999	690,597	-0,032	-0,061
-645,984	800,000	-0,031	0,076
-644,970	722,708	-0,028	-0,055
-643,955	-125,385	-0,132	-0,014
-642,941	-54,302	-0,076	0,025
-641,926	40,820	-0,101	0,065
-640,911	-112,692	-0,164	0,023
-639,897	0,311	-0,102	0,052
-638,882	-114,919	-0,068	0,009
-637,868	800,000	-0,023	-0,069
-636,853	126,223	0,050	-0,046
-635,838	247,731	0,030	-0,036
-634,824	-13,464	0,054	0,025
-633,809	98,937	-0,083	0,069
-632,795	303,582	-0,037	0,049
-631,780	-117,802	-0,070	-0,009
-630,765	794,880	-0,032	-0,064
-629,751	122,752	0,080	-0,072
-628,736	-61,972	-0,072	0,021
-627,722	124,836	-0,074	0,067
-626,707	115,637	-0,056	0,049
-625,692	-200,000	0,006	0,041
-624,678	-169,519	-0,101	-0,003
-623,663	197,870	0,052	-0,057
-622,649	800,000	-0,031	-0,073
-621,634	232,694	-0,016	-0,019
-620,619	-43,203	-0,060	-0,022
-619,605	25,096	0,137	-0,082
-618,590	-1,964	-0,028	0,014
-617,576	771,068	-0,045	0,089
-616,561	-200,000	0,033	0,202
-615,546	89,219	-0,099	-0,080
-614,532	-97,964	-0,113	-0,021
-613,517	-200,000	0,013	-0,081
-612,503	-20,623	-0,093	0,041
-611,488	84,842	0,138	0,109
-610,474	-200,000	-0,006	0,140
-609,459	-200,000	-0,038	0,122
-608,444	-172,384	-0,009	0,000
-607,430	-72,256	-0,145	0,038
-606,415	-200,000	0,012	-0,100
-605,401	-32,861	0,018	0,007
-604,386	-80,549	-0,029	0,007
-603,371	-11,027	0,036	-0,017
-602,357	-200,000	0,005	-0,020
-601,342	800,000	-0,017	-0,042
-600,328	800,000	-0,036	0,101
-599,313	-37,361	-0,032	-0,012
-598,298	335,642	0,096	0,134
-597,284	-60,751	0,088	-0,027
-596,269	-200,000	-0,002	0,085
-595,255	-200,000	0,035	0,191
-594,240	800,000	-0,032	-0,087
-593,225	130,762	-0,013	-0,012
-592,211	-200,000	0,041	-0,157
-591,196	-110,122	-0,086	-0,013
-590,182	-19,829	0,109	-0,048
-589,167	18,622	-0,185	0,106
-588,152	-177,344	0,168	0,003
-587,138	800,000	-0,044	0,102
-586,123	-158,632	-0,088	-0,004
-585,109	-200,000	-0,002	-0,103
-584,094	-200,000	0,003	-0,030
-583,079	317,200	0,037	-0,051
-582,065	-127,129	-0,090	-0,009
-581,050	103,405	0,084	0,071
-580,036	-6,683	-0,046	-0,022
-579,021	-193,108	0,036	-0,000
-578,006	-82,036	0,133	-0,031
-576,992	-104,238	-0,046	-0,008
-575,977	-200,000	0,003	-0,124
-574,963	277,047	-0,075	-0,096
-573,948	-41,116	0,038	0,014
-572,934	617,587	-0,001	0,002
-571,919	59,038	-0,156	-0,110
-570,904	40,664	0,101	-0,065
-569,890	91,756	0,075	-0,061
-568,875	-200,000	-0,003	0,077
-567,861	242,950	-0,029	-0,035
-566,846	800,000	-0,034	0,087
-565,831	128,843	0,046	-0,042
-564,817	43,492	-0,124	-0,081
-563,802	800,000	-0,098	-0,233
-562,788	435,187	-0,041	-0,065
-561,773	-200,000	-0,013	-0,047
-560,758	-200,000	0,003	0,049
-559,744	146,988	0,043	0,042
-558,729	143,972	-0,089	-0,086
-557,715	-142,908	0,129	0,009
-556,700	-200,000	0,011	0,086
-555,685	-200,000	-0,005	-0,071
-554,671	-200,000	-0,014	-0,071
-553,656	47,662	0,092	0,062
-552,642	-36,013	-0,073	0,028
-551,627	800,000	0,034	-0,101
-550,612	120,605	-0,059	0,053
-549,598	-13,457	-0,108	-0,050
-548,583	-3,805	0,098	0,049
-547,569	-172,734	0,044	-0,001
-546,554	-45,594	0,080	-0,028
-545,539	53,301	0,070	-0,048
-544,525	-9,753	-0,013	0,006
-543,510	-200,000	-0,024	0,083
-542,496	648,363	-0,012	0,022
-541,481	-200,000	-0,005	0,081
-540,466	-93,829	0,045	-0,009
-539,452	-200,000	-0,039	-0,206
-538,437	800,000	-0,036	0,113
-537,423	437,127	0,046	0,072
-536,408	-168,425	-0,080	-0,002
-535,393	-193,391	-0,123	0,001
-534,379	703,952	-0,023	-0,045
-533,364	23,362	-0,168	0,099
-532,350	-129,094	0,122	0,012
-531,335	-7,255	-0,152	0,074
-530,321	82,718	0,129	0,101
-529,306	458,155	0,044	-0,070
-528,291	539,150	0,067	-0,115
-527,277	-128,150	-0,198	0,020
-526,262	-49,420	0,068	-0,023
-525,248	380,636	0,024	0,035
-524,233	433,671	0,065	-0,101
-523,218	-200,000	-0,003	0,022
-522,204	-200,000	0,018	0,154
-521,189	-93,538	-0,082	-0,016
-520,175	800,000	-0,014	-0,036
-519,160	-200,000	0,002	-0,019
-518,145	-200,000	0,013	-0,121
-517,131	-200,000	-0,002	-0,036
-516,116	-200,000	0,001	-0,074
-515,102	-200,000	-0,012	0,049
-514,087	-200,000	-0,014	-0,211
-513,072	-200,000	-0,001	0,021
-512,058	487,714	0,105	0,172
-511,043	-118,181	0,061	-0,008
-510,029	-200,000	0,002	0,017
-509,014	800,000	-0,065	0,143
-507,999	-200,000	-0,013	0,060
-506,985	-200,000	0,009	-0,068
-505,970	-13,556	-0,048	-0,022
-504,956	-26,514	0,074	-0,031
-503,941	245,188	0,020	0,024
-502,926	103,043	0,070	0,059
-501,912	641,302	0,057	0,105
-500,897	800,000	0,045	-0,138
-499,883	-200,000	0,015	-0,105
-498,868	-200,000	0,016	0,127
-497,853	-200,000	0,016	0,072
-496,839	124,648	0,095	-0,085
-495,824	-103,229	0,093	0,016
-494,810	-111,306	0,020	0,003
-493,795	800,000	-0,037	-0,099
-492,781	800,000	-0,036	0,080
-491,766	64,743	-0,093	0,067
-490,751	-62,853	0,028	0,008
-489,737	-136,324	0,249	0,021
-488,722	-200,000	0,015	0,165
-487,708	-34,008	-0,025	0,010
-486,693	252,988	0,086	-0,106
-485,678	55,762	0,164	-0,114
-484,664	156,836	-0,028	-0,027
-483,649	-200,000	0,010	-0,140
-482,635	359,587	0,101	-0,146
-481,620	-15,989	0,056	-0,025
-480,605	-200,000	0,031	0,118
-479,591	411,465	0,117	0,179
-478,576	-8,816	-0,160	0,077
-477,562	-200,000	0,016	0,063
-476,547	155,303	0,059	0,058
-475,532	-27,889	0,115	0,047
-474,518	-130,121	0,035	-0,003
-473,503	229,255	0,098	-0,115
-472,489	-136,734	0,084	-0,007
-471,474	536,099	0,053	-0,091
-470,459	-16,869	0,061	-0,027
-469,445	749,875	0,020	-0,040
-468,430	330,040	0,017	-0,024
-467,416	-200,000	0,002	0,092
-466,401	800,000	0,059	0,146
-465,386	800,000	-0,017	0,042
-464,372	6,437	-0,063	-0,034
-463,357	-38,965	-0,064	0,024
-462,343	670,693	-0,072	-0,134
-461,328	-1,244	0,089	0,045
-460,313	438,865	-0,011	-0,017
-459,299	-30,414	0,074	0,030
-458,284	800,000	0,011	0,026
-457,270	-81,671	-0,123	-0,029
-456,255	-149,398	0,205	-0,011
-455,241	800,000	0,059	-0,163
-454,226	800,000	0,022	0,065
-453,211	800,000	-0,017	0,050
-452,197	-10,956	0,146	0,069
-451,182	-200,000	0,005	0,089
-450,168	-95,860	-0,054	-0,010
-449,153	28,766	0,088	0,053
-448,138	-160,195	0,023	-0,001
-447,124	-200,000	0,002	0,010
-446,109	800,000	0,011	-0,022
-445,095	210,434	-0,042	0,048
-444,080	577,000	0,018	0,032
-443,065	56,018	0,168	0,117
-442,051	-15,820	-0,120	0,054
-441,036	342,213	-0,019	0,026
-440,022	118,281	0,102	0,090
-439,007	800,000	-0,038	0,111
-437,992	-100,161	0,075	0,013
-436,978	-200,000	0,010	0,165
-435,963	254,862	-0,037	0,045
-434,949	-46,273	0,087	0,030
-433,934	-149,879	0,102	0,006
-432,919	326,434	0,013	-0,017
-431,905	8,325	-0,053	-0,029
-430,890	221,848	0,020	0,023
-429,876	-4,345	0,062	-0,031
-428,861	684,071	0,074	0,138
-427,846	311,602	0,024	-0,032
-426,832	-34,697	-0,165	-0,064
-425,817	118,462	0,033	0,029
-424,803	-25,300	-0,046	-0,020
-423,788	30,037	0,039	-0,024
-422,773	-200,000	0,027	0,146
-421,759	-109,647	-0,080	0,012
-420,744	17,418	0,146	0,083
-419,730	167,245	-0,109	-0,111
-418,715	-6,753	-0,059	-0,028
-417,701	232,721	0,037	-0,043
-416,686	311,428	-0,032	-0,044
-415,671	233,150	-0,021	-0,024
-414,657	30,324	0,021	0,013
-413,642	775,856	-0,010	0,019
-412,628	-200,000	-0,009	-0,042
-411,613	214,396	0,018	-0,020
-410,598	-200,000	0,007	0,104
-409,584	193,248	-0,044	-0,048
-408,569	-200,000	-0,037	0,120
-407,555	173,484	0,104	0,107
-406,540	800,000	-0,034	0,086
-405,525	485,615	-0,018	-0,029
-404,511	105,630	-0,050	-0,043
-403,496	-56,502	0,099	0,031
-402,482	800,000	-0,002	0,003
-401,467	-72,635	-0,068	0,018
-400,452	800,000	0,012	-0,031
-399,438	-131,138	-0,123	0,012
-398,423	-200,000	-0,004	0,137
-397,409	174,757	-0,070	0,072
-396,394	800,000	0,046	-0,096
-395,379	34,922	-0,076	-0,048
-394,365	-89,910	-0,043	-0,009
-393,350	800,000	-0,031	0,068
-392,336	-113,293	-0,059	-0,008
-391,321	71,507	0,041	-0,030
-390,306	398,008	-0,054	-0,081
-389,292	-51,039	-0,070	-0,023
-388,277	209,570	-0,025	0,028
-387,263	-78,673	0,133	-0,032
-386,248	-54,893	-0,112	-0,036
-385,233	181,963	0,085	0,090
-384,219	800,000	0,024	0,072
-383,204	800,000	0,019	-0,051
-382,190	300,840	-0,071	-0,094
-381,175	330,760	0,035	-0,048
-380,160	-200,000	0,025	0,161
-379,146	-200,000	0,016	0,132
-378,131	97,159	0,011	0,009
-377,117	-200,000	-0,014	0,048
-376,102	-200,000	-0,002	-0,110
-375,088	2,261	-0,169	-0,087
-374,073	-156,158	0,056	0,002
-373,058	673,606	0,042	-0,077
-372,044	-200,000	-0,022	-0,130
-371,029	364,132	0,065	0,093
-370,015	720,495	0,009	0,018
-369,000	172,907	-0,029	-0,030
-367,985	160,032	-0,090	0,090
-366,971	-200,000	-0,014	-0,105
-365,956	-85,423	0,119	0,026
-364,942	148,025	0,129	0,125
-363,927	-200,000	0,013	0,043
-362,912	-200,000	-0,005	0,033
-361,898	693,859	-0,040	-0,075
-360,883	-200,000	-0,019	-0,120
-359,869	-51,787	-0,072	0,024
-358,854	131,764	0,074	0,068
-357,839	113,131	-0,038	0,033
-356,825	-23,445	0,025	0,011
-355,810	-200,000	0,001	-0,036
-354,796	800,000	-0,013	0,025
-353,781	-200,000	-0,021	-0,136
-352,766	-129,827	0,122	0,012
-351,752	482,800	0,024	-0,039
-350,737	-106,166	-0,055	-0,009
-349,723	-76,065	0,176	0,044
-348,708	37,030	-0,159	0,100
-347,693	-123,024	-0,110	0,012
-346,679	-92,516	-0,123	-0,025
-345,664	-4,791	-0,118	-0,058
-344,650	800,000	-0,049	0,107
-343,635	229,117	-0,104	0,121
-342,620	-200,000	0,004	0,089
-341,606	-61,721	0,098	0,029
-340,591	-47,982	0,115	0,040
-339,577	23,015	-0,113	-0,066
-338,562	39,768	0,089	-0,057
-337,548	577,571	-0,084	-0,147
-336,533	222,715	0,110	-0,127
-335,518	89,721	0,078	-0,062
-334,504	800,000	-0,062	0,129
-333,489	5,759	-0,157	-0,083
-332,475	800,000	-0,048	-0,101
-331,460	126,074	-0,067	-0,061
-330,445	-200,000	0,022	0,103
-329,431	-200,000	-0,011	-0,084
-328,416	800,000	-0,008	0,025
-327,402	343,380	-0,043	0,060
-326,387	57,118	0,154	-0,107
-325,372	-200,000	-0,027	-0,097
-324,358	-200,000	-0,039	-0,156
-323,343	-93,740	-0,098	0,019
-322,329	800,000	0,025	0,079
-321,314	800,000	0,018	0,036
-320,299	261,734	0,152	0,188
-319,285	-113,700	-0,023	-0,003
-318,270	313,400	-0,162	-0,218
-317,256	-200,000	-0,025	-0,082
-316,241	772,006	-0,054	-0,105
-315,226	506,428	0,044	0,073
-314,212	358,808	-0,056	0,080
-313,197	-38,137	-0,038	0,014
-312,183	-61,569	-0,102	-0,030
-311,168	-53,688	-0,012	-0,004
-310,153	800,000	-0,022	0,050
-309,139	-47,361	0,094	-0,033
-308,124	-200,000	0,010	0,041
-307,110	-10,840	-0,111	0,052
-306,095	800,000	0,043	0,109
-305,080	180,105	-0,115	0,121
-304,066	187,873	-0,106	-0,113
-303,051	299,134	0,037	-0,049
-302,037	206,624	-0,037	-0,041
-301,022	93,805	0,038	-0,030
-300,008	-200,000	0,002	0,011
-298,993	99,523	-0,079	0,065
-297,978	189,249	0,083	0,088
-296,964	-142,202	0,022	0,002
-295,949	14,336	0,055	-0,030
-294,935	63,503	-0,118	0,084
-293,920	58,220	0,047	-0,033
-292,905	-7,026	0,146	0,070
-291,891	-200,000	-0,001	0,085
-290,876	15,103	0,062	0,034
-289,862	-49,822	-0,021	0,007
-288,847	-136,245	0,024	-0,002
-287,832	-49,434	-0,106	-0,036
-286,818	-200,000	0,020	-0,092
-285,803	141,177	-0,128	-0,121
-284,789	-7,332	0,159	0,076
-283,774	221,711	0,087	0,099
-282,759	-16,778	-0,143	0,064
-281,745	312,099	0,103	0,138
-280,730	-40,527	-0,169	0,062
-279,716	800,000	-0,035	0,093
-278,701	-82,565	-0,145	0,033
-277,686	44,267	0,081	-0,052
-276,672	119,848	-0,080	0,071
-275,657	106,102	0,093	0,078
-274,643	16,385	-0,047	0,026
-273,628	109,026	-0,051	0,043
-272,613	-128,077	0,059	-0,006
-271,599	26,961	0,052	0,031
-270,584	197,734	0,046	-0,050
-269,570	-101,598	0,150	0,026
-268,555	-200,000	0,002	-0,017
-267,540	19,126	0,031	0,017
-266,526	20,280	-0,037	-0,021
-265,511	-200,000	0,000	0,017
-264,497	13,323	-0,047	0,026
-263,482	-73,826	0,109	-0,028
-262,467	13,424	0,036	0,020
-261,453	-120,150	0,219	0,026
-260,438	800,000	-0,015	-0,035
-259,424	-146,403	-0,139	0,009
-258,409	-200,000	-0,024	0,081
-257,395	-200,000	0,015	-0,096
-256,380	-139,945	0,137	-0,010
-255,365	-200,000	0,024	0,144
-254,351	-49,108	0,112	-0,038
-253,336	123,771	-0,055	-0,049
-252,322	800,000	-0,048	-0,102
-251,307	290,316	-0,038	0,049
-250,292	133,230	0,145	-0,133
-249,278	-200,000	-0,003	0,012
-248,263	638,580	0,030	0,055
-247,249	800,000	-0,010	0,027
-246,234	-200,000	-0,012	-0,083
-245,219	800,000	-0,066	-0,134
-244,205	-63,082	-0,047	-0,014
-243,190	-5,851	-0,061	0,029
-242,176	800,000	0,016	0,038
-241,161	-29,223	-0,072	0,029
-240,146	290,001	-0,078	0,101
-239,132	571,496	-0,039	-0,067
-238,117	800,000	0,019	-0,044
-237,103	800,000	-0,015	-0,037
-236,088	458,630	0,048	0,077
-235,073	18,167	-0,042	0,024
-234,059	800,000	0,056	0,175
-233,044	-48,525	-0,152	-0,052
-232,030	-72,661	-0,090	0,023
-231,015	115,186	0,032	-0,028
-230,000	112,899	-0,064	0,055
-228,986	-116,329	-0,088	-0,011
-227,971	470,666	0,064	0,103
-226,957	601,521	0,041	0,073
-225,942	25,431	0,057	-0,033
-224,927	52,638	-0,088	-0,060
-223,913	60,523	0,033	-0,023
-222,898	-105,105	-0,041	0,007
-221,884	800,000	-0,035	-0,086
-220,869	-77,982	-0,062	0,015
-219,855	-73,527	0,068	-0,018
-218,840	-96,842	0,011	-0,002
-217,825	800,000	-0,030	0,071
-216,811	18,349	-0,094	-0,053
-215,796	-200,000	-0,007	-0,021
-214,782	777,327	-0,051	-0,098
-213,767	800,000	0,013	-0,039
-212,752	161,056	0,055	0,054
-211,738	-5,326	0,078	0,038
-210,723	81,192	0,031	0,024
-209,709	800,000	0,048	-0,109
-208,694	-76,824	-0,056	0,014
-207,679	95,142	-0,108	-0,087
-206,665	-91,920	0,071	0,014
-205,650	39,943	0,090	0,057
-204,636	-200,000	0,039	-0,144
-203,621	800,000	-0,035	-0,076
-202,606	575,404	-0,055	0,096
-201,592	-46,127	0,086	-0,030
-200,577	91,195	-0,096	-0,077
-199,563	143,034	0,126	0,119
-198,548	-192,234	-0,116	-0,001
-197,533	-137,285	0,124	-0,010
-196,519	-134,777	0,163	0,014
-195,504	-200,000	0,007	-0,125
-194,490	800,000	0,059	-0,136
-193,475	-56,160	-0,193	-0,061
-192,460	-22,390	0,063	0,027
-191,446	2,836	0,132	-0,068
-190,431	-18,560	0,145	-0,064
-189,417	155,900	-0,144	-0,140
-188,402	-86,779	0,077	-0,017
-187,387	-14,076	-0,018	-0,008
-186,373	-200,000	-0,020	0,076
-185,358	-166,238	0,055	0,002
-184,344	800,000	-0,025	-0,065
-183,329	-200,000	-0,002	-0,106
-182,315	17,704	-0,059	0,033
-181,300	71,767	0,080	0,059
-180,285	-53,392	0,072	0,023
-179,271	-200,000	0,031	-0,120
-178,256	-200,000	0,001	0,018
-177,242	-200,000	0,026	-0,093
-176,227	49,980	-0,067	0,045
-175,212	744,147	-0,027	-0,051
-174,198	61,784	0,059	-0,042
-173,183	48,440	-0,028	0,019
-172,169	44,225	0,056	-0,036
-171,154	-200,000	-0,014	-0,080
-170,139	-91,423	0,058	-0,012
-169,125	531,028	0,022	-0,037
-168,110	-112,476	-0,045	0,006
-167,096	372,652	-0,043	0,062
-166,081	156,761	-0,027	-0,026
-165,066	800,000	-0,096	-0,192
-164,052	348,723	0,080	-0,112
-163,037	-63,495	0,053	0,015
-162,023	-26,167	0,074	-0,030
-161,008	-94,800	0,011	-0,002
-159,993	41,609	0,058	0,037
-158,979	33,646	-0,120	-0,074
-157,964	49,975	-0,108	-0,072
-156,950	-200,000	-0,007	-0,193
-155,935	800,000	0,048	0,095
-154,920	-90,728	0,075	-0,015
-153,906	5,503	0,079	0,041
-152,891	-145,639	0,149	0,009
-151,877	800,000	-0,026	-0,072
-150,862	-200,000	-0,041	-0,130
-149,847	-200,000	-0,011	0,086
-148,833	-73,213	0,045	0,012
-147,818	-145,570	0,124	0,008
-146,804	6,232	-0,125	0,066
-145,789	-200,000	-0,013	-0,047
-144,775	316,964	-0,008	0,010
-143,760	-200,000	-0,019	-0,105
-142,745	114,374	-0,186	-0,160
-141,731	-200,000	-0,009	-0,059
-140,716	-200,000	-0,105	-0,000
-139,702	373,421	-0,112	0,162
-138,687	391,479	-0,027	0,039
-137,672	-200,000	-0,042	-0,135
-136,658	800,000	-0,054	-0,110
-135,643	379,878	0,037	0,054
-134,629	-130,900	0,065	0,006
-133,614	800,000	-0,044	0,114
-132,599	800,000	-0,010	-0,024
-131,585	27,016	0,067	0,040
-130,570	164,256	-0,070	0,070
-129,556	567,759	-0,059	0,102
-128,541	486,354	0,025	-0,041
-127,526	800,000	-0,017	0,048
-126,512	-19,361	-0,098	-0,043
-125,497	436,605	0,054	0,084
-124,483	528,302	-0,054	0,090
-123,468	-200,000	-0,017	0,068
-122,453	106,936	0,024	0,020
-121,439	115,474	-0,103	0,089
-120,424	-200,000	-0,013	0,045
-119,410	-91,517	0,091	-0,018
-118,395	-200,000	0,018	0,130
-117,380	758,225	-0,036	0,069
-116,366	130,422	0,078	0,070
-115,351	206,549	-0,081	0,089
-114,337	800,000	0,025	0,064
-113,322	716,746	-0,051	-0,096
-112,307	-200,000	0,002	-0,052
-111,293	-34,591	0,167	-0,064
-110,278	42,821	0,033	-0,021
-109,264	-200,000	0,012	-0,118
-108,249	0,432	-0,044	-0,022
-107,234	-8,890	-0,117	-0,055
-106,220	69,196	-0,058	0,042
-105,205	-47,934	-0,052	0,018
-104,191	33,069	0,060	-0,037
-103,176	92,781	-0,076	-0,061
-102,162	800,000	0,034	-0,097
-101,147	170,159	-0,100	0,101
-100,132	90,908	-0,071	0,056
-99,118	-114,621	-0,071	0,009
-98,103	138,794	-0,043	0,040
-97,089	153,233	0,082	0,079
-96,074	666,745	-0,040	0,073
-95,059	800,000	-0,016	0,051
-94,045	106,455	-0,031	-0,026
-93,030	289,532	-0,063	-0,080
-92,016	-200,000	-0,019	-0,117
-91,001	49,301	-0,101	-0,067
-89,986	-60,934	0,118	0,035
-88,972	-44,148	0,043	0,015
-87,957	119,406	-0,081	0,071
-86,943	-32,000	-0,036	-0,014
-85,928	432,185	-0,096	-0,148
-84,913	-200,000	-0,008	-0,131
-83,899	-19,177	-0,040	0,017
-82,884	800,000	0,013	0,035
-81,870	237,794	0,044	0,051
-80,855	-132,960	0,084	-0,007
-79,840	-153,090	-0,091	0,004
-78,826	92,498	0,010	-0,008
-77,811	-117,776	-0,197	-0,025
-76,797	54,670	0,106	-0,072
-75,782	240,881	-0,075	-0,089
-74,767	-200,000	0,053	0,179
-73,753	652,537	0,024	-0,044
-72,738	48,886	-0,024	0,016
-71,724	800,000	0,097	-0,199
-70,709	-200,000	-0,041	-0,182
-69,694	800,000	-0,016	-0,040
-68,680	-137,367	0,031	0,002
-67,665	103,129	0,132	0,109
-66,651	-200,000	-0,011	0,099
-65,636	-200,000	-0,010	-0,148
-64,622	800,000	-0,003	-0,006
-63,607	184,505	-0,092	-0,096
-62,592	-40,336	0,133	-0,048
-61,578	4,105	0,138	0,071
-60,563	143,464	-0,065	0,061
-59,549	258,698	-0,110	0,133
-58,534	72,327	-2,111	-1,550
-57,519	657,751	-1,052	-1,916
-56,505	-200,000	-0,417	-4,524
-55,490	519,887	1,084	1,798
-54,476	800,000	5,192	11,247
-53,461	-200,000	22,432	345,716
-52,446	800,000	758,517	2299,538
-51,432	534,596	1647,978	2765,478
-50,417	68,417	1646,111	1188,357
-49,403	15,923	1522,913	843,115
-48,388	10,153	1448,201	774,013
-47,373	19,240	1440,892	813,420
-46,359	13,512	1429,338	779,807
-45,344	8,435	1425,390	753,586
-44,330	8,367	1423,423	752,191
-43,315	8,311	1421,468	750,863
-42,300	8,348	1419,779	750,118
-41,286	8,380	1418,355	749,486
-40,271	8,349	1417,309	748,758
-39,257	8,375	1415,743	748,025
-38,242	8,356	1414,933	747,475
-37,227	8,332	1413,971	746,825
-36,213	8,365	1412,665	746,263
-35,198	8,306	1411,658	745,422
-34,184	8,381	1410,382	745,070
-33,169	8,254	1408,841	743,630
-32,154	8,362	1408,144	743,741
-31,140	8,273	1407,157	742,774
-30,125	8,375	1405,740	742,473
-29,111	8,340	1404,421	741,581
-28,096	8,319	1403,511	740,973
-27,082	8,257	1402,207	739,968
-26,067	8,206	1401,192	739,163
-25,052	8,305	1400,235	739,093
-24,038	8,287	1399,087	738,371
-23,023	8,300	1398,178	737,925
-22,009	8,258	1397,244	737,207
-20,994	8,226	1395,990	736,366
-19,979	8,290	1395,102	736,170
-18,965	8,223	1394,233	735,368
-17,950	8,218	1393,196	734,771
-16,936	8,202	1392,536	734,318
-15,921	8,168	1391,481	733,575
-14,906	8,206	1390,322	733,112
-13,892	8,258	1389,350	732,809
-12,877	8,183	1388,806	732,147
-11,863	8,122	1388,034	731,431
-10,848	8,183	1387,091	731,186
-9,833	8,157	1386,137	730,534
-8,819	8,129	1385,182	729,870
-7,804	8,105	1384,431	729,336
-6,790	8,138	1383,278	728,851
-5,775	8,081	1382,272	728,031
-4,760	8,171	1381,288	727,897
-3,746	8,179	1380,148	727,304
-2,731	8,174	1379,468	726,895
-1,717	8,146	1378,464	726,208
-0,702	8,074	1376,812	724,977
0,313	12,160	1287,812	696,627
1,327	28,113	679,237	403,058
2,342	43,477	116,898	75,168
3,356	-0,791	16,538	8,230
4,371	-0,652	3,897	1,941
5,386	-9,794	1,331	0,622
6,400	-200,000	0,165	0,666
7,415	-10,153	-0,139	-0,065
8,429	172,321	-0,259	-0,262
9,444	48,770	-0,386	-0,255
10,459	111,717	-0,279	-0,237
11,473	-79,899	-0,310	-0,073
12,488	543,128	-0,141	-0,237
13,502	19,927	-0,290	-0,164
14,517	22,025	-0,329	-0,188
15,531	115,136	-0,308	-0,265
16,546	-92,170	-0,309	-0,061
17,561	34,146	-0,434	-0,265
18,575	800,000	-0,064	-0,126
19,590	-4,237	-0,302	-0,147
20,604	-46,453	-0,168	-0,058
21,619	-50,561	-0,418	-0,138
22,634	212,319	-0,389	-0,432
23,648	123,549	-0,360	-0,317
24,663	-55,523	-0,500	-0,156
25,677	168,920	-0,373	-0,374
26,692	37,604	-0,335	-0,209
27,707	66,240	-0,239	-0,170
28,721	81,896	-0,362	-0,276
29,736	-7,447	-0,483	-0,229
30,750	97,060	-0,494	-0,398
31,765	149,794	-0,266	-0,253
32,780	49,984	-0,327	-0,217
33,794	11,510	-0,329	-0,177
34,809	-5,956	-0,355	-0,170
35,823	34,699	-0,320	-0,196
36,838	92,937	-0,442	-0,350
37,853	186,799	-0,342	-0,359
38,867	177,006	-0,278	-0,284
39,882	101,174	-0,339	-0,277
40,896	190,735	-0,213	-0,226
41,911	43,035	-0,371	-0,237
42,926	157,796	-0,239	-0,233
43,940	102,427	-0,361	-0,296
44,955	157,762	-0,327	-0,318
45,969	261,420	-0,292	-0,356
46,984	70,557	-0,350	-0,254
47,999	240,584	-0,261	-0,306
49,013	-99,715	-0,335	-0,058
50,028	-30,149	-0,373	-0,148
51,042	189,301	-0,306	-0,322
52,057	64,091	-0,318	-0,224
53,071	-56,207	-0,364	-0,113
54,086	183,494	-0,340	-0,353
55,101	28,651	-0,356	-0,211
56,115	22,775	-0,338	-0,194
57,130	40,354	-0,402	-0,253
58,144	0,734	-0,377	-0,189
59,159	121,634	-0,302	-0,264
60,174	82,737	-0,417	-0,317
61,188	19,957	-0,308	-0,174
62,203	-63,909	-0,386	-0,110
63,217	-61,896	-0,310	-0,090
64,232	104,847	-0,268	-0,221
65,247	158,666	-0,223	-0,217
66,261	49,660	-0,506	-0,334
67,276	4,089	-0,373	-0,190
68,290	42,313	-0,272	-0,173
69,305	-27,109	-0,296	-0,121
70,320	343,094	-0,220	-0,303
71,334	-57,026	-0,242	-0,074
72,349	141,500	-0,251	-0,233
73,363	-31,858	-0,385	-0,150
74,378	44,042	-0,282	-0,181
75,393	286,390	-0,298	-0,377
76,407	-51,797	-0,433	-0,140
77,422	-61,730	-0,293	-0,085
78,436	-17,788	-0,268	-0,117
79,451	-104,199	-0,223	0,036
80,466	-24,874	-0,333	-0,138
81,480	98,455	-0,329	-0,266
82,495	188,115	-0,260	-0,272
83,509	472,437	-0,201	-0,317
84,524	24,009	-0,266	-0,153
85,539	10,493	-0,219	-0,116
86,553	122,395	-0,254	-0,222
87,568	321,217	-0,179	-0,239
88,582	275,210	-0,258	-0,320
89,597	-5,864	-0,238	-0,113
90,611	151,089	-0,329	-0,313
91,626	-6,954	-0,374	-0,177
92,641	-111,478	-0,227	0,032
93,655	48,775	-0,272	-0,178
94,670	51,019	-0,287	-0,190
95,684	39,455	-0,240	-0,150
96,699	52,646	-0,309	-0,206
97,714	-59,940	-0,283	-0,084
98,728	20,255	-0,196	-0,110
99,743	-62,590	-0,301	-0,087
100,757	178,094	-0,190	-0,194
101,772	20,880	-0,428	-0,242
102,787	-69,369	-0,282	-0,075
103,801	0,273	-0,131	-0,065
104,816	244,773	-0,198	-0,233
105,830	626,536	-0,096	-0,170
106,845	-110,761	-0,237	-0,034
107,860	-44,399	-0,180	-0,063
108,874	265,870	-0,208	-0,254
109,889	44,683	-0,332	-0,213
110,903	140,897	-0,251	-0,232
111,918	200,715	-0,203	-0,218
112,933	251,085	-0,174	-0,207
113,947	304,362	-0,132	-0,171
114,962	-30,431	-0,323	-0,127
115,976	-67,113	-0,251	-0,068
116,991	9,354	-0,222	-0,117
118,006	-27,122	-0,279	-0,113
119,020	119,300	-0,192	-0,166
120,035	151,024	-0,197	-0,187
121,049	46,776	-0,224	-0,145
122,064	-33,048	-0,173	-0,067
123,079	5,284	-0,335	-0,172
124,093	75,696	-0,272	-0,200
125,108	-125,271	-0,297	-0,031
126,122	61,020	-0,223	-0,154
127,137	53,924	-0,216	-0,145
128,151	-67,788	-0,235	-0,064
129,166	118,997	-0,226	-0,195
130,181	22,601	-0,274	-0,156
131,195	84,875	-0,278	-0,212
132,210	-63,672	-0,216	-0,061
133,224	276,824	-0,218	-0,270
134,239	7,896	-0,288	-0,150
135,254	114,957	-0,239	-0,203
136,268	-53,051	-0,387	-0,123
137,283	23,000	-0,247	-0,141
138,297	7,424	-0,237	-0,123
139,312	-59,466	-0,283	-0,084
140,327	204,647	-0,243	-0,262
141,341	-22,045	-0,167	-0,070
142,356	178,271	-0,251	-0,255
143,370	14,168	-0,352	-0,190
144,385	194,783	-0,192	-0,203
145,400	18,808	-0,271	-0,151
146,414	-26,733	-0,209	-0,085
147,429	552,524	-0,151	-0,254
148,443	4,574	-0,271	-0,138
149,458	582,330	-0,172	-0,295
150,473	-4,980	-0,202	-0,097
151,487	-37,242	-0,229	-0,085
152,502	206,434	-0,275	-0,298
153,516	286,997	-0,212	-0,267
154,531	89,191	-0,245	-0,189
155,546	-188,502	-0,193	-0,002
156,560	34,065	-0,310	-0,187
157,575	230,615	-0,168	-0,191
158,589	18,483	-0,196	-0,109
159,604	207,640	-0,181	-0,196
160,619	-1,777	-0,249	-0,121
161,633	286,158	-0,177	-0,223
162,648	145,231	-0,162	-0,150
163,662	30,058	-0,264	-0,156
164,677	-103,941	-0,215	-0,034
165,692	65,296	-0,172	-0,121
166,706	-67,371	-0,158	-0,043
167,721	40,827	-0,197	-0,123
168,735	-75,982	-0,208	-0,051
169,750	-100,841	-0,286	-0,048
170,764	266,855	-0,276	-0,335
171,779	-103,654	-0,153	-0,025
172,794	5,546	-0,250	-0,128
173,808	-3,256	-0,269	-0,130
174,823	-78,713	-0,288	-0,068
175,837	-70,318	-0,346	0,090
176,852	-53,211	-0,167	-0,053
177,867	124,767	-0,232	-0,203
178,881	-36,680	-0,173	-0,064
179,896	10,928	-0,253	-0,134
180,910	676,190	-0,107	-0,194
181,925	-74,635	-0,305	-0,076
182,940	40,822	-0,197	-0,123
183,954	55,676	-0,326	-0,218
184,969	-17,652	-0,184	-0,080
185,983	-48,633	-0,274	-0,091
186,998	-16,524	-0,090	-0,039
188,013	362,738	-0,162	-0,226
189,027	328,206	-0,197	-0,263
190,042	134,977	-0,130	-0,117
191,056	359,113	-0,179	-0,249
192,071	-67,658	-0,250	-0,067
193,086	89,803	-0,119	-0,092
194,100	-200,000	-0,011	-0,235
195,115	-13,296	-0,229	-0,103
196,129	92,673	-0,126	-0,099
197,144	27,241	-0,170	-0,099
198,159	26,564	-0,209	-0,121
199,173	242,996	-0,162	-0,188
200,188	93,414	-0,197	-0,154
201,202	800,000	-0,104	-0,206
202,217	-17,181	-0,224	-0,097
203,232	251,625	-0,148	-0,174
204,246	-176,554	-0,298	-0,005
205,261	312,159	-0,203	-0,265
206,275	208,405	-0,151	-0,164
207,290	-3,280	-0,219	-0,105
208,304	192,680	-0,113	-0,119
209,319	-139,727	-0,297	-0,021
210,334	31,851	-0,247	-0,147
211,348	37,457	-0,270	-0,165
212,363	-76,558	-0,209	-0,050
213,377	111,287	-0,176	-0,146
214,392	330,038	-0,119	-0,159
215,407	800,000	-0,074	-0,177
216,421	-64,325	-0,221	-0,062
217,436	63,945	-0,216	-0,150
218,450	70,946	-0,246	-0,176
219,465	496,545	-0,119	-0,190
220,480	-65,257	-0,255	-0,071
221,494	25,733	-0,148	-0,085
222,509	189,100	-0,175	-0,181
223,523	187,911	-0,223	-0,230
224,538	48,230	-0,258	-0,167
225,553	136,234	-0,223	-0,201
226,567	60,288	-0,243	-0,166
227,582	108,543	-0,226	-0,186
228,596	-151,917	-0,180	0,009
229,611	-97,320	-0,153	-0,027
230,626	57,615	-0,186	-0,125
231,640	537,830	-0,096	-0,159
232,655	-40,012	-0,218	-0,078
233,669	-37,352	-0,218	-0,080
234,684	109,314	-0,155	-0,128
235,699	285,300	-0,142	-0,177
236,713	-27,789	-0,220	-0,087
237,728	-66,930	-0,248	-0,067
238,742	107,738	-0,167	-0,138
239,757	143,202	-0,217	-0,199
240,772	82,512	-0,255	-0,191
241,786	-12,463	-0,185	-0,083
242,801	84,521	-0,218	-0,164
243,815	-12,691	-0,175	-0,078
244,830	0,402	-0,212	-0,104
245,844	-50,911	-0,250	-0,081
246,859	16,574	-0,224	-0,122
247,874	100,175	-0,233	-0,186
248,888	132,164	-0,249	-0,221
249,903	190,756	-0,239	-0,248
250,917	-19,838	-0,135	-0,057
251,932	-200,000	-0,024	-0,144
252,947	64,106	-0,165	-0,114
253,961	4,771	-0,277	-0,140
254,976	51,372	-0,260	-0,170
255,990	17,022	-0,197	-0,107
257,005	-57,898	-0,228	-0,068
258,020	102,793	-0,148	-0,119
259,034	-115,720	-0,163	-0,021
260,049	134,323	-0,130	-0,116
261,063	90,657	-0,239	-0,185
262,078	71,885	-0,136	-0,097
263,093	160,669	-0,252	-0,242
264,107	68,018	-0,130	-0,092
265,122	-4,676	-0,153	-0,073
266,136	25,379	-0,126	-0,072
267,151	-153,969	-0,129	-0,006
268,166	-11,169	-0,154	-0,069
269,180	27,902	-0,154	-0,089
270,195	800,000	-0,079	-0,186
271,209	285,755	-0,201	-0,250
272,224	800,000	-0,048	-0,123
273,239	800,000	-0,111	-0,237
274,253	12,210	-0,167	-0,088
275,268	335,271	-0,189	-0,252
276,282	106,933	-0,296	-0,241
277,297	-200,000	-0,071	-0,217
278,312	60,857	-0,124	-0,085
279,326	800,000	-0,095	-0,197
280,341	-3,296	-0,167	-0,080
281,355	-175,971	-0,314	0,006
282,370	86,696	-0,233	-0,177
283,384	40,177	-0,205	-0,126
284,399	559,774	-0,097	-0,161
285,414	-133,181	-0,217	0,019
286,428	-20,908	-0,145	0,061
287,443	-94,693	-0,132	0,024
288,457	-49,275	-0,117	-0,038
289,472	-11,248	-0,099	0,045
290,487	418,670	-0,091	-0,135
291,501	62,292	-0,171	-0,117
292,516	-27,995	-0,200	-0,079
293,530	407,427	-0,067	-0,097
294,545	-200,000	-0,029	-0,124
295,560	-2,635	-0,147	-0,070
296,574	-14,192	-0,132	-0,058
297,589	60,651	-0,290	-0,197
298,603	58,344	-0,291	-0,196
299,618	-70,333	-0,286	-0,074
300,633	-20,849	-0,167	-0,070
301,647	-164,081	-0,124	0,004
302,662	706,454	-0,083	-0,150
303,676	-151,940	-0,213	-0,010
304,691	300,383	-0,153	-0,194
305,706	580,309	-0,079	-0,133
306,720	800,000	-0,089	-0,213
307,735	40,293	-0,159	-0,098
308,749	292,786	-0,047	-0,059
309,764	-200,000	0,021	-0,105
310,779	-119,886	-0,159	0,019
311,793	11,228	-0,158	-0,083
312,808	56,164	-0,180	-0,120
313,822	800,000	-0,068	-0,199
314,837	411,697	-0,135	-0,197
315,852	432,617	-0,094	-0,141
316,866	112,882	-0,153	-0,127
317,881	-85,855	-0,138	-0,029
318,895	30,309	-0,102	-0,060
319,910	127,418	-0,230	-0,200
320,925	167,678	-0,112	-0,109
321,939	-52,329	-0,110	-0,035
322,954	359,529	-0,157	-0,216
323,968	-130,277	-0,230	0,021
324,983	-78,579	-0,063	-0,015
325,997	-6,829	-0,252	-0,117
327,012	-74,883	-0,213	-0,052
328,027	27,690	-0,248	-0,142
329,041	-161,649	-0,166	0,006
330,056	-37,540	-0,173	-0,063
331,070	271,252	-0,071	-0,086
332,085	-142,132	-0,194	-0,013
333,100	-200,000	0,013	-0,133
334,114	43,921	-0,117	-0,074
335,129	1,587	-0,090	-0,044
336,143	-6,985	-0,198	-0,092
337,158	-20,115	-0,174	-0,073
338,173	213,643	-0,162	-0,176
339,187	-36,234	-0,106	0,039
340,202	122,563	-0,042	-0,036
341,216	-200,000	-0,024	-0,092
342,231	225,817	-0,168	-0,186
343,246	-176,266	-0,105	-0,002
344,260	-33,235	-0,113	0,042
345,275	9,909	-0,033	0,017
346,289	-75,256	-0,091	-0,022
347,304	289,635	-0,018	0,022
348,319	80,473	-0,170	-0,125
349,333	-22,484	-0,143	-0,059
350,348	193,059	-0,098	-0,101
351,362	509,250	-0,084	-0,134
352,377	39,244	-0,136	-0,083
353,392	-159,857	-0,056	0,002
354,406	-71,688	-0,159	-0,040
355,421	207,134	1311,982	1399,523
356,435	159,326	1472,310	1399,953
