DTS Sentinel unit serial number:	SN410029Multiplexer serial number:	ORYXHardware model number:	OX2-SRSoftware version number:	ORYX F/W v4,00 Oryx Data Collector v3.7.2.0data status	okinstallation	B3 Nyhavnadifferential loss correction	single-endedforward channel	channel 1reverse channel	N/Adate	2023/12/04time	10:22:30forward acquisition time	300,00reverse acquisition time	0,00gamma	499,1914k internal	0,3203k external	0,3203temperature offset calibration	1,0000default loss term (dB/km)	0,3820temperature slope calibration	1,0000multiplexer offset coefficient	1,0000multiplexer slope coefficient	1,0000fibre end	0,00T internal ref (°C)	13,52T ext. ref 1 (°C)	-0,89T ext. ref 2 (°C)	-0,91length (m)	temperature (°C)	Stokes	anti-Stokes-744,400	245,658	-0,208	-0,255
-743,385	436,056	-0,089	0,142
-742,371	39,428	-0,152	-0,099
-741,356	-200,000	0,034	0,195
-740,342	465,904	-0,175	-0,286
-739,327	-200,000	-0,004	0,350
-738,312	800,000	-0,146	-0,384
-737,298	-200,000	-0,082	0,321
-736,283	555,297	-0,134	-0,235
-735,269	-200,000	0,051	0,321
-734,254	494,106	-0,127	-0,213
-733,239	-92,813	-0,271	0,055
-732,225	131,416	-0,269	-0,252
-731,210	195,537	0,031	0,034
-730,196	-129,103	0,026	0,003
-729,181	-119,901	-0,060	0,007
-728,167	-153,652	-0,129	-0,006
-727,152	23,907	0,108	-0,064
-726,137	-88,029	-0,052	-0,011
-725,123	68,094	-0,091	-0,067
-724,108	-188,822	-0,176	0,002
-723,094	800,000	-0,069	-0,176
-722,079	115,687	0,053	-0,047
-721,064	-200,000	-0,004	-0,098
-720,050	790,513	-0,031	0,062
-719,035	204,362	-0,071	-0,080
-718,021	129,017	-0,070	-0,065
-717,006	82,537	-0,054	0,043
-715,991	-200,000	-0,046	-0,162
-714,977	125,741	-0,048	-0,044
-713,962	125,378	-0,052	-0,048
-712,948	4,176	0,057	0,030
-711,933	-200,000	-0,007	-0,120
-710,918	-39,723	-0,161	0,061
-709,904	800,000	0,032	0,065
-708,889	-151,420	-0,081	-0,004
-707,875	800,000	-0,033	-0,088
-706,860	-34,898	-0,017	0,007
-705,845	800,000	0,048	-0,097
-704,831	93,929	-0,075	-0,061
-703,816	286,645	0,015	-0,020
-702,802	4,417	-0,077	0,041
-701,787	-200,000	0,025	-0,196
-700,772	800,000	-0,039	0,102
-699,758	800,000	0,041	0,088
-698,743	504,209	-0,021	0,036
-697,729	-200,000	-0,004	0,020
-696,714	-32,501	0,095	0,038
-695,699	161,737	-0,136	0,138
-694,685	800,000	-0,038	-0,120
-693,670	201,080	-0,110	-0,122
-692,656	162,910	-0,031	-0,031
-691,641	-200,000	0,011	0,054
-690,627	-200,000	-0,017	-0,119
-689,612	101,423	-0,055	0,047
-688,597	12,953	-0,081	-0,045
-687,583	50,489	-0,129	-0,088
-686,568	800,000	-0,045	-0,121
-685,554	-130,971	-0,084	-0,008
-684,539	12,722	0,132	0,074
-683,524	-200,000	0,026	0,098
-682,510	800,000	-0,031	0,095
-681,495	267,841	0,079	0,101
-680,481	97,301	-0,080	0,067
-679,466	-118,977	-0,064	0,008
-678,451	-31,312	-0,066	0,027
-677,437	-200,000	0,013	0,101
-676,422	-200,000	-0,022	0,093
-675,408	-106,960	0,099	0,016
-674,393	-200,000	-0,007	0,092
-673,378	-200,000	0,003	-0,020
-672,364	-115,930	-0,156	0,021
-671,349	-105,667	-0,028	-0,005
-670,335	-189,596	-0,173	0,001
-669,320	-184,405	0,112	-0,001
-668,305	212,263	-0,035	0,040
-667,291	156,207	0,034	-0,034
-666,276	57,012	-0,100	0,070
-665,262	-200,000	-0,002	0,026
-664,247	74,932	-0,057	-0,044
-663,232	-63,988	-0,076	0,022
-662,218	289,209	-0,074	-0,098
-661,203	221,117	0,110	0,128
-660,189	-39,248	0,051	-0,019
-659,174	57,945	-0,076	-0,054
-658,159	-200,000	-0,011	-0,066
-657,145	-8,498	0,094	-0,045
-656,130	800,000	0,020	0,065
-655,116	135,912	0,007	0,007
-654,101	-200,000	0,000	-0,033
-653,086	140,823	0,043	0,041
-652,072	-200,000	0,010	-0,082
-651,057	800,000	0,037	-0,105
-650,043	-83,759	-0,115	-0,026
-649,028	-200,000	0,021	-0,093
-648,014	800,000	0,039	-0,096
-646,999	398,031	0,045	-0,068
-645,984	-200,000	0,026	-0,088
-644,970	-128,067	-0,085	-0,009
-643,955	-36,214	-0,063	0,024
-642,941	-90,915	-0,072	0,015
-641,926	7,680	0,154	-0,083
-640,911	452,267	0,077	0,124
-639,897	18,200	0,090	-0,052
-638,882	800,000	-0,071	0,167
-637,868	-68,023	-0,053	0,015
-636,853	-115,483	-0,135	0,018
-635,838	-200,000	-0,023	-0,096
-634,824	-97,800	0,019	0,003
-633,809	-20,972	-0,048	0,021
-632,795	360,835	-0,057	0,083
-631,780	-159,158	0,054	-0,002
-630,765	556,991	-0,107	0,187
-629,751	-19,018	0,081	0,036
-628,736	-113,066	-0,090	0,013
-627,722	800,000	0,033	0,079
-626,707	-67,195	0,071	0,020
-625,692	287,777	0,035	-0,046
-624,678	-132,769	-0,040	-0,004
-623,663	800,000	0,038	-0,080
-622,649	-110,686	-0,118	-0,017
-621,634	-200,000	-0,002	0,049
-620,619	454,642	-0,057	-0,091
-619,605	200,872	0,013	0,014
-618,590	17,652	0,041	-0,024
-617,576	-7,436	-0,001	0,001
-616,561	-66,516	0,084	-0,024
-615,546	800,000	-0,007	-0,015
-614,532	468,208	0,064	-0,104
-613,517	-149,429	0,042	0,002
-612,503	94,730	-0,122	0,100
-611,488	419,232	0,104	0,161
-610,474	-90,896	-0,102	0,021
-609,459	-200,000	-0,008	-0,062
-608,444	800,000	-0,017	0,046
-607,430	-200,000	0,003	-0,075
-606,415	-200,000	0,012	0,064
-605,401	-200,000	0,004	0,093
-604,386	800,000	0,051	-0,140
-603,371	-200,000	-0,000	0,131
-602,357	149,549	-0,092	0,090
-601,342	-200,000	-0,097	0,000
-600,328	158,333	-0,024	0,025
-599,313	203,709	-0,062	0,069
-598,298	800,000	0,021	0,045
-597,284	158,747	-0,085	0,086
-596,269	328,923	-0,055	0,076
-595,255	-137,489	0,068	-0,006
-594,240	-200,000	0,002	-0,056
-593,225	-200,000	0,003	0,013
-592,211	724,142	0,077	-0,148
-591,196	-200,000	-0,012	0,063
-590,182	-200,000	-0,011	0,097
-589,167	-97,284	-0,060	-0,011
-588,152	207,700	0,048	-0,054
-587,138	361,562	-0,050	0,073
-586,123	-12,012	-0,126	-0,060
-585,109	-48,959	0,068	0,024
-584,094	-78,535	0,038	0,009
-583,079	800,000	-0,037	-0,099
-582,065	105,428	0,020	-0,017
-581,050	-157,852	-0,054	0,002
-580,036	150,862	0,136	-0,133
-579,021	190,306	-0,145	-0,157
-578,006	639,908	-0,028	-0,051
-576,992	800,000	0,020	0,047
-575,977	195,928	0,079	-0,087
-574,963	201,531	0,068	-0,075
-573,948	-200,000	-0,023	0,188
-572,934	-25,520	-0,082	-0,035
-571,919	24,225	-0,133	-0,079
-570,904	-200,000	0,006	-0,068
-569,890	800,000	-0,048	-0,112
-568,875	-200,000	-0,005	0,019
-567,861	-75,592	0,086	-0,022
-566,846	-200,000	-0,012	-0,040
-565,831	-200,000	0,012	-0,094
-564,817	-68,981	-0,138	-0,038
-563,802	211,275	0,049	-0,056
-562,788	257,777	0,093	-0,116
-561,773	800,000	0,025	-0,069
-560,758	65,997	0,021	0,015
-559,744	84,904	-0,076	0,060
-558,729	-80,502	-0,072	0,017
-557,715	120,602	-0,039	-0,035
-556,700	-16,629	-0,095	0,043
-555,685	-40,244	0,066	-0,025
-554,671	-56,639	0,100	0,032
-553,656	-200,000	0,012	-0,087
-552,642	-13,993	0,030	-0,014
-551,627	-200,000	-0,031	0,124
-550,612	570,532	-0,040	-0,071
-549,598	56,140	-0,046	0,032
-548,583	183,497	0,096	-0,103
-547,569	80,967	0,096	0,074
-546,554	-200,000	0,005	0,023
-545,539	740,399	-0,037	0,072
-544,525	21,203	0,046	0,027
-543,510	-101,865	-0,079	-0,014
-542,496	-22,032	0,072	-0,031
-541,481	-54,324	-0,172	-0,056
-540,466	800,000	0,022	0,052
-539,452	800,000	0,059	-0,154
-538,437	123,688	0,064	0,058
-537,423	-83,482	-0,030	-0,007
-536,408	54,088	0,082	0,057
-535,393	-200,000	-0,025	-0,103
-534,379	-66,298	0,036	-0,010
-533,364	120,042	-0,076	0,068
-532,350	-65,582	-0,111	-0,032
-531,335	98,058	0,093	0,077
-530,321	800,000	-0,069	0,168
-529,306	314,211	0,039	-0,053
-528,291	9,687	-0,130	0,071
-527,277	-200,000	-0,012	-0,057
-526,262	-54,867	-0,090	0,029
-525,248	-29,990	-0,081	0,033
-524,233	-67,584	0,135	0,038
-523,218	-200,000	0,017	-0,117
-522,204	-200,000	-0,011	-0,052
-521,189	-63,656	-0,194	0,057
-520,175	173,709	-0,088	-0,092
-519,160	800,000	0,042	-0,102
-518,145	-198,998	-0,197	-0,001
-517,131	-200,000	0,012	0,155
-516,116	-200,000	0,011	-0,099
-515,102	65,731	-0,137	0,100
-514,087	86,212	-0,084	0,067
-513,072	93,492	-0,050	0,041
-512,058	800,000	-0,034	0,099
-511,043	259,920	0,053	-0,066
-510,029	-87,503	0,110	-0,024
-509,014	-132,960	0,042	0,004
-507,999	38,349	-0,111	0,071
-506,985	-26,904	-0,068	-0,029
-505,970	-59,105	0,107	0,033
-504,956	300,825	-0,049	-0,066
-503,941	612,201	0,036	0,066
-502,926	-200,000	-0,036	-0,131
-501,912	-200,000	0,004	0,151
-500,897	-200,000	-0,018	-0,154
-499,883	-200,000	0,008	0,053
-498,868	1,120	-0,117	-0,060
-497,853	-0,698	-0,046	-0,023
-496,839	192,297	0,063	0,069
-495,824	-200,000	-0,013	0,113
-494,810	338,609	-0,067	-0,094
-493,795	-148,621	0,049	0,003
-492,781	119,547	0,073	0,065
-491,766	-200,000	0,009	-0,077
-490,751	-200,000	-0,016	-0,087
-489,737	-200,000	0,005	-0,078
-488,722	-5,305	-0,152	0,075
-487,708	-71,839	0,129	-0,034
-486,693	55,985	0,076	-0,053
-485,678	118,354	-0,064	-0,057
-484,664	-58,320	-0,099	0,031
-483,649	-100,533	-0,119	-0,021
-482,635	-69,399	-0,156	0,043
-481,620	0,772	-0,051	0,026
-480,605	-135,881	0,120	-0,010
-479,591	-46,861	0,081	-0,028
-478,576	-200,000	-0,052	-0,167
-477,562	-200,000	-0,003	-0,078
-476,547	-167,779	-0,070	-0,002
-475,532	-200,000	0,021	-0,157
-474,518	6,097	0,107	0,057
-473,503	-26,377	0,037	-0,016
-472,489	-164,792	-0,106	0,003
-471,474	-200,000	0,017	-0,136
-470,459	-200,000	0,019	-0,069
-469,445	668,551	-0,049	-0,092
-468,430	520,670	0,012	-0,021
-467,416	-114,386	-0,105	-0,014
-466,401	800,000	0,092	0,251
-465,386	-97,437	-0,097	-0,018
-464,372	-39,134	0,089	-0,034
-463,357	54,066	0,057	-0,039
-462,343	-79,728	-0,032	-0,008
-461,328	-52,396	-0,109	-0,036
-460,313	-50,519	-0,018	0,006
-459,299	229,859	-0,065	0,076
-458,284	-72,154	0,095	-0,025
-457,270	89,826	-0,178	0,143
-456,255	32,712	0,105	0,065
-455,241	46,642	-0,082	-0,055
-454,226	-41,318	-0,038	0,014
-453,211	299,439	0,117	0,156
-452,197	-102,998	0,038	0,006
-451,182	399,459	0,081	-0,122
-450,168	-90,756	0,115	0,024
-449,153	199,214	-0,125	0,137
-448,138	167,769	0,049	0,050
-447,124	164,971	0,150	-0,153
-446,109	617,732	0,085	-0,154
-445,095	800,000	-0,027	0,064
-444,080	-52,337	0,109	0,036
-443,065	159,732	-0,048	-0,048
-442,051	-200,000	0,002	-0,010
-441,036	35,033	-0,003	-0,002
-440,022	-2,267	-0,137	0,069
-439,007	-200,000	0,007	-0,048
-437,992	-103,390	0,099	-0,017
-436,978	800,000	0,011	-0,035
-435,963	688,767	-0,034	0,064
-434,949	-169,523	-0,017	-0,000
-433,934	94,172	-0,153	0,125
-432,919	533,816	-0,058	-0,099
-431,905	800,000	0,043	-0,096
-430,890	90,550	0,117	0,094
-429,876	227,662	-0,035	0,041
-428,861	-200,000	0,012	0,109
-427,846	20,924	0,149	-0,086
-426,832	-200,000	0,035	-0,144
-425,817	-200,000	-0,006	-0,092
-424,803	61,187	0,020	0,014
-423,788	26,765	-0,098	-0,059
-422,773	-51,938	0,233	0,077
-421,759	118,284	-0,022	0,019
-420,744	800,000	0,020	0,055
-419,730	800,000	-0,065	-0,146
-418,715	-200,000	-0,008	-0,056
-417,701	800,000	-0,045	-0,091
-416,686	-160,470	0,043	-0,002
-415,671	-9,949	0,031	-0,015
-414,657	312,494	0,032	0,043
-413,642	-23,297	-0,028	-0,012
-412,628	24,406	0,007	0,004
-411,613	657,266	-0,049	-0,092
-410,598	-95,451	-0,125	-0,024
-409,584	800,000	0,039	0,104
-408,569	800,000	0,011	0,028
-407,555	166,795	0,042	0,043
-406,540	-92,643	0,046	0,009
-405,525	800,000	-0,040	0,118
-404,511	-200,000	-0,026	0,105
-403,496	-162,303	-0,163	-0,006
-402,482	-200,000	-0,022	-0,136
-401,467	-60,982	0,137	0,041
-400,452	800,000	-0,021	0,063
-399,438	267,007	-0,035	-0,044
-398,423	-166,982	0,090	-0,003
-397,409	-96,672	-0,132	-0,025
-396,394	800,000	-0,030	-0,061
-395,379	32,632	-0,019	0,012
-394,365	-200,000	0,031	-0,099
-393,350	-117,337	0,064	-0,008
-392,336	235,264	0,035	0,041
-391,321	-200,000	0,008	-0,077
-390,306	-200,000	-0,015	-0,051
-389,292	75,601	0,097	-0,074
-388,277	-119,528	-0,098	-0,012
-387,263	-94,911	0,126	0,024
-386,248	-200,000	0,004	0,073
-385,233	-155,468	0,178	0,008
-384,219	-200,000	0,006	-0,036
-383,204	-200,000	0,036	0,149
-382,190	-84,639	-0,011	-0,002
-381,175	-200,000	-0,023	-0,116
-380,160	-110,116	0,159	-0,024
-379,146	106,024	-0,033	0,028
-378,131	800,000	0,062	0,133
-377,117	-200,000	-0,014	0,101
-376,102	-200,000	0,006	0,033
-375,088	548,010	0,058	-0,100
-374,073	-42,392	-0,102	0,037
-373,058	33,244	-0,034	0,021
-372,044	-20,966	0,071	0,031
-371,029	56,562	0,049	0,034
-370,015	97,077	0,031	0,026
-369,000	530,884	0,023	0,039
-367,985	447,901	0,016	0,025
-366,971	-32,103	0,183	-0,073
-365,956	-58,607	0,077	0,024
-364,942	20,765	0,148	0,086
-363,927	-200,000	0,018	0,113
-362,912	515,094	0,022	0,036
-361,898	-200,000	0,019	-0,064
-360,883	79,938	0,112	0,086
-359,869	800,000	-0,027	0,059
-358,854	-115,279	0,028	0,004
-357,839	100,433	0,051	0,043
-356,825	-26,969	-0,063	0,026
-355,810	351,405	-0,042	-0,060
-354,796	-182,567	-0,093	-0,001
-353,781	190,774	-0,076	-0,082
-352,766	-135,745	-0,087	-0,007
-351,752	-200,000	0,009	-0,034
-350,737	21,540	0,119	0,069
-349,723	144,868	0,108	-0,104
-348,708	-96,932	-0,028	-0,005
-347,693	-200,000	-0,034	0,174
-346,679	-200,000	0,021	0,097
-345,664	800,000	-0,075	-0,153
-344,650	-140,809	-0,027	0,002
-343,635	37,982	-0,083	-0,053
-342,620	-200,000	0,023	-0,097
-341,606	149,200	-0,071	0,069
-340,591	-95,234	-0,124	-0,024
-339,577	800,000	0,041	-0,108
-338,562	-116,777	-0,153	0,020
-337,548	-9,549	-0,139	0,066
-336,533	157,932	0,080	0,080
-335,518	-200,000	0,052	0,166
-334,504	-176,841	-0,122	0,002
-333,489	243,627	-0,059	0,071
-332,475	19,188	-0,175	-0,100
-331,460	-74,149	0,090	0,023
-330,445	625,380	0,072	0,131
-329,431	43,690	-0,030	-0,019
-328,416	53,177	0,036	0,025
-327,402	243,550	0,106	0,128
-326,387	-200,000	0,038	0,121
-325,372	84,275	-0,065	0,051
-324,358	-10,320	-0,046	-0,022
-323,343	133,615	0,072	0,066
-322,329	118,750	0,073	0,064
-321,314	-200,000	-0,004	-0,088
-320,299	68,639	-0,074	0,055
-319,285	190,996	-0,034	-0,037
-318,270	127,099	-0,035	-0,032
-317,256	311,510	0,039	0,053
-316,241	249,793	0,036	-0,043
-315,226	87,570	0,009	-0,007
-314,212	800,000	-0,014	-0,034
-313,197	20,264	0,004	-0,002
-312,183	144,534	0,103	0,098
-311,168	-150,491	0,056	0,003
-310,153	-30,529	-0,146	0,059
-309,139	-126,457	0,065	0,007
-308,124	-200,000	0,005	-0,067
-307,110	400,290	0,049	0,074
-306,095	-200,000	0,017	-0,071
-305,080	325,309	0,073	-0,100
-304,066	602,330	-0,034	-0,060
-303,051	-200,000	0,017	-0,149
-302,037	-27,300	0,087	0,036
-301,022	800,000	0,027	-0,059
-300,008	-72,522	-0,060	-0,016
-298,993	800,000	0,008	-0,023
-297,978	800,000	-0,071	-0,152
-296,964	-148,455	-0,028	-0,002
-295,949	-53,342	0,096	-0,031
-294,935	182,219	-0,100	-0,105
-293,920	800,000	0,047	0,134
-292,905	-200,000	0,019	0,092
-291,891	-7,240	0,079	0,038
-290,876	327,645	0,127	0,174
-289,862	-104,311	-0,066	0,011
-288,847	694,639	-0,045	-0,084
-287,832	-200,000	0,005	0,036
-286,818	800,000	-0,018	0,051
-285,803	29,747	0,120	0,073
-284,789	69,079	0,176	-0,129
-283,774	93,995	0,092	0,075
-282,759	-200,000	-0,018	0,073
-281,745	800,000	-0,006	0,015
-280,730	-124,189	0,151	-0,017
-279,716	-200,000	0,006	-0,083
-278,701	800,000	0,030	0,073
-277,686	544,992	-0,055	0,093
-276,672	-123,116	0,052	-0,006
-275,657	497,917	-0,011	-0,018
-274,643	-13,937	-0,189	-0,087
-273,628	139,187	-0,066	0,062
-272,613	-9,788	0,069	-0,033
-271,599	-200,000	-0,004	-0,114
-270,584	-200,000	0,009	0,079
-269,570	304,261	0,035	0,047
-268,555	-200,000	-0,049	0,168
-267,540	555,698	-0,039	-0,067
-266,526	24,303	-0,091	0,054
-265,511	207,215	0,036	-0,040
-264,497	162,329	0,030	-0,030
-263,482	30,138	0,154	0,094
-262,467	800,000	0,055	0,111
-261,453	-66,142	0,149	0,042
-260,438	-200,000	-0,011	-0,157
-259,424	220,931	0,010	-0,011
-258,409	88,261	-0,064	-0,051
-257,395	-3,270	0,054	0,027
-256,380	800,000	-0,018	-0,056
-255,365	333,442	-0,029	0,041
-254,351	800,000	-0,012	0,033
-253,336	-200,000	-0,005	0,063
-252,322	470,430	-0,066	-0,107
-251,307	1,308	0,057	0,029
-250,292	-200,000	-0,001	0,126
-249,278	503,120	-0,028	-0,047
-248,263	47,274	0,052	-0,035
-247,249	-39,031	0,101	0,038
-246,234	50,558	-0,075	-0,050
-245,219	-143,620	-0,057	0,004
-244,205	66,730	-0,135	0,098
-243,190	371,615	0,079	0,114
-242,176	-200,000	-0,008	0,053
-241,161	158,082	0,154	0,153
-240,146	48,147	0,064	0,042
-239,132	199,212	0,127	-0,139
-238,117	16,837	-0,090	-0,051
-237,103	289,099	0,004	0,005
-236,088	66,294	-0,043	-0,031
-235,073	-200,000	0,022	0,124
-234,059	-26,669	0,066	-0,027
-233,044	225,095	-0,091	-0,105
-232,030	-141,285	0,145	-0,010
-231,015	135,256	-0,062	-0,058
-230,000	92,643	-0,120	-0,096
-228,986	618,642	0,090	-0,161
-227,971	-104,196	0,007	-0,001
-226,957	2,962	0,192	0,099
-225,942	-200,000	-0,003	0,033
-224,927	517,531	-0,064	0,107
-223,913	46,977	-0,020	-0,013
-222,898	-200,000	-0,021	-0,154
-221,884	-84,540	-0,134	0,030
-220,869	800,000	-0,030	-0,060
-219,855	265,091	-0,073	0,091
-218,840	-113,155	0,086	0,012
-217,825	-77,492	0,137	0,033
-216,811	126,269	0,047	0,042
-215,796	28,071	0,008	-0,005
-214,782	174,220	-0,060	-0,062
-213,767	254,035	0,015	0,018
-212,752	-59,193	0,121	0,037
-211,738	336,599	-0,049	-0,068
-210,723	-1,813	-0,095	0,048
-209,709	-200,000	0,012	-0,065
-208,694	-160,964	-0,094	-0,003
-207,679	490,075	0,090	-0,147
-206,665	-14,578	-0,010	0,005
-205,650	-200,000	-0,005	0,140
-204,636	-144,726	0,198	0,013
-203,621	800,000	-0,024	0,073
-202,606	67,068	-0,072	-0,052
-201,592	-200,000	-0,024	-0,170
-200,577	800,000	0,050	-0,102
-199,563	-200,000	-0,015	-0,110
-198,548	38,711	0,064	0,041
-197,533	-136,035	-0,016	0,001
-196,519	800,000	-0,029	-0,070
-195,504	800,000	-0,041	0,117
-194,490	463,558	-0,060	-0,096
-193,475	800,000	-0,057	-0,123
-192,460	-200,000	-0,002	0,011
-191,446	50,970	-0,022	-0,015
-190,431	336,975	0,074	0,102
-189,417	636,598	0,055	-0,101
-188,402	117,812	-0,015	-0,013
-187,387	79,166	0,095	0,072
-186,373	-200,000	-0,009	-0,050
-185,358	-200,000	0,042	-0,140
-184,344	-171,368	0,144	-0,003
-183,329	800,000	0,047	0,094
-182,315	-34,518	-0,018	0,007
-181,300	257,095	0,042	0,051
-180,285	-200,000	0,003	-0,100
-179,271	715,138	0,019	-0,036
-178,256	800,000	-0,055	-0,114
-177,242	800,000	0,018	0,041
-176,227	-136,061	-0,041	0,003
-175,212	-150,304	0,024	0,001
-174,198	-200,000	-0,051	0,178
-173,183	-200,000	-0,032	-0,118
-172,169	-200,000	-0,017	-0,063
-171,154	-200,000	-0,001	-0,027
-170,139	800,000	-0,039	0,106
-169,125	-200,000	0,041	0,156
-168,110	141,657	0,057	0,054
-167,096	227,564	0,010	-0,011
-166,081	-54,232	0,037	-0,012
-165,066	-56,605	-0,092	0,029
-164,052	-67,596	-0,060	0,017
-163,037	1,048	-0,065	0,033
-162,023	-200,000	-0,007	0,110
-161,008	-200,000	0,005	-0,035
-159,993	382,804	-0,055	-0,080
-158,979	-45,511	0,070	0,025
-157,964	800,000	-0,026	-0,061
-156,950	-38,096	-0,043	0,016
-155,935	11,386	-0,028	0,015
-154,920	101,387	-0,125	0,104
-153,906	194,037	-0,040	0,043
-152,891	-200,000	-0,001	-0,016
-151,877	171,443	0,086	-0,087
-150,862	290,587	-0,087	0,113
-149,847	-16,827	-0,113	-0,051
-148,833	-21,196	0,051	-0,022
-147,818	63,854	-0,053	0,038
-146,804	-79,089	-0,127	-0,030
-145,789	160,817	0,084	-0,083
-144,775	-200,000	-0,000	-0,158
-143,760	-39,217	0,121	-0,045
-142,745	-58,117	-0,124	0,038
-141,731	270,294	-0,041	-0,052
-140,716	-200,000	0,005	0,038
-139,702	429,528	-0,024	-0,037
-138,687	-10,825	0,160	0,075
-137,672	45,049	-0,083	-0,054
-136,658	-200,000	0,022	-0,118
-135,643	-200,000	-0,013	-0,060
-134,629	115,836	-0,117	0,102
-133,614	-200,000	-0,015	0,147
-132,599	800,000	-0,061	0,156
-131,585	-200,000	0,003	-0,093
-130,570	38,979	-0,113	-0,071
-129,556	-200,000	0,014	-0,246
-128,541	339,063	0,014	-0,019
-127,526	-69,278	-0,096	0,026
-126,512	-200,000	0,012	-0,043
-125,497	-200,000	0,046	-0,196
-124,483	-31,759	-0,170	0,067
-123,468	-124,767	0,014	-0,002
-122,453	16,828	-0,049	0,028
-121,439	-102,892	-0,137	0,023
-120,424	206,619	-0,041	-0,045
-119,410	-200,000	0,002	-0,117
-118,395	-200,000	-0,011	-0,039
-117,380	-200,000	0,004	0,016
-116,366	-200,000	-0,018	0,089
-115,351	99,652	-0,050	0,041
-114,337	-200,000	-0,003	-0,053
-113,322	-22,659	-0,110	0,047
-112,307	258,308	-0,067	0,082
-111,293	415,430	-0,031	0,047
-110,278	-97,185	-0,131	-0,024
-109,264	-46,291	0,041	0,014
-108,249	418,696	0,051	0,077
-107,234	129,305	-0,028	0,025
-106,220	417,009	-0,048	-0,073
-105,205	306,755	-0,055	0,072
-104,191	800,000	0,029	0,081
-103,176	657,073	0,061	0,112
-102,162	-200,000	-0,008	0,027
-101,147	-200,000	0,047	-0,170
-100,132	189,937	0,067	-0,071
-99,118	92,608	0,089	-0,071
-98,103	-200,000	0,009	0,072
-97,089	-122,077	-0,123	0,014
-96,074	-200,000	0,015	-0,086
-95,059	-148,514	-0,074	-0,004
-94,045	-27,667	-0,112	0,046
-93,030	-200,000	-0,014	0,059
-92,016	-134,777	-0,130	-0,011
-91,001	-200,000	-0,022	-0,069
-89,986	800,000	0,050	0,146
-88,972	-137,961	0,189	0,015
-87,957	-200,000	0,001	0,002
-86,943	-200,000	-0,002	-0,023
-85,928	47,654	-0,117	-0,077
-84,913	210,407	-0,057	-0,064
-83,899	-200,000	0,097	-0,000
-82,884	-113,565	0,066	-0,009
-81,870	217,788	-0,137	0,155
-80,855	200,079	0,016	0,018
-79,840	-200,000	-0,002	0,092
-78,826	-200,000	0,023	0,085
-77,811	-65,740	0,042	0,012
-76,797	800,000	0,014	-0,041
-75,782	800,000	0,001	0,002
-74,767	-55,532	-0,157	0,049
-73,753	-156,997	0,084	0,004
-72,738	129,194	0,072	-0,065
-71,724	-200,000	-0,012	0,063
-70,709	-54,695	0,059	-0,019
-69,694	-88,806	-0,067	-0,014
-68,680	-200,000	0,001	0,009
-67,665	412,632	0,034	-0,051
-66,651	-200,000	0,041	0,183
-65,636	173,072	0,017	-0,017
-64,622	800,000	0,019	0,038
-63,607	800,000	-0,016	-0,040
-62,592	63,419	0,067	-0,048
-61,578	-169,005	0,021	0,001
-60,563	-200,000	-0,006	0,123
-59,549	800,000	-0,029	0,078
-58,534	-5,225	-1,478	-0,717
-57,519	515,219	-1,293	-2,144
-56,505	-200,000	-0,470	-4,549
-55,490	262,018	1,143	1,405
-54,476	800,000	4,884	10,988
-53,461	-200,000	18,998	318,113
-52,446	-200,000	739,746	2334,134
-51,432	576,103	1654,879	2872,029
-50,417	78,721	1670,810	1263,245
-49,403	21,536	1543,692	886,220
-48,388	15,391	1466,130	811,839
-47,373	17,880	1456,505	818,499
-46,359	16,699	1446,224	807,027
-45,344	13,652	1441,706	789,889
-44,330	13,577	1439,724	788,414
-43,315	13,587	1437,980	787,472
-42,300	13,576	1436,402	786,525
-41,286	13,590	1434,993	785,788
-40,271	13,568	1433,730	784,960
-39,257	13,541	1432,470	784,113
-38,242	13,647	1431,054	783,812
-37,227	13,595	1430,274	783,105
-36,213	13,624	1428,767	782,386
-35,198	13,606	1427,536	781,598
-34,184	13,647	1426,704	781,305
-33,169	13,586	1425,319	780,227
-32,154	13,604	1424,333	779,742
-31,140	13,636	1422,840	779,045
-30,125	13,651	1421,952	778,598
-29,111	13,635	1420,636	777,770
-28,096	13,593	1419,620	776,984
-27,082	13,571	1418,394	776,179
-26,067	13,577	1417,167	775,503
-25,052	13,552	1416,348	774,906
-24,038	13,524	1415,475	774,268
-23,023	13,536	1414,386	773,699
-22,009	13,504	1413,365	772,960
-20,994	13,495	1412,567	772,447
-19,979	13,529	1411,611	772,057
-18,965	13,482	1410,658	771,283
-17,950	13,483	1409,684	770,724
-16,936	13,502	1408,769	770,281
-15,921	13,449	1407,585	769,358
-14,906	13,455	1406,720	768,883
-13,892	13,488	1405,784	768,494
-12,877	13,461	1404,914	767,864
-11,863	13,433	1404,214	767,320
-10,848	13,435	1403,217	766,753
-9,833	13,472	1402,232	766,354
-8,819	13,349	1401,502	765,354
-7,804	13,369	1400,501	764,870
-6,790	13,366	1399,453	764,252
-5,775	13,385	1398,290	763,675
-4,760	13,364	1397,545	763,143
-3,746	13,362	1396,756	762,673
-2,731	13,342	1395,913	762,089
-1,717	13,316	1394,918	761,394
-0,702	13,316	1393,169	760,410
0,313	17,237	1310,187	733,248
1,327	33,606	703,893	431,742
2,342	51,392	123,335	82,699
3,356	1,406	16,710	8,467
4,371	4,064	3,169	1,634
5,386	-25,308	0,573	0,239
6,400	85,640	0,275	0,213
7,415	-27,458	-0,143	-0,058
8,429	95,431	-0,318	-0,256
9,444	271,451	-0,252	-0,314
10,459	131,941	-0,248	-0,225
11,473	3,176	-0,341	-0,175
12,488	-22,890	-0,267	-0,114
13,502	162,932	-0,264	-0,263
14,517	-19,510	-0,326	-0,142
15,531	-32,857	-0,393	-0,153
16,546	54,905	-0,188	-0,128
17,561	22,931	-0,419	-0,242
18,575	-79,581	-0,262	-0,062
19,590	310,878	-0,168	-0,222
20,604	187,378	-0,201	-0,212
21,619	20,284	-0,432	-0,246
22,634	356,912	-0,315	-0,444
23,648	97,388	-0,432	-0,350
24,663	484,558	-0,267	-0,431
25,677	115,282	-0,266	-0,229
26,692	-21,016	-0,438	-0,189
27,707	10,718	-0,413	-0,222
28,721	-31,365	-0,291	-0,115
29,736	62,200	-0,391	-0,275
30,750	98,579	-0,436	-0,354
31,765	74,689	-0,304	-0,225
32,780	26,464	-0,410	-0,241
33,794	201,799	-0,341	-0,371
34,809	146,517	-0,364	-0,345
35,823	20,774	-0,400	-0,228
36,838	51,925	-0,279	-0,187
37,853	163,577	-0,328	-0,326
38,867	154,820	-0,230	-0,223
39,882	133,789	-0,381	-0,348
40,896	34,047	-0,323	-0,198
41,911	83,596	-0,377	-0,289
42,926	65,751	-0,415	-0,296
43,940	42,026	-0,409	-0,261
44,955	136,914	-0,356	-0,328
45,969	176,054	-0,286	-0,293
46,984	116,017	-0,325	-0,280
47,999	-11,097	-0,309	-0,143
49,013	-69,158	-0,453	-0,122
50,028	156,186	-0,237	-0,230
51,042	90,629	-0,418	-0,330
52,057	269,837	-0,305	-0,378
53,071	43,352	-0,461	-0,296
54,086	-13,718	-0,294	-0,133
55,101	-20,891	-0,368	-0,158
56,115	16,121	-0,364	-0,201
57,130	-42,580	-0,354	-0,126
58,144	24,776	-0,419	-0,244
59,159	248,781	-0,322	-0,385
60,174	85,684	-0,394	-0,305
61,188	14,958	-0,427	-0,234
62,203	-60,885	-0,231	-0,068
63,217	-9,619	-0,292	-0,136
64,232	97,825	-0,293	-0,237
65,247	108,458	-0,283	-0,237
66,261	146,779	-0,340	-0,321
67,276	31,006	-0,482	-0,290
68,290	39,881	-0,380	-0,240
69,305	62,542	-0,338	-0,237
70,320	14,995	-0,299	-0,164
71,334	172,430	-0,287	-0,291
72,349	424,378	-0,190	-0,288
73,363	278,391	-0,244	-0,306
74,378	72,946	-0,382	-0,280
75,393	149,072	-0,250	-0,238
76,407	16,570	-0,268	-0,149
77,422	26,581	-0,248	-0,146
78,436	97,059	-0,203	-0,163
79,451	-37,024	-0,310	-0,116
80,466	-2,368	-0,246	-0,121
81,480	64,416	-0,301	-0,213
82,495	9,126	-0,349	-0,184
83,509	83,110	-0,244	-0,186
84,524	53,276	-0,342	-0,230
85,539	91,538	-0,336	-0,265
86,553	48,954	-0,251	-0,165
87,568	348,257	-0,149	-0,207
88,582	257,551	-0,243	-0,294
89,597	22,936	-0,334	-0,192
90,611	69,635	-0,339	-0,245
91,626	-69,342	-0,260	-0,070
92,641	108,709	-0,214	-0,179
93,655	57,982	-0,316	-0,217
94,670	-24,935	-0,312	-0,129
95,684	55,100	-0,323	-0,219
96,699	102,151	-0,362	-0,296
97,714	-106,001	-0,329	-0,051
98,728	787,771	-0,121	-0,233
99,743	329,841	-0,145	-0,197
100,757	3,081	-0,293	-0,149
101,772	-46,411	-0,294	-0,101
102,787	-24,924	-0,394	-0,163
103,801	309,064	-0,204	-0,268
104,816	288,291	-0,189	-0,240
105,830	18,598	-0,257	-0,144
106,845	44,715	-0,231	-0,148
107,860	10,863	-0,282	-0,150
108,874	52,391	-0,248	-0,166
109,889	90,434	-0,404	-0,317
110,903	116,519	-0,154	-0,133
111,918	115,972	-0,131	-0,112
112,933	-26,767	-0,253	-0,103
113,947	111,458	-0,297	-0,250
114,962	-89,296	-0,246	-0,050
115,976	215,777	-0,232	-0,258
116,991	343,057	-0,175	-0,241
118,006	448,615	-0,228	-0,352
119,020	11,668	-0,282	-0,151
120,035	-16,258	-0,235	-0,104
121,049	5,292	-0,345	-0,177
122,064	305,625	-0,187	-0,244
123,079	24,098	-0,209	-0,120
124,093	142,948	-0,303	-0,282
125,108	210,058	-0,227	-0,249
126,122	58,429	-0,298	-0,204
127,137	-10,775	-0,215	-0,099
128,151	-55,088	-0,316	-0,099
129,166	-48,442	-0,227	-0,076
130,181	-27,734	-0,182	-0,074
131,195	30,316	-0,388	-0,231
132,210	104,591	-0,334	-0,275
133,224	7,308	-0,300	-0,156
134,239	123,415	-0,104	-0,091
135,254	97,740	-0,209	-0,168
136,268	335,050	-0,148	-0,202
137,283	-133,065	-0,226	-0,020
138,297	122,097	-0,224	-0,196
139,312	42,337	-0,295	-0,187
140,327	19,507	-0,223	-0,125
141,341	13,386	-0,299	-0,161
142,356	66,288	-0,241	-0,170
143,370	-25,606	-0,173	-0,071
144,385	43,708	-0,295	-0,188
145,400	105,654	-0,296	-0,244
146,414	21,370	-0,256	-0,145
147,429	145,548	-0,287	-0,269
148,443	40,541	-0,258	-0,162
149,458	154,865	-0,177	-0,170
150,473	262,312	-0,172	-0,209
151,487	151,179	-0,172	-0,164
152,502	269,618	-0,208	-0,256
153,516	263,750	-0,213	-0,259
154,531	80,246	-0,298	-0,224
155,546	39,182	-0,356	-0,222
156,560	300,652	-0,128	-0,165
157,575	120,199	-0,206	-0,179
158,589	270,998	-0,217	-0,268
159,604	105,885	-0,332	-0,274
160,619	-44,442	-0,287	-0,100
161,633	171,159	-0,226	-0,226
162,648	111,366	-0,206	-0,173
163,662	175,011	-0,233	-0,236
164,677	-41,032	-0,274	-0,098
165,692	-57,820	-0,165	-0,050
166,706	186,403	-0,174	-0,181
167,721	62,796	-0,227	-0,158
168,735	410,981	-0,218	-0,324
169,750	109,464	-0,226	-0,189
170,764	183,463	-0,184	-0,190
171,779	23,813	-0,264	-0,151
172,794	440,851	-0,200	-0,306
173,808	39,828	-0,192	-0,120
174,823	-33,080	-0,276	-0,106
175,837	162,864	-0,232	-0,227
176,852	74,568	-0,188	-0,137
177,867	-6,339	-0,144	-0,068
178,881	-92,565	-0,332	-0,064
179,896	70,941	-0,181	-0,131
180,910	-91,369	-0,372	-0,073
181,925	113,025	-0,168	-0,141
182,940	800,000	-0,084	-0,235
183,954	37,151	-0,102	-0,063
184,969	-76,308	-0,184	-0,045
185,983	-10,560	-0,268	-0,123
186,998	-159,868	-0,182	0,007
188,013	34,427	-0,233	-0,141
189,027	-30,416	-0,269	-0,106
190,042	4,736	-0,283	-0,144
191,056	519,735	-0,155	-0,253
192,071	80,283	-0,209	-0,156
193,086	309,675	-0,196	-0,255
194,100	0,267	-0,197	-0,097
195,115	717,229	-0,108	-0,200
196,129	49,232	-0,306	-0,199
197,144	-124,655	-0,124	0,013
198,159	161,619	-0,158	-0,153
199,173	27,961	-0,087	-0,051
200,188	362,934	-0,117	-0,163
201,202	-64,894	-0,254	-0,071
202,217	41,637	-0,262	-0,165
203,232	48,573	-0,176	-0,115
204,246	256,886	-0,126	-0,151
205,261	262,378	-0,157	-0,189
206,275	-200,000	-0,030	-0,214
207,290	-200,000	0,001	-0,110
208,304	-88,946	-0,167	-0,034
209,319	754,499	-0,123	-0,232
210,334	-178,796	-0,265	-0,004
211,348	209,246	-0,155	-0,169
212,363	254,317	-0,228	-0,272
213,377	272,246	-0,136	-0,167
214,392	57,347	-0,138	0,094
215,407	52,163	-0,126	-0,083
216,421	-105,270	-0,387	-0,061
217,436	51,689	-0,212	-0,140
218,450	-10,110	-0,317	-0,146
219,465	111,583	-0,224	-0,188
220,480	-42,883	-0,198	-0,069
221,494	459,096	-0,116	-0,180
222,509	21,133	-0,143	-0,080
223,523	274,772	-0,099	-0,122
224,538	34,572	-0,267	-0,161
225,553	-20,896	-0,164	-0,069
226,567	98,172	-0,208	-0,166
227,582	165,036	-0,151	-0,148
228,596	45,272	-0,137	-0,088
229,611	773,723	-0,106	-0,202
230,626	-59,131	-0,201	-0,060
231,640	-102,062	-0,242	-0,040
232,655	325,834	-0,170	-0,226
233,669	82,539	-0,234	-0,176
234,684	305,206	-0,227	-0,293
235,699	259,031	-0,123	-0,147
236,713	321,236	-0,110	-0,145
237,728	800,000	-0,132	-0,256
238,742	-0,260	-0,333	-0,164
239,757	169,994	-0,153	-0,151
240,772	261,577	-0,189	-0,227
241,786	800,000	-0,090	-0,176
242,801	48,543	-0,229	-0,148
243,815	621,684	-0,088	-0,153
244,830	-86,581	-0,109	-0,023
245,844	800,000	-0,069	-0,163
246,859	-2,456	-0,182	-0,088
247,874	183,533	-0,125	-0,128
248,888	-200,000	-0,071	-0,299
249,903	800,000	-0,091	-0,206
250,917	-74,889	-0,180	-0,044
251,932	-109,377	-0,224	0,033
252,947	-92,665	-0,180	-0,035
253,961	306,326	-0,111	-0,143
254,976	81,120	-0,149	-0,111
255,990	-1,622	-0,291	-0,141
257,005	0,098	-0,251	-0,124
258,020	-15,892	-0,074	0,032
259,034	51,676	-0,121	-0,079
260,049	57,008	-0,196	-0,132
261,063	648,356	-0,090	-0,159
262,078	800,000	-0,133	-0,293
263,093	139,231	-0,125	-0,113
264,107	22,045	-0,184	-0,104
265,122	83,117	-0,216	-0,162
266,136	-89,520	-0,140	-0,028
267,151	35,164	-0,232	-0,140
268,166	-200,000	-0,010	-0,150
269,180	64,713	-0,188	-0,131
270,195	27,017	-0,287	-0,166
271,209	800,000	0,038	-0,116
272,224	-111,404	-0,111	-0,015
273,239	616,394	0,007	0,012
274,253	611,497	-0,038	-0,066
275,268	-6,316	-0,196	-0,092
276,282	-200,000	0,014	-0,141
277,297	195,934	-0,184	-0,193
278,312	18,769	-0,240	-0,132
279,326	431,644	-0,139	-0,209
280,341	103,712	-0,172	-0,140
281,355	115,854	-0,191	-0,162
282,370	-16,970	-0,229	-0,099
283,384	93,752	-0,232	-0,181
284,399	-24,099	-0,100	-0,041
285,414	-185,929	-0,195	-0,002
286,428	-2,895	-0,293	-0,141
287,443	25,620	-0,159	0,091
288,457	-126,112	-0,158	-0,016
289,472	-74,775	-0,155	-0,038
290,487	-5,360	-0,232	-0,109
291,501	73,380	-0,180	-0,130
292,516	-98,125	-0,201	-0,035
293,530	-15,994	-0,235	-0,103
294,545	268,691	-0,109	-0,132
295,560	251,307	-0,026	-0,031
296,574	-2,986	-0,156	-0,075
297,589	-173,879	-0,282	0,006
298,603	57,349	-0,207	-0,139
299,618	-61,147	-0,291	-0,084
300,633	800,000	-0,049	-0,096
301,647	-75,211	-0,071	-0,017
302,662	800,000	-0,059	0,144
303,676	-147,900	-0,160	-0,009
304,691	-60,783	-0,313	-0,091
305,706	-137,687	-0,198	-0,015
306,720	32,771	-0,239	-0,142
307,735	152,432	-0,147	0,138
308,749	-26,631	-0,132	0,053
309,764	-10,039	-0,295	-0,134
310,779	540,765	-0,113	-0,186
311,793	-89,704	-0,107	-0,021
312,808	-90,748	-0,171	-0,034
313,822	-134,346	-0,184	0,015
314,837	800,000	-0,106	-0,239
315,852	21,776	-0,120	-0,067
316,866	429,348	-0,059	-0,088
317,881	-76,576	-0,141	-0,034
318,895	-13,460	-0,204	-0,091
319,910	78,714	-0,210	-0,155
320,925	-98,609	-0,179	-0,031
321,939	95,931	-0,040	-0,032
322,954	-200,000	0,002	-0,094
323,968	677,824	-0,113	-0,204
324,983	-132,345	-0,179	0,016
325,997	-37,418	-0,194	-0,071
327,012	47,284	-0,199	-0,127
328,027	49,901	-0,156	-0,101
329,041	574,067	-0,123	-0,206
330,056	584,865	-0,095	-0,161
331,070	-200,000	-0,050	-0,198
332,085	-47,037	-0,164	-0,055
333,100	-200,000	0,008	-0,172
334,114	-86,551	-0,134	-0,028
335,129	499,616	-0,177	-0,282
336,143	193,175	-0,148	-0,154
337,158	229,139	-0,072	-0,081
338,173	88,240	-0,147	-0,112
339,187	-28,441	-0,155	0,061
340,202	-8,953	-0,145	-0,066
341,216	266,196	-0,139	-0,167
342,231	-74,719	-0,095	-0,023
343,246	-1,811	-0,181	-0,087
344,260	800,000	-0,064	-0,140
345,275	-111,122	-0,103	0,014
346,289	85,966	-0,117	-0,088
347,304	-200,000	-0,026	-0,131
348,319	-164,344	-0,088	0,003
349,333	800,000	-0,040	-0,096
350,348	37,042	-0,205	-0,124
351,362	-133,115	-0,061	0,005
352,377	-45,388	-0,066	-0,022
353,392	-116,225	-0,133	-0,017
354,406	800,000	-0,039	-0,101
355,421	207,788	1316,218	1410,848
356,435	159,861	1477,099	1411,333
