DTS Sentinel unit serial number:	SN410029Multiplexer serial number:	ORYXHardware model number:	OX2-SRSoftware version number:	ORYX F/W v4,00 Oryx Data Collector v3.7.2.0data status	okinstallation	B3 Nyhavnadifferential loss correction	single-endedforward channel	channel 1reverse channel	N/Adate	2023/11/29time	08:57:31forward acquisition time	300,00reverse acquisition time	0,00gamma	499,1914k internal	0,3212k external	0,3212temperature offset calibration	1,0000default loss term (dB/km)	0,3820temperature slope calibration	1,0000multiplexer offset coefficient	1,0000multiplexer slope coefficient	1,0000fibre end	0,00T internal ref (°C)	8,99T ext. ref 1 (°C)	-5,77T ext. ref 2 (°C)	-5,89length (m)	temperature (°C)	Stokes	anti-Stokes-744,400	245,978	-0,258	-0,316
-743,385	-200,000	-0,065	0,230
-742,371	-200,000	-0,015	-0,285
-741,356	-200,000	0,049	0,296
-740,342	71,354	-0,141	-0,106
-739,327	-200,000	-0,007	0,143
-738,312	356,554	-0,187	-0,271
-737,298	-200,000	0,014	0,298
-736,283	583,533	-0,082	-0,146
-735,269	-200,000	0,046	0,299
-734,254	172,911	-0,246	-0,256
-733,239	44,223	-0,094	0,062
-732,225	210,025	-0,062	-0,071
-731,210	-200,000	0,033	0,133
-730,196	-200,000	-0,000	-0,164
-729,181	-135,192	0,042	-0,004
-728,167	130,797	-0,019	0,017
-727,152	27,437	-0,046	0,028
-726,137	65,547	-0,059	-0,043
-725,123	-139,925	-0,068	-0,005
-724,108	-118,062	-0,086	-0,011
-723,094	199,147	-0,068	0,075
-722,079	800,000	0,067	0,143
-721,064	-103,660	-0,045	0,008
-720,050	-33,634	0,148	0,059
-719,035	159,061	-0,022	0,022
-718,021	-200,000	0,021	-0,080
-717,006	11,815	-0,059	-0,033
-715,991	358,270	-0,070	-0,102
-714,977	280,546	-0,051	-0,066
-713,962	800,000	-0,032	-0,088
-712,948	-58,596	0,078	0,024
-711,933	295,338	0,028	0,037
-710,918	-36,977	0,124	-0,048
-709,904	87,452	-0,080	-0,064
-708,889	205,810	-0,036	-0,040
-707,875	11,578	-0,161	-0,089
-706,860	-200,000	-0,044	0,153
-705,845	108,830	-0,102	0,089
-704,831	-154,803	0,065	-0,003
-703,816	173,235	-0,108	-0,113
-702,802	-200,000	0,006	-0,057
-701,787	-63,257	-0,158	0,047
-700,772	-47,502	-0,073	0,026
-699,758	-200,000	-0,029	0,095
-698,743	179,012	0,147	0,155
-697,729	-51,632	0,016	-0,005
-696,714	393,878	0,051	-0,076
-695,699	-62,406	-0,130	-0,039
-694,685	-117,538	0,048	-0,006
-693,670	-200,000	0,025	-0,143
-692,656	723,517	0,042	0,082
-691,641	-64,329	0,105	0,031
-690,627	22,933	0,120	0,071
-689,612	45,846	-0,107	0,072
-688,597	-200,000	0,000	0,037
-687,583	288,203	0,022	-0,029
-686,568	561,584	0,059	-0,103
-685,554	-190,799	-0,111	0,001
-684,539	-79,729	-0,051	-0,012
-683,524	800,000	0,030	-0,084
-682,510	497,368	-0,061	0,102
-681,495	182,170	-0,040	0,043
-680,481	54,805	0,092	-0,064
-679,466	93,684	-0,106	-0,087
-678,451	18,050	-0,043	0,025
-677,437	424,938	0,066	-0,103
-676,422	800,000	-0,026	-0,065
-675,408	140,726	0,062	-0,059
-674,393	-200,000	-0,042	-0,159
-673,378	-95,050	-0,227	-0,044
-672,364	-200,000	-0,018	-0,060
-671,349	49,742	-0,109	-0,074
-670,335	431,480	-0,039	-0,061
-669,320	-200,000	-0,021	0,172
-668,305	670,458	0,041	0,077
-667,291	135,494	-0,150	-0,141
-666,276	-200,000	0,015	-0,221
-665,262	734,792	-0,019	-0,036
-664,247	-64,367	0,061	-0,018
-663,232	800,000	-0,015	0,044
-662,218	-200,000	0,024	0,093
-661,203	-200,000	-0,008	0,106
-660,189	800,000	0,022	0,054
-659,174	328,165	-0,062	0,086
-658,159	263,608	-0,028	0,035
-657,145	-200,000	-0,038	-0,185
-656,130	-200,000	0,013	0,087
-655,116	-200,000	0,002	-0,016
-654,101	-130,931	-0,044	0,004
-653,086	408,928	-0,072	-0,110
-652,072	597,804	-0,068	0,122
-651,057	163,993	-0,118	-0,120
-650,043	-200,000	0,009	-0,127
-649,028	27,892	-0,059	-0,036
-648,014	800,000	0,016	-0,037
-646,999	29,289	0,072	0,044
-645,984	250,518	0,029	-0,035
-644,970	-200,000	0,010	-0,039
-643,955	-200,000	-0,019	-0,191
-642,941	-14,927	-0,035	-0,016
-641,926	-147,505	-0,104	0,006
-640,911	-72,895	0,113	0,030
-639,897	800,000	0,020	0,042
-638,882	800,000	-0,081	0,185
-637,868	427,808	-0,013	-0,020
-636,853	143,631	-0,044	-0,043
-635,838	-200,000	0,005	-0,044
-634,824	-47,687	-0,095	-0,033
-633,809	-200,000	0,043	-0,152
-632,795	46,073	0,113	-0,075
-631,780	118,605	-0,015	0,014
-630,765	2,054	-0,068	0,035
-629,751	-34,470	-0,156	0,062
-628,736	-200,000	0,007	-0,128
-627,722	-200,000	-0,011	-0,070
-626,707	-27,264	0,033	-0,014
-625,692	-146,745	-0,067	0,004
-624,678	696,674	-0,054	-0,104
-623,663	96,809	-0,085	-0,070
-622,649	-200,000	0,005	0,018
-621,634	800,000	-0,052	-0,137
-620,619	-200,000	-0,037	-0,127
-619,605	-200,000	0,004	-0,023
-618,590	80,830	0,027	-0,021
-617,576	53,032	0,084	-0,058
-616,561	-109,247	-0,144	-0,022
-615,546	-89,012	0,127	-0,027
-614,532	-200,000	-0,004	-0,101
-613,517	-200,000	0,048	-0,157
-612,503	800,000	-0,031	-0,092
-611,488	-200,000	0,010	0,135
-610,474	40,577	-0,057	-0,037
-609,459	280,904	-0,006	-0,008
-608,444	-16,799	-0,132	0,060
-607,430	163,544	0,045	0,046
-606,415	-16,098	0,054	-0,025
-605,401	-65,700	-0,084	-0,024
-604,386	-200,000	-0,002	-0,013
-603,371	-133,443	0,083	0,007
-602,357	800,000	0,030	0,062
-601,342	-38,872	-0,041	0,015
-600,328	-200,000	0,023	-0,084
-599,313	43,667	0,127	-0,083
-598,298	750,245	0,046	-0,089
-597,284	-200,000	-0,005	0,039
-596,269	-140,259	-0,086	-0,006
-595,255	22,761	-0,052	0,031
-594,240	203,380	-0,118	-0,131
-593,225	-94,713	-0,142	0,028
-592,211	150,654	-0,161	-0,158
-591,196	800,000	0,026	-0,055
-590,182	237,871	0,065	-0,077
-589,167	-200,000	0,037	-0,122
-588,152	-200,000	0,024	0,098
-587,138	-52,844	-0,062	-0,020
-586,123	97,551	-0,079	-0,065
-585,109	-149,793	0,078	-0,004
-584,094	35,241	0,086	-0,054
-583,079	188,436	0,078	-0,084
-582,065	296,565	0,038	-0,051
-581,050	-14,220	0,075	-0,035
-580,036	-200,000	0,044	0,142
-579,021	65,099	0,017	0,012
-578,006	-200,000	-0,018	-0,076
-576,992	-72,374	0,105	0,028
-575,977	-200,000	0,003	-0,054
-574,963	-200,000	-0,008	0,041
-573,948	-131,187	-0,024	0,002
-572,934	159,569	-0,147	-0,148
-571,919	85,236	0,115	-0,091
-570,904	16,390	-0,079	0,045
-569,890	-200,000	-0,026	0,105
-568,875	13,341	-0,009	0,005
-567,861	150,756	0,037	0,037
-566,846	30,818	0,090	-0,056
-565,831	448,528	0,060	0,096
-564,817	-200,000	0,015	0,200
-563,802	-194,904	-0,107	-0,001
-562,788	131,152	-0,076	0,071
-561,773	92,387	0,017	-0,014
-560,758	196,525	0,064	0,071
-559,744	31,794	-0,067	0,042
-558,729	-4,275	0,104	-0,052
-557,715	-200,000	-0,021	0,103
-556,700	-44,618	-0,142	0,051
-555,685	800,000	0,019	-0,042
-554,671	-102,079	-0,053	-0,009
-553,656	90,017	0,022	-0,018
-552,642	-52,876	0,128	0,042
-551,627	-106,252	-0,076	0,012
-550,612	-132,151	-0,089	0,008
-549,598	-200,000	0,015	-0,064
-548,583	800,000	-0,030	-0,082
-547,569	800,000	0,025	-0,073
-546,554	129,478	0,046	0,043
-545,539	800,000	0,011	0,027
-544,525	-13,201	-0,059	0,027
-543,510	688,939	-0,021	-0,040
-542,496	800,000	0,041	-0,106
-541,481	31,124	-0,067	-0,041
-540,466	202,387	0,080	-0,089
-539,452	40,847	-0,077	-0,050
-538,437	24,545	-0,040	-0,024
-537,423	68,066	-0,110	0,081
-536,408	556,321	0,028	-0,049
-535,393	-70,914	-0,127	0,034
-534,379	537,189	-0,016	-0,027
-533,364	-200,000	0,015	-0,097
-532,350	-138,888	0,137	0,011
-531,335	-200,000	-0,033	0,149
-530,321	-88,383	0,108	-0,023
-529,306	-84,674	-0,016	-0,003
-528,291	-50,282	0,143	-0,048
-527,277	-46,640	-0,096	0,034
-526,262	-57,182	-0,013	-0,004
-525,248	25,762	0,143	-0,085
-524,233	764,725	-0,024	-0,047
-523,218	-66,227	0,065	0,019
-522,204	-200,000	0,005	0,064
-521,189	-89,497	0,034	-0,007
-520,175	-81,290	-0,149	0,035
-519,160	-200,000	0,003	0,072
-518,145	466,399	0,057	0,092
-517,131	271,843	-0,054	0,068
-516,116	-30,569	-0,070	0,028
-515,102	266,848	0,045	0,056
-514,087	89,187	0,080	0,064
-513,072	-105,157	-0,064	-0,010
-512,058	-60,657	-0,145	-0,044
-511,043	-33,797	-0,052	0,020
-510,029	135,485	-0,049	0,046
-509,014	17,707	0,008	-0,005
-507,999	800,000	0,053	0,127
-506,985	800,000	0,021	-0,062
-505,970	194,524	-0,051	-0,056
-504,956	140,656	-0,035	-0,033
-503,941	57,611	-0,108	-0,076
-502,926	359,650	0,040	0,058
-501,912	-122,127	-0,049	0,006
-500,897	-200,000	0,024	-0,157
-499,883	800,000	0,045	-0,092
-498,868	122,582	0,042	-0,038
-497,853	-200,000	0,006	-0,060
-496,839	-200,000	-0,008	-0,065
-495,824	-121,718	0,145	0,017
-494,810	-200,000	0,053	0,179
-493,795	-133,592	0,091	0,008
-492,781	413,013	-0,053	0,082
-491,766	454,717	0,012	-0,018
-490,751	93,139	-0,035	-0,029
-489,737	-170,511	-0,061	0,001
-488,722	-200,000	0,004	-0,018
-487,708	800,000	0,071	0,173
-486,693	-49,136	0,073	-0,025
-485,678	-200,000	-0,015	0,053
-484,664	-107,134	0,102	-0,016
-483,649	37,214	-0,059	0,037
-482,635	-89,843	0,078	-0,016
-481,620	332,159	-0,084	0,117
-480,605	-70,886	-0,001	0,000
-479,591	-140,846	0,135	-0,010
-478,576	-200,000	0,019	-0,097
-477,562	523,728	-0,062	0,105
-476,547	52,964	-0,134	-0,092
-475,532	240,890	0,084	-0,101
-474,518	93,205	0,074	0,060
-473,503	-123,451	0,134	0,015
-472,489	102,611	0,123	0,103
-471,474	2,505	-0,025	0,013
-470,459	-200,000	-0,015	0,083
-469,445	-200,000	-0,009	0,125
-468,430	-200,000	-0,005	0,037
-467,416	-139,423	-0,092	-0,007
-466,401	181,086	0,054	-0,057
-465,386	27,882	0,083	-0,050
-464,372	-112,415	0,011	-0,002
-463,357	-75,320	-0,102	-0,026
-462,343	134,039	-0,030	-0,028
-461,328	470,838	-0,033	-0,053
-460,313	209,651	-0,030	0,034
-459,299	-170,333	-0,005	-0,000
-458,284	-200,000	-0,028	-0,107
-457,270	698,188	-0,017	0,032
-456,255	-200,000	0,000	-0,017
-455,241	87,315	-0,031	0,024
-454,226	-200,000	-0,053	-0,186
-453,211	-200,000	0,010	-0,042
-452,197	248,503	-0,087	0,106
-451,182	-20,202	0,080	0,035
-450,168	-54,430	0,109	0,035
-449,153	39,814	0,039	-0,025
-448,138	-200,000	-0,004	-0,081
-447,124	-200,000	-0,023	-0,232
-446,109	-200,000	-0,008	-0,068
-445,095	256,226	-0,017	0,021
-444,080	-141,263	0,089	-0,006
-443,065	96,384	0,044	-0,036
-442,051	-200,000	-0,021	-0,140
-441,036	15,702	-0,073	-0,041
-440,022	-31,667	-0,080	0,032
-439,007	-200,000	0,004	0,023
-437,992	-143,129	0,123	-0,008
-436,978	-200,000	-0,005	0,080
-435,963	800,000	0,015	0,033
-434,949	183,125	-0,067	0,071
-433,934	24,618	-0,085	0,051
-432,919	299,441	-0,038	-0,050
-431,905	5,093	-0,189	-0,099
-430,890	-41,866	0,107	-0,039
-429,876	-200,000	0,038	0,150
-428,861	316,381	0,059	0,080
-427,846	-28,651	-0,090	-0,037
-426,832	286,014	0,058	0,075
-425,817	217,879	-0,026	0,030
-424,803	800,000	-0,053	0,108
-423,788	41,467	0,109	0,071
-422,773	-200,000	0,002	0,123
-421,759	800,000	-0,040	0,110
-420,744	-18,511	-0,056	-0,025
-419,730	-200,000	-0,118	0,000
-418,715	-200,000	-0,004	0,058
-417,701	-34,501	0,041	0,016
-416,686	418,253	0,005	-0,008
-415,671	448,857	-0,020	0,032
-414,657	-200,000	0,006	-0,032
-413,642	-85,665	-0,058	0,013
-412,628	-48,939	-0,092	-0,031
-411,613	303,733	0,029	-0,038
-410,598	800,000	0,028	-0,065
-409,584	44,739	-0,080	-0,053
-408,569	-200,000	-0,005	0,017
-407,555	-125,586	-0,117	0,012
-406,540	800,000	0,018	0,044
-405,525	125,164	0,047	0,042
-404,511	90,220	-0,075	0,060
-403,496	721,806	0,036	-0,070
-402,482	-200,000	-0,019	0,060
-401,467	-64,868	0,227	-0,065
-400,452	-49,415	0,068	0,023
-399,438	6,856	0,065	0,035
-398,423	-86,674	-0,080	-0,017
-397,409	-99,159	-0,061	0,011
-396,394	324,342	0,016	0,022
-395,379	-32,875	0,149	-0,059
-394,365	800,000	0,072	-0,149
-393,350	1,740	-0,070	0,036
-392,336	-200,000	-0,035	0,114
-391,321	800,000	-0,039	-0,085
-390,306	146,223	-0,018	0,017
-389,292	267,865	0,097	-0,122
-388,277	800,000	0,044	-0,089
-387,263	-181,414	0,026	-0,000
-386,248	-143,851	-0,146	0,010
-385,233	800,000	0,028	0,059
-384,219	-130,210	-0,065	0,006
-383,204	347,382	-0,082	-0,115
-382,190	-102,064	0,030	0,005
-381,175	-200,000	-0,048	-0,156
-380,160	-200,000	-0,014	0,088
-379,146	-44,088	0,066	-0,023
-378,131	31,520	0,113	-0,069
-377,117	-58,044	0,141	-0,044
-376,102	-200,000	-0,002	-0,067
-375,088	-44,745	0,064	-0,023
-374,073	-103,411	-0,071	0,012
-373,058	368,831	0,034	-0,050
-372,044	800,000	-0,027	0,055
-371,029	185,765	0,086	0,091
-370,015	-200,000	-0,011	-0,068
-369,000	800,000	0,014	-0,033
-367,985	800,000	0,071	-0,188
-366,971	-200,000	0,004	0,139
-365,956	24,240	0,026	0,015
-364,942	800,000	0,056	0,114
-363,927	800,000	0,046	0,107
-362,912	282,250	0,062	-0,079
-361,898	21,285	-0,065	-0,037
-360,883	119,560	0,031	0,028
-359,869	-23,457	0,047	0,020
-358,854	139,603	0,077	-0,073
-357,839	-114,730	-0,063	-0,008
-356,825	424,598	0,054	0,084
-355,810	-42,039	-0,096	-0,035
-354,796	-200,000	-0,003	0,049
-353,781	-200,000	-0,029	0,147
-352,766	230,151	-0,061	-0,071
-351,752	800,000	0,039	0,114
-350,737	-1,926	-0,123	0,062
-349,723	-103,743	-0,110	-0,018
-348,708	64,107	0,129	0,093
-347,693	-200,000	-0,025	0,129
-346,679	399,261	-0,032	-0,048
-345,664	-58,592	-0,039	0,012
-344,650	99,026	0,027	0,022
-343,635	-200,000	-0,058	0,194
-342,620	-200,000	-0,007	-0,033
-341,606	339,435	0,055	0,076
-340,591	-200,000	-0,010	0,135
-339,577	-200,000	0,010	0,039
-338,562	-29,570	-0,200	-0,081
-337,548	394,975	-0,010	0,014
-336,533	-200,000	-0,003	0,030
-335,518	-37,681	0,076	0,029
-334,504	28,688	0,100	0,060
-333,489	-14,205	-0,081	-0,037
-332,475	800,000	-0,039	-0,121
-331,460	151,481	-0,117	0,113
-330,445	-29,651	0,010	-0,004
-329,431	496,584	-0,015	-0,024
-328,416	6,155	0,037	-0,020
-327,402	-88,158	-0,030	0,006
-326,387	492,719	0,082	0,135
-325,372	45,297	-0,191	-0,126
-324,358	-65,366	-0,084	-0,024
-323,343	83,472	0,075	0,058
-322,329	79,197	0,064	0,049
-321,314	-200,000	-0,003	0,089
-320,299	415,693	0,038	-0,058
-319,285	503,760	0,037	-0,061
-318,270	-98,959	0,043	0,008
-317,256	800,000	-0,009	-0,027
-316,241	218,799	0,046	0,052
-315,226	-85,135	-0,130	0,029
-314,212	103,440	0,142	0,118
-313,197	-200,000	0,010	0,079
-312,183	39,789	0,109	0,070
-311,168	-76,375	-0,099	0,025
-310,153	-83,528	-0,106	-0,024
-309,139	-87,137	0,009	0,002
-308,124	-200,000	0,050	0,188
-307,110	25,547	0,118	0,070
-306,095	431,529	0,071	0,110
-305,080	373,430	-0,095	0,139
-304,066	-41,261	-0,106	-0,039
-303,051	-200,000	0,016	0,105
-302,037	-31,941	0,085	0,034
-301,022	129,489	-0,104	-0,094
-300,008	800,000	0,028	-0,074
-298,993	79,506	-0,066	0,051
-297,978	10,631	0,076	0,041
-296,964	-63,864	-0,043	-0,012
-295,949	-107,578	-0,162	-0,025
-294,935	-87,055	-0,146	-0,031
-293,920	800,000	-0,030	0,082
-292,905	90,016	0,174	0,138
-291,891	224,049	0,095	0,109
-290,876	-6,340	0,123	-0,059
-289,862	800,000	-0,016	0,047
-288,847	-200,000	-0,007	-0,110
-287,832	200,378	-0,089	-0,097
-286,818	129,213	0,037	-0,034
-285,803	708,074	0,010	0,019
-284,789	-200,000	0,014	0,069
-283,774	6,359	0,095	0,050
-282,759	-200,000	0,004	-0,019
-281,745	-39,040	-0,058	-0,022
-280,730	800,000	-0,019	-0,038
-279,716	-114,412	-0,092	-0,012
-278,701	136,106	0,125	0,116
-277,686	79,014	0,034	-0,026
-276,672	-51,951	0,156	0,051
-275,657	-13,385	0,030	0,014
-274,643	-101,526	0,036	0,006
-273,628	800,000	-0,085	-0,195
-272,613	234,901	-0,080	-0,094
-271,599	-200,000	-0,014	-0,099
-270,584	800,000	-0,030	0,064
-269,570	800,000	0,007	0,015
-268,555	54,847	0,037	-0,025
-267,540	-37,482	0,124	-0,047
-266,526	169,047	-0,144	-0,146
-265,511	-123,179	0,181	-0,020
-264,497	800,000	0,016	-0,033
-263,482	-200,000	-0,017	0,097
-262,467	2,279	-0,141	-0,072
-261,453	-177,502	0,040	-0,001
-260,438	33,323	-0,068	-0,042
-259,424	-65,383	-0,072	-0,021
-258,409	-145,783	0,053	0,003
-257,395	800,000	0,043	-0,117
-256,380	30,444	0,072	0,044
-255,365	-170,100	-0,106	-0,003
-254,351	-111,176	0,139	0,020
-253,336	-200,000	0,003	-0,140
-252,322	206,513	0,067	-0,074
-251,307	-50,772	0,137	0,046
-250,292	-67,624	0,064	0,018
-249,278	-200,000	-0,022	0,078
-248,263	93,456	0,097	0,078
-247,249	314,676	-0,164	0,220
-246,234	175,732	-0,087	-0,090
-245,219	-200,000	0,001	0,025
-244,205	583,388	-0,043	-0,075
-243,190	194,073	0,044	0,047
-242,176	630,849	0,043	0,078
-241,161	205,939	0,050	0,056
-240,146	656,462	-0,078	0,143
-239,132	-37,210	-0,104	0,039
-238,117	-70,592	0,088	-0,024
-237,103	-127,735	0,010	-0,001
-236,088	66,421	0,054	-0,039
-235,073	-200,000	-0,007	-0,040
-234,059	-49,220	0,059	-0,020
-233,044	-200,000	-0,029	0,182
-232,030	-15,672	0,069	0,031
-231,015	-146,004	0,043	0,003
-230,000	372,499	-0,035	-0,050
-228,986	-112,589	-0,142	0,020
-227,971	-113,953	-0,077	0,010
-226,957	-104,067	0,087	-0,014
-225,942	-181,749	-0,080	0,001
-224,927	234,106	-0,004	0,005
-223,913	-200,000	-0,010	-0,056
-222,898	293,832	0,087	-0,113
-221,884	-106,304	-0,097	0,015
-220,869	164,752	0,067	0,067
-219,855	800,000	0,036	-0,083
-218,840	-11,104	-0,154	-0,072
-217,825	-99,096	0,004	-0,001
-216,811	-32,858	0,077	-0,030
-215,796	-200,000	0,040	-0,127
-214,782	-200,000	0,014	-0,108
-213,767	-200,000	0,008	-0,097
-212,752	-59,245	0,030	0,009
-211,738	25,168	0,104	-0,061
-210,723	-94,819	-0,019	-0,004
-209,709	-200,000	-0,019	-0,187
-208,694	253,253	-0,041	0,050
-207,679	48,667	-0,034	0,022
-206,665	800,000	0,052	-0,103
-205,650	-200,000	-0,016	-0,057
-204,636	467,730	-0,048	0,077
-203,621	513,320	0,046	0,076
-202,606	11,238	-0,038	0,021
-201,592	-49,573	0,026	0,009
-200,577	251,640	-0,057	0,070
-199,563	696,390	0,042	0,078
-198,548	-200,000	0,020	0,087
-197,533	-54,169	0,051	0,016
-196,519	-200,000	0,015	-0,070
-195,504	-54,111	0,097	0,031
-194,490	-200,000	0,077	-0,000
-193,475	229,232	-0,046	-0,053
-192,460	-111,743	-0,045	0,006
-191,446	162,537	0,121	0,120
-190,431	193,724	-0,040	0,043
-189,417	-200,000	0,012	-0,076
-188,402	-157,884	-0,112	0,005
-187,387	97,789	0,078	0,064
-186,373	162,262	-0,048	0,047
-185,358	-110,041	-0,103	-0,015
-184,344	727,062	-0,029	0,054
-183,329	-67,846	0,100	-0,027
-182,315	53,170	-0,003	-0,002
-181,300	551,125	0,040	0,069
-180,285	-200,000	-0,028	-0,104
-179,271	15,232	-0,081	0,045
-178,256	394,176	0,024	-0,036
-177,242	-51,058	0,135	-0,045
-176,227	135,161	0,046	0,042
-175,212	-200,000	0,012	0,041
-174,198	42,147	-0,160	0,103
-173,183	274,770	-0,098	-0,124
-172,169	130,373	-0,063	-0,057
-171,154	6,836	0,086	-0,045
-170,139	325,005	0,025	0,033
-169,125	158,952	-0,031	-0,031
-168,110	800,000	0,072	0,186
-167,096	-65,993	-0,068	-0,019
-166,081	800,000	0,054	0,129
-165,066	-0,138	0,085	0,043
-164,052	-200,000	0,031	-0,123
-163,037	-200,000	0,018	-0,123
-162,023	233,827	0,040	0,046
-161,008	257,894	-0,013	0,016
-159,993	461,527	0,026	0,041
-158,979	-5,198	-0,184	0,089
-157,964	-200,000	-0,001	0,054
-156,950	120,119	-0,046	-0,040
-155,935	-71,528	-0,108	0,028
-154,920	-200,000	-0,021	0,121
-153,906	141,981	0,086	0,081
-152,891	-50,884	0,135	0,045
-151,877	-200,000	0,185	0,000
-150,862	-200,000	0,003	-0,099
-149,847	800,000	0,017	-0,042
-148,833	-87,639	-0,094	-0,020
-147,818	-94,101	-0,095	0,018
-146,804	149,117	-0,068	-0,065
-145,789	91,213	0,032	-0,025
-144,775	-200,000	0,024	-0,151
-143,760	-200,000	-0,015	-0,071
-142,745	-1,413	-0,051	-0,025
-141,731	-200,000	0,025	0,082
-140,716	434,511	0,069	0,107
-139,702	170,368	-0,044	0,045
-138,687	780,808	0,023	0,044
-137,672	-8,699	-0,085	-0,040
-136,658	193,459	0,017	0,018
-135,643	97,104	-0,098	-0,079
-134,629	295,154	0,021	0,028
-133,614	-200,000	-0,015	-0,125
-132,599	800,000	0,097	0,253
-131,585	-200,000	0,002	0,069
-130,570	-200,000	-0,018	-0,072
-129,556	184,575	0,046	-0,049
-128,541	-200,000	-0,009	-0,130
-127,526	324,862	-0,034	-0,046
-126,512	568,420	0,064	0,110
-125,497	127,863	0,082	-0,074
-124,483	-6,847	0,086	-0,041
-123,468	40,518	0,016	0,010
-122,453	-68,411	0,016	-0,004
-121,439	39,809	-0,079	0,050
-120,424	-81,029	0,058	0,014
-119,410	-200,000	-0,011	0,143
-118,395	96,267	0,153	0,124
-117,380	800,000	0,031	0,085
-116,366	800,000	-0,035	0,070
-115,351	19,175	-0,108	0,061
-114,337	47,538	-0,061	0,040
-113,322	-4,821	0,048	0,023
-112,307	-200,000	-0,007	0,158
-111,293	25,586	-0,028	0,016
-110,278	800,000	-0,046	-0,137
-109,264	-200,000	-0,048	-0,230
-108,249	-41,735	-0,090	0,032
-107,234	-44,372	-0,109	-0,038
-106,220	479,701	0,037	-0,059
-105,205	-200,000	0,016	0,099
-104,191	314,624	0,024	0,032
-103,176	-200,000	-0,043	0,138
-102,162	-23,652	0,062	-0,026
-101,147	247,076	-0,057	0,068
-100,132	120,646	-0,036	-0,031
-99,118	-177,933	-0,024	0,000
-98,103	-200,000	0,013	-0,093
-97,089	176,207	0,057	-0,058
-96,074	237,266	0,071	0,083
-95,059	145,708	0,059	-0,056
-94,045	17,205	0,057	0,032
-93,030	21,435	-0,064	-0,037
-92,016	-68,221	-0,106	-0,029
-91,001	389,629	0,033	-0,049
-89,986	-150,016	-0,064	-0,003
-88,972	-196,603	0,134	0,001
-87,957	170,840	-0,048	-0,048
-86,943	800,000	0,036	-0,101
-85,928	-200,000	-0,002	0,101
-84,913	-200,000	0,053	-0,205
-83,899	2,110	0,150	-0,076
-82,884	-150,895	0,204	-0,011
-81,870	-200,000	-0,025	0,113
-80,855	-101,827	-0,135	0,023
-79,840	-200,000	-0,018	0,081
-78,826	-13,285	-0,140	0,064
-77,811	-200,000	0,021	0,082
-76,797	800,000	-0,024	0,052
-75,782	-46,641	0,144	0,049
-74,767	-200,000	0,002	0,094
-73,753	-20,393	0,023	0,010
-72,738	800,000	0,062	-0,184
-71,724	125,843	-0,092	0,082
-70,709	449,493	-0,068	-0,106
-69,694	-28,478	0,176	0,071
-68,680	800,000	-0,030	0,067
-67,665	207,189	0,064	0,070
-66,651	-77,846	-0,061	0,015
-65,636	-200,000	-0,005	0,058
-64,622	90,505	-0,128	0,101
-63,607	-200,000	0,001	0,014
-62,592	96,740	-0,131	-0,106
-61,578	-200,000	0,024	0,086
-60,563	-5,985	0,140	0,067
-59,549	280,108	0,040	0,050
-58,534	33,468	-2,184	-1,335
-57,519	392,601	-1,266	-1,862
-56,505	-200,000	-0,503	-4,392
-55,490	548,447	0,852	1,445
-54,476	800,000	5,304	11,397
-53,461	-200,000	21,959	338,777
-52,446	800,000	759,593	2299,991
-51,432	534,363	1653,740	2775,526
-50,417	69,406	1651,674	1197,791
-49,403	16,621	1526,370	848,817
-48,388	10,800	1450,921	778,831
-47,373	19,079	1442,782	813,980
-46,359	14,216	1431,575	784,613
-45,344	9,110	1427,416	758,099
-44,330	9,054	1425,570	756,824
-43,315	9,023	1423,876	755,746
-42,300	9,098	1421,952	755,051
-41,286	9,090	1420,786	754,364
-40,271	9,063	1419,376	753,458
-39,257	9,104	1418,106	752,950
-38,242	9,084	1417,125	752,301
-37,227	9,074	1415,987	751,620
-36,213	9,078	1414,805	750,985
-35,198	9,094	1413,510	750,343
-34,184	9,158	1412,541	750,098
-33,169	8,987	1411,371	748,645
-32,154	9,064	1410,508	748,516
-31,140	9,060	1408,907	747,620
-30,125	9,106	1407,894	747,267
-29,111	9,072	1406,767	746,481
-28,096	9,009	1405,797	745,640
-27,082	9,014	1404,406	744,896
-26,067	9,004	1403,370	744,274
-25,052	9,070	1402,218	743,941
-24,038	9,045	1401,325	743,318
-23,023	9,018	1400,465	742,707
-22,009	9,008	1399,358	742,048
-20,994	9,007	1398,292	741,447
-19,979	9,023	1397,545	741,095
-18,965	8,961	1396,504	740,227
-17,950	8,966	1395,586	739,735
-16,936	8,974	1394,780	739,313
-15,921	8,913	1393,711	738,437
-14,906	8,897	1392,753	737,825
-13,892	8,984	1391,728	737,656
-12,877	8,938	1391,240	737,151
-11,863	8,931	1390,296	736,590
-10,848	8,948	1389,288	736,106
-9,833	8,829	1388,717	735,228
-8,819	8,855	1387,478	734,659
-7,804	8,846	1386,634	734,142
-6,790	8,834	1385,691	733,557
-5,775	8,870	1384,456	733,043
-4,760	8,852	1383,550	732,450
-3,746	8,912	1382,560	732,171
-2,731	8,893	1381,604	731,550
-1,717	8,861	1380,923	731,014
-0,702	8,804	1379,299	729,864
0,313	12,849	1290,768	701,395
1,327	28,771	683,091	406,938
2,342	44,497	117,592	76,022
3,356	-0,217	16,579	8,284
4,371	12,411	3,620	1,961
5,386	5,116	1,235	0,639
6,400	800,000	0,248	0,578
7,415	431,528	-0,129	-0,198
8,429	37,895	-0,333	-0,208
9,444	38,658	-0,261	-0,164
10,459	17,977	-0,224	-0,125
11,473	-55,548	-0,240	-0,075
12,488	-72,384	-0,332	-0,086
13,502	-18,085	-0,389	-0,171
14,517	-22,010	-0,231	-0,098
15,531	183,187	-0,267	-0,278
16,546	211,126	-0,194	-0,215
17,561	131,106	-0,264	-0,239
18,575	-171,229	-0,355	-0,008
19,590	-86,680	-0,256	-0,055
20,604	-63,580	-0,370	-0,106
21,619	327,417	-0,314	-0,425
22,634	153,645	-0,350	-0,337
23,648	405,088	-0,339	-0,505
24,663	162,039	-0,314	-0,310
25,677	134,357	-0,257	-0,234
26,692	32,508	-0,221	-0,134
27,707	-81,743	-0,305	-0,070
28,721	-1,568	-0,471	-0,233
29,736	96,166	-0,455	-0,366
30,750	114,565	-0,431	-0,369
31,765	271,716	-0,352	-0,438
32,780	60,691	-0,313	-0,218
33,794	170,436	-0,247	-0,249
34,809	-2,466	-0,431	-0,212
35,823	150,185	-0,301	-0,287
36,838	61,658	-0,468	-0,327
37,853	-10,456	-0,405	-0,188
38,867	216,274	-0,302	-0,338
39,882	119,344	-0,185	-0,161
40,896	126,688	-0,371	-0,330
41,911	58,864	-0,265	-0,183
42,926	44,304	-0,380	-0,245
43,940	-98,473	-0,323	-0,057
44,955	159,393	-0,406	-0,397
45,969	169,511	-0,220	-0,221
46,984	-10,162	-0,315	-0,146
47,999	14,377	-0,290	-0,158
49,013	123,299	-0,266	-0,234
50,028	10,248	-0,347	-0,185
51,042	121,297	-0,331	-0,289
52,057	89,086	-0,372	-0,291
53,071	38,721	-0,395	-0,247
54,086	109,227	-0,271	-0,228
55,101	-63,531	-0,320	-0,092
56,115	141,772	-0,208	-0,193
57,130	29,292	-0,358	-0,213
58,144	19,103	-0,448	-0,252
59,159	-19,914	-0,510	-0,220
60,174	-44,153	-0,328	-0,115
61,188	81,089	-0,309	-0,234
62,203	18,800	-0,312	-0,175
63,217	3,512	-0,364	-0,186
64,232	62,522	-0,275	-0,193
65,247	-34,711	-0,465	-0,177
66,261	70,982	-0,311	-0,226
67,276	-84,404	-0,340	-0,075
68,290	167,927	-0,284	-0,283
69,305	58,341	-0,263	-0,180
70,320	-7,023	-0,291	-0,138
71,334	-15,065	-0,349	-0,156
72,349	-102,750	-0,231	-0,038
73,363	99,307	-0,239	-0,193
74,378	172,979	-0,250	-0,253
75,393	152,973	-0,242	-0,232
76,407	21,662	-0,269	-0,153
77,422	133,962	-0,242	-0,219
78,436	-69,956	-0,248	-0,066
79,451	109,773	-0,264	-0,222
80,466	50,794	-0,238	-0,157
81,480	49,982	-0,361	-0,238
82,495	7,158	-0,224	-0,117
83,509	-97,408	-0,375	-0,068
84,524	100,011	-0,238	-0,193
85,539	43,172	-0,209	-0,134
86,553	29,442	-0,202	-0,120
87,568	2,992	-0,288	-0,146
88,582	-14,878	-0,242	-0,108
89,597	127,089	-0,334	-0,296
90,611	105,337	-0,273	-0,226
91,626	-1,023	-0,289	-0,142
92,641	142,531	-0,315	-0,293
93,655	10,516	-0,280	-0,149
94,670	76,677	-0,297	-0,220
95,684	-2,018	-0,335	-0,164
96,699	10,513	-0,394	-0,209
97,714	147,786	-0,259	-0,245
98,728	-18,682	-0,287	-0,125
99,743	49,280	-0,266	-0,175
100,757	133,243	-0,237	-0,214
101,772	102,496	-0,235	-0,192
102,787	42,401	-0,298	-0,189
103,801	27,491	-0,358	-0,210
104,816	-24,980	-0,263	-0,108
105,830	200,249	-0,231	-0,249
106,845	16,091	-0,323	-0,178
107,860	13,416	-0,249	-0,135
108,874	154,663	-0,125	-0,120
109,889	-23,341	-0,343	-0,143
110,903	308,090	-0,154	-0,201
111,918	243,547	-0,236	-0,277
112,933	1,543	-0,386	-0,193
113,947	800,000	-0,172	-0,371
114,962	122,600	-0,269	-0,235
115,976	-24,285	-0,320	-0,133
116,991	8,512	-0,299	-0,156
118,006	127,764	-0,217	-0,192
119,020	-36,377	-0,214	-0,080
120,035	-39,043	-0,224	-0,082
121,049	178,315	-0,119	-0,122
122,064	53,838	-0,253	-0,170
123,079	-40,424	-0,273	-0,098
124,093	-29,328	-0,261	-0,104
125,108	-35,532	-0,418	-0,157
126,122	21,174	-0,290	-0,164
127,137	800,000	-0,126	-0,361
128,151	800,000	-0,134	-0,321
129,166	136,068	-0,179	-0,163
130,181	102,212	-0,131	-0,107
131,195	39,769	-0,282	-0,176
132,210	-11,247	-0,354	-0,162
133,224	-15,921	-0,137	-0,061
134,239	-30,250	-0,262	-0,103
135,254	48,158	-0,242	-0,158
136,268	84,873	-0,249	-0,190
137,283	305,146	-0,197	-0,256
138,297	89,872	-0,356	-0,277
139,312	348,538	-0,150	-0,206
140,327	16,848	-0,289	-0,159
141,341	410,927	-0,155	-0,229
142,356	210,007	-0,170	-0,186
143,370	161,549	-0,104	-0,102
144,385	-60,293	-0,367	-0,108
145,400	3,717	-0,258	-0,131
146,414	227,272	-0,331	-0,375
147,429	-121,043	-0,385	-0,044
148,443	79,554	-0,184	-0,137
149,458	133,872	-0,180	-0,162
150,473	134,350	-0,148	-0,134
151,487	60,703	-0,202	-0,139
152,502	-200,000	-0,063	-0,262
153,516	-77,148	-0,351	-0,084
154,531	183,933	-0,257	-0,265
155,546	6,904	-0,232	-0,120
156,560	162,681	-0,135	-0,132
157,575	369,681	-0,076	-0,107
158,589	13,492	-0,335	-0,180
159,604	31,783	-0,233	-0,139
160,619	68,797	-0,182	-0,129
161,633	-138,548	-0,250	-0,019
162,648	106,596	-0,235	-0,194
163,662	-93,335	-0,193	-0,037
164,677	197,539	-0,206	-0,219
165,692	455,808	-0,137	-0,213
166,706	0,446	-0,354	-0,175
167,721	107,513	-0,303	-0,251
168,735	-19,493	-0,291	-0,125
169,750	289,011	-0,162	-0,204
170,764	-124,166	-0,293	-0,031
171,779	-127,778	-0,107	0,011
172,794	-99,972	-0,248	-0,043
173,808	105,529	-0,272	-0,223
174,823	80,114	-0,178	-0,133
175,837	-67,493	-0,291	-0,079
176,852	-31,298	-0,152	-0,059
177,867	-172,203	-0,187	0,004
178,881	162,371	-0,115	-0,112
179,896	-43,741	-0,293	-0,102
180,910	-69,194	-0,282	-0,075
181,925	28,890	-0,146	-0,086
182,940	260,482	-0,188	-0,226
183,954	36,005	-0,252	-0,154
184,969	-4,848	-0,270	-0,129
185,983	-48,407	-0,125	-0,041
186,998	-32,795	-0,189	-0,073
188,013	559,075	-0,151	-0,255
189,027	137,093	-0,189	-0,172
190,042	254,206	-0,246	-0,292
191,056	-33,477	-0,225	-0,086
192,071	-27,354	-0,168	-0,067
193,086	-176,180	-0,101	0,002
194,100	47,421	-0,226	-0,146
195,115	70,173	-0,240	-0,172
196,129	61,176	-0,194	-0,134
197,144	127,744	-0,166	-0,146
198,159	207,476	-0,145	-0,157
199,173	140,955	-0,174	-0,159
200,188	600,003	-0,100	-0,172
201,202	-23,263	-0,213	-0,088
202,217	77,116	-0,190	-0,140
203,232	725,398	-0,129	-0,240
204,246	-55,745	-0,345	-0,106
205,261	-168,042	-0,262	-0,007
206,275	43,974	-0,157	-0,099
207,290	-19,141	-0,096	-0,041
208,304	211,356	-0,140	-0,153
209,319	107,423	-0,120	0,099
210,334	102,951	-0,236	-0,191
211,348	259,971	-0,232	-0,278
212,363	694,489	-0,129	-0,236
213,377	493,781	-0,074	-0,118
214,392	-200,000	-0,074	-0,232
215,407	237,198	-0,126	-0,145
216,421	-89,245	-0,162	-0,033
217,436	-95,403	-0,180	-0,033
218,450	54,805	-0,097	-0,064
219,465	13,063	-0,105	-0,056
220,480	-200,000	-0,074	-0,301
221,494	5,896	-0,209	-0,107
222,509	39,167	-0,056	0,035
223,523	0,833	-0,248	-0,122
224,538	-100,430	-0,199	-0,034
225,553	99,829	-0,237	-0,190
226,567	-27,534	-0,134	-0,054
227,582	152,204	-0,178	-0,168
228,596	135,397	-0,190	-0,171
229,611	418,835	-0,141	-0,209
230,626	162,163	-0,182	-0,176
231,640	39,090	-0,224	-0,138
232,655	36,227	-0,266	-0,162
233,669	353,468	-0,166	-0,228
234,684	209,020	-0,219	-0,237
235,699	380,477	-0,137	-0,195
236,713	95,244	-0,215	-0,169
237,728	43,817	-0,170	-0,107
238,742	12,494	-0,213	-0,113
239,757	166,330	-0,220	-0,216
240,772	138,579	-0,162	-0,147
241,786	-22,217	-0,176	-0,073
242,801	419,722	-0,115	-0,171
243,815	74,444	-0,155	-0,113
244,830	-45,213	-0,147	-0,050
245,844	389,794	-0,155	-0,223
246,859	11,609	-0,191	-0,101
247,874	108,399	-0,222	-0,183
248,888	70,125	-0,301	-0,214
249,903	24,401	-0,320	-0,182
250,917	328,947	0,029	-0,038
251,932	135,925	-0,079	0,071
252,947	137,197	-0,143	-0,129
253,961	66,472	-0,206	-0,144
254,976	18,497	-0,280	-0,154
255,990	800,000	-0,056	-0,150
257,005	-125,907	-0,090	0,009
258,020	-170,910	-0,228	0,005
259,034	-80,404	-0,206	-0,047
260,049	-118,123	-0,166	-0,020
261,063	28,761	-0,174	-0,101
262,078	271,550	-0,130	-0,159
263,093	-55,235	-0,244	-0,075
264,107	94,233	-0,210	-0,164
265,122	325,528	0,041	-0,054
266,136	3,541	-0,148	-0,074
267,151	295,585	-0,117	-0,148
268,166	206,381	-0,134	-0,144
269,180	-33,196	-0,215	-0,082
270,195	54,347	-0,301	-0,199
271,209	14,762	-0,220	-0,118
272,224	5,289	-0,197	-0,100
273,239	-97,586	-0,197	0,035
274,253	-36,632	-0,366	-0,135
275,268	-51,067	-0,218	-0,070
276,282	-86,153	-0,298	-0,063
277,297	-9,483	-0,251	-0,115
278,312	800,000	-0,082	-0,183
279,326	92,543	-0,098	-0,076
280,341	5,902	-0,138	-0,070
281,355	-18,561	-0,152	-0,065
282,370	147,256	-0,138	-0,128
283,384	103,340	-0,284	-0,229
284,399	314,094	-0,159	-0,206
285,414	199,842	-0,174	-0,184
286,428	165,498	-0,150	-0,146
287,443	141,903	-0,193	-0,176
288,457	-39,105	-0,151	-0,054
289,472	-66,038	-0,151	0,041
290,487	175,931	-0,129	-0,129
291,501	430,334	-0,151	-0,226
292,516	98,611	-0,292	-0,232
293,530	-18,238	-0,322	-0,138
294,545	309,066	-0,159	-0,205
295,560	83,697	-0,131	-0,098
296,574	800,000	-0,043	-0,130
297,589	-21,460	-0,133	-0,056
298,603	-82,560	-0,213	-0,047
299,618	800,000	-0,084	-0,218
300,633	455,610	-0,121	-0,185
301,647	620,171	-0,078	-0,136
302,662	-101,228	-0,067	0,011
303,676	-200,000	-0,023	-0,119
304,691	44,814	-0,162	-0,102
305,706	274,341	-0,169	-0,206
306,720	315,324	-0,080	-0,104
307,735	223,942	-0,083	-0,092
308,749	-144,888	-0,114	-0,007
309,764	-65,272	-0,096	0,026
310,779	-61,283	-0,141	-0,041
311,793	12,993	-0,022	-0,011
312,808	158,584	-0,172	-0,164
313,822	800,000	-0,051	-0,132
314,837	-55,673	-0,071	0,022
315,852	20,909	-0,172	-0,096
316,866	-200,000	-0,039	-0,126
317,881	37,301	-0,068	-0,041
318,895	-72,401	-0,208	-0,052
319,910	203,669	-0,144	-0,153
320,925	146,499	-0,162	-0,149
321,939	-115,160	-0,127	0,016
322,954	-117,989	-0,161	0,020
323,968	-35,655	-0,171	-0,063
324,983	67,774	-0,133	-0,093
325,997	-200,000	-0,067	-0,227
327,012	330,994	-0,182	-0,241
328,027	349,944	-0,090	-0,122
329,041	59,068	-0,100	-0,067
330,056	-67,325	-0,180	-0,048
331,070	-130,371	-0,145	-0,013
332,085	-66,351	-0,054	-0,015
333,100	32,909	-0,159	-0,094
334,114	290,202	-0,093	-0,116
335,129	-85,677	-0,175	-0,037
336,143	6,264	-0,176	-0,089
337,158	-200,000	-0,022	-0,127
338,173	-159,876	-0,027	-0,001
339,187	3,173	-0,135	-0,067
340,202	497,585	-0,048	-0,076
341,216	131,756	-0,242	-0,213
342,231	76,689	-0,159	-0,115
343,246	167,659	-0,257	-0,250
344,260	125,485	-0,021	0,018
345,275	115,432	-0,057	-0,048
346,289	66,342	-0,116	0,081
347,304	800,000	-0,065	-0,156
348,319	185,137	-0,116	-0,118
349,333	264,026	-0,191	-0,228
350,348	195,463	-0,161	-0,168
351,362	-60,443	-0,137	-0,039
352,377	800,000	-0,061	-0,132
353,392	-127,550	-0,122	-0,012
354,406	-32,136	-0,127	0,048
355,421	208,744	1304,871	1397,219
356,435	160,636	1464,365	1397,702
