DTS Sentinel unit serial number:	SN410029Multiplexer serial number:	ORYXHardware model number:	OX2-SRSoftware version number:	ORYX F/W v4,00 Oryx Data Collector v3.7.2.0data status	okinstallation	B3 Nyhavnadifferential loss correction	single-endedforward channel	channel 1reverse channel	N/Adate	2023/12/01time	22:42:30forward acquisition time	300,00reverse acquisition time	0,00gamma	499,1914k internal	0,3196k external	0,3196temperature offset calibration	1,0000default loss term (dB/km)	0,3820temperature slope calibration	1,0000multiplexer offset coefficient	1,0000multiplexer slope coefficient	1,0000fibre end	0,00T internal ref (°C)	15,85T ext. ref 1 (°C)	0,94T ext. ref 2 (°C)	0,93length (m)	temperature (°C)	Stokes	anti-Stokes-744,400	472,834	-0,232	-0,381
-743,385	-200,000	-0,050	0,467
-742,371	37,123	-0,259	-0,167
-741,356	800,000	0,146	0,445
-740,342	-103,940	-0,184	-0,031
-739,327	488,364	-0,149	0,249
-738,312	800,000	-0,084	-0,216
-737,298	-200,000	0,073	0,340
-736,283	202,628	-0,216	-0,243
-735,269	800,000	0,106	0,308
-734,254	575,970	-0,067	-0,120
-733,239	-5,153	-0,154	0,077
-732,225	800,000	-0,052	-0,157
-731,210	-118,540	0,256	0,033
-730,196	14,623	-0,119	-0,067
-729,181	22,025	-0,173	0,103
-728,167	-200,000	-0,025	0,094
-727,152	3,993	0,130	-0,069
-726,137	254,024	-0,071	-0,089
-725,123	-189,847	-0,115	-0,001
-724,108	-89,562	-0,153	-0,032
-723,094	-200,000	-0,017	-0,103
-722,079	-200,000	0,013	-0,135
-721,064	211,535	-0,059	-0,067
-720,050	-34,448	0,038	0,015
-719,035	-165,036	-0,053	-0,002
-718,021	-116,642	0,082	-0,011
-717,006	-200,000	-0,014	-0,140
-715,991	-200,000	-0,032	-0,177
-714,977	-200,000	0,041	-0,186
-713,962	-200,000	-0,013	0,044
-712,948	-200,000	0,034	-0,198
-711,933	-73,086	-0,115	-0,030
-710,918	-200,000	0,035	0,118
-709,904	-135,447	0,086	-0,007
-708,889	95,885	-0,071	-0,059
-707,875	-3,129	0,092	-0,046
-706,860	-80,700	-0,100	-0,024
-705,845	45,915	-0,067	-0,045
-704,831	516,503	0,061	0,104
-703,816	-13,562	0,128	-0,060
-702,802	-200,000	-0,037	-0,129
-701,787	-193,394	0,062	0,000
-700,772	-161,675	0,022	-0,001
-699,758	-159,655	-0,116	-0,005
-698,743	213,389	-0,037	0,042
-697,729	-29,769	0,062	-0,025
-696,714	-200,000	0,019	0,086
-695,699	-200,000	0,007	0,042
-694,685	-200,000	0,030	-0,107
-693,670	80,049	0,079	-0,062
-692,656	-60,196	0,086	-0,027
-691,641	-200,000	-0,003	0,058
-690,627	237,186	0,025	0,030
-689,612	-200,000	0,010	0,055
-688,597	267,212	-0,067	0,085
-687,583	-99,287	-0,170	-0,031
-686,568	800,000	-0,010	0,029
-685,554	800,000	0,013	-0,038
-684,539	160,810	0,041	0,041
-683,524	-25,983	-0,110	-0,047
-682,510	7,524	-0,028	-0,015
-681,495	-200,000	-0,071	-0,269
-680,481	-18,111	-0,097	0,044
-679,466	461,804	-0,057	0,092
-678,451	151,622	0,068	-0,067
-677,437	-70,760	-0,219	0,060
-676,422	800,000	0,030	-0,094
-675,408	-71,502	-0,091	0,024
-674,393	111,837	-0,090	-0,079
-673,378	-200,000	-0,043	-0,218
-672,364	585,265	0,016	-0,029
-671,349	117,558	-0,115	-0,103
-670,335	-111,044	-0,149	-0,022
-669,320	-88,747	0,138	-0,029
-668,305	-92,224	-0,033	0,007
-667,291	259,563	-0,041	0,051
-666,276	-165,960	-0,115	0,004
-665,262	-200,000	-0,024	-0,092
-664,247	-50,317	-0,072	0,025
-663,232	800,000	-0,069	-0,169
-662,218	-200,000	-0,014	0,099
-661,203	-45,240	-0,129	0,046
-660,189	-200,000	-0,019	-0,113
-659,174	-115,452	-0,186	-0,025
-658,159	-200,000	-0,000	-0,174
-657,145	-200,000	0,042	-0,192
-656,130	313,349	0,024	0,032
-655,116	800,000	0,076	0,190
-654,101	582,393	0,029	0,052
-653,086	-35,320	0,019	-0,008
-652,072	-39,334	-0,108	-0,041
-651,057	370,668	-0,075	-0,110
-650,043	-200,000	0,003	-0,017
-649,028	-120,920	-0,039	-0,005
-648,014	18,382	0,114	0,066
-646,999	800,000	0,065	0,135
-645,984	350,951	-0,037	-0,053
-644,970	-189,519	-0,046	-0,000
-643,955	-36,231	0,067	-0,026
-642,941	248,866	-0,101	-0,124
-641,926	-200,000	0,000	0,043
-640,911	-155,165	0,112	0,005
-639,897	234,223	-0,032	-0,038
-638,882	224,876	-0,098	0,116
-637,868	119,546	-0,075	0,068
-636,853	-99,683	-0,051	-0,009
-635,838	-66,600	0,067	-0,019
-634,824	-200,000	0,017	0,079
-633,809	51,524	0,055	0,038
-632,795	800,000	0,078	0,162
-631,780	143,733	0,027	0,026
-630,765	198,736	0,018	-0,020
-629,751	-158,995	-0,154	-0,006
-628,736	92,200	-0,143	-0,117
-627,722	193,299	0,025	0,028
-626,707	144,896	-0,072	-0,070
-625,692	-88,498	0,091	0,019
-624,678	-97,846	-0,056	-0,010
-623,663	-200,000	0,010	0,037
-622,649	34,651	-0,017	-0,011
-621,634	189,953	-0,102	-0,111
-620,619	351,777	-0,084	0,121
-619,605	-200,000	-0,030	0,139
-618,590	-34,348	0,142	0,056
-617,576	-118,505	-0,051	0,007
-616,561	-200,000	-0,001	-0,071
-615,546	374,813	-0,123	-0,182
-614,532	43,683	-0,043	-0,028
-613,517	-200,000	0,023	-0,194
-612,503	175,256	0,066	0,069
-611,488	-73,255	0,125	-0,033
-610,474	567,449	-0,012	0,021
-609,459	747,606	-0,024	0,047
-608,444	-200,000	-0,017	-0,103
-607,430	-69,919	-0,055	-0,015
-606,415	-56,832	0,048	0,015
-605,401	-92,820	-0,011	-0,002
-604,386	-41,596	0,201	0,074
-603,371	61,656	-0,015	-0,011
-602,357	48,453	-0,022	-0,015
-601,342	-37,953	0,086	-0,033
-600,328	-200,000	-0,004	-0,118
-599,313	-200,000	-0,002	0,053
-598,298	800,000	-0,039	-0,087
-597,284	-36,968	-0,097	0,038
-596,269	-200,000	-0,003	0,056
-595,255	386,354	-0,089	-0,134
-594,240	800,000	-0,034	-0,104
-593,225	359,985	0,051	-0,075
-592,211	-63,842	-0,144	0,042
-591,196	559,959	-0,017	0,030
-590,182	-200,000	0,053	0,262
-589,167	-200,000	-0,018	0,166
-588,152	-75,808	-0,082	0,021
-587,138	-56,357	-0,053	0,017
-586,123	40,243	-0,061	-0,040
-585,109	185,793	-0,021	-0,023
-584,094	694,751	-0,049	0,093
-583,079	18,093	-0,059	0,034
-582,065	88,908	0,090	0,072
-581,050	7,720	0,081	-0,044
-580,036	-76,588	0,019	0,005
-579,021	-65,613	-0,131	0,038
-578,006	136,547	-0,123	-0,116
-576,992	21,837	0,018	-0,011
-575,977	-38,988	-0,049	-0,019
-574,963	-200,000	0,014	-0,098
-573,948	55,368	0,060	-0,042
-572,934	91,762	-0,003	-0,003
-571,919	-83,898	-0,131	0,030
-570,904	32,535	-0,021	-0,013
-569,890	101,885	0,102	-0,086
-568,875	800,000	0,034	-0,102
-567,861	137,412	0,075	0,071
-566,846	-72,476	0,063	0,017
-565,831	694,702	0,043	0,083
-564,817	800,000	0,040	0,104
-563,802	45,049	-0,134	-0,089
-562,788	-200,000	0,002	-0,012
-561,773	-137,067	0,144	-0,012
-560,758	-16,985	0,133	-0,061
-559,744	800,000	-0,067	-0,155
-558,729	194,474	-0,043	0,047
-557,715	-16,544	-0,131	-0,060
-556,700	93,181	-0,097	-0,079
-555,685	432,572	-0,093	-0,147
-554,671	800,000	-0,040	-0,105
-553,656	-39,763	-0,061	-0,023
-552,642	-200,000	0,006	0,041
-551,627	-56,297	-0,145	-0,046
-550,612	-200,000	-0,031	0,150
-549,598	384,505	0,049	-0,073
-548,583	41,584	0,045	-0,029
-547,569	751,259	-0,037	-0,073
-546,554	182,393	0,048	0,052
-545,539	-42,822	-0,100	0,037
-544,525	800,000	-0,028	-0,081
-543,510	144,411	0,056	-0,054
-542,496	-200,000	0,032	-0,109
-541,481	800,000	-0,088	-0,185
-540,466	-200,000	-0,024	-0,103
-539,452	-200,000	0,012	-0,081
-538,437	-200,000	-0,019	0,069
-537,423	-200,000	-0,012	0,061
-536,408	-175,073	-0,085	0,002
-535,393	28,753	-0,037	0,023
-534,379	800,000	-0,045	-0,095
-533,364	-22,411	0,044	-0,019
-532,350	692,423	-0,064	-0,122
-531,335	80,654	-0,134	0,104
-530,321	115,181	0,038	-0,034
-529,306	18,344	-0,139	0,080
-528,291	800,000	-0,028	-0,087
-527,277	-200,000	-0,074	-0,239
-526,262	568,437	-0,124	-0,219
-525,248	559,689	-0,035	-0,060
-524,233	-74,798	0,063	0,016
-523,218	-81,661	0,192	-0,045
-522,204	57,274	-0,027	0,019
-521,189	43,516	-0,022	0,014
-520,175	96,420	-0,117	-0,097
-519,160	-169,237	-0,056	0,001
-518,145	-102,928	0,174	0,030
-517,131	64,076	0,122	0,089
-516,116	-91,627	0,013	-0,003
-515,102	800,000	0,043	0,086
-514,087	26,789	0,073	0,044
-513,072	-200,000	0,003	-0,079
-512,058	-74,027	0,028	0,007
-511,043	-94,765	0,161	0,031
-510,029	127,466	0,066	-0,061
-509,014	-95,613	0,153	-0,029
-507,999	53,103	-0,053	0,037
-506,985	317,004	-0,039	-0,054
-505,970	800,000	-0,011	-0,029
-504,956	97,489	0,054	-0,045
-503,941	333,486	-0,030	-0,042
-502,926	800,000	0,049	-0,104
-501,912	44,474	-0,055	0,036
-500,897	800,000	0,007	-0,017
-499,883	-95,786	-0,037	-0,007
-498,868	-200,000	-0,013	-0,056
-497,853	77,087	-0,073	-0,056
-496,839	266,905	0,011	-0,014
-495,824	369,847	0,032	-0,047
-494,810	-127,104	-0,159	-0,017
-493,795	141,567	-0,041	-0,039
-492,781	167,781	-0,032	-0,033
-491,766	113,708	-0,080	0,070
-490,751	64,156	0,047	-0,034
-489,737	38,625	-0,097	-0,062
-488,722	384,336	0,068	-0,102
-487,708	800,000	0,046	-0,144
-486,693	800,000	0,059	0,119
-485,678	330,823	-0,021	0,030
-484,664	558,644	-0,041	-0,072
-483,649	607,967	-0,016	-0,030
-482,635	800,000	-0,023	0,055
-481,620	-200,000	-0,005	0,050
-480,605	577,768	0,057	0,100
-479,591	-200,000	0,006	-0,084
-478,576	128,949	-0,066	-0,061
-477,562	-200,000	0,169	0,000
-476,547	-121,785	-0,175	0,021
-475,532	146,285	-0,101	-0,098
-474,518	-52,514	0,120	0,040
-473,503	-23,171	0,097	0,042
-472,489	-200,000	0,035	0,178
-471,474	-200,000	0,016	0,085
-470,459	-200,000	-0,003	0,058
-469,445	800,000	0,037	0,081
-468,430	304,173	0,052	-0,069
-467,416	-200,000	0,014	-0,063
-466,401	-94,459	0,175	0,034
-465,386	800,000	-0,033	0,082
-464,372	100,618	-0,111	-0,093
-463,357	-30,738	0,091	0,037
-462,343	-59,603	-0,098	0,030
-461,328	-96,187	-0,115	0,022
-460,313	486,314	0,068	0,113
-459,299	-200,000	-0,024	0,092
-458,284	-192,350	0,074	-0,000
-457,270	-44,900	-0,010	-0,003
-456,255	-46,714	0,041	-0,015
-455,241	506,565	0,052	-0,086
-454,226	-200,000	0,039	-0,143
-453,211	140,201	-0,002	-0,002
-452,197	-200,000	-0,016	0,078
-451,182	-79,170	0,071	0,017
-450,168	-200,000	-0,009	0,170
-449,153	-200,000	-0,028	0,122
-448,138	141,571	0,016	0,016
-447,124	31,741	-0,096	-0,059
-446,109	-200,000	0,014	-0,099
-445,095	-168,076	-0,088	0,002
-444,080	740,620	-0,014	-0,028
-443,065	-200,000	0,002	0,041
-442,051	81,939	0,070	-0,054
-441,036	-200,000	0,020	-0,068
-440,022	800,000	-0,016	-0,037
-439,007	17,888	0,123	0,070
-437,992	-91,957	-0,132	0,027
-436,978	-200,000	0,016	0,122
-435,963	763,817	0,049	0,095
-434,949	-48,134	0,122	0,042
-433,934	-200,000	0,005	-0,105
-432,919	-200,000	0,011	-0,051
-431,905	65,775	0,087	0,063
-430,890	36,690	0,177	0,112
-429,876	-200,000	0,022	-0,071
-428,861	148,342	-0,065	-0,063
-427,846	103,739	-0,113	-0,095
-426,832	43,636	0,069	-0,045
-425,817	564,398	-0,081	-0,142
-424,803	269,581	0,047	0,060
-423,788	463,765	-0,014	-0,022
-422,773	10,861	0,108	0,059
-421,759	-84,874	-0,094	0,021
-420,744	24,152	-0,033	-0,019
-419,730	-200,000	-0,033	0,141
-418,715	-200,000	-0,010	-0,213
-417,701	-200,000	-0,006	-0,059
-416,686	-200,000	-0,011	-0,214
-415,671	800,000	0,055	0,168
-414,657	268,925	-0,041	0,052
-413,642	-200,000	-0,001	0,039
-412,628	800,000	-0,021	-0,047
-411,613	-200,000	0,008	0,036
-410,598	378,909	0,072	-0,106
-409,584	135,805	0,061	-0,057
-408,569	-10,815	0,127	0,060
-407,555	264,102	-0,067	0,084
-406,540	-200,000	-0,004	0,081
-405,525	44,742	-0,014	0,009
-404,511	43,413	-0,173	0,113
-403,496	-200,000	0,038	0,133
-402,482	185,098	-0,058	-0,062
-401,467	-56,690	0,052	0,017
-400,452	-132,884	0,048	0,004
-399,438	-44,238	0,065	-0,023
-398,423	91,885	0,110	0,089
-397,409	-200,000	-0,014	-0,112
-396,394	30,510	-0,006	0,004
-395,379	-200,000	0,034	0,151
-394,365	656,927	-0,074	0,137
-393,350	-200,000	-0,004	0,021
-392,336	-200,000	0,030	0,110
-391,321	602,260	-0,027	-0,048
-390,306	295,405	-0,081	-0,107
-389,292	800,000	-0,012	0,034
-388,277	-200,000	-0,020	-0,087
-387,263	-200,000	0,007	0,027
-386,248	-60,399	0,128	-0,039
-385,233	216,048	-0,023	0,027
-384,219	-200,000	-0,017	0,091
-383,204	-55,001	-0,089	0,029
-382,190	104,327	-0,051	-0,043
-381,175	-200,000	0,017	-0,148
-380,160	-37,185	0,119	-0,045
-379,146	-104,985	0,141	-0,023
-378,131	-66,381	0,157	-0,044
-377,117	107,820	-0,073	-0,062
-376,102	174,218	-0,089	0,093
-375,088	800,000	-0,043	-0,135
-374,073	-111,905	-0,046	0,007
-373,058	-46,434	-0,061	-0,021
-372,044	32,655	0,104	0,065
-371,029	-200,000	-0,022	0,073
-370,015	-55,870	-0,137	0,044
-369,000	-200,000	-0,007	-0,031
-367,985	-163,298	-0,223	0,007
-366,971	-200,000	-0,034	0,158
-365,956	-200,000	0,069	0,224
-364,942	184,736	0,108	0,115
-363,927	252,464	0,050	0,062
-362,912	-7,967	-0,047	0,023
-361,898	3,991	0,085	0,044
-360,883	-168,919	-0,104	0,003
-359,869	365,302	0,053	0,077
-358,854	256,963	0,095	0,117
-357,839	-116,053	-0,075	-0,010
-356,825	19,921	0,077	-0,044
-355,810	-85,685	0,028	-0,006
-354,796	44,497	-0,039	-0,026
-353,781	621,287	-0,026	0,047
-352,766	800,000	-0,005	-0,012
-351,752	800,000	-0,044	0,107
-350,737	3,835	0,113	0,059
-349,723	800,000	0,031	-0,068
-348,708	-52,622	-0,071	-0,023
-347,693	7,977	0,082	0,044
-346,679	-118,617	-0,094	-0,012
-345,664	460,932	0,035	0,057
-344,650	800,000	0,044	0,105
-343,635	308,089	0,029	-0,039
-342,620	-200,000	-0,028	0,099
-341,606	-200,000	-0,006	0,050
-340,591	-117,743	-0,084	-0,011
-339,577	800,000	0,028	-0,074
-338,562	-200,000	0,004	0,163
-337,548	-113,545	-0,139	-0,019
-336,533	-144,878	0,098	0,006
-335,518	-47,973	0,052	0,018
-334,504	196,020	-0,009	-0,010
-333,489	-157,295	0,034	0,001
-332,475	788,555	-0,027	-0,053
-331,460	-200,000	0,006	-0,035
-330,445	23,212	-0,029	0,017
-329,431	-63,715	0,265	0,077
-328,416	-16,815	0,140	0,063
-327,402	45,487	-0,117	-0,077
-326,387	800,000	-0,034	0,097
-325,372	800,000	-0,030	0,081
-324,358	-100,727	-0,021	-0,004
-323,343	800,000	-0,018	0,053
-322,329	-193,051	0,043	-0,000
-321,314	-155,771	0,054	-0,002
-320,299	-200,000	-0,019	0,124
-319,285	590,898	0,078	0,138
-318,270	283,253	-0,035	-0,045
-317,256	-200,000	-0,023	-0,128
-316,241	-200,000	-0,002	0,011
-315,226	-15,800	0,110	-0,050
-314,212	504,715	0,066	0,111
-313,197	-200,000	0,035	-0,156
-312,183	-200,000	0,031	-0,134
-311,168	-80,310	-0,113	-0,027
-310,153	45,509	-0,178	-0,118
-309,139	130,704	0,107	-0,099
-308,124	-40,592	0,026	0,010
-307,110	-200,000	-0,007	0,209
-306,095	800,000	-0,047	0,115
-305,080	-10,355	-0,159	-0,075
-304,066	453,296	-0,054	0,085
-303,051	236,444	-0,083	-0,099
-302,037	-200,000	0,017	-0,112
-301,022	453,613	0,028	0,044
-300,008	-200,000	0,024	0,080
-298,993	-172,983	0,038	-0,001
-297,978	-9,254	0,149	0,071
-296,964	143,817	-0,085	0,082
-295,949	145,291	-0,047	-0,045
-294,935	-200,000	0,116	-0,000
-293,920	-106,436	0,159	0,025
-292,905	-102,793	-0,054	-0,009
-291,891	125,638	0,180	0,163
-290,876	45,165	0,070	0,046
-289,862	-30,820	-0,036	-0,014
-288,847	-200,000	0,011	-0,146
-287,832	-173,860	0,081	0,002
-286,818	-200,000	-0,003	-0,051
-285,803	-46,315	0,055	0,019
-284,789	506,548	-0,045	0,075
-283,774	88,129	-0,127	0,101
-282,759	-2,724	-0,062	0,031
-281,745	25,141	-0,098	0,058
-280,730	414,317	-0,052	-0,079
-279,716	-200,000	0,031	0,174
-278,701	97,304	-0,042	0,035
-277,686	-200,000	0,003	0,088
-276,672	-132,477	-0,085	0,008
-275,657	-86,810	0,112	0,024
-274,643	800,000	0,035	-0,092
-273,628	-200,000	0,006	-0,146
-272,613	-84,698	-0,111	0,025
-271,599	23,096	0,170	0,100
-270,584	229,585	0,059	0,069
-269,570	458,398	0,006	-0,010
-268,555	-156,931	0,069	-0,003
-267,540	-200,000	0,035	-0,124
-266,526	-200,000	0,020	-0,103
-265,511	800,000	0,060	-0,132
-264,497	15,696	-0,065	-0,036
-263,482	34,854	0,099	0,062
-262,467	-200,000	0,028	0,149
-261,453	313,452	0,032	0,043
-260,438	-200,000	0,027	-0,106
-259,424	21,416	-0,080	0,047
-258,409	2,290	0,080	-0,041
-257,395	-21,278	0,101	0,044
-256,380	-101,538	0,183	0,031
-255,365	380,358	-0,031	-0,046
-254,351	393,164	0,063	0,093
-253,336	-72,098	-0,079	0,021
-252,322	-32,906	-0,125	-0,049
-251,307	144,045	-0,053	-0,051
-250,292	-200,000	0,019	0,073
-249,278	54,141	-0,078	0,053
-248,263	165,280	-0,054	-0,055
-247,249	800,000	0,022	0,064
-246,234	-200,000	-0,008	0,048
-245,219	17,376	-0,050	-0,029
-244,205	-63,465	-0,176	-0,051
-243,190	45,154	-0,059	-0,039
-242,176	-11,824	-0,017	0,008
-241,161	223,270	0,049	-0,056
-240,146	216,093	-0,029	-0,032
-239,132	97,274	0,170	-0,140
-238,117	523,844	-0,139	-0,235
-237,103	800,000	0,064	-0,182
-236,088	199,988	0,040	-0,044
-235,073	631,966	-0,029	0,053
-234,059	-200,000	-0,027	0,141
-233,044	488,545	0,042	-0,069
-232,030	25,890	-0,064	-0,038
-231,015	358,875	0,040	0,057
-230,000	42,062	-0,153	-0,099
-228,986	-200,000	0,018	-0,194
-227,971	-200,000	0,004	0,019
-226,957	-200,000	-0,004	0,035
-225,942	-200,000	0,016	0,057
-224,927	473,572	-0,073	0,117
-223,913	408,134	0,053	0,080
-222,898	800,000	-0,018	-0,038
-221,884	29,682	0,150	0,091
-220,869	-106,568	0,055	-0,009
-219,855	-200,000	-0,021	0,110
-218,840	356,878	-0,059	-0,085
-217,825	-128,141	0,053	0,005
-216,811	50,804	-0,158	-0,107
-215,796	-145,909	-0,081	-0,005
-214,782	155,156	-0,079	0,077
-213,767	224,677	-0,065	-0,075
-212,752	73,606	0,074	-0,055
-211,738	-200,000	-0,012	0,117
-210,723	27,121	0,131	0,078
-209,709	-183,820	0,042	-0,000
-208,694	-200,000	-0,018	-0,155
-207,679	595,310	-0,006	-0,011
-206,665	-30,840	0,158	0,063
-205,650	502,380	0,034	0,056
-204,636	290,844	-0,074	-0,096
-203,621	-45,766	-0,175	-0,061
-202,606	-128,890	0,125	-0,012
-201,592	487,917	0,077	-0,126
-200,577	-200,000	0,003	0,037
-199,563	-200,000	0,004	0,048
-198,548	-200,000	0,037	0,129
-197,533	127,909	-0,068	0,062
-196,519	-6,169	-0,086	-0,042
-195,504	18,844	0,092	0,052
-194,490	468,467	0,087	-0,140
-193,475	-200,000	-0,003	0,022
-192,460	-200,000	-0,021	0,107
-191,446	-116,294	0,053	-0,007
-190,431	338,300	-0,010	0,014
-189,417	34,926	0,140	-0,087
-188,402	-200,000	0,004	-0,064
-187,387	236,338	0,061	0,072
-186,373	634,355	0,030	-0,055
-185,358	62,012	0,055	0,039
-184,344	800,000	0,061	0,134
-183,329	269,423	0,064	0,080
-182,315	249,225	0,021	0,026
-181,300	250,896	-0,035	-0,043
-180,285	33,486	-0,023	0,014
-179,271	-200,000	0,003	-0,026
-178,256	800,000	0,020	-0,042
-177,242	-100,603	0,073	0,013
-176,227	295,810	-0,126	-0,165
-175,212	-200,000	0,008	-0,025
-174,198	-114,772	-0,039	0,005
-173,183	376,349	-0,072	0,104
-172,169	93,569	-0,184	-0,148
-171,154	340,172	0,056	0,078
-170,139	-99,958	0,106	0,019
-169,125	-200,000	0,017	-0,079
-168,110	215,033	0,077	0,087
-167,096	-13,169	-0,029	-0,014
-166,081	-57,293	-0,196	-0,061
-165,066	-200,000	0,007	0,067
-164,052	-200,000	0,008	-0,039
-163,037	-200,000	0,012	0,053
-162,023	-5,626	0,082	-0,040
-161,008	113,062	-0,081	0,070
-159,993	710,519	-0,016	0,030
-158,979	5,824	-0,053	0,028
-157,964	800,000	-0,033	0,096
-156,950	-106,238	-0,138	0,022
-155,935	-200,000	-0,012	-0,050
-154,920	-108,220	0,098	-0,015
-153,906	-17,211	0,076	0,034
-152,891	-200,000	0,025	0,087
-151,877	30,283	0,064	0,039
-150,862	-91,357	0,067	-0,014
-149,847	800,000	-0,048	-0,096
-148,833	37,789	0,077	-0,049
-147,818	-7,366	0,089	0,043
-146,804	533,052	-0,030	-0,050
-145,789	260,912	-0,023	0,028
-144,775	-61,571	-0,070	-0,021
-143,760	-85,839	0,118	0,026
-142,745	-117,440	-0,136	-0,017
-141,731	449,429	-0,043	0,068
-140,716	-139,857	0,089	0,007
-139,702	134,869	0,082	-0,076
-138,687	-16,532	-0,032	0,015
-137,672	528,918	0,058	-0,097
-136,658	-86,603	0,066	0,014
-135,643	-90,074	-0,102	-0,021
-134,629	-200,000	0,013	0,057
-133,614	-200,000	-0,003	0,034
-132,599	-200,000	0,011	0,066
-131,585	800,000	0,038	0,101
-130,570	800,000	-0,050	-0,126
-129,556	690,332	0,049	-0,092
-128,541	800,000	-0,028	0,081
-127,526	-62,748	-0,091	-0,027
-126,512	282,625	-0,034	0,044
-125,497	244,363	0,129	0,154
-124,483	-98,368	-0,219	0,040
-123,468	-200,000	-0,019	-0,061
-122,453	-108,492	0,030	-0,004
-121,439	212,108	0,036	0,041
-120,424	800,000	-0,042	-0,084
-119,410	153,284	-0,085	-0,083
-118,395	125,318	0,098	0,088
-117,380	-78,656	0,142	0,034
-116,366	800,000	-0,041	-0,088
-115,351	-11,899	-0,025	0,012
-114,337	26,634	-0,111	0,066
-113,322	-200,000	0,034	-0,118
-112,307	-200,000	-0,012	0,123
-111,293	20,257	0,044	-0,025
-110,278	-66,465	0,060	-0,017
-109,264	800,000	0,029	-0,061
-108,249	-83,042	0,074	-0,017
-107,234	-123,023	-0,196	-0,022
-106,220	-200,000	0,001	0,049
-105,205	-11,267	-0,073	-0,034
-104,191	61,683	0,059	0,042
-103,176	336,831	0,041	0,056
-102,162	-53,906	-0,043	-0,014
-101,147	-200,000	-0,006	-0,122
-100,132	800,000	0,047	0,111
-99,118	585,099	0,026	-0,045
-98,103	-200,000	0,024	0,077
-97,089	800,000	0,027	0,068
-96,074	-146,159	0,067	0,004
-95,059	-167,194	0,098	-0,003
-94,045	-200,000	0,009	-0,087
-93,030	-30,377	-0,067	0,027
-92,016	261,627	-0,042	-0,052
-91,001	-200,000	-0,006	-0,098
-89,986	-16,904	-0,086	0,038
-88,972	53,891	0,041	0,028
-87,957	-200,000	0,003	-0,018
-86,943	-200,000	-0,001	-0,020
-85,928	156,402	0,122	-0,119
-84,913	165,431	-0,051	-0,051
-83,899	-200,000	-0,026	-0,111
-82,884	-200,000	-0,012	0,041
-81,870	-92,744	0,140	-0,027
-80,855	28,513	-0,082	-0,049
-79,840	800,000	0,016	-0,032
-78,826	743,870	0,036	-0,069
-77,811	153,171	-0,114	0,111
-76,797	800,000	0,017	-0,045
-75,782	273,711	0,064	0,081
-74,767	-88,303	-0,093	0,020
-73,753	262,018	-0,089	0,110
-72,738	472,824	-0,021	-0,034
-71,724	37,519	0,089	-0,056
-70,709	54,638	0,038	-0,026
-69,694	-67,865	0,052	-0,014
-68,680	176,386	0,044	0,046
-67,665	268,412	0,134	0,167
-66,651	-200,000	0,017	0,069
-65,636	-108,162	-0,011	-0,002
-64,622	-153,899	-0,096	-0,005
-63,607	469,840	0,063	-0,101
-62,592	-200,000	0,008	-0,066
-61,578	-121,016	0,050	0,006
-60,563	800,000	-0,024	-0,053
-59,549	739,596	0,038	-0,072
-58,534	-93,374	-1,461	-0,285
-57,519	368,363	-1,621	-2,330
-56,505	-200,000	-0,399	-4,455
-55,490	144,395	0,901	0,853
-54,476	800,000	4,937	11,313
-53,461	-200,000	17,824	284,177
-52,446	800,000	721,166	2230,086
-51,432	563,521	1635,781	2819,367
-50,417	80,906	1659,337	1268,062
-49,403	23,749	1533,262	893,149
-48,388	17,697	1456,882	819,449
-47,373	18,267	1446,393	816,251
-46,359	17,854	1437,144	809,029
-45,344	16,009	1432,279	797,482
-44,330	15,911	1430,548	796,019
-43,315	15,920	1428,717	795,011
-42,300	15,942	1427,004	794,132
-41,286	15,975	1425,851	793,615
-40,271	15,973	1424,469	792,807
-39,257	15,923	1423,399	791,944
-38,242	15,983	1421,993	791,414
-37,227	15,982	1420,757	790,688
-36,213	15,948	1419,517	789,805
-35,198	15,957	1418,222	789,099
-34,184	15,935	1417,538	788,581
-33,169	15,926	1415,948	787,623
-32,154	15,961	1415,256	787,371
-31,140	15,992	1413,769	786,657
-30,125	16,020	1412,582	786,098
-29,111	15,967	1411,476	785,205
-28,096	15,965	1410,395	784,560
-27,082	15,882	1409,323	783,547
-26,067	15,904	1408,125	782,951
-25,052	15,918	1407,251	782,497
-24,038	15,885	1406,217	781,738
-23,023	15,870	1405,102	781,018
-22,009	15,853	1404,273	780,447
-20,994	15,809	1403,294	779,669
-19,979	15,815	1402,384	779,158
-18,965	15,802	1401,273	778,448
-17,950	15,803	1400,428	777,953
-16,936	15,812	1399,342	777,364
-15,921	15,786	1398,146	776,546
-14,906	15,807	1397,056	776,006
-13,892	15,798	1396,138	775,427
-12,877	15,837	1395,217	775,062
-11,863	15,776	1394,556	774,383
-10,848	15,770	1393,526	773,752
-9,833	15,727	1392,808	773,126
-8,819	15,743	1391,607	772,502
-7,804	15,702	1390,645	771,747
-6,790	15,666	1389,920	771,147
-5,775	15,628	1388,803	770,323
-4,760	15,678	1387,876	770,008
-3,746	15,688	1387,047	769,564
-2,731	15,670	1386,475	769,134
-1,717	15,663	1385,351	768,447
-0,702	15,620	1383,497	767,189
0,313	19,413	1304,108	740,674
1,327	35,714	706,675	439,141
2,342	55,008	125,168	85,528
3,356	2,225	16,549	8,447
4,371	13,112	3,013	1,648
5,386	-45,206	0,568	0,199
6,400	-2,024	0,068	0,034
7,415	-29,986	-0,170	-0,068
8,429	180,201	-0,166	-0,173
9,444	279,850	-0,240	-0,304
10,459	-12,945	-0,346	-0,159
11,473	740,966	-0,143	-0,274
12,488	11,703	-0,401	-0,217
13,502	15,613	-0,284	-0,157
14,517	-23,851	-0,301	-0,127
15,531	513,357	-0,192	-0,319
16,546	67,287	-0,367	-0,265
17,561	187,354	-0,218	-0,230
18,575	-49,987	-0,356	-0,119
19,590	-96,990	-0,184	-0,034
20,604	182,211	-0,214	-0,224
21,619	80,088	-0,472	-0,359
22,634	126,533	-0,386	-0,346
23,648	128,109	-0,452	-0,406
24,663	43,235	-0,389	-0,251
25,677	134,478	-0,331	-0,303
26,692	130,485	-0,309	-0,280
27,707	164,139	-0,377	-0,376
28,721	269,116	-0,242	-0,301
29,736	241,161	-0,304	-0,359
30,750	34,444	-0,474	-0,292
31,765	373,040	-0,315	-0,454
32,780	115,053	-0,353	-0,304
33,794	-33,164	-0,391	-0,152
34,809	198,078	-0,319	-0,344
35,823	240,599	-0,329	-0,388
36,838	19,653	-0,421	-0,239
37,853	27,519	-0,420	-0,249
38,867	25,700	-0,442	-0,259
39,882	-38,050	-0,416	-0,155
40,896	188,178	-0,286	-0,302
41,911	6,460	-0,305	-0,159
42,926	62,624	-0,431	-0,304
43,940	76,416	-0,330	-0,247
44,955	74,077	-0,333	-0,247
45,969	50,633	-0,321	-0,214
46,984	161,835	-0,247	-0,245
47,999	55,077	-0,266	-0,181
49,013	137,295	-0,336	-0,310
50,028	22,940	-0,323	-0,186
51,042	56,348	-0,329	-0,225
52,057	106,067	-0,300	-0,251
53,071	365,498	-0,280	-0,400
54,086	123,897	-0,281	-0,249
55,101	100,741	-0,378	-0,310
56,115	83,948	-0,379	-0,291
57,130	117,157	-0,381	-0,330
58,144	7,591	-0,391	-0,206
59,159	-43,056	-0,342	-0,122
60,174	230,396	-0,356	-0,411
61,188	301,874	-0,253	-0,331
62,203	-48,371	-0,296	-0,100
63,217	112,603	-0,223	-0,190
64,232	348,821	-0,178	-0,248
65,247	0,336	-0,267	-0,134
66,261	87,946	-0,393	-0,307
67,276	133,052	-0,334	-0,304
68,290	61,364	-0,370	-0,259
69,305	-44,576	-0,459	-0,161
70,320	175,535	-0,217	-0,221
71,334	-17,181	-0,412	-0,182
72,349	-78,609	-0,343	-0,082
73,363	91,614	-0,318	-0,252
74,378	3,559	-0,393	-0,201
75,393	-76,653	-0,324	-0,079
76,407	2,481	-0,344	-0,175
77,422	-29,446	-0,269	-0,108
78,436	52,586	-0,247	-0,166
79,451	37,187	-0,443	-0,275
80,466	42,992	-0,294	-0,188
81,480	39,592	-0,288	-0,181
82,495	40,038	-0,261	-0,165
83,509	394,986	-0,222	-0,327
84,524	162,993	-0,181	-0,179
85,539	190,278	-0,155	-0,164
86,553	400,907	-0,199	-0,295
87,568	81,712	-0,305	-0,232
88,582	82,756	-0,270	-0,206
89,597	367,882	-0,159	-0,227
90,611	33,162	-0,299	-0,182
91,626	-0,838	-0,260	-0,129
92,641	132,543	-0,231	-0,210
93,655	-15,532	-0,233	-0,104
94,670	125,680	-0,318	-0,282
95,684	190,240	-0,222	-0,234
96,699	24,919	-0,277	-0,161
97,714	79,194	-0,279	-0,210
98,728	-24,147	-0,324	-0,135
99,743	-0,284	-0,405	-0,201
100,757	81,512	-0,211	-0,160
101,772	455,745	-0,166	-0,260
102,787	159,552	-0,351	-0,344
103,801	40,984	-0,333	-0,210
104,816	32,681	-0,231	-0,140
105,830	20,408	-0,278	-0,157
106,845	145,389	-0,201	-0,189
107,860	-62,862	-0,327	-0,094
108,874	80,206	-0,265	-0,200
109,889	225,424	-0,228	-0,260
110,903	149,132	-0,249	-0,237
111,918	25,200	-0,259	-0,151
112,933	-8,863	-0,400	-0,187
113,947	16,419	-0,241	-0,133
114,962	-80,364	-0,114	0,026
115,976	130,322	-0,354	-0,319
116,991	158,214	-0,263	-0,256
118,006	75,633	-0,261	-0,193
119,020	90,264	-0,275	-0,216
120,035	89,581	-0,253	-0,197
121,049	482,029	-0,120	-0,193
122,064	-200,000	-0,053	-0,179
123,079	140,229	-0,201	-0,186
124,093	50,183	-0,236	-0,156
125,108	76,611	-0,208	-0,155
126,122	800,000	-0,111	-0,291
127,137	276,706	-0,168	-0,209
128,151	187,854	-0,214	-0,224
129,166	70,040	-0,319	-0,231
130,181	-8,963	-0,208	-0,097
131,195	279,344	-0,190	-0,238
132,210	151,987	-0,239	-0,229
133,224	190,136	-0,259	-0,273
134,239	548,461	-0,173	-0,292
135,254	96,399	-0,229	-0,184
136,268	-59,232	-0,239	-0,072
137,283	39,830	-0,198	-0,124
138,297	93,516	-0,227	-0,180
139,312	107,780	-0,263	-0,219
140,327	800,000	-0,150	-0,325
141,341	24,746	-0,321	-0,186
142,356	-22,575	-0,288	-0,121
143,370	49,092	-0,278	-0,182
144,385	54,373	-0,209	-0,140
145,400	302,960	-0,245	-0,318
146,414	308,615	-0,159	-0,209
147,429	-14,444	-0,224	-0,101
148,443	29,953	-0,394	-0,235
149,458	148,890	-0,208	-0,197
150,473	123,347	-0,254	-0,223
151,487	49,914	-0,261	-0,172
152,502	-27,462	-0,150	-0,061
153,516	44,423	-0,412	-0,264
154,531	278,308	-0,140	-0,175
155,546	403,954	-0,114	-0,168
156,560	329,103	-0,199	-0,268
157,575	302,533	-0,158	-0,205
158,589	44,473	-0,311	-0,199
159,604	102,064	-0,177	-0,144
160,619	20,706	-0,333	-0,188
161,633	103,569	-0,339	-0,278
162,648	107,475	-0,299	-0,248
163,662	-79,532	-0,225	-0,053
164,677	800,000	-0,067	-0,159
165,692	-73,006	-0,189	-0,048
166,706	54,705	-0,292	-0,196
167,721	36,911	-0,215	-0,133
168,735	-54,840	-0,354	-0,111
169,750	112,570	-0,134	-0,114
170,764	70,293	-0,261	-0,188
171,779	333,934	-0,139	-0,189
172,794	800,000	-0,075	-0,231
173,808	49,420	-0,183	-0,120
174,823	20,043	-0,250	-0,140
175,837	26,929	-0,204	-0,119
176,852	-22,834	-0,288	-0,121
177,867	-108,471	-0,199	-0,030
178,881	-46,305	-0,292	-0,100
179,896	171,162	-0,249	-0,250
180,910	663,169	-0,140	-0,254
181,925	476,880	-0,217	-0,343
182,940	-31,717	-0,149	-0,058
183,954	276,175	-0,227	-0,281
184,969	153,473	-0,291	-0,278
185,983	247,860	-0,114	-0,134
186,998	39,425	-0,267	-0,166
188,013	318,553	-0,213	-0,282
189,027	800,000	-0,124	-0,277
190,042	-200,000	-0,038	-0,171
191,056	98,369	-0,243	-0,195
192,071	162,134	-0,184	-0,180
193,086	-78,859	-0,202	-0,048
194,100	-132,209	-0,297	-0,026
195,115	-10,981	-0,129	-0,059
196,129	188,781	-0,247	-0,258
197,144	-35,343	-0,218	-0,082
198,159	101,306	-0,175	-0,142
199,173	800,000	-0,153	-0,302
200,188	5,603	-0,152	-0,078
201,202	105,631	-0,108	-0,089
202,217	-85,891	-0,106	-0,023
203,232	6,069	-0,255	-0,131
204,246	250,112	-0,202	-0,239
205,261	285,136	-0,205	-0,258
206,275	300,836	-0,153	-0,197
207,290	105,180	-0,181	-0,149
208,304	143,741	-0,106	-0,099
209,319	37,391	-0,194	-0,119
210,334	39,814	-0,168	-0,105
211,348	51,050	-0,253	-0,166
212,363	-25,422	-0,198	-0,081
213,377	-57,611	-0,195	-0,059
214,392	159,165	-0,167	-0,161
215,407	800,000	-0,136	-0,282
216,421	124,568	-0,194	-0,170
217,436	-32,418	-0,257	-0,099
218,450	-81,220	-0,153	-0,035
219,465	94,219	-0,118	-0,093
220,480	-129,199	-0,251	-0,024
221,494	94,588	-0,127	-0,100
222,509	24,172	-0,197	-0,113
223,523	120,524	-0,098	-0,084
224,538	-44,006	-0,306	-0,106
225,553	-200,000	-0,051	-0,190
226,567	-32,497	-0,163	-0,063
227,582	186,764	-0,144	-0,149
228,596	-90,790	-0,174	-0,035
229,611	9,155	-0,131	-0,069
230,626	16,866	-0,301	-0,165
231,640	800,000	-0,113	-0,289
232,655	30,842	-0,237	-0,141
233,669	21,868	-0,225	-0,127
234,684	-85,137	-0,256	-0,055
235,699	-36,114	-0,169	-0,063
236,713	-125,080	-0,138	-0,015
237,728	-87,582	-0,176	-0,037
238,742	-60,244	-0,098	0,029
239,757	-39,283	-0,218	-0,079
240,772	45,751	-0,233	-0,149
241,786	222,323	-0,225	-0,252
242,801	179,325	-0,144	-0,146
243,815	84,310	-0,176	-0,133
244,830	172,346	-0,188	-0,188
245,844	58,073	-0,210	-0,142
246,859	-10,426	-0,259	-0,119
247,874	627,400	-0,113	-0,198
248,888	231,844	-0,181	-0,207
249,903	138,670	-0,126	-0,115
250,917	-200,000	-0,006	-0,023
251,932	-184,438	-0,162	0,002
252,947	311,090	-0,157	-0,204
253,961	800,000	-0,103	-0,212
254,976	214,302	-0,205	-0,225
255,990	0,995	-0,233	-0,115
257,005	431,002	-0,150	-0,226
258,020	-200,000	-0,038	-0,231
259,034	-18,345	-0,130	-0,056
260,049	160,451	-0,161	-0,155
261,063	22,200	-0,276	-0,156
262,078	52,003	-0,152	-0,100
263,093	-53,289	-0,188	-0,059
264,107	800,000	-0,102	-0,220
265,122	-83,939	-0,253	-0,055
266,136	800,000	-0,055	-0,115
267,151	215,016	-0,063	-0,069
268,166	-59,781	-0,087	-0,026
269,180	-58,008	-0,188	-0,057
270,195	167,938	-0,164	-0,162
271,209	27,343	-0,146	-0,085
272,224	-200,000	-0,033	-0,136
273,239	178,795	-0,063	-0,063
274,253	104,556	-0,145	0,118
275,268	-200,000	-0,003	-0,062
276,282	74,414	-0,234	-0,170
277,297	700,310	-0,037	-0,069
278,312	-200,000	-0,026	-0,121
279,326	-198,816	-0,246	0,001
280,341	308,247	-0,102	-0,132
281,355	4,722	-0,048	-0,024
282,370	-59,951	-0,135	0,040
283,384	35,702	-0,146	-0,089
284,399	-44,891	-0,269	-0,092
285,414	-176,380	-0,047	-0,001
286,428	-96,002	-0,054	0,010
287,443	311,012	-0,029	-0,038
288,457	238,257	-0,072	-0,083
289,472	-99,300	-0,309	-0,053
290,487	800,000	-0,091	-0,221
291,501	-52,460	-0,207	-0,066
292,516	79,939	-0,130	-0,096
293,530	-97,966	-0,229	-0,040
294,545	640,324	-0,115	-0,203
295,560	274,294	-0,121	-0,149
296,574	-14,294	-0,181	-0,080
297,589	-161,439	-0,156	0,005
298,603	375,290	-0,139	-0,196
299,618	-135,440	-0,187	-0,015
300,633	117,341	-0,199	-0,169
301,647	212,610	-0,084	-0,091
302,662	423,747	-0,014	-0,022
303,676	-101,719	-0,102	0,017
304,691	-41,155	-0,344	-0,122
305,706	-83,212	-0,206	-0,045
306,720	-27,370	-0,168	-0,067
307,735	-91,676	-0,252	-0,049
308,749	-74,577	-0,108	-0,027
309,764	-145,863	-0,173	-0,010
310,779	538,469	-0,164	-0,270
311,793	-106,166	-0,115	0,018
312,808	-96,138	-0,285	-0,052
313,822	234,600	-0,131	-0,149
314,837	-200,000	-0,031	-0,154
315,852	421,023	-0,090	-0,134
316,866	-77,034	-0,076	-0,018
317,881	-200,000	0,000	-0,137
318,895	-52,810	-0,080	0,025
319,910	252,870	-0,101	-0,118
320,925	424,977	-0,141	-0,210
321,939	-200,000	0,012	-0,049
322,954	-107,426	-0,146	-0,022
323,968	800,000	-0,083	-0,205
324,983	129,223	-0,056	-0,049
325,997	800,000	-0,075	-0,193
327,012	332,489	-0,181	-0,241
328,027	559,904	-0,089	-0,148
329,041	-12,420	-0,109	-0,049
330,056	416,885	-0,120	-0,176
331,070	-72,341	-0,133	-0,034
332,085	198,364	-0,058	-0,061
333,100	-160,618	-0,140	0,005
334,114	-200,000	-0,018	-0,105
335,129	512,381	-0,116	-0,186
336,143	68,671	-0,145	-0,102
337,158	800,000	-0,077	-0,155
338,173	-200,000	-0,045	-0,162
339,187	289,097	-0,111	-0,138
340,202	800,000	-0,063	-0,122
341,216	800,000	-0,106	-0,252
342,231	800,000	-0,099	-0,228
343,246	667,294	-0,126	-0,225
344,260	-200,000	-0,051	-0,156
345,275	466,628	-0,069	-0,107
346,289	-59,325	-0,051	-0,015
347,304	181,516	-0,099	-0,100
348,319	-200,000	-0,016	-0,186
349,333	-102,937	-0,172	0,028
350,348	-30,854	-0,135	-0,052
351,362	301,551	-0,075	-0,095
352,377	-25,513	-0,016	0,006
353,392	-101,536	-0,087	0,014
354,406	-200,000	0,028	-0,128
355,421	208,772	1315,120	1415,404
356,435	160,659	1475,920	1415,944
