DTS Sentinel unit serial number:	SN410029Multiplexer serial number:	ORYXHardware model number:	OX2-SRSoftware version number:	ORYX F/W v4,00 Oryx Data Collector v3.7.2.0data status	okinstallation	B3 Nyhavnadifferential loss correction	single-endedforward channel	channel 1reverse channel	N/Adate	2023/11/30time	06:27:31forward acquisition time	300,00reverse acquisition time	0,00gamma	499,1914k internal	0,3210k external	0,3210temperature offset calibration	1,0000default loss term (dB/km)	0,3820temperature slope calibration	1,0000multiplexer offset coefficient	1,0000multiplexer slope coefficient	1,0000fibre end	0,00T internal ref (°C)	10,25T ext. ref 1 (°C)	-5,37T ext. ref 2 (°C)	-5,47length (m)	temperature (°C)	Stokes	anti-Stokes-744,400	800,000	-0,155	-0,375
-743,385	-200,000	0,027	0,268
-742,371	74,531	-0,209	-0,159
-741,356	-200,000	0,028	0,248
-740,342	-94,822	-0,252	-0,049
-739,327	800,000	0,049	0,130
-738,312	798,341	-0,171	-0,343
-737,298	-200,000	-0,067	0,246
-736,283	458,103	-0,131	-0,212
-735,269	800,000	0,096	0,268
-734,254	-40,385	-0,214	-0,080
-733,239	224,708	-0,141	0,166
-732,225	800,000	-0,139	-0,393
-731,210	800,000	0,062	0,137
-730,196	800,000	0,065	-0,178
-729,181	250,906	0,067	0,083
-728,167	-200,000	0,008	0,063
-727,152	2,310	0,016	0,008
-726,137	67,289	0,079	0,059
-725,123	59,119	-0,190	-0,136
-724,108	-200,000	-0,014	-0,114
-723,094	11,999	-0,094	-0,052
-722,079	-200,000	-0,001	-0,076
-721,064	620,515	-0,031	-0,057
-720,050	-127,939	-0,179	0,018
-719,035	47,465	-0,083	0,056
-718,021	-200,000	-0,006	0,031
-717,006	67,294	-0,065	-0,048
-715,991	800,000	-0,033	-0,067
-714,977	304,736	-0,008	-0,010
-713,962	-49,421	0,057	0,020
-712,948	298,980	-0,053	0,071
-711,933	125,759	0,032	-0,030
-710,918	-200,000	-0,030	0,098
-709,904	29,802	-0,013	0,008
-708,889	-200,000	0,028	-0,102
-707,875	-200,000	0,009	-0,251
-706,860	800,000	0,020	0,045
-705,845	188,679	0,044	0,048
-704,831	-200,000	0,032	0,117
-703,816	-200,000	0,021	0,071
-702,802	800,000	-0,061	-0,125
-701,787	-200,000	-0,020	-0,105
-700,772	-59,732	-0,088	-0,027
-699,758	434,689	-0,048	-0,076
-698,743	343,268	0,037	-0,052
-697,729	800,000	0,064	0,139
-696,714	-58,408	0,048	-0,015
-695,699	-200,000	-0,003	-0,128
-694,685	-200,000	0,002	-0,035
-693,670	-31,684	-0,133	-0,054
-692,656	800,000	0,010	-0,030
-691,641	-200,000	0,015	-0,089
-690,627	800,000	0,043	-0,130
-689,612	-200,000	-0,037	0,127
-688,597	800,000	0,012	-0,025
-687,583	-200,000	0,008	-0,052
-686,568	-170,554	-0,119	0,003
-685,554	255,182	-0,040	-0,049
-684,539	125,235	0,085	0,077
-683,524	5,626	-0,032	-0,017
-682,510	-142,224	-0,083	0,006
-681,495	349,407	-0,082	0,117
-680,481	-85,708	-0,070	0,016
-679,466	-200,000	-0,026	-0,183
-678,451	52,485	-0,140	-0,097
-677,437	-200,000	0,021	-0,144
-676,422	640,288	0,027	0,049
-675,408	146,901	-0,018	0,017
-674,393	573,918	-0,022	0,039
-673,378	-44,305	0,074	-0,027
-672,364	54,089	-0,046	-0,032
-671,349	-200,000	0,038	0,140
-670,335	68,189	0,115	-0,085
-669,320	-169,347	-0,117	-0,003
-668,305	-200,000	0,000	-0,106
-667,291	-26,361	-0,231	0,097
-666,276	34,276	-0,030	0,019
-665,262	-200,000	0,004	0,023
-664,247	-200,000	0,011	-0,143
-663,232	55,723	-0,102	-0,071
-662,218	149,608	0,051	0,050
-661,203	235,967	0,025	0,030
-660,189	167,210	-0,058	0,060
-659,174	0,743	0,063	0,033
-658,159	-200,000	0,005	-0,038
-657,145	56,689	-0,068	-0,048
-656,130	-20,301	0,044	-0,020
-655,116	245,652	0,061	0,074
-654,101	-166,101	0,072	0,002
-653,086	-120,522	-0,146	-0,018
-652,072	148,299	-0,056	-0,055
-651,057	-105,187	-0,157	0,026
-650,043	143,901	0,037	0,036
-649,028	-72,152	-0,065	-0,017
-648,014	800,000	0,054	0,120
-646,999	620,483	-0,053	-0,096
-645,984	328,635	-0,057	0,080
-644,970	800,000	-0,019	0,058
-643,955	-35,593	0,040	-0,016
-642,941	5,801	-0,173	-0,092
-641,926	473,946	0,035	-0,058
-640,911	800,000	0,066	-0,161
-639,897	80,554	0,066	0,052
-638,882	1,553	0,059	-0,030
-637,868	471,370	0,027	-0,044
-636,853	49,067	-0,027	-0,018
-635,838	-200,000	0,000	-0,085
-634,824	166,009	-0,151	-0,155
-633,809	-9,229	0,033	-0,016
-632,795	7,326	-0,065	0,035
-631,780	138,692	0,112	0,107
-630,765	-200,000	0,017	0,108
-629,751	-200,000	0,043	0,191
-628,736	-11,522	-0,037	0,018
-627,722	275,358	-0,050	-0,064
-626,707	800,000	-0,030	0,076
-625,692	-1,091	0,020	-0,010
-624,678	614,647	0,042	0,077
-623,663	-200,000	-0,017	-0,138
-622,649	220,032	-0,043	-0,050
-621,634	-151,026	-0,121	0,006
-620,619	130,788	-0,025	0,024
-619,605	-198,446	0,106	-0,000
-618,590	-200,000	-0,036	0,183
-617,576	800,000	-0,023	0,062
-616,561	800,000	-0,072	-0,191
-615,546	-88,711	-0,055	-0,012
-614,532	88,790	0,041	-0,033
-613,517	800,000	0,054	-0,117
-612,503	-99,647	0,131	-0,023
-611,488	-200,000	-0,010	0,161
-610,474	269,445	0,095	0,120
-609,459	-180,275	-0,220	0,003
-608,444	58,371	-0,154	-0,109
-607,430	-200,000	-0,059	-0,230
-606,415	-200,000	0,004	-0,055
-605,401	-63,437	0,040	0,012
-604,386	321,794	0,079	0,108
-603,371	29,950	-0,023	0,014
-602,357	-66,057	0,050	-0,014
-601,342	353,916	0,129	-0,185
-600,328	-138,749	0,094	0,007
-599,313	579,332	-0,090	-0,160
-598,298	-200,000	-0,007	0,078
-597,284	-88,391	-0,056	0,012
-596,269	800,000	-0,050	-0,154
-595,255	184,416	0,038	-0,041
-594,240	123,022	0,018	-0,017
-593,225	800,000	-0,069	0,203
-592,211	-21,829	0,076	0,033
-591,196	396,163	0,023	-0,034
-590,182	88,717	0,097	-0,078
-589,167	136,503	-0,035	0,033
-588,152	96,453	-0,076	-0,063
-587,138	70,255	-0,041	-0,031
-586,123	-200,000	0,004	-0,029
-585,109	93,321	-0,088	0,071
-584,094	-200,000	-0,025	0,092
-583,079	19,376	0,122	0,071
-582,065	159,802	-0,064	0,064
-581,050	85,190	0,048	0,038
-580,036	12,571	-0,014	0,008
-579,021	107,830	-0,031	0,027
-578,006	-24,369	-0,034	-0,015
-576,992	136,803	0,036	0,034
-575,977	-200,000	0,030	0,126
-574,963	694,732	0,099	0,187
-573,948	-143,467	0,088	-0,006
-572,934	800,000	-0,058	0,124
-571,919	369,013	0,023	-0,033
-570,904	-200,000	0,006	0,103
-569,890	456,465	-0,019	0,030
-568,875	-186,009	-0,031	-0,000
-567,861	15,222	-0,091	-0,051
-566,846	626,287	0,016	-0,029
-565,831	200,054	-0,033	0,036
-564,817	-29,736	-0,057	0,023
-563,802	635,774	-0,068	-0,124
-562,788	-101,094	-0,142	-0,025
-561,773	29,239	0,103	-0,063
-560,758	-21,503	0,042	-0,018
-559,744	35,524	0,007	-0,004
-558,729	224,781	0,042	-0,049
-557,715	800,000	0,035	-0,093
-556,700	-200,000	-0,023	-0,137
-555,685	-83,320	0,130	0,030
-554,671	-200,000	-0,023	-0,196
-553,656	-94,073	0,166	-0,033
-552,642	-50,270	-0,091	0,031
-551,627	5,396	0,047	-0,025
-550,612	343,215	0,057	0,080
-549,598	145,810	-0,046	-0,044
-548,583	423,835	-0,040	0,062
-547,569	-70,691	-0,013	-0,003
-546,554	423,757	-0,031	-0,048
-545,539	117,292	-0,106	-0,094
-544,525	-7,024	0,186	0,091
-543,510	800,000	-0,026	0,061
-542,496	279,056	-0,062	-0,080
-541,481	-93,113	0,052	0,010
-540,466	-79,725	-0,097	0,023
-539,452	587,664	0,045	-0,080
-538,437	-200,000	0,022	0,077
-537,423	59,062	-0,051	0,036
-536,408	-138,908	-0,202	-0,016
-535,393	-139,195	-0,007	0,001
-534,379	185,746	-0,109	-0,116
-533,364	229,588	-0,045	-0,053
-532,350	782,541	0,017	-0,033
-531,335	-85,759	-0,100	-0,022
-530,321	-200,000	0,009	0,046
-529,306	-122,801	-0,066	0,008
-528,291	-200,000	-0,010	-0,088
-527,277	34,668	-0,245	-0,153
-526,262	-200,000	0,016	-0,078
-525,248	-54,255	0,008	0,003
-524,233	800,000	0,015	0,041
-523,218	90,788	0,080	0,064
-522,204	66,616	-0,067	0,049
-521,189	-200,000	-0,013	-0,169
-520,175	24,137	0,038	-0,023
-519,160	-200,000	-0,007	0,038
-518,145	800,000	-0,024	0,069
-517,131	192,606	-0,088	0,096
-516,116	-133,730	-0,054	0,005
-515,102	223,505	0,091	0,106
-514,087	54,489	-0,143	-0,099
-513,072	25,637	0,077	-0,046
-512,058	78,939	0,083	0,064
-511,043	55,840	0,132	0,092
-510,029	9,966	0,125	-0,068
-509,014	-56,915	0,132	0,042
-507,999	-200,000	0,016	0,088
-506,985	800,000	-0,021	-0,056
-505,970	-106,784	-0,106	0,017
-504,956	-200,000	0,016	-0,158
-503,941	-94,238	-0,065	-0,013
-502,926	800,000	0,029	0,076
-501,912	-200,000	0,020	0,174
-500,897	600,977	0,055	0,098
-499,883	800,000	-0,027	-0,078
-498,868	130,830	-0,097	0,089
-497,853	-200,000	-0,007	-0,055
-496,839	391,405	-0,036	-0,053
-495,824	-200,000	0,002	-0,065
-494,810	-200,000	0,033	0,123
-493,795	424,435	0,015	-0,024
-492,781	-24,327	-0,021	-0,009
-491,766	11,571	-0,070	0,038
-490,751	-133,959	0,030	0,003
-489,737	24,077	0,083	-0,049
-488,722	139,115	0,028	0,026
-487,708	-185,011	0,137	-0,002
-486,693	-104,549	0,042	0,007
-485,678	59,791	0,107	-0,075
-484,664	47,334	-0,108	0,072
-483,649	120,256	0,027	0,024
-482,635	67,571	-0,067	-0,049
-481,620	-200,000	0,005	-0,016
-480,605	800,000	0,009	0,019
-479,591	-76,382	0,045	-0,011
-478,576	800,000	-0,033	0,097
-477,562	-200,000	-0,002	0,051
-476,547	-45,619	0,071	-0,025
-475,532	145,975	-0,039	-0,038
-474,518	65,587	-0,066	-0,048
-473,503	-6,897	0,133	-0,065
-472,489	71,847	0,048	0,035
-471,474	508,473	0,023	-0,039
-470,459	1,348	-0,083	-0,043
-469,445	-73,631	-0,082	0,021
-468,430	-144,980	-0,133	0,009
-467,416	167,617	0,123	0,126
-466,401	-118,798	0,095	0,012
-465,386	-100,705	-0,074	0,013
-464,372	-200,000	0,008	0,074
-463,357	800,000	-0,030	-0,076
-462,343	-122,107	0,063	-0,007
-461,328	-200,000	0,009	-0,048
-460,313	106,271	-0,094	-0,080
-459,299	187,648	0,082	-0,088
-458,284	760,185	-0,052	0,101
-457,270	168,874	0,052	-0,053
-456,255	-200,000	0,017	-0,056
-455,241	-200,000	0,011	-0,224
-454,226	225,408	0,069	-0,080
-453,211	-103,242	0,053	-0,009
-452,197	100,247	0,073	0,061
-451,182	-200,000	-0,002	0,043
-450,168	48,053	-0,028	-0,019
-449,153	-38,826	0,172	0,065
-448,138	55,657	-0,064	0,045
-447,124	-200,000	0,007	-0,034
-446,109	-24,279	-0,050	-0,021
-445,095	19,004	0,136	0,078
-444,080	785,219	0,052	0,102
-443,065	-200,000	0,009	0,074
-442,051	-200,000	0,000	0,010
-441,036	-48,694	-0,146	-0,050
-440,022	601,426	-0,052	-0,093
-439,007	-200,000	0,001	-0,032
-437,992	154,425	-0,088	-0,087
-436,978	-200,000	0,012	0,114
-435,963	55,720	0,066	0,046
-434,949	171,550	-0,050	0,051
-433,934	800,000	-0,049	0,114
-432,919	-200,000	-0,026	0,120
-431,905	-156,636	0,019	0,001
-430,890	133,025	0,060	0,056
-429,876	-200,000	-0,003	0,063
-428,861	251,184	0,090	-0,110
-427,846	-200,000	0,004	0,018
-426,832	116,861	0,010	-0,009
-425,817	86,025	0,034	0,027
-424,803	-13,277	-0,216	0,100
-423,788	-82,596	0,170	0,039
-422,773	73,983	-0,046	0,035
-421,759	-41,367	0,131	-0,048
-420,744	-200,000	-0,020	0,074
-419,730	-200,000	-0,023	-0,092
-418,715	-200,000	0,007	-0,081
-417,701	800,000	-0,049	-0,150
-416,686	414,893	0,047	0,072
-415,671	-200,000	-0,013	0,070
-414,657	-200,000	0,021	0,102
-413,642	511,365	-0,063	0,105
-412,628	-200,000	-0,010	-0,044
-411,613	10,330	0,194	-0,106
-410,598	-200,000	-0,005	0,020
-409,584	800,000	0,025	-0,058
-408,569	-200,000	-0,011	-0,097
-407,555	-95,688	-0,060	0,011
-406,540	186,105	0,030	0,032
-405,525	235,968	-0,104	-0,123
-404,511	800,000	-0,044	-0,124
-403,496	-200,000	-0,017	-0,115
-402,482	-200,000	0,018	-0,095
-401,467	80,825	-0,004	0,003
-400,452	-200,000	0,020	0,068
-399,438	-200,000	0,024	-0,144
-398,423	-200,000	0,003	0,065
-397,409	800,000	-0,048	-0,146
-396,394	16,013	0,106	-0,060
-395,379	800,000	-0,027	0,080
-394,365	585,650	0,041	-0,073
-393,350	800,000	0,028	-0,068
-392,336	653,770	-0,007	-0,014
-391,321	25,848	-0,135	0,080
-390,306	12,725	-0,032	-0,018
-389,292	121,829	0,062	0,056
-388,277	47,247	0,117	0,078
-387,263	71,421	0,148	0,110
-386,248	487,689	-0,023	0,037
-385,233	89,982	0,030	-0,024
-384,219	-200,000	0,002	0,014
-383,204	-116,579	0,106	-0,014
-382,190	-200,000	-0,002	-0,051
-381,175	-200,000	-0,000	-0,034
-380,160	7,662	-0,085	0,045
-379,146	149,115	0,091	0,089
-378,131	110,971	0,049	0,042
-377,117	730,365	-0,029	-0,056
-376,102	5,421	-0,061	-0,032
-375,088	800,000	0,047	-0,126
-374,073	-0,606	-0,064	-0,032
-373,058	800,000	-0,017	0,038
-372,044	-200,000	0,007	0,023
-371,029	-164,933	0,026	0,001
-370,015	800,000	-0,014	-0,044
-369,000	113,699	0,090	0,078
-367,985	-59,750	-0,086	-0,026
-366,971	-138,909	0,015	-0,001
-365,956	-43,505	-0,103	0,037
-364,942	481,714	-0,010	0,016
-363,927	-41,225	0,061	0,022
-362,912	-200,000	-0,005	0,026
-361,898	-83,663	-0,089	-0,020
-360,883	623,024	-0,046	-0,083
-359,869	800,000	0,023	0,053
-358,854	800,000	0,014	0,029
-357,839	167,640	0,083	0,084
-356,825	-200,000	0,045	0,181
-355,810	800,000	0,031	-0,080
-354,796	800,000	-0,041	0,128
-353,781	800,000	0,038	-0,118
-352,766	-61,876	0,063	0,019
-351,752	-200,000	-0,004	0,091
-350,737	170,955	-0,068	0,070
-349,723	-133,240	0,167	-0,015
-348,708	167,639	0,046	0,047
-347,693	800,000	-0,033	-0,090
-346,679	-200,000	-0,008	-0,039
-345,664	98,385	-0,036	-0,029
-344,650	-113,604	0,162	0,022
-343,635	-149,416	0,018	0,001
-342,620	-200,000	-0,005	-0,039
-341,606	375,421	-0,018	-0,026
-340,591	800,000	0,033	0,065
-339,577	-44,267	-0,056	-0,020
-338,562	45,352	-0,078	0,051
-337,548	777,856	-0,040	0,078
-336,533	596,686	0,018	-0,032
-335,518	44,132	0,038	0,025
-334,504	193,018	0,105	0,113
-333,489	800,000	-0,032	-0,089
-332,475	208,979	-0,119	-0,134
-331,460	-141,250	-0,086	-0,006
-330,445	23,322	-0,058	-0,034
-329,431	-56,706	-0,015	0,005
-328,416	-62,397	0,161	0,047
-327,402	71,877	-0,082	-0,061
-326,387	-28,786	-0,044	0,018
-325,372	372,454	0,075	-0,108
-324,358	800,000	-0,075	-0,168
-323,343	800,000	-0,023	0,069
-322,329	-200,000	-0,019	-0,130
-321,314	641,296	0,079	0,145
-320,299	800,000	0,048	0,150
-319,285	11,177	-0,009	-0,005
-318,270	172,051	0,059	-0,061
-317,256	574,635	-0,068	-0,119
-316,241	-31,460	-0,164	-0,065
-315,226	-13,943	-0,084	-0,038
-314,212	434,325	0,030	0,047
-313,197	319,246	-0,024	0,032
-312,183	3,733	0,130	0,067
-311,168	-70,812	-0,081	-0,022
-310,153	-6,706	0,071	0,034
-309,139	800,000	0,071	-0,223
-308,124	-156,614	-0,036	-0,002
-307,110	60,313	0,140	0,099
-306,095	-200,000	0,000	0,037
-305,080	-200,000	-0,027	0,128
-304,066	-97,711	-0,069	-0,013
-303,051	-72,356	0,026	0,007
-302,037	287,738	0,063	-0,081
-301,022	-3,850	-0,074	-0,036
-300,008	-93,883	0,105	0,020
-298,993	-200,000	0,009	0,070
-297,978	800,000	0,024	0,052
-296,964	279,640	-0,043	-0,055
-295,949	-99,584	-0,110	-0,019
-294,935	275,747	0,083	-0,106
-293,920	468,765	0,065	0,105
-292,905	378,799	0,087	0,127
-291,891	203,319	0,053	0,058
-290,876	136,700	-0,092	0,086
-289,862	-6,912	-0,045	0,022
-288,847	-84,822	-0,017	0,004
-287,832	31,533	0,080	-0,049
-286,818	-200,000	0,038	0,144
-285,803	800,000	0,007	-0,019
-284,789	-15,845	0,149	0,067
-283,774	13,637	-0,056	0,031
-282,759	268,344	-0,087	-0,109
-281,745	-200,000	-0,037	-0,150
-280,730	69,361	-0,084	0,062
-279,716	469,335	0,012	0,019
-278,701	-111,685	0,056	0,008
-277,686	-15,007	-0,037	-0,017
-276,672	-7,543	-0,087	0,042
-275,657	314,794	0,038	-0,051
-274,643	-200,000	-0,014	-0,138
-273,628	712,559	-0,069	-0,131
-272,613	315,945	0,046	-0,062
-271,599	-24,167	0,097	0,041
-270,584	800,000	0,031	0,068
-269,570	767,266	-0,044	0,086
-268,555	323,253	0,066	-0,090
-267,540	-200,000	-0,025	-0,143
-266,526	286,115	0,044	0,056
-265,511	112,950	0,092	0,079
-264,497	-200,000	0,007	-0,081
-263,482	9,349	0,109	0,059
-262,467	-200,000	0,001	0,067
-261,453	88,998	0,048	0,038
-260,438	160,856	0,033	-0,033
-259,424	-11,240	-0,089	-0,042
-258,409	88,109	-0,176	0,139
-257,395	-88,770	0,056	-0,012
-256,380	-105,987	0,033	-0,005
-255,365	800,000	0,050	-0,110
-254,351	508,542	0,059	-0,097
-253,336	195,934	0,053	0,057
-252,322	153,419	-0,065	0,064
-251,307	152,521	-0,084	-0,082
-250,292	58,099	-0,063	0,044
-249,278	-200,000	0,019	0,081
-248,263	-175,914	0,075	-0,001
-247,249	-200,000	-0,016	0,088
-246,234	219,501	0,075	-0,086
-245,219	-200,000	0,018	0,084
-244,205	-200,000	-0,004	-0,083
-243,190	-200,000	-0,000	-0,051
-242,176	214,615	0,026	-0,029
-241,161	375,015	0,080	0,117
-240,146	15,745	0,041	-0,023
-239,132	-14,698	-0,112	0,051
-238,117	-67,751	-0,100	-0,028
-237,103	-66,683	0,047	0,013
-236,088	-200,000	0,025	0,144
-235,073	226,259	-0,104	0,120
-234,059	-200,000	0,021	-0,067
-233,044	566,670	-0,057	0,099
-232,030	245,118	-0,190	0,227
-231,015	293,066	-0,040	-0,052
-230,000	265,366	0,077	-0,096
-228,986	-91,096	0,095	-0,019
-227,971	800,000	-0,063	0,161
-226,957	-200,000	0,017	0,070
-225,942	474,248	-0,097	0,156
-224,927	461,003	0,045	-0,072
-223,913	-60,738	-0,078	-0,023
-222,898	800,000	0,016	-0,032
-221,884	162,026	0,015	0,015
-220,869	7,056	-0,080	-0,042
-219,855	117,237	0,075	0,066
-218,840	-167,200	-0,063	-0,002
-217,825	49,084	0,135	-0,090
-216,811	11,170	0,070	0,038
-215,796	800,000	0,043	-0,092
-214,782	-200,000	0,000	-0,024
-213,767	211,075	0,071	-0,080
-212,752	534,451	0,050	0,084
-211,738	-29,045	0,144	0,058
-210,723	-200,000	0,002	0,012
-209,709	-200,000	0,013	-0,197
-208,694	800,000	0,045	-0,104
-207,679	-200,000	0,048	-0,165
-206,665	401,110	0,059	-0,089
-205,650	13,749	0,124	0,068
-204,636	-118,858	0,019	-0,002
-203,621	-200,000	0,004	0,120
-202,606	800,000	-0,056	-0,123
-201,592	121,702	-0,130	-0,115
-200,577	29,614	0,060	0,036
-199,563	-56,552	-0,123	0,038
-198,548	-200,000	0,029	0,118
-197,533	-118,797	0,045	-0,006
-196,519	-6,222	0,048	-0,023
-195,504	65,971	-0,097	-0,070
-194,490	-33,844	-0,101	0,039
-193,475	-24,535	0,058	-0,024
-192,460	640,242	-0,034	-0,061
-191,446	800,000	-0,029	0,087
-190,431	333,522	-0,033	0,045
-189,417	-143,442	0,099	-0,007
-188,402	-200,000	-0,033	0,135
-187,387	-200,000	-0,012	0,075
-186,373	65,561	-0,117	-0,084
-185,358	-102,246	-0,145	-0,024
-184,344	-200,000	-0,000	0,043
-183,329	-24,656	0,124	-0,052
-182,315	800,000	0,017	0,048
-181,300	-94,083	-0,107	-0,021
-180,285	51,109	-0,055	-0,037
-179,271	-6,303	-0,072	-0,035
-178,256	281,392	-0,053	-0,067
-177,242	-200,000	-0,008	0,063
-176,227	-111,127	0,057	-0,008
-175,212	-170,144	0,150	0,004
-174,198	551,636	-0,008	-0,014
-173,183	-200,000	-0,031	-0,103
-172,169	77,132	-0,102	-0,077
-171,154	800,000	-0,056	0,121
-170,139	-78,794	-0,059	-0,014
-169,125	-98,765	-0,013	0,002
-168,110	-200,000	0,016	-0,077
-167,096	188,748	0,034	-0,036
-166,081	606,842	-0,027	0,048
-165,066	-82,005	-0,053	-0,012
-164,052	800,000	-0,028	0,077
-163,037	800,000	-0,067	0,147
-162,023	-136,454	-0,114	0,009
-161,008	-152,994	0,068	0,003
-159,993	800,000	0,023	0,050
-158,979	-152,339	-0,146	-0,007
-157,964	-2,230	-0,097	0,048
-156,950	385,321	0,057	-0,084
-155,935	-137,677	-0,090	0,007
-154,920	188,437	0,009	-0,010
-153,906	800,000	-0,038	0,115
-152,891	147,262	0,131	0,125
-151,877	13,737	-0,073	-0,040
-150,862	-88,320	0,038	0,008
-149,847	-200,000	-0,006	-0,056
-148,833	757,084	-0,073	0,142
-147,818	-200,000	0,005	0,090
-146,804	155,931	0,012	0,012
-145,789	243,506	0,044	-0,052
-144,775	800,000	-0,029	-0,068
-143,760	133,830	-0,105	0,096
-142,745	-200,000	0,002	-0,009
-141,731	-124,244	-0,153	0,017
-140,716	44,580	0,049	0,032
-139,702	170,062	0,084	0,085
-138,687	278,803	0,016	0,020
-137,672	-200,000	0,036	0,152
-136,658	-200,000	-0,002	-0,166
-135,643	400,977	-0,051	-0,076
-134,629	-200,000	0,009	-0,068
-133,614	-62,169	0,027	-0,008
-132,599	-134,483	0,057	0,005
-131,585	-59,505	0,129	0,039
-130,570	800,000	0,045	0,101
-129,556	71,615	-0,159	-0,117
-128,541	800,000	0,020	-0,039
-127,526	800,000	0,020	-0,045
-126,512	-64,715	0,117	-0,033
-125,497	-132,103	-0,027	-0,002
-124,483	61,436	-0,010	0,007
-123,468	-200,000	0,022	0,096
-122,453	57,465	-0,108	0,075
-121,439	-164,073	0,110	0,004
-120,424	-200,000	-0,004	-0,068
-119,410	780,560	0,013	-0,025
-118,395	80,303	0,046	-0,035
-117,380	131,351	-0,092	0,084
-116,366	-128,917	0,062	0,006
-115,351	-200,000	0,005	0,029
-114,337	443,887	0,059	-0,091
-113,322	311,691	0,058	0,078
-112,307	70,449	-0,036	0,026
-111,293	657,618	-0,084	0,153
-110,278	800,000	-0,010	-0,024
-109,264	800,000	0,019	-0,048
-108,249	164,455	0,038	-0,038
-107,234	-71,523	-0,184	-0,048
-106,220	266,031	-0,067	-0,082
-105,205	-87,137	0,147	-0,031
-104,191	-200,000	0,003	-0,030
-103,176	60,647	-0,075	0,052
-102,162	21,563	0,074	0,043
-101,147	-200,000	0,003	0,095
-100,132	800,000	-0,079	-0,159
-99,118	91,798	-0,061	0,048
-98,103	319,678	0,081	-0,110
-97,089	761,522	0,036	-0,070
-96,074	800,000	-0,022	0,056
-95,059	263,774	-0,101	0,125
-94,045	109,291	0,083	-0,071
-93,030	-19,976	0,089	-0,039
-92,016	35,711	-0,123	-0,077
-91,001	800,000	-0,021	0,058
-89,986	50,383	-0,112	0,075
-88,972	227,469	0,095	0,109
-87,957	-200,000	0,005	0,091
-86,943	247,588	-0,054	-0,065
-85,928	-51,899	0,049	-0,016
-84,913	350,521	0,118	-0,166
-83,899	-200,000	0,022	-0,081
-82,884	-31,235	0,038	0,015
-81,870	-200,000	-0,010	-0,054
-80,855	598,200	-0,076	0,135
-79,840	800,000	-0,032	-0,094
-78,826	-59,512	0,046	-0,014
-77,811	-113,911	0,078	-0,011
-76,797	107,593	-0,057	-0,048
-75,782	734,176	-0,016	-0,031
-74,767	-83,507	0,030	0,007
-73,753	-43,476	-0,051	0,018
-72,738	142,966	0,085	0,080
-71,724	0,315	-0,141	0,071
-70,709	703,406	0,073	-0,137
-69,694	-86,751	-0,159	0,034
-68,680	-176,735	0,047	0,001
-67,665	-200,000	0,014	-0,046
-66,651	-86,955	0,066	-0,014
-65,636	29,695	-0,064	-0,038
-64,622	-62,542	-0,106	-0,031
-63,607	-107,468	-0,159	0,024
-62,592	-200,000	0,014	-0,065
-61,578	-69,106	-0,064	-0,017
-60,563	-200,000	-0,002	-0,007
-59,549	402,825	0,039	0,059
-58,534	30,935	-1,875	-1,132
-57,519	543,566	-1,183	-2,000
-56,505	-200,000	-0,493	-4,332
-55,490	460,617	0,943	1,488
-54,476	800,000	4,993	11,340
-53,461	-200,000	21,163	338,686
-52,446	800,000	758,857	2352,560
-51,432	558,044	1661,897	2840,604
-50,417	73,626	1661,633	1227,366
-49,403	18,131	1535,024	861,840
-48,388	12,076	1458,448	789,559
-47,373	19,272	1449,596	819,272
-46,359	15,503	1438,785	795,207
-45,344	10,381	1434,647	768,500
-44,330	10,317	1432,517	767,025
-43,315	10,284	1430,873	765,957
-42,300	10,328	1428,991	765,126
-41,286	10,326	1427,905	764,505
-40,271	10,268	1426,746	763,578
-39,257	10,291	1425,573	763,032
-38,242	10,304	1424,446	762,461
-37,227	10,301	1423,327	761,817
-36,213	10,315	1422,046	761,165
-35,198	10,307	1420,954	760,514
-34,184	10,369	1420,014	760,274
-33,169	10,272	1418,795	759,132
-32,154	10,335	1417,411	758,658
-31,140	10,356	1416,068	758,007
-30,125	10,398	1415,272	757,749
-29,111	10,396	1414,050	757,056
-28,096	10,366	1412,784	756,205
-27,082	10,281	1411,846	755,276
-26,067	10,237	1410,947	754,558
-25,052	10,325	1409,628	754,236
-24,038	10,281	1408,698	753,501
-23,023	10,287	1407,732	752,984
-22,009	10,307	1406,699	752,496
-20,994	10,264	1405,748	751,758
-19,979	10,254	1404,817	751,181
-18,965	10,273	1403,721	750,656
-17,950	10,246	1402,884	750,050
-16,936	10,201	1402,211	749,454
-15,921	10,180	1401,431	748,906
-14,906	10,218	1400,146	748,367
-13,892	10,229	1399,096	747,829
-12,877	10,227	1398,232	747,329
-11,863	10,199	1397,618	746,839
-10,848	10,170	1396,763	746,216
-9,833	10,116	1395,811	745,430
-8,819	10,110	1394,970	744,921
-7,804	10,102	1394,000	744,340
-6,790	10,142	1392,902	743,907
-5,775	10,095	1392,115	743,240
-4,760	10,052	1390,931	742,379
-3,746	10,108	1390,007	742,116
-2,731	10,103	1389,355	741,714
-1,717	10,094	1388,435	741,153
-0,702	10,057	1386,593	739,971
0,313	14,116	1299,660	712,145
1,327	30,356	690,172	414,991
2,342	47,424	119,333	78,313
3,356	1,372	16,497	8,336
4,371	4,902	3,477	1,798
5,386	-12,332	1,030	0,473
6,400	369,854	0,341	0,488
7,415	-180,577	-0,092	0,001
8,429	5,409	-0,232	-0,120
9,444	33,031	-0,284	-0,173
10,459	-110,942	-0,378	-0,054
11,473	62,728	-0,196	-0,138
12,488	-90,415	-0,207	0,042
13,502	-54,035	-0,330	-0,105
14,517	-71,421	-0,308	-0,081
15,531	47,750	-0,299	-0,196
16,546	382,155	-0,193	-0,280
17,561	210,970	-0,329	-0,364
18,575	-55,727	-0,120	0,038
19,590	110,253	-0,325	-0,275
20,604	-24,348	-0,322	-0,134
21,619	107,994	-0,482	-0,404
22,634	161,326	-0,435	-0,429
23,648	111,745	-0,433	-0,368
24,663	28,638	-0,465	-0,276
25,677	20,749	-0,355	-0,202
26,692	-61,916	-0,320	-0,094
27,707	73,280	-0,326	-0,239
28,721	96,739	-0,377	-0,303
29,736	134,455	-0,325	-0,297
30,750	255,809	-0,291	-0,352
31,765	46,409	-0,338	-0,220
32,780	0,072	-0,459	-0,229
33,794	74,351	-0,355	-0,262
34,809	75,725	-0,371	-0,275
35,823	-3,300	-0,555	-0,271
36,838	-38,132	-0,462	-0,172
37,853	122,267	-0,305	-0,268
38,867	157,515	-0,304	-0,296
39,882	59,778	-0,333	-0,231
40,896	179,992	-0,263	-0,272
41,911	94,094	-0,224	-0,178
42,926	93,631	-0,269	-0,214
43,940	200,920	-0,355	-0,384
44,955	35,687	-0,269	-0,166
45,969	2,894	-0,416	-0,212
46,984	93,447	-0,301	-0,239
47,999	114,065	-0,275	-0,235
49,013	174,004	-0,253	-0,257
50,028	106,223	-0,238	-0,198
51,042	83,407	-0,358	-0,274
52,057	80,133	-0,338	-0,255
53,071	-63,103	-0,193	-0,056
54,086	87,349	-0,364	-0,282
55,101	167,929	-0,229	-0,229
56,115	266,372	-0,214	-0,263
57,130	-62,096	-0,403	-0,117
58,144	155,679	-0,324	-0,313
59,159	175,798	-0,397	-0,405
60,174	45,694	-0,266	-0,172
61,188	800,000	-0,208	-0,427
62,203	256,625	-0,264	-0,319
63,217	-57,264	-0,381	-0,117
64,232	48,261	-0,287	-0,188
65,247	-34,459	-0,360	-0,138
66,261	86,249	-0,321	-0,248
67,276	109,960	-0,341	-0,287
68,290	83,130	-0,315	-0,240
69,305	61,481	-0,345	-0,240
70,320	-0,254	-0,279	-0,138
71,334	40,484	-0,308	-0,194
72,349	84,521	-0,356	-0,273
73,363	-56,979	-0,449	-0,138
74,378	-8,971	-0,338	-0,158
75,393	89,311	-0,327	-0,255
76,407	-73,729	-0,148	-0,037
77,422	-45,671	-0,422	-0,145
78,436	-28,268	-0,499	-0,201
79,451	38,599	-0,328	-0,205
80,466	51,449	-0,333	-0,221
81,480	-7,528	-0,293	-0,138
82,495	13,453	-0,401	-0,217
83,509	107,484	-0,262	-0,218
84,524	160,938	-0,118	-0,116
85,539	50,199	-0,300	-0,198
86,553	744,972	-0,112	-0,211
87,568	-52,943	-0,403	-0,129
88,582	-7,879	-0,190	-0,089
89,597	36,166	-0,279	-0,171
90,611	-117,921	-0,322	-0,040
91,626	12,565	-0,245	-0,132
92,641	-42,279	-0,330	-0,117
93,655	204,227	-0,158	-0,171
94,670	-0,912	-0,242	-0,119
95,684	458,181	-0,176	-0,274
96,699	132,558	-0,285	-0,257
97,714	44,860	-0,402	-0,258
98,728	22,279	-0,208	-0,118
99,743	-27,632	-0,181	-0,073
100,757	9,529	-0,259	-0,137
101,772	154,616	-0,222	-0,213
102,787	46,135	-0,291	-0,188
103,801	6,211	-0,276	-0,143
104,816	94,100	-0,243	-0,192
105,830	187,384	-0,104	-0,108
106,845	787,510	-0,088	-0,169
107,860	7,287	-0,279	-0,145
108,874	-46,245	-0,231	-0,079
109,889	-48,237	-0,354	-0,119
110,903	90,045	-0,223	-0,174
111,918	-53,030	-0,209	-0,067
112,933	-54,510	-0,292	-0,092
113,947	-46,771	-0,370	-0,126
114,962	151,550	-0,142	-0,135
115,976	-116,729	-0,353	-0,045
116,991	65,824	-0,265	-0,187
118,006	58,988	-0,242	-0,166
119,020	28,295	-0,175	-0,103
120,035	43,645	-0,220	-0,140
121,049	11,119	-0,218	-0,116
122,064	-131,611	-0,261	0,024
123,079	55,077	-0,233	-0,157
124,093	340,365	-0,218	-0,298
125,108	158,471	-0,167	-0,162
126,122	572,292	-0,100	-0,171
127,137	82,819	-0,137	-0,104
128,151	509,955	-0,111	-0,181
129,166	154,583	-0,233	-0,224
130,181	175,881	-0,259	-0,262
131,195	117,220	-0,225	-0,193
132,210	295,990	-0,231	-0,296
133,224	182,336	-0,197	-0,202
134,239	256,360	-0,191	-0,229
135,254	-46,758	-0,324	-0,110
136,268	176,527	-0,214	-0,217
137,283	-45,903	-0,222	-0,076
138,297	158,073	-0,192	-0,186
139,312	206,455	-0,179	-0,195
140,327	371,968	-0,271	-0,385
141,341	91,872	-0,256	-0,201
142,356	-200,000	-0,030	-0,168
143,370	254,369	-0,150	-0,180
144,385	259,805	-0,283	-0,341
145,400	47,749	-0,161	-0,104
146,414	168,390	-0,241	-0,240
147,429	412,660	-0,168	-0,249
148,443	136,578	-0,153	-0,139
149,458	199,132	-0,218	-0,233
150,473	208,649	-0,157	-0,171
151,487	93,615	-0,289	-0,228
152,502	207,554	-0,127	-0,138
153,516	169,160	-0,272	-0,271
154,531	54,546	-0,186	-0,125
155,546	-105,783	-0,328	-0,051
156,560	151,743	-0,208	-0,197
157,575	33,058	-0,352	-0,212
158,589	282,174	-0,177	-0,222
159,604	521,898	-0,145	-0,237
160,619	133,384	-0,181	-0,163
161,633	-76,307	-0,325	-0,079
162,648	83,257	-0,274	-0,207
163,662	800,000	-0,091	-0,177
164,677	15,487	-0,293	-0,159
165,692	800,000	-0,074	-0,165
166,706	214,164	-0,189	-0,209
167,721	252,894	-0,245	-0,291
168,735	72,833	-0,277	-0,201
169,750	448,044	-0,163	-0,250
170,764	209,228	-0,190	-0,207
171,779	-120,897	-0,218	0,025
172,794	322,201	-0,120	-0,159
173,808	83,587	-0,208	-0,157
174,823	102,177	-0,244	-0,198
175,837	745,648	-0,153	-0,287
176,852	132,705	-0,284	-0,254
177,867	-200,000	-0,044	-0,137
178,881	183,407	-0,174	-0,178
179,896	52,376	-0,144	-0,095
180,910	162,307	-0,196	-0,191
181,925	320,239	-0,164	-0,217
182,940	33,964	-0,303	-0,183
183,954	-43,259	-0,336	-0,117
184,969	-31,850	-0,171	-0,066
185,983	800,000	-0,066	-0,151
186,998	800,000	-0,113	-0,224
188,013	-51,856	-0,166	-0,053
189,027	158,569	-0,158	-0,152
190,042	129,581	-0,265	-0,235
191,056	169,641	-0,262	-0,260
192,071	-44,464	-0,096	-0,033
193,086	-109,268	-0,150	0,022
194,100	330,774	-0,094	-0,126
195,115	42,001	-0,234	-0,147
196,129	86,055	-0,249	-0,190
197,144	800,000	-0,088	-0,229
198,159	-22,223	-0,262	-0,110
199,173	-97,721	-0,144	-0,026
200,188	-105,810	-0,150	0,023
201,202	54,771	-0,199	-0,133
202,217	-185,499	-0,188	-0,002
203,232	3,757	-0,269	-0,135
204,246	-33,576	-0,356	-0,136
205,261	111,222	-0,231	-0,193
206,275	-89,660	-0,241	-0,048
207,290	800,000	-0,084	-0,190
208,304	79,640	-0,219	-0,163
209,319	-19,727	-0,119	0,051
210,334	58,995	-0,277	-0,189
211,348	201,690	-0,179	-0,191
212,363	179,881	-0,267	-0,271
213,377	24,383	-0,267	-0,153
214,392	-110,170	-0,202	-0,029
215,407	50,732	-0,231	-0,151
216,421	55,642	-0,235	-0,158
217,436	182,191	-0,204	-0,208
218,450	10,815	-0,191	-0,101
219,465	3,695	-0,207	-0,104
220,480	361,744	-0,113	-0,157
221,494	62,627	-0,201	-0,139
222,509	-200,000	-0,051	-0,188
223,523	110,244	-0,210	-0,174
224,538	45,755	-0,142	-0,090
225,553	12,752	-0,080	-0,042
226,567	267,853	-0,148	-0,180
227,582	800,000	-0,105	-0,293
228,596	1,229	-0,149	-0,074
229,611	-35,750	-0,174	-0,065
230,626	14,350	-0,205	-0,110
231,640	-15,863	-0,226	-0,099
232,655	256,137	-0,214	-0,254
233,669	-85,634	-0,307	-0,065
234,684	145,822	-0,180	-0,167
235,699	5,588	-0,094	-0,048
236,713	220,909	-0,150	-0,167
237,728	10,805	-0,259	-0,136
238,742	470,760	-0,066	-0,103
239,757	800,000	-0,056	-0,170
240,772	256,772	-0,217	-0,258
241,786	189,577	-0,189	-0,196
242,801	341,231	-0,085	-0,116
243,815	-200,000	-0,004	-0,131
244,830	151,417	-0,231	-0,218
245,844	275,136	-0,160	-0,197
246,859	461,194	-0,212	-0,328
247,874	51,855	-0,242	-0,159
248,888	335,249	-0,164	-0,219
249,903	313,460	-0,159	-0,207
250,917	57,139	-0,157	-0,106
251,932	247,544	-0,131	-0,153
252,947	77,893	-0,129	-0,094
253,961	17,350	-0,197	-0,108
254,976	800,000	-0,097	-0,263
255,990	520,503	-0,151	-0,245
257,005	-22,986	-0,254	-0,105
258,020	102,495	-0,122	-0,098
259,034	-164,789	-0,128	0,004
260,049	203,410	-0,180	-0,192
261,063	-200,000	-0,075	-0,233
262,078	-37,769	-0,259	0,094
263,093	137,347	-0,186	-0,168
264,107	0,157	-0,247	-0,121
265,122	125,454	-0,045	-0,039
266,136	463,385	-0,126	-0,194
267,151	546,741	-0,129	-0,213
268,166	-41,306	-0,212	-0,075
269,180	128,811	-0,122	-0,107
270,195	50,286	-0,308	-0,200
271,209	10,800	-0,117	-0,061
272,224	167,103	-0,152	-0,149
273,239	59,335	-0,218	-0,147
274,253	254,252	-0,191	-0,226
275,268	800,000	-0,071	-0,179
276,282	-49,751	-0,220	-0,072
277,297	264,660	-0,106	-0,127
278,312	-200,000	-0,019	-0,231
279,326	-200,000	-0,030	-0,247
280,341	-142,263	-0,214	0,014
281,355	-42,253	-0,116	-0,041
282,370	12,378	-0,320	-0,169
283,384	52,456	-0,124	-0,081
284,399	-84,030	-0,186	0,040
285,414	117,276	-0,164	-0,139
286,428	318,530	-0,080	-0,105
287,443	325,148	-0,077	-0,102
288,457	-28,584	-0,118	0,046
289,472	656,693	-0,107	-0,190
290,487	82,736	-0,135	-0,101
291,501	-62,500	-0,187	-0,053
292,516	-200,000	-0,047	-0,167
293,530	377,868	-0,111	-0,156
294,545	800,000	-0,146	-0,327
295,560	-41,759	0,063	-0,022
296,574	172,178	-0,053	0,053
297,589	-200,000	-0,009	-0,111
298,603	2,962	-0,169	-0,084
299,618	7,137	-0,270	-0,138
300,633	-195,318	-0,246	-0,001
301,647	800,000	-0,085	-0,181
302,662	12,328	-0,094	-0,050
303,676	-62,543	-0,157	0,044
304,691	-96,497	-0,111	-0,020
305,706	-54,665	-0,163	0,050
306,720	10,505	-0,222	-0,116
307,735	54,405	-0,149	-0,098
308,749	320,983	-0,080	-0,105
309,764	507,092	-0,060	-0,097
310,779	-40,990	-0,169	-0,060
311,793	531,019	-0,165	-0,269
312,808	630,252	-0,120	-0,209
313,822	129,006	-0,261	-0,229
314,837	162,493	-0,093	-0,089
315,852	-200,000	-0,034	-0,139
316,866	289,069	-0,048	-0,060
317,881	2,167	-0,132	-0,065
318,895	495,613	0,045	-0,072
319,910	-52,173	-0,187	-0,059
320,925	311,676	-0,189	-0,244
321,939	800,000	-0,123	-0,265
322,954	-74,794	-0,053	0,013
323,968	-16,391	-0,149	-0,065
324,983	-200,000	0,004	-0,045
325,997	800,000	-0,086	-0,223
327,012	182,340	-0,185	-0,187
328,027	343,823	-0,124	-0,167
329,041	23,354	-0,201	0,113
330,056	-200,000	-0,040	-0,200
331,070	362,893	-0,073	-0,101
332,085	-97,281	-0,144	-0,025
333,100	219,008	-0,149	-0,164
334,114	123,507	-0,164	-0,141
335,129	-25,197	-0,198	-0,080
336,143	216,784	-0,125	-0,137
337,158	31,168	-0,118	-0,069
338,173	800,000	-0,071	-0,189
339,187	-2,319	-0,060	-0,029
340,202	77,211	-0,064	-0,046
341,216	251,591	-0,135	-0,157
342,231	496,431	-0,117	-0,184
343,246	20,473	-0,081	-0,045
344,260	-57,410	-0,112	0,033
345,275	-63,450	-0,069	-0,019
346,289	-136,919	-0,151	-0,012
347,304	-173,450	-0,132	0,003
348,319	224,438	-0,115	-0,127
349,333	-15,232	-0,117	-0,051
350,348	641,943	-0,085	-0,148
351,362	114,708	-0,125	-0,104
352,377	800,000	-0,064	-0,176
353,392	17,476	-0,120	-0,065
354,406	-200,000	-0,054	-0,186
355,421	206,134	1311,677	1397,507
356,435	158,519	1472,000	1397,981
