DTS Sentinel unit serial number:	SN410029Multiplexer serial number:	ORYXHardware model number:	OX2-SRSoftware version number:	ORYX F/W v4,00 Oryx Data Collector v3.7.2.0data status	okinstallation	B3 Nyhavnadifferential loss correction	single-endedforward channel	channel 1reverse channel	N/Adate	2023/12/03time	14:47:30forward acquisition time	300,00reverse acquisition time	0,00gamma	499,1914k internal	0,3196k external	0,3196temperature offset calibration	1,0000default loss term (dB/km)	0,3820temperature slope calibration	1,0000multiplexer offset coefficient	1,0000multiplexer slope coefficient	1,0000fibre end	0,00T internal ref (°C)	15,89T ext. ref 1 (°C)	0,93T ext. ref 2 (°C)	0,95length (m)	temperature (°C)	Stokes	anti-Stokes-744,400	48,445	-0,237	-0,162
-743,385	-200,000	0,005	0,454
-742,371	218,233	-0,179	-0,209
-741,356	-200,000	0,032	0,290
-740,342	-54,511	-0,212	-0,070
-739,327	-200,000	0,072	0,367
-738,312	-13,081	-0,377	-0,178
-737,298	-200,000	-0,005	0,228
-736,283	439,379	-0,148	-0,236
-735,269	-200,000	-0,076	0,426
-734,254	-17,714	-0,312	-0,142
-733,239	-29,477	-0,232	0,096
-732,225	-200,000	0,023	-0,217
-731,210	356,783	-0,048	0,070
-730,196	-200,000	0,009	0,067
-729,181	-200,000	-0,010	-0,034
-728,167	-105,785	-0,025	0,004
-727,152	204,674	0,092	0,104
-726,137	-200,000	-0,005	0,032
-725,123	-89,609	-0,136	-0,029
-724,108	-200,000	-0,025	-0,154
-723,094	-200,000	-0,007	-0,027
-722,079	-200,000	0,018	-0,090
-721,064	-42,915	-0,181	-0,067
-720,050	41,227	0,149	0,098
-719,035	29,072	-0,052	0,032
-718,021	5,742	-0,052	-0,028
-717,006	-200,000	0,007	-0,108
-715,991	178,596	-0,107	-0,113
-714,977	-159,542	-0,087	0,003
-713,962	800,000	0,035	-0,087
-712,948	-128,952	-0,035	-0,004
-711,933	753,121	0,061	-0,120
-710,918	-200,000	-0,023	-0,088
-709,904	-200,000	-0,035	-0,125
-708,889	311,242	-0,043	-0,059
-707,875	-200,000	-0,018	-0,118
-706,860	253,882	0,078	-0,097
-705,845	590,506	0,076	0,137
-704,831	147,985	-0,077	0,076
-703,816	-66,049	0,062	0,018
-702,802	-113,057	0,075	0,011
-701,787	-36,967	-0,237	-0,092
-700,772	800,000	-0,015	-0,049
-699,758	-200,000	0,004	-0,113
-698,743	800,000	-0,004	0,009
-697,729	-0,393	0,098	0,050
-696,714	382,539	-0,063	0,095
-695,699	96,210	-0,052	-0,043
-694,685	91,579	0,002	-0,002
-693,670	366,799	-0,081	-0,119
-692,656	-200,000	0,011	0,080
-691,641	-200,000	-0,007	0,042
-690,627	-0,812	-0,044	0,023
-689,612	-92,082	-0,054	0,011
-688,597	-200,000	-0,012	0,048
-687,583	224,581	-0,076	-0,089
-686,568	-200,000	-0,007	-0,051
-685,554	800,000	-0,071	-0,165
-684,539	-200,000	-0,005	-0,139
-683,524	41,813	0,141	0,093
-682,510	-180,888	-0,136	0,002
-681,495	3,432	-0,183	-0,097
-680,481	-130,144	-0,071	-0,007
-679,466	399,188	0,087	-0,133
-678,451	297,415	0,015	0,019
-677,437	65,542	0,130	0,095
-676,422	800,000	0,037	0,088
-675,408	189,428	0,050	-0,054
-674,393	-137,348	0,052	-0,004
-673,378	-51,830	-0,124	-0,042
-672,364	113,414	0,055	-0,049
-671,349	-97,965	-0,077	-0,014
-670,335	540,129	0,039	-0,067
-669,320	128,598	0,058	0,054
-668,305	336,139	-0,009	0,012
-667,291	67,353	-0,076	-0,056
-666,276	-200,000	0,033	0,118
-665,262	-200,000	-0,030	-0,108
-664,247	-200,000	-0,006	-0,095
-663,232	-200,000	0,018	0,080
-662,218	10,121	0,079	0,043
-661,203	23,816	0,031	0,018
-660,189	356,245	0,043	0,063
-659,174	154,800	-0,025	0,025
-658,159	111,406	0,011	0,010
-657,145	318,944	0,053	0,073
-656,130	-132,746	-0,051	-0,005
-655,116	453,435	0,142	0,229
-654,101	35,743	-0,050	0,032
-653,086	800,000	0,070	0,208
-652,072	104,928	0,055	-0,047
-651,057	218,545	-0,099	-0,115
-650,043	800,000	0,046	-0,126
-649,028	19,948	-0,039	-0,023
-648,014	512,945	0,088	-0,149
-646,999	55,367	-0,071	-0,050
-645,984	-68,632	0,118	-0,033
-644,970	-200,000	-0,028	-0,153
-643,955	800,000	0,019	-0,048
-642,941	800,000	-0,007	-0,021
-641,926	-182,132	0,196	0,003
-640,911	668,975	-0,048	0,091
-639,897	630,491	-0,034	0,062
-638,882	800,000	0,052	0,121
-637,868	800,000	0,040	0,094
-636,853	800,000	-0,049	-0,112
-635,838	-200,000	-0,004	-0,083
-634,824	-79,546	0,094	-0,023
-633,809	-128,194	0,087	0,009
-632,795	800,000	0,030	0,069
-631,780	-57,754	0,123	-0,039
-630,765	-43,517	-0,119	-0,043
-629,751	507,078	-0,095	-0,160
-628,736	85,722	-0,021	-0,016
-627,722	800,000	0,035	-0,085
-626,707	-200,000	-0,046	0,159
-625,692	-200,000	0,025	0,082
-624,678	-89,757	0,131	-0,028
-623,663	-112,205	-0,040	-0,006
-622,649	-15,960	-0,050	0,023
-621,634	121,373	-0,141	-0,127
-620,619	119,124	-0,041	0,037
-619,605	422,702	-0,018	0,028
-618,590	216,043	0,068	-0,078
-617,576	66,189	-0,084	0,062
-616,561	179,474	-0,054	-0,058
-615,546	-200,000	-0,002	-0,038
-614,532	-148,847	0,085	0,005
-613,517	-13,134	-0,103	-0,048
-612,503	201,543	-0,031	-0,035
-611,488	-91,239	0,037	-0,008
-610,474	210,680	0,101	0,116
-609,459	24,552	-0,052	0,031
-608,444	204,895	-0,035	0,039
-607,430	414,251	-0,124	-0,191
-606,415	-200,000	-0,001	-0,139
-605,401	800,000	0,040	0,098
-604,386	282,017	0,083	0,108
-603,371	-200,000	-0,001	0,054
-602,357	26,492	0,165	0,100
-601,342	-200,000	0,017	-0,191
-600,328	428,317	0,034	0,053
-599,313	-193,551	-0,056	0,000
-598,298	193,562	-0,078	-0,086
-597,284	800,000	0,044	-0,100
-596,269	-200,000	0,003	-0,090
-595,255	2,975	-0,067	-0,035
-594,240	-80,525	-0,106	-0,025
-593,225	-108,160	-0,119	-0,018
-592,211	800,000	-0,062	-0,152
-591,196	800,000	0,019	0,062
-590,182	-84,011	-0,024	-0,005
-589,167	137,828	0,069	0,065
-588,152	-200,000	0,007	0,074
-587,138	-200,000	0,004	0,044
-586,123	168,289	-0,128	0,132
-585,109	-122,227	0,033	0,004
-584,094	614,227	-0,034	-0,062
-583,079	-27,269	-0,093	-0,039
-582,065	169,516	0,092	0,096
-581,050	-200,000	-0,017	-0,059
-580,036	800,000	-0,021	-0,057
-579,021	-90,438	-0,085	0,018
-578,006	86,869	0,138	-0,110
-576,992	800,000	0,050	0,138
-575,977	800,000	-0,052	0,115
-574,963	-24,004	0,062	-0,027
-573,948	-124,198	0,157	-0,018
-572,934	504,902	-0,085	-0,143
-571,919	-148,273	-0,149	-0,009
-570,904	800,000	-0,043	-0,119
-569,890	576,642	-0,078	0,138
-568,875	401,778	0,052	-0,079
-567,861	90,209	-0,108	0,087
-566,846	41,413	0,135	0,088
-565,831	192,010	-0,138	-0,150
-564,817	-200,000	0,006	-0,036
-563,802	800,000	0,027	-0,060
-562,788	-86,907	-0,125	-0,027
-561,773	-172,908	-0,029	-0,001
-560,758	570,841	-0,010	-0,017
-559,744	-130,671	-0,073	0,007
-558,729	-69,543	0,106	0,029
-557,715	59,042	0,031	-0,022
-556,700	800,000	-0,003	0,008
-555,685	-67,147	0,097	-0,028
-554,671	-200,000	0,002	-0,098
-553,656	-182,631	0,060	0,001
-552,642	273,147	0,012	0,015
-551,627	220,943	-0,076	0,089
-550,612	403,206	-0,071	0,109
-549,598	327,062	0,025	-0,034
-548,583	-200,000	-0,015	-0,094
-547,569	-156,967	-0,176	-0,008
-546,554	-147,823	0,085	-0,005
-545,539	124,060	-0,007	-0,006
-544,525	-200,000	-0,003	0,080
-543,510	800,000	-0,038	-0,080
-542,496	-200,000	-0,000	-0,073
-541,481	516,199	-0,056	-0,095
-540,466	800,000	-0,012	0,025
-539,452	-47,985	-0,106	-0,037
-538,437	-139,469	0,074	0,006
-537,423	-200,000	0,022	-0,113
-536,408	-54,346	-0,034	0,011
-535,393	-101,347	-0,090	0,016
-534,379	-200,000	0,000	-0,167
-533,364	146,890	0,037	-0,036
-532,350	-134,089	0,108	0,010
-531,335	141,359	0,060	0,058
-530,321	-15,222	-0,034	0,016
-529,306	85,462	0,092	-0,073
-528,291	-20,492	0,030	0,013
-527,277	-200,000	0,002	-0,024
-526,262	800,000	0,018	0,047
-525,248	800,000	-0,013	-0,037
-524,233	614,564	0,031	0,056
-523,218	132,607	-0,035	0,033
-522,204	800,000	-0,028	0,056
-521,189	-54,441	-0,113	-0,037
-520,175	387,706	-0,057	-0,086
-519,160	-200,000	-0,005	-0,030
-518,145	81,548	0,080	0,063
-517,131	141,236	0,132	0,126
-516,116	59,884	0,097	-0,069
-515,102	-139,371	0,119	-0,009
-514,087	69,645	-0,083	-0,062
-513,072	-200,000	-0,035	0,143
-512,058	305,482	0,043	-0,058
-511,043	35,826	-0,020	-0,013
-510,029	83,190	0,026	0,021
-509,014	-200,000	0,004	-0,095
-507,999	638,434	0,038	0,070
-506,985	148,236	0,037	-0,036
-505,970	-200,000	0,003	-0,054
-504,956	-110,589	-0,185	-0,027
-503,941	-38,249	0,020	-0,008
-502,926	10,745	-0,046	0,025
-501,912	2,142	0,135	-0,070
-500,897	488,663	0,029	-0,048
-499,883	12,695	-0,122	0,068
-498,868	383,896	-0,055	-0,082
-497,853	141,931	-0,018	0,017
-496,839	-112,793	-0,180	0,026
-495,824	-200,000	-0,009	0,159
-494,810	57,334	0,106	-0,074
-493,795	-89,948	-0,069	0,014
-492,781	612,034	0,029	-0,052
-491,766	155,873	-0,067	0,066
-490,751	209,293	0,046	-0,052
-489,737	31,981	-0,064	0,040
-488,722	-7,627	-0,038	-0,018
-487,708	-16,959	0,139	0,063
-486,693	150,277	0,080	0,078
-485,678	-113,490	-0,059	-0,008
-484,664	76,237	-0,078	0,060
-483,649	-200,000	-0,013	-0,120
-482,635	68,871	-0,046	-0,034
-481,620	800,000	-0,021	0,058
-480,605	778,295	0,063	0,126
-479,591	-91,551	0,092	0,019
-478,576	-114,665	-0,009	-0,001
-477,562	-92,008	0,150	0,030
-476,547	117,390	-0,034	0,030
-475,532	800,000	0,028	-0,072
-474,518	94,048	-0,105	0,086
-473,503	800,000	-0,036	0,092
-472,489	53,923	0,085	0,058
-471,474	-159,619	-0,130	0,005
-470,459	84,421	-0,046	-0,036
-469,445	800,000	-0,074	-0,182
-468,430	83,907	0,102	-0,080
-467,416	537,029	-0,041	-0,071
-466,401	-200,000	0,002	0,014
-465,386	-89,657	0,105	0,022
-464,372	-200,000	0,008	0,055
-463,357	-200,000	-0,017	-0,094
-462,343	115,971	0,055	-0,049
-461,328	193,672	-0,021	-0,023
-460,313	2,311	-0,092	-0,048
-459,299	-200,000	-0,008	0,174
-458,284	23,852	0,074	-0,044
-457,270	-55,177	0,166	0,054
-456,255	-26,199	-0,127	-0,053
-455,241	292,887	-0,158	-0,208
-454,226	11,862	0,083	-0,046
-453,211	-48,142	0,029	-0,010
-452,197	-66,200	0,047	-0,013
-451,182	122,913	0,084	0,076
-450,168	-12,828	0,107	0,050
-449,153	-39,214	-0,140	-0,053
-448,138	-200,000	0,048	-0,156
-447,124	-27,896	-0,110	-0,046
-446,109	-105,896	-0,066	-0,011
-445,095	59,816	-0,072	0,051
-444,080	-175,327	0,241	0,005
-443,065	-85,907	-0,046	0,010
-442,051	-104,444	-0,145	0,024
-441,036	-200,000	0,004	-0,094
-440,022	-106,479	0,088	0,014
-439,007	528,691	0,047	0,080
-437,992	-23,918	0,118	0,050
-436,978	800,000	0,027	0,080
-435,963	144,951	0,063	-0,061
-434,949	-89,923	0,028	0,006
-433,934	502,245	0,035	0,058
-432,919	-200,000	-0,003	-0,036
-431,905	-52,629	-0,097	-0,032
-430,890	800,000	0,026	0,053
-429,876	-200,000	0,027	0,101
-428,861	112,758	-0,064	-0,056
-427,846	-200,000	0,024	0,101
-426,832	97,234	-0,097	0,080
-425,817	800,000	-0,018	-0,048
-424,803	-35,286	-0,068	0,026
-423,788	167,473	-0,031	0,032
-422,773	63,115	-0,075	-0,054
-421,759	-105,712	-0,067	-0,011
-420,744	-200,000	0,034	0,126
-419,730	309,728	-0,083	0,112
-418,715	-200,000	0,011	0,079
-417,701	179,603	-0,128	-0,135
-416,686	-200,000	-0,004	-0,025
-415,671	-63,791	0,140	0,041
-414,657	-200,000	0,018	-0,123
-413,642	458,004	0,007	0,012
-412,628	224,756	0,108	-0,125
-411,613	452,724	0,051	-0,082
-410,598	22,479	-0,020	-0,012
-409,584	-77,125	-0,133	-0,033
-408,569	800,000	0,027	0,060
-407,555	393,807	-0,063	-0,095
-406,540	192,167	0,048	0,053
-405,525	-200,000	-0,015	0,058
-404,511	-161,850	-0,100	0,004
-403,496	-101,891	-0,044	-0,008
-402,482	-145,947	0,088	-0,005
-401,467	788,847	0,033	-0,065
-400,452	-33,268	0,081	0,032
-399,438	131,098	0,082	0,075
-398,423	-200,000	-0,001	-0,051
-397,409	116,989	-0,113	-0,100
-396,394	404,367	0,011	-0,017
-395,379	99,753	-0,032	0,026
-394,365	-200,000	0,013	0,058
-393,350	12,279	-0,091	0,050
-392,336	-121,809	-0,065	0,008
-391,321	69,169	0,037	0,027
-390,306	-41,633	-0,038	0,014
-389,292	-200,000	-0,004	0,022
-388,277	800,000	-0,041	-0,108
-387,263	-16,695	0,173	-0,078
-386,248	146,549	0,043	-0,042
-385,233	48,996	0,040	-0,027
-384,219	146,202	0,096	-0,093
-383,204	50,668	-0,129	-0,088
-382,190	-200,000	-0,001	-0,061
-381,175	-65,030	0,062	0,018
-380,160	-126,099	0,065	0,007
-379,146	-200,000	-0,031	0,115
-378,131	-30,929	-0,017	0,007
-377,117	137,936	0,069	-0,065
-376,102	-148,900	-0,220	0,013
-375,088	-120,539	0,017	0,002
-374,073	800,000	-0,010	0,021
-373,058	10,775	-0,074	0,041
-372,044	-200,000	-0,003	0,054
-371,029	800,000	0,081	0,227
-370,015	213,241	0,100	-0,113
-369,000	800,000	-0,064	-0,154
-367,985	-200,000	-0,010	0,033
-366,971	431,828	-0,022	0,034
-365,956	-37,012	0,072	-0,028
-364,942	-109,977	0,067	-0,010
-363,927	-200,000	-0,015	0,145
-362,912	-200,000	0,004	0,148
-361,898	-43,234	0,057	0,021
-360,883	-79,131	0,094	0,023
-359,869	-200,000	-0,022	0,071
-358,854	-34,848	-0,020	0,008
-357,839	-121,085	0,039	0,005
-356,825	-200,000	-0,004	0,076
-355,810	115,807	0,040	0,035
-354,796	447,779	0,007	-0,010
-353,781	15,625	-0,106	0,059
-352,766	320,845	0,007	0,010
-351,752	-163,028	0,096	0,003
-350,737	383,941	0,067	-0,099
-349,723	-200,000	-0,041	0,181
-348,708	328,215	0,057	-0,079
-347,693	-200,000	-0,013	0,062
-346,679	184,161	-0,064	-0,068
-345,664	-53,554	-0,078	-0,025
-344,650	-92,497	-0,132	-0,026
-343,635	-200,000	-0,030	-0,113
-342,620	-66,386	0,057	0,016
-341,606	13,613	0,054	0,030
-340,591	20,198	0,031	-0,018
-339,577	800,000	-0,038	-0,091
-338,562	-200,000	0,006	0,109
-337,548	-200,000	-0,008	-0,110
-336,533	800,000	0,036	-0,076
-335,518	200,886	-0,039	-0,043
-334,504	-200,000	-0,010	0,034
-333,489	132,401	0,094	-0,087
-332,475	-25,771	0,037	-0,015
-331,460	59,449	0,035	-0,025
-330,445	614,700	-0,103	-0,186
-329,431	-123,563	-0,131	0,015
-328,416	209,130	0,073	0,082
-327,402	516,610	-0,034	-0,056
-326,387	-2,435	0,017	-0,009
-325,372	418,479	-0,068	-0,104
-324,358	-57,673	0,066	-0,021
-323,343	-200,000	0,015	0,120
-322,329	-200,000	-0,001	0,088
-321,314	-72,038	-0,089	0,023
-320,299	-9,571	0,079	0,038
-319,285	-51,677	0,029	-0,010
-318,270	800,000	-0,041	-0,093
-317,256	800,000	-0,034	-0,079
-316,241	577,886	-0,065	-0,115
-315,226	-200,000	-0,001	0,143
-314,212	237,837	0,066	0,079
-313,197	-121,651	-0,041	0,005
-312,183	-179,740	-0,066	0,001
-311,168	34,001	0,078	-0,049
-310,153	5,937	-0,043	-0,023
-309,139	-90,972	0,061	-0,013
-308,124	-200,000	-0,006	-0,028
-307,110	-200,000	0,012	-0,063
-306,095	-0,613	0,027	-0,014
-305,080	634,217	-0,028	0,051
-304,066	23,134	0,081	0,048
-303,051	-200,000	0,008	-0,086
-302,037	-200,000	0,015	-0,205
-301,022	-200,000	-0,005	-0,048
-300,008	305,661	0,024	-0,032
-298,993	-200,000	-0,073	0,237
-297,978	64,615	0,116	0,084
-296,964	434,412	-0,113	0,176
-295,949	36,547	-0,021	0,014
-294,935	-27,772	-0,050	0,021
-293,920	-30,902	-0,155	0,062
-292,905	3,219	0,125	-0,065
-291,891	11,703	0,052	-0,029
-290,876	-200,000	-0,008	0,063
-289,862	-18,558	0,129	0,057
-288,847	-200,000	-0,010	0,056
-287,832	51,180	0,134	0,091
-286,818	-200,000	-0,009	-0,037
-285,803	47,858	0,043	-0,028
-284,789	-139,132	0,115	-0,009
-283,774	-200,000	0,022	0,198
-282,759	209,644	0,114	0,128
-281,745	-200,000	-0,006	-0,036
-280,730	800,000	0,023	-0,063
-279,716	21,589	0,039	0,023
-278,701	-30,003	-0,125	-0,051
-277,686	493,758	0,051	0,084
-276,672	-200,000	-0,021	0,216
-275,657	800,000	0,077	0,201
-274,643	183,730	-0,091	0,097
-273,628	195,146	0,060	0,065
-272,613	-64,253	0,102	0,029
-271,599	-123,917	0,073	0,008
-270,584	261,532	0,088	0,110
-269,570	800,000	0,036	0,099
-268,555	-76,123	0,037	0,009
-267,540	142,631	-0,086	-0,082
-266,526	-107,727	-0,204	0,031
-265,511	267,838	-0,075	-0,094
-264,497	-200,000	-0,014	0,100
-263,482	178,806	-0,027	0,029
-262,467	135,921	0,094	0,087
-261,453	800,000	0,026	0,081
-260,438	16,532	-0,016	0,009
-259,424	-200,000	0,008	0,029
-258,409	296,253	0,045	-0,059
-257,395	-200,000	0,014	0,191
-256,380	-200,000	0,012	-0,037
-255,365	325,369	0,030	0,041
-254,351	583,306	0,074	-0,131
-253,336	651,057	-0,014	-0,025
-252,322	22,119	-0,131	-0,076
-251,307	47,259	-0,010	-0,007
-250,292	273,520	-0,030	0,038
-249,278	800,000	0,043	0,092
-248,263	-120,599	0,099	-0,012
-247,249	-200,000	0,004	0,135
-246,234	93,975	0,062	0,050
-245,219	800,000	-0,045	-0,098
-244,205	244,140	-0,036	0,043
-243,190	800,000	-0,018	0,052
-242,176	-55,634	0,063	0,020
-241,161	328,935	0,077	0,106
-240,146	-184,019	0,175	-0,002
-239,132	800,000	-0,030	-0,066
-238,117	43,885	0,152	-0,099
-237,103	55,948	-0,055	-0,038
-236,088	-50,963	-0,158	-0,053
-235,073	-134,504	0,129	0,011
-234,059	-27,192	0,073	-0,030
-233,044	-126,948	0,176	0,018
-232,030	-110,890	0,021	-0,003
-231,015	215,356	-0,026	0,030
-230,000	-6,359	-0,011	0,006
-228,986	315,172	-0,114	-0,153
-227,971	-15,788	-0,149	-0,068
-226,957	-152,584	-0,118	-0,006
-225,942	780,565	0,035	0,069
-224,927	14,100	0,040	-0,022
-223,913	-200,000	0,002	-0,032
-222,898	800,000	0,015	0,040
-221,884	-200,000	-0,010	0,072
-220,869	193,474	-0,118	0,128
-219,855	776,593	0,022	-0,043
-218,840	-200,000	-0,020	0,132
-217,825	-17,397	-0,051	-0,023
-216,811	-200,000	0,004	-0,108
-215,796	-200,000	0,005	0,082
-214,782	-200,000	-0,002	-0,114
-213,767	-44,534	0,043	-0,015
-212,752	307,254	0,017	0,023
-211,738	261,529	0,069	0,086
-210,723	-111,532	-0,098	-0,014
-209,709	800,000	0,033	0,096
-208,694	-200,000	0,003	-0,045
-207,679	54,947	-0,036	-0,025
-206,665	248,622	0,146	0,177
-205,650	-29,400	0,087	-0,035
-204,636	-13,667	0,135	0,062
-203,621	800,000	-0,063	0,164
-202,606	800,000	-0,023	0,061
-201,592	1,046	0,132	-0,067
-200,577	800,000	0,016	-0,035
-199,563	800,000	0,040	-0,084
-198,548	-151,150	0,208	0,011
-197,533	-38,232	0,052	0,020
-196,519	28,097	-0,096	-0,058
-195,504	-83,638	-0,068	0,015
-194,490	134,421	0,042	0,039
-193,475	374,486	0,026	0,037
-192,460	-185,909	-0,159	0,002
-191,446	800,000	-0,040	-0,082
-190,431	-200,000	0,004	-0,025
-189,417	800,000	-0,033	-0,096
-188,402	800,000	-0,052	-0,128
-187,387	-70,683	-0,164	-0,044
-186,373	428,958	-0,044	-0,068
-185,358	-200,000	-0,011	-0,117
-184,344	-68,398	-0,097	0,027
-183,329	-82,702	0,087	-0,020
-182,315	-82,377	0,025	0,006
-181,300	187,377	0,041	0,044
-180,285	284,836	-0,102	-0,131
-179,271	-62,532	0,115	-0,034
-178,256	211,196	-0,078	0,088
-177,242	184,015	0,028	-0,029
-176,227	-87,937	0,048	0,010
-175,212	-126,029	-0,123	0,013
-174,198	800,000	0,040	0,082
-173,183	30,085	-0,156	0,095
-172,169	237,458	0,044	-0,053
-171,154	-67,248	-0,069	0,019
-170,139	-94,374	0,099	-0,019
-169,125	800,000	-0,062	0,125
-168,110	-98,537	0,011	0,002
-167,096	29,224	-0,081	0,049
-166,081	312,068	0,053	-0,071
-165,066	800,000	0,036	-0,092
-164,052	-51,345	-0,103	-0,034
-163,037	-200,000	0,017	-0,055
-162,023	70,643	0,006	-0,004
-161,008	-200,000	-0,021	0,168
-159,993	-91,498	-0,182	0,037
-158,979	-35,371	0,062	0,024
-157,964	1,565	0,041	-0,021
-156,950	-200,000	0,015	-0,048
-155,935	68,113	-0,101	-0,073
-154,920	-200,000	0,035	0,132
-153,906	-200,000	0,015	-0,140
-152,891	252,193	-0,101	0,122
-151,877	156,487	0,073	0,072
-150,862	-15,200	-0,090	0,041
-149,847	-127,897	-0,105	-0,011
-148,833	230,460	-0,099	-0,116
-147,818	-62,292	-0,080	0,023
-146,804	620,617	0,061	0,109
-145,789	-107,653	0,119	0,018
-144,775	572,344	-0,043	-0,075
-143,760	-200,000	-0,014	-0,097
-142,745	197,124	0,010	-0,011
-141,731	-200,000	0,030	-0,110
-140,716	-200,000	-0,009	-0,064
-139,702	800,000	-0,009	0,021
-138,687	-23,300	0,040	-0,017
-137,672	-62,759	0,147	0,043
-136,658	76,850	-0,138	0,104
-135,643	98,383	-0,091	0,075
-134,629	392,542	-0,020	-0,030
-133,614	800,000	-0,055	0,144
-132,599	24,677	0,079	0,046
-131,585	-200,000	0,023	0,083
-130,570	149,028	0,005	-0,005
-129,556	-200,000	0,016	0,084
-128,541	464,845	-0,059	0,094
-127,526	607,910	-0,028	0,050
-126,512	231,918	0,091	0,106
-125,497	-200,000	0,017	0,114
-124,483	800,000	0,005	0,013
-123,468	-49,947	-0,143	0,048
-122,453	-200,000	-0,015	0,102
-121,439	-77,128	-0,128	-0,031
-120,424	-43,317	-0,089	0,032
-119,410	-200,000	0,018	0,147
-118,395	223,071	0,092	-0,106
-117,380	-101,597	-0,102	0,018
-116,366	-7,096	-0,082	-0,040
-115,351	43,117	-0,012	-0,008
-114,337	174,328	0,142	-0,146
-113,322	-45,847	-0,158	-0,055
-112,307	-200,000	0,024	-0,130
-111,293	-200,000	0,001	0,044
-110,278	799,400	0,033	0,065
-109,264	-49,485	0,065	0,022
-108,249	-152,239	-0,055	-0,003
-107,234	-200,000	0,001	-0,017
-106,220	-73,423	-0,078	-0,020
-105,205	110,933	0,077	-0,066
-104,191	623,749	0,055	0,099
-103,176	584,603	-0,100	0,174
-102,162	-200,000	-0,010	-0,098
-101,147	-200,000	0,028	-0,106
-100,132	800,000	-0,020	-0,055
-99,118	-200,000	0,017	0,110
-98,103	429,513	-0,063	-0,097
-97,089	788,023	-0,010	0,020
-96,074	215,369	0,104	0,117
-95,059	800,000	0,089	0,179
-94,045	-200,000	-0,011	0,084
-93,030	800,000	-0,021	-0,063
-92,016	-200,000	-0,015	0,062
-91,001	275,205	-0,034	-0,043
-89,986	-68,383	0,113	-0,031
-88,972	46,441	0,025	0,016
-87,957	800,000	0,043	-0,098
-86,943	-200,000	-0,010	-0,151
-85,928	-28,647	0,050	-0,021
-84,913	-23,415	-0,071	-0,030
-83,899	48,340	-0,044	-0,029
-82,884	57,693	0,044	-0,031
-81,870	290,922	0,027	0,035
-80,855	-200,000	-0,004	0,035
-79,840	131,941	-0,039	0,036
-78,826	346,222	-0,048	-0,067
-77,811	359,813	0,040	0,057
-76,797	80,708	0,026	-0,020
-75,782	58,591	-0,073	-0,051
-74,767	201,188	0,071	-0,077
-73,753	-102,304	-0,063	-0,011
-72,738	713,650	0,053	-0,099
-71,724	-59,728	-0,140	-0,042
-70,709	-143,331	0,063	-0,004
-69,694	-200,000	0,010	0,105
-68,680	35,550	0,179	0,111
-67,665	-53,013	0,098	0,032
-66,651	-119,412	0,110	-0,013
-65,636	800,000	0,020	-0,056
-64,622	201,509	0,033	0,036
-63,607	-200,000	0,009	0,072
-62,592	-64,594	0,055	-0,016
-61,578	107,992	-0,043	0,036
-60,563	-134,419	0,031	-0,003
-59,549	-39,229	0,105	0,039
-58,534	-86,036	-1,431	-0,311
-57,519	317,510	-1,583	-2,129
-56,505	-200,000	-0,442	-4,443
-55,490	123,449	1,065	0,947
-54,476	800,000	4,548	10,884
-53,461	-200,000	17,763	283,826
-52,446	800,000	721,474	2229,848
-51,432	562,385	1635,643	2817,037
-50,417	81,036	1659,266	1268,752
-49,403	23,768	1533,244	893,298
-48,388	17,716	1456,838	819,568
-47,373	18,156	1446,334	815,741
-46,359	17,774	1436,924	808,578
-45,344	15,978	1432,312	797,409
-44,330	15,948	1430,245	796,083
-43,315	15,919	1428,651	795,027
-42,300	15,982	1426,759	794,243
-41,286	16,012	1425,796	793,815
-40,271	15,983	1424,260	792,791
-39,257	15,916	1423,279	791,897
-38,242	16,024	1421,839	791,576
-37,227	16,006	1420,692	790,819
-36,213	15,998	1419,333	789,993
-35,198	15,967	1418,096	789,127
-34,184	16,008	1417,198	788,791
-33,169	15,906	1416,154	787,697
-32,154	15,984	1414,961	787,372
-31,140	16,024	1413,574	786,757
-30,125	16,087	1412,245	786,278
-29,111	16,009	1411,454	785,440
-28,096	15,931	1410,375	784,443
-27,082	15,935	1409,046	783,694
-26,067	15,956	1407,992	783,173
-25,052	15,962	1406,646	782,421
-24,038	15,926	1405,857	781,782
-23,023	15,932	1404,914	781,259
-22,009	15,916	1403,932	780,606
-20,994	15,838	1403,080	779,738
-19,979	15,889	1402,186	779,445
-18,965	15,891	1400,966	778,747
-17,950	15,861	1400,083	778,088
-16,936	15,829	1399,180	777,404
-15,921	15,859	1397,667	776,671
-14,906	15,842	1397,015	776,199
-13,892	15,832	1396,073	775,600
-12,877	15,833	1395,009	774,984
-11,863	15,809	1394,257	774,424
-10,848	15,821	1393,261	773,894
-9,833	15,819	1392,253	773,293
-8,819	15,788	1391,375	772,633
-7,804	15,705	1390,601	771,788
-6,790	15,725	1389,597	771,292
-5,775	15,710	1388,442	770,552
-4,760	15,752	1387,523	770,208
-3,746	15,700	1387,038	769,665
-2,731	15,732	1386,133	769,281
-1,717	15,666	1385,162	768,410
-0,702	15,743	1383,173	767,627
0,313	19,485	1303,769	740,845
1,327	35,801	706,374	439,185
2,342	55,061	125,192	85,571
3,356	5,783	16,463	8,600
4,371	9,305	2,936	1,568
5,386	-44,748	0,547	0,192
6,400	71,339	-0,050	-0,037
7,415	-105,765	-0,288	-0,046
8,429	-39,495	-0,321	-0,118
9,444	35,740	-0,385	-0,239
10,459	144,925	-0,180	-0,171
11,473	83,721	-0,259	-0,200
12,488	12,785	-0,309	-0,169
13,502	-83,965	-0,339	-0,076
14,517	136,943	-0,253	-0,234
15,531	123,195	-0,302	-0,268
16,546	150,304	-0,336	-0,323
17,561	200,160	-0,394	-0,429
18,575	155,944	-0,193	-0,188
19,590	93,368	-0,271	-0,217
20,604	116,944	-0,187	-0,163
21,619	-53,011	-0,435	-0,141
22,634	136,413	-0,411	-0,379
23,648	-1,154	-0,375	-0,187
24,663	29,345	-0,417	-0,250
25,677	77,178	-0,448	-0,336
26,692	107,081	-0,266	-0,223
27,707	-79,793	-0,389	-0,092
28,721	19,659	-0,382	-0,217
29,736	73,212	-0,403	-0,298
30,750	489,355	-0,247	-0,401
31,765	-11,833	-0,417	-0,193
32,780	-19,597	-0,459	-0,200
33,794	99,455	-0,334	-0,273
34,809	145,340	-0,377	-0,357
35,823	79,279	-0,342	-0,259
36,838	154,687	-0,384	-0,373
37,853	26,665	-0,439	-0,259
38,867	-23,592	-0,386	-0,163
39,882	44,497	-0,317	-0,206
40,896	68,430	-0,403	-0,291
41,911	-23,433	-0,341	-0,144
42,926	-24,703	-0,338	-0,141
43,940	51,666	-0,398	-0,267
44,955	-1,871	-0,476	-0,235
45,969	257,127	-0,286	-0,348
46,984	89,216	-0,359	-0,282
47,999	104,866	-0,277	-0,231
49,013	8,276	-0,217	-0,115
50,028	4,527	-0,355	-0,183
51,042	654,285	-0,128	-0,232
52,057	90,922	-0,396	-0,313
53,071	99,754	-0,351	-0,287
54,086	86,574	-0,311	-0,241
55,101	-5,233	-0,264	-0,128
56,115	59,391	-0,431	-0,299
57,130	69,980	-0,240	-0,174
58,144	204,252	-0,302	-0,330
59,159	53,071	-0,410	-0,276
60,174	197,716	-0,337	-0,364
61,188	24,140	-0,446	-0,259
62,203	124,409	-0,304	-0,269
63,217	-125,733	-0,233	0,025
64,232	-48,899	-0,323	-0,109
65,247	13,236	-0,298	-0,162
66,261	-47,828	-0,375	-0,127
67,276	-28,484	-0,417	-0,169
68,290	9,660	-0,338	-0,180
69,305	194,703	-0,279	-0,299
70,320	48,449	-0,305	-0,201
71,334	8,711	-0,340	-0,180
72,349	324,024	-0,184	-0,248
73,363	194,825	-0,246	-0,263
74,378	67,725	-0,381	-0,274
75,393	124,507	-0,350	-0,310
76,407	2,605	-0,322	-0,164
77,422	5,161	-0,406	-0,210
78,436	170,161	-0,253	-0,255
79,451	-17,145	-0,366	-0,162
80,466	42,799	-0,368	-0,235
81,480	55,557	-0,300	-0,204
82,495	107,984	-0,207	-0,174
83,509	26,274	-0,302	-0,177
84,524	-48,862	-0,221	-0,074
85,539	126,190	-0,137	-0,122
86,553	23,595	-0,288	-0,167
87,568	47,968	-0,228	-0,149
88,582	-46,106	-0,267	-0,092
89,597	200,744	-0,240	-0,260
90,611	-139,435	-0,422	-0,031
91,626	25,823	-0,240	-0,140
92,641	34,865	-0,163	-0,100
93,655	-104,939	-0,238	0,038
94,670	325,693	-0,244	-0,329
95,684	61,812	-0,314	-0,220
96,699	104,259	-0,314	-0,259
97,714	-97,785	-0,373	-0,067
98,728	-45,684	-0,257	-0,089
99,743	196,014	-0,180	-0,192
100,757	-24,358	-0,245	-0,102
101,772	41,246	-0,345	-0,218
102,787	-91,178	-0,296	-0,059
103,801	113,908	-0,324	-0,277
104,816	231,748	-0,223	-0,257
105,830	296,370	-0,194	-0,250
106,845	203,525	-0,166	-0,180
107,860	140,921	-0,307	-0,285
108,874	155,581	-0,282	-0,273
109,889	84,456	-0,261	-0,200
110,903	75,042	-0,390	-0,288
111,918	486,981	-0,182	-0,292
112,933	-193,750	-0,246	0,001
113,947	134,604	-0,201	-0,183
114,962	-46,382	-0,214	-0,073
115,976	38,667	-0,317	-0,198
116,991	6,119	-0,329	-0,170
118,006	72,637	-0,311	-0,227
119,020	-19,955	-0,226	-0,097
120,035	-120,494	-0,239	-0,028
121,049	84,802	-0,212	-0,163
122,064	-45,592	-0,182	-0,063
123,079	-9,571	-0,314	-0,146
124,093	73,981	-0,277	-0,204
125,108	148,156	-0,307	-0,291
126,122	71,986	-0,209	-0,152
127,137	206,886	-0,190	-0,208
128,151	139,922	-0,234	-0,216
129,166	35,133	-0,270	-0,165
130,181	-38,851	-0,331	-0,122
131,195	382,487	-0,244	-0,353
132,210	1,830	-0,166	-0,083
133,224	41,139	-0,231	-0,146
134,239	-22,034	-0,331	-0,140
135,254	153,146	-0,133	-0,127
136,268	282,741	-0,257	-0,324
137,283	17,944	-0,293	-0,163
138,297	-22,020	-0,332	-0,141
139,312	79,459	-0,282	-0,211
140,327	70,425	-0,348	-0,252
141,341	57,010	-0,262	-0,179
142,356	518,098	-0,212	-0,349
143,370	727,198	-0,115	-0,216
144,385	364,161	-0,158	-0,223
145,400	-24,378	-0,418	-0,174
146,414	275,711	-0,275	-0,342
147,429	87,611	-0,322	-0,249
148,443	68,658	-0,202	-0,145
149,458	50,131	-0,188	-0,124
150,473	408,365	-0,171	-0,254
151,487	77,939	-0,261	-0,195
152,502	117,918	-0,219	-0,189
153,516	181,838	-0,191	-0,196
154,531	67,070	-0,352	-0,250
155,546	166,973	-0,257	-0,255
156,560	237,484	-0,194	-0,225
157,575	21,754	-0,178	-0,101
158,589	-6,420	-0,200	-0,095
159,604	59,967	-0,206	-0,142
160,619	75,220	-0,372	-0,274
161,633	104,841	-0,198	-0,163
162,648	167,970	-0,246	-0,245
163,662	182,704	-0,113	-0,117
164,677	-47,536	-0,349	-0,118
165,692	108,217	-0,298	-0,249
166,706	-200,000	-0,219	-0,000
167,721	128,070	-0,278	-0,247
168,735	317,900	-0,243	-0,321
169,750	134,901	-0,207	-0,188
170,764	70,384	-0,199	-0,144
171,779	74,392	-0,183	-0,134
172,794	-81,899	-0,279	-0,063
173,808	152,846	-0,170	-0,163
174,823	244,555	-0,227	-0,267
175,837	138,287	-0,123	-0,113
176,852	103,516	-0,170	-0,139
177,867	-134,524	-0,282	-0,024
178,881	-131,018	-0,168	0,015
179,896	-14,256	-0,177	-0,079
180,910	92,275	-0,177	-0,139
181,925	-102,037	-0,237	-0,040
182,940	196,738	-0,170	-0,181
183,954	321,493	-0,194	-0,258
184,969	800,000	-0,094	-0,258
185,983	33,948	-0,127	-0,077
186,998	241,917	-0,165	-0,193
188,013	-130,867	-0,281	-0,026
189,027	143,566	-0,050	-0,047
190,042	-78,862	-0,153	-0,036
191,056	331,726	-0,209	-0,282
192,071	-62,282	-0,111	-0,032
193,086	63,265	-0,213	-0,149
194,100	154,612	0,023	0,022
195,115	-29,451	-0,265	-0,105
196,129	293,330	-0,149	-0,189
197,144	127,621	-0,295	-0,261
198,159	746,082	-0,143	-0,269
199,173	62,140	-0,208	-0,144
200,188	800,000	-0,066	-0,154
201,202	-133,675	-0,117	0,010
202,217	185,930	-0,214	-0,221
203,232	113,663	-0,182	-0,154
204,246	279,706	-0,201	-0,251
205,261	219,144	-0,234	-0,261
206,275	89,290	-0,281	-0,218
207,290	396,396	-0,166	-0,242
208,304	-153,641	-0,096	-0,005
209,319	-64,242	-0,289	-0,081
210,334	-12,407	-0,353	-0,160
211,348	19,075	-0,194	-0,108
212,363	-142,332	-0,216	0,015
213,377	322,640	-0,128	-0,170
214,392	108,702	-0,161	-0,134
215,407	800,000	-0,078	-0,161
216,421	321,614	-0,077	-0,103
217,436	-90,592	-0,131	0,026
218,450	215,361	-0,229	-0,253
219,465	209,255	-0,158	-0,172
220,480	69,389	-0,171	-0,122
221,494	-10,362	-0,171	-0,079
222,509	438,426	0,043	-0,066
223,523	19,192	-0,253	-0,141
224,538	800,000	-0,110	-0,266
225,553	177,899	-0,269	-0,273
226,567	800,000	-0,114	-0,275
227,582	148,176	-0,129	-0,121
228,596	319,485	-0,162	-0,214
229,611	163,110	-0,095	-0,093
230,626	342,501	-0,132	-0,180
231,640	224,760	-0,087	-0,098
232,655	22,112	-0,254	-0,144
233,669	-48,507	-0,246	-0,082
234,684	-30,565	-0,200	-0,078
235,699	-200,000	-0,021	-0,176
236,713	188,109	-0,156	-0,162
237,728	405,151	-0,085	-0,124
238,742	-130,545	-0,228	0,021
239,757	265,396	-0,191	-0,231
240,772	55,849	-0,116	-0,078
241,786	-121,332	-0,221	0,025
242,801	13,786	-0,153	-0,082
243,815	800,000	-0,027	-0,071
244,830	55,230	-0,050	0,034
245,844	-81,776	-0,153	-0,034
246,859	205,519	-0,210	-0,226
247,874	105,962	-0,157	-0,129
248,888	44,109	-0,218	-0,138
249,903	-37,623	-0,204	-0,075
250,917	165,763	-0,150	-0,148
251,932	33,631	-0,132	-0,079
252,947	-12,382	-0,106	-0,048
253,961	-200,000	-0,023	-0,079
254,976	144,605	-0,174	-0,161
255,990	445,593	-0,136	-0,207
257,005	800,000	-0,090	-0,197
258,020	-52,969	-0,233	-0,074
259,034	-14,206	-0,184	-0,082
260,049	-148,233	-0,098	0,006
261,063	6,414	-0,236	-0,121
262,078	440,984	-0,184	-0,279
263,093	89,756	-0,141	-0,109
264,107	800,000	-0,089	-0,220
265,122	103,959	-0,189	-0,154
266,136	15,876	-0,177	-0,096
267,151	800,000	-0,064	-0,189
268,166	119,427	-0,160	-0,137
269,180	740,338	-0,139	-0,260
270,195	492,226	-0,134	-0,214
271,209	20,015	-0,301	-0,168
272,224	-93,045	-0,123	-0,024
273,239	52,809	-0,133	-0,088
274,253	262,332	-0,116	-0,140
275,268	182,767	-0,128	-0,131
276,282	99,372	-0,151	-0,121
277,297	800,000	-0,086	-0,175
278,312	305,011	-0,050	-0,064
279,326	6,431	-0,224	-0,115
280,341	-16,781	-0,130	-0,057
281,355	800,000	-0,077	-0,165
282,370	198,161	-0,156	-0,165
283,384	-56,667	-0,258	-0,079
284,399	325,300	-0,228	-0,302
285,414	25,823	-0,125	-0,072
286,428	-111,744	-0,101	0,014
287,443	800,000	-0,063	-0,133
288,457	-200,000	0,022	-0,142
289,472	152,544	-0,216	-0,204
290,487	586,409	-0,184	-0,315
291,501	-200,000	-0,104	-0,323
292,516	406,003	-0,189	-0,277
293,530	-5,643	-0,175	-0,082
294,545	-68,461	0,067	-0,018
295,560	31,310	-0,126	-0,075
296,574	195,653	-0,115	-0,121
297,589	-59,660	-0,118	-0,035
298,603	176,234	-0,139	-0,139
299,618	800,000	-0,134	-0,316
300,633	8,558	-0,147	0,076
301,647	25,313	-0,121	-0,069
302,662	-92,397	-0,135	0,026
303,676	265,229	-0,111	0,134
304,691	-65,401	-0,153	0,042
305,706	430,659	-0,170	-0,255
306,720	78,560	-0,239	-0,176
307,735	-200,000	0,010	-0,167
308,749	680,928	-0,054	-0,097
309,764	800,000	-0,069	-0,182
310,779	800,000	-0,068	-0,147
311,793	30,674	-0,236	-0,139
312,808	800,000	-0,062	-0,144
313,822	-68,139	-0,239	-0,064
314,837	248,951	-0,171	-0,200
315,852	-200,000	-0,041	-0,197
316,866	3,405	-0,206	-0,103
317,881	68,811	-0,099	-0,070
318,895	371,756	-0,151	-0,213
319,910	-37,174	-0,119	-0,044
320,925	23,180	-0,209	-0,118
321,939	221,190	-0,096	-0,106
322,954	377,790	-0,129	-0,182
323,968	-35,130	-0,140	-0,052
324,983	-61,418	-0,158	-0,045
325,997	800,000	0,027	-0,066
327,012	-200,000	-0,012	-0,131
328,027	435,229	-0,113	-0,169
329,041	666,053	-0,131	-0,234
330,056	135,199	-0,150	-0,134
331,070	-200,000	0,032	-0,173
332,085	800,000	-0,060	-0,148
333,100	-200,000	-0,004	-0,098
334,114	132,935	-0,157	-0,140
335,129	253,342	-0,147	-0,173
336,143	-200,000	0,001	-0,153
337,158	196,869	-0,116	-0,122
338,173	800,000	-0,059	-0,137
339,187	268,710	-0,108	-0,131
340,202	116,313	-0,165	-0,139
341,216	98,949	-0,213	-0,169
342,231	800,000	-0,118	-0,250
343,246	225,150	-0,086	-0,096
344,260	223,320	-0,028	-0,031
345,275	547,463	-0,094	-0,155
346,289	43,832	-0,062	-0,039
347,304	-200,000	-0,001	-0,039
348,319	-56,588	-0,196	-0,059
349,333	303,944	-0,132	-0,168
350,348	800,000	-0,135	-0,378
351,362	800,000	-0,103	-0,225
352,377	-49,655	-0,185	-0,060
353,392	-92,369	-0,193	-0,037
354,406	-1,756	-0,244	-0,118
355,421	210,467	1312,937	1418,294
356,435	162,020	1473,491	1418,808
