DTS Sentinel unit serial number:	SN410029Multiplexer serial number:	ORYXHardware model number:	OX2-SRSoftware version number:	ORYX F/W v4,00 Oryx Data Collector v3.7.2.0data status	okinstallation	B3 Nyhavnadifferential loss correction	single-endedforward channel	channel 1reverse channel	N/Adate	2023/12/04time	01:27:30forward acquisition time	300,00reverse acquisition time	0,00gamma	499,1914k internal	0,3204k external	0,3204temperature offset calibration	1,0000default loss term (dB/km)	0,3820temperature slope calibration	1,0000multiplexer offset coefficient	1,0000multiplexer slope coefficient	1,0000fibre end	0,00T internal ref (°C)	12,46T ext. ref 1 (°C)	-2,79T ext. ref 2 (°C)	-2,82length (m)	temperature (°C)	Stokes	anti-Stokes-744,400	275,169	-0,279	-0,361
-743,385	-200,000	0,070	0,284
-742,371	800,000	-0,062	-0,166
-741,356	-200,000	0,034	0,252
-740,342	750,466	-0,067	-0,131
-739,327	-200,000	-0,087	0,405
-738,312	81,738	-0,356	-0,279
-737,298	-200,000	0,020	0,288
-736,283	370,807	-0,162	-0,239
-735,269	-200,000	0,025	0,321
-734,254	-200,000	-0,002	-0,195
-733,239	-139,502	-0,219	0,017
-732,225	-200,000	-0,092	-0,388
-731,210	107,214	0,090	0,078
-730,196	-200,000	0,002	0,009
-729,181	79,429	-0,050	-0,039
-728,167	-200,000	-0,025	-0,187
-727,152	800,000	-0,032	-0,089
-726,137	7,675	0,097	-0,052
-725,123	800,000	-0,032	0,096
-724,108	-44,169	-0,132	-0,048
-723,094	-42,377	-0,046	-0,017
-722,079	8,654	0,058	0,032
-721,064	-26,449	0,128	-0,054
-720,050	-62,835	-0,022	0,006
-719,035	-31,176	0,050	-0,020
-718,021	209,968	-0,160	-0,183
-717,006	-200,000	-0,002	-0,022
-715,991	5,577	-0,032	-0,017
-714,977	-200,000	0,000	0,049
-713,962	-64,576	-0,133	-0,039
-712,948	-33,995	0,116	0,046
-711,933	-200,000	0,009	0,033
-710,918	76,617	0,027	0,021
-709,904	-200,000	0,168	0,001
-708,889	800,000	-0,060	-0,157
-707,875	130,777	-0,089	0,083
-706,860	-35,508	0,063	0,025
-705,845	-71,848	0,094	0,025
-704,831	800,000	0,042	0,087
-703,816	-14,134	-0,056	0,026
-702,802	800,000	-0,017	-0,046
-701,787	76,155	-0,089	-0,068
-700,772	800,000	-0,012	0,024
-699,758	194,821	-0,084	0,093
-698,743	-200,000	-0,008	-0,053
-697,729	103,120	-0,038	-0,033
-696,714	3,873	-0,011	-0,006
-695,699	-198,159	0,055	0,000
-694,685	-40,845	0,042	0,016
-693,670	-200,000	-0,004	0,028
-692,656	53,872	-0,048	-0,034
-691,641	460,922	-0,017	0,028
-690,627	-200,000	-0,012	0,101
-689,612	-30,008	-0,038	0,015
-688,597	-200,000	-0,006	-0,036
-687,583	-170,299	-0,234	0,006
-686,568	127,686	0,089	-0,082
-685,554	134,666	-0,092	-0,087
-684,539	-20,889	0,132	-0,059
-683,524	625,074	0,077	0,142
-682,510	-188,423	-0,037	-0,000
-681,495	506,828	-0,020	-0,033
-680,481	-99,803	0,098	-0,018
-679,466	-29,570	-0,065	0,027
-678,451	-176,001	-0,138	0,003
-677,437	-162,972	0,144	-0,005
-676,422	-200,000	0,023	0,200
-675,408	28,225	0,099	-0,060
-674,393	800,000	-0,035	0,089
-673,378	-161,296	-0,205	0,008
-672,364	-200,000	0,030	-0,108
-671,349	-200,000	0,001	-0,093
-670,335	800,000	0,040	0,084
-669,320	272,701	-0,028	-0,036
-668,305	0,545	-0,120	0,062
-667,291	-154,032	-0,160	-0,008
-666,276	53,595	-0,077	-0,054
-665,262	-200,000	-0,023	-0,143
-664,247	-1,637	0,062	-0,032
-663,232	-3,758	0,099	0,050
-662,218	-32,153	0,129	-0,052
-661,203	-164,495	0,066	-0,002
-660,189	-200,000	-0,004	-0,042
-659,174	-200,000	-0,008	0,038
-658,159	535,136	-0,031	-0,054
-657,145	82,407	-0,014	0,011
-656,130	91,158	0,090	-0,073
-655,116	32,505	0,067	0,042
-654,101	800,000	-0,038	0,094
-653,086	-96,644	-0,129	0,024
-652,072	-200,000	0,004	0,023
-651,057	-64,082	-0,153	-0,045
-650,043	800,000	-0,050	-0,124
-649,028	-200,000	0,009	-0,031
-648,014	-200,000	-0,020	0,106
-646,999	-100,369	0,045	-0,008
-645,984	-122,665	-0,154	-0,018
-644,970	91,763	0,050	0,040
-643,955	182,444	-0,065	-0,069
-642,941	-12,212	-0,111	0,052
-641,926	-200,000	-0,045	-0,146
-640,911	-200,000	0,002	0,015
-639,897	-136,655	-0,134	-0,011
-638,882	251,260	0,099	-0,122
-637,868	263,734	-0,105	-0,132
-636,853	42,654	0,007	-0,005
-635,838	14,776	-0,170	-0,096
-634,824	168,253	-0,096	-0,099
-633,809	-109,130	0,054	-0,008
-632,795	800,000	0,032	0,079
-631,780	186,189	0,114	0,123
-630,765	-34,258	-0,090	-0,036
-629,751	102,135	0,048	0,041
-628,736	-157,411	-0,114	0,005
-627,722	-35,736	-0,076	-0,030
-626,707	-200,000	0,014	-0,094
-625,692	800,000	0,035	0,077
-624,678	352,426	0,100	0,143
-623,663	-198,359	-0,107	-0,000
-622,649	86,112	-0,088	-0,070
-621,634	800,000	-0,074	-0,221
-620,619	136,547	0,011	0,010
-619,605	89,018	0,094	-0,076
-618,590	76,514	-0,068	-0,052
-617,576	641,434	0,033	0,061
-616,561	334,583	-0,084	0,117
-615,546	-200,000	-0,013	0,106
-614,532	-0,232	-0,028	-0,014
-613,517	-130,967	-0,088	-0,008
-612,503	-200,000	-0,002	0,008
-611,488	-40,735	0,156	0,058
-610,474	-35,602	0,033	0,013
-609,459	561,856	0,097	0,170
-608,444	-52,298	-0,085	0,028
-607,430	464,952	-0,022	-0,036
-606,415	-163,532	-0,106	0,004
-605,401	-114,078	-0,089	0,012
-604,386	581,286	0,023	0,040
-603,371	441,412	0,037	0,059
-602,357	160,792	0,081	0,081
-601,342	-105,644	-0,073	0,012
-600,328	800,000	-0,013	-0,029
-599,313	-200,000	-0,014	-0,228
-598,298	328,357	-0,025	-0,035
-597,284	547,464	0,102	0,176
-596,269	204,180	-0,022	0,025
-595,255	76,857	-0,084	0,064
-594,240	-87,164	0,025	-0,005
-593,225	289,764	-0,041	0,053
-592,211	718,131	0,023	0,044
-591,196	-200,000	0,018	-0,071
-590,182	507,605	0,065	0,109
-589,167	-200,000	-0,013	0,160
-588,152	-200,000	-0,017	0,146
-587,138	-125,847	-0,095	0,010
-586,123	-48,756	0,089	-0,031
-585,109	431,158	-0,086	-0,134
-584,094	-200,000	-0,011	0,068
-583,079	627,498	-0,017	0,032
-582,065	199,997	0,068	0,076
-581,050	-200,000	0,036	-0,129
-580,036	-109,173	0,085	-0,013
-579,021	-200,000	-0,008	0,163
-578,006	-31,470	-0,086	-0,035
-576,992	800,000	0,039	-0,089
-575,977	108,186	0,056	0,049
-574,963	-73,661	-0,015	0,004
-573,948	-200,000	0,002	-0,144
-572,934	800,000	0,014	-0,032
-571,919	-200,000	0,004	-0,109
-570,904	325,007	0,054	0,075
-569,890	-148,601	0,201	-0,012
-568,875	207,612	0,064	-0,072
-567,861	-54,591	0,041	-0,013
-566,846	376,716	-0,029	0,043
-565,831	800,000	-0,039	0,079
-564,817	-129,494	0,047	0,005
-563,802	-114,281	-0,113	0,016
-562,788	-15,131	-0,050	-0,023
-561,773	480,574	0,045	0,075
-560,758	113,654	-0,063	0,055
-559,744	800,000	-0,034	0,085
-558,729	291,687	0,038	-0,050
-557,715	123,023	-0,031	-0,028
-556,700	-160,822	0,130	0,005
-555,685	-200,000	0,016	-0,119
-554,671	800,000	-0,050	-0,119
-553,656	35,864	-0,072	-0,045
-552,642	-0,411	0,137	0,070
-551,627	-165,782	-0,117	0,004
-550,612	337,713	0,044	-0,062
-549,598	-64,463	-0,040	0,012
-548,583	548,498	-0,032	0,056
-547,569	-35,974	-0,078	0,030
-546,554	34,555	0,163	0,102
-545,539	800,000	0,032	0,091
-544,525	197,770	-0,024	0,027
-543,510	426,792	0,018	0,028
-542,496	194,427	0,030	-0,033
-541,481	162,218	-0,044	-0,045
-540,466	800,000	-0,066	-0,208
-539,452	800,000	-0,015	0,040
-538,437	-120,517	0,088	0,011
-537,423	-103,673	0,047	-0,008
-536,408	-200,000	0,011	0,079
-535,393	22,678	0,074	-0,043
-534,379	-200,000	0,015	-0,063
-533,364	-200,000	-0,002	0,080
-532,350	574,611	-0,043	-0,076
-531,335	127,827	0,128	0,118
-530,321	-200,000	-0,039	0,233
-529,306	-99,193	-0,111	0,020
-528,291	800,000	0,057	-0,120
-527,277	155,727	-0,071	-0,070
-526,262	-200,000	-0,036	-0,147
-525,248	-32,579	-0,037	0,015
-524,233	239,657	-0,042	0,051
-523,218	-134,189	0,161	-0,014
-522,204	451,586	-0,038	-0,060
-521,189	800,000	-0,042	-0,098
-520,175	-149,875	0,064	-0,004
-519,160	158,709	-0,068	-0,068
-518,145	800,000	0,030	-0,093
-517,131	-167,035	0,075	0,002
-516,116	-200,000	-0,014	0,182
-515,102	-200,000	-0,016	-0,076
-514,087	513,314	-0,012	-0,020
-513,072	161,688	-0,094	-0,095
-512,058	800,000	0,025	0,075
-511,043	-193,707	-0,071	-0,000
-510,029	-85,170	0,136	-0,030
-509,014	144,129	-0,042	0,040
-507,999	-3,263	0,106	0,053
-506,985	-25,723	-0,040	0,017
-505,970	-114,987	-0,109	-0,015
-504,956	-73,124	0,078	-0,021
-503,941	80,356	-0,034	-0,027
-502,926	-143,444	-0,062	0,004
-501,912	-200,000	-0,009	-0,076
-500,897	201,333	-0,146	-0,162
-499,883	-200,000	-0,011	-0,075
-498,868	772,846	-0,010	-0,020
-497,853	-77,702	-0,093	-0,023
-496,839	-44,506	0,078	0,028
-495,824	-51,211	0,100	0,034
-494,810	-48,342	-0,069	0,024
-493,795	-200,000	0,026	0,107
-492,781	-24,876	-0,064	0,027
-491,766	9,538	-0,051	-0,028
-490,751	64,516	-0,057	-0,041
-489,737	-146,299	0,019	-0,001
-488,722	-28,722	0,068	-0,028
-487,708	-138,189	-0,074	0,006
-486,693	800,000	0,077	0,154
-485,678	-136,656	-0,123	0,010
-484,664	-130,962	-0,064	-0,006
-483,649	-200,000	0,024	-0,154
-482,635	-5,731	-0,025	0,012
-481,620	800,000	0,036	-0,077
-480,605	206,327	-0,130	0,146
-479,591	4,682	-0,087	-0,046
-478,576	80,723	0,113	0,087
-477,562	-55,714	-0,090	-0,029
-476,547	-191,772	-0,127	0,001
-475,532	231,094	0,038	-0,045
-474,518	800,000	0,051	0,142
-473,503	176,604	0,023	0,024
-472,489	304,219	-0,073	-0,098
-471,474	15,928	0,114	0,064
-470,459	235,372	-0,091	-0,108
-469,445	137,036	-0,131	-0,123
-468,430	153,688	-0,055	-0,054
-467,416	26,245	-0,020	0,012
-466,401	800,000	-0,050	-0,117
-465,386	-49,757	-0,080	0,027
-464,372	83,953	-0,019	0,015
-463,357	261,891	-0,044	0,055
-462,343	25,524	0,066	0,040
-461,328	-200,000	-0,008	0,052
-460,313	42,830	0,077	-0,050
-459,299	159,718	0,077	-0,077
-458,284	800,000	0,059	-0,126
-457,270	-200,000	-0,008	0,113
-456,255	-23,099	0,074	-0,032
-455,241	-200,000	-0,035	-0,121
-454,226	-200,000	0,008	-0,044
-453,211	-121,247	0,104	-0,012
-452,197	-56,900	0,040	-0,013
-451,182	155,597	-0,086	-0,086
-450,168	-200,000	0,018	0,060
-449,153	-200,000	0,010	0,045
-448,138	328,135	0,025	-0,035
-447,124	800,000	-0,017	-0,039
-446,109	-94,889	-0,047	-0,009
-445,095	-200,000	0,005	-0,036
-444,080	-200,000	-0,017	0,054
-443,065	-95,359	-0,045	0,009
-442,051	-11,410	0,074	-0,035
-441,036	800,000	-0,010	-0,023
-440,022	8,700	-0,105	-0,057
-439,007	23,648	0,063	-0,037
-437,992	78,533	0,036	0,028
-436,978	-200,000	-0,020	0,171
-435,963	-200,000	-0,001	-0,123
-434,949	128,681	-0,029	-0,027
-433,934	-132,408	0,076	-0,007
-432,919	-157,854	0,127	0,005
-431,905	-32,599	-0,111	0,044
-430,890	53,754	0,052	0,036
-429,876	-200,000	0,014	-0,102
-428,861	800,000	0,050	0,118
-427,846	47,321	0,108	-0,072
-426,832	-200,000	0,026	-0,113
-425,817	-180,720	0,075	-0,001
-424,803	211,803	0,094	0,107
-423,788	68,183	-0,050	0,036
-422,773	-46,423	-0,048	-0,017
-421,759	453,049	-0,027	0,044
-420,744	-200,000	0,012	0,063
-419,730	-30,172	0,018	-0,007
-418,715	800,000	0,017	-0,042
-417,701	-88,916	-0,054	-0,011
-416,686	14,891	0,070	0,039
-415,671	100,024	0,044	0,037
-414,657	-200,000	0,008	0,043
-413,642	180,924	0,085	-0,090
-412,628	714,946	-0,035	-0,067
-411,613	-0,720	-0,155	-0,079
-410,598	296,303	0,044	0,059
-409,584	-200,000	-0,007	-0,205
-408,569	55,818	-0,106	0,073
-407,555	234,188	0,099	0,117
-406,540	4,665	0,019	-0,010
-405,525	121,132	-0,083	0,074
-404,511	0,236	-0,038	-0,019
-403,496	76,373	0,025	-0,019
-402,482	34,318	0,109	0,068
-401,467	587,579	0,071	0,126
-400,452	-40,460	-0,121	0,045
-399,438	-91,384	0,068	0,014
-398,423	-136,300	-0,206	-0,017
-397,409	442,734	-0,016	0,025
-396,394	-200,000	-0,032	-0,121
-395,379	-75,349	0,092	0,023
-394,365	800,000	-0,025	0,063
-393,350	-200,000	0,019	0,077
-392,336	60,719	-0,096	0,068
-391,321	-200,000	-0,002	0,042
-390,306	-150,171	-0,044	0,002
-389,292	323,598	-0,065	-0,089
-388,277	68,283	-0,064	0,047
-387,263	800,000	-0,033	0,076
-386,248	-200,000	0,037	0,150
-385,233	-21,275	-0,133	-0,058
-384,219	601,353	-0,010	-0,018
-383,204	344,051	-0,060	0,084
-382,190	49,755	-0,039	-0,026
-381,175	-77,007	-0,164	0,041
-380,160	-69,783	0,123	-0,033
-379,146	30,882	0,036	-0,022
-378,131	-37,600	0,141	0,053
-377,117	-179,278	-0,133	0,002
-376,102	-200,000	0,036	-0,129
-375,088	770,075	0,026	-0,050
-374,073	216,311	0,058	-0,066
-373,058	159,227	0,021	0,021
-372,044	627,616	0,021	0,037
-371,029	79,245	-0,070	-0,054
-370,015	-200,000	0,001	0,021
-369,000	62,434	-0,043	-0,031
-367,985	294,570	0,062	-0,081
-366,971	288,738	-0,017	0,022
-365,956	-200,000	0,030	0,176
-364,942	-200,000	0,009	-0,081
-363,927	1,431	0,057	0,029
-362,912	-128,885	-0,146	-0,014
-361,898	217,855	-0,050	-0,057
-360,883	433,352	-0,086	0,134
-359,869	-76,727	-0,025	-0,006
-358,854	-200,000	-0,030	0,170
-357,839	-200,000	0,016	0,074
-356,825	21,792	0,054	-0,031
-355,810	127,209	-0,071	0,064
-354,796	68,077	0,036	-0,026
-353,781	-200,000	0,023	-0,280
-352,766	-151,105	-0,082	0,004
-351,752	-200,000	0,009	-0,031
-350,737	71,707	0,226	-0,168
-349,723	-75,846	0,116	0,029
-348,708	-139,653	-0,059	0,004
-347,693	-200,000	-0,018	0,066
-346,679	56,925	0,043	0,030
-345,664	55,420	-0,031	0,021
-344,650	-155,331	0,085	0,004
-343,635	28,265	0,107	0,064
-342,620	-200,000	0,008	-0,040
-341,606	128,888	-0,101	-0,092
-340,591	-200,000	0,008	-0,075
-339,577	285,523	-0,100	-0,129
-338,562	-157,515	0,113	0,005
-337,548	108,978	-0,113	-0,097
-336,533	-55,392	0,018	-0,006
-335,518	-114,666	-0,101	-0,014
-334,504	481,923	0,028	0,045
-333,489	800,000	0,024	0,073
-332,475	308,077	-0,041	-0,054
-331,460	730,664	0,035	0,067
-330,445	9,949	0,126	0,068
-329,431	-200,000	0,005	0,064
-328,416	7,832	0,134	0,071
-327,402	495,346	0,028	-0,046
-326,387	-182,476	-0,152	0,002
-325,372	-200,000	0,018	-0,178
-324,358	-200,000	0,059	-0,207
-323,343	-200,000	-0,011	0,073
-322,329	-200,000	0,006	0,058
-321,314	28,142	-0,057	-0,034
-320,299	-69,090	0,048	0,013
-319,285	-158,185	0,158	0,006
-318,270	441,717	0,077	-0,121
-317,256	-109,610	0,062	0,009
-316,241	125,162	-0,063	-0,056
-315,226	-87,409	-0,044	0,010
-314,212	-52,932	0,040	-0,013
-313,197	-100,699	-0,186	0,033
-312,183	461,936	0,014	-0,022
-311,168	-137,890	-0,069	-0,005
-310,153	515,902	0,094	-0,158
-309,139	800,000	-0,035	0,100
-308,124	-160,024	0,076	-0,003
-307,110	800,000	0,036	0,114
-306,095	800,000	0,054	-0,153
-305,080	-130,030	-0,084	-0,008
-304,066	-200,000	-0,018	0,061
-303,051	33,545	-0,149	-0,092
-302,037	-124,527	-0,053	0,006
-301,022	-200,000	-0,002	0,083
-300,008	-43,914	-0,086	-0,031
-298,993	-129,105	0,135	-0,013
-297,978	800,000	0,067	0,165
-296,964	212,265	-0,037	0,041
-295,949	-200,000	-0,017	-0,101
-294,935	800,000	0,021	0,057
-293,920	800,000	0,018	-0,053
-292,905	-40,996	0,056	-0,021
-291,891	-87,781	0,103	0,022
-290,876	-55,170	0,079	-0,025
-289,862	-200,000	-0,031	-0,112
-288,847	-200,000	0,021	0,102
-287,832	103,799	-0,062	-0,052
-286,818	48,974	0,029	-0,019
-285,803	119,815	0,056	-0,050
-284,789	-135,618	0,101	-0,008
-283,774	344,335	0,019	0,026
-282,759	13,185	-0,090	0,049
-281,745	-155,238	-0,078	-0,004
-280,730	-38,064	-0,072	-0,027
-279,716	150,152	0,075	-0,073
-278,701	-200,000	-0,011	-0,058
-277,686	800,000	-0,038	0,083
-276,672	-50,471	0,051	0,017
-275,657	357,818	-0,010	-0,014
-274,643	-118,351	-0,049	-0,006
-273,628	-200,000	0,015	-0,099
-272,613	-200,000	-0,009	-0,123
-271,599	800,000	0,039	0,078
-270,584	201,280	0,003	0,004
-269,570	353,402	0,098	0,139
-268,555	-165,829	-0,075	-0,002
-267,540	-200,000	0,023	-0,171
-266,526	-44,234	-0,043	-0,015
-265,511	168,171	0,063	0,064
-264,497	131,362	0,117	0,107
-263,482	-115,514	0,142	-0,019
-262,467	-60,993	-0,049	0,015
-261,453	342,941	0,055	0,076
-260,438	-162,358	0,059	-0,002
-259,424	-87,257	-0,134	-0,029
-258,409	44,795	-0,070	-0,046
-257,395	-79,615	0,048	-0,011
-256,380	-200,000	-0,012	-0,076
-255,365	-200,000	0,013	0,143
-254,351	50,762	0,079	-0,053
-253,336	56,498	-0,114	-0,079
-252,322	-200,000	-0,000	-0,039
-251,307	163,267	-0,076	0,076
-250,292	120,516	0,106	-0,094
-249,278	800,000	-0,066	0,202
-248,263	-101,149	0,116	0,020
-247,249	-200,000	-0,002	-0,094
-246,234	800,000	0,054	-0,123
-245,219	670,614	0,022	0,042
-244,205	-200,000	-0,004	-0,013
-243,190	-177,191	0,118	-0,002
-242,176	516,697	0,013	0,021
-241,161	800,000	0,021	0,054
-240,146	800,000	-0,030	0,077
-239,132	800,000	0,024	-0,062
-238,117	800,000	-0,036	-0,076
-237,103	8,481	-0,084	-0,045
-236,088	401,406	-0,009	0,013
-235,073	800,000	0,072	0,191
-234,059	-14,434	0,055	0,025
-233,044	-45,421	-0,097	0,034
-232,030	7,566	0,081	0,043
-231,015	-200,000	-0,025	-0,163
-230,000	232,409	0,030	-0,035
-228,986	83,065	-0,092	-0,071
-227,971	32,620	-0,132	-0,081
-226,957	-138,456	0,162	0,013
-225,942	800,000	0,057	0,115
-224,927	732,053	0,021	-0,039
-223,913	197,050	-0,095	-0,104
-222,898	75,534	0,110	0,083
-221,884	800,000	-0,018	0,037
-220,869	-180,116	0,155	0,002
-219,855	-37,589	-0,078	-0,029
-218,840	800,000	0,036	0,072
-217,825	-200,000	0,027	0,172
-216,811	16,477	-0,123	0,069
-215,796	-200,000	0,006	-0,125
-214,782	-104,866	0,253	-0,041
-213,767	800,000	0,054	0,127
-212,752	703,303	0,015	0,029
-211,738	-200,000	0,055	-0,207
-210,723	-144,862	0,092	-0,006
-209,709	175,270	0,027	0,028
-208,694	-200,000	-0,022	0,099
-207,679	-1,237	-0,056	0,028
-206,665	-200,000	-0,051	0,163
-205,650	800,000	0,039	0,084
-204,636	258,727	-0,065	0,080
-203,621	105,267	-0,020	-0,016
-202,606	64,257	0,082	-0,058
-201,592	-200,000	0,005	0,027
-200,577	-200,000	0,004	-0,103
-199,563	-153,728	0,148	0,007
-198,548	800,000	-0,033	-0,087
-197,533	693,857	0,061	0,114
-196,519	785,501	0,063	0,122
-195,504	279,315	-0,042	0,053
-194,490	-102,717	-0,097	0,016
-193,475	800,000	-0,039	0,102
-192,460	125,420	0,120	-0,107
-191,446	44,144	0,044	-0,029
-190,431	-200,000	0,016	-0,080
-189,417	-64,703	0,079	-0,023
-188,402	-117,893	0,073	-0,009
-187,387	-200,000	-0,013	-0,052
-186,373	-10,356	-0,099	-0,046
-185,358	800,000	-0,045	0,129
-184,344	-200,000	-0,043	0,200
-183,329	-162,551	-0,072	0,002
-182,315	800,000	0,058	-0,180
-181,300	800,000	-0,022	-0,049
-180,285	-118,303	-0,166	-0,021
-179,271	192,749	0,022	-0,023
-178,256	352,628	-0,012	-0,018
-177,242	-176,122	0,059	-0,001
-176,227	224,117	0,066	0,076
-175,212	400,785	0,067	0,100
-174,198	184,493	-0,050	0,052
-173,183	-135,525	-0,114	0,010
-172,169	258,849	-0,031	0,038
-171,154	-200,000	0,025	0,101
-170,139	125,094	-0,083	0,074
-169,125	-93,151	0,084	0,017
-168,110	-200,000	-0,015	-0,103
-167,096	-200,000	0,010	-0,109
-166,081	67,466	0,016	-0,012
-165,066	-47,888	0,067	0,023
-164,052	443,295	-0,057	0,090
-163,037	-108,494	0,112	0,017
-162,023	-183,851	-0,102	0,001
-161,008	174,316	0,043	0,044
-159,993	-200,000	0,031	0,187
-158,979	-49,446	-0,075	-0,025
-157,964	-107,282	-0,115	0,018
-156,950	477,442	0,070	-0,112
-155,935	-125,481	0,108	0,012
-154,920	-46,147	-0,045	-0,016
-153,906	-50,693	0,057	0,019
-152,891	-200,000	-0,016	0,072
-151,877	-175,193	-0,056	-0,001
-150,862	-200,000	-0,006	0,103
-149,847	638,671	0,018	0,033
-148,833	-58,146	-0,042	-0,013
-147,818	37,395	-0,008	-0,005
-146,804	-128,336	0,044	0,004
-145,789	-200,000	-0,010	-0,057
-144,775	239,406	-0,117	-0,138
-143,760	-1,515	-0,096	0,048
-142,745	-200,000	-0,002	-0,044
-141,731	-17,989	-0,125	0,055
-140,716	-59,775	0,137	0,041
-139,702	-118,193	0,132	0,017
-138,687	-61,889	0,065	-0,019
-137,672	9,769	-0,064	-0,034
-136,658	-200,000	0,011	-0,042
-135,643	283,585	-0,032	-0,041
-134,629	-59,276	0,125	0,038
-133,614	-51,076	-0,081	-0,027
-132,599	800,000	0,025	0,060
-131,585	-20,450	0,077	-0,033
-130,570	-200,000	0,001	-0,054
-129,556	39,205	0,062	0,039
-128,541	-193,790	0,111	-0,001
-127,526	-23,207	0,072	0,030
-126,512	-73,421	-0,101	-0,026
-125,497	-43,457	0,059	-0,021
-124,483	27,224	-0,090	0,053
-123,468	74,446	-0,084	-0,062
-122,453	87,135	-0,035	0,027
-121,439	115,798	-0,025	-0,021
-120,424	90,184	-0,071	0,056
-119,410	-37,561	0,124	-0,047
-118,395	81,896	0,011	-0,008
-117,380	147,029	-0,060	-0,057
-116,366	-200,000	0,044	-0,145
-115,351	-118,739	0,035	0,004
-114,337	364,283	0,058	0,083
-113,322	-169,776	-0,112	-0,003
-112,307	-19,694	0,074	0,032
-111,293	138,317	-0,070	0,065
-110,278	-90,734	0,093	-0,019
-109,264	800,000	-0,093	0,204
-108,249	-63,532	-0,058	0,017
-107,234	-200,000	0,015	-0,059
-106,220	-200,000	-0,005	-0,046
-105,205	110,652	0,077	0,066
-104,191	666,551	0,055	-0,102
-103,176	426,801	-0,033	0,051
-102,162	800,000	-0,019	-0,050
-101,147	-41,717	0,050	-0,018
-100,132	-200,000	-0,004	-0,020
-99,118	176,615	-0,054	-0,056
-98,103	-200,000	0,004	0,027
-97,089	-184,120	-0,170	0,002
-96,074	-41,081	0,120	0,044
-95,059	-200,000	-0,005	-0,124
-94,045	-0,452	-0,113	-0,056
-93,030	321,393	0,035	-0,047
-92,016	-9,008	0,022	-0,010
-91,001	88,492	-0,057	-0,045
-89,986	331,332	0,062	0,085
-88,972	-200,000	0,018	0,110
-87,957	68,796	0,063	-0,046
-86,943	-200,000	-0,018	-0,127
-85,928	266,723	0,028	0,035
-84,913	53,623	-0,047	0,032
-83,899	-37,605	0,098	-0,037
-82,884	-155,292	-0,055	-0,002
-81,870	259,215	-0,077	0,094
-80,855	-119,303	0,098	0,012
-79,840	263,670	-0,060	0,074
-78,826	-36,571	-0,106	0,040
-77,811	800,000	0,015	-0,046
-76,797	14,965	-0,152	0,084
-75,782	-3,631	0,107	-0,052
-74,767	-200,000	0,030	0,124
-73,753	-5,763	-0,074	0,036
-72,738	800,000	-0,010	-0,020
-71,724	-85,118	-0,009	0,002
-70,709	-200,000	-0,014	-0,175
-69,694	-115,137	0,097	0,013
-68,680	-200,000	-0,006	0,055
-67,665	7,749	-0,051	-0,027
-66,651	189,817	0,114	0,121
-65,636	-200,000	-0,026	0,113
-64,622	-88,659	0,034	-0,007
-63,607	800,000	0,009	-0,027
-62,592	530,472	-0,016	-0,027
-61,578	-46,718	-0,051	-0,018
-60,563	-200,000	0,023	0,086
-59,549	152,470	-0,175	0,169
-58,534	-0,694	-1,775	-0,888
-57,519	533,493	-1,179	-1,982
-56,505	-200,000	-0,548	-4,657
-55,490	414,814	0,894	1,351
-54,476	800,000	5,037	11,353
-53,461	-200,000	20,078	325,605
-52,446	800,000	750,211	2321,086
-51,432	554,967	1661,767	2839,687
-50,417	75,802	1672,108	1248,714
-49,403	20,324	1545,032	880,388
-48,388	14,325	1467,352	806,932
-47,373	18,299	1457,386	820,626
-46,359	16,478	1446,891	805,955
-45,344	12,614	1442,392	784,911
-44,330	12,488	1440,757	783,387
-43,315	12,522	1439,117	782,625
-42,300	12,539	1437,036	781,542
-41,286	12,543	1435,940	780,935
-40,271	12,512	1434,700	780,083
-39,257	12,433	1433,658	779,107
-38,242	12,545	1432,100	778,766
-37,227	12,528	1431,064	778,090
-36,213	12,536	1429,748	777,382
-35,198	12,554	1428,456	776,731
-34,184	12,634	1427,484	776,552
-33,169	12,510	1426,244	775,262
-32,154	12,601	1424,992	774,978
-31,140	12,593	1423,759	774,242
-30,125	12,582	1422,798	773,635
-29,111	12,582	1421,380	772,834
-28,096	12,570	1420,344	772,185
-27,082	12,527	1419,406	771,441
-26,067	12,499	1418,169	770,605
-25,052	12,515	1417,172	770,110
-24,038	12,513	1416,107	769,491
-23,023	12,446	1415,115	768,605
-22,009	12,477	1414,357	768,305
-20,994	12,455	1413,241	767,567
-19,979	12,445	1412,446	767,058
-18,965	12,415	1411,458	766,349
-17,950	12,428	1410,582	765,904
-16,936	12,461	1409,447	765,415
-15,921	12,425	1408,411	764,654
-14,906	12,416	1407,570	764,125
-13,892	12,392	1406,700	763,509
-12,877	12,387	1405,836	762,987
-11,863	12,413	1404,867	762,549
-10,848	12,366	1404,082	761,873
-9,833	12,371	1403,266	761,425
-8,819	12,316	1402,473	760,707
-7,804	12,278	1401,489	759,968
-6,790	12,329	1400,429	759,601
-5,775	12,322	1399,303	758,926
-4,760	12,337	1398,284	758,413
-3,746	12,284	1397,548	757,736
-2,731	12,272	1396,752	757,223
-1,717	12,309	1395,565	756,719
-0,702	12,282	1394,090	755,764
0,313	16,237	1309,422	728,136
1,327	32,528	700,976	427,290
2,342	50,267	122,316	81,539
3,356	2,950	16,481	8,432
4,371	-2,199	3,192	1,578
5,386	10,887	0,556	0,299
6,400	-200,000	0,022	0,337
7,415	-100,824	-0,201	0,035
8,429	1,892	-0,373	-0,189
9,444	286,250	-0,258	-0,329
10,459	13,431	-0,218	-0,119
11,473	135,634	-0,191	-0,175
12,488	57,767	-0,271	-0,187
13,502	-100,909	-0,362	-0,062
14,517	-8,878	-0,371	-0,175
15,531	11,742	-0,404	-0,219
16,546	157,373	-0,269	-0,263
17,561	-16,202	-0,358	-0,160
18,575	-115,460	-0,298	0,039
19,590	-35,516	-0,186	-0,071
20,604	-65,100	-0,143	0,040
21,619	43,449	-0,507	-0,326
22,634	126,247	-0,384	-0,343
23,648	76,407	-0,320	-0,239
24,663	62,210	-0,308	-0,216
25,677	189,427	-0,324	-0,343
26,692	61,382	-0,309	-0,217
27,707	-94,478	-0,351	-0,067
28,721	46,154	-0,340	-0,222
29,736	95,526	-0,364	-0,293
30,750	-31,084	-0,500	-0,198
31,765	20,798	-0,458	-0,261
32,780	230,009	-0,374	-0,431
33,794	213,464	-0,259	-0,289
34,809	149,859	-0,263	-0,251
35,823	-64,079	-0,469	-0,134
36,838	89,091	-0,323	-0,253
37,853	-30,964	-0,496	-0,196
38,867	86,461	-0,257	-0,199
39,882	183,878	-0,290	-0,302
40,896	71,718	-0,401	-0,293
41,911	106,732	-0,238	-0,199
42,926	4,346	-0,373	-0,192
43,940	26,201	-0,440	-0,258
44,955	26,590	-0,399	-0,234
45,969	102,143	-0,304	-0,250
46,984	8,568	-0,334	-0,177
47,999	246,215	-0,183	-0,217
49,013	168,540	-0,198	-0,199
50,028	49,321	-0,339	-0,224
51,042	221,502	-0,292	-0,330
52,057	670,372	-0,210	-0,384
53,071	32,031	-0,349	-0,211
54,086	-20,121	-0,420	-0,181
55,101	-5,768	-0,290	-0,139
56,115	23,975	-0,269	-0,156
57,130	0,858	-0,334	-0,168
58,144	-39,676	-0,435	-0,159
59,159	27,048	-0,361	-0,213
60,174	77,731	-0,254	-0,190
61,188	166,119	-0,331	-0,330
62,203	278,908	-0,257	-0,323
63,217	48,474	-0,244	-0,161
64,232	279,839	-0,190	-0,239
65,247	60,039	-0,389	-0,270
66,261	160,194	-0,296	-0,290
67,276	138,246	-0,343	-0,317
68,290	51,547	-0,310	-0,207
69,305	41,208	-0,295	-0,187
70,320	56,454	-0,334	-0,228
71,334	-29,378	-0,256	-0,102
72,349	70,539	-0,388	-0,281
73,363	-9,972	-0,304	-0,141
74,378	12,668	-0,442	-0,239
75,393	-9,785	-0,437	-0,204
76,407	323,954	-0,181	-0,243
77,422	293,771	-0,181	-0,233
78,436	13,998	-0,188	-0,102
79,451	-128,432	-0,186	-0,018
80,466	165,302	-0,223	-0,222
81,480	121,261	-0,344	-0,301
82,495	62,204	-0,255	-0,178
83,509	-135,529	-0,292	-0,024
84,524	-123,960	-0,279	-0,030
85,539	8,856	-0,294	-0,155
86,553	32,606	-0,289	-0,175
87,568	367,189	-0,171	-0,244
88,582	245,072	-0,199	-0,236
89,597	-54,015	-0,467	-0,148
90,611	167,443	-0,230	-0,229
91,626	-13,587	-0,261	-0,118
92,641	429,397	-0,155	-0,235
93,655	-9,164	-0,297	-0,139
94,670	118,416	-0,392	-0,339
95,684	40,226	-0,363	-0,229
96,699	71,504	-0,234	-0,170
97,714	116,633	-0,244	-0,210
98,728	125,355	-0,197	-0,174
99,743	-39,545	-0,277	-0,101
100,757	230,739	-0,228	-0,262
101,772	69,949	-0,382	-0,276
102,787	123,712	-0,248	-0,218
103,801	239,138	-0,210	-0,245
104,816	39,483	-0,293	-0,183
105,830	239,841	-0,226	-0,264
106,845	606,461	-0,132	-0,231
107,860	225,838	-0,326	-0,370
108,874	137,458	-0,162	-0,148
109,889	84,334	-0,326	-0,249
110,903	156,380	-0,178	-0,172
111,918	-150,532	-0,360	-0,019
112,933	137,149	-0,186	-0,170
113,947	245,693	-0,138	-0,163
114,962	32,618	-0,140	-0,084
115,976	-4,750	-0,328	-0,158
116,991	180,795	-0,269	-0,277
118,006	-63,810	-0,225	-0,064
119,020	35,525	-0,263	-0,161
120,035	-72,182	-0,229	-0,059
121,049	125,978	-0,221	-0,195
122,064	27,565	-0,333	-0,196
123,079	158,008	-0,265	-0,257
124,093	-43,843	-0,284	-0,099
125,108	288,123	-0,234	-0,297
126,122	-16,012	-0,281	-0,124
127,137	75,314	-0,196	-0,145
128,151	121,926	-0,255	-0,222
129,166	-11,135	-0,241	-0,110
130,181	-72,830	-0,214	-0,055
131,195	-89,429	-0,228	-0,047
132,210	221,097	-0,234	-0,263
133,224	455,678	-0,190	-0,296
134,239	191,858	-0,194	-0,204
135,254	-41,882	-0,260	-0,093
136,268	9,975	-0,138	-0,073
137,283	-200,000	-0,176	0,000
138,297	150,514	-0,143	-0,136
139,312	162,687	-0,212	-0,208
140,327	20,735	-0,268	-0,151
141,341	303,807	-0,109	-0,141
142,356	98,830	-0,289	-0,233
143,370	-174,770	-0,190	-0,004
144,385	322,712	-0,146	-0,195
145,400	-41,308	-0,139	-0,050
146,414	-37,408	-0,282	-0,105
147,429	224,217	-0,169	-0,190
148,443	76,671	-0,116	-0,086
149,458	34,564	-0,219	-0,133
150,473	-41,056	-0,298	-0,107
151,487	448,311	-0,142	-0,218
152,502	114,709	-0,125	-0,107
153,516	42,468	-0,282	-0,179
154,531	115,736	-0,140	-0,120
155,546	97,699	-0,230	-0,185
156,560	447,001	-0,142	-0,218
157,575	-92,862	-0,249	-0,048
158,589	-75,548	-0,172	-0,042
159,604	199,009	-0,188	-0,201
160,619	190,388	-0,262	-0,275
161,633	33,043	-0,209	-0,126
162,648	-76,743	-0,184	-0,045
163,662	-53,702	-0,275	-0,087
164,677	147,355	-0,162	-0,152
165,692	70,309	-0,162	0,117
166,706	-71,917	-0,346	-0,089
167,721	303,462	-0,156	-0,202
168,735	253,699	-0,226	-0,270
169,750	59,871	-0,275	-0,189
170,764	-127,706	-0,274	-0,027
171,779	175,589	-0,100	-0,101
172,794	136,507	-0,226	-0,205
173,808	494,050	-0,140	-0,224
174,823	63,633	-0,311	-0,217
175,837	208,963	-0,223	-0,243
176,852	69,148	-0,351	-0,251
177,867	73,335	-0,145	-0,106
178,881	539,345	-0,111	-0,185
179,896	-9,141	-0,196	-0,091
180,910	144,981	-0,165	-0,154
181,925	104,484	-0,222	-0,182
182,940	314,138	-0,142	-0,186
183,954	7,870	-0,221	-0,115
184,969	23,665	-0,211	-0,121
185,983	-26,245	-0,147	-0,060
186,998	157,817	-0,179	-0,173
188,013	106,603	-0,105	-0,087
189,027	-109,693	-0,367	-0,053
190,042	72,577	-0,203	-0,147
191,056	177,379	-0,135	-0,137
192,071	16,743	-0,141	-0,077
193,086	48,420	-0,202	-0,131
194,100	13,931	-0,229	-0,123
195,115	286,562	-0,133	-0,167
196,129	61,424	-0,169	-0,117
197,144	171,226	-0,284	-0,283
198,159	628,517	-0,101	-0,177
199,173	203,263	-0,234	-0,252
200,188	-43,136	-0,335	-0,117
201,202	81,633	-0,183	-0,137
202,217	148,548	-0,061	-0,057
203,232	-111,926	-0,128	-0,018
204,246	107,544	-0,236	-0,195
205,261	17,522	-0,395	-0,217
206,275	-91,495	-0,270	-0,053
207,290	18,420	-0,135	-0,075
208,304	-14,729	-0,267	-0,118
209,319	12,203	-0,229	-0,122
210,334	169,650	-0,167	-0,165
211,348	192,583	-0,234	-0,246
212,363	800,000	-0,101	-0,204
213,377	-30,922	-0,167	-0,065
214,392	-99,080	-0,176	-0,031
215,407	261,963	-0,090	-0,109
216,421	38,859	-0,232	-0,143
217,436	28,563	-0,185	-0,108
218,450	262,113	-0,179	-0,216
219,465	24,664	-0,216	-0,124
220,480	-151,749	-0,228	-0,011
221,494	-95,383	-0,377	-0,070
222,509	280,625	-0,193	-0,240
223,523	170,582	-0,173	-0,172
224,538	194,908	-0,113	-0,119
225,553	-44,489	-0,338	-0,117
226,567	82,861	-0,180	-0,136
227,582	89,601	-0,200	-0,155
228,596	106,437	-0,088	-0,072
229,611	-200,000	-0,079	-0,268
230,626	790,079	-0,132	-0,252
231,640	76,181	-0,228	-0,167
232,655	737,356	-0,202	-0,377
233,669	80,399	-0,209	-0,156
234,684	57,105	-0,107	-0,072
235,699	-35,580	-0,180	-0,067
236,713	144,806	-0,189	-0,175
237,728	454,795	-0,134	-0,207
238,742	-65,663	-0,236	-0,065
239,757	-200,000	-0,113	-0,368
240,772	217,389	-0,134	-0,148
241,786	551,474	-0,079	-0,131
242,801	-0,470	-0,193	-0,094
243,815	239,659	-0,100	-0,115
244,830	-2,318	-0,271	-0,131
245,844	24,965	-0,261	-0,150
246,859	133,035	-0,251	-0,224
247,874	24,946	-0,367	-0,210
248,888	-101,839	-0,084	0,014
249,903	-200,000	-0,071	-0,220
250,917	159,624	-0,060	-0,058
251,932	800,000	-0,077	-0,197
252,947	-96,699	-0,308	-0,056
253,961	-19,393	-0,153	-0,065
254,976	72,441	-0,152	-0,110
255,990	-13,241	-0,245	-0,109
257,005	-200,000	-0,020	-0,087
258,020	800,000	-0,051	-0,141
259,034	800,000	-0,086	-0,166
260,049	800,000	-0,069	-0,173
261,063	105,113	-0,155	-0,127
262,078	456,276	-0,182	-0,280
263,093	428,750	-0,123	-0,185
264,107	148,222	-0,143	-0,133
265,122	164,627	-0,163	-0,159
266,136	56,393	-0,127	-0,085
267,151	-28,132	-0,149	-0,059
268,166	-37,740	-0,233	-0,085
269,180	156,902	-0,207	-0,197
270,195	-138,862	-0,166	0,012
271,209	142,847	-0,246	-0,226
272,224	-200,000	-0,046	-0,169
273,239	160,345	-0,129	-0,124
274,253	9,542	-0,202	-0,105
275,268	44,554	-0,157	-0,100
276,282	169,091	-0,318	-0,313
277,297	-164,610	-0,335	0,010
278,312	63,986	-0,217	-0,150
279,326	92,396	-0,145	-0,113
280,341	42,709	-0,172	-0,108
281,355	125,928	-0,201	-0,175
282,370	-59,320	-0,097	-0,029
283,384	206,181	-0,211	-0,227
284,399	-45,395	-0,276	-0,094
285,414	417,554	-0,130	-0,191
286,428	494,073	-0,066	-0,105
287,443	132,326	-0,153	-0,136
288,457	-20,797	-0,157	-0,066
289,472	-200,000	-0,031	-0,181
290,487	535,388	-0,099	-0,162
291,501	31,825	-0,194	-0,115
292,516	-110,606	-0,113	-0,016
293,530	580,891	-0,140	-0,237
294,545	-146,120	-0,052	-0,003
295,560	137,079	-0,170	-0,153
296,574	-200,000	-0,001	-0,079
297,589	104,079	-0,226	-0,183
298,603	2,193	-0,214	0,106
299,618	528,400	-0,073	-0,118
300,633	-121,545	-0,083	0,009
301,647	-156,765	-0,210	0,009
302,662	-66,546	-0,080	-0,022
303,676	-118,288	-0,133	-0,016
304,691	575,012	-0,132	-0,222
305,706	198,724	-0,178	-0,188
306,720	800,000	-0,072	-0,150
307,735	-20,181	-0,139	-0,059
308,749	-96,823	-0,098	-0,017
309,764	616,646	-0,039	-0,068
310,779	186,590	-0,061	-0,063
311,793	23,663	-0,151	-0,085
312,808	518,297	-0,068	-0,109
313,822	-200,000	-0,059	-0,185
314,837	435,578	-0,121	-0,182
315,852	-147,906	-0,153	0,009
316,866	61,101	-0,158	-0,108
317,881	642,401	-0,097	-0,170
318,895	11,228	-0,076	-0,040
319,910	123,175	-0,138	-0,119
320,925	9,104	-0,191	-0,099
321,939	61,457	-0,237	-0,162
322,954	-200,000	0,007	-0,069
323,968	-106,815	-0,229	0,035
324,983	549,556	-0,090	-0,148
325,997	47,453	-0,166	-0,106
327,012	800,000	-0,084	-0,211
328,027	2,624	-0,192	-0,095
329,041	68,571	-0,171	-0,120
330,056	256,007	-0,072	-0,085
331,070	540,927	-0,123	-0,202
332,085	-117,602	-0,135	-0,017
333,100	800,000	-0,070	-0,159
334,114	142,951	-0,219	-0,200
335,129	371,609	-0,141	-0,197
336,143	303,751	-0,177	-0,226
337,158	222,388	-0,127	-0,141
338,173	138,593	-0,127	-0,115
339,187	50,072	-0,227	-0,147
340,202	-200,000	-0,008	-0,202
341,216	-43,553	-0,234	-0,081
342,231	51,717	-0,150	-0,098
343,246	800,000	-0,078	-0,151
344,260	93,823	-0,128	-0,099
345,275	206,451	-0,114	-0,121
346,289	800,000	-0,007	0,021
347,304	109,922	-0,160	-0,132
348,319	-105,559	-0,099	0,015
349,333	-41,009	-0,311	-0,109
350,348	60,716	-0,157	-0,107
351,362	462,087	-0,124	-0,190
352,377	800,000	-0,127	-0,249
353,392	540,892	0,047	-0,078
354,406	749,466	0,044	-0,081
355,421	208,564	1315,221	1411,466
356,435	160,489	1475,976	1411,945
