DTS Sentinel unit serial number:	SN410029Multiplexer serial number:	ORYXHardware model number:	OX2-SRSoftware version number:	ORYX F/W v4,00 Oryx Data Collector v3.7.2.0data status	okinstallation	B3 Nyhavnadifferential loss correction	single-endedforward channel	channel 1reverse channel	N/Adate	2023/11/29time	06:37:30forward acquisition time	300,00reverse acquisition time	0,00gamma	499,1914k internal	0,3211k external	0,3211temperature offset calibration	1,0000default loss term (dB/km)	0,3820temperature slope calibration	1,0000multiplexer offset coefficient	1,0000multiplexer slope coefficient	1,0000fibre end	0,00T internal ref (°C)	8,94T ext. ref 1 (°C)	-6,34T ext. ref 2 (°C)	-6,45length (m)	temperature (°C)	Stokes	anti-Stokes-744,400	406,084	-0,230	-0,354
-743,385	-200,000	0,035	0,197
-742,371	800,000	-0,094	-0,209
-741,356	-200,000	-0,081	0,276
-740,342	110,371	-0,233	-0,203
-739,327	800,000	-0,104	0,238
-738,312	800,000	-0,137	-0,343
-737,298	-200,000	-0,029	0,154
-736,283	357,199	-0,182	-0,264
-735,269	-200,000	-0,031	0,221
-734,254	12,304	-0,249	-0,139
-733,239	209,361	-0,126	0,143
-732,225	58,287	-0,141	-0,100
-731,210	800,000	0,098	0,265
-730,196	77,888	0,067	0,052
-729,181	60,452	-0,073	0,053
-728,167	5,894	0,107	-0,057
-727,152	658,553	-0,052	0,096
-726,137	9,992	-0,137	0,075
-725,123	229,704	0,084	-0,099
-724,108	-200,000	-0,022	-0,119
-723,094	-109,160	-0,170	-0,026
-722,079	-57,909	-0,116	-0,037
-721,064	59,277	0,057	-0,041
-720,050	-200,000	0,018	0,099
-719,035	454,825	-0,064	0,103
-718,021	-57,272	-0,045	0,014
-717,006	421,538	-0,046	-0,072
-715,991	50,479	-0,093	-0,064
-714,977	64,130	-0,090	0,066
-713,962	673,832	-0,037	-0,069
-712,948	-13,596	0,101	-0,047
-711,933	-200,000	-0,002	0,033
-710,918	-200,000	-0,013	-0,046
-709,904	800,000	-0,024	-0,066
-708,889	-57,390	-0,055	-0,017
-707,875	-200,000	0,027	-0,109
-706,860	259,864	-0,030	0,037
-705,845	-29,047	0,045	-0,019
-704,831	-200,000	-0,011	-0,099
-703,816	11,948	-0,133	0,074
-702,802	800,000	0,005	-0,015
-701,787	-64,656	-0,123	-0,036
-700,772	536,212	0,032	0,056
-699,758	800,000	-0,047	-0,152
-698,743	150,927	-0,088	-0,086
-697,729	-200,000	-0,014	0,067
-696,714	-37,576	0,096	-0,037
-695,699	-101,756	-0,115	-0,020
-694,685	-43,095	-0,096	0,035
-693,670	-44,850	0,093	0,033
-692,656	-130,547	-0,025	0,002
-691,641	22,073	0,077	-0,046
-690,627	78,634	-0,048	0,037
-689,612	-200,000	-0,001	-0,003
-688,597	-126,089	-0,048	0,005
-687,583	800,000	-0,027	0,064
-686,568	800,000	-0,045	0,112
-685,554	800,000	0,043	-0,106
-684,539	-57,730	-0,045	-0,014
-683,524	-200,000	0,005	0,058
-682,510	3,916	0,070	0,037
-681,495	-200,000	0,018	-0,123
-680,481	35,535	-0,112	-0,071
-679,466	137,819	-0,090	-0,085
-678,451	-200,000	0,009	-0,036
-677,437	-77,380	0,033	-0,008
-676,422	60,364	-0,090	0,065
-675,408	-200,000	-0,015	0,096
-674,393	-200,000	0,026	0,157
-673,378	-98,456	-0,007	-0,001
-672,364	800,000	0,015	-0,044
-671,349	152,384	-0,091	-0,090
-670,335	-200,000	-0,029	0,107
-669,320	-54,043	0,080	0,026
-668,305	-62,148	-0,065	-0,020
-667,291	-78,808	-0,070	0,017
-666,276	-32,449	-0,120	-0,048
-665,262	200,409	-0,098	-0,109
-664,247	-200,000	0,000	0,037
-663,232	-22,736	-0,025	-0,011
-662,218	-5,053	0,091	0,045
-661,203	-138,976	0,049	-0,004
-660,189	-92,583	-0,094	-0,019
-659,174	73,716	0,144	-0,109
-658,159	139,834	-0,047	-0,044
-657,145	-116,151	-0,124	-0,016
-656,130	243,791	-0,106	0,129
-655,116	304,702	-0,095	0,128
-654,101	800,000	0,072	0,161
-653,086	-163,916	-0,158	-0,005
-652,072	5,891	-0,128	-0,068
-651,057	-200,000	0,006	-0,071
-650,043	88,824	0,045	-0,036
-649,028	35,481	0,176	-0,112
-648,014	-200,000	0,008	0,126
-646,999	139,132	0,105	0,100
-645,984	42,559	0,083	-0,054
-644,970	-138,982	-0,069	-0,005
-643,955	114,891	-0,098	0,086
-642,941	158,035	-0,093	-0,093
-641,926	149,264	-0,056	-0,055
-640,911	800,000	0,034	0,082
-639,897	-25,885	0,138	0,058
-638,882	-62,043	-0,111	-0,033
-637,868	32,890	-0,073	-0,046
-636,853	-200,000	-0,019	-0,133
-635,838	19,964	-0,082	-0,048
-634,824	113,635	0,130	-0,114
-633,809	-122,434	0,111	-0,013
-632,795	-200,000	0,012	0,127
-631,780	62,166	0,102	0,073
-630,765	522,502	-0,008	-0,014
-629,751	800,000	0,030	-0,068
-628,736	630,381	-0,065	-0,120
-627,722	350,029	0,028	-0,040
-626,707	-48,023	-0,077	0,027
-625,692	47,193	-0,095	0,064
-624,678	-200,000	-0,011	-0,040
-623,663	604,581	0,046	-0,082
-622,649	-200,000	0,019	-0,070
-621,634	-6,927	-0,055	-0,027
-620,619	311,546	-0,045	0,061
-619,605	674,559	0,075	0,141
-618,590	79,983	-0,093	-0,072
-617,576	-171,973	-0,013	-0,000
-616,561	800,000	-0,064	-0,148
-615,546	-200,000	-0,005	0,042
-614,532	-75,633	-0,117	0,030
-613,517	-200,000	-0,014	-0,120
-612,503	140,317	-0,091	0,086
-611,488	-200,000	-0,007	-0,164
-610,474	93,845	0,099	0,081
-609,459	-148,026	0,068	0,004
-608,444	-82,258	-0,083	-0,019
-607,430	103,564	-0,048	-0,041
-606,415	800,000	-0,023	-0,052
-605,401	218,705	-0,072	0,083
-604,386	103,176	0,044	-0,037
-603,371	732,302	-0,018	-0,036
-602,357	47,359	-0,012	-0,008
-601,342	-200,000	0,005	-0,143
-600,328	-54,784	-0,266	-0,086
-599,313	-200,000	0,004	-0,046
-598,298	-200,000	-0,004	0,023
-597,284	-55,771	-0,080	-0,026
-596,269	-200,000	-0,016	0,076
-595,255	62,495	-0,038	0,027
-594,240	800,000	-0,060	0,186
-593,225	800,000	0,020	0,061
-592,211	-200,000	-0,018	0,059
-591,196	-55,341	0,043	0,014
-590,182	-30,708	-0,062	-0,025
-589,167	-95,910	-0,022	0,004
-588,152	-200,000	-0,046	0,154
-587,138	121,529	0,140	0,126
-586,123	-36,868	-0,060	-0,023
-585,109	10,785	-0,239	-0,131
-584,094	800,000	0,012	0,038
-583,079	-51,275	0,056	0,019
-582,065	-145,134	0,039	-0,003
-581,050	179,975	0,011	-0,012
-580,036	51,722	0,049	0,033
-579,021	491,835	-0,040	-0,066
-578,006	-200,000	-0,005	-0,196
-576,992	800,000	0,042	-0,112
-575,977	280,313	-0,036	-0,047
-574,963	63,925	0,058	0,042
-573,948	800,000	-0,073	0,166
-572,934	-200,000	-0,009	-0,047
-571,919	731,268	-0,042	-0,080
-570,904	462,743	0,008	0,013
-569,890	-31,572	-0,058	-0,023
-568,875	-23,284	0,134	-0,058
-567,861	-46,817	0,180	0,063
-566,846	-200,000	-0,013	0,062
-565,831	332,635	-0,104	0,145
-564,817	-200,000	0,007	0,053
-563,802	419,020	0,054	-0,083
-562,788	147,806	0,138	-0,134
-561,773	226,125	0,099	0,116
-560,758	69,594	0,042	-0,031
-559,744	211,758	-0,068	0,077
-558,729	85,595	0,037	0,030
-557,715	-87,461	-0,083	-0,018
-556,700	89,943	-0,054	-0,043
-555,685	-200,000	0,036	-0,165
-554,671	6,341	0,056	0,030
-553,656	-54,636	0,235	0,076
-552,642	-200,000	-0,025	0,247
-551,627	134,918	0,042	0,039
-550,612	92,910	-0,082	0,066
-549,598	-91,200	-0,181	-0,037
-548,583	-200,000	-0,003	-0,055
-547,569	3,365	0,110	-0,058
-546,554	111,618	-0,089	-0,077
-545,539	223,845	0,070	0,081
-544,525	115,078	-0,102	0,089
-543,510	92,024	0,047	0,038
-542,496	137,289	-0,093	-0,087
-541,481	50,182	-0,036	0,024
-540,466	-200,000	-0,011	-0,054
-539,452	-200,000	-0,017	-0,058
-538,437	68,233	-0,094	0,069
-537,423	652,948	0,061	-0,112
-536,408	-52,428	0,037	-0,012
-535,393	-111,565	-0,080	0,012
-534,379	245,840	-0,124	-0,150
-533,364	230,287	0,084	0,099
-532,350	62,086	0,120	0,086
-531,335	-200,000	0,013	0,064
-530,321	-94,440	0,100	0,019
-529,306	13,515	-0,044	0,024
-528,291	-1,236	-0,117	0,059
-527,277	-184,277	-0,190	-0,002
-526,262	20,192	0,109	0,063
-525,248	122,422	0,085	-0,076
-524,233	-200,000	-0,012	-0,043
-523,218	-26,532	-0,088	-0,037
-522,204	800,000	-0,055	0,156
-521,189	174,475	0,027	-0,028
-520,175	-104,726	0,094	0,015
-519,160	-143,806	-0,136	-0,009
-518,145	235,108	0,065	0,077
-517,131	-38,754	0,081	0,031
-516,116	353,803	0,047	-0,067
-515,102	37,399	0,085	-0,054
-514,087	-23,715	0,053	0,023
-513,072	-137,376	0,139	-0,011
-512,058	-23,840	0,020	0,009
-511,043	79,928	0,046	0,035
-510,029	104,588	0,072	-0,061
-509,014	-41,902	0,135	-0,050
-507,999	-200,000	0,016	-0,110
-506,985	-200,000	0,067	-0,217
-505,970	-109,495	-0,082	0,012
-504,956	54,281	0,133	0,092
-503,941	343,392	-0,101	0,143
-502,926	18,063	0,110	-0,063
-501,912	65,313	-0,068	0,049
-500,897	-9,419	0,107	-0,051
-499,883	-200,000	0,008	0,049
-498,868	800,000	-0,019	-0,059
-497,853	16,071	-0,060	0,034
-496,839	-200,000	-0,017	-0,109
-495,824	249,393	0,078	0,096
-494,810	-188,160	-0,065	-0,001
-493,795	-53,001	-0,081	0,026
-492,781	11,248	-0,091	-0,050
-491,766	56,525	-0,126	-0,088
-490,751	44,021	0,092	-0,061
-489,737	52,752	0,061	0,042
-488,722	84,596	0,065	-0,051
-487,708	-89,798	-0,035	-0,007
-486,693	800,000	-0,016	0,046
-485,678	24,241	0,052	-0,031
-484,664	-200,000	-0,016	-0,054
-483,649	-200,000	0,015	-0,101
-482,635	-200,000	-0,003	-0,141
-481,620	-54,095	0,089	0,029
-480,605	208,885	0,086	-0,097
-479,591	126,604	-0,035	-0,032
-478,576	540,067	-0,085	0,145
-477,562	-200,000	0,001	-0,021
-476,547	-200,000	-0,000	0,147
-475,532	-88,454	-0,022	-0,005
-474,518	12,590	0,139	0,077
-473,503	800,000	0,066	0,144
-472,489	-126,222	0,126	0,013
-471,474	800,000	0,022	0,068
-470,459	34,159	-0,161	-0,100
-469,445	800,000	0,012	-0,037
-468,430	70,377	0,074	-0,055
-467,416	-131,207	0,049	0,005
-466,401	361,584	-0,009	-0,013
-465,386	42,542	0,063	0,041
-464,372	-200,000	0,006	0,153
-463,357	800,000	0,032	-0,079
-462,343	553,237	-0,047	-0,082
-461,328	394,221	0,032	-0,048
-460,313	34,770	0,034	-0,021
-459,299	351,430	-0,056	-0,080
-458,284	-200,000	0,038	0,122
-457,270	-56,894	-0,087	-0,027
-456,255	124,111	-0,050	-0,045
-455,241	-200,000	-0,010	0,090
-454,226	-82,919	0,049	0,011
-453,211	269,638	-0,080	0,101
-452,197	-200,000	0,014	-0,108
-451,182	-12,523	-0,009	-0,004
-450,168	-35,752	0,119	0,046
-449,153	172,123	-0,029	-0,030
-448,138	120,473	-0,051	-0,045
-447,124	-200,000	0,012	0,049
-446,109	307,089	-0,084	-0,112
-445,095	-200,000	-0,038	0,121
-444,080	-117,966	0,196	0,025
-443,065	-17,912	-0,102	0,046
-442,051	45,768	-0,037	-0,025
-441,036	83,433	-0,052	-0,041
-440,022	-192,512	-0,155	-0,001
-439,007	-200,000	-0,018	0,105
-437,992	-121,358	0,118	-0,014
-436,978	-200,000	0,019	0,152
-435,963	-200,000	-0,017	-0,084
-434,949	-99,364	0,028	0,005
-433,934	-200,000	-0,001	-0,029
-432,919	-200,000	-0,027	-0,125
-431,905	347,335	0,035	0,049
-430,890	-6,753	0,042	-0,020
-429,876	-200,000	0,001	0,043
-428,861	105,197	-0,058	0,049
-427,846	-86,280	0,092	0,020
-426,832	114,414	0,026	-0,023
-425,817	-169,247	-0,043	-0,001
-424,803	443,871	-0,139	-0,219
-423,788	-127,115	0,031	-0,003
-422,773	70,369	-0,105	0,078
-421,759	181,432	-0,044	0,046
-420,744	-43,670	0,076	-0,027
-419,730	477,130	0,059	0,096
-418,715	-98,907	-0,244	-0,044
-417,701	543,854	-0,089	-0,152
-416,686	-65,462	0,154	0,044
-415,671	800,000	0,035	0,088
-414,657	800,000	-0,040	0,101
-413,642	26,798	-0,075	0,045
-412,628	800,000	0,038	-0,103
-411,613	-200,000	-0,004	-0,099
-410,598	-200,000	-0,007	0,025
-409,584	-200,000	0,004	-0,103
-408,569	742,550	0,068	0,131
-407,555	-32,611	-0,124	-0,049
-406,540	3,703	0,078	0,041
-405,525	654,686	-0,045	-0,084
-404,511	51,882	-0,132	-0,090
-403,496	194,002	0,027	-0,029
-402,482	-200,000	0,007	0,063
-401,467	-129,316	0,096	-0,009
-400,452	-141,493	0,036	-0,003
-399,438	-55,185	0,156	-0,050
-398,423	-91,808	-0,186	-0,037
-397,409	-200,000	-0,003	0,035
-396,394	-171,642	-0,027	-0,001
-395,379	127,537	0,034	0,031
-394,365	800,000	0,036	-0,078
-393,350	101,494	-0,057	0,047
-392,336	-200,000	-0,003	0,151
-391,321	-64,288	0,084	0,024
-390,306	58,021	0,119	-0,083
-389,292	800,000	0,045	0,101
-388,277	-119,330	-0,059	0,007
-387,263	152,876	0,086	0,084
-386,248	800,000	0,019	-0,043
-385,233	-119,129	-0,111	0,014
-384,219	-200,000	-0,006	-0,132
-383,204	-200,000	-0,032	0,165
-382,190	-200,000	-0,008	0,191
-381,175	253,759	0,027	0,033
-380,160	38,704	0,043	-0,027
-379,146	595,268	0,024	-0,043
-378,131	-200,000	0,018	-0,142
-377,117	-200,000	-0,046	0,152
-376,102	82,677	-0,095	0,074
-375,088	-200,000	0,019	-0,071
-374,073	391,052	0,058	-0,086
-373,058	800,000	-0,045	-0,091
-372,044	237,211	0,065	0,077
-371,029	100,149	-0,036	0,030
-370,015	-200,000	0,031	0,107
-369,000	-99,990	-0,133	0,024
-367,985	800,000	0,040	-0,085
-366,971	-10,871	-0,064	-0,030
-365,956	-200,000	-0,025	-0,128
-364,942	121,567	-0,043	-0,038
-363,927	-200,000	-0,014	0,095
-362,912	170,760	-0,065	-0,066
-361,898	187,785	-0,045	0,048
-360,883	-200,000	-0,025	0,127
-359,869	0,284	0,039	0,020
-358,854	183,961	0,038	-0,040
-357,839	-72,766	0,123	0,032
-356,825	-200,000	0,027	0,126
-355,810	-86,489	0,208	0,045
-354,796	-62,543	-0,057	-0,017
-353,781	593,082	0,028	-0,049
-352,766	-200,000	-0,023	-0,072
-351,752	-59,312	-0,100	-0,031
-350,737	800,000	0,014	-0,040
-349,723	34,953	0,065	0,041
-348,708	-200,000	-0,021	0,212
-347,693	-13,366	0,061	-0,028
-346,679	-200,000	-0,011	-0,166
-345,664	520,587	-0,093	-0,157
-344,650	-200,000	0,012	-0,090
-343,635	-200,000	-0,035	-0,168
-342,620	411,200	-0,050	0,076
-341,606	159,202	0,024	0,023
-340,591	799,804	-0,025	0,050
-339,577	89,711	-0,061	-0,049
-338,562	800,000	-0,012	0,036
-337,548	134,866	0,137	-0,127
-336,533	-130,848	0,103	0,010
-335,518	-200,000	0,002	0,023
-334,504	-42,480	-0,010	0,004
-333,489	-138,488	0,101	0,008
-332,475	688,336	0,014	-0,026
-331,460	121,313	-0,061	0,054
-330,445	-200,000	0,000	0,155
-329,431	-110,026	0,039	-0,006
-328,416	-54,372	0,065	0,021
-327,402	98,513	-0,078	0,064
-326,387	-156,686	-0,066	-0,003
-325,372	-200,000	0,001	-0,026
-324,358	-82,988	-0,173	-0,039
-323,343	-200,000	-0,014	-0,051
-322,329	235,949	0,133	0,157
-321,314	-8,074	0,177	0,085
-320,299	800,000	-0,022	-0,059
-319,285	-64,477	0,084	0,024
-318,270	80,382	0,031	-0,024
-317,256	800,000	-0,036	-0,077
-316,241	-34,444	-0,132	-0,051
-315,226	250,355	0,033	0,040
-314,212	800,000	-0,016	-0,048
-313,197	9,765	0,124	0,067
-312,183	-200,000	0,026	0,129
-311,168	53,989	0,024	-0,016
-310,153	-61,679	-0,043	-0,013
-309,139	-26,800	-0,137	-0,057
-308,124	-200,000	0,003	0,079
-307,110	-200,000	-0,004	0,020
-306,095	-200,000	-0,009	0,144
-305,080	213,773	0,078	0,088
-304,066	183,787	-0,112	-0,119
-303,051	3,305	-0,010	-0,005
-302,037	-126,672	-0,084	-0,009
-301,022	-44,620	-0,050	-0,018
-300,008	-60,929	0,273	0,082
-298,993	73,960	0,099	0,074
-297,978	93,313	0,066	-0,053
-296,964	-200,000	0,013	-0,060
-295,949	152,133	-0,069	-0,067
-294,935	190,860	-0,077	-0,082
-293,920	8,128	0,144	-0,077
-292,905	800,000	0,047	0,136
-291,891	-120,330	0,145	-0,017
-290,876	-101,666	-0,063	0,011
-289,862	-49,245	0,122	0,041
-288,847	227,629	-0,115	-0,134
-287,832	-99,521	-0,064	-0,011
-286,818	-95,109	0,060	0,011
-285,803	-116,091	0,080	0,010
-284,789	-35,904	0,005	-0,002
-283,774	568,426	-0,018	-0,031
-282,759	800,000	-0,004	-0,011
-281,745	-200,000	-0,018	-0,153
-280,730	40,250	-0,078	-0,050
-279,716	-200,000	-0,004	-0,019
-278,701	2,909	0,028	0,014
-277,686	80,456	0,049	0,038
-276,672	-25,284	-0,134	0,056
-275,657	-85,739	-0,093	-0,020
-274,643	24,048	-0,022	-0,013
-273,628	-200,000	-0,031	-0,140
-272,613	800,000	0,024	0,051
-271,599	137,797	-0,024	0,023
-270,584	-200,000	-0,018	-0,115
-269,570	800,000	0,059	0,123
-268,555	499,856	-0,033	0,055
-267,540	120,703	-0,090	0,080
-266,526	-200,000	0,010	-0,087
-265,511	800,000	0,012	-0,036
-264,497	103,615	0,088	-0,073
-263,482	-200,000	0,024	0,080
-262,467	-200,000	-0,006	-0,055
-261,453	-32,191	-0,066	0,026
-260,438	-200,000	0,009	-0,071
-259,424	-4,251	0,020	-0,010
-258,409	-200,000	-0,002	0,058
-257,395	-63,569	0,113	0,033
-256,380	-65,875	0,196	-0,055
-255,365	652,753	0,029	0,052
-254,351	378,682	-0,123	0,179
-253,336	-34,114	-0,107	0,042
-252,322	800,000	-0,047	-0,101
-251,307	-119,188	0,021	-0,003
-250,292	-188,689	0,072	-0,001
-249,278	-127,516	0,148	-0,015
-248,263	-5,179	0,091	-0,044
-247,249	-200,000	0,014	0,097
-246,234	-200,000	0,006	-0,050
-245,219	-200,000	-0,009	0,056
-244,205	44,561	0,108	-0,071
-243,190	83,592	-0,055	-0,042
-242,176	-154,536	0,096	0,004
-241,161	-200,000	0,007	-0,022
-240,146	-200,000	0,015	0,099
-239,132	-59,911	-0,042	-0,013
-238,117	-200,000	0,015	-0,085
-237,103	201,610	-0,061	-0,067
-236,088	-200,000	-0,012	0,065
-235,073	-200,000	0,020	0,097
-234,059	800,000	0,036	0,077
-233,044	-82,117	-0,019	0,004
-232,030	-200,000	-0,027	0,134
-231,015	250,812	-0,046	0,056
-230,000	-200,000	-0,003	-0,167
-228,986	-47,913	-0,047	-0,016
-227,971	-200,000	-0,041	0,132
-226,957	800,000	-0,063	-0,125
-225,942	-18,954	-0,110	-0,048
-224,927	384,139	0,064	0,093
-223,913	-95,201	0,028	0,005
-222,898	232,115	-0,072	-0,085
-221,884	155,671	0,052	-0,051
-220,869	230,907	0,062	-0,072
-219,855	122,233	0,065	-0,058
-218,840	-200,000	-0,011	0,042
-217,825	425,223	-0,056	-0,087
-216,811	-29,477	0,079	-0,032
-215,796	-142,186	-0,103	0,007
-214,782	12,923	-0,008	-0,004
-213,767	800,000	0,041	0,086
-212,752	168,225	0,097	0,098
-211,738	-200,000	-0,024	0,105
-210,723	571,863	-0,072	-0,125
-209,709	-58,143	-0,073	-0,022
-208,694	-116,659	-0,099	-0,013
-207,679	266,198	0,104	-0,130
-206,665	-4,796	0,024	-0,012
-205,650	-200,000	-0,006	0,312
-204,636	54,015	-0,066	0,045
-203,621	44,431	0,006	-0,004
-202,606	-20,627	-0,077	0,033
-201,592	-200,000	0,012	-0,043
-200,577	328,590	0,083	0,113
-199,563	-200,000	0,008	0,027
-198,548	-200,000	-0,002	0,040
-197,533	800,000	-0,026	0,054
-196,519	-36,605	-0,134	0,051
-195,504	-75,219	-0,034	0,009
-194,490	-11,981	-0,156	-0,072
-193,475	-200,000	0,041	-0,140
-192,460	91,194	-0,014	-0,011
-191,446	53,159	-0,060	0,041
-190,431	800,000	0,071	-0,161
-189,417	-200,000	0,001	-0,040
-188,402	291,345	-0,037	-0,048
-187,387	-127,221	-0,222	0,023
-186,373	303,826	0,081	-0,107
-185,358	204,803	-0,124	-0,137
-184,344	-177,593	0,124	-0,002
-183,329	-42,551	0,146	0,053
-182,315	-200,000	-0,021	0,080
-181,300	-82,644	-0,070	-0,016
-180,285	104,044	-0,169	0,141
-179,271	-0,934	0,102	-0,051
-178,256	-200,000	-0,005	0,135
-177,242	89,612	-0,072	-0,057
-176,227	-82,674	0,206	-0,047
-175,212	272,370	-0,036	-0,045
-174,198	24,579	0,084	-0,049
-173,183	-200,000	0,002	-0,174
-172,169	-146,617	0,031	-0,002
-171,154	71,513	-0,037	-0,027
-170,139	54,723	0,187	0,127
-169,125	-123,699	0,075	-0,008
-168,110	-200,000	0,002	-0,007
-167,096	62,009	0,050	-0,035
-166,081	451,613	-0,042	-0,067
-165,066	-200,000	-0,156	0,000
-164,052	120,794	-0,021	-0,019
-163,037	-200,000	0,008	0,096
-162,023	-200,000	-0,032	0,112
-161,008	-200,000	0,003	0,156
-159,993	-200,000	-0,002	-0,052
-158,979	-200,000	-0,006	-0,066
-157,964	156,758	-0,098	-0,096
-156,950	-200,000	-0,029	0,259
-155,935	624,151	-0,088	0,157
-154,920	-94,295	0,113	-0,022
-153,906	24,199	-0,005	-0,003
-152,891	455,971	-0,056	0,088
-151,877	385,457	-0,058	-0,085
-150,862	-73,068	-0,043	-0,011
-149,847	-200,000	-0,005	-0,094
-148,833	73,410	0,144	0,107
-147,818	-124,101	-0,044	0,005
-146,804	-200,000	0,031	0,121
-145,789	-31,432	0,085	0,034
-144,775	-200,000	0,012	0,130
-143,760	-200,000	-0,018	0,076
-142,745	-49,640	-0,105	-0,035
-141,731	-56,161	0,095	0,030
-140,716	-94,679	0,160	0,031
-139,702	-123,832	0,109	-0,012
-138,687	-87,490	0,107	0,023
-137,672	-55,940	-0,107	-0,034
-136,658	-200,000	-0,009	-0,078
-135,643	-200,000	0,003	0,017
-134,629	87,046	0,070	-0,055
-133,614	-91,532	0,050	0,010
-132,599	223,694	0,062	0,071
-131,585	67,663	0,037	-0,027
-130,570	-200,000	-0,004	-0,118
-129,556	-56,085	-0,086	-0,027
-128,541	-200,000	-0,007	0,085
-127,526	-200,000	-0,016	0,130
-126,512	436,570	0,051	0,080
-125,497	800,000	-0,028	0,065
-124,483	-200,000	0,004	0,095
-123,468	-200,000	-0,017	0,093
-122,453	-48,622	-0,104	-0,035
-121,439	-100,437	0,083	0,014
-120,424	800,000	-0,037	-0,087
-119,410	-88,516	0,062	0,013
-118,395	-200,000	-0,000	0,003
-117,380	18,618	-0,069	0,039
-116,366	253,197	-0,031	0,038
-115,351	800,000	0,023	0,069
-114,337	335,443	-0,060	-0,082
-113,322	533,234	0,046	-0,078
-112,307	-200,000	-0,020	0,124
-111,293	111,693	0,078	-0,067
-110,278	-126,409	0,028	-0,003
-109,264	800,000	-0,037	-0,099
-108,249	602,706	0,012	-0,022
-107,234	312,057	-0,090	-0,119
-106,220	-200,000	0,004	-0,108
-105,205	35,336	0,169	-0,105
-104,191	58,119	-0,045	0,031
-103,176	-97,382	-0,084	0,015
-102,162	-10,290	0,091	-0,043
-101,147	15,410	-0,078	0,043
-100,132	-108,375	-0,084	-0,013
-99,118	89,147	0,058	-0,045
-98,103	595,678	-0,026	0,046
-97,089	-133,838	-0,043	0,004
-96,074	-200,000	0,019	0,074
-95,059	52,499	0,059	-0,040
-94,045	295,699	0,074	-0,096
-93,030	439,346	-0,078	-0,121
-92,016	15,463	-0,053	-0,029
-91,001	-101,882	0,071	0,012
-89,986	-150,678	0,115	0,006
-88,972	-67,198	0,144	-0,040
-87,957	-200,000	0,023	0,158
-86,943	-17,738	-0,052	0,023
-85,928	800,000	0,020	0,058
-84,913	-200,000	-0,008	0,078
-83,899	-200,000	-0,011	-0,077
-82,884	44,608	0,171	-0,111
-81,870	-200,000	0,013	0,140
-80,855	11,885	0,034	0,019
-79,840	-200,000	0,013	0,167
-78,826	-3,407	-0,104	-0,051
-77,811	46,129	-0,080	-0,052
-76,797	-25,800	0,144	-0,060
-75,782	73,475	0,013	-0,010
-74,767	33,600	0,034	0,021
-73,753	-35,256	0,134	0,051
-72,738	-200,000	-0,015	0,072
-71,724	228,121	0,050	-0,057
-70,709	-200,000	0,031	0,118
-69,694	-170,422	-0,091	0,002
-68,680	571,574	-0,026	0,046
-67,665	-86,927	-0,151	0,032
-66,651	-32,856	0,155	-0,061
-65,636	-141,183	-0,100	-0,007
-64,622	-200,000	0,008	0,096
-63,607	128,458	-0,082	-0,074
-62,592	-137,148	0,021	-0,002
-61,578	800,000	-0,020	0,050
-60,563	-200,000	0,005	0,096
-59,549	63,880	0,067	0,048
-58,534	53,773	-2,150	-1,455
-57,519	482,812	-1,175	-1,892
-56,505	-200,000	-0,304	-4,279
-55,490	800,000	0,769	1,617
-54,476	800,000	5,236	11,323
-53,461	-200,000	21,734	336,840
-52,446	800,000	758,797	2295,219
-51,432	533,290	1652,663	2772,338
-50,417	69,242	1650,090	1196,193
-49,403	16,601	1524,963	848,206
-48,388	10,791	1449,561	778,307
-47,373	18,966	1441,762	813,128
-46,359	14,120	1430,489	783,817
-45,344	9,093	1426,506	757,782
-44,330	8,983	1424,642	756,240
-43,315	8,967	1422,944	755,233
-42,300	9,015	1421,074	754,438
-41,286	9,039	1419,846	753,870
-40,271	8,968	1418,648	752,868
-39,257	9,007	1417,472	752,399
-38,242	9,046	1416,343	751,952
-37,227	9,043	1415,303	751,356
-36,213	9,007	1413,955	750,443
-35,198	9,016	1412,914	749,899
-34,184	9,068	1411,697	749,472
-33,169	8,968	1410,413	748,289
-32,154	8,970	1409,682	747,881
-31,140	9,009	1408,225	747,264
-30,125	9,044	1406,920	746,705
-29,111	9,046	1405,796	746,084
-28,096	8,988	1404,805	745,258
-27,082	8,978	1403,607	744,546
-26,067	8,942	1402,467	743,745
-25,052	8,945	1401,492	743,211
-24,038	8,983	1400,583	742,877
-23,023	8,973	1399,480	742,217
-22,009	8,925	1398,508	741,448
-20,994	8,933	1397,499	740,923
-19,979	8,961	1396,655	740,574
-18,965	8,920	1395,615	739,804
-17,950	8,900	1394,650	739,169
-16,936	8,920	1393,815	738,793
-15,921	8,858	1392,848	737,963
-14,906	8,901	1392,011	737,690
-13,892	8,942	1390,885	737,250
-12,877	8,875	1390,473	736,696
-11,863	8,920	1389,335	736,268
-10,848	8,904	1388,409	735,675
-9,833	8,831	1387,375	734,761
-8,819	8,809	1386,725	734,287
-7,804	8,807	1385,590	733,648
-6,790	8,783	1384,505	732,935
-5,775	8,786	1383,528	732,402
-4,760	8,852	1382,390	732,072
-3,746	8,815	1381,829	731,577
-2,731	8,806	1380,853	730,990
-1,717	8,822	1379,945	730,556
-0,702	8,790	1378,233	729,472
0,313	12,733	1290,097	700,759
1,327	28,585	682,265	406,166
2,342	44,769	117,409	76,030
3,356	-0,387	16,431	8,204
4,371	4,332	3,654	1,882
5,386	18,699	1,263	0,711
6,400	800,000	0,233	0,643
7,415	-200,000	-0,035	-0,131
8,429	-2,416	-0,339	-0,167
9,444	114,138	-0,349	-0,299
10,459	7,832	-0,277	-0,146
11,473	-53,843	-0,365	-0,117
12,488	165,876	-0,181	-0,181
13,502	40,804	-0,261	-0,165
14,517	94,541	-0,217	-0,173
15,531	25,767	-0,453	-0,265
16,546	48,573	-0,235	-0,155
17,561	4,716	-0,310	-0,160
18,575	-9,971	-0,262	-0,122
19,590	241,828	-0,240	-0,283
20,604	16,764	-0,293	-0,163
21,619	173,632	-0,304	-0,309
22,634	73,155	-0,390	-0,286
23,648	87,616	-0,365	-0,284
24,663	182,562	-0,256	-0,266
25,677	53,856	-0,393	-0,265
26,692	-42,959	-0,194	-0,069
27,707	54,280	-0,421	-0,285
28,721	135,807	-0,294	-0,269
29,736	17,414	-0,376	-0,210
30,750	-5,707	-0,463	-0,223
31,765	19,020	-0,315	-0,177
32,780	27,353	-0,380	-0,224
33,794	136,077	-0,271	-0,248
34,809	219,100	-0,248	-0,279
35,823	-26,101	-0,494	-0,203
36,838	117,238	-0,219	-0,189
37,853	210,666	-0,285	-0,316
38,867	61,005	-0,330	-0,230
39,882	314,384	-0,247	-0,328
40,896	-1,844	-0,389	-0,192
41,911	-24,046	-0,316	-0,132
42,926	381,433	-0,211	-0,305
43,940	34,020	-0,425	-0,259
44,955	47,357	-0,318	-0,208
45,969	94,519	-0,294	-0,235
46,984	149,527	-0,363	-0,346
47,999	86,244	-0,262	-0,202
49,013	-66,015	-0,282	-0,079
50,028	70,451	-0,399	-0,289
51,042	287,163	-0,294	-0,373
52,057	36,679	-0,377	-0,233
53,071	300,581	-0,152	-0,198
54,086	38,913	-0,340	-0,213
55,101	0,732	-0,338	-0,169
56,115	95,922	-0,305	-0,244
57,130	-68,858	-0,361	-0,097
58,144	112,942	-0,349	-0,297
59,159	-15,729	-0,454	-0,202
60,174	97,780	-0,335	-0,270
61,188	122,037	-0,274	-0,240
62,203	39,257	-0,343	-0,215
63,217	-62,111	-0,324	-0,094
64,232	97,602	-0,292	-0,235
65,247	79,685	-0,426	-0,321
66,261	-17,773	-0,409	-0,179
67,276	143,272	-0,327	-0,305
68,290	243,591	-0,242	-0,285
69,305	181,397	-0,208	-0,215
70,320	73,374	-0,280	-0,205
71,334	-70,841	-0,358	-0,094
72,349	93,279	-0,194	-0,154
73,363	27,073	-0,255	-0,150
74,378	151,054	-0,354	-0,338
75,393	-86,051	-0,370	-0,080
76,407	30,738	-0,306	-0,183
77,422	14,485	-0,215	-0,117
78,436	7,377	-0,341	-0,178
79,451	42,331	-0,334	-0,213
80,466	465,594	-0,212	-0,334
81,480	335,982	-0,209	-0,284
82,495	-58,007	-0,318	-0,097
83,509	167,513	-0,193	-0,192
84,524	0,214	-0,244	-0,121
85,539	-9,905	-0,335	-0,155
86,553	112,095	-0,312	-0,264
87,568	55,987	-0,441	-0,299
88,582	189,682	-0,204	-0,214
89,597	118,274	-0,259	-0,224
90,611	-8,625	-0,250	-0,117
91,626	176,337	-0,234	-0,238
92,641	183,524	-0,285	-0,295
93,655	103,048	-0,224	-0,183
94,670	300,519	-0,159	-0,206
95,684	4,236	-0,296	-0,151
96,699	-32,179	-0,359	-0,140
97,714	-50,262	-0,186	-0,061
98,728	-62,844	-0,338	-0,097
99,743	-86,867	-0,287	-0,061
100,757	53,330	-0,139	-0,093
101,772	-37,345	-0,348	-0,129
102,787	131,363	-0,281	-0,253
103,801	509,225	-0,204	-0,332
104,816	-39,917	-0,302	-0,110
105,830	169,621	-0,189	-0,189
106,845	-6,289	-0,184	-0,087
107,860	110,302	-0,219	-0,184
108,874	-11,348	-0,258	-0,118
109,889	-27,566	-0,311	-0,126
110,903	-28,110	-0,228	-0,092
111,918	59,302	-0,189	-0,130
112,933	9,918	-0,295	-0,156
113,947	29,694	-0,209	-0,124
114,962	58,599	-0,239	-0,164
115,976	-9,234	-0,324	-0,151
116,991	675,853	-0,133	-0,242
118,006	539,879	-0,223	-0,372
119,020	146,186	-0,212	-0,199
120,035	131,227	-0,271	-0,243
121,049	-72,163	-0,242	-0,062
122,064	0,548	-0,275	-0,137
123,079	-102,726	-0,257	-0,042
124,093	-62,577	-0,215	-0,062
125,108	362,562	-0,240	-0,337
126,122	56,750	-0,222	-0,151
127,137	-133,032	-0,134	0,012
128,151	113,901	-0,189	-0,160
129,166	42,269	-0,203	-0,128
130,181	99,858	-0,229	-0,185
131,195	149,747	-0,186	-0,176
132,210	800,000	-0,071	-0,196
133,224	235,097	-0,215	-0,248
134,239	158,540	-0,157	-0,152
135,254	17,700	-0,225	-0,124
136,268	553,325	-0,115	-0,193
137,283	42,258	-0,179	-0,113
138,297	103,500	-0,245	-0,200
139,312	25,476	-0,206	-0,119
140,327	9,829	-0,346	-0,183
141,341	95,650	-0,144	-0,115
142,356	17,627	-0,208	-0,115
143,370	-13,484	-0,336	-0,151
144,385	260,955	-0,223	-0,270
145,400	118,374	-0,268	-0,230
146,414	17,539	-0,328	-0,181
147,429	124,038	-0,303	-0,265
148,443	746,190	-0,133	-0,251
149,458	7,848	-0,239	-0,124
150,473	49,866	-0,185	-0,121
151,487	263,471	-0,257	-0,312
152,502	396,106	-0,133	-0,194
153,516	-49,439	-0,479	-0,158
154,531	-188,980	-0,309	-0,003
155,546	-200,000	-0,034	-0,149
156,560	332,856	-0,150	-0,203
157,575	-67,741	-0,132	-0,036
158,589	-2,567	-0,223	-0,108
159,604	104,701	-0,238	-0,195
160,619	183,171	-0,227	-0,233
161,633	-68,694	-0,373	-0,100
162,648	83,792	-0,236	-0,179
163,662	176,130	-0,153	-0,155
164,677	-34,429	-0,327	-0,124
165,692	401,789	-0,164	-0,240
166,706	68,665	-0,291	-0,207
167,721	214,102	-0,200	-0,221
168,735	159,934	-0,190	-0,184
169,750	-19,944	-0,235	-0,100
170,764	321,846	-0,091	-0,121
171,779	-91,058	-0,329	-0,065
172,794	-2,066	-0,134	-0,065
173,808	-112,597	-0,255	-0,035
174,823	50,901	-0,226	-0,149
175,837	664,382	-0,149	-0,269
176,852	22,069	-0,244	-0,138
177,867	-89,280	-0,149	0,030
178,881	-127,715	-0,265	-0,026
179,896	45,844	-0,222	-0,142
180,910	33,287	-0,296	-0,178
181,925	220,633	-0,233	-0,259
182,940	198,737	-0,308	-0,327
183,954	-59,209	-0,232	-0,069
184,969	800,000	-0,109	-0,240
185,983	78,813	-0,172	-0,128
186,998	28,441	-0,172	-0,101
188,013	713,517	-0,105	-0,194
189,027	35,437	-0,270	-0,164
190,042	8,297	-0,228	-0,119
191,056	-6,969	-0,271	-0,127
192,071	295,089	-0,151	-0,193
193,086	105,789	-0,235	-0,193
194,100	-32,347	-0,210	-0,081
195,115	695,974	-0,090	-0,165
196,129	80,105	-0,278	-0,207
197,144	142,421	-0,204	-0,188
198,159	436,777	-0,180	-0,272
199,173	56,399	-0,204	-0,137
200,188	109,977	-0,165	-0,138
201,202	-21,427	-0,270	-0,114
202,217	-22,171	-0,180	-0,075
203,232	209,196	-0,157	-0,171
204,246	800,000	-0,123	-0,325
205,261	1,682	-0,312	-0,155
206,275	54,869	-0,180	-0,120
207,290	-146,843	-0,146	0,009
208,304	19,031	-0,148	-0,082
209,319	-5,889	-0,212	-0,100
210,334	186,593	-0,113	-0,116
211,348	314,575	-0,104	-0,135
212,363	0,257	-0,241	-0,118
213,377	-107,173	-0,193	0,029
214,392	429,752	-0,102	-0,154
215,407	4,292	-0,252	-0,128
216,421	-119,363	-0,206	-0,024
217,436	42,953	-0,156	-0,098
218,450	0,289	-0,235	-0,116
219,465	20,375	-0,151	-0,084
220,480	-64,923	-0,248	-0,069
221,494	343,580	-0,140	-0,191
222,509	-33,090	-0,247	-0,094
223,523	132,355	-0,153	-0,137
224,538	225,179	-0,180	-0,202
225,553	294,370	-0,164	-0,208
226,567	268,028	-0,213	-0,258
227,582	-46,104	-0,192	-0,065
228,596	95,563	-0,167	-0,131
229,611	212,300	-0,179	-0,195
230,626	-200,000	0,009	-0,060
231,640	54,911	-0,225	-0,150
232,655	-135,053	-0,287	0,024
233,669	2,951	-0,257	-0,128
234,684	800,000	-0,067	-0,198
235,699	2,097	-0,191	-0,095
236,713	-98,391	-0,237	0,042
237,728	-64,303	-0,164	-0,046
238,742	332,842	-0,125	-0,167
239,757	800,000	-0,086	-0,214
240,772	151,443	-0,152	-0,143
241,786	732,254	-0,132	-0,245
242,801	529,009	-0,120	-0,197
243,815	-51,860	-0,211	-0,067
244,830	216,371	-0,123	-0,135
245,844	109,874	-0,199	-0,165
246,859	26,789	-0,199	-0,115
247,874	117,785	-0,274	-0,233
248,888	196,132	-0,228	-0,239
249,903	-125,644	-0,294	-0,030
250,917	-42,665	-0,225	-0,078
251,932	-37,847	-0,043	-0,016
252,947	15,204	-0,145	-0,078
253,961	61,443	-0,232	-0,159
254,976	170,095	-0,231	-0,228
255,990	-7,191	-0,182	-0,085
257,005	-165,729	-0,175	0,005
258,020	113,316	-0,176	-0,148
259,034	26,693	-0,088	-0,051
260,049	720,642	-0,155	-0,286
261,063	-96,299	-0,218	-0,039
262,078	122,088	-0,248	-0,214
263,093	-99,634	-0,321	-0,055
264,107	-200,000	-0,028	-0,279
265,122	50,738	-0,110	-0,071
266,136	-44,003	-0,207	-0,071
267,151	352,633	-0,112	-0,154
268,166	93,612	-0,138	-0,108
269,180	345,031	-0,116	-0,157
270,195	-96,111	-0,269	-0,049
271,209	8,842	-0,151	-0,078
272,224	-129,526	-0,228	0,021
273,239	367,415	-0,047	-0,065
274,253	186,998	-0,092	-0,094
275,268	200,183	-0,114	-0,121
276,282	800,000	-0,036	-0,071
277,297	64,229	-0,203	-0,140
278,312	-200,000	-0,065	-0,212
279,326	107,703	-0,106	-0,087
280,341	-58,243	-0,268	0,080
281,355	-187,922	-0,245	-0,002
282,370	107,782	-0,146	-0,120
283,384	-27,695	-0,238	-0,095
284,399	83,633	-0,192	-0,144
285,414	261,870	-0,195	-0,233
286,428	179,580	-0,123	-0,124
287,443	-200,000	-0,012	-0,282
288,457	137,901	-0,110	-0,099
289,472	-71,338	-0,182	-0,047
290,487	355,655	-0,178	-0,244
291,501	415,501	-0,147	-0,215
292,516	89,739	-0,199	-0,152
293,530	-200,000	-0,012	-0,104
294,545	73,121	-0,257	-0,185
295,560	-165,010	-0,109	0,003
296,574	-26,099	-0,226	-0,091
297,589	-135,040	-0,217	0,018
298,603	29,974	-0,078	-0,046
299,618	9,053	-0,156	-0,081
300,633	396,071	-0,124	-0,178
301,647	147,917	-0,095	-0,088
302,662	-138,831	-0,140	-0,010
303,676	64,268	-0,174	-0,120
304,691	52,024	-0,080	-0,052
305,706	-103,419	-0,251	0,040
306,720	3,611	-0,188	-0,094
307,735	-30,954	-0,167	-0,065
308,749	-97,875	-0,122	0,021
309,764	15,766	-0,154	-0,083
310,779	-2,364	-0,064	-0,030
311,793	8,946	-0,119	-0,062
312,808	-21,288	-0,180	-0,075
313,822	-101,436	-0,199	-0,033
314,837	49,004	-0,071	-0,045
315,852	109,933	-0,085	0,070
316,866	88,626	-0,100	-0,076
317,881	9,274	-0,066	-0,034
318,895	63,895	-0,205	-0,141
319,910	800,000	-0,105	-0,215
320,925	-9,992	-0,125	-0,057
321,939	-51,952	-0,148	-0,047
322,954	-98,316	-0,051	0,009
323,968	800,000	-0,091	-0,177
324,983	-152,936	0,035	-0,002
325,997	800,000	-0,074	-0,159
327,012	358,501	-0,171	-0,235
328,027	800,000	-0,061	-0,154
329,041	198,287	-0,154	-0,162
330,056	134,774	-0,149	-0,132
331,070	279,445	0,074	-0,090
332,085	-61,870	-0,102	-0,029
333,100	154,229	-0,214	-0,202
334,114	-126,710	-0,192	0,019
335,129	151,715	-0,196	-0,183
336,143	-200,000	-0,034	-0,203
337,158	177,102	-0,113	-0,113
338,173	174,804	-0,068	-0,067
339,187	174,370	-0,122	-0,121
340,202	-30,340	-0,185	-0,072
341,216	5,846	-0,140	-0,071
342,231	70,215	-0,160	-0,113
343,246	185,953	-0,074	-0,075
344,260	183,037	-0,147	-0,149
345,275	276,457	-0,091	-0,111
346,289	73,023	-0,041	-0,029
347,304	-68,641	-0,051	0,013
348,319	11,945	-0,155	-0,081
349,333	221,159	-0,130	-0,143
350,348	0,120	-0,192	-0,093
351,362	800,000	-0,102	-0,307
352,377	62,756	-0,142	-0,097
353,392	-105,887	-0,060	0,009
354,406	102,014	-0,089	-0,071
355,421	207,763	1307,003	1397,000
356,435	159,844	1466,743	1397,480
