DTS Sentinel unit serial number:	SN410029Multiplexer serial number:	ORYXHardware model number:	OX2-SRSoftware version number:	ORYX F/W v4,00 Oryx Data Collector v3.7.2.0data status	okinstallation	B3 Nyhavnadifferential loss correction	single-endedforward channel	channel 1reverse channel	N/Adate	2023/12/05time	00:02:30forward acquisition time	300,00reverse acquisition time	0,00gamma	499,1914k internal	0,3200k external	0,3200temperature offset calibration	1,0000default loss term (dB/km)	0,3820temperature slope calibration	1,0000multiplexer offset coefficient	1,0000multiplexer slope coefficient	1,0000fibre end	0,00T internal ref (°C)	14,00T ext. ref 1 (°C)	-1,32T ext. ref 2 (°C)	-1,35length (m)	temperature (°C)	Stokes	anti-Stokes-744,400	210,845	-0,206	-0,236
-743,385	800,000	-0,095	0,270
-742,371	40,255	-0,165	-0,108
-741,356	-200,000	-0,136	0,441
-740,342	-58,037	-0,261	-0,082
-739,327	800,000	-0,089	0,230
-738,312	190,324	-0,236	-0,258
-737,298	-200,000	-0,018	0,309
-736,283	655,187	-0,085	-0,160
-735,269	-200,000	0,060	0,298
-734,254	87,666	-0,186	-0,150
-733,239	61,980	-0,184	0,134
-732,225	-200,000	-0,018	-0,140
-731,210	800,000	0,034	-0,069
-730,196	510,167	0,049	0,082
-729,181	425,573	-0,085	-0,133
-728,167	-99,896	-0,022	0,004
-727,152	81,704	0,134	0,105
-726,137	466,337	-0,021	0,034
-725,123	52,249	-0,129	-0,089
-724,108	388,040	-0,040	0,060
-723,094	-103,761	-0,102	-0,017
-722,079	-111,484	-0,121	-0,018
-721,064	156,056	-0,020	0,020
-720,050	-105,639	0,184	-0,030
-719,035	-200,000	0,009	0,034
-718,021	-12,565	-0,122	0,057
-717,006	-98,582	-0,078	-0,014
-715,991	-100,647	-0,085	-0,015
-714,977	620,390	0,078	-0,143
-713,962	-200,000	-0,010	-0,068
-712,948	-200,000	0,006	0,091
-711,933	-138,364	-0,142	-0,011
-710,918	-3,496	0,016	-0,008
-709,904	-20,950	0,107	-0,048
-708,889	-59,906	-0,156	-0,048
-707,875	-200,000	0,037	-0,168
-706,860	-143,973	0,107	-0,007
-705,845	146,867	0,032	0,031
-704,831	666,060	-0,043	0,082
-703,816	-200,000	-0,007	0,052
-702,802	-200,000	0,016	-0,065
-701,787	-31,911	-0,190	-0,077
-700,772	800,000	-0,018	0,053
-699,758	-200,000	-0,028	-0,120
-698,743	418,487	-0,026	-0,041
-697,729	128,991	-0,048	0,044
-696,714	100,036	-0,068	0,058
-695,699	-85,972	0,076	-0,017
-694,685	-15,529	-0,054	0,025
-693,670	-200,000	0,016	0,079
-692,656	-200,000	0,007	0,039
-691,641	-165,475	0,061	-0,002
-690,627	-78,262	-0,069	0,017
-689,612	-102,638	-0,050	0,009
-688,597	117,636	0,069	-0,062
-687,583	-190,377	-0,050	-0,000
-686,568	731,538	0,028	0,055
-685,554	-200,000	-0,011	0,070
-684,539	-200,000	0,009	-0,037
-683,524	-150,034	-0,185	0,010
-682,510	-50,625	-0,088	-0,030
-681,495	592,265	0,037	0,066
-680,481	-200,000	-0,006	0,076
-679,466	-48,747	-0,099	-0,034
-678,451	-54,830	-0,133	-0,043
-677,437	-109,847	-0,169	0,026
-676,422	212,057	0,017	0,020
-675,408	800,000	0,033	-0,086
-674,393	-84,715	-0,090	0,020
-673,378	-140,652	-0,121	-0,009
-672,364	-57,903	-0,051	0,016
-671,349	193,756	-0,031	-0,034
-670,335	91,580	-0,041	0,034
-669,320	-26,952	-0,097	0,041
-668,305	-106,043	0,116	0,019
-667,291	800,000	0,022	0,046
-666,276	214,875	-0,061	-0,070
-665,262	-2,538	-0,169	-0,085
-664,247	-33,872	0,087	0,034
-663,232	800,000	0,021	-0,060
-662,218	-56,808	0,125	-0,040
-661,203	-51,023	-0,043	-0,014
-660,189	-108,964	0,026	0,004
-659,174	-200,000	0,020	-0,118
-658,159	-200,000	0,010	-0,067
-657,145	38,386	-0,057	0,037
-656,130	111,144	-0,054	0,047
-655,116	-66,816	-0,043	-0,012
-654,101	72,215	-0,088	0,066
-653,086	-25,736	0,074	-0,031
-652,072	800,000	-0,025	-0,078
-651,057	-124,295	-0,132	-0,015
-650,043	12,989	-0,054	-0,030
-649,028	-200,000	-0,008	0,027
-648,014	110,243	-0,127	0,111
-646,999	-33,273	0,111	-0,044
-645,984	-200,000	-0,005	-0,023
-644,970	800,000	0,045	-0,133
-643,955	-200,000	0,033	-0,109
-642,941	24,401	0,070	-0,042
-641,926	-200,000	-0,011	0,037
-640,911	800,000	-0,065	0,138
-639,897	31,546	-0,037	-0,023
-638,882	41,385	0,039	-0,026
-637,868	-200,000	-0,016	-0,109
-636,853	87,473	-0,027	-0,022
-635,838	-43,772	-0,157	0,057
-634,824	497,066	-0,015	-0,025
-633,809	204,900	-0,031	0,034
-632,795	241,658	0,042	-0,051
-631,780	-72,082	-0,010	0,003
-630,765	-200,000	0,018	0,113
-629,751	-95,919	-0,075	-0,014
-628,736	-11,561	0,118	-0,056
-627,722	-62,530	-0,024	-0,007
-626,707	-200,000	0,002	-0,026
-625,692	800,000	-0,047	0,128
-624,678	17,055	0,071	-0,041
-623,663	-118,590	-0,088	-0,011
-622,649	-200,000	-0,015	-0,116
-621,634	-100,985	-0,022	-0,004
-620,619	-7,463	-0,097	0,047
-619,605	-200,000	-0,028	-0,107
-618,590	-185,469	0,034	0,000
-617,576	-6,568	0,155	-0,076
-616,561	89,422	0,122	-0,098
-615,546	800,000	0,038	-0,085
-614,532	67,300	-0,070	-0,051
-613,517	-39,728	-0,019	0,007
-612,503	-200,000	-0,005	0,064
-611,488	226,065	-0,059	0,070
-610,474	-200,000	0,003	0,039
-609,459	-200,000	-0,031	-0,169
-608,444	800,000	0,030	-0,074
-607,430	36,454	-0,118	-0,075
-606,415	54,849	-0,120	-0,083
-605,401	30,922	0,069	0,043
-604,386	-177,240	0,071	-0,001
-603,371	335,193	-0,025	0,035
-602,357	412,501	-0,031	0,048
-601,342	81,508	0,095	-0,074
-600,328	-200,000	-0,021	-0,089
-599,313	322,254	0,058	-0,080
-598,298	-73,534	-0,121	0,032
-597,284	62,132	0,024	-0,017
-596,269	259,973	0,077	0,096
-595,255	-87,525	0,101	0,022
-594,240	435,534	-0,050	0,078
-593,225	-75,985	-0,086	0,022
-592,211	449,461	-0,030	0,048
-591,196	416,459	0,032	-0,050
-590,182	385,483	-0,010	0,015
-589,167	-200,000	-0,023	0,079
-588,152	214,267	-0,063	-0,072
-587,138	-76,026	0,037	0,009
-586,123	-134,466	-0,030	-0,003
-585,109	800,000	0,040	-0,116
-584,094	-200,000	-0,027	-0,089
-583,079	598,454	-0,051	-0,092
-582,065	-5,275	-0,051	-0,025
-581,050	96,594	0,057	0,048
-580,036	333,793	-0,081	-0,113
-579,021	168,098	-0,071	0,073
-578,006	84,395	0,101	-0,079
-576,992	-200,000	0,004	0,088
-575,977	345,499	0,036	0,051
-574,963	120,015	0,059	0,053
-573,948	-167,079	-0,115	-0,003
-572,934	-99,010	0,032	0,006
-571,919	800,000	-0,047	-0,099
-570,904	221,996	-0,101	-0,118
-569,890	-200,000	0,027	-0,137
-568,875	-155,354	-0,073	0,003
-567,861	83,702	0,055	0,043
-566,846	-132,008	-0,009	-0,001
-565,831	-113,519	0,068	0,010
-564,817	167,160	-0,110	-0,112
-563,802	-22,669	-0,069	0,030
-562,788	-200,000	-0,019	-0,092
-561,773	-200,000	0,011	-0,040
-560,758	412,211	-0,005	0,007
-559,744	271,747	-0,015	0,019
-558,729	340,554	0,093	0,131
-557,715	649,919	-0,040	0,075
-556,700	-59,168	0,030	-0,009
-555,685	463,454	-0,032	-0,052
-554,671	-85,303	0,074	0,016
-553,656	-87,782	-0,177	0,038
-552,642	800,000	0,051	0,109
-551,627	159,732	-0,048	-0,048
-550,612	-195,102	0,088	0,000
-549,598	-200,000	-0,029	0,096
-548,583	-3,156	-0,110	-0,055
-547,569	383,278	-0,066	-0,099
-546,554	-98,505	0,107	-0,020
-545,539	-126,894	0,060	-0,006
-544,525	213,674	-0,046	-0,053
-543,510	4,907	-0,073	-0,038
-542,496	800,000	-0,063	-0,129
-541,481	152,300	0,088	-0,086
-540,466	800,000	-0,044	-0,138
-539,452	513,510	-0,003	0,005
-538,437	67,365	0,058	-0,043
-537,423	99,730	0,034	-0,028
-536,408	-136,865	-0,097	0,008
-535,393	-200,000	0,006	-0,175
-534,379	255,362	0,025	-0,031
-533,364	130,670	0,033	0,030
-532,350	517,318	0,088	0,149
-531,335	-200,000	-0,021	0,108
-530,321	-200,000	0,012	0,065
-529,306	243,371	0,101	-0,123
-528,291	-200,000	0,008	-0,054
-527,277	-200,000	-0,007	-0,043
-526,262	-71,075	0,080	-0,022
-525,248	-168,666	-0,050	0,001
-524,233	502,721	-0,048	0,080
-523,218	-17,877	0,129	-0,058
-522,204	-200,000	0,006	0,119
-521,189	-77,733	-0,078	0,019
-520,175	433,956	0,038	0,060
-519,160	-74,831	-0,046	0,012
-518,145	8,463	0,111	0,060
-517,131	-200,000	0,012	-0,153
-516,116	-100,189	-0,163	-0,029
-515,102	-200,000	0,009	-0,168
-514,087	-200,000	0,007	0,073
-513,072	355,951	-0,055	0,079
-512,058	-200,000	-0,035	-0,151
-511,043	210,810	0,029	0,033
-510,029	222,295	0,049	0,057
-509,014	-200,000	-0,010	0,120
-507,999	11,120	-0,078	0,043
-506,985	-180,111	-0,134	0,002
-505,970	-200,000	0,035	-0,148
-504,956	-25,593	-0,079	-0,033
-503,941	-37,366	-0,052	-0,020
-502,926	-0,433	-0,026	0,013
-501,912	218,773	0,004	0,004
-500,897	-106,752	-0,020	-0,003
-499,883	37,218	0,113	-0,072
-498,868	-200,000	0,006	0,031
-497,853	800,000	0,011	0,032
-496,839	-200,000	0,002	0,013
-495,824	583,264	0,024	0,042
-494,810	435,996	-0,021	0,033
-493,795	-157,196	0,157	0,007
-492,781	-108,302	0,033	-0,005
-491,766	800,000	0,042	-0,100
-490,751	-137,016	-0,022	0,002
-489,737	500,190	0,063	0,105
-488,722	-144,041	0,082	0,005
-487,708	317,297	0,080	0,109
-486,693	-117,755	-0,044	-0,006
-485,678	539,267	-0,074	-0,127
-484,664	-165,647	-0,097	-0,003
-483,649	629,733	-0,092	-0,167
-482,635	800,000	0,026	0,079
-481,620	246,753	0,114	0,139
-480,605	-200,000	-0,005	0,227
-479,591	-200,000	-0,017	0,191
-478,576	-21,626	0,144	0,063
-477,562	-177,247	-0,109	-0,002
-476,547	-43,113	0,109	-0,040
-475,532	-8,420	0,039	-0,019
-474,518	-112,816	0,032	0,005
-473,503	-200,000	-0,009	0,273
-472,489	800,000	-0,070	0,143
-471,474	-32,830	0,057	0,022
-470,459	266,850	-0,073	-0,092
-469,445	-92,753	0,045	0,009
-468,430	-200,000	0,003	-0,046
-467,416	4,841	0,067	-0,035
-466,401	-60,719	0,122	0,037
-465,386	-200,000	-0,013	0,106
-464,372	278,154	0,004	-0,006
-463,357	800,000	-0,036	-0,111
-462,343	496,853	-0,029	-0,049
-461,328	-200,000	-0,032	-0,195
-460,313	-200,000	0,013	0,116
-459,299	77,309	0,073	-0,056
-458,284	-175,893	-0,071	0,001
-457,270	-33,794	0,216	-0,085
-456,255	-36,922	-0,112	-0,043
-455,241	-200,000	-0,002	0,013
-454,226	-200,000	-0,004	0,056
-453,211	-200,000	-0,040	-0,142
-452,197	800,000	0,017	-0,050
-451,182	-57,540	0,173	0,054
-450,168	-163,948	0,067	0,002
-449,153	-160,117	0,190	0,007
-448,138	-138,653	-0,104	0,008
-447,124	-142,730	-0,067	-0,005
-446,109	-200,000	0,016	-0,056
-445,095	-200,000	-0,008	0,059
-444,080	-141,480	-0,090	-0,006
-443,065	-200,000	0,021	0,099
-442,051	-99,359	-0,139	-0,025
-441,036	-142,131	-0,153	0,011
-440,022	-200,000	-0,029	-0,155
-439,007	-108,577	0,103	0,016
-437,992	800,000	0,050	0,140
-436,978	-200,000	-0,001	0,064
-435,963	800,000	-0,020	0,055
-434,949	-45,670	0,030	0,011
-433,934	800,000	0,042	-0,092
-432,919	-29,152	-0,085	0,035
-431,905	-200,000	0,005	0,084
-430,890	305,709	0,100	0,134
-429,876	-96,749	0,083	-0,016
-428,861	-124,055	0,165	0,018
-427,846	116,309	-0,068	-0,060
-426,832	-127,515	-0,044	-0,005
-425,817	-200,000	-0,027	0,118
-424,803	-112,852	-0,086	-0,012
-423,788	153,584	0,046	-0,046
-422,773	-200,000	0,022	0,074
-421,759	-102,972	-0,167	-0,028
-420,744	-170,560	0,105	-0,003
-419,730	-60,424	-0,036	0,011
-418,715	-200,000	-0,019	-0,120
-417,701	-149,437	-0,028	0,002
-416,686	3,916	0,068	0,036
-415,671	800,000	0,038	-0,095
-414,657	-23,695	0,027	-0,012
-413,642	120,050	-0,086	0,076
-412,628	110,689	-0,034	0,030
-411,613	338,442	0,062	-0,086
-410,598	219,924	0,063	-0,072
-409,584	-19,997	0,254	0,112
-408,569	-200,000	-0,008	-0,209
-407,555	-200,000	0,019	0,106
-406,540	286,621	0,019	-0,025
-405,525	800,000	0,018	-0,053
-404,511	183,664	-0,048	-0,051
-403,496	-200,000	-0,022	0,113
-402,482	-98,152	-0,121	0,022
-401,467	189,899	-0,086	-0,093
-400,452	63,201	0,108	0,078
-399,438	-200,000	0,034	-0,145
-398,423	-200,000	-0,017	0,099
-397,409	425,059	0,055	0,086
-396,394	-181,940	-0,217	-0,003
-395,379	-163,037	0,075	-0,003
-394,365	-111,625	-0,050	-0,007
-393,350	-200,000	0,009	0,041
-392,336	-200,000	0,015	0,111
-391,321	-200,000	0,010	0,109
-390,306	800,000	0,017	0,049
-389,292	453,440	0,052	0,082
-388,277	19,522	0,125	0,072
-387,263	800,000	0,008	0,022
-386,248	80,507	0,089	0,068
-385,233	-182,723	-0,014	-0,000
-384,219	-200,000	0,000	0,081
-383,204	475,515	-0,031	-0,051
-382,190	800,000	-0,108	-0,232
-381,175	304,860	-0,125	-0,167
-380,160	-26,931	0,126	-0,053
-379,146	-200,000	0,070	-0,000
-378,131	800,000	-0,031	0,083
-377,117	-200,000	-0,027	-0,114
-376,102	-159,107	0,025	0,001
-375,088	-200,000	0,007	0,056
-374,073	39,473	0,016	-0,010
-373,058	-174,795	0,128	0,003
-372,044	-51,213	0,053	-0,018
-371,029	-134,257	-0,094	-0,008
-370,015	609,905	0,035	0,064
-369,000	-48,775	-0,102	-0,035
-367,985	35,642	-0,106	-0,067
-366,971	800,000	0,034	-0,070
-365,956	-86,863	-0,073	-0,016
-364,942	136,935	0,042	0,040
-363,927	800,000	-0,018	-0,044
-362,912	-28,318	-0,082	0,034
-361,898	36,350	0,075	0,047
-360,883	-200,000	0,023	-0,140
-359,869	317,743	-0,033	-0,045
-358,854	-13,156	0,067	-0,031
-357,839	-97,224	0,107	-0,020
-356,825	13,097	-0,027	0,015
-355,810	9,184	-0,113	0,061
-354,796	526,381	0,025	-0,042
-353,781	-88,085	0,063	0,013
-352,766	800,000	0,021	0,043
-351,752	-200,000	-0,010	0,044
-350,737	-200,000	0,000	-0,048
-349,723	27,393	0,078	0,047
-348,708	325,628	0,036	0,049
-347,693	155,774	0,048	-0,048
-346,679	39,876	-0,126	-0,081
-345,664	436,854	-0,039	-0,061
-344,650	-200,000	0,026	-0,112
-343,635	-127,621	0,171	0,018
-342,620	800,000	-0,028	-0,069
-341,606	-23,170	0,013	0,005
-340,591	-132,344	-0,049	-0,004
-339,577	-129,126	-0,087	-0,009
-338,562	-180,377	-0,099	0,001
-337,548	141,312	-0,113	0,107
-336,533	123,817	-0,025	0,023
-335,518	218,493	0,063	0,072
-334,504	50,142	-0,018	-0,012
-333,489	-111,518	-0,117	-0,017
-332,475	3,443	0,030	-0,016
-331,460	-200,000	-0,014	-0,085
-330,445	-187,763	0,161	-0,001
-329,431	18,180	0,116	0,066
-328,416	-41,385	0,044	0,016
-327,402	103,597	0,084	0,070
-326,387	10,608	0,161	0,088
-325,372	-200,000	-0,018	0,077
-324,358	93,034	0,081	0,065
-323,343	-200,000	0,020	0,065
-322,329	-149,956	-0,034	0,002
-321,314	-121,144	0,091	0,011
-320,299	800,000	0,033	0,081
-319,285	-57,727	-0,101	0,031
-318,270	-8,601	0,043	-0,021
-317,256	-200,000	-0,010	0,071
-316,241	28,973	-0,138	-0,083
-315,226	-200,000	0,038	0,147
-314,212	20,660	0,078	0,045
-313,197	-200,000	-0,002	0,114
-312,183	63,294	-0,138	0,099
-311,168	304,245	-0,073	0,098
-310,153	-111,945	-0,090	-0,013
-309,139	301,968	0,032	-0,042
-308,124	-200,000	-0,013	0,087
-307,110	800,000	0,044	0,134
-306,095	-200,000	0,001	0,110
-305,080	-200,000	-0,028	0,180
-304,066	261,141	0,024	-0,029
-303,051	-200,000	-0,002	-0,048
-302,037	800,000	0,029	-0,090
-301,022	741,847	0,072	0,138
-300,008	-200,000	-0,011	0,058
-298,993	800,000	-0,023	0,053
-297,978	800,000	-0,047	0,115
-296,964	313,116	-0,084	-0,113
-295,949	-200,000	-0,013	-0,154
-294,935	148,507	0,062	-0,060
-293,920	-200,000	-0,005	-0,088
-292,905	-21,254	0,052	0,023
-291,891	28,235	0,189	0,114
-290,876	-200,000	-0,003	-0,028
-289,862	-200,000	-0,003	-0,100
-288,847	-57,028	0,087	0,027
-287,832	666,831	-0,013	-0,025
-286,818	800,000	-0,021	0,045
-285,803	34,693	-0,049	0,031
-284,789	2,899	-0,113	0,058
-283,774	-200,000	0,007	-0,023
-282,759	-200,000	-0,013	-0,081
-281,745	-21,171	-0,040	-0,017
-280,730	-81,413	0,087	-0,020
-279,716	800,000	0,037	-0,077
-278,701	800,000	0,019	0,051
-277,686	-200,000	0,022	0,112
-276,672	164,774	0,112	0,113
-275,657	100,447	0,026	-0,021
-274,643	-42,158	0,096	-0,035
-273,628	149,651	-0,055	-0,054
-272,613	23,958	-0,034	0,020
-271,599	800,000	-0,013	0,040
-270,584	10,425	-0,128	0,069
-269,570	800,000	0,093	0,261
-268,555	4,086	-0,077	-0,040
-267,540	240,415	-0,045	-0,053
-266,526	-77,698	-0,101	-0,025
-265,511	-200,000	-0,038	-0,121
-264,497	-200,000	-0,038	-0,136
-263,482	-80,429	0,164	0,039
-262,467	68,266	-0,056	-0,041
-261,453	-35,594	-0,090	0,035
-260,438	-200,000	0,002	-0,091
-259,424	261,976	-0,150	0,186
-258,409	449,475	-0,081	-0,128
-257,395	-200,000	-0,020	0,117
-256,380	-147,240	0,036	-0,002
-255,365	20,371	0,125	0,072
-254,351	85,753	0,138	-0,109
-253,336	64,986	-0,071	-0,051
-252,322	796,267	-0,017	-0,034
-251,307	-200,000	0,004	-0,064
-250,292	228,626	-0,072	0,084
-249,278	800,000	-0,024	-0,053
-248,263	35,323	-0,096	0,060
-247,249	-200,000	-0,002	0,022
-246,234	-200,000	-0,052	-0,165
-245,219	-200,000	0,022	-0,072
-244,205	-200,000	-0,011	0,038
-243,190	189,372	-0,044	0,047
-242,176	1,216	0,150	0,076
-241,161	-200,000	0,034	-0,129
-240,146	800,000	0,007	0,019
-239,132	800,000	-0,025	0,071
-238,117	602,250	-0,048	-0,086
-237,103	-200,000	0,011	0,106
-236,088	-91,099	0,129	0,026
-235,073	148,627	0,044	0,043
-234,059	34,760	-0,043	-0,027
-233,044	1,617	-0,089	-0,045
-232,030	575,231	-0,036	-0,064
-231,015	234,414	-0,041	0,048
-230,000	-22,235	-0,116	0,050
-228,986	78,397	0,203	0,155
-227,971	-200,000	0,025	-0,134
-226,957	-101,606	0,076	0,013
-225,942	-147,312	-0,171	0,010
-224,927	5,378	-0,033	0,017
-223,913	-90,143	-0,124	0,025
-222,898	-200,000	-0,011	-0,052
-221,884	-200,000	0,024	0,084
-220,869	208,907	-0,084	0,094
-219,855	177,273	-0,061	-0,063
-218,840	-200,000	-0,001	0,138
-217,825	800,000	0,033	0,067
-216,811	-200,000	-0,001	-0,087
-215,796	800,000	-0,071	-0,182
-214,782	-162,030	-0,020	0,001
-213,767	143,348	-0,068	-0,064
-212,752	-1,733	0,057	-0,028
-211,738	86,824	0,119	0,093
-210,723	105,267	-0,094	0,079
-209,709	-200,000	-0,017	-0,054
-208,694	192,138	-0,068	-0,073
-207,679	-200,000	-0,047	-0,195
-206,665	-126,723	0,035	0,004
-205,650	538,531	0,077	0,131
-204,636	-43,485	-0,064	0,023
-203,621	21,855	-0,089	0,052
-202,606	800,000	-0,035	-0,090
-201,592	90,098	-0,088	-0,070
-200,577	-36,787	0,041	0,016
-199,563	662,191	-0,058	0,107
-198,548	800,000	-0,035	0,090
-197,533	246,958	-0,042	0,050
-196,519	-87,196	0,055	0,012
-195,504	671,303	-0,063	-0,117
-194,490	800,000	0,049	-0,102
-193,475	-148,542	-0,053	0,003
-192,460	-200,000	0,023	0,233
-191,446	230,427	0,063	0,073
-190,431	-44,919	0,098	-0,034
-189,417	-200,000	-0,022	-0,093
-188,402	-200,000	0,018	-0,150
-187,387	1,991	0,018	-0,009
-186,373	94,396	0,076	0,061
-185,358	386,351	-0,100	-0,148
-184,344	-200,000	-0,009	0,067
-183,329	-141,056	-0,166	0,012
-182,315	-95,100	0,223	0,042
-181,300	-200,000	-0,040	-0,264
-180,285	82,679	-0,088	-0,068
-179,271	-200,000	-0,012	0,092
-178,256	-94,089	-0,097	0,019
-177,242	-200,000	-0,006	0,025
-176,227	-76,106	0,069	0,017
-175,212	215,005	0,007	-0,008
-174,198	283,216	0,072	0,092
-173,183	109,511	0,067	-0,057
-172,169	81,137	-0,057	0,044
-171,154	-15,971	0,069	0,031
-170,139	158,084	-0,035	-0,035
-169,125	160,060	0,054	0,053
-168,110	-59,351	0,150	0,046
-167,096	101,249	-0,078	0,065
-166,081	415,624	0,062	0,094
-165,066	-21,394	-0,105	-0,045
-164,052	120,443	-0,097	-0,086
-163,037	-200,000	-0,013	-0,107
-162,023	-200,000	-0,008	0,133
-161,008	180,618	0,123	0,128
-159,993	104,051	-0,098	-0,081
-158,979	-126,196	-0,051	-0,005
-157,964	-94,862	0,081	-0,016
-156,950	403,036	-0,005	-0,008
-155,935	23,028	0,042	-0,025
-154,920	-25,244	0,175	-0,073
-153,906	-152,626	0,153	-0,008
-152,891	154,879	-0,031	0,031
-151,877	15,383	-0,053	0,029
-150,862	521,324	-0,067	-0,113
-149,847	36,703	-0,129	-0,081
-148,833	-200,000	0,040	0,129
-147,818	503,568	0,048	-0,079
-146,804	274,771	0,033	0,041
-145,789	51,491	0,018	0,012
-144,775	-200,000	-0,013	0,151
-143,760	-32,383	-0,078	0,031
-142,745	134,784	-0,045	-0,041
-141,731	162,343	0,028	0,028
-140,716	800,000	0,026	-0,057
-139,702	173,934	0,066	-0,067
-138,687	-200,000	-0,012	-0,083
-137,672	299,191	0,043	0,057
-136,658	-107,592	-0,131	-0,020
-135,643	-136,006	0,100	-0,008
-134,629	75,921	-0,127	-0,095
-133,614	-0,014	0,177	-0,089
-132,599	-200,000	-0,001	0,018
-131,585	72,049	-0,047	-0,035
-130,570	288,964	-0,021	0,027
-129,556	82,960	-0,064	-0,049
-128,541	-194,202	-0,090	-0,001
-127,526	-200,000	0,017	0,088
-126,512	-200,000	0,051	0,249
-125,497	-49,075	0,199	0,067
-124,483	-173,353	0,070	-0,001
-123,468	-38,903	0,101	0,038
-122,453	-38,781	-0,038	0,014
-121,439	-97,575	-0,089	0,016
-120,424	148,010	-0,075	-0,072
-119,410	11,459	-0,056	0,030
-118,395	-200,000	-0,001	-0,137
-117,380	-74,762	0,125	0,032
-116,366	-200,000	-0,003	0,085
-115,351	126,930	-0,089	0,080
-114,337	800,000	-0,027	-0,059
-113,322	-200,000	0,039	0,219
-112,307	85,644	0,100	0,078
-111,293	-13,412	0,135	-0,062
-110,278	158,839	-0,076	0,075
-109,264	-138,938	0,117	-0,009
-108,249	177,678	-0,084	0,087
-107,234	470,189	-0,041	-0,065
-106,220	72,492	-0,173	-0,128
-105,205	-120,114	0,061	-0,007
-104,191	-200,000	0,009	-0,045
-103,176	85,624	0,013	0,010
-102,162	-200,000	-0,020	-0,062
-101,147	517,282	0,021	0,035
-100,132	-200,000	0,006	0,023
-99,118	-200,000	-0,013	-0,157
-98,103	3,097	-0,068	-0,035
-97,089	-24,622	-0,141	0,059
-96,074	800,000	0,031	0,077
-95,059	103,756	-0,091	-0,076
-94,045	-169,397	-0,112	0,003
-93,030	800,000	0,028	-0,072
-92,016	-200,000	-0,005	0,019
-91,001	-31,078	0,076	0,030
-89,986	-200,000	0,015	-0,058
-88,972	-128,078	0,105	-0,011
-87,957	-200,000	-0,014	-0,084
-86,943	108,723	0,148	0,125
-85,928	461,968	-0,048	-0,076
-84,913	142,202	-0,030	0,028
-83,899	-97,671	0,150	0,027
-82,884	86,550	-0,145	0,113
-81,870	83,577	0,056	0,044
-80,855	261,675	0,149	0,183
-79,840	800,000	-0,020	0,042
-78,826	77,746	-0,072	-0,054
-77,811	362,012	-0,016	0,023
-76,797	-118,666	-0,157	-0,019
-75,782	95,898	0,156	-0,127
-74,767	-43,940	0,131	-0,046
-73,753	-200,000	-0,021	-0,071
-72,738	-200,000	-0,002	-0,051
-71,724	-200,000	-0,034	-0,168
-70,709	-200,000	-0,017	-0,064
-69,694	88,599	-0,061	0,048
-68,680	-158,637	-0,066	-0,003
-67,665	42,571	0,046	0,030
-66,651	28,508	0,095	0,057
-65,636	266,860	-0,053	0,066
-64,622	-133,515	0,122	-0,011
-63,607	800,000	-0,039	-0,104
-62,592	-74,824	0,048	-0,012
-61,578	-200,000	-0,008	0,173
-60,563	-200,000	-0,007	0,032
-59,549	-144,416	0,087	0,006
-58,534	-16,824	-1,615	-0,720
-57,519	439,656	-1,373	-2,131
-56,505	-200,000	-0,556	-4,707
-55,490	164,312	1,025	1,024
-54,476	800,000	4,836	11,424
-53,461	-200,000	18,924	310,489
-52,446	-200,000	738,461	2313,375
-51,432	572,828	1654,609	2867,064
-50,417	79,204	1671,030	1266,764
-49,403	22,020	1544,287	889,656
-48,388	15,941	1466,672	815,392
-47,373	17,861	1456,793	819,148
-46,359	16,918	1447,000	809,083
-45,344	14,136	1442,308	793,101
-44,330	14,027	1440,535	791,571
-43,315	14,076	1438,689	790,760
-42,300	14,021	1437,300	789,703
-41,286	14,132	1435,819	789,388
-40,271	14,081	1434,397	788,332
-39,257	14,018	1433,458	787,483
-38,242	14,100	1432,089	787,093
-37,227	14,128	1430,640	786,394
-36,213	14,112	1429,500	785,662
-35,198	14,131	1428,213	785,013
-34,184	14,118	1427,523	784,543
-33,169	14,052	1426,230	783,487
-32,154	14,111	1425,125	783,129
-31,140	14,088	1423,994	782,366
-30,125	14,134	1422,506	781,734
-29,111	14,148	1421,361	781,141
-28,096	14,097	1420,269	780,270
-27,082	14,067	1419,353	779,596
-26,067	14,056	1418,182	778,870
-25,052	14,091	1417,057	778,386
-24,038	13,959	1416,251	777,290
-23,023	14,036	1415,132	777,006
-22,009	14,057	1413,987	776,446
-20,994	13,950	1413,254	775,511
-19,979	13,992	1412,485	775,256
-18,965	13,960	1411,470	774,515
-17,950	13,952	1410,704	774,030
-16,936	13,960	1409,671	773,469
-15,921	13,910	1408,459	772,538
-14,906	13,922	1407,594	772,092
-13,892	13,949	1406,770	771,732
-12,877	13,916	1405,723	770,974
-11,863	13,961	1404,813	770,655
-10,848	13,944	1404,033	770,117
-9,833	13,856	1403,267	769,256
-8,819	13,864	1402,279	768,720
-7,804	13,896	1401,304	768,305
-6,790	13,843	1400,210	767,428
-5,775	13,877	1399,253	767,030
-4,760	13,826	1398,273	766,226
-3,746	13,828	1397,373	765,711
-2,731	13,812	1396,671	765,220
-1,717	13,849	1395,775	764,874
-0,702	13,791	1394,156	763,689
0,313	17,672	1311,401	736,339
1,327	34,062	705,688	434,199
2,342	52,396	123,982	83,586
3,356	1,693	16,644	8,455
4,371	8,757	3,166	1,683
5,386	-21,858	0,606	0,260
6,400	-200,000	0,029	0,321
7,415	138,785	-0,157	-0,146
8,429	-31,396	-0,332	-0,131
9,444	102,759	-0,411	-0,340
10,459	62,366	-0,347	-0,245
11,473	-24,521	-0,255	-0,107
12,488	-126,067	-0,241	-0,025
13,502	-93,060	-0,395	-0,077
14,517	4,597	-0,300	-0,155
15,531	8,179	-0,556	-0,294
16,546	101,581	-0,329	-0,271
17,561	100,879	-0,366	-0,301
18,575	-170,309	-0,216	-0,005
19,590	135,012	-0,216	-0,198
20,604	22,380	-0,306	-0,176
21,619	65,669	-0,472	-0,337
22,634	122,723	-0,386	-0,341
23,648	107,538	-0,434	-0,365
24,663	140,258	-0,335	-0,312
25,677	99,697	-0,327	-0,267
26,692	92,826	-0,327	-0,260
27,707	114,801	-0,355	-0,306
28,721	120,459	-0,373	-0,327
29,736	500,271	-0,308	-0,504
30,750	124,542	-0,433	-0,385
31,765	173,492	-0,413	-0,421
32,780	75,060	-0,303	-0,225
33,794	-72,043	-0,411	-0,107
34,809	274,227	-0,205	-0,257
35,823	85,738	-0,362	-0,281
36,838	84,605	-0,354	-0,273
37,853	-38,665	-0,462	-0,171
38,867	2,458	-0,311	-0,158
39,882	39,000	-0,377	-0,237
40,896	102,659	-0,290	-0,239
41,911	233,167	-0,326	-0,378
42,926	16,406	-0,359	-0,199
43,940	372,013	-0,365	-0,524
44,955	68,239	-0,532	-0,383
45,969	800,000	-0,145	-0,298
46,984	168,405	-0,269	-0,271
47,999	62,677	-0,266	-0,187
49,013	42,496	-0,344	-0,220
50,028	99,895	-0,240	-0,196
51,042	93,385	-0,348	-0,278
52,057	249,499	-0,209	-0,250
53,071	6,287	-0,522	-0,272
54,086	-69,652	-0,362	-0,097
55,101	37,597	-0,323	-0,201
56,115	108,586	-0,295	-0,248
57,130	-36,310	-0,456	-0,172
58,144	71,183	-0,412	-0,300
59,159	258,746	-0,217	-0,264
60,174	89,624	-0,407	-0,320
61,188	16,779	-0,423	-0,235
62,203	7,117	-0,349	-0,183
63,217	68,478	-0,395	-0,284
64,232	156,364	-0,267	-0,259
65,247	-38,866	-0,433	-0,160
66,261	43,918	-0,300	-0,193
67,276	104,496	-0,400	-0,331
68,290	195,328	-0,330	-0,353
69,305	199,788	-0,295	-0,319
70,320	684,454	-0,180	-0,332
71,334	-10,295	-0,292	-0,136
72,349	272,823	-0,199	-0,248
73,363	164,526	-0,268	-0,266
74,378	155,098	-0,287	-0,278
75,393	42,357	-0,388	-0,247
76,407	48,391	-0,304	-0,200
77,422	-5,309	-0,262	-0,126
78,436	-26,698	-0,343	-0,140
79,451	23,651	-0,195	-0,113
80,466	8,975	-0,284	-0,150
81,480	18,741	-0,462	-0,259
82,495	80,594	-0,282	-0,213
83,509	14,838	-0,223	-0,122
84,524	78,993	-0,196	-0,147
85,539	274,751	-0,149	-0,186
86,553	6,878	-0,255	-0,133
87,568	103,692	-0,260	-0,214
88,582	31,578	-0,287	-0,173
89,597	124,011	-0,251	-0,222
90,611	163,603	-0,257	-0,254
91,626	56,120	-0,407	-0,277
92,641	239,613	-0,207	-0,242
93,655	2,124	-0,201	-0,102
94,670	425,472	-0,196	-0,297
95,684	176,635	-0,277	-0,283
96,699	353,564	-0,242	-0,339
97,714	8,127	-0,215	-0,113
98,728	46,289	-0,211	-0,137
99,743	2,255	-0,255	-0,129
100,757	-32,377	-0,239	-0,093
101,772	6,881	-0,319	-0,166
102,787	53,581	-0,345	-0,232
103,801	-29,307	-0,324	-0,129
104,816	47,650	-0,218	-0,142
105,830	394,929	-0,177	-0,259
106,845	-46,803	-0,215	-0,073
107,860	75,665	-0,170	-0,126
108,874	-1,392	-0,281	-0,139
109,889	242,077	-0,217	-0,255
110,903	224,951	-0,234	-0,266
111,918	17,862	-0,381	-0,212
112,933	18,258	-0,279	-0,156
113,947	194,752	-0,203	-0,216
114,962	187,171	-0,161	-0,168
115,976	46,532	-0,285	-0,185
116,991	140,295	-0,263	-0,243
118,006	18,052	-0,345	-0,192
119,020	33,162	-0,225	-0,136
120,035	103,609	-0,253	-0,208
121,049	102,833	-0,225	-0,185
122,064	220,167	-0,286	-0,321
123,079	162,179	-0,324	-0,318
124,093	46,998	-0,414	-0,269
125,108	50,436	-0,226	-0,149
126,122	126,645	-0,305	-0,270
127,137	104,735	-0,097	0,080
128,151	-88,581	-0,347	-0,072
129,166	76,434	-0,086	-0,064
130,181	-110,795	-0,290	-0,041
131,195	38,680	-0,161	-0,101
132,210	-69,148	-0,257	-0,069
133,224	65,708	-0,232	-0,164
134,239	800,000	-0,102	-0,202
135,254	470,283	-0,131	-0,207
136,268	-43,784	-0,362	-0,127
137,283	117,678	-0,258	-0,222
138,297	-80,694	-0,276	-0,064
139,312	-26,391	-0,173	-0,070
140,327	154,170	-0,243	-0,234
141,341	-200,000	-0,090	-0,289
142,356	14,800	-0,305	-0,166
143,370	225,375	-0,110	-0,124
144,385	36,526	-0,194	-0,120
145,400	-64,229	-0,250	-0,071
146,414	52,392	-0,238	-0,159
147,429	103,437	-0,347	-0,284
148,443	154,597	-0,163	-0,156
149,458	-12,229	-0,195	-0,089
150,473	-81,429	-0,294	-0,067
151,487	48,195	-0,179	-0,117
152,502	86,879	-0,247	-0,190
153,516	109,052	-0,277	-0,231
154,531	35,834	-0,236	-0,145
155,546	21,104	-0,281	-0,159
156,560	-42,191	-0,336	-0,119
157,575	-14,375	-0,285	-0,127
158,589	258,165	-0,147	-0,177
159,604	187,746	-0,176	-0,184
160,619	72,764	-0,378	-0,275
161,633	104,637	-0,264	-0,217
162,648	198,322	-0,102	-0,109
163,662	18,183	-0,163	-0,091
164,677	98,536	-0,297	-0,239
165,692	-110,147	-0,289	-0,042
166,706	30,938	-0,218	-0,130
167,721	128,067	-0,214	-0,190
168,735	252,345	-0,290	-0,345
169,750	-45,022	-0,269	-0,093
170,764	85,895	-0,167	-0,128
171,779	-2,035	-0,243	-0,119
172,794	75,373	-0,261	-0,192
173,808	-18,540	-0,213	-0,092
174,823	114,433	-0,339	-0,287
175,837	39,004	-0,272	-0,169
176,852	-54,816	-0,286	-0,089
177,867	-61,319	-0,259	-0,076
178,881	249,488	-0,122	-0,144
179,896	429,838	-0,174	-0,263
180,910	277,775	-0,181	-0,225
181,925	410,624	-0,195	-0,289
182,940	-76,201	-0,351	-0,085
183,954	165,515	-0,203	-0,200
184,969	-141,083	-0,226	-0,016
185,983	82,365	-0,172	-0,130
186,998	-41,564	-0,256	-0,091
188,013	178,763	-0,164	-0,167
189,027	27,309	-0,257	-0,150
190,042	-34,528	-0,278	-0,105
191,056	99,162	-0,340	-0,273
192,071	800,000	-0,096	-0,205
193,086	-105,129	-0,090	-0,014
194,100	-84,167	-0,309	-0,068
195,115	-113,250	-0,323	-0,044
196,129	800,000	-0,110	-0,228
197,144	181,197	-0,244	-0,249
198,159	75,026	-0,263	-0,193
199,173	230,336	-0,125	-0,143
200,188	183,890	-0,192	-0,198
201,202	113,751	-0,166	-0,140
202,217	24,573	-0,248	-0,142
203,232	138,442	-0,191	-0,175
204,246	474,802	-0,132	-0,208
205,261	-151,120	-0,337	0,017
206,275	498,637	-0,128	-0,206
207,290	-48,402	-0,107	-0,036
208,304	300,109	-0,144	-0,185
209,319	-25,618	-0,300	-0,122
210,334	-38,871	-0,192	-0,070
211,348	-48,730	-0,232	-0,077
212,363	76,511	-0,269	-0,198
213,377	-19,613	-0,191	-0,082
214,392	800,000	-0,042	-0,096
215,407	-32,504	-0,195	-0,075
216,421	-200,000	-0,017	-0,144
217,436	238,075	-0,157	-0,182
218,450	153,251	-0,179	-0,171
219,465	57,046	-0,231	-0,156
220,480	192,863	-0,099	-0,104
221,494	655,338	-0,157	-0,281
222,509	-53,748	-0,276	-0,087
223,523	724,525	-0,113	-0,210
224,538	187,421	-0,088	-0,091
225,553	29,912	-0,261	-0,154
226,567	28,279	-0,191	-0,112
227,582	-53,332	-0,161	-0,051
228,596	-102,074	-0,156	-0,026
229,611	800,000	-0,047	-0,091
230,626	203,278	-0,115	0,123
231,640	19,583	-0,086	-0,048
232,655	180,453	-0,186	-0,189
233,669	532,341	-0,173	-0,285
234,684	526,534	-0,166	-0,273
235,699	-94,849	-0,242	-0,045
236,713	800,000	-0,064	-0,132
237,728	-200,000	0,010	-0,300
238,742	229,793	-0,140	-0,159
239,757	-121,890	-0,227	-0,026
240,772	323,690	-0,144	-0,191
241,786	-29,828	-0,225	-0,088
242,801	576,222	0,034	0,057
243,815	160,459	-0,140	-0,135
244,830	-45,632	-0,147	-0,050
245,844	205,361	-0,207	-0,223
246,859	236,569	-0,115	-0,132
247,874	10,069	-0,284	-0,149
248,888	160,743	-0,217	-0,210
249,903	85,595	-0,232	-0,176
250,917	-38,617	-0,121	-0,044
251,932	239,094	-0,083	-0,096
252,947	-76,879	-0,148	-0,035
253,961	116,101	-0,099	-0,084
254,976	46,915	-0,204	-0,131
255,990	80,401	-0,316	-0,235
257,005	33,968	-0,259	-0,156
258,020	45,800	-0,222	-0,142
259,034	-169,022	-0,215	0,005
260,049	-48,597	-0,202	-0,067
261,063	38,642	-0,171	-0,106
262,078	800,000	-0,099	-0,230
263,093	33,075	-0,328	-0,196
264,107	264,550	-0,135	-0,163
265,122	20,697	-0,195	-0,109
266,136	87,823	-0,166	-0,127
267,151	182,163	-0,125	-0,128
268,166	103,241	-0,200	-0,162
269,180	800,000	-0,069	-0,184
270,195	23,925	-0,163	-0,092
271,209	-100,345	-0,092	0,016
272,224	-37,461	-0,052	0,019
273,239	-184,857	-0,108	-0,001
274,253	207,908	-0,143	-0,154
275,268	151,194	-0,206	-0,194
276,282	782,199	-0,112	-0,213
277,297	-45,010	-0,233	-0,080
278,312	208,591	-0,161	-0,174
279,326	-139,762	-0,166	0,012
280,341	141,205	-0,032	-0,029
281,355	-200,000	-0,012	-0,072
282,370	-3,068	-0,096	0,046
283,384	57,378	-0,167	-0,113
284,399	266,737	-0,092	-0,112
285,414	152,826	-0,196	-0,185
286,428	-2,171	-0,129	-0,062
287,443	-107,811	-0,192	-0,029
288,457	-27,098	-0,196	-0,078
289,472	-52,373	-0,171	-0,054
290,487	-53,195	-0,176	-0,055
291,501	124,962	-0,188	-0,163
292,516	-6,725	-0,140	-0,065
293,530	234,205	-0,077	-0,087
294,545	-200,000	-0,018	0,111
295,560	116,498	-0,159	-0,134
296,574	129,722	-0,173	-0,153
297,589	77,780	-0,082	-0,060
298,603	156,314	-0,117	-0,111
299,618	-36,957	-0,191	-0,070
300,633	-138,995	-0,078	0,006
301,647	737,601	-0,073	-0,135
302,662	-8,577	-0,034	-0,016
303,676	34,629	-0,083	-0,050
304,691	90,188	-0,155	-0,119
305,706	-103,252	-0,211	0,034
306,720	-86,613	-0,205	-0,043
307,735	128,570	-0,109	-0,095
308,749	800,000	-0,112	-0,293
309,764	-102,841	-0,104	0,017
310,779	-200,000	-0,002	-0,093
311,793	85,022	-0,101	-0,076
312,808	-55,594	-0,195	-0,060
313,822	89,333	-0,199	-0,153
314,837	124,545	-0,207	-0,180
315,852	183,619	-0,045	-0,046
316,866	-84,853	-0,096	0,021
317,881	139,571	-0,186	-0,169
318,895	17,126	-0,201	-0,109
319,910	800,000	-0,035	-0,089
320,925	800,000	-0,070	-0,156
321,939	-200,000	-0,013	-0,109
322,954	241,508	-0,134	-0,154
323,968	327,333	-0,032	0,042
324,983	-200,000	-0,016	-0,175
325,997	-200,000	-0,007	-0,181
327,012	310,735	-0,149	-0,192
328,027	-200,000	-0,064	-0,289
329,041	138,769	-0,115	-0,104
330,056	-200,000	-0,010	-0,222
331,070	429,398	-0,126	-0,188
332,085	36,351	-0,147	-0,089
333,100	-69,384	-0,260	-0,068
334,114	-200,000	-0,023	-0,125
335,129	49,392	-0,287	-0,185
336,143	149,139	-0,112	-0,104
337,158	432,433	-0,173	-0,258
338,173	20,677	-0,099	-0,055
339,187	-100,955	-0,178	-0,030
340,202	235,643	-0,112	-0,127
341,216	115,110	-0,294	-0,247
342,231	-18,637	-0,132	-0,056
343,246	-90,391	-0,139	0,027
344,260	-64,669	-0,068	-0,019
345,275	288,790	-0,090	-0,113
346,289	-65,493	-0,165	-0,045
347,304	-177,206	-0,223	0,004
348,319	-200,000	-0,006	0,072
349,333	-114,137	-0,089	-0,012
350,348	620,258	-0,157	-0,272
351,362	12,306	-0,265	-0,139
352,377	800,000	-0,054	-0,143
353,392	-113,350	-0,081	0,011
354,406	-51,413	-0,223	-0,071
355,421	209,000	1315,821	1415,108
356,435	160,828	1476,709	1415,593
