DTS Sentinel unit serial number:	SN410029Multiplexer serial number:	ORYXHardware model number:	OX2-SRSoftware version number:	ORYX F/W v4,00 Oryx Data Collector v3.7.2.0data status	okinstallation	B3 Nyhavnadifferential loss correction	single-endedforward channel	channel 1reverse channel	N/Adate	2023/11/29time	07:57:30forward acquisition time	300,00reverse acquisition time	0,00gamma	499,1914k internal	0,3212k external	0,3212temperature offset calibration	1,0000default loss term (dB/km)	0,3820temperature slope calibration	1,0000multiplexer offset coefficient	1,0000multiplexer slope coefficient	1,0000fibre end	0,00T internal ref (°C)	8,87T ext. ref 1 (°C)	-6,37T ext. ref 2 (°C)	-6,46length (m)	temperature (°C)	Stokes	anti-Stokes-744,400	231,916	-0,194	-0,231
-743,385	800,000	-0,062	0,191
-742,371	277,089	-0,083	-0,108
-741,356	-200,000	-0,050	0,267
-740,342	-97,677	-0,250	-0,047
-739,327	-200,000	-0,001	0,217
-738,312	-200,000	-0,037	-0,334
-737,298	-200,000	-0,046	0,293
-736,283	27,521	-0,212	-0,129
-735,269	-200,000	0,000	0,326
-734,254	-77,866	-0,250	-0,062
-733,239	3,672	-0,272	0,144
-732,225	-6,769	-0,175	-0,086
-731,210	8,754	0,213	0,116
-730,196	249,050	-0,087	-0,107
-729,181	800,000	-0,051	-0,108
-728,167	-200,000	0,003	-0,022
-727,152	-200,000	-0,014	-0,061
-726,137	-200,000	0,030	-0,122
-725,123	4,442	0,096	0,051
-724,108	-127,122	-0,163	-0,017
-723,094	-200,000	-0,020	-0,107
-722,079	800,000	-0,037	-0,092
-721,064	199,596	-0,078	-0,087
-720,050	72,983	0,021	-0,016
-719,035	-200,000	-0,006	-0,059
-718,021	626,281	-0,006	-0,011
-717,006	800,000	-0,050	-0,143
-715,991	327,556	0,033	-0,046
-714,977	-93,974	-0,202	-0,040
-713,962	800,000	0,024	0,071
-712,948	179,394	0,151	0,160
-711,933	256,393	-0,015	-0,019
-710,918	-40,381	0,056	0,021
-709,904	-200,000	-0,019	-0,088
-708,889	-130,756	-0,088	0,008
-707,875	488,081	0,096	-0,159
-706,860	-200,000	-0,034	0,118
-705,845	167,013	0,016	-0,017
-704,831	289,057	-0,056	0,073
-703,816	-24,571	-0,072	0,031
-702,802	800,000	0,068	-0,175
-701,787	52,046	-0,085	0,059
-700,772	78,063	-0,181	-0,140
-699,758	-124,482	0,167	0,019
-698,743	130,699	0,117	0,109
-697,729	800,000	0,020	0,049
-696,714	34,825	-0,124	0,078
-695,699	-20,921	0,040	-0,017
-694,685	116,947	0,020	0,018
-693,670	-200,000	-0,003	0,017
-692,656	252,929	-0,090	0,112
-691,641	91,602	0,134	0,109
-690,627	417,521	0,044	0,068
-689,612	303,406	0,024	0,033
-688,597	-200,000	0,008	-0,029
-687,583	-15,393	0,106	-0,049
-686,568	-200,000	0,004	-0,153
-685,554	680,079	-0,053	-0,100
-684,539	-200,000	0,007	-0,041
-683,524	4,227	-0,068	-0,036
-682,510	-200,000	-0,042	0,174
-681,495	-87,981	-0,116	0,025
-680,481	134,527	0,081	0,076
-679,466	-200,000	-0,010	-0,033
-678,451	-144,558	-0,108	0,007
-677,437	-200,000	0,021	0,082
-676,422	196,732	0,103	0,114
-675,408	431,536	-0,050	0,078
-674,393	-200,000	-0,018	-0,071
-673,378	800,000	-0,002	-0,007
-672,364	-200,000	-0,019	0,073
-671,349	800,000	-0,027	0,055
-670,335	800,000	0,041	0,132
-669,320	800,000	0,049	0,102
-668,305	410,663	-0,028	0,044
-667,291	157,266	0,044	-0,044
-666,276	106,838	-0,033	-0,029
-665,262	205,971	-0,050	0,056
-664,247	37,106	-0,067	0,043
-663,232	130,842	-0,070	0,065
-662,218	800,000	-0,020	-0,060
-661,203	22,565	0,102	0,060
-660,189	-200,000	-0,001	0,122
-659,174	-26,480	-0,167	0,070
-658,159	-13,031	-0,115	-0,054
-657,145	13,703	-0,069	0,039
-656,130	800,000	-0,044	-0,110
-655,116	659,617	0,074	0,139
-654,101	-115,559	-0,067	0,009
-653,086	18,882	-0,028	0,016
-652,072	147,226	-0,035	-0,034
-651,057	-200,000	-0,012	-0,111
-650,043	421,130	-0,023	-0,036
-649,028	800,000	-0,024	0,065
-648,014	-31,746	0,098	0,039
-646,999	-56,238	-0,064	-0,020
-645,984	-137,009	-0,060	-0,005
-644,970	307,515	0,033	0,045
-643,955	-65,971	0,165	-0,047
-642,941	-200,000	0,020	-0,073
-641,926	-200,000	-0,010	-0,087
-640,911	-73,510	0,156	-0,041
-639,897	435,585	-0,054	-0,085
-638,882	-134,948	0,108	-0,009
-637,868	13,695	0,024	0,013
-636,853	-3,431	-0,158	-0,079
-635,838	-119,270	-0,209	-0,026
-634,824	109,802	-0,044	0,038
-633,809	-200,000	-0,023	-0,093
-632,795	-16,110	0,058	0,027
-631,780	-105,976	-0,111	-0,018
-630,765	-1,371	-0,191	-0,097
-629,751	360,083	-0,068	-0,099
-628,736	800,000	-0,047	0,099
-627,722	-200,000	0,010	-0,076
-626,707	490,341	-0,057	0,095
-625,692	-200,000	-0,011	0,075
-624,678	594,710	-0,050	0,090
-623,663	229,647	-0,029	-0,035
-622,649	114,316	-0,056	-0,050
-621,634	18,828	-0,096	0,055
-620,619	-200,000	0,000	-0,093
-619,605	2,985	0,118	0,061
-618,590	-0,578	0,078	0,040
-617,576	445,190	0,045	-0,072
-616,561	-200,000	0,010	-0,112
-615,546	151,651	-0,039	-0,038
-614,532	262,398	-0,080	-0,101
-613,517	106,475	-0,039	-0,034
-612,503	84,055	-0,096	0,076
-611,488	629,336	0,060	0,109
-610,474	676,213	-0,022	0,041
-609,459	-107,210	-0,045	0,007
-608,444	-41,121	-0,119	0,044
-607,430	500,090	0,069	-0,114
-606,415	-200,000	-0,032	-0,102
-605,401	177,078	0,056	0,058
-604,386	-130,116	0,071	-0,007
-603,371	-41,327	0,103	0,038
-602,357	270,874	0,078	-0,099
-601,342	36,219	-0,097	0,062
-600,328	361,163	-0,055	-0,080
-599,313	-200,000	0,014	-0,118
-598,298	800,000	0,034	0,079
-597,284	-200,000	-0,021	0,085
-596,269	-200,000	-0,015	-0,103
-595,255	-99,477	-0,132	-0,024
-594,240	-61,193	-0,053	0,016
-593,225	-130,442	-0,224	-0,022
-592,211	800,000	0,027	-0,060
-591,196	-71,767	-0,079	-0,021
-590,182	434,595	0,065	0,103
-589,167	-200,000	0,025	-0,163
-588,152	-200,000	0,006	0,047
-587,138	780,828	-0,069	0,136
-586,123	-71,841	0,024	-0,006
-585,109	-200,000	-0,010	-0,046
-584,094	79,853	0,056	-0,043
-583,079	215,037	0,073	0,083
-582,065	-200,000	0,009	0,180
-581,050	19,028	-0,118	0,068
-580,036	800,000	0,018	-0,050
-579,021	-168,803	-0,044	0,001
-578,006	-74,711	-0,081	-0,021
-576,992	-106,029	0,125	0,020
-575,977	-200,000	0,006	-0,083
-574,963	660,726	-0,069	0,128
-573,948	-200,000	-0,005	0,139
-572,934	-200,000	0,010	0,036
-571,919	-200,000	-0,019	-0,079
-570,904	800,000	-0,040	0,090
-569,890	-159,726	0,083	-0,003
-568,875	-71,016	0,195	-0,052
-567,861	407,194	0,108	0,165
-566,846	-81,168	-0,044	-0,010
-565,831	322,896	0,033	0,046
-564,817	-200,000	0,012	-0,116
-563,802	800,000	0,055	0,134
-562,788	-200,000	-0,016	0,055
-561,773	-200,000	0,012	-0,106
-560,758	103,460	0,093	0,078
-559,744	-200,000	0,041	0,185
-558,729	-200,000	-0,030	0,097
-557,715	-200,000	-0,044	-0,169
-556,700	433,762	0,007	0,011
-555,685	366,947	0,040	-0,058
-554,671	444,481	-0,082	0,130
-553,656	-63,627	0,081	0,024
-552,642	-85,654	-0,075	-0,017
-551,627	-200,000	-0,009	0,093
-550,612	-200,000	-0,013	-0,198
-549,598	800,000	-0,072	-0,153
-548,583	200,274	-0,068	-0,075
-547,569	-160,755	-0,081	0,003
-546,554	-169,319	0,025	-0,001
-545,539	-86,144	-0,137	0,030
-544,525	-200,000	0,003	0,040
-543,510	-200,000	-0,031	-0,234
-542,496	363,920	-0,064	-0,093
-541,481	-200,000	0,034	-0,115
-540,466	772,261	0,029	0,057
-539,452	119,593	0,030	-0,027
-538,437	289,822	0,069	0,090
-537,423	800,000	-0,018	-0,054
-536,408	-200,000	-0,006	0,118
-535,393	48,253	-0,077	-0,052
-534,379	-177,175	0,037	-0,001
-533,364	-156,684	0,045	0,002
-532,350	-154,071	-0,092	-0,004
-531,335	64,869	-0,081	-0,059
-530,321	86,632	0,065	0,052
-529,306	621,519	-0,031	-0,056
-528,291	800,000	-0,054	-0,155
-527,277	-62,319	-0,052	-0,015
-526,262	800,000	0,041	-0,099
-525,248	25,753	-0,138	-0,083
-524,233	-200,000	0,005	0,026
-523,218	-200,000	0,022	0,081
-522,204	141,399	0,123	0,117
-521,189	800,000	0,056	-0,118
-520,175	-24,324	0,123	-0,052
-519,160	800,000	-0,043	-0,136
-518,145	800,000	-0,040	0,106
-517,131	121,722	-0,078	0,070
-516,116	-65,894	0,020	0,006
-515,102	37,879	-0,116	0,074
-514,087	318,496	-0,060	0,082
-513,072	-81,552	-0,072	0,017
-512,058	-18,365	-0,048	-0,021
-511,043	-130,861	-0,013	0,001
-510,029	-139,012	0,099	-0,008
-509,014	560,017	-0,051	0,089
-507,999	73,611	0,100	-0,075
-506,985	-133,332	-0,114	-0,010
-505,970	30,640	-0,071	-0,044
-504,956	-200,000	0,012	-0,089
-503,941	-200,000	0,014	0,216
-502,926	-14,371	0,121	0,056
-501,912	-28,991	0,125	-0,051
-500,897	219,529	0,095	0,109
-499,883	-88,759	0,106	0,022
-498,868	-200,000	0,004	-0,171
-497,853	216,375	-0,014	-0,016
-496,839	504,849	0,076	0,127
-495,824	-112,789	0,126	-0,018
-494,810	-200,000	-0,025	0,091
-493,795	-22,460	-0,076	0,033
-492,781	693,280	-0,018	-0,034
-491,766	138,752	0,012	0,011
-490,751	-200,000	-0,002	0,007
-489,737	-200,000	-0,004	-0,119
-488,722	-21,928	0,139	0,061
-487,708	89,740	0,109	0,087
-486,693	179,812	0,036	0,038
-485,678	-105,849	-0,121	0,019
-484,664	-71,359	-0,061	0,016
-483,649	155,419	0,056	-0,055
-482,635	125,846	0,036	-0,032
-481,620	-200,000	-0,006	0,104
-480,605	-200,000	-0,004	-0,070
-479,591	-200,000	0,018	-0,072
-478,576	-200,000	0,013	-0,048
-477,562	-104,231	-0,068	-0,011
-476,547	800,000	-0,027	-0,082
-475,532	306,715	-0,067	0,090
-474,518	-3,682	-0,068	0,034
-473,503	-167,325	0,126	0,004
-472,489	-52,316	0,072	-0,024
-471,474	25,816	-0,103	-0,062
-470,459	-158,628	-0,139	0,006
-469,445	-30,673	0,060	-0,024
-468,430	257,941	-0,065	0,080
-467,416	94,768	-0,095	-0,078
-466,401	131,412	-0,059	-0,054
-465,386	-64,027	-0,049	0,014
-464,372	-12,729	-0,085	0,040
-463,357	13,963	-0,093	-0,052
-462,343	293,240	0,073	-0,096
-461,328	70,528	0,011	-0,008
-460,313	165,230	0,162	0,165
-459,299	26,066	-0,057	0,034
-458,284	433,478	0,098	0,152
-457,270	100,059	0,109	0,090
-456,255	-135,172	-0,092	0,008
-455,241	301,665	-0,072	-0,096
-454,226	426,270	-0,033	-0,051
-453,211	-147,667	-0,104	0,006
-452,197	-81,846	0,041	0,010
-451,182	-200,000	0,012	0,041
-450,168	800,000	-0,028	0,067
-449,153	-200,000	0,007	0,162
-448,138	-153,768	-0,121	0,006
-447,124	800,000	-0,028	0,057
-446,109	-96,691	0,049	0,009
-445,095	-4,332	-0,091	0,045
-444,080	-200,000	-0,011	0,093
-443,065	-200,000	0,015	0,056
-442,051	800,000	0,019	-0,041
-441,036	-200,000	0,000	-0,026
-440,022	502,392	0,083	-0,138
-439,007	800,000	0,082	-0,190
-437,992	-34,310	-0,034	0,013
-436,978	800,000	-0,043	0,115
-435,963	43,797	0,071	0,047
-434,949	456,327	-0,078	0,124
-433,934	357,806	0,016	0,023
-432,919	-12,490	-0,106	-0,049
-431,905	800,000	-0,042	-0,108
-430,890	-147,587	0,175	-0,010
-429,876	54,057	0,052	-0,036
-428,861	17,050	0,142	-0,080
-427,846	-200,000	-0,005	0,034
-426,832	25,401	-0,031	-0,018
-425,817	130,521	0,053	0,049
-424,803	-200,000	0,005	-0,069
-423,788	800,000	0,065	0,155
-422,773	293,307	0,039	0,052
-421,759	376,114	-0,071	0,104
-420,744	100,173	-0,044	0,037
-419,730	-28,235	-0,085	0,035
-418,715	-96,956	-0,190	0,035
-417,701	-57,236	0,114	0,036
-416,686	447,938	-0,033	-0,053
-415,671	82,965	-0,106	0,083
-414,657	-58,011	0,048	-0,015
-413,642	-45,829	-0,008	0,003
-412,628	800,000	-0,049	-0,147
-411,613	-150,775	-0,065	0,003
-410,598	-200,000	-0,013	-0,095
-409,584	-200,000	-0,009	0,157
-408,569	376,362	0,007	-0,011
-407,555	-200,000	0,002	0,159
-406,540	103,302	0,018	-0,015
-405,525	-118,528	-0,038	-0,005
-404,511	-83,373	-0,124	0,028
-403,496	99,635	0,059	0,049
-402,482	428,049	0,035	0,054
-401,467	-200,000	0,009	0,085
-400,452	24,757	0,121	-0,071
-399,438	-58,011	0,142	0,044
-398,423	160,459	-0,084	0,084
-397,409	-200,000	0,002	-0,048
-396,394	-61,047	0,111	-0,033
-395,379	260,800	0,098	-0,122
-394,365	73,112	0,070	0,052
-393,350	69,978	-0,113	0,084
-392,336	-159,877	0,118	-0,005
-391,321	800,000	-0,071	-0,177
-390,306	-1,397	-0,053	0,027
-389,292	-200,000	-0,015	-0,145
-388,277	-200,000	-0,009	0,038
-387,263	-27,623	0,134	-0,055
-386,248	-10,462	0,056	0,026
-385,233	-38,042	-0,129	0,049
-384,219	171,170	0,058	-0,060
-383,204	-200,000	0,002	-0,252
-382,190	800,000	0,022	0,066
-381,175	800,000	-0,043	-0,087
-380,160	85,618	-0,072	0,056
-379,146	-24,874	0,086	-0,036
-378,131	76,091	-0,030	-0,023
-377,117	800,000	0,057	-0,158
-376,102	36,037	0,070	-0,044
-375,088	-136,578	0,033	-0,003
-374,073	-128,623	-0,118	0,012
-373,058	438,153	0,007	0,011
-372,044	-200,000	0,014	-0,059
-371,029	-3,122	-0,034	0,017
-370,015	-200,000	-0,043	-0,150
-369,000	-134,915	-0,104	-0,009
-367,985	800,000	-0,065	-0,141
-366,971	-200,000	-0,001	-0,064
-365,956	-200,000	-0,001	0,099
-364,942	-200,000	0,048	0,153
-363,927	9,120	0,002	-0,001
-362,912	-200,000	0,021	0,156
-361,898	-47,935	-0,052	0,018
-360,883	-122,391	-0,099	-0,011
-359,869	-200,000	-0,008	0,085
-358,854	800,000	0,013	-0,028
-357,839	66,639	-0,024	-0,017
-356,825	-124,209	0,158	-0,017
-355,810	129,394	0,048	0,044
-354,796	701,888	0,075	-0,143
-353,781	-200,000	0,019	0,073
-352,766	-200,000	0,036	-0,124
-351,752	800,000	-0,075	-0,227
-350,737	-107,470	0,045	0,007
-349,723	-200,000	-0,009	0,081
-348,708	-11,152	0,020	0,009
-347,693	80,789	-0,159	-0,122
-346,679	800,000	0,025	0,060
-345,664	137,099	0,068	0,064
-344,650	-200,000	0,036	0,131
-343,635	46,094	-0,118	-0,078
-342,620	18,482	0,106	0,060
-341,606	708,713	0,073	0,139
-340,591	-150,410	-0,076	-0,004
-339,577	18,454	-0,095	0,054
-338,562	800,000	-0,021	0,055
-337,548	-200,000	-0,008	0,059
-336,533	-200,000	0,025	0,101
-335,518	497,009	0,018	-0,030
-334,504	-200,000	-0,006	-0,100
-333,489	-81,622	-0,025	0,006
-332,475	94,079	-0,050	-0,040
-331,460	-22,931	-0,113	0,048
-330,445	-170,284	0,062	0,002
-329,431	800,000	-0,014	0,041
-328,416	18,756	0,148	-0,085
-327,402	118,656	0,060	0,053
-326,387	-12,849	0,111	-0,051
-325,372	409,712	0,062	-0,094
-324,358	-9,293	0,097	0,046
-323,343	108,123	-0,014	-0,012
-322,329	-62,829	0,104	0,030
-321,314	-199,305	0,028	0,000
-320,299	-19,326	0,046	0,020
-319,285	-141,219	0,152	-0,011
-318,270	101,900	-0,078	0,065
-317,256	-200,000	-0,036	0,144
-316,241	-200,000	-0,005	0,077
-315,226	-173,920	0,116	-0,002
-314,212	-200,000	-0,100	0,000
-313,197	107,393	0,076	-0,064
-312,183	190,426	0,011	0,012
-311,168	-79,336	-0,107	-0,026
-310,153	-200,000	-0,013	0,095
-309,139	-200,000	-0,008	-0,064
-308,124	-116,428	-0,104	0,014
-307,110	-26,372	0,124	-0,052
-306,095	230,317	-0,055	0,065
-305,080	800,000	-0,040	0,118
-304,066	368,414	-0,011	-0,016
-303,051	244,897	0,115	-0,138
-302,037	682,749	-0,046	-0,086
-301,022	424,515	-0,068	-0,105
-300,008	-103,356	0,083	0,014
-298,993	-45,188	0,176	0,062
-297,978	800,000	0,049	0,111
-296,964	800,000	0,025	-0,066
-295,949	-142,420	-0,057	0,004
-294,935	-200,000	0,013	-0,077
-293,920	800,000	0,014	-0,030
-292,905	23,900	0,066	0,039
-291,891	800,000	0,032	-0,070
-290,876	-58,863	0,025	0,008
-289,862	53,646	-0,056	0,038
-288,847	239,338	0,033	-0,039
-287,832	483,711	-0,046	-0,075
-286,818	-52,181	-0,064	-0,021
-285,803	-144,112	-0,030	0,002
-284,789	4,715	0,146	-0,076
-283,774	800,000	-0,025	-0,059
-282,759	240,176	0,071	0,085
-281,745	-124,269	-0,084	0,009
-280,730	-200,000	-0,010	-0,064
-279,716	280,932	0,057	0,073
-278,701	520,889	0,086	0,145
-277,686	-120,318	-0,081	-0,010
-276,672	0,274	-0,042	0,021
-275,657	-200,000	0,053	0,183
-274,643	6,349	0,034	0,018
-273,628	721,954	-0,034	-0,065
-272,613	665,495	-0,026	0,048
-271,599	-126,118	0,096	-0,010
-270,584	-46,608	0,044	0,015
-269,570	-97,904	0,058	-0,011
-268,555	-66,296	0,061	-0,017
-267,540	-22,325	-0,056	0,024
-266,526	182,429	-0,123	-0,129
-265,511	800,000	0,044	-0,136
-264,497	103,707	-0,061	0,051
-263,482	-200,000	0,040	0,217
-262,467	-200,000	0,048	0,191
-261,453	800,000	-0,044	-0,091
-260,438	157,039	-0,096	0,095
-259,424	800,000	0,043	-0,118
-258,409	800,000	-0,060	0,135
-257,395	-117,764	0,117	-0,015
-256,380	-200,000	0,018	-0,071
-255,365	-200,000	0,029	0,127
-254,351	-200,000	-0,036	-0,150
-253,336	74,674	0,059	-0,044
-252,322	147,391	-0,085	0,082
-251,307	409,327	-0,100	0,151
-250,292	-87,634	0,057	-0,012
-249,278	800,000	0,054	0,127
-248,263	25,241	-0,033	-0,020
-247,249	-111,542	-0,075	0,011
-246,234	-200,000	-0,009	0,078
-245,219	23,097	0,149	-0,087
-244,205	-105,931	0,054	0,009
-243,190	21,376	-0,074	-0,043
-242,176	-200,000	-0,011	0,092
-241,161	14,269	0,067	-0,037
-240,146	800,000	-0,016	-0,033
-239,132	-85,575	-0,022	0,005
-238,117	-71,277	0,113	-0,030
-237,103	-54,516	-0,053	-0,017
-236,088	15,168	-0,086	-0,048
-235,073	800,000	0,053	0,122
-234,059	-200,000	0,008	-0,036
-233,044	800,000	0,047	0,111
-232,030	21,522	-0,155	-0,090
-231,015	-117,281	-0,029	-0,004
-230,000	-85,914	0,004	-0,001
-228,986	160,725	-0,033	0,033
-227,971	-41,762	-0,092	0,033
-226,957	-200,000	-0,000	0,004
-225,942	-56,366	0,103	0,032
-224,927	22,452	0,016	-0,009
-223,913	42,395	0,146	0,094
-222,898	43,824	0,122	-0,079
-221,884	-200,000	-0,002	-0,108
-220,869	800,000	0,066	-0,170
-219,855	-131,767	0,094	-0,009
-218,840	-200,000	0,010	0,060
-217,825	-105,338	-0,092	0,015
-216,811	-57,446	-0,095	0,029
-215,796	502,558	0,043	-0,070
-214,782	-175,061	0,073	0,001
-213,767	-200,000	0,034	0,139
-212,752	-200,000	0,010	-0,078
-211,738	-69,909	0,184	0,050
-210,723	-200,000	-0,025	0,132
-209,709	-12,270	0,042	0,019
-208,694	-31,979	-0,144	-0,057
-207,679	-80,634	0,105	0,025
-206,665	380,988	-0,012	0,018
-205,650	800,000	0,001	0,002
-204,636	800,000	-0,028	0,060
-203,621	344,213	0,046	0,064
-202,606	155,618	-0,141	-0,138
-201,592	800,000	0,059	-0,134
-200,577	-80,634	0,081	0,019
-199,563	-200,000	0,055	-0,190
-198,548	492,166	-0,028	-0,046
-197,533	-114,371	0,021	-0,003
-196,519	34,479	0,043	-0,027
-195,504	-200,000	-0,027	-0,148
-194,490	371,991	-0,032	-0,046
-193,475	-138,712	0,049	0,004
-192,460	139,766	0,049	0,046
-191,446	-104,269	0,144	-0,024
-190,431	-35,083	0,113	-0,044
-189,417	254,262	-0,129	0,156
-188,402	-88,217	-0,129	0,027
-187,387	800,000	-0,098	-0,237
-186,373	-174,842	-0,027	-0,001
-185,358	-41,327	-0,031	-0,011
-184,344	676,205	0,059	0,109
-183,329	195,510	-0,053	0,057
-182,315	754,506	0,030	-0,058
-181,300	-200,000	0,009	0,030
-180,285	-93,984	-0,035	-0,007
-179,271	800,000	-0,014	0,040
-178,256	800,000	0,018	-0,052
-177,242	6,856	-0,013	-0,007
-176,227	-47,420	0,143	-0,049
-175,212	-38,119	-0,136	-0,051
-174,198	250,470	0,025	-0,030
-173,183	622,971	-0,045	0,082
-172,169	-200,000	-0,007	-0,052
-171,154	800,000	-0,049	-0,117
-170,139	-76,424	-0,148	-0,037
-169,125	-200,000	0,001	0,169
-168,110	42,277	0,057	-0,037
-167,096	56,126	0,096	0,066
-166,081	52,868	0,040	-0,027
-165,066	-66,976	-0,060	-0,017
-164,052	39,806	-0,067	-0,043
-163,037	-20,290	-0,045	0,020
-162,023	294,308	-0,055	0,072
-161,008	-200,000	-0,006	0,075
-159,993	548,182	-0,050	0,085
-158,979	99,454	-0,048	-0,040
-157,964	-42,900	0,097	0,035
-156,950	6,461	-0,031	-0,016
-155,935	800,000	0,015	-0,030
-154,920	800,000	0,041	-0,106
-153,906	-60,111	-0,110	-0,033
-152,891	-91,224	0,100	-0,020
-151,877	100,504	0,044	-0,036
-150,862	170,364	-0,103	-0,105
-149,847	-200,000	-0,001	-0,051
-148,833	-200,000	-0,003	-0,075
-147,818	800,000	-0,063	0,140
-146,804	800,000	-0,063	0,149
-145,789	180,932	0,063	-0,066
-144,775	-200,000	0,010	0,071
-143,760	-121,095	-0,130	0,015
-142,745	-69,647	0,069	-0,018
-141,731	141,317	-0,042	-0,040
-140,716	214,702	0,072	-0,081
-139,702	-200,000	-0,003	-0,138
-138,687	-200,000	0,006	-0,073
-137,672	-133,340	0,066	0,006
-136,658	460,100	-0,079	0,126
-135,643	264,925	0,045	-0,056
-134,629	50,641	0,078	0,052
-133,614	176,464	0,137	0,141
-132,599	-200,000	0,022	0,202
-131,585	-26,613	-0,127	0,052
-130,570	-200,000	-0,012	0,150
-129,556	800,000	0,025	-0,051
-128,541	736,631	-0,030	0,057
-127,526	800,000	-0,036	-0,083
-126,512	-136,976	0,201	-0,016
-125,497	800,000	-0,060	0,139
-124,483	-81,217	0,077	-0,018
-123,468	800,000	0,045	-0,128
-122,453	-69,303	-0,159	-0,043
-121,439	118,798	-0,116	-0,102
-120,424	773,201	-0,033	0,065
-119,410	-41,834	-0,104	0,038
-118,395	-200,000	-0,047	0,150
-117,380	-200,000	-0,001	0,062
-116,366	800,000	-0,047	-0,099
-115,351	-91,427	-0,074	-0,015
-114,337	139,089	0,039	0,036
-113,322	-25,116	0,052	0,022
-112,307	800,000	0,056	0,114
-111,293	172,395	0,037	-0,037
-110,278	-130,965	0,061	-0,006
-109,264	-200,000	0,004	0,055
-108,249	293,140	0,031	0,040
-107,234	-112,051	0,134	0,019
-106,220	-21,501	-0,149	0,064
-105,205	90,605	0,137	0,109
-104,191	800,000	-0,015	-0,048
-103,176	176,553	0,115	0,118
-102,162	87,973	0,030	0,024
-101,147	116,613	-0,103	0,089
-100,132	95,171	0,113	-0,091
-99,118	-82,409	0,060	0,014
-98,103	-125,913	0,126	0,013
-97,089	119,187	0,021	0,018
-96,074	-200,000	-0,009	0,125
-95,059	-156,677	-0,113	-0,005
-94,045	800,000	0,053	-0,131
-93,030	135,061	-0,071	-0,065
-92,016	331,953	0,020	-0,028
-91,001	800,000	0,027	0,061
-89,986	697,678	-0,077	0,144
-88,972	-100,382	0,088	-0,015
-87,957	-200,000	0,009	-0,047
-86,943	481,389	-0,012	0,020
-85,928	-50,841	-0,068	-0,022
-84,913	767,632	0,026	-0,049
-83,899	-22,756	-0,035	-0,015
-82,884	10,108	0,003	-0,002
-81,870	325,104	-0,049	-0,067
-80,855	339,578	0,064	-0,089
-79,840	134,954	-0,047	-0,043
-78,826	-200,000	0,007	-0,187
-77,811	-51,052	-0,030	0,010
-76,797	355,590	0,018	-0,025
-75,782	-65,925	-0,125	0,035
-74,767	-200,000	0,002	0,106
-73,753	220,444	0,087	0,099
-72,738	-23,656	-0,080	0,034
-71,724	-116,466	-0,026	0,003
-70,709	800,000	0,012	-0,025
-69,694	622,778	0,035	0,063
-68,680	430,693	0,090	0,139
-67,665	26,446	0,144	0,085
-66,651	-45,561	0,040	0,014
-65,636	114,548	0,071	-0,061
-64,622	-200,000	0,020	0,156
-63,607	-150,557	-0,089	0,005
-62,592	-81,520	0,089	-0,021
-61,578	-85,782	-0,125	0,027
-60,563	-82,356	-0,074	0,017
-59,549	-200,000	-0,011	0,075
-58,534	38,580	-2,088	-1,312
-57,519	754,434	-1,004	-1,924
-56,505	-200,000	-0,239	-4,437
-55,490	800,000	0,802	1,651
-54,476	800,000	5,186	11,503
-53,461	-200,000	21,992	338,572
-52,446	800,000	758,735	2295,475
-51,432	532,799	1652,412	2770,806
-50,417	69,072	1650,639	1195,701
-49,403	16,515	1525,492	848,047
-48,388	10,698	1450,040	778,101
-47,373	19,131	1442,165	814,120
-46,359	14,112	1430,891	783,978
-45,344	9,008	1426,763	757,497
-44,330	8,937	1424,985	756,186
-43,315	8,970	1423,008	755,263
-42,300	8,984	1421,279	754,383
-41,286	9,029	1419,959	753,864
-40,271	8,934	1419,168	752,965
-39,257	8,931	1417,759	752,176
-38,242	8,952	1416,737	751,702
-37,227	8,988	1415,477	751,171
-36,213	8,955	1414,240	750,329
-35,198	8,953	1413,021	749,643
-34,184	8,997	1412,167	749,367
-33,169	8,896	1410,746	748,111
-32,154	8,937	1409,825	747,786
-31,140	8,947	1408,554	747,125
-30,125	8,999	1407,336	746,696
-29,111	8,931	1406,277	745,786
-28,096	8,957	1404,877	745,136
-27,082	8,880	1403,825	744,187
-26,067	8,862	1403,006	743,638
-25,052	8,909	1401,627	743,097
-24,038	8,952	1400,677	742,767
-23,023	8,872	1399,836	741,916
-22,009	8,893	1398,893	741,488
-20,994	8,894	1397,751	740,854
-19,979	8,921	1396,796	740,448
-18,965	8,838	1396,042	739,633
-17,950	8,876	1394,780	739,109
-16,936	8,807	1394,095	738,399
-15,921	8,812	1392,953	737,786
-14,906	8,829	1392,120	737,396
-13,892	8,854	1391,195	736,992
-12,877	8,837	1390,543	736,536
-11,863	8,818	1389,505	735,870
-10,848	8,823	1388,604	735,390
-9,833	8,771	1387,738	734,662
-8,819	8,764	1386,866	734,139
-7,804	8,707	1386,042	733,409
-6,790	8,791	1384,807	733,115
-5,775	8,746	1383,855	732,373
-4,760	8,752	1382,858	731,846
-3,746	8,755	1381,987	731,369
-2,731	8,776	1381,244	731,042
-1,717	8,764	1380,071	730,337
-0,702	8,738	1378,440	729,327
0,313	12,814	1289,940	701,007
1,327	28,847	682,313	406,767
2,342	44,899	117,445	76,101
3,356	1,187	16,521	8,336
4,371	7,878	3,675	1,936
5,386	24,305	1,271	0,738
6,400	721,636	0,351	0,661
7,415	158,402	-0,179	-0,175
8,429	177,855	-0,167	-0,172
9,444	45,598	-0,230	-0,150
10,459	10,767	-0,252	-0,135
11,473	60,809	-0,209	-0,146
12,488	88,760	-0,235	-0,184
13,502	-56,711	-0,428	-0,133
14,517	3,760	-0,419	-0,215
15,531	87,897	-0,176	-0,137
16,546	292,709	-0,285	-0,367
17,561	39,641	-0,414	-0,261
18,575	-123,476	-0,274	0,030
19,590	199,598	-0,190	-0,206
20,604	-88,201	-0,284	-0,059
21,619	73,085	-0,456	-0,335
22,634	119,515	-0,405	-0,353
23,648	20,571	-0,311	-0,177
24,663	101,266	-0,335	-0,274
25,677	67,593	-0,286	-0,205
26,692	-6,546	-0,327	-0,156
27,707	97,264	-0,371	-0,300
28,721	107,369	-0,327	-0,274
29,736	134,555	-0,310	-0,283
30,750	87,824	-0,456	-0,355
31,765	88,411	-0,256	-0,200
32,780	74,444	-0,362	-0,268
33,794	25,044	-0,299	-0,174
34,809	46,742	-0,333	-0,217
35,823	20,761	-0,410	-0,233
36,838	83,231	-0,365	-0,279
37,853	21,182	-0,472	-0,269
38,867	41,323	-0,356	-0,226
39,882	-3,368	-0,343	-0,167
40,896	238,117	-0,151	-0,177
41,911	-200,000	-0,222	0,000
42,926	231,323	-0,238	-0,275
43,940	54,891	-0,370	-0,251
44,955	-36,191	-0,423	-0,160
45,969	32,314	-0,409	-0,248
46,984	361,262	-0,204	-0,288
47,999	134,025	-0,300	-0,273
49,013	-98,587	-0,359	-0,064
50,028	-1,321	-0,316	-0,156
51,042	-69,575	-0,404	-0,108
52,057	256,165	-0,314	-0,379
53,071	58,667	-0,309	-0,213
54,086	593,928	-0,153	-0,267
55,101	33,034	-0,355	-0,215
56,115	11,234	-0,284	-0,152
57,130	88,735	-0,262	-0,205
58,144	-16,821	-0,365	-0,161
59,159	60,963	-0,343	-0,238
60,174	29,458	-0,445	-0,265
61,188	-88,864	-0,333	-0,069
62,203	99,168	-0,224	-0,182
63,217	54,311	-0,241	-0,163
64,232	112,496	-0,302	-0,256
65,247	55,885	-0,320	-0,217
66,261	127,318	-0,220	-0,196
67,276	88,167	-0,229	-0,178
68,290	-14,966	-0,380	-0,170
69,305	-40,497	-0,265	-0,096
70,320	14,032	-0,346	-0,188
71,334	35,333	-0,273	-0,167
72,349	-13,306	-0,291	-0,132
73,363	-36,355	-0,327	-0,123
74,378	6,750	-0,336	-0,175
75,393	638,052	-0,189	-0,337
76,407	-140,607	-0,309	-0,022
77,422	-117,182	-0,308	-0,039
78,436	-13,292	-0,312	-0,141
79,451	184,100	-0,152	-0,158
80,466	77,779	-0,394	-0,293
81,480	20,827	-0,286	-0,162
82,495	-7,765	-0,198	-0,094
83,509	89,394	-0,254	-0,198
84,524	-49,517	-0,270	-0,090
85,539	-84,477	-0,376	-0,082
86,553	-60,743	-0,257	-0,076
87,568	114,396	-0,252	-0,215
88,582	119,339	-0,334	-0,289
89,597	16,754	-0,268	-0,148
90,611	51,258	-0,344	-0,228
91,626	-26,714	-0,321	-0,131
92,641	10,144	-0,238	-0,126
93,655	9,872	-0,287	-0,152
94,670	36,124	-0,350	-0,215
95,684	-6,909	-0,303	-0,143
96,699	149,238	-0,223	-0,211
97,714	200,205	-0,236	-0,253
98,728	-181,877	-0,224	0,003
99,743	-60,148	-0,175	-0,052
100,757	391,257	-0,209	-0,305
101,772	131,973	-0,210	-0,189
102,787	145,204	-0,239	-0,224
103,801	202,023	-0,262	-0,283
104,816	-136,176	-0,292	-0,024
105,830	-75,597	-0,225	-0,055
106,845	-70,757	-0,296	-0,077
107,860	-38,913	-0,369	-0,135
108,874	-91,864	-0,290	-0,057
109,889	-54,371	-0,405	-0,127
110,903	-132,245	-0,264	0,024
111,918	67,890	-0,213	-0,152
112,933	36,340	-0,128	-0,079
113,947	235,611	-0,221	-0,255
114,962	30,690	-0,307	-0,183
115,976	241,134	-0,167	-0,195
116,991	214,483	-0,206	-0,228
118,006	-21,305	-0,263	-0,112
119,020	302,706	-0,136	-0,176
120,035	278,573	-0,210	-0,262
121,049	43,280	-0,243	-0,154
122,064	30,592	-0,262	-0,156
123,079	-45,326	-0,257	-0,089
124,093	86,330	-0,210	-0,161
125,108	69,189	-0,265	-0,190
126,122	-102,275	-0,388	-0,064
127,137	-26,992	-0,058	-0,023
128,151	-96,645	-0,308	-0,056
129,166	17,381	-0,273	-0,151
130,181	-6,179	-0,309	-0,147
131,195	121,927	-0,218	-0,190
132,210	92,241	-0,284	-0,223
133,224	149,347	-0,303	-0,286
134,239	95,033	-0,242	-0,192
135,254	183,332	-0,215	-0,221
136,268	231,380	-0,190	-0,217
137,283	-35,084	-0,230	-0,087
138,297	-54,546	-0,203	-0,064
139,312	-107,951	-0,308	-0,046
140,327	-99,742	-0,229	-0,040
141,341	-76,182	-0,282	-0,069
142,356	-6,430	-0,195	-0,092
143,370	143,665	-0,208	-0,193
144,385	180,661	-0,154	-0,157
145,400	-4,007	-0,177	-0,085
146,414	493,677	-0,159	-0,254
147,429	236,569	-0,214	-0,247
148,443	31,122	-0,299	-0,178
149,458	183,366	-0,213	-0,220
150,473	31,792	-0,212	-0,127
151,487	101,542	-0,159	-0,129
152,502	6,082	-0,293	-0,151
153,516	151,394	-0,258	-0,244
154,531	60,983	-0,254	-0,175
155,546	200,575	-0,279	-0,299
156,560	-29,355	-0,206	-0,082
157,575	129,337	-0,148	-0,132
158,589	-63,692	-0,223	-0,063
159,604	33,786	-0,144	-0,087
160,619	75,860	-0,197	-0,144
161,633	800,000	-0,147	-0,298
162,648	100,236	-0,134	-0,108
163,662	-1,481	-0,250	-0,122
164,677	173,732	-0,142	-0,143
165,692	-124,090	-0,287	-0,031
166,706	14,778	-0,307	-0,166
167,721	-29,720	-0,188	-0,074
168,735	196,888	-0,194	-0,205
169,750	37,920	-0,386	-0,238
170,764	-52,871	-0,363	-0,116
171,779	-103,662	-0,221	-0,036
172,794	-111,987	-0,114	-0,016
173,808	-61,266	-0,244	-0,071
174,823	114,043	-0,282	-0,238
175,837	-42,557	-0,248	-0,087
176,852	70,937	-0,221	-0,159
177,867	36,736	-0,214	-0,131
178,881	74,547	-0,178	-0,130
179,896	-30,715	-0,220	-0,086
180,910	-19,170	-0,298	-0,128
181,925	25,420	-0,300	-0,172
182,940	196,621	-0,175	-0,185
183,954	87,728	-0,187	-0,143
184,969	229,315	-0,119	-0,135
185,983	109,854	-0,071	-0,059
186,998	421,969	-0,157	-0,235
188,013	-16,825	-0,241	-0,105
189,027	328,035	-0,146	-0,194
190,042	-115,930	-0,381	-0,049
191,056	109,707	-0,210	-0,175
192,071	-34,856	-0,319	-0,120
193,086	126,191	-0,142	-0,124
194,100	-58,359	-0,092	-0,028
195,115	-126,355	-0,114	-0,012
196,129	-31,241	-0,431	-0,167
197,144	-31,478	-0,302	-0,117
198,159	-48,663	-0,197	-0,065
199,173	-0,839	-0,324	-0,159
200,188	181,077	-0,156	-0,159
201,202	94,154	-0,123	-0,097
202,217	68,645	-0,199	-0,142
203,232	85,994	-0,210	-0,160
204,246	651,967	-0,208	-0,370
205,261	209,164	-0,126	-0,137
206,275	-200,000	-0,024	-0,117
207,290	-200,000	-0,026	-0,176
208,304	-48,874	-0,188	0,062
209,319	71,000	-0,192	-0,138
210,334	-17,877	-0,072	0,031
211,348	126,951	-0,147	-0,129
212,363	-81,648	-0,220	-0,050
213,377	59,997	-0,158	-0,108
214,392	31,005	-0,190	-0,112
215,407	-138,580	-0,218	0,016
216,421	9,906	-0,125	-0,065
217,436	23,181	-0,240	-0,136
218,450	320,117	-0,138	-0,182
219,465	128,276	-0,161	-0,142
220,480	45,508	-0,127	-0,081
221,494	-200,000	-0,042	-0,290
222,509	20,179	-0,239	-0,133
223,523	-21,811	-0,250	-0,105
224,538	138,663	-0,177	-0,161
225,553	-72,204	-0,257	-0,065
226,567	96,073	-0,256	-0,202
227,582	313,756	-0,136	-0,178
228,596	301,955	-0,071	-0,090
229,611	64,165	-0,150	-0,104
230,626	-66,141	-0,226	-0,062
231,640	86,675	-0,124	0,094
232,655	425,582	-0,114	-0,170
233,669	249,769	-0,157	-0,185
234,684	165,695	-0,271	-0,265
235,699	39,735	-0,093	0,057
236,713	-92,022	-0,244	-0,047
237,728	-90,692	-0,226	-0,045
238,742	93,309	-0,220	-0,172
239,757	429,976	-0,139	-0,209
240,772	67,471	-0,161	-0,114
241,786	361,169	-0,064	-0,089
242,801	-21,738	-0,197	-0,082
243,815	134,308	-0,045	0,041
244,830	66,042	-0,161	-0,113
245,844	29,166	-0,094	-0,055
246,859	114,014	-0,208	-0,174
247,874	490,323	-0,141	-0,224
248,888	-50,937	-0,195	-0,063
249,903	93,638	-0,138	-0,108
250,917	-200,000	-0,004	-0,165
251,932	390,131	-0,058	-0,083
252,947	-156,767	-0,129	0,005
253,961	-4,528	-0,266	-0,126
254,976	-91,176	-0,235	-0,046
255,990	26,579	-0,143	-0,082
257,005	-200,000	-0,019	-0,173
258,020	384,842	-0,153	-0,219
259,034	27,841	-0,147	-0,085
260,049	12,368	-0,175	-0,093
261,063	3,906	-0,270	-0,136
262,078	315,729	-0,185	-0,241
263,093	196,550	-0,116	-0,122
264,107	11,202	-0,220	-0,116
265,122	657,835	-0,100	-0,177
266,136	-200,000	0,009	0,079
267,151	305,484	-0,113	-0,144
268,166	78,963	-0,138	-0,101
269,180	316,039	-0,170	-0,222
270,195	695,845	-0,107	-0,195
271,209	71,825	-0,169	-0,121
272,224	124,790	-0,192	-0,166
273,239	800,000	-0,100	-0,290
274,253	49,978	-0,107	-0,070
275,268	44,295	-0,151	-0,095
276,282	268,630	-0,166	-0,201
277,297	-70,456	-0,220	-0,057
278,312	75,537	-0,187	-0,136
279,326	100,577	-0,123	-0,098
280,341	217,607	-0,031	0,034
281,355	-199,910	-0,127	0,000
282,370	-141,879	-0,341	-0,023
283,384	800,000	-0,102	-0,226
284,399	22,298	-0,182	-0,102
285,414	-57,742	-0,102	-0,030
286,428	87,410	-0,110	-0,083
287,443	-109,263	-0,154	-0,022
288,457	-29,775	-0,160	-0,063
289,472	800,000	-0,026	0,056
290,487	153,083	-0,147	-0,138
291,501	-178,988	-0,135	0,002
292,516	74,789	-0,221	-0,160
293,530	-58,320	-0,191	-0,057
294,545	-124,097	-0,233	-0,025
295,560	-159,073	-0,176	-0,007
296,574	-137,135	-0,199	0,015
297,589	352,905	-0,121	-0,165
298,603	205,901	-0,155	-0,166
299,618	22,057	-0,074	-0,041
300,633	51,358	-0,227	-0,148
301,647	-122,283	-0,262	-0,029
302,662	34,081	-0,053	0,032
303,676	800,000	-0,024	-0,060
304,691	-35,576	-0,188	-0,070
305,706	723,797	-0,125	-0,229
306,720	296,686	-0,131	-0,165
307,735	136,655	-0,074	-0,066
308,749	243,996	-0,120	-0,138
309,764	-145,056	-0,156	0,010
310,779	154,185	-0,144	-0,136
311,793	134,935	-0,164	-0,146
312,808	-75,072	-0,170	-0,041
313,822	21,547	-0,181	-0,101
314,837	42,851	-0,172	-0,107
315,852	192,990	-0,182	-0,188
316,866	800,000	-0,017	-0,043
317,881	19,398	-0,166	-0,091
318,895	-200,000	-0,009	-0,127
319,910	201,571	-0,176	-0,186
320,925	800,000	-0,094	-0,277
321,939	205,487	-0,131	-0,139
322,954	-200,000	0,029	-0,166
323,968	304,973	-0,054	-0,070
324,983	502,674	-0,106	-0,168
325,997	-200,000	-0,032	-0,180
327,012	119,971	-0,165	-0,141
328,027	164,515	-0,109	-0,105
329,041	-107,594	-0,037	-0,005
330,056	-200,000	-0,011	-0,140
331,070	67,886	-0,125	-0,087
332,085	491,638	-0,054	-0,085
333,100	189,947	-0,143	-0,147
334,114	216,319	-0,133	-0,145
335,129	-27,897	-0,260	-0,103
336,143	22,804	-0,160	-0,089
337,158	16,590	-0,042	0,023
338,173	-164,059	-0,146	-0,005
339,187	-25,871	-0,048	-0,019
340,202	-70,481	-0,109	0,028
341,216	98,679	-0,219	-0,173
342,231	-36,644	-0,126	-0,046
343,246	558,373	-0,077	-0,128
344,260	767,584	-0,087	-0,163
345,275	47,493	-0,092	-0,059
346,289	399,997	-0,029	-0,041
347,304	70,311	-0,150	-0,106
348,319	-84,939	-0,128	-0,027
349,333	338,508	-0,206	-0,274
350,348	-60,744	-0,059	-0,017
351,362	202,278	-0,093	-0,098
352,377	-43,853	-0,163	-0,056
353,392	-200,000	-0,029	-0,123
354,406	-132,314	0,035	-0,003
355,421	207,053	1306,341	1394,118
356,435	159,272	1465,979	1394,590
