DTS Sentinel unit serial number:	SN410029Multiplexer serial number:	ORYXHardware model number:	OX2-SRSoftware version number:	ORYX F/W v4,00 Oryx Data Collector v3.7.2.0data status	okinstallation	B3 Nyhavnadifferential loss correction	single-endedforward channel	channel 1reverse channel	N/Adate	2023/12/04time	08:32:30forward acquisition time	300,00reverse acquisition time	0,00gamma	499,1914k internal	0,3204k external	0,3204temperature offset calibration	1,0000default loss term (dB/km)	0,3820temperature slope calibration	1,0000multiplexer offset coefficient	1,0000multiplexer slope coefficient	1,0000fibre end	0,00T internal ref (°C)	12,75T ext. ref 1 (°C)	-1,62T ext. ref 2 (°C)	-1,67length (m)	temperature (°C)	Stokes	anti-Stokes-744,400	384,384	-0,184	-0,277
-743,385	800,000	-0,071	0,219
-742,371	22,082	-0,223	-0,132
-741,356	-200,000	0,001	0,249
-740,342	139,600	-0,251	-0,240
-739,327	-200,000	0,073	0,294
-738,312	210,090	-0,243	-0,278
-737,298	355,329	0,105	0,152
-736,283	800,000	-0,151	-0,313
-735,269	-200,000	-0,021	0,375
-734,254	76,853	-0,287	-0,221
-733,239	800,000	-0,114	0,290
-732,225	-200,000	-0,010	-0,213
-731,210	-56,333	0,103	-0,033
-730,196	83,571	-0,026	0,021
-729,181	-200,000	0,002	-0,010
-728,167	124,331	-0,021	-0,019
-727,152	-160,781	0,140	-0,005
-726,137	-110,934	-0,035	-0,005
-725,123	56,196	0,063	-0,045
-724,108	231,438	0,054	-0,065
-723,094	800,000	-0,075	-0,178
-722,079	800,000	-0,010	-0,024
-721,064	70,175	0,030	-0,023
-720,050	-36,962	-0,036	-0,014
-719,035	-200,000	-0,010	-0,181
-718,021	520,959	0,033	0,057
-717,006	793,909	-0,017	0,035
-715,991	31,327	-0,067	-0,042
-714,977	-200,000	-0,004	-0,028
-713,962	144,319	0,082	-0,080
-712,948	398,857	-0,051	0,078
-711,933	523,356	-0,052	-0,089
-710,918	168,117	0,061	-0,063
-709,904	169,311	0,075	-0,078
-708,889	525,012	0,010	-0,018
-707,875	800,000	-0,046	-0,107
-706,860	-200,000	-0,036	-0,172
-705,845	328,508	0,048	-0,067
-704,831	5,346	0,016	-0,009
-703,816	14,474	0,082	0,046
-702,802	-87,278	0,047	-0,010
-701,787	748,798	-0,009	-0,017
-700,772	-82,454	-0,117	-0,027
-699,758	248,986	-0,033	0,041
-698,743	472,575	-0,022	0,036
-697,729	739,119	0,083	0,163
-696,714	-41,212	-0,032	0,012
-695,699	-200,000	0,000	0,078
-694,685	177,322	-0,053	0,056
-693,670	-6,464	-0,089	-0,044
-692,656	438,506	0,049	-0,077
-691,641	-200,000	-0,005	0,034
-690,627	-25,864	-0,064	0,027
-689,612	-110,850	-0,191	0,028
-688,597	479,793	0,031	-0,050
-687,583	-200,000	-0,011	-0,163
-686,568	800,000	-0,019	-0,048
-685,554	-133,366	-0,003	-0,000
-684,539	-200,000	0,002	0,047
-683,524	-200,000	-0,001	0,172
-682,510	187,444	0,116	0,126
-681,495	61,852	-0,061	0,044
-680,481	171,407	-0,100	-0,104
-679,466	-34,462	-0,084	0,033
-678,451	-156,855	-0,084	0,004
-677,437	800,000	0,038	-0,120
-676,422	335,368	-0,061	-0,086
-675,408	800,000	-0,049	-0,110
-674,393	-158,441	0,079	-0,003
-673,378	800,000	0,013	-0,041
-672,364	273,884	-0,090	-0,115
-671,349	-200,000	-0,014	-0,083
-670,335	25,762	-0,023	-0,014
-669,320	134,424	0,013	0,012
-668,305	429,429	-0,038	0,059
-667,291	105,501	-0,093	-0,079
-666,276	487,153	-0,066	-0,110
-665,262	7,835	-0,078	-0,042
-664,247	-109,345	-0,179	0,027
-663,232	-200,000	0,008	-0,038
-662,218	320,596	0,095	-0,131
-661,203	-200,000	-0,001	-0,032
-660,189	-200,000	-0,001	-0,031
-659,174	-42,793	-0,133	-0,049
-658,159	-200,000	-0,011	0,040
-657,145	-200,000	0,002	-0,113
-656,130	800,000	-0,073	-0,164
-655,116	359,022	-0,054	0,078
-654,101	-200,000	0,000	0,089
-653,086	-97,809	-0,061	0,011
-652,072	207,079	-0,036	0,041
-651,057	119,874	-0,155	-0,139
-650,043	-63,266	-0,078	-0,023
-649,028	312,425	-0,006	0,009
-648,014	-92,573	0,090	0,018
-646,999	-200,000	0,002	0,114
-645,984	-29,920	0,051	-0,021
-644,970	-10,841	-0,122	-0,058
-643,955	-200,000	-0,018	-0,113
-642,941	-200,000	0,016	0,137
-641,926	-179,786	-0,191	0,003
-640,911	-200,000	0,018	-0,120
-639,897	133,645	-0,119	0,112
-638,882	20,416	-0,182	0,106
-637,868	242,308	-0,052	0,063
-636,853	-33,383	0,072	-0,029
-635,838	18,543	-0,076	-0,044
-634,824	519,185	-0,060	-0,102
-633,809	800,000	0,043	-0,099
-632,795	92,067	0,048	-0,039
-631,780	-57,462	-0,008	-0,002
-630,765	-132,250	-0,189	-0,017
-629,751	-200,000	-0,006	-0,050
-628,736	735,079	-0,066	-0,129
-627,722	-200,000	-0,023	-0,122
-626,707	-200,000	-0,040	-0,157
-625,692	-104,182	-0,070	0,012
-624,678	219,943	0,062	0,072
-623,663	107,954	-0,090	0,077
-622,649	-98,629	0,094	0,017
-621,634	-200,000	-0,007	-0,037
-620,619	-200,000	-0,007	-0,170
-619,605	-30,826	0,118	-0,048
-618,590	-136,727	-0,169	-0,014
-617,576	27,388	0,134	0,081
-616,561	105,420	0,065	0,055
-615,546	40,736	0,104	-0,068
-614,532	-70,314	-0,103	0,028
-613,517	-6,264	-0,058	-0,029
-612,503	208,576	-0,092	-0,105
-611,488	-200,000	0,015	0,053
-610,474	248,863	0,070	-0,086
-609,459	-89,855	-0,125	-0,026
-608,444	-48,629	-0,090	-0,031
-607,430	-200,000	0,012	-0,276
-606,415	184,464	-0,067	-0,071
-605,401	-101,337	-0,084	-0,015
-604,386	-200,000	-0,009	0,081
-603,371	-200,000	-0,017	0,122
-602,357	436,530	0,017	0,026
-601,342	800,000	0,030	0,085
-600,328	-68,991	0,056	-0,015
-599,313	27,505	-0,093	-0,056
-598,298	-108,248	0,111	0,017
-597,284	475,551	0,043	-0,070
-596,269	529,267	-0,033	-0,056
-595,255	800,000	-0,036	-0,093
-594,240	222,896	-0,052	-0,061
-593,225	-200,000	0,004	-0,093
-592,211	800,000	-0,042	-0,086
-591,196	257,779	-0,170	0,212
-590,182	-156,112	0,054	-0,002
-589,167	17,483	0,025	0,014
-588,152	284,803	-0,048	-0,063
-587,138	117,698	-0,075	-0,067
-586,123	110,300	-0,053	-0,046
-585,109	234,465	0,074	-0,088
-584,094	13,488	-0,115	-0,064
-583,079	189,980	0,093	-0,101
-582,065	167,037	0,062	0,063
-581,050	136,441	-0,047	0,044
-580,036	800,000	-0,040	0,099
-579,021	113,608	0,076	0,066
-578,006	800,000	-0,041	-0,084
-576,992	496,531	-0,055	0,092
-575,977	184,431	0,056	-0,060
-574,963	7,605	0,066	-0,035
-573,948	128,110	0,053	0,049
-572,934	117,080	-0,041	0,036
-571,919	214,789	-0,029	-0,033
-570,904	-200,000	-0,010	-0,131
-569,890	425,372	0,050	0,077
-568,875	-122,228	0,115	0,013
-567,861	800,000	-0,038	0,097
-566,846	-200,000	0,048	0,179
-565,831	-32,304	-0,113	-0,045
-564,817	-153,293	0,076	0,004
-563,802	-51,653	-0,078	0,026
-562,788	67,571	-0,189	0,139
-561,773	-18,911	0,029	-0,013
-560,758	-9,566	0,100	-0,048
-559,744	189,519	-0,073	-0,080
-558,729	-200,000	0,006	0,096
-557,715	67,461	-0,106	-0,078
-556,700	-94,071	-0,220	-0,043
-555,685	800,000	0,062	-0,156
-554,671	-138,911	-0,116	0,009
-553,656	-41,742	0,139	0,051
-552,642	448,791	0,058	0,092
-551,627	-200,000	-0,012	0,140
-550,612	31,054	-0,220	0,136
-549,598	-2,728	-0,056	-0,028
-548,583	42,043	-0,102	-0,067
-547,569	-200,000	0,014	-0,049
-546,554	485,087	-0,036	-0,059
-545,539	800,000	0,015	-0,043
-544,525	639,284	-0,042	-0,078
-543,510	275,804	-0,090	-0,116
-542,496	393,399	0,091	-0,137
-541,481	-147,981	-0,052	0,003
-540,466	-78,740	0,143	-0,035
-539,452	-43,065	0,038	0,014
-538,437	-200,000	0,015	-0,064
-537,423	37,538	-0,029	0,018
-536,408	375,097	0,057	-0,084
-535,393	-0,049	-0,050	-0,026
-534,379	111,478	0,081	-0,070
-533,364	-200,000	0,004	-0,097
-532,350	140,856	0,032	0,031
-531,335	39,147	0,184	0,118
-530,321	-200,000	0,002	0,031
-529,306	186,792	-0,070	0,075
-528,291	-200,000	-0,034	-0,143
-527,277	680,721	-0,049	0,091
-526,262	41,574	0,042	0,028
-525,248	538,246	0,026	-0,045
-524,233	21,415	-0,073	-0,043
-523,218	690,251	0,024	0,045
-522,204	-200,000	-0,003	-0,112
-521,189	-15,744	-0,085	-0,039
-520,175	-200,000	-0,048	-0,195
-519,160	-200,000	-0,003	-0,015
-518,145	-74,515	0,194	0,050
-517,131	90,785	0,046	0,037
-516,116	800,000	-0,058	0,132
-515,102	590,089	0,062	0,111
-514,087	-106,619	-0,112	-0,018
-513,072	302,852	-0,044	-0,059
-512,058	221,415	-0,039	-0,045
-511,043	-85,661	0,022	0,005
-510,029	800,000	0,074	0,149
-509,014	-78,338	0,043	0,010
-507,999	-2,003	0,037	-0,018
-506,985	-200,000	0,005	0,074
-505,970	-200,000	-0,003	0,032
-504,956	-78,442	0,091	0,022
-503,941	-51,464	-0,073	-0,025
-502,926	-127,999	0,145	0,015
-501,912	-70,405	0,083	-0,022
-500,897	466,411	0,066	-0,107
-499,883	558,481	-0,034	-0,060
-498,868	-200,000	-0,002	-0,071
-497,853	47,935	-0,111	0,075
-496,839	109,736	-0,110	-0,095
-495,824	-82,735	0,170	0,039
-494,810	129,437	0,026	0,024
-493,795	-42,411	-0,101	0,037
-492,781	-47,191	0,094	-0,033
-491,766	47,940	0,144	0,097
-490,751	-116,986	-0,143	0,019
-489,737	301,965	-0,119	-0,159
-488,722	537,247	0,018	-0,030
-487,708	-66,374	0,096	-0,027
-486,693	738,587	-0,063	0,123
-485,678	-200,000	-0,011	0,054
-484,664	-70,045	-0,100	0,027
-483,649	800,000	0,050	-0,115
-482,635	183,600	-0,039	0,042
-481,620	-85,076	0,129	0,029
-480,605	-111,637	0,041	0,006
-479,591	176,838	-0,051	0,053
-478,576	800,000	0,040	-0,125
-477,562	163,417	-0,074	-0,074
-476,547	17,934	0,219	0,125
-475,532	800,000	-0,006	0,015
-474,518	689,028	-0,053	0,101
-473,503	-11,192	0,080	-0,038
-472,489	-200,000	-0,007	0,113
-471,474	474,367	-0,058	0,094
-470,459	-200,000	-0,018	-0,220
-469,445	534,832	-0,038	-0,064
-468,430	-200,000	0,018	-0,082
-467,416	-151,262	0,047	0,002
-466,401	-200,000	-0,001	-0,049
-465,386	-149,647	-0,029	0,002
-464,372	-102,169	-0,152	-0,026
-463,357	400,819	-0,072	-0,109
-462,343	-200,000	-0,135	-0,000
-461,328	-46,478	0,140	0,049
-460,313	800,000	-0,022	0,054
-459,299	118,195	-0,094	0,083
-458,284	800,000	0,035	0,075
-457,270	552,319	0,034	-0,059
-456,255	720,366	-0,060	0,115
-455,241	-41,625	-0,047	0,017
-454,226	286,574	0,047	-0,061
-453,211	-200,000	-0,009	-0,130
-452,197	309,713	0,106	0,143
-451,182	-200,000	0,000	-0,033
-450,168	-200,000	-0,013	0,096
-449,153	-37,895	-0,091	-0,035
-448,138	-200,000	-0,002	-0,126
-447,124	148,773	0,057	-0,055
-446,109	113,915	0,079	-0,069
-445,095	8,662	-0,114	0,061
-444,080	325,604	0,047	0,065
-443,065	800,000	0,022	0,068
-442,051	800,000	0,048	-0,141
-441,036	281,246	-0,096	-0,124
-440,022	22,954	-0,104	0,061
-439,007	45,384	-0,067	-0,044
-437,992	-200,000	0,006	-0,045
-436,978	176,061	0,097	0,101
-435,963	202,657	0,037	-0,041
-434,949	800,000	0,032	0,098
-433,934	-200,000	-0,026	-0,138
-432,919	111,851	0,102	0,089
-431,905	-154,397	-0,181	0,009
-430,890	-4,377	0,103	0,051
-429,876	75,160	0,111	0,084
-428,861	580,537	0,038	0,067
-427,846	36,417	-0,117	0,074
-426,832	194,862	0,029	-0,031
-425,817	-21,181	-0,136	-0,059
-424,803	126,651	-0,025	0,023
-423,788	-200,000	-0,006	0,088
-422,773	800,000	-0,063	0,168
-421,759	-31,131	0,064	0,026
-420,744	41,308	-0,041	0,027
-419,730	27,138	0,101	0,061
-418,715	221,567	-0,011	0,013
-417,701	800,000	-0,053	-0,108
-416,686	-3,216	-0,031	0,015
-415,671	800,000	0,029	-0,070
-414,657	-120,474	-0,062	0,007
-413,642	-200,000	-0,001	0,023
-412,628	454,825	0,058	0,093
-411,613	89,720	-0,115	-0,092
-410,598	17,478	0,088	-0,050
-409,584	-136,904	-0,081	0,007
-408,569	-147,464	-0,121	0,007
-407,555	-200,000	-0,029	0,129
-406,540	-200,000	-0,002	0,050
-405,525	800,000	-0,019	0,056
-404,511	41,922	-0,014	0,009
-403,496	273,082	-0,057	-0,073
-402,482	-200,000	0,042	-0,149
-401,467	800,000	0,026	0,055
-400,452	192,269	0,060	0,065
-399,438	166,931	0,052	0,053
-398,423	-200,000	0,035	0,113
-397,409	-89,699	-0,060	-0,013
-396,394	484,312	-0,029	-0,047
-395,379	471,937	-0,017	-0,027
-394,365	-200,000	0,004	0,100
-393,350	100,735	-0,109	0,091
-392,336	301,127	-0,047	0,062
-391,321	-127,637	-0,122	-0,012
-390,306	-200,000	0,030	-0,113
-389,292	750,826	0,058	-0,112
-388,277	57,308	-0,038	-0,026
-387,263	-63,933	-0,040	0,012
-386,248	-200,000	-0,009	0,038
-385,233	800,000	0,043	0,113
-384,219	386,956	-0,057	0,084
-383,204	800,000	-0,034	-0,076
-382,190	-193,747	-0,037	-0,000
-381,175	179,561	-0,040	-0,042
-380,160	-31,750	0,054	-0,022
-379,146	-1,758	0,170	0,086
-378,131	-200,000	-0,028	0,134
-377,117	626,759	0,052	0,095
-376,102	3,579	0,081	-0,042
-375,088	-200,000	-0,003	0,036
-374,073	-200,000	-0,042	0,145
-373,058	800,000	0,018	0,043
-372,044	-27,942	-0,074	-0,031
-371,029	-200,000	0,001	-0,067
-370,015	59,401	0,163	-0,115
-369,000	-71,045	-0,049	-0,013
-367,985	296,889	0,091	-0,119
-366,971	-97,568	0,051	-0,009
-365,956	-200,000	0,095	0,000
-364,942	-86,281	0,129	0,028
-363,927	104,372	-0,072	0,061
-362,912	-200,000	0,007	-0,226
-361,898	-175,493	-0,040	0,001
-360,883	87,019	-0,036	-0,029
-359,869	-200,000	-0,020	-0,075
-358,854	-200,000	-0,005	-0,033
-357,839	60,504	0,073	0,052
-356,825	-31,214	0,183	0,074
-355,810	-24,523	-0,126	0,054
-354,796	92,735	0,112	-0,090
-353,781	-143,368	-0,091	-0,006
-352,766	-200,000	0,027	-0,105
-351,752	23,245	0,073	-0,043
-350,737	-101,041	0,080	0,014
-349,723	193,009	0,140	0,151
-348,708	-200,000	0,019	0,108
-347,693	228,193	0,062	-0,072
-346,679	-200,000	-0,017	-0,079
-345,664	118,529	-0,033	-0,029
-344,650	43,338	-0,012	-0,008
-343,635	-200,000	-0,025	-0,154
-342,620	-76,400	-0,043	-0,011
-341,606	-37,566	-0,010	-0,004
-340,591	0,615	-0,103	0,053
-339,577	167,438	0,037	0,038
-338,562	-46,719	-0,124	0,043
-337,548	-82,109	-0,063	-0,014
-336,533	800,000	0,056	-0,126
-335,518	-152,551	0,116	0,006
-334,504	115,296	-0,110	0,096
-333,489	1,555	0,141	0,072
-332,475	-52,706	0,084	-0,028
-331,460	224,844	-0,047	-0,055
-330,445	222,702	0,013	-0,015
-329,431	-46,570	0,028	0,010
-328,416	-125,916	0,151	0,016
-327,402	800,000	-0,086	0,199
-326,387	800,000	-0,042	0,094
-325,372	0,512	-0,012	0,006
-324,358	59,703	0,114	0,081
-323,343	800,000	-0,057	-0,155
-322,329	631,195	-0,019	0,034
-321,314	-200,000	0,026	0,096
-320,299	-8,379	-0,069	0,033
-319,285	-78,258	-0,029	0,007
-318,270	45,166	0,097	-0,064
-317,256	168,029	-0,092	-0,094
-316,241	-55,131	0,033	-0,011
-315,226	59,417	0,119	-0,084
-314,212	147,309	0,102	-0,098
-313,197	800,000	0,048	0,136
-312,183	249,242	0,095	-0,115
-311,168	493,945	-0,016	-0,026
-310,153	-79,215	-0,130	0,031
-309,139	-200,000	0,001	-0,074
-308,124	461,298	-0,062	-0,099
-307,110	1,832	0,177	0,091
-306,095	305,245	0,015	-0,020
-305,080	-103,324	0,104	0,017
-304,066	371,140	0,016	-0,023
-303,051	157,193	-0,018	-0,018
-302,037	-200,000	0,011	-0,043
-301,022	166,382	0,025	0,025
-300,008	-200,000	0,004	-0,109
-298,993	-200,000	0,001	-0,011
-297,978	800,000	-0,044	-0,089
-296,964	-18,289	0,099	-0,044
-295,949	712,092	-0,013	-0,024
-294,935	706,794	0,054	-0,103
-293,920	800,000	0,033	0,077
-292,905	239,555	0,086	0,102
-291,891	800,000	-0,024	0,069
-290,876	-126,182	-0,019	0,002
-289,862	-200,000	0,041	0,138
-288,847	300,704	0,004	0,005
-287,832	412,098	0,027	0,041
-286,818	800,000	0,060	0,172
-285,803	-66,696	0,037	0,010
-284,789	-125,355	0,118	0,013
-283,774	260,605	0,120	0,149
-282,759	-8,959	-0,147	-0,070
-281,745	-36,656	-0,087	-0,033
-280,730	383,262	0,020	-0,030
-279,716	-200,000	0,006	-0,090
-278,701	-200,000	0,011	0,051
-277,686	-133,240	0,091	0,008
-276,672	100,968	-0,078	-0,065
-275,657	76,421	-0,078	-0,059
-274,643	590,187	0,060	-0,106
-273,628	-123,168	0,173	-0,019
-272,613	800,000	-0,011	0,024
-271,599	408,729	0,017	0,025
-270,584	347,399	0,006	0,008
-269,570	-200,000	-0,037	0,147
-268,555	74,813	0,134	0,100
-267,540	-200,000	0,026	-0,128
-266,526	360,186	0,041	-0,058
-265,511	-200,000	0,029	-0,110
-264,497	800,000	-0,048	-0,142
-263,482	-200,000	0,011	0,143
-262,467	-155,098	0,134	0,006
-261,453	183,969	-0,070	0,074
-260,438	-150,050	-0,067	0,004
-259,424	-200,000	0,025	0,000
-258,409	307,749	0,030	-0,041
-257,395	-134,574	-0,099	-0,008
-256,380	429,022	0,052	0,081
-255,365	-200,000	-0,001	0,068
-254,351	-93,762	-0,057	0,011
-253,336	113,940	-0,096	-0,083
-252,322	800,000	-0,025	-0,078
-251,307	800,000	-0,012	-0,027
-250,292	-79,101	0,067	-0,016
-249,278	22,197	-0,094	-0,055
-248,263	-200,000	0,014	0,052
-247,249	-200,000	-0,011	0,164
-246,234	-200,000	0,010	-0,086
-245,219	-200,000	-0,021	0,096
-244,205	-200,000	-0,028	0,145
-243,190	325,583	0,041	-0,056
-242,176	-121,036	0,165	0,019
-241,161	-15,530	-0,092	-0,042
-240,146	-200,000	0,018	0,119
-239,132	-53,646	-0,070	-0,023
-238,117	-200,000	0,037	-0,184
-237,103	37,480	-0,117	-0,073
-236,088	58,859	-0,111	0,077
-235,073	65,938	0,039	0,028
-234,059	450,193	0,075	0,118
-233,044	-155,870	0,142	0,006
-232,030	-35,753	-0,146	0,056
-231,015	169,961	0,009	0,010
-230,000	32,168	-0,054	0,033
-228,986	-80,726	-0,015	-0,004
-227,971	19,199	0,051	0,029
-226,957	445,685	0,102	0,159
-225,942	131,658	0,013	-0,012
-224,927	-14,071	0,106	0,048
-223,913	-200,000	0,001	0,063
-222,898	98,548	-0,059	-0,049
-221,884	800,000	-0,038	0,077
-220,869	214,912	0,030	0,033
-219,855	800,000	0,032	0,099
-218,840	800,000	-0,060	0,123
-217,825	68,712	0,044	0,032
-216,811	-139,101	-0,120	-0,009
-215,796	-116,898	-0,069	-0,009
-214,782	-103,299	-0,119	-0,020
-213,767	424,904	0,051	-0,078
-212,752	-134,566	0,180	0,015
-211,738	19,360	0,032	0,018
-210,723	-200,000	0,011	-0,061
-209,709	30,604	-0,071	0,043
-208,694	246,918	0,083	-0,100
-207,679	-200,000	-0,002	-0,071
-206,665	453,829	-0,021	0,032
-205,650	800,000	0,048	0,109
-204,636	289,530	0,062	0,081
-203,621	241,821	-0,044	-0,052
-202,606	-200,000	-0,035	-0,134
-201,592	-200,000	-0,002	-0,119
-200,577	800,000	0,057	0,137
-199,563	27,888	-0,092	-0,055
-198,548	177,506	0,042	0,044
-197,533	58,913	-0,075	-0,052
-196,519	458,745	0,014	0,023
-195,504	800,000	0,029	0,071
-194,490	426,500	-0,049	-0,075
-193,475	800,000	-0,039	0,110
-192,460	64,923	-0,078	-0,056
-191,446	-84,057	0,039	-0,009
-190,431	93,894	0,178	0,143
-189,417	-114,255	-0,045	-0,006
-188,402	167,551	0,064	0,064
-187,387	-200,000	-0,002	0,093
-186,373	371,535	-0,056	0,082
-185,358	-200,000	-0,028	-0,108
-184,344	-25,291	0,030	0,012
-183,329	4,344	-0,048	0,025
-182,315	800,000	-0,040	0,106
-181,300	-200,000	-0,009	0,062
-180,285	800,000	-0,022	-0,050
-179,271	-110,847	-0,078	0,011
-178,256	-200,000	0,002	-0,068
-177,242	93,856	-0,105	-0,085
-176,227	79,371	0,031	-0,024
-175,212	58,261	-0,059	-0,041
-174,198	-173,840	0,034	-0,001
-173,183	-143,389	-0,047	0,003
-172,169	-200,000	0,013	-0,108
-171,154	60,324	-0,111	-0,078
-170,139	-116,826	0,071	0,009
-169,125	-200,000	0,009	-0,045
-168,110	266,910	0,067	0,083
-167,096	58,445	0,084	-0,059
-166,081	67,139	0,056	-0,040
-165,066	553,838	0,036	0,062
-164,052	82,614	0,048	-0,037
-163,037	312,128	0,053	-0,070
-162,023	498,436	0,076	0,124
-161,008	-76,485	-0,071	0,018
-159,993	-200,000	-0,022	0,116
-158,979	75,262	-0,074	-0,056
-157,964	550,937	0,086	0,147
-156,950	800,000	0,041	0,103
-155,935	-37,508	0,083	0,031
-154,920	148,103	0,047	-0,045
-153,906	482,794	0,064	0,104
-152,891	194,479	0,051	0,055
-151,877	-200,000	0,002	-0,039
-150,862	800,000	-0,036	-0,091
-149,847	94,043	-0,091	-0,073
-148,833	278,179	0,050	-0,064
-147,818	-98,772	0,070	-0,012
-146,804	800,000	0,041	-0,081
-145,789	-200,000	0,008	-0,062
-144,775	83,448	0,088	0,068
-143,760	800,000	-0,035	-0,071
-142,745	331,625	-0,104	-0,142
-141,731	800,000	0,063	-0,127
-140,716	-97,177	0,058	-0,011
-139,702	-173,989	0,183	0,004
-138,687	800,000	-0,044	0,130
-137,672	413,362	-0,033	-0,049
-136,658	-112,904	-0,124	0,017
-135,643	800,000	0,049	0,112
-134,629	-69,746	-0,075	0,020
-133,614	-200,000	0,023	0,076
-132,599	218,150	0,104	0,118
-131,585	28,287	-0,026	0,016
-130,570	-36,237	-0,142	-0,054
-129,556	-163,123	0,098	-0,003
-128,541	-200,000	-0,020	0,147
-127,526	800,000	0,046	0,116
-126,512	108,049	0,020	-0,017
-125,497	502,701	0,092	0,151
-124,483	480,296	0,033	0,054
-123,468	-200,000	-0,006	-0,121
-122,453	40,554	-0,151	0,097
-121,439	3,221	0,173	-0,089
-120,424	-200,000	0,000	-0,235
-119,410	-28,833	-0,054	0,022
-118,395	800,000	0,088	0,225
-117,380	-77,498	-0,141	0,034
-116,366	593,846	0,076	-0,133
-115,351	-155,975	0,106	-0,005
-114,337	-45,113	-0,115	0,040
-113,322	94,983	-0,058	-0,047
-112,307	-200,000	-0,039	-0,197
-111,293	-18,681	0,051	0,023
-110,278	170,352	-0,036	0,036
-109,264	-86,275	-0,084	0,018
-108,249	-200,000	-0,013	0,061
-107,234	-26,732	-0,085	-0,035
-106,220	152,760	-0,098	-0,095
-105,205	-14,189	0,150	-0,068
-104,191	1,652	-0,056	0,029
-103,176	-110,302	0,057	-0,008
-102,162	-200,000	0,011	0,127
-101,147	50,700	0,042	-0,028
-100,132	-13,924	0,143	-0,065
-99,118	-16,608	-0,119	0,053
-98,103	800,000	-0,017	-0,037
-97,089	390,459	0,018	0,026
-96,074	-84,036	-0,001	0,000
-95,059	501,022	0,028	0,046
-94,045	-80,635	0,094	-0,022
-93,030	-100,946	-0,068	0,012
-92,016	-200,000	0,008	-0,128
-91,001	-156,066	0,097	0,004
-89,986	-38,868	0,027	0,010
-88,972	434,659	0,011	0,018
-87,957	48,419	0,025	-0,017
-86,943	-200,000	0,024	0,098
-85,928	-200,000	-0,006	-0,067
-84,913	271,284	-0,058	0,073
-83,899	42,216	0,098	-0,063
-82,884	356,415	0,059	-0,083
-81,870	37,960	0,097	-0,061
-80,855	241,285	-0,024	0,028
-79,840	46,753	0,111	0,073
-78,826	-200,000	-0,016	-0,175
-77,811	-200,000	-0,019	-0,084
-76,797	-56,792	0,041	0,013
-75,782	-200,000	-0,016	-0,110
-74,767	-14,473	0,099	0,045
-73,753	-73,825	-0,051	-0,013
-72,738	714,152	-0,059	-0,111
-71,724	-200,000	0,002	-0,114
-70,709	-200,000	0,014	-0,120
-69,694	-200,000	-0,015	0,058
-68,680	800,000	-0,048	0,098
-67,665	-200,000	-0,003	0,066
-66,651	-200,000	0,004	0,015
-65,636	-78,816	-0,030	-0,007
-64,622	353,116	-0,028	0,039
-63,607	-4,316	-0,053	0,026
-62,592	612,897	0,020	0,036
-61,578	-200,000	0,035	0,142
-60,563	69,316	0,058	0,042
-59,549	229,797	0,079	0,092
-58,534	-7,513	-1,624	-0,775
-57,519	437,222	-1,315	-2,034
-56,505	-200,000	-0,827	-4,584
-55,490	331,991	0,981	1,343
-54,476	800,000	4,831	11,094
-53,461	-200,000	19,359	323,796
-52,446	-200,000	743,670	2331,114
-51,432	568,596	1655,711	2857,068
-50,417	77,176	1670,035	1254,174
-49,403	20,715	1543,495	881,499
-48,388	14,607	1466,108	807,617
-47,373	18,135	1455,890	818,985
-46,359	16,548	1445,699	805,621
-45,344	12,876	1441,260	785,546
-44,330	12,768	1439,543	784,060
-43,315	12,818	1437,509	783,158
-42,300	12,807	1435,948	782,225
-41,286	12,836	1434,650	781,628
-40,271	12,754	1433,458	780,554
-39,257	12,753	1432,162	779,813
-38,242	12,790	1430,994	779,324
-37,227	12,830	1429,695	778,775
-36,213	12,854	1428,081	777,980
-35,198	12,835	1427,043	777,291
-34,184	12,885	1426,311	777,098
-33,169	12,789	1424,755	775,766
-32,154	12,843	1423,681	775,405
-31,140	12,886	1422,358	774,858
-30,125	12,904	1421,281	774,327
-29,111	12,907	1420,244	773,743
-28,096	12,893	1419,035	772,989
-27,082	12,834	1418,011	772,123
-26,067	12,801	1416,916	771,343
-25,052	12,790	1415,951	770,735
-24,038	12,737	1415,024	769,950
-23,023	12,715	1414,177	769,355
-22,009	12,818	1412,677	768,988
-20,994	12,697	1412,020	768,036
-19,979	12,763	1411,038	767,781
-18,965	12,732	1409,982	767,029
-17,950	12,695	1409,145	766,368
-16,936	12,767	1408,131	766,124
-15,921	12,663	1407,422	765,220
-14,906	12,707	1406,249	764,758
-13,892	12,696	1405,388	764,212
-12,877	12,705	1404,517	763,749
-11,863	12,704	1403,735	763,287
-10,848	12,683	1402,880	762,697
-9,833	12,650	1401,918	761,986
-8,819	12,599	1401,136	761,294
-7,804	12,600	1400,211	760,768
-6,790	12,629	1399,258	760,355
-5,775	12,603	1398,137	759,592
-4,760	12,616	1397,025	759,019
-3,746	12,592	1396,120	758,387
-2,731	12,570	1395,378	757,852
-1,717	12,585	1394,344	757,329
-0,702	12,536	1392,840	756,254
0,313	16,433	1308,927	728,704
1,327	32,786	701,523	428,210
2,342	50,482	122,714	81,887
3,356	2,670	16,657	8,507
4,371	7,338	3,259	1,715
5,386	-54,004	0,636	0,203
6,400	251,052	0,122	0,146
7,415	92,677	-0,211	-0,168
8,429	-168,907	-0,281	-0,007
9,444	-39,257	-0,302	-0,111
10,459	73,456	-0,268	-0,198
11,473	309,738	-0,176	-0,233
12,488	-106,478	-0,385	-0,060
13,502	47,995	-0,296	-0,195
14,517	166,208	-0,329	-0,329
15,531	92,825	-0,349	-0,278
16,546	41,650	-0,317	-0,202
17,561	70,586	-0,448	-0,327
18,575	-124,157	-0,276	-0,030
19,590	676,119	-0,162	-0,298
20,604	7,830	-0,315	-0,166
21,619	4,850	-0,440	-0,228
22,634	323,048	-0,207	-0,279
23,648	-14,425	-0,555	-0,251
24,663	51,229	-0,423	-0,283
25,677	-40,689	-0,361	-0,131
26,692	155,319	-0,259	-0,251
27,707	-35,718	-0,372	-0,141
28,721	79,709	-0,299	-0,226
29,736	12,247	-0,346	-0,187
30,750	305,718	-0,254	-0,334
31,765	61,860	-0,377	-0,264
32,780	427,386	-0,269	-0,410
33,794	107,769	-0,404	-0,339
34,809	14,073	-0,356	-0,195
35,823	234,904	-0,290	-0,337
36,838	275,644	-0,221	-0,276
37,853	122,129	-0,373	-0,329
38,867	249,000	-0,394	-0,471
39,882	339,467	-0,279	-0,384
40,896	134,664	-0,335	-0,306
41,911	114,137	-0,287	-0,246
42,926	91,572	-0,363	-0,287
43,940	166,775	-0,250	-0,250
44,955	189,162	-0,400	-0,422
45,969	37,053	-0,452	-0,281
46,984	209,139	-0,281	-0,310
47,999	-9,136	-0,340	-0,160
49,013	-110,464	-0,396	-0,057
50,028	155,643	-0,226	-0,219
51,042	164,479	-0,396	-0,393
52,057	141,642	-0,455	-0,424
53,071	-35,325	-0,555	-0,211
54,086	-48,475	-0,380	-0,128
55,101	37,746	-0,313	-0,195
56,115	106,714	-0,326	-0,272
57,130	-28,348	-0,341	-0,138
58,144	330,181	-0,228	-0,309
59,159	44,909	-0,286	-0,185
60,174	51,914	-0,272	-0,182
61,188	80,162	-0,289	-0,218
62,203	-20,670	-0,241	-0,103
63,217	167,230	-0,396	-0,396
64,232	-36,636	-0,412	-0,155
65,247	62,631	-0,457	-0,321
66,261	47,571	-0,303	-0,199
67,276	-16,941	-0,393	-0,174
68,290	129,338	-0,274	-0,246
69,305	25,058	-0,252	-0,147
70,320	-115,603	-0,286	-0,037
71,334	-1,092	-0,457	-0,226
72,349	72,933	-0,323	-0,237
73,363	107,767	-0,416	-0,348
74,378	-74,243	-0,306	-0,077
75,393	-46,275	-0,399	-0,137
76,407	-126,976	-0,285	-0,029
77,422	5,634	-0,349	-0,180
78,436	104,803	-0,208	-0,172
79,451	78,780	-0,355	-0,267
80,466	-130,373	-0,413	-0,039
81,480	1,234	-0,314	-0,158
82,495	46,777	-0,319	-0,207
83,509	48,845	-0,247	-0,163
84,524	16,332	-0,294	-0,162
85,539	48,794	-0,307	-0,202
86,553	410,727	-0,168	-0,251
87,568	-18,536	-0,290	-0,126
88,582	44,861	-0,352	-0,227
89,597	-120,468	-0,131	-0,015
90,611	-28,866	-0,282	-0,113
91,626	-106,658	-0,387	-0,060
92,641	91,431	-0,176	-0,138
93,655	1,420	-0,370	-0,186
94,670	140,763	-0,276	-0,256
95,684	-13,637	-0,305	-0,138
96,699	46,642	-0,285	-0,185
97,714	228,231	-0,187	-0,214
98,728	-133,839	-0,309	-0,027
99,743	112,421	-0,232	-0,197
100,757	737,772	-0,121	-0,228
101,772	-11,053	-0,358	-0,165
102,787	261,822	-0,269	-0,327
103,801	126,507	-0,293	-0,260
104,816	129,510	-0,211	-0,189
105,830	66,260	-0,248	-0,176
106,845	13,768	-0,222	-0,120
107,860	0,115	-0,258	-0,128
108,874	189,273	-0,204	-0,215
109,889	107,629	-0,221	-0,184
110,903	40,364	-0,302	-0,190
111,918	251,328	-0,145	-0,173
112,933	207,961	-0,167	-0,183
113,947	54,332	-0,260	-0,175
114,962	-66,136	-0,247	-0,068
115,976	-55,803	-0,324	-0,101
116,991	-92,091	-0,234	-0,046
118,006	377,953	-0,169	-0,243
119,020	332,785	-0,164	-0,222
120,035	-157,322	-0,280	-0,012
121,049	240,307	-0,146	-0,171
122,064	234,018	-0,210	-0,242
123,079	4,888	-0,350	-0,179
124,093	16,407	-0,299	-0,165
125,108	-28,029	-0,149	-0,060
126,122	732,847	-0,145	-0,272
127,137	375,689	-0,137	-0,196
128,151	220,405	-0,194	-0,218
129,166	194,707	-0,172	-0,183
130,181	27,325	-0,191	-0,112
131,195	217,040	-0,256	-0,285
132,210	-0,515	-0,350	-0,173
133,224	-25,538	-0,257	-0,106
134,239	70,428	-0,246	-0,178
135,254	190,198	-0,201	-0,211
136,268	264,622	-0,177	-0,216
137,283	1,419	-0,289	-0,145
138,297	100,780	-0,280	-0,227
139,312	119,539	-0,339	-0,293
140,327	-19,754	-0,302	-0,130
141,341	706,219	-0,137	-0,253
142,356	-67,923	-0,150	-0,041
143,370	167,776	-0,131	-0,130
144,385	-29,100	-0,142	-0,057
145,400	37,681	-0,232	-0,144
146,414	394,338	-0,201	-0,293
147,429	-200,000	-0,060	-0,327
148,443	258,589	-0,155	-0,187
149,458	21,890	-0,336	-0,191
150,473	136,764	-0,186	-0,170
151,487	110,111	-0,227	-0,190
152,502	83,719	-0,341	-0,259
153,516	318,225	-0,137	-0,182
154,531	-49,770	-0,259	-0,085
155,546	89,415	-0,224	-0,174
156,560	-22,577	-0,294	-0,123
157,575	-16,725	-0,181	-0,079
158,589	58,778	-0,111	-0,076
159,604	-53,128	-0,243	-0,077
160,619	95,332	-0,299	-0,237
161,633	68,777	-0,231	-0,165
162,648	8,817	-0,191	-0,100
163,662	13,384	-0,193	-0,104
164,677	170,099	-0,058	-0,058
165,692	106,355	-0,236	-0,195
166,706	-3,865	-0,320	-0,154
167,721	191,345	-0,278	-0,292
168,735	114,887	-0,270	-0,229
169,750	202,733	-0,254	-0,273
170,764	78,693	-0,261	-0,194
171,779	170,271	-0,202	-0,201
172,794	80,929	-0,156	-0,117
173,808	102,287	-0,257	-0,209
174,823	228,678	-0,234	-0,266
175,837	405,003	-0,229	-0,337
176,852	314,114	-0,213	-0,280
177,867	800,000	-0,075	-0,190
178,881	135,137	-0,160	-0,145
179,896	-136,985	-0,236	0,019
180,910	800,000	-0,091	-0,259
181,925	10,622	-0,274	-0,145
182,940	-21,597	-0,332	-0,140
183,954	59,143	-0,256	-0,175
184,969	25,030	-0,188	-0,108
185,983	373,570	-0,095	-0,135
186,998	-50,398	-0,202	-0,066
188,013	91,068	-0,110	-0,085
189,027	308,754	-0,171	-0,222
190,042	329,320	-0,157	-0,211
191,056	236,686	-0,133	-0,154
192,071	189,823	-0,155	-0,162
193,086	226,685	-0,145	-0,164
194,100	-28,188	-0,163	-0,065
195,115	800,000	-0,086	-0,190
196,129	639,930	-0,110	-0,195
197,144	-7,703	-0,247	-0,116
198,159	19,049	-0,165	-0,092
199,173	73,725	-0,116	-0,084
200,188	236,923	-0,197	-0,227
201,202	104,894	-0,218	-0,178
202,217	58,798	-0,213	-0,145
203,232	144,851	-0,287	-0,267
204,246	21,582	-0,240	-0,135
205,261	8,110	-0,252	-0,131
206,275	-18,756	-0,265	-0,114
207,290	117,247	-0,148	-0,126
208,304	57,458	-0,091	-0,062
209,319	39,150	-0,228	-0,141
210,334	48,175	-0,254	-0,165
211,348	533,978	-0,159	-0,263
212,363	89,041	-0,197	-0,152
213,377	-77,809	-0,299	-0,071
214,392	-108,482	-0,167	-0,025
215,407	-15,871	-0,141	-0,062
216,421	238,204	-0,165	-0,190
217,436	545,942	-0,120	-0,200
218,450	351,114	-0,159	-0,219
219,465	-49,536	-0,304	-0,100
220,480	-51,557	-0,192	-0,062
221,494	486,433	-0,093	-0,147
222,509	337,045	-0,113	-0,152
223,523	-99,462	-0,203	-0,035
224,538	415,630	-0,195	-0,290
225,553	800,000	-0,087	-0,194
226,567	-144,623	-0,175	-0,011
227,582	-56,149	-0,144	-0,044
228,596	524,317	-0,166	-0,272
229,611	-200,000	-0,056	-0,263
230,626	35,437	-0,080	-0,049
231,640	449,783	-0,102	-0,156
232,655	-12,784	-0,305	-0,137
233,669	421,345	-0,159	-0,237
234,684	710,248	-0,150	-0,276
235,699	488,181	-0,144	-0,229
236,713	-200,000	-0,155	0,000
237,728	800,000	-0,042	-0,085
238,742	105,555	-0,202	-0,165
239,757	485,014	-0,094	-0,149
240,772	67,895	-0,198	-0,140
241,786	651,526	-0,109	-0,194
242,801	238,508	-0,259	-0,298
243,815	-57,398	-0,178	0,054
244,830	-91,253	-0,244	-0,048
245,844	11,654	-0,040	-0,021
246,859	23,242	-0,220	-0,125
247,874	698,030	-0,101	-0,185
248,888	202,758	-0,177	-0,189
249,903	-171,926	-0,267	-0,006
250,917	-167,008	-0,152	-0,004
251,932	142,089	-0,185	-0,170
252,947	280,390	-0,166	-0,206
253,961	578,924	-0,125	-0,212
254,976	46,813	-0,230	-0,147
255,990	279,541	-0,221	-0,273
257,005	263,164	-0,168	-0,202
258,020	12,532	-0,186	-0,099
259,034	461,907	-0,146	-0,226
260,049	54,966	-0,092	-0,062
261,063	95,703	-0,126	-0,099
262,078	800,000	-0,136	-0,304
263,093	150,498	-0,221	-0,208
264,107	-20,810	-0,201	-0,085
265,122	2,079	-0,123	-0,061
266,136	-89,862	-0,217	-0,043
267,151	-121,817	-0,188	0,021
268,166	-70,460	-0,184	-0,048
269,180	-91,755	-0,159	-0,031
270,195	-167,130	-0,148	0,004
271,209	551,806	-0,078	-0,131
272,224	800,000	-0,088	-0,178
273,239	341,453	-0,057	-0,077
274,253	279,582	-0,181	-0,224
275,268	-144,344	-0,138	0,009
276,282	559,051	-0,167	-0,279
277,297	-122,795	-0,214	-0,024
278,312	641,904	-0,179	-0,316
279,326	-124,518	-0,232	-0,025
280,341	47,699	-0,131	-0,084
281,355	-8,684	-0,115	-0,053
282,370	-121,905	-0,209	-0,023
283,384	83,253	-0,195	-0,146
284,399	141,322	-0,169	-0,155
285,414	139,793	-0,111	-0,101
286,428	800,000	-0,086	-0,250
287,443	335,637	-0,181	-0,242
288,457	93,061	-0,101	-0,079
289,472	244,692	-0,096	-0,111
290,487	88,652	-0,187	-0,143
291,501	-1,175	-0,155	-0,075
292,516	192,238	-0,124	-0,129
293,530	-87,724	-0,193	-0,040
294,545	-106,402	-0,148	-0,023
295,560	-77,249	-0,129	-0,031
296,574	147,761	-0,079	-0,073
297,589	-200,000	-0,027	-0,296
298,603	26,010	-0,179	-0,103
299,618	59,365	-0,179	-0,121
300,633	800,000	-0,077	-0,160
301,647	-200,000	-0,017	-0,220
302,662	233,023	-0,121	-0,137
303,676	-147,859	-0,157	0,009
304,691	800,000	-0,088	-0,217
305,706	347,552	-0,174	-0,237
306,720	462,234	-0,162	-0,249
307,735	800,000	-0,070	-0,142
308,749	170,303	-0,223	-0,219
309,764	61,827	-0,107	-0,073
310,779	36,628	-0,073	-0,044
311,793	800,000	-0,100	-0,265
312,808	800,000	-0,091	-0,180
313,822	458,344	-0,140	-0,215
314,837	9,440	-0,221	-0,115
315,852	71,007	-0,104	-0,074
316,866	-200,000	-0,013	0,084
317,881	41,085	-0,144	-0,089
318,895	-20,839	-0,099	-0,042
319,910	69,061	-0,159	-0,112
320,925	166,989	-0,093	-0,091
321,939	596,619	-0,137	-0,235
322,954	168,117	-0,092	-0,090
323,968	-140,506	-0,187	0,013
324,983	-82,806	-0,142	0,031
325,997	99,735	-0,078	-0,062
327,012	261,511	-0,167	-0,199
328,027	328,258	-0,090	-0,119
329,041	-112,589	-0,173	0,023
330,056	800,000	0,069	-0,171
331,070	153,220	-0,181	-0,170
332,085	115,507	-0,085	0,071
333,100	261,444	-0,033	0,039
334,114	103,813	-0,140	-0,113
335,129	-74,075	-0,228	-0,056
336,143	50,321	-0,047	-0,030
337,158	19,798	-0,135	-0,074
338,173	243,761	-0,144	-0,166
339,187	18,699	-0,090	0,049
340,202	-52,039	-0,235	-0,074
341,216	-24,428	-0,155	-0,063
342,231	-4,850	-0,117	-0,055
343,246	229,247	-0,175	-0,197
344,260	800,000	-0,049	-0,095
345,275	-200,000	-0,006	-0,180
346,289	-70,436	-0,126	-0,033
347,304	28,581	-0,135	-0,078
348,319	72,113	-0,092	-0,065
349,333	53,338	-0,100	-0,066
350,348	-8,954	-0,158	0,072
351,362	-59,597	-0,152	-0,044
352,377	195,309	-0,120	-0,125
353,392	-6,350	-0,187	-0,087
354,406	-75,494	-0,104	-0,025
355,421	209,000	1315,417	1412,988
356,435	160,839	1476,211	1413,471
