DTS Sentinel unit serial number:	SN410029Multiplexer serial number:	ORYXHardware model number:	OX2-SRSoftware version number:	ORYX F/W v4,00 Oryx Data Collector v3.7.2.0data status	okinstallation	B3 Nyhavnadifferential loss correction	single-endedforward channel	channel 1reverse channel	N/Adate	2023/11/29time	15:47:30forward acquisition time	300,00reverse acquisition time	0,00gamma	499,1914k internal	0,3210k external	0,3210temperature offset calibration	1,0000default loss term (dB/km)	0,3820temperature slope calibration	1,0000multiplexer offset coefficient	1,0000multiplexer slope coefficient	1,0000fibre end	0,00T internal ref (°C)	11,36T ext. ref 1 (°C)	-3,24T ext. ref 2 (°C)	-3,38length (m)	temperature (°C)	Stokes	anti-Stokes-744,400	145,645	-0,209	-0,203
-743,385	173,109	-0,131	0,137
-742,371	423,627	-0,161	-0,251
-741,356	361,694	0,132	0,193
-740,342	136,445	-0,229	-0,217
-739,327	800,000	-0,114	0,334
-738,312	543,031	-0,204	-0,354
-737,298	-200,000	-0,052	0,186
-736,283	297,857	-0,253	-0,338
-735,269	-200,000	-0,062	0,313
-734,254	98,140	-0,173	-0,145
-733,239	-111,934	-0,193	0,028
-732,225	378,272	-0,108	-0,160
-731,210	57,608	0,169	0,120
-730,196	-43,219	-0,065	-0,024
-729,181	100,399	-0,155	0,130
-728,167	-137,693	0,065	-0,005
-727,152	-200,000	0,003	0,051
-726,137	752,454	-0,030	0,058
-725,123	-200,000	-0,023	-0,115
-724,108	97,718	-0,047	-0,039
-723,094	-200,000	0,032	-0,132
-722,079	-200,000	-0,032	-0,123
-721,064	-12,933	-0,091	0,043
-720,050	330,291	-0,018	0,025
-719,035	-200,000	0,029	-0,115
-718,021	349,370	-0,064	-0,092
-717,006	124,863	-0,100	-0,092
-715,991	-17,383	-0,138	0,063
-714,977	145,732	0,075	0,073
-713,962	-86,899	-0,087	-0,019
-712,948	-190,766	-0,044	0,000
-711,933	-200,000	0,011	-0,042
-710,918	123,132	0,045	-0,041
-709,904	-200,000	0,004	-0,031
-708,889	-152,688	-0,157	-0,008
-707,875	800,000	-0,042	-0,087
-706,860	-200,000	0,005	-0,087
-705,845	-111,058	0,031	0,005
-704,831	208,112	-0,113	-0,128
-703,816	279,290	-0,061	-0,079
-702,802	-200,000	0,009	0,051
-701,787	38,702	-0,051	0,033
-700,772	-200,000	0,021	-0,169
-699,758	-126,886	-0,064	0,007
-698,743	-200,000	-0,007	-0,090
-697,729	-200,000	-0,032	0,124
-696,714	245,268	0,079	0,096
-695,699	-36,822	-0,099	0,038
-694,685	-200,000	-0,033	0,145
-693,670	32,731	-0,057	0,035
-692,656	-200,000	0,008	-0,057
-691,641	189,678	-0,035	0,038
-690,627	16,618	0,107	0,061
-689,612	-200,000	-0,014	-0,046
-688,597	61,036	-0,059	-0,043
-687,583	800,000	0,016	0,037
-686,568	35,958	-0,026	-0,016
-685,554	-200,000	0,014	-0,114
-684,539	-200,000	0,002	0,039
-683,524	717,515	-0,040	0,078
-682,510	800,000	-0,015	0,034
-681,495	214,372	-0,036	-0,041
-680,481	-200,000	0,022	-0,109
-679,466	800,000	0,042	-0,127
-678,451	83,625	-0,046	0,037
-677,437	349,772	0,018	-0,025
-676,422	-49,261	0,077	-0,027
-675,408	-83,136	-0,085	-0,020
-674,393	280,299	0,056	-0,072
-673,378	186,315	-0,090	-0,097
-672,364	-89,512	-0,052	-0,011
-671,349	-200,000	-0,009	-0,118
-670,335	257,729	-0,011	0,014
-669,320	800,000	0,044	0,093
-668,305	-161,737	-0,039	-0,001
-667,291	-97,579	-0,156	0,029
-666,276	122,184	0,074	-0,066
-665,262	-74,355	-0,111	-0,029
-664,247	-55,032	0,130	0,042
-663,232	-57,330	0,089	-0,028
-662,218	-200,000	-0,040	0,127
-661,203	-168,001	0,123	0,003
-660,189	156,732	-0,025	-0,025
-659,174	-69,176	0,090	-0,025
-658,159	-0,214	-0,069	0,035
-657,145	-200,000	-0,023	-0,107
-656,130	-200,000	-0,025	-0,096
-655,116	388,833	-0,071	0,107
-654,101	335,586	-0,034	0,048
-653,086	93,093	-0,077	-0,063
-652,072	-200,000	-0,025	-0,084
-651,057	1,980	-0,121	0,063
-650,043	65,765	-0,063	0,046
-649,028	800,000	-0,015	0,048
-648,014	-200,000	-0,028	0,148
-646,999	-98,467	-0,039	-0,007
-645,984	97,149	0,041	-0,034
-644,970	196,559	-0,025	-0,027
-643,955	-200,000	-0,022	0,154
-642,941	-200,000	-0,020	-0,093
-641,926	-47,325	-0,013	0,005
-640,911	-200,000	-0,007	0,029
-639,897	800,000	-0,023	-0,059
-638,882	223,986	0,076	-0,089
-637,868	463,478	-0,040	-0,065
-636,853	-200,000	-0,004	-0,075
-635,838	800,000	0,068	-0,141
-634,824	289,372	0,017	0,022
-633,809	47,156	-0,088	-0,059
-632,795	-181,885	0,126	0,002
-631,780	800,000	-0,014	0,039
-630,765	-200,000	0,020	0,100
-629,751	299,214	-0,095	-0,126
-628,736	-24,677	-0,124	-0,053
-627,722	-200,000	0,017	-0,068
-626,707	-200,000	0,011	-0,099
-625,692	-84,672	0,061	-0,014
-624,678	179,194	-0,011	0,012
-623,663	-85,813	0,123	-0,027
-622,649	-97,436	-0,033	0,006
-621,634	28,370	-0,061	-0,037
-620,619	-143,043	-0,054	-0,004
-619,605	-200,000	0,021	-0,083
-618,590	273,979	0,098	-0,126
-617,576	5,442	0,047	-0,025
-616,561	800,000	-0,039	-0,095
-615,546	553,638	-0,032	0,056
-614,532	-200,000	-0,025	-0,098
-613,517	-96,480	0,030	0,006
-612,503	208,565	0,034	0,038
-611,488	800,000	-0,015	0,037
-610,474	800,000	-0,032	0,089
-609,459	-33,759	0,108	0,043
-608,444	-27,519	-0,268	-0,112
-607,430	-50,317	0,088	-0,030
-606,415	-4,323	-0,065	-0,032
-605,401	-178,461	-0,046	-0,001
-604,386	-200,000	0,003	-0,048
-603,371	800,000	-0,041	0,121
-602,357	701,719	0,035	0,067
-601,342	121,242	-0,101	0,091
-600,328	51,891	-0,063	0,043
-599,313	347,394	-0,054	0,078
-598,298	34,004	0,070	0,044
-597,284	-86,126	0,080	-0,018
-596,269	46,019	-0,091	0,061
-595,255	-200,000	-0,031	-0,106
-594,240	-200,000	-0,025	-0,136
-593,225	288,655	-0,011	0,014
-592,211	-200,000	0,014	-0,158
-591,196	-79,072	0,044	-0,011
-590,182	-200,000	0,008	0,078
-589,167	800,000	-0,025	-0,054
-588,152	3,384	-0,131	-0,069
-587,138	-63,960	0,119	-0,035
-586,123	-66,078	-0,063	-0,018
-585,109	-154,029	-0,092	-0,004
-584,094	103,115	0,096	0,081
-583,079	368,430	0,069	-0,100
-582,065	800,000	-0,037	-0,089
-581,050	-23,762	-0,039	-0,017
-580,036	20,245	-0,065	-0,038
-579,021	254,745	0,045	-0,056
-578,006	-200,000	-0,030	-0,125
-576,992	33,996	-0,084	-0,053
-575,977	199,336	0,090	-0,099
-574,963	195,195	0,014	-0,015
-573,948	-88,176	0,112	0,024
-572,934	-36,273	-0,093	-0,036
-571,919	-86,103	0,024	0,005
-570,904	-103,238	-0,061	0,010
-569,890	800,000	-0,099	0,223
-568,875	74,796	-0,009	-0,007
-567,861	-200,000	-0,015	0,081
-566,846	96,384	-0,061	-0,051
-565,831	-37,103	0,065	0,025
-564,817	-200,000	-0,020	-0,111
-563,802	-200,000	0,007	-0,037
-562,788	-181,606	0,103	-0,001
-561,773	201,831	-0,010	-0,011
-560,758	800,000	0,009	0,022
-559,744	142,129	0,040	0,038
-558,729	800,000	0,018	0,037
-557,715	800,000	-0,070	-0,164
-556,700	-200,000	-0,009	-0,242
-555,685	-80,791	-0,037	-0,009
-554,671	189,203	-0,078	0,085
-553,656	-200,000	0,021	0,129
-552,642	454,140	0,054	0,087
-551,627	-169,106	0,040	0,001
-550,612	331,669	0,024	-0,033
-549,598	-84,318	0,102	-0,023
-548,583	-130,218	0,047	0,005
-547,569	-19,458	-0,031	0,014
-546,554	520,291	0,026	0,044
-545,539	19,570	0,109	0,063
-544,525	162,670	0,011	-0,011
-543,510	-200,000	0,024	0,078
-542,496	-145,065	-0,075	-0,005
-541,481	25,217	-0,085	-0,051
-540,466	-86,164	-0,121	-0,027
-539,452	-200,000	-0,005	-0,063
-538,437	18,649	0,058	-0,033
-537,423	-200,000	-0,003	0,140
-536,408	-38,056	0,102	0,039
-535,393	-200,000	-0,011	-0,047
-534,379	-200,000	0,036	-0,122
-533,364	133,392	0,052	0,048
-532,350	-200,000	-0,022	-0,135
-531,335	-200,000	0,006	0,025
-530,321	-200,000	0,023	-0,083
-529,306	-200,000	-0,031	-0,109
-528,291	-200,000	0,016	-0,120
-527,277	-130,472	-0,079	0,008
-526,262	-200,000	0,004	-0,020
-525,248	-200,000	-0,009	0,031
-524,233	116,914	0,100	0,089
-523,218	-200,000	0,012	-0,065
-522,204	532,687	-0,023	-0,040
-521,189	111,429	-0,102	-0,088
-520,175	119,010	-0,091	-0,081
-519,160	-55,927	-0,119	-0,038
-518,145	-200,000	0,029	-0,100
-517,131	177,964	0,077	-0,080
-516,116	-200,000	0,010	0,050
-515,102	-76,243	0,115	0,029
-514,087	7,430	-0,071	0,038
-513,072	-75,360	-0,158	-0,040
-512,058	82,140	0,073	0,057
-511,043	-133,484	-0,066	-0,006
-510,029	220,662	-0,099	-0,114
-509,014	117,198	-0,027	-0,024
-507,999	771,264	0,013	-0,025
-506,985	28,719	-0,086	-0,052
-505,970	-200,000	-0,001	-0,008
-504,956	-200,000	-0,009	-0,122
-503,941	-132,141	-0,127	0,012
-502,926	-171,347	0,113	0,003
-501,912	39,972	-0,083	0,054
-500,897	800,000	-0,014	-0,040
-499,883	-17,673	-0,041	-0,018
-498,868	-73,545	-0,127	0,033
-497,853	201,088	-0,030	-0,033
-496,839	259,760	0,062	-0,077
-495,824	83,344	0,098	-0,077
-494,810	-200,000	0,010	0,043
-493,795	800,000	0,033	0,083
-492,781	22,584	0,047	-0,027
-491,766	-200,000	-0,010	-0,096
-490,751	93,712	0,056	-0,046
-489,737	61,264	0,112	0,080
-488,722	-200,000	-0,001	0,039
-487,708	22,641	0,048	0,028
-486,693	-200,000	0,008	0,069
-485,678	125,276	0,035	-0,032
-484,664	195,520	-0,047	-0,052
-483,649	800,000	0,036	-0,103
-482,635	-200,000	0,002	-0,059
-481,620	-75,668	-0,068	-0,017
-480,605	800,000	0,039	0,093
-479,591	-200,000	-0,022	0,160
-478,576	-72,298	-0,034	0,009
-477,562	-78,594	-0,047	-0,012
-476,547	284,848	0,042	-0,055
-475,532	24,071	-0,041	-0,025
-474,518	-16,426	0,100	0,046
-473,503	-200,000	-0,004	-0,034
-472,489	-200,000	0,020	0,109
-471,474	800,000	-0,046	-0,116
-470,459	-4,535	-0,065	-0,032
-469,445	218,418	0,048	-0,055
-468,430	800,000	-0,019	-0,045
-467,416	-45,389	0,055	0,019
-466,401	659,437	0,096	0,177
-465,386	580,609	0,048	0,084
-464,372	-200,000	0,032	0,119
-463,357	268,847	-0,076	0,095
-462,343	70,350	-0,129	-0,095
-461,328	-200,000	-0,004	-0,028
-460,313	766,832	-0,028	-0,055
-459,299	-200,000	-0,006	-0,082
-458,284	-46,926	0,082	0,029
-457,270	-57,787	0,096	-0,030
-456,255	-62,726	-0,199	-0,059
-455,241	63,389	-0,064	-0,046
-454,226	458,286	0,080	0,128
-453,211	-200,000	-0,010	-0,087
-452,197	185,487	-0,044	0,047
-451,182	546,277	0,018	0,031
-450,168	194,643	-0,019	-0,020
-449,153	-145,427	-0,128	0,008
-448,138	-111,118	0,162	-0,024
-447,124	-200,000	0,007	0,092
-446,109	-200,000	-0,001	0,110
-445,095	800,000	-0,013	-0,040
-444,080	800,000	-0,017	0,054
-443,065	480,216	0,052	0,084
-442,051	424,346	-0,032	0,049
-441,036	-75,339	-0,151	-0,038
-440,022	5,429	0,110	-0,058
-439,007	-77,888	-0,067	-0,017
-437,992	-200,000	0,021	-0,080
-436,978	-25,792	-0,075	0,031
-435,963	-30,972	0,169	-0,068
-434,949	470,311	-0,051	0,083
-433,934	130,902	-0,073	-0,067
-432,919	800,000	-0,058	-0,123
-431,905	-200,000	0,012	-0,053
-430,890	800,000	0,051	-0,102
-429,876	418,890	0,141	0,216
-428,861	-200,000	0,005	0,088
-427,846	-200,000	-0,015	0,147
-426,832	-39,957	-0,038	0,014
-425,817	-200,000	-0,020	-0,167
-424,803	-200,000	0,001	0,124
-423,788	84,047	0,120	0,094
-422,773	-26,610	-0,056	0,023
-421,759	-136,344	-0,069	0,006
-420,744	351,628	0,013	-0,019
-419,730	-200,000	-0,021	0,100
-418,715	-138,176	-0,106	0,008
-417,701	148,032	-0,052	0,051
-416,686	176,180	0,063	-0,066
-415,671	800,000	-0,066	0,160
-414,657	-10,882	0,094	0,044
-413,642	283,802	-0,078	0,100
-412,628	800,000	-0,027	-0,064
-411,613	40,856	0,064	-0,042
-410,598	-146,825	-0,009	0,001
-409,584	344,245	0,086	0,122
-408,569	23,667	0,053	0,031
-407,555	769,813	0,022	0,044
-406,540	466,440	0,028	0,046
-405,525	-171,655	-0,115	0,003
-404,511	345,347	-0,110	-0,155
-403,496	-54,319	-0,058	-0,019
-402,482	-200,000	-0,005	0,172
-401,467	-200,000	0,008	0,147
-400,452	425,918	0,100	0,155
-399,438	-62,307	0,074	0,022
-398,423	19,468	0,061	-0,035
-397,409	800,000	0,033	-0,083
-396,394	572,674	-0,037	-0,065
-395,379	-200,000	0,004	0,029
-394,365	-37,647	0,160	0,061
-393,350	84,007	-0,037	-0,029
-392,336	800,000	0,004	0,012
-391,321	118,865	0,013	0,011
-390,306	-72,724	-0,025	-0,006
-389,292	-200,000	0,001	-0,065
-388,277	543,808	-0,055	-0,094
-387,263	-200,000	-0,019	0,066
-386,248	-162,323	-0,077	0,003
-385,233	302,412	-0,029	-0,038
-384,219	-200,000	-0,036	-0,160
-383,204	800,000	-0,055	-0,167
-382,190	-101,928	0,175	-0,030
-381,175	-73,799	0,115	0,030
-380,160	427,722	0,080	0,124
-379,146	-26,417	0,065	-0,027
-378,131	669,509	0,049	0,091
-377,117	-71,079	0,114	-0,030
-376,102	-31,625	-0,123	-0,049
-375,088	-200,000	-0,029	-0,138
-374,073	102,757	-0,093	-0,078
-373,058	-200,000	0,025	0,110
-372,044	-200,000	-0,037	0,180
-371,029	9,928	0,141	0,076
-370,015	-127,665	-0,106	0,011
-369,000	-80,467	-0,023	0,005
-367,985	-70,866	-0,050	-0,013
-366,971	108,732	-0,059	0,050
-365,956	15,520	0,088	0,049
-364,942	288,623	0,061	0,079
-363,927	30,294	0,160	-0,098
-362,912	-125,981	-0,084	-0,009
-361,898	-52,654	-0,199	0,065
-360,883	602,693	-0,063	-0,112
-359,869	-187,818	0,084	0,001
-358,854	82,838	0,079	0,061
-357,839	800,000	0,017	0,047
-356,825	-200,000	-0,006	0,147
-355,810	-45,625	-0,076	-0,027
-354,796	800,000	-0,026	0,069
-353,781	800,000	0,013	-0,034
-352,766	45,972	-0,126	-0,083
-351,752	-200,000	-0,071	-0,000
-350,737	16,343	0,109	0,061
-349,723	-53,947	-0,109	0,035
-348,708	-200,000	0,030	0,123
-347,693	0,774	0,029	0,015
-346,679	159,068	-0,025	-0,025
-345,664	373,034	-0,057	0,083
-344,650	364,370	0,119	0,171
-343,635	-54,349	0,037	0,012
-342,620	169,700	0,105	0,107
-341,606	-200,000	0,034	-0,118
-340,591	-0,161	-0,012	0,006
-339,577	-200,000	0,006	0,031
-338,562	800,000	0,068	-0,142
-337,548	24,375	0,039	0,023
-336,533	-15,131	0,055	-0,025
-335,518	513,695	-0,030	0,050
-334,504	-110,429	-0,089	0,013
-333,489	-200,000	-0,014	0,060
-332,475	330,314	0,026	-0,035
-331,460	-92,534	-0,087	-0,017
-330,445	13,270	-0,145	0,080
-329,431	-132,437	-0,082	0,007
-328,416	800,000	0,020	-0,056
-327,402	800,000	0,015	-0,034
-326,387	800,000	0,041	-0,083
-325,372	0,963	-0,082	0,042
-324,358	75,208	-0,050	0,037
-323,343	-74,944	0,151	0,038
-322,329	223,187	-0,101	0,116
-321,314	464,486	0,047	0,076
-320,299	433,739	-0,012	-0,019
-319,285	74,879	0,091	0,068
-318,270	416,014	0,054	-0,082
-317,256	226,190	-0,102	-0,118
-316,241	-8,229	-0,144	0,069
-315,226	-37,733	0,071	0,027
-314,212	-148,887	0,072	0,004
-313,197	301,297	-0,060	0,079
-312,183	800,000	0,029	0,086
-311,168	89,696	0,152	-0,121
-310,153	-200,000	0,004	-0,097
-309,139	27,798	-0,121	-0,073
-308,124	-200,000	0,013	-0,049
-307,110	-9,887	-0,022	0,010
-306,095	-98,057	0,103	0,019
-305,080	-4,236	0,078	0,038
-304,066	488,502	-0,097	-0,159
-303,051	800,000	-0,032	-0,085
-302,037	324,067	-0,052	0,070
-301,022	26,049	0,034	0,020
-300,008	800,000	-0,015	0,038
-298,993	-40,415	0,108	0,040
-297,978	-91,458	-0,030	0,006
-296,964	16,672	-0,066	-0,037
-295,949	151,552	-0,025	-0,024
-294,935	66,780	-0,069	-0,050
-293,920	219,899	0,024	-0,028
-292,905	19,531	0,080	0,046
-291,891	-12,330	0,046	-0,021
-290,876	-112,473	0,085	0,012
-289,862	761,344	0,051	0,099
-288,847	215,262	-0,040	-0,045
-287,832	639,945	0,028	0,051
-286,818	156,750	-0,037	-0,036
-285,803	-23,278	0,055	-0,023
-284,789	-143,163	0,109	0,007
-283,774	-149,625	-0,134	0,007
-282,759	192,943	-0,047	0,051
-281,745	-200,000	0,004	0,065
-280,730	123,156	0,073	0,065
-279,716	-56,830	-0,162	0,051
-278,701	347,199	0,061	0,086
-277,686	-37,220	0,138	0,052
-276,672	253,829	0,139	0,170
-275,657	314,083	-0,043	0,058
-274,643	-200,000	0,006	0,035
-273,628	44,977	-0,080	0,052
-272,613	183,245	0,031	-0,032
-271,599	222,882	0,124	0,143
-270,584	11,323	0,037	0,020
-269,570	66,440	-0,044	-0,032
-268,555	-105,470	-0,096	0,015
-267,540	-200,000	-0,008	-0,098
-266,526	53,135	-0,118	-0,080
-265,511	231,161	0,068	0,079
-264,497	-87,668	-0,091	0,019
-263,482	774,950	0,053	0,103
-262,467	45,155	0,079	-0,052
-261,453	-71,655	-0,087	-0,023
-260,438	-108,124	-0,045	-0,007
-259,424	800,000	-0,021	-0,045
-258,409	428,123	0,049	0,076
-257,395	432,959	0,007	-0,011
-256,380	-200,000	0,019	0,081
-255,365	31,030	-0,063	0,039
-254,351	-5,668	-0,012	0,006
-253,336	800,000	-0,031	-0,081
-252,322	800,000	-0,095	-0,214
-251,307	800,000	0,059	-0,119
-250,292	533,442	-0,028	0,048
-249,278	-31,530	0,135	0,054
-248,263	16,934	0,081	-0,046
-247,249	-200,000	-0,014	-0,089
-246,234	198,823	0,040	0,043
-245,219	800,000	0,048	-0,133
-244,205	13,947	-0,078	-0,043
-243,190	-200,000	0,023	0,107
-242,176	64,744	0,046	-0,033
-241,161	-200,000	-0,023	-0,087
-240,146	-200,000	-0,040	-0,155
-239,132	-129,448	-0,102	-0,010
-238,117	-66,330	-0,093	0,026
-237,103	270,252	0,056	-0,070
-236,088	-27,326	0,089	0,037
-235,073	-82,100	-0,100	0,023
-234,059	-200,000	0,034	0,127
-233,044	-200,000	0,010	0,166
-232,030	153,306	0,012	-0,012
-231,015	-200,000	-0,018	-0,134
-230,000	253,339	-0,104	-0,126
-228,986	800,000	-0,014	-0,041
-227,971	-160,377	0,089	-0,003
-226,957	202,464	0,022	0,025
-225,942	266,621	0,061	0,076
-224,927	-31,783	-0,091	-0,036
-223,913	800,000	0,030	0,064
-222,898	108,802	0,094	-0,080
-221,884	-200,000	0,008	0,026
-220,869	-1,766	0,031	0,015
-219,855	800,000	0,027	0,077
-218,840	-200,000	0,008	-0,083
-217,825	18,730	-0,107	0,061
-216,811	-91,818	-0,054	-0,011
-215,796	172,501	-0,102	0,104
-214,782	-26,343	0,078	-0,033
-213,767	6,310	0,141	-0,074
-212,752	97,573	0,021	0,017
-211,738	402,546	0,048	0,072
-210,723	-154,711	0,034	0,002
-209,709	-20,702	-0,121	-0,052
-208,694	15,673	-0,118	-0,065
-207,679	-30,072	-0,112	-0,045
-206,665	-200,000	-0,007	0,134
-205,650	-200,000	0,020	0,131
-204,636	-59,536	0,044	0,013
-203,621	285,595	0,058	0,075
-202,606	800,000	-0,050	-0,148
-201,592	-200,000	0,005	-0,121
-200,577	-24,754	-0,070	0,029
-199,563	800,000	-0,009	0,029
-198,548	265,222	0,138	0,171
-197,533	26,555	-0,150	0,089
-196,519	800,000	-0,030	0,080
-195,504	-4,173	-0,064	0,032
-194,490	-200,000	-0,003	-0,056
-193,475	-200,000	-0,014	0,166
-192,460	467,929	-0,044	-0,070
-191,446	-200,000	-0,010	0,089
-190,431	-200,000	0,022	0,082
-189,417	193,865	0,030	-0,032
-188,402	-165,010	0,064	-0,002
-187,387	-19,306	0,103	-0,045
-186,373	730,359	-0,014	-0,027
-185,358	-200,000	-0,015	-0,107
-184,344	-200,000	0,021	-0,091
-183,329	-200,000	-0,010	0,082
-182,315	-60,574	-0,091	0,027
-181,300	-200,000	0,024	0,098
-180,285	297,869	0,044	0,058
-179,271	399,712	-0,074	-0,110
-178,256	800,000	-0,028	-0,056
-177,242	127,804	-0,068	0,062
-176,227	687,362	0,083	0,155
-175,212	39,333	0,055	-0,035
-174,198	-75,259	0,111	0,028
-173,183	132,255	0,036	0,033
-172,169	559,537	-0,099	-0,170
-171,154	-118,054	0,080	-0,010
-170,139	50,739	0,122	-0,082
-169,125	364,643	0,077	0,110
-168,110	317,712	0,014	0,018
-167,096	-200,000	0,005	0,037
-166,081	-145,715	0,088	0,005
-165,066	-82,770	-0,042	-0,010
-164,052	-200,000	0,002	-0,078
-163,037	383,052	0,059	0,086
-162,023	-146,750	0,063	-0,004
-161,008	-50,199	0,209	0,070
-159,993	800,000	-0,029	-0,067
-158,979	182,986	0,088	-0,093
-157,964	18,470	-0,169	-0,096
-156,950	121,181	0,085	-0,075
-155,935	-91,409	-0,057	-0,011
-154,920	529,323	0,037	0,062
-153,906	-13,436	0,101	0,046
-152,891	603,477	0,050	0,088
-151,877	270,227	0,096	0,120
-150,862	-100,422	-0,038	0,007
-149,847	-200,000	0,016	-0,055
-148,833	744,431	0,042	0,080
-147,818	57,998	0,126	-0,087
-146,804	-200,000	0,002	-0,070
-145,789	544,143	0,083	-0,142
-144,775	250,905	-0,078	-0,094
-143,760	160,566	-0,036	-0,036
-142,745	-124,979	0,036	-0,004
-141,731	61,641	-0,105	0,074
-140,716	421,075	-0,020	0,030
-139,702	-200,000	0,025	0,080
-138,687	-112,806	0,037	-0,005
-137,672	-114,976	-0,119	0,016
-136,658	-200,000	0,010	0,091
-135,643	-27,916	-0,015	-0,006
-134,629	181,955	-0,019	-0,020
-133,614	-200,000	0,019	0,182
-132,599	21,264	0,065	0,037
-131,585	-200,000	0,006	0,121
-130,570	602,337	-0,057	0,101
-129,556	-25,223	-0,175	-0,073
-128,541	800,000	-0,050	0,125
-127,526	-200,000	0,024	0,091
-126,512	496,963	0,041	0,067
-125,497	127,384	-0,106	0,095
-124,483	800,000	-0,044	0,117
-123,468	-82,604	0,010	0,002
-122,453	349,417	-0,063	-0,088
-121,439	104,006	0,034	0,028
-120,424	800,000	0,015	-0,044
-119,410	800,000	0,045	0,117
-118,395	-200,000	0,002	0,050
-117,380	800,000	0,036	-0,078
-116,366	70,057	-0,032	0,023
-115,351	17,915	0,042	-0,024
-114,337	343,372	-0,081	0,113
-113,322	-33,353	0,020	-0,008
-112,307	-200,000	0,012	0,042
-111,293	-200,000	0,003	0,031
-110,278	-126,713	0,070	0,007
-109,264	-200,000	-0,107	0,000
-108,249	190,158	0,041	-0,044
-107,234	222,994	0,028	-0,032
-106,220	539,744	0,056	-0,094
-105,205	800,000	0,076	0,175
-104,191	800,000	-0,069	0,213
-103,176	-64,716	-0,164	-0,047
-102,162	-200,000	0,018	0,107
-101,147	129,201	0,026	0,024
-100,132	-91,537	0,029	-0,006
-99,118	800,000	-0,009	-0,029
-98,103	-200,000	0,004	0,024
-97,089	173,119	0,071	-0,072
-96,074	-37,103	0,061	0,023
-95,059	-155,960	0,060	-0,003
-94,045	-200,000	-0,019	-0,136
-93,030	159,022	-0,047	0,046
-92,016	22,655	0,085	0,049
-91,001	-58,886	-0,017	-0,005
-89,986	-62,228	0,128	0,038
-88,972	-94,756	-0,074	0,014
-87,957	570,446	0,037	0,063
-86,943	-50,833	0,051	-0,017
-85,928	61,021	-0,220	0,154
-84,913	800,000	-0,062	-0,168
-83,899	-39,465	-0,088	0,032
-82,884	31,464	-0,065	-0,039
-81,870	-29,888	0,036	0,014
-80,855	114,952	0,005	-0,005
-79,840	-200,000	0,010	-0,081
-78,826	-200,000	-0,000	-0,104
-77,811	195,231	0,064	-0,068
-76,797	48,198	-0,031	0,020
-75,782	800,000	0,023	0,054
-74,767	275,787	-0,018	0,022
-73,753	-75,257	-0,085	0,021
-72,738	-200,000	0,015	-0,056
-71,724	-200,000	-0,008	0,091
-70,709	230,147	0,016	-0,019
-69,694	-200,000	0,022	-0,071
-68,680	515,218	-0,011	0,019
-67,665	-54,771	0,084	-0,027
-66,651	-86,441	0,118	0,025
-65,636	340,934	0,029	-0,040
-64,622	-111,362	-0,068	-0,010
-63,607	493,367	-0,091	-0,148
-62,592	-200,000	0,003	-0,071
-61,578	-200,000	0,016	0,077
-60,563	485,177	0,099	0,160
-59,549	-200,000	-0,017	-0,059
-58,534	18,661	-1,739	-0,980
-57,519	397,643	-1,368	-2,026
-56,505	-200,000	-0,316	-4,255
-55,490	287,109	0,994	1,272
-54,476	800,000	5,165	11,569
-53,461	-200,000	20,458	326,683
-52,446	800,000	751,993	2311,411
-51,432	550,975	1657,830	2819,472
-50,417	74,039	1663,585	1231,079
-49,403	19,220	1536,783	868,469
-48,388	13,199	1459,264	795,549
-47,373	18,843	1449,782	817,437
-46,359	16,130	1439,365	798,620
-45,344	11,531	1434,855	774,200
-44,330	11,415	1433,146	772,695
-43,315	11,433	1431,393	771,805
-42,300	11,431	1429,513	770,753
-41,286	11,389	1428,432	769,940
-40,271	11,413	1426,880	769,188
-39,257	11,375	1425,675	768,325
-38,242	11,429	1424,719	768,038
-37,227	11,431	1423,453	767,331
-36,213	11,470	1422,313	766,872
-35,198	11,412	1421,140	765,936
-34,184	11,469	1420,089	765,605
-33,169	11,434	1418,779	764,706
-32,154	11,475	1417,877	764,384
-31,140	11,509	1416,221	763,618
-30,125	11,463	1415,452	762,956
-29,111	11,447	1414,585	762,386
-28,096	11,451	1413,340	761,704
-27,082	11,429	1411,913	760,800
-26,067	11,417	1410,954	760,196
-25,052	11,411	1409,945	759,597
-24,038	11,385	1408,936	758,900
-23,023	11,404	1407,963	758,436
-22,009	11,400	1406,770	757,741
-20,994	11,381	1405,988	757,202
-19,979	11,405	1405,041	756,775
-18,965	11,355	1404,002	755,950
-17,950	11,332	1403,488	755,540
-16,936	11,308	1402,565	754,897
-15,921	11,305	1401,254	754,151
-14,906	11,265	1400,568	753,563
-13,892	11,347	1399,252	753,208
-12,877	11,319	1398,471	752,626
-11,863	11,351	1397,808	752,391
-10,848	11,267	1396,813	751,436
-9,833	11,244	1396,023	750,871
-8,819	11,191	1395,182	750,146
-7,804	11,208	1394,370	749,759
-6,790	11,195	1393,064	748,967
-5,775	11,188	1392,234	748,457
-4,760	11,287	1391,028	748,236
-3,746	11,173	1390,541	747,420
-2,731	11,250	1389,428	747,145
-1,717	11,193	1388,734	746,480
-0,702	11,180	1386,825	745,364
0,313	15,188	1301,756	718,013
1,327	31,471	694,720	420,303
2,342	48,946	120,796	79,870
3,356	0,296	16,529	8,294
4,371	5,228	3,395	1,760
5,386	-3,558	0,826	0,404
6,400	800,000	0,184	0,502
7,415	243,870	-0,198	-0,235
8,429	-46,991	-0,331	-0,113
9,444	-10,255	-0,438	-0,204
10,459	-20,308	-0,339	-0,147
11,473	188,321	-0,228	-0,241
12,488	73,895	-0,263	-0,194
13,502	58,487	-0,267	-0,184
14,517	-90,725	-0,417	-0,084
15,531	13,947	-0,442	-0,242
16,546	69,439	-0,293	-0,212
17,561	106,084	-0,341	-0,284
18,575	-26,398	-0,184	-0,076
19,590	92,050	-0,271	-0,215
20,604	-16,543	-0,207	-0,092
21,619	22,278	-0,381	-0,219
22,634	145,466	-0,499	-0,471
23,648	132,844	-0,382	-0,348
24,663	44,668	-0,376	-0,243
25,677	207,265	-0,266	-0,292
26,692	43,283	-0,384	-0,247
27,707	-58,930	-0,399	-0,121
28,721	130,570	-0,306	-0,276
29,736	88,779	-0,414	-0,324
30,750	121,363	-0,378	-0,331
31,765	481,318	-0,155	-0,249
32,780	649,582	-0,230	-0,417
33,794	9,727	-0,312	-0,166
34,809	110,950	-0,308	-0,261
35,823	22,130	-0,428	-0,245
36,838	106,182	-0,310	-0,258
37,853	200,568	-0,383	-0,414
38,867	164,244	-0,364	-0,361
39,882	3,161	-0,420	-0,214
40,896	-123,132	-0,384	-0,043
41,911	60,807	-0,405	-0,282
42,926	61,884	-0,386	-0,270
43,940	83,559	-0,351	-0,268
44,955	88,802	-0,351	-0,274
45,969	51,139	-0,336	-0,223
46,984	-62,052	-0,177	-0,052
47,999	-36,751	-0,197	-0,074
49,013	37,813	-0,374	-0,233
50,028	-44,309	-0,341	-0,119
51,042	142,354	-0,265	-0,247
52,057	155,615	-0,356	-0,345
53,071	71,076	-0,332	-0,241
54,086	198,121	-0,206	-0,221
55,101	98,716	-0,354	-0,287
56,115	47,912	-0,321	-0,210
57,130	108,416	-0,352	-0,295
58,144	44,227	-0,451	-0,290
59,159	-47,228	-0,375	-0,127
60,174	49,035	-0,424	-0,279
61,188	24,107	-0,331	-0,191
62,203	24,729	-0,351	-0,203
63,217	181,198	-0,135	-0,139
64,232	174,806	-0,242	-0,246
65,247	-38,967	-0,304	-0,112
66,261	30,474	-0,349	-0,209
67,276	150,167	-0,296	-0,282
68,290	123,038	-0,328	-0,288
69,305	-56,975	-0,365	-0,112
70,320	53,818	-0,207	-0,139
71,334	-48,325	-0,346	-0,116
72,349	80,898	-0,311	-0,235
73,363	68,526	-0,414	-0,297
74,378	35,930	-0,341	-0,210
75,393	93,578	-0,183	-0,145
76,407	-123,413	-0,226	-0,025
77,422	17,076	-0,314	-0,174
78,436	98,970	-0,142	-0,115
79,451	-11,276	-0,320	-0,147
80,466	141,116	-0,259	-0,240
81,480	-31,248	-0,311	-0,122
82,495	-143,147	-0,310	-0,021
83,509	68,672	-0,254	-0,182
84,524	30,647	-0,311	-0,186
85,539	65,958	-0,335	-0,237
86,553	706,596	-0,124	-0,231
87,568	94,629	-0,251	-0,199
88,582	-78,160	-0,337	-0,080
89,597	-78,701	-0,299	-0,071
90,611	-66,211	-0,262	-0,073
91,626	-10,137	-0,363	-0,168
92,641	-90,609	-0,214	-0,043
93,655	51,638	-0,252	-0,167
94,670	30,297	-0,278	-0,166
95,684	72,617	-0,371	-0,271
96,699	85,253	-0,277	-0,212
97,714	-27,110	-0,342	-0,139
98,728	33,477	-0,351	-0,213
99,743	12,526	-0,177	-0,095
100,757	151,055	-0,295	-0,281
101,772	-40,408	-0,360	-0,130
102,787	63,929	-0,307	-0,216
103,801	97,364	-0,290	-0,233
104,816	97,308	-0,173	-0,139
105,830	15,705	-0,302	-0,166
106,845	67,260	-0,177	-0,126
107,860	107,481	-0,247	-0,205
108,874	14,494	-0,239	-0,130
109,889	7,574	-0,318	-0,166
110,903	-57,988	-0,335	-0,102
111,918	-24,093	-0,258	-0,107
112,933	118,949	-0,328	-0,283
113,947	-90,238	-0,305	-0,061
114,962	-79,763	-0,353	-0,082
115,976	185,478	-0,164	-0,170
116,991	349,983	-0,224	-0,310
118,006	68,255	-0,246	-0,176
119,020	349,063	-0,184	-0,255
120,035	270,884	-0,080	-0,099
121,049	10,848	-0,230	-0,122
122,064	-30,648	-0,369	-0,145
123,079	-1,465	-0,244	-0,120
124,093	19,611	-0,300	-0,168
125,108	38,094	-0,249	-0,154
126,122	59,940	-0,338	-0,233
127,137	245,967	-0,144	-0,170
128,151	96,287	-0,238	-0,190
129,166	82,469	-0,252	-0,191
130,181	-24,326	-0,215	-0,089
131,195	384,383	-0,195	-0,282
132,210	53,663	-0,288	-0,193
133,224	557,411	-0,174	-0,295
134,239	-31,268	-0,237	-0,093
135,254	24,389	-0,093	-0,054
136,268	22,722	-0,312	-0,178
137,283	280,883	-0,197	-0,246
138,297	138,590	-0,166	-0,152
139,312	225,421	-0,267	-0,302
140,327	80,364	-0,268	-0,201
141,341	-30,965	-0,340	-0,133
142,356	-57,099	-0,210	-0,064
143,370	453,253	-0,175	-0,270
144,385	-1,887	-0,260	-0,127
145,400	-73,063	-0,270	-0,069
146,414	273,224	-0,265	-0,327
147,429	161,243	-0,174	-0,170
148,443	28,579	-0,252	-0,148
149,458	-3,957	-0,359	-0,173
150,473	386,548	-0,135	-0,195
151,487	88,660	-0,215	-0,167
152,502	68,064	-0,283	-0,201
153,516	170,715	-0,226	-0,225
154,531	-102,378	-0,407	-0,067
155,546	328,310	-0,153	-0,204
156,560	82,714	-0,225	-0,170
157,575	93,276	-0,162	-0,128
158,589	72,504	-0,265	-0,192
159,604	194,308	-0,236	-0,249
160,619	-12,253	-0,198	-0,090
161,633	156,249	-0,234	-0,225
162,648	370,271	-0,128	-0,181
163,662	-74,644	-0,122	-0,030
164,677	289,265	-0,089	-0,112
165,692	24,265	-0,200	-0,115
166,706	94,736	-0,166	-0,131
167,721	-54,447	-0,359	-0,113
168,735	219,813	-0,293	-0,327
169,750	800,000	-0,101	-0,212
170,764	439,952	-0,102	-0,156
171,779	206,051	-0,221	-0,239
172,794	287,103	-0,171	-0,215
173,808	8,664	-0,293	-0,153
174,823	188,616	-0,297	-0,309
175,837	337,818	-0,211	-0,286
176,852	112,869	-0,251	-0,212
177,867	-51,203	-0,235	-0,076
178,881	396,555	-0,169	-0,247
179,896	26,440	-0,237	-0,137
180,910	32,059	-0,164	-0,098
181,925	63,579	-0,225	-0,157
182,940	230,818	-0,266	-0,303
183,954	176,736	-0,228	-0,230
184,969	800,000	-0,101	-0,242
185,983	138,878	-0,164	-0,150
186,998	118,764	-0,139	-0,119
188,013	107,096	-0,194	-0,160
189,027	613,367	-0,122	-0,212
190,042	800,000	-0,144	-0,307
191,056	-101,959	-0,299	-0,050
192,071	-11,396	-0,212	-0,096
193,086	-155,391	-0,143	-0,006
194,100	127,695	-0,125	-0,110
195,115	-110,165	-0,073	-0,011
196,129	-91,525	-0,213	0,042
197,144	-11,823	-0,283	-0,128
198,159	-200,000	-0,049	-0,162
199,173	800,000	-0,089	-0,199
200,188	56,425	-0,260	-0,175
201,202	-21,018	-0,243	-0,103
202,217	19,559	-0,251	-0,140
203,232	264,419	-0,173	-0,209
204,246	-1,078	-0,164	-0,080
205,261	129,399	-0,167	-0,148
206,275	81,449	-0,243	-0,182
207,290	800,000	-0,064	-0,169
208,304	-49,968	-0,247	-0,081
209,319	56,576	-0,223	-0,150
210,334	20,496	-0,209	-0,117
211,348	66,914	-0,378	-0,266
212,363	428,051	-0,149	-0,224
213,377	-48,527	-0,325	-0,108
214,392	85,548	-0,234	-0,178
215,407	76,435	-0,108	-0,079
216,421	41,402	-0,160	-0,100
217,436	113,751	-0,149	-0,125
218,450	693,444	-0,103	-0,187
219,465	201,922	-0,149	-0,159
220,480	165,681	-0,238	-0,233
221,494	28,884	-0,103	-0,060
222,509	-36,584	-0,216	-0,080
223,523	-78,984	-0,156	-0,036
224,538	-107,261	-0,183	-0,028
225,553	-79,159	-0,238	-0,055
226,567	111,226	-0,220	-0,183
227,582	-14,935	-0,186	-0,082
228,596	288,468	-0,196	-0,246
229,611	210,919	-0,134	-0,146
230,626	-80,350	-0,229	-0,052
231,640	-53,232	-0,216	-0,068
232,655	359,587	-0,175	-0,243
233,669	-200,000	-0,117	-0,358
234,684	4,692	-0,195	-0,098
235,699	184,695	-0,163	-0,167
236,713	-58,975	-0,241	-0,071
237,728	-44,427	-0,202	-0,069
238,742	-161,703	-0,244	0,008
239,757	503,837	-0,104	-0,167
240,772	137,406	-0,186	-0,168
241,786	109,907	-0,234	-0,194
242,801	140,560	-0,098	-0,090
243,815	-11,963	-0,182	-0,082
244,830	-58,991	-0,225	-0,067
245,844	229,001	-0,043	-0,049
246,859	558,950	-0,101	-0,169
247,874	-7,966	-0,222	-0,103
248,888	800,000	-0,078	-0,180
249,903	-124,207	-0,106	-0,011
250,917	85,775	-0,184	-0,139
251,932	800,000	-0,097	-0,265
252,947	800,000	-0,029	-0,084
253,961	-20,609	-0,167	-0,071
254,976	115,281	-0,203	-0,171
255,990	-105,756	-0,149	-0,023
257,005	232,338	-0,130	-0,148
258,020	4,064	-0,114	-0,057
259,034	-64,873	-0,073	-0,020
260,049	152,060	-0,182	-0,171
261,063	-40,136	-0,234	-0,083
262,078	152,541	-0,185	-0,174
263,093	91,637	-0,263	-0,204
264,107	118,124	-0,149	-0,127
265,122	800,000	-0,081	-0,196
266,136	102,475	-0,148	-0,119
267,151	417,171	-0,091	-0,134
268,166	183,614	-0,121	-0,123
269,180	268,257	-0,205	-0,249
270,195	-68,157	-0,221	-0,059
271,209	-112,493	-0,265	-0,036
272,224	-36,287	-0,098	-0,036
273,239	267,914	-0,120	-0,145
274,253	-38,339	-0,203	-0,074
275,268	-200,000	-0,064	-0,326
276,282	328,967	-0,113	-0,150
277,297	683,058	-0,088	-0,159
278,312	-43,240	-0,087	0,030
279,326	-138,373	-0,170	0,013
280,341	9,165	-0,104	-0,054
281,355	28,963	-0,076	-0,044
282,370	170,252	-0,140	-0,138
283,384	-29,658	-0,128	-0,050
284,399	-145,809	-0,166	0,010
285,414	60,290	-0,179	-0,121
286,428	30,717	-0,121	-0,071
287,443	-129,466	-0,172	-0,016
288,457	61,251	-0,089	0,061
289,472	159,374	-0,158	-0,152
290,487	191,267	-0,155	-0,161
291,501	800,000	-0,151	-0,309
292,516	-200,000	0,021	-0,088
293,530	139,397	-0,104	-0,094
294,545	292,944	-0,152	-0,191
295,560	-98,971	-0,139	0,024
296,574	100,756	-0,130	-0,104
297,589	154,363	-0,164	-0,155
298,603	267,873	-0,182	-0,220
299,618	-125,183	-0,233	-0,024
300,633	48,887	-0,108	-0,070
301,647	-120,385	-0,141	-0,016
302,662	-65,175	-0,198	0,055
303,676	511,081	0,014	0,023
304,691	174,876	-0,135	-0,134
305,706	-77,948	-0,132	-0,031
306,720	-200,000	-0,042	-0,165
307,735	480,522	-0,167	-0,261
308,749	-36,066	-0,208	-0,077
309,764	377,525	-0,052	-0,073
310,779	128,958	-0,152	-0,133
311,793	100,847	-0,151	-0,121
312,808	327,376	-0,117	-0,154
313,822	25,520	-0,115	-0,066
314,837	57,645	-0,118	-0,079
315,852	96,808	-0,132	-0,104
316,866	158,941	-0,154	-0,146
317,881	140,390	-0,052	-0,047
318,895	304,507	-0,184	-0,235
319,910	285,480	-0,139	-0,173
320,925	-56,204	-0,118	-0,036
321,939	15,467	-0,103	0,055
322,954	239,485	-0,119	-0,136
323,968	-52,421	-0,112	-0,035
324,983	31,821	-0,058	-0,034
325,997	-51,023	-0,168	-0,054
327,012	723,942	-0,183	-0,336
328,027	-26,259	-0,161	-0,064
329,041	70,281	-0,171	-0,121
330,056	-3,878	-0,126	-0,060
331,070	143,404	-0,119	-0,109
332,085	66,434	0,089	-0,062
333,100	80,434	-0,149	-0,110
334,114	-72,339	-0,179	-0,045
335,129	-44,462	-0,158	-0,054
336,143	192,669	-0,118	0,122
337,158	800,000	0,031	-0,089
338,173	-19,126	-0,138	-0,059
339,187	-75,498	-0,057	0,014
340,202	-31,634	-0,151	-0,058
341,216	15,226	-0,081	-0,043
342,231	-121,523	-0,155	-0,017
343,246	-200,000	-0,010	-0,320
344,260	-152,872	-0,134	-0,006
345,275	-163,995	-0,057	-0,002
346,289	-185,600	-0,032	-0,000
347,304	48,220	-0,113	-0,072
348,319	740,117	-0,088	-0,163
349,333	-156,579	-0,089	-0,004
350,348	75,728	-0,212	-0,153
351,362	-200,000	-0,030	-0,172
352,377	-14,299	-0,108	0,048
353,392	-200,000	-0,027	0,137
354,406	-45,695	-0,192	0,064
355,421	207,490	1308,636	1398,559
356,435	159,614	1468,624	1399,050
