DTS Sentinel unit serial number:	SN410029Multiplexer serial number:	ORYXHardware model number:	OX2-SRSoftware version number:	ORYX F/W v4,00 Oryx Data Collector v3.7.2.0data status	okinstallation	B3 Nyhavnadifferential loss correction	single-endedforward channel	channel 1reverse channel	N/Adate	2023/12/04time	22:57:30forward acquisition time	300,00reverse acquisition time	0,00gamma	499,1914k internal	0,3200k external	0,3200temperature offset calibration	1,0000default loss term (dB/km)	0,3820temperature slope calibration	1,0000multiplexer offset coefficient	1,0000multiplexer slope coefficient	1,0000fibre end	0,00T internal ref (°C)	14,35T ext. ref 1 (°C)	-0,92T ext. ref 2 (°C)	-0,93length (m)	temperature (°C)	Stokes	anti-Stokes-744,400	362,344	-0,148	-0,217
-743,385	-200,000	0,051	0,176
-742,371	81,206	-0,236	-0,185
-741,356	-200,000	0,048	0,363
-740,342	758,950	-0,076	-0,151
-739,327	-200,000	0,072	0,293
-738,312	116,332	-0,171	-0,153
-737,298	800,000	-0,108	0,264
-736,283	800,000	-0,073	-0,166
-735,269	800,000	0,134	0,401
-734,254	-37,688	-0,190	-0,073
-733,239	610,023	-0,170	0,310
-732,225	464,731	-0,058	-0,094
-731,210	-200,000	0,003	0,153
-730,196	394,457	-0,044	0,067
-729,181	800,000	-0,026	0,056
-728,167	-151,660	-0,050	0,003
-727,152	-32,437	-0,047	0,019
-726,137	-126,768	-0,045	0,005
-725,123	800,000	0,046	-0,104
-724,108	13,886	0,014	-0,008
-723,094	66,513	-0,059	-0,043
-722,079	800,000	-0,026	0,075
-721,064	800,000	0,008	0,021
-720,050	8,714	0,095	0,052
-719,035	597,190	-0,051	-0,093
-718,021	-55,021	-0,094	-0,031
-717,006	94,181	-0,129	0,106
-715,991	800,000	0,017	-0,046
-714,977	-200,000	-0,001	-0,145
-713,962	800,000	-0,025	-0,060
-712,948	-200,000	0,031	0,122
-711,933	-16,387	-0,041	-0,019
-710,918	137,077	0,022	-0,021
-709,904	273,985	-0,027	0,035
-708,889	-200,000	-0,013	-0,113
-707,875	261,387	-0,033	-0,042
-706,860	800,000	-0,025	0,056
-705,845	-66,558	-0,080	0,023
-704,831	299,449	0,079	-0,107
-703,816	-200,000	0,014	-0,059
-702,802	67,304	0,061	-0,045
-701,787	800,000	-0,039	-0,122
-700,772	-117,941	-0,095	0,012
-699,758	449,741	-0,020	-0,031
-698,743	-109,355	0,150	0,023
-697,729	228,894	0,074	-0,087
-696,714	-119,843	0,089	-0,011
-695,699	-89,882	0,103	0,022
-694,685	27,968	-0,135	-0,082
-693,670	800,000	0,075	-0,162
-692,656	-200,000	0,010	-0,052
-691,641	128,324	0,085	-0,078
-690,627	-200,000	-0,008	-0,062
-689,612	-200,000	0,004	0,146
-688,597	-200,000	0,060	0,206
-687,583	73,775	-0,148	0,113
-686,568	388,506	0,072	-0,109
-685,554	800,000	-0,026	-0,063
-684,539	-38,222	0,078	0,030
-683,524	20,984	-0,092	-0,054
-682,510	-32,991	-0,150	-0,060
-681,495	800,000	-0,101	-0,236
-680,481	-200,000	0,049	-0,181
-679,466	234,899	0,014	-0,017
-678,451	87,451	-0,072	-0,057
-677,437	31,802	0,078	0,049
-676,422	800,000	0,023	0,061
-675,408	55,267	-0,065	-0,046
-674,393	416,617	0,049	-0,076
-673,378	-93,577	-0,188	-0,037
-672,364	293,576	0,045	-0,060
-671,349	744,243	0,062	-0,122
-670,335	266,800	0,039	-0,049
-669,320	-200,000	0,030	0,136
-668,305	91,376	0,041	0,033
-667,291	137,037	-0,053	-0,050
-666,276	-47,928	-0,088	-0,031
-665,262	-35,691	-0,123	-0,048
-664,247	457,646	-0,072	-0,116
-663,232	484,772	-0,023	-0,039
-662,218	-147,798	-0,091	-0,005
-661,203	-34,904	0,082	-0,032
-660,189	-193,221	0,103	0,001
-659,174	-125,311	-0,189	-0,021
-658,159	-165,840	-0,134	0,004
-657,145	318,122	0,032	-0,043
-656,130	800,000	-0,009	-0,029
-655,116	-191,673	0,099	-0,001
-654,101	-200,000	0,005	0,133
-653,086	137,133	-0,056	0,053
-652,072	-76,676	0,019	0,005
-651,057	11,604	-0,019	-0,011
-650,043	-97,198	0,128	-0,024
-649,028	800,000	-0,037	-0,114
-648,014	451,918	0,027	0,044
-646,999	615,806	-0,025	0,046
-645,984	682,674	-0,019	0,036
-644,970	-94,346	-0,157	0,031
-643,955	-87,468	-0,065	-0,014
-642,941	-26,091	-0,033	-0,014
-641,926	-200,000	0,044	-0,225
-640,911	-35,602	0,118	-0,046
-639,897	263,357	-0,060	0,075
-638,882	-26,031	0,062	0,026
-637,868	416,421	-0,041	-0,063
-636,853	-200,000	-0,016	-0,184
-635,838	308,735	0,062	-0,084
-634,824	-200,000	-0,012	-0,107
-633,809	115,775	0,005	-0,004
-632,795	800,000	0,052	0,117
-631,780	-200,000	-0,039	0,208
-630,765	-166,713	0,072	0,002
-629,751	90,286	0,086	-0,069
-628,736	687,127	-0,020	-0,037
-627,722	-1,572	0,068	-0,034
-626,707	-200,000	-0,003	0,023
-625,692	783,935	-0,013	-0,026
-624,678	188,236	0,129	0,140
-623,663	-200,000	-0,008	0,026
-622,649	63,338	0,026	0,019
-621,634	216,597	-0,100	-0,115
-620,619	-46,005	0,091	-0,032
-619,605	515,378	0,066	0,112
-618,590	24,644	0,077	0,046
-617,576	-22,842	-0,047	0,020
-616,561	204,590	0,089	0,100
-615,546	-200,000	-0,013	-0,063
-614,532	-20,817	0,121	-0,053
-613,517	47,608	-0,094	-0,063
-612,503	-74,688	0,130	-0,034
-611,488	-35,209	0,071	-0,028
-610,474	49,050	-0,061	0,042
-609,459	339,428	0,044	-0,062
-608,444	346,900	0,068	-0,098
-607,430	166,200	-0,055	-0,056
-606,415	112,099	-0,035	-0,031
-605,401	-117,194	-0,028	-0,004
-604,386	800,000	-0,042	0,090
-603,371	-200,000	-0,005	-0,047
-602,357	-80,250	0,088	0,021
-601,342	44,951	-0,059	-0,039
-600,328	-200,000	0,003	-0,018
-599,313	175,907	-0,108	0,114
-598,298	-83,182	0,116	0,027
-597,284	800,000	-0,057	0,119
-596,269	-82,903	0,153	0,035
-595,255	-41,224	0,024	0,009
-594,240	656,139	-0,023	-0,042
-593,225	-37,454	-0,093	-0,036
-592,211	-90,082	0,151	-0,032
-591,196	800,000	0,041	0,110
-590,182	-200,000	0,006	-0,057
-589,167	-66,143	0,099	0,028
-588,152	-54,492	-0,063	-0,020
-587,138	29,482	-0,072	0,044
-586,123	800,000	0,026	-0,058
-585,109	-88,399	-0,045	0,010
-584,094	16,610	-0,055	-0,031
-583,079	-167,857	0,162	0,005
-582,065	415,318	-0,057	0,088
-581,050	-200,000	0,006	-0,107
-580,036	14,325	-0,078	0,044
-579,021	800,000	-0,033	0,094
-578,006	800,000	-0,046	-0,107
-576,992	-5,562	0,045	-0,022
-575,977	-142,077	0,047	0,003
-574,963	-78,282	0,134	0,033
-573,948	496,664	0,025	-0,042
-572,934	-111,080	0,075	-0,011
-571,919	-200,000	-0,006	-0,144
-570,904	154,386	-0,116	-0,115
-569,890	207,950	0,031	-0,036
-568,875	91,230	-0,094	0,076
-567,861	800,000	0,033	-0,074
-566,846	-158,093	0,034	-0,001
-565,831	47,538	-0,118	0,079
-564,817	159,115	0,103	-0,103
-563,802	-200,000	0,013	-0,079
-562,788	436,798	-0,068	-0,107
-561,773	-200,000	0,003	-0,028
-560,758	68,947	-0,019	0,014
-559,744	-13,904	-0,010	0,005
-558,729	568,710	-0,015	-0,026
-557,715	800,000	-0,049	-0,132
-556,700	136,155	-0,044	-0,042
-555,685	-109,261	-0,121	-0,018
-554,671	698,513	-0,029	-0,055
-553,656	546,786	-0,026	0,046
-552,642	800,000	0,055	0,111
-551,627	-200,000	0,031	0,119
-550,612	800,000	-0,043	-0,105
-549,598	143,348	0,093	-0,089
-548,583	-200,000	-0,022	-0,078
-547,569	92,239	0,075	-0,061
-546,554	-12,330	-0,079	-0,037
-545,539	-78,505	-0,035	0,009
-544,525	-137,764	-0,169	0,013
-543,510	-15,443	0,090	-0,041
-542,496	-200,000	-0,056	-0,189
-541,481	72,925	-0,104	-0,078
-540,466	177,516	-0,016	0,017
-539,452	138,671	0,110	0,105
-538,437	604,700	0,058	-0,105
-537,423	184,551	-0,087	-0,093
-536,408	262,260	-0,082	0,103
-535,393	-200,000	0,014	-0,094
-534,379	407,521	-0,083	-0,127
-533,364	2,042	-0,136	0,070
-532,350	30,276	0,073	0,045
-531,335	81,398	0,110	0,085
-530,321	-200,000	-0,002	0,065
-529,306	-151,309	0,003	0,000
-528,291	-200,000	-0,066	-0,264
-527,277	143,844	-0,072	-0,069
-526,262	-17,852	-0,113	0,051
-525,248	800,000	0,016	0,042
-524,233	-104,181	0,042	-0,007
-523,218	9,661	0,030	-0,017
-522,204	705,676	-0,023	-0,044
-521,189	93,842	0,090	-0,073
-520,175	-176,447	-0,142	0,003
-519,160	800,000	-0,018	-0,043
-518,145	-200,000	-0,028	-0,110
-517,131	-200,000	-0,004	-0,041
-516,116	800,000	0,042	0,103
-515,102	-200,000	0,046	0,148
-514,087	-200,000	-0,008	-0,090
-513,072	-30,243	0,115	-0,047
-512,058	-5,985	0,071	0,035
-511,043	-200,000	-0,007	0,224
-510,029	-200,000	-0,011	0,087
-509,014	279,106	0,136	0,175
-507,999	-81,197	-0,117	0,028
-506,985	-200,000	0,004	-0,022
-505,970	800,000	-0,036	-0,092
-504,956	335,602	-0,032	-0,046
-503,941	800,000	0,038	-0,107
-502,926	378,692	-0,052	0,077
-501,912	-113,721	0,058	-0,008
-500,897	-200,000	-0,012	0,070
-499,883	341,785	0,016	0,023
-498,868	-200,000	-0,015	-0,171
-497,853	89,585	-0,152	-0,122
-496,839	-43,599	-0,106	-0,038
-495,824	-41,389	0,154	0,057
-494,810	-71,866	0,066	0,018
-493,795	-117,646	-0,126	0,016
-492,781	634,682	-0,075	-0,139
-491,766	-133,652	-0,117	-0,010
-490,751	637,147	-0,024	-0,044
-489,737	167,139	-0,041	0,042
-488,722	516,579	0,075	-0,126
-487,708	-78,353	0,067	-0,016
-486,693	-200,000	-0,031	0,100
-485,678	439,158	0,086	0,135
-484,664	346,620	0,084	0,120
-483,649	-38,623	-0,078	-0,029
-482,635	69,081	-0,070	0,052
-481,620	12,490	0,080	0,044
-480,605	-200,000	0,004	-0,135
-479,591	800,000	0,032	0,077
-478,576	183,862	0,036	0,039
-477,562	-57,634	0,164	-0,051
-476,547	330,404	-0,070	-0,097
-475,532	-174,664	0,038	-0,001
-474,518	-100,495	-0,298	-0,053
-473,503	-200,000	0,001	0,130
-472,489	-39,302	0,108	0,040
-471,474	800,000	0,020	0,052
-470,459	-1,753	-0,118	-0,060
-469,445	-200,000	-0,008	-0,086
-468,430	141,705	0,118	-0,112
-467,416	-59,488	-0,123	0,038
-466,401	-200,000	-0,026	0,112
-465,386	-10,987	0,134	-0,063
-464,372	0,883	-0,033	0,017
-463,357	-27,644	0,091	0,038
-462,343	76,046	-0,178	0,135
-461,328	130,082	-0,064	-0,059
-460,313	-200,000	0,036	0,179
-459,299	-200,000	0,000	0,120
-458,284	-48,064	0,065	0,022
-457,270	800,000	-0,046	-0,129
-456,255	211,630	0,039	-0,044
-455,241	800,000	-0,055	-0,129
-454,226	212,082	-0,089	-0,101
-453,211	-119,573	0,133	0,016
-452,197	173,311	0,037	-0,038
-451,182	800,000	0,030	-0,083
-450,168	-200,000	-0,017	0,066
-449,153	426,542	0,028	0,043
-448,138	-200,000	-0,014	-0,098
-447,124	-124,469	-0,049	-0,005
-446,109	0,724	-0,093	0,048
-445,095	275,538	-0,029	0,037
-444,080	-21,197	0,089	0,039
-443,065	-200,000	0,008	-0,101
-442,051	-200,000	0,011	-0,097
-441,036	84,834	-0,051	0,040
-440,022	-200,000	-0,011	-0,148
-439,007	359,950	-0,011	0,016
-437,992	783,385	0,043	-0,085
-436,978	-74,355	0,011	-0,003
-435,963	-200,000	-0,001	-0,124
-434,949	-86,022	-0,082	-0,018
-433,934	1,957	-0,176	0,091
-432,919	217,246	0,035	-0,040
-431,905	-65,291	-0,049	-0,014
-430,890	-200,000	-0,028	-0,115
-429,876	258,515	0,022	0,027
-428,861	-200,000	-0,023	0,126
-427,846	556,052	-0,058	0,101
-426,832	-88,232	-0,151	-0,032
-425,817	32,924	-0,103	-0,064
-424,803	-200,000	-0,018	0,110
-423,788	332,091	-0,070	0,097
-422,773	99,523	0,129	0,107
-421,759	505,559	0,016	0,027
-420,744	800,000	0,023	-0,060
-419,730	81,578	0,011	-0,008
-418,715	-200,000	0,001	0,055
-417,701	-102,663	0,162	0,027
-416,686	800,000	0,012	0,024
-415,671	786,609	-0,031	0,061
-414,657	112,968	0,055	0,048
-413,642	-42,010	-0,088	-0,032
-412,628	-200,000	-0,030	0,113
-411,613	11,006	-0,154	-0,084
-410,598	64,192	0,092	0,067
-409,584	3,828	-0,069	-0,036
-408,569	-200,000	0,036	0,142
-407,555	137,417	-0,004	0,003
-406,540	634,114	-0,033	-0,061
-405,525	-103,141	0,081	-0,014
-404,511	20,800	0,053	0,031
-403,496	-99,970	-0,138	0,024
-402,482	422,844	0,058	0,089
-401,467	-200,000	0,016	0,053
-400,452	-68,078	0,129	-0,036
-399,438	-200,000	0,023	0,097
-398,423	65,881	-0,069	0,050
-397,409	-200,000	0,047	-0,153
-396,394	-200,000	0,000	0,035
-395,379	454,549	-0,037	0,059
-394,365	-43,031	-0,054	0,019
-393,350	-200,000	0,006	-0,063
-392,336	510,465	-0,037	0,061
-391,321	-100,002	-0,214	-0,038
-390,306	212,937	0,095	-0,108
-389,292	313,288	0,018	0,024
-388,277	257,216	-0,056	0,069
-387,263	88,260	-0,057	-0,046
-386,248	-57,514	0,090	0,028
-385,233	113,932	-0,124	0,108
-384,219	395,819	0,042	0,064
-383,204	168,044	-0,078	-0,080
-382,190	-65,277	0,092	0,026
-381,175	-200,000	-0,004	-0,021
-380,160	800,000	0,032	0,084
-379,146	-200,000	-0,005	-0,064
-378,131	743,258	-0,038	-0,073
-377,117	299,579	0,036	0,047
-376,102	-101,338	-0,064	0,011
-375,088	-76,316	0,084	-0,021
-374,073	-200,000	0,010	0,055
-373,058	-200,000	-0,006	-0,078
-372,044	-51,741	0,181	-0,060
-371,029	7,727	-0,028	-0,015
-370,015	5,695	-0,139	-0,073
-369,000	-77,578	-0,073	0,018
-367,985	-200,000	-0,002	-0,093
-366,971	19,843	0,017	-0,010
-365,956	-200,000	0,013	0,043
-364,942	-113,974	0,086	-0,012
-363,927	-200,000	-0,011	0,121
-362,912	-72,636	0,085	-0,022
-361,898	429,225	-0,041	0,064
-360,883	-179,428	0,103	0,002
-359,869	-200,000	-0,023	-0,102
-358,854	121,362	0,068	0,061
-357,839	800,000	-0,024	0,060
-356,825	800,000	0,045	-0,089
-355,810	-200,000	-0,005	0,025
-354,796	800,000	0,014	-0,041
-353,781	66,319	-0,111	0,081
-352,766	53,502	0,002	0,001
-351,752	-200,000	-0,024	0,099
-350,737	-106,606	0,084	-0,013
-349,723	110,089	0,028	-0,024
-348,708	800,000	-0,009	0,025
-347,693	-200,000	-0,024	-0,234
-346,679	-200,000	0,014	0,000
-345,664	-52,610	-0,098	0,032
-344,650	-200,000	-0,012	-0,047
-343,635	-55,574	0,092	-0,029
-342,620	-200,000	0,041	0,217
-341,606	-200,000	0,017	0,093
-340,591	585,166	0,062	-0,110
-339,577	-200,000	0,010	-0,096
-338,562	171,169	0,100	-0,103
-337,548	140,154	-0,065	0,061
-336,533	-98,725	0,072	0,013
-335,518	389,211	0,096	0,144
-334,504	22,193	0,116	0,068
-333,489	86,489	-0,157	0,124
-332,475	-35,267	-0,032	-0,012
-331,460	131,314	0,034	0,031
-330,445	-200,000	0,032	0,137
-329,431	800,000	0,035	0,071
-328,416	-200,000	-0,025	0,198
-327,402	39,743	0,076	-0,049
-326,387	523,497	-0,064	0,108
-325,372	-200,000	-0,010	0,170
-324,358	-96,267	0,038	0,007
-323,343	800,000	-0,040	0,086
-322,329	-200,000	0,021	-0,081
-321,314	110,012	0,058	-0,050
-320,299	-128,638	-0,047	0,005
-319,285	706,083	0,062	-0,118
-318,270	800,000	-0,025	-0,069
-317,256	240,367	0,090	-0,107
-316,241	339,074	-0,044	0,062
-315,226	209,150	-0,059	-0,067
-314,212	278,607	-0,030	0,038
-313,197	-200,000	-0,007	0,034
-312,183	485,416	-0,041	0,067
-311,168	-44,167	-0,196	0,070
-310,153	-158,167	-0,051	-0,002
-309,139	-70,255	0,159	-0,043
-308,124	486,602	-0,054	0,089
-307,110	-135,612	-0,082	0,007
-306,095	-80,410	0,144	0,034
-305,080	259,720	0,071	0,088
-304,066	94,355	0,015	-0,013
-303,051	87,889	-0,014	0,011
-302,037	157,958	-0,070	-0,069
-301,022	-35,726	0,067	0,026
-300,008	100,744	0,127	0,105
-298,993	723,345	-0,067	-0,128
-297,978	-200,000	-0,015	0,077
-296,964	-107,877	-0,063	0,010
-295,949	-200,000	-0,000	-0,023
-294,935	-12,241	-0,188	-0,088
-293,920	11,560	-0,052	-0,029
-292,905	-11,233	0,164	0,077
-291,891	197,352	0,047	0,051
-290,876	12,472	-0,097	0,053
-289,862	-58,824	0,123	-0,038
-288,847	-200,000	0,021	-0,098
-287,832	-57,860	0,101	-0,031
-286,818	800,000	0,033	-0,105
-285,803	324,624	0,052	0,071
-284,789	142,549	-0,034	0,033
-283,774	254,965	0,048	0,059
-282,759	-200,000	0,026	-0,089
-281,745	34,809	-0,036	0,022
-280,730	424,475	-0,060	-0,093
-279,716	-200,000	0,013	0,064
-278,701	161,380	-0,037	0,037
-277,686	800,000	0,049	0,130
-276,672	-5,694	0,076	-0,037
-275,657	-200,000	-0,006	-0,087
-274,643	800,000	-0,017	0,043
-273,628	668,303	0,042	-0,077
-272,613	136,114	0,046	0,043
-271,599	-101,085	-0,076	0,013
-270,584	-200,000	-0,013	0,073
-269,570	85,819	-0,065	-0,051
-268,555	-200,000	-0,013	-0,125
-267,540	-110,464	-0,103	-0,015
-266,526	-43,671	-0,062	-0,022
-265,511	426,366	-0,021	0,032
-264,497	325,195	0,059	-0,080
-263,482	746,534	-0,049	0,094
-262,467	800,000	0,051	0,131
-261,453	-118,931	-0,103	0,013
-260,438	132,729	-0,015	0,014
-259,424	168,092	-0,038	0,039
-258,409	-12,674	0,058	-0,027
-257,395	-68,159	-0,070	0,019
-256,380	-62,738	0,035	-0,010
-255,365	260,880	0,125	0,155
-254,351	-200,000	-0,001	0,071
-253,336	736,582	-0,076	0,146
-252,322	-200,000	0,054	-0,184
-251,307	525,352	0,062	-0,105
-250,292	-58,656	0,044	0,013
-249,278	-175,678	-0,060	-0,001
-248,263	-200,000	-0,013	0,115
-247,249	-29,587	-0,160	0,065
-246,234	146,977	0,035	-0,034
-245,219	-108,127	-0,069	-0,011
-244,205	-200,000	-0,014	-0,123
-243,190	-200,000	-0,006	-0,062
-242,176	800,000	0,035	-0,088
-241,161	-200,000	0,010	0,045
-240,146	137,918	0,092	0,086
-239,132	-35,760	-0,055	-0,021
-238,117	127,878	-0,029	0,026
-237,103	17,046	0,072	0,040
-236,088	-144,131	0,089	0,006
-235,073	111,983	-0,023	0,020
-234,059	-143,342	0,092	-0,006
-233,044	-200,000	0,008	0,024
-232,030	-54,403	0,049	0,016
-231,015	-120,749	-0,123	-0,015
-230,000	-200,000	-0,008	-0,071
-228,986	800,000	-0,001	0,003
-227,971	-200,000	0,006	-0,182
-226,957	-200,000	0,004	-0,054
-225,942	460,546	0,042	0,067
-224,927	43,741	0,037	-0,024
-223,913	178,023	-0,100	-0,104
-222,898	-5,079	0,057	-0,028
-221,884	56,522	-0,066	0,045
-220,869	-200,000	0,014	-0,051
-219,855	90,268	-0,050	-0,040
-218,840	-200,000	-0,017	-0,128
-217,825	-12,079	0,051	-0,024
-216,811	609,966	0,026	-0,047
-215,796	-200,000	0,001	0,060
-214,782	-200,000	0,014	0,074
-213,767	691,874	0,066	0,124
-212,752	-17,926	0,083	-0,037
-211,738	70,034	0,088	-0,065
-210,723	-200,000	0,030	0,123
-209,709	371,928	-0,066	0,096
-208,694	-97,337	-0,065	-0,012
-207,679	-6,814	0,101	0,049
-206,665	-96,764	0,116	0,022
-205,650	385,804	0,073	-0,107
-204,636	-200,000	-0,019	0,284
-203,621	-2,152	0,046	0,023
-202,606	65,356	-0,010	-0,007
-201,592	-200,000	-0,002	-0,144
-200,577	231,432	0,045	-0,052
-199,563	-9,555	-0,099	0,047
-198,548	800,000	0,050	-0,138
-197,533	800,000	-0,036	0,074
-196,519	788,924	-0,046	0,089
-195,504	184,466	-0,137	-0,144
-194,490	563,723	-0,019	-0,033
-193,475	107,602	0,110	0,093
-192,460	-12,815	-0,124	0,058
-191,446	7,926	0,090	0,048
-190,431	-14,562	-0,029	0,013
-189,417	-200,000	-0,005	0,060
-188,402	11,617	-0,060	0,033
-187,387	-200,000	-0,004	-0,068
-186,373	32,524	-0,127	-0,078
-185,358	283,081	0,049	0,062
-184,344	191,939	0,028	-0,030
-183,329	222,866	-0,078	0,090
-182,315	-200,000	-0,016	-0,070
-181,300	110,637	0,086	0,073
-180,285	260,619	-0,047	0,058
-179,271	-200,000	-0,012	0,104
-178,256	-177,899	0,134	0,002
-177,242	-22,569	0,109	0,047
-176,227	800,000	0,085	0,227
-175,212	-148,439	0,034	-0,002
-174,198	800,000	-0,069	-0,174
-173,183	-200,000	-0,032	-0,193
-172,169	269,771	-0,087	-0,109
-171,154	90,818	-0,074	-0,059
-170,139	176,690	0,015	-0,016
-169,125	800,000	0,058	0,139
-168,110	-200,000	0,048	0,159
-167,096	800,000	-0,023	-0,047
-166,081	-115,088	0,064	0,009
-165,066	-31,980	0,045	0,018
-164,052	669,396	-0,041	0,075
-163,037	-123,915	0,137	-0,015
-162,023	800,000	0,075	-0,157
-161,008	-50,793	0,068	0,023
-159,993	45,633	-0,027	-0,018
-158,979	350,360	-0,070	0,099
-157,964	329,289	-0,029	-0,040
-156,950	37,465	-0,154	0,097
-155,935	765,940	0,023	-0,045
-154,920	244,518	-0,103	-0,124
-153,906	107,368	0,023	-0,019
-152,891	-200,000	0,026	0,188
-151,877	220,202	0,061	0,070
-150,862	-200,000	-0,004	0,018
-149,847	800,000	-0,023	-0,066
-148,833	-101,366	-0,081	-0,014
-147,818	-63,445	0,129	0,037
-146,804	-89,469	-0,070	-0,015
-145,789	-200,000	0,010	-0,037
-144,775	-83,818	-0,022	0,005
-143,760	35,185	-0,052	-0,032
-142,745	728,785	0,133	-0,254
-141,731	141,921	0,118	0,111
-140,716	261,963	-0,038	0,047
-139,702	73,970	-0,147	0,109
-138,687	88,571	0,074	-0,059
-137,672	800,000	-0,024	0,073
-136,658	-50,051	-0,070	0,024
-135,643	-43,997	-0,077	-0,027
-134,629	188,191	0,135	-0,144
-133,614	61,695	0,043	-0,030
-132,599	-85,820	0,060	-0,013
-131,585	800,000	0,042	0,098
-130,570	800,000	-0,036	-0,075
-129,556	800,000	0,005	-0,010
-128,541	168,529	0,033	-0,034
-127,526	-200,000	-0,041	-0,168
-126,512	191,742	-0,035	-0,037
-125,497	-121,811	0,250	0,029
-124,483	392,997	-0,041	-0,060
-123,468	10,758	-0,168	0,091
-122,453	800,000	-0,011	-0,025
-121,439	-200,000	0,000	-0,079
-120,424	-7,523	0,062	0,029
-119,410	-200,000	-0,024	0,103
-118,395	151,522	0,051	0,049
-117,380	-106,263	-0,094	0,015
-116,366	-200,000	-0,001	0,171
-115,351	-18,195	0,053	-0,023
-114,337	-7,485	-0,088	-0,042
-113,322	800,000	0,025	0,050
-112,307	-200,000	0,006	0,027
-111,293	-172,001	0,070	0,002
-110,278	-49,988	-0,050	0,017
-109,264	-200,000	-0,009	0,085
-108,249	39,972	0,167	-0,106
-107,234	-200,000	0,007	-0,076
-106,220	800,000	-0,037	-0,094
-105,205	-11,803	-0,167	-0,078
-104,191	11,096	0,149	0,081
-103,176	800,000	0,026	0,061
-102,162	-200,000	-0,003	-0,030
-101,147	-129,929	-0,093	0,009
-100,132	-200,000	0,018	0,066
-99,118	366,057	-0,063	-0,090
-98,103	-200,000	0,005	0,115
-97,089	800,000	-0,010	-0,022
-96,074	251,948	-0,078	-0,095
-95,059	290,481	0,050	-0,064
-94,045	-103,769	-0,043	-0,007
-93,030	14,375	0,036	0,020
-92,016	-165,072	-0,088	-0,003
-91,001	56,228	-0,135	0,093
-89,986	-200,000	0,038	0,167
-88,972	374,486	0,059	0,085
-87,957	-22,068	0,147	0,063
-86,943	-200,000	-0,001	0,009
-85,928	183,200	0,062	-0,065
-84,913	432,070	-0,033	0,052
-83,899	-18,081	0,023	0,010
-82,884	-200,000	0,012	0,046
-81,870	-200,000	-0,010	0,107
-80,855	114,171	0,039	0,034
-79,840	-200,000	-0,010	0,113
-78,826	-39,002	-0,144	0,053
-77,811	-76,783	-0,092	-0,023
-76,797	-200,000	-0,002	0,054
-75,782	-200,000	0,001	-0,041
-74,767	-200,000	-0,016	0,214
-73,753	479,994	0,070	0,113
-72,738	50,603	-0,073	-0,049
-71,724	-146,245	0,067	0,004
-70,709	-22,499	-0,067	0,029
-69,694	-200,000	0,011	-0,058
-68,680	144,523	-0,022	0,021
-67,665	-200,000	0,002	-0,034
-66,651	800,000	-0,052	-0,119
-65,636	-200,000	-0,016	0,097
-64,622	-200,000	-0,008	-0,118
-63,607	-106,945	-0,038	-0,006
-62,592	-87,184	-0,119	-0,025
-61,578	98,649	-0,061	-0,050
-60,563	-200,000	0,019	0,068
-59,549	800,000	-0,066	0,171
-58,534	-50,264	-1,643	-0,547
-57,519	332,048	-1,433	-1,965
-56,505	-200,000	-0,542	-4,498
-55,490	194,963	0,920	0,991
-54,476	800,000	4,891	11,416
-53,461	-200,000	18,563	300,179
-52,446	800,000	733,533	2271,541
-51,432	562,019	1649,995	2837,767
-50,417	78,908	1668,906	1263,850
-49,403	22,272	1541,966	889,744
-48,388	16,211	1464,977	815,893
-47,373	17,745	1455,018	817,718
-46,359	16,988	1445,313	808,605
-45,344	14,494	1440,673	794,043
-44,330	14,409	1438,799	792,573
-43,315	14,399	1436,943	791,469
-42,300	14,424	1435,290	790,649
-41,286	14,442	1434,362	790,190
-40,271	14,410	1432,877	789,188
-39,257	14,406	1431,668	788,473
-38,242	14,446	1430,289	787,871
-37,227	14,490	1428,954	787,315
-36,213	14,478	1427,804	786,591
-35,198	14,495	1426,557	785,956
-34,184	14,519	1425,589	785,506
-33,169	14,419	1424,294	784,285
-32,154	14,462	1423,306	783,914
-31,140	14,471	1422,102	783,263
-30,125	14,475	1420,876	782,578
-29,111	14,496	1419,536	781,908
-28,096	14,457	1418,672	781,213
-27,082	14,377	1417,524	780,175
-26,067	14,411	1416,479	779,730
-25,052	14,391	1415,400	779,009
-24,038	14,355	1414,528	778,331
-23,023	14,361	1413,361	777,685
-22,009	14,353	1412,531	777,160
-20,994	14,313	1411,742	776,506
-19,979	14,289	1410,938	775,923
-18,965	14,325	1409,535	775,287
-17,950	14,269	1408,936	774,667
-16,936	14,316	1407,820	774,243
-15,921	14,275	1406,756	773,433
-14,906	14,286	1405,827	772,942
-13,892	14,300	1404,873	772,453
-12,877	14,279	1404,025	771,856
-11,863	14,293	1402,917	771,284
-10,848	14,243	1402,271	770,663
-9,833	14,232	1401,596	770,214
-8,819	14,227	1400,612	769,616
-7,804	14,179	1399,555	768,782
-6,790	14,170	1398,450	768,104
-5,775	14,186	1397,386	767,561
-4,760	14,189	1396,568	767,099
-3,746	14,203	1395,888	766,757
-2,731	14,143	1395,072	766,001
-1,717	14,146	1394,147	765,478
-0,702	14,171	1392,359	764,579
0,313	18,014	1310,454	737,412
1,327	34,436	706,024	435,334
2,342	52,680	124,219	83,872
3,356	3,390	16,589	8,523
4,371	18,252	3,175	1,788
5,386	59,558	0,382	0,266
6,400	800,000	0,053	0,120
7,415	-67,405	-0,303	-0,083
8,429	-83,831	-0,259	-0,058
9,444	3,525	-0,436	-0,224
10,459	-8,193	-0,280	-0,133
11,473	159,756	-0,266	-0,262
12,488	27,161	-0,203	-0,120
13,502	17,687	-0,323	-0,181
14,517	182,647	-0,206	-0,215
15,531	106,812	-0,438	-0,368
16,546	40,876	-0,411	-0,262
17,561	171,945	-0,312	-0,317
18,575	-64,821	-0,129	-0,037
19,590	67,242	-0,236	-0,170
20,604	-76,886	-0,416	-0,102
21,619	-46,677	-0,341	-0,117
22,634	59,392	-0,450	-0,313
23,648	42,223	-0,444	-0,285
24,663	195,029	-0,353	-0,379
25,677	251,628	-0,213	-0,257
26,692	32,102	-0,334	-0,203
27,707	385,767	-0,233	-0,341
28,721	132,618	-0,293	-0,267
29,736	55,726	-0,529	-0,361
30,750	107,889	-0,400	-0,336
31,765	124,457	-0,449	-0,399
32,780	194,883	-0,300	-0,321
33,794	-0,770	-0,396	-0,197
34,809	69,072	-0,359	-0,260
35,823	96,218	-0,296	-0,238
36,838	52,776	-0,349	-0,235
37,853	202,841	-0,352	-0,384
38,867	324,254	-0,287	-0,388
39,882	37,649	-0,373	-0,233
40,896	-94,281	-0,348	-0,066
41,911	-9,337	-0,465	-0,218
42,926	11,079	-0,323	-0,174
43,940	103,334	-0,334	-0,276
44,955	204,623	-0,350	-0,383
45,969	32,261	-0,314	-0,191
46,984	91,429	-0,255	-0,202
47,999	90,200	-0,333	-0,262
49,013	323,305	-0,287	-0,387
50,028	51,810	-0,395	-0,265
51,042	31,480	-0,389	-0,235
52,057	-30,437	-0,424	-0,168
53,071	75,049	-0,337	-0,250
54,086	108,876	-0,258	-0,217
55,101	221,823	-0,282	-0,320
56,115	43,754	-0,349	-0,224
57,130	-20,067	-0,444	-0,192
58,144	75,117	-0,399	-0,296
59,159	55,567	-0,448	-0,305
60,174	54,400	-0,450	-0,305
61,188	47,551	-0,411	-0,269
62,203	216,924	-0,241	-0,270
63,217	38,570	-0,238	-0,149
64,232	-50,459	-0,431	-0,142
65,247	46,241	-0,315	-0,205
66,261	18,214	-0,514	-0,288
67,276	-36,014	-0,222	-0,084
68,290	211,198	-0,278	-0,308
69,305	216,151	-0,243	-0,272
70,320	-95,025	-0,312	-0,059
71,334	-112,887	-0,427	-0,059
72,349	14,390	-0,360	-0,197
73,363	66,262	-0,218	-0,155
74,378	-10,491	-0,415	-0,192
75,393	76,601	-0,249	-0,185
76,407	24,395	-0,336	-0,195
77,422	137,296	-0,219	-0,201
78,436	47,466	-0,312	-0,204
79,451	11,924	-0,289	-0,156
80,466	235,598	-0,320	-0,373
81,480	419,720	-0,272	-0,410
82,495	43,994	-0,249	-0,160
83,509	-47,342	-0,316	-0,108
84,524	160,509	-0,217	-0,212
85,539	123,815	-0,201	-0,177
86,553	20,355	-0,389	-0,220
87,568	199,303	-0,193	-0,208
88,582	187,982	-0,172	-0,181
89,597	97,675	-0,286	-0,231
90,611	94,088	-0,271	-0,216
91,626	670,699	-0,122	-0,223
92,641	1,646	-0,401	-0,202
93,655	-92,460	-0,414	-0,081
94,670	197,449	-0,241	-0,259
95,684	73,894	-0,391	-0,287
96,699	321,062	-0,214	-0,286
97,714	149,560	-0,327	-0,311
98,728	76,970	-0,323	-0,240
99,743	-8,128	-0,254	-0,120
100,757	8,340	-0,345	-0,182
101,772	19,825	-0,355	-0,200
102,787	-24,644	-0,380	-0,158
103,801	107,901	-0,268	-0,224
104,816	-85,853	-0,327	-0,071
105,830	2,786	-0,264	-0,134
106,845	26,154	-0,211	-0,123
107,860	63,714	-0,203	-0,143
108,874	86,522	-0,334	-0,258
109,889	-28,065	-0,331	-0,134
110,903	135,021	-0,185	-0,168
111,918	100,907	-0,236	-0,193
112,933	195,488	-0,223	-0,238
113,947	10,737	-0,248	-0,132
114,962	-54,002	-0,304	-0,096
115,976	-87,919	-0,383	-0,080
116,991	66,081	-0,201	-0,142
118,006	160,081	-0,236	-0,230
119,020	38,327	-0,319	-0,199
120,035	129,668	-0,220	-0,197
121,049	78,076	-0,124	-0,092
122,064	-41,843	-0,253	-0,091
123,079	120,034	-0,313	-0,272
124,093	-13,544	-0,249	-0,113
125,108	314,584	-0,264	-0,349
126,122	27,139	-0,252	-0,148
127,137	-57,241	-0,288	-0,088
128,151	31,109	-0,210	-0,126
129,166	181,467	-0,208	-0,214
130,181	79,905	-0,275	-0,207
131,195	-155,517	-0,336	-0,015
132,210	55,960	-0,152	-0,103
133,224	273,345	-0,221	-0,273
134,239	75,178	-0,272	-0,200
135,254	-59,437	-0,280	-0,084
136,268	29,977	-0,257	-0,153
137,283	800,000	-0,129	-0,258
138,297	0,961	-0,317	-0,158
139,312	539,965	-0,150	-0,251
140,327	-137,775	-0,308	0,024
141,341	22,354	-0,290	-0,165
142,356	95,167	-0,221	-0,176
143,370	-48,300	-0,231	-0,078
144,385	112,489	-0,259	-0,219
145,400	224,926	-0,195	-0,221
146,414	91,220	-0,228	-0,179
147,429	34,554	-0,205	-0,125
148,443	-17,775	-0,278	-0,122
149,458	86,465	-0,216	-0,166
150,473	-60,174	-0,208	-0,061
151,487	0,551	-0,211	-0,105
152,502	108,381	-0,223	-0,186
153,516	115,153	-0,206	-0,176
154,531	265,112	-0,245	-0,298
155,546	-21,579	-0,352	-0,149
156,560	-45,218	-0,235	-0,081
157,575	73,425	-0,192	-0,140
158,589	52,296	-0,180	-0,120
159,604	-16,167	-0,280	-0,124
160,619	-25,279	-0,250	-0,103
161,633	74,790	-0,358	-0,263
162,648	348,022	-0,239	-0,330
163,662	24,628	-0,220	-0,127
164,677	-23,624	-0,171	-0,071
165,692	26,868	-0,210	-0,122
166,706	-91,632	-0,232	-0,046
167,721	81,688	-0,259	-0,196
168,735	50,981	-0,255	-0,169
169,750	168,619	-0,222	-0,221
170,764	-58,829	-0,305	-0,091
171,779	87,897	-0,210	-0,163
172,794	8,809	-0,189	-0,099
173,808	447,154	-0,128	-0,197
174,823	65,148	-0,258	-0,181
175,837	685,412	-0,159	-0,290
176,852	151,862	-0,153	-0,145
177,867	4,416	-0,319	-0,163
178,881	800,000	-0,131	-0,315
179,896	129,547	-0,290	-0,258
180,910	97,496	-0,218	-0,175
181,925	51,526	-0,303	-0,200
182,940	-47,066	-0,250	-0,085
183,954	626,096	-0,152	-0,267
184,969	82,009	-0,261	-0,197
185,983	56,415	-0,212	-0,143
186,998	-57,829	-0,209	-0,063
188,013	28,453	-0,162	-0,095
189,027	77,280	-0,220	-0,162
190,042	323,910	-0,151	-0,201
191,056	-57,311	-0,202	-0,061
192,071	800,000	-0,091	-0,181
193,086	302,562	-0,125	-0,162
194,100	192,903	-0,161	-0,169
195,115	12,538	-0,295	-0,158
196,129	-72,052	-0,298	-0,076
197,144	-38,012	-0,207	-0,076
198,159	800,000	-0,146	-0,309
199,173	13,472	-0,209	-0,112
200,188	-62,504	-0,151	-0,043
201,202	-81,574	-0,213	-0,048
202,217	50,574	-0,185	-0,122
203,232	-5,082	-0,189	-0,090
204,246	-59,813	-0,361	-0,107
205,261	-13,274	-0,282	-0,127
206,275	684,877	-0,135	-0,246
207,290	-5,725	-0,256	-0,122
208,304	-52,101	-0,214	0,069
209,319	135,888	-0,251	-0,227
210,334	184,798	-0,135	-0,139
211,348	-28,570	-0,260	-0,104
212,363	-116,811	-0,288	-0,036
213,377	-78,828	-0,167	-0,039
214,392	112,862	-0,123	-0,103
215,407	800,000	-0,060	-0,124
216,421	373,833	-0,088	-0,125
217,436	244,994	-0,265	-0,310
218,450	295,034	-0,165	-0,210
219,465	188,090	-0,216	-0,224
220,480	79,778	-0,233	-0,174
221,494	20,022	-0,242	-0,135
222,509	56,841	-0,242	-0,164
223,523	158,055	-0,172	-0,165
224,538	306,423	-0,122	-0,158
225,553	179,479	-0,217	-0,221
226,567	-24,002	-0,283	-0,117
227,582	99,092	-0,223	-0,179
228,596	7,301	-0,264	-0,136
229,611	423,160	-0,097	-0,145
230,626	-57,979	-0,092	-0,028
231,640	-32,600	-0,136	-0,052
232,655	479,994	-0,142	-0,224
233,669	303,723	-0,150	-0,193
234,684	321,548	-0,120	-0,159
235,699	-1,538	-0,239	-0,116
236,713	-30,252	-0,062	-0,024
237,728	-200,000	-0,008	-0,136
238,742	-27,963	-0,105	-0,042
239,757	-10,648	-0,211	-0,096
240,772	204,520	-0,144	-0,155
241,786	-168,041	-0,174	0,005
242,801	90,020	-0,129	-0,100
243,815	11,101	-0,103	-0,055
244,830	68,446	-0,074	-0,053
245,844	263,707	-0,213	-0,257
246,859	800,000	-0,050	-0,142
247,874	8,834	-0,263	-0,137
248,888	89,595	-0,211	-0,163
249,903	479,459	-0,136	-0,215
250,917	-200,000	-0,050	-0,201
251,932	84,395	-0,117	-0,088
252,947	13,253	-0,160	-0,085
253,961	-54,335	-0,177	-0,055
254,976	81,856	-0,205	-0,154
255,990	44,082	-0,194	-0,123
257,005	37,136	-0,171	-0,104
258,020	110,067	-0,139	-0,116
259,034	-19,521	-0,098	-0,042
260,049	-1,958	-0,134	-0,065
261,063	45,687	-0,076	-0,049
262,078	800,000	-0,113	-0,292
263,093	132,693	-0,234	-0,208
264,107	363,949	-0,150	-0,210
265,122	-101,496	-0,215	-0,036
266,136	54,048	-0,100	0,067
267,151	131,876	-0,093	-0,083
268,166	627,823	-0,135	-0,237
269,180	106,678	-0,173	-0,142
270,195	151,998	-0,103	-0,097
271,209	178,235	-0,142	-0,143
272,224	227,852	-0,149	-0,167
273,239	25,110	-0,110	-0,063
274,253	-166,175	-0,182	-0,005
275,268	-91,462	-0,110	-0,022
276,282	297,910	-0,136	-0,173
277,297	207,214	-0,116	-0,125
278,312	14,766	-0,124	-0,067
279,326	-180,488	-0,193	0,003
280,341	183,048	-0,099	-0,101
281,355	-110,376	-0,195	0,028
282,370	-49,433	-0,312	-0,102
283,384	185,903	-0,189	-0,195
284,399	75,048	-0,122	-0,088
285,414	177,585	-0,134	-0,135
286,428	132,268	-0,164	-0,146
287,443	125,685	-0,169	-0,148
288,457	37,434	-0,043	-0,026
289,472	88,496	-0,124	-0,095
290,487	147,994	-0,146	-0,136
291,501	430,229	-0,147	-0,220
292,516	395,570	-0,108	-0,157
293,530	33,751	-0,121	-0,073
294,545	109,330	-0,076	0,063
295,560	600,248	0,052	-0,089
296,574	-70,479	-0,272	-0,071
297,589	25,181	-0,317	-0,181
298,603	-91,946	-0,112	-0,022
299,618	203,751	-0,141	-0,151
300,633	128,951	-0,201	-0,177
301,647	75,296	-0,187	-0,136
302,662	800,000	-0,097	-0,245
303,676	800,000	-0,071	-0,152
304,691	800,000	-0,103	-0,219
305,706	116,971	-0,102	-0,086
306,720	119,231	-0,163	-0,139
307,735	145,031	-0,176	-0,162
308,749	219,040	-0,009	-0,009
309,764	30,244	-0,161	0,094
310,779	2,701	-0,110	-0,055
311,793	59,843	-0,195	-0,132
312,808	477,299	-0,140	-0,218
313,822	121,223	-0,161	-0,138
314,837	-66,121	-0,076	-0,021
315,852	720,049	-0,097	-0,179
316,866	-6,599	-0,156	-0,073
317,881	800,000	-0,077	-0,185
318,895	800,000	-0,138	-0,264
319,910	-200,000	-0,250	-0,001
320,925	-3,544	-0,222	-0,106
321,939	100,172	-0,237	-0,189
322,954	12,561	-0,198	-0,105
323,968	-58,753	-0,221	-0,065
324,983	-125,263	-0,205	-0,021
325,997	-74,392	-0,135	-0,033
327,012	81,451	-0,233	-0,173
328,027	800,000	-0,115	-0,319
329,041	-94,363	-0,128	-0,024
330,056	443,743	0,019	-0,028
331,070	92,421	-0,109	-0,084
332,085	223,140	-0,138	-0,153
333,100	503,833	-0,039	-0,062
334,114	-200,000	0,003	-0,143
335,129	56,258	-0,227	-0,151
336,143	73,122	-0,150	-0,108
337,158	33,898	0,020	-0,012
338,173	-200,000	-0,001	-0,172
339,187	-86,626	-0,153	-0,032
340,202	11,389	-0,165	-0,086
341,216	29,502	-0,136	-0,079
342,231	82,114	-0,142	-0,106
343,246	457,200	-0,145	-0,223
344,260	27,325	-0,071	-0,041
345,275	170,057	-0,133	-0,131
346,289	-108,917	-0,080	0,012
347,304	800,000	-0,060	-0,132
348,319	159,805	-0,214	-0,204
349,333	-86,339	-0,133	0,028
350,348	-200,000	-0,097	0,000
351,362	-108,711	-0,086	-0,012
352,377	-184,783	-0,132	-0,001
353,392	-9,009	-0,134	-0,061
354,406	68,449	-0,178	-0,125
355,421	209,220	1315,559	1415,721
356,435	161,011	1476,403	1416,209
