DTS Sentinel unit serial number:	SN410029Multiplexer serial number:	ORYXHardware model number:	OX2-SRSoftware version number:	ORYX F/W v4,00 Oryx Data Collector v3.7.2.0data status	okinstallation	B3 Nyhavnadifferential loss correction	single-endedforward channel	channel 1reverse channel	N/Adate	2023/12/01time	03:07:30forward acquisition time	300,00reverse acquisition time	0,00gamma	499,1914k internal	0,3212k external	0,3212temperature offset calibration	1,0000default loss term (dB/km)	0,3820temperature slope calibration	1,0000multiplexer offset coefficient	1,0000multiplexer slope coefficient	1,0000fibre end	0,00T internal ref (°C)	8,42T ext. ref 1 (°C)	-6,58T ext. ref 2 (°C)	-6,72length (m)	temperature (°C)	Stokes	anti-Stokes-744,400	14,651	-0,326	-0,184
-743,385	-200,000	0,042	0,303
-742,371	91,587	-0,154	-0,125
-741,356	-200,000	0,001	0,208
-740,342	371,728	-0,158	-0,233
-739,327	-200,000	-0,066	0,257
-738,312	68,321	-0,228	-0,169
-737,298	800,000	-0,109	0,232
-736,283	687,770	-0,096	-0,183
-735,269	800,000	-0,159	0,347
-734,254	125,204	-0,162	-0,148
-733,239	-110,111	-0,225	0,034
-732,225	322,687	-0,114	-0,158
-731,210	310,661	0,069	0,094
-730,196	292,282	-0,047	0,062
-729,181	315,815	0,044	-0,060
-728,167	-80,834	0,041	0,010
-727,152	341,606	-0,007	0,009
-726,137	67,604	-0,111	-0,082
-725,123	19,889	-0,073	0,042
-724,108	199,144	-0,215	-0,239
-723,094	-200,000	-0,082	0,000
-722,079	-200,000	-0,043	-0,172
-721,064	-200,000	-0,004	-0,101
-720,050	800,000	-0,066	-0,141
-719,035	-161,240	0,071	0,003
-718,021	-200,000	-0,017	0,126
-717,006	6,316	-0,101	-0,054
-715,991	800,000	-0,039	-0,103
-714,977	800,000	-0,053	-0,157
-713,962	-200,000	-0,010	-0,034
-712,948	800,000	-0,037	0,091
-711,933	-123,439	0,012	-0,001
-710,918	800,000	0,038	-0,107
-709,904	-70,218	-0,053	-0,014
-708,889	95,251	-0,129	-0,106
-707,875	213,862	0,045	-0,052
-706,860	-200,000	-0,011	-0,119
-705,845	-81,357	-0,046	0,011
-704,831	-98,935	0,183	-0,033
-703,816	-92,974	-0,101	-0,020
-702,802	5,543	-0,143	-0,076
-701,787	-200,000	0,001	-0,146
-700,772	184,987	-0,107	-0,115
-699,758	-200,000	-0,005	0,062
-698,743	-72,109	0,071	0,019
-697,729	-200,000	0,012	-0,047
-696,714	-76,724	-0,072	0,018
-695,699	224,777	-0,020	0,024
-694,685	43,759	-0,073	-0,048
-693,670	-7,349	0,033	0,016
-692,656	17,326	-0,066	0,038
-691,641	800,000	-0,051	-0,162
-690,627	-178,251	0,106	0,002
-689,612	22,317	-0,147	-0,087
-688,597	-200,000	0,020	-0,175
-687,583	28,820	-0,046	-0,028
-686,568	74,801	-0,076	-0,058
-685,554	800,000	0,052	-0,151
-684,539	174,668	0,080	0,084
-683,524	-200,000	-0,002	-0,026
-682,510	100,325	0,076	0,064
-681,495	80,593	-0,059	0,046
-680,481	555,147	-0,095	-0,166
-679,466	29,937	-0,056	0,034
-678,451	-200,000	0,006	0,087
-677,437	-200,000	0,017	0,159
-676,422	307,532	0,050	0,067
-675,408	93,998	-0,122	-0,100
-674,393	-57,575	-0,051	0,016
-673,378	-153,458	-0,109	0,005
-672,364	-109,535	-0,092	-0,014
-671,349	3,394	-0,068	-0,035
-670,335	-200,000	0,018	0,156
-669,320	-44,174	-0,036	0,013
-668,305	800,000	0,030	0,074
-667,291	201,606	0,100	-0,111
-666,276	744,790	-0,058	-0,113
-665,262	577,772	-0,073	-0,130
-664,247	33,900	-0,041	-0,026
-663,232	-123,874	0,159	-0,018
-662,218	-200,000	0,011	0,136
-661,203	127,301	0,100	0,092
-660,189	131,340	-0,018	-0,017
-659,174	85,553	-0,063	0,050
-658,159	285,496	-0,046	-0,060
-657,145	800,000	-0,028	0,069
-656,130	-200,000	0,029	-0,116
-655,116	-54,793	0,088	-0,029
-654,101	588,292	-0,038	-0,068
-653,086	-200,000	-0,001	0,071
-652,072	-200,000	0,032	-0,120
-651,057	71,360	-0,068	-0,051
-650,043	756,584	-0,088	-0,174
-649,028	-200,000	-0,050	0,168
-648,014	-8,966	0,080	0,038
-646,999	101,393	0,032	-0,027
-645,984	-112,251	0,131	0,019
-644,970	216,487	-0,080	-0,093
-643,955	-200,000	0,008	0,058
-642,941	489,494	-0,049	0,082
-641,926	-200,000	0,018	0,191
-640,911	168,793	0,044	-0,046
-639,897	232,253	-0,051	0,060
-638,882	800,000	0,040	-0,082
-637,868	-48,933	0,049	0,017
-636,853	-18,693	-0,063	-0,028
-635,838	-200,000	-0,007	0,093
-634,824	122,002	0,032	-0,029
-633,809	75,213	0,079	0,060
-632,795	56,584	0,022	-0,015
-631,780	339,433	0,134	0,188
-630,765	-200,000	-0,012	-0,100
-629,751	-53,820	-0,109	-0,036
-628,736	-200,000	0,033	-0,111
-627,722	242,541	-0,009	-0,011
-626,707	800,000	-0,054	0,165
-625,692	-49,266	0,129	0,044
-624,678	71,756	-0,075	-0,056
-623,663	-44,365	0,039	-0,014
-622,649	-181,954	-0,034	-0,000
-621,634	-135,952	-0,114	0,010
-620,619	33,535	-0,199	-0,125
-619,605	-103,488	0,166	0,028
-618,590	-13,813	0,098	0,045
-617,576	-200,000	-0,012	0,132
-616,561	-80,314	-0,069	-0,017
-615,546	321,822	0,051	0,070
-614,532	-90,179	-0,032	0,007
-613,517	-136,158	0,041	0,003
-612,503	332,781	0,021	0,030
-611,488	-71,375	0,035	0,009
-610,474	-6,480	0,039	-0,019
-609,459	-200,000	-0,003	-0,042
-608,444	28,571	-0,107	-0,065
-607,430	104,672	0,125	-0,106
-606,415	-121,851	-0,108	-0,013
-605,401	-166,826	0,090	0,003
-604,386	263,167	0,075	0,095
-603,371	343,080	0,046	-0,066
-602,357	228,780	0,035	0,042
-601,342	-109,365	-0,040	0,006
-600,328	192,194	-0,017	0,018
-599,313	-200,000	0,033	-0,197
-598,298	-200,000	-0,029	-0,102
-597,284	33,402	0,059	0,037
-596,269	216,528	0,104	0,119
-595,255	-130,713	-0,018	-0,002
-594,240	133,034	0,139	-0,129
-593,225	592,997	-0,056	0,100
-592,211	687,187	-0,067	0,126
-591,196	-200,000	-0,017	-0,101
-590,182	800,000	0,050	0,119
-589,167	-31,481	0,086	0,035
-588,152	291,091	0,047	-0,062
-587,138	-200,000	0,036	-0,133
-586,123	-46,829	-0,074	0,026
-585,109	-137,468	-0,186	0,015
-584,094	800,000	-0,006	0,013
-583,079	230,043	0,073	0,087
-582,065	34,773	0,108	0,068
-581,050	-113,521	-0,040	0,006
-580,036	-200,000	-0,022	0,081
-579,021	-200,000	0,039	-0,196
-578,006	67,463	-0,097	-0,071
-576,992	541,143	-0,026	-0,044
-575,977	-122,690	-0,083	-0,010
-574,963	-200,000	0,000	-0,062
-573,948	800,000	0,052	0,134
-572,934	353,188	-0,055	-0,079
-571,919	598,136	0,080	-0,144
-570,904	-200,000	-0,008	0,055
-569,890	800,000	0,041	0,083
-568,875	-53,060	-0,058	0,019
-567,861	125,252	0,136	0,123
-566,846	-200,000	-0,017	0,072
-565,831	-200,000	-0,023	0,125
-564,817	-200,000	-0,050	0,178
-563,802	800,000	0,052	-0,133
-562,788	56,009	-0,132	-0,092
-561,773	-140,462	-0,079	0,006
-560,758	110,586	0,054	0,046
-559,744	720,562	0,013	0,026
-558,729	224,361	0,055	-0,064
-557,715	-21,287	-0,084	0,037
-556,700	-120,237	-0,183	-0,022
-555,685	205,577	0,019	-0,022
-554,671	-200,000	0,016	-0,108
-553,656	800,000	0,033	0,097
-552,642	-32,206	0,051	-0,020
-551,627	-6,757	0,062	0,030
-550,612	-200,000	-0,022	-0,082
-549,598	-200,000	-0,010	-0,059
-548,583	263,491	-0,088	-0,111
-547,569	-152,798	-0,089	-0,004
-546,554	100,488	0,084	0,070
-545,539	-50,775	0,067	0,022
-544,525	-24,939	-0,120	-0,051
-543,510	-33,156	-0,113	0,045
-542,496	-73,747	-0,150	0,039
-541,481	-27,336	0,078	-0,033
-540,466	-62,244	-0,141	-0,042
-539,452	260,843	0,073	-0,091
-538,437	-155,377	0,075	-0,003
-537,423	-11,208	0,122	0,058
-536,408	44,640	-0,145	-0,096
-535,393	800,000	0,005	0,013
-534,379	287,986	-0,024	0,031
-533,364	800,000	0,055	-0,111
-532,350	800,000	-0,036	-0,109
-531,335	-15,130	-0,032	0,015
-530,321	-200,000	0,018	0,085
-529,306	800,000	0,051	0,134
-528,291	479,440	-0,094	0,153
-527,277	171,250	-0,100	0,103
-526,262	-113,624	0,123	-0,017
-525,248	-155,735	0,024	0,001
-524,233	80,990	0,072	0,055
-523,218	-200,000	-0,001	-0,020
-522,204	800,000	0,026	-0,072
-521,189	342,210	-0,101	-0,142
-520,175	-200,000	0,016	0,120
-519,160	-9,598	0,037	-0,018
-518,145	347,981	-0,048	-0,068
-517,131	85,429	0,092	-0,072
-516,116	-166,522	-0,131	-0,004
-515,102	-150,163	0,091	-0,005
-514,087	361,542	-0,032	-0,046
-513,072	-98,374	-0,081	-0,015
-512,058	-200,000	-0,003	0,016
-511,043	270,976	0,104	0,131
-510,029	-200,000	-0,010	0,043
-509,014	-89,456	0,010	0,002
-507,999	-4,817	0,064	-0,032
-506,985	-64,281	-0,087	0,025
-505,970	-22,723	0,045	0,019
-504,956	-200,000	-0,018	0,065
-503,941	583,370	-0,037	0,066
-502,926	414,296	0,043	-0,067
-501,912	263,435	0,041	0,052
-500,897	-200,000	-0,019	0,108
-499,883	-2,099	-0,058	-0,029
-498,868	-18,220	-0,097	-0,044
-497,853	511,984	0,057	0,095
-496,839	-108,040	0,038	0,006
-495,824	800,000	-0,040	0,125
-494,810	110,050	0,035	-0,030
-493,795	385,053	-0,030	-0,045
-492,781	525,875	-0,115	0,196
-491,766	-144,175	0,128	0,008
-490,751	-111,111	0,088	-0,013
-489,737	234,382	0,044	0,052
-488,722	-200,000	-0,030	0,098
-487,708	800,000	-0,038	0,081
-486,693	188,765	-0,047	0,050
-485,678	-3,548	-0,066	-0,033
-484,664	-200,000	0,011	-0,128
-483,649	67,871	0,096	-0,070
-482,635	214,130	0,044	0,050
-481,620	206,839	-0,007	0,008
-480,605	92,968	-0,078	-0,063
-479,591	196,312	-0,013	0,014
-478,576	-7,049	-0,020	0,010
-477,562	362,339	-0,038	-0,055
-476,547	-200,000	-0,012	-0,118
-475,532	-23,118	-0,051	-0,022
-474,518	-200,000	0,010	-0,209
-473,503	-200,000	-0,001	-0,102
-472,489	-33,581	0,034	0,013
-471,474	85,559	-0,112	-0,088
-470,459	75,649	0,107	0,081
-469,445	60,599	-0,105	-0,074
-468,430	333,400	0,016	0,022
-467,416	-13,452	0,139	0,064
-466,401	-200,000	-0,003	-0,015
-465,386	17,133	-0,038	-0,021
-464,372	655,876	0,038	-0,071
-463,357	434,901	0,019	0,030
-462,343	-129,398	-0,048	0,005
-461,328	132,812	-0,118	0,109
-460,313	-12,700	0,137	0,064
-459,299	-22,402	-0,094	0,040
-458,284	-77,435	0,001	-0,000
-457,270	735,867	-0,033	0,063
-456,255	-200,000	0,013	-0,081
-455,241	182,282	-0,055	-0,058
-454,226	166,338	0,056	-0,057
-453,211	-169,429	0,093	0,002
-452,197	-200,000	-0,009	0,062
-451,182	800,000	0,034	0,094
-450,168	296,294	-0,088	0,116
-449,153	-165,114	-0,171	0,005
-448,138	184,200	-0,090	-0,096
-447,124	-77,987	0,117	-0,029
-446,109	166,424	-0,078	0,079
-445,095	-83,022	0,031	0,007
-444,080	-24,770	0,094	0,040
-443,065	250,980	0,044	-0,054
-442,051	-26,417	-0,115	0,048
-441,036	-200,000	-0,004	-0,089
-440,022	-141,367	-0,066	0,005
-439,007	-200,000	-0,040	-0,128
-437,992	15,632	0,112	-0,063
-436,978	53,572	0,107	0,074
-435,963	37,725	0,133	0,084
-434,949	-42,888	-0,133	0,048
-433,934	800,000	0,063	-0,158
-432,919	-200,000	0,030	-0,210
-431,905	182,831	0,068	-0,072
-430,890	387,220	-0,065	-0,097
-429,876	-19,827	0,105	0,046
-428,861	56,041	-0,029	0,020
-427,846	339,021	0,052	-0,073
-426,832	-109,991	0,109	0,016
-425,817	-110,537	0,045	-0,007
-424,803	800,000	0,060	0,145
-423,788	800,000	0,006	-0,016
-422,773	39,491	0,104	-0,066
-421,759	-200,000	-0,037	0,141
-420,744	-96,749	-0,200	-0,037
-419,730	800,000	-0,031	0,084
-418,715	345,636	0,045	0,063
-417,701	-200,000	-0,012	-0,076
-416,686	66,277	0,029	-0,021
-415,671	254,609	0,044	0,054
-414,657	800,000	-0,060	0,120
-413,642	-200,000	-0,000	-0,068
-412,628	800,000	-0,059	-0,156
-411,613	-200,000	-0,014	-0,150
-410,598	-108,131	-0,155	-0,024
-409,584	-42,591	0,111	0,040
-408,569	89,877	0,119	0,095
-407,555	0,675	0,111	0,056
-406,540	215,098	-0,102	0,116
-405,525	41,184	-0,052	0,034
-404,511	800,000	-0,037	0,082
-403,496	-22,223	-0,055	0,024
-402,482	197,284	-0,060	0,065
-401,467	-200,000	-0,019	-0,089
-400,452	-200,000	0,000	0,106
-399,438	0,189	0,045	0,023
-398,423	-91,372	-0,041	-0,008
-397,409	86,765	0,018	-0,014
-396,394	-37,804	0,092	-0,035
-395,379	314,433	-0,088	-0,118
-394,365	-98,927	0,121	-0,022
-393,350	-200,000	-0,006	-0,033
-392,336	-200,000	0,012	0,038
-391,321	60,208	-0,046	-0,032
-390,306	190,341	-0,039	-0,042
-389,292	110,832	-0,150	0,129
-388,277	800,000	0,047	0,094
-387,263	149,217	0,111	0,107
-386,248	-25,591	0,059	0,025
-385,233	127,753	-0,041	0,037
-384,219	-200,000	-0,021	-0,076
-383,204	-200,000	-0,003	0,043
-382,190	-21,531	-0,079	0,034
-381,175	138,245	0,117	-0,110
-380,160	-200,000	0,059	0,203
-379,146	-151,599	-0,148	-0,008
-378,131	-100,246	-0,045	-0,008
-377,117	167,544	0,040	0,041
-376,102	-108,515	-0,108	-0,016
-375,088	-77,570	-0,119	0,029
-374,073	209,807	0,038	-0,043
-373,058	229,044	0,022	0,026
-372,044	60,120	0,087	0,061
-371,029	240,850	-0,132	0,158
-370,015	23,855	0,079	-0,046
-369,000	47,110	-0,023	0,015
-367,985	-20,055	-0,138	-0,060
-366,971	800,000	0,051	0,125
-365,956	797,459	0,039	-0,076
-364,942	491,344	0,073	-0,119
-363,927	147,486	0,030	-0,029
-362,912	-165,777	-0,026	-0,001
-361,898	-194,246	-0,177	0,001
-360,883	800,000	-0,057	-0,115
-359,869	193,580	-0,071	-0,077
-358,854	-47,963	0,017	0,006
-357,839	10,765	0,031	0,017
-356,825	800,000	0,061	0,121
-355,810	-29,076	0,082	-0,033
-354,796	800,000	0,032	-0,064
-353,781	-200,000	-0,031	0,118
-352,766	69,709	-0,049	0,036
-351,752	755,468	0,056	0,109
-350,737	-200,000	-0,003	0,029
-349,723	385,525	0,055	0,081
-348,708	-14,369	0,028	0,013
-347,693	800,000	-0,010	0,029
-346,679	710,071	-0,063	-0,119
-345,664	-1,304	0,077	-0,039
-344,650	800,000	0,059	0,138
-343,635	-26,031	0,020	-0,008
-342,620	-25,587	0,101	-0,043
-341,606	56,333	-0,101	0,070
-340,591	-21,655	-0,102	0,044
-339,577	270,036	0,056	0,070
-338,562	98,673	-0,133	-0,109
-337,548	-200,000	-0,005	-0,089
-336,533	-77,594	0,140	0,034
-335,518	-200,000	-0,009	0,059
-334,504	148,179	-0,056	-0,054
-333,489	244,647	-0,051	-0,061
-332,475	12,661	-0,142	-0,078
-331,460	-200,000	0,011	-0,071
-330,445	205,740	0,047	0,052
-329,431	-96,962	0,041	0,008
-328,416	-6,852	-0,098	0,047
-327,402	28,199	-0,044	-0,026
-326,387	317,917	0,030	-0,041
-325,372	685,704	-0,059	-0,110
-324,358	139,180	0,071	0,067
-323,343	770,182	0,041	-0,081
-322,329	126,598	-0,078	0,071
-321,314	20,606	-0,053	0,030
-320,299	-59,806	0,067	-0,020
-319,285	-200,000	-0,016	0,121
-318,270	257,826	-0,146	-0,179
-317,256	726,689	0,052	-0,098
-316,241	-64,503	0,027	0,008
-315,226	-90,683	0,117	0,024
-314,212	-98,803	0,214	0,038
-313,197	-11,353	0,126	-0,059
-312,183	800,000	-0,022	0,045
-311,168	-148,557	-0,081	-0,005
-310,153	457,932	0,047	0,075
-309,139	241,072	-0,055	-0,065
-308,124	-200,000	-0,025	-0,086
-307,110	-131,934	0,146	0,013
-306,095	800,000	-0,033	0,088
-305,080	-21,991	-0,154	-0,066
-304,066	126,061	0,095	0,085
-303,051	69,830	-0,084	-0,062
-302,037	-200,000	0,045	-0,151
-301,022	194,707	0,103	-0,112
-300,008	206,251	-0,046	-0,051
-298,993	616,510	0,096	0,172
-297,978	800,000	0,016	0,036
-296,964	-114,667	0,029	-0,004
-295,949	133,918	-0,087	-0,080
-294,935	-37,571	-0,056	-0,021
-293,920	154,682	-0,054	0,053
-292,905	-82,861	-0,199	-0,045
-291,891	-200,000	0,007	0,072
-290,876	-57,667	0,077	-0,024
-289,862	96,475	-0,071	-0,057
-288,847	386,603	-0,017	-0,025
-287,832	75,166	-0,102	-0,077
-286,818	-147,065	0,154	0,009
-285,803	408,881	0,047	0,071
-284,789	-23,694	0,072	0,031
-283,774	270,138	0,037	0,046
-282,759	40,284	0,006	0,004
-281,745	-33,125	0,102	0,040
-280,730	99,144	-0,047	-0,039
-279,716	348,188	-0,110	0,155
-278,701	-200,000	-0,009	0,061
-277,686	153,308	-0,009	-0,009
-276,672	148,468	-0,023	-0,022
-275,657	-200,000	0,013	-0,053
-274,643	752,525	0,088	-0,169
-273,628	-113,944	-0,055	-0,007
-272,613	-24,208	-0,035	0,015
-271,599	800,000	0,019	-0,047
-270,584	0,251	-0,025	-0,013
-269,570	332,900	-0,034	0,047
-268,555	-124,468	0,038	-0,004
-267,540	800,000	0,028	-0,075
-266,526	705,154	0,079	-0,149
-265,511	-57,107	-0,125	0,039
-264,497	12,538	-0,093	0,051
-263,482	800,000	0,054	-0,152
-262,467	-29,787	0,061	0,024
-261,453	-140,904	0,179	-0,013
-260,438	53,386	0,027	-0,019
-259,424	352,880	-0,057	-0,081
-258,409	-200,000	0,007	-0,058
-257,395	193,494	-0,050	-0,054
-256,380	44,173	-0,052	-0,034
-255,365	374,391	0,036	0,052
-254,351	664,724	0,088	-0,163
-253,336	-69,583	-0,074	-0,020
-252,322	-200,000	0,010	0,095
-251,307	800,000	-0,032	-0,071
-250,292	195,125	-0,054	0,058
-249,278	-73,751	-0,032	0,008
-248,263	-65,642	-0,059	0,017
-247,249	793,788	0,081	0,160
-246,234	-82,499	0,025	0,006
-245,219	22,417	-0,080	-0,046
-244,205	-124,652	0,187	-0,020
-243,190	24,863	-0,104	0,061
-242,176	-65,736	0,075	-0,021
-241,161	653,775	-0,053	-0,098
-240,146	-200,000	-0,015	-0,049
-239,132	-200,000	0,009	-0,121
-238,117	168,814	-0,061	-0,062
-237,103	800,000	0,012	-0,038
-236,088	-96,423	-0,145	-0,027
-235,073	800,000	0,042	-0,119
-234,059	800,000	0,018	-0,049
-233,044	635,124	0,065	-0,118
-232,030	-41,550	-0,080	-0,029
-231,015	-140,534	-0,110	0,008
-230,000	800,000	-0,016	0,042
-228,986	198,326	0,068	-0,074
-227,971	-10,500	0,199	0,093
-226,957	11,766	0,079	-0,043
-225,942	149,048	0,036	0,035
-224,927	-200,000	-0,004	-0,015
-223,913	148,694	-0,050	0,048
-222,898	-100,431	-0,061	0,011
-221,884	-149,869	0,011	-0,001
-220,869	800,000	0,047	0,096
-219,855	410,754	0,047	-0,071
-218,840	-2,107	-0,066	0,033
-217,825	-151,161	-0,117	-0,006
-216,811	-200,000	0,027	-0,089
-215,796	-54,785	0,062	-0,020
-214,782	161,152	-0,097	-0,096
-213,767	-63,337	0,009	-0,003
-212,752	-200,000	-0,013	-0,078
-211,738	800,000	0,051	0,103
-210,723	31,546	0,029	0,017
-209,709	262,364	-0,063	-0,078
-208,694	-200,000	0,012	-0,171
-207,679	800,000	-0,039	-0,083
-206,665	-35,827	0,098	-0,037
-205,650	800,000	0,037	0,098
-204,636	-200,000	0,003	0,044
-203,621	-53,265	-0,154	-0,050
-202,606	-55,446	0,056	0,018
-201,592	-117,588	-0,010	0,001
-200,577	-90,898	-0,074	-0,015
-199,563	-132,291	0,106	-0,010
-198,548	-200,000	0,004	0,064
-197,533	-78,853	0,038	0,009
-196,519	90,048	0,083	0,066
-195,504	800,000	-0,021	0,046
-194,490	800,000	0,039	-0,089
-193,475	42,548	-0,159	-0,102
-192,460	800,000	0,042	-0,085
-191,446	-182,156	0,231	-0,003
-190,431	42,441	0,051	0,033
-189,417	800,000	-0,011	-0,036
-188,402	800,000	-0,056	-0,112
-187,387	-148,086	-0,110	-0,006
-186,373	336,999	-0,036	0,050
-185,358	-200,000	0,009	-0,073
-184,344	800,000	0,057	0,160
-183,329	-200,000	-0,014	0,079
-182,315	800,000	0,007	-0,014
-181,300	39,916	-0,030	0,019
-180,285	4,110	-0,208	0,108
-179,271	-12,617	0,084	-0,039
-178,256	-39,808	0,036	-0,013
-177,242	285,967	-0,063	0,081
-176,227	800,000	-0,049	0,109
-175,212	535,354	0,068	0,115
-174,198	279,646	-0,068	0,086
-173,183	33,069	-0,062	-0,038
-172,169	745,364	-0,076	0,146
-171,154	26,398	-0,049	0,029
-170,139	171,205	0,082	-0,084
-169,125	-109,349	0,112	0,017
-168,110	-200,000	-0,006	0,052
-167,096	-24,300	-0,104	0,044
-166,081	800,000	-0,051	-0,105
-165,066	800,000	-0,040	-0,104
-164,052	297,740	0,023	0,031
-163,037	82,263	0,065	-0,050
-162,023	800,000	-0,027	0,081
-161,008	800,000	0,080	0,202
-159,993	-131,528	0,103	-0,010
-158,979	472,093	0,028	0,045
-157,964	-200,000	0,000	0,034
-156,950	-1,595	-0,028	0,014
-155,935	-81,311	0,094	0,022
-154,920	-85,987	0,041	0,009
-153,906	288,933	0,070	-0,090
-152,891	717,113	0,040	-0,075
-151,877	800,000	-0,015	-0,041
-150,862	46,486	-0,091	-0,060
-149,847	-200,000	-0,050	0,164
-148,833	217,453	0,015	-0,016
-147,818	-51,246	0,032	-0,011
-146,804	-139,622	-0,093	0,007
-145,789	800,000	0,019	-0,057
-144,775	86,550	0,057	0,045
-143,760	-78,416	-0,028	-0,007
-142,745	66,133	0,033	0,023
-141,731	-169,731	-0,070	-0,002
-140,716	152,767	0,041	0,039
-139,702	-26,834	-0,046	-0,019
-138,687	-91,336	-0,033	-0,007
-137,672	675,676	-0,012	-0,023
-136,658	-38,711	-0,013	0,005
-135,643	105,996	-0,049	-0,041
-134,629	-140,772	-0,110	0,008
-133,614	800,000	0,063	-0,160
-132,599	800,000	0,050	-0,117
-131,585	-200,000	0,016	0,068
-130,570	79,184	-0,126	0,096
-129,556	-200,000	-0,004	0,021
-128,541	318,996	-0,050	0,067
-127,526	8,282	0,026	-0,014
-126,512	-26,641	0,183	0,076
-125,497	11,951	-0,039	0,021
-124,483	-73,841	-0,115	0,029
-123,468	800,000	-0,030	-0,072
-122,453	-80,938	-0,046	-0,011
-121,439	-12,716	-0,149	-0,068
-120,424	-84,613	0,117	0,026
-119,410	19,365	-0,044	0,025
-118,395	187,065	0,070	0,074
-117,380	547,553	0,064	0,109
-116,366	-200,000	-0,009	-0,034
-115,351	-200,000	-0,017	-0,104
-114,337	-152,891	-0,124	0,006
-113,322	-200,000	0,009	-0,032
-112,307	140,029	0,087	0,081
-111,293	-67,080	0,064	-0,018
-110,278	-121,618	0,025	0,003
-109,264	-200,000	0,001	-0,064
-108,249	800,000	-0,051	-0,131
-107,234	800,000	0,066	-0,134
-106,220	-200,000	-0,017	-0,098
-105,205	2,055	-0,064	0,032
-104,191	-200,000	-0,009	-0,049
-103,176	110,695	0,134	-0,114
-102,162	-76,044	0,070	0,017
-101,147	-40,639	-0,090	0,033
-100,132	-200,000	-0,014	0,069
-99,118	463,991	-0,049	0,077
-98,103	-14,026	0,107	-0,048
-97,089	347,686	0,042	0,059
-96,074	800,000	0,032	0,081
-95,059	800,000	-0,074	0,158
-94,045	-13,944	-0,192	0,088
-93,030	-23,795	0,048	-0,020
-92,016	639,612	0,035	0,062
-91,001	369,036	0,057	-0,082
-89,986	-63,042	-0,034	0,010
-88,972	-163,169	-0,080	0,003
-87,957	73,610	0,063	-0,046
-86,943	494,981	0,086	-0,140
-85,928	-74,528	-0,064	-0,016
-84,913	258,381	-0,077	0,093
-83,899	800,000	-0,040	0,095
-82,884	-200,000	0,018	0,057
-81,870	117,004	-0,093	0,080
-80,855	-200,000	-0,022	-0,087
-79,840	16,392	0,075	-0,042
-78,826	-200,000	-0,002	-0,135
-77,811	61,980	-0,093	0,066
-76,797	64,769	0,022	-0,015
-75,782	800,000	-0,047	0,111
-74,767	71,062	0,091	-0,067
-73,753	800,000	0,072	0,167
-72,738	189,909	-0,073	-0,077
-71,724	-122,094	-0,090	-0,010
-70,709	-200,000	-0,031	0,156
-69,694	-200,000	-0,002	-0,009
-68,680	19,676	0,078	-0,044
-67,665	375,128	0,046	0,066
-66,651	-72,922	-0,075	0,019
-65,636	338,477	0,075	0,103
-64,622	-200,000	-0,025	-0,146
-63,607	-200,000	0,020	-0,067
-62,592	-184,391	0,104	0,001
-61,578	-79,836	0,092	0,022
-60,563	-180,171	-0,105	-0,002
-59,549	-42,919	-0,116	0,041
-58,534	40,241	-2,201	-1,395
-57,519	478,392	-1,116	-1,790
-56,505	-200,000	-0,486	-4,512
-55,490	695,494	0,762	1,418
-54,476	800,000	5,451	12,125
-53,461	-200,000	22,358	346,757
-52,446	800,000	758,586	2306,106
-51,432	536,524	1648,428	2771,704
-50,417	68,771	1646,546	1191,072
-49,403	16,123	1522,933	844,557
-48,388	10,260	1448,803	775,237
-47,373	19,289	1440,885	814,060
-46,359	13,754	1429,439	781,403
-45,344	8,560	1425,746	754,748
-44,330	8,517	1423,699	753,430
-43,315	8,486	1421,893	752,296
-42,300	8,480	1420,140	751,313
-41,286	8,495	1418,892	750,690
-40,271	8,480	1417,673	749,946
-39,257	8,481	1416,464	749,281
-38,242	8,579	1415,110	748,995
-37,227	8,510	1414,365	748,250
-36,213	8,506	1412,927	747,439
-35,198	8,546	1411,645	746,918
-34,184	8,561	1410,739	746,480
-33,169	8,414	1409,433	745,069
-32,154	8,492	1408,545	744,938
-31,140	8,481	1407,126	744,105
-30,125	8,531	1405,955	743,690
-29,111	8,465	1404,895	742,792
-28,096	8,462	1403,788	742,162
-27,082	8,451	1402,436	741,369
-26,067	8,443	1401,401	740,756
-25,052	8,439	1400,285	740,115
-24,038	8,465	1399,508	739,798
-23,023	8,452	1398,354	739,095
-22,009	8,438	1397,265	738,425
-20,994	8,444	1396,101	737,808
-19,979	8,441	1395,410	737,401
-18,965	8,372	1394,437	736,538
-17,950	8,373	1393,715	736,134
-16,936	8,335	1392,790	735,436
-15,921	8,340	1391,731	734,872
-14,906	8,369	1390,819	734,495
-13,892	8,412	1389,771	734,111
-12,877	8,384	1389,138	733,620
-11,863	8,394	1388,347	733,220
-10,848	8,370	1387,483	732,622
-9,833	8,326	1386,370	731,802
-8,819	8,299	1385,422	731,152
-7,804	8,272	1384,523	730,522
-6,790	8,262	1383,664	729,996
-5,775	8,264	1382,485	729,352
-4,760	8,291	1381,741	729,056
-3,746	8,339	1380,583	728,636
-2,731	8,291	1379,695	727,916
-1,717	8,276	1378,919	727,410
-0,702	8,303	1377,025	726,508
0,313	12,301	1287,614	697,474
1,327	28,162	679,455	403,498
2,342	44,296	116,862	75,489
3,356	-0,139	16,582	8,292
4,371	1,279	3,750	1,893
5,386	-3,338	1,346	0,659
6,400	800,000	0,279	0,688
7,415	-110,277	-0,172	-0,025
8,429	89,446	-0,322	-0,253
9,444	11,408	-0,351	-0,189
10,459	351,196	-0,172	-0,241
11,473	245,454	-0,210	-0,249
12,488	44,840	-0,376	-0,243
13,502	67,771	-0,292	-0,210
14,517	-46,131	-0,393	-0,135
15,531	36,086	-0,421	-0,260
16,546	138,929	-0,308	-0,285
17,561	97,811	-0,339	-0,275
18,575	49,631	-0,174	-0,115
19,590	-81,870	-0,238	-0,054
20,604	43,152	-0,280	-0,179
21,619	25,599	-0,468	-0,274
22,634	112,685	-0,367	-0,312
23,648	254,444	-0,320	-0,386
24,663	23,703	-0,426	-0,246
25,677	48,913	-0,387	-0,255
26,692	-14,861	-0,376	-0,169
27,707	-52,363	-0,423	-0,137
28,721	272,232	-0,293	-0,365
29,736	72,497	-0,332	-0,243
30,750	122,460	-0,315	-0,277
31,765	30,585	-0,406	-0,244
32,780	107,963	-0,409	-0,342
33,794	22,475	-0,416	-0,238
34,809	-57,994	-0,317	-0,097
35,823	51,036	-0,373	-0,248
36,838	30,540	-0,543	-0,325
37,853	800,000	-0,196	-0,519
38,867	149,106	-0,353	-0,335
39,882	77,082	-0,319	-0,238
40,896	-28,348	-0,339	-0,137
41,911	-66,212	-0,380	-0,106
42,926	-69,009	-0,408	-0,110
43,940	27,210	-0,340	-0,200
44,955	75,570	-0,405	-0,300
45,969	-17,690	-0,363	-0,159
46,984	149,247	-0,304	-0,289
47,999	76,453	-0,346	-0,258
49,013	458,043	-0,147	-0,230
50,028	2,986	-0,355	-0,181
51,042	122,076	-0,360	-0,315
52,057	-20,208	-0,313	-0,135
53,071	276,251	-0,228	-0,285
54,086	-29,223	-0,286	-0,115
55,101	128,454	-0,259	-0,231
56,115	-68,259	-0,516	-0,140
57,130	61,792	-0,306	-0,214
58,144	134,248	-0,331	-0,301
59,159	142,611	-0,342	-0,319
60,174	160,820	-0,373	-0,366
61,188	58,315	-0,307	-0,211
62,203	302,792	-0,192	-0,250
63,217	88,817	-0,316	-0,246
64,232	-97,804	-0,299	-0,054
65,247	32,954	-0,369	-0,223
66,261	-15,692	-0,479	-0,213
67,276	83,803	-0,338	-0,258
68,290	-28,261	-0,395	-0,159
69,305	82,174	-0,270	-0,205
70,320	-31,324	-0,257	-0,101
71,334	-60,814	-0,244	-0,072
72,349	236,180	-0,180	-0,209
73,363	145,588	-0,360	-0,338
74,378	99,599	-0,362	-0,294
75,393	-23,973	-0,337	-0,141
76,407	439,875	-0,146	-0,224
77,422	119,801	-0,260	-0,226
78,436	-99,888	-0,270	-0,047
79,451	-66,111	-0,328	-0,091
80,466	71,792	-0,371	-0,270
81,480	112,677	-0,273	-0,232
82,495	-64,741	-0,263	-0,074
83,509	-2,745	-0,259	-0,126
84,524	-21,895	-0,287	-0,121
85,539	27,963	-0,282	-0,166
86,553	72,101	-0,195	-0,142
87,568	43,527	-0,329	-0,210
88,582	26,752	-0,213	-0,124
89,597	25,343	-0,282	-0,163
90,611	51,401	-0,305	-0,202
91,626	-9,051	-0,249	-0,116
92,641	32,079	-0,269	-0,162
93,655	66,136	-0,259	-0,183
94,670	-61,699	-0,366	-0,107
95,684	31,770	-0,297	-0,179
96,699	-116,623	-0,348	-0,044
97,714	-14,097	-0,323	-0,145
98,728	-200,000	-0,077	-0,237
99,743	333,003	-0,256	-0,346
100,757	-108,468	-0,246	-0,037
101,772	150,863	-0,228	-0,217
102,787	368,596	-0,240	-0,340
103,801	800,000	-0,086	-0,257
104,816	217,960	-0,272	-0,304
105,830	-110,189	-0,345	-0,050
106,845	-25,470	-0,171	-0,070
107,860	105,533	-0,187	-0,154
108,874	203,002	-0,216	-0,233
109,889	446,842	-0,160	-0,247
110,903	-0,259	-0,260	-0,128
111,918	-109,546	-0,158	0,023
112,933	13,096	-0,284	-0,153
113,947	-70,911	-0,264	-0,069
114,962	-25,129	-0,196	-0,081
115,976	335,418	-0,164	-0,222
116,991	-38,124	-0,178	-0,066
118,006	157,771	-0,217	-0,210
119,020	137,338	-0,240	-0,219
120,035	238,058	-0,195	-0,226
121,049	144,468	-0,218	-0,203
122,064	-162,375	-0,201	-0,007
123,079	54,957	-0,202	-0,136
124,093	503,380	-0,076	-0,123
125,108	116,167	-0,192	-0,164
126,122	30,666	-0,229	-0,136
127,137	36,568	-0,282	-0,173
128,151	392,228	-0,082	-0,119
129,166	-86,240	-0,314	-0,067
130,181	615,575	-0,123	-0,215
131,195	28,685	-0,277	-0,163
132,210	365,221	-0,187	-0,264
133,224	144,705	-0,224	-0,209
134,239	800,000	-0,067	-0,132
135,254	800,000	-0,054	-0,146
136,268	-62,360	-0,156	-0,045
137,283	282,907	-0,095	-0,118
138,297	177,626	-0,194	-0,198
139,312	387,350	-0,193	-0,279
140,327	184,082	-0,228	-0,236
141,341	-15,554	-0,278	-0,123
142,356	-200,000	-0,078	-0,250
143,370	15,902	-0,250	-0,137
144,385	327,718	-0,151	-0,202
145,400	-135,659	-0,254	-0,021
146,414	63,310	-0,282	-0,197
147,429	3,101	-0,333	-0,168
148,443	-109,092	-0,195	-0,029
149,458	245,871	-0,077	-0,091
150,473	272,190	-0,113	-0,138
151,487	-7,111	-0,125	-0,059
152,502	74,521	-0,324	-0,237
153,516	-39,477	-0,351	-0,127
154,531	58,784	-0,185	-0,126
155,546	-19,412	-0,267	-0,115
156,560	268,844	-0,131	-0,160
157,575	-200,000	-0,047	-0,179
158,589	127,489	-0,183	-0,161
159,604	104,592	-0,319	-0,262
160,619	278,224	-0,242	-0,300
161,633	-115,370	-0,291	-0,038
162,648	1,411	-0,270	-0,134
163,662	41,057	-0,249	-0,156
164,677	800,000	-0,117	-0,250
165,692	186,908	-0,186	-0,193
166,706	77,443	-0,237	-0,175
167,721	13,745	-0,341	-0,183
168,735	154,351	-0,303	-0,289
169,750	173,199	-0,154	-0,154
170,764	-200,000	-0,030	-0,195
171,779	124,726	-0,154	-0,135
172,794	-141,273	-0,292	-0,020
173,808	20,653	-0,163	-0,091
174,823	800,000	-0,145	-0,288
175,837	-38,111	-0,295	-0,108
176,852	268,540	-0,078	-0,095
177,867	46,486	-0,147	-0,094
178,881	800,000	-0,084	-0,234
179,896	85,017	-0,184	-0,140
180,910	194,978	-0,136	-0,144
181,925	254,029	-0,149	-0,177
182,940	41,027	-0,195	-0,122
183,954	377,212	-0,111	-0,157
184,969	800,000	-0,100	-0,236
185,983	387,733	-0,183	-0,264
186,998	232,495	-0,143	-0,163
188,013	70,670	-0,238	-0,171
189,027	59,788	-0,243	-0,166
190,042	23,587	-0,328	-0,187
191,056	44,033	-0,238	-0,151
192,071	240,891	-0,184	-0,213
193,086	335,806	-0,114	-0,154
194,100	352,899	-0,129	-0,178
195,115	-165,407	-0,149	-0,004
196,129	-24,474	-0,342	-0,140
197,144	60,418	-0,268	-0,184
198,159	654,681	-0,141	-0,252
199,173	251,784	-0,144	-0,170
200,188	472,606	-0,117	-0,184
201,202	-87,481	-0,234	0,049
202,217	305,914	-0,136	-0,176
203,232	234,509	-0,062	-0,071
204,246	461,283	-0,161	-0,250
205,261	50,765	-0,079	0,052
206,275	-103,999	-0,134	-0,021
207,290	33,067	-0,168	-0,101
208,304	418,754	-0,155	-0,230
209,319	266,719	-0,145	-0,176
210,334	73,442	-0,229	-0,166
211,348	91,633	-0,264	-0,206
212,363	47,586	-0,250	-0,161
213,377	791,277	-0,071	-0,136
214,392	446,915	-0,118	-0,181
215,407	445,787	-0,112	-0,170
216,421	40,449	-0,156	-0,097
217,436	75,306	-0,231	-0,168
218,450	-74,528	-0,213	-0,053
219,465	446,706	-0,124	-0,190
220,480	43,812	-0,180	-0,114
221,494	-18,433	-0,212	-0,091
222,509	37,400	-0,190	-0,116
223,523	226,262	-0,124	-0,139
224,538	-132,478	-0,192	0,017
225,553	-1,847	-0,287	-0,139
226,567	71,502	-0,193	-0,138
227,582	-200,000	-0,057	-0,262
228,596	-119,192	-0,136	-0,016
229,611	-200,000	-0,032	-0,103
230,626	32,226	-0,160	-0,095
231,640	-66,925	-0,240	-0,065
232,655	165,771	-0,157	-0,154
233,669	-6,841	-0,257	-0,120
234,684	181,517	-0,182	-0,186
235,699	782,803	-0,076	-0,144
236,713	-74,296	-0,197	0,049
237,728	220,598	-0,130	-0,144
238,742	85,287	-0,275	-0,208
239,757	800,000	-0,072	-0,206
240,772	188,412	-0,200	-0,207
241,786	-31,159	-0,169	-0,065
242,801	145,854	-0,225	-0,208
243,815	-51,198	-0,201	-0,065
244,830	5,488	-0,289	-0,147
245,844	-53,006	-0,273	-0,086
246,859	453,024	-0,116	-0,177
247,874	590,630	-0,147	-0,251
248,888	-200,000	-0,048	-0,154
249,903	-72,804	-0,307	-0,077
250,917	525,163	-0,148	-0,241
251,932	11,953	-0,232	-0,123
252,947	-38,945	-0,189	-0,068
253,961	359,507	-0,135	-0,186
254,976	63,393	-0,181	-0,125
255,990	-33,473	-0,255	-0,097
257,005	445,074	0,019	0,028
258,020	-27,790	-0,119	-0,047
259,034	-135,258	-0,191	-0,016
260,049	290,027	-0,075	-0,094
261,063	116,611	-0,102	-0,086
262,078	48,756	-0,288	-0,186
263,093	68,986	-0,204	-0,144
264,107	47,871	-0,227	-0,146
265,122	78,799	-0,123	-0,091
266,136	301,568	-0,174	-0,222
267,151	-131,316	-0,196	-0,018
268,166	-44,393	-0,183	-0,063
269,180	331,129	-0,173	-0,230
270,195	380,773	-0,082	-0,117
271,209	249,740	-0,153	-0,179
272,224	201,240	-0,194	-0,206
273,239	-83,265	-0,086	-0,019
274,253	800,000	-0,120	-0,232
275,268	372,308	-0,089	-0,124
276,282	-200,000	-0,039	-0,211
277,297	800,000	-0,118	-0,287
278,312	75,284	-0,132	-0,096
279,326	-200,000	-0,016	-0,081
280,341	-200,000	0,026	-0,205
281,355	87,586	-0,112	-0,085
282,370	-200,000	0,014	-0,121
283,384	200,032	-0,124	-0,131
284,399	28,451	-0,204	-0,118
285,414	711,401	-0,059	-0,107
286,428	-25,057	-0,148	-0,060
287,443	-95,687	-0,110	0,020
288,457	-107,820	-0,132	0,020
289,472	207,109	-0,076	-0,081
290,487	374,181	-0,124	-0,174
291,501	165,062	-0,115	-0,112
292,516	371,760	-0,164	-0,230
293,530	669,135	-0,116	-0,208
294,545	-49,079	-0,065	-0,021
295,560	108,093	-0,122	-0,100
296,574	741,933	-0,091	-0,169
297,589	59,902	-0,257	-0,174
298,603	183,453	-0,139	-0,141
299,618	445,687	-0,165	-0,250
300,633	-56,653	-0,145	-0,044
301,647	363,001	-0,117	-0,162
302,662	203,289	-0,146	-0,155
303,676	-24,749	-0,234	-0,095
304,691	609,411	-0,145	-0,250
305,706	120,576	-0,217	-0,185
306,720	59,252	-0,210	-0,142
307,735	-200,000	-0,032	-0,121
308,749	215,482	-0,087	-0,095
309,764	30,682	-0,069	0,040
310,779	-77,783	-0,195	0,046
311,793	100,140	-0,089	-0,071
312,808	-200,000	-0,018	-0,173
313,822	-10,419	-0,198	-0,090
314,837	-89,664	-0,111	-0,022
315,852	20,254	-0,121	-0,067
316,866	800,000	-0,048	-0,121
317,881	-58,353	-0,111	-0,033
318,895	-200,000	0,000	-0,231
319,910	800,000	-0,068	-0,197
320,925	-200,000	-0,016	-0,194
321,939	184,727	-0,160	-0,163
322,954	113,958	-0,150	-0,125
323,968	-200,000	-0,014	-0,061
324,983	179,020	-0,139	-0,140
325,997	-123,562	-0,234	-0,025
327,012	134,162	-0,182	-0,162
328,027	759,750	-0,054	-0,100
329,041	205,587	-0,126	-0,134
330,056	25,698	-0,172	-0,098
331,070	39,150	-0,046	-0,028
332,085	267,305	0,018	0,022
333,100	205,110	-0,104	-0,110
334,114	126,550	-0,031	-0,027
335,129	-64,753	-0,210	-0,058
336,143	603,191	-0,084	-0,144
337,158	164,405	-0,108	-0,105
338,173	-126,524	-0,207	0,021
339,187	700,255	-0,058	-0,105
340,202	-200,000	-0,026	-0,172
341,216	-3,575	-0,110	-0,052
342,231	693,678	-0,104	-0,188
343,246	8,231	-0,095	-0,049
344,260	236,594	-0,034	-0,038
345,275	-200,000	0,022	-0,172
346,289	-34,202	-0,241	-0,090
347,304	-147,600	-0,202	-0,011
348,319	800,000	-0,040	-0,103
349,333	-161,276	-0,224	-0,008
350,348	88,476	-0,143	-0,109
351,362	467,326	-0,097	-0,149
352,377	13,813	-0,022	-0,012
353,392	-14,913	-0,072	-0,032
354,406	450,484	-0,010	-0,016
355,421	206,862	1312,130	1399,563
356,435	159,114	1472,460	1400,012
