DTS Sentinel unit serial number:	SN410029Multiplexer serial number:	ORYXHardware model number:	OX2-SRSoftware version number:	ORYX F/W v4,00 Oryx Data Collector v3.7.2.0data status	okinstallation	B3 Nyhavnadifferential loss correction	single-endedforward channel	channel 1reverse channel	N/Adate	2023/12/04time	00:12:30forward acquisition time	300,00reverse acquisition time	0,00gamma	499,1914k internal	0,3203k external	0,3203temperature offset calibration	1,0000default loss term (dB/km)	0,3820temperature slope calibration	1,0000multiplexer offset coefficient	1,0000multiplexer slope coefficient	1,0000fibre end	0,00T internal ref (°C)	12,74T ext. ref 1 (°C)	-2,52T ext. ref 2 (°C)	-2,55length (m)	temperature (°C)	Stokes	anti-Stokes-744,400	54,379	-0,166	-0,116
-743,385	800,000	-0,097	0,302
-742,371	119,793	-0,228	-0,205
-741,356	-200,000	0,022	0,216
-740,342	219,917	-0,150	-0,175
-739,327	489,446	-0,102	0,171
-738,312	444,505	-0,134	-0,215
-737,298	-200,000	-0,016	0,257
-736,283	-200,000	-0,003	-0,271
-735,269	-200,000	0,045	0,187
-734,254	203,519	-0,181	-0,204
-733,239	438,375	-0,095	0,151
-732,225	785,772	-0,124	-0,249
-731,210	800,000	0,090	0,196
-730,196	800,000	0,014	-0,039
-729,181	658,680	0,004	-0,007
-728,167	-200,000	0,003	-0,072
-727,152	-200,000	0,017	0,061
-726,137	-34,138	-0,171	-0,068
-725,123	-200,000	-0,025	-0,134
-724,108	136,382	-0,104	-0,099
-723,094	-53,812	0,043	0,014
-722,079	-200,000	-0,035	-0,168
-721,064	-200,000	0,004	-0,104
-720,050	-147,290	-0,029	0,002
-719,035	800,000	-0,060	0,160
-718,021	800,000	-0,075	-0,178
-717,006	800,000	-0,019	-0,056
-715,991	800,000	-0,058	-0,120
-714,977	380,567	-0,028	-0,041
-713,962	-45,000	-0,112	-0,040
-712,948	19,036	-0,107	0,062
-711,933	165,242	0,143	-0,147
-710,918	-107,538	-0,111	-0,017
-709,904	-200,000	-0,006	-0,127
-708,889	-58,152	-0,122	-0,038
-707,875	-124,428	-0,087	-0,010
-706,860	-71,454	0,111	0,030
-705,845	-25,841	-0,090	0,038
-704,831	-200,000	-0,029	0,129
-703,816	-200,000	0,008	0,079
-702,802	185,527	-0,067	-0,072
-701,787	126,240	-0,081	-0,074
-700,772	309,806	0,045	-0,061
-699,758	-200,000	0,023	0,082
-698,743	-94,864	0,090	-0,018
-697,729	131,717	0,081	0,076
-696,714	-200,000	0,013	-0,065
-695,699	-200,000	-0,001	-0,090
-694,685	14,463	0,009	-0,005
-693,670	-200,000	-0,026	-0,168
-692,656	274,367	-0,051	-0,065
-691,641	9,286	0,115	0,063
-690,627	-200,000	-0,010	0,036
-689,612	-200,000	-0,009	0,095
-688,597	800,000	-0,021	-0,056
-687,583	-11,205	-0,146	0,069
-686,568	239,373	0,048	-0,058
-685,554	-200,000	0,013	-0,128
-684,539	275,961	0,056	-0,072
-683,524	800,000	-0,006	-0,014
-682,510	-24,383	0,067	-0,029
-681,495	46,973	0,067	-0,045
-680,481	-30,223	-0,042	-0,017
-679,466	463,147	-0,070	-0,113
-678,451	371,620	0,010	-0,014
-677,437	64,022	0,131	0,095
-676,422	-200,000	0,003	-0,028
-675,408	-10,510	-0,128	0,061
-674,393	-142,091	-0,093	-0,007
-673,378	41,415	0,029	-0,019
-672,364	-184,209	-0,075	0,001
-671,349	-115,061	-0,121	0,016
-670,335	-200,000	0,033	-0,114
-669,320	800,000	-0,046	0,114
-668,305	-61,697	0,158	0,048
-667,291	125,708	-0,185	0,170
-666,276	306,060	-0,041	-0,056
-665,262	800,000	-0,031	0,065
-664,247	-174,180	-0,104	-0,002
-663,232	-25,416	0,076	0,033
-662,218	118,007	0,074	-0,066
-661,203	-34,758	-0,037	0,015
-660,189	-200,000	-0,001	0,026
-659,174	-109,104	0,161	0,025
-658,159	175,689	0,050	0,053
-657,145	-13,607	-0,095	0,044
-656,130	-22,801	-0,025	-0,011
-655,116	56,051	0,083	0,058
-654,101	800,000	0,037	0,112
-653,086	-200,000	0,003	0,014
-652,072	-13,013	-0,086	0,040
-651,057	-200,000	0,019	0,081
-650,043	2,289	-0,063	-0,033
-649,028	-200,000	-0,011	0,086
-648,014	-119,618	0,146	-0,018
-646,999	-105,256	-0,091	0,015
-645,984	800,000	-0,031	0,075
-644,970	89,481	-0,085	-0,069
-643,955	70,038	-0,126	-0,094
-642,941	-19,168	-0,080	-0,036
-641,926	129,032	-0,156	0,144
-640,911	-60,337	0,103	-0,032
-639,897	165,291	0,055	0,056
-638,882	-184,172	0,148	0,002
-637,868	-200,000	0,032	0,189
-636,853	-192,534	-0,199	0,001
-635,838	55,081	0,083	-0,058
-634,824	-200,000	-0,026	-0,105
-633,809	-50,779	0,114	-0,039
-632,795	37,003	-0,026	-0,016
-631,780	-155,536	-0,059	-0,003
-630,765	-99,381	-0,059	0,011
-629,751	-200,000	-0,014	0,078
-628,736	-3,804	0,084	-0,042
-627,722	268,335	-0,038	0,049
-626,707	110,914	-0,105	-0,091
-625,692	167,630	-0,045	0,046
-624,678	-134,289	0,159	-0,014
-623,663	-125,249	-0,132	0,014
-622,649	-148,895	-0,126	0,007
-621,634	181,986	0,146	0,156
-620,619	-200,000	-0,000	0,016
-619,605	626,903	-0,059	0,109
-618,590	150,220	0,030	-0,029
-617,576	128,427	-0,030	0,028
-616,561	762,562	-0,033	-0,065
-615,546	800,000	0,053	-0,108
-614,532	0,118	-0,143	0,074
-613,517	-200,000	-0,001	-0,072
-612,503	38,918	-0,105	0,067
-611,488	800,000	0,006	-0,013
-610,474	-8,369	-0,012	-0,006
-609,459	-200,000	0,046	0,175
-608,444	88,198	-0,162	-0,130
-607,430	0,731	-0,197	-0,101
-606,415	800,000	-0,054	0,138
-605,401	-200,000	0,004	-0,021
-604,386	483,189	0,066	0,109
-603,371	204,600	0,056	0,062
-602,357	571,224	0,056	0,099
-601,342	-49,161	-0,081	0,028
-600,328	-53,389	-0,073	-0,024
-599,313	800,000	-0,031	0,096
-598,298	148,637	0,131	0,128
-597,284	800,000	-0,022	-0,067
-596,269	-11,439	0,061	0,029
-595,255	-35,284	-0,063	-0,025
-594,240	-200,000	-0,009	-0,134
-593,225	800,000	0,026	0,060
-592,211	800,000	-0,038	0,079
-591,196	800,000	-0,012	0,033
-590,182	-146,037	0,155	0,010
-589,167	-90,862	-0,056	-0,012
-588,152	102,220	0,061	0,051
-587,138	561,649	-0,101	-0,178
-586,123	-200,000	0,022	-0,083
-585,109	143,909	-0,075	-0,072
-584,094	192,643	-0,164	-0,179
-583,079	24,652	0,043	-0,026
-582,065	23,170	0,091	0,054
-581,050	201,289	-0,055	-0,061
-580,036	5,761	-0,068	-0,036
-579,021	-28,507	-0,041	-0,017
-578,006	664,895	0,040	-0,076
-576,992	-200,000	0,013	0,056
-575,977	-86,975	0,009	-0,002
-574,963	-200,000	-0,003	-0,078
-573,948	578,613	-0,016	-0,028
-572,934	482,993	-0,015	-0,025
-571,919	800,000	-0,024	-0,069
-570,904	800,000	-0,072	-0,152
-569,890	1,799	-0,088	-0,046
-568,875	800,000	0,029	-0,059
-567,861	-129,976	0,059	-0,006
-566,846	-200,000	0,020	0,146
-565,831	235,653	-0,052	-0,063
-564,817	-25,492	-0,057	-0,024
-563,802	800,000	0,024	-0,050
-562,788	100,159	-0,025	0,021
-561,773	-75,975	-0,044	-0,011
-560,758	800,000	0,028	0,077
-559,744	157,278	0,097	0,097
-558,729	44,846	0,136	0,090
-557,715	-90,994	-0,040	-0,008
-556,700	-200,000	-0,025	0,084
-555,685	769,803	0,044	0,087
-554,671	-48,349	0,113	0,039
-553,656	800,000	-0,077	-0,207
-552,642	-200,000	0,016	-0,061
-551,627	800,000	-0,024	0,051
-550,612	-61,957	-0,025	0,008
-549,598	-200,000	-0,023	-0,148
-548,583	204,877	-0,049	-0,055
-547,569	-61,654	-0,032	0,010
-546,554	-118,473	0,021	-0,003
-545,539	-111,229	0,044	-0,006
-544,525	739,545	0,051	0,100
-543,510	467,380	-0,014	0,022
-542,496	-77,679	-0,017	-0,004
-541,481	22,830	-0,101	-0,060
-540,466	-200,000	-0,010	-0,067
-539,452	-105,767	0,032	0,005
-538,437	-132,319	-0,074	-0,007
-537,423	318,961	-0,056	0,077
-536,408	787,988	-0,020	-0,040
-535,393	91,978	-0,050	-0,040
-534,379	800,000	0,022	0,046
-533,364	-36,743	0,147	-0,057
-532,350	530,641	-0,047	-0,080
-531,335	800,000	0,041	0,119
-530,321	-13,047	-0,108	0,050
-529,306	155,294	0,055	0,055
-528,291	-200,000	0,008	-0,161
-527,277	27,371	-0,078	-0,047
-526,262	254,185	0,117	-0,145
-525,248	-150,973	-0,032	-0,002
-524,233	22,425	-0,038	-0,022
-523,218	434,166	0,057	0,089
-522,204	-200,000	0,000	0,166
-521,189	112,550	0,192	-0,167
-520,175	-200,000	-0,018	-0,133
-519,160	280,248	-0,059	0,076
-518,145	505,736	0,063	0,105
-517,131	-115,366	0,145	-0,020
-516,116	-73,152	0,088	-0,023
-515,102	308,010	0,046	0,062
-514,087	149,355	-0,117	-0,114
-513,072	28,378	0,082	-0,050
-512,058	-200,000	0,050	-0,170
-511,043	-27,651	-0,204	0,085
-510,029	-200,000	0,015	0,059
-509,014	296,427	-0,078	0,103
-507,999	115,863	0,064	-0,056
-506,985	68,656	-0,118	-0,087
-505,970	-22,149	-0,115	-0,050
-504,956	17,172	-0,057	0,033
-503,941	-168,761	0,077	-0,002
-502,926	666,935	0,036	0,067
-501,912	118,845	-0,031	0,028
-500,897	-200,000	0,022	-0,109
-499,883	82,567	-0,102	-0,080
-498,868	576,259	0,064	-0,112
-497,853	-200,000	0,003	0,024
-496,839	-63,819	-0,120	-0,035
-495,824	180,397	-0,072	0,076
-494,810	17,424	0,039	0,022
-493,795	-92,765	-0,035	-0,007
-492,781	580,623	0,110	-0,195
-491,766	-175,275	-0,094	-0,002
-490,751	508,350	-0,032	-0,054
-489,737	-8,429	-0,114	0,055
-488,722	-28,486	0,116	-0,048
-487,708	800,000	-0,044	0,099
-486,693	254,485	0,142	0,175
-485,678	377,338	-0,054	-0,080
-484,664	-17,221	-0,109	-0,049
-483,649	800,000	-0,015	-0,034
-482,635	-200,000	-0,032	0,115
-481,620	-45,613	-0,112	-0,040
-480,605	15,988	-0,104	0,059
-479,591	-173,192	-0,101	0,002
-478,576	800,000	-0,016	0,040
-477,562	360,248	0,084	-0,121
-476,547	-36,282	-0,020	-0,008
-475,532	-55,167	-0,051	0,016
-474,518	-200,000	-0,001	0,154
-473,503	-141,060	0,177	0,013
-472,489	800,000	-0,037	0,089
-471,474	-200,000	-0,019	0,133
-470,459	-200,000	0,030	-0,159
-469,445	-200,000	-0,001	0,117
-468,430	526,636	0,010	-0,018
-467,416	-40,360	-0,060	-0,022
-466,401	-200,000	-0,007	0,170
-465,386	-42,423	-0,036	0,013
-464,372	74,721	-0,066	0,050
-463,357	-94,012	-0,141	-0,028
-462,343	-156,318	-0,107	0,005
-461,328	-56,680	-0,067	0,021
-460,313	800,000	0,021	0,060
-459,299	-199,549	0,147	-0,001
-458,284	-200,000	0,007	0,035
-457,270	7,875	0,083	0,045
-456,255	-200,000	0,006	-0,046
-455,241	800,000	0,028	-0,056
-454,226	497,047	-0,032	-0,053
-453,211	-74,699	-0,098	0,025
-452,197	66,992	0,063	-0,046
-451,182	-54,989	0,111	-0,036
-450,168	178,599	0,045	0,047
-449,153	-114,149	0,006	0,001
-448,138	219,093	-0,045	-0,052
-447,124	-196,611	0,113	-0,001
-446,109	-154,644	0,145	-0,007
-445,095	-29,836	0,035	0,014
-444,080	437,111	-0,043	0,068
-443,065	-149,077	0,095	-0,005
-442,051	800,000	-0,014	0,036
-441,036	85,362	0,110	-0,087
-440,022	0,164	-0,061	0,031
-439,007	-200,000	-0,000	0,143
-437,992	-20,885	0,094	0,041
-436,978	-120,622	-0,075	-0,009
-435,963	22,755	0,060	-0,035
-434,949	441,160	-0,023	-0,037
-433,934	95,959	0,087	-0,071
-432,919	-200,000	-0,010	-0,047
-431,905	259,908	0,068	0,084
-430,890	-200,000	0,001	0,025
-429,876	226,171	-0,028	0,033
-428,861	-87,180	0,091	0,020
-427,846	546,283	0,045	-0,078
-426,832	-12,539	-0,115	0,054
-425,817	-106,565	-0,118	-0,019
-424,803	800,000	0,016	-0,046
-423,788	80,960	-0,084	0,065
-422,773	800,000	-0,035	0,075
-421,759	-72,832	0,062	-0,016
-420,744	8,330	-0,121	0,065
-419,730	-56,508	-0,018	-0,006
-418,715	-200,000	-0,032	-0,132
-417,701	-62,764	-0,221	-0,065
-416,686	45,998	0,098	0,065
-415,671	473,894	0,015	-0,024
-414,657	84,017	0,024	-0,019
-413,642	800,000	-0,011	-0,030
-412,628	126,451	0,065	-0,059
-411,613	-200,000	-0,032	-0,128
-410,598	800,000	0,027	-0,058
-409,584	-89,200	-0,169	0,035
-408,569	-136,078	-0,073	0,006
-407,555	-200,000	0,021	0,177
-406,540	-200,000	0,033	0,169
-405,525	20,697	-0,060	0,035
-404,511	56,015	0,051	0,035
-403,496	-42,816	0,064	-0,023
-402,482	365,398	-0,072	0,104
-401,467	-78,182	0,136	0,033
-400,452	-88,074	-0,144	0,031
-399,438	-200,000	-0,016	-0,098
-398,423	-40,230	-0,110	-0,041
-397,409	447,211	-0,061	-0,097
-396,394	-67,720	0,067	0,019
-395,379	184,544	-0,084	-0,090
-394,365	10,656	-0,107	-0,058
-393,350	-78,058	-0,051	-0,013
-392,336	114,103	-0,034	0,029
-391,321	-124,289	0,038	0,004
-390,306	-120,642	0,072	0,009
-389,292	115,550	0,049	0,043
-388,277	-200,000	-0,013	-0,135
-387,263	107,294	0,073	0,062
-386,248	-200,000	-0,013	-0,081
-385,233	-74,523	-0,080	0,021
-384,219	266,675	-0,127	0,159
-383,204	-0,101	-0,112	-0,057
-382,190	179,274	-0,093	-0,098
-381,175	-156,820	-0,060	0,003
-380,160	-18,719	0,060	0,027
-379,146	-46,430	-0,045	-0,016
-378,131	-107,295	0,021	-0,003
-377,117	-70,358	-0,100	-0,027
-376,102	-144,116	-0,093	-0,006
-375,088	371,743	-0,058	0,085
-374,073	800,000	0,007	-0,021
-373,058	-200,000	0,030	0,096
-372,044	-192,329	0,133	0,001
-371,029	374,375	0,099	0,144
-370,015	379,986	-0,028	-0,041
-369,000	-42,183	0,035	-0,013
-367,985	800,000	-0,040	-0,092
-366,971	-200,000	0,002	-0,059
-365,956	231,246	0,017	0,020
-364,942	-200,000	0,000	0,018
-363,927	57,788	-0,021	0,015
-362,912	40,231	-0,049	-0,032
-361,898	-104,619	-0,076	0,012
-360,883	38,350	-0,030	0,019
-359,869	308,330	0,045	0,060
-358,854	-84,064	-0,153	0,034
-357,839	-40,895	0,061	0,022
-356,825	115,093	0,088	0,077
-355,810	327,873	0,148	-0,203
-354,796	800,000	-0,016	-0,048
-353,781	-200,000	-0,008	-0,184
-352,766	-200,000	0,003	-0,079
-351,752	122,848	-0,083	-0,074
-350,737	599,334	-0,015	0,027
-349,723	116,085	-0,099	0,087
-348,708	-43,338	-0,086	-0,031
-347,693	-118,594	0,044	-0,005
-346,679	732,775	-0,069	-0,132
-345,664	800,000	-0,029	-0,077
-344,650	-56,733	-0,037	-0,012
-343,635	-63,337	-0,009	0,002
-342,620	-1,355	0,207	0,104
-341,606	-200,000	-0,017	0,087
-340,591	-3,287	-0,019	0,009
-339,577	113,504	-0,070	-0,061
-338,562	-27,544	0,114	-0,047
-337,548	163,716	-0,087	0,088
-336,533	-200,000	0,028	-0,141
-335,518	800,000	0,029	0,069
-334,504	23,409	-0,071	-0,042
-333,489	141,940	0,076	-0,072
-332,475	163,432	0,116	-0,117
-331,460	5,700	-0,073	-0,039
-330,445	-200,000	-0,010	-0,116
-329,431	242,387	0,069	-0,083
-328,416	-200,000	0,000	0,108
-327,402	6,299	0,094	-0,050
-326,387	140,675	0,092	-0,087
-325,372	-101,157	-0,128	-0,022
-324,358	616,179	-0,039	-0,070
-323,343	453,599	-0,019	0,030
-322,329	382,261	0,100	0,148
-321,314	-200,000	0,036	0,199
-320,299	-1,962	0,061	-0,031
-319,285	800,000	-0,025	-0,064
-318,270	329,468	-0,075	0,103
-317,256	-200,000	-0,022	-0,121
-316,241	45,618	-0,045	0,030
-315,226	-200,000	0,006	0,120
-314,212	109,659	0,142	0,122
-313,197	90,072	0,148	0,118
-312,183	-41,000	-0,063	-0,023
-311,168	2,057	0,068	0,035
-310,153	170,427	-0,035	-0,036
-309,139	-16,291	0,103	0,047
-308,124	42,374	-0,043	-0,028
-307,110	190,144	-0,040	0,042
-306,095	501,845	-0,138	0,228
-305,080	-68,752	0,130	-0,036
-304,066	240,859	-0,098	0,117
-303,051	-11,038	-0,063	-0,029
-302,037	-200,000	-0,020	0,088
-301,022	189,324	0,090	0,097
-300,008	-167,011	0,110	0,003
-298,993	-170,878	0,032	0,001
-297,978	-156,219	0,100	-0,004
-296,964	800,000	-0,051	-0,103
-295,949	-37,868	-0,111	-0,042
-294,935	20,322	0,098	-0,056
-293,920	-34,189	0,142	-0,055
-292,905	-200,000	0,009	-0,048
-291,891	-22,438	0,123	0,053
-290,876	800,000	0,014	-0,030
-289,862	41,645	-0,010	-0,006
-288,847	73,563	-0,090	0,067
-287,832	23,141	0,143	0,084
-286,818	167,557	0,054	-0,055
-285,803	-200,000	-0,036	0,134
-284,789	-6,576	0,048	0,023
-283,774	-78,130	0,219	0,053
-282,759	-30,682	-0,169	-0,068
-281,745	-152,283	-0,124	0,006
-280,730	-200,000	-0,006	-0,112
-279,716	68,896	-0,052	-0,038
-278,701	-46,549	0,056	0,020
-277,686	800,000	0,020	0,058
-276,672	687,983	0,029	0,055
-275,657	-200,000	0,034	-0,125
-274,643	800,000	0,044	0,089
-273,628	-86,787	0,063	-0,014
-272,613	-200,000	-0,000	0,050
-271,599	259,664	0,051	-0,063
-270,584	135,155	-0,094	0,087
-269,570	-200,000	0,052	0,184
-268,555	-22,506	-0,010	0,004
-267,540	-131,533	0,035	-0,003
-266,526	255,585	0,028	0,035
-265,511	341,101	0,025	-0,035
-264,497	21,453	0,130	0,075
-263,482	-60,918	0,085	-0,025
-262,467	-200,000	-0,018	0,224
-261,453	67,975	0,041	0,030
-260,438	-57,808	0,099	0,031
-259,424	119,381	-0,086	-0,076
-258,409	-149,531	0,008	0,000
-257,395	202,016	0,046	0,051
-256,380	800,000	0,014	0,033
-255,365	419,949	-0,037	-0,057
-254,351	-8,820	0,084	0,040
-253,336	90,373	-0,065	0,052
-252,322	225,673	0,028	0,033
-251,307	-51,253	0,068	0,023
-250,292	-157,643	0,091	0,004
-249,278	-80,044	0,128	-0,030
-248,263	-107,736	0,107	0,016
-247,249	125,821	0,047	0,042
-246,234	83,880	-0,054	-0,042
-245,219	99,980	0,062	0,052
-244,205	374,864	-0,021	0,030
-243,190	110,982	-0,054	-0,047
-242,176	800,000	-0,027	0,068
-241,161	-24,599	0,109	0,046
-240,146	-200,000	-0,006	0,067
-239,132	800,000	-0,054	-0,167
-238,117	497,492	0,107	-0,177
-237,103	-112,307	-0,037	0,005
-236,088	453,471	-0,053	-0,084
-235,073	-48,558	-0,043	0,015
-234,059	-27,530	0,139	-0,057
-233,044	-11,158	0,105	-0,049
-232,030	386,080	-0,042	-0,062
-231,015	667,349	-0,020	-0,037
-230,000	-200,000	0,046	-0,183
-228,986	-165,016	-0,198	0,006
-227,971	78,757	0,093	0,071
-226,957	155,071	0,136	0,133
-225,942	476,084	-0,064	0,104
-224,927	800,000	0,041	0,084
-223,913	340,620	-0,036	-0,050
-222,898	-200,000	-0,001	0,028
-221,884	-106,211	0,052	-0,008
-220,869	-200,000	-0,009	-0,121
-219,855	216,586	0,128	0,146
-218,840	800,000	0,013	0,039
-217,825	646,659	-0,059	0,108
-216,811	293,146	-0,076	-0,099
-215,796	-200,000	0,007	-0,082
-214,782	800,000	-0,026	-0,080
-213,767	28,192	-0,035	0,021
-212,752	-101,987	0,119	-0,020
-211,738	98,233	0,052	0,043
-210,723	-47,655	0,107	0,037
-209,709	-140,693	0,100	0,007
-208,694	-25,680	0,059	-0,025
-207,679	250,199	0,007	0,008
-206,665	-0,942	-0,047	0,023
-205,650	-200,000	0,017	0,169
-204,636	280,799	0,024	-0,030
-203,621	1,013	0,091	-0,046
-202,606	103,801	0,020	-0,016
-201,592	336,584	0,046	-0,064
-200,577	-64,451	0,038	-0,011
-199,563	800,000	-0,007	-0,016
-198,548	-114,324	-0,072	0,010
-197,533	-135,992	-0,084	0,007
-196,519	-200,000	-0,046	0,170
-195,504	62,992	-0,058	-0,042
-194,490	317,420	0,030	0,040
-193,475	181,858	0,082	-0,086
-192,460	-108,874	0,032	0,005
-191,446	39,642	0,081	0,052
-190,431	492,980	0,046	0,075
-189,417	29,253	-0,021	0,013
-188,402	-129,006	0,063	0,006
-187,387	-36,827	0,086	-0,033
-186,373	800,000	-0,036	-0,087
-185,358	-200,000	0,018	-0,193
-184,344	434,056	0,039	0,061
-183,329	-34,403	0,091	-0,035
-182,315	-97,429	-0,101	0,018
-181,300	-200,000	-0,002	0,049
-180,285	78,732	-0,044	-0,034
-179,271	528,340	-0,035	-0,059
-178,256	14,332	-0,090	-0,050
-177,242	-58,838	-0,079	0,024
-176,227	378,953	0,034	0,050
-175,212	63,143	-0,059	0,042
-174,198	7,991	-0,094	0,050
-173,183	800,000	0,051	-0,127
-172,169	-200,000	-0,008	0,054
-171,154	-74,309	0,102	-0,026
-170,139	-200,000	0,009	-0,037
-169,125	-3,323	-0,018	-0,009
-168,110	-107,838	0,025	0,004
-167,096	64,777	-0,076	0,055
-166,081	-90,770	-0,031	-0,006
-165,066	-200,000	-0,030	-0,178
-164,052	-200,000	-0,019	-0,086
-163,037	8,842	-0,068	0,036
-162,023	175,335	0,039	0,041
-161,008	-200,000	0,017	-0,071
-159,993	121,371	0,095	-0,084
-158,979	-108,289	-0,044	0,007
-157,964	796,102	-0,050	-0,098
-156,950	-200,000	0,013	-0,048
-155,935	-8,073	0,099	-0,047
-154,920	-22,164	0,078	-0,033
-153,906	7,856	0,037	-0,020
-152,891	-200,000	0,009	0,176
-151,877	-1,574	-0,166	0,083
-150,862	-200,000	0,013	-0,101
-149,847	-45,633	-0,082	0,029
-148,833	547,509	0,049	-0,084
-147,818	-200,000	0,012	0,153
-146,804	-50,085	0,102	0,034
-145,789	800,000	0,025	-0,069
-144,775	47,511	0,072	-0,047
-143,760	139,153	-0,056	-0,052
-142,745	800,000	0,063	-0,166
-141,731	55,044	-0,027	0,019
-140,716	120,000	0,055	0,048
-139,702	-36,959	0,158	-0,060
-138,687	-200,000	0,046	-0,144
-137,672	800,000	0,039	-0,090
-136,658	800,000	-0,061	-0,190
-135,643	-200,000	-0,004	0,046
-134,629	692,994	0,064	0,119
-133,614	-80,743	-0,030	0,007
-132,599	0,731	0,112	0,056
-131,585	-200,000	-0,000	0,112
-130,570	-200,000	-0,028	0,094
-129,556	-200,000	-0,016	0,098
-128,541	27,587	0,086	-0,051
-127,526	-134,971	-0,018	0,002
-126,512	10,369	-0,092	-0,050
-125,497	-200,000	-0,003	0,132
-124,483	-36,072	0,020	0,008
-123,468	-135,103	-0,165	0,014
-122,453	800,000	-0,057	-0,118
-121,439	-200,000	0,000	0,112
-120,424	-200,000	-0,029	-0,161
-119,410	310,867	-0,023	0,031
-118,395	-200,000	0,013	0,063
-117,380	-200,000	-0,003	0,065
-116,366	41,515	-0,037	-0,024
-115,351	713,279	0,014	0,026
-114,337	-127,109	-0,127	-0,013
-113,322	-36,989	-0,059	-0,022
-112,307	-200,000	0,024	0,186
-111,293	92,468	-0,197	-0,157
-110,278	110,972	-0,057	0,049
-109,264	-200,000	-0,003	0,011
-108,249	239,658	-0,114	-0,135
-107,234	110,046	0,096	-0,082
-106,220	20,441	-0,050	0,029
-105,205	89,105	-0,045	0,035
-104,191	754,027	0,039	0,075
-103,176	800,000	0,022	0,066
-102,162	221,033	0,041	-0,047
-101,147	121,334	0,122	0,107
-100,132	-200,000	-0,011	-0,063
-99,118	-107,831	-0,134	-0,021
-98,103	-200,000	-0,008	-0,171
-97,089	-200,000	-0,032	0,174
-96,074	141,755	0,064	0,060
-95,059	141,224	-0,060	0,056
-94,045	-200,000	0,004	-0,119
-93,030	-58,436	-0,123	-0,038
-92,016	157,686	0,042	0,041
-91,001	-200,000	-0,010	-0,172
-89,986	162,039	0,032	0,032
-88,972	255,601	-0,055	0,067
-87,957	-200,000	0,002	0,152
-86,943	-66,211	-0,109	0,030
-85,928	94,923	-0,061	-0,049
-84,913	-55,256	-0,158	-0,050
-83,899	379,840	-0,040	0,059
-82,884	800,000	-0,029	-0,065
-81,870	-200,000	0,036	0,154
-80,855	800,000	-0,012	0,027
-79,840	-200,000	-0,002	0,045
-78,826	701,573	0,040	0,075
-77,811	800,000	-0,059	-0,175
-76,797	362,770	-0,041	-0,059
-75,782	-200,000	-0,020	-0,155
-74,767	-200,000	0,024	0,170
-73,753	800,000	-0,097	0,198
-72,738	3,866	-0,092	0,048
-71,724	-102,002	0,005	0,001
-70,709	800,000	0,015	-0,030
-69,694	-200,000	-0,025	-0,102
-68,680	131,613	-0,073	0,066
-67,665	49,557	0,175	0,117
-66,651	12,921	0,089	0,048
-65,636	407,263	0,089	0,134
-64,622	-200,000	0,016	0,068
-63,607	-45,291	-0,042	-0,015
-62,592	0,272	-0,042	-0,021
-61,578	-36,538	0,033	0,013
-60,563	-200,000	0,004	0,139
-59,549	548,672	-0,062	0,106
-58,534	-21,934	-1,790	-0,767
-57,519	315,868	-1,472	-1,970
-56,505	-200,000	-0,682	-4,539
-55,490	284,109	0,933	1,190
-54,476	800,000	5,063	11,408
-53,461	-200,000	19,688	326,275
-52,446	-200,000	746,027	2331,331
-51,432	564,064	1658,109	2853,211
-50,417	76,870	1671,257	1254,050
-49,403	20,665	1544,561	882,216
-48,388	14,632	1466,832	808,470
-47,373	18,186	1457,102	820,253
-46,359	16,519	1446,905	806,484
-45,344	12,854	1442,334	786,348
-44,330	12,770	1440,531	784,931
-43,315	12,801	1438,580	783,984
-42,300	12,798	1436,763	782,952
-41,286	12,806	1435,741	782,401
-40,271	12,764	1434,239	781,348
-39,257	12,776	1433,010	780,709
-38,242	12,789	1431,974	780,175
-37,227	12,794	1430,701	779,472
-36,213	12,841	1429,257	778,876
-35,198	12,814	1428,232	778,161
-34,184	12,842	1427,159	777,677
-33,169	12,783	1425,670	776,555
-32,154	12,858	1424,665	776,335
-31,140	12,885	1423,382	775,733
-30,125	12,918	1422,208	775,219
-29,111	12,865	1421,051	774,303
-28,096	12,842	1419,975	773,579
-27,082	12,785	1419,021	772,758
-26,067	12,752	1418,000	772,017
-25,052	12,784	1416,824	771,497
-24,038	12,796	1415,699	770,909
-23,023	12,740	1414,829	770,143
-22,009	12,804	1413,620	769,754
-20,994	12,766	1412,809	769,103
-19,979	12,718	1412,322	768,584
-18,965	12,722	1411,195	767,960
-17,950	12,725	1410,228	767,416
-16,936	12,702	1409,206	766,721
-15,921	12,690	1408,065	766,012
-14,906	12,655	1407,389	765,452
-13,892	12,717	1406,233	765,084
-12,877	12,685	1405,538	764,524
-11,863	12,691	1404,588	764,003
-10,848	12,648	1403,773	763,333
-9,833	12,601	1402,807	762,556
-8,819	12,575	1402,234	762,093
-7,804	12,568	1401,296	761,522
-6,790	12,607	1400,081	761,011
-5,775	12,593	1399,000	760,331
-4,760	12,611	1397,783	759,722
-3,746	12,569	1397,098	759,123
-2,731	12,583	1396,131	758,632
-1,717	12,568	1395,194	758,023
-0,702	12,520	1393,542	756,876
0,313	16,447	1309,376	729,317
1,327	32,578	701,648	427,988
2,342	50,610	122,564	81,871
3,356	0,575	16,613	8,371
4,371	-1,133	3,329	1,658
5,386	-54,074	0,585	0,187
6,400	-200,000	-0,083	0,259
7,415	-44,085	-0,151	-0,053
8,429	40,149	-0,312	-0,198
9,444	-108,516	-0,336	-0,051
10,459	-49,007	-0,405	-0,136
11,473	-25,282	-0,391	-0,163
12,488	170,115	-0,155	-0,157
13,502	-153,869	-0,332	0,016
14,517	73,086	-0,277	-0,205
15,531	65,053	-0,444	-0,317
16,546	-124,802	-0,332	-0,036
17,561	39,414	-0,445	-0,281
18,575	212,444	-0,069	0,077
19,590	800,000	-0,083	-0,197
20,604	-32,530	-0,232	-0,091
21,619	18,843	-0,476	-0,268
22,634	102,748	-0,435	-0,359
23,648	262,561	-0,335	-0,411
24,663	73,188	-0,415	-0,306
25,677	40,267	-0,300	-0,190
26,692	5,169	-0,350	-0,182
27,707	473,751	-0,209	-0,334
28,721	74,869	-0,378	-0,280
29,736	115,981	-0,347	-0,300
30,750	181,040	-0,343	-0,356
31,765	133,947	-0,485	-0,443
32,780	88,956	-0,278	-0,218
33,794	204,656	-0,366	-0,400
34,809	220,250	-0,318	-0,360
35,823	115,077	-0,182	-0,156
36,838	111,294	-0,292	-0,248
37,853	0,185	-0,390	-0,195
38,867	45,494	-0,370	-0,240
39,882	165,030	-0,310	-0,309
40,896	54,799	-0,445	-0,302
41,911	421,338	-0,199	-0,302
42,926	203,500	-0,370	-0,404
43,940	-63,428	-0,471	-0,136
44,955	389,123	-0,221	-0,324
45,969	60,652	-0,356	-0,248
46,984	-40,848	-0,399	-0,145
47,999	114,072	-0,264	-0,226
49,013	-89,268	-0,380	-0,078
50,028	35,954	-0,354	-0,219
51,042	86,515	-0,298	-0,231
52,057	132,205	-0,272	-0,246
53,071	31,717	-0,333	-0,201
54,086	89,011	-0,291	-0,228
55,101	25,956	-0,459	-0,269
56,115	8,936	-0,353	-0,187
57,130	128,716	-0,299	-0,268
58,144	4,590	-0,312	-0,160
59,159	105,750	-0,406	-0,338
60,174	176,766	-0,240	-0,246
61,188	43,004	-0,381	-0,244
62,203	48,357	-0,372	-0,244
63,217	96,419	-0,296	-0,238
64,232	91,115	-0,405	-0,320
65,247	29,002	-0,391	-0,233
66,261	57,215	-0,378	-0,259
67,276	10,933	-0,345	-0,185
68,290	119,309	-0,387	-0,337
69,305	162,482	-0,306	-0,302
70,320	800,000	-0,113	-0,229
71,334	7,755	-0,358	-0,188
72,349	277,772	-0,250	-0,314
73,363	31,254	-0,292	-0,176
74,378	30,793	-0,398	-0,239
75,393	-4,333	-0,328	-0,159
76,407	800,000	-0,154	-0,344
77,422	106,561	-0,292	-0,243
78,436	93,151	-0,160	-0,127
79,451	36,578	-0,242	-0,150
80,466	110,255	-0,257	-0,217
81,480	25,453	-0,369	-0,215
82,495	-146,260	-0,267	-0,016
83,509	29,778	-0,295	-0,176
84,524	205,112	-0,214	-0,234
85,539	41,284	-0,385	-0,244
86,553	-17,330	-0,376	-0,166
87,568	191,357	-0,157	-0,166
88,582	135,521	-0,197	-0,180
89,597	-75,100	-0,350	-0,087
90,611	-67,960	-0,395	-0,108
91,626	-61,888	-0,208	-0,061
92,641	18,433	-0,211	-0,118
93,655	-85,215	-0,176	-0,038
94,670	-2,839	-0,254	-0,124
95,684	16,738	-0,358	-0,198
96,699	83,106	-0,231	-0,176
97,714	62,480	-0,310	-0,217
98,728	123,730	-0,131	-0,115
99,743	35,175	-0,227	-0,139
100,757	-77,334	-0,306	-0,074
101,772	-25,221	-0,363	-0,150
102,787	-58,978	-0,349	-0,105
103,801	75,693	-0,304	-0,225
104,816	44,849	-0,233	-0,150
105,830	76,720	-0,283	-0,210
106,845	-37,895	-0,360	-0,133
107,860	8,209	-0,298	-0,156
108,874	-79,721	-0,274	-0,064
109,889	289,847	-0,255	-0,325
110,903	-33,208	-0,300	-0,116
111,918	134,949	-0,240	-0,219
112,933	341,114	-0,118	-0,161
113,947	275,275	-0,139	-0,173
114,962	800,000	-0,143	-0,295
115,976	96,105	-0,256	-0,204
116,991	-18,772	-0,245	-0,106
118,006	14,209	-0,314	-0,171
119,020	124,528	-0,227	-0,200
120,035	-122,415	-0,197	0,022
121,049	63,021	-0,102	-0,071
122,064	800,000	-0,091	-0,186
123,079	79,774	-0,221	-0,166
124,093	71,975	-0,311	-0,226
125,108	188,552	-0,248	-0,259
126,122	63,597	-0,208	-0,146
127,137	90,205	-0,170	-0,133
128,151	127,371	-0,246	-0,218
129,166	38,571	-0,207	-0,129
130,181	105,698	-0,228	-0,189
131,195	181,363	-0,186	-0,192
132,210	-30,955	-0,250	-0,098
133,224	139,838	-0,240	-0,221
134,239	44,075	-0,176	-0,113
135,254	88,909	-0,258	-0,201
136,268	197,050	-0,268	-0,286
137,283	20,754	-0,154	-0,087
138,297	-72,089	-0,273	-0,070
139,312	-66,700	-0,236	-0,065
140,327	17,826	-0,267	-0,148
141,341	92,482	-0,188	-0,148
142,356	-52,443	-0,261	-0,084
143,370	179,190	-0,158	-0,161
144,385	125,084	-0,287	-0,253
145,400	218,992	-0,161	-0,180
146,414	387,309	-0,196	-0,283
147,429	304,162	-0,143	-0,186
148,443	501,755	-0,149	-0,242
149,458	-200,000	-0,111	-0,440
150,473	-15,846	-0,296	-0,131
151,487	382,876	-0,144	-0,207
152,502	64,259	-0,150	-0,105
153,516	333,445	-0,269	-0,364
154,531	59,347	-0,251	-0,172
155,546	-167,144	-0,221	-0,006
156,560	120,717	-0,276	-0,239
157,575	134,557	-0,226	-0,204
158,589	337,859	-0,113	-0,154
159,604	227,817	-0,154	-0,175
160,619	57,252	-0,305	-0,207
161,633	287,816	-0,249	-0,315
162,648	199,634	-0,126	-0,135
163,662	184,559	-0,264	-0,273
164,677	335,394	-0,136	-0,184
165,692	-4,232	-0,186	-0,090
166,706	-22,559	-0,284	-0,119
167,721	-37,764	-0,194	-0,072
168,735	137,633	-0,252	-0,230
169,750	362,553	-0,144	-0,203
170,764	-48,522	-0,197	-0,066
171,779	-26,425	-0,156	-0,063
172,794	-1,372	-0,165	-0,081
173,808	-82,625	-0,241	-0,054
174,823	30,835	-0,193	-0,115
175,837	409,270	-0,188	-0,278
176,852	252,447	-0,236	-0,280
177,867	-29,724	-0,216	-0,086
178,881	12,736	-0,211	-0,113
179,896	39,943	-0,188	-0,117
180,910	-200,000	-0,012	-0,166
181,925	63,656	-0,342	-0,238
182,940	64,001	-0,229	-0,160
183,954	98,010	-0,236	-0,189
184,969	192,016	-0,201	-0,211
185,983	100,422	-0,207	-0,167
186,998	-85,794	-0,181	-0,039
188,013	800,000	-0,106	-0,224
189,027	55,869	-0,270	-0,182
190,042	36,193	-0,198	-0,121
191,056	73,896	-0,175	-0,128
192,071	76,560	-0,274	-0,202
193,086	-192,870	-0,195	0,001
194,100	-128,991	-0,332	-0,032
195,115	-5,741	-0,098	-0,047
196,129	648,510	-0,089	-0,158
197,144	366,103	-0,158	-0,223
198,159	159,960	-0,139	-0,135
199,173	-49,372	-0,211	-0,070
200,188	-145,161	-0,106	-0,007
201,202	-22,954	-0,197	-0,082
202,217	201,440	-0,123	-0,132
203,232	433,715	-0,122	-0,185
204,246	192,702	-0,202	-0,212
205,261	19,457	-0,308	-0,171
206,275	173,499	-0,208	-0,209
207,290	52,774	-0,104	-0,069
208,304	230,621	-0,114	-0,130
209,319	132,487	-0,240	-0,215
210,334	800,000	-0,071	-0,182
211,348	43,496	-0,239	-0,151
212,363	-90,426	-0,253	-0,051
213,377	-78,376	-0,280	-0,066
214,392	51,517	-0,210	-0,138
215,407	44,615	-0,200	-0,128
216,421	189,683	-0,159	-0,166
217,436	45,131	-0,255	-0,163
218,450	47,860	-0,192	-0,124
219,465	29,173	-0,263	-0,155
220,480	26,495	-0,275	-0,159
221,494	61,485	-0,217	-0,150
222,509	20,963	-0,172	-0,096
223,523	270,599	-0,110	-0,134
224,538	800,000	-0,028	-0,055
225,553	-165,261	-0,187	-0,006
226,567	199,546	-0,167	-0,178
227,582	66,416	-0,057	-0,040
228,596	-6,031	-0,116	-0,055
229,611	-185,518	-0,190	0,002
230,626	-60,377	-0,228	-0,067
231,640	96,812	-0,199	-0,158
232,655	180,480	-0,127	-0,130
233,669	135,039	-0,228	-0,206
234,684	105,386	-0,125	-0,102
235,699	-54,652	-0,242	-0,075
236,713	2,740	-0,163	-0,082
237,728	-18,170	-0,136	-0,059
238,742	-31,335	-0,184	-0,071
239,757	578,950	-0,131	-0,223
240,772	52,281	-0,261	-0,172
241,786	16,986	-0,127	-0,069
242,801	245,834	-0,184	-0,215
243,815	632,158	-0,127	-0,223
244,830	46,802	-0,212	-0,136
245,844	31,572	-0,286	-0,170
246,859	467,717	-0,203	-0,316
247,874	122,943	-0,262	-0,227
248,888	154,965	-0,146	-0,139
249,903	-80,739	-0,158	0,036
250,917	-200,000	-0,024	0,106
251,932	-200,000	-0,049	-0,175
252,947	82,923	-0,064	-0,048
253,961	-96,551	-0,179	-0,032
254,976	38,838	-0,308	-0,190
255,990	245,463	-0,212	-0,247
257,005	111,582	-0,163	-0,136
258,020	490,858	-0,072	-0,114
259,034	119,838	-0,096	-0,082
260,049	-62,727	-0,152	-0,043
261,063	222,385	-0,139	-0,154
262,078	107,099	-0,153	-0,125
263,093	340,837	-0,141	-0,191
264,107	114,194	-0,236	-0,199
265,122	399,779	-0,164	-0,239
266,136	-198,106	-0,163	-0,001
267,151	-96,105	-0,158	-0,029
268,166	-44,461	-0,197	-0,068
269,180	519,657	-0,171	-0,278
270,195	-54,294	-0,297	-0,093
271,209	28,889	-0,150	-0,088
272,224	-72,085	-0,154	-0,039
273,239	128,238	-0,044	-0,039
274,253	72,030	-0,258	-0,185
275,268	167,496	-0,032	-0,031
276,282	-171,293	-0,257	0,006
277,297	-3,104	-0,097	-0,046
278,312	800,000	-0,087	-0,225
279,326	70,566	-0,039	-0,028
280,341	-134,522	-0,170	-0,014
281,355	-59,812	-0,120	-0,035
282,370	109,908	-0,211	-0,175
283,384	224,282	-0,129	-0,144
284,399	376,583	-0,149	-0,210
285,414	229,610	-0,136	-0,153
286,428	-81,569	-0,116	-0,026
287,443	0,914	-0,018	-0,009
288,457	-12,075	-0,091	-0,041
289,472	-150,749	-0,199	0,010
290,487	573,117	-0,076	-0,128
291,501	289,968	-0,090	-0,113
292,516	-29,811	-0,207	-0,081
293,530	352,958	-0,072	-0,098
294,545	-1,373	-0,060	-0,029
295,560	145,738	-0,190	-0,175
296,574	106,386	-0,176	-0,144
297,589	-59,343	-0,280	-0,083
298,603	800,000	-0,055	-0,148
299,618	-4,542	-0,187	-0,089
300,633	94,282	-0,179	-0,140
301,647	-68,668	-0,149	-0,040
302,662	-102,220	-0,094	0,015
303,676	122,817	-0,121	0,104
304,691	11,600	-0,117	-0,062
305,706	-102,860	-0,121	0,020
306,720	10,204	-0,190	-0,099
307,735	153,472	-0,121	-0,114
308,749	385,141	-0,121	-0,172
309,764	-174,924	-0,137	-0,003
310,779	-100,093	-0,055	0,009
311,793	61,499	-0,166	-0,114
312,808	173,971	-0,107	-0,107
313,822	-122,222	-0,158	-0,018
314,837	1,981	-0,172	-0,085
315,852	544,462	-0,066	-0,109
316,866	29,359	-0,136	-0,079
317,881	553,349	-0,094	-0,155
318,895	-103,222	-0,093	-0,015
319,910	452,380	-0,073	-0,111
320,925	-200,000	-0,002	-0,179
321,939	16,951	-0,174	-0,094
322,954	-97,925	-0,144	-0,025
323,968	-26,889	-0,125	-0,050
324,983	1,177	-0,244	-0,120
325,997	-22,039	-0,181	0,075
327,012	27,093	-0,178	-0,102
328,027	-59,262	-0,133	-0,039
329,041	-109,761	-0,113	-0,016
330,056	367,688	-0,089	-0,123
331,070	-200,000	-0,055	-0,177
332,085	164,039	-0,075	-0,072
333,100	800,000	-0,037	-0,075
334,114	-200,000	-0,005	-0,119
335,129	-117,694	-0,216	-0,026
336,143	94,334	-0,103	-0,080
337,158	147,288	-0,040	-0,037
338,173	-126,550	-0,137	-0,014
339,187	149,507	-0,179	-0,167
340,202	27,347	-0,044	-0,025
341,216	-160,478	-0,204	0,007
342,231	120,401	-0,072	-0,062
343,246	115,534	-0,200	-0,167
344,260	40,751	-0,084	-0,052
345,275	-115,734	-0,133	0,017
346,289	-73,676	-0,122	-0,030
347,304	200,559	-0,139	-0,147
348,319	-123,745	-0,146	-0,016
349,333	202,265	-0,127	-0,135
350,348	27,870	-0,115	-0,066
351,362	800,000	-0,005	0,012
352,377	382,046	-0,074	-0,104
353,392	119,712	-0,117	-0,099
354,406	-9,510	-0,193	-0,088
355,421	208,682	1312,692	1409,680
356,435	160,571	1473,179	1410,146
