DTS Sentinel unit serial number:	SN410029Multiplexer serial number:	ORYXHardware model number:	OX2-SRSoftware version number:	ORYX F/W v4,00 Oryx Data Collector v3.7.2.0data status	okinstallation	B3 Nyhavnadifferential loss correction	single-endedforward channel	channel 1reverse channel	N/Adate	2023/12/03time	17:42:30forward acquisition time	300,00reverse acquisition time	0,00gamma	499,1914k internal	0,3198k external	0,3198temperature offset calibration	1,0000default loss term (dB/km)	0,3820temperature slope calibration	1,0000multiplexer offset coefficient	1,0000multiplexer slope coefficient	1,0000fibre end	0,00T internal ref (°C)	14,84T ext. ref 1 (°C)	-0,58T ext. ref 2 (°C)	-0,60length (m)	temperature (°C)	Stokes	anti-Stokes-744,400	785,509	-0,221	-0,443
-743,385	-200,000	0,040	0,291
-742,371	151,811	-0,303	-0,301
-741,356	800,000	0,105	0,297
-740,342	82,253	-0,061	-0,048
-739,327	800,000	-0,067	0,179
-738,312	158,114	-0,283	-0,286
-737,298	-200,000	0,023	0,196
-736,283	64,145	-0,218	-0,160
-735,269	-200,000	0,070	0,335
-734,254	83,526	-0,137	-0,109
-733,239	450,877	-0,113	0,182
-732,225	410,706	-0,080	-0,123
-731,210	255,963	0,136	0,171
-730,196	-68,713	-0,080	0,022
-729,181	800,000	-0,063	-0,142
-728,167	-159,956	0,102	-0,004
-727,152	129,587	-0,064	0,060
-726,137	800,000	-0,011	-0,028
-725,123	800,000	-0,059	-0,147
-724,108	184,247	-0,132	-0,143
-723,094	800,000	-0,036	-0,095
-722,079	800,000	-0,108	-0,231
-721,064	16,012	-0,053	-0,030
-720,050	-181,359	-0,132	-0,002
-719,035	20,720	0,138	-0,081
-718,021	299,797	0,066	-0,089
-717,006	-200,000	0,041	-0,154
-715,991	-200,000	0,003	-0,111
-714,977	-200,000	0,003	0,071
-713,962	87,499	-0,082	-0,066
-712,948	-46,744	0,061	0,022
-711,933	34,714	-0,110	0,070
-710,918	800,000	0,063	-0,165
-709,904	346,000	-0,080	-0,115
-708,889	-27,238	-0,033	-0,014
-707,875	500,353	-0,054	0,091
-706,860	-200,000	-0,010	0,094
-705,845	42,042	0,058	-0,038
-704,831	-200,000	-0,009	0,067
-703,816	174,680	0,051	-0,054
-702,802	104,362	0,124	-0,106
-701,787	-12,471	-0,111	-0,052
-700,772	-49,929	-0,089	0,030
-699,758	-169,537	0,108	0,003
-698,743	800,000	0,008	-0,019
-697,729	-200,000	0,016	0,113
-696,714	-29,090	0,094	0,039
-695,699	197,736	-0,045	0,050
-694,685	-2,989	0,101	0,051
-693,670	282,205	-0,068	0,089
-692,656	-87,769	-0,089	-0,019
-691,641	-200,000	-0,009	0,118
-690,627	255,673	0,077	0,096
-689,612	-200,000	-0,019	-0,140
-688,597	111,708	-0,073	0,064
-687,583	0,910	-0,046	-0,024
-686,568	-106,368	-0,036	-0,006
-685,554	800,000	-0,050	-0,117
-684,539	-123,778	0,041	-0,005
-683,524	694,890	0,029	0,056
-682,510	-200,000	-0,004	0,043
-681,495	274,421	-0,091	-0,118
-680,481	-200,000	-0,020	-0,127
-679,466	-200,000	0,012	-0,139
-678,451	800,000	0,032	-0,081
-677,437	7,864	-0,072	-0,039
-676,422	-200,000	-0,008	0,162
-675,408	119,253	0,113	0,101
-674,393	-63,278	0,034	-0,010
-673,378	2,236	-0,209	0,110
-672,364	-200,000	0,005	-0,039
-671,349	-200,000	0,002	-0,104
-670,335	-82,101	0,114	0,027
-669,320	491,586	-0,086	-0,144
-668,305	619,566	0,093	0,170
-667,291	800,000	-0,006	-0,014
-666,276	-200,000	-0,012	-0,132
-665,262	-160,473	0,094	-0,004
-664,247	-200,000	0,007	0,024
-663,232	-177,658	-0,025	-0,000
-662,218	-67,850	-0,039	0,011
-661,203	-80,792	-0,121	-0,029
-660,189	-39,364	0,076	-0,029
-659,174	246,006	0,064	-0,079
-658,159	-175,194	-0,046	-0,001
-657,145	800,000	0,024	-0,054
-656,130	800,000	0,023	0,054
-655,116	-200,000	-0,005	0,046
-654,101	-200,000	-0,001	0,034
-653,086	800,000	-0,028	0,089
-652,072	800,000	0,028	-0,065
-651,057	-45,256	-0,035	-0,013
-650,043	143,515	-0,035	-0,034
-649,028	34,543	-0,148	-0,094
-648,014	-200,000	0,024	0,078
-646,999	-19,377	0,238	0,107
-645,984	800,000	-0,055	0,115
-644,970	-118,306	0,097	0,012
-643,955	380,989	-0,073	-0,109
-642,941	-41,912	0,048	-0,018
-641,926	171,688	-0,024	0,025
-640,911	133,877	0,055	0,052
-639,897	660,743	-0,040	0,075
-638,882	-42,910	0,090	-0,033
-637,868	-132,238	-0,166	0,015
-636,853	-200,000	-0,040	-0,138
-635,838	192,214	-0,060	-0,066
-634,824	-85,223	-0,119	0,027
-633,809	-200,000	-0,018	0,065
-632,795	800,000	-0,003	-0,008
-631,780	-200,000	0,008	0,048
-630,765	-119,253	-0,041	0,005
-629,751	481,654	-0,029	-0,047
-628,736	-166,561	-0,157	-0,005
-627,722	-77,519	-0,088	0,022
-626,707	-0,226	-0,028	-0,014
-625,692	-10,441	0,019	0,009
-624,678	63,363	0,075	0,055
-623,663	-200,000	-0,017	0,083
-622,649	-143,353	0,090	0,006
-621,634	800,000	-0,030	-0,095
-620,619	80,886	0,127	-0,099
-619,605	-63,414	-0,073	0,022
-618,590	16,571	-0,095	-0,054
-617,576	-90,217	0,044	0,009
-616,561	800,000	0,023	0,061
-615,546	284,790	-0,077	-0,100
-614,532	800,000	-0,047	-0,112
-613,517	-71,677	-0,069	0,019
-612,503	-200,000	-0,025	-0,085
-611,488	108,250	0,054	0,047
-610,474	800,000	0,033	0,068
-609,459	-135,261	0,092	0,008
-608,444	-200,000	-0,006	-0,038
-607,430	-44,383	0,041	-0,015
-606,415	800,000	-0,058	-0,127
-605,401	731,780	0,020	-0,039
-604,386	-139,480	-0,083	0,006
-603,371	-188,685	0,207	0,002
-602,357	428,553	-0,083	-0,130
-601,342	66,615	-0,060	0,044
-600,328	-49,336	-0,082	-0,028
-599,313	335,126	-0,072	-0,101
-598,298	800,000	0,037	-0,077
-597,284	-84,994	-0,093	-0,021
-596,269	142,741	0,132	0,127
-595,255	800,000	-0,045	-0,109
-594,240	190,865	-0,111	0,121
-593,225	-94,636	0,008	0,002
-592,211	122,380	-0,178	-0,161
-591,196	180,919	0,093	-0,099
-590,182	3,678	0,114	0,060
-589,167	-149,482	0,123	-0,007
-588,152	-117,673	-0,055	-0,007
-587,138	-111,574	0,037	-0,005
-586,123	-200,000	-0,045	-0,155
-585,109	83,025	-0,041	-0,033
-584,094	131,705	-0,020	0,019
-583,079	384,082	-0,015	0,022
-582,065	13,350	0,100	0,056
-581,050	-88,482	-0,159	0,034
-580,036	-200,000	-0,013	0,173
-579,021	-12,511	0,014	0,007
-578,006	800,000	-0,074	-0,195
-576,992	800,000	0,100	-0,219
-575,977	-200,000	0,014	-0,073
-574,963	-200,000	0,003	0,009
-573,948	20,573	0,099	0,058
-572,934	-200,000	0,023	0,120
-571,919	140,033	-0,065	-0,062
-570,904	0,091	-0,057	-0,030
-569,890	-130,554	-0,084	0,008
-568,875	-7,303	0,082	-0,040
-567,861	153,561	0,071	-0,071
-566,846	188,816	0,090	0,098
-565,831	-94,300	0,085	0,017
-564,817	235,819	0,062	-0,075
-563,802	-200,000	0,009	-0,155
-562,788	102,345	-0,092	-0,077
-561,773	250,057	0,037	0,046
-560,758	162,867	0,040	0,041
-559,744	-45,081	-0,077	0,028
-558,729	545,540	0,031	0,054
-557,715	11,928	0,028	-0,016
-556,700	-59,566	-0,209	-0,065
-555,685	104,823	0,046	-0,039
-554,671	-25,338	-0,134	0,057
-553,656	139,305	0,084	0,080
-552,642	138,898	0,059	-0,056
-551,627	42,470	0,078	-0,051
-550,612	800,000	-0,027	-0,077
-549,598	78,030	0,060	-0,046
-548,583	382,473	-0,020	-0,030
-547,569	-2,725	0,151	-0,076
-546,554	800,000	0,050	0,117
-545,539	7,411	-0,056	0,030
-544,525	233,106	0,040	0,047
-543,510	-28,567	-0,094	-0,039
-542,496	-200,000	0,026	-0,140
-541,481	800,000	-0,019	-0,053
-540,466	111,762	0,091	0,079
-539,452	234,583	0,102	-0,121
-538,437	-97,104	0,102	-0,019
-537,423	124,486	-0,121	0,109
-536,408	-200,000	-0,006	-0,040
-535,393	229,516	0,040	-0,047
-534,379	98,765	-0,074	0,062
-533,364	383,511	0,064	-0,095
-532,350	47,284	-0,076	-0,051
-531,335	81,532	0,068	-0,053
-530,321	-200,000	-0,007	0,088
-529,306	616,556	0,005	-0,010
-528,291	-77,771	0,093	-0,023
-527,277	800,000	0,029	0,058
-526,262	150,191	-0,075	-0,074
-525,248	-168,051	-0,059	-0,002
-524,233	800,000	-0,045	-0,104
-523,218	-112,403	-0,108	-0,015
-522,204	6,339	0,082	-0,044
-521,189	25,437	-0,070	0,042
-520,175	690,272	-0,022	0,042
-519,160	-200,000	0,036	-0,126
-518,145	-28,951	0,046	-0,019
-517,131	51,269	0,100	-0,069
-516,116	19,640	-0,046	-0,027
-515,102	800,000	0,051	-0,116
-514,087	-51,232	0,062	-0,021
-513,072	63,033	-0,021	-0,015
-512,058	121,586	0,049	-0,044
-511,043	-200,000	-0,041	0,249
-510,029	800,000	0,039	0,084
-509,014	-200,000	-0,002	-0,008
-507,999	-200,000	0,005	-0,041
-506,985	-200,000	-0,008	0,133
-505,970	800,000	-0,038	-0,106
-504,956	800,000	-0,035	-0,099
-503,941	-200,000	-0,037	-0,213
-502,926	-200,000	-0,019	0,071
-501,912	323,047	-0,090	0,124
-500,897	-200,000	-0,000	-0,087
-499,883	697,075	0,081	-0,153
-498,868	-78,715	-0,079	-0,019
-497,853	64,801	-0,086	-0,063
-496,839	-36,691	-0,051	0,020
-495,824	23,996	-0,112	0,067
-494,810	800,000	0,037	0,104
-493,795	148,977	0,027	0,027
-492,781	-200,000	0,038	-0,185
-491,766	64,210	0,127	-0,092
-490,751	800,000	-0,050	-0,107
-489,737	118,236	0,010	0,009
-488,722	82,574	-0,101	0,079
-487,708	369,483	0,093	0,137
-486,693	18,748	0,066	0,038
-485,678	-200,000	0,008	0,052
-484,664	-40,623	-0,099	-0,037
-483,649	800,000	0,021	-0,063
-482,635	-200,000	-0,003	-0,025
-481,620	-18,848	0,062	0,027
-480,605	25,801	0,041	-0,025
-479,591	702,026	0,041	-0,078
-478,576	37,503	0,087	-0,056
-477,562	800,000	0,019	-0,055
-476,547	-108,298	-0,088	0,014
-475,532	-75,834	0,158	-0,040
-474,518	-5,097	0,056	0,028
-473,503	-200,000	-0,010	0,197
-472,489	800,000	-0,025	0,049
-471,474	-8,097	-0,066	0,032
-470,459	-200,000	-0,016	-0,068
-469,445	415,165	-0,099	-0,153
-468,430	-200,000	0,013	-0,079
-467,416	39,936	0,028	-0,018
-466,401	31,178	-0,053	0,033
-465,386	-151,325	0,130	0,007
-464,372	-200,000	0,011	0,043
-463,357	-200,000	0,012	-0,039
-462,343	-200,000	-0,001	0,066
-461,328	-87,406	-0,170	-0,037
-460,313	-60,570	0,056	0,017
-459,299	-200,000	0,003	0,097
-458,284	-60,943	0,117	-0,036
-457,270	-200,000	0,022	-0,075
-456,255	-114,458	0,006	0,001
-455,241	-200,000	0,035	-0,165
-454,226	-26,138	0,056	-0,024
-453,211	-36,557	-0,052	0,020
-452,197	800,000	0,010	0,026
-451,182	-26,964	-0,164	-0,068
-450,168	-133,128	0,076	0,007
-449,153	434,690	-0,075	-0,117
-448,138	-200,000	-0,007	-0,086
-447,124	196,104	-0,008	0,009
-446,109	-200,000	0,025	0,085
-445,095	800,000	0,062	0,166
-444,080	-177,524	0,076	-0,001
-443,065	361,667	0,038	0,055
-442,051	126,779	0,037	-0,033
-441,036	542,036	-0,092	-0,158
-440,022	800,000	0,033	-0,095
-439,007	-75,732	0,149	0,038
-437,992	-51,081	-0,100	0,033
-436,978	-200,000	-0,009	-0,052
-435,963	221,449	0,120	0,139
-434,949	-200,000	0,008	-0,100
-433,934	265,197	-0,049	-0,061
-432,919	-200,000	0,010	-0,041
-431,905	305,596	-0,042	0,056
-430,890	-105,395	0,032	0,005
-429,876	46,625	-0,008	0,006
-428,861	-108,250	0,059	-0,009
-427,846	-87,424	-0,095	-0,021
-426,832	121,418	-0,060	-0,054
-425,817	-200,000	-0,009	0,072
-424,803	800,000	0,053	0,136
-423,788	800,000	0,010	0,023
-422,773	-200,000	-0,003	0,073
-421,759	-149,520	0,141	-0,008
-420,744	202,507	-0,040	-0,044
-419,730	-200,000	-0,000	-0,113
-418,715	-161,318	0,105	-0,004
-417,701	42,930	-0,068	-0,044
-416,686	-11,597	-0,074	0,035
-415,671	800,000	0,023	-0,059
-414,657	111,487	0,042	-0,037
-413,642	-82,585	-0,035	0,008
-412,628	9,043	-0,061	-0,033
-411,613	-200,000	0,007	-0,055
-410,598	-89,093	-0,095	-0,020
-409,584	90,833	0,127	0,103
-408,569	695,873	-0,056	0,105
-407,555	800,000	-0,012	0,032
-406,540	9,426	0,103	0,056
-405,525	-200,000	-0,024	-0,094
-404,511	-132,192	-0,022	0,002
-403,496	-147,304	-0,072	-0,004
-402,482	392,744	-0,021	0,031
-401,467	-71,219	0,101	-0,027
-400,452	-57,799	0,100	-0,031
-399,438	800,000	0,049	-0,133
-398,423	-26,206	-0,045	-0,019
-397,409	84,793	0,033	-0,026
-396,394	75,717	-0,128	0,097
-395,379	800,000	0,044	-0,126
-394,365	-158,091	0,095	0,004
-393,350	-200,000	-0,015	0,068
-392,336	96,614	-0,028	0,023
-391,321	-200,000	0,002	0,084
-390,306	-200,000	-0,023	0,088
-389,292	9,070	-0,088	0,047
-388,277	321,780	0,096	-0,131
-387,263	-200,000	-0,006	-0,046
-386,248	800,000	0,032	0,069
-385,233	-200,000	0,035	0,121
-384,219	194,668	0,031	-0,033
-383,204	-135,039	-0,033	0,003
-382,190	-200,000	-0,001	0,011
-381,175	-200,000	0,008	-0,065
-380,160	-200,000	0,028	0,156
-379,146	-99,067	0,090	0,016
-378,131	-200,000	-0,002	0,070
-377,117	800,000	0,058	0,184
-376,102	-109,034	-0,052	-0,008
-375,088	81,610	-0,077	-0,060
-374,073	800,000	-0,023	-0,067
-373,058	-4,048	0,151	0,075
-372,044	74,989	0,115	0,087
-371,029	800,000	-0,077	0,156
-370,015	-200,000	-0,022	0,074
-369,000	-34,029	-0,020	-0,008
-367,985	800,000	-0,054	-0,110
-366,971	636,373	-0,079	-0,145
-365,956	-200,000	-0,023	0,102
-364,942	-200,000	-0,013	-0,056
-363,927	55,922	0,125	0,087
-362,912	-158,358	0,053	-0,002
-361,898	51,407	-0,109	-0,074
-360,883	-200,000	-0,048	-0,204
-359,869	-16,317	-0,123	0,056
-358,854	274,293	0,009	0,012
-357,839	101,297	-0,030	0,025
-356,825	-200,000	-0,006	0,129
-355,810	101,474	0,073	0,061
-354,796	-6,571	-0,121	-0,059
-353,781	-5,407	-0,081	0,040
-352,766	-200,000	-0,000	0,104
-351,752	125,439	0,014	-0,013
-350,737	-200,000	-0,006	0,136
-349,723	-200,000	-0,022	0,167
-348,708	51,147	-0,087	0,059
-347,693	-200,000	-0,009	0,065
-346,679	-200,000	0,022	-0,101
-345,664	-80,848	-0,115	-0,027
-344,650	-200,000	0,000	0,010
-343,635	800,000	0,053	0,111
-342,620	-200,000	0,009	0,082
-341,606	65,005	0,064	-0,046
-340,591	1,165	0,143	0,073
-339,577	-200,000	-0,010	-0,114
-338,562	-200,000	-0,008	-0,087
-337,548	124,547	0,077	-0,070
-336,533	320,665	0,158	0,216
-335,518	-68,199	-0,102	0,028
-334,504	-200,000	-0,022	0,112
-333,489	-200,000	0,005	-0,026
-332,475	254,330	-0,033	-0,041
-331,460	800,000	-0,030	0,089
-330,445	226,491	-0,070	-0,082
-329,431	-200,000	0,006	0,034
-328,416	-200,000	0,003	0,054
-327,402	800,000	0,054	0,166
-326,387	800,000	0,043	-0,092
-325,372	-169,620	0,040	-0,001
-324,358	-150,103	-0,028	-0,002
-323,343	-200,000	-0,013	-0,077
-322,329	-200,000	-0,016	0,063
-321,314	800,000	-0,003	-0,008
-320,299	223,541	-0,089	0,103
-319,285	313,865	-0,029	0,039
-318,270	-200,000	0,019	-0,075
-317,256	-80,192	-0,112	-0,027
-316,241	483,587	-0,011	-0,017
-315,226	118,636	-0,084	-0,074
-314,212	86,004	0,072	-0,056
-313,197	-200,000	-0,008	0,058
-312,183	-55,457	-0,046	0,015
-311,168	604,001	0,006	-0,010
-310,153	-200,000	-0,008	-0,102
-309,139	227,537	-0,029	-0,034
-308,124	281,657	0,005	-0,006
-307,110	-8,817	0,085	0,041
-306,095	-89,245	0,133	-0,028
-305,080	800,000	0,087	-0,182
-304,066	-200,000	-0,001	-0,062
-303,051	-73,556	-0,102	0,026
-302,037	-200,000	-0,009	0,037
-301,022	-200,000	0,019	-0,086
-300,008	23,737	-0,107	0,063
-298,993	12,248	0,036	0,020
-297,978	-200,000	-0,024	0,107
-296,964	659,350	-0,051	0,094
-295,949	-70,338	-0,246	-0,066
-294,935	111,991	-0,063	-0,055
-293,920	-117,301	-0,119	0,015
-292,905	-140,936	0,112	-0,008
-291,891	-103,538	-0,119	-0,020
-290,876	145,990	0,086	0,083
-289,862	800,000	-0,021	0,058
-288,847	-47,245	-0,036	-0,012
-287,832	16,613	-0,084	0,047
-286,818	-200,000	-0,003	-0,050
-285,803	5,926	0,188	-0,099
-284,789	371,646	-0,033	0,049
-283,774	158,780	-0,053	0,053
-282,759	-34,581	-0,095	-0,037
-281,745	55,194	0,084	0,058
-280,730	800,000	-0,015	-0,038
-279,716	-20,891	0,110	-0,048
-278,701	-200,000	-0,003	0,022
-277,686	800,000	0,017	0,053
-276,672	404,526	-0,022	0,034
-275,657	-200,000	-0,005	0,051
-274,643	800,000	-0,021	-0,047
-273,628	737,718	-0,049	0,095
-272,613	800,000	0,025	-0,071
-271,599	539,003	0,046	0,079
-270,584	800,000	0,027	0,078
-269,570	-200,000	-0,021	-0,108
-268,555	28,380	-0,085	0,051
-267,540	-200,000	0,007	-0,114
-266,526	800,000	-0,030	0,076
-265,511	-200,000	-0,003	0,070
-264,497	-67,890	0,053	0,015
-263,482	181,234	0,077	0,081
-262,467	-200,000	0,009	0,040
-261,453	800,000	0,063	0,142
-260,438	17,045	0,112	0,063
-259,424	318,592	-0,036	-0,049
-258,409	800,000	-0,037	0,088
-257,395	800,000	-0,039	-0,092
-256,380	-200,000	0,014	0,085
-255,365	357,733	-0,079	0,114
-254,351	800,000	-0,028	0,078
-253,336	-200,000	0,010	0,074
-252,322	-145,464	-0,004	-0,000
-251,307	258,718	-0,006	-0,007
-250,292	396,460	0,034	-0,051
-249,278	346,001	0,125	0,177
-248,263	110,254	0,058	-0,050
-247,249	128,588	0,035	-0,032
-246,234	134,455	0,028	-0,026
-245,219	266,008	-0,082	-0,103
-244,205	-61,627	-0,061	-0,018
-243,190	278,727	0,042	-0,053
-242,176	-181,546	0,100	0,001
-241,161	-200,000	-0,043	0,198
-240,146	-200,000	0,018	0,118
-239,132	18,684	-0,065	-0,037
-238,117	-200,000	0,004	0,024
-237,103	129,006	0,053	-0,048
-236,088	-200,000	-0,001	-0,126
-235,073	191,003	0,095	-0,102
-234,059	-200,000	-0,005	-0,050
-233,044	-76,506	-0,017	-0,004
-232,030	800,000	0,021	0,050
-231,015	73,507	-0,103	-0,077
-230,000	800,000	0,060	-0,135
-228,986	-15,951	0,165	-0,075
-227,971	-200,000	-0,018	0,103
-226,957	42,399	0,044	0,028
-225,942	800,000	0,013	-0,030
-224,927	177,140	0,134	0,139
-223,913	800,000	0,019	0,048
-222,898	391,972	-0,044	-0,066
-221,884	389,629	-0,074	0,110
-220,869	-92,936	0,117	0,023
-219,855	511,085	0,059	-0,098
-218,840	-200,000	-0,021	0,076
-217,825	800,000	0,030	0,087
-216,811	-200,000	-0,007	0,027
-215,796	-174,905	-0,046	-0,001
-214,782	89,759	-0,089	0,071
-213,767	26,823	0,228	0,136
-212,752	-88,002	-0,092	0,020
-211,738	-54,009	0,089	-0,029
-210,723	496,794	-0,028	0,046
-209,709	270,947	-0,041	-0,051
-208,694	109,480	-0,120	-0,102
-207,679	-200,000	0,002	-0,039
-206,665	-200,000	-0,002	0,164
-205,650	-200,000	0,000	-0,002
-204,636	-200,000	0,029	0,280
-203,621	-123,217	0,015	-0,002
-202,606	113,798	-0,126	0,109
-201,592	-200,000	-0,016	-0,152
-200,577	169,066	-0,049	0,050
-199,563	-200,000	-0,003	-0,027
-198,548	32,745	0,032	0,020
-197,533	-200,000	-0,014	0,057
-196,519	57,829	-0,064	-0,044
-195,504	800,000	0,031	-0,069
-194,490	485,948	-0,095	0,155
-193,475	178,664	0,048	0,050
-192,460	-200,000	-0,025	0,092
-191,446	-166,890	0,081	0,002
-190,431	-50,546	-0,064	-0,021
-189,417	129,290	0,036	-0,033
-188,402	20,422	0,117	-0,067
-187,387	-200,000	0,003	-0,092
-186,373	-200,000	-0,067	-0,233
-185,358	157,746	-0,075	-0,074
-184,344	-9,656	-0,079	-0,038
-183,329	800,000	-0,027	-0,074
-182,315	800,000	-0,024	-0,071
-181,300	61,288	-0,058	0,041
-180,285	633,909	0,023	0,041
-179,271	-133,177	-0,037	0,003
-178,256	-200,000	0,050	-0,217
-177,242	289,519	0,053	0,069
-176,227	125,235	0,128	0,115
-175,212	800,000	0,049	0,109
-174,198	800,000	-0,017	0,044
-173,183	-166,445	-0,116	-0,003
-172,169	83,539	-0,074	-0,057
-171,154	306,053	0,034	0,045
-170,139	396,708	-0,058	0,087
-169,125	-200,000	-0,047	0,190
-168,110	-200,000	-0,025	0,103
-167,096	-102,162	-0,082	0,014
-166,081	91,999	-0,039	-0,031
-165,066	-200,000	-0,006	-0,061
-164,052	369,378	0,104	-0,150
-163,037	-200,000	0,013	0,124
-162,023	376,960	0,051	-0,075
-161,008	-59,595	-0,005	-0,001
-159,993	226,237	0,053	0,061
-158,979	-200,000	-0,037	-0,198
-157,964	-200,000	-0,088	0,000
-156,950	-56,733	0,050	-0,016
-155,935	-149,249	0,106	-0,006
-154,920	-151,602	0,078	-0,004
-153,906	-200,000	-0,016	0,263
-152,891	-200,000	0,017	0,061
-151,877	753,273	-0,040	-0,078
-150,862	-200,000	-0,018	-0,060
-149,847	-200,000	0,001	0,106
-148,833	800,000	0,025	-0,070
-147,818	473,213	0,059	-0,094
-146,804	44,759	0,043	-0,028
-145,789	-14,150	0,086	0,039
-144,775	-34,041	0,017	0,007
-143,760	-200,000	0,003	-0,015
-142,745	-182,648	-0,063	-0,001
-141,731	90,300	-0,028	-0,022
-140,716	-27,328	0,015	-0,006
-139,702	160,036	0,118	0,117
-138,687	-200,000	-0,026	-0,104
-137,672	55,774	0,106	-0,073
-136,658	-200,000	0,003	-0,078
-135,643	-39,721	-0,058	-0,022
-134,629	-63,348	0,160	0,047
-133,614	178,930	0,117	0,122
-132,599	86,475	-0,054	-0,042
-131,585	-21,219	0,100	0,043
-130,570	573,465	0,050	0,087
-129,556	20,538	0,034	0,019
-128,541	214,719	0,034	-0,039
-127,526	86,238	-0,066	0,052
-126,512	112,533	0,051	0,044
-125,497	-200,000	-0,018	0,061
-124,483	37,739	0,050	0,031
-123,468	-61,181	0,134	-0,040
-122,453	129,886	-0,097	-0,088
-121,439	-40,342	-0,125	0,046
-120,424	-200,000	-0,003	-0,116
-119,410	348,456	0,056	0,079
-118,395	303,995	-0,058	0,076
-117,380	-200,000	0,009	0,114
-116,366	-62,135	0,076	-0,023
-115,351	342,354	-0,125	-0,175
-114,337	-28,160	0,043	-0,018
-113,322	800,000	0,011	-0,027
-112,307	-120,101	0,006	0,001
-111,293	-141,832	-0,015	0,001
-110,278	73,218	0,043	-0,032
-109,264	213,870	-0,031	-0,035
-108,249	65,638	-0,078	-0,056
-107,234	738,194	0,031	-0,060
-106,220	-128,962	0,017	-0,002
-105,205	-68,277	0,117	-0,032
-104,191	-198,719	0,157	0,001
-103,176	43,260	0,113	0,073
-102,162	638,934	-0,047	-0,085
-101,147	-200,000	-0,013	-0,050
-100,132	180,331	-0,013	-0,014
-99,118	-147,793	-0,081	0,005
-98,103	-200,000	0,014	0,074
-97,089	-200,000	-0,018	-0,057
-96,074	-200,000	0,024	0,154
-95,059	-200,000	-0,009	0,062
-94,045	-200,000	-0,037	0,135
-93,030	-37,711	0,136	0,051
-92,016	-200,000	-0,019	-0,102
-91,001	549,910	0,035	-0,060
-89,986	-170,450	0,015	-0,000
-88,972	-135,480	0,030	0,002
-87,957	-58,441	0,047	0,014
-86,943	192,625	-0,060	-0,064
-85,928	336,851	0,050	-0,069
-84,913	-96,661	-0,111	-0,021
-83,899	-43,890	-0,094	0,033
-82,884	800,000	0,048	0,101
-81,870	690,509	-0,038	0,070
-80,855	394,519	0,041	-0,061
-79,840	-200,000	0,041	-0,145
-78,826	-110,909	-0,178	0,026
-77,811	-200,000	0,001	-0,013
-76,797	218,617	-0,026	0,030
-75,782	-15,090	-0,042	0,019
-74,767	104,586	0,081	0,067
-73,753	-200,000	0,045	0,190
-72,738	-14,453	-0,113	-0,051
-71,724	163,831	-0,083	-0,083
-70,709	-200,000	0,043	-0,148
-69,694	-200,000	0,006	-0,137
-68,680	28,043	0,003	0,002
-67,665	-69,441	0,151	0,041
-66,651	-61,909	-0,041	0,012
-65,636	44,264	-0,022	0,015
-64,622	367,748	0,065	0,093
-63,607	386,385	-0,060	0,089
-62,592	-200,000	0,002	-0,120
-61,578	-200,000	-0,002	0,065
-60,563	95,420	0,012	0,010
-59,549	800,000	0,067	0,163
-58,534	-61,383	-1,505	-0,446
-57,519	415,120	-1,513	-2,292
-56,505	-200,000	-0,503	-4,579
-55,490	203,676	1,053	1,157
-54,476	800,000	4,612	10,965
-53,461	-200,000	18,362	291,385
-52,446	800,000	728,958	2242,429
-51,432	557,953	1645,090	2822,675
-50,417	79,150	1666,123	1263,694
-49,403	22,737	1539,593	891,244
-48,388	16,713	1462,928	817,654
-47,373	17,867	1452,954	817,614
-46,359	17,226	1443,204	809,024
-45,344	14,973	1438,508	795,594
-44,330	14,882	1436,658	794,103
-43,315	14,896	1434,961	793,203
-42,300	14,954	1433,148	792,445
-41,286	14,967	1432,034	791,859
-40,271	14,925	1430,990	791,050
-39,257	14,882	1429,668	790,081
-38,242	14,959	1428,497	789,770
-37,227	14,971	1426,945	788,939
-36,213	14,956	1425,757	788,176
-35,198	14,915	1424,592	787,310
-34,184	14,992	1423,627	787,107
-33,169	14,882	1422,568	785,971
-32,154	14,957	1421,454	785,678
-31,140	14,971	1420,086	784,960
-30,125	14,991	1418,963	784,399
-29,111	14,955	1417,794	783,553
-28,096	14,918	1416,874	782,840
-27,082	14,924	1415,590	782,128
-26,067	14,888	1414,474	781,312
-25,052	14,841	1413,605	780,577
-24,038	14,796	1412,695	779,836
-23,023	14,822	1411,482	779,257
-22,009	14,819	1410,426	778,627
-20,994	14,820	1409,737	778,221
-19,979	14,822	1408,835	777,704
-18,965	14,816	1407,576	776,947
-17,950	14,759	1406,967	776,312
-16,936	14,800	1405,841	775,853
-15,921	14,798	1404,432	775,036
-14,906	14,773	1403,935	774,616
-13,892	14,784	1402,951	774,092
-12,877	14,765	1401,970	773,430
-11,863	14,798	1401,094	773,069
-10,848	14,760	1400,383	772,473
-9,833	14,734	1399,326	771,739
-8,819	14,725	1398,440	771,174
-7,804	14,701	1397,437	770,480
-6,790	14,664	1396,351	769,681
-5,775	14,659	1395,460	769,137
-4,760	14,631	1394,745	768,582
-3,746	14,682	1393,904	768,321
-2,731	14,664	1393,020	767,722
-1,717	14,663	1392,131	767,197
-0,702	14,609	1390,294	765,904
0,313	18,392	1308,902	738,596
1,327	34,613	706,124	436,048
2,342	52,797	124,481	84,143
3,356	1,873	16,654	8,477
4,371	-8,999	3,137	1,481
5,386	92,488	0,408	0,326
6,400	324,815	0,045	0,060
7,415	204,162	-0,182	-0,200
8,429	255,035	-0,150	-0,182
9,444	16,340	-0,462	-0,257
10,459	60,818	-0,337	-0,236
11,473	77,357	-0,312	-0,234
12,488	-29,463	-0,295	-0,119
13,502	54,602	-0,193	-0,132
14,517	35,894	-0,343	-0,213
15,531	25,634	-0,391	-0,229
16,546	42,994	-0,403	-0,259
17,561	232,415	-0,286	-0,332
18,575	193,215	-0,187	-0,200
19,590	-8,261	-0,380	-0,180
20,604	95,293	-0,139	-0,112
21,619	103,852	-0,493	-0,409
22,634	34,644	-0,474	-0,292
23,648	189,534	-0,318	-0,337
24,663	38,079	-0,483	-0,303
25,677	57,196	-0,412	-0,284
26,692	131,861	-0,264	-0,240
27,707	100,944	-0,365	-0,300
28,721	94,933	-0,387	-0,311
29,736	266,007	-0,284	-0,352
30,750	33,788	-0,553	-0,339
31,765	137,070	-0,350	-0,324
32,780	125,032	-0,346	-0,308
33,794	76,672	-0,369	-0,276
34,809	105,187	-0,319	-0,266
35,823	90,078	-0,267	-0,211
36,838	113,158	-0,400	-0,343
37,853	371,638	-0,280	-0,402
38,867	-46,924	-0,399	-0,137
39,882	192,925	-0,283	-0,302
40,896	238,938	-0,300	-0,352
41,911	-13,454	-0,352	-0,161
42,926	-11,934	-0,353	-0,163
43,940	92,806	-0,305	-0,242
44,955	418,620	-0,263	-0,398
45,969	171,599	-0,344	-0,348
46,984	200,098	-0,339	-0,368
47,999	38,649	-0,244	-0,153
49,013	29,091	-0,321	-0,192
50,028	112,495	-0,281	-0,240
51,042	42,253	-0,391	-0,250
52,057	112,150	-0,379	-0,323
53,071	117,059	-0,387	-0,335
54,086	96,436	-0,307	-0,247
55,101	33,795	-0,369	-0,226
56,115	241,301	-0,229	-0,270
57,130	71,920	-0,289	-0,212
58,144	4,353	-0,349	-0,180
59,159	61,654	-0,456	-0,319
60,174	149,296	-0,296	-0,283
61,188	105,088	-0,350	-0,290
62,203	43,161	-0,187	-0,120
63,217	25,527	-0,364	-0,213
64,232	179,915	-0,212	-0,219
65,247	155,751	-0,274	-0,266
66,261	114,174	-0,244	-0,209
67,276	138,830	-0,286	-0,265
68,290	121,316	-0,272	-0,238
69,305	123,863	-0,339	-0,300
70,320	62,264	-0,255	-0,179
71,334	27,023	-0,341	-0,201
72,349	-32,664	-0,308	-0,120
73,363	28,233	-0,271	-0,161
74,378	-26,609	-0,461	-0,189
75,393	-119,894	-0,271	-0,032
76,407	-40,399	-0,402	-0,146
77,422	153,232	-0,251	-0,242
78,436	164,632	-0,235	-0,234
79,451	202,840	-0,314	-0,342
80,466	224,622	-0,291	-0,331
81,480	33,451	-0,400	-0,244
82,495	177,795	-0,226	-0,232
83,509	-5,404	-0,258	-0,124
84,524	46,285	-0,281	-0,183
85,539	113,024	-0,255	-0,218
86,553	-16,867	-0,304	-0,134
87,568	38,844	-0,342	-0,214
88,582	28,902	-0,373	-0,222
89,597	81,254	-0,266	-0,202
90,611	216,338	-0,206	-0,230
91,626	52,321	-0,239	-0,160
92,641	-20,688	-0,262	-0,112
93,655	-75,742	-0,436	-0,108
94,670	34,269	-0,407	-0,249
95,684	-67,731	-0,345	-0,094
96,699	287,811	-0,236	-0,301
97,714	61,064	-0,361	-0,251
98,728	92,170	-0,159	-0,126
99,743	21,025	-0,270	-0,153
100,757	81,998	-0,327	-0,249
101,772	475,667	-0,196	-0,312
102,787	251,296	-0,232	-0,278
103,801	55,996	-0,349	-0,238
104,816	-30,660	-0,307	-0,121
105,830	173,901	-0,247	-0,251
106,845	406,992	-0,110	-0,164
107,860	-60,678	-0,349	-0,103
108,874	-18,847	-0,317	-0,138
109,889	6,920	-0,336	-0,175
110,903	6,808	-0,264	-0,137
111,918	22,112	-0,272	-0,155
112,933	-200,000	-0,018	-0,068
113,947	89,527	-0,306	-0,239
114,962	208,901	-0,162	-0,179
115,976	14,300	-0,229	-0,125
116,991	-33,749	-0,195	-0,075
118,006	-15,694	-0,366	-0,163
119,020	425,754	-0,155	-0,235
120,035	-28,595	-0,298	-0,120
121,049	140,492	-0,150	-0,139
122,064	431,159	-0,129	-0,196
123,079	68,747	-0,157	-0,113
124,093	182,819	-0,211	-0,218
125,108	41,020	-0,341	-0,215
126,122	20,242	-0,213	-0,120
127,137	-54,852	-0,265	-0,083
128,151	-200,000	-0,061	-0,218
129,166	491,378	-0,170	-0,274
130,181	-39,041	-0,309	-0,113
131,195	-45,107	-0,263	-0,091
132,210	326,463	-0,250	-0,336
133,224	-83,772	-0,367	-0,081
134,239	-76,096	-0,222	-0,055
135,254	-200,000	0,010	-0,256
136,268	295,846	-0,166	-0,214
137,283	312,005	-0,121	-0,159
138,297	11,762	-0,314	-0,168
139,312	155,442	-0,257	-0,248
140,327	-47,866	-0,347	-0,117
141,341	-56,365	-0,265	-0,082
142,356	72,715	-0,267	-0,194
143,370	79,081	-0,198	-0,148
144,385	146,503	-0,262	-0,246
145,400	157,159	-0,272	-0,263
146,414	90,583	-0,313	-0,245
147,429	61,096	-0,226	-0,157
148,443	88,649	-0,334	-0,259
149,458	-38,091	-0,257	-0,095
150,473	-79,806	-0,282	-0,066
151,487	40,032	-0,174	-0,109
152,502	64,353	-0,252	-0,177
153,516	-66,991	-0,331	-0,091
154,531	239,004	-0,222	-0,258
155,546	-52,686	-0,287	-0,092
156,560	522,931	-0,086	-0,142
157,575	427,265	-0,077	-0,116
158,589	42,334	-0,239	-0,151
159,604	-16,403	-0,265	-0,117
160,619	800,000	-0,095	-0,256
161,633	184,148	-0,223	-0,230
162,648	-25,998	-0,320	-0,131
163,662	800,000	-0,036	-0,107
164,677	299,616	-0,134	-0,173
165,692	-44,668	-0,323	-0,112
166,706	78,009	-0,255	-0,190
167,721	129,976	-0,295	-0,264
168,735	60,465	-0,257	-0,177
169,750	152,278	-0,154	-0,147
170,764	152,163	-0,274	-0,261
171,779	246,057	-0,102	-0,120
172,794	-41,137	-0,327	0,117
173,808	51,318	-0,258	-0,171
174,823	112,032	-0,363	-0,306
175,837	109,784	-0,322	-0,269
176,852	176,539	-0,157	-0,159
177,867	-59,737	-0,275	-0,082
178,881	-75,208	-0,265	0,065
179,896	-59,543	-0,197	0,058
180,910	116,744	-0,176	-0,150
181,925	-107,989	-0,354	-0,053
182,940	39,373	-0,286	-0,178
183,954	800,000	-0,071	-0,173
184,969	27,732	-0,302	-0,177
185,983	114,987	-0,203	-0,172
186,998	115,779	-0,224	-0,190
188,013	-104,932	-0,347	-0,055
189,027	139,348	-0,238	-0,219
190,042	-71,271	-0,309	-0,080
191,056	227,883	-0,239	-0,272
192,071	-3,363	-0,183	-0,088
193,086	20,229	-0,283	-0,159
194,100	57,240	-0,169	-0,114
195,115	-32,687	-0,144	-0,055
196,129	-68,919	-0,305	-0,081
197,144	8,084	-0,310	-0,161
198,159	145,345	-0,249	-0,232
199,173	109,776	-0,139	-0,116
200,188	-200,000	-0,031	-0,198
201,202	-90,880	-0,182	-0,036
202,217	41,406	-0,182	-0,114
203,232	63,677	-0,254	-0,178
204,246	-21,567	-0,282	-0,119
205,261	-32,383	-0,243	-0,094
206,275	25,527	-0,182	-0,105
207,290	69,243	-0,141	-0,100
208,304	-9,301	-0,214	-0,099
209,319	145,585	-0,211	-0,197
210,334	-19,195	-0,348	-0,150
211,348	-2,935	-0,204	-0,098
212,363	-57,049	-0,169	-0,052
213,377	87,762	-0,235	-0,181
214,392	337,511	-0,123	-0,167
215,407	98,724	-0,128	-0,103
216,421	26,487	-0,232	-0,135
217,436	64,554	-0,212	-0,148
218,450	-49,198	-0,202	-0,067
219,465	173,044	-0,252	-0,252
220,480	26,115	-0,185	-0,107
221,494	800,000	-0,129	-0,334
222,509	-73,359	-0,118	0,030
223,523	480,900	-0,096	-0,152
224,538	-59,973	-0,157	-0,046
225,553	420,647	-0,127	-0,189
226,567	272,199	-0,115	-0,142
227,582	77,144	-0,214	-0,158
228,596	94,696	-0,103	-0,081
229,611	502,453	-0,151	-0,244
230,626	-23,528	-0,225	-0,093
231,640	-83,334	-0,266	-0,059
232,655	87,110	-0,248	-0,190
233,669	329,074	-0,202	-0,270
234,684	63,010	-0,160	-0,111
235,699	-200,000	-0,048	-0,240
236,713	800,000	-0,133	-0,295
237,728	-51,227	-0,208	-0,067
238,742	114,492	-0,167	-0,141
239,757	-68,723	-0,326	-0,087
240,772	82,626	-0,260	-0,195
241,786	800,000	-0,048	-0,141
242,801	-6,637	-0,191	-0,090
243,815	-14,902	-0,063	0,028
244,830	0,365	-0,107	-0,053
245,844	800,000	-0,055	-0,151
246,859	113,340	-0,184	-0,154
247,874	386,934	-0,224	-0,321
248,888	-160,463	-0,197	-0,007
249,903	-73,570	-0,242	-0,061
250,917	78,227	-0,145	-0,107
251,932	377,184	-0,125	-0,177
252,947	263,122	-0,156	-0,188
253,961	115,436	-0,236	-0,199
254,976	214,319	-0,155	-0,170
255,990	-20,021	-0,202	-0,086
257,005	161,355	-0,202	-0,196
258,020	86,408	-0,126	-0,096
259,034	-200,000	-0,051	-0,158
260,049	7,492	-0,215	-0,111
261,063	-33,836	-0,281	-0,107
262,078	82,689	-0,274	-0,206
263,093	-16,554	-0,223	-0,098
264,107	418,144	-0,138	-0,204
265,122	330,194	-0,117	-0,156
266,136	23,499	-0,182	-0,103
267,151	340,965	-0,092	-0,125
268,166	-9,621	-0,245	-0,113
269,180	483,482	-0,130	-0,205
270,195	-158,844	-0,218	-0,008
271,209	20,648	-0,146	-0,082
272,224	35,032	-0,153	-0,092
273,239	173,139	-0,193	-0,193
274,253	-108,000	-0,212	-0,031
275,268	144,925	-0,132	-0,122
276,282	10,156	-0,197	-0,103
277,297	91,031	-0,289	-0,224
278,312	800,000	-0,090	-0,185
279,326	35,342	-0,175	-0,106
280,341	47,424	-0,078	-0,050
281,355	167,536	-0,103	-0,101
282,370	67,324	-0,151	-0,106
283,384	400,161	-0,124	-0,181
284,399	120,373	-0,189	-0,163
285,414	-17,335	-0,117	-0,051
286,428	21,706	-0,125	-0,070
287,443	800,000	-0,069	-0,157
288,457	-61,028	-0,104	0,030
289,472	-126,508	-0,141	0,014
290,487	-69,334	0,035	0,009
291,501	64,717	-0,189	-0,132
292,516	38,509	-0,219	-0,134
293,530	-61,608	-0,172	-0,050
294,545	-108,608	-0,180	-0,026
295,560	-131,843	-0,130	-0,012
296,574	800,000	-0,040	-0,104
297,589	-58,448	-0,279	-0,083
298,603	16,325	-0,204	-0,111
299,618	138,284	-0,115	-0,104
300,633	-93,179	-0,164	-0,031
301,647	17,706	-0,058	-0,032
302,662	800,000	-0,070	-0,141
303,676	427,647	-0,083	-0,123
304,691	-44,833	-0,207	-0,071
305,706	-58,283	-0,211	-0,063
306,720	158,221	-0,165	-0,158
307,735	800,000	-0,080	-0,186
308,749	258,260	-0,179	-0,213
309,764	-58,114	-0,159	-0,047
310,779	278,682	-0,088	-0,109
311,793	-49,353	-0,242	-0,079
312,808	800,000	-0,090	-0,224
313,822	6,264	-0,103	-0,053
314,837	666,526	-0,097	-0,173
315,852	800,000	-0,069	-0,146
316,866	800,000	-0,060	-0,158
317,881	-200,000	0,025	-0,200
318,895	69,936	-0,061	-0,044
319,910	-17,683	-0,184	-0,079
320,925	-34,820	-0,246	-0,092
321,939	225,154	-0,074	-0,083
322,954	-200,000	-0,072	-0,234
323,968	27,000	-0,116	-0,067
324,983	96,929	-0,124	-0,097
325,997	30,523	-0,083	-0,049
327,012	-132,415	-0,221	-0,019
328,027	-200,000	-0,048	-0,183
329,041	-200,000	-0,065	-0,305
330,056	-153,166	-0,224	-0,011
331,070	-1,701	-0,104	-0,050
332,085	116,514	-0,067	-0,056
333,100	146,672	-0,128	-0,118
334,114	800,000	-0,077	-0,223
335,129	107,168	-0,179	-0,146
336,143	4,716	-0,150	-0,076
337,158	-200,000	-0,020	-0,184
338,173	-71,152	-0,067	-0,017
339,187	-67,770	-0,139	0,037
340,202	-22,471	-0,209	-0,086
341,216	119,118	-0,136	-0,116
342,231	75,836	-0,177	-0,129
343,246	537,161	-0,106	-0,173
344,260	72,451	-0,028	0,020
345,275	312,489	-0,070	-0,091
346,289	-89,981	-0,119	-0,024
347,304	-58,188	-0,160	-0,048
348,319	20,631	-0,202	-0,112
349,333	224,531	-0,138	-0,153
350,348	-200,000	0,001	0,030
351,362	-108,097	-0,207	0,030
352,377	4,389	-0,204	0,102
353,392	-102,967	-0,204	-0,033
354,406	262,348	-0,133	-0,159
355,421	210,138	1314,869	1418,568
356,435	161,757	1475,640	1419,079
