DTS Sentinel unit serial number:	SN410029Multiplexer serial number:	ORYXHardware model number:	OX2-SRSoftware version number:	ORYX F/W v4,00 Oryx Data Collector v3.7.2.0data status	okinstallation	B3 Nyhavnadifferential loss correction	single-endedforward channel	channel 1reverse channel	N/Adate	2023/12/02time	03:17:30forward acquisition time	300,00reverse acquisition time	0,00gamma	499,1914k internal	0,3194k external	0,3194temperature offset calibration	1,0000default loss term (dB/km)	0,3820temperature slope calibration	1,0000multiplexer offset coefficient	1,0000multiplexer slope coefficient	1,0000fibre end	0,00T internal ref (°C)	16,66T ext. ref 1 (°C)	1,73T ext. ref 2 (°C)	1,72length (m)	temperature (°C)	Stokes	anti-Stokes-744,400	-2,666	-0,265	-0,135
-743,385	-200,000	-0,063	0,280
-742,371	167,369	-0,243	-0,251
-741,356	800,000	0,144	0,322
-740,342	45,899	-0,192	-0,129
-739,327	-200,000	-0,011	0,430
-738,312	-200,000	-0,075	-0,286
-737,298	-200,000	-0,029	0,377
-736,283	800,000	-0,186	-0,412
-735,269	-200,000	0,075	0,291
-734,254	31,863	-0,268	-0,168
-733,239	195,767	-0,138	0,153
-732,225	224,834	-0,137	-0,162
-731,210	432,423	0,081	0,128
-730,196	-65,607	0,019	0,006
-729,181	280,415	-0,075	-0,098
-728,167	-200,000	0,006	0,114
-727,152	206,506	-0,053	0,060
-726,137	-200,000	-0,031	0,135
-725,123	39,627	-0,113	0,073
-724,108	-172,553	-0,080	0,002
-723,094	800,000	-0,093	-0,210
-722,079	-137,001	0,117	0,010
-721,064	308,691	0,016	0,021
-720,050	-136,207	0,160	-0,013
-719,035	69,646	-0,018	0,014
-718,021	-200,000	0,001	-0,108
-717,006	-200,000	-0,008	-0,138
-715,991	-114,641	-0,033	0,005
-714,977	175,239	0,012	0,012
-713,962	176,202	-0,016	0,017
-712,948	-200,000	-0,003	0,046
-711,933	-28,805	-0,049	-0,020
-710,918	667,959	0,014	-0,026
-709,904	67,708	-0,048	-0,036
-708,889	-200,000	0,009	-0,041
-707,875	-29,956	-0,075	0,031
-706,860	3,851	0,057	0,030
-705,845	800,000	0,011	-0,032
-704,831	151,635	-0,001	0,001
-703,816	533,789	-0,035	-0,061
-702,802	-92,540	-0,082	0,017
-701,787	262,255	0,028	-0,036
-700,772	-103,745	-0,098	-0,017
-699,758	-58,982	-0,103	-0,032
-698,743	79,200	-0,142	0,110
-697,729	145,974	-0,057	-0,056
-696,714	-119,589	0,080	0,010
-695,699	-97,954	-0,099	-0,018
-694,685	-200,000	-0,026	-0,270
-693,670	546,440	-0,092	-0,161
-692,656	-200,000	0,000	0,068
-691,641	800,000	0,046	0,130
-690,627	188,437	-0,033	0,036
-689,612	-148,818	-0,101	-0,006
-688,597	-173,738	0,056	-0,001
-687,583	39,826	-0,074	-0,048
-686,568	118,239	-0,112	-0,101
-685,554	87,989	-0,059	0,047
-684,539	377,986	0,031	0,047
-683,524	-97,276	-0,170	-0,032
-682,510	147,168	0,020	0,020
-681,495	233,340	0,018	-0,022
-680,481	800,000	-0,046	-0,094
-679,466	89,127	-0,074	-0,060
-678,451	84,794	0,034	-0,027
-677,437	483,755	0,074	-0,122
-676,422	-200,000	0,015	0,055
-675,408	-200,000	-0,027	0,106
-674,393	481,634	-0,033	-0,055
-673,378	-53,873	-0,025	0,008
-672,364	-35,991	0,120	-0,047
-671,349	78,940	-0,111	-0,086
-670,335	-200,000	-0,010	0,099
-669,320	-19,804	0,137	-0,061
-668,305	-200,000	-0,013	-0,133
-667,291	-200,000	-0,002	-0,012
-666,276	-200,000	0,052	-0,247
-665,262	-10,844	0,064	-0,031
-664,247	-150,750	0,052	0,003
-663,232	-4,835	-0,085	-0,042
-662,218	-63,968	0,070	0,021
-661,203	732,915	0,059	0,115
-660,189	-123,249	-0,135	0,016
-659,174	800,000	-0,055	-0,167
-658,159	800,000	-0,072	-0,187
-657,145	120,149	0,049	-0,044
-656,130	-200,000	-0,010	-0,079
-655,116	121,411	0,062	0,056
-654,101	71,122	0,048	0,036
-653,086	18,281	-0,064	-0,037
-652,072	1,578	0,018	-0,010
-651,057	382,399	-0,065	0,097
-650,043	-117,197	-0,156	0,020
-649,028	287,667	-0,046	-0,061
-648,014	-130,350	-0,120	-0,012
-646,999	479,788	0,042	-0,069
-645,984	-200,000	0,001	0,114
-644,970	-200,000	0,004	0,065
-643,955	-200,000	-0,034	-0,126
-642,941	392,609	0,038	-0,057
-641,926	-90,456	-0,037	0,008
-640,911	-53,507	0,015	-0,005
-639,897	-135,918	0,137	-0,012
-638,882	-154,577	-0,128	-0,006
-637,868	800,000	-0,027	0,072
-636,853	800,000	-0,051	0,112
-635,838	-200,000	0,034	0,127
-634,824	-131,280	-0,054	-0,005
-633,809	93,030	-0,035	-0,029
-632,795	-200,000	-0,009	0,060
-631,780	86,868	-0,067	0,053
-630,765	-122,077	-0,049	-0,006
-629,751	-90,143	0,023	0,005
-628,736	800,000	-0,025	-0,061
-627,722	-85,193	0,047	0,010
-626,707	405,166	-0,078	-0,119
-625,692	2,259	0,052	0,027
-624,678	89,735	-0,019	0,015
-623,663	213,563	0,078	-0,089
-622,649	670,667	-0,079	-0,149
-621,634	55,200	-0,099	-0,070
-620,619	-200,000	-0,001	-0,110
-619,605	-82,732	0,044	0,010
-618,590	215,876	-0,073	0,084
-617,576	140,052	0,072	0,069
-616,561	-200,000	0,025	0,081
-615,546	72,566	-0,099	-0,075
-614,532	256,258	-0,086	-0,108
-613,517	26,627	-0,090	0,055
-612,503	21,985	0,116	0,068
-611,488	-121,508	0,152	0,018
-610,474	174,975	-0,061	0,064
-609,459	623,026	-0,046	0,085
-608,444	-41,287	0,109	0,040
-607,430	442,598	-0,060	-0,095
-606,415	-200,000	-0,000	0,001
-605,401	-200,000	0,014	0,095
-604,386	-200,000	-0,018	-0,125
-603,371	90,267	0,171	0,138
-602,357	-24,885	-0,176	0,075
-601,342	265,585	-0,103	-0,130
-600,328	39,484	-0,127	-0,082
-599,313	-123,362	-0,074	-0,008
-598,298	469,157	-0,057	-0,093
-597,284	77,639	0,059	0,045
-596,269	-52,130	0,104	0,035
-595,255	-200,000	-0,020	0,085
-594,240	-26,918	0,067	0,028
-593,225	-8,040	0,045	0,022
-592,211	800,000	-0,075	0,158
-591,196	-200,000	0,004	0,129
-590,182	204,664	-0,004	0,005
-589,167	89,246	0,077	0,062
-588,152	123,332	0,037	-0,034
-587,138	184,362	-0,067	-0,072
-586,123	290,412	-0,039	-0,052
-585,109	114,347	-0,137	-0,121
-584,094	-200,000	-0,004	-0,034
-583,079	44,230	0,134	0,089
-582,065	-200,000	0,222	0,001
-581,050	-120,832	0,022	0,003
-580,036	-108,505	0,069	0,011
-579,021	-200,000	-0,007	-0,083
-578,006	-200,000	0,023	-0,133
-576,992	-200,000	0,041	-0,164
-575,977	-1,496	0,075	-0,038
-574,963	-140,739	-0,117	0,009
-573,948	227,013	-0,080	0,095
-572,934	-125,572	0,182	-0,020
-571,919	800,000	-0,045	0,110
-570,904	50,945	-0,099	-0,068
-569,890	800,000	0,078	-0,161
-568,875	355,549	0,067	-0,097
-567,861	-200,000	-0,023	0,089
-566,846	9,899	0,088	-0,048
-565,831	800,000	-0,019	-0,056
-564,817	800,000	-0,070	-0,143
-563,802	29,558	-0,130	-0,080
-562,788	-200,000	0,011	-0,166
-561,773	-200,000	-0,001	0,049
-560,758	-200,000	-0,002	-0,054
-559,744	-105,069	-0,060	-0,010
-558,729	-200,000	0,020	-0,096
-557,715	800,000	-0,021	-0,056
-556,700	800,000	0,025	-0,071
-555,685	100,563	0,039	0,033
-554,671	-28,220	-0,072	-0,030
-553,656	800,000	-0,035	0,096
-552,642	67,034	-0,088	0,065
-551,627	59,762	-0,068	-0,048
-550,612	129,069	0,010	-0,009
-549,598	-152,929	0,059	-0,003
-548,583	-131,498	-0,125	-0,012
-547,569	-200,000	0,002	-0,039
-546,554	100,336	0,063	0,053
-545,539	-114,631	-0,026	0,004
-544,525	228,831	0,083	0,098
-543,510	246,361	-0,103	-0,125
-542,496	-200,000	-0,002	-0,034
-541,481	309,742	0,053	-0,072
-540,466	251,390	0,037	0,046
-539,452	-102,359	-0,066	0,011
-538,437	-200,000	-0,019	-0,072
-537,423	-200,000	0,001	0,012
-536,408	-200,000	0,021	-0,113
-535,393	-200,000	0,001	0,035
-534,379	84,806	0,048	0,038
-533,364	-200,000	-0,012	-0,068
-532,350	284,913	-0,141	0,183
-531,335	-200,000	0,019	0,207
-530,321	45,597	-0,087	0,058
-529,306	800,000	-0,041	-0,104
-528,291	-200,000	0,002	0,177
-527,277	-51,643	-0,146	0,049
-526,262	800,000	-0,037	-0,098
-525,248	31,861	-0,046	0,029
-524,233	461,041	-0,061	0,099
-523,218	100,280	0,062	0,052
-522,204	-200,000	0,021	-0,084
-521,189	221,146	0,057	-0,066
-520,175	-200,000	-0,008	-0,220
-519,160	-132,848	0,049	-0,004
-518,145	309,429	0,102	0,139
-517,131	-108,251	0,112	-0,017
-516,116	-24,040	-0,151	-0,065
-515,102	454,046	-0,054	0,087
-514,087	800,000	0,048	0,111
-513,072	-54,898	-0,152	-0,049
-512,058	-32,306	-0,159	-0,064
-511,043	10,246	0,057	0,031
-510,029	436,842	-0,087	0,137
-509,014	-133,231	0,086	-0,008
-507,999	206,773	0,042	-0,047
-506,985	-144,602	-0,129	-0,008
-505,970	-87,736	-0,123	0,027
-504,956	800,000	0,065	-0,165
-503,941	273,468	0,048	-0,061
-502,926	-26,537	0,196	0,083
-501,912	-143,542	0,166	0,011
-500,897	189,398	0,058	0,062
-499,883	800,000	0,027	-0,085
-498,868	-66,395	-0,061	-0,017
-497,853	672,628	-0,042	-0,078
-496,839	429,671	0,047	-0,074
-495,824	-16,469	0,108	0,049
-494,810	342,476	0,019	-0,026
-493,795	377,290	0,120	0,177
-492,781	800,000	0,030	0,089
-491,766	659,071	0,015	-0,028
-490,751	-200,000	-0,026	0,167
-489,737	532,456	0,089	0,153
-488,722	800,000	0,008	-0,022
-487,708	800,000	0,012	-0,029
-486,693	70,911	0,177	0,132
-485,678	800,000	0,030	-0,073
-484,664	136,837	-0,090	-0,085
-483,649	167,510	0,083	-0,085
-482,635	-140,757	-0,079	0,006
-481,620	52,534	-0,013	0,009
-480,605	-200,000	0,004	0,021
-479,591	-157,752	-0,161	0,007
-478,576	-101,061	0,081	0,014
-477,562	437,583	-0,138	-0,218
-476,547	56,860	0,071	0,050
-475,532	10,631	-0,104	0,057
-474,518	-200,000	0,012	0,073
-473,503	-80,373	0,184	-0,044
-472,489	-28,271	-0,178	0,074
-471,474	-200,000	0,029	0,104
-470,459	-75,607	0,074	-0,019
-469,445	-200,000	0,013	-0,119
-468,430	-74,992	-0,128	-0,033
-467,416	237,317	0,031	0,037
-466,401	146,083	0,077	-0,074
-465,386	377,434	0,043	-0,064
-464,372	-200,000	0,014	0,181
-463,357	800,000	0,037	-0,085
-462,343	42,507	-0,105	-0,068
-461,328	800,000	-0,058	-0,118
-460,313	533,834	0,061	-0,104
-459,299	92,021	-0,133	0,108
-458,284	771,875	-0,029	0,057
-457,270	-88,588	-0,112	0,024
-456,255	-113,005	0,033	-0,005
-455,241	-200,000	-0,013	-0,056
-454,226	631,168	-0,047	0,086
-453,211	274,381	0,031	-0,039
-452,197	800,000	0,055	0,146
-451,182	800,000	-0,085	0,205
-450,168	-160,854	-0,074	0,003
-449,153	-72,594	-0,059	0,016
-448,138	297,714	-0,064	-0,085
-447,124	101,152	-0,124	-0,104
-446,109	442,626	-0,031	-0,049
-445,095	76,163	0,111	0,085
-444,080	4,491	-0,110	0,058
-443,065	-200,000	0,008	0,027
-442,051	105,044	0,066	-0,056
-441,036	305,060	0,114	-0,153
-440,022	-17,111	-0,032	0,015
-439,007	499,179	-0,038	0,064
-437,992	434,814	0,078	-0,123
-436,978	-47,195	-0,132	0,046
-435,963	-200,000	0,022	0,150
-434,949	-200,000	-0,029	0,122
-433,934	226,394	0,057	0,067
-432,919	800,000	0,005	0,015
-431,905	132,151	0,165	0,153
-430,890	127,583	-0,147	0,135
-429,876	-200,000	-0,001	-0,061
-428,861	-99,782	-0,065	0,012
-427,846	44,011	0,093	-0,061
-426,832	205,315	0,024	-0,026
-425,817	-200,000	0,004	-0,158
-424,803	126,530	-0,131	-0,119
-423,788	381,080	-0,057	0,084
-422,773	83,569	-0,067	-0,053
-421,759	793,654	0,029	0,058
-420,744	579,331	-0,045	-0,080
-419,730	2,386	0,097	-0,050
-418,715	-200,000	-0,001	-0,079
-417,701	-20,080	0,025	-0,011
-416,686	119,573	0,070	0,063
-415,671	139,442	-0,073	-0,069
-414,657	559,415	0,027	0,047
-413,642	-4,846	0,121	0,060
-412,628	-200,000	-0,007	-0,067
-411,613	-200,000	0,009	-0,084
-410,598	6,176	0,069	0,037
-409,584	14,733	-0,109	-0,061
-408,569	-200,000	0,038	0,141
-407,555	-50,512	0,033	-0,011
-406,540	117,354	0,079	0,070
-405,525	558,586	0,027	0,047
-404,511	-33,989	0,011	0,004
-403,496	-200,000	-0,026	-0,085
-402,482	141,780	-0,044	0,042
-401,467	-94,081	0,051	0,010
-400,452	800,000	-0,056	0,147
-399,438	800,000	0,025	0,062
-398,423	-200,000	0,005	0,037
-397,409	-13,698	0,039	-0,018
-396,394	183,049	-0,055	-0,058
-395,379	-200,000	-0,010	0,127
-394,365	-200,000	0,002	-0,050
-393,350	-200,000	-0,011	0,076
-392,336	332,339	-0,042	0,058
-391,321	-110,382	0,140	-0,021
-390,306	-200,000	0,019	-0,148
-389,292	97,601	-0,063	-0,052
-388,277	-200,000	-0,023	0,076
-387,263	155,076	-0,096	-0,095
-386,248	478,458	0,045	-0,074
-385,233	-200,000	-0,035	-0,157
-384,219	639,176	0,090	0,166
-383,204	60,773	0,068	-0,049
-382,190	147,423	-0,058	-0,056
-381,175	-200,000	-0,007	-0,033
-380,160	-200,000	-0,004	-0,029
-379,146	2,256	0,080	-0,041
-378,131	-200,000	0,020	0,064
-377,117	-200,000	-0,038	0,134
-376,102	-5,284	0,033	-0,016
-375,088	-167,302	-0,117	0,003
-374,073	-200,000	-0,001	0,065
-373,058	-142,452	0,097	0,007
-372,044	167,261	0,083	-0,084
-371,029	-127,464	0,083	-0,009
-370,015	-200,000	0,006	-0,086
-369,000	-200,000	0,023	-0,084
-367,985	64,410	-0,120	-0,087
-366,971	-142,500	-0,094	0,007
-365,956	-116,637	0,059	0,008
-364,942	-25,017	-0,150	0,064
-363,927	-68,823	0,027	-0,007
-362,912	800,000	0,035	-0,072
-361,898	364,791	0,052	-0,076
-360,883	273,811	-0,069	-0,087
-359,869	257,974	-0,051	0,063
-358,854	193,191	0,031	-0,034
-357,839	-53,561	-0,031	-0,010
-356,825	95,506	0,061	0,050
-355,810	436,301	0,070	-0,111
-354,796	77,362	0,051	-0,039
-353,781	-176,911	-0,146	0,003
-352,766	-100,910	0,041	0,007
-351,752	800,000	-0,023	-0,072
-350,737	800,000	-0,014	0,038
-349,723	-94,489	0,119	-0,023
-348,708	-200,000	0,002	-0,036
-347,693	65,022	0,086	0,063
-346,679	36,808	0,118	-0,075
-345,664	52,339	0,041	-0,028
-344,650	332,788	-0,010	-0,014
-343,635	400,717	-0,040	0,060
-342,620	495,058	0,052	-0,086
-341,606	-182,039	0,057	0,001
-340,591	490,657	-0,024	-0,039
-339,577	800,000	-0,034	0,104
-338,562	-170,433	0,082	0,002
-337,548	34,018	-0,050	-0,031
-336,533	28,109	0,069	-0,042
-335,518	726,648	-0,066	-0,126
-334,504	-172,095	0,223	0,005
-333,489	-38,450	-0,108	-0,041
-332,475	68,209	0,065	-0,048
-331,460	-2,721	-0,007	-0,003
-330,445	-200,000	0,021	0,080
-329,431	363,035	-0,062	0,089
-328,416	-200,000	0,018	-0,107
-327,402	-87,466	0,044	-0,010
-326,387	-200,000	-0,034	0,218
-325,372	-200,000	-0,008	0,206
-324,358	-200,000	-0,010	0,067
-323,343	-38,814	0,144	0,054
-322,329	-44,114	-0,086	0,031
-321,314	800,000	0,015	-0,034
-320,299	800,000	0,042	0,097
-319,285	-104,695	-0,041	0,007
-318,270	-200,000	-0,020	0,090
-317,256	-169,549	-0,072	-0,002
-316,241	28,464	-0,009	-0,005
-315,226	51,426	0,068	0,047
-314,212	-142,153	0,112	0,008
-313,197	228,194	-0,060	0,070
-312,183	383,490	-0,058	-0,086
-311,168	800,000	-0,055	-0,112
-310,153	-52,535	0,053	0,018
-309,139	-200,000	-0,007	-0,216
-308,124	-54,786	0,126	0,041
-307,110	370,781	0,054	0,079
-306,095	403,289	0,034	0,052
-305,080	-200,000	-0,010	0,035
-304,066	800,000	-0,047	-0,113
-303,051	-13,879	0,036	-0,017
-302,037	62,932	-0,022	0,016
-301,022	-200,000	0,018	-0,065
-300,008	30,755	-0,150	-0,092
-298,993	-0,671	0,077	0,039
-297,978	-200,000	-0,030	0,104
-296,964	270,582	0,009	-0,012
-295,949	97,209	0,066	-0,054
-294,935	247,485	0,020	0,024
-293,920	29,100	-0,044	-0,027
-292,905	275,649	-0,043	-0,054
-291,891	452,728	0,080	-0,128
-290,876	-87,354	0,148	0,032
-289,862	-93,522	-0,144	-0,028
-288,847	-200,000	0,021	-0,086
-287,832	22,415	-0,097	0,057
-286,818	309,976	-0,036	0,048
-285,803	719,415	-0,031	0,058
-284,789	-164,681	0,082	0,003
-283,774	-2,708	0,034	-0,017
-282,759	-200,000	-0,016	0,098
-281,745	-116,579	-0,063	0,008
-280,730	-89,007	-0,009	-0,002
-279,716	-63,200	-0,110	-0,032
-278,701	-200,000	0,007	-0,034
-277,686	124,467	-0,060	0,054
-276,672	112,977	-0,045	-0,039
-275,657	86,511	0,040	0,032
-274,643	800,000	-0,025	0,052
-273,628	35,431	-0,071	-0,045
-272,613	284,731	-0,057	-0,074
-271,599	-146,729	0,117	-0,007
-270,584	62,551	-0,012	-0,009
-269,570	800,000	-0,020	0,056
-268,555	41,904	-0,052	-0,033
-267,540	-200,000	0,015	0,077
-266,526	-105,110	-0,062	0,010
-265,511	-176,131	0,045	0,001
-264,497	215,756	-0,007	-0,008
-263,482	-23,878	0,065	0,028
-262,467	-200,000	-0,001	0,131
-261,453	142,492	0,053	0,050
-260,438	-200,000	-0,004	0,102
-259,424	-85,799	-0,100	0,022
-258,409	-41,587	-0,166	-0,061
-257,395	-53,779	0,058	-0,019
-256,380	-68,034	0,081	0,022
-255,365	800,000	-0,017	-0,034
-254,351	-200,000	-0,016	0,064
-253,336	-200,000	0,007	0,034
-252,322	375,260	0,039	-0,057
-251,307	-200,000	0,030	-0,133
-250,292	-70,866	-0,032	-0,009
-249,278	40,481	-0,169	0,108
-248,263	-30,991	0,124	0,050
-247,249	263,991	-0,057	-0,071
-246,234	-200,000	-0,044	-0,176
-245,219	-44,177	-0,077	0,028
-244,205	-4,830	-0,067	-0,033
-243,190	800,000	0,026	-0,066
-242,176	800,000	-0,030	0,063
-241,161	10,857	0,181	-0,099
-240,146	66,204	0,134	0,097
-239,132	129,113	0,067	-0,062
-238,117	791,137	-0,038	-0,074
-237,103	-200,000	-0,004	-0,023
-236,088	352,927	0,053	0,075
-235,073	-153,970	0,128	0,006
-234,059	-90,735	0,098	0,020
-233,044	221,131	-0,088	-0,101
-232,030	143,682	-0,066	-0,063
-231,015	-101,807	-0,105	-0,018
-230,000	537,437	0,027	-0,045
-228,986	-200,000	-0,014	-0,068
-227,971	267,259	0,042	-0,053
-226,957	40,244	0,077	0,049
-225,942	441,580	-0,005	0,008
-224,927	-56,370	-0,148	-0,047
-223,913	800,000	0,029	-0,064
-222,898	-200,000	-0,002	-0,043
-221,884	280,436	0,048	0,062
-220,869	800,000	0,048	0,121
-219,855	-200,000	0,017	0,064
-218,840	26,117	0,081	-0,048
-217,825	-200,000	-0,016	-0,111
-216,811	396,839	-0,093	-0,139
-215,796	-122,920	-0,025	-0,003
-214,782	-141,592	0,166	-0,012
-213,767	-18,693	0,147	0,065
-212,752	121,415	-0,093	0,083
-211,738	392,928	-0,038	0,057
-210,723	-123,182	-0,120	0,014
-209,709	-13,571	-0,137	0,063
-208,694	130,087	-0,122	-0,112
-207,679	99,686	-0,140	-0,115
-206,665	800,000	-0,008	0,019
-205,650	-86,266	0,072	-0,016
-204,636	800,000	-0,027	-0,064
-203,621	800,000	-0,012	-0,029
-202,606	-122,034	-0,019	0,002
-201,592	190,459	-0,063	0,068
-200,577	364,491	0,023	-0,034
-199,563	-4,472	-0,069	-0,034
-198,548	800,000	0,066	0,139
-197,533	-111,419	0,140	0,020
-196,519	240,846	0,037	-0,044
-195,504	-200,000	0,001	-0,039
-194,490	800,000	-0,023	0,055
-193,475	366,246	0,061	0,088
-192,460	784,288	-0,047	-0,092
-191,446	-200,000	0,048	0,183
-190,431	800,000	0,045	0,126
-189,417	115,734	0,048	-0,042
-188,402	45,511	-0,146	0,096
-187,387	51,463	-0,018	-0,012
-186,373	418,580	0,018	0,027
-185,358	12,058	0,055	-0,030
-184,344	-12,503	-0,075	-0,035
-183,329	375,272	0,082	0,120
-182,315	264,648	-0,074	0,092
-181,300	-64,565	-0,035	-0,010
-180,285	-200,000	-0,002	0,057
-179,271	229,706	0,045	-0,052
-178,256	-131,927	0,164	-0,015
-177,242	6,312	0,040	-0,021
-176,227	800,000	0,046	0,104
-175,212	-144,796	0,119	-0,008
-174,198	580,457	0,020	0,035
-173,183	-120,626	0,089	-0,011
-172,169	-170,170	-0,076	-0,002
-171,154	-200,000	-0,002	-0,044
-170,139	-200,000	-0,014	0,054
-169,125	282,812	0,057	0,074
-168,110	800,000	0,082	0,174
-167,096	721,826	0,027	0,052
-166,081	-18,986	0,028	0,012
-165,066	231,769	-0,042	0,050
-164,052	-196,043	-0,051	-0,000
-163,037	-200,000	-0,000	-0,014
-162,023	-39,822	0,079	-0,029
-161,008	-11,968	0,070	0,032
-159,993	20,697	0,065	-0,037
-158,979	231,744	-0,076	0,089
-157,964	-200,000	-0,073	-0,000
-156,950	209,162	0,035	-0,039
-155,935	41,577	0,104	0,067
-154,920	-93,602	-0,048	-0,009
-153,906	-200,000	-0,011	0,106
-152,891	-200,000	0,014	-0,092
-151,877	-200,000	0,023	-0,097
-150,862	-200,000	-0,010	-0,059
-149,847	313,501	-0,113	-0,152
-148,833	-4,984	0,076	-0,037
-147,818	228,084	-0,080	0,093
-146,804	664,987	0,035	-0,065
-145,789	-74,029	0,086	-0,022
-144,775	24,653	0,143	0,084
-143,760	-78,248	-0,121	-0,029
-142,745	-200,000	-0,013	-0,066
-141,731	800,000	-0,067	-0,160
-140,716	645,160	0,031	-0,056
-139,702	800,000	-0,031	-0,063
-138,687	-151,854	-0,074	-0,004
-137,672	-163,570	0,068	0,002
-136,658	397,051	0,074	-0,111
-135,643	345,546	0,030	-0,042
-134,629	-200,000	0,000	0,057
-133,614	38,047	0,013	-0,008
-132,599	800,000	-0,043	-0,118
-131,585	89,382	-0,030	0,024
-130,570	800,000	-0,049	0,115
-129,556	-40,880	0,065	-0,024
-128,541	-200,000	0,016	0,074
-127,526	692,870	-0,050	-0,094
-126,512	39,546	0,067	0,043
-125,497	-200,000	0,049	0,182
-124,483	-144,603	0,105	0,007
-123,468	-200,000	0,011	-0,121
-122,453	704,010	-0,063	-0,118
-121,439	800,000	0,020	-0,044
-120,424	-128,345	-0,141	0,014
-119,410	800,000	0,041	0,128
-118,395	-173,019	-0,040	0,001
-117,380	45,353	0,060	0,039
-116,366	-157,039	0,018	-0,001
-115,351	-200,000	-0,016	-0,095
-114,337	185,227	-0,042	0,044
-113,322	-200,000	0,026	-0,119
-112,307	-18,364	0,052	0,023
-111,293	167,633	0,066	-0,067
-110,278	-178,805	0,082	0,001
-109,264	-123,466	0,093	-0,010
-108,249	-112,628	0,099	0,014
-107,234	670,754	-0,067	-0,124
-106,220	-200,000	-0,000	-0,038
-105,205	-116,014	-0,081	0,011
-104,191	800,000	-0,026	0,055
-103,176	-8,170	-0,086	0,041
-102,162	-200,000	-0,012	0,163
-101,147	-200,000	-0,007	0,051
-100,132	382,333	-0,033	-0,048
-99,118	800,000	0,019	-0,046
-98,103	-200,000	-0,002	-0,040
-97,089	123,064	-0,083	0,074
-96,074	84,396	0,112	0,087
-95,059	-162,308	-0,074	0,003
-94,045	236,699	0,074	0,088
-93,030	128,553	0,147	-0,133
-92,016	-68,765	-0,072	0,020
-91,001	-200,000	-0,024	-0,147
-89,986	209,766	-0,064	0,072
-88,972	-104,611	0,132	-0,021
-87,957	1,810	-0,098	-0,050
-86,943	669,272	0,052	-0,096
-85,928	422,460	0,081	-0,123
-84,913	114,315	-0,075	-0,065
-83,899	796,528	0,042	0,082
-82,884	-117,490	-0,093	-0,012
-81,870	-114,838	0,135	0,018
-80,855	118,570	0,146	0,128
-79,840	800,000	-0,066	0,175
-78,826	-106,643	0,066	-0,010
-77,811	302,066	-0,048	0,063
-76,797	-200,000	0,001	-0,070
-75,782	-180,381	-0,060	0,001
-74,767	60,275	0,098	-0,068
-73,753	499,199	0,094	0,154
-72,738	-92,581	0,040	0,008
-71,724	509,847	0,017	-0,028
-70,709	-112,704	0,063	-0,009
-69,694	800,000	0,031	-0,084
-68,680	800,000	0,015	-0,040
-67,665	-5,377	0,007	-0,003
-66,651	2,767	-0,112	0,057
-65,636	30,942	0,088	-0,053
-64,622	-95,099	0,031	0,006
-63,607	-101,917	-0,121	-0,021
-62,592	-108,489	0,067	-0,010
-61,578	-43,867	-0,179	-0,064
-60,563	624,184	-0,007	-0,013
-59,549	471,629	-0,062	0,099
-58,534	-79,243	-1,280	-0,306
-57,519	391,212	-1,508	-2,229
-56,505	-200,000	-0,557	-4,506
-55,490	47,648	1,007	0,666
-54,476	800,000	4,790	11,326
-53,461	-200,000	17,226	268,059
-52,446	800,000	714,436	2179,358
-51,432	552,138	1629,091	2786,820
-50,417	81,501	1655,104	1268,729
-49,403	24,459	1529,547	895,210
-48,388	18,469	1452,884	821,510
-47,373	18,547	1442,426	815,938
-46,359	18,339	1433,286	809,745
-45,344	16,833	1428,423	799,820
-44,330	16,760	1426,556	798,397
-43,315	16,731	1424,866	797,283
-42,300	16,794	1423,180	796,604
-41,286	16,829	1421,974	796,063
-40,271	16,735	1420,893	794,981
-39,257	16,706	1419,697	794,147
-38,242	16,811	1418,199	793,771
-37,227	16,810	1417,044	793,086
-36,213	16,736	1415,773	791,996
-35,198	16,750	1414,702	791,430
-34,184	16,740	1413,870	790,887
-33,169	16,713	1412,521	789,975
-32,154	16,782	1411,291	789,582
-31,140	16,803	1410,125	788,997
-30,125	16,798	1409,009	788,315
-29,111	16,788	1407,850	787,587
-28,096	16,759	1406,756	786,810
-27,082	16,715	1405,603	785,927
-26,067	16,669	1404,435	785,031
-25,052	16,673	1403,525	784,511
-24,038	16,658	1402,427	783,794
-23,023	16,681	1401,323	783,251
-22,009	16,600	1400,433	782,349
-20,994	16,595	1399,505	781,776
-19,979	16,646	1398,649	781,503
-18,965	16,597	1397,780	780,759
-17,950	16,628	1396,668	780,252
-16,936	16,663	1395,723	779,853
-15,921	16,577	1394,537	778,761
-14,906	16,569	1393,679	778,212
-13,892	16,599	1392,835	777,851
-12,877	16,614	1391,731	777,274
-11,863	16,594	1390,870	776,669
-10,848	16,590	1390,140	776,213
-9,833	16,564	1389,184	775,528
-8,819	16,589	1388,098	775,005
-7,804	16,524	1387,211	774,179
-6,790	16,520	1386,065	773,490
-5,775	16,501	1385,159	772,868
-4,760	16,499	1384,341	772,371
-3,746	16,432	1383,727	771,692
-2,731	16,421	1382,748	771,062
-1,717	16,409	1381,775	770,435
-0,702	16,443	1379,839	769,480
0,313	20,284	1301,795	743,649
1,327	36,732	707,739	442,461
2,342	56,635	125,750	86,635
3,356	7,194	16,592	8,752
4,371	14,409	3,175	1,751
5,386	-12,416	0,404	0,186
6,400	800,000	0,048	0,119
7,415	-200,000	-0,256	0,000
8,429	130,087	-0,186	-0,169
9,444	102,621	-0,248	-0,206
10,459	51,433	-0,359	-0,241
11,473	-192,727	-0,275	-0,002
12,488	190,626	-0,152	-0,162
13,502	61,458	-0,380	-0,267
14,517	101,525	-0,296	-0,245
15,531	-40,714	-0,305	-0,111
16,546	174,039	-0,370	-0,379
17,561	254,317	-0,305	-0,370
18,575	-125,880	-0,146	0,015
19,590	149,216	-0,195	-0,187
20,604	-22,234	-0,302	-0,129
21,619	48,172	-0,466	-0,308
22,634	314,538	-0,404	-0,540
23,648	578,161	-0,232	-0,403
24,663	28,210	-0,410	-0,244
25,677	43,482	-0,311	-0,201
26,692	24,398	-0,293	-0,171
27,707	67,917	-0,358	-0,259
28,721	37,523	-0,380	-0,238
29,736	202,079	-0,376	-0,410
30,750	18,173	-0,485	-0,273
31,765	19,624	-0,360	-0,204
32,780	184,290	-0,279	-0,292
33,794	131,702	-0,304	-0,276
34,809	119,568	-0,341	-0,298
35,823	119,145	-0,236	-0,206
36,838	82,670	-0,395	-0,303
37,853	105,670	-0,416	-0,347
38,867	135,788	-0,367	-0,338
39,882	45,826	-0,370	-0,241
40,896	96,064	-0,224	-0,181
41,911	-8,669	-0,261	-0,123
42,926	-52,131	-0,314	-0,102
43,940	204,886	-0,306	-0,336
44,955	127,103	-0,332	-0,298
45,969	18,848	-0,129	-0,073
46,984	95,920	-0,366	-0,295
47,999	254,907	-0,218	-0,264
49,013	79,236	-0,340	-0,257
50,028	800,000	-0,118	-0,271
51,042	109,584	-0,347	-0,294
52,057	85,730	-0,379	-0,294
53,071	676,589	-0,161	-0,297
54,086	145,095	-0,241	-0,228
55,101	24,969	-0,462	-0,270
56,115	80,773	-0,253	-0,193
57,130	28,468	-0,324	-0,193
58,144	-67,367	-0,436	-0,120
59,159	116,216	-0,321	-0,277
60,174	41,222	-0,321	-0,204
61,188	14,239	-0,498	-0,273
62,203	-49,626	-0,335	-0,112
63,217	55,764	-0,389	-0,265
64,232	54,414	-0,334	-0,226
65,247	71,660	-0,235	-0,172
66,261	31,614	-0,357	-0,216
67,276	190,948	-0,258	-0,274
68,290	-12,357	-0,385	-0,177
69,305	93,138	-0,287	-0,228
70,320	-43,772	-0,326	-0,115
71,334	82,008	-0,372	-0,283
72,349	-33,258	-0,348	-0,135
73,363	112,617	-0,335	-0,286
74,378	112,122	-0,187	-0,159
75,393	19,374	-0,310	-0,175
76,407	-51,061	-0,315	-0,103
77,422	97,094	-0,289	-0,233
78,436	354,178	-0,308	-0,432
79,451	17,222	-0,335	-0,187
80,466	28,543	-0,325	-0,193
81,480	7,095	-0,284	-0,149
82,495	41,519	-0,294	-0,187
83,509	66,879	-0,237	-0,170
84,524	117,273	-0,148	-0,128
85,539	129,558	-0,278	-0,250
86,553	-36,481	-0,339	-0,128
87,568	473,731	-0,173	-0,275
88,582	19,699	-0,243	-0,137
89,597	233,315	-0,327	-0,379
90,611	-13,772	-0,218	-0,099
91,626	415,279	-0,103	-0,155
92,641	146,067	-0,201	-0,189
93,655	79,128	-0,321	-0,242
94,670	-48,559	-0,390	-0,131
95,684	158,822	-0,247	-0,241
96,699	192,255	-0,249	-0,265
97,714	176,854	-0,252	-0,258
98,728	145,728	-0,235	-0,221
99,743	14,172	-0,251	-0,137
100,757	24,151	-0,294	-0,170
101,772	134,519	-0,233	-0,212
102,787	-75,893	-0,483	-0,119
103,801	53,041	-0,335	-0,225
104,816	-74,938	-0,231	-0,058
105,830	758,234	-0,136	-0,259
106,845	3,387	-0,227	-0,116
107,860	97,895	-0,303	-0,244
108,874	90,817	-0,351	-0,277
109,889	85,249	-0,268	-0,206
110,903	116,661	-0,295	-0,254
111,918	-66,206	-0,245	-0,068
112,933	104,944	-0,160	-0,132
113,947	243,973	-0,193	-0,228
114,962	-69,519	-0,188	-0,050
115,976	5,532	-0,290	-0,150
116,991	429,466	-0,223	-0,340
118,006	39,457	-0,271	-0,170
119,020	278,555	-0,208	-0,260
120,035	184,894	-0,132	-0,138
121,049	-27,623	-0,197	-0,080
122,064	37,903	-0,311	-0,194
123,079	177,194	-0,185	-0,189
124,093	444,984	-0,120	-0,185
125,108	80,256	-0,272	-0,205
126,122	662,388	-0,125	-0,228
127,137	-97,499	-0,310	-0,056
128,151	37,675	-0,274	-0,170
129,166	-1,949	-0,237	-0,117
130,181	-52,432	-0,275	-0,089
131,195	-16,763	-0,336	-0,149
132,210	115,136	-0,317	-0,271
133,224	-36,652	-0,272	-0,102
134,239	288,042	-0,218	-0,278
135,254	-109,819	-0,261	-0,038
136,268	11,342	-0,223	-0,119
137,283	49,032	-0,189	-0,124
138,297	-80,188	-0,245	-0,057
139,312	39,865	-0,378	-0,237
140,327	105,473	-0,404	-0,334
141,341	-13,665	-0,180	-0,081
142,356	86,649	-0,303	-0,234
143,370	247,330	-0,219	-0,260
144,385	10,294	-0,379	-0,201
145,400	-30,683	-0,325	-0,128
146,414	145,953	-0,222	-0,209
147,429	549,880	-0,195	-0,329
148,443	31,856	-0,247	-0,148
149,458	-20,171	-0,217	-0,093
150,473	66,589	-0,218	-0,155
151,487	-42,821	-0,270	-0,095
152,502	-176,280	-0,301	0,005
153,516	192,458	-0,214	-0,226
154,531	523,527	-0,077	-0,127
155,546	37,828	-0,186	-0,115
156,560	83,155	-0,236	-0,180
157,575	-50,177	-0,218	-0,072
158,589	-25,575	-0,234	-0,096
159,604	41,157	-0,231	-0,146
160,619	115,848	-0,203	-0,173
161,633	282,684	-0,201	-0,253
162,648	101,598	-0,229	-0,187
163,662	162,731	-0,173	-0,170
164,677	142,435	-0,136	-0,126
165,692	22,750	-0,264	-0,151
166,706	164,820	-0,223	-0,220
167,721	70,447	-0,206	-0,148
168,735	118,055	-0,264	-0,228
169,750	146,256	-0,160	-0,150
170,764	22,750	-0,292	-0,167
171,779	93,526	-0,181	-0,143
172,794	84,496	-0,247	-0,189
173,808	-112,186	-0,306	-0,042
174,823	239,935	-0,213	-0,248
175,837	189,405	-0,196	-0,205
176,852	345,617	-0,134	-0,184
177,867	10,069	-0,109	-0,058
178,881	137,649	-0,149	-0,136
179,896	-25,259	-0,134	-0,055
180,910	-67,305	-0,235	-0,064
181,925	-86,804	-0,272	-0,058
182,940	70,936	-0,220	-0,159
183,954	158,668	-0,209	-0,202
184,969	107,525	-0,307	-0,255
185,983	118,983	-0,226	-0,195
186,998	188,419	-0,197	-0,206
188,013	-31,312	-0,301	-0,118
189,027	41,318	-0,302	-0,190
190,042	236,986	-0,218	-0,252
191,056	76,229	-0,174	-0,128
192,071	141,012	-0,188	-0,173
193,086	299,350	-0,120	-0,155
194,100	-7,295	-0,261	-0,123
195,115	800,000	-0,083	-0,162
196,129	-200,000	-0,252	0,001
197,144	800,000	-0,091	-0,190
198,159	124,253	-0,211	-0,185
199,173	175,629	-0,197	-0,200
200,188	450,087	-0,102	-0,157
201,202	79,271	-0,260	-0,194
202,217	-30,412	-0,201	-0,079
203,232	168,130	-0,275	-0,273
204,246	204,985	-0,177	-0,191
205,261	282,795	-0,160	-0,201
206,275	-167,953	-0,158	-0,004
207,290	-5,431	-0,180	-0,086
208,304	-200,000	-0,029	-0,100
209,319	-13,189	-0,322	-0,145
210,334	35,737	-0,286	-0,175
211,348	381,566	-0,165	-0,236
212,363	38,092	-0,163	-0,101
213,377	-50,008	-0,203	-0,066
214,392	175,114	-0,185	-0,186
215,407	-200,000	-0,044	-0,186
216,421	111,803	-0,183	-0,154
217,436	250,589	-0,150	-0,178
218,450	184,285	-0,218	-0,225
219,465	148,111	-0,162	-0,152
220,480	-200,000	-0,022	-0,157
221,494	-33,164	-0,246	-0,094
222,509	-43,984	-0,142	0,049
223,523	93,168	-0,247	-0,194
224,538	-0,719	-0,280	-0,138
225,553	105,838	-0,160	-0,131
226,567	181,673	-0,212	-0,218
227,582	469,819	-0,152	-0,237
228,596	185,756	-0,171	-0,177
229,611	46,182	-0,222	-0,143
230,626	28,707	-0,178	-0,104
231,640	77,146	-0,095	-0,070
232,655	-168,794	-0,135	-0,003
233,669	126,507	-0,207	-0,182
234,684	149,437	-0,194	-0,182
235,699	800,000	-0,053	-0,135
236,713	-32,106	-0,201	-0,078
237,728	318,362	-0,086	-0,113
238,742	209,153	-0,151	-0,164
239,757	361,996	-0,168	-0,235
240,772	2,797	-0,313	-0,157
241,786	164,571	-0,171	-0,167
242,801	102,876	-0,199	-0,162
243,815	800,000	-0,032	-0,079
244,830	25,207	-0,127	-0,073
245,844	-7,509	-0,142	-0,066
246,859	93,434	-0,166	-0,131
247,874	-59,955	-0,179	0,053
248,888	226,115	-0,251	-0,283
249,903	-20,250	-0,197	-0,084
250,917	245,252	-0,099	-0,116
251,932	-9,003	-0,178	-0,082
252,947	-3,032	-0,240	-0,116
253,961	-95,090	-0,147	-0,027
254,976	173,560	-0,223	-0,223
255,990	380,508	-0,101	-0,145
257,005	60,972	-0,198	-0,136
258,020	318,201	-0,144	-0,190
259,034	-58,761	-0,124	-0,037
260,049	-70,179	-0,211	-0,055
261,063	-84,123	-0,258	-0,056
262,078	323,902	-0,208	-0,276
263,093	138,580	-0,170	-0,155
264,107	633,969	-0,126	-0,222
265,122	69,876	-0,140	-0,100
266,136	-24,550	-0,228	-0,093
267,151	16,294	-0,220	-0,120
268,166	176,723	-0,187	-0,188
269,180	15,172	-0,152	-0,082
270,195	-63,496	-0,145	-0,041
271,209	31,661	-0,192	-0,114
272,224	121,452	-0,156	-0,135
273,239	-88,983	-0,162	-0,033
274,253	800,000	-0,078	-0,190
275,268	169,845	-0,214	-0,212
276,282	800,000	-0,128	-0,256
277,297	800,000	-0,089	-0,234
278,312	206,006	-0,169	-0,182
279,326	105,861	-0,115	-0,094
280,341	70,505	-0,099	-0,071
281,355	-56,244	-0,268	-0,082
282,370	-75,001	-0,271	-0,067
283,384	436,391	-0,151	-0,228
284,399	312,176	-0,233	-0,303
285,414	50,398	-0,088	-0,058
286,428	800,000	-0,082	-0,204
287,443	800,000	-0,050	-0,107
288,457	-161,051	-0,122	-0,004
289,472	254,516	-0,114	-0,135
290,487	270,651	-0,148	-0,181
291,501	137,033	-0,160	-0,145
292,516	246,232	-0,114	-0,133
293,530	-69,003	-0,158	0,042
294,545	126,257	-0,133	-0,117
295,560	-71,587	-0,178	0,046
296,574	-151,151	-0,068	-0,003
297,589	120,927	-0,129	-0,111
298,603	197,857	-0,150	-0,158
299,618	-137,436	-0,171	0,013
300,633	-50,841	-0,134	-0,043
301,647	43,844	-0,172	-0,109
302,662	-33,623	-0,247	-0,094
303,676	173,532	-0,112	-0,112
304,691	250,574	-0,129	-0,152
305,706	-65,989	-0,155	0,042
306,720	-90,287	-0,182	0,036
307,735	164,888	-0,061	-0,059
308,749	-200,000	-0,024	-0,155
309,764	38,117	-0,184	-0,113
310,779	-90,768	-0,094	-0,019
311,793	43,383	-0,073	-0,046
312,808	10,493	-0,189	-0,099
313,822	-72,871	-0,273	-0,069
314,837	393,052	-0,115	-0,166
315,852	2,616	-0,178	-0,089
316,866	-200,000	-0,001	-0,037
317,881	-74,785	-0,152	-0,037
318,895	-70,948	-0,114	-0,029
319,910	164,282	-0,184	-0,179
320,925	249,721	-0,114	-0,133
321,939	-99,530	-0,162	-0,028
322,954	6,106	-0,154	-0,078
323,968	800,000	-0,072	-0,165
324,983	-30,214	-0,132	-0,051
325,997	-1,772	-0,236	-0,114
327,012	-44,030	-0,177	-0,061
328,027	800,000	-0,074	-0,161
329,041	330,680	-0,133	-0,177
330,056	182,463	-0,136	-0,138
331,070	800,000	-0,077	-0,155
332,085	160,962	-0,113	-0,109
333,100	-25,573	-0,144	-0,058
334,114	129,398	-0,151	-0,133
335,129	153,169	-0,141	-0,133
336,143	-88,270	-0,161	-0,033
337,158	49,825	-0,146	-0,094
338,173	304,782	-0,160	-0,205
339,187	70,862	-0,131	-0,093
340,202	-200,000	-0,012	-0,138
341,216	14,326	-0,100	-0,053
342,231	241,845	-0,121	-0,140
343,246	193,170	-0,101	-0,105
344,260	-172,668	-0,205	-0,004
345,275	22,173	-0,244	-0,137
346,289	166,429	-0,083	0,081
347,304	-94,283	-0,040	-0,007
348,319	118,996	-0,119	-0,101
349,333	98,452	-0,136	-0,108
350,348	-149,142	-0,118	-0,006
351,362	519,555	-0,115	-0,186
352,377	381,519	-0,058	0,083
353,392	-145,748	-0,151	-0,009
354,406	-200,000	0,020	-0,111
355,421	210,228	1315,446	1421,198
356,435	161,840	1476,284	1421,743
