DTS Sentinel unit serial number:	SN410029Multiplexer serial number:	ORYXHardware model number:	OX2-SRSoftware version number:	ORYX F/W v4,00 Oryx Data Collector v3.7.2.0data status	okinstallation	B3 Nyhavnadifferential loss correction	single-endedforward channel	channel 1reverse channel	N/Adate	2023/12/01time	11:42:30forward acquisition time	300,00reverse acquisition time	0,00gamma	499,1914k internal	0,3213k external	0,3213temperature offset calibration	1,0000default loss term (dB/km)	0,3820temperature slope calibration	1,0000multiplexer offset coefficient	1,0000multiplexer slope coefficient	1,0000fibre end	0,00T internal ref (°C)	8,54T ext. ref 1 (°C)	-5,43T ext. ref 2 (°C)	-5,53length (m)	temperature (°C)	Stokes	anti-Stokes-744,400	800,000	-0,063	-0,147
-743,385	-200,000	0,016	0,233
-742,371	11,829	-0,200	-0,111
-741,356	-200,000	-0,044	0,195
-740,342	800,000	-0,063	-0,133
-739,327	-200,000	-0,035	0,393
-738,312	671,485	-0,172	-0,325
-737,298	695,458	-0,071	0,135
-736,283	-200,000	-0,033	-0,309
-735,269	-200,000	-0,053	0,421
-734,254	-34,025	-0,298	-0,118
-733,239	-38,543	-0,222	0,085
-732,225	152,333	-0,097	-0,096
-731,210	-200,000	-0,005	0,098
-730,196	153,263	0,069	0,069
-729,181	-200,000	0,023	0,093
-728,167	85,147	-0,005	-0,004
-727,152	800,000	0,027	-0,078
-726,137	76,452	-0,113	0,086
-725,123	379,423	-0,094	0,139
-724,108	-200,000	-0,022	-0,160
-723,094	114,993	-0,103	-0,091
-722,079	-126,458	0,121	0,013
-721,064	-200,000	0,027	-0,127
-720,050	562,171	-0,080	0,140
-719,035	-46,354	0,073	0,026
-718,021	-200,000	-0,013	0,079
-717,006	499,348	-0,021	0,035
-715,991	-122,486	-0,081	-0,009
-714,977	179,014	-0,075	-0,079
-713,962	-200,000	0,016	-0,124
-712,948	-123,344	0,068	-0,008
-711,933	559,868	0,020	-0,034
-710,918	-130,104	-0,156	0,015
-709,904	-17,440	0,008	0,004
-708,889	-117,688	-0,051	-0,007
-707,875	337,305	0,076	-0,107
-706,860	800,000	-0,012	-0,024
-705,845	-79,154	0,058	-0,014
-704,831	-200,000	0,022	0,087
-703,816	-165,438	-0,135	0,004
-702,802	-58,241	0,152	0,047
-701,787	800,000	-0,097	0,244
-700,772	4,848	-0,048	0,026
-699,758	-200,000	0,011	0,066
-698,743	19,013	-0,021	0,012
-697,729	-52,561	0,063	-0,021
-696,714	-200,000	0,016	0,085
-695,699	302,662	0,081	-0,108
-694,685	212,298	-0,016	-0,018
-693,670	-200,000	-0,025	0,102
-692,656	800,000	0,053	0,126
-691,641	440,916	0,090	0,142
-690,627	233,470	0,057	-0,068
-689,612	-200,000	-0,005	-0,042
-688,597	-36,312	-0,062	-0,024
-687,583	-47,911	-0,263	-0,092
-686,568	800,000	-0,052	-0,128
-685,554	107,061	-0,103	0,089
-684,539	446,591	0,041	-0,066
-683,524	132,631	-0,095	0,089
-682,510	-2,110	0,006	0,003
-681,495	-200,000	0,008	0,034
-680,481	-79,586	-0,017	-0,004
-679,466	-70,812	-0,067	0,018
-678,451	-200,000	0,005	-0,124
-677,437	-200,000	0,006	-0,022
-676,422	-200,000	-0,007	0,068
-675,408	-200,000	0,046	0,168
-674,393	311,077	-0,069	-0,094
-673,378	192,061	0,046	0,050
-672,364	-121,295	-0,030	0,004
-671,349	23,050	-0,036	-0,021
-670,335	-200,000	-0,009	0,137
-669,320	-35,180	-0,021	-0,008
-668,305	-133,188	0,077	-0,007
-667,291	-200,000	-0,001	0,011
-666,276	228,536	-0,042	-0,049
-665,262	800,000	0,069	-0,170
-664,247	-200,000	0,028	0,105
-663,232	134,031	-0,070	-0,066
-662,218	-200,000	0,047	0,159
-661,203	-94,003	-0,130	0,026
-660,189	-22,139	0,013	0,006
-659,174	-93,491	0,037	-0,007
-658,159	726,219	-0,025	0,048
-657,145	177,716	0,068	0,071
-656,130	-23,217	-0,026	0,011
-655,116	800,000	-0,029	-0,067
-654,101	12,775	0,044	0,024
-653,086	119,345	-0,013	-0,011
-652,072	-5,704	0,124	-0,061
-651,057	-93,084	0,037	-0,007
-650,043	-89,960	-0,047	-0,010
-649,028	50,227	-0,033	0,022
-648,014	800,000	0,035	0,082
-646,999	190,897	-0,072	0,078
-645,984	-200,000	-0,002	-0,076
-644,970	-81,889	-0,166	0,039
-643,955	-175,534	-0,139	0,003
-642,941	76,789	-0,107	0,082
-641,926	800,000	-0,056	-0,121
-640,911	148,989	-0,048	0,047
-639,897	225,961	0,041	-0,048
-638,882	26,664	0,073	0,044
-637,868	-200,000	-0,008	0,058
-636,853	-37,387	-0,134	-0,052
-635,838	-153,711	-0,064	0,003
-634,824	800,000	-0,005	0,015
-633,809	51,033	0,081	0,055
-632,795	774,775	0,016	0,032
-631,780	-161,448	-0,117	0,004
-630,765	-200,000	-0,010	-0,127
-629,751	75,680	-0,069	0,052
-628,736	-31,433	0,180	-0,073
-627,722	33,507	0,039	0,025
-626,707	-54,330	0,162	0,053
-625,692	-200,000	0,012	-0,064
-624,678	136,767	-0,031	0,029
-623,663	-189,706	-0,063	0,001
-622,649	6,936	0,071	-0,038
-621,634	-23,993	0,032	0,014
-620,619	-41,643	0,088	-0,032
-619,605	31,565	-0,053	-0,033
-618,590	-200,000	0,017	-0,063
-617,576	278,400	0,134	0,173
-616,561	85,522	0,091	-0,072
-615,546	-158,928	-0,162	-0,007
-614,532	-200,000	-0,024	0,076
-613,517	267,998	-0,030	-0,038
-612,503	-200,000	-0,031	-0,105
-611,488	-50,773	-0,090	-0,030
-610,474	-200,000	0,014	0,131
-609,459	-87,998	0,138	0,030
-608,444	128,361	-0,057	0,052
-607,430	99,613	-0,115	0,096
-606,415	54,480	-0,094	-0,065
-605,401	-44,044	0,068	-0,024
-604,386	66,501	-0,195	0,142
-603,371	-200,000	0,008	-0,122
-602,357	-64,358	-0,110	-0,032
-601,342	-200,000	-0,020	0,069
-600,328	-200,000	0,008	-0,123
-599,313	-83,660	-0,173	0,040
-598,298	335,445	-0,021	-0,029
-597,284	638,997	-0,071	0,130
-596,269	-115,106	0,081	-0,011
-595,255	123,896	-0,036	-0,033
-594,240	-199,429	-0,108	0,000
-593,225	-91,016	-0,021	0,004
-592,211	659,309	0,041	-0,077
-591,196	563,225	-0,027	0,048
-590,182	-200,000	-0,004	-0,041
-589,167	162,069	0,131	0,132
-588,152	-200,000	-0,013	0,113
-587,138	-69,819	0,124	-0,034
-586,123	-43,385	-0,008	-0,003
-585,109	-200,000	-0,016	-0,070
-584,094	800,000	-0,042	-0,093
-583,079	800,000	0,008	0,019
-582,065	-200,000	0,013	0,102
-581,050	-68,752	0,078	0,021
-580,036	-200,000	0,004	0,078
-579,021	-200,000	-0,000	-0,028
-578,006	-58,814	0,083	-0,026
-576,992	-63,166	-0,154	0,045
-575,977	343,551	-0,037	0,053
-574,963	65,582	-0,070	0,051
-573,948	577,425	-0,054	0,096
-572,934	-200,000	-0,018	0,107
-571,919	800,000	-0,033	0,082
-570,904	540,025	0,054	-0,094
-569,890	-47,691	0,005	-0,002
-568,875	-9,998	-0,041	-0,019
-567,861	4,900	-0,129	0,068
-566,846	-200,000	0,009	0,048
-565,831	800,000	-0,053	-0,114
-564,817	175,906	0,116	-0,121
-563,802	799,494	0,046	0,093
-562,788	683,544	0,008	-0,014
-561,773	56,819	0,088	-0,062
-560,758	-170,205	0,027	-0,001
-559,744	242,666	0,033	0,040
-558,729	-80,366	0,113	-0,027
-557,715	-200,000	0,026	-0,116
-556,700	610,656	-0,025	-0,044
-555,685	322,734	0,053	0,073
-554,671	-144,355	-0,088	0,006
-553,656	11,023	0,081	0,044
-552,642	-200,000	-0,003	0,033
-551,627	477,421	-0,058	-0,095
-550,612	-200,000	-0,015	-0,115
-549,598	-200,000	0,009	-0,070
-548,583	-200,000	0,001	0,066
-547,569	-103,238	0,047	0,008
-546,554	22,833	0,026	-0,015
-545,539	464,976	0,021	-0,034
-544,525	800,000	0,016	0,048
-543,510	800,000	-0,027	0,074
-542,496	340,069	-0,033	0,046
-541,481	206,137	-0,051	-0,057
-540,466	115,069	0,026	0,023
-539,452	-62,175	-0,147	-0,044
-538,437	-101,533	0,259	0,045
-537,423	356,417	-0,088	0,126
-536,408	106,934	-0,103	-0,088
-535,393	800,000	0,035	0,070
-534,379	21,703	-0,089	-0,052
-533,364	110,136	-0,096	-0,083
-532,350	-28,356	-0,118	-0,049
-531,335	-200,000	0,037	0,137
-530,321	331,507	-0,042	0,059
-529,306	-19,944	-0,126	0,056
-528,291	-29,351	-0,043	0,018
-527,277	-200,000	-0,010	-0,058
-526,262	-200,000	-0,024	0,079
-525,248	-34,959	0,075	0,029
-524,233	73,195	0,032	0,024
-523,218	579,080	0,074	-0,130
-522,204	708,153	0,030	0,057
-521,189	-117,186	-0,180	-0,023
-520,175	-200,000	-0,010	-0,172
-519,160	96,150	0,095	-0,078
-518,145	-176,065	-0,060	-0,001
-517,131	-162,187	0,042	0,001
-516,116	-200,000	0,014	0,076
-515,102	-200,000	0,020	0,071
-514,087	320,251	0,040	0,054
-513,072	97,670	-0,037	0,031
-512,058	327,743	-0,058	-0,081
-511,043	-26,320	0,091	0,038
-510,029	-119,900	-0,031	0,004
-509,014	-24,227	0,094	-0,040
-507,999	-67,546	-0,139	0,039
-506,985	-115,699	-0,077	-0,010
-505,970	-200,000	-0,019	-0,069
-504,956	800,000	0,033	-0,096
-503,941	256,232	-0,099	0,123
-502,926	800,000	0,110	-0,279
-501,912	-112,288	0,108	0,015
-500,897	-200,000	0,003	0,063
-499,883	543,894	0,019	0,033
-498,868	-200,000	-0,036	-0,123
-497,853	800,000	-0,094	-0,257
-496,839	95,654	0,081	0,066
-495,824	63,319	0,056	-0,040
-494,810	-15,060	0,171	-0,078
-493,795	1,795	0,044	0,023
-492,781	800,000	-0,009	0,024
-491,766	-200,000	-0,026	-0,085
-490,751	-111,057	-0,091	-0,013
-489,737	513,644	0,026	-0,044
-488,722	800,000	0,051	0,105
-487,708	474,227	-0,045	-0,073
-486,693	-200,000	0,006	-0,066
-485,678	-57,477	-0,025	0,008
-484,664	114,530	0,046	-0,040
-483,649	-200,000	0,037	-0,184
-482,635	-168,647	-0,173	0,005
-481,620	800,000	-0,084	0,207
-480,605	237,381	0,067	-0,080
-479,591	161,950	-0,049	0,050
-478,576	800,000	0,023	0,049
-477,562	187,385	-0,088	-0,095
-476,547	-200,000	-0,020	-0,195
-475,532	443,379	0,032	-0,051
-474,518	-111,546	-0,018	0,003
-473,503	800,000	-0,033	0,086
-472,489	-200,000	-0,010	0,055
-471,474	-72,596	0,100	0,026
-470,459	-22,106	0,063	-0,027
-469,445	124,896	-0,066	-0,059
-468,430	-200,000	0,000	0,078
-467,416	-175,112	-0,141	-0,003
-466,401	-157,881	0,074	0,003
-465,386	578,007	-0,065	0,114
-464,372	202,710	0,048	0,054
-463,357	-38,108	0,070	0,026
-462,343	6,841	-0,072	-0,038
-461,328	-108,350	-0,066	0,010
-460,313	137,443	0,116	0,108
-459,299	-6,767	0,015	-0,007
-458,284	800,000	0,022	-0,049
-457,270	-200,000	0,016	-0,086
-456,255	-23,846	-0,091	-0,039
-455,241	800,000	0,033	-0,069
-454,226	-98,236	-0,156	-0,028
-453,211	-45,581	-0,087	0,031
-452,197	-29,694	0,117	-0,048
-451,182	-200,000	0,002	0,225
-450,168	-6,809	0,043	0,021
-449,153	-155,071	0,204	-0,009
-448,138	37,530	-0,075	0,048
-447,124	-200,000	-0,023	-0,077
-446,109	298,759	-0,029	0,039
-445,095	131,042	0,054	0,049
-444,080	-114,540	0,109	-0,015
-443,065	800,000	-0,026	-0,076
-442,051	-15,878	-0,113	-0,052
-441,036	800,000	-0,052	-0,122
-440,022	77,822	0,051	-0,039
-439,007	-60,801	-0,081	-0,024
-437,992	-200,000	0,002	-0,009
-436,978	-200,000	0,006	0,037
-435,963	-84,952	-0,047	-0,011
-434,949	593,198	-0,038	0,067
-433,934	-148,948	-0,115	0,007
-432,919	433,515	-0,059	-0,092
-431,905	542,445	-0,015	0,026
-430,890	575,449	0,026	0,046
-429,876	800,000	0,037	0,097
-428,861	719,482	-0,053	0,102
-427,846	89,383	-0,023	0,018
-426,832	-190,191	0,066	0,001
-425,817	-169,688	0,067	0,002
-424,803	-171,427	-0,057	-0,001
-423,788	-84,759	0,094	-0,021
-422,773	610,585	0,066	-0,119
-421,759	-164,235	-0,098	-0,003
-420,744	355,409	-0,011	-0,015
-419,730	17,145	-0,101	-0,057
-418,715	628,405	-0,032	0,057
-417,701	208,779	-0,125	-0,140
-416,686	800,000	0,021	0,065
-415,671	-200,000	-0,022	0,128
-414,657	800,000	0,121	0,299
-413,642	508,544	0,083	0,139
-412,628	-200,000	0,010	0,073
-411,613	98,946	-0,065	-0,053
-410,598	-55,780	-0,061	-0,019
-409,584	88,724	0,030	-0,024
-408,569	-200,000	0,011	-0,054
-407,555	800,000	0,015	-0,041
-406,540	-200,000	-0,020	0,073
-405,525	-200,000	-0,010	0,069
-404,511	-200,000	0,008	0,065
-403,496	800,000	0,030	0,070
-402,482	-97,771	0,300	0,055
-401,467	-200,000	0,008	0,107
-400,452	124,892	-0,041	0,037
-399,438	-168,141	0,033	-0,001
-398,423	-200,000	-0,005	-0,121
-397,409	295,452	-0,047	0,062
-396,394	-167,369	-0,160	0,005
-395,379	-3,725	0,086	-0,043
-394,365	330,229	0,076	0,105
-393,350	240,603	0,070	0,083
-392,336	152,156	0,071	0,070
-391,321	-155,845	-0,158	-0,007
-390,306	800,000	0,018	-0,039
-389,292	-200,000	0,031	-0,120
-388,277	-200,000	-0,001	-0,064
-387,263	800,000	0,022	0,061
-386,248	47,810	0,134	0,089
-385,233	-3,888	-0,021	-0,010
-384,219	-190,279	0,038	0,000
-383,204	-200,000	-0,007	0,043
-382,190	64,939	0,127	0,091
-381,175	46,259	0,037	-0,024
-380,160	-200,000	0,032	0,103
-379,146	732,789	0,067	0,128
-378,131	-200,000	0,013	-0,108
-377,117	317,306	-0,125	-0,169
-376,102	800,000	-0,042	-0,100
-375,088	-26,769	-0,028	-0,012
-374,073	-200,000	0,001	0,014
-373,058	316,354	0,083	-0,113
-372,044	6,256	0,015	0,008
-371,029	88,130	-0,076	0,060
-370,015	117,507	0,154	0,135
-369,000	-29,459	-0,173	-0,070
-367,985	-38,269	-0,036	-0,013
-366,971	424,473	-0,070	-0,108
-365,956	-92,366	-0,083	0,016
-364,942	800,000	0,043	0,108
-363,927	85,181	0,064	-0,050
-362,912	132,395	-0,101	-0,093
-361,898	3,289	-0,024	0,013
-360,883	357,620	-0,041	-0,058
-359,869	800,000	0,026	-0,063
-358,854	-127,279	0,058	0,006
-357,839	437,678	0,088	-0,137
-356,825	96,729	-0,130	0,106
-355,810	30,206	-0,074	-0,045
-354,796	-37,540	0,051	-0,019
-353,781	5,954	-0,132	-0,069
-352,766	356,047	-0,003	0,004
-351,752	-200,000	-0,004	-0,047
-350,737	77,000	-0,031	-0,024
-349,723	16,636	0,032	0,018
-348,708	-35,536	0,037	0,014
-347,693	-200,000	-0,005	-0,066
-346,679	291,423	-0,046	0,060
-345,664	-200,000	-0,026	-0,098
-344,650	445,484	-0,084	0,132
-343,635	148,478	-0,093	-0,089
-342,620	41,945	0,149	0,096
-341,606	232,201	-0,078	0,091
-340,591	478,468	0,052	-0,084
-339,577	800,000	0,024	0,071
-338,562	-12,620	-0,071	-0,033
-337,548	-44,778	0,073	0,026
-336,533	86,340	0,072	0,056
-335,518	379,556	-0,041	-0,060
-334,504	800,000	0,015	0,033
-333,489	-182,259	0,103	-0,001
-332,475	79,147	-0,066	-0,050
-331,460	115,481	0,039	0,034
-330,445	98,638	-0,035	-0,029
-329,431	-199,879	0,103	-0,000
-328,416	118,328	0,077	-0,067
-327,402	800,000	0,039	-0,113
-326,387	-150,309	-0,089	-0,005
-325,372	-127,211	-0,148	0,015
-324,358	-93,260	-0,044	0,009
-323,343	-119,924	0,158	0,019
-322,329	-104,983	0,131	0,021
-321,314	210,547	0,090	-0,101
-320,299	152,717	0,056	0,055
-319,285	-125,763	0,109	-0,012
-318,270	-200,000	-0,021	-0,109
-317,256	675,033	-0,081	-0,151
-316,241	-200,000	-0,010	0,068
-315,226	8,782	-0,122	0,065
-314,212	-200,000	0,005	-0,017
-313,197	-192,488	0,078	0,001
-312,183	184,220	-0,088	0,093
-311,168	-107,141	0,138	-0,022
-310,153	-19,742	-0,095	-0,042
-309,139	-143,640	0,085	0,006
-308,124	752,007	0,054	-0,104
-307,110	129,694	0,041	0,038
-306,095	-200,000	-0,004	0,016
-305,080	42,882	0,086	0,055
-304,066	-29,638	0,064	0,026
-303,051	-22,605	-0,097	-0,042
-302,037	340,823	-0,109	0,153
-301,022	-123,637	0,165	-0,018
-300,008	-56,109	0,086	0,027
-298,993	-200,000	-0,000	0,084
-297,978	800,000	0,042	0,101
-296,964	66,518	-0,107	-0,077
-295,949	-45,059	-0,277	0,097
-294,935	651,805	0,071	0,131
-293,920	-200,000	-0,006	-0,032
-292,905	-19,401	0,063	0,028
-291,891	109,621	0,095	0,081
-290,876	128,188	-0,068	0,062
-289,862	278,624	0,119	0,151
-288,847	800,000	-0,034	-0,092
-287,832	-200,000	0,006	-0,097
-286,818	138,556	0,055	-0,052
-285,803	301,594	0,043	0,057
-284,789	-91,951	0,053	0,011
-283,774	613,357	-0,026	0,046
-282,759	-200,000	-0,007	-0,029
-281,745	39,611	0,022	-0,014
-280,730	241,869	0,052	-0,062
-279,716	134,370	0,057	-0,053
-278,701	-200,000	0,028	-0,090
-277,686	-78,646	0,122	-0,030
-276,672	44,546	-0,024	0,016
-275,657	-30,899	-0,055	0,022
-274,643	289,703	-0,113	-0,146
-273,628	81,795	0,063	0,048
-272,613	800,000	0,035	-0,096
-271,599	-87,941	0,180	0,038
-270,584	216,891	-0,073	-0,082
-269,570	-18,275	0,071	-0,032
-268,555	-101,672	-0,204	-0,035
-267,540	604,890	0,028	-0,050
-266,526	385,504	0,016	-0,024
-265,511	800,000	0,028	-0,078
-264,497	800,000	0,054	-0,111
-263,482	237,144	0,066	0,077
-262,467	508,882	0,062	0,102
-261,453	273,778	0,026	0,032
-260,438	-134,232	0,058	0,005
-259,424	-80,769	0,034	-0,008
-258,409	55,890	-0,080	0,055
-257,395	-200,000	0,006	0,115
-256,380	-200,000	0,058	0,228
-255,365	210,859	-0,013	0,015
-254,351	-200,000	-0,001	0,040
-253,336	646,803	0,044	0,081
-252,322	-200,000	-0,007	-0,073
-251,307	-162,366	-0,070	-0,002
-250,292	-128,755	0,025	-0,003
-249,278	800,000	0,079	-0,166
-248,263	-159,025	-0,096	-0,004
-247,249	800,000	0,060	-0,146
-246,234	567,515	0,013	0,022
-245,219	800,000	-0,039	-0,115
-244,205	-111,679	-0,117	0,017
-243,190	-200,000	-0,012	0,105
-242,176	5,638	0,074	-0,038
-241,161	5,415	0,127	0,066
-240,146	-123,217	0,152	0,017
-239,132	800,000	-0,054	-0,167
-238,117	37,430	-0,086	-0,054
-237,103	-200,000	-0,027	-0,100
-236,088	312,804	0,064	-0,086
-235,073	274,676	-0,034	0,043
-234,059	351,513	0,094	-0,132
-233,044	800,000	0,008	0,022
-232,030	800,000	0,060	0,162
-231,015	-166,519	-0,185	0,005
-230,000	800,000	-0,032	-0,082
-228,986	80,942	0,056	-0,043
-227,971	-3,875	0,129	0,063
-226,957	485,498	0,063	0,103
-225,942	-144,232	0,097	-0,006
-224,927	17,139	-0,062	0,035
-223,913	-178,231	-0,135	-0,002
-222,898	-200,000	0,033	-0,132
-221,884	53,166	0,028	-0,019
-220,869	15,381	0,066	-0,037
-219,855	800,000	-0,035	0,091
-218,840	-125,574	-0,118	0,013
-217,825	800,000	-0,078	-0,157
-216,811	-200,000	-0,021	0,124
-215,796	800,000	0,053	-0,112
-214,782	315,883	-0,054	-0,072
-213,767	60,603	0,148	0,104
-212,752	-200,000	0,023	0,115
-211,738	-49,397	0,037	0,012
-210,723	625,033	0,012	0,022
-209,709	164,206	-0,074	0,074
-208,694	128,624	0,017	-0,015
-207,679	-35,246	0,134	-0,052
-206,665	800,000	-0,030	0,082
-205,650	-200,000	0,011	0,069
-204,636	-121,395	0,063	0,007
-203,621	484,152	-0,009	-0,014
-202,606	-2,354	-0,067	-0,033
-201,592	352,296	0,040	-0,057
-200,577	800,000	-0,047	-0,127
-199,563	-58,940	-0,075	0,023
-198,548	121,937	-0,013	-0,011
-197,533	253,959	0,050	0,061
-196,519	-93,121	0,130	-0,026
-195,504	-52,033	0,029	0,009
-194,490	-200,000	0,023	-0,180
-193,475	-36,445	-0,161	0,061
-192,460	-200,000	0,004	-0,067
-191,446	-200,000	-0,004	0,019
-190,431	-200,000	-0,011	0,043
-189,417	64,137	-0,069	0,049
-188,402	-76,118	0,134	-0,033
-187,387	-19,546	-0,074	-0,032
-186,373	-63,956	0,047	0,013
-185,358	-33,100	0,061	-0,024
-184,344	475,662	0,028	-0,044
-183,329	-67,040	-0,015	0,004
-182,315	-87,879	-0,030	0,006
-181,300	79,309	0,100	-0,076
-180,285	800,000	-0,017	-0,051
-179,271	-200,000	0,019	-0,083
-178,256	-101,466	0,034	0,006
-177,242	-200,000	-0,066	0,220
-176,227	40,452	0,096	0,061
-175,212	-200,000	0,012	0,056
-174,198	-200,000	-0,003	0,050
-173,183	-200,000	-0,014	-0,127
-172,169	202,713	-0,056	-0,061
-171,154	-42,890	-0,063	0,022
-170,139	-200,000	-0,015	-0,055
-169,125	-200,000	0,002	-0,027
-168,110	381,011	0,059	-0,085
-167,096	-200,000	0,015	-0,055
-166,081	369,455	-0,088	0,127
-165,066	434,947	-0,022	0,034
-164,052	519,740	0,082	-0,137
-163,037	24,926	-0,077	0,045
-162,023	131,566	-0,049	0,045
-161,008	-71,067	-0,061	0,016
-159,993	272,934	-0,028	0,035
-158,979	12,321	-0,037	-0,020
-157,964	800,000	0,025	0,077
-156,950	-200,000	-0,014	0,103
-155,935	380,095	0,036	0,053
-154,920	0,966	0,060	0,030
-153,906	-124,299	0,060	0,007
-152,891	-129,670	-0,063	-0,006
-151,877	-5,387	-0,058	0,028
-150,862	-200,000	0,013	0,048
-149,847	-100,675	0,114	0,020
-148,833	30,271	-0,135	0,081
-147,818	-200,000	0,018	0,086
-146,804	-83,374	0,051	-0,011
-145,789	-39,184	-0,032	0,012
-144,775	800,000	0,036	0,109
-143,760	800,000	0,028	0,059
-142,745	80,752	-0,017	0,013
-141,731	-148,171	0,035	0,002
-140,716	58,821	0,152	0,105
-139,702	-24,045	0,084	-0,036
-138,687	282,403	-0,065	0,083
-137,672	-33,236	-0,128	-0,050
-136,658	800,000	-0,021	0,043
-135,643	179,675	0,111	-0,115
-134,629	-70,024	-0,118	0,031
-133,614	-200,000	0,021	0,131
-132,599	-119,987	0,128	0,015
-131,585	462,031	0,023	-0,036
-130,570	-200,000	0,043	0,149
-129,556	-200,000	-0,004	0,065
-128,541	800,000	-0,035	0,068
-127,526	241,694	0,123	-0,145
-126,512	-200,000	-0,004	0,042
-125,497	72,456	0,124	0,091
-124,483	-142,112	0,090	0,006
-123,468	-7,965	-0,146	0,069
-122,453	-89,949	-0,028	0,006
-121,439	800,000	-0,019	0,057
-120,424	241,879	0,058	-0,068
-119,410	-200,000	-0,007	0,047
-118,395	-22,490	-0,031	0,013
-117,380	-200,000	0,011	0,077
-116,366	-73,133	-0,111	-0,028
-115,351	-200,000	0,028	0,105
-114,337	276,741	0,034	-0,043
-113,322	-45,559	0,078	0,027
-112,307	318,410	-0,057	0,076
-111,293	800,000	0,054	0,165
-110,278	129,430	0,126	0,114
-109,264	-200,000	0,027	0,128
-108,249	-4,810	-0,111	-0,054
-107,234	800,000	0,034	-0,086
-106,220	-89,536	0,107	-0,022
-105,205	-200,000	0,001	0,067
-104,191	-200,000	-0,027	0,176
-103,176	613,345	0,036	-0,064
-102,162	-155,878	-0,084	-0,004
-101,147	-200,000	-0,013	0,127
-100,132	-64,613	-0,136	-0,039
-99,118	-200,000	0,012	0,054
-98,103	236,975	0,034	-0,040
-97,089	-200,000	0,012	0,087
-96,074	46,947	0,068	-0,044
-95,059	106,956	0,083	0,069
-94,045	603,079	0,028	0,049
-93,030	-179,570	-0,062	0,001
-92,016	-87,308	-0,111	-0,024
-91,001	-95,387	0,097	0,018
-89,986	800,000	0,057	0,140
-88,972	800,000	0,049	0,098
-87,957	424,424	-0,083	0,127
-86,943	277,901	-0,025	0,032
-85,928	100,344	-0,057	-0,046
-84,913	-108,089	-0,087	-0,013
-83,899	-200,000	-0,011	0,140
-82,884	-200,000	-0,050	0,189
-81,870	286,390	-0,064	0,082
-80,855	-34,930	-0,081	-0,031
-79,840	-200,000	0,023	0,127
-78,826	151,605	-0,139	0,133
-77,811	-6,691	0,033	-0,016
-76,797	100,095	0,045	-0,037
-75,782	122,195	-0,100	-0,088
-74,767	800,000	0,028	-0,061
-73,753	-84,640	-0,064	-0,014
-72,738	800,000	0,028	0,061
-71,724	146,266	0,042	-0,040
-70,709	176,618	0,045	-0,047
-69,694	-200,000	0,010	0,129
-68,680	121,606	0,043	0,038
-67,665	532,538	-0,045	0,076
-66,651	-66,912	-0,040	-0,011
-65,636	50,556	-0,086	0,058
-64,622	265,005	0,056	-0,070
-63,607	800,000	-0,011	-0,032
-62,592	49,323	-0,155	0,102
-61,578	-40,751	0,164	0,059
-60,563	800,000	0,014	0,039
-59,549	-200,000	-0,016	0,051
-58,534	49,120	-2,185	-1,446
-57,519	634,331	-1,002	-1,800
-56,505	-200,000	-0,451	-4,490
-55,490	800,000	0,839	1,774
-54,476	800,000	5,175	11,365
-53,461	-200,000	22,152	342,802
-52,446	800,000	759,436	2296,265
-51,432	531,780	1651,954	2766,454
-50,417	68,575	1650,644	1192,561
-49,403	16,223	1525,734	846,278
-48,388	10,351	1451,175	776,640
-47,373	19,268	1443,280	814,990
-46,359	13,799	1432,066	782,740
-45,344	8,708	1427,815	756,246
-44,330	8,670	1426,011	755,078
-43,315	8,625	1424,235	753,896
-42,300	8,634	1422,307	752,886
-41,286	8,680	1421,050	752,411
-40,271	8,630	1419,888	751,530
-39,257	8,606	1418,635	750,721
-38,242	8,632	1417,524	750,227
-37,227	8,608	1416,632	749,612
-36,213	8,627	1415,201	748,916
-35,198	8,642	1413,894	748,261
-34,184	8,653	1412,991	747,809
-33,169	8,573	1411,643	746,688
-32,154	8,615	1410,718	746,364
-31,140	8,651	1409,302	745,757
-30,125	8,653	1408,096	745,098
-29,111	8,594	1406,999	744,210
-28,096	8,596	1405,921	743,622
-27,082	8,572	1404,724	742,848
-26,067	8,517	1403,712	742,026
-25,052	8,600	1402,475	741,729
-24,038	8,591	1401,483	741,134
-23,023	8,574	1400,383	740,442
-22,009	8,533	1399,737	739,881
-20,994	8,572	1398,401	739,326
-19,979	8,601	1397,504	738,959
-18,965	8,515	1396,564	738,033
-17,950	8,537	1395,776	737,690
-16,936	8,503	1394,886	737,032
-15,921	8,467	1394,112	736,427
-14,906	8,509	1392,896	735,948
-13,892	8,531	1391,966	735,532
-12,877	8,461	1391,289	734,817
-11,863	8,512	1390,414	734,564
-10,848	8,507	1389,371	733,961
-9,833	8,453	1388,677	733,317
-8,819	8,436	1387,700	732,694
-7,804	8,404	1386,656	731,962
-6,790	8,402	1385,692	731,416
-5,775	8,373	1384,874	730,821
-4,760	8,383	1383,821	730,283
-3,746	8,414	1383,091	730,010
-2,731	8,400	1382,214	729,458
-1,717	8,431	1381,193	729,032
-0,702	8,412	1379,442	727,992
0,313	12,393	1290,769	699,298
1,327	28,286	681,680	404,935
2,342	43,899	117,525	75,738
3,356	0,079	16,608	8,314
4,371	1,731	3,857	1,952
5,386	11,206	1,251	0,672
6,400	355,362	0,437	0,614
7,415	9,645	-0,273	-0,145
8,429	197,473	-0,196	-0,211
9,444	146,902	-0,314	-0,297
10,459	-22,500	-0,276	-0,117
11,473	212,263	-0,151	-0,168
12,488	-58,825	-0,179	-0,054
13,502	-73,856	-0,439	-0,111
14,517	-136,393	-0,325	-0,026
15,531	37,611	-0,337	-0,210
16,546	-70,677	-0,334	-0,088
17,561	79,419	-0,386	-0,291
18,575	-189,642	-0,269	0,002
19,590	800,000	-0,077	-0,226
20,604	-107,978	-0,335	-0,051
21,619	2,852	-0,477	-0,243
22,634	70,707	-0,439	-0,319
23,648	129,220	-0,326	-0,293
24,663	20,256	-0,540	-0,306
25,677	-63,058	-0,344	-0,099
26,692	482,551	-0,202	-0,324
27,707	83,416	-0,322	-0,247
28,721	204,697	-0,239	-0,261
29,736	33,743	-0,410	-0,250
30,750	-60,425	-0,439	-0,130
31,765	-26,440	-0,384	-0,158
32,780	-6,882	-0,406	-0,193
33,794	23,760	-0,292	-0,169
34,809	11,520	-0,413	-0,222
35,823	65,939	-0,357	-0,254
36,838	25,995	-0,382	-0,223
37,853	42,614	-0,369	-0,236
38,867	-45,009	-0,427	-0,149
39,882	-18,658	-0,448	-0,195
40,896	122,119	-0,286	-0,250
41,911	77,304	-0,342	-0,255
42,926	-6,899	-0,418	-0,199
43,940	-18,061	-0,494	-0,217
44,955	47,366	-0,439	-0,287
45,969	117,404	-0,270	-0,233
46,984	-75,711	-0,325	-0,080
47,999	53,121	-0,248	-0,167
49,013	19,524	-0,369	-0,208
50,028	125,064	-0,237	-0,210
51,042	127,487	-0,303	-0,270
52,057	17,931	-0,360	-0,201
53,071	122,066	-0,363	-0,318
54,086	23,968	-0,371	-0,214
55,101	20,792	-0,289	-0,164
56,115	-85,948	-0,351	-0,076
57,130	188,422	-0,303	-0,318
58,144	-76,134	-0,238	-0,059
59,159	-122,937	-0,505	-0,056
60,174	4,297	-0,493	-0,253
61,188	451,802	-0,190	-0,296
62,203	68,004	-0,325	-0,233
63,217	81,090	-0,269	-0,203
64,232	118,877	-0,211	-0,183
65,247	-76,488	-0,396	-0,097
66,261	56,969	-0,232	-0,158
67,276	-0,750	-0,434	-0,215
68,290	-27,854	-0,366	-0,148
69,305	-14,329	-0,319	-0,143
70,320	-31,570	-0,302	-0,118
71,334	-17,092	-0,401	-0,176
72,349	-57,590	-0,379	-0,116
73,363	85,181	-0,205	-0,157
74,378	-147,910	-0,463	-0,027
75,393	100,265	-0,264	-0,214
76,407	4,615	-0,304	-0,156
77,422	-55,548	-0,224	-0,070
78,436	-97,067	-0,314	-0,057
79,451	-10,835	-0,300	-0,138
80,466	23,168	-0,278	-0,159
81,480	17,555	-0,334	-0,185
82,495	46,789	-0,320	-0,208
83,509	-40,078	-0,252	-0,091
84,524	-26,225	-0,300	-0,123
85,539	-17,689	-0,368	-0,161
86,553	-115,543	-0,304	-0,040
87,568	-93,844	-0,337	-0,064
88,582	264,283	-0,122	-0,149
89,597	69,314	-0,215	-0,154
90,611	-12,026	-0,177	-0,081
91,626	17,006	-0,185	-0,102
92,641	89,835	-0,211	-0,165
93,655	-7,039	-0,352	-0,167
94,670	-8,056	-0,281	-0,132
95,684	386,556	-0,210	-0,304
96,699	170,861	-0,182	-0,182
97,714	56,743	-0,186	-0,126
98,728	-153,053	-0,258	-0,012
99,743	-143,117	-0,210	-0,014
100,757	-102,869	-0,254	0,042
101,772	-12,318	-0,260	-0,118
102,787	121,726	-0,175	-0,152
103,801	40,670	-0,351	-0,221
104,816	172,747	-0,231	-0,233
105,830	144,024	-0,200	-0,186
106,845	16,668	-0,190	-0,105
107,860	104,012	-0,164	-0,135
108,874	56,507	-0,399	-0,271
109,889	157,627	-0,191	-0,184
110,903	110,028	-0,229	-0,191
111,918	133,452	-0,255	-0,230
112,933	292,332	-0,092	-0,118
113,947	41,577	-0,202	-0,127
114,962	-29,108	-0,281	-0,112
115,976	70,333	-0,233	-0,168
116,991	-59,861	-0,248	-0,074
118,006	390,062	-0,208	-0,302
119,020	24,631	-0,214	-0,123
120,035	-99,081	-0,262	-0,046
121,049	800,000	-0,128	-0,268
122,064	1,509	-0,218	-0,109
123,079	144,677	-0,117	-0,109
124,093	143,408	-0,318	-0,295
125,108	-53,560	-0,198	-0,063
126,122	51,282	-0,237	-0,157
127,137	64,174	-0,105	-0,073
128,151	50,997	-0,246	-0,162
129,166	11,148	-0,255	-0,136
130,181	-70,674	-0,371	-0,097
131,195	81,726	-0,290	-0,218
132,210	5,550	-0,340	-0,175
133,224	87,308	-0,262	-0,202
134,239	189,900	-0,162	-0,170
135,254	75,883	-0,146	-0,107
136,268	38,913	-0,249	-0,154
137,283	-99,664	-0,265	-0,046
138,297	128,687	-0,268	-0,238
139,312	431,961	-0,193	-0,292
140,327	-2,276	-0,307	-0,149
141,341	28,982	-0,278	-0,164
142,356	-192,014	-0,171	-0,001
143,370	-70,689	-0,173	-0,045
144,385	800,000	-0,094	-0,238
145,400	257,312	-0,148	-0,178
146,414	300,868	-0,273	-0,352
147,429	73,243	-0,308	-0,224
148,443	-7,945	-0,326	-0,153
149,458	26,076	-0,223	-0,129
150,473	-194,916	-0,173	-0,001
151,487	63,351	-0,269	-0,188
152,502	131,085	-0,252	-0,225
153,516	99,669	-0,231	-0,186
154,531	-10,110	-0,309	-0,142
155,546	81,258	-0,249	-0,187
156,560	-12,725	-0,218	-0,098
157,575	20,056	-0,161	-0,090
158,589	80,987	-0,189	-0,142
159,604	-69,294	-0,331	-0,088
160,619	187,641	-0,234	-0,243
161,633	-24,746	-0,378	-0,155
162,648	159,363	-0,210	-0,203
163,662	14,968	-0,166	-0,090
164,677	-104,335	-0,061	0,010
165,692	69,675	-0,391	-0,279
166,706	-125,598	-0,301	-0,031
167,721	314,426	-0,127	-0,167
168,735	28,925	-0,275	-0,161
169,750	99,213	-0,209	-0,168
170,764	26,036	-0,366	-0,211
171,779	127,009	-0,163	-0,144
172,794	33,631	-0,234	-0,141
173,808	-66,044	-0,291	-0,080
174,823	485,818	-0,188	-0,299
175,837	74,107	-0,232	-0,169
176,852	159,062	-0,242	-0,234
177,867	-88,217	-0,226	0,047
178,881	-57,389	-0,244	-0,074
179,896	-12,837	-0,100	-0,045
180,910	232,811	-0,157	-0,179
181,925	49,724	-0,230	-0,150
182,940	25,042	-0,277	-0,159
183,954	17,494	-0,198	-0,109
184,969	462,239	-0,187	-0,290
185,983	-50,061	-0,116	-0,038
186,998	308,887	-0,169	-0,220
188,013	-19,677	-0,142	-0,061
189,027	0,547	-0,187	-0,092
190,042	67,068	-0,337	-0,238
191,056	244,283	-0,159	-0,186
192,071	-17,571	-0,295	-0,128
193,086	45,277	-0,269	-0,172
194,100	558,218	-0,094	-0,158
195,115	156,250	-0,210	-0,201
196,129	-45,491	-0,251	-0,086
197,144	46,474	-0,230	-0,147
198,159	26,405	-0,203	-0,118
199,173	-26,366	-0,156	-0,063
200,188	-55,726	-0,256	-0,079
201,202	343,782	-0,092	-0,125
202,217	160,834	-0,085	-0,082
203,232	800,000	-0,142	-0,282
204,246	16,309	-0,166	-0,090
205,261	-60,473	-0,301	-0,088
206,275	-85,290	-0,162	0,035
207,290	106,269	-0,213	-0,175
208,304	-23,939	-0,118	-0,049
209,319	800,000	-0,156	-0,310
210,334	-147,323	-0,204	-0,012
211,348	332,637	-0,167	-0,223
212,363	505,567	-0,145	-0,233
213,377	522,428	-0,132	-0,215
214,392	625,204	-0,189	-0,331
215,407	34,813	-0,171	-0,103
216,421	231,070	-0,186	-0,211
217,436	604,322	-0,103	-0,178
218,450	256,571	-0,202	-0,241
219,465	-200,000	-0,021	-0,192
220,480	-200,000	0,019	-0,298
221,494	178,759	-0,207	-0,209
222,509	30,527	-0,198	-0,117
223,523	32,299	-0,306	-0,182
224,538	-101,165	-0,263	0,044
225,553	50,659	-0,147	-0,096
226,567	-64,354	-0,214	-0,060
227,582	56,836	-0,284	-0,191
228,596	-8,462	-0,196	-0,091
229,611	242,551	-0,082	-0,094
230,626	-48,060	-0,139	-0,046
231,640	81,016	-0,136	-0,101
232,655	281,266	-0,159	-0,197
233,669	56,697	-0,314	-0,211
234,684	175,328	-0,235	-0,235
235,699	-63,097	-0,253	-0,072
236,713	9,365	-0,208	-0,109
237,728	-110,636	-0,065	-0,009
238,742	139,916	-0,119	-0,108
239,757	800,000	-0,094	-0,237
240,772	151,718	-0,151	-0,142
241,786	280,236	-0,076	-0,093
242,801	59,237	-0,270	-0,184
243,815	7,719	-0,256	-0,132
244,830	-98,712	-0,077	-0,013
245,844	4,220	-0,219	-0,110
246,859	-180,659	-0,245	-0,003
247,874	197,348	-0,151	-0,159
248,888	598,480	-0,129	-0,222
249,903	52,046	-0,144	-0,095
250,917	278,253	-0,111	-0,137
251,932	603,594	-0,064	-0,110
252,947	-13,950	-0,189	-0,084
253,961	447,069	-0,169	-0,258
254,976	64,426	-0,216	-0,149
255,990	108,890	-0,217	-0,179
257,005	139,038	-0,221	-0,201
258,020	76,492	-0,151	-0,110
259,034	-137,738	-0,219	-0,017
260,049	-61,546	-0,117	-0,034
261,063	-26,760	-0,236	-0,095
262,078	-6,011	-0,261	-0,122
263,093	144,721	-0,221	-0,204
264,107	174,262	-0,139	-0,138
265,122	-200,000	0,016	-0,208
266,136	613,862	-0,065	-0,113
267,151	95,700	-0,136	-0,107
268,166	355,678	-0,176	-0,242
269,180	-21,482	-0,299	-0,125
270,195	505,269	-0,137	-0,219
271,209	800,000	-0,118	-0,250
272,224	25,953	-0,139	0,079
273,239	-39,511	-0,170	-0,061
274,253	-97,290	-0,143	0,025
275,268	47,154	-0,182	-0,117
276,282	36,370	-0,069	-0,042
277,297	137,288	-0,082	-0,074
278,312	16,915	-0,214	-0,116
279,326	-136,912	-0,132	-0,010
280,341	723,046	-0,059	-0,109
281,355	371,677	-0,122	-0,170
282,370	649,128	-0,047	-0,084
283,384	219,158	-0,193	-0,213
284,399	563,453	-0,115	-0,192
285,414	47,743	-0,247	-0,158
286,428	-30,393	-0,150	0,058
287,443	657,231	-0,069	-0,122
288,457	-200,000	-0,042	-0,182
289,472	-200,000	-0,048	-0,263
290,487	-33,966	-0,122	-0,046
291,501	800,000	-0,133	-0,290
292,516	149,717	-0,194	-0,181
293,530	54,462	-0,163	-0,108
294,545	275,053	-0,067	-0,082
295,560	800,000	-0,060	-0,145
296,574	-22,003	-0,141	-0,059
297,589	-200,000	-0,073	-0,282
298,603	-164,291	-0,137	-0,004
299,618	-93,033	-0,204	0,039
300,633	289,724	-0,185	-0,232
301,647	-117,265	-0,170	-0,021
302,662	-66,847	-0,135	0,036
303,676	103,303	-0,056	-0,045
304,691	-200,000	-0,021	-0,116
305,706	556,274	-0,134	-0,222
306,720	-58,773	-0,224	-0,066
307,735	-160,675	-0,176	-0,006
308,749	183,546	-0,182	-0,185
309,764	-121,329	-0,137	-0,015
310,779	-200,000	-0,002	-0,106
311,793	-145,629	-0,167	-0,010
312,808	115,126	-0,151	-0,127
313,822	397,954	-0,156	-0,225
314,837	800,000	-0,079	-0,161
315,852	125,927	-0,039	-0,033
316,866	800,000	-0,088	-0,206
317,881	800,000	-0,052	-0,125
318,895	-155,685	-0,069	0,003
319,910	800,000	-0,126	-0,313
320,925	57,753	-0,215	-0,144
321,939	-44,903	-0,195	-0,066
322,954	170,268	-0,127	-0,124
323,968	-190,026	-0,111	0,001
324,983	40,985	-0,117	-0,072
325,997	-200,000	-0,025	-0,122
327,012	-17,899	-0,107	0,046
328,027	104,601	-0,156	-0,126
329,041	800,000	0,037	-0,107
330,056	-44,635	-0,208	-0,071
331,070	117,616	-0,114	-0,096
332,085	-60,486	-0,119	0,035
333,100	78,029	-0,214	-0,156
334,114	61,490	-0,227	-0,154
335,129	277,671	-0,133	-0,162
336,143	202,710	-0,146	-0,154
337,158	481,591	-0,033	0,052
338,173	-77,240	-0,102	0,024
339,187	-22,209	-0,201	-0,083
340,202	-61,157	-0,181	0,052
341,216	61,251	-0,198	-0,135
342,231	73,875	-0,185	-0,132
343,246	-82,950	-0,213	-0,047
344,260	-144,712	-0,099	0,006
345,275	53,434	-0,075	-0,049
346,289	69,843	-0,169	-0,119
347,304	30,479	-0,232	-0,135
348,319	-18,461	-0,184	-0,078
349,333	68,213	-0,110	0,077
350,348	88,760	-0,112	-0,085
351,362	167,462	-0,128	-0,124
352,377	99,979	-0,129	-0,102
353,392	-160,811	-0,075	0,003
354,406	-88,277	-0,232	0,047
355,421	207,728	1310,134	1399,493
356,435	159,809	1470,248	1399,944
