DTS Sentinel unit serial number:	SN410029Multiplexer serial number:	ORYXHardware model number:	OX2-SRSoftware version number:	ORYX F/W v4,00 Oryx Data Collector v3.7.2.0data status	okinstallation	B3 Nyhavnadifferential loss correction	single-endedforward channel	channel 1reverse channel	N/Adate	2023/12/02time	17:07:30forward acquisition time	300,00reverse acquisition time	0,00gamma	499,1914k internal	0,3199k external	0,3199temperature offset calibration	1,0000default loss term (dB/km)	0,3820temperature slope calibration	1,0000multiplexer offset coefficient	1,0000multiplexer slope coefficient	1,0000fibre end	0,00T internal ref (°C)	13,97T ext. ref 1 (°C)	-1,48T ext. ref 2 (°C)	-1,50length (m)	temperature (°C)	Stokes	anti-Stokes-744,400	431,344	-0,139	-0,220
-743,385	800,000	-0,151	0,413
-742,371	-200,000	-0,049	-0,259
-741,356	-200,000	-0,025	0,283
-740,342	-60,187	-0,215	-0,066
-739,327	-200,000	-0,024	0,350
-738,312	598,530	-0,200	-0,362
-737,298	-200,000	-0,006	0,247
-736,283	206,148	-0,196	-0,222
-735,269	-200,000	0,043	0,274
-734,254	338,116	-0,187	-0,265
-733,239	26,384	-0,158	0,096
-732,225	-200,000	-0,053	-0,196
-731,210	117,030	0,069	0,062
-730,196	-200,000	0,015	0,072
-729,181	-110,087	-0,082	-0,012
-728,167	-200,000	-0,001	0,036
-727,152	681,992	-0,022	-0,042
-726,137	-200,000	0,003	-0,236
-725,123	-94,454	-0,037	0,007
-724,108	800,000	-0,029	-0,061
-723,094	271,256	-0,121	-0,155
-722,079	163,023	-0,075	-0,077
-721,064	800,000	-0,025	-0,057
-720,050	-200,000	-0,026	-0,218
-719,035	158,975	0,029	0,029
-718,021	800,000	-0,031	0,062
-717,006	88,595	-0,024	-0,020
-715,991	-49,775	-0,133	-0,046
-714,977	-6,666	0,040	-0,020
-713,962	-200,000	-0,002	-0,023
-712,948	-140,272	0,140	0,011
-711,933	800,000	0,025	-0,075
-710,918	276,315	0,099	0,128
-709,904	489,043	-0,025	0,042
-708,889	-64,815	-0,022	-0,006
-707,875	-200,000	-0,017	-0,087
-706,860	800,000	0,045	-0,122
-705,845	23,201	0,160	0,095
-704,831	-65,982	0,087	0,025
-703,816	-200,000	0,043	0,200
-702,802	-200,000	-0,012	-0,058
-701,787	343,828	-0,050	-0,071
-700,772	-127,308	0,019	0,002
-699,758	621,037	0,055	0,101
-698,743	94,186	-0,024	0,020
-697,729	-200,000	-0,026	0,174
-696,714	-200,000	0,002	0,080
-695,699	27,003	-0,011	0,007
-694,685	-200,000	0,016	-0,131
-693,670	410,374	-0,099	-0,154
-692,656	-95,243	-0,012	-0,002
-691,641	-45,090	0,108	0,039
-690,627	-200,000	0,009	0,060
-689,612	-32,573	0,188	0,076
-688,597	310,799	0,045	0,062
-687,583	-200,000	-0,023	-0,092
-686,568	-200,000	-0,023	-0,098
-685,554	-200,000	-0,043	-0,202
-684,539	-28,404	-0,011	-0,005
-683,524	800,000	0,019	-0,052
-682,510	210,654	0,056	-0,063
-681,495	395,609	-0,044	0,066
-680,481	307,320	0,035	-0,047
-679,466	63,932	-0,221	-0,161
-678,451	-200,000	0,015	-0,093
-677,437	800,000	-0,055	0,118
-676,422	-12,937	0,098	-0,046
-675,408	-83,702	-0,096	0,022
-674,393	80,250	0,090	-0,070
-673,378	-142,957	-0,133	-0,009
-672,364	623,407	-0,049	-0,091
-671,349	194,637	0,028	0,031
-670,335	800,000	-0,027	-0,063
-669,320	800,000	0,019	0,049
-668,305	-8,071	0,016	0,008
-667,291	-163,093	-0,017	-0,001
-666,276	800,000	0,033	0,071
-665,262	-200,000	0,012	-0,094
-664,247	-136,092	-0,161	0,014
-663,232	800,000	0,007	-0,019
-662,218	-200,000	-0,003	-0,041
-661,203	-200,000	-0,028	0,094
-660,189	277,502	0,012	-0,016
-659,174	-57,225	-0,049	0,015
-658,159	-34,810	0,048	-0,019
-657,145	-200,000	0,004	-0,075
-656,130	148,830	0,038	-0,038
-655,116	-200,000	-0,017	-0,112
-654,101	146,942	0,054	0,053
-653,086	-166,757	0,120	-0,004
-652,072	-29,295	-0,108	-0,044
-651,057	-39,667	-0,008	0,003
-650,043	-101,434	0,021	-0,004
-649,028	108,196	-0,047	-0,040
-648,014	800,000	-0,034	0,095
-646,999	-200,000	0,017	0,104
-645,984	237,267	-0,059	0,071
-644,970	-22,867	0,048	-0,021
-643,955	182,233	-0,116	-0,124
-642,941	47,693	-0,073	-0,049
-641,926	800,000	-0,033	0,086
-640,911	-200,000	-0,025	0,210
-639,897	-159,614	0,094	0,004
-638,882	800,000	-0,036	-0,112
-637,868	800,000	-0,005	0,011
-636,853	-77,257	-0,194	-0,049
-635,838	-99,730	-0,033	0,006
-634,824	-62,281	0,096	-0,029
-633,809	184,389	-0,014	0,015
-632,795	58,808	-0,082	-0,058
-631,780	290,106	0,173	-0,228
-630,765	-200,000	-0,026	-0,148
-629,751	791,326	0,059	-0,119
-628,736	800,000	-0,022	0,058
-627,722	-92,058	-0,092	-0,019
-626,707	-200,000	0,009	0,035
-625,692	149,295	0,168	0,165
-624,678	-97,000	-0,089	-0,017
-623,663	-95,262	0,118	0,023
-622,649	1,054	-0,109	-0,056
-621,634	-96,822	-0,067	-0,013
-620,619	454,515	0,040	-0,065
-619,605	800,000	-0,061	0,168
-618,590	798,661	0,037	-0,075
-617,576	149,893	-0,089	0,088
-616,561	-92,846	-0,040	0,008
-615,546	-200,000	-0,012	-0,174
-614,532	120,429	-0,090	0,081
-613,517	-1,419	-0,062	-0,031
-612,503	198,053	-0,038	-0,043
-611,488	-143,037	-0,037	0,003
-610,474	-200,000	0,013	-0,107
-609,459	-9,723	0,047	-0,023
-608,444	-200,000	0,010	-0,048
-607,430	88,157	-0,168	-0,135
-606,415	800,000	-0,024	0,076
-605,401	354,796	-0,097	-0,140
-604,386	-200,000	-0,013	0,072
-603,371	-35,789	0,080	-0,031
-602,357	23,609	-0,168	0,100
-601,342	57,842	-0,072	-0,051
-600,328	-34,607	0,027	-0,011
-599,313	800,000	-0,049	-0,119
-598,298	81,374	-0,044	-0,034
-597,284	-176,735	0,026	0,000
-596,269	-200,000	0,027	-0,103
-595,255	-98,519	0,079	-0,014
-594,240	438,624	0,066	-0,104
-593,225	684,753	0,036	-0,068
-592,211	293,478	0,024	-0,032
-591,196	745,379	0,071	0,139
-590,182	324,019	0,074	-0,102
-589,167	33,076	0,053	0,033
-588,152	2,384	-0,012	0,006
-587,138	-75,024	0,072	0,019
-586,123	-69,297	-0,033	0,009
-585,109	-93,785	-0,060	0,012
-584,094	82,334	-0,077	-0,060
-583,079	89,763	0,111	0,090
-582,065	-46,819	-0,074	0,026
-581,050	84,568	0,085	-0,067
-580,036	-200,000	-0,030	0,097
-579,021	20,577	0,109	-0,064
-578,006	199,897	-0,109	-0,121
-576,992	24,614	0,029	-0,017
-575,977	-185,637	0,158	-0,002
-574,963	-200,000	-0,008	-0,092
-573,948	-200,000	0,031	-0,153
-572,934	-13,935	-0,058	-0,027
-571,919	800,000	-0,026	-0,062
-570,904	800,000	-0,044	-0,101
-569,890	27,280	-0,095	0,058
-568,875	800,000	-0,027	-0,083
-567,861	206,279	-0,044	0,049
-566,846	-200,000	-0,011	-0,065
-565,831	544,332	-0,039	-0,068
-564,817	800,000	-0,042	-0,086
-563,802	233,253	0,081	-0,096
-562,788	144,508	0,037	-0,036
-561,773	254,368	0,069	-0,085
-560,758	-150,898	0,161	0,009
-559,744	118,835	0,103	0,092
-558,729	-163,500	-0,072	0,002
-557,715	800,000	0,034	-0,091
-556,700	4,843	0,055	0,029
-555,685	-8,405	-0,044	0,022
-554,671	-200,000	0,010	0,045
-553,656	-196,612	0,128	-0,001
-552,642	800,000	0,055	0,174
-551,627	-28,353	0,076	-0,031
-550,612	88,781	-0,019	-0,015
-549,598	-200,000	-0,016	-0,059
-548,583	-32,391	0,102	0,041
-547,569	-200,000	0,012	-0,083
-546,554	800,000	0,003	0,007
-545,539	20,542	0,095	-0,056
-544,525	-200,000	-0,032	0,102
-543,510	62,963	-0,132	-0,096
-542,496	95,667	-0,062	-0,051
-541,481	303,722	0,023	-0,031
-540,466	800,000	-0,010	0,027
-539,452	-68,863	0,096	0,027
-538,437	233,307	-0,042	-0,049
-537,423	-111,006	-0,072	0,011
-536,408	-200,000	-0,031	-0,098
-535,393	293,403	-0,052	-0,069
-534,379	145,785	0,053	-0,052
-533,364	-200,000	-0,013	0,077
-532,350	70,915	-0,077	0,057
-531,335	800,000	-0,040	0,097
-530,321	-200,000	-0,013	0,052
-529,306	150,272	-0,107	0,105
-528,291	-124,578	-0,191	0,021
-527,277	321,787	-0,059	-0,081
-526,262	-137,602	0,060	0,005
-525,248	-55,939	-0,025	-0,008
-524,233	800,000	-0,021	0,056
-523,218	-45,140	0,023	0,008
-522,204	298,557	-0,047	0,062
-521,189	-14,360	-0,156	0,072
-520,175	-107,339	-0,111	-0,017
-519,160	-50,983	0,080	-0,027
-518,145	-156,411	0,147	0,007
-517,131	40,430	0,051	0,033
-516,116	73,522	0,084	-0,063
-515,102	-180,572	0,026	0,000
-514,087	19,159	-0,135	-0,078
-513,072	800,000	-0,027	-0,074
-512,058	-200,000	-0,001	-0,042
-511,043	20,804	0,034	0,020
-510,029	28,658	0,014	0,008
-509,014	368,554	0,013	-0,019
-507,999	-200,000	0,000	0,093
-506,985	-4,761	-0,036	-0,018
-505,970	-44,409	-0,158	-0,057
-504,956	-200,000	0,020	-0,070
-503,941	-200,000	-0,037	0,227
-502,926	-200,000	0,010	0,099
-501,912	-200,000	0,003	-0,027
-500,897	39,072	0,012	0,008
-499,883	640,587	-0,057	-0,105
-498,868	-200,000	-0,009	-0,041
-497,853	40,682	-0,121	-0,078
-496,839	-72,580	0,130	-0,034
-495,824	-200,000	0,001	0,016
-494,810	30,135	0,066	0,041
-493,795	-0,298	0,087	0,045
-492,781	186,923	-0,022	-0,024
-491,766	-105,316	-0,134	0,022
-490,751	23,924	-0,066	0,039
-489,737	435,987	-0,021	-0,033
-488,722	-200,000	0,003	-0,074
-487,708	-200,000	-0,006	0,033
-486,693	-121,075	0,081	-0,010
-485,678	205,868	0,103	-0,115
-484,664	800,000	-0,042	-0,129
-483,649	-16,507	-0,029	-0,013
-482,635	103,439	0,114	-0,096
-481,620	800,000	-0,031	0,087
-480,605	-160,267	-0,103	0,004
-479,591	800,000	0,033	0,078
-478,576	-59,271	-0,106	0,033
-477,562	328,881	0,025	-0,035
-476,547	140,703	-0,084	-0,080
-475,532	800,000	0,053	-0,118
-474,518	800,000	-0,041	-0,090
-473,503	-200,000	-0,020	0,144
-472,489	800,000	0,051	0,115
-471,474	95,967	0,132	0,108
-470,459	237,233	-0,073	0,087
-469,445	-200,000	0,004	-0,080
-468,430	75,976	-0,163	-0,124
-467,416	203,240	-0,059	0,066
-466,401	148,160	0,091	0,089
-465,386	-200,000	-0,001	0,207
-464,372	24,113	0,036	0,021
-463,357	470,695	-0,081	-0,132
-462,343	-32,299	0,074	0,030
-461,328	623,547	-0,043	0,078
-460,313	401,000	0,028	-0,042
-459,299	800,000	-0,056	0,161
-458,284	132,067	0,109	0,101
-457,270	-200,000	-0,001	0,053
-456,255	185,437	-0,036	-0,039
-455,241	765,480	-0,108	0,212
-454,226	372,321	0,055	0,080
-453,211	-129,588	0,058	-0,006
-452,197	800,000	-0,054	-0,138
-451,182	623,692	0,011	-0,021
-450,168	-138,341	0,052	0,004
-449,153	-200,000	-0,018	0,063
-448,138	-69,406	-0,077	0,021
-447,124	373,405	-0,089	0,131
-446,109	-72,835	0,059	-0,016
-445,095	119,924	-0,056	0,050
-444,080	-81,830	0,109	-0,026
-443,065	374,739	0,023	-0,034
-442,051	4,689	-0,121	-0,064
-441,036	-200,000	0,002	-0,125
-440,022	-200,000	0,019	-0,177
-439,007	-110,804	-0,083	0,012
-437,992	-128,830	0,083	0,008
-436,978	-101,453	-0,075	-0,013
-435,963	80,186	-0,089	0,069
-434,949	32,771	-0,062	0,039
-433,934	-200,000	0,018	0,105
-432,919	-200,000	-0,018	-0,134
-431,905	800,000	-0,016	0,036
-430,890	635,979	-0,041	0,076
-429,876	197,556	0,042	0,046
-428,861	-200,000	-0,034	0,185
-427,846	232,023	-0,093	-0,110
-426,832	-70,980	-0,115	0,031
-425,817	-200,000	0,002	0,058
-424,803	-8,108	0,145	0,070
-423,788	143,163	0,044	0,042
-422,773	126,251	-0,105	0,096
-421,759	360,747	-0,147	0,213
-420,744	41,304	0,124	0,080
-419,730	7,261	0,061	0,033
-418,715	800,000	0,001	0,003
-417,701	-15,855	-0,067	-0,031
-416,686	713,404	0,007	-0,014
-415,671	179,542	0,058	-0,061
-414,657	83,066	0,019	-0,015
-413,642	51,274	0,071	0,048
-412,628	191,591	0,117	-0,126
-411,613	-200,000	-0,032	0,137
-410,598	-30,642	-0,072	0,029
-409,584	800,000	-0,014	0,043
-408,569	-200,000	0,007	0,064
-407,555	-60,869	0,089	-0,027
-406,540	-98,632	0,146	0,026
-405,525	472,514	0,052	0,084
-404,511	278,125	0,038	-0,049
-403,496	286,929	0,037	0,048
-402,482	-200,000	0,006	0,063
-401,467	102,607	0,078	0,065
-400,452	-120,212	-0,102	-0,012
-399,438	-20,543	0,082	-0,036
-398,423	241,530	-0,003	-0,004
-397,409	289,721	0,102	-0,133
-396,394	-200,000	0,001	-0,067
-395,379	-72,378	-0,069	-0,018
-394,365	17,173	-0,023	-0,013
-393,350	800,000	-0,039	0,094
-392,336	53,192	0,111	-0,076
-391,321	135,696	-0,040	-0,038
-390,306	800,000	-0,076	-0,156
-389,292	800,000	0,023	-0,062
-388,277	-200,000	0,050	0,197
-387,263	5,548	0,163	0,086
-386,248	546,659	-0,030	0,052
-385,233	228,718	-0,143	0,168
-384,219	46,734	-0,012	-0,008
-383,204	700,529	0,036	-0,069
-382,190	-71,829	-0,047	-0,012
-381,175	-16,273	-0,077	-0,035
-380,160	-200,000	-0,017	0,172
-379,146	153,796	-0,010	-0,009
-378,131	7,052	0,036	0,019
-377,117	-122,806	0,078	0,009
-376,102	-200,000	-0,010	0,156
-375,088	-4,973	-0,086	0,042
-374,073	15,654	0,142	-0,080
-373,058	-45,103	0,058	-0,021
-372,044	-34,225	0,156	-0,061
-371,029	15,883	-0,078	0,044
-370,015	-200,000	0,019	-0,066
-369,000	25,845	-0,037	-0,022
-367,985	163,345	0,110	-0,111
-366,971	-200,000	-0,007	0,109
-365,956	800,000	0,032	-0,077
-364,942	-26,437	0,033	0,014
-363,927	62,013	-0,045	-0,032
-362,912	-200,000	0,013	0,177
-361,898	-132,303	-0,043	-0,004
-360,883	186,398	0,062	0,066
-359,869	-95,406	-0,112	-0,021
-358,854	26,343	0,033	-0,020
-357,839	-200,000	-0,004	0,083
-356,825	8,361	0,108	0,058
-355,810	106,727	0,011	-0,009
-354,796	49,393	0,046	-0,031
-353,781	-92,622	0,124	-0,025
-352,766	-184,727	-0,112	-0,001
-351,752	-68,180	0,121	0,033
-350,737	260,827	0,030	0,038
-349,723	-200,000	-0,033	0,106
-348,708	-200,000	0,004	0,023
-347,693	800,000	0,008	0,020
-346,679	-29,808	-0,073	-0,030
-345,664	35,501	0,077	0,048
-344,650	-66,205	-0,043	-0,012
-343,635	-200,000	-0,010	0,041
-342,620	-200,000	-0,008	0,263
-341,606	-200,000	-0,009	0,097
-340,591	215,872	-0,065	-0,074
-339,577	-6,966	0,111	-0,054
-338,562	-84,138	-0,136	-0,031
-337,548	-5,584	0,042	-0,020
-336,533	-200,000	-0,008	-0,061
-335,518	800,000	0,032	0,090
-334,504	-200,000	0,009	-0,051
-333,489	800,000	0,050	-0,117
-332,475	-200,000	0,021	-0,106
-331,460	-200,000	0,021	-0,158
-330,445	115,348	-0,041	-0,036
-329,431	-11,340	0,109	-0,051
-328,416	800,000	-0,042	0,111
-327,402	800,000	-0,040	0,094
-326,387	-200,000	-0,002	-0,023
-325,372	800,000	-0,048	-0,142
-324,358	287,686	-0,106	-0,137
-323,343	800,000	0,063	-0,162
-322,329	-125,266	0,176	0,019
-321,314	-84,359	0,130	-0,029
-320,299	-200,000	-0,000	-0,042
-319,285	-200,000	-0,001	-0,081
-318,270	800,000	0,067	-0,136
-317,256	121,446	-0,088	-0,078
-316,241	-200,000	0,003	-0,111
-315,226	800,000	-0,028	-0,071
-314,212	-55,069	0,051	-0,016
-313,197	203,695	-0,089	0,098
-312,183	-98,404	0,073	-0,013
-311,168	-32,317	-0,069	0,027
-310,153	68,118	-0,149	-0,109
-309,139	769,469	-0,037	-0,073
-308,124	-87,164	-0,031	-0,007
-307,110	231,628	-0,065	0,076
-306,095	36,097	0,121	0,076
-305,080	51,936	0,139	0,094
-304,066	-200,000	-0,007	-0,059
-303,051	-32,902	-0,187	-0,074
-302,037	-200,000	0,033	-0,122
-301,022	-66,217	0,115	-0,033
-300,008	121,753	0,150	-0,134
-298,993	-200,000	0,040	0,157
-297,978	86,107	-0,128	0,100
-296,964	-200,000	0,003	0,235
-295,949	-65,018	-0,103	0,030
-294,935	-135,352	0,039	-0,003
-293,920	-128,527	0,050	0,005
-292,905	11,928	-0,092	0,050
-291,891	-200,000	-0,024	0,106
-290,876	800,000	0,036	0,079
-289,862	696,083	-0,008	0,015
-288,847	412,697	0,051	-0,078
-287,832	720,781	0,055	-0,105
-286,818	-200,000	-0,005	-0,027
-285,803	555,981	0,053	0,091
-284,789	-15,901	-0,128	-0,058
-283,774	-151,667	-0,040	0,002
-282,759	-200,000	0,001	-0,099
-281,745	800,000	-0,017	-0,039
-280,730	-108,208	-0,039	-0,006
-279,716	7,512	0,011	0,006
-278,701	-115,085	-0,053	0,007
-277,686	146,295	0,112	0,108
-276,672	-106,414	0,122	0,019
-275,657	199,101	0,054	0,059
-274,643	170,818	-0,125	-0,128
-273,628	800,000	-0,029	0,062
-272,613	-35,502	0,048	0,019
-271,599	379,099	-0,023	0,034
-270,584	-70,884	0,064	-0,017
-269,570	592,273	0,025	0,045
-268,555	-55,094	-0,107	-0,034
-267,540	6,121	0,061	0,032
-266,526	-200,000	0,003	-0,075
-265,511	-156,752	-0,074	-0,003
-264,497	-200,000	-0,003	-0,077
-263,482	800,000	0,016	0,046
-262,467	-200,000	0,019	0,100
-261,453	-200,000	0,026	-0,131
-260,438	-200,000	-0,048	0,156
-259,424	-58,469	-0,064	-0,020
-258,409	-200,000	-0,012	-0,139
-257,395	-151,603	0,018	-0,001
-256,380	800,000	0,028	0,082
-255,365	-46,177	0,096	0,034
-254,351	415,056	0,036	0,055
-253,336	343,846	-0,030	0,043
-252,322	32,274	-0,070	0,043
-251,307	800,000	0,017	0,041
-250,292	-84,378	-0,093	-0,021
-249,278	155,842	-0,046	0,045
-248,263	-111,876	0,071	0,010
-247,249	800,000	-0,037	-0,089
-246,234	348,185	-0,104	-0,147
-245,219	-200,000	-0,001	-0,151
-244,205	-43,426	0,102	0,036
-243,190	6,717	-0,057	-0,030
-242,176	-163,430	0,128	0,004
-241,161	77,138	0,054	0,041
-240,146	-85,003	-0,084	0,019
-239,132	-200,000	0,000	0,065
-238,117	-124,348	0,123	0,014
-237,103	-200,000	-0,052	0,171
-236,088	-200,000	0,012	-0,065
-235,073	-200,000	0,015	0,147
-234,059	151,648	0,067	0,065
-233,044	-32,815	-0,105	0,042
-232,030	800,000	0,028	0,079
-231,015	137,488	0,045	-0,042
-230,000	103,161	-0,039	-0,032
-228,986	19,544	0,113	-0,065
-227,971	-87,072	0,136	0,029
-226,957	-23,955	-0,041	0,017
-225,942	-200,000	0,012	-0,038
-224,927	-88,987	0,060	0,013
-223,913	-200,000	0,027	0,102
-222,898	800,000	0,050	0,139
-221,884	-200,000	0,014	0,054
-220,869	2,437	-0,063	-0,033
-219,855	800,000	-0,039	0,083
-218,840	-200,000	0,001	0,087
-217,825	-18,858	0,088	0,039
-216,811	-21,439	0,150	-0,065
-215,796	61,144	0,074	-0,052
-214,782	44,316	0,024	0,015
-213,767	294,495	-0,024	0,031
-212,752	-200,000	-0,008	-0,045
-211,738	62,588	-0,045	-0,032
-210,723	98,319	-0,175	0,144
-209,709	107,408	0,052	0,044
-208,694	-89,866	0,032	-0,007
-207,679	254,027	-0,047	-0,057
-206,665	-32,557	0,008	0,003
-205,650	800,000	0,042	-0,097
-204,636	-92,281	0,083	-0,016
-203,621	-43,619	0,064	0,023
-202,606	-29,679	-0,048	-0,019
-201,592	127,326	0,055	-0,050
-200,577	245,173	0,072	0,086
-199,563	-200,000	0,000	0,020
-198,548	800,000	-0,007	-0,019
-197,533	-83,340	-0,119	0,027
-196,519	-67,914	0,069	-0,019
-195,504	251,812	-0,034	-0,041
-194,490	-115,075	-0,157	-0,021
-193,475	41,767	0,027	0,017
-192,460	112,704	0,080	0,069
-191,446	-96,425	0,062	0,012
-190,431	-118,484	0,025	0,003
-189,417	-131,147	-0,032	-0,003
-188,402	116,517	-0,062	0,054
-187,387	252,394	0,063	-0,076
-186,373	91,724	-0,163	-0,130
-185,358	800,000	-0,021	0,042
-184,344	-51,603	0,104	0,034
-183,329	2,459	-0,065	-0,033
-182,315	120,971	0,130	0,115
-181,300	515,359	-0,052	-0,087
-180,285	-200,000	-0,010	-0,106
-179,271	-200,000	-0,008	-0,040
-178,256	117,395	-0,087	-0,076
-177,242	-115,870	0,192	0,025
-176,227	178,877	-0,066	0,069
-175,212	-200,000	-0,004	0,092
-174,198	-111,652	0,075	0,011
-173,183	214,568	-0,225	-0,254
-172,169	-200,000	0,002	-0,007
-171,154	-10,119	0,075	-0,035
-170,139	-55,227	0,126	0,040
-169,125	-200,000	0,003	-0,068
-168,110	-200,000	0,008	0,045
-167,096	800,000	0,012	0,027
-166,081	-68,967	-0,057	0,016
-165,066	-200,000	0,016	-0,075
-164,052	800,000	0,025	-0,078
-163,037	-200,000	-0,029	0,000
-162,023	800,000	0,030	0,087
-161,008	-159,820	-0,187	0,007
-159,993	81,705	0,078	0,060
-158,979	-49,815	-0,032	0,011
-157,964	800,000	0,037	-0,084
-156,950	-200,000	-0,013	-0,059
-155,935	102,677	0,094	0,078
-154,920	800,000	-0,043	0,108
-153,906	750,436	-0,046	0,089
-152,891	-200,000	0,016	-0,101
-151,877	-74,375	-0,199	0,051
-150,862	466,687	0,067	-0,107
-149,847	313,867	0,086	-0,116
-148,833	800,000	0,063	-0,183
-147,818	-200,000	0,024	-0,135
-146,804	-113,315	-0,050	0,007
-145,789	-15,133	0,080	0,036
-144,775	-104,760	-0,106	-0,017
-143,760	57,667	-0,038	-0,026
-142,745	412,538	0,097	-0,147
-141,731	-137,599	0,113	0,009
-140,716	-58,195	0,029	0,009
-139,702	749,454	0,055	-0,106
-138,687	800,000	-0,033	-0,077
-137,672	-200,000	-0,007	0,072
-136,658	115,406	-0,096	0,084
-135,643	47,943	0,017	0,011
-134,629	800,000	0,005	0,016
-133,614	1,220	0,056	-0,029
-132,599	-200,000	0,019	0,157
-131,585	491,577	-0,081	0,132
-130,570	800,000	0,043	-0,097
-129,556	353,783	-0,021	-0,030
-128,541	2,973	-0,062	-0,032
-127,526	-12,325	-0,010	-0,005
-126,512	-14,314	0,090	0,041
-125,497	57,468	0,090	-0,062
-124,483	-200,000	-0,015	0,055
-123,468	48,186	0,137	-0,091
-122,453	-99,148	-0,097	0,017
-121,439	315,944	-0,043	-0,058
-120,424	-200,000	0,002	-0,061
-119,410	198,125	0,072	-0,079
-118,395	-157,119	0,053	-0,002
-117,380	-132,968	0,075	-0,007
-116,366	306,888	-0,043	-0,058
-115,351	160,560	0,074	0,074
-114,337	447,048	0,090	-0,141
-113,322	44,702	0,053	0,035
-112,307	-200,000	-0,012	0,058
-111,293	-200,000	0,035	0,117
-110,278	-200,000	-0,003	0,063
-109,264	-200,000	0,023	0,086
-108,249	-200,000	-0,011	0,118
-107,234	-151,778	-0,022	-0,001
-106,220	-200,000	0,005	-0,063
-105,205	-200,000	-0,001	-0,019
-104,191	91,038	-0,036	0,029
-103,176	800,000	0,047	0,126
-102,162	152,327	-0,035	-0,034
-101,147	307,512	-0,060	-0,079
-100,132	-200,000	0,006	-0,099
-99,118	31,780	0,037	-0,023
-98,103	800,000	0,014	-0,032
-97,089	-89,502	0,095	-0,020
-96,074	-123,239	0,044	0,005
-95,059	800,000	0,029	-0,077
-94,045	800,000	0,050	0,099
-93,030	-200,000	0,001	-0,009
-92,016	596,164	-0,070	-0,124
-91,001	-200,000	0,005	-0,058
-89,986	800,000	-0,053	-0,110
-88,972	-113,402	0,062	-0,009
-87,957	-200,000	-0,012	-0,056
-86,943	-106,071	-0,117	0,019
-85,928	-27,168	-0,146	0,060
-84,913	51,795	-0,184	0,124
-83,899	-33,140	-0,062	-0,024
-82,884	-46,131	0,140	-0,049
-81,870	73,822	0,075	0,056
-80,855	52,493	-0,078	0,053
-79,840	-8,904	-0,114	0,054
-78,826	65,746	0,061	0,044
-77,811	87,644	0,045	0,035
-76,797	214,913	0,117	0,132
-75,782	800,000	-0,085	0,183
-74,767	323,981	0,066	0,089
-73,753	169,377	0,043	-0,044
-72,738	-46,721	-0,108	-0,037
-71,724	-200,000	-0,016	0,067
-70,709	36,520	0,180	-0,112
-69,694	143,080	0,070	-0,066
-68,680	-200,000	0,021	-0,068
-67,665	217,859	0,049	0,055
-66,651	227,973	-0,017	0,020
-65,636	-103,852	0,058	-0,009
-64,622	800,000	0,040	-0,100
-63,607	75,176	0,042	-0,032
-62,592	-200,000	0,005	0,076
-61,578	541,923	-0,018	0,031
-60,563	-200,000	-0,013	0,086
-59,549	-152,015	0,046	-0,002
-58,534	-19,375	-1,655	-0,724
-57,519	367,358	-1,480	-2,124
-56,505	-200,000	-0,483	-4,377
-55,490	219,204	0,944	1,072
-54,476	800,000	4,958	11,534
-53,461	-200,000	18,871	309,548
-52,446	800,000	738,865	2310,888
-51,432	571,147	1654,817	2865,608
-50,417	78,942	1670,380	1265,625
-49,403	21,932	1543,161	889,042
-48,388	15,859	1465,847	814,974
-47,373	17,820	1455,998	818,946
-46,359	16,869	1445,952	808,700
-45,344	14,090	1441,293	792,750
-44,330	14,022	1439,355	791,326
-43,315	14,056	1437,526	790,452
-42,300	14,044	1436,107	789,583
-41,286	14,077	1434,779	788,980
-40,271	14,010	1433,636	788,003
-39,257	14,031	1432,226	787,294
-38,242	14,070	1430,971	786,760
-37,227	14,124	1429,861	786,377
-36,213	14,117	1428,420	785,518
-35,198	14,070	1427,267	784,631
-34,184	14,083	1426,448	784,208
-33,169	14,085	1425,105	783,450
-32,154	14,105	1423,940	782,871
-31,140	14,052	1422,816	781,974
-30,125	14,113	1421,648	781,589
-29,111	14,079	1420,403	780,712
-28,096	14,084	1419,368	780,138
-27,082	14,032	1418,319	779,286
-26,067	13,975	1417,192	778,365
-25,052	13,984	1416,362	777,921
-24,038	13,998	1415,299	777,370
-23,023	13,984	1414,170	776,654
-22,009	13,978	1413,195	776,061
-20,994	13,976	1412,381	775,574
-19,979	13,969	1411,343	774,938
-18,965	13,948	1410,488	774,342
-17,950	13,901	1409,558	773,578
-16,936	13,931	1408,701	773,218
-15,921	13,889	1407,603	772,389
-14,906	13,924	1406,595	771,970
-13,892	13,937	1405,598	771,451
-12,877	13,906	1404,703	770,785
-11,863	13,922	1403,883	770,377
-10,848	13,896	1403,141	769,818
-9,833	13,837	1402,298	769,051
-8,819	13,823	1401,369	768,446
-7,804	13,813	1400,477	767,879
-6,790	13,826	1399,193	767,208
-5,775	13,832	1398,112	766,609
-4,760	13,816	1397,252	766,036
-3,746	13,868	1396,319	765,733
-2,731	13,764	1395,846	764,962
-1,717	13,820	1394,643	764,534
-0,702	13,790	1392,723	763,311
0,313	17,639	1310,802	736,257
1,327	33,998	705,500	434,170
2,342	52,099	124,033	83,549
3,356	1,873	16,542	8,418
4,371	15,613	3,268	1,813
5,386	-8,918	0,538	0,254
6,400	800,000	-0,034	0,072
7,415	174,013	-0,242	-0,248
8,429	69,232	-0,243	-0,177
9,444	120,546	-0,295	-0,260
10,459	71,917	-0,215	-0,158
11,473	45,063	-0,265	-0,172
12,488	124,531	-0,211	-0,188
13,502	-72,642	-0,376	-0,097
14,517	61,888	-0,378	-0,266
15,531	113,483	-0,381	-0,327
16,546	-43,389	-0,311	-0,111
17,561	116,749	-0,337	-0,293
18,575	6,928	-0,153	-0,080
19,590	52,113	-0,291	-0,196
20,604	-65,499	-0,292	-0,082
21,619	65,490	-0,434	-0,310
22,634	50,021	-0,531	-0,354
23,648	56,957	-0,439	-0,302
24,663	169,743	-0,338	-0,342
25,677	127,335	-0,293	-0,263
26,692	124,238	-0,262	-0,233
27,707	68,743	-0,274	-0,198
28,721	77,685	-0,303	-0,228
29,736	166,288	-0,348	-0,349
30,750	20,668	-0,375	-0,214
31,765	78,617	-0,373	-0,282
32,780	36,648	-0,385	-0,239
33,794	120,221	-0,265	-0,232
34,809	73,863	-0,260	-0,193
35,823	52,388	-0,337	-0,227
36,838	-20,651	-0,413	-0,178
37,853	127,729	-0,328	-0,294
38,867	64,281	-0,349	-0,248
39,882	48,258	-0,317	-0,209
40,896	67,917	-0,297	-0,214
41,911	112,097	-0,305	-0,260
42,926	15,693	-0,471	-0,260
43,940	43,664	-0,328	-0,211
44,955	24,887	-0,307	-0,179
45,969	22,500	-0,424	-0,244
46,984	41,134	-0,254	-0,162
47,999	232,936	-0,331	-0,385
49,013	16,299	-0,323	-0,179
50,028	39,277	-0,396	-0,250
51,042	66,256	-0,308	-0,220
52,057	-57,892	-0,420	-0,129
53,071	451,006	-0,172	-0,268
54,086	-42,643	-0,424	-0,151
55,101	30,692	-0,196	-0,118
56,115	-71,872	-0,281	-0,073
57,130	139,161	-0,232	-0,215
58,144	143,853	-0,412	-0,388
59,159	213,337	-0,367	-0,410
60,174	159,235	-0,328	-0,322
61,188	-110,424	-0,332	-0,048
62,203	2,555	-0,377	-0,192
63,217	39,545	-0,367	-0,231
64,232	29,288	-0,307	-0,183
65,247	177,912	-0,307	-0,315
66,261	185,130	-0,224	-0,234
67,276	93,712	-0,278	-0,222
68,290	571,160	-0,209	-0,359
69,305	211,847	-0,259	-0,287
70,320	-2,487	-0,323	-0,159
71,334	47,470	-0,376	-0,246
72,349	-84,105	-0,498	-0,110
73,363	-12,348	-0,380	-0,174
74,378	329,125	-0,248	-0,336
75,393	-62,068	-0,390	-0,114
76,407	51,833	-0,352	-0,235
77,422	26,071	-0,346	-0,203
78,436	33,782	-0,290	-0,177
79,451	-62,889	-0,285	-0,082
80,466	162,126	-0,313	-0,309
81,480	-11,289	-0,318	-0,147
82,495	26,146	-0,356	-0,208
83,509	122,236	-0,223	-0,196
84,524	-3,628	-0,252	-0,123
85,539	-49,548	-0,291	-0,097
86,553	142,247	-0,276	-0,258
87,568	227,179	-0,164	-0,187
88,582	53,963	-0,396	-0,267
89,597	131,899	-0,247	-0,223
90,611	28,892	-0,158	-0,094
91,626	31,373	-0,303	-0,183
92,641	-47,210	-0,243	-0,083
93,655	-22,338	-0,394	-0,167
94,670	337,899	-0,303	-0,415
95,684	217,538	-0,306	-0,343
96,699	-12,315	-0,257	-0,117
97,714	83,530	-0,272	-0,208
98,728	-69,157	-0,209	-0,056
99,743	221,683	-0,145	-0,164
100,757	-96,829	-0,255	-0,047
101,772	142,260	-0,184	-0,172
102,787	-28,110	-0,465	-0,188
103,801	44,774	-0,382	-0,246
104,816	234,106	-0,220	-0,255
105,830	29,327	-0,233	-0,138
106,845	170,996	-0,266	-0,267
107,860	17,292	-0,218	-0,121
108,874	-6,025	-0,303	-0,145
109,889	74,676	-0,327	-0,241
110,903	133,006	-0,198	-0,179
111,918	-53,099	-0,421	-0,135
112,933	16,265	-0,216	-0,119
113,947	-200,000	-0,009	-0,143
114,962	430,924	-0,218	-0,332
115,976	159,378	-0,308	-0,300
116,991	-15,419	-0,455	-0,203
118,006	131,757	-0,215	-0,194
119,020	-101,727	-0,275	0,046
120,035	-16,286	-0,272	-0,120
121,049	-100,467	-0,198	-0,034
122,064	-103,475	-0,225	0,037
123,079	-127,962	-0,233	-0,023
124,093	-25,648	-0,376	-0,155
125,108	-89,465	-0,348	-0,071
126,122	15,748	-0,340	-0,187
127,137	170,521	-0,206	-0,207
128,151	17,035	-0,245	-0,136
129,166	-2,836	-0,304	-0,148
130,181	26,098	-0,231	-0,135
131,195	20,678	-0,296	-0,167
132,210	125,212	-0,236	-0,208
133,224	-6,806	-0,244	-0,116
134,239	172,411	-0,143	-0,144
135,254	63,764	-0,347	-0,243
136,268	800,000	-0,076	-0,199
137,283	-1,310	-0,305	-0,150
138,297	61,846	-0,298	-0,207
139,312	-59,120	-0,309	-0,093
140,327	32,740	-0,188	-0,114
141,341	99,585	-0,179	-0,145
142,356	90,465	-0,147	-0,115
143,370	116,049	-0,202	-0,173
144,385	328,464	-0,166	-0,224
145,400	1,392	-0,310	-0,155
146,414	161,170	-0,329	-0,322
147,429	201,725	-0,241	-0,260
148,443	218,667	-0,087	-0,097
149,458	311,861	-0,106	-0,139
150,473	399,197	-0,175	-0,256
151,487	-42,113	-0,204	-0,073
152,502	-44,059	-0,177	-0,062
153,516	230,285	-0,212	-0,243
154,531	106,449	-0,299	-0,247
155,546	20,870	-0,185	-0,104
156,560	42,758	-0,131	-0,083
157,575	325,215	-0,200	-0,268
158,589	-73,794	-0,340	-0,086
159,604	-73,206	-0,202	-0,051
160,619	-7,448	-0,259	-0,122
161,633	35,652	-0,285	-0,175
162,648	-30,509	-0,235	-0,093
163,662	232,585	-0,148	-0,170
164,677	202,768	-0,111	-0,119
165,692	-140,981	-0,205	-0,014
166,706	115,390	-0,332	-0,283
167,721	114,186	-0,252	-0,214
168,735	403,889	-0,161	-0,237
169,750	199,332	-0,143	-0,153
170,764	-184,992	-0,167	-0,002
171,779	60,769	-0,252	-0,174
172,794	222,243	-0,212	-0,238
173,808	-9,283	-0,337	-0,157
174,823	203,007	-0,193	-0,208
175,837	308,564	-0,174	-0,227
176,852	169,771	-0,220	-0,219
177,867	112,199	-0,137	-0,116
178,881	-52,714	-0,191	-0,061
179,896	-7,096	-0,150	-0,071
180,910	155,323	-0,202	-0,194
181,925	245,173	-0,153	-0,180
182,940	68,602	-0,192	-0,137
183,954	54,297	-0,194	-0,130
184,969	-197,946	-0,149	-0,001
185,983	-82,542	-0,228	-0,051
186,998	696,325	-0,128	-0,234
188,013	35,795	-0,186	-0,114
189,027	298,211	-0,167	-0,215
190,042	46,811	-0,302	-0,195
191,056	800,000	-0,069	-0,205
192,071	608,824	-0,124	-0,217
193,086	-76,125	-0,201	-0,049
194,100	-21,996	-0,194	-0,082
195,115	-111,899	-0,192	-0,027
196,129	-90,119	-0,269	-0,054
197,144	78,589	-0,211	-0,157
198,159	86,829	-0,284	-0,218
199,173	149,487	-0,165	-0,156
200,188	22,807	-0,199	-0,113
201,202	144,198	-0,232	-0,216
202,217	179,109	-0,255	-0,259
203,232	800,000	-0,050	-0,151
204,246	11,725	-0,273	-0,145
205,261	377,094	-0,218	-0,311
206,275	3,760	-0,205	-0,104
207,290	-24,875	-0,208	-0,086
208,304	-176,863	-0,109	0,002
209,319	209,720	-0,157	-0,171
210,334	68,476	-0,179	-0,127
211,348	318,849	-0,160	-0,212
212,363	97,748	-0,158	-0,127
213,377	-49,552	-0,169	-0,056
214,392	171,624	-0,138	-0,138
215,407	50,167	-0,230	-0,151
216,421	44,227	-0,076	-0,048
217,436	-33,966	-0,162	-0,062
218,450	101,021	-0,213	-0,172
219,465	-46,065	-0,287	-0,098
220,480	-200,000	0,006	-0,068
221,494	-103,889	-0,234	-0,038
222,509	-49,376	-0,184	-0,061
223,523	-55,998	-0,180	-0,055
224,538	-82,076	-0,173	0,039
225,553	12,744	-0,211	-0,113
226,567	148,910	-0,174	-0,163
227,582	-53,799	-0,201	-0,063
228,596	-200,000	-0,029	-0,127
229,611	186,637	-0,161	-0,167
230,626	55,533	-0,198	-0,133
231,640	373,731	-0,119	-0,169
232,655	-77,223	-0,287	-0,069
233,669	106,082	-0,192	-0,158
234,684	106,570	-0,185	-0,152
235,699	196,414	-0,093	-0,098
236,713	-200,000	-0,022	-0,151
237,728	800,000	-0,122	-0,256
238,742	155,697	-0,135	-0,129
239,757	271,688	-0,162	-0,199
240,772	193,936	-0,210	-0,221
241,786	-97,003	-0,294	-0,053
242,801	126,606	-0,262	-0,230
243,815	-150,417	-0,168	0,009
244,830	-200,000	-0,046	-0,145
245,844	220,468	-0,142	-0,158
246,859	-10,684	-0,113	0,052
247,874	53,407	-0,314	-0,208
248,888	690,145	-0,103	-0,188
249,903	44,129	-0,223	-0,141
250,917	91,158	-0,196	-0,152
251,932	113,470	-0,171	-0,143
252,947	800,000	-0,058	-0,115
253,961	-15,894	-0,166	-0,073
254,976	-151,461	-0,234	0,012
255,990	547,790	-0,092	-0,153
257,005	-9,376	-0,221	-0,102
258,020	697,275	-0,116	-0,211
259,034	-108,125	-0,217	0,032
260,049	-89,812	-0,191	-0,038
261,063	50,558	-0,087	-0,057
262,078	371,733	-0,143	-0,202
263,093	162,513	-0,285	-0,277
264,107	257,534	-0,156	-0,186
265,122	800,000	-0,069	-0,148
266,136	-86,670	-0,151	0,032
267,151	-152,489	-0,200	0,010
268,166	-120,571	-0,161	0,019
269,180	62,157	-0,241	-0,166
270,195	92,504	-0,244	-0,190
271,209	-16,645	-0,170	-0,074
272,224	-41,303	-0,160	-0,057
273,239	9,246	-0,165	-0,086
274,253	-23,326	-0,140	-0,058
275,268	-56,622	-0,216	-0,066
276,282	800,000	-0,081	-0,190
277,297	666,528	-0,085	-0,152
278,312	39,519	-0,223	-0,138
279,326	-85,581	-0,034	-0,007
280,341	800,000	-0,066	-0,176
281,355	-58,172	-0,200	-0,060
282,370	101,046	-0,158	-0,127
283,384	540,030	-0,143	-0,236
284,399	131,880	-0,200	-0,178
285,414	-200,000	-0,068	-0,214
286,428	15,479	-0,159	-0,086
287,443	0,858	-0,073	-0,036
288,457	82,778	-0,134	-0,101
289,472	236,556	-0,153	-0,175
290,487	-200,000	-0,176	0,000
291,501	465,722	-0,116	-0,179
292,516	800,000	-0,091	-0,236
293,530	56,395	-0,063	-0,042
294,545	-22,396	-0,190	-0,079
295,560	145,709	-0,166	-0,154
296,574	-155,948	-0,182	-0,008
297,589	152,843	-0,208	-0,197
298,603	175,193	-0,082	-0,082
299,618	-8,340	-0,277	-0,128
300,633	-27,900	-0,103	-0,041
301,647	731,826	-0,116	-0,215
302,662	328,189	-0,129	-0,171
303,676	800,000	-0,064	-0,153
304,691	761,744	-0,072	-0,135
305,706	54,164	-0,143	-0,095
306,720	110,992	-0,164	-0,136
307,735	-67,543	-0,292	0,078
308,749	75,459	-0,069	-0,050
309,764	-53,458	-0,090	-0,028
310,779	-183,605	-0,210	0,002
311,793	202,726	-0,089	-0,095
312,808	800,000	-0,136	-0,283
313,822	800,000	-0,045	-0,104
314,837	22,326	-0,076	-0,043
315,852	306,408	-0,090	-0,115
316,866	273,399	-0,135	-0,164
317,881	-40,261	-0,175	-0,062
318,895	-18,919	-0,194	-0,083
319,910	800,000	-0,131	-0,265
320,925	-200,000	-0,068	-0,270
321,939	-141,061	-0,143	-0,010
322,954	-21,879	-0,254	-0,106
323,968	-125,131	-0,200	-0,021
324,983	150,128	-0,110	-0,103
325,997	18,070	-0,077	-0,042
327,012	144,303	-0,170	-0,156
328,027	176,874	-0,152	-0,153
329,041	-200,000	-0,008	-0,044
330,056	42,993	-0,171	-0,107
331,070	800,000	-0,027	-0,059
332,085	201,897	-0,085	-0,090
333,100	-74,101	-0,170	-0,042
334,114	19,244	-0,203	-0,112
335,129	172,282	-0,135	-0,134
336,143	174,416	-0,088	-0,088
337,158	-56,528	-0,093	-0,028
338,173	-115,386	0,070	-0,009
339,187	800,000	-0,066	-0,141
340,202	800,000	-0,082	-0,220
341,216	116,874	-0,178	-0,150
342,231	-126,948	-0,136	-0,014
343,246	-200,000	0,001	-0,010
344,260	411,809	-0,127	-0,186
345,275	-76,065	-0,163	-0,039
346,289	-86,598	-0,096	0,020
347,304	-11,104	-0,225	-0,101
348,319	800,000	-0,044	-0,130
349,333	26,476	-0,184	-0,106
350,348	387,572	-0,154	-0,219
351,362	-127,549	-0,080	-0,008
352,377	259,426	-0,101	-0,120
353,392	-78,207	-0,196	-0,046
354,406	-37,812	-0,183	0,067
355,421	208,145	1313,823	1411,126
356,435	160,143	1474,449	1411,620
