DTS Sentinel unit serial number:	SN410029Multiplexer serial number:	ORYXHardware model number:	OX2-SRSoftware version number:	ORYX F/W v4,00 Oryx Data Collector v3.7.2.0data status	okinstallation	B3 Nyhavnadifferential loss correction	single-endedforward channel	channel 1reverse channel	N/Adate	2023/12/01time	15:22:30forward acquisition time	300,00reverse acquisition time	0,00gamma	499,1914k internal	0,3209k external	0,3209temperature offset calibration	1,0000default loss term (dB/km)	0,3820temperature slope calibration	1,0000multiplexer offset coefficient	1,0000multiplexer slope coefficient	1,0000fibre end	0,00T internal ref (°C)	11,90T ext. ref 1 (°C)	-1,52T ext. ref 2 (°C)	-1,56length (m)	temperature (°C)	Stokes	anti-Stokes-744,400	800,000	-0,108	-0,275
-743,385	-200,000	0,040	0,259
-742,371	322,747	-0,203	-0,281
-741,356	800,000	0,109	0,265
-740,342	18,138	-0,245	-0,142
-739,327	800,000	-0,132	0,323
-738,312	-139,076	-0,314	-0,024
-737,298	-200,000	-0,039	0,301
-736,283	324,930	-0,215	-0,299
-735,269	-200,000	0,028	0,322
-734,254	122,899	-0,175	-0,159
-733,239	-24,906	-0,150	0,064
-732,225	151,956	-0,218	-0,215
-731,210	226,322	0,164	0,193
-730,196	-52,988	-0,082	-0,027
-729,181	-107,044	-0,074	0,012
-728,167	620,397	0,042	-0,076
-727,152	-77,546	0,081	-0,020
-726,137	449,202	-0,057	-0,092
-725,123	573,580	-0,039	-0,069
-724,108	800,000	-0,045	-0,136
-723,094	-129,082	-0,208	-0,021
-722,079	-58,474	0,080	-0,025
-721,064	-19,338	0,143	0,064
-720,050	-200,000	0,018	-0,106
-719,035	221,671	-0,030	0,035
-718,021	-48,264	-0,151	0,052
-717,006	-107,824	-0,207	0,032
-715,991	227,140	0,079	-0,093
-714,977	200,678	-0,078	-0,087
-713,962	-29,144	-0,160	-0,066
-712,948	-200,000	0,026	-0,130
-711,933	12,141	-0,075	-0,042
-710,918	61,516	0,046	-0,033
-709,904	-34,192	-0,145	0,057
-708,889	139,555	-0,114	-0,109
-707,875	-200,000	-0,002	-0,013
-706,860	-76,560	0,103	0,026
-705,845	22,945	-0,063	0,037
-704,831	-156,729	0,128	-0,006
-703,816	-96,293	-0,109	0,021
-702,802	315,319	0,030	0,041
-701,787	-24,143	-0,099	-0,043
-700,772	433,980	-0,066	-0,105
-699,758	800,000	-0,025	-0,056
-698,743	-200,000	-0,009	0,060
-697,729	180,398	-0,063	0,067
-696,714	60,440	-0,120	-0,086
-695,699	161,761	0,051	-0,051
-694,685	-70,915	-0,176	-0,048
-693,670	-24,156	-0,037	-0,016
-692,656	-137,801	-0,228	-0,018
-691,641	-46,497	-0,045	-0,016
-690,627	-42,387	-0,130	0,048
-689,612	-16,663	0,102	0,047
-688,597	314,593	-0,045	-0,061
-687,583	-200,000	-0,056	-0,243
-686,568	-21,254	-0,076	0,033
-685,554	800,000	0,072	0,157
-684,539	421,177	-0,044	0,068
-683,524	0,989	0,096	-0,049
-682,510	24,498	0,064	0,038
-681,495	35,748	-0,099	0,063
-680,481	-200,000	0,025	-0,104
-679,466	747,783	0,035	-0,068
-678,451	-162,223	0,061	0,002
-677,437	204,575	-0,107	-0,120
-676,422	-200,000	0,023	0,118
-675,408	-200,000	-0,017	-0,150
-674,393	232,957	-0,088	-0,105
-673,378	-6,964	-0,071	0,035
-672,364	19,383	0,048	-0,028
-671,349	129,487	-0,038	-0,035
-670,335	800,000	0,051	-0,123
-669,320	529,362	-0,066	-0,113
-668,305	-200,000	-0,004	0,016
-667,291	147,735	0,033	0,033
-666,276	-200,000	0,021	-0,180
-665,262	347,269	0,040	-0,057
-664,247	-7,861	-0,112	0,055
-663,232	800,000	0,025	0,067
-662,218	448,127	0,132	-0,211
-661,203	-114,440	0,054	-0,007
-660,189	-9,616	-0,113	-0,054
-659,174	291,562	0,081	-0,107
-658,159	-200,000	0,026	-0,111
-657,145	242,150	0,078	-0,095
-656,130	284,662	0,097	-0,126
-655,116	27,661	-0,025	-0,015
-654,101	105,805	0,087	0,074
-653,086	21,597	0,100	-0,059
-652,072	353,894	0,076	-0,110
-651,057	-200,000	0,009	-0,109
-650,043	192,939	-0,015	-0,016
-649,028	82,915	0,065	-0,051
-648,014	20,013	0,108	0,063
-646,999	4,792	-0,100	0,053
-645,984	-14,428	0,070	0,033
-644,970	-126,643	0,021	0,002
-643,955	-109,748	-0,068	0,010
-642,941	216,236	-0,046	-0,053
-641,926	105,186	0,009	-0,007
-640,911	490,435	-0,046	0,076
-639,897	-19,385	0,022	0,010
-638,882	26,245	0,049	0,030
-637,868	80,752	0,039	-0,030
-636,853	-69,896	-0,101	0,028
-635,838	287,750	-0,050	0,066
-634,824	-90,867	-0,033	-0,007
-633,809	2,814	-0,155	0,081
-632,795	164,750	0,089	0,090
-631,780	800,000	-0,056	0,116
-630,765	-107,281	-0,042	-0,007
-629,751	-200,000	-0,015	-0,102
-628,736	344,544	0,033	-0,047
-627,722	123,313	-0,037	0,033
-626,707	-118,026	0,116	-0,015
-625,692	-200,000	0,009	-0,109
-624,678	-84,385	0,137	0,031
-623,663	800,000	0,014	-0,041
-622,649	281,733	-0,007	0,010
-621,634	12,873	0,063	-0,035
-620,619	-60,963	-0,066	0,020
-619,605	41,690	0,116	0,076
-618,590	629,749	-0,043	0,080
-617,576	800,000	-0,015	-0,038
-616,561	-109,373	0,048	0,007
-615,546	-200,000	-0,005	-0,095
-614,532	19,294	-0,087	-0,050
-613,517	794,097	-0,043	0,085
-612,503	388,411	0,070	0,105
-611,488	800,000	-0,046	0,115
-610,474	-200,000	0,050	-0,165
-609,459	800,000	0,010	-0,021
-608,444	777,767	-0,043	-0,086
-607,430	85,240	-0,084	0,066
-606,415	-71,419	-0,102	-0,027
-605,401	-151,884	-0,058	0,003
-604,386	32,227	0,090	0,056
-603,371	-44,029	-0,029	-0,010
-602,357	790,282	-0,012	0,024
-601,342	-93,279	-0,063	-0,013
-600,328	-46,927	0,046	-0,016
-599,313	265,314	-0,044	0,055
-598,298	48,011	0,075	-0,051
-597,284	471,325	-0,028	0,045
-596,269	275,894	0,044	0,057
-595,255	-22,583	-0,087	-0,038
-594,240	800,000	-0,013	0,034
-593,225	237,090	-0,098	-0,117
-592,211	-200,000	0,006	0,037
-591,196	141,281	-0,039	0,037
-590,182	476,769	-0,040	0,065
-589,167	9,223	0,026	0,014
-588,152	8,782	0,077	-0,042
-587,138	74,459	-0,065	-0,049
-586,123	104,513	-0,094	-0,080
-585,109	691,040	-0,039	-0,074
-584,094	90,132	0,027	-0,022
-583,079	16,056	-0,091	-0,051
-582,065	21,473	-0,012	-0,007
-581,050	-19,955	0,064	-0,029
-580,036	434,738	0,041	-0,064
-579,021	-23,990	0,046	0,020
-578,006	351,545	-0,072	-0,103
-576,992	247,210	-0,071	0,087
-575,977	238,378	0,026	0,031
-574,963	-137,567	0,016	-0,001
-573,948	-200,000	0,022	0,124
-572,934	-200,000	0,006	0,040
-571,919	576,027	-0,013	-0,023
-570,904	526,276	0,029	-0,050
-569,890	800,000	-0,014	-0,036
-568,875	800,000	0,048	0,132
-567,861	581,816	0,102	0,180
-566,846	-200,000	-0,008	0,137
-565,831	-200,000	-0,018	0,144
-564,817	670,215	-0,039	0,073
-563,802	20,992	-0,060	0,035
-562,788	-146,467	-0,072	0,004
-561,773	800,000	0,048	-0,097
-560,758	146,900	-0,060	0,058
-559,744	-200,000	0,030	0,096
-558,729	16,248	-0,013	0,007
-557,715	-200,000	-0,016	0,131
-556,700	-200,000	0,019	-0,063
-555,685	800,000	0,046	-0,105
-554,671	-14,780	-0,029	-0,013
-553,656	39,305	0,057	-0,036
-552,642	800,000	-0,030	0,080
-551,627	34,509	-0,055	-0,035
-550,612	82,890	-0,145	0,113
-549,598	399,915	-0,055	0,083
-548,583	-67,905	-0,077	-0,022
-547,569	33,044	-0,045	0,028
-546,554	-200,000	-0,037	0,250
-545,539	116,374	0,074	0,065
-544,525	-200,000	-0,005	0,080
-543,510	119,228	-0,036	0,032
-542,496	-82,683	-0,072	0,017
-541,481	-74,181	-0,038	0,010
-540,466	800,000	0,021	0,043
-539,452	265,701	-0,035	0,044
-538,437	274,103	0,033	0,043
-537,423	-30,170	0,098	0,040
-536,408	-100,567	0,080	-0,014
-535,393	-200,000	0,009	0,175
-534,379	15,325	0,036	0,020
-533,364	233,009	-0,097	-0,115
-532,350	-200,000	-0,000	0,023
-531,335	7,194	-0,112	-0,060
-530,321	-200,000	0,023	-0,096
-529,306	-200,000	-0,018	0,060
-528,291	-200,000	-0,003	-0,072
-527,277	143,344	0,054	-0,052
-526,262	-107,515	0,109	-0,017
-525,248	40,550	-0,123	-0,080
-524,233	-200,000	0,002	0,041
-523,218	30,458	-0,087	0,054
-522,204	-200,000	0,011	0,054
-521,189	-47,395	-0,123	0,043
-520,175	-200,000	0,003	-0,009
-519,160	-159,465	-0,150	-0,006
-518,145	-143,926	0,074	-0,005
-517,131	-76,854	0,122	0,030
-516,116	110,764	-0,096	0,083
-515,102	-200,000	-0,024	0,095
-514,087	31,388	-0,057	0,035
-513,072	484,559	0,040	0,065
-512,058	7,476	-0,102	0,055
-511,043	51,835	0,095	-0,065
-510,029	800,000	0,045	0,117
-509,014	85,732	-0,098	-0,078
-507,999	110,669	0,165	-0,143
-506,985	330,905	-0,048	0,067
-505,970	62,783	-0,048	-0,034
-504,956	-200,000	-0,003	-0,032
-503,941	-31,560	-0,040	-0,016
-502,926	800,000	0,058	-0,119
-501,912	270,934	-0,049	0,062
-500,897	-200,000	-0,001	-0,027
-499,883	-5,257	-0,140	-0,069
-498,868	590,674	0,060	-0,107
-497,853	-6,564	0,078	0,038
-496,839	800,000	0,040	-0,116
-495,824	109,413	0,018	0,015
-494,810	-139,619	0,155	0,012
-493,795	159,558	0,043	-0,043
-492,781	-37,618	0,033	0,013
-491,766	37,577	0,097	0,062
-490,751	-165,321	-0,093	-0,003
-489,737	460,684	0,035	-0,056
-488,722	32,122	-0,080	0,050
-487,708	-200,000	-0,013	-0,099
-486,693	134,119	-0,103	0,096
-485,678	68,839	0,059	-0,043
-484,664	164,923	-0,057	-0,058
-483,649	-200,000	-0,014	0,057
-482,635	429,767	-0,018	0,028
-481,620	165,677	0,094	0,096
-480,605	417,992	0,039	-0,060
-479,591	-108,957	-0,187	-0,028
-478,576	-68,692	0,089	0,025
-477,562	-200,000	-0,051	-0,178
-476,547	-98,381	-0,156	0,028
-475,532	1,104	-0,031	0,016
-474,518	-200,000	-0,006	-0,044
-473,503	-156,360	0,169	-0,007
-472,489	-200,000	0,041	0,175
-471,474	800,000	0,033	0,087
-470,459	307,887	0,014	-0,019
-469,445	-57,479	0,016	0,005
-468,430	211,663	-0,016	-0,018
-467,416	-200,000	0,017	0,153
-466,401	-64,861	0,087	0,025
-465,386	143,693	-0,018	-0,017
-464,372	-200,000	0,002	0,113
-463,357	340,272	-0,039	0,055
-462,343	-92,060	-0,189	0,038
-461,328	-200,000	0,000	-0,061
-460,313	607,307	-0,070	0,126
-459,299	52,730	0,129	-0,089
-458,284	-7,997	0,088	0,042
-457,270	261,150	-0,138	0,172
-456,255	-200,000	-0,045	0,151
-455,241	800,000	0,050	-0,104
-454,226	-144,485	-0,163	-0,011
-453,211	-77,114	0,127	-0,032
-452,197	327,262	0,086	0,118
-451,182	27,711	0,041	0,025
-450,168	-34,124	0,082	0,032
-449,153	337,930	-0,070	-0,098
-448,138	3,933	0,155	-0,081
-447,124	-108,881	-0,181	-0,027
-446,109	165,502	-0,016	0,017
-445,095	-200,000	0,006	0,023
-444,080	148,137	-0,059	-0,057
-443,065	-88,094	0,153	-0,033
-442,051	-200,000	-0,052	0,000
-441,036	800,000	-0,030	-0,093
-440,022	-200,000	-0,031	-0,105
-439,007	800,000	0,008	0,022
-437,992	74,418	0,035	0,026
-436,978	-200,000	0,024	-0,101
-435,963	198,166	0,028	-0,030
-434,949	-114,393	-0,134	-0,018
-433,934	2,570	0,039	0,020
-432,919	94,083	-0,029	0,024
-431,905	3,349	-0,020	0,010
-430,890	800,000	-0,008	-0,024
-429,876	109,030	0,033	0,028
-428,861	-95,146	0,135	-0,026
-427,846	-200,000	-0,002	-0,044
-426,832	-120,293	-0,134	-0,016
-425,817	800,000	0,035	-0,076
-424,803	-200,000	0,021	-0,191
-423,788	1,135	0,089	0,046
-422,773	-200,000	-0,027	-0,173
-421,759	-200,000	0,025	-0,163
-420,744	-200,000	0,012	0,058
-419,730	800,000	-0,030	-0,074
-418,715	-200,000	0,033	-0,136
-417,701	-66,129	-0,076	0,022
-416,686	115,319	0,083	-0,073
-415,671	16,577	0,044	-0,025
-414,657	140,560	0,098	0,092
-413,642	-200,000	0,004	-0,038
-412,628	-200,000	0,006	-0,042
-411,613	-200,000	0,036	-0,160
-410,598	-200,000	-0,020	-0,071
-409,584	2,420	-0,050	-0,026
-408,569	-200,000	-0,012	0,127
-407,555	-8,090	0,088	0,042
-406,540	683,121	-0,064	-0,120
-405,525	321,514	0,055	-0,075
-404,511	-76,138	-0,091	0,023
-403,496	800,000	-0,045	-0,123
-402,482	17,000	-0,027	-0,015
-401,467	247,677	0,027	-0,033
-400,452	44,331	0,166	0,109
-399,438	800,000	-0,022	0,057
-398,423	800,000	-0,019	-0,039
-397,409	-200,000	-0,002	-0,048
-396,394	-49,934	0,137	0,046
-395,379	-200,000	-0,021	0,093
-394,365	284,313	0,041	0,053
-393,350	605,478	0,031	-0,056
-392,336	-80,350	0,177	-0,042
-391,321	64,709	0,041	-0,029
-390,306	-200,000	0,013	-0,070
-389,292	-200,000	-0,007	0,023
-388,277	-160,368	0,109	-0,004
-387,263	-107,519	-0,050	0,008
-386,248	27,213	-0,025	0,015
-385,233	30,559	0,024	0,015
-384,219	309,283	-0,046	0,062
-383,204	800,000	0,053	-0,126
-382,190	-155,643	-0,050	-0,002
-381,175	-200,000	-0,016	-0,105
-380,160	289,459	-0,071	-0,092
-379,146	158,746	0,029	0,029
-378,131	-200,000	0,005	-0,083
-377,117	43,140	0,021	-0,013
-376,102	-69,729	0,009	-0,002
-375,088	313,368	0,038	-0,052
-374,073	413,196	-0,022	0,033
-373,058	-200,000	0,002	0,025
-372,044	-200,000	-0,006	-0,037
-371,029	418,124	0,026	0,040
-370,015	59,244	-0,069	0,048
-369,000	-200,000	0,022	0,084
-367,985	-110,895	-0,199	-0,029
-366,971	81,544	-0,156	-0,121
-365,956	-66,528	0,061	-0,017
-364,942	-114,786	0,029	0,004
-363,927	-200,000	-0,005	0,040
-362,912	40,408	-0,056	0,036
-361,898	323,383	0,020	-0,027
-360,883	-200,000	-0,008	-0,159
-359,869	-200,000	0,006	-0,091
-358,854	27,827	0,135	0,081
-357,839	-11,725	0,076	0,035
-356,825	200,988	0,050	0,055
-355,810	202,956	0,005	-0,006
-354,796	316,853	-0,036	0,049
-353,781	720,247	-0,067	0,127
-352,766	-200,000	-0,012	0,092
-351,752	458,570	0,027	0,043
-350,737	128,330	0,049	-0,045
-349,723	800,000	0,047	0,121
-348,708	-104,844	-0,059	-0,010
-347,693	-25,474	-0,077	-0,032
-346,679	-200,000	0,020	-0,211
-345,664	-200,000	-0,015	-0,091
-344,650	342,470	-0,041	-0,058
-343,635	-200,000	0,030	-0,141
-342,620	-4,386	-0,072	0,036
-341,606	-200,000	0,038	0,132
-340,591	800,000	-0,032	0,073
-339,577	182,074	-0,014	0,014
-338,562	-98,261	-0,131	-0,024
-337,548	108,791	-0,072	0,061
-336,533	33,256	-0,018	0,011
-335,518	381,948	0,068	0,100
-334,504	23,801	0,064	0,038
-333,489	360,271	-0,094	-0,135
-332,475	228,267	-0,035	0,041
-331,460	196,139	0,045	0,048
-330,445	716,106	0,031	0,058
-329,431	-69,713	0,093	0,025
-328,416	133,578	0,060	-0,055
-327,402	-61,963	0,166	0,049
-326,387	252,742	0,043	-0,053
-325,372	74,805	-0,060	-0,045
-324,358	-200,000	-0,009	-0,039
-323,343	123,463	-0,145	-0,130
-322,329	-200,000	0,013	0,148
-321,314	-19,264	0,119	0,052
-320,299	266,806	0,053	0,066
-319,285	-200,000	0,066	0,000
-318,270	-200,000	-0,005	-0,021
-317,256	-200,000	-0,018	-0,060
-316,241	-18,195	0,072	-0,032
-315,226	-7,143	-0,068	0,033
-314,212	-145,849	0,179	-0,011
-313,197	306,949	0,080	0,107
-312,183	-136,096	-0,092	0,008
-311,168	-200,000	0,011	-0,196
-310,153	-200,000	-0,001	-0,020
-309,139	93,429	0,003	-0,003
-308,124	-43,579	0,044	-0,016
-307,110	-200,000	0,003	0,172
-306,095	269,824	-0,031	-0,039
-305,080	590,078	0,085	0,150
-304,066	-43,360	-0,077	0,027
-303,051	-200,000	0,004	-0,088
-302,037	800,000	-0,029	-0,080
-301,022	59,878	-0,042	-0,029
-300,008	679,530	0,134	0,249
-298,993	-200,000	-0,009	0,065
-297,978	-128,731	0,045	0,004
-296,964	-75,256	-0,070	0,018
-295,949	-200,000	-0,040	-0,190
-294,935	800,000	0,012	0,028
-293,920	800,000	0,026	-0,059
-292,905	-52,041	0,058	-0,019
-291,891	465,752	0,020	0,032
-290,876	268,793	-0,049	0,061
-289,862	119,073	-0,059	-0,052
-288,847	-200,000	-0,013	-0,068
-287,832	-200,000	0,018	-0,114
-286,818	-20,171	0,123	0,054
-285,803	536,371	-0,025	-0,042
-284,789	-22,265	-0,003	0,001
-283,774	71,684	-0,026	0,020
-282,759	52,380	-0,091	-0,061
-281,745	-112,693	-0,114	0,016
-280,730	-43,557	-0,093	-0,033
-279,716	-106,154	-0,062	-0,010
-278,701	90,417	-0,061	-0,048
-277,686	774,563	0,007	-0,014
-276,672	-97,339	-0,065	-0,012
-275,657	566,321	-0,083	0,144
-274,643	800,000	-0,013	-0,033
-273,628	133,425	-0,025	-0,023
-272,613	426,584	-0,026	-0,039
-271,599	269,194	-0,104	0,130
-270,584	-81,912	0,111	0,026
-269,570	-43,368	0,052	0,019
-268,555	-20,388	-0,076	-0,033
-267,540	322,688	0,030	0,041
-266,526	-200,000	0,006	0,000
-265,511	320,560	-0,033	0,044
-264,497	-11,691	0,071	-0,033
-263,482	-127,420	0,044	-0,005
-262,467	-200,000	0,008	0,066
-261,453	8,516	0,031	-0,016
-260,438	-200,000	0,003	-0,098
-259,424	-200,000	-0,033	-0,133
-258,409	-106,594	-0,050	0,008
-257,395	734,495	-0,027	-0,052
-256,380	-33,339	0,090	0,035
-255,365	-105,283	0,150	-0,024
-254,351	624,967	-0,099	0,178
-253,336	-126,069	0,044	-0,005
-252,322	74,027	-0,019	-0,014
-251,307	87,418	0,046	-0,036
-250,292	-45,122	0,119	-0,042
-249,278	-29,604	-0,044	-0,018
-248,263	32,815	0,089	0,055
-247,249	-191,988	-0,092	-0,001
-246,234	-81,817	0,051	-0,012
-245,219	75,698	-0,073	-0,055
-244,205	800,000	0,031	-0,068
-243,190	-200,000	0,028	0,114
-242,176	-10,417	0,091	-0,043
-241,161	4,186	0,177	0,092
-240,146	-200,000	0,023	0,138
-239,132	800,000	0,022	0,055
-238,117	-130,158	-0,100	0,010
-237,103	22,781	-0,099	-0,057
-236,088	524,776	0,065	-0,108
-235,073	93,833	-0,080	0,065
-234,059	471,176	0,020	0,032
-233,044	-200,000	-0,033	0,104
-232,030	-112,187	-0,099	-0,014
-231,015	170,309	0,090	0,091
-230,000	-200,000	-0,008	0,056
-228,986	-200,000	-0,010	0,033
-227,971	130,349	-0,066	-0,060
-226,957	160,731	0,091	0,090
-225,942	800,000	0,015	0,033
-224,927	-69,667	0,166	-0,045
-223,913	-200,000	-0,017	0,106
-222,898	-146,755	-0,084	0,005
-221,884	-200,000	0,016	-0,100
-220,869	-200,000	0,019	-0,059
-219,855	-200,000	0,002	0,059
-218,840	-200,000	-0,019	-0,098
-217,825	-70,403	-0,138	-0,037
-216,811	-200,000	-0,023	-0,142
-215,796	-39,467	0,058	-0,022
-214,782	800,000	-0,050	-0,116
-213,767	-101,593	0,148	-0,025
-212,752	1,862	-0,068	0,035
-211,738	-103,288	0,164	-0,027
-210,723	633,892	0,046	0,082
-209,709	800,000	-0,026	-0,070
-208,694	369,842	-0,119	-0,172
-207,679	-47,770	0,112	-0,038
-206,665	-188,621	0,143	0,001
-205,650	-108,013	0,117	-0,018
-204,636	49,084	0,144	0,096
-203,621	19,778	-0,135	0,077
-202,606	-200,000	0,002	0,009
-201,592	-200,000	-0,021	-0,125
-200,577	127,795	-0,092	0,083
-199,563	645,086	0,038	-0,070
-198,548	-157,261	-0,103	0,004
-197,533	-200,000	-0,007	0,066
-196,519	121,107	0,167	0,148
-195,504	110,216	-0,086	-0,073
-194,490	35,926	-0,092	-0,057
-193,475	-9,155	0,088	0,042
-192,460	2,642	-0,081	0,042
-191,446	-32,789	0,035	-0,014
-190,431	-200,000	-0,037	-0,167
-189,417	757,792	0,043	-0,083
-188,402	637,073	0,087	-0,157
-187,387	57,296	-0,118	-0,082
-186,373	-200,000	0,012	-0,061
-185,358	-45,069	0,146	0,051
-184,344	-153,298	0,099	-0,005
-183,329	-200,000	0,036	0,172
-182,315	-80,267	0,071	-0,017
-181,300	659,106	0,041	0,075
-180,285	20,113	0,029	0,017
-179,271	14,788	-0,123	-0,068
-178,256	-200,000	0,000	0,060
-177,242	59,642	-0,052	-0,036
-176,227	-200,000	-0,007	-0,160
-175,212	64,656	-0,068	-0,048
-174,198	598,882	-0,067	0,119
-173,183	103,557	-0,026	-0,022
-172,169	-129,361	-0,140	-0,014
-171,154	56,896	0,030	-0,021
-170,139	-200,000	0,023	0,117
-169,125	282,572	-0,030	0,039
-168,110	101,938	0,074	0,061
-167,096	-96,680	-0,054	0,010
-166,081	-200,000	0,019	-0,088
-165,066	-200,000	-0,021	0,073
-164,052	-200,000	0,006	-0,135
-163,037	20,913	0,080	-0,046
-162,023	-173,412	-0,060	-0,001
-161,008	800,000	0,029	-0,082
-159,993	261,444	-0,060	0,074
-158,979	-200,000	-0,030	-0,100
-157,964	31,583	-0,068	-0,041
-156,950	-200,000	0,018	-0,063
-155,935	-154,477	0,141	-0,007
-154,920	-72,708	0,116	-0,030
-153,906	293,991	-0,049	0,064
-152,891	768,479	-0,048	0,093
-151,877	104,673	0,067	0,056
-150,862	364,853	-0,077	0,110
-149,847	-200,000	0,022	-0,101
-148,833	-153,202	0,069	-0,003
-147,818	228,673	0,028	0,032
-146,804	-87,143	0,128	0,027
-145,789	-116,348	-0,076	0,010
-144,775	-200,000	-0,033	-0,154
-143,760	-200,000	0,011	-0,079
-142,745	54,412	-0,100	-0,068
-141,731	800,000	0,047	0,125
-140,716	800,000	-0,060	0,137
-139,702	-115,144	-0,175	0,023
-138,687	-200,000	0,036	0,148
-137,672	31,338	-0,034	0,021
-136,658	175,976	0,042	-0,043
-135,643	14,022	0,081	-0,044
-134,629	-92,011	-0,039	0,008
-133,614	800,000	-0,038	0,102
-132,599	513,683	0,109	0,180
-131,585	601,900	0,093	0,165
-130,570	-200,000	-0,000	0,193
-129,556	120,046	0,052	-0,045
-128,541	-26,585	-0,115	-0,047
-127,526	-101,480	-0,148	-0,025
-126,512	25,515	-0,117	0,069
-125,497	379,834	0,035	0,052
-124,483	122,386	0,036	-0,032
-123,468	-200,000	-0,015	-0,140
-122,453	300,069	0,045	0,059
-121,439	-49,587	-0,120	-0,040
-120,424	696,514	-0,065	0,121
-119,410	800,000	0,017	0,045
-118,395	-158,490	-0,059	-0,002
-117,380	-200,000	0,001	-0,006
-116,366	-200,000	0,005	-0,039
-115,351	18,681	0,099	-0,056
-114,337	800,000	0,028	-0,072
-113,322	-27,623	-0,162	-0,066
-112,307	800,000	0,021	0,053
-111,293	-24,082	0,034	0,014
-110,278	-10,536	0,049	-0,023
-109,264	-162,274	0,060	0,002
-108,249	-22,406	-0,114	-0,049
-107,234	800,000	-0,044	-0,099
-106,220	-15,769	-0,097	0,044
-105,205	288,648	-0,028	-0,035
-104,191	-164,235	0,101	0,003
-103,176	32,681	-0,078	-0,047
-102,162	361,591	0,133	-0,190
-101,147	-44,558	-0,189	0,067
-100,132	33,864	-0,044	-0,027
-99,118	800,000	-0,026	0,060
-98,103	-2,926	0,027	-0,013
-97,089	26,722	0,096	-0,057
-96,074	1,137	0,066	0,033
-95,059	343,551	-0,077	0,107
-94,045	-76,487	-0,083	0,021
-93,030	-0,574	0,157	-0,079
-92,016	-200,000	0,027	0,088
-91,001	800,000	0,010	-0,025
-89,986	157,920	-0,052	-0,051
-88,972	112,320	-0,026	-0,023
-87,957	-61,934	-0,110	-0,032
-86,943	7,786	-0,103	-0,054
-85,928	206,974	-0,018	0,020
-84,913	186,527	0,008	-0,008
-83,899	46,286	0,073	0,048
-82,884	557,941	-0,044	-0,076
-81,870	88,005	0,021	0,016
-80,855	800,000	0,049	0,122
-79,840	-21,474	0,052	-0,022
-78,826	668,400	-0,049	0,091
-77,811	800,000	0,029	0,075
-76,797	375,712	0,035	0,051
-75,782	200,512	0,078	0,085
-74,767	800,000	0,072	0,150
-73,753	-200,000	0,031	0,129
-72,738	-200,000	0,000	-0,010
-71,724	191,711	-0,109	-0,116
-70,709	595,688	-0,070	-0,123
-69,694	-200,000	-0,006	-0,153
-68,680	263,501	-0,061	0,076
-67,665	148,624	0,086	0,082
-66,651	-200,000	-0,001	0,128
-65,636	122,980	-0,103	-0,091
-64,622	-200,000	-0,002	0,017
-63,607	493,119	-0,098	-0,159
-62,592	-128,083	-0,188	-0,019
-61,578	122,092	-0,090	-0,079
-60,563	52,475	0,167	-0,112
-59,549	102,046	-0,108	0,089
-58,534	-12,251	-1,900	-0,874
-57,519	370,924	-1,438	-2,066
-56,505	-200,000	-0,417	-4,544
-55,490	448,626	0,858	1,339
-54,476	800,000	4,936	11,061
-53,461	-200,000	20,121	329,129
-52,446	800,000	749,809	2318,610
-51,432	553,908	1657,809	2826,072
-50,417	75,030	1666,004	1238,174
-49,403	19,788	1538,955	872,759
-48,388	13,785	1461,354	799,691
-47,373	18,728	1452,050	818,329
-46,359	16,450	1441,330	801,401
-45,344	12,013	1436,855	777,741
-44,330	11,913	1434,950	776,201
-43,315	11,985	1433,047	775,482
-42,300	11,940	1431,330	774,310
-41,286	11,942	1430,318	773,742
-40,271	11,903	1428,953	772,788
-39,257	11,934	1427,600	772,171
-38,242	11,984	1426,357	771,707
-37,227	11,939	1425,486	770,992
-36,213	11,990	1423,823	770,300
-35,198	11,984	1422,829	769,703
-34,184	12,003	1421,899	769,260
-33,169	11,939	1420,505	768,175
-32,154	12,028	1419,479	768,006
-31,140	12,016	1418,073	767,163
-30,125	12,080	1417,114	766,913
-29,111	11,999	1415,903	765,845
-28,096	11,980	1414,916	765,190
-27,082	11,879	1413,849	764,109
-26,067	11,934	1412,597	763,661
-25,052	11,890	1411,640	762,906
-24,038	11,942	1410,527	762,521
-23,023	11,927	1409,622	761,928
-22,009	11,917	1408,596	761,297
-20,994	11,916	1407,658	760,755
-19,979	11,915	1406,859	760,289
-18,965	11,870	1406,089	759,631
-17,950	11,892	1404,815	759,018
-16,936	11,906	1404,203	758,721
-15,921	11,848	1402,973	757,757
-14,906	11,826	1402,323	757,275
-13,892	11,817	1401,156	756,574
-12,877	11,845	1400,383	756,252
-11,863	11,864	1399,487	755,830
-10,848	11,793	1398,673	755,030
-9,833	11,790	1397,691	754,455
-8,819	11,779	1396,811	753,898
-7,804	11,713	1395,979	753,115
-6,790	11,747	1394,798	752,606
-5,775	11,751	1393,971	752,148
-4,760	11,737	1392,805	751,424
-3,746	11,730	1392,002	750,930
-2,731	11,740	1391,320	750,576
-1,717	11,691	1390,687	749,980
-0,702	11,742	1388,607	749,061
0,313	15,839	1303,899	722,150
1,327	32,474	697,111	424,110
2,342	50,739	121,481	81,031
3,356	3,089	16,514	8,443
4,371	8,058	3,293	1,738
5,386	30,780	0,824	0,497
6,400	-200,000	0,154	0,530
7,415	-16,018	-0,121	-0,054
8,429	-33,254	-0,259	-0,100
9,444	800,000	-0,161	-0,328
10,459	11,299	-0,243	-0,131
11,473	126,877	-0,299	-0,267
12,488	-28,054	-0,334	-0,136
13,502	-81,014	-0,362	-0,084
14,517	-40,018	-0,429	-0,157
15,531	28,962	-0,295	-0,176
16,546	178,766	-0,273	-0,282
17,561	103,697	-0,321	-0,266
18,575	-26,310	-0,326	-0,134
19,590	-2,025	-0,351	-0,173
20,604	50,030	-0,181	-0,120
21,619	21,281	-0,391	-0,223
22,634	71,206	-0,434	-0,317
23,648	66,846	-0,392	-0,281
24,663	46,632	-0,391	-0,255
25,677	74,793	-0,287	-0,213
26,692	-43,310	-0,315	-0,112
27,707	6,060	-0,365	-0,190
28,721	43,243	-0,469	-0,301
29,736	60,767	-0,441	-0,308
30,750	51,592	-0,333	-0,223
31,765	138,018	-0,301	-0,278
32,780	170,797	-0,309	-0,312
33,794	46,714	-0,453	-0,296
34,809	-23,782	-0,354	-0,149
35,823	50,316	-0,401	-0,266
36,838	82,221	-0,381	-0,290
37,853	244,445	-0,342	-0,405
38,867	-5,794	-0,504	-0,242
39,882	53,229	-0,360	-0,242
40,896	-50,351	-0,345	-0,114
41,911	3,113	-0,272	-0,139
42,926	27,525	-0,307	-0,181
43,940	85,275	-0,349	-0,269
44,955	178,397	-0,325	-0,334
45,969	105,025	-0,409	-0,339
46,984	1,553	-0,374	-0,188
47,999	203,947	-0,360	-0,392
49,013	196,777	-0,305	-0,327
50,028	122,613	-0,340	-0,299
51,042	64,547	-0,381	-0,270
52,057	66,341	-0,333	-0,237
53,071	14,789	-0,389	-0,213
54,086	125,625	-0,410	-0,363
55,101	135,324	-0,204	-0,187
56,115	88,628	-0,342	-0,267
57,130	229,212	-0,292	-0,335
58,144	42,198	-0,464	-0,296
59,159	18,189	-0,365	-0,204
60,174	50,843	-0,345	-0,229
61,188	31,007	-0,457	-0,275
62,203	18,325	-0,241	-0,135
63,217	-16,584	-0,409	-0,181
64,232	40,485	-0,355	-0,224
65,247	9,822	-0,278	-0,148
66,261	75,885	-0,367	-0,272
67,276	115,739	-0,379	-0,325
68,290	213,010	-0,217	-0,241
69,305	40,902	-0,294	-0,186
70,320	3,661	-0,394	-0,201
71,334	30,085	-0,309	-0,184
72,349	74,725	-0,282	-0,208
73,363	18,335	-0,294	-0,164
74,378	14,898	-0,334	-0,183
75,393	231,556	-0,320	-0,368
76,407	287,554	-0,207	-0,263
77,422	302,485	-0,238	-0,310
78,436	-45,586	-0,390	-0,135
79,451	-0,299	-0,317	-0,158
80,466	29,821	-0,297	-0,177
81,480	29,753	-0,421	-0,251
82,495	-41,011	-0,384	-0,138
83,509	-0,350	-0,310	-0,154
84,524	-116,944	-0,493	-0,062
85,539	-37,632	-0,342	-0,127
86,553	-4,962	-0,277	-0,133
87,568	-116,752	-0,327	-0,042
88,582	15,494	-0,373	-0,205
89,597	47,309	-0,212	-0,138
90,611	1,557	-0,347	-0,174
91,626	-95,543	-0,274	-0,051
92,641	-102,004	-0,297	-0,050
93,655	153,905	-0,279	-0,267
94,670	-1,570	-0,435	-0,214
95,684	124,185	-0,233	-0,205
96,699	-128,969	-0,301	0,029
97,714	155,388	-0,225	-0,217
98,728	157,999	-0,294	-0,285
99,743	245,933	-0,122	-0,144
100,757	93,050	-0,311	-0,246
101,772	95,239	-0,299	-0,238
102,787	-55,075	-0,397	-0,124
103,801	62,148	-0,335	-0,233
104,816	-12,671	-0,290	-0,132
105,830	133,838	-0,290	-0,263
106,845	-19,812	-0,255	-0,110
107,860	42,074	-0,319	-0,202
108,874	-32,859	-0,290	-0,112
109,889	83,763	-0,358	-0,273
110,903	800,000	-0,125	-0,257
111,918	204,390	-0,226	-0,245
112,933	306,710	-0,189	-0,247
113,947	116,463	-0,196	-0,168
114,962	-81,086	-0,404	-0,093
115,976	-84,037	-0,371	-0,082
116,991	108,071	-0,222	-0,185
118,006	133,846	-0,310	-0,280
119,020	116,001	-0,126	-0,108
120,035	-15,744	-0,296	-0,131
121,049	171,994	-0,152	-0,153
122,064	56,264	-0,193	-0,131
123,079	105,470	-0,268	-0,221
124,093	-38,353	-0,339	-0,125
125,108	156,311	-0,221	-0,213
126,122	54,644	-0,384	-0,258
127,137	-193,613	-0,298	0,002
128,151	800,000	-0,128	-0,262
129,166	77,730	-0,239	-0,177
130,181	139,557	-0,257	-0,236
131,195	225,122	-0,262	-0,296
132,210	99,476	-0,239	-0,193
133,224	-73,886	-0,278	-0,070
134,239	-60,148	-0,341	-0,101
135,254	189,752	-0,163	-0,171
136,268	-200,000	-0,099	-0,328
137,283	-19,184	-0,274	-0,118
138,297	6,407	-0,362	-0,187
139,312	69,597	-0,175	-0,125
140,327	119,802	-0,299	-0,258
141,341	-2,687	-0,284	-0,138
142,356	-19,917	-0,287	-0,123
143,370	800,000	-0,085	-0,181
144,385	134,885	-0,217	-0,197
145,400	72,062	-0,267	-0,193
146,414	99,268	-0,189	-0,152
147,429	-18,852	-0,262	-0,113
148,443	118,199	-0,192	-0,165
149,458	546,718	-0,139	-0,233
150,473	65,679	-0,258	-0,181
151,487	401,337	-0,134	-0,197
152,502	73,326	-0,294	-0,214
153,516	90,021	-0,263	-0,204
154,531	-4,310	-0,265	-0,127
155,546	97,062	-0,215	-0,172
156,560	-0,617	-0,150	-0,074
157,575	87,688	-0,231	-0,178
158,589	94,071	-0,280	-0,221
159,604	-28,056	-0,234	-0,094
160,619	174,960	-0,255	-0,257
161,633	26,550	-0,289	-0,168
162,648	185,970	-0,233	-0,242
163,662	111,053	-0,131	-0,110
164,677	68,303	-0,186	-0,132
165,692	-93,091	-0,241	0,046
166,706	53,581	-0,335	-0,223
167,721	139,387	-0,146	-0,134
168,735	-45,506	-0,399	-0,137
169,750	124,427	-0,267	-0,233
170,764	800,000	-0,110	-0,240
171,779	1,734	-0,298	-0,149
172,794	144,004	-0,116	-0,107
173,808	-26,973	-0,259	-0,105
174,823	-132,424	-0,262	0,023
175,837	-94,066	-0,355	-0,067
176,852	75,606	-0,092	-0,068
177,867	55,226	-0,173	-0,116
178,881	800,000	-0,113	-0,228
179,896	235,244	-0,185	-0,213
180,910	136,567	-0,190	-0,172
181,925	-29,947	-0,279	-0,110
182,940	164,933	-0,250	-0,245
183,954	-142,004	-0,253	-0,017
184,969	124,106	-0,142	-0,124
185,983	27,348	-0,251	-0,146
186,998	63,079	-0,231	-0,161
188,013	31,683	-0,151	-0,090
189,027	58,099	-0,276	-0,187
190,042	-15,369	-0,277	-0,122
191,056	84,745	-0,274	-0,208
192,071	56,713	-0,166	-0,112
193,086	-100,533	-0,096	-0,016
194,100	499,568	-0,200	-0,321
195,115	19,368	-0,254	-0,141
196,129	71,966	-0,241	-0,174
197,144	-108,176	-0,227	-0,034
198,159	-24,849	-0,184	-0,075
199,173	683,947	-0,125	-0,227
200,188	25,437	-0,241	-0,139
201,202	128,802	-0,219	-0,194
202,217	12,356	-0,184	-0,098
203,232	226,982	-0,199	-0,225
204,246	40,559	-0,305	-0,190
205,261	46,652	-0,275	-0,177
206,275	60,168	-0,248	-0,170
207,290	242,220	-0,145	-0,168
208,304	2,922	-0,156	-0,078
209,319	4,275	-0,220	-0,112
210,334	253,127	-0,134	-0,159
211,348	286,456	-0,239	-0,300
212,363	11,664	-0,173	-0,092
213,377	648,622	-0,091	-0,161
214,392	-141,103	-0,294	-0,021
215,407	18,642	-0,155	-0,085
216,421	4,072	-0,130	-0,066
217,436	445,672	-0,113	-0,173
218,450	28,535	-0,252	-0,147
219,465	182,633	-0,085	-0,087
220,480	392,488	-0,055	-0,079
221,494	446,365	-0,141	-0,215
222,509	380,146	-0,115	-0,164
223,523	455,999	-0,095	-0,146
224,538	202,846	-0,119	-0,128
225,553	65,908	-0,283	-0,198
226,567	89,198	-0,303	-0,233
227,582	-57,639	-0,167	-0,050
228,596	93,079	-0,175	-0,137
229,611	161,047	-0,205	-0,198
230,626	432,695	-0,078	-0,118
231,640	-61,272	-0,163	-0,047
232,655	266,780	-0,175	-0,212
233,669	250,209	-0,177	-0,209
234,684	11,268	-0,156	-0,082
235,699	-146,705	-0,178	0,011
236,713	500,211	-0,064	0,103
237,728	-200,000	0,008	-0,117
238,742	59,157	-0,248	-0,168
239,757	289,792	-0,198	-0,249
240,772	-48,547	-0,309	-0,102
241,786	800,000	-0,152	-0,293
242,801	69,602	-0,178	-0,126
243,815	194,242	-0,222	-0,233
244,830	-133,218	-0,251	-0,022
245,844	-174,643	-0,173	-0,003
246,859	-23,445	-0,247	-0,102
247,874	70,616	-0,104	-0,074
248,888	-26,596	-0,225	-0,090
249,903	300,570	-0,115	-0,147
250,917	8,552	-0,200	-0,104
251,932	302,675	-0,112	-0,143
252,947	265,525	-0,219	-0,264
253,961	91,106	-0,143	-0,111
254,976	-128,256	-0,220	-0,021
255,990	188,935	-0,240	-0,249
257,005	158,886	-0,237	-0,227
258,020	-77,637	-0,154	-0,037
259,034	-37,237	-0,231	-0,085
260,049	2,132	-0,186	-0,092
261,063	-80,934	-0,156	-0,035
262,078	421,450	-0,092	-0,137
263,093	289,238	-0,163	-0,204
264,107	635,978	-0,116	-0,203
265,122	-115,991	-0,263	0,033
266,136	133,753	-0,078	-0,070
267,151	351,130	-0,052	-0,071
268,166	100,178	-0,125	-0,100
269,180	80,720	-0,197	-0,146
270,195	58,766	-0,178	-0,121
271,209	38,618	-0,191	-0,117
272,224	112,384	-0,187	-0,156
273,239	282,563	-0,162	-0,201
274,253	84,181	-0,060	0,045
275,268	-73,555	-0,274	-0,068
276,282	75,899	-0,271	-0,197
277,297	800,000	-0,100	-0,207
278,312	301,869	-0,184	-0,234
279,326	-177,683	-0,126	-0,002
280,341	-103,330	-0,193	-0,031
281,355	-82,878	-0,163	-0,036
282,370	119,864	-0,206	-0,176
283,384	-102,195	-0,109	-0,018
284,399	208,056	-0,105	-0,113
285,414	389,018	-0,035	-0,050
286,428	-200,000	0,040	-0,182
287,443	108,042	-0,119	-0,097
288,457	136,447	-0,127	-0,114
289,472	-107,158	-0,166	-0,025
290,487	196,410	-0,071	-0,075
291,501	281,066	-0,149	-0,184
292,516	266,895	-0,193	-0,233
293,530	49,758	-0,120	-0,077
294,545	-20,842	-0,085	-0,036
295,560	-94,728	-0,075	-0,014
296,574	39,952	-0,254	-0,156
297,589	800,000	-0,152	-0,292
298,603	122,299	-0,207	-0,178
299,618	22,024	-0,263	-0,147
300,633	63,569	-0,135	-0,093
301,647	17,367	-0,082	-0,044
302,662	-61,916	-0,166	-0,047
303,676	206,205	-0,049	-0,053
304,691	15,675	-0,092	-0,049
305,706	-181,573	-0,232	-0,003
306,720	19,675	-0,124	-0,069
307,735	203,163	-0,141	-0,150
308,749	-85,511	-0,230	0,049
309,764	62,866	-0,202	-0,138
310,779	-29,620	-0,226	0,088
311,793	800,000	-0,035	-0,088
312,808	85,102	-0,156	-0,117
313,822	248,485	-0,192	-0,223
314,837	20,934	-0,098	-0,054
315,852	-200,000	-0,009	-0,067
316,866	-114,851	-0,126	-0,016
317,881	232,129	-0,094	-0,106
318,895	-200,000	-0,029	-0,102
319,910	186,210	-0,092	-0,094
320,925	800,000	-0,082	-0,193
321,939	741,159	-0,102	-0,189
322,954	-67,832	-0,111	0,030
323,968	39,799	-0,136	0,083
324,983	-25,529	-0,165	-0,066
325,997	-32,492	-0,166	-0,063
327,012	11,458	-0,231	-0,121
328,027	446,846	-0,132	-0,200
329,041	-120,858	-0,135	0,015
330,056	150,597	-0,106	-0,098
331,070	86,849	-0,180	-0,136
332,085	6,391	-0,098	0,050
333,100	-121,798	-0,036	-0,004
334,114	-129,210	-0,211	-0,020
335,129	-158,713	-0,273	-0,011
336,143	50,669	-0,170	-0,110
337,158	-8,686	-0,160	-0,073
338,173	321,379	-0,139	-0,182
339,187	-20,931	-0,049	-0,021
340,202	-71,739	-0,230	-0,058
341,216	22,136	-0,226	-0,126
342,231	361,974	-0,092	-0,127
343,246	43,303	-0,161	-0,101
344,260	194,883	-0,156	-0,162
345,275	536,655	-0,083	-0,135
346,289	440,994	-0,114	-0,172
347,304	305,337	-0,153	-0,195
348,319	21,688	-0,184	-0,102
349,333	204,754	-0,245	-0,261
350,348	-59,077	-0,118	-0,035
351,362	-200,000	0,007	0,027
352,377	-58,532	-0,351	-0,104
353,392	15,960	-0,083	0,045
354,406	-200,000	0,014	-0,147
355,421	209,106	1313,887	1409,349
356,435	160,932	1474,476	1409,841
