DTS Sentinel unit serial number:	SN410029Multiplexer serial number:	ORYXHardware model number:	OX2-SRSoftware version number:	ORYX F/W v4,00 Oryx Data Collector v3.7.2.0data status	okinstallation	B3 Nyhavnadifferential loss correction	single-endedforward channel	channel 1reverse channel	N/Adate	2023/12/04time	14:42:30forward acquisition time	300,00reverse acquisition time	0,00gamma	499,1914k internal	0,3201k external	0,3201temperature offset calibration	1,0000default loss term (dB/km)	0,3820temperature slope calibration	1,0000multiplexer offset coefficient	1,0000multiplexer slope coefficient	1,0000fibre end	0,00T internal ref (°C)	15,02T ext. ref 1 (°C)	0,24T ext. ref 2 (°C)	0,23length (m)	temperature (°C)	Stokes	anti-Stokes-744,400	35,770	-0,285	-0,182
-743,385	412,670	0,157	0,244
-742,371	547,712	-0,119	-0,209
-741,356	-200,000	-0,002	0,357
-740,342	-41,933	-0,271	-0,101
-739,327	773,632	0,126	0,252
-738,312	253,232	-0,189	-0,235
-737,298	-200,000	-0,102	0,343
-736,283	216,081	-0,137	-0,159
-735,269	-200,000	0,007	0,354
-734,254	279,364	-0,159	-0,206
-733,239	520,010	-0,171	0,292
-732,225	565,561	-0,100	-0,177
-731,210	228,637	0,080	-0,095
-730,196	338,328	0,024	-0,034
-729,181	-65,704	-0,153	-0,044
-728,167	59,396	0,023	0,017
-727,152	1,970	0,119	-0,062
-726,137	-6,255	-0,101	0,050
-725,123	-97,604	-0,234	-0,044
-724,108	-141,797	-0,151	0,011
-723,094	68,536	-0,022	-0,017
-722,079	800,000	0,016	-0,039
-721,064	-200,000	0,026	-0,095
-720,050	-34,765	0,123	0,049
-719,035	-200,000	-0,037	0,145
-718,021	792,904	-0,044	0,088
-717,006	-33,424	-0,167	-0,067
-715,991	-194,557	-0,088	0,000
-714,977	-33,377	-0,041	0,017
-713,962	-19,729	-0,043	-0,019
-712,948	-11,686	-0,133	-0,063
-711,933	319,958	0,028	0,038
-710,918	110,593	-0,029	0,026
-709,904	89,127	0,065	0,053
-708,889	-138,735	-0,255	0,020
-707,875	-200,000	-0,016	-0,164
-706,860	337,781	0,045	-0,064
-705,845	367,534	-0,063	0,092
-704,831	200,563	0,058	0,065
-703,816	-200,000	-0,000	0,033
-702,802	-127,172	-0,034	0,004
-701,787	306,664	0,076	0,103
-700,772	800,000	0,043	-0,089
-699,758	-200,000	-0,022	-0,187
-698,743	-138,550	-0,103	-0,008
-697,729	-98,905	0,085	-0,016
-696,714	800,000	-0,019	-0,052
-695,699	-161,700	-0,185	-0,007
-694,685	-161,297	-0,073	0,003
-693,670	402,733	0,128	-0,195
-692,656	241,932	-0,028	0,034
-691,641	800,000	0,022	0,054
-690,627	97,765	-0,046	0,038
-689,612	-200,000	-0,003	-0,034
-688,597	-200,000	0,016	-0,110
-687,583	72,840	-0,008	-0,006
-686,568	-200,000	0,003	0,036
-685,554	-200,000	0,008	0,047
-684,539	297,866	-0,063	0,085
-683,524	90,546	-0,025	0,020
-682,510	7,440	0,055	0,030
-681,495	-65,281	-0,020	-0,006
-680,481	50,394	0,087	-0,060
-679,466	386,131	-0,073	-0,110
-678,451	30,730	0,012	-0,007
-677,437	800,000	-0,038	-0,101
-676,422	735,558	0,043	-0,085
-675,408	37,501	0,112	0,072
-674,393	14,729	-0,065	-0,037
-673,378	-200,000	0,010	-0,103
-672,364	473,837	0,100	-0,164
-671,349	-200,000	0,010	-0,065
-670,335	27,504	0,014	0,008
-669,320	-46,386	-0,040	0,014
-668,305	-200,000	-0,011	0,138
-667,291	-74,784	-0,110	0,028
-666,276	-200,000	0,014	-0,113
-665,262	479,818	0,041	-0,068
-664,247	-34,658	0,041	0,016
-663,232	-200,000	0,000	0,043
-662,218	-200,000	-0,017	-0,053
-661,203	184,235	0,040	-0,043
-660,189	-3,693	-0,066	0,033
-659,174	95,854	-0,028	0,023
-658,159	-116,872	-0,044	-0,006
-657,145	244,731	0,062	-0,075
-656,130	-200,000	-0,029	-0,123
-655,116	-89,989	0,102	-0,021
-654,101	42,837	0,084	0,055
-653,086	-200,000	-0,035	-0,143
-652,072	800,000	0,061	-0,126
-651,057	-200,000	0,013	-0,071
-650,043	-17,966	-0,105	0,048
-649,028	-88,134	-0,155	-0,033
-648,014	800,000	0,039	-0,094
-646,999	441,859	0,070	0,112
-645,984	-64,464	-0,059	-0,017
-644,970	375,493	-0,026	-0,038
-643,955	166,775	0,149	-0,154
-642,941	-138,058	-0,127	-0,010
-641,926	-64,536	0,019	-0,006
-640,911	-200,000	-0,022	0,089
-639,897	800,000	0,078	0,225
-638,882	299,011	0,057	-0,076
-637,868	-98,192	-0,049	-0,009
-636,853	146,292	-0,067	0,066
-635,838	-58,157	0,065	0,020
-634,824	-149,941	0,079	0,004
-633,809	-200,000	-0,014	-0,051
-632,795	800,000	0,062	0,125
-631,780	-135,712	0,060	-0,005
-630,765	306,997	-0,095	-0,128
-629,751	-200,000	-0,012	-0,093
-628,736	-200,000	0,003	0,135
-627,722	136,652	-0,098	-0,093
-626,707	-120,390	-0,093	-0,011
-625,692	240,379	0,065	-0,078
-624,678	-200,000	0,010	0,094
-623,663	-21,258	-0,065	-0,029
-622,649	77,422	0,110	0,085
-621,634	800,000	0,023	0,051
-620,619	434,218	-0,054	0,085
-619,605	564,695	0,037	0,065
-618,590	800,000	0,037	0,092
-617,576	43,712	-0,047	-0,031
-616,561	800,000	0,018	0,051
-615,546	622,746	-0,022	-0,040
-614,532	800,000	-0,072	-0,149
-613,517	52,641	0,011	-0,007
-612,503	-92,357	-0,039	-0,008
-611,488	-169,108	-0,045	0,001
-610,474	-200,000	-0,004	-0,070
-609,459	243,291	-0,013	0,016
-608,444	-45,764	-0,054	-0,019
-607,430	-200,000	0,000	-0,047
-606,415	800,000	0,031	-0,063
-605,401	-167,488	-0,091	0,003
-604,386	800,000	0,022	-0,051
-603,371	163,515	0,133	0,136
-602,357	543,845	-0,041	-0,071
-601,342	-200,000	-0,019	-0,100
-600,328	-47,455	-0,061	-0,021
-599,313	267,550	0,085	-0,108
-598,298	-200,000	0,013	-0,136
-597,284	140,548	-0,088	0,084
-596,269	-132,336	0,131	0,012
-595,255	-153,816	0,093	0,005
-594,240	-104,306	-0,141	-0,023
-593,225	669,241	0,038	-0,071
-592,211	-200,000	-0,002	-0,105
-591,196	-153,697	0,119	-0,006
-590,182	-57,456	0,156	-0,049
-589,167	-41,670	-0,110	-0,041
-588,152	37,527	-0,081	-0,052
-587,138	-37,798	-0,029	-0,011
-586,123	-168,821	-0,156	-0,004
-585,109	-66,858	-0,083	-0,024
-584,094	-31,898	-0,090	0,036
-583,079	-159,944	0,042	0,002
-582,065	-200,000	0,012	0,090
-581,050	-84,372	0,117	-0,026
-580,036	158,923	-0,066	0,066
-579,021	-200,000	-0,010	-0,140
-578,006	-144,968	-0,144	-0,009
-576,992	-69,640	-0,073	0,020
-575,977	-200,000	-0,008	0,033
-574,963	-200,000	-0,008	0,074
-573,948	-83,846	-0,155	0,035
-572,934	-22,551	0,129	0,056
-571,919	-159,439	-0,206	0,008
-570,904	-60,906	-0,055	0,017
-569,890	-106,765	-0,048	0,008
-568,875	-153,539	-0,070	0,003
-567,861	80,920	0,067	0,052
-566,846	800,000	0,025	-0,074
-565,831	516,916	-0,026	0,045
-564,817	-113,801	0,047	-0,006
-563,802	333,585	-0,099	0,139
-562,788	800,000	-0,026	-0,078
-561,773	-137,923	-0,058	-0,005
-560,758	579,822	0,027	-0,049
-559,744	-200,000	-0,010	0,047
-558,729	-194,520	0,097	-0,001
-557,715	68,834	-0,041	0,031
-556,700	70,280	-0,099	-0,073
-555,685	115,651	0,077	-0,068
-554,671	0,926	0,046	-0,024
-553,656	286,349	-0,069	-0,090
-552,642	800,000	0,031	0,074
-551,627	-110,562	0,084	-0,012
-550,612	-200,000	-0,006	0,087
-549,598	-200,000	0,019	-0,080
-548,583	800,000	-0,057	-0,132
-547,569	-34,832	-0,170	0,067
-546,554	-200,000	0,012	-0,067
-545,539	109,094	0,050	-0,043
-544,525	-109,073	-0,075	-0,011
-543,510	84,396	-0,058	0,046
-542,496	-42,383	-0,015	0,005
-541,481	94,536	-0,062	0,051
-540,466	675,463	0,051	0,097
-539,452	-24,750	0,116	0,049
-538,437	495,276	-0,057	0,094
-537,423	97,256	0,029	-0,024
-536,408	494,384	-0,072	0,120
-535,393	-200,000	-0,005	0,042
-534,379	-184,110	-0,074	-0,001
-533,364	-200,000	0,040	-0,159
-532,350	84,959	0,082	0,064
-531,335	800,000	-0,020	0,054
-530,321	-134,272	0,111	0,010
-529,306	577,735	-0,019	0,033
-528,291	800,000	0,011	-0,034
-527,277	488,559	0,028	-0,046
-526,262	700,201	0,069	-0,132
-525,248	-152,466	0,152	-0,008
-524,233	-200,000	-0,020	0,097
-523,218	-193,295	0,007	0,000
-522,204	800,000	-0,027	-0,055
-521,189	-200,000	-0,029	-0,116
-520,175	-200,000	-0,019	-0,087
-519,160	-17,973	-0,047	0,021
-518,145	-200,000	0,006	0,050
-517,131	411,087	-0,002	-0,003
-516,116	-65,054	-0,132	-0,038
-515,102	30,219	-0,079	0,048
-514,087	129,940	0,077	-0,071
-513,072	-200,000	0,011	-0,070
-512,058	-200,000	0,018	-0,080
-511,043	122,487	0,036	-0,033
-510,029	-64,156	0,056	0,016
-509,014	180,156	0,127	0,134
-507,999	231,256	-0,065	0,077
-506,985	-95,473	-0,048	0,009
-505,970	61,166	0,070	0,050
-504,956	9,285	-0,184	0,100
-503,941	-15,452	0,080	0,037
-502,926	800,000	-0,039	-0,102
-501,912	167,359	0,055	0,057
-500,897	-200,000	0,027	0,107
-499,883	173,895	0,046	-0,048
-498,868	-200,000	0,003	0,050
-497,853	-55,159	-0,031	-0,010
-496,839	-119,604	0,076	-0,009
-495,824	-118,310	-0,013	0,002
-494,810	800,000	-0,025	0,065
-493,795	236,895	0,040	0,048
-492,781	800,000	-0,010	0,021
-491,766	-74,147	-0,090	0,023
-490,751	314,213	0,063	-0,085
-489,737	11,545	0,083	-0,045
-488,722	-200,000	-0,004	-0,113
-487,708	-200,000	0,007	-0,059
-486,693	211,011	0,094	0,107
-485,678	189,915	-0,051	-0,055
-484,664	-53,587	0,091	-0,030
-483,649	97,767	-0,052	0,043
-482,635	6,873	-0,120	-0,064
-481,620	800,000	0,006	0,019
-480,605	45,704	0,070	-0,046
-479,591	119,793	0,018	-0,016
-478,576	-42,467	-0,042	0,015
-477,562	10,686	-0,034	0,018
-476,547	800,000	0,047	-0,107
-475,532	-128,662	-0,150	-0,015
-474,518	-200,000	0,039	-0,183
-473,503	64,244	0,058	0,042
-472,489	-200,000	-0,011	0,057
-471,474	58,153	-0,011	0,008
-470,459	800,000	0,011	-0,031
-469,445	-200,000	-0,000	0,020
-468,430	-47,000	0,099	0,035
-467,416	-83,596	0,173	0,039
-466,401	-200,000	-0,017	0,071
-465,386	226,629	0,098	0,115
-464,372	-189,886	-0,088	-0,001
-463,357	800,000	-0,051	-0,107
-462,343	-200,000	-0,003	0,014
-461,328	136,447	-0,045	-0,042
-460,313	278,317	-0,053	-0,068
-459,299	210,300	0,078	0,088
-458,284	-200,000	0,066	0,255
-457,270	-30,631	0,052	0,021
-456,255	-200,000	-0,001	-0,041
-455,241	-92,112	-0,064	0,013
-454,226	749,701	-0,025	-0,048
-453,211	-53,627	0,041	-0,013
-452,197	-146,508	-0,041	0,003
-451,182	4,326	0,052	0,027
-450,168	800,000	0,004	0,008
-449,153	147,727	-0,052	-0,050
-448,138	800,000	-0,053	-0,110
-447,124	800,000	0,039	-0,104
-446,109	-200,000	0,001	0,013
-445,095	43,472	0,122	0,080
-444,080	-16,075	0,079	-0,036
-443,065	800,000	0,026	-0,058
-442,051	-200,000	-0,014	-0,047
-441,036	285,263	0,087	-0,113
-440,022	800,000	-0,045	0,106
-439,007	-88,992	0,058	-0,012
-437,992	-42,659	0,019	0,007
-436,978	800,000	0,018	0,043
-435,963	-89,662	0,035	0,007
-434,949	434,777	-0,014	-0,022
-433,934	563,688	-0,082	-0,144
-432,919	310,908	0,094	-0,127
-431,905	-84,285	0,046	0,010
-430,890	-82,600	0,048	-0,011
-429,876	296,327	0,089	0,118
-428,861	30,093	0,150	-0,092
-427,846	-200,000	0,027	0,140
-426,832	46,880	-0,038	0,025
-425,817	183,959	0,051	0,054
-424,803	-200,000	-0,015	0,063
-423,788	-200,000	-0,007	0,063
-422,773	-200,000	0,002	-0,067
-421,759	10,602	0,093	0,051
-420,744	-109,959	-0,068	0,010
-419,730	-67,096	-0,100	-0,028
-418,715	-132,891	0,084	0,008
-417,701	-71,384	0,071	-0,019
-416,686	-45,667	0,035	-0,012
-415,671	-92,120	0,103	-0,021
-414,657	800,000	-0,056	0,121
-413,642	-200,000	0,011	-0,099
-412,628	212,554	-0,069	-0,078
-411,613	-68,920	-0,109	0,030
-410,598	-200,000	-0,000	-0,176
-409,584	800,000	-0,033	-0,074
-408,569	-200,000	0,041	0,131
-407,555	-77,365	0,113	0,028
-406,540	-37,780	-0,091	-0,035
-405,525	-94,385	-0,195	-0,038
-404,511	347,598	0,028	-0,040
-403,496	-157,750	-0,029	-0,001
-402,482	17,607	0,085	0,048
-401,467	-200,000	0,002	0,047
-400,452	205,133	0,119	-0,133
-399,438	800,000	0,042	-0,093
-398,423	427,728	-0,066	-0,103
-397,409	471,561	-0,084	-0,136
-396,394	-200,000	-0,008	0,033
-395,379	177,559	-0,106	-0,111
-394,365	-200,000	0,001	0,109
-393,350	-67,925	0,123	0,034
-392,336	-200,000	0,001	0,104
-391,321	125,907	-0,012	0,010
-390,306	316,199	-0,059	-0,080
-389,292	-200,000	0,055	0,000
-388,277	438,883	-0,071	-0,112
-387,263	25,496	0,103	0,062
-386,248	-200,000	0,017	0,067
-385,233	78,286	0,013	-0,010
-384,219	-200,000	-0,002	-0,083
-383,204	34,613	-0,122	-0,076
-382,190	-55,618	-0,133	0,042
-381,175	-200,000	0,012	0,054
-380,160	109,973	-0,010	-0,008
-379,146	390,068	0,081	-0,120
-378,131	-79,925	0,056	-0,013
-377,117	192,917	-0,008	0,008
-376,102	-200,000	0,003	-0,124
-375,088	-200,000	-0,015	-0,118
-374,073	-82,532	-0,107	0,025
-373,058	800,000	-0,022	0,059
-372,044	60,621	0,089	0,063
-371,029	87,872	-0,122	0,097
-370,015	-106,730	-0,101	-0,016
-369,000	-200,000	0,028	-0,107
-367,985	-50,092	-0,147	-0,050
-366,971	219,769	0,035	0,041
-365,956	124,235	-0,119	-0,108
-364,942	800,000	-0,021	0,062
-363,927	-200,000	0,036	0,131
-362,912	51,498	0,039	-0,026
-361,898	22,796	-0,085	0,050
-360,883	-200,000	0,001	-0,163
-359,869	-12,521	0,187	-0,087
-358,854	44,891	0,051	-0,034
-357,839	155,565	-0,013	-0,013
-356,825	13,830	0,087	0,048
-355,810	800,000	0,058	-0,162
-354,796	-8,552	0,077	0,037
-353,781	800,000	-0,031	-0,067
-352,766	154,400	-0,068	-0,067
-351,752	368,371	0,068	0,098
-350,737	192,126	0,087	-0,094
-349,723	171,340	-0,055	-0,056
-348,708	11,849	0,093	0,051
-347,693	35,449	0,056	0,035
-346,679	800,000	-0,073	0,153
-345,664	640,652	-0,004	-0,007
-344,650	202,658	0,013	-0,014
-343,635	-200,000	-0,002	-0,025
-342,620	210,806	0,075	0,084
-341,606	-47,548	-0,007	-0,002
-340,591	-200,000	0,006	0,031
-339,577	800,000	0,015	0,037
-338,562	-79,526	-0,094	-0,023
-337,548	-200,000	0,015	-0,157
-336,533	-114,394	0,038	-0,005
-335,518	-148,807	0,066	0,004
-334,504	-200,000	0,009	-0,033
-333,489	-128,778	-0,062	-0,006
-332,475	31,537	0,107	-0,066
-331,460	43,572	-0,090	-0,059
-330,445	587,999	0,030	-0,054
-329,431	432,540	-0,104	0,161
-328,416	800,000	0,038	0,111
-327,402	800,000	-0,031	0,090
-326,387	-6,414	0,050	-0,024
-325,372	-200,000	0,005	0,055
-324,358	800,000	-0,035	0,077
-323,343	800,000	0,009	-0,019
-322,329	152,394	0,010	-0,010
-321,314	-127,827	0,147	0,015
-320,299	81,406	0,104	0,080
-319,285	2,726	0,052	0,027
-318,270	-200,000	0,031	-0,097
-317,256	800,000	-0,016	0,039
-316,241	-200,000	-0,020	-0,109
-315,226	800,000	-0,017	0,044
-314,212	-200,000	0,021	-0,097
-313,197	212,246	0,076	0,085
-312,183	18,970	0,048	0,027
-311,168	800,000	0,021	0,067
-310,153	45,425	0,138	-0,091
-309,139	-200,000	0,015	0,131
-308,124	72,943	0,052	0,039
-307,110	369,216	-0,032	-0,046
-306,095	187,291	0,083	-0,088
-305,080	-200,000	-0,018	0,085
-304,066	237,552	-0,032	0,038
-303,051	800,000	-0,022	-0,057
-302,037	-39,454	0,145	-0,054
-301,022	156,390	0,038	0,038
-300,008	-97,979	0,103	0,019
-298,993	800,000	-0,046	0,099
-297,978	21,603	-0,040	0,023
-296,964	316,633	-0,035	-0,048
-295,949	800,000	0,015	0,044
-294,935	-62,572	-0,014	-0,004
-293,920	-141,090	-0,097	-0,007
-292,905	279,431	0,064	0,082
-291,891	487,315	-0,035	0,057
-290,876	800,000	-0,068	0,180
-289,862	-103,465	-0,098	-0,016
-288,847	-200,000	-0,013	-0,205
-287,832	-116,534	-0,090	-0,012
-286,818	75,471	0,042	0,032
-285,803	-45,099	0,119	0,042
-284,789	139,251	0,033	-0,031
-283,774	-200,000	0,009	-0,040
-282,759	171,096	-0,019	0,020
-281,745	-200,000	-0,010	-0,049
-280,730	270,558	-0,106	-0,134
-279,716	-88,007	-0,059	-0,012
-278,701	800,000	-0,034	0,098
-277,686	800,000	-0,048	0,117
-276,672	-200,000	0,005	0,173
-275,657	-200,000	-0,005	0,018
-274,643	-133,059	0,054	0,005
-273,628	-102,837	-0,129	0,022
-272,613	-178,831	0,048	0,001
-271,599	-112,918	0,142	-0,020
-270,584	-87,306	0,062	0,013
-269,570	800,000	0,035	0,107
-268,555	308,307	-0,055	0,073
-267,540	19,334	0,083	0,047
-266,526	262,876	-0,056	-0,070
-265,511	-53,669	0,159	-0,051
-264,497	-66,696	-0,013	0,004
-263,482	-200,000	-0,000	-0,012
-262,467	158,485	-0,032	-0,031
-261,453	800,000	-0,028	0,065
-260,438	-200,000	0,002	0,030
-259,424	-35,876	-0,127	-0,049
-258,409	-200,000	0,019	0,162
-257,395	397,612	-0,026	0,039
-256,380	-54,868	0,061	0,020
-255,365	-200,000	0,022	-0,185
-254,351	800,000	-0,034	0,072
-253,336	38,512	0,113	-0,072
-252,322	800,000	0,027	0,066
-251,307	-4,942	-0,076	0,037
-250,292	88,456	-0,044	0,035
-249,278	-200,000	0,013	0,109
-248,263	-200,000	0,010	-0,057
-247,249	-137,673	-0,143	-0,011
-246,234	138,827	0,075	0,071
-245,219	-158,891	-0,077	-0,003
-244,205	788,871	0,044	-0,087
-243,190	800,000	0,027	-0,061
-242,176	-200,000	0,016	-0,136
-241,161	800,000	0,035	-0,087
-240,146	-66,912	-0,053	0,015
-239,132	79,496	-0,057	0,044
-238,117	-100,810	-0,147	-0,025
-237,103	-200,000	0,026	-0,088
-236,088	371,600	-0,076	-0,111
-235,073	800,000	-0,039	-0,104
-234,059	-200,000	0,005	0,026
-233,044	-200,000	-0,010	0,191
-232,030	-200,000	-0,003	-0,072
-231,015	-122,668	-0,155	0,018
-230,000	135,777	0,107	-0,099
-228,986	-115,127	-0,056	0,008
-227,971	-121,665	-0,075	-0,009
-226,957	-147,833	0,098	-0,006
-225,942	-127,277	-0,097	0,010
-224,927	67,013	0,050	0,036
-223,913	-24,894	-0,065	0,027
-222,898	45,727	0,083	-0,054
-221,884	-200,000	0,000	0,017
-220,869	-200,000	-0,001	-0,131
-219,855	718,148	-0,031	0,058
-218,840	19,844	0,079	0,045
-217,825	39,857	-0,104	0,066
-216,811	-91,500	-0,095	-0,019
-215,796	800,000	-0,025	0,078
-214,782	249,043	0,025	0,031
-213,767	-109,344	-0,063	-0,009
-212,752	-68,802	0,029	0,008
-211,738	169,790	0,099	0,101
-210,723	-200,000	-0,012	-0,083
-209,709	48,135	-0,090	0,060
-208,694	-82,268	-0,144	0,033
-207,679	-164,728	-0,110	0,003
-206,665	-114,498	-0,167	-0,023
-205,650	-200,000	-0,011	-0,101
-204,636	4,904	-0,067	0,035
-203,621	608,855	0,096	0,171
-202,606	-200,000	0,007	-0,074
-201,592	800,000	-0,057	0,121
-200,577	717,532	0,034	0,064
-199,563	4,480	0,132	0,069
-198,548	-0,230	0,030	0,015
-197,533	-200,000	0,007	0,108
-196,519	800,000	0,028	0,081
-195,504	-200,000	0,011	-0,050
-194,490	586,263	0,054	0,095
-193,475	91,088	-0,051	0,040
-192,460	279,009	0,073	0,092
-191,446	-86,724	0,152	0,033
-190,431	179,572	-0,107	0,112
-189,417	800,000	0,017	0,047
-188,402	136,457	0,093	0,086
-187,387	103,407	-0,059	-0,049
-186,373	-124,736	-0,068	0,007
-185,358	370,249	-0,066	-0,095
-184,344	13,374	0,124	-0,068
-183,329	208,532	0,045	-0,050
-182,315	360,291	0,043	0,062
-181,300	22,208	-0,096	0,056
-180,285	-200,000	0,007	-0,145
-179,271	74,344	0,108	-0,080
-178,256	-5,868	-0,087	-0,042
-177,242	800,000	-0,060	0,147
-176,227	235,346	0,051	0,060
-175,212	-48,863	-0,034	0,011
-174,198	-200,000	-0,009	0,041
-173,183	115,508	-0,054	0,047
-172,169	308,142	0,069	0,091
-171,154	524,032	0,045	-0,076
-170,139	800,000	0,027	-0,056
-169,125	-56,893	-0,061	0,019
-168,110	800,000	-0,042	0,107
-167,096	-37,464	-0,090	-0,034
-166,081	725,440	0,042	-0,081
-165,066	257,397	-0,083	-0,101
-164,052	800,000	0,011	0,027
-163,037	-32,689	-0,122	0,048
-162,023	120,895	0,123	-0,109
-161,008	78,209	0,094	0,071
-159,993	-62,863	0,061	-0,018
-158,979	258,391	-0,035	-0,043
-157,964	-97,754	0,143	-0,026
-156,950	-8,323	0,084	0,040
-155,935	-67,332	-0,097	0,027
-154,920	52,638	0,041	0,028
-153,906	-200,000	0,019	0,124
-152,891	-2,214	-0,105	-0,052
-151,877	-125,727	-0,214	-0,023
-150,862	-200,000	0,033	-0,128
-149,847	272,412	-0,108	-0,136
-148,833	-200,000	-0,006	0,044
-147,818	36,449	0,106	0,066
-146,804	122,925	-0,064	0,057
-145,789	-97,782	-0,012	0,002
-144,775	-200,000	-0,002	0,009
-143,760	-200,000	0,020	0,070
-142,745	-200,000	-0,011	-0,063
-141,731	-42,776	-0,084	-0,030
-140,716	34,542	0,011	0,007
-139,702	363,844	0,024	-0,034
-138,687	-200,000	0,032	0,161
-137,672	-200,000	-0,010	-0,057
-136,658	215,450	-0,049	-0,055
-135,643	-82,328	-0,184	0,042
-134,629	-200,000	-0,004	0,151
-133,614	-200,000	0,002	-0,040
-132,599	-57,981	-0,089	0,028
-131,585	-140,713	0,125	0,009
-130,570	-200,000	0,013	0,131
-129,556	37,101	-0,098	0,062
-128,541	232,763	-0,038	0,044
-127,526	800,000	-0,040	-0,100
-126,512	700,964	0,030	-0,056
-125,497	-161,226	0,046	-0,002
-124,483	-200,000	-0,042	0,218
-123,468	-62,777	0,112	-0,033
-122,453	-48,639	-0,088	0,030
-121,439	-156,734	-0,067	0,003
-120,424	130,439	0,107	-0,098
-119,410	225,821	-0,091	-0,105
-118,395	206,726	0,059	-0,065
-117,380	319,750	-0,088	-0,118
-116,366	280,469	-0,024	0,031
-115,351	251,326	0,084	0,102
-114,337	-200,000	-0,036	-0,152
-113,322	800,000	-0,014	-0,043
-112,307	-36,266	0,075	-0,028
-111,293	225,175	0,068	0,078
-110,278	28,775	-0,032	-0,019
-109,264	-101,636	-0,101	0,017
-108,249	-200,000	0,019	-0,082
-107,234	581,198	0,065	-0,114
-106,220	-200,000	-0,016	-0,139
-105,205	800,000	-0,038	-0,090
-104,191	800,000	0,044	0,105
-103,176	111,936	-0,080	0,068
-102,162	-200,000	-0,001	0,024
-101,147	-15,804	-0,092	-0,041
-100,132	1,622	-0,092	-0,047
-99,118	182,692	-0,102	-0,107
-98,103	-200,000	0,004	-0,027
-97,089	-92,662	-0,078	0,015
-96,074	-200,000	-0,024	0,081
-95,059	-110,634	0,113	-0,016
-94,045	743,924	-0,038	0,072
-93,030	12,081	-0,057	-0,031
-92,016	-200,000	0,025	-0,191
-91,001	112,224	0,032	-0,027
-89,986	92,228	0,071	0,057
-88,972	800,000	0,056	0,138
-87,957	800,000	0,028	-0,080
-86,943	800,000	-0,066	0,131
-85,928	-119,412	0,064	-0,008
-84,913	49,587	0,129	-0,086
-83,899	548,161	0,006	0,011
-82,884	523,022	0,055	-0,092
-81,870	-10,283	0,099	-0,046
-80,855	-41,999	-0,078	0,028
-79,840	-140,626	0,136	0,010
-78,826	157,572	0,078	-0,077
-77,811	548,713	-0,051	0,087
-76,797	800,000	-0,107	-0,241
-75,782	74,033	-0,101	0,075
-74,767	-200,000	0,015	0,084
-73,753	800,000	-0,072	0,166
-72,738	250,861	-0,068	-0,082
-71,724	-200,000	0,015	0,058
-70,709	-16,283	0,138	-0,062
-69,694	-200,000	0,011	0,129
-68,680	-200,000	-0,006	0,118
-67,665	-200,000	-0,009	-0,076
-66,651	800,000	-0,017	0,038
-65,636	-200,000	0,024	0,113
-64,622	550,640	0,050	0,086
-63,607	439,833	-0,021	-0,033
-62,592	-69,808	-0,098	-0,026
-61,578	-70,831	-0,010	0,003
-60,563	-200,000	0,000	0,040
-59,549	800,000	-0,039	0,119
-58,534	-73,053	-1,465	-0,378
-57,519	349,512	-1,497	-2,100
-56,505	-200,000	-0,532	-4,600
-55,490	146,298	0,970	0,922
-54,476	800,000	4,846	11,305
-53,461	-200,000	18,265	287,320
-52,446	800,000	727,171	2227,044
-51,432	554,171	1643,269	2809,422
-50,417	79,288	1665,357	1262,732
-49,403	22,904	1539,017	890,997
-48,388	16,913	1462,263	817,556
-47,373	17,903	1452,151	816,638
-46,359	17,237	1442,862	808,194
-45,344	15,142	1438,109	795,500
-44,330	15,060	1436,236	794,042
-43,315	15,080	1434,352	793,063
-42,300	15,108	1432,787	792,300
-41,286	15,107	1431,448	791,523
-40,271	15,077	1430,390	790,764
-39,257	15,088	1429,137	790,092
-38,242	15,112	1427,873	789,478
-37,227	15,123	1426,573	788,778
-36,213	15,139	1425,342	788,143
-35,198	15,110	1424,270	787,383
-34,184	15,174	1423,328	787,130
-33,169	15,072	1422,195	785,993
-32,154	15,120	1421,108	785,586
-31,140	15,169	1419,599	784,952
-30,125	15,128	1418,694	784,226
-29,111	15,146	1417,424	783,581
-28,096	15,128	1416,299	782,840
-27,082	15,034	1415,218	781,770
-26,067	15,007	1414,263	781,087
-25,052	15,080	1412,979	780,689
-24,038	15,050	1411,984	779,969
-23,023	15,048	1410,867	779,308
-22,009	14,995	1410,044	778,577
-20,994	14,982	1409,130	777,981
-19,979	15,011	1408,355	777,659
-18,965	14,971	1407,337	776,877
-17,950	14,960	1406,406	776,283
-16,936	14,994	1405,202	775,745
-15,921	14,947	1404,189	774,934
-14,906	14,964	1403,401	774,551
-13,892	14,974	1402,413	774,021
-12,877	14,945	1401,626	773,419
-11,863	14,954	1400,557	772,841
-10,848	14,919	1399,787	772,222
-9,833	14,901	1398,900	771,619
-8,819	14,862	1397,926	770,870
-7,804	14,881	1396,928	770,378
-6,790	14,829	1395,857	769,513
-5,775	14,862	1394,879	769,099
-4,760	14,830	1394,109	768,497
-3,746	14,817	1393,406	768,018
-2,731	14,843	1392,391	767,549
-1,717	14,847	1391,546	767,069
-0,702	14,843	1389,739	766,023
0,313	18,584	1308,774	738,726
1,327	34,701	707,103	436,483
2,342	52,943	124,834	84,367
3,356	1,638	16,768	8,514
4,371	7,420	3,052	1,609
5,386	-38,923	0,567	0,210
6,400	-200,000	-0,022	0,193
7,415	90,998	-0,202	-0,160
8,429	17,343	-0,396	-0,222
9,444	152,534	-0,318	-0,307
10,459	65,137	-0,343	-0,245
11,473	99,321	-0,325	-0,266
12,488	45,639	-0,269	-0,175
13,502	9,927	-0,337	-0,181
14,517	78,367	-0,470	-0,354
15,531	163,779	-0,380	-0,378
16,546	110,445	-0,349	-0,297
17,561	197,021	-0,269	-0,290
18,575	144,870	-0,274	-0,259
19,590	357,585	-0,149	-0,211
20,604	-108,155	-0,317	-0,048
21,619	80,401	-0,416	-0,316
22,634	44,286	-0,389	-0,252
23,648	57,584	-0,424	-0,293
24,663	110,285	-0,363	-0,308
25,677	76,150	-0,303	-0,226
26,692	31,316	-0,419	-0,254
27,707	163,496	-0,324	-0,322
28,721	84,999	-0,348	-0,269
29,736	800,000	-0,127	-0,298
30,750	42,490	-0,561	-0,359
31,765	59,557	-0,487	-0,339
32,780	65,232	-0,249	-0,177
33,794	99,140	-0,335	-0,273
34,809	49,740	-0,346	-0,230
35,823	56,198	-0,455	-0,311
36,838	14,475	-0,400	-0,220
37,853	63,603	-0,410	-0,290
38,867	164,252	-0,372	-0,370
39,882	44,025	-0,395	-0,255
40,896	-22,087	-0,339	-0,145
41,911	226,498	-0,219	-0,251
42,926	-0,832	-0,408	-0,203
43,940	800,000	-0,164	-0,386
44,955	-10,365	-0,337	-0,157
45,969	-25,589	-0,450	-0,186
46,984	104,196	-0,393	-0,326
47,999	-69,826	-0,298	-0,080
49,013	163,199	-0,244	-0,241
50,028	-15,916	-0,498	-0,222
51,042	-61,795	-0,236	-0,069
52,057	110,772	-0,311	-0,264
53,071	72,535	-0,357	-0,262
54,086	7,383	-0,394	-0,207
55,101	81,976	-0,293	-0,223
56,115	15,317	-0,391	-0,215
57,130	-20,123	-0,529	-0,229
58,144	136,997	-0,321	-0,296
59,159	233,718	-0,252	-0,293
60,174	8,492	-0,440	-0,232
61,188	306,023	-0,327	-0,429
62,203	38,950	-0,288	-0,181
63,217	31,403	-0,223	-0,134
64,232	54,953	-0,328	-0,223
65,247	49,820	-0,427	-0,283
66,261	51,670	-0,430	-0,288
67,276	-30,319	-0,399	-0,159
68,290	209,375	-0,293	-0,323
69,305	51,283	-0,344	-0,230
70,320	96,627	-0,245	-0,198
71,334	42,399	-0,288	-0,184
72,349	270,642	-0,248	-0,307
73,363	-57,142	-0,384	-0,118
74,378	73,928	-0,241	-0,178
75,393	-44,091	-0,316	-0,111
76,407	-16,913	-0,321	-0,142
77,422	-101,825	-0,301	-0,051
78,436	-78,522	-0,430	-0,103
79,451	-53,022	-0,201	-0,065
80,466	-23,088	-0,354	-0,149
81,480	256,161	-0,284	-0,344
82,495	251,737	-0,283	-0,339
83,509	524,537	-0,146	-0,242
84,524	-101,056	-0,334	-0,057
85,539	-78,212	-0,279	-0,067
86,553	300,889	-0,168	-0,218
87,568	646,496	-0,226	-0,407
88,582	50,879	-0,332	-0,221
89,597	138,073	-0,264	-0,243
90,611	-75,806	-0,235	-0,058
91,626	-52,848	-0,396	-0,127
92,641	-26,521	-0,357	-0,146
93,655	0,862	-0,339	-0,170
94,670	22,998	-0,347	-0,199
95,684	-72,003	-0,484	-0,125
96,699	-7,890	-0,379	-0,179
97,714	106,503	-0,222	-0,184
98,728	-134,182	-0,160	-0,014
99,743	-70,400	-0,301	-0,079
100,757	-28,171	-0,352	-0,142
101,772	220,651	-0,200	-0,225
102,787	62,411	-0,229	-0,160
103,801	140,092	-0,256	-0,237
104,816	106,117	-0,296	-0,245
105,830	63,535	-0,126	-0,089
106,845	41,088	-0,155	-0,098
107,860	120,392	-0,229	-0,199
108,874	56,393	-0,291	-0,198
109,889	226,493	-0,208	-0,237
110,903	-17,571	-0,304	-0,134
111,918	-20,263	-0,348	-0,150
112,933	9,343	-0,341	-0,180
113,947	76,046	-0,217	-0,160
114,962	-64,882	-0,228	-0,064
115,976	-90,643	-0,230	-0,046
116,991	-54,422	-0,280	-0,088
118,006	-27,409	-0,354	-0,144
119,020	37,831	-0,310	-0,193
120,035	119,324	-0,258	-0,224
121,049	-86,727	-0,313	-0,067
122,064	111,334	-0,204	-0,172
123,079	43,253	-0,284	-0,181
124,093	16,750	-0,330	-0,182
125,108	-39,602	-0,278	-0,101
126,122	62,071	-0,222	-0,155
127,137	57,891	-0,160	-0,109
128,151	-27,397	-0,263	-0,107
129,166	66,748	-0,230	-0,164
130,181	168,669	-0,098	-0,098
131,195	340,522	-0,243	-0,332
132,210	-29,335	-0,345	-0,137
133,224	189,423	-0,261	-0,274
134,239	408,699	-0,086	-0,128
135,254	-49,774	-0,227	-0,075
136,268	-39,516	-0,350	-0,127
137,283	151,963	-0,245	-0,234
138,297	204,756	-0,224	-0,243
139,312	170,734	-0,245	-0,246
140,327	20,293	-0,304	-0,171
141,341	0,673	-0,216	-0,108
142,356	130,378	-0,212	-0,190
143,370	-22,042	-0,268	-0,113
144,385	-96,990	-0,273	0,050
145,400	166,177	-0,297	-0,295
146,414	63,157	-0,320	-0,224
147,429	-9,773	-0,205	-0,095
148,443	67,811	-0,101	-0,072
149,458	-103,017	-0,350	-0,057
150,473	144,373	-0,203	-0,189
151,487	-105,269	-0,295	-0,047
152,502	-121,778	-0,348	-0,040
153,516	-40,803	-0,348	-0,125
154,531	800,000	-0,219	-0,435
155,546	93,866	-0,152	-0,120
156,560	138,618	-0,214	-0,197
157,575	5,297	-0,333	-0,171
158,589	80,847	-0,190	-0,143
159,604	421,416	-0,149	-0,223
160,619	-0,384	-0,266	-0,131
161,633	128,826	-0,231	-0,206
162,648	0,615	-0,257	-0,128
163,662	96,820	-0,218	-0,174
164,677	175,651	-0,079	-0,080
165,692	196,892	-0,197	-0,209
166,706	106,462	-0,247	-0,204
167,721	356,330	-0,131	-0,183
168,735	580,548	-0,137	-0,234
169,750	-60,541	-0,398	-0,117
170,764	114,647	-0,196	-0,166
171,779	106,711	-0,171	-0,141
172,794	-15,630	-0,244	-0,108
173,808	360,230	-0,116	-0,162
174,823	206,030	-0,283	-0,307
175,837	154,861	-0,295	-0,283
176,852	-159,253	-0,215	-0,008
177,867	-5,732	-0,264	-0,126
178,881	118,411	-0,151	-0,130
179,896	-66,725	-0,341	-0,093
180,910	557,581	-0,101	-0,171
181,925	354,779	-0,166	-0,230
182,940	77,238	-0,256	-0,189
183,954	-2,368	-0,202	-0,098
184,969	91,065	-0,203	-0,158
185,983	193,615	-0,273	-0,288
186,998	-16,974	-0,220	-0,096
188,013	-48,918	-0,180	0,060
189,027	-186,496	-0,196	0,002
190,042	-51,353	-0,297	-0,096
191,056	-2,001	-0,260	-0,127
192,071	4,671	-0,192	-0,098
193,086	25,736	-0,235	-0,136
194,100	-107,980	-0,164	-0,025
195,115	110,121	-0,214	-0,179
196,129	-45,754	-0,367	-0,125
197,144	-200,000	-0,091	-0,286
198,159	741,118	-0,164	-0,308
199,173	17,786	-0,159	-0,088
200,188	800,000	-0,064	-0,182
201,202	139,208	-0,108	-0,099
202,217	450,529	-0,113	-0,174
203,232	-8,933	-0,185	-0,086
204,246	115,917	-0,362	-0,308
205,261	211,030	-0,248	-0,271
206,275	150,550	-0,225	-0,213
207,290	119,148	-0,178	-0,153
208,304	303,024	-0,113	-0,146
209,319	343,145	-0,191	-0,261
210,334	249,425	-0,150	-0,176
211,348	47,889	-0,156	-0,101
212,363	716,384	-0,102	-0,189
213,377	23,483	-0,131	-0,075
214,392	244,950	-0,149	-0,174
215,407	-109,304	-0,286	-0,042
216,421	136,744	-0,052	-0,047
217,436	1,503	-0,151	-0,075
218,450	-101,660	-0,166	-0,028
219,465	407,527	-0,115	-0,170
220,480	573,311	-0,129	-0,218
221,494	92,656	-0,135	-0,105
222,509	800,000	-0,100	-0,221
223,523	493,373	-0,042	-0,067
224,538	217,639	-0,258	-0,286
225,553	-122,195	-0,220	-0,025
226,567	72,989	-0,306	-0,222
227,582	276,494	-0,167	-0,206
228,596	30,486	-0,236	-0,140
229,611	545,490	-0,085	-0,142
230,626	800,000	-0,141	-0,321
231,640	558,958	-0,149	-0,251
232,655	75,041	-0,205	-0,150
233,669	269,141	-0,165	-0,202
234,684	54,362	-0,280	-0,186
235,699	-27,363	-0,170	-0,068
236,713	-44,477	-0,159	-0,055
237,728	2,600	-0,065	-0,033
238,742	15,789	-0,166	-0,090
239,757	56,382	-0,160	-0,107
240,772	-25,875	-0,230	-0,093
241,786	141,193	-0,115	-0,105
242,801	800,000	-0,069	-0,149
243,815	-0,328	-0,215	-0,106
244,830	-131,614	-0,204	0,018
245,844	800,000	-0,139	-0,270
246,859	-86,309	-0,378	-0,080
247,874	-131,346	-0,208	-0,019
248,888	-142,401	-0,191	0,013
249,903	219,567	-0,169	-0,188
250,917	800,000	-0,025	-0,062
251,932	22,233	-0,126	-0,071
252,947	-200,000	-0,003	-0,145
253,961	173,587	-0,161	-0,161
254,976	280,188	-0,115	-0,143
255,990	176,273	-0,085	-0,086
257,005	98,060	-0,202	-0,161
258,020	-66,048	-0,054	-0,015
259,034	-83,184	-0,140	-0,031
260,049	38,661	-0,142	-0,087
261,063	800,000	-0,193	-0,376
262,078	-61,463	-0,097	-0,028
263,093	-43,641	-0,207	-0,072
264,107	-40,784	-0,197	-0,070
265,122	532,370	-0,106	-0,174
266,136	-54,164	-0,130	-0,041
267,151	-109,754	-0,143	0,021
268,166	110,686	-0,063	-0,052
269,180	251,597	-0,153	-0,181
270,195	214,527	-0,161	-0,177
271,209	107,783	-0,225	-0,185
272,224	264,585	-0,124	-0,149
273,239	-65,442	-0,116	0,032
274,253	-5,843	-0,207	-0,097
275,268	129,041	-0,046	-0,040
276,282	800,000	-0,037	-0,094
277,297	90,039	-0,131	-0,101
278,312	-19,538	-0,222	-0,094
279,326	-200,000	-0,131	0,000
280,341	-200,000	0,017	-0,141
281,355	-101,578	-0,228	0,038
282,370	-137,407	-0,135	0,010
283,384	168,905	-0,174	-0,171
284,399	495,930	-0,144	-0,229
285,414	218,023	-0,220	-0,242
286,428	20,686	-0,244	-0,136
287,443	-86,564	-0,144	-0,030
288,457	-17,240	-0,188	-0,081
289,472	-98,096	-0,225	-0,040
290,487	-102,194	-0,225	0,037
291,501	-115,347	-0,286	0,037
292,516	-67,792	-0,292	-0,078
293,530	39,414	-0,125	-0,077
294,545	1,422	-0,188	-0,093
295,560	13,831	-0,143	-0,077
296,574	-55,529	-0,036	-0,011
297,589	110,422	-0,193	-0,159
298,603	-200,000	0,008	-0,045
299,618	62,082	-0,200	-0,137
300,633	-80,763	-0,202	-0,046
301,647	-77,270	-0,147	-0,035
302,662	-200,000	0,026	-0,096
303,676	128,713	-0,047	-0,041
304,691	-200,000	-0,035	-0,138
305,706	800,000	-0,066	-0,197
306,720	-5,989	-0,248	-0,116
307,735	250,907	-0,124	-0,145
308,749	200,916	-0,056	-0,059
309,764	-86,735	-0,112	-0,023
310,779	800,000	-0,065	-0,147
311,793	254,469	-0,137	-0,162
312,808	-36,626	-0,233	-0,086
313,822	304,305	-0,117	-0,150
314,837	412,857	-0,056	-0,082
315,852	-101,542	-0,180	-0,030
316,866	-200,000	-0,049	-0,153
317,881	182,703	-0,076	-0,077
318,895	800,000	-0,070	-0,155
319,910	67,886	-0,118	-0,083
320,925	31,814	-0,160	-0,095
321,939	276,504	-0,069	-0,084
322,954	800,000	-0,019	-0,050
323,968	-55,557	-0,108	0,033
324,983	-97,784	-0,127	0,022
325,997	12,738	-0,264	-0,140
327,012	-152,517	-0,173	0,008
328,027	277,906	-0,140	-0,172
329,041	11,989	-0,229	-0,121
330,056	-26,613	-0,067	-0,027
331,070	180,713	-0,061	0,062
332,085	362,539	-0,091	-0,126
333,100	-127,179	-0,220	-0,022
334,114	578,777	-0,107	-0,181
335,129	264,566	-0,165	-0,198
336,143	-16,713	-0,177	-0,077
337,158	-200,000	-0,035	-0,141
338,173	205,197	-0,128	-0,137
339,187	74,761	-0,075	0,054
340,202	-76,771	-0,131	-0,031
341,216	326,493	-0,157	-0,207
342,231	-84,456	-0,198	-0,043
343,246	84,692	-0,065	-0,049
344,260	68,211	-0,182	-0,128
345,275	800,000	-0,044	-0,117
346,289	16,736	-0,111	0,060
347,304	171,954	-0,163	-0,161
348,319	-178,324	-0,110	0,002
349,333	232,251	-0,040	-0,045
350,348	-93,821	-0,198	-0,037
351,362	-27,256	-0,112	-0,045
352,377	114,259	-0,046	0,038
353,392	794,234	-0,055	0,105
354,406	-151,450	-0,144	0,007
355,421	209,567	1313,882	1414,565
356,435	161,293	1474,524	1415,062
