DTS Sentinel unit serial number:	SN410029Multiplexer serial number:	ORYXHardware model number:	OX2-SRSoftware version number:	ORYX F/W v4,00 Oryx Data Collector v3.7.2.0data status	okinstallation	B3 Nyhavnadifferential loss correction	single-endedforward channel	channel 1reverse channel	N/Adate	2023/12/04time	12:57:30forward acquisition time	300,00reverse acquisition time	0,00gamma	499,1914k internal	0,3202k external	0,3202temperature offset calibration	1,0000default loss term (dB/km)	0,3820temperature slope calibration	1,0000multiplexer offset coefficient	1,0000multiplexer slope coefficient	1,0000fibre end	0,00T internal ref (°C)	14,69T ext. ref 1 (°C)	0,31T ext. ref 2 (°C)	0,31length (m)	temperature (°C)	Stokes	anti-Stokes-744,400	170,484	-0,240	-0,250
-743,385	-200,000	-0,075	0,246
-742,371	-104,076	-0,238	-0,040
-741,356	-200,000	-0,028	0,514
-740,342	63,364	-0,254	-0,185
-739,327	-200,000	-0,018	0,222
-738,312	102,950	-0,316	-0,269
-737,298	-200,000	-0,058	0,207
-736,283	417,746	-0,196	-0,305
-735,269	523,290	0,161	0,276
-734,254	51,491	-0,266	-0,183
-733,239	44,341	-0,128	0,085
-732,225	706,543	-0,139	-0,269
-731,210	123,431	0,109	0,100
-730,196	-200,000	-0,001	0,052
-729,181	-86,919	-0,087	0,019
-728,167	-142,371	-0,040	-0,003
-727,152	-13,657	-0,070	0,033
-726,137	-39,350	-0,081	-0,031
-725,123	-68,682	-0,136	0,038
-724,108	-6,488	0,038	-0,019
-723,094	305,886	-0,150	-0,203
-722,079	432,847	-0,033	0,053
-721,064	595,452	-0,051	0,092
-720,050	-38,452	-0,092	0,035
-719,035	20,671	0,126	0,074
-718,021	-129,522	-0,177	0,018
-717,006	162,695	-0,011	0,011
-715,991	287,136	-0,099	-0,131
-714,977	-200,000	0,028	-0,114
-713,962	-200,000	0,002	-0,107
-712,948	-200,000	-0,013	-0,052
-711,933	217,836	0,080	-0,093
-710,918	-115,479	0,045	-0,006
-709,904	-9,475	0,074	-0,036
-708,889	546,699	-0,018	-0,032
-707,875	-155,306	-0,076	0,004
-706,860	800,000	0,018	-0,037
-705,845	-86,507	0,049	0,011
-704,831	-200,000	-0,014	0,195
-703,816	235,936	-0,062	-0,074
-702,802	-200,000	0,003	-0,073
-701,787	-200,000	-0,005	0,024
-700,772	41,633	-0,126	-0,082
-699,758	136,096	-0,091	-0,086
-698,743	164,172	0,080	0,082
-697,729	-200,000	-0,006	-0,068
-696,714	76,970	-0,060	-0,046
-695,699	-200,000	-0,005	-0,079
-694,685	-200,000	0,006	-0,021
-693,670	477,021	-0,096	-0,159
-692,656	-131,253	-0,142	0,014
-691,641	100,254	0,076	0,064
-690,627	0,084	0,037	0,019
-689,612	-137,761	-0,088	-0,007
-688,597	800,000	-0,037	0,100
-687,583	-34,212	-0,122	-0,048
-686,568	21,643	-0,059	0,035
-685,554	621,922	-0,058	-0,107
-684,539	-152,390	-0,042	-0,002
-683,524	-65,810	-0,089	-0,026
-682,510	385,159	0,023	-0,035
-681,495	-200,000	-0,020	-0,067
-680,481	45,971	-0,084	-0,056
-679,466	99,156	-0,067	-0,056
-678,451	-200,000	0,024	-0,214
-677,437	-92,172	-0,016	-0,003
-676,422	800,000	-0,030	0,071
-675,408	29,184	-0,092	-0,057
-674,393	-71,601	-0,049	0,013
-673,378	19,331	0,034	0,020
-672,364	169,606	0,064	-0,067
-671,349	-103,566	0,095	0,016
-670,335	66,073	-0,102	0,075
-669,320	480,530	0,094	-0,155
-668,305	-104,781	0,065	0,011
-667,291	-200,000	0,019	0,065
-666,276	-27,555	-0,163	-0,068
-665,262	302,322	-0,079	0,106
-664,247	-63,911	0,139	0,041
-663,232	449,477	-0,043	0,069
-662,218	800,000	-0,046	-0,115
-661,203	84,145	-0,050	-0,039
-660,189	441,418	0,097	0,154
-659,174	-90,081	0,130	-0,027
-658,159	-199,526	0,054	-0,000
-657,145	-200,000	-0,008	-0,136
-656,130	800,000	-0,030	-0,069
-655,116	-17,291	-0,089	0,040
-654,101	-200,000	-0,002	-0,064
-653,086	-36,270	-0,042	-0,016
-652,072	16,504	0,045	-0,026
-651,057	30,248	-0,181	-0,112
-650,043	-72,234	-0,080	0,021
-649,028	800,000	0,041	0,088
-648,014	-38,594	-0,040	-0,015
-646,999	53,325	-0,125	0,087
-645,984	-115,069	-0,059	-0,008
-644,970	-200,000	-0,006	-0,035
-643,955	690,285	-0,065	-0,124
-642,941	585,128	0,012	0,022
-641,926	-123,756	0,103	-0,012
-640,911	-154,024	0,084	0,004
-639,897	-200,000	0,015	-0,060
-638,882	257,046	-0,026	-0,033
-637,868	269,406	0,075	-0,096
-636,853	-200,000	0,005	-0,042
-635,838	68,317	-0,197	-0,146
-634,824	-96,008	0,089	0,017
-633,809	-64,901	0,033	-0,010
-632,795	163,339	0,060	0,061
-631,780	-200,000	-0,095	-0,000
-630,765	-200,000	-0,015	0,048
-629,751	101,926	-0,110	0,093
-628,736	218,336	-0,115	-0,133
-627,722	557,051	-0,090	-0,157
-626,707	-198,751	0,101	0,000
-625,692	42,128	-0,125	-0,082
-624,678	800,000	-0,011	0,033
-623,663	538,012	-0,082	-0,142
-622,649	104,414	0,085	-0,073
-621,634	155,496	-0,089	-0,088
-620,619	-200,000	-0,039	-0,144
-619,605	-26,902	0,118	0,049
-618,590	128,150	0,128	0,118
-617,576	68,902	0,059	0,044
-616,561	800,000	-0,027	-0,082
-615,546	429,756	0,037	0,058
-614,532	-200,000	-0,004	-0,103
-613,517	99,120	0,141	0,118
-612,503	-53,306	-0,109	0,036
-611,488	-200,000	0,005	-0,026
-610,474	-132,994	-0,072	0,007
-609,459	-42,456	0,101	-0,037
-608,444	-184,246	-0,170	-0,002
-607,430	-200,000	0,013	0,052
-606,415	111,243	-0,121	0,105
-605,401	-200,000	-0,009	-0,100
-604,386	-200,000	0,044	0,151
-603,371	75,437	-0,064	-0,049
-602,357	55,211	-0,023	-0,016
-601,342	3,515	-0,098	-0,052
-600,328	-112,872	-0,085	-0,012
-599,313	180,579	-0,126	-0,133
-598,298	800,000	-0,042	0,107
-597,284	-145,159	0,077	0,005
-596,269	346,640	-0,030	-0,043
-595,255	-200,000	-0,025	0,124
-594,240	-0,092	0,066	0,034
-593,225	764,493	-0,068	0,135
-592,211	-108,656	0,057	0,009
-591,196	-117,918	-0,036	0,005
-590,182	-31,054	-0,119	0,048
-589,167	800,000	-0,051	0,105
-588,152	-181,580	-0,137	-0,002
-587,138	-200,000	0,014	-0,051
-586,123	274,150	0,049	0,063
-585,109	-200,000	0,000	-0,056
-584,094	-34,001	-0,172	-0,068
-583,079	244,871	-0,073	-0,089
-582,065	617,640	-0,059	0,108
-581,050	-106,393	0,024	-0,004
-580,036	-19,842	-0,186	0,083
-579,021	103,131	0,039	-0,033
-578,006	506,618	-0,045	0,075
-576,992	237,461	-0,033	-0,040
-575,977	800,000	-0,047	-0,130
-574,963	38,266	-0,058	0,037
-573,948	655,158	-0,003	-0,006
-572,934	58,357	-0,050	-0,036
-571,919	167,792	0,039	-0,040
-570,904	312,522	-0,077	-0,105
-569,890	-79,633	0,065	-0,016
-568,875	800,000	-0,023	-0,054
-567,861	-200,000	-0,003	-0,018
-566,846	-118,898	0,029	-0,004
-565,831	221,859	-0,077	-0,089
-564,817	-200,000	-0,015	-0,088
-563,802	-200,000	0,008	-0,058
-562,788	736,369	-0,034	-0,066
-561,773	-116,621	0,088	0,012
-560,758	-79,354	0,116	0,028
-559,744	-200,000	0,011	-0,086
-558,729	271,613	-0,046	0,059
-557,715	-200,000	-0,007	0,022
-556,700	-82,669	-0,143	-0,033
-555,685	144,537	0,072	0,070
-554,671	255,214	0,083	-0,102
-553,656	176,832	-0,033	-0,035
-552,642	-76,803	0,130	-0,032
-551,627	42,612	-0,051	0,033
-550,612	-144,486	-0,148	0,010
-549,598	207,725	0,115	0,130
-548,583	-200,000	-0,025	0,144
-547,569	800,000	-0,057	-0,118
-546,554	-155,180	-0,093	-0,004
-545,539	47,873	0,089	0,060
-544,525	153,230	-0,084	-0,083
-543,510	-75,280	-0,115	-0,029
-542,496	57,990	-0,172	-0,121
-541,481	-74,676	-0,118	-0,030
-540,466	17,223	0,014	-0,008
-539,452	-91,696	0,098	-0,020
-538,437	-200,000	0,042	0,142
-537,423	-22,113	-0,074	0,032
-536,408	64,753	-0,146	0,106
-535,393	800,000	-0,048	-0,106
-534,379	-31,912	-0,089	-0,036
-533,364	-93,922	-0,133	0,026
-532,350	145,500	0,077	-0,074
-531,335	-200,000	0,014	0,056
-530,321	-200,000	0,007	0,063
-529,306	-80,142	-0,108	0,026
-528,291	735,132	0,035	0,068
-527,277	-14,461	-0,156	-0,072
-526,262	800,000	0,017	0,052
-525,248	-49,759	0,067	-0,023
-524,233	-200,000	0,002	-0,159
-523,218	29,928	0,089	0,055
-522,204	-200,000	-0,038	-0,143
-521,189	298,242	0,049	0,066
-520,175	-200,000	0,007	-0,039
-519,160	283,096	-0,038	-0,050
-518,145	94,162	0,087	-0,071
-517,131	-117,794	0,079	-0,010
-516,116	-52,329	-0,064	0,021
-515,102	800,000	0,016	-0,036
-514,087	-200,000	-0,003	-0,024
-513,072	-124,598	-0,101	-0,011
-512,058	-52,849	0,201	-0,066
-511,043	-200,000	0,008	-0,037
-510,029	74,899	-0,014	0,010
-509,014	81,153	0,124	0,097
-507,999	-49,941	0,064	-0,022
-506,985	72,157	0,075	-0,056
-505,970	-80,345	0,076	-0,018
-504,956	800,000	0,026	-0,056
-503,941	349,879	0,090	0,129
-502,926	-44,280	0,025	-0,009
-501,912	-20,432	-0,082	0,036
-500,897	342,395	0,034	-0,049
-499,883	-200,000	0,011	-0,059
-498,868	-200,000	0,017	-0,134
-497,853	-200,000	0,013	-0,047
-496,839	38,758	-0,060	0,038
-495,824	-200,000	-0,006	0,047
-494,810	-90,111	0,144	0,030
-493,795	800,000	0,035	-0,110
-492,781	35,603	-0,026	0,016
-491,766	-72,582	0,169	0,045
-490,751	-200,000	-0,005	-0,103
-489,737	177,650	-0,114	0,119
-488,722	154,848	0,077	-0,076
-487,708	800,000	0,051	0,112
-486,693	800,000	0,028	-0,085
-485,678	133,191	-0,025	-0,024
-484,664	800,000	-0,013	0,029
-483,649	-41,206	-0,195	0,072
-482,635	-200,000	-0,006	-0,068
-481,620	-15,431	0,137	-0,063
-480,605	338,777	-0,018	0,025
-479,591	-139,512	0,092	-0,007
-478,576	110,328	-0,058	-0,050
-477,562	-200,000	0,002	0,058
-476,547	800,000	-0,040	0,105
-475,532	-30,868	-0,043	0,017
-474,518	-17,345	0,033	-0,015
-473,503	-98,482	0,108	-0,020
-472,489	174,138	-0,056	0,058
-471,474	503,196	0,038	0,063
-470,459	47,669	0,076	-0,051
-469,445	494,709	-0,052	-0,086
-468,430	-45,062	-0,075	0,027
-467,416	-200,000	-0,012	0,059
-466,401	-125,593	-0,107	-0,011
-465,386	-36,358	0,163	0,063
-464,372	142,629	0,135	-0,129
-463,357	-200,000	0,004	-0,018
-462,343	-41,377	-0,039	0,014
-461,328	800,000	0,005	-0,013
-460,313	102,480	0,058	-0,048
-459,299	-61,168	-0,086	-0,026
-458,284	68,836	-0,038	-0,028
-457,270	-142,543	0,048	0,003
-456,255	-11,042	-0,039	-0,019
-455,241	-72,728	-0,056	-0,015
-454,226	-133,594	0,125	-0,011
-453,211	106,473	-0,068	-0,058
-452,197	-180,291	0,032	-0,000
-451,182	34,893	0,074	-0,047
-450,168	675,852	0,037	0,069
-449,153	594,278	-0,050	-0,089
-448,138	96,443	-0,207	-0,170
-447,124	93,342	0,091	-0,074
-446,109	-200,000	0,046	-0,239
-445,095	-200,000	-0,012	-0,064
-444,080	-79,888	0,047	-0,011
-443,065	168,729	-0,090	0,092
-442,051	-36,775	-0,032	-0,012
-441,036	-89,102	-0,160	-0,034
-440,022	20,652	0,039	0,023
-439,007	111,523	-0,101	0,088
-437,992	-200,000	-0,010	-0,043
-436,978	-169,636	0,118	-0,003
-435,963	800,000	-0,040	0,102
-434,949	-160,654	0,084	0,003
-433,934	-16,939	-0,063	0,029
-432,919	323,667	0,041	-0,056
-431,905	105,288	0,111	0,094
-430,890	-53,472	0,058	-0,019
-429,876	-200,000	0,019	0,128
-428,861	-17,294	0,039	-0,017
-427,846	167,817	0,035	0,036
-426,832	54,481	0,004	-0,003
-425,817	-50,588	-0,069	0,023
-424,803	-53,121	0,083	0,027
-423,788	800,000	-0,032	0,072
-422,773	-200,000	0,039	0,218
-421,759	-200,000	-0,004	0,044
-420,744	800,000	-0,036	0,075
-419,730	-200,000	0,010	0,064
-418,715	-200,000	0,015	-0,069
-417,701	-200,000	0,025	0,134
-416,686	48,653	0,054	0,036
-415,671	-200,000	0,040	0,195
-414,657	249,222	0,041	0,050
-413,642	-200,000	-0,013	0,055
-412,628	800,000	0,027	-0,086
-411,613	800,000	-0,028	-0,082
-410,598	-124,434	-0,104	-0,012
-409,584	800,000	0,036	-0,085
-408,569	335,879	0,071	0,099
-407,555	-67,908	0,136	-0,038
-406,540	-200,000	-0,001	-0,053
-405,525	-68,792	0,124	-0,034
-404,511	0,503	-0,041	-0,021
-403,496	-61,387	0,075	-0,022
-402,482	800,000	-0,050	0,123
-401,467	-200,000	0,011	0,130
-400,452	-200,000	-0,007	0,098
-399,438	-62,412	0,090	-0,027
-398,423	800,000	-0,022	0,067
-397,409	-87,207	-0,041	0,009
-396,394	-67,931	0,068	0,019
-395,379	31,076	0,167	-0,102
-394,365	-200,000	0,000	0,085
-393,350	-127,211	-0,110	-0,011
-392,336	800,000	0,059	0,119
-391,321	-192,958	-0,097	0,001
-390,306	-200,000	-0,013	0,074
-389,292	343,548	-0,068	0,096
-388,277	-200,000	-0,003	-0,037
-387,263	75,768	-0,051	0,039
-386,248	-200,000	0,009	-0,042
-385,233	293,752	-0,046	0,060
-384,219	413,913	0,086	-0,132
-383,204	277,521	-0,122	-0,155
-382,190	800,000	0,026	0,053
-381,175	609,589	0,075	-0,135
-380,160	-21,859	0,087	0,038
-379,146	-65,665	0,185	0,053
-378,131	-26,905	-0,116	0,048
-377,117	-44,923	0,153	0,054
-376,102	8,944	-0,084	-0,046
-375,088	447,207	-0,070	0,110
-374,073	212,552	-0,054	-0,061
-373,058	-200,000	0,009	0,043
-372,044	-107,043	0,063	0,010
-371,029	546,336	-0,030	0,052
-370,015	-200,000	-0,031	-0,138
-369,000	43,974	-0,130	-0,085
-367,985	-200,000	0,005	-0,081
-366,971	-23,519	-0,079	0,034
-365,956	-63,446	0,009	-0,003
-364,942	-24,332	0,122	0,052
-363,927	800,000	-0,079	0,167
-362,912	-10,205	0,070	0,033
-361,898	133,193	0,050	-0,046
-360,883	-9,928	-0,060	-0,028
-359,869	-82,199	-0,200	0,046
-358,854	800,000	0,020	-0,060
-357,839	200,335	0,155	0,171
-356,825	-200,000	0,040	0,176
-355,810	-147,306	0,025	-0,001
-354,796	800,000	0,037	-0,091
-353,781	-63,312	0,066	-0,019
-352,766	127,030	-0,063	-0,057
-351,752	-105,160	0,102	0,017
-350,737	-88,013	0,099	0,021
-349,723	16,765	0,141	0,080
-348,708	800,000	-0,021	-0,065
-347,693	763,300	0,088	0,172
-346,679	403,636	-0,040	-0,061
-345,664	800,000	-0,061	-0,173
-344,650	138,536	-0,029	0,027
-343,635	101,117	-0,128	0,106
-342,620	-200,000	0,006	0,092
-341,606	-200,000	0,021	0,072
-340,591	-56,527	0,104	0,033
-339,577	800,000	0,040	0,086
-338,562	76,944	-0,097	-0,073
-337,548	-86,930	0,069	0,015
-336,533	-26,365	0,072	0,030
-335,518	167,777	0,095	0,097
-334,504	183,587	-0,036	0,039
-333,489	-62,262	-0,031	0,009
-332,475	800,000	0,006	0,014
-331,460	184,867	-0,036	-0,038
-330,445	-200,000	0,005	-0,033
-329,431	-200,000	-0,019	-0,071
-328,416	-52,647	0,060	-0,020
-327,402	110,877	-0,045	0,039
-326,387	-200,000	0,005	0,031
-325,372	405,171	-0,009	-0,013
-324,358	138,823	0,009	-0,008
-323,343	17,828	-0,178	-0,101
-322,329	-69,810	-0,013	0,003
-321,314	35,681	0,100	0,062
-320,299	-200,000	-0,037	0,122
-319,285	-38,301	0,022	-0,008
-318,270	-16,295	-0,038	-0,017
-317,256	-9,925	-0,173	-0,082
-316,241	48,046	0,021	-0,014
-315,226	13,993	-0,034	-0,019
-314,212	-200,000	0,001	0,078
-313,197	800,000	0,067	0,199
-312,183	67,073	0,054	0,039
-311,168	-200,000	0,028	-0,103
-310,153	-84,749	-0,164	-0,037
-309,139	26,853	-0,044	-0,026
-308,124	-67,128	0,082	-0,023
-307,110	-16,604	0,082	-0,037
-306,095	599,501	0,030	-0,054
-305,080	-200,000	-0,025	0,131
-304,066	-0,781	0,133	0,067
-303,051	0,682	-0,084	0,043
-302,037	-43,073	-0,118	-0,042
-301,022	-126,025	0,164	0,017
-300,008	-200,000	0,035	0,112
-298,993	-200,000	0,018	0,104
-297,978	182,956	0,054	0,058
-296,964	545,082	0,044	0,076
-295,949	-200,000	-0,011	-0,121
-294,935	-87,581	-0,105	-0,023
-293,920	768,647	0,082	-0,161
-292,905	-200,000	0,011	-0,070
-291,891	88,091	0,067	-0,053
-290,876	-142,400	0,169	0,012
-289,862	-200,000	0,021	-0,112
-288,847	800,000	-0,061	-0,170
-287,832	142,651	-0,062	-0,059
-286,818	629,523	-0,059	-0,107
-285,803	-200,000	-0,011	0,140
-284,789	107,841	0,046	-0,039
-283,774	-66,405	-0,146	-0,041
-282,759	8,339	0,134	0,072
-281,745	-151,591	-0,076	0,004
-280,730	46,006	0,080	-0,053
-279,716	778,985	0,063	-0,124
-278,701	97,262	-0,022	0,018
-277,686	112,151	-0,131	0,113
-276,672	-119,599	0,057	-0,007
-275,657	32,791	0,104	0,064
-274,643	800,000	-0,086	0,183
-273,628	66,207	0,060	-0,043
-272,613	-19,421	-0,120	-0,053
-271,599	-200,000	0,020	-0,086
-270,584	-80,809	0,011	0,003
-269,570	-78,287	0,134	0,033
-268,555	74,943	-0,053	0,039
-267,540	68,241	-0,106	-0,077
-266,526	-200,000	-0,001	0,019
-265,511	-10,981	0,074	0,035
-264,497	-54,857	-0,078	-0,025
-263,482	-200,000	0,036	0,121
-262,467	18,331	-0,104	0,059
-261,453	-8,279	0,140	-0,067
-260,438	-6,537	-0,092	-0,045
-259,424	195,632	-0,057	-0,062
-258,409	-128,119	0,079	0,008
-257,395	356,587	-0,062	0,088
-256,380	289,858	0,091	0,118
-255,365	-129,665	0,064	0,006
-254,351	800,000	0,039	0,120
-253,336	-126,763	-0,100	0,010
-252,322	30,232	-0,007	0,004
-251,307	-200,000	-0,024	0,122
-250,292	61,527	0,051	0,036
-249,278	-96,411	-0,095	0,018
-248,263	-186,069	0,104	-0,001
-247,249	800,000	0,020	0,041
-246,234	-100,747	0,071	0,012
-245,219	79,908	-0,053	0,040
-244,205	-92,089	-0,047	0,009
-243,190	-200,000	0,016	-0,061
-242,176	-200,000	0,012	0,084
-241,161	23,238	0,071	0,042
-240,146	-103,375	-0,137	-0,023
-239,132	-133,064	-0,096	-0,009
-238,117	-30,474	-0,070	-0,028
-237,103	-149,759	-0,089	-0,005
-236,088	-200,000	0,017	-0,096
-235,073	25,940	-0,066	-0,039
-234,059	58,648	0,093	0,065
-233,044	190,664	0,075	0,080
-232,030	-67,346	-0,170	0,047
-231,015	-200,000	-0,005	-0,105
-230,000	-118,331	-0,176	-0,022
-228,986	-123,504	0,130	0,015
-227,971	25,412	0,096	-0,057
-226,957	110,771	0,039	0,034
-225,942	-33,212	0,163	0,064
-224,927	238,613	0,060	-0,071
-223,913	358,906	-0,068	-0,096
-222,898	-92,527	-0,046	0,009
-221,884	-144,916	-0,090	0,006
-220,869	87,909	0,088	0,069
-219,855	53,744	0,129	0,088
-218,840	800,000	0,003	-0,006
-217,825	385,288	0,049	0,073
-216,811	226,557	-0,031	-0,035
-215,796	-20,486	0,132	-0,058
-214,782	800,000	0,049	0,133
-213,767	-80,664	-0,029	-0,007
-212,752	-200,000	0,003	0,058
-211,738	267,219	0,139	0,174
-210,723	-200,000	0,036	0,127
-209,709	800,000	-0,036	0,083
-208,694	-200,000	-0,016	-0,097
-207,679	34,078	0,094	-0,058
-206,665	438,763	-0,045	-0,071
-205,650	-200,000	0,010	0,051
-204,636	-200,000	-0,020	0,066
-203,621	800,000	0,051	0,106
-202,606	-200,000	-0,008	-0,051
-201,592	5,446	-0,024	-0,012
-200,577	-46,014	-0,078	0,027
-199,563	40,545	-0,131	0,084
-198,548	365,562	0,064	0,092
-197,533	19,086	-0,113	0,064
-196,519	-200,000	-0,009	0,037
-195,504	-79,207	0,055	0,013
-194,490	273,857	0,053	-0,067
-193,475	800,000	-0,039	-0,112
-192,460	-168,718	-0,059	-0,002
-191,446	319,822	0,093	0,126
-190,431	-128,405	0,081	0,008
-189,417	-200,000	-0,039	0,215
-188,402	-34,939	0,196	0,076
-187,387	800,000	0,070	-0,144
-186,373	-200,000	0,002	-0,132
-185,358	-200,000	-0,002	-0,014
-184,344	-116,567	-0,096	0,012
-183,329	-200,000	0,021	0,070
-182,315	-200,000	-0,003	-0,145
-181,300	-134,954	0,033	0,003
-180,285	-71,000	-0,042	-0,011
-179,271	-200,000	-0,003	-0,076
-178,256	-53,468	-0,092	0,030
-177,242	795,557	-0,018	0,035
-176,227	-78,526	0,019	0,004
-175,212	-146,045	-0,042	-0,003
-174,198	163,128	-0,062	0,062
-173,183	-200,000	-0,018	-0,083
-172,169	800,000	0,033	-0,090
-171,154	-23,022	0,129	-0,055
-170,139	-200,000	-0,007	-0,070
-169,125	33,524	0,048	-0,030
-168,110	-81,463	0,172	0,040
-167,096	11,916	-0,067	-0,036
-166,081	45,409	0,091	-0,060
-165,066	-200,000	0,027	-0,175
-164,052	-51,446	-0,124	-0,041
-163,037	800,000	-0,049	-0,105
-162,023	800,000	0,038	0,090
-161,008	800,000	0,039	-0,104
-159,993	-200,000	-0,002	0,014
-158,979	-200,000	0,012	-0,072
-157,964	244,404	-0,055	-0,066
-156,950	243,763	-0,060	-0,071
-155,935	-52,368	0,042	-0,014
-154,920	800,000	-0,034	-0,070
-153,906	-200,000	0,011	-0,072
-152,891	-72,513	0,071	0,018
-151,877	276,707	-0,102	0,129
-150,862	63,610	0,053	-0,037
-149,847	575,729	-0,028	-0,049
-148,833	164,684	-0,035	0,035
-147,818	81,086	0,014	-0,011
-146,804	97,285	0,020	-0,016
-145,789	-200,000	-0,030	0,192
-144,775	271,416	-0,059	0,074
-143,760	464,984	-0,055	-0,087
-142,745	-111,313	0,023	-0,003
-141,731	-200,000	-0,034	-0,214
-140,716	128,945	0,040	0,036
-139,702	-200,000	0,042	0,152
-138,687	800,000	0,049	0,116
-137,672	-90,381	-0,083	-0,017
-136,658	-9,467	0,103	-0,049
-135,643	85,266	0,100	-0,078
-134,629	-200,000	-0,020	-0,114
-133,614	408,204	0,018	0,027
-132,599	-54,835	0,059	0,019
-131,585	-200,000	0,008	-0,026
-130,570	179,217	0,042	0,043
-129,556	365,087	-0,054	0,077
-128,541	-200,000	-0,027	-0,099
-127,526	-68,055	-0,061	0,017
-126,512	59,229	0,024	-0,017
-125,497	454,048	0,033	-0,051
-124,483	-200,000	-0,013	-0,056
-123,468	-112,623	-0,101	-0,014
-122,453	587,218	-0,109	0,190
-121,439	-200,000	0,019	-0,088
-120,424	190,815	0,047	-0,051
-119,410	-200,000	-0,002	0,132
-118,395	-200,000	-0,031	0,162
-117,380	-43,297	-0,140	0,050
-116,366	167,866	-0,043	0,043
-115,351	54,564	-0,033	-0,022
-114,337	-29,533	-0,099	-0,040
-113,322	800,000	0,035	-0,078
-112,307	248,122	0,050	0,061
-111,293	-200,000	0,019	0,093
-110,278	462,683	0,118	0,187
-109,264	-173,026	-0,118	-0,003
-108,249	-200,000	0,001	-0,159
-107,234	800,000	0,024	-0,054
-106,220	-68,681	0,024	-0,007
-105,205	-72,179	0,212	0,055
-104,191	-200,000	0,042	0,154
-103,176	611,758	-0,067	-0,119
-102,162	563,915	0,061	0,104
-101,147	-21,081	-0,120	0,052
-100,132	765,059	0,048	-0,094
-99,118	202,180	0,015	0,016
-98,103	-200,000	0,010	-0,064
-97,089	9,005	-0,152	0,081
-96,074	-200,000	0,127	0,000
-95,059	800,000	-0,058	-0,122
-94,045	800,000	-0,066	0,138
-93,030	269,925	0,053	-0,066
-92,016	-200,000	-0,004	-0,119
-91,001	25,785	0,024	-0,014
-89,986	51,498	0,061	0,041
-88,972	156,010	0,038	0,037
-87,957	-200,000	0,004	0,025
-86,943	38,704	0,067	0,042
-85,928	113,625	0,085	-0,073
-84,913	-102,210	-0,143	0,024
-83,899	-113,218	-0,107	0,015
-82,884	-43,213	0,073	-0,026
-81,870	-30,781	0,107	-0,043
-80,855	252,115	-0,078	0,095
-79,840	139,633	0,017	0,016
-78,826	185,397	-0,042	-0,044
-77,811	125,031	-0,104	-0,093
-76,797	153,012	0,046	-0,045
-75,782	-200,000	-0,007	0,074
-74,767	-132,633	0,033	0,003
-73,753	-200,000	-0,024	0,163
-72,738	800,000	-0,036	-0,107
-71,724	-19,342	0,086	0,038
-70,709	528,862	-0,040	-0,068
-69,694	193,848	-0,016	-0,017
-68,680	-200,000	0,004	-0,180
-67,665	449,174	0,053	0,084
-66,651	-96,975	-0,104	0,019
-65,636	800,000	-0,053	-0,118
-64,622	-200,000	-0,005	-0,128
-63,607	144,059	-0,058	-0,054
-62,592	686,975	0,049	-0,091
-61,578	-132,133	-0,057	0,005
-60,563	-74,217	-0,114	-0,029
-59,549	800,000	0,021	0,058
-58,534	-25,143	-1,510	-0,631
-57,519	357,364	-1,494	-2,115
-56,505	-200,000	-0,545	-4,631
-55,490	211,026	0,989	1,102
-54,476	800,000	4,719	11,079
-53,461	-200,000	18,176	291,835
-52,446	800,000	728,675	2241,545
-51,432	557,066	1644,846	2817,187
-50,417	79,016	1666,243	1261,645
-49,403	22,624	1539,552	889,619
-48,388	16,579	1463,069	816,137
-47,373	17,863	1452,556	816,427
-46,359	17,116	1443,212	807,566
-45,344	14,877	1438,444	794,182
-44,330	14,765	1436,334	792,447
-43,315	14,719	1435,087	791,509
-42,300	14,745	1433,116	790,517
-41,286	14,802	1432,154	790,222
-40,271	14,752	1430,730	789,169
-39,257	14,745	1429,623	788,496
-38,242	14,794	1428,123	787,866
-37,227	14,782	1426,979	787,147
-36,213	14,829	1425,629	786,596
-35,198	14,824	1424,484	785,907
-34,184	14,836	1423,765	785,539
-33,169	14,728	1422,579	784,339
-32,154	14,802	1421,503	784,066
-31,140	14,818	1420,146	783,362
-30,125	14,817	1418,751	782,559
-29,111	14,838	1417,660	782,022
-28,096	14,748	1416,775	781,083
-27,082	14,716	1415,467	780,177
-26,067	14,691	1414,557	779,526
-25,052	14,743	1413,478	779,147
-24,038	14,708	1412,489	778,408
-23,023	14,718	1411,399	777,822
-22,009	14,664	1410,520	777,054
-20,994	14,659	1409,604	776,497
-19,979	14,662	1408,603	775,928
-18,965	14,688	1407,459	775,387
-17,950	14,658	1406,656	774,773
-16,936	14,639	1405,672	774,113
-15,921	14,583	1404,847	773,365
-14,906	14,605	1403,858	772,896
-13,892	14,639	1402,990	772,544
-12,877	14,609	1402,141	771,904
-11,863	14,619	1400,969	771,275
-10,848	14,611	1400,181	770,773
-9,833	14,574	1399,433	770,161
-8,819	14,554	1398,561	769,556
-7,804	14,532	1397,537	768,862
-6,790	14,515	1396,440	768,150
-5,775	14,563	1395,400	767,770
-4,760	14,509	1394,447	766,963
-3,746	14,470	1393,784	766,387
-2,731	14,508	1392,924	766,059
-1,717	14,535	1392,049	765,672
-0,702	14,499	1390,236	764,481
0,313	18,315	1308,915	737,416
1,327	34,588	706,418	435,668
2,342	52,937	124,533	84,136
3,356	1,891	16,552	8,416
4,371	-3,442	3,192	1,565
5,386	-58,998	0,607	0,184
6,400	512,525	-0,057	0,095
7,415	10,586	-0,235	-0,126
8,429	-22,364	-0,446	-0,190
9,444	156,083	-0,181	-0,176
10,459	8,284	-0,368	-0,195
11,473	28,123	-0,288	-0,172
12,488	-79,653	-0,367	-0,087
13,502	-101,630	-0,288	-0,049
14,517	369,815	-0,167	-0,240
15,531	4,526	-0,397	-0,205
16,546	-110,477	-0,403	-0,058
17,561	92,964	-0,379	-0,302
18,575	-103,491	-0,273	-0,045
19,590	63,665	-0,233	-0,165
20,604	59,296	-0,232	-0,161
21,619	107,338	-0,342	-0,287
22,634	181,555	-0,370	-0,384
23,648	79,387	-0,442	-0,335
24,663	199,191	-0,424	-0,460
25,677	179,616	-0,266	-0,275
26,692	79,263	-0,394	-0,298
27,707	70,359	-0,344	-0,250
28,721	108,151	-0,289	-0,243
29,736	32,199	-0,373	-0,227
30,750	115,029	-0,334	-0,288
31,765	95,073	-0,445	-0,357
32,780	169,658	-0,355	-0,358
33,794	800,000	-0,167	-0,330
34,809	73,057	-0,364	-0,268
35,823	32,587	-0,413	-0,251
36,838	187,618	-0,443	-0,467
37,853	81,810	-0,459	-0,350
38,867	28,080	-0,351	-0,208
39,882	110,538	-0,342	-0,290
40,896	100,672	-0,328	-0,269
41,911	418,180	-0,225	-0,341
42,926	130,067	-0,394	-0,356
43,940	86,769	-0,328	-0,255
44,955	10,207	-0,369	-0,197
45,969	108,988	-0,314	-0,264
46,984	-15,084	-0,393	-0,177
47,999	112,754	-0,313	-0,267
49,013	-38,625	-0,400	-0,148
50,028	127,567	-0,387	-0,346
51,042	-14,406	-0,312	-0,141
52,057	225,691	-0,355	-0,405
53,071	-24,358	-0,485	-0,203
54,086	54,841	-0,395	-0,268
55,101	104,679	-0,317	-0,263
56,115	78,062	-0,306	-0,230
57,130	61,035	-0,255	-0,178
58,144	116,012	-0,399	-0,344
59,159	132,533	-0,340	-0,309
60,174	-11,404	-0,397	-0,183
61,188	198,677	-0,200	-0,215
62,203	139,557	-0,319	-0,296
63,217	35,113	-0,236	-0,145
64,232	-145,309	-0,402	-0,025
65,247	37,965	-0,454	-0,283
66,261	487,122	-0,183	-0,295
67,276	87,912	-0,441	-0,344
68,290	-78,852	-0,372	-0,088
69,305	98,138	-0,321	-0,260
70,320	117,300	-0,256	-0,222
71,334	59,962	-0,270	-0,187
72,349	89,097	-0,328	-0,256
73,363	55,770	-0,243	-0,165
74,378	22,309	-0,388	-0,222
75,393	182,341	-0,196	-0,203
76,407	116,867	-0,220	-0,190
77,422	37,801	-0,283	-0,176
78,436	-106,777	-0,385	-0,059
79,451	44,041	-0,196	-0,126
80,466	30,174	-0,281	-0,168
81,480	211,426	-0,363	-0,402
82,495	-83,913	-0,312	-0,069
83,509	92,175	-0,204	-0,162
84,524	-97,649	-0,321	-0,058
85,539	76,774	-0,265	-0,197
86,553	-52,169	-0,381	-0,124
87,568	666,574	-0,203	-0,369
88,582	65,055	-0,230	-0,163
89,597	478,409	-0,141	-0,225
90,611	21,578	-0,216	-0,123
91,626	79,563	-0,227	-0,171
92,641	271,102	-0,240	-0,297
93,655	252,122	-0,262	-0,314
94,670	-28,219	-0,303	-0,122
95,684	-1,442	-0,342	-0,169
96,699	-86,377	-0,244	-0,052
97,714	59,340	-0,293	-0,202
98,728	31,145	-0,219	-0,131
99,743	-28,174	-0,315	-0,127
100,757	122,406	-0,260	-0,228
101,772	687,962	-0,133	-0,245
102,787	134,989	-0,216	-0,197
103,801	49,198	-0,371	-0,244
104,816	116,851	-0,283	-0,244
105,830	547,589	-0,118	-0,199
106,845	-35,897	-0,236	-0,089
107,860	4,382	-0,416	-0,213
108,874	209,061	-0,183	-0,201
109,889	31,189	-0,371	-0,223
110,903	51,628	-0,253	-0,168
111,918	-8,198	-0,246	-0,115
112,933	197,800	-0,186	-0,200
113,947	51,364	-0,227	-0,151
114,962	-31,842	-0,269	-0,105
115,976	225,255	-0,250	-0,284
116,991	49,128	-0,296	-0,194
118,006	-46,395	-0,255	-0,087
119,020	81,100	-0,212	-0,160
120,035	544,030	-0,134	-0,225
121,049	-62,632	-0,227	-0,066
122,064	-35,344	-0,237	-0,090
123,079	74,529	-0,202	-0,148
124,093	298,025	-0,195	-0,251
125,108	13,544	-0,290	-0,157
126,122	224,161	-0,199	-0,225
127,137	29,724	-0,263	-0,156
128,151	147,215	-0,181	-0,170
129,166	6,210	-0,155	-0,080
130,181	11,813	-0,157	-0,084
131,195	54,212	-0,280	-0,188
132,210	296,174	-0,231	-0,297
133,224	11,876	-0,242	-0,130
134,239	269,986	-0,117	-0,144
135,254	-7,193	-0,277	-0,131
136,268	175,402	-0,284	-0,288
137,283	-95,131	-0,282	0,053
138,297	70,487	-0,336	-0,243
139,312	118,969	-0,192	-0,166
140,327	92,967	-0,263	-0,208
141,341	110,615	-0,208	-0,174
142,356	-46,912	-0,339	-0,115
143,370	85,094	-0,171	-0,131
144,385	-164,404	-0,136	-0,004
145,400	89,757	-0,292	-0,227
146,414	147,436	-0,270	-0,254
147,429	292,309	-0,211	-0,269
148,443	146,997	-0,116	-0,109
149,458	-19,917	-0,287	-0,123
150,473	244,101	-0,156	-0,184
151,487	333,318	-0,150	-0,202
152,502	-5,834	-0,278	-0,132
153,516	-91,332	-0,266	-0,053
154,531	144,727	-0,175	-0,163
155,546	-68,793	-0,372	-0,100
156,560	150,576	-0,257	-0,244
157,575	246,666	-0,165	-0,195
158,589	-29,084	-0,227	-0,090
159,604	-18,850	-0,312	-0,135
160,619	62,128	-0,277	-0,193
161,633	-6,469	-0,309	-0,146
162,648	123,453	-0,168	-0,147
163,662	39,532	-0,160	-0,100
164,677	-39,786	-0,195	-0,071
165,692	-27,897	-0,219	-0,088
166,706	117,090	-0,208	-0,178
167,721	38,716	-0,191	-0,119
168,735	65,643	-0,377	-0,266
169,750	23,087	-0,294	-0,167
170,764	54,207	-0,194	-0,130
171,779	102,367	-0,094	-0,077
172,794	-164,663	-0,187	-0,006
173,808	226,158	-0,150	-0,170
174,823	131,235	-0,290	-0,260
175,837	406,359	-0,138	-0,203
176,852	204,827	-0,165	-0,179
177,867	175,804	-0,166	-0,168
178,881	97,299	-0,188	-0,150
179,896	28,890	-0,226	-0,133
180,910	165,031	-0,146	-0,144
181,925	185,008	-0,206	-0,213
182,940	-8,375	-0,255	-0,119
183,954	127,715	-0,164	-0,145
184,969	54,641	-0,274	-0,184
185,983	-22,271	-0,223	-0,094
186,998	163,544	-0,213	-0,208
188,013	-43,961	-0,247	-0,086
189,027	72,111	-0,210	-0,152
190,042	116,484	-0,312	-0,266
191,056	278,863	-0,196	-0,243
192,071	44,524	-0,108	-0,069
193,086	-122,710	-0,122	-0,014
194,100	800,000	-0,072	-0,145
195,115	387,314	-0,173	-0,250
196,129	115,594	-0,249	-0,212
197,144	-200,000	-0,091	-0,360
198,159	-200,000	-0,044	-0,278
199,173	-102,479	-0,276	-0,046
200,188	63,954	-0,168	-0,117
201,202	531,292	-0,122	-0,201
202,217	17,565	-0,197	-0,109
203,232	485,093	-0,139	-0,221
204,246	182,396	-0,162	-0,166
205,261	203,745	-0,241	-0,260
206,275	-54,654	-0,195	-0,061
207,290	686,092	-0,120	-0,220
208,304	0,363	-0,235	-0,116
209,319	239,884	-0,246	-0,285
210,334	390,051	-0,136	-0,196
211,348	49,275	-0,238	-0,155
212,363	271,748	-0,155	-0,190
213,377	800,000	-0,045	-0,109
214,392	-83,392	-0,239	-0,053
215,407	-200,000	-0,059	-0,189
216,421	46,275	-0,076	-0,049
217,436	-28,122	-0,192	-0,077
218,450	78,049	-0,267	-0,198
219,465	800,000	-0,060	-0,118
220,480	800,000	-0,077	-0,209
221,494	178,513	-0,249	-0,252
222,509	58,130	-0,167	-0,113
223,523	11,172	-0,188	-0,100
224,538	111,568	-0,227	-0,190
225,553	114,488	-0,269	-0,227
226,567	-63,879	-0,265	-0,075
227,582	222,103	-0,171	-0,191
228,596	538,769	-0,115	-0,191
229,611	153,559	-0,216	-0,205
230,626	101,095	-0,161	-0,130
231,640	-88,185	-0,159	-0,033
232,655	404,068	-0,091	-0,133
233,669	-11,130	-0,349	-0,159
234,684	52,036	-0,196	-0,129
235,699	375,309	-0,089	-0,125
236,713	141,917	-0,236	-0,217
237,728	256,086	-0,265	-0,315
238,742	800,000	-0,059	-0,163
239,757	75,737	-0,238	-0,174
240,772	59,696	-0,214	-0,146
241,786	67,771	-0,238	-0,168
242,801	38,785	-0,029	0,018
243,815	616,099	-0,145	-0,253
244,830	68,752	-0,163	-0,115
245,844	58,373	-0,190	-0,129
246,859	-31,872	-0,324	-0,125
247,874	243,536	-0,154	-0,179
248,888	141,550	-0,175	-0,160
249,903	602,321	-0,137	-0,237
250,917	175,666	-0,083	-0,083
251,932	262,217	-0,130	-0,156
252,947	289,577	-0,138	-0,173
253,961	728,568	-0,127	-0,237
254,976	35,766	-0,245	-0,148
255,990	-54,849	-0,226	-0,070
257,005	55,316	-0,100	-0,067
258,020	53,094	-0,101	-0,067
259,034	-160,355	-0,204	0,007
260,049	-94,101	-0,234	-0,044
261,063	-7,363	-0,274	-0,128
262,078	800,000	-0,126	-0,267
263,093	98,544	-0,197	-0,157
264,107	205,622	-0,148	-0,159
265,122	479,336	-0,060	-0,094
266,136	57,449	-0,225	-0,152
267,151	800,000	-0,070	-0,164
268,166	171,188	-0,182	-0,181
269,180	-70,620	-0,216	-0,056
270,195	257,348	-0,157	-0,187
271,209	-76,228	-0,132	-0,032
272,224	2,012	-0,224	-0,111
273,239	15,039	-0,202	-0,109
274,253	-200,000	-0,026	-0,121
275,268	329,342	-0,142	-0,189
276,282	73,922	-0,233	-0,169
277,297	12,109	-0,200	-0,106
278,312	157,549	-0,144	-0,138
279,326	464,985	-0,054	-0,084
280,341	-193,693	-0,277	0,002
281,355	-138,613	-0,147	0,011
282,370	38,858	-0,144	-0,089
283,384	6,825	-0,113	-0,058
284,399	159,404	-0,165	-0,159
285,414	243,226	-0,098	-0,114
286,428	240,627	-0,131	-0,152
287,443	161,697	-0,079	0,076
288,457	-200,000	0,005	-0,190
289,472	233,911	-0,081	-0,093
290,487	-96,476	-0,225	-0,041
291,501	180,269	-0,152	-0,154
292,516	-200,000	-0,073	-0,241
293,530	37,219	-0,213	-0,130
294,545	74,260	0,027	0,019
295,560	800,000	-0,061	-0,147
296,574	-18,272	-0,146	-0,063
297,589	-79,305	-0,259	-0,060
298,603	74,518	-0,187	-0,136
299,618	410,443	-0,085	-0,125
300,633	-75,919	-0,160	0,039
301,647	800,000	-0,024	-0,054
302,662	350,639	-0,060	0,081
303,676	800,000	-0,065	-0,130
304,691	800,000	-0,047	-0,118
305,706	231,546	-0,071	-0,080
306,720	-2,889	-0,119	-0,057
307,735	-14,842	-0,136	-0,060
308,749	-154,573	-0,144	-0,007
309,764	48,353	-0,071	-0,045
310,779	711,178	-0,121	-0,222
311,793	4,649	-0,219	-0,110
312,808	-200,000	-0,024	-0,136
313,822	243,664	-0,089	-0,103
314,837	-6,143	-0,093	-0,044
315,852	-122,911	-0,187	0,021
316,866	-143,404	-0,151	-0,010
317,881	-132,473	-0,121	0,011
318,895	452,707	-0,052	-0,079
319,910	-21,323	-0,274	-0,115
320,925	-125,953	-0,216	-0,022
321,939	-99,905	-0,135	0,023
322,954	-46,036	-0,146	0,049
323,968	-200,000	-0,014	-0,127
324,983	20,897	-0,115	-0,064
325,997	112,583	-0,185	-0,154
327,012	602,303	-0,149	-0,255
328,027	18,380	-0,206	-0,113
329,041	107,806	-0,170	-0,139
330,056	-119,089	-0,203	-0,024
331,070	145,189	-0,126	-0,115
332,085	-76,084	-0,244	0,059
333,100	-9,790	-0,105	0,048
334,114	102,969	-0,105	0,084
335,129	-142,715	-0,172	-0,011
336,143	137,934	-0,085	-0,076
337,158	-24,300	-0,252	-0,103
338,173	40,699	-0,103	0,064
339,187	-200,000	0,015	0,097
340,202	-41,552	-0,136	0,048
341,216	-124,105	-0,222	-0,024
342,231	-72,662	-0,183	-0,046
343,246	119,805	-0,084	-0,071
344,260	689,583	-0,050	-0,091
345,275	-66,189	-0,075	-0,020
346,289	470,301	-0,068	0,106
347,304	60,393	-0,289	-0,196
348,319	98,555	-0,107	-0,085
349,333	175,620	-0,204	-0,203
350,348	80,129	-0,183	-0,135
351,362	-167,926	-0,153	-0,004
352,377	-84,326	-0,027	-0,006
353,392	9,629	-0,151	-0,078
354,406	-200,000	-0,006	0,021
355,421	208,954	1314,830	1413,297
356,435	160,805	1475,570	1413,809
