DTS Sentinel unit serial number:	SN410029Multiplexer serial number:	ORYXHardware model number:	OX2-SRSoftware version number:	ORYX F/W v4,00 Oryx Data Collector v3.7.2.0data status	okinstallation	B3 Nyhavnadifferential loss correction	single-endedforward channel	channel 1reverse channel	N/Adate	2023/12/04time	12:32:30forward acquisition time	300,00reverse acquisition time	0,00gamma	499,1914k internal	0,3202k external	0,3202temperature offset calibration	1,0000default loss term (dB/km)	0,3820temperature slope calibration	1,0000multiplexer offset coefficient	1,0000multiplexer slope coefficient	1,0000fibre end	0,00T internal ref (°C)	14,50T ext. ref 1 (°C)	0,17T ext. ref 2 (°C)	0,14length (m)	temperature (°C)	Stokes	anti-Stokes-744,400	140,811	-0,207	-0,199
-743,385	-200,000	-0,034	0,323
-742,371	351,407	-0,106	-0,152
-741,356	-200,000	-0,021	0,383
-740,342	219,810	-0,200	-0,233
-739,327	-200,000	-0,046	0,320
-738,312	85,934	-0,171	-0,136
-737,298	-200,000	0,051	0,393
-736,283	191,204	-0,192	-0,211
-735,269	-200,000	-0,075	0,349
-734,254	186,560	-0,242	-0,262
-733,239	-168,357	-0,140	0,004
-732,225	800,000	-0,104	-0,245
-731,210	195,590	0,050	0,055
-730,196	615,110	0,045	0,083
-729,181	106,310	-0,200	0,172
-728,167	131,385	0,025	-0,024
-727,152	181,417	-0,130	0,139
-726,137	258,742	-0,084	-0,105
-725,123	-109,003	-0,064	-0,010
-724,108	-200,000	-0,009	-0,106
-723,094	800,000	-0,092	-0,202
-722,079	-86,814	-0,064	-0,014
-721,064	-42,680	-0,083	-0,030
-720,050	561,717	-0,008	0,013
-719,035	-200,000	-0,012	0,081
-718,021	209,016	-0,089	0,101
-717,006	27,106	-0,030	-0,018
-715,991	-200,000	-0,033	-0,123
-714,977	800,000	-0,045	0,099
-713,962	29,571	-0,035	0,021
-712,948	498,112	-0,052	0,088
-711,933	14,296	0,076	0,043
-710,918	332,329	0,052	-0,073
-709,904	-44,662	-0,184	0,066
-708,889	444,665	0,067	0,107
-707,875	115,222	0,016	-0,014
-706,860	-17,875	-0,027	0,012
-705,845	432,960	-0,055	-0,087
-704,831	800,000	0,043	-0,109
-703,816	-85,687	0,085	0,019
-702,802	-76,178	-0,068	-0,017
-701,787	-200,000	-0,004	-0,056
-700,772	-200,000	-0,004	-0,055
-699,758	-72,984	0,046	-0,012
-698,743	-114,303	-0,046	0,006
-697,729	343,897	0,028	-0,040
-696,714	800,000	0,011	0,035
-695,699	-200,000	0,006	-0,040
-694,685	7,254	-0,092	0,050
-693,670	-104,298	0,055	0,009
-692,656	-94,631	-0,174	-0,034
-691,641	-200,000	0,006	-0,055
-690,627	-200,000	0,013	-0,045
-689,612	358,733	0,020	0,029
-688,597	800,000	-0,045	-0,094
-687,583	800,000	-0,058	-0,173
-686,568	-127,306	-0,063	0,007
-685,554	800,000	-0,051	0,129
-684,539	174,871	-0,015	-0,016
-683,524	800,000	0,026	0,052
-682,510	98,186	0,126	0,105
-681,495	-105,912	-0,160	-0,026
-680,481	800,000	-0,065	-0,183
-679,466	34,696	-0,122	-0,077
-678,451	-200,000	-0,015	-0,179
-677,437	197,036	0,124	-0,138
-676,422	242,894	0,042	0,051
-675,408	63,784	0,058	-0,042
-674,393	-113,468	-0,020	-0,003
-673,378	-92,483	0,127	-0,026
-672,364	-146,495	-0,221	0,014
-671,349	800,000	0,005	0,014
-670,335	665,846	0,024	-0,046
-669,320	800,000	0,035	0,090
-668,305	676,989	0,082	-0,156
-667,291	-12,143	-0,057	-0,027
-666,276	-73,554	-0,028	0,007
-665,262	330,221	-0,034	-0,047
-664,247	-13,916	-0,047	-0,022
-663,232	-180,316	0,062	-0,001
-662,218	-142,258	0,068	0,005
-661,203	-178,727	-0,124	-0,002
-660,189	153,332	-0,012	-0,012
-659,174	-94,393	-0,085	0,017
-658,159	284,556	0,061	-0,079
-657,145	82,657	-0,052	0,041
-656,130	22,732	0,111	0,066
-655,116	800,000	0,015	0,046
-654,101	158,363	-0,059	0,059
-653,086	-200,000	-0,033	0,122
-652,072	800,000	0,006	-0,020
-651,057	167,880	0,060	0,062
-650,043	148,478	-0,081	0,079
-649,028	41,883	0,136	-0,089
-648,014	11,669	-0,071	0,040
-646,999	-12,213	0,159	0,075
-645,984	61,671	0,047	0,034
-644,970	-70,027	-0,104	-0,029
-643,955	-200,000	-0,002	0,137
-642,941	168,408	-0,045	0,046
-641,926	800,000	-0,020	-0,054
-640,911	800,000	0,032	-0,086
-639,897	-116,677	-0,151	0,020
-638,882	800,000	0,014	0,042
-637,868	-200,000	-0,031	-0,107
-636,853	-65,891	-0,117	-0,034
-635,838	-200,000	0,019	-0,094
-634,824	-15,369	-0,097	-0,045
-633,809	574,855	0,041	-0,072
-632,795	-79,080	0,063	-0,015
-631,780	-68,822	-0,083	0,023
-630,765	-61,682	0,085	-0,026
-629,751	28,236	-0,015	0,009
-628,736	672,899	-0,021	-0,040
-627,722	-200,000	-0,008	-0,076
-626,707	583,125	-0,052	-0,093
-625,692	800,000	-0,028	0,077
-624,678	304,613	-0,028	0,038
-623,663	-6,946	0,030	0,015
-622,649	-200,000	-0,005	-0,222
-621,634	-200,000	0,003	-0,068
-620,619	-55,310	-0,071	-0,023
-619,605	-20,815	-0,068	-0,030
-618,590	-7,797	0,090	-0,044
-617,576	-200,000	-0,015	0,264
-616,561	119,236	-0,064	-0,057
-615,546	-200,000	-0,014	-0,060
-614,532	-62,132	-0,129	-0,039
-613,517	725,137	-0,029	0,057
-612,503	800,000	-0,018	0,041
-611,488	-161,328	0,037	0,001
-610,474	-58,981	0,021	-0,007
-609,459	-134,025	0,058	-0,005
-608,444	-78,849	-0,055	0,014
-607,430	541,091	-0,062	-0,108
-606,415	-200,000	-0,008	0,064
-605,401	-117,335	0,079	-0,010
-604,386	319,624	0,090	0,123
-603,371	322,909	0,065	0,089
-602,357	319,068	-0,071	-0,098
-601,342	35,212	-0,068	-0,043
-600,328	-14,594	0,053	0,024
-599,313	800,000	-0,026	-0,079
-598,298	-151,549	0,044	0,002
-597,284	-27,516	0,025	-0,010
-596,269	-33,074	-0,057	0,023
-595,255	-87,996	-0,087	-0,019
-594,240	31,962	0,058	0,036
-593,225	249,718	-0,071	-0,087
-592,211	-80,810	-0,084	-0,020
-591,196	114,452	-0,067	-0,059
-590,182	-200,000	0,017	0,139
-589,167	4,250	0,083	0,044
-588,152	-160,464	0,175	0,007
-587,138	374,364	-0,025	-0,036
-586,123	55,328	-0,165	-0,115
-585,109	465,572	-0,007	0,011
-584,094	12,713	-0,102	0,057
-583,079	-200,000	0,011	-0,065
-582,065	-72,435	0,115	-0,031
-581,050	16,795	-0,020	0,011
-580,036	-173,454	-0,078	0,002
-579,021	1,824	-0,025	0,013
-578,006	125,390	-0,043	0,039
-576,992	-200,000	-0,008	-0,038
-575,977	286,983	0,063	-0,082
-574,963	-200,000	0,019	0,068
-573,948	160,932	0,128	0,130
-572,934	800,000	-0,010	-0,024
-571,919	800,000	-0,028	-0,081
-570,904	-102,097	-0,124	-0,021
-569,890	-63,767	-0,121	-0,035
-568,875	800,000	-0,037	0,098
-567,861	38,550	0,161	0,104
-566,846	-200,000	-0,009	0,081
-565,831	-200,000	0,003	0,121
-564,817	52,769	-0,056	-0,038
-563,802	218,515	0,112	0,129
-562,788	191,285	-0,096	-0,104
-561,773	17,627	0,100	0,057
-560,758	-200,000	-0,002	0,019
-559,744	98,667	0,074	0,061
-558,729	-200,000	0,006	0,046
-557,715	-200,000	0,019	0,075
-556,700	800,000	-0,046	-0,141
-555,685	92,758	-0,097	0,079
-554,671	-200,000	-0,004	0,027
-553,656	31,391	-0,034	0,021
-552,642	-91,000	0,157	-0,032
-551,627	-47,152	-0,090	0,031
-550,612	-81,009	0,047	0,011
-549,598	-38,395	-0,124	-0,047
-548,583	-22,035	-0,176	0,077
-547,569	-200,000	0,000	-0,107
-546,554	291,713	0,076	0,100
-545,539	800,000	-0,064	0,160
-544,525	243,114	-0,027	0,032
-543,510	-41,668	-0,037	-0,014
-542,496	13,908	-0,060	0,034
-541,481	164,219	-0,091	0,093
-540,466	231,786	-0,064	-0,076
-539,452	473,193	-0,071	-0,115
-538,437	148,948	0,122	-0,119
-537,423	800,000	-0,022	0,045
-536,408	37,328	0,115	0,073
-535,393	181,610	-0,042	0,045
-534,379	26,767	0,067	-0,041
-533,364	800,000	0,022	-0,050
-532,350	-200,000	-0,004	-0,062
-531,335	34,375	0,121	-0,076
-530,321	-200,000	-0,021	-0,085
-529,306	-46,416	0,038	-0,013
-528,291	-15,363	-0,014	0,006
-527,277	800,000	0,052	-0,111
-526,262	323,087	0,031	-0,042
-525,248	153,685	-0,097	0,096
-524,233	438,181	0,111	0,176
-523,218	121,722	0,061	0,055
-522,204	501,775	0,051	-0,085
-521,189	-168,115	-0,151	0,004
-520,175	-200,000	-0,024	0,131
-519,160	-200,000	0,008	-0,120
-518,145	-143,746	0,044	0,003
-517,131	-82,359	-0,078	-0,018
-516,116	800,000	-0,038	0,084
-515,102	800,000	-0,022	0,050
-514,087	-82,779	0,081	-0,019
-513,072	338,455	-0,104	-0,146
-512,058	280,115	0,049	0,063
-511,043	-87,345	-0,071	0,015
-510,029	800,000	0,025	0,061
-509,014	-200,000	0,003	0,017
-507,999	79,499	-0,126	-0,098
-506,985	36,271	0,015	-0,009
-505,970	404,830	0,033	0,050
-504,956	224,783	-0,082	-0,096
-503,941	-200,000	-0,003	0,026
-502,926	8,564	-0,056	0,030
-501,912	-200,000	-0,033	0,114
-500,897	-21,039	0,112	-0,049
-499,883	-200,000	-0,010	0,061
-498,868	-200,000	-0,048	-0,191
-497,853	78,818	0,048	0,037
-496,839	-200,000	0,047	0,155
-495,824	-200,000	-0,008	-0,152
-494,810	800,000	-0,031	0,080
-493,795	269,063	0,065	-0,083
-492,781	-1,793	0,151	0,076
-491,766	-200,000	0,029	-0,151
-490,751	-87,267	-0,227	-0,049
-489,737	800,000	-0,022	-0,061
-488,722	179,021	0,061	0,065
-487,708	-132,723	0,073	-0,007
-486,693	-11,883	-0,078	0,037
-485,678	-45,655	0,065	-0,023
-484,664	798,259	0,063	-0,125
-483,649	-200,000	-0,009	-0,031
-482,635	343,074	0,062	0,088
-481,620	509,768	-0,008	0,014
-480,605	-4,297	0,070	-0,035
-479,591	82,056	-0,112	0,087
-478,576	-200,000	0,007	0,060
-477,562	486,473	0,035	0,058
-476,547	-200,000	-0,006	-0,162
-475,532	-8,148	-0,023	0,011
-474,518	-200,000	0,024	0,097
-473,503	-70,808	0,071	-0,019
-472,489	-200,000	0,013	-0,103
-471,474	-126,323	0,043	-0,005
-470,459	-200,000	0,008	-0,098
-469,445	-72,615	0,065	0,017
-468,430	405,966	-0,050	-0,077
-467,416	-50,536	0,091	0,031
-466,401	76,267	-0,027	0,020
-465,386	-80,130	0,054	-0,013
-464,372	60,544	0,063	-0,045
-463,357	800,000	-0,030	0,079
-462,343	-200,000	0,008	-0,063
-461,328	-166,822	-0,151	0,004
-460,313	800,000	0,024	-0,060
-459,299	81,975	0,167	0,130
-458,284	-117,460	0,095	-0,012
-457,270	-106,006	0,145	0,023
-456,255	24,537	-0,057	-0,034
-455,241	-200,000	-0,004	-0,103
-454,226	-109,992	-0,075	0,011
-453,211	-146,480	0,059	0,004
-452,197	77,322	-0,061	0,046
-451,182	-104,851	0,060	-0,010
-450,168	-200,000	0,001	0,031
-449,153	206,508	-0,105	-0,117
-448,138	390,332	0,033	-0,049
-447,124	-102,837	0,080	0,014
-446,109	800,000	0,008	0,022
-445,095	243,840	0,042	0,051
-444,080	82,203	0,086	-0,067
-443,065	800,000	0,023	0,052
-442,051	-68,734	-0,190	0,053
-441,036	96,388	-0,035	-0,029
-440,022	428,608	0,058	-0,091
-439,007	32,043	-0,025	-0,015
-437,992	800,000	0,031	0,093
-436,978	495,207	0,010	0,016
-435,963	-200,000	-0,002	0,103
-434,949	6,544	-0,105	0,056
-433,934	800,000	-0,013	0,028
-432,919	-77,284	0,047	0,012
-431,905	-38,546	0,098	-0,037
-430,890	130,431	-0,024	-0,022
-429,876	716,323	0,092	0,175
-428,861	43,621	-0,020	0,013
-427,846	206,593	-0,027	-0,030
-426,832	276,481	-0,030	0,038
-425,817	-46,020	-0,049	-0,017
-424,803	-79,038	-0,175	-0,042
-423,788	-129,942	0,114	-0,011
-422,773	-130,401	0,071	0,007
-421,759	-99,058	0,053	0,010
-420,744	800,000	-0,046	0,092
-419,730	792,884	-0,045	0,090
-418,715	135,786	0,067	-0,062
-417,701	402,097	-0,074	-0,112
-416,686	-80,212	0,118	-0,028
-415,671	-108,431	0,231	0,035
-414,657	-107,045	-0,124	0,019
-413,642	512,632	-0,043	0,072
-412,628	800,000	0,028	-0,085
-411,613	10,810	-0,112	-0,061
-410,598	800,000	0,040	-0,117
-409,584	-200,000	0,002	0,061
-408,569	465,653	0,027	0,044
-407,555	-200,000	0,005	0,033
-406,540	-175,799	0,014	-0,000
-405,525	-81,036	0,215	0,051
-404,511	-76,290	0,038	-0,009
-403,496	27,891	-0,173	-0,104
-402,482	0,964	0,027	0,014
-401,467	-10,800	-0,186	-0,088
-400,452	119,842	0,032	-0,029
-399,438	-200,000	-0,013	-0,044
-398,423	-200,000	0,006	0,061
-397,409	-200,000	-0,002	-0,026
-396,394	777,393	-0,039	0,076
-395,379	-65,400	0,037	-0,011
-394,365	-25,134	0,108	0,046
-393,350	800,000	0,031	0,092
-392,336	33,102	0,065	-0,040
-391,321	800,000	0,019	-0,057
-390,306	-117,209	0,129	-0,017
-389,292	800,000	-0,017	0,049
-388,277	-200,000	0,002	0,122
-387,263	-50,415	-0,082	0,028
-386,248	75,912	-0,073	0,056
-385,233	-82,999	-0,086	0,020
-384,219	196,606	0,082	0,089
-383,204	-200,000	-0,026	-0,156
-382,190	-200,000	0,008	-0,156
-381,175	-200,000	0,010	0,069
-380,160	800,000	0,088	0,192
-379,146	-112,704	0,168	0,024
-378,131	800,000	-0,019	-0,050
-377,117	800,000	0,048	0,095
-376,102	-9,634	-0,120	-0,057
-375,088	-7,023	-0,121	-0,059
-374,073	28,397	0,103	0,062
-373,058	-200,000	0,030	-0,140
-372,044	251,782	-0,036	0,043
-371,029	-104,859	-0,159	0,026
-370,015	-200,000	0,029	-0,114
-369,000	-184,785	0,063	0,001
-367,985	-20,704	-0,101	0,044
-366,971	-90,689	0,133	0,027
-365,956	-95,090	-0,046	-0,009
-364,942	59,409	0,100	0,071
-363,927	173,801	0,043	0,044
-362,912	-200,000	0,000	-0,110
-361,898	800,000	0,045	-0,102
-360,883	17,925	-0,094	-0,053
-359,869	80,332	0,058	-0,045
-358,854	-7,592	0,068	0,033
-357,839	-90,270	-0,083	0,017
-356,825	-200,000	0,001	0,172
-355,810	-200,000	-0,003	0,117
-354,796	-39,199	-0,072	-0,027
-353,781	-54,729	-0,104	-0,033
-352,766	-68,492	0,049	0,014
-351,752	378,873	-0,059	0,087
-350,737	-85,614	0,124	0,027
-349,723	40,085	-0,050	-0,032
-348,708	-113,332	-0,128	-0,018
-347,693	241,827	0,013	-0,016
-346,679	-83,782	0,015	0,003
-345,664	192,820	0,055	0,059
-344,650	-200,000	0,014	0,070
-343,635	-200,000	0,014	-0,051
-342,620	-148,888	0,079	0,004
-341,606	-200,000	0,019	-0,119
-340,591	-134,945	-0,080	0,007
-339,577	17,434	-0,116	0,066
-338,562	292,460	-0,028	0,037
-337,548	-200,000	-0,010	0,149
-336,533	211,324	0,122	0,138
-335,518	404,038	-0,047	0,072
-334,504	800,000	0,028	-0,065
-333,489	-109,972	-0,075	-0,011
-332,475	800,000	-0,017	0,041
-331,460	227,286	-0,100	0,116
-330,445	800,000	-0,005	-0,013
-329,431	334,221	0,063	0,088
-328,416	297,823	0,124	0,163
-327,402	716,999	0,045	0,086
-326,387	-183,529	-0,004	0,000
-325,372	-57,364	-0,124	-0,039
-324,358	-200,000	0,028	0,104
-323,343	-200,000	-0,000	-0,104
-322,329	119,525	-0,106	-0,094
-321,314	800,000	0,019	0,051
-320,299	139,751	0,083	0,079
-319,285	-137,357	-0,201	-0,016
-318,270	-200,000	-0,001	-0,233
-317,256	336,494	-0,110	-0,153
-316,241	225,187	0,080	-0,092
-315,226	11,139	0,070	0,038
-314,212	800,000	-0,040	-0,106
-313,197	-200,000	0,043	0,206
-312,183	-135,236	-0,034	0,003
-311,168	-52,925	-0,178	0,058
-310,153	-52,022	0,074	0,025
-309,139	-200,000	0,011	-0,071
-308,124	7,325	0,067	-0,036
-307,110	-99,362	0,092	-0,016
-306,095	267,989	-0,056	-0,071
-305,080	-53,511	0,084	-0,027
-304,066	507,386	0,086	-0,143
-303,051	-200,000	-0,037	-0,151
-302,037	-37,190	-0,115	0,044
-301,022	-200,000	0,040	-0,136
-300,008	665,331	-0,023	0,043
-298,993	102,926	0,105	-0,088
-297,978	800,000	0,027	-0,076
-296,964	33,550	0,072	-0,045
-295,949	-60,107	-0,054	-0,016
-294,935	-120,053	0,083	0,010
-293,920	-36,470	0,056	0,021
-292,905	-55,638	-0,095	-0,030
-291,891	191,658	0,086	0,092
-290,876	-200,000	-0,005	0,047
-289,862	247,468	0,082	0,099
-288,847	-65,053	-0,038	-0,011
-287,832	179,650	-0,043	-0,045
-286,818	74,683	-0,119	-0,089
-285,803	488,796	0,035	-0,057
-284,789	367,447	0,038	0,055
-283,774	-44,708	-0,096	0,034
-282,759	-196,726	-0,059	0,000
-281,745	800,000	-0,038	-0,106
-280,730	115,329	0,092	-0,080
-279,716	347,425	0,065	0,092
-278,701	-200,000	-0,008	-0,036
-277,686	-200,000	0,030	0,112
-276,672	198,500	0,052	0,057
-275,657	192,251	-0,045	0,048
-274,643	38,718	0,010	-0,007
-273,628	125,266	-0,058	-0,052
-272,613	-48,272	-0,053	-0,018
-271,599	-200,000	0,003	-0,035
-270,584	-75,712	0,080	-0,020
-269,570	800,000	0,017	0,043
-268,555	800,000	0,020	-0,040
-267,540	800,000	0,014	0,041
-266,526	-200,000	-0,024	-0,092
-265,511	800,000	0,062	0,135
-264,497	-43,048	-0,042	-0,015
-263,482	-200,000	-0,017	0,066
-262,467	14,785	-0,103	0,057
-261,453	148,076	-0,060	-0,057
-260,438	-200,000	0,012	-0,066
-259,424	10,028	-0,039	-0,021
-258,409	9,125	-0,065	-0,035
-257,395	-200,000	0,009	0,067
-256,380	-162,142	-0,106	-0,004
-255,365	-61,540	0,065	0,019
-254,351	800,000	0,041	0,120
-253,336	-102,788	-0,065	-0,011
-252,322	-200,000	0,014	-0,069
-251,307	-200,000	-0,000	-0,144
-250,292	14,020	-0,068	-0,038
-249,278	800,000	-0,013	0,033
-248,263	-200,000	0,004	-0,028
-247,249	-200,000	0,002	0,042
-246,234	99,640	-0,110	-0,091
-245,219	-200,000	-0,019	-0,073
-244,205	-173,426	-0,074	-0,002
-243,190	199,527	0,007	-0,008
-242,176	672,323	0,083	0,153
-241,161	800,000	-0,039	0,118
-240,146	800,000	-0,057	0,125
-239,132	-200,000	-0,006	-0,044
-238,117	-79,598	-0,084	0,020
-237,103	-200,000	0,021	-0,070
-236,088	377,967	-0,020	0,029
-235,073	-200,000	0,023	-0,097
-234,059	219,300	0,068	0,078
-233,044	191,457	0,073	0,079
-232,030	12,047	0,028	-0,015
-231,015	-200,000	-0,043	-0,142
-230,000	-200,000	-0,007	-0,053
-228,986	-156,834	-0,024	0,001
-227,971	-200,000	0,009	-0,031
-226,957	-56,268	0,048	-0,015
-225,942	800,000	0,041	0,110
-224,927	-128,731	0,139	0,014
-223,913	598,738	0,034	0,060
-222,898	-156,876	0,089	-0,004
-221,884	612,028	-0,112	0,201
-220,869	295,105	0,045	0,059
-219,855	-200,000	0,007	-0,065
-218,840	14,278	0,110	0,061
-217,825	594,422	-0,054	-0,096
-216,811	8,519	-0,124	0,066
-215,796	651,148	-0,021	0,039
-214,782	342,516	0,029	-0,040
-213,767	-42,847	0,028	0,010
-212,752	-186,302	0,037	0,000
-211,738	-190,790	0,154	-0,001
-210,723	-22,177	-0,012	0,005
-209,709	256,649	-0,055	-0,068
-208,694	800,000	0,065	-0,146
-207,679	75,515	-0,034	0,025
-206,665	115,765	0,073	-0,064
-205,650	-25,167	0,093	0,039
-204,636	-66,349	-0,057	0,016
-203,621	250,133	0,084	-0,102
-202,606	-200,000	-0,011	0,069
-201,592	156,978	-0,069	-0,068
-200,577	-41,076	-0,149	-0,054
-199,563	-200,000	0,020	0,072
-198,548	-62,042	0,139	0,041
-197,533	-200,000	0,028	0,100
-196,519	800,000	0,013	-0,039
-195,504	223,796	0,018	-0,020
-194,490	-200,000	-0,002	-0,109
-193,475	329,933	-0,045	-0,061
-192,460	-25,328	0,087	-0,036
-191,446	-200,000	-0,013	-0,045
-190,431	450,425	-0,037	0,058
-189,417	-54,424	-0,121	-0,039
-188,402	-61,127	-0,105	0,031
-187,387	409,069	0,059	-0,089
-186,373	-55,316	-0,138	-0,044
-185,358	228,383	-0,062	-0,072
-184,344	-53,963	0,027	0,009
-183,329	-52,852	0,152	0,050
-182,315	800,000	-0,033	0,090
-181,300	179,535	-0,036	0,038
-180,285	-200,000	-0,002	0,101
-179,271	617,361	-0,061	-0,110
-178,256	-65,316	0,068	-0,019
-177,242	-147,592	0,093	0,005
-176,227	65,434	0,043	0,031
-175,212	-200,000	-0,008	0,044
-174,198	-200,000	0,063	0,215
-173,183	-152,887	0,176	0,009
-172,169	-9,515	-0,234	-0,111
-171,154	33,262	0,127	-0,078
-170,139	-200,000	-0,022	0,095
-169,125	-200,000	0,018	0,222
-168,110	800,000	0,058	0,135
-167,096	-57,176	0,018	-0,006
-166,081	800,000	-0,029	-0,067
-165,066	800,000	-0,039	-0,090
-164,052	800,000	0,033	-0,103
-163,037	-200,000	0,021	-0,174
-162,023	673,277	-0,035	0,065
-161,008	-65,220	0,083	-0,024
-159,993	231,114	-0,085	-0,099
-158,979	800,000	0,027	0,081
-157,964	37,824	-0,086	-0,054
-156,950	800,000	0,025	-0,053
-155,935	-63,296	0,092	-0,027
-154,920	-146,586	-0,022	-0,001
-153,906	800,000	0,016	0,047
-152,891	53,092	-0,058	0,039
-151,877	-200,000	0,028	0,113
-150,862	800,000	0,013	0,031
-149,847	800,000	-0,047	-0,103
-148,833	145,499	-0,087	0,083
-147,818	74,251	-0,086	0,064
-146,804	-28,473	0,054	-0,022
-145,789	293,281	0,012	0,016
-144,775	-200,000	-0,014	-0,061
-143,760	800,000	-0,058	-0,131
-142,745	-152,656	-0,068	0,003
-141,731	800,000	-0,048	-0,111
-140,716	580,302	0,040	-0,069
-139,702	-137,141	0,145	0,012
-138,687	-200,000	0,004	0,136
-137,672	-200,000	0,034	-0,209
-136,658	535,303	-0,018	-0,030
-135,643	800,000	0,040	-0,104
-134,629	120,369	-0,044	0,038
-133,614	386,567	0,044	0,065
-132,599	-155,203	-0,115	-0,005
-131,585	-162,998	0,139	0,005
-130,570	-145,028	0,086	-0,005
-129,556	-35,547	-0,093	0,036
-128,541	800,000	0,032	0,096
-127,526	41,738	-0,050	-0,032
-126,512	-14,383	0,073	-0,033
-125,497	301,362	-0,061	0,080
-124,483	238,674	0,080	-0,094
-123,468	53,999	0,071	-0,048
-122,453	-4,173	-0,174	0,085
-121,439	-200,000	-0,004	-0,087
-120,424	408,222	-0,058	0,088
-119,410	-200,000	0,008	0,188
-118,395	294,522	0,126	0,163
-117,380	111,117	0,046	-0,040
-116,366	-79,449	-0,095	0,023
-115,351	-38,628	-0,082	-0,031
-114,337	195,074	0,049	-0,053
-113,322	-200,000	-0,009	-0,099
-112,307	-200,000	0,015	0,060
-111,293	12,815	0,038	0,021
-110,278	43,506	0,081	-0,053
-109,264	800,000	-0,058	-0,179
-108,249	408,628	0,049	0,073
-107,234	-200,000	-0,013	-0,144
-106,220	-159,682	-0,046	-0,002
-105,205	219,348	-0,069	0,078
-104,191	622,236	-0,036	0,065
-103,176	435,910	0,038	-0,059
-102,162	89,077	-0,094	0,074
-101,147	23,395	0,034	0,020
-100,132	-200,000	-0,004	0,017
-99,118	-200,000	-0,020	-0,148
-98,103	-64,800	0,016	0,005
-97,089	-200,000	0,010	0,049
-96,074	-39,543	0,075	-0,028
-95,059	-86,126	0,137	0,030
-94,045	408,940	-0,051	-0,077
-93,030	-200,000	-0,024	-0,110
-92,016	-200,000	0,021	-0,092
-91,001	608,062	-0,014	-0,024
-89,986	-159,860	0,115	0,004
-88,972	-200,000	0,027	0,200
-87,957	36,235	0,097	0,061
-86,943	-200,000	-0,008	-0,118
-85,928	-66,099	-0,152	-0,043
-84,913	381,495	-0,040	0,058
-83,899	-200,000	-0,015	-0,063
-82,884	-16,780	0,021	0,009
-81,870	83,706	0,163	0,126
-80,855	357,219	0,061	0,086
-79,840	-200,000	0,016	-0,193
-78,826	-200,000	0,029	0,097
-77,811	451,211	-0,043	-0,068
-76,797	117,930	-0,066	-0,057
-75,782	338,022	-0,026	0,035
-74,767	-200,000	0,010	0,102
-73,753	-200,000	-0,005	0,097
-72,738	-200,000	-0,004	0,136
-71,724	-38,349	0,184	0,069
-70,709	68,637	-0,150	-0,109
-69,694	-30,182	-0,068	0,027
-68,680	25,030	-0,041	0,024
-67,665	-38,401	0,087	-0,033
-66,651	-200,000	0,015	-0,065
-65,636	224,703	-0,024	0,027
-64,622	-60,960	0,067	-0,020
-63,607	-30,187	-0,082	0,033
-62,592	-148,736	0,070	0,004
-61,578	-200,000	-0,007	0,027
-60,563	-200,000	-0,035	0,137
-59,549	53,505	0,071	0,048
-58,534	-52,193	-1,619	-0,528
-57,519	268,453	-1,637	-2,035
-56,505	-200,000	-0,474	-4,368
-55,490	266,381	0,806	0,998
-54,476	800,000	4,690	11,098
-53,461	-200,000	18,486	296,124
-52,446	800,000	730,558	2251,996
-51,432	558,005	1646,433	2821,166
-50,417	78,844	1667,159	1261,166
-49,403	22,471	1540,276	889,051
-48,388	16,369	1463,466	815,149
-47,373	17,818	1453,253	816,412
-46,359	17,020	1443,724	807,205
-45,344	14,599	1439,367	793,173
-44,330	14,569	1437,190	791,800
-43,315	14,544	1435,523	790,730
-42,300	14,580	1434,076	790,075
-41,286	14,595	1432,794	789,407
-40,271	14,596	1431,325	788,573
-39,257	14,575	1430,129	787,782
-38,242	14,631	1428,967	787,378
-37,227	14,607	1427,674	786,518
-36,213	14,569	1426,539	785,681
-35,198	14,613	1425,225	785,137
-34,184	14,618	1424,278	784,606
-33,169	14,562	1422,805	783,498
-32,154	14,596	1422,032	783,204
-31,140	14,611	1420,799	782,562
-30,125	14,645	1419,513	781,986
-29,111	14,636	1418,231	781,207
-28,096	14,592	1417,146	780,368
-27,082	14,529	1416,213	779,531
-26,067	14,553	1415,124	779,013
-25,052	14,536	1414,093	778,332
-24,038	14,521	1412,975	777,614
-23,023	14,496	1412,162	777,020
-22,009	14,519	1411,127	776,529
-20,994	14,501	1410,199	775,900
-19,979	14,494	1409,283	775,335
-18,965	14,478	1408,333	774,706
-17,950	14,469	1407,435	774,140
-16,936	14,460	1406,420	773,509
-15,921	14,430	1405,444	772,801
-14,906	14,414	1404,567	772,215
-13,892	14,470	1403,483	771,847
-12,877	14,442	1402,710	771,264
-11,863	14,410	1401,780	770,569
-10,848	14,391	1400,989	770,016
-9,833	14,383	1400,121	769,474
-8,819	14,390	1399,085	768,906
-7,804	14,337	1398,329	768,215
-6,790	14,338	1397,029	767,472
-5,775	14,335	1396,184	766,967
-4,760	14,353	1395,142	766,446
-3,746	14,335	1394,450	765,950
-2,731	14,385	1393,411	765,582
-1,717	14,311	1392,777	764,863
-0,702	14,316	1390,698	763,714
0,313	18,222	1309,177	736,990
1,327	34,575	705,827	435,173
2,342	52,962	124,240	83,928
3,356	3,547	16,650	8,556
4,371	-3,428	3,135	1,537
5,386	-17,639	0,627	0,277
6,400	-86,938	0,094	0,020
7,415	22,968	-0,292	-0,169
8,429	-79,277	-0,417	-0,099
9,444	-63,530	-0,299	-0,086
10,459	776,528	-0,144	-0,278
11,473	-124,093	-0,378	-0,041
12,488	-6,467	-0,338	-0,162
13,502	-3,529	-0,267	-0,131
14,517	74,604	-0,336	-0,250
15,531	543,774	-0,222	-0,375
16,546	194,014	-0,259	-0,277
17,561	-60,490	-0,493	-0,147
18,575	101,747	-0,219	-0,181
19,590	707,967	-0,109	-0,205
20,604	-170,351	-0,283	0,007
21,619	-13,144	-0,479	-0,219
22,634	113,845	-0,436	-0,374
23,648	-57,318	-0,499	-0,154
24,663	65,288	-0,397	-0,283
25,677	13,768	-0,378	-0,206
26,692	71,020	-0,339	-0,247
27,707	-41,369	-0,408	-0,147
28,721	-6,463	-0,323	-0,155
29,736	62,789	-0,443	-0,313
30,750	131,260	-0,329	-0,298
31,765	77,258	-0,443	-0,332
32,780	145,852	-0,301	-0,285
33,794	233,945	-0,313	-0,364
34,809	90,130	-0,438	-0,345
35,823	9,617	-0,414	-0,221
36,838	79,983	-0,377	-0,285
37,853	100,093	-0,369	-0,301
38,867	60,916	-0,338	-0,236
39,882	40,092	-0,223	-0,141
40,896	-49,350	-0,476	-0,159
41,911	320,696	-0,206	-0,276
42,926	-38,737	-0,395	-0,146
43,940	29,760	-0,524	-0,314
44,955	134,883	-0,314	-0,288
45,969	141,435	-0,289	-0,270
46,984	143,719	-0,268	-0,252
47,999	1,633	-0,272	-0,138
49,013	41,543	-0,413	-0,263
50,028	-32,506	-0,400	-0,156
51,042	338,412	-0,217	-0,298
52,057	60,233	-0,416	-0,289
53,071	191,391	-0,255	-0,271
54,086	76,047	-0,359	-0,267
55,101	499,533	-0,251	-0,409
56,115	-62,100	-0,440	-0,129
57,130	94,126	-0,274	-0,218
58,144	0,774	-0,323	-0,162
59,159	95,325	-0,321	-0,257
60,174	46,892	-0,429	-0,280
61,188	60,411	-0,347	-0,241
62,203	7,811	-0,273	-0,144
63,217	65,349	-0,275	-0,195
64,232	236,396	-0,239	-0,279
65,247	9,857	-0,389	-0,207
66,261	66,585	-0,389	-0,278
67,276	19,455	-0,465	-0,262
68,290	-94,973	-0,337	-0,063
69,305	-44,159	-0,393	-0,138
70,320	60,371	-0,319	-0,222
71,334	116,026	-0,330	-0,284
72,349	48,001	-0,380	-0,249
73,363	18,979	-0,374	-0,210
74,378	-0,533	-0,375	-0,186
75,393	194,162	-0,324	-0,346
76,407	95,374	-0,327	-0,262
77,422	-58,157	-0,286	-0,087
78,436	-51,346	-0,289	-0,094
79,451	61,700	-0,257	-0,180
80,466	57,669	-0,365	-0,250
81,480	230,232	-0,208	-0,239
82,495	19,293	-0,380	-0,214
83,509	800,000	-0,131	-0,292
84,524	-0,838	-0,240	-0,119
85,539	-40,140	-0,286	-0,104
86,553	-29,821	-0,276	-0,110
87,568	101,025	-0,302	-0,246
88,582	58,192	-0,205	-0,141
89,597	-0,362	-0,284	-0,141
90,611	-89,064	-0,302	-0,062
91,626	1,455	-0,261	-0,131
92,641	46,611	-0,238	-0,154
93,655	5,908	-0,184	-0,096
94,670	-23,503	-0,292	-0,122
95,684	-52,099	-0,430	-0,139
96,699	-70,921	-0,309	-0,081
97,714	165,048	-0,221	-0,219
98,728	-61,702	-0,263	-0,077
99,743	99,135	-0,245	-0,199
100,757	-98,050	-0,208	-0,037
101,772	212,402	-0,294	-0,325
102,787	119,222	-0,255	-0,221
103,801	38,566	-0,347	-0,217
104,816	111,468	-0,279	-0,236
105,830	-81,698	-0,313	-0,071
106,845	165,638	-0,137	-0,136
107,860	-62,872	-0,260	-0,075
108,874	-23,636	-0,221	-0,093
109,889	0,567	-0,265	-0,132
110,903	132,471	-0,202	-0,183
111,918	800,000	-0,160	-0,316
112,933	108,156	-0,180	-0,150
113,947	-1,312	-0,251	-0,124
114,962	228,225	-0,300	-0,342
115,976	51,168	-0,151	-0,100
116,991	-39,239	-0,278	-0,102
118,006	111,381	-0,265	-0,223
119,020	-50,348	-0,241	-0,079
120,035	216,367	-0,239	-0,266
121,049	-107,353	-0,299	0,046
122,064	49,883	-0,407	-0,268
123,079	43,684	-0,221	-0,141
124,093	28,331	-0,237	-0,140
125,108	65,778	-0,225	-0,159
126,122	35,745	-0,258	-0,158
127,137	67,170	-0,136	-0,097
128,151	149,627	-0,160	-0,151
129,166	-42,542	-0,239	-0,085
130,181	133,611	-0,200	-0,181
131,195	85,923	-0,215	-0,165
132,210	-109,157	-0,361	-0,053
133,224	36,715	-0,234	-0,144
134,239	63,619	-0,228	-0,160
135,254	-89,126	-0,230	-0,047
136,268	198,998	-0,170	-0,182
137,283	344,454	-0,203	-0,279
138,297	89,086	-0,258	-0,201
139,312	457,432	-0,228	-0,355
140,327	140,828	-0,327	-0,302
141,341	197,511	-0,268	-0,287
142,356	800,000	-0,090	-0,257
143,370	-157,931	-0,287	0,012
144,385	143,967	-0,198	-0,185
145,400	117,574	-0,225	-0,193
146,414	126,031	-0,204	-0,180
147,429	102,842	-0,396	-0,323
148,443	258,538	-0,222	-0,267
149,458	116,088	-0,238	-0,204
150,473	-148,956	-0,260	0,014
151,487	49,566	-0,223	-0,146
152,502	-23,886	-0,219	-0,091
153,516	33,163	-0,256	-0,154
154,531	179,407	-0,227	-0,232
155,546	28,380	-0,215	-0,127
156,560	-16,869	-0,301	-0,132
157,575	308,125	-0,185	-0,241
158,589	-41,029	-0,302	-0,108
159,604	-106,931	-0,258	-0,039
160,619	178,864	-0,214	-0,218
161,633	-58,866	-0,332	-0,099
162,648	95,686	-0,171	-0,136
163,662	126,075	-0,091	-0,080
164,677	26,112	-0,215	-0,125
165,692	164,028	-0,260	-0,256
166,706	144,534	-0,229	-0,213
167,721	63,311	-0,228	-0,159
168,735	163,972	-0,260	-0,256
169,750	-58,317	-0,377	-0,114
170,764	17,589	-0,334	-0,184
171,779	-103,106	-0,259	-0,042
172,794	64,888	-0,227	-0,159
173,808	32,810	-0,266	-0,160
174,823	334,266	-0,203	-0,275
175,837	343,865	-0,189	-0,259
176,852	5,200	-0,156	-0,080
177,867	-200,000	-0,046	-0,229
178,881	263,737	-0,181	-0,219
179,896	-68,566	-0,181	-0,048
180,910	55,714	-0,233	-0,157
181,925	31,826	-0,308	-0,184
182,940	103,787	-0,286	-0,234
183,954	9,093	-0,307	-0,161
184,969	669,773	-0,130	-0,236
185,983	7,502	-0,176	-0,091
186,998	-110,815	-0,279	-0,040
188,013	147,390	-0,109	-0,102
189,027	524,812	-0,191	-0,314
190,042	60,189	-0,242	-0,167
191,056	736,078	-0,088	-0,165
192,071	309,252	-0,215	-0,281
193,086	340,787	-0,116	-0,158
194,100	-57,775	-0,161	-0,049
195,115	17,752	-0,171	-0,094
196,129	62,624	-0,126	-0,087
197,144	202,750	-0,215	-0,231
198,159	-44,702	-0,163	-0,056
199,173	-34,385	-0,194	-0,073
200,188	-141,752	-0,103	0,007
201,202	-41,669	-0,106	0,038
202,217	70,697	-0,085	-0,061
203,232	-89,462	-0,202	-0,041
204,246	12,374	-0,255	-0,136
205,261	-200,000	-0,042	-0,245
206,275	105,260	-0,156	-0,128
207,290	192,130	-0,138	-0,145
208,304	40,689	-0,121	-0,075
209,319	-60,865	-0,182	-0,053
210,334	192,907	-0,185	-0,195
211,348	289,586	-0,130	-0,164
212,363	800,000	-0,147	-0,301
213,377	127,024	-0,193	-0,170
214,392	77,602	-0,266	-0,197
215,407	62,226	-0,152	-0,105
216,421	-50,002	-0,219	-0,072
217,436	-200,000	-0,025	-0,102
218,450	142,561	-0,274	-0,252
219,465	800,000	-0,163	-0,371
220,480	406,331	-0,076	-0,112
221,494	-52,875	-0,226	-0,072
222,509	6,595	-0,102	-0,052
223,523	248,385	-0,132	-0,155
224,538	38,935	-0,260	-0,161
225,553	-120,006	-0,267	0,031
226,567	-31,622	-0,215	-0,083
227,582	391,036	-0,185	-0,267
228,596	348,651	-0,175	-0,240
229,611	-153,053	-0,125	0,006
230,626	-145,454	-0,233	0,014
231,640	161,237	-0,221	-0,215
232,655	353,301	-0,111	-0,153
233,669	155,568	-0,170	-0,162
234,684	-152,265	-0,310	0,015
235,699	800,000	-0,075	-0,154
236,713	-6,022	-0,203	-0,096
237,728	-19,880	-0,196	-0,083
238,742	232,310	-0,181	-0,207
239,757	136,081	-0,175	-0,158
240,772	250,046	-0,086	-0,101
241,786	83,642	-0,142	-0,107
242,801	-79,396	-0,158	0,037
243,815	50,719	-0,198	-0,130
244,830	-63,226	-0,259	-0,073
245,844	147,124	-0,197	-0,183
246,859	-32,799	-0,193	-0,074
247,874	-49,292	-0,128	-0,042
248,888	800,000	-0,108	-0,214
249,903	51,304	-0,103	-0,067
250,917	-115,319	-0,081	-0,011
251,932	-40,772	-0,189	-0,068
252,947	-20,397	-0,184	-0,078
253,961	98,467	-0,202	-0,161
254,976	-127,854	-0,254	-0,025
255,990	800,000	-0,103	-0,262
257,005	50,804	-0,102	-0,067
258,020	-200,000	-0,025	-0,096
259,034	297,097	-0,115	-0,146
260,049	220,754	-0,144	-0,160
261,063	242,564	-0,197	-0,229
262,078	-36,336	-0,227	-0,084
263,093	800,000	-0,074	-0,173
264,107	-100,270	-0,193	-0,033
265,122	8,768	-0,281	-0,146
266,136	148,302	-0,048	-0,045
267,151	-100,245	-0,233	0,040
268,166	-200,000	-0,021	-0,241
269,180	427,277	-0,157	-0,235
270,195	800,000	-0,124	-0,273
271,209	79,194	-0,115	-0,085
272,224	-56,454	-0,102	-0,031
273,239	110,751	-0,093	-0,077
274,253	-116,213	-0,139	-0,018
275,268	122,705	-0,152	-0,131
276,282	255,009	-0,276	-0,327
277,297	-133,162	-0,261	-0,023
278,312	36,903	-0,288	-0,176
279,326	300,614	-0,087	-0,111
280,341	-115,642	-0,241	0,031
281,355	-102,020	-0,116	-0,019
282,370	737,490	-0,110	-0,204
283,384	158,622	-0,194	-0,186
284,399	-0,807	-0,225	-0,109
285,414	119,199	-0,217	-0,185
286,428	73,013	-0,147	-0,106
287,443	-94,216	-0,057	-0,011
288,457	70,616	-0,143	-0,102
289,472	-113,797	-0,122	0,016
290,487	101,852	-0,193	-0,155
291,501	-106,885	-0,210	-0,032
292,516	148,829	-0,171	-0,159
293,530	-146,308	-0,074	0,004
294,545	129,599	-0,248	-0,218
295,560	-200,000	-0,016	-0,091
296,574	-180,127	-0,102	0,001
297,589	-8,687	-0,158	-0,073
298,603	800,000	-0,127	-0,276
299,618	303,238	-0,110	-0,141
300,633	-140,924	-0,170	-0,012
301,647	-200,000	-0,001	0,007
302,662	-62,314	-0,093	0,027
303,676	120,399	-0,121	-0,104
304,691	56,060	-0,163	0,109
305,706	-146,724	-0,242	0,014
306,720	-0,968	-0,143	-0,069
307,735	-34,086	-0,039	0,015
308,749	474,757	-0,120	-0,187
309,764	-145,900	-0,130	0,008
310,779	61,916	-0,137	-0,094
311,793	275,029	-0,111	-0,136
312,808	6,700	-0,112	-0,057
313,822	800,000	-0,081	-0,199
314,837	321,043	-0,123	-0,162
315,852	647,306	-0,113	-0,199
316,866	219,589	-0,096	-0,105
317,881	60,341	-0,153	-0,104
318,895	119,214	-0,117	-0,099
319,910	32,408	-0,213	-0,126
320,925	129,995	-0,133	-0,117
321,939	259,458	-0,060	-0,071
322,954	49,229	-0,160	-0,103
323,968	-200,000	-0,007	-0,083
324,983	499,311	-0,041	-0,065
325,997	-71,037	-0,226	0,058
327,012	60,538	-0,252	-0,172
328,027	105,249	-0,197	-0,160
329,041	706,829	-0,067	-0,122
330,056	-200,000	0,016	-0,080
331,070	94,853	-0,102	0,080
332,085	-200,000	-0,033	-0,224
333,100	-85,009	-0,171	-0,036
334,114	50,725	-0,162	-0,105
335,129	183,729	-0,210	-0,214
336,143	-200,000	-0,080	-0,246
337,158	99,215	-0,126	0,100
338,173	59,607	-0,057	-0,039
339,187	49,921	-0,208	0,134
340,202	12,086	-0,102	0,054
341,216	712,660	-0,113	-0,207
342,231	-176,179	-0,224	-0,004
343,246	-4,327	-0,169	-0,080
344,260	-90,225	-0,132	-0,026
345,275	-200,000	0,002	-0,116
346,289	-200,000	-0,031	-0,146
347,304	181,766	-0,149	-0,151
348,319	-32,610	-0,132	0,050
349,333	-200,000	0,012	-0,149
350,348	800,000	-0,076	-0,217
351,362	176,178	0,083	-0,083
352,377	-110,075	-0,121	0,017
353,392	98,335	-0,057	-0,045
354,406	385,981	-0,188	-0,267
355,421	209,015	1316,530	1414,982
356,435	160,851	1477,494	1415,492
