DTS Sentinel unit serial number:	SN410029Multiplexer serial number:	ORYXHardware model number:	OX2-SRSoftware version number:	ORYX F/W v4,00 Oryx Data Collector v3.7.2.0data status	okinstallation	B3 Nyhavnadifferential loss correction	single-endedforward channel	channel 1reverse channel	N/Adate	2023/12/02time	04:32:30forward acquisition time	300,00reverse acquisition time	0,00gamma	499,1914k internal	0,3194k external	0,3194temperature offset calibration	1,0000default loss term (dB/km)	0,3820temperature slope calibration	1,0000multiplexer offset coefficient	1,0000multiplexer slope coefficient	1,0000fibre end	0,00T internal ref (°C)	16,50T ext. ref 1 (°C)	1,29T ext. ref 2 (°C)	1,28length (m)	temperature (°C)	Stokes	anti-Stokes-744,400	175,927	-0,167	-0,177
-743,385	800,000	0,116	0,329
-742,371	800,000	-0,066	-0,155
-741,356	-200,000	0,078	0,293
-740,342	134,272	-0,176	-0,167
-739,327	800,000	-0,116	0,285
-738,312	231,606	-0,195	-0,234
-737,298	-200,000	0,085	0,294
-736,283	-32,259	-0,177	-0,072
-735,269	800,000	0,109	0,339
-734,254	2,309	-0,238	-0,125
-733,239	644,819	-0,134	0,250
-732,225	534,225	-0,148	-0,257
-731,210	482,834	-0,029	-0,048
-730,196	-92,571	0,031	-0,006
-729,181	357,749	-0,121	-0,177
-728,167	4,664	0,072	-0,039
-727,152	247,454	0,068	-0,084
-726,137	-115,908	0,034	-0,005
-725,123	-187,076	-0,064	0,001
-724,108	-33,811	-0,095	-0,038
-723,094	376,556	-0,083	-0,123
-722,079	488,928	0,057	-0,095
-721,064	-200,000	0,010	0,054
-720,050	800,000	-0,041	0,111
-719,035	-200,000	0,008	-0,047
-718,021	-200,000	0,002	-0,106
-717,006	-200,000	0,025	-0,140
-715,991	73,576	-0,020	-0,015
-714,977	-101,846	-0,054	0,009
-713,962	-76,331	0,009	0,002
-712,948	-10,044	0,130	-0,063
-711,933	800,000	-0,027	0,083
-710,918	800,000	-0,035	0,090
-709,904	374,684	-0,055	-0,081
-708,889	14,806	-0,275	0,156
-707,875	-147,036	-0,114	-0,007
-706,860	82,479	0,047	0,037
-705,845	-21,165	-0,102	0,045
-704,831	-51,170	-0,055	0,019
-703,816	-38,587	-0,060	-0,023
-702,802	162,339	-0,037	0,038
-701,787	458,032	-0,046	-0,074
-700,772	119,103	-0,149	-0,134
-699,758	-88,489	-0,114	0,024
-698,743	139,455	0,112	-0,107
-697,729	-200,000	0,007	-0,070
-696,714	-1,158	-0,077	-0,039
-695,699	-44,521	0,038	-0,014
-694,685	200,462	-0,026	-0,029
-693,670	-107,554	-0,054	-0,009
-692,656	-186,016	-0,308	0,003
-691,641	-33,969	0,082	0,033
-690,627	538,564	0,014	-0,024
-689,612	39,152	0,053	-0,034
-688,597	221,068	-0,092	0,107
-687,583	-200,000	0,017	0,072
-686,568	283,618	-0,106	-0,139
-685,554	800,000	0,029	-0,060
-684,539	-200,000	0,026	-0,131
-683,524	-156,810	-0,115	-0,005
-682,510	657,271	0,013	-0,025
-681,495	72,679	-0,059	-0,045
-680,481	403,853	-0,053	-0,081
-679,466	26,084	0,082	-0,050
-678,451	234,592	-0,144	-0,173
-677,437	690,550	0,043	0,083
-676,422	407,374	-0,051	-0,078
-675,408	88,056	-0,036	0,029
-674,393	-200,000	-0,035	-0,146
-673,378	-200,000	-0,050	-0,222
-672,364	199,103	-0,116	-0,129
-671,349	-164,014	0,149	-0,005
-670,335	411,973	-0,020	-0,031
-669,320	49,786	0,093	-0,064
-668,305	470,002	-0,047	0,078
-667,291	800,000	-0,049	0,130
-666,276	229,486	0,048	0,057
-665,262	-7,283	-0,057	0,028
-664,247	-200,000	0,001	-0,014
-663,232	156,794	-0,099	-0,099
-662,218	55,712	0,109	0,076
-661,203	800,000	0,021	0,060
-660,189	118,479	-0,045	0,040
-659,174	-112,697	0,089	-0,013
-658,159	410,863	-0,087	-0,134
-657,145	55,792	-0,101	-0,071
-656,130	-22,451	-0,204	-0,090
-655,116	239,691	0,021	-0,026
-654,101	-47,761	-0,072	0,025
-653,086	682,150	-0,017	0,032
-652,072	-200,000	-0,016	-0,064
-651,057	10,245	-0,100	-0,055
-650,043	93,761	-0,054	-0,044
-649,028	-69,028	-0,103	-0,029
-648,014	-137,559	0,090	-0,007
-646,999	36,908	-0,037	-0,024
-645,984	-60,556	0,071	-0,022
-644,970	800,000	0,015	0,033
-643,955	-171,539	0,045	0,001
-642,941	-83,146	0,065	-0,015
-641,926	-200,000	0,006	-0,130
-640,911	260,541	-0,040	-0,051
-639,897	-200,000	0,018	-0,123
-638,882	-200,000	-0,001	-0,099
-637,868	191,964	0,107	-0,117
-636,853	-200,000	-0,012	-0,102
-635,838	388,887	-0,022	0,033
-634,824	542,033	-0,118	0,205
-633,809	-200,000	0,031	-0,119
-632,795	134,581	0,070	0,066
-631,780	-37,865	-0,031	0,012
-630,765	170,372	0,060	-0,062
-629,751	-43,270	-0,198	-0,072
-628,736	456,644	-0,028	-0,045
-627,722	800,000	0,028	0,074
-626,707	-42,493	-0,143	0,053
-625,692	-44,069	0,143	0,052
-624,678	-28,287	-0,012	0,005
-623,663	120,887	0,073	0,066
-622,649	647,504	-0,073	0,137
-621,634	-200,000	-0,025	-0,154
-620,619	321,565	-0,139	-0,193
-619,605	-191,598	0,096	-0,001
-618,590	-200,000	-0,008	-0,166
-617,576	26,855	0,123	-0,075
-616,561	107,937	-0,041	-0,035
-615,546	-200,000	0,024	-0,191
-614,532	67,667	0,108	-0,080
-613,517	150,117	0,072	-0,071
-612,503	-200,000	0,011	-0,057
-611,488	743,345	-0,031	-0,061
-610,474	197,824	-0,008	-0,009
-609,459	71,794	0,062	-0,047
-608,444	12,911	-0,090	-0,050
-607,430	-56,805	-0,065	-0,021
-606,415	251,699	-0,047	-0,058
-605,401	57,358	-0,100	-0,071
-604,386	45,732	0,116	0,077
-603,371	800,000	-0,012	0,029
-602,357	-142,618	0,078	-0,005
-601,342	-173,785	-0,065	0,001
-600,328	800,000	0,050	-0,110
-599,313	618,044	0,019	-0,034
-598,298	800,000	-0,079	-0,173
-597,284	120,026	0,030	-0,027
-596,269	-36,615	0,196	0,076
-595,255	-200,000	0,032	0,146
-594,240	-200,000	0,011	-0,071
-593,225	800,000	0,024	-0,068
-592,211	22,615	0,056	0,033
-591,196	-200,000	0,006	0,050
-590,182	800,000	0,043	0,113
-589,167	30,328	0,079	0,049
-588,152	-51,782	0,087	0,029
-587,138	-200,000	-0,002	0,189
-586,123	-121,354	-0,124	0,015
-585,109	32,097	-0,053	-0,033
-584,094	-101,608	-0,071	-0,012
-583,079	-88,214	-0,013	0,003
-582,065	-14,613	-0,139	0,064
-581,050	311,595	0,096	-0,131
-580,036	800,000	-0,075	-0,202
-579,021	800,000	-0,038	0,082
-578,006	143,680	0,044	-0,042
-576,992	440,850	0,025	-0,039
-575,977	-168,677	-0,043	-0,001
-574,963	-200,000	-0,017	-0,082
-573,948	205,582	-0,060	0,068
-572,934	-200,000	-0,004	0,049
-571,919	-200,000	-0,051	-0,166
-570,904	-200,000	0,011	-0,174
-569,890	-150,505	0,073	-0,004
-568,875	41,541	0,068	-0,045
-567,861	-153,087	0,115	0,006
-566,846	-33,559	-0,050	-0,020
-565,831	-19,413	-0,131	0,059
-564,817	237,603	-0,027	-0,033
-563,802	-87,776	0,061	-0,013
-562,788	126,137	0,017	-0,016
-561,773	-63,969	0,137	-0,040
-560,758	88,886	-0,102	0,082
-559,744	-120,657	0,089	0,011
-558,729	17,796	0,093	0,053
-557,715	800,000	0,023	0,061
-556,700	-63,827	-0,055	-0,016
-555,685	675,093	-0,020	0,037
-554,671	31,346	0,061	-0,038
-553,656	-98,362	0,192	0,035
-552,642	-0,531	0,073	0,037
-551,627	9,296	-0,064	-0,035
-550,612	-200,000	-0,010	0,041
-549,598	167,050	-0,066	0,068
-548,583	-133,765	-0,162	0,014
-547,569	560,795	0,073	0,129
-546,554	800,000	0,048	0,104
-545,539	72,282	0,136	0,102
-544,525	254,535	0,086	0,107
-543,510	-61,705	0,067	0,020
-542,496	-200,000	0,003	-0,142
-541,481	-52,337	0,052	-0,017
-540,466	-64,401	0,023	-0,007
-539,452	315,450	-0,030	-0,042
-538,437	668,433	-0,091	0,171
-537,423	125,861	0,027	0,024
-536,408	485,727	0,070	-0,115
-535,393	-55,603	-0,029	-0,009
-534,379	-21,331	-0,112	0,049
-533,364	800,000	0,036	0,096
-532,350	-45,005	-0,066	-0,024
-531,335	-132,355	0,059	-0,005
-530,321	114,371	0,058	0,051
-529,306	-200,000	-0,013	0,067
-528,291	-58,652	-0,113	-0,035
-527,277	3,611	0,023	-0,012
-526,262	85,027	-0,045	-0,035
-525,248	-29,166	-0,033	-0,013
-524,233	-168,090	0,054	0,001
-523,218	-119,570	0,075	0,009
-522,204	140,456	-0,025	0,024
-521,189	-52,590	-0,134	0,045
-520,175	-99,604	-0,116	0,021
-519,160	-200,000	-0,019	-0,099
-518,145	590,676	-0,048	-0,085
-517,131	800,000	0,035	-0,085
-516,116	800,000	0,028	0,059
-515,102	279,301	0,043	0,055
-514,087	113,375	0,069	-0,060
-513,072	-16,231	-0,040	-0,018
-512,058	202,428	0,061	-0,068
-511,043	-200,000	0,019	0,081
-510,029	800,000	0,042	-0,101
-509,014	61,694	0,027	0,019
-507,999	236,575	-0,083	0,100
-506,985	-200,000	-0,022	-0,150
-505,970	346,643	-0,009	-0,012
-504,956	127,914	-0,062	0,057
-503,941	661,649	0,014	0,027
-502,926	-144,024	-0,088	-0,006
-501,912	190,177	0,035	-0,038
-500,897	317,431	-0,070	-0,096
-499,883	14,092	-0,084	0,047
-498,868	800,000	0,044	-0,134
-497,853	624,862	0,043	-0,078
-496,839	85,804	0,056	-0,044
-495,824	-107,737	0,060	-0,009
-494,810	800,000	0,051	0,115
-493,795	57,923	0,077	-0,054
-492,781	358,410	-0,040	0,058
-491,766	9,053	-0,084	-0,046
-490,751	-200,000	0,019	0,066
-489,737	-8,448	0,033	-0,016
-488,722	800,000	-0,072	-0,220
-487,708	-95,100	0,067	-0,013
-486,693	-67,574	-0,130	0,037
-485,678	48,625	-0,036	-0,025
-484,664	374,158	-0,079	-0,116
-483,649	800,000	-0,029	-0,076
-482,635	-200,000	0,012	-0,066
-481,620	-200,000	0,014	0,096
-480,605	-72,348	0,043	-0,011
-479,591	6,583	0,065	-0,035
-478,576	800,000	-0,016	-0,043
-477,562	414,148	-0,104	-0,160
-476,547	444,076	-0,085	-0,136
-475,532	247,031	0,043	0,052
-474,518	237,891	-0,095	0,114
-473,503	192,066	0,055	0,060
-472,489	-73,738	0,108	-0,028
-471,474	86,159	0,100	-0,080
-470,459	800,000	-0,052	0,146
-469,445	-11,425	-0,133	-0,063
-468,430	-200,000	-0,030	-0,165
-467,416	182,168	-0,036	0,038
-466,401	800,000	0,012	0,034
-465,386	-95,021	0,012	0,002
-464,372	-81,207	0,123	0,029
-463,357	4,955	-0,099	-0,052
-462,343	29,579	-0,116	0,071
-461,328	-100,718	0,069	-0,012
-460,313	-108,039	0,060	-0,009
-459,299	197,140	0,025	0,027
-458,284	800,000	0,007	0,019
-457,270	-67,998	0,124	0,035
-456,255	-40,975	-0,050	0,018
-455,241	-111,343	-0,110	0,016
-454,226	433,960	-0,030	-0,047
-453,211	87,692	0,092	-0,073
-452,197	-167,524	-0,102	-0,003
-451,182	319,115	0,031	0,042
-450,168	17,293	0,059	0,034
-449,153	800,000	0,044	-0,092
-448,138	-150,939	0,061	0,003
-447,124	-101,407	-0,033	0,006
-446,109	-200,000	0,003	0,174
-445,095	-153,857	0,045	-0,002
-444,080	800,000	0,051	0,106
-443,065	496,237	0,057	0,094
-442,051	292,167	-0,077	0,102
-441,036	14,811	-0,153	-0,086
-440,022	124,208	-0,085	0,077
-439,007	15,776	-0,081	-0,046
-437,992	-200,000	0,016	-0,074
-436,978	800,000	0,082	0,167
-435,963	-113,643	0,109	0,015
-434,949	-159,252	-0,104	-0,004
-433,934	-200,000	-0,008	-0,078
-432,919	-200,000	-0,009	-0,077
-431,905	-99,585	0,030	0,005
-430,890	800,000	0,048	0,119
-429,876	153,951	0,021	0,021
-428,861	61,167	0,054	-0,039
-427,846	800,000	-0,028	-0,087
-426,832	380,041	0,067	-0,099
-425,817	23,036	0,109	-0,064
-424,803	73,258	-0,066	0,050
-423,788	-200,000	0,039	0,133
-422,773	261,043	0,029	0,036
-421,759	-174,122	0,109	-0,002
-420,744	30,216	-0,146	0,089
-419,730	800,000	0,019	0,050
-418,715	553,626	-0,039	0,068
-417,701	116,734	0,061	-0,054
-416,686	360,704	-0,058	-0,083
-415,671	-200,000	0,011	0,108
-414,657	76,814	0,182	0,139
-413,642	175,711	-0,122	0,128
-412,628	-137,114	-0,081	0,007
-411,613	207,587	0,062	-0,069
-410,598	-161,460	0,109	0,004
-409,584	540,818	-0,066	-0,114
-408,569	-200,000	-0,009	0,049
-407,555	-161,946	-0,040	0,001
-406,540	123,690	0,076	-0,069
-405,525	-49,150	-0,073	-0,025
-404,511	-17,724	-0,116	-0,052
-403,496	800,000	0,028	0,070
-402,482	-114,458	0,065	0,009
-401,467	-200,000	0,009	-0,084
-400,452	800,000	-0,045	0,100
-399,438	90,545	-0,115	0,093
-398,423	1,668	0,056	-0,029
-397,409	133,049	-0,090	0,084
-396,394	796,737	0,066	0,132
-395,379	54,931	0,108	-0,075
-394,365	30,261	-0,114	-0,070
-393,350	-54,518	0,110	-0,036
-392,336	10,445	0,068	-0,037
-391,321	-200,000	-0,031	-0,139
-390,306	-76,329	-0,177	-0,044
-389,292	-200,000	0,018	0,058
-388,277	249,022	-0,025	0,030
-387,263	-200,000	0,006	0,120
-386,248	54,239	0,081	0,056
-385,233	-200,000	-0,007	-0,146
-384,219	70,957	0,096	0,071
-383,204	800,000	-0,022	-0,054
-382,190	-179,326	0,078	-0,001
-381,175	-3,408	0,048	-0,024
-380,160	-200,000	-0,004	-0,033
-379,146	800,000	-0,017	0,039
-378,131	800,000	-0,055	0,137
-377,117	146,862	0,056	0,054
-376,102	-200,000	0,016	-0,078
-375,088	127,372	-0,079	0,072
-374,073	792,012	0,017	0,034
-373,058	-66,129	-0,102	0,029
-372,044	-23,098	0,040	-0,017
-371,029	210,187	0,054	-0,060
-370,015	-191,332	0,073	0,001
-369,000	278,143	-0,087	-0,112
-367,985	560,580	0,048	0,084
-366,971	-63,678	-0,088	-0,026
-365,956	-70,596	-0,105	-0,028
-364,942	355,844	0,126	0,180
-363,927	-200,000	-0,001	0,034
-362,912	197,663	0,064	-0,070
-361,898	52,147	-0,080	0,055
-360,883	-23,793	-0,117	0,050
-359,869	579,982	0,020	0,036
-358,854	-195,113	0,055	-0,000
-357,839	-200,000	0,020	0,099
-356,825	-89,193	0,049	-0,010
-355,810	737,472	-0,022	0,042
-354,796	299,216	0,052	0,069
-353,781	-79,418	-0,053	-0,013
-352,766	-50,120	-0,118	0,040
-351,752	-200,000	0,002	-0,060
-350,737	-8,816	-0,024	-0,011
-349,723	-200,000	-0,034	0,117
-348,708	112,731	0,089	0,078
-347,693	311,694	-0,057	-0,077
-346,679	800,000	-0,036	-0,094
-345,664	-200,000	-0,019	-0,141
-344,650	-200,000	-0,001	-0,126
-343,635	64,958	0,075	0,054
-342,620	221,253	0,025	-0,029
-341,606	420,417	-0,070	0,108
-340,591	800,000	-0,063	0,152
-339,577	240,210	-0,075	-0,090
-338,562	416,507	0,128	-0,196
-337,548	-200,000	-0,002	0,018
-336,533	-28,530	-0,072	0,030
-335,518	800,000	-0,040	-0,122
-334,504	800,000	-0,012	-0,028
-333,489	-200,000	-0,034	0,109
-332,475	-39,359	0,100	-0,038
-331,460	130,030	-0,131	-0,120
-330,445	800,000	-0,040	-0,117
-329,431	55,102	-0,089	-0,061
-328,416	-110,113	0,010	0,001
-327,402	342,435	-0,047	-0,066
-326,387	30,651	0,066	0,040
-325,372	296,454	-0,013	0,017
-324,358	-200,000	-0,017	-0,055
-323,343	69,486	-0,066	0,048
-322,329	119,903	0,028	0,025
-321,314	-39,467	-0,064	0,024
-320,299	-92,351	-0,009	0,002
-319,285	800,000	-0,037	-0,079
-318,270	250,985	0,097	-0,119
-317,256	263,394	0,049	-0,061
-316,241	-200,000	-0,001	-0,024
-315,226	451,559	0,034	0,054
-314,212	-85,829	-0,083	-0,018
-313,197	144,055	-0,076	0,073
-312,183	154,159	-0,085	-0,084
-311,168	107,755	-0,125	-0,106
-310,153	540,180	-0,039	0,067
-309,139	-200,000	0,010	0,092
-308,124	-200,000	-0,013	0,168
-307,110	-200,000	0,019	0,156
-306,095	-200,000	0,000	0,118
-305,080	-200,000	0,034	0,127
-304,066	86,941	-0,074	0,058
-303,051	-106,910	0,131	-0,021
-302,037	95,424	0,051	0,041
-301,022	160,699	0,072	-0,072
-300,008	-200,000	-0,014	0,161
-298,993	-200,000	-0,017	0,185
-297,978	302,749	0,088	0,118
-296,964	-200,000	-0,038	0,168
-295,949	800,000	0,030	-0,086
-294,935	81,122	-0,049	0,038
-293,920	800,000	0,084	0,182
-292,905	-200,000	-0,024	0,159
-291,891	122,598	0,066	0,059
-290,876	-168,336	0,021	-0,001
-289,862	488,528	0,058	0,096
-288,847	328,724	0,026	-0,036
-287,832	408,701	-0,088	-0,134
-286,818	693,753	0,039	0,074
-285,803	-200,000	0,003	0,184
-284,789	24,591	0,115	0,068
-283,774	86,063	0,084	0,066
-282,759	275,450	0,006	-0,008
-281,745	120,590	-0,043	0,038
-280,730	-108,931	-0,101	0,015
-279,716	40,528	0,071	0,046
-278,701	800,000	0,039	-0,087
-277,686	130,286	0,039	-0,036
-276,672	-92,267	0,170	-0,034
-275,657	179,906	0,062	0,065
-274,643	-71,033	-0,093	0,025
-273,628	144,856	-0,010	0,010
-272,613	-200,000	0,018	0,099
-271,599	-97,679	0,232	0,043
-270,584	-36,395	-0,028	0,011
-269,570	81,439	0,094	0,073
-268,555	98,324	0,016	0,013
-267,540	529,733	-0,019	0,033
-266,526	33,910	0,066	0,041
-265,511	-196,831	-0,054	0,000
-264,497	-96,623	-0,086	-0,016
-263,482	-96,549	0,034	0,006
-262,467	105,414	0,094	-0,080
-261,453	-200,000	-0,000	-0,077
-260,438	800,000	0,050	-0,149
-259,424	0,741	-0,120	-0,061
-258,409	11,737	0,057	0,031
-257,395	384,932	0,060	-0,089
-256,380	-200,000	0,012	-0,087
-255,365	-200,000	0,037	0,138
-254,351	59,030	-0,038	-0,027
-253,336	-19,676	0,057	-0,025
-252,322	-30,204	-0,058	-0,024
-251,307	49,278	-0,143	-0,096
-250,292	800,000	0,019	-0,057
-249,278	-2,655	0,122	0,061
-248,263	-74,429	-0,128	0,033
-247,249	-118,279	0,126	0,016
-246,234	-154,993	0,017	-0,001
-245,219	-160,128	-0,115	-0,004
-244,205	-200,000	0,008	0,045
-243,190	105,277	0,068	-0,058
-242,176	800,000	-0,053	0,135
-241,161	-100,008	0,091	0,016
-240,146	-200,000	-0,011	0,100
-239,132	800,000	-0,040	0,103
-238,117	-95,096	-0,106	-0,020
-237,103	-200,000	0,000	-0,019
-236,088	32,257	0,100	0,061
-235,073	-200,000	-0,004	0,096
-234,059	98,023	0,092	0,075
-233,044	292,977	0,092	0,120
-232,030	-110,774	-0,053	-0,008
-231,015	-87,006	-0,042	0,009
-230,000	391,733	0,035	-0,052
-228,986	344,484	0,049	-0,069
-227,971	-200,000	0,006	0,039
-226,957	-200,000	-0,011	-0,034
-225,942	-200,000	0,001	-0,035
-224,927	-126,226	-0,043	-0,005
-223,913	-200,000	0,008	0,079
-222,898	130,465	0,086	0,079
-221,884	203,488	-0,054	-0,059
-220,869	87,872	0,069	0,055
-219,855	-115,797	0,039	0,005
-218,840	59,650	-0,056	-0,039
-217,825	399,170	-0,016	0,023
-216,811	9,648	-0,051	0,027
-215,796	339,119	-0,046	0,064
-214,782	297,909	0,047	0,062
-213,767	-200,000	0,035	0,120
-212,752	-117,581	0,074	-0,009
-211,738	-200,000	0,004	0,018
-210,723	-17,332	0,024	-0,011
-209,709	-200,000	0,002	-0,095
-208,694	413,639	-0,042	-0,064
-207,679	-200,000	-0,005	0,088
-206,665	175,104	0,036	0,037
-205,650	800,000	0,019	0,042
-204,636	-176,165	-0,084	0,002
-203,621	800,000	0,039	0,122
-202,606	800,000	-0,054	-0,115
-201,592	-173,525	0,019	0,000
-200,577	59,342	-0,049	-0,035
-199,563	15,758	0,165	-0,092
-198,548	-43,075	-0,032	0,011
-197,533	-200,000	-0,026	-0,181
-196,519	-84,209	-0,067	0,015
-195,504	-4,713	-0,069	-0,034
-194,490	-200,000	0,010	-0,033
-193,475	428,089	0,032	0,049
-192,460	188,817	-0,107	-0,114
-191,446	-41,479	0,053	-0,019
-190,431	-28,382	0,014	-0,006
-189,417	800,000	-0,005	-0,011
-188,402	-43,273	-0,050	0,018
-187,387	-160,194	0,073	0,003
-186,373	54,608	-0,117	0,080
-185,358	-200,000	0,006	0,029
-184,344	-200,000	-0,008	0,052
-183,329	-200,000	-0,009	-0,086
-182,315	150,291	-0,045	0,044
-181,300	-189,877	-0,107	0,001
-180,285	245,613	-0,034	-0,041
-179,271	47,677	-0,033	-0,022
-178,256	123,590	0,083	-0,074
-177,242	-200,000	-0,010	-0,064
-176,227	551,286	-0,027	0,046
-175,212	-59,957	-0,076	0,023
-174,198	-200,000	0,012	-0,059
-173,183	-127,367	-0,170	-0,017
-172,169	-200,000	0,007	-0,046
-171,154	-149,743	-0,138	-0,008
-170,139	-200,000	0,006	-0,025
-169,125	421,628	0,095	-0,145
-168,110	30,393	-0,072	-0,044
-167,096	176,009	0,052	0,054
-166,081	244,247	-0,037	-0,044
-165,066	-123,252	-0,100	0,011
-164,052	466,471	0,045	-0,072
-163,037	-98,027	-0,071	-0,013
-162,023	800,000	0,037	0,103
-161,008	121,204	0,031	0,028
-159,993	69,964	-0,076	-0,056
-158,979	667,284	0,012	-0,022
-157,964	34,934	-0,087	-0,054
-156,950	800,000	0,028	0,067
-155,935	59,542	-0,054	-0,038
-154,920	70,110	0,057	0,042
-153,906	29,656	-0,138	-0,084
-152,891	-125,906	0,018	-0,002
-151,877	800,000	-0,040	-0,081
-150,862	19,124	-0,023	-0,013
-149,847	-200,000	0,005	-0,127
-148,833	44,252	-0,113	0,074
-147,818	9,000	0,148	0,080
-146,804	800,000	-0,045	0,136
-145,789	-24,972	-0,116	0,049
-144,775	-40,242	-0,030	0,011
-143,760	-200,000	-0,013	-0,225
-142,745	800,000	-0,042	-0,082
-141,731	-83,893	0,087	-0,020
-140,716	-200,000	0,004	-0,054
-139,702	-156,891	-0,100	-0,004
-138,687	145,897	-0,014	0,013
-137,672	-181,894	-0,055	-0,001
-136,658	-166,851	0,059	0,002
-135,643	-29,355	-0,084	0,034
-134,629	28,726	-0,136	-0,082
-133,614	151,228	-0,030	-0,029
-132,599	-200,000	-0,015	0,137
-131,585	350,614	-0,099	0,139
-130,570	139,332	0,049	0,046
-129,556	509,571	-0,045	-0,075
-128,541	-87,827	-0,194	0,041
-127,526	283,522	0,078	0,100
-126,512	43,274	0,023	-0,015
-125,497	800,000	-0,023	-0,057
-124,483	156,043	-0,004	0,004
-123,468	474,657	-0,058	-0,093
-122,453	80,270	-0,037	-0,028
-121,439	-68,277	-0,064	0,018
-120,424	63,991	-0,121	0,087
-119,410	-79,909	0,126	0,030
-118,395	800,000	-0,027	0,082
-117,380	-35,508	-0,036	0,014
-116,366	29,999	-0,078	0,047
-115,351	-80,373	-0,125	0,030
-114,337	800,000	-0,019	-0,044
-113,322	-97,440	0,153	0,028
-112,307	177,387	-0,030	0,031
-111,293	437,035	0,035	0,055
-110,278	-200,000	0,052	0,166
-109,264	-117,981	-0,082	0,010
-108,249	183,693	0,022	-0,023
-107,234	138,045	-0,019	-0,017
-106,220	-100,258	-0,193	-0,034
-105,205	48,308	0,033	-0,022
-104,191	-200,000	0,005	-0,047
-103,176	-200,000	0,013	0,075
-102,162	-200,000	-0,018	0,074
-101,147	333,564	0,100	0,138
-100,132	348,896	0,039	-0,056
-99,118	391,582	-0,079	-0,117
-98,103	-62,082	0,121	0,036
-97,089	123,066	-0,031	-0,028
-96,074	76,238	0,063	0,047
-95,059	-44,166	0,105	-0,037
-94,045	-186,074	-0,072	0,001
-93,030	251,901	0,036	-0,043
-92,016	-200,000	0,008	0,095
-91,001	-200,000	0,051	0,000
-89,986	-200,000	0,001	0,010
-88,972	173,302	0,108	0,111
-87,957	95,296	0,078	0,063
-86,943	-200,000	-0,034	-0,164
-85,928	448,861	0,026	-0,040
-84,913	-200,000	0,003	-0,110
-83,899	59,893	-0,059	0,041
-82,884	-17,636	0,077	0,034
-81,870	-200,000	-0,029	-0,113
-80,855	-200,000	0,002	0,030
-79,840	68,922	-0,063	-0,046
-78,826	-131,285	-0,207	0,019
-77,811	555,780	-0,049	-0,084
-76,797	576,878	0,075	-0,131
-75,782	112,494	0,107	0,092
-74,767	-200,000	0,003	0,084
-73,753	13,693	0,019	-0,011
-72,738	-100,405	0,049	-0,009
-71,724	-8,275	-0,111	0,053
-70,709	-100,258	-0,107	-0,019
-69,694	-74,931	-0,169	-0,043
-68,680	56,874	0,119	0,082
-67,665	800,000	0,063	0,139
-66,651	-153,351	-0,046	-0,002
-65,636	25,014	0,042	-0,025
-64,622	-146,009	-0,104	0,006
-63,607	385,051	-0,023	-0,034
-62,592	126,020	0,085	-0,076
-61,578	-78,376	-0,094	-0,023
-60,563	110,269	-0,049	0,042
-59,549	-200,000	0,037	0,127
-58,534	-80,508	-1,451	-0,341
-57,519	373,035	-1,519	-2,198
-56,505	-200,000	-0,366	-4,442
-55,490	92,809	0,895	0,717
-54,476	800,000	4,932	11,438
-53,461	-200,000	17,190	271,789
-52,446	800,000	716,398	2191,463
-51,432	555,247	1630,602	2796,074
-50,417	81,382	1656,026	1268,984
-49,403	24,299	1530,313	894,951
-48,388	18,341	1453,456	821,310
-47,373	18,495	1442,864	816,029
-46,359	18,229	1433,606	809,498
-45,344	16,610	1429,073	799,216
-44,330	16,569	1427,184	797,934
-43,315	16,584	1425,482	797,023
-42,300	16,531	1423,806	795,805
-41,286	16,679	1422,470	795,724
-40,271	16,630	1421,178	794,740
-39,257	16,556	1420,087	793,747
-38,242	16,633	1418,781	793,349
-37,227	16,618	1417,763	792,676
-36,213	16,568	1416,445	791,673
-35,198	16,599	1415,023	790,994
-34,184	16,624	1414,180	790,608
-33,169	16,550	1412,813	789,468
-32,154	16,584	1411,831	789,043
-31,140	16,633	1410,464	788,479
-30,125	16,639	1409,439	787,904
-29,111	16,627	1408,220	787,133
-28,096	16,586	1407,115	786,293
-27,082	16,524	1406,051	785,377
-26,067	16,538	1404,873	784,757
-25,052	16,515	1403,870	784,059
-24,038	16,509	1402,963	783,492
-23,023	16,494	1401,766	782,723
-22,009	16,504	1400,870	782,236
-20,994	16,471	1400,014	781,575
-19,979	16,488	1398,807	780,950
-18,965	16,487	1398,002	780,462
-17,950	16,427	1397,181	779,696
-16,936	16,462	1395,960	779,143
-15,921	16,479	1394,642	778,459
-14,906	16,434	1393,946	777,831
-13,892	16,448	1393,182	777,436
-12,877	16,411	1392,302	776,746
-11,863	16,443	1391,457	776,391
-10,848	16,417	1390,288	775,589
-9,833	16,410	1389,475	775,070
-8,819	16,354	1388,534	774,254
-7,804	16,382	1387,545	773,804
-6,790	16,388	1386,339	773,127
-5,775	16,353	1385,475	772,456
-4,760	16,330	1384,661	771,862
-3,746	16,258	1384,215	771,256
-2,731	16,314	1383,035	770,822
-1,717	16,285	1382,093	770,132
-0,702	16,298	1380,233	769,125
0,313	20,134	1301,772	743,075
1,327	36,530	707,812	442,093
2,342	56,312	125,752	86,518
3,356	2,460	16,638	8,513
4,371	-2,679	3,129	1,547
5,386	-59,942	0,476	0,143
6,400	800,000	-0,043	-0,099
7,415	72,539	-0,246	-0,181
8,429	399,532	-0,191	-0,284
9,444	35,456	-0,270	-0,168
10,459	-51,746	-0,319	-0,105
11,473	800,000	-0,139	-0,281
12,488	82,358	-0,289	-0,222
13,502	212,395	-0,203	-0,227
14,517	102,641	-0,265	-0,220
15,531	110,825	-0,375	-0,320
16,546	268,813	-0,288	-0,358
17,561	5,477	-0,402	-0,210
18,575	800,000	-0,101	-0,228
19,590	412,570	-0,218	-0,329
20,604	-164,756	-0,300	-0,009
21,619	62,621	-0,420	-0,297
22,634	72,851	-0,482	-0,356
23,648	109,570	-0,470	-0,398
24,663	81,162	-0,374	-0,286
25,677	388,432	-0,279	-0,410
26,692	83,858	-0,313	-0,241
27,707	-22,142	-0,465	-0,199
28,721	9,681	-0,348	-0,186
29,736	145,246	-0,330	-0,312
30,750	69,006	-0,552	-0,400
31,765	45,932	-0,474	-0,310
32,780	90,135	-0,373	-0,295
33,794	116,371	-0,408	-0,354
34,809	42,823	-0,495	-0,318
35,823	379,477	-0,297	-0,432
36,838	99,740	-0,357	-0,292
37,853	143,202	-0,388	-0,365
38,867	145,430	-0,326	-0,308
39,882	29,398	-0,365	-0,219
40,896	23,952	-0,394	-0,229
41,911	-10,479	-0,366	-0,171
42,926	77,393	-0,448	-0,337
43,940	72,993	-0,443	-0,327
44,955	73,118	-0,277	-0,204
45,969	-1,005	-0,344	-0,172
46,984	333,809	-0,212	-0,290
47,999	138,901	-0,289	-0,268
49,013	-44,744	-0,383	-0,134
50,028	-28,329	-0,316	-0,128
51,042	149,831	-0,284	-0,272
52,057	8,881	-0,360	-0,191
53,071	87,278	-0,396	-0,309
54,086	57,755	-0,327	-0,226
55,101	198,468	-0,308	-0,333
56,115	-3,362	-0,326	-0,160
57,130	189,063	-0,237	-0,251
58,144	-75,682	-0,361	-0,090
59,159	81,593	-0,370	-0,282
60,174	38,529	-0,424	-0,266
61,188	48,464	-0,422	-0,278
62,203	106,991	-0,359	-0,301
63,217	28,967	-0,399	-0,238
64,232	-49,344	-0,382	-0,128
65,247	-28,141	-0,386	-0,157
66,261	33,806	-0,419	-0,257
67,276	110,390	-0,347	-0,294
68,290	-25,722	-0,461	-0,191
69,305	-5,231	-0,359	-0,174
70,320	7,221	-0,315	-0,165
71,334	18,350	-0,303	-0,170
72,349	123,395	-0,290	-0,257
73,363	-33,758	-0,419	-0,162
74,378	7,025	-0,408	-0,213
75,393	133,877	-0,237	-0,216
76,407	284,701	-0,120	-0,153
77,422	147,118	-0,228	-0,216
78,436	-10,162	-0,337	-0,157
79,451	30,522	-0,274	-0,165
80,466	17,036	-0,287	-0,160
81,480	117,557	-0,382	-0,331
82,495	105,821	-0,308	-0,256
83,509	121,039	-0,166	-0,145
84,524	62,985	-0,217	-0,153
85,539	33,453	-0,255	-0,156
86,553	107,142	-0,309	-0,258
87,568	39,283	-0,286	-0,180
88,582	114,911	-0,221	-0,190
89,597	121,968	-0,241	-0,212
90,611	70,770	-0,258	-0,188
91,626	112,206	-0,234	-0,199
92,641	-51,984	-0,379	-0,123
93,655	40,657	-0,249	-0,157
94,670	19,942	-0,326	-0,184
95,684	20,444	-0,289	-0,164
96,699	22,180	-0,321	-0,184
97,714	-9,298	-0,313	-0,147
98,728	682,401	-0,108	-0,198
99,743	29,720	-0,360	-0,215
100,757	-17,332	-0,298	-0,131
101,772	-32,779	-0,234	-0,091
102,787	-98,899	-0,261	-0,046
103,801	202,734	-0,216	-0,235
104,816	15,409	-0,225	-0,124
105,830	-42,974	-0,178	-0,063
106,845	-43,515	-0,221	-0,078
107,860	160,208	-0,243	-0,238
108,874	-1,468	-0,210	-0,104
109,889	-34,894	-0,262	-0,100
110,903	88,210	-0,297	-0,232
111,918	716,618	-0,201	-0,377
112,933	98,049	-0,232	-0,188
113,947	11,036	-0,292	-0,156
114,962	101,062	-0,316	-0,258
115,976	-108,096	-0,298	-0,045
116,991	6,027	-0,384	-0,199
118,006	140,582	-0,301	-0,279
119,020	-2,825	-0,255	-0,125
120,035	-19,609	-0,331	-0,143
121,049	19,953	-0,390	-0,220
122,064	12,675	-0,238	-0,128
123,079	-77,261	-0,289	-0,070
124,093	-147,962	-0,154	-0,009
125,108	27,493	-0,285	-0,168
126,122	796,220	-0,094	-0,182
127,137	0,089	-0,154	-0,077
128,151	-81,425	-0,304	-0,070
129,166	43,835	-0,339	-0,217
130,181	122,813	-0,231	-0,203
131,195	12,207	-0,305	-0,164
132,210	-27,000	-0,383	-0,156
133,224	-123,303	-0,286	-0,032
134,239	752,570	-0,108	-0,205
135,254	106,863	-0,096	-0,080
136,268	97,513	-0,251	-0,202
137,283	53,899	-0,281	-0,189
138,297	-80,618	-0,301	-0,070
139,312	98,315	-0,314	-0,253
140,327	66,225	-0,331	-0,235
141,341	249,768	-0,199	-0,237
142,356	-200,000	0,014	-0,140
143,370	19,421	-0,181	-0,101
144,385	112,733	-0,106	-0,090
145,400	191,132	-0,211	-0,222
146,414	-68,777	-0,217	-0,058
147,429	314,163	-0,256	-0,338
148,443	361,791	-0,192	-0,271
149,458	800,000	-0,056	-0,126
150,473	-200,000	0,004	-0,212
151,487	44,435	-0,284	-0,182
152,502	34,783	-0,318	-0,194
153,516	-19,703	-0,321	-0,138
154,531	192,874	-0,225	-0,238
155,546	86,611	-0,249	-0,192
156,560	792,456	-0,100	-0,193
157,575	44,517	-0,170	-0,109
158,589	261,217	-0,163	-0,198
159,604	696,411	-0,116	-0,214
160,619	73,942	-0,196	-0,143
161,633	-69,307	-0,316	-0,084
162,648	3,769	-0,326	-0,166
163,662	69,209	-0,253	-0,181
164,677	10,726	-0,204	-0,108
165,692	-142,142	-0,365	-0,025
166,706	288,290	-0,270	-0,343
167,721	69,177	-0,252	-0,181
168,735	100,658	-0,274	-0,223
169,750	37,547	-0,218	-0,135
170,764	96,526	-0,212	-0,169
171,779	31,921	-0,276	-0,166
172,794	74,757	-0,154	-0,113
173,808	162,956	-0,239	-0,235
174,823	365,677	-0,168	-0,237
175,837	294,188	-0,240	-0,306
176,852	-86,603	-0,224	-0,048
177,867	57,714	-0,238	-0,162
178,881	-171,271	-0,234	-0,005
179,896	58,012	-0,270	-0,185
180,910	-86,096	-0,335	-0,072
181,925	-125,938	-0,196	-0,020
182,940	-104,400	-0,209	-0,033
183,954	800,000	-0,066	-0,189
184,969	88,996	-0,195	-0,151
185,983	-125,435	-0,217	0,023
186,998	105,120	-0,187	-0,154
188,013	117,059	-0,156	-0,133
189,027	71,572	-0,176	-0,127
190,042	180,184	-0,119	-0,122
191,056	763,342	-0,156	-0,297
192,071	-22,708	-0,277	-0,116
193,086	314,996	-0,154	-0,203
194,100	102,421	-0,181	-0,148
195,115	-17,729	-0,151	-0,066
196,129	141,288	-0,226	-0,209
197,144	-1,363	-0,246	-0,120
198,159	800,000	-0,101	-0,272
199,173	190,293	-0,205	-0,215
200,188	85,783	-0,151	-0,115
201,202	-50,955	-0,138	0,045
202,217	-62,365	-0,111	-0,032
203,232	-101,301	-0,300	-0,051
204,246	-51,680	-0,227	-0,073
205,261	-14,648	-0,253	-0,113
206,275	562,313	-0,131	-0,221
207,290	430,725	-0,141	-0,213
208,304	9,362	-0,256	-0,134
209,319	1,297	-0,258	-0,128
210,334	-17,389	-0,247	-0,108
211,348	97,284	-0,208	-0,166
212,363	67,804	-0,261	-0,185
213,377	-13,603	-0,141	-0,063
214,392	115,209	-0,153	-0,130
215,407	84,449	-0,169	-0,129
216,421	-2,124	-0,227	-0,110
217,436	185,326	-0,156	-0,161
218,450	68,529	-0,280	-0,200
219,465	-33,075	-0,305	-0,117
220,480	617,665	-0,129	-0,226
221,494	84,469	-0,270	-0,206
222,509	711,285	-0,126	-0,233
223,523	-156,585	-0,187	0,008
224,538	-200,000	-0,017	-0,054
225,553	114,263	-0,305	-0,258
226,567	94,547	-0,303	-0,240
227,582	-54,556	-0,152	0,048
228,596	32,073	-0,124	-0,074
229,611	79,020	-0,125	-0,093
230,626	-194,069	-0,160	-0,001
231,640	553,814	-0,162	-0,272
232,655	-35,132	-0,227	-0,086
233,669	-5,527	-0,283	-0,135
234,684	753,483	-0,087	-0,164
235,699	152,100	-0,131	-0,124
236,713	72,062	-0,297	-0,214
237,728	87,113	-0,170	-0,130
238,742	-43,785	-0,262	-0,091
239,757	57,588	-0,226	-0,153
240,772	146,340	-0,315	-0,294
241,786	62,450	-0,213	-0,147
242,801	409,179	-0,093	-0,138
243,815	-116,654	-0,128	-0,016
244,830	-80,955	-0,211	-0,048
245,844	-116,387	-0,179	-0,023
246,859	73,909	-0,253	-0,184
247,874	147,369	-0,231	-0,216
248,888	136,559	-0,153	-0,138
249,903	385,027	-0,153	-0,220
250,917	265,878	-0,123	-0,149
251,932	800,000	-0,054	-0,138
252,947	51,050	-0,159	-0,104
253,961	245,474	-0,226	-0,264
254,976	-145,740	-0,344	0,021
255,990	195,895	-0,188	-0,199
257,005	308,032	-0,141	-0,182
258,020	-89,433	-0,166	0,034
259,034	-63,272	-0,171	-0,048
260,049	292,693	-0,178	-0,225
261,063	113,136	-0,162	-0,136
262,078	27,532	-0,125	-0,073
263,093	4,810	-0,228	-0,116
264,107	163,386	-0,176	-0,171
265,122	134,245	-0,236	-0,212
266,136	-152,647	-0,103	0,005
267,151	140,918	-0,180	-0,165
268,166	35,880	-0,301	-0,183
269,180	49,169	-0,195	-0,127
270,195	132,417	-0,151	-0,134
271,209	199,920	-0,180	-0,191
272,224	-5,597	-0,156	-0,074
273,239	112,725	-0,154	-0,130
274,253	424,901	-0,073	-0,109
275,268	-30,806	-0,188	-0,073
276,282	52,907	-0,281	-0,186
277,297	142,648	-0,160	-0,147
278,312	-14,432	-0,201	-0,089
279,326	28,551	-0,120	-0,070
280,341	177,450	-0,111	-0,112
281,355	-93,127	-0,152	-0,029
282,370	159,896	-0,124	-0,120
283,384	-200,000	-0,078	-0,250
284,399	571,276	-0,141	-0,239
285,414	-136,602	-0,128	0,010
286,428	217,297	-0,162	-0,179
287,443	287,570	-0,142	-0,178
288,457	-37,917	-0,203	-0,074
289,472	-66,866	-0,256	-0,069
290,487	-10,205	-0,230	-0,105
291,501	267,473	-0,234	-0,284
292,516	-170,929	-0,190	-0,004
293,530	37,934	-0,053	-0,032
294,545	582,635	-0,065	0,111
295,560	-102,820	-0,159	-0,026
296,574	-4,178	-0,198	-0,094
297,589	-38,598	-0,210	-0,076
298,603	171,573	-0,169	-0,167
299,618	30,634	-0,192	-0,113
300,633	-200,000	-0,030	-0,093
301,647	-63,959	-0,139	-0,039
302,662	-84,853	-0,155	-0,033
303,676	28,545	-0,165	-0,096
304,691	133,952	-0,153	-0,137
305,706	623,280	-0,054	-0,094
306,720	431,900	-0,186	-0,280
307,735	371,368	-0,038	0,053
308,749	800,000	-0,050	-0,121
309,764	800,000	-0,084	-0,175
310,779	800,000	-0,094	-0,192
311,793	688,729	-0,096	-0,175
312,808	75,446	-0,277	-0,201
313,822	194,456	-0,215	-0,225
314,837	-94,099	-0,172	-0,032
315,852	98,939	-0,061	-0,049
316,866	-96,919	-0,153	-0,027
317,881	-125,235	-0,131	-0,014
318,895	-177,367	-0,193	-0,003
319,910	31,597	-0,126	-0,074
320,925	-77,879	-0,272	-0,064
321,939	282,180	-0,144	-0,179
322,954	172,589	-0,129	-0,129
323,968	227,378	-0,176	-0,198
324,983	-112,020	-0,152	-0,021
325,997	-60,782	-0,135	-0,039
327,012	-19,827	-0,180	-0,076
328,027	578,526	-0,119	-0,202
329,041	800,000	0,066	-0,129
330,056	536,588	-0,088	-0,144
331,070	67,542	-0,108	-0,076
332,085	-199,885	-0,154	0,001
333,100	-200,000	-0,022	-0,166
334,114	82,595	-0,195	-0,146
335,129	-104,538	-0,141	-0,022
336,143	85,143	-0,133	-0,100
337,158	-200,000	-0,014	-0,065
338,173	-140,242	-0,149	-0,011
339,187	116,861	-0,067	-0,057
340,202	46,883	-0,054	0,035
341,216	369,009	-0,162	-0,226
342,231	240,201	-0,124	-0,143
343,246	395,372	-0,112	-0,161
344,260	800,000	-0,045	-0,131
345,275	-6,655	-0,098	-0,046
346,289	36,413	-0,076	-0,046
347,304	-155,115	-0,202	-0,009
348,319	-164,619	-0,243	0,007
349,333	275,157	-0,135	-0,166
350,348	107,367	-0,097	-0,079
351,362	-200,000	-0,033	-0,185
352,377	-10,023	-0,081	-0,037
353,392	520,091	-0,097	-0,157
354,406	20,757	-0,145	-0,081
355,421	211,699	1314,019	1424,277
356,435	163,022	1474,702	1424,812
