DTS Sentinel unit serial number:	SN410029Multiplexer serial number:	ORYXHardware model number:	OX2-SRSoftware version number:	ORYX F/W v4,00 Oryx Data Collector v3.7.2.0data status	okinstallation	B3 Nyhavnadifferential loss correction	single-endedforward channel	channel 1reverse channel	N/Adate	2023/11/29time	14:22:30forward acquisition time	300,00reverse acquisition time	0,00gamma	499,1914k internal	0,3211k external	0,3211temperature offset calibration	1,0000default loss term (dB/km)	0,3820temperature slope calibration	1,0000multiplexer offset coefficient	1,0000multiplexer slope coefficient	1,0000fibre end	0,00T internal ref (°C)	10,85T ext. ref 1 (°C)	-3,19T ext. ref 2 (°C)	-3,32length (m)	temperature (°C)	Stokes	anti-Stokes-744,400	32,439	-0,253	-0,158
-743,385	-200,000	0,014	0,301
-742,371	127,466	-0,167	-0,154
-741,356	-200,000	0,033	0,305
-740,342	92,870	-0,213	-0,174
-739,327	-200,000	-0,082	0,307
-738,312	800,000	-0,109	-0,253
-737,298	-200,000	-0,050	0,197
-736,283	800,000	-0,025	-0,052
-735,269	-200,000	0,087	0,307
-734,254	110,673	-0,198	-0,172
-733,239	177,586	-0,174	0,184
-732,225	20,209	-0,196	-0,114
-731,210	525,771	0,112	0,192
-730,196	-200,000	-0,008	-0,070
-729,181	-200,000	0,013	-0,059
-728,167	537,502	-0,041	-0,071
-727,152	-200,000	-0,023	-0,075
-726,137	-31,094	-0,071	0,029
-725,123	-53,175	-0,014	-0,005
-724,108	201,747	-0,104	0,117
-723,094	-49,781	-0,064	-0,022
-722,079	-200,000	0,034	0,193
-721,064	-11,048	0,086	0,041
-720,050	800,000	0,008	-0,022
-719,035	15,343	0,033	-0,019
-718,021	-17,557	-0,137	-0,062
-717,006	38,296	-0,065	0,042
-715,991	-144,474	-0,130	0,009
-714,977	67,608	-0,093	-0,068
-713,962	800,000	0,014	-0,043
-712,948	-200,000	0,022	0,122
-711,933	482,965	-0,054	0,090
-710,918	109,925	0,034	-0,029
-709,904	-52,739	-0,049	-0,016
-708,889	290,078	0,055	-0,073
-707,875	800,000	-0,030	-0,078
-706,860	-200,000	-0,039	-0,143
-705,845	468,825	-0,023	0,038
-704,831	49,041	-0,101	0,068
-703,816	-200,000	0,013	0,126
-702,802	177,957	-0,059	-0,062
-701,787	75,261	-0,078	-0,060
-700,772	-200,000	-0,026	-0,112
-699,758	372,809	-0,060	-0,089
-698,743	-200,000	0,027	-0,113
-697,729	-130,025	0,051	0,005
-696,714	600,040	-0,093	0,167
-695,699	53,606	0,127	-0,088
-694,685	-200,000	0,022	-0,085
-693,670	48,711	0,072	-0,049
-692,656	800,000	-0,058	-0,156
-691,641	-51,223	0,091	-0,031
-690,627	-200,000	-0,004	0,144
-689,612	496,675	0,038	0,063
-688,597	-62,491	-0,033	-0,010
-687,583	800,000	-0,041	0,101
-686,568	800,000	-0,026	-0,070
-685,554	-200,000	0,005	0,104
-684,539	-116,519	-0,179	0,024
-683,524	429,417	0,080	-0,125
-682,510	800,000	0,038	0,099
-681,495	604,188	-0,065	-0,118
-680,481	13,639	-0,131	-0,073
-679,466	264,001	-0,092	0,116
-678,451	422,096	-0,069	-0,107
-677,437	800,000	0,012	0,036
-676,422	-200,000	-0,002	-0,030
-675,408	142,170	0,057	0,054
-674,393	-200,000	-0,013	-0,100
-673,378	60,057	-0,076	0,054
-672,364	-0,895	0,068	0,035
-671,349	57,451	-0,040	-0,028
-670,335	-4,511	0,049	0,024
-669,320	339,127	0,048	0,068
-668,305	63,844	0,071	0,051
-667,291	3,250	-0,163	0,085
-666,276	-200,000	0,000	-0,117
-665,262	-124,918	-0,125	-0,014
-664,247	-200,000	0,014	-0,072
-663,232	15,545	-0,085	0,048
-662,218	800,000	-0,009	-0,019
-661,203	-200,000	0,002	-0,036
-660,189	177,097	-0,065	-0,069
-659,174	375,110	-0,115	0,170
-658,159	-142,118	-0,145	-0,010
-657,145	-200,000	0,008	0,036
-656,130	800,000	-0,006	0,018
-655,116	-133,674	0,111	-0,010
-654,101	221,233	-0,024	-0,028
-653,086	-200,000	0,020	-0,108
-652,072	-71,819	-0,097	-0,026
-651,057	-200,000	-0,003	-0,125
-650,043	208,362	0,016	-0,018
-649,028	254,363	0,074	0,092
-648,014	-200,000	0,047	0,154
-646,999	71,524	0,073	0,055
-645,984	-73,032	0,106	0,028
-644,970	-97,077	-0,086	-0,016
-643,955	-55,797	-0,126	-0,040
-642,941	-200,000	0,020	-0,097
-641,926	86,729	-0,024	0,019
-640,911	14,696	0,027	0,015
-639,897	-47,588	0,073	0,025
-638,882	-183,810	0,150	-0,002
-637,868	58,886	0,137	-0,097
-636,853	-148,574	-0,143	-0,008
-635,838	271,441	-0,088	-0,112
-634,824	219,827	-0,016	-0,019
-633,809	5,022	0,109	0,058
-632,795	595,628	0,073	0,131
-631,780	-200,000	0,016	0,065
-630,765	139,754	0,080	0,076
-629,751	-200,000	-0,029	-0,131
-628,736	225,984	0,058	0,068
-627,722	-77,559	-0,094	0,023
-626,707	-89,513	-0,093	-0,020
-625,692	800,000	0,039	0,107
-624,678	-133,218	0,139	0,012
-623,663	-200,000	0,031	-0,102
-622,649	800,000	-0,016	0,043
-621,634	800,000	0,049	0,103
-620,619	-195,316	-0,071	0,000
-619,605	40,589	0,065	-0,042
-618,590	81,938	-0,051	-0,040
-617,576	-138,906	0,043	0,003
-616,561	-200,000	-0,014	-0,063
-615,546	238,893	0,042	0,051
-614,532	-65,112	-0,009	-0,003
-613,517	-200,000	0,000	0,084
-612,503	-200,000	0,030	0,148
-611,488	-50,464	-0,021	-0,007
-610,474	800,000	-0,077	-0,193
-609,459	-200,000	0,057	-0,186
-608,444	800,000	0,038	-0,077
-607,430	125,017	-0,046	-0,042
-606,415	-200,000	-0,016	0,083
-605,401	800,000	0,047	0,116
-604,386	216,223	-0,055	0,064
-603,371	237,209	-0,037	-0,045
-602,357	800,000	-0,016	0,042
-601,342	-200,000	-0,004	-0,184
-600,328	239,226	0,090	-0,108
-599,313	800,000	0,017	-0,051
-598,298	86,080	-0,088	-0,070
-597,284	27,725	0,038	0,023
-596,269	-200,000	0,015	0,132
-595,255	-200,000	-0,012	0,147
-594,240	-136,976	0,113	0,009
-593,225	45,327	-0,062	0,041
-592,211	-142,770	0,088	-0,006
-591,196	-91,637	-0,089	-0,018
-590,182	-200,000	0,008	0,051
-589,167	684,115	-0,051	0,095
-588,152	12,398	-0,054	-0,030
-587,138	-164,521	-0,161	0,005
-586,123	8,044	-0,008	0,004
-585,109	85,641	-0,072	0,057
-584,094	-200,000	-0,021	-0,070
-583,079	-183,255	-0,079	-0,001
-582,065	198,318	0,059	0,066
-581,050	-89,518	-0,120	-0,025
-580,036	-200,000	-0,013	0,050
-579,021	800,000	-0,045	-0,111
-578,006	-200,000	0,003	-0,151
-576,992	-61,840	0,102	-0,031
-575,977	800,000	-0,031	-0,068
-574,963	207,943	-0,024	-0,027
-573,948	-200,000	-0,010	-0,049
-572,934	-32,677	-0,118	0,047
-571,919	118,958	0,171	-0,152
-570,904	-110,283	-0,214	-0,032
-569,890	166,497	-0,096	-0,098
-568,875	-200,000	0,034	0,172
-567,861	-12,163	0,070	-0,033
-566,846	191,379	-0,021	0,023
-565,831	-26,784	0,066	0,028
-564,817	86,373	-0,111	-0,088
-563,802	94,087	-0,117	-0,096
-562,788	-200,000	0,047	-0,186
-561,773	-83,899	-0,122	0,028
-560,758	-66,308	-0,076	0,022
-559,744	-200,000	-0,020	-0,113
-558,729	223,875	-0,014	-0,016
-557,715	-6,574	-0,115	-0,056
-556,700	88,871	0,062	0,049
-555,685	-30,621	-0,092	0,037
-554,671	232,156	0,129	0,152
-553,656	-200,000	-0,008	0,089
-552,642	-200,000	0,014	-0,126
-551,627	-200,000	0,019	-0,077
-550,612	-89,640	-0,040	0,008
-549,598	-173,300	0,058	0,001
-548,583	800,000	0,026	0,069
-547,569	-200,000	-0,003	0,022
-546,554	-200,000	0,022	-0,123
-545,539	-55,801	-0,088	-0,028
-544,525	629,705	0,056	0,103
-543,510	-17,579	0,066	0,030
-542,496	-132,944	-0,173	-0,016
-541,481	800,000	-0,036	-0,084
-540,466	173,093	0,115	0,119
-539,452	-200,000	0,005	0,100
-538,437	-27,237	0,130	0,054
-537,423	70,097	0,112	0,083
-536,408	474,798	0,020	-0,033
-535,393	8,951	-0,114	-0,062
-534,379	-200,000	0,014	-0,072
-533,364	-200,000	-0,029	-0,123
-532,350	-200,000	0,041	0,163
-531,335	71,859	0,052	0,039
-530,321	28,154	0,078	0,047
-529,306	20,475	0,029	0,017
-528,291	29,372	0,081	0,050
-527,277	601,007	-0,032	0,057
-526,262	-16,381	0,065	-0,029
-525,248	-200,000	-0,025	0,093
-524,233	-70,946	0,085	0,023
-523,218	356,146	0,063	0,090
-522,204	186,496	0,039	0,042
-521,189	-77,840	0,098	-0,024
-520,175	-149,597	0,089	-0,005
-519,160	-49,819	-0,066	-0,022
-518,145	-200,000	-0,016	0,103
-517,131	-149,047	0,121	0,007
-516,116	-200,000	-0,003	0,136
-515,102	-79,992	-0,074	-0,018
-514,087	-200,000	-0,024	-0,078
-513,072	112,528	-0,078	0,068
-512,058	800,000	-0,060	0,124
-511,043	788,493	-0,075	-0,149
-510,029	195,272	0,043	-0,047
-509,014	800,000	-0,031	0,083
-507,999	-118,311	0,066	-0,008
-506,985	-200,000	-0,016	-0,074
-505,970	-105,580	-0,090	-0,014
-504,956	800,000	0,030	0,066
-503,941	800,000	-0,062	0,123
-502,926	-200,000	0,019	0,153
-501,912	-200,000	-0,006	-0,053
-500,897	-7,070	-0,093	0,045
-499,883	-10,977	-0,113	-0,053
-498,868	-200,000	-0,004	-0,098
-497,853	547,656	0,041	-0,071
-496,839	-99,617	0,151	0,027
-495,824	201,845	-0,061	0,067
-494,810	-200,000	0,036	0,180
-493,795	800,000	0,047	0,128
-492,781	-200,000	-0,022	-0,117
-491,766	76,363	-0,071	0,054
-490,751	-200,000	-0,011	-0,072
-489,737	8,463	-0,042	-0,023
-488,722	800,000	0,018	0,049
-487,708	121,680	0,079	-0,071
-486,693	635,348	-0,025	0,046
-485,678	166,471	-0,072	0,073
-484,664	-75,443	0,012	-0,003
-483,649	-200,000	0,016	-0,143
-482,635	230,337	0,103	-0,121
-481,620	80,215	0,136	-0,105
-480,605	68,075	-0,093	-0,068
-479,591	-51,063	0,106	0,036
-478,576	19,432	-0,054	0,031
-477,562	41,195	0,078	0,051
-476,547	195,878	-0,038	-0,042
-475,532	-200,000	0,001	-0,107
-474,518	298,641	-0,050	-0,066
-473,503	621,088	0,028	-0,050
-472,489	-200,000	-0,031	0,157
-471,474	-12,239	-0,125	0,058
-470,459	800,000	-0,050	0,146
-469,445	-41,499	-0,077	-0,028
-468,430	437,415	-0,068	-0,107
-467,416	-25,771	-0,061	0,026
-466,401	800,000	-0,068	0,161
-465,386	389,404	0,046	-0,069
-464,372	31,685	0,042	0,026
-463,357	-59,816	-0,121	-0,037
-462,343	20,754	-0,006	0,004
-461,328	-34,046	-0,109	0,043
-460,313	800,000	0,003	-0,010
-459,299	-21,318	0,117	-0,051
-458,284	-110,140	0,061	0,009
-457,270	-41,961	-0,046	0,017
-456,255	-93,026	-0,059	0,012
-455,241	800,000	0,021	0,055
-454,226	-200,000	0,055	-0,181
-453,211	70,026	0,032	0,024
-452,197	388,940	0,097	0,145
-451,182	-200,000	0,024	-0,100
-450,168	339,749	0,044	-0,061
-449,153	86,036	0,020	-0,016
-448,138	-112,624	-0,113	0,016
-447,124	409,600	-0,044	0,068
-446,109	-200,000	-0,010	-0,043
-445,095	-34,698	0,093	0,036
-444,080	-200,000	-0,001	0,050
-443,065	-200,000	0,007	0,046
-442,051	584,819	-0,054	-0,095
-441,036	-96,055	0,037	-0,007
-440,022	-138,598	-0,154	0,012
-439,007	699,745	-0,020	0,038
-437,992	271,385	0,063	0,079
-436,978	256,580	0,031	0,038
-435,963	-6,756	0,017	-0,008
-434,949	105,718	0,044	0,037
-433,934	540,505	0,044	-0,076
-432,919	800,000	-0,052	-0,110
-431,905	-200,000	-0,005	-0,186
-430,890	800,000	0,005	0,016
-429,876	-200,000	-0,003	0,155
-428,861	-200,000	0,016	0,176
-427,846	-39,517	0,093	0,035
-426,832	222,966	-0,163	-0,188
-425,817	594,270	-0,045	-0,080
-424,803	94,791	-0,055	-0,045
-423,788	206,792	0,062	-0,069
-422,773	-200,000	-0,126	0,000
-421,759	800,000	-0,009	0,027
-420,744	800,000	0,028	-0,065
-419,730	-13,641	-0,015	-0,007
-418,715	444,812	-0,092	-0,145
-417,701	800,000	0,029	-0,071
-416,686	132,919	-0,063	-0,058
-415,671	-200,000	0,005	0,106
-414,657	800,000	-0,042	0,089
-413,642	800,000	0,021	-0,043
-412,628	-58,211	-0,052	0,016
-411,613	-67,869	-0,167	0,046
-410,598	-64,157	0,037	0,011
-409,584	-154,142	0,013	-0,001
-408,569	559,025	-0,017	0,030
-407,555	-105,700	0,062	0,010
-406,540	-8,326	0,064	0,031
-405,525	-73,360	-0,091	-0,024
-404,511	-115,941	-0,128	0,017
-403,496	-200,000	-0,021	-0,078
-402,482	110,690	-0,109	0,094
-401,467	103,641	0,040	0,033
-400,452	57,342	0,088	0,061
-399,438	-75,105	-0,104	0,027
-398,423	-200,000	-0,007	-0,032
-397,409	107,901	0,052	0,044
-396,394	639,977	-0,017	-0,031
-395,379	367,008	0,056	-0,082
-394,365	41,423	0,102	0,066
-393,350	800,000	0,073	-0,153
-392,336	-120,701	0,154	-0,018
-391,321	-3,022	-0,071	-0,035
-390,306	-200,000	0,008	-0,061
-389,292	-200,000	-0,013	-0,077
-388,277	646,756	-0,024	0,044
-387,263	490,146	0,086	0,141
-386,248	137,545	-0,020	0,019
-385,233	-200,000	0,007	0,045
-384,219	73,275	0,094	-0,070
-383,204	800,000	0,029	-0,079
-382,190	-110,553	0,034	-0,005
-381,175	-200,000	0,015	-0,095
-380,160	800,000	0,064	0,146
-379,146	-200,000	0,013	-0,082
-378,131	800,000	0,046	0,125
-377,117	-67,296	-0,087	0,024
-376,102	258,347	-0,062	-0,077
-375,088	144,995	0,017	-0,016
-374,073	-38,774	-0,047	0,017
-373,058	41,736	-0,065	0,042
-372,044	-16,248	0,049	0,022
-371,029	-200,000	0,000	0,103
-370,015	47,201	0,069	0,046
-369,000	-200,000	-0,001	0,096
-367,985	-3,395	0,025	-0,013
-366,971	-200,000	0,023	-0,108
-365,956	800,000	0,039	0,100
-364,942	-35,239	0,103	-0,040
-363,927	-200,000	0,001	-0,060
-362,912	684,651	0,039	0,073
-361,898	800,000	-0,004	0,008
-360,883	258,786	-0,073	0,089
-359,869	-103,371	0,010	0,002
-358,854	5,019	0,109	-0,057
-357,839	51,024	0,100	-0,067
-356,825	-176,387	0,062	0,001
-355,810	22,783	0,095	0,055
-354,796	596,889	-0,053	-0,095
-353,781	800,000	0,007	-0,022
-352,766	-120,434	0,108	-0,013
-351,752	-200,000	-0,016	0,050
-350,737	526,449	0,054	0,091
-349,723	-85,600	0,069	-0,015
-348,708	370,193	-0,056	-0,082
-347,693	-200,000	-0,033	-0,120
-346,679	-200,000	-0,016	-0,097
-345,664	800,000	-0,009	-0,021
-344,650	483,540	-0,023	0,038
-343,635	123,395	0,056	0,050
-342,620	246,379	0,016	0,019
-341,606	-132,583	0,097	-0,009
-340,591	182,620	-0,060	-0,064
-339,577	800,000	-0,047	-0,143
-338,562	181,971	0,048	-0,050
-337,548	20,407	-0,120	0,069
-336,533	-200,000	0,039	0,230
-335,518	108,238	0,108	0,092
-334,504	4,123	0,023	-0,012
-333,489	-100,340	-0,115	0,020
-332,475	325,349	-0,063	-0,086
-331,460	392,152	0,064	-0,096
-330,445	41,528	-0,039	0,025
-329,431	187,028	-0,074	0,078
-328,416	179,873	-0,058	0,061
-327,402	-14,783	0,060	-0,028
-326,387	-127,482	-0,136	0,014
-325,372	38,593	0,078	-0,050
-324,358	-114,474	-0,142	-0,019
-323,343	104,666	0,098	-0,082
-322,329	289,991	0,039	0,051
-321,314	800,000	0,048	0,114
-320,299	47,365	0,047	-0,031
-319,285	142,346	-0,077	-0,073
-318,270	-200,000	-0,034	0,155
-317,256	-200,000	-0,030	-0,112
-316,241	0,069	-0,114	-0,058
-315,226	-80,215	-0,047	0,011
-314,212	354,824	-0,030	0,043
-313,197	223,420	0,084	0,097
-312,183	9,663	-0,069	0,037
-311,168	-200,000	0,023	-0,081
-310,153	396,589	0,063	-0,094
-309,139	800,000	0,026	0,052
-308,124	142,950	-0,114	-0,108
-307,110	-144,401	0,134	-0,009
-306,095	800,000	-0,082	0,195
-305,080	12,904	0,129	-0,071
-304,066	690,905	-0,043	-0,080
-303,051	-200,000	0,001	-0,063
-302,037	-200,000	0,040	-0,171
-301,022	10,796	-0,107	-0,058
-300,008	-9,394	0,045	0,021
-298,993	790,724	0,054	0,105
-297,978	800,000	0,027	-0,064
-296,964	44,901	-0,088	-0,057
-295,949	55,228	-0,058	0,040
-294,935	105,657	0,010	0,009
-293,920	45,611	-0,112	-0,074
-292,905	-200,000	-0,006	0,180
-291,891	-200,000	-0,017	0,140
-290,876	-50,130	-0,018	0,006
-289,862	-200,000	-0,051	0,176
-288,847	25,609	0,126	-0,075
-287,832	-200,000	-0,017	0,184
-286,818	-200,000	0,016	-0,063
-285,803	318,036	0,086	-0,117
-284,789	-36,697	0,127	0,048
-283,774	-75,917	0,216	-0,054
-282,759	-50,380	0,033	0,011
-281,745	-126,360	-0,034	-0,004
-280,730	772,969	-0,044	-0,086
-279,716	19,637	0,099	0,057
-278,701	115,962	0,050	0,043
-277,686	-83,408	0,159	-0,036
-276,672	-10,158	-0,061	-0,029
-275,657	303,024	-0,034	-0,045
-274,643	-200,000	-0,023	-0,192
-273,628	538,403	0,077	-0,131
-272,613	99,740	-0,192	0,158
-271,599	269,195	0,032	0,040
-270,584	-200,000	-0,007	-0,101
-269,570	264,048	-0,115	0,143
-268,555	-200,000	-0,018	-0,118
-267,540	196,368	-0,053	-0,058
-266,526	171,468	0,082	-0,084
-265,511	-40,427	0,094	0,034
-264,497	140,868	-0,099	0,093
-263,482	551,276	-0,009	-0,016
-262,467	713,125	0,072	0,137
-261,453	17,867	0,086	0,048
-260,438	254,210	0,015	-0,018
-259,424	-189,567	0,075	-0,001
-258,409	425,063	-0,031	-0,048
-257,395	-34,250	-0,133	0,052
-256,380	800,000	-0,041	0,108
-255,365	-200,000	0,018	0,076
-254,351	-101,509	-0,092	-0,016
-253,336	-151,853	-0,033	0,002
-252,322	-139,911	-0,138	0,010
-251,307	-200,000	-0,003	0,023
-250,292	-200,000	0,115	0,000
-249,278	250,533	0,100	0,121
-248,263	-200,000	0,013	0,081
-247,249	-200,000	-0,027	0,097
-246,234	-55,723	-0,044	0,014
-245,219	152,385	-0,008	0,007
-244,205	187,904	0,041	-0,044
-243,190	-62,937	-0,151	0,044
-242,176	-200,000	0,004	0,050
-241,161	242,255	0,087	0,104
-240,146	-200,000	-0,020	0,092
-239,132	800,000	0,023	-0,058
-238,117	-30,826	-0,006	0,003
-237,103	198,879	-0,007	0,008
-236,088	162,692	-0,127	-0,127
-235,073	-200,000	-0,004	0,059
-234,059	800,000	0,020	-0,057
-233,044	-200,000	0,021	0,125
-232,030	-200,000	0,018	-0,193
-231,015	-200,000	-0,033	-0,125
-230,000	219,335	-0,040	0,045
-228,986	492,555	0,031	-0,051
-227,971	526,414	-0,063	-0,106
-226,957	-200,000	-0,012	0,090
-225,942	-30,904	-0,047	-0,019
-224,927	77,364	0,078	-0,059
-223,913	95,990	0,050	-0,040
-222,898	90,148	0,020	0,016
-221,884	234,359	0,046	0,054
-220,869	-11,414	0,109	-0,051
-219,855	-200,000	-0,006	-0,048
-218,840	526,701	-0,019	0,031
-217,825	-200,000	-0,001	0,038
-216,811	216,852	0,064	0,072
-215,796	-86,313	0,075	-0,016
-214,782	-200,000	-0,021	-0,089
-213,767	-200,000	0,021	0,094
-212,752	800,000	-0,022	-0,063
-211,738	175,644	0,017	-0,018
-210,723	-8,848	0,039	0,019
-209,709	800,000	0,033	-0,075
-208,694	-129,292	0,084	-0,008
-207,679	-56,069	0,070	-0,022
-206,665	800,000	-0,003	0,006
-205,650	141,779	0,017	0,016
-204,636	-15,775	-0,033	-0,015
-203,621	800,000	0,064	0,164
-202,606	-63,905	0,113	-0,033
-201,592	216,083	-0,176	-0,198
-200,577	800,000	0,025	-0,063
-199,563	-33,468	-0,043	0,017
-198,548	766,324	0,043	0,084
-197,533	800,000	-0,056	0,166
-196,519	25,425	-0,132	0,078
-195,504	649,171	-0,072	-0,132
-194,490	-51,647	0,091	-0,030
-193,475	118,674	-0,072	-0,063
-192,460	-18,898	0,088	-0,039
-191,446	62,922	-0,037	0,026
-190,431	85,019	-0,089	0,069
-189,417	542,657	0,018	0,030
-188,402	427,063	0,027	-0,041
-187,387	-39,662	-0,047	-0,017
-186,373	11,959	-0,034	-0,019
-185,358	63,193	0,057	-0,041
-184,344	-200,000	-0,006	0,275
-183,329	252,674	-0,076	0,092
-182,315	327,439	-0,097	0,132
-181,300	-25,520	-0,139	0,058
-180,285	109,088	0,019	0,016
-179,271	118,989	-0,016	0,014
-178,256	-200,000	-0,032	-0,112
-177,242	97,720	0,109	-0,088
-176,227	-200,000	0,002	-0,069
-175,212	800,000	0,031	-0,067
-174,198	-26,832	-0,041	-0,017
-173,183	-44,394	0,082	0,029
-172,169	-200,000	0,020	-0,063
-171,154	231,242	-0,062	0,072
-170,139	-200,000	-0,008	-0,105
-169,125	-181,035	0,070	-0,001
-168,110	25,844	0,133	-0,078
-167,096	256,556	-0,065	-0,079
-166,081	800,000	-0,067	-0,135
-165,066	-65,676	-0,179	-0,051
-164,052	-200,000	-0,034	-0,241
-163,037	-68,713	-0,126	-0,034
-162,023	10,072	-0,029	-0,015
-161,008	147,897	0,101	0,096
-159,993	14,898	-0,116	-0,064
-158,979	220,877	0,089	-0,101
-157,964	149,745	-0,036	0,035
-156,950	58,691	0,118	-0,082
-155,935	156,903	0,097	0,095
-154,920	-200,000	-0,010	0,053
-153,906	26,726	0,085	0,050
-152,891	357,802	-0,035	0,049
-151,877	-200,000	0,017	-0,129
-150,862	213,933	0,062	-0,069
-149,847	-200,000	-0,014	-0,049
-148,833	-200,000	0,000	0,092
-147,818	-86,639	0,174	-0,037
-146,804	478,568	-0,018	0,029
-145,789	761,588	0,044	0,086
-144,775	55,004	-0,086	0,058
-143,760	-155,399	-0,083	-0,004
-142,745	-87,220	0,123	-0,026
-141,731	-180,617	-0,050	-0,001
-140,716	-154,290	0,106	-0,005
-139,702	228,706	-0,023	0,027
-138,687	-200,000	-0,012	0,104
-137,672	-72,742	-0,153	-0,040
-136,658	-152,160	-0,145	-0,007
-135,643	800,000	0,014	0,043
-134,629	-105,748	0,061	-0,010
-133,614	471,141	0,038	0,061
-132,599	-25,026	-0,088	-0,037
-131,585	58,222	0,058	0,040
-130,570	-70,023	0,130	0,035
-129,556	253,858	0,071	-0,086
-128,541	205,225	-0,064	-0,071
-127,526	-200,000	-0,013	-0,092
-126,512	-200,000	-0,002	-0,045
-125,497	-105,821	0,135	0,021
-124,483	800,000	0,076	-0,219
-123,468	-200,000	-0,075	0,237
-122,453	194,627	-0,090	0,096
-121,439	-200,000	-0,011	-0,142
-120,424	-114,239	0,030	-0,004
-119,410	-200,000	0,006	0,045
-118,395	800,000	0,061	-0,142
-117,380	-65,516	-0,110	-0,031
-116,366	252,283	0,044	-0,053
-115,351	38,254	0,106	0,067
-114,337	-66,131	-0,210	-0,059
-113,322	-138,208	-0,033	0,003
-112,307	60,502	0,046	-0,032
-111,293	372,941	0,103	0,149
-110,278	187,882	-0,099	0,105
-109,264	699,065	0,027	-0,050
-108,249	800,000	-0,022	-0,052
-107,234	-135,963	-0,142	-0,012
-106,220	595,709	-0,063	-0,110
-105,205	-15,797	0,044	-0,020
-104,191	-116,964	0,025	0,003
-103,176	95,409	0,080	0,064
-102,162	-63,632	0,125	0,036
-101,147	186,521	0,068	-0,072
-100,132	2,718	-0,127	-0,065
-99,118	82,028	0,104	-0,079
-98,103	154,455	0,053	-0,051
-97,089	-160,509	0,027	0,001
-96,074	157,492	0,062	-0,061
-95,059	23,794	-0,070	0,040
-94,045	-49,046	-0,117	-0,039
-93,030	7,810	-0,057	-0,030
-92,016	-200,000	-0,030	-0,101
-91,001	-127,970	-0,052	0,005
-89,986	-187,311	0,046	-0,000
-88,972	141,368	0,128	0,120
-87,957	-105,282	0,058	-0,009
-86,943	800,000	0,020	0,056
-85,928	41,071	-0,043	0,027
-84,913	438,825	-0,035	0,054
-83,899	712,876	0,031	-0,058
-82,884	303,071	0,071	-0,093
-81,870	133,135	-0,056	-0,051
-80,855	182,462	-0,053	-0,055
-79,840	-123,206	-0,193	0,022
-78,826	800,000	-0,023	0,053
-77,811	9,974	-0,149	0,079
-76,797	-3,509	-0,040	0,019
-75,782	161,054	0,088	-0,087
-74,767	101,201	-0,108	0,089
-73,753	-200,000	0,008	0,209
-72,738	68,416	0,057	0,041
-71,724	-200,000	-0,028	-0,150
-70,709	-200,000	-0,025	-0,084
-69,694	-2,011	0,010	-0,005
-68,680	328,722	-0,065	0,088
-67,665	539,630	0,011	0,018
-66,651	-200,000	0,011	-0,090
-65,636	601,120	0,065	-0,115
-64,622	158,058	0,179	0,176
-63,607	-200,000	-0,010	0,096
-62,592	-153,235	-0,121	0,006
-61,578	-84,532	0,114	0,025
-60,563	800,000	-0,027	0,073
-59,549	150,993	0,066	0,063
-58,534	20,175	-1,852	-1,052
-57,519	342,336	-1,404	-1,945
-56,505	-200,000	-0,299	-4,385
-55,490	477,225	0,810	1,298
-54,476	800,000	5,251	11,588
-53,461	-200,000	20,883	327,906
-52,446	800,000	756,214	2319,564
-51,432	551,003	1661,303	2824,459
-50,417	73,534	1663,209	1227,799
-49,403	18,663	1536,457	865,161
-48,388	12,681	1459,399	792,838
-47,373	18,971	1449,927	817,846
-46,359	15,818	1439,395	796,876
-45,344	10,962	1435,221	771,417
-44,330	10,878	1433,353	769,983
-43,315	10,872	1431,340	768,841
-42,300	10,905	1429,455	767,957
-41,286	10,919	1428,234	767,334
-40,271	10,901	1426,904	766,506
-39,257	10,895	1425,870	765,891
-38,242	10,905	1424,621	765,237
-37,227	10,888	1423,763	764,666
-36,213	10,894	1422,437	763,950
-35,198	10,923	1421,301	763,449
-34,184	11,021	1420,308	763,344
-33,169	10,879	1419,082	761,989
-32,154	10,960	1417,933	761,721
-31,140	11,001	1416,585	761,160
-30,125	11,002	1415,774	760,699
-29,111	11,005	1414,499	759,998
-28,096	10,979	1413,534	759,329
-27,082	10,887	1412,234	758,167
-26,067	10,894	1411,123	757,574
-25,052	10,879	1410,227	756,991
-24,038	10,914	1409,015	756,476
-23,023	10,908	1408,072	755,910
-22,009	10,885	1407,031	755,215
-20,994	10,878	1405,954	754,573
-19,979	10,885	1405,073	754,104
-18,965	10,853	1404,221	753,466
-17,950	10,792	1403,362	752,692
-16,936	10,820	1402,542	752,355
-15,921	10,795	1401,305	751,542
-14,906	10,764	1400,727	751,061
-13,892	10,850	1399,578	750,812
-12,877	10,766	1398,923	750,044
-11,863	10,747	1397,966	749,410
-10,848	10,747	1396,932	748,827
-9,833	10,713	1396,326	748,314
-8,819	10,692	1395,357	747,670
-7,804	10,714	1394,476	747,270
-6,790	10,707	1393,388	746,622
-5,775	10,708	1392,280	746,002
-4,760	10,738	1391,463	745,674
-3,746	10,662	1390,688	744,878
-2,731	10,684	1389,741	744,444
-1,717	10,679	1388,726	743,846
-0,702	10,694	1387,051	742,989
0,313	14,795	1300,830	715,560
1,327	31,257	692,968	418,617
2,342	48,494	120,248	79,307
3,356	1,010	16,498	8,315
4,371	8,308	3,364	1,777
5,386	43,303	0,839	0,539
6,400	-200,000	-0,001	0,514
7,415	162,429	-0,068	-0,068
8,429	-50,415	-0,382	-0,127
9,444	82,633	-0,335	-0,256
10,459	-7,339	-0,245	-0,117
11,473	151,272	-0,249	-0,239
12,488	14,569	-0,222	-0,122
13,502	-100,161	-0,333	-0,058
14,517	31,240	-0,330	-0,199
15,531	-54,339	-0,388	-0,123
16,546	48,687	-0,342	-0,225
17,561	138,799	-0,351	-0,325
18,575	187,665	-0,154	-0,162
19,590	-37,028	-0,239	-0,090
20,604	-104,055	-0,237	-0,039
21,619	21,202	-0,467	-0,266
22,634	198,409	-0,308	-0,332
23,648	51,982	-0,413	-0,276
24,663	168,804	-0,379	-0,381
25,677	107,305	-0,350	-0,293
26,692	-1,668	-0,310	-0,153
27,707	10,251	-0,420	-0,224
28,721	216,499	-0,300	-0,336
29,736	27,641	-0,395	-0,233
30,750	152,170	-0,321	-0,309
31,765	187,635	-0,277	-0,291
32,780	224,375	-0,326	-0,371
33,794	32,027	-0,364	-0,220
34,809	43,064	-0,328	-0,210
35,823	31,908	-0,461	-0,279
36,838	259,214	-0,304	-0,370
37,853	135,417	-0,337	-0,309
38,867	117,960	-0,373	-0,323
39,882	76,023	-0,171	-0,127
40,896	5,883	-0,421	-0,218
41,911	380,600	-0,269	-0,389
42,926	-64,882	-0,350	-0,099
43,940	170,001	-0,344	-0,346
44,955	90,436	-0,268	-0,211
45,969	128,718	-0,240	-0,215
46,984	-55,033	-0,376	-0,118
47,999	4,408	-0,364	-0,187
49,013	248,651	-0,214	-0,255
50,028	126,451	-0,257	-0,229
51,042	9,317	-0,365	-0,193
52,057	63,264	-0,324	-0,228
53,071	166,095	-0,150	-0,150
54,086	128,548	-0,250	-0,223
55,101	15,491	-0,392	-0,215
56,115	-27,188	-0,380	-0,155
57,130	-25,654	-0,389	-0,160
58,144	-22,944	-0,467	-0,197
59,159	112,805	-0,388	-0,330
60,174	156,206	-0,376	-0,364
61,188	25,728	-0,420	-0,245
62,203	-6,721	-0,305	-0,145
63,217	15,990	-0,280	-0,154
64,232	56,782	-0,357	-0,243
65,247	95,259	-0,305	-0,243
66,261	92,376	-0,381	-0,301
67,276	62,614	-0,391	-0,274
68,290	144,522	-0,255	-0,239
69,305	44,486	-0,222	-0,143
70,320	89,307	-0,338	-0,264
71,334	54,042	-0,330	-0,222
72,349	85,523	-0,274	-0,211
73,363	34,918	-0,413	-0,253
74,378	608,666	-0,199	-0,349
75,393	29,723	-0,309	-0,184
76,407	-24,505	-0,337	-0,140
77,422	56,629	-0,325	-0,222
78,436	-110,277	-0,335	-0,048
79,451	61,434	-0,320	-0,223
80,466	-66,557	-0,274	-0,075
81,480	-102,859	-0,416	-0,069
82,495	465,928	-0,159	-0,251
83,509	52,962	-0,251	-0,168
84,524	363,899	-0,100	-0,141
85,539	-169,985	-0,355	-0,009
86,553	44,274	-0,306	-0,197
87,568	-20,949	-0,276	-0,118
88,582	-12,472	-0,389	-0,177
89,597	-85,146	-0,339	-0,074
90,611	-85,265	-0,213	-0,046
91,626	-46,917	-0,244	-0,083
92,641	484,491	-0,114	-0,183
93,655	-38,844	-0,373	-0,137
94,670	118,714	-0,244	-0,210
95,684	210,468	-0,300	-0,330
96,699	186,516	-0,242	-0,252
97,714	106,060	-0,221	-0,183
98,728	-10,502	-0,300	-0,138
99,743	-36,824	-0,229	-0,086
100,757	-88,549	-0,336	-0,069
101,772	-26,788	-0,357	-0,145
102,787	5,100	-0,283	-0,145
103,801	198,146	-0,245	-0,263
104,816	19,283	-0,391	-0,219
105,830	204,259	-0,195	-0,211
106,845	87,885	-0,106	-0,082
107,860	23,751	-0,326	-0,187
108,874	-30,468	-0,219	-0,086
109,889	161,155	-0,172	-0,168
110,903	94,419	-0,215	-0,170
111,918	241,895	-0,217	-0,254
112,933	263,626	-0,165	-0,201
113,947	2,342	-0,251	-0,126
114,962	239,504	-0,168	-0,195
115,976	47,014	-0,320	-0,207
116,991	75,599	-0,245	-0,180
118,006	-150,893	-0,307	-0,016
119,020	80,282	-0,325	-0,244
120,035	263,033	-0,235	-0,285
121,049	621,947	-0,114	-0,201
122,064	118,878	-0,233	-0,201
123,079	194,277	-0,212	-0,225
124,093	46,943	-0,260	-0,168
125,108	800,000	-0,168	-0,360
126,122	40,623	-0,245	-0,154
127,137	186,648	-0,249	-0,259
128,151	702,451	-0,148	-0,274
129,166	58,581	-0,218	-0,149
130,181	74,051	-0,236	-0,173
131,195	62,471	-0,301	-0,209
132,210	17,898	-0,266	-0,147
133,224	450,250	-0,101	-0,157
134,239	49,959	-0,257	-0,169
135,254	5,312	-0,312	-0,160
136,268	93,364	-0,193	-0,152
137,283	201,632	-0,218	-0,234
138,297	291,360	-0,249	-0,317
139,312	-57,949	-0,397	-0,120
140,327	216,362	-0,140	-0,156
141,341	337,986	-0,165	-0,225
142,356	209,037	-0,159	-0,174
143,370	115,291	-0,272	-0,231
144,385	142,584	-0,212	-0,197
145,400	50,972	-0,186	-0,123
146,414	-16,920	-0,326	-0,143
147,429	144,380	-0,286	-0,266
148,443	800,000	-0,132	-0,313
149,458	238,271	-0,251	-0,290
150,473	40,303	-0,236	-0,148
151,487	58,737	-0,345	-0,235
152,502	53,605	-0,300	-0,200
153,516	382,885	-0,157	-0,226
154,531	117,073	-0,240	-0,205
155,546	114,031	-0,294	-0,249
156,560	13,157	-0,290	-0,156
157,575	85,589	-0,192	-0,147
158,589	138,148	-0,311	-0,284
159,604	145,538	-0,279	-0,260
160,619	-54,027	-0,411	-0,129
161,633	308,919	-0,256	-0,334
162,648	253,684	-0,149	-0,178
163,662	0,526	-0,368	-0,183
164,677	33,564	-0,106	-0,064
165,692	-81,069	-0,276	-0,063
166,706	-15,114	-0,193	-0,085
167,721	144,290	-0,249	-0,231
168,735	93,463	-0,086	-0,067
169,750	308,619	-0,190	-0,247
170,764	800,000	-0,088	-0,209
171,779	800,000	-0,113	-0,251
172,794	-141,036	-0,161	-0,011
173,808	70,802	-0,197	-0,141
174,823	-11,224	-0,256	-0,117
175,837	-25,236	-0,294	-0,121
176,852	145,720	-0,260	-0,242
177,867	324,116	-0,096	-0,127
178,881	10,294	-0,232	-0,122
179,896	235,504	-0,136	-0,156
180,910	73,830	-0,223	-0,162
181,925	470,394	-0,178	-0,278
182,940	155,020	-0,158	-0,151
183,954	70,782	-0,186	-0,133
184,969	800,000	-0,083	-0,199
185,983	175,517	-0,226	-0,228
186,998	800,000	-0,054	-0,151
188,013	59,668	-0,228	-0,156
189,027	-57,935	-0,289	-0,087
190,042	441,475	-0,101	-0,153
191,056	800,000	-0,132	-0,353
192,071	127,814	-0,148	-0,131
193,086	773,241	-0,046	-0,087
194,100	411,256	-0,171	-0,252
195,115	-47,086	-0,211	-0,071
196,129	111,163	-0,253	-0,211
197,144	-38,600	-0,261	-0,095
198,159	75,422	-0,314	-0,230
199,173	295,321	-0,092	-0,116
200,188	-18,175	-0,180	0,078
201,202	-24,183	-0,264	-0,109
202,217	-10,519	-0,171	-0,078
203,232	-43,126	-0,202	-0,071
204,246	225,415	-0,205	-0,230
205,261	16,599	-0,249	-0,136
206,275	28,400	-0,226	-0,132
207,290	-200,000	-0,001	-0,164
208,304	94,753	-0,157	-0,124
209,319	141,428	-0,079	-0,073
210,334	400,675	-0,125	-0,182
211,348	-54,023	-0,257	-0,080
212,363	148,043	-0,205	-0,191
213,377	192,072	-0,192	-0,200
214,392	650,430	-0,122	-0,217
215,407	56,855	-0,082	-0,055
216,421	130,131	-0,213	-0,189
217,436	183,775	-0,095	-0,097
218,450	-61,956	-0,169	-0,048
219,465	530,293	-0,202	-0,332
220,480	-53,123	-0,246	-0,078
221,494	132,288	-0,155	-0,138
222,509	57,444	-0,185	-0,125
223,523	221,767	-0,207	-0,231
224,538	-3,762	-0,231	-0,111
225,553	97,778	-0,184	-0,146
226,567	321,810	-0,079	-0,104
227,582	-43,729	-0,174	-0,060
228,596	25,489	-0,223	-0,128
229,611	376,172	-0,100	-0,141
230,626	502,641	-0,053	-0,086
231,640	-22,750	-0,249	-0,103
232,655	-28,930	-0,237	-0,094
233,669	20,924	-0,184	-0,103
234,684	234,872	-0,108	-0,123
235,699	-122,549	-0,219	-0,024
236,713	-26,859	-0,191	-0,077
237,728	800,000	-0,093	-0,211
238,742	133,208	-0,184	-0,165
239,757	98,539	-0,228	-0,182
240,772	79,637	-0,299	-0,221
241,786	554,427	-0,105	-0,174
242,801	138,685	-0,125	-0,114
243,815	-146,854	-0,252	-0,015
244,830	82,898	-0,222	-0,167
245,844	74,965	-0,180	-0,131
246,859	800,000	-0,141	-0,286
247,874	382,655	-0,189	-0,269
248,888	93,996	-0,120	-0,094
249,903	192,531	-0,075	-0,078
250,917	-176,304	-0,172	0,003
251,932	-58,981	-0,166	-0,049
252,947	30,610	-0,264	-0,156
253,961	81,970	-0,258	-0,193
254,976	9,673	-0,209	-0,109
255,990	-109,049	-0,303	-0,044
257,005	-42,991	-0,150	-0,052
258,020	42,571	-0,067	-0,042
259,034	475,256	-0,102	-0,160
260,049	125,475	-0,237	-0,206
261,063	-200,000	-0,080	-0,244
262,078	81,351	-0,253	-0,189
263,093	11,848	-0,127	-0,067
264,107	147,770	-0,126	-0,117
265,122	-32,224	-0,210	-0,080
266,136	135,871	-0,088	0,079
267,151	-46,404	-0,147	0,049
268,166	-157,656	-0,210	-0,008
269,180	800,000	-0,127	-0,283
270,195	73,257	-0,150	-0,108
271,209	-59,550	-0,189	-0,056
272,224	-75,373	-0,173	-0,042
273,239	800,000	-0,043	-0,091
274,253	187,152	-0,145	-0,149
275,268	367,220	-0,164	-0,229
276,282	568,043	-0,067	-0,113
277,297	496,590	-0,165	-0,261
278,312	39,629	-0,185	-0,114
279,326	261,770	-0,113	-0,135
280,341	-138,918	-0,100	0,007
281,355	236,361	-0,090	-0,103
282,370	224,950	-0,165	-0,184
283,384	-92,929	-0,274	-0,052
284,399	-8,538	-0,169	-0,078
285,414	70,525	-0,179	-0,127
286,428	72,195	-0,127	-0,091
287,443	358,314	-0,154	-0,212
288,457	-93,506	-0,131	-0,025
289,472	-200,000	0,016	-0,053
290,487	-28,449	-0,213	-0,084
291,501	251,066	-0,155	-0,181
292,516	24,510	-0,190	-0,108
293,530	800,000	-0,097	-0,210
294,545	85,906	-0,094	-0,071
295,560	-200,000	-0,077	-0,281
296,574	800,000	-0,104	-0,201
297,589	800,000	-0,074	-0,200
298,603	30,365	-0,220	-0,129
299,618	800,000	-0,093	-0,195
300,633	-115,902	-0,043	-0,005
301,647	51,781	-0,204	-0,133
302,662	-68,244	-0,187	-0,050
303,676	347,078	-0,105	-0,142
304,691	-200,000	-0,012	-0,216
305,706	-6,232	-0,233	-0,109
306,720	315,469	-0,097	-0,126
307,735	-38,611	-0,120	0,043
308,749	-16,109	-0,141	-0,061
309,764	248,802	-0,026	-0,030
310,779	-188,818	-0,220	-0,002
311,793	800,000	-0,051	-0,111
312,808	-94,904	-0,136	-0,025
313,822	800,000	-0,090	-0,174
314,837	800,000	-0,124	-0,256
315,852	800,000	-0,038	-0,110
316,866	-147,304	-0,087	0,005
317,881	60,019	-0,066	-0,044
318,895	-63,900	-0,067	-0,019
319,910	-200,000	-0,045	-0,170
320,925	66,611	-0,094	-0,065
321,939	7,678	-0,131	-0,067
322,954	285,419	-0,155	-0,192
323,968	451,354	-0,054	-0,082
324,983	117,746	-0,068	-0,057
325,997	99,497	-0,221	-0,175
327,012	48,062	-0,083	-0,053
328,027	-95,477	-0,268	0,049
329,041	1,676	-0,161	-0,079
330,056	38,615	-0,129	-0,079
331,070	35,831	-0,110	-0,066
332,085	668,243	-0,022	-0,040
333,100	98,096	-0,197	-0,155
334,114	-76,031	-0,211	-0,051
335,129	41,894	-0,084	-0,052
336,143	131,805	-0,113	-0,100
337,158	62,077	-0,046	-0,031
338,173	-64,500	-0,149	-0,041
339,187	-99,237	-0,221	-0,038
340,202	-94,966	-0,101	-0,019
341,216	-63,489	-0,247	-0,069
342,231	-2,171	-0,209	-0,100
343,246	489,434	-0,112	-0,176
344,260	68,077	-0,112	0,078
345,275	24,009	-0,118	-0,067
346,289	311,239	-0,073	0,093
347,304	70,276	-0,149	-0,105
348,319	-68,190	-0,169	-0,045
349,333	-200,000	0,024	-0,146
350,348	-200,000	-0,048	-0,194
351,362	588,505	-0,080	-0,136
352,377	-6,269	-0,131	-0,061
353,392	-37,191	-0,158	-0,058
354,406	440,506	-0,080	-0,119
355,421	209,933	1306,146	1402,761
356,435	161,595	1465,805	1403,236
