DTS Sentinel unit serial number:	SN410029Multiplexer serial number:	ORYXHardware model number:	OX2-SRSoftware version number:	ORYX F/W v4,00 Oryx Data Collector v3.7.2.0data status	okinstallation	B3 Nyhavnadifferential loss correction	single-endedforward channel	channel 1reverse channel	N/Adate	2023/12/01time	10:42:30forward acquisition time	300,00reverse acquisition time	0,00gamma	499,1914k internal	0,3213k external	0,3213temperature offset calibration	1,0000default loss term (dB/km)	0,3820temperature slope calibration	1,0000multiplexer offset coefficient	1,0000multiplexer slope coefficient	1,0000fibre end	0,00T internal ref (°C)	8,12T ext. ref 1 (°C)	-6,17T ext. ref 2 (°C)	-6,26length (m)	temperature (°C)	Stokes	anti-Stokes-744,400	-200,000	-0,094	-0,409
-743,385	-200,000	0,010	0,323
-742,371	12,861	-0,126	-0,070
-741,356	-200,000	0,024	0,285
-740,342	29,411	-0,202	-0,124
-739,327	-200,000	0,018	0,312
-738,312	-27,832	-0,290	-0,121
-737,298	-200,000	-0,009	0,259
-736,283	-1,945	-0,144	-0,073
-735,269	800,000	-0,126	0,302
-734,254	100,979	-0,161	-0,136
-733,239	-41,954	-0,265	0,098
-732,225	800,000	-0,083	-0,186
-731,210	-200,000	0,009	0,098
-730,196	27,130	-0,064	0,039
-729,181	203,342	0,006	0,007
-728,167	663,647	-0,011	-0,020
-727,152	-200,000	-0,038	0,000
-726,137	-107,091	0,097	0,015
-725,123	-161,366	-0,177	-0,006
-724,108	7,385	0,067	-0,036
-723,094	307,939	-0,131	-0,178
-722,079	517,296	0,027	-0,046
-721,064	-200,000	-0,001	0,072
-720,050	-184,636	-0,072	-0,001
-719,035	93,044	-0,051	0,042
-718,021	800,000	0,056	-0,132
-717,006	137,790	-0,076	0,072
-715,991	-200,000	0,017	-0,140
-714,977	567,973	0,046	-0,081
-713,962	800,000	0,032	-0,095
-712,948	-184,841	-0,163	0,002
-711,933	-200,000	0,008	0,064
-710,918	527,923	0,074	0,126
-709,904	-37,275	-0,086	-0,033
-708,889	800,000	-0,053	0,113
-707,875	-200,000	-0,003	-0,041
-706,860	208,520	0,092	-0,104
-705,845	345,760	-0,038	-0,054
-704,831	50,904	-0,013	0,009
-703,816	154,891	-0,077	0,077
-702,802	82,403	-0,085	-0,066
-701,787	800,000	0,008	-0,024
-700,772	-121,298	-0,126	0,015
-699,758	-200,000	0,011	-0,056
-698,743	223,613	0,030	-0,035
-697,729	142,488	-0,078	-0,075
-696,714	47,935	0,059	0,040
-695,699	-200,000	0,026	-0,083
-694,685	165,521	0,025	-0,025
-693,670	254,172	-0,052	-0,065
-692,656	-200,000	0,004	-0,048
-691,641	-200,000	-0,010	0,110
-690,627	-83,779	-0,049	0,011
-689,612	142,861	-0,035	-0,033
-688,597	118,041	0,042	-0,038
-687,583	190,569	-0,076	-0,082
-686,568	117,025	-0,196	-0,174
-685,554	65,583	-0,029	-0,022
-684,539	-46,692	0,040	0,014
-683,524	110,324	-0,060	-0,052
-682,510	40,985	-0,037	0,024
-681,495	-55,152	-0,077	0,025
-680,481	-139,167	-0,100	-0,008
-679,466	275,881	-0,035	-0,045
-678,451	352,528	0,042	-0,060
-677,437	131,791	-0,097	0,090
-676,422	800,000	0,042	0,100
-675,408	-200,000	0,000	-0,074
-674,393	174,573	-0,117	-0,122
-673,378	198,636	-0,089	0,099
-672,364	-17,254	-0,060	-0,027
-671,349	144,716	0,074	-0,072
-670,335	259,482	0,036	-0,046
-669,320	-200,000	0,009	0,044
-668,305	651,646	-0,023	-0,043
-667,291	-200,000	0,009	-0,074
-666,276	-8,028	0,066	0,032
-665,262	-200,000	0,002	0,033
-664,247	13,660	-0,063	-0,035
-663,232	13,754	-0,072	-0,041
-662,218	27,355	0,039	-0,024
-661,203	-46,113	-0,093	-0,033
-660,189	-200,000	0,010	-0,053
-659,174	123,862	-0,068	0,061
-658,159	-17,572	0,065	-0,029
-657,145	704,427	0,036	0,068
-656,130	21,601	-0,020	0,012
-655,116	-156,415	0,189	0,008
-654,101	-200,000	0,001	0,050
-653,086	256,139	-0,084	0,104
-652,072	-129,876	-0,136	-0,013
-651,057	-200,000	-0,004	-0,078
-650,043	-67,701	-0,047	-0,013
-649,028	-200,000	-0,021	-0,101
-648,014	-107,027	0,043	-0,007
-646,999	800,000	0,065	0,149
-645,984	101,989	0,084	-0,071
-644,970	-40,536	-0,107	0,040
-643,955	-200,000	-0,012	0,047
-642,941	64,198	0,111	-0,081
-641,926	800,000	0,009	0,024
-640,911	800,000	0,008	0,022
-639,897	-3,687	-0,070	0,035
-638,882	-96,428	0,116	0,022
-637,868	-3,391	-0,130	0,065
-636,853	-200,000	-0,037	-0,139
-635,838	197,831	0,049	-0,054
-634,824	-200,000	-0,014	-0,051
-633,809	-200,000	0,032	0,159
-632,795	-200,000	0,032	-0,155
-631,780	17,773	0,094	-0,054
-630,765	-200,000	-0,016	-0,074
-629,751	111,487	0,057	-0,050
-628,736	-49,570	0,067	0,023
-627,722	-0,539	-0,032	-0,016
-626,707	-91,323	0,110	-0,022
-625,692	91,934	-0,089	0,073
-624,678	23,236	0,071	0,042
-623,663	-62,649	0,113	-0,034
-622,649	-150,694	-0,135	-0,007
-621,634	105,565	-0,106	0,090
-620,619	-200,000	-0,015	-0,099
-619,605	800,000	-0,043	-0,123
-618,590	-78,629	-0,056	0,014
-617,576	800,000	0,052	-0,114
-616,561	435,058	-0,112	0,177
-615,546	67,498	-0,047	-0,035
-614,532	301,536	-0,035	-0,046
-613,517	-91,092	-0,154	-0,032
-612,503	-57,012	-0,053	0,017
-611,488	-200,000	-0,025	0,093
-610,474	-104,137	-0,065	-0,011
-609,459	221,727	-0,125	0,145
-608,444	-200,000	0,000	0,030
-607,430	-109,403	0,041	0,006
-606,415	146,158	-0,131	-0,127
-605,401	-1,443	-0,061	0,031
-604,386	-57,441	0,123	-0,039
-603,371	-200,000	0,001	0,050
-602,357	-89,909	0,164	-0,034
-601,342	800,000	-0,043	-0,108
-600,328	156,338	-0,075	0,075
-599,313	-200,000	-0,005	0,049
-598,298	201,951	0,076	0,085
-597,284	-200,000	-0,003	0,113
-596,269	800,000	0,035	0,093
-595,255	-200,000	0,033	-0,134
-594,240	551,842	-0,032	0,056
-593,225	-200,000	-0,117	-0,000
-592,211	-200,000	0,053	-0,180
-591,196	-200,000	0,008	0,029
-590,182	-74,777	-0,125	-0,032
-589,167	-200,000	0,021	0,157
-588,152	271,625	0,062	-0,079
-587,138	98,404	0,098	-0,081
-586,123	-200,000	-0,018	-0,156
-585,109	-111,568	-0,065	0,009
-584,094	-92,416	-0,160	-0,032
-583,079	-7,640	0,065	0,032
-582,065	800,000	-0,051	-0,134
-581,050	218,525	-0,151	-0,174
-580,036	30,189	0,079	-0,048
-579,021	297,054	-0,069	-0,091
-578,006	184,377	0,073	0,078
-576,992	-104,205	0,059	0,010
-575,977	-124,261	-0,033	-0,004
-574,963	-130,541	0,207	0,020
-573,948	535,576	0,046	0,079
-572,934	-112,989	-0,089	0,013
-571,919	159,688	-0,056	0,056
-570,904	501,701	0,008	0,014
-569,890	40,106	-0,174	0,112
-568,875	-114,039	0,108	-0,015
-567,861	-81,281	-0,032	0,008
-566,846	30,645	-0,091	0,056
-565,831	-200,000	0,026	0,086
-564,817	-95,347	0,124	0,024
-563,802	305,352	0,016	0,022
-562,788	97,873	0,110	-0,091
-561,773	800,000	-0,039	-0,119
-560,758	175,919	-0,077	-0,080
-559,744	123,858	0,070	0,063
-558,729	800,000	0,055	0,148
-557,715	-200,000	-0,011	-0,062
-556,700	32,848	-0,059	0,036
-555,685	-66,079	0,153	0,044
-554,671	673,585	-0,052	0,097
-553,656	159,577	0,093	-0,093
-552,642	382,329	0,010	-0,015
-551,627	-32,772	0,055	-0,022
-550,612	-102,812	0,136	-0,023
-549,598	5,895	0,124	-0,066
-548,583	800,000	0,023	-0,047
-547,569	-200,000	0,020	0,063
-546,554	-200,000	0,000	0,044
-545,539	35,919	0,072	-0,046
-544,525	-8,931	-0,060	0,029
-543,510	616,778	-0,039	-0,070
-542,496	74,111	-0,064	-0,048
-541,481	60,097	-0,088	0,063
-540,466	-200,000	0,008	-0,051
-539,452	-200,000	0,011	0,156
-538,437	-200,000	-0,013	0,081
-537,423	36,341	-0,077	0,049
-536,408	-200,000	-0,014	0,074
-535,393	270,277	-0,066	-0,083
-534,379	-200,000	-0,040	-0,130
-533,364	-200,000	-0,036	-0,208
-532,350	-200,000	0,001	-0,039
-531,335	283,082	0,041	0,053
-530,321	-156,643	0,064	0,003
-529,306	800,000	-0,022	0,053
-528,291	38,993	-0,025	0,016
-527,277	-200,000	-0,007	-0,043
-526,262	-153,282	-0,079	-0,004
-525,248	-200,000	-0,003	0,021
-524,233	57,470	0,036	-0,025
-523,218	501,586	0,042	0,070
-522,204	2,163	0,018	0,009
-521,189	-77,634	-0,040	-0,010
-520,175	-121,735	-0,062	-0,007
-519,160	800,000	-0,035	-0,091
-518,145	669,301	-0,039	-0,073
-517,131	-200,000	-0,007	0,035
-516,116	-28,374	0,108	0,045
-515,102	551,390	-0,012	-0,020
-514,087	38,408	-0,075	0,048
-513,072	-200,000	0,022	0,074
-512,058	423,068	-0,026	0,041
-511,043	-172,970	0,102	-0,002
-510,029	-200,000	0,005	0,049
-509,014	-33,521	0,127	0,050
-507,999	32,240	0,042	-0,026
-506,985	260,779	0,047	-0,059
-505,970	-200,000	0,016	-0,207
-504,956	-200,000	-0,021	-0,111
-503,941	129,277	-0,139	-0,127
-502,926	-31,675	0,040	-0,016
-501,912	377,088	0,091	0,134
-500,897	699,502	0,062	0,118
-499,883	51,376	0,088	-0,060
-498,868	800,000	-0,034	-0,080
-497,853	-200,000	0,005	-0,080
-496,839	788,196	0,035	0,069
-495,824	-16,300	0,063	0,029
-494,810	-200,000	-0,001	0,176
-493,795	256,228	0,103	0,127
-492,781	25,545	-0,166	-0,099
-491,766	-200,000	-0,006	0,060
-490,751	84,576	-0,111	-0,087
-489,737	222,236	-0,021	0,024
-488,722	408,034	0,073	0,111
-487,708	-200,000	0,001	-0,026
-486,693	-200,000	-0,004	0,105
-485,678	174,522	-0,022	0,023
-484,664	-200,000	0,033	-0,110
-483,649	-33,485	-0,209	-0,083
-482,635	-81,882	-0,042	-0,010
-481,620	800,000	0,080	0,188
-480,605	-200,000	-0,011	0,088
-479,591	-148,322	0,144	-0,008
-478,576	-200,000	-0,009	0,120
-477,562	-176,077	0,093	0,002
-476,547	-166,146	-0,107	0,003
-475,532	-200,000	0,008	-0,039
-474,518	-200,000	0,009	-0,032
-473,503	800,000	-0,017	0,045
-472,489	314,642	0,111	0,150
-471,474	200,152	0,020	0,022
-470,459	-106,752	-0,050	0,008
-469,445	491,715	-0,096	-0,158
-468,430	379,839	0,059	-0,087
-467,416	-84,809	0,043	-0,010
-466,401	800,000	-0,037	0,082
-465,386	172,802	0,073	-0,075
-464,372	-129,000	-0,009	0,001
-463,357	14,912	-0,078	-0,044
-462,343	-200,000	0,011	-0,206
-461,328	-200,000	-0,025	-0,111
-460,313	6,550	-0,065	-0,034
-459,299	72,435	0,050	0,037
-458,284	138,659	0,060	0,056
-457,270	-7,851	-0,100	0,048
-456,255	-200,000	-0,024	-0,087
-455,241	-200,000	0,012	-0,107
-454,226	427,522	-0,087	-0,135
-453,211	-13,585	0,040	0,019
-452,197	521,243	0,035	0,060
-451,182	800,000	0,039	0,090
-450,168	-82,658	-0,042	0,010
-449,153	246,125	-0,069	0,083
-448,138	-200,000	-0,019	-0,063
-447,124	-144,721	-0,060	-0,004
-446,109	800,000	0,070	0,185
-445,095	124,630	0,068	-0,061
-444,080	22,817	-0,077	-0,045
-443,065	-10,802	-0,026	-0,012
-442,051	-140,935	-0,118	0,009
-441,036	251,114	-0,031	0,038
-440,022	800,000	-0,027	-0,063
-439,007	53,872	0,090	-0,062
-437,992	124,499	0,077	-0,069
-436,978	-53,285	0,153	-0,050
-435,963	124,693	0,021	-0,019
-434,949	-200,000	0,013	0,061
-433,934	-200,000	0,010	0,076
-432,919	-200,000	-0,002	-0,103
-431,905	619,447	-0,061	-0,110
-430,890	-155,300	0,172	0,008
-429,876	-85,076	0,161	-0,036
-428,861	229,306	0,054	-0,063
-427,846	47,808	-0,120	0,080
-426,832	149,491	-0,040	0,039
-425,817	-200,000	-0,013	-0,086
-424,803	-161,047	0,038	0,001
-423,788	-168,357	0,078	-0,002
-422,773	-200,000	0,015	0,109
-421,759	-42,653	0,130	-0,047
-420,744	-161,343	0,072	-0,003
-419,730	171,849	0,032	-0,033
-418,715	-61,384	-0,035	-0,011
-417,701	401,968	0,061	0,092
-416,686	-65,226	0,122	0,035
-415,671	800,000	-0,044	0,130
-414,657	450,079	0,044	0,070
-413,642	152,796	-0,117	0,114
-412,628	-200,000	0,031	-0,138
-411,613	10,882	-0,059	0,032
-410,598	18,238	-0,113	-0,064
-409,584	151,891	0,100	0,098
-408,569	-133,776	0,095	-0,008
-407,555	348,821	0,053	0,076
-406,540	381,502	0,012	-0,018
-405,525	186,424	-0,024	0,025
-404,511	-110,761	-0,129	0,019
-403,496	-200,000	0,015	-0,103
-402,482	-113,094	0,111	0,015
-401,467	-200,000	0,005	-0,029
-400,452	-158,427	-0,133	-0,005
-399,438	203,876	0,076	0,084
-398,423	11,916	-0,027	-0,015
-397,409	238,614	0,098	0,117
-396,394	21,730	-0,182	0,106
-395,379	800,000	0,012	0,034
-394,365	41,891	0,073	0,048
-393,350	199,093	0,050	-0,055
-392,336	-200,000	-0,002	0,044
-391,321	800,000	-0,051	0,101
-390,306	-7,331	-0,101	-0,049
-389,292	-56,260	-0,062	-0,020
-388,277	155,776	-0,119	0,117
-387,263	266,557	0,042	0,052
-386,248	-105,663	0,098	0,016
-385,233	-113,061	0,130	0,018
-384,219	104,597	0,022	0,019
-383,204	-200,000	-0,002	-0,019
-382,190	800,000	0,022	0,061
-381,175	26,927	-0,027	-0,016
-380,160	197,903	0,031	0,034
-379,146	800,000	0,030	0,078
-378,131	192,722	-0,012	-0,013
-377,117	-200,000	0,043	0,170
-376,102	-85,736	-0,069	-0,015
-375,088	-80,878	0,121	-0,028
-374,073	2,725	0,063	0,032
-373,058	-200,000	0,005	-0,052
-372,044	178,598	0,044	0,046
-371,029	503,832	0,051	0,084
-370,015	8,939	-0,067	-0,036
-369,000	208,162	-0,066	-0,074
-367,985	-200,000	0,018	-0,132
-366,971	-170,798	0,060	0,001
-365,956	8,997	0,110	0,059
-364,942	-200,000	-0,009	-0,050
-363,927	-200,000	0,003	0,115
-362,912	202,746	-0,061	0,067
-361,898	406,557	-0,046	0,070
-360,883	800,000	0,018	-0,058
-359,869	-39,527	-0,118	-0,044
-358,854	-32,182	0,059	-0,023
-357,839	52,178	0,025	-0,017
-356,825	74,428	-0,094	0,070
-355,810	452,653	-0,046	-0,073
-354,796	-31,755	0,042	-0,017
-353,781	-200,000	-0,001	-0,054
-352,766	253,679	-0,091	-0,111
-351,752	-200,000	-0,011	-0,210
-350,737	232,682	0,034	0,040
-349,723	-200,000	0,018	0,100
-348,708	241,538	0,031	-0,037
-347,693	-200,000	0,015	0,147
-346,679	85,677	-0,024	-0,019
-345,664	42,097	-0,089	-0,057
-344,650	497,055	-0,007	0,011
-343,635	800,000	0,065	-0,138
-342,620	506,066	-0,063	0,104
-341,606	-200,000	0,006	0,078
-340,591	281,763	0,048	-0,061
-339,577	60,352	-0,081	-0,057
-338,562	69,165	-0,145	0,106
-337,548	-80,583	0,042	0,010
-336,533	610,105	-0,027	0,048
-335,518	258,396	0,079	0,097
-334,504	281,271	-0,056	0,071
-333,489	25,718	-0,126	0,075
-332,475	598,127	-0,044	-0,078
-331,460	800,000	-0,061	-0,140
-330,445	498,159	0,063	0,103
-329,431	-200,000	-0,009	0,038
-328,416	-87,143	0,075	0,016
-327,402	-119,640	0,088	-0,011
-326,387	-167,317	0,067	0,002
-325,372	-200,000	-0,004	-0,065
-324,358	678,845	-0,048	-0,090
-323,343	703,346	0,080	0,152
-322,329	-28,610	0,138	0,057
-321,314	122,072	0,122	0,109
-320,299	-65,074	0,072	0,020
-319,285	-158,292	-0,071	0,003
-318,270	-200,000	0,021	-0,081
-317,256	84,470	0,042	-0,033
-316,241	7,656	-0,063	-0,034
-315,226	430,509	-0,097	0,150
-314,212	-200,000	-0,010	0,153
-313,197	-82,890	-0,013	0,003
-312,183	74,183	0,034	0,025
-311,168	108,574	-0,160	-0,136
-310,153	800,000	-0,014	0,040
-309,139	302,873	-0,096	0,127
-308,124	-29,840	0,077	-0,031
-307,110	-200,000	0,014	0,069
-306,095	294,851	0,031	0,041
-305,080	101,655	0,083	0,069
-304,066	673,738	-0,021	0,040
-303,051	148,736	-0,029	-0,028
-302,037	-200,000	-0,006	-0,054
-301,022	-48,156	-0,060	-0,020
-300,008	-200,000	0,002	-0,054
-298,993	256,150	0,040	0,048
-297,978	-200,000	0,021	0,069
-296,964	-200,000	0,013	-0,070
-295,949	-200,000	0,012	-0,138
-294,935	-200,000	-0,019	0,084
-293,920	640,006	-0,046	-0,083
-292,905	-106,038	-0,103	0,016
-291,891	-15,196	0,020	0,009
-290,876	-200,000	0,020	0,133
-289,862	800,000	0,070	0,188
-288,847	66,047	-0,038	-0,027
-287,832	181,623	-0,099	-0,104
-286,818	-22,424	-0,071	-0,030
-285,803	-56,864	0,032	-0,010
-284,789	-159,547	0,117	-0,005
-283,774	-158,766	0,093	0,004
-282,759	-142,951	-0,084	-0,006
-281,745	168,101	-0,029	-0,029
-280,730	437,531	-0,052	-0,080
-279,716	94,082	0,041	-0,033
-278,701	90,442	-0,026	-0,021
-277,686	591,604	0,047	0,083
-276,672	-28,569	-0,052	-0,021
-275,657	-200,000	0,003	-0,060
-274,643	-200,000	-0,022	0,139
-273,628	158,742	-0,156	-0,154
-272,613	800,000	0,038	-0,106
-271,599	-63,620	0,040	-0,012
-270,584	-200,000	-0,030	0,132
-269,570	315,564	0,070	-0,095
-268,555	95,719	-0,103	-0,084
-267,540	-20,752	-0,045	0,019
-266,526	-200,000	-0,001	0,016
-265,511	390,612	-0,073	0,108
-264,497	40,336	-0,065	0,042
-263,482	800,000	-0,016	0,044
-262,467	521,578	-0,016	0,028
-261,453	176,352	0,062	0,064
-260,438	-111,241	-0,061	-0,009
-259,424	-21,131	-0,042	-0,018
-258,409	800,000	-0,054	0,155
-257,395	12,177	-0,074	-0,040
-256,380	-200,000	0,004	0,164
-255,365	-200,000	0,013	0,059
-254,351	-200,000	-0,012	-0,038
-253,336	800,000	0,024	-0,053
-252,322	-32,485	0,129	-0,051
-251,307	800,000	-0,045	-0,109
-250,292	30,131	0,192	0,116
-249,278	-200,000	-0,019	0,081
-248,263	477,495	-0,077	-0,125
-247,249	-200,000	0,008	-0,051
-246,234	-44,690	-0,012	0,004
-245,219	-200,000	-0,035	-0,145
-244,205	162,490	0,071	-0,071
-243,190	-1,454	0,021	0,011
-242,176	-38,932	-0,071	-0,027
-241,161	-36,905	0,164	0,062
-240,146	123,321	0,083	0,074
-239,132	800,000	0,030	0,077
-238,117	-12,896	-0,112	0,052
-237,103	-28,670	-0,129	-0,052
-236,088	-5,178	0,103	0,050
-235,073	800,000	-0,019	-0,042
-234,059	-62,885	-0,138	-0,040
-233,044	140,592	0,080	0,075
-232,030	440,787	0,094	-0,147
-231,015	-121,817	-0,071	0,008
-230,000	-200,000	0,029	-0,117
-228,986	-137,649	0,029	0,002
-227,971	250,076	0,074	-0,089
-226,957	800,000	-0,023	0,048
-225,942	72,614	-0,083	0,062
-224,927	341,180	-0,089	0,124
-223,913	-200,000	-0,003	-0,119
-222,898	-78,204	0,084	0,020
-221,884	-57,785	-0,083	0,025
-220,869	-200,000	0,000	0,068
-219,855	800,000	0,043	-0,114
-218,840	765,454	-0,018	-0,035
-217,825	82,476	-0,069	0,053
-216,811	-200,000	-0,017	-0,061
-215,796	-200,000	0,001	-0,088
-214,782	93,441	-0,063	0,050
-213,767	-117,992	0,054	0,007
-212,752	88,575	0,011	-0,009
-211,738	800,000	0,049	0,106
-210,723	80,237	-0,055	-0,042
-209,709	416,760	-0,069	-0,105
-208,694	259,898	-0,111	-0,136
-207,679	106,874	-0,131	0,110
-206,665	134,792	-0,020	0,018
-205,650	-200,000	0,040	-0,159
-204,636	800,000	-0,042	-0,089
-203,621	-19,378	-0,037	-0,016
-202,606	250,647	-0,137	-0,166
-201,592	16,955	0,050	-0,028
-200,577	303,959	-0,054	-0,071
-199,563	332,162	-0,005	0,006
-198,548	800,000	0,033	0,088
-197,533	43,581	0,036	0,023
-196,519	40,386	-0,056	-0,036
-195,504	-134,917	0,011	0,001
-194,490	-28,855	-0,098	-0,040
-193,475	-200,000	-0,020	-0,153
-192,460	165,735	0,043	-0,044
-191,446	800,000	0,031	-0,064
-190,431	-60,753	0,108	-0,032
-189,417	-200,000	-0,006	-0,105
-188,402	601,405	0,059	-0,104
-187,387	262,567	0,060	-0,075
-186,373	-48,067	-0,131	-0,045
-185,358	800,000	-0,061	0,123
-184,344	-200,000	0,026	0,106
-183,329	800,000	-0,009	0,019
-182,315	-200,000	-0,018	0,065
-181,300	81,776	0,076	0,058
-180,285	27,571	0,027	-0,016
-179,271	497,635	-0,036	-0,059
-178,256	22,744	-0,085	0,049
-177,242	-200,000	0,016	-0,102
-176,227	294,324	-0,112	0,146
-175,212	644,458	0,036	-0,064
-174,198	-200,000	-0,024	-0,112
-173,183	718,497	0,045	-0,085
-172,169	556,102	-0,044	-0,075
-171,154	-31,272	-0,076	0,030
-170,139	470,057	0,094	0,150
-169,125	-141,927	0,115	-0,008
-168,110	72,907	-0,038	0,028
-167,096	-89,605	0,056	-0,012
-166,081	-101,123	0,097	0,017
-165,066	500,886	-0,019	-0,031
-164,052	-36,364	0,069	-0,026
-163,037	-100,409	0,069	0,012
-162,023	45,944	0,138	0,090
-161,008	-200,000	0,042	0,237
-159,993	-97,338	-0,124	-0,023
-158,979	481,066	-0,026	-0,041
-157,964	57,537	-0,032	-0,022
-156,950	-139,243	0,076	-0,006
-155,935	14,773	-0,083	-0,046
-154,920	-74,039	0,122	0,031
-153,906	20,279	0,045	0,026
-152,891	-33,866	0,035	-0,013
-151,877	70,067	0,068	0,050
-150,862	-200,000	-0,012	-0,090
-149,847	-66,768	-0,060	0,017
-148,833	-200,000	-0,014	0,095
-147,818	552,026	0,007	-0,012
-146,804	800,000	0,009	-0,028
-145,789	-67,999	0,123	0,034
-144,775	70,966	-0,042	-0,030
-143,760	-200,000	-0,010	-0,055
-142,745	-48,360	-0,071	0,024
-141,731	719,018	-0,018	0,034
-140,716	136,213	0,092	0,085
-139,702	166,580	-0,040	0,040
-138,687	30,019	0,083	0,050
-137,672	332,352	-0,094	0,129
-136,658	10,462	-0,201	-0,108
-135,643	-107,091	-0,087	0,013
-134,629	-200,000	0,002	-0,112
-133,614	45,173	0,114	0,074
-132,599	800,000	0,026	0,058
-131,585	800,000	-0,036	0,080
-130,570	-168,798	0,116	-0,003
-129,556	-169,953	-0,146	-0,004
-128,541	-200,000	0,004	-0,052
-127,526	-200,000	-0,006	-0,026
-126,512	-177,655	-0,115	0,002
-125,497	-200,000	0,020	0,124
-124,483	123,294	-0,016	0,015
-123,468	-200,000	0,007	-0,045
-122,453	390,694	0,050	-0,074
-121,439	418,061	0,053	-0,081
-120,424	381,606	-0,015	-0,022
-119,410	800,000	0,044	-0,113
-118,395	-137,211	0,073	0,006
-117,380	800,000	-0,011	-0,031
-116,366	-53,522	-0,136	0,044
-115,351	76,046	0,133	0,099
-114,337	-14,380	-0,072	0,033
-113,322	-72,665	0,048	0,012
-112,307	116,981	-0,055	-0,048
-111,293	800,000	0,025	0,064
-110,278	71,213	0,009	-0,007
-109,264	800,000	-0,031	0,072
-108,249	259,412	0,068	0,083
-107,234	-165,641	-0,110	-0,003
-106,220	46,739	-0,050	-0,033
-105,205	-200,000	0,052	0,179
-104,191	-200,000	-0,002	-0,078
-103,176	-41,794	-0,069	0,025
-102,162	-6,884	0,089	-0,043
-101,147	266,758	-0,051	-0,063
-100,132	-28,675	-0,095	-0,039
-99,118	495,453	0,089	0,146
-98,103	63,470	0,115	-0,081
-97,089	-200,000	0,021	-0,097
-96,074	-200,000	-0,060	0,191
-95,059	-200,000	0,034	0,121
-94,045	40,020	0,072	-0,045
-93,030	800,000	-0,021	-0,052
-92,016	160,148	-0,091	0,089
-91,001	85,297	-0,071	-0,055
-89,986	-200,000	-0,011	0,048
-88,972	-119,924	0,127	0,015
-87,957	68,165	-0,148	-0,107
-86,943	-200,000	-0,000	-0,075
-85,928	625,935	-0,076	-0,137
-84,913	-11,136	-0,013	-0,006
-83,899	183,374	0,064	-0,067
-82,884	-81,221	-0,085	-0,020
-81,870	-200,000	0,024	0,148
-80,855	-55,558	0,149	0,047
-79,840	-13,084	-0,125	-0,057
-78,826	67,086	0,063	0,045
-77,811	211,545	-0,056	-0,062
-76,797	390,750	-0,030	0,044
-75,782	292,599	-0,039	0,050
-74,767	800,000	0,014	0,032
-73,753	1,058	-0,094	-0,048
-72,738	426,420	0,088	-0,134
-71,724	-1,730	-0,124	-0,061
-70,709	130,463	-0,098	-0,088
-69,694	800,000	-0,020	0,062
-68,680	52,931	0,052	-0,035
-67,665	-34,924	0,120	0,046
-66,651	-86,754	-0,102	-0,022
-65,636	54,221	-0,102	0,069
-64,622	217,554	0,011	0,013
-63,607	-152,748	0,096	0,005
-62,592	481,088	-0,042	0,067
-61,578	800,000	-0,039	0,109
-60,563	-127,531	0,073	0,007
-59,549	-200,000	0,005	-0,047
-58,534	64,931	-2,187	-1,555
-57,519	700,443	-0,974	-1,817
-56,505	-200,000	-0,478	-4,648
-55,490	599,725	1,031	1,812
-54,476	800,000	5,296	11,362
-53,461	-200,000	22,411	345,768
-52,446	800,000	757,739	2296,617
-51,432	534,908	1645,605	2762,290
-50,417	68,226	1644,443	1186,238
-49,403	15,801	1521,378	841,691
-48,388	10,000	1447,015	772,679
-47,373	19,173	1439,701	812,472
-46,359	13,460	1428,022	778,877
-45,344	8,308	1424,090	752,330
-44,330	8,233	1422,124	750,907
-43,315	8,171	1420,452	749,701
-42,300	8,206	1418,397	748,754
-41,286	8,250	1417,211	748,307
-40,271	8,187	1416,176	747,432
-39,257	8,211	1414,799	746,788
-38,242	8,262	1413,716	746,429
-37,227	8,252	1412,640	745,785
-36,213	8,217	1411,388	744,925
-35,198	8,226	1410,243	744,338
-34,184	8,233	1409,315	743,849
-33,169	8,168	1407,856	742,745
-32,154	8,182	1407,005	742,331
-31,140	8,200	1405,635	741,665
-30,125	8,219	1404,464	741,105
-29,111	8,165	1403,599	740,367
-28,096	8,203	1402,299	739,829
-27,082	8,163	1400,934	738,892
-26,067	8,109	1399,910	738,075
-25,052	8,159	1398,830	737,708
-24,038	8,179	1397,798	737,228
-23,023	8,184	1397,096	736,851
-22,009	8,098	1395,889	735,784
-20,994	8,164	1394,884	735,530
-19,979	8,151	1393,999	734,976
-18,965	8,090	1393,139	734,212
-17,950	8,061	1392,233	733,571
-16,936	8,116	1391,206	733,254
-15,921	8,047	1390,162	732,355
-14,906	8,067	1389,451	732,043
-13,892	8,138	1388,102	731,632
-12,877	8,052	1387,718	731,003
-11,863	8,050	1386,781	730,474
-10,848	8,053	1385,967	730,027
-9,833	8,017	1384,995	729,322
-8,819	7,977	1384,130	728,652
-7,804	7,985	1383,139	728,138
-6,790	8,012	1381,956	727,611
-5,775	7,986	1381,042	726,985
-4,760	7,995	1380,099	726,498
-3,746	8,031	1379,335	726,233
-2,731	8,029	1378,290	725,646
-1,717	7,992	1377,524	725,041
-0,702	7,973	1375,846	724,045
0,313	11,984	1286,539	695,220
1,327	27,807	678,323	401,856
2,342	42,796	116,850	74,886
3,356	0,145	16,534	8,280
4,371	-2,240	3,899	1,921
5,386	11,547	1,287	0,693
6,400	800,000	0,285	0,625
7,415	-46,686	-0,244	-0,084
8,429	6,005	-0,317	-0,165
9,444	106,679	-0,331	-0,277
10,459	3,885	-0,351	-0,180
11,473	218,536	-0,179	-0,201
12,488	86,028	-0,295	-0,228
13,502	30,896	-0,295	-0,178
14,517	5,033	-0,334	-0,173
15,531	174,124	-0,293	-0,298
16,546	88,572	-0,362	-0,283
17,561	13,269	-0,416	-0,226
18,575	8,708	-0,278	-0,147
19,590	71,182	-0,207	-0,151
20,604	81,711	-0,224	-0,170
21,619	121,935	-0,376	-0,330
22,634	194,867	-0,354	-0,378
23,648	-27,802	-0,490	-0,199
24,663	-14,456	-0,351	-0,158
25,677	175,847	-0,250	-0,255
26,692	-31,345	-0,337	-0,133
27,707	103,422	-0,312	-0,257
28,721	107,447	-0,260	-0,217
29,736	1,653	-0,293	-0,148
30,750	66,370	-0,382	-0,273
31,765	-23,340	-0,455	-0,192
32,780	167,079	-0,369	-0,369
33,794	110,511	-0,274	-0,232
34,809	107,756	-0,334	-0,279
35,823	162,835	-0,243	-0,240
36,838	32,927	-0,447	-0,271
37,853	-25,158	-0,359	-0,149
38,867	192,747	-0,356	-0,379
39,882	67,003	-0,335	-0,240
40,896	26,296	-0,340	-0,199
41,911	37,011	-0,211	-0,131
42,926	127,800	-0,276	-0,246
43,940	213,822	-0,374	-0,416
44,955	800,000	-0,157	-0,393
45,969	78,186	-0,431	-0,322
46,984	139,052	-0,193	-0,178
47,999	-34,446	-0,387	-0,148
49,013	81,109	-0,299	-0,226
50,028	80,865	-0,333	-0,252
51,042	154,295	-0,280	-0,270
52,057	14,052	-0,334	-0,182
53,071	91,606	-0,228	-0,180
54,086	85,902	-0,399	-0,308
55,101	118,621	-0,270	-0,234
56,115	-53,476	-0,408	-0,130
57,130	-153,452	-0,376	-0,018
58,144	-17,859	-0,322	-0,141
59,159	96,712	-0,334	-0,268
60,174	-16,974	-0,482	-0,213
61,188	22,297	-0,348	-0,199
62,203	88,717	-0,280	-0,218
63,217	390,460	-0,180	-0,262
64,232	65,540	-0,286	-0,203
65,247	43,826	-0,351	-0,225
66,261	55,139	-0,316	-0,214
67,276	67,122	-0,231	-0,165
68,290	44,168	-0,341	-0,219
69,305	103,723	-0,298	-0,245
70,320	-62,471	-0,205	-0,059
71,334	-50,421	-0,217	-0,071
72,349	34,166	-0,350	-0,213
73,363	243,694	-0,325	-0,382
74,378	5,934	-0,410	-0,212
75,393	318,790	-0,147	-0,196
76,407	-47,162	-0,278	-0,094
77,422	36,600	-0,209	-0,129
78,436	83,669	-0,269	-0,205
79,451	120,404	-0,259	-0,225
80,466	8,342	-0,272	-0,142
81,480	21,140	-0,320	-0,181
82,495	-53,373	-0,370	-0,118
83,509	-71,359	-0,169	-0,044
84,524	11,339	-0,305	-0,163
85,539	33,962	-0,195	-0,118
86,553	-32,792	-0,343	-0,133
87,568	172,557	-0,286	-0,289
88,582	118,956	-0,300	-0,260
89,597	61,731	-0,307	-0,214
90,611	-2,518	-0,308	-0,150
91,626	-128,202	-0,134	-0,013
92,641	142,157	-0,087	-0,081
93,655	235,433	-0,276	-0,319
94,670	571,263	-0,155	-0,265
95,684	213,616	-0,303	-0,335
96,699	61,286	-0,356	-0,247
97,714	-15,146	-0,256	-0,114
98,728	-33,951	-0,218	-0,083
99,743	800,000	-0,088	-0,253
100,757	-153,624	-0,285	-0,014
101,772	125,563	-0,248	-0,219
102,787	-25,864	-0,282	-0,116
103,801	122,291	-0,157	-0,137
104,816	-146,516	-0,370	-0,022
105,830	19,334	-0,351	-0,196
106,845	85,945	-0,263	-0,202
107,860	1,857	-0,285	-0,143
108,874	210,583	-0,233	-0,256
109,889	67,636	-0,243	-0,173
110,903	360,576	-0,156	-0,219
111,918	-35,080	-0,379	-0,143
112,933	300,043	-0,184	-0,238
113,947	72,996	-0,203	-0,148
114,962	-117,722	-0,382	-0,047
115,976	22,343	-0,293	-0,166
116,991	40,730	-0,265	-0,167
118,006	-70,860	-0,344	-0,090
119,020	58,788	-0,280	-0,192
120,035	109,725	-0,263	-0,220
121,049	-65,708	-0,211	-0,059
122,064	24,092	-0,282	-0,162
123,079	117,166	-0,220	-0,189
124,093	-16,364	-0,380	-0,167
125,108	199,100	-0,220	-0,235
126,122	92,932	-0,246	-0,194
127,137	-34,286	-0,246	-0,094
128,151	-102,411	-0,245	-0,040
129,166	57,735	-0,287	-0,196
130,181	83,070	-0,281	-0,213
131,195	149,103	-0,266	-0,251
132,210	-17,838	-0,338	-0,147
133,224	81,216	-0,265	-0,199
134,239	149,972	-0,138	-0,131
135,254	252,135	-0,099	-0,118
136,268	258,187	-0,183	-0,220
137,283	99,649	-0,164	-0,132
138,297	800,000	-0,103	-0,252
139,312	289,374	-0,212	-0,268
140,327	146,028	-0,242	-0,226
141,341	168,102	-0,149	-0,148
142,356	-43,232	-0,267	-0,093
143,370	62,209	-0,271	-0,188
144,385	-3,744	-0,208	-0,100
145,400	-129,294	-0,345	-0,033
146,414	193,140	-0,278	-0,293
147,429	158,642	-0,247	-0,239
148,443	57,811	-0,310	-0,211
149,458	69,863	-0,059	-0,042
150,473	35,835	-0,247	-0,151
151,487	-32,476	-0,273	-0,105
152,502	174,375	-0,185	-0,186
153,516	79,001	-0,268	-0,200
154,531	304,025	-0,138	-0,178
155,546	59,999	-0,412	-0,283
156,560	170,498	-0,203	-0,202
157,575	61,899	-0,184	-0,127
158,589	312,057	-0,124	-0,163
159,604	-104,249	-0,337	-0,054
160,619	-0,325	-0,389	-0,192
161,633	327,366	-0,167	-0,223
162,648	193,423	-0,291	-0,306
163,662	51,092	-0,250	-0,164
164,677	-108,755	-0,324	-0,048
165,692	123,736	-0,151	-0,131
166,706	-6,107	-0,362	-0,171
167,721	18,233	-0,177	-0,098
168,735	303,832	-0,189	-0,244
169,750	-200,000	-0,073	-0,253
170,764	562,395	-0,082	-0,139
171,779	117,156	-0,267	-0,228
172,794	360,057	-0,144	-0,200
173,808	800,000	-0,102	-0,217
174,823	212,113	-0,303	-0,332
175,837	-134,304	-0,239	-0,020
176,852	800,000	-0,091	-0,180
177,867	-98,347	-0,322	-0,057
178,881	54,247	-0,157	-0,105
179,896	-0,088	-0,225	-0,111
180,910	121,891	-0,233	-0,202
181,925	79,362	-0,305	-0,226
182,940	-10,563	-0,234	-0,107
183,954	60,838	-0,240	-0,165
184,969	92,626	-0,213	-0,166
185,983	2,733	-0,186	-0,093
186,998	6,936	-0,210	-0,108
188,013	93,655	-0,157	-0,123
189,027	91,998	-0,167	-0,130
190,042	-69,004	-0,241	-0,064
191,056	-52,556	-0,252	-0,080
192,071	669,967	-0,060	-0,109
193,086	-53,421	-0,107	-0,034
194,100	-108,922	-0,218	-0,032
195,115	191,400	-0,168	-0,176
196,129	319,939	-0,215	-0,284
197,144	134,082	-0,271	-0,243
198,159	194,919	-0,191	-0,201
199,173	397,998	-0,122	-0,178
200,188	-22,862	-0,184	-0,077
201,202	-57,882	-0,066	0,020
202,217	31,407	-0,221	-0,131
203,232	-139,120	-0,182	-0,013
204,246	689,560	-0,138	-0,250
205,261	-8,797	-0,226	-0,105
206,275	101,853	-0,210	-0,169
207,290	-32,579	-0,263	-0,101
208,304	-30,165	-0,148	0,058
209,319	5,945	-0,228	-0,116
210,334	358,461	-0,149	-0,206
211,348	112,589	-0,180	-0,151
212,363	720,786	-0,156	-0,289
213,377	-200,000	-0,048	-0,202
214,392	65,387	-0,191	-0,133
215,407	84,463	-0,185	-0,140
216,421	19,748	-0,103	0,057
217,436	-32,202	-0,125	-0,048
218,450	255,188	-0,201	-0,239
219,465	800,000	-0,061	-0,176
220,480	-0,038	-0,283	-0,139
221,494	83,547	-0,058	-0,044
222,509	2,186	-0,166	-0,083
223,523	278,356	-0,123	-0,151
224,538	41,397	-0,116	-0,073
225,553	800,000	-0,062	-0,121
226,567	58,159	-0,259	-0,175
227,582	196,452	-0,187	-0,197
228,596	438,682	-0,106	-0,161
229,611	75,179	-0,188	-0,137
230,626	800,000	-0,046	-0,095
231,640	1,838	-0,202	-0,100
232,655	67,790	-0,236	-0,166
233,669	70,998	-0,253	-0,181
234,684	169,684	-0,203	-0,201
235,699	146,032	-0,159	-0,147
236,713	102,778	-0,134	-0,108
237,728	-30,716	-0,217	-0,085
238,742	-60,342	-0,147	-0,043
239,757	74,884	-0,274	-0,199
240,772	58,942	-0,240	-0,162
241,786	97,372	-0,160	-0,127
242,801	38,873	-0,182	-0,112
243,815	130,786	-0,219	-0,193
244,830	413,024	-0,071	-0,105
245,844	-200,000	0,011	-0,109
246,859	288,835	-0,177	-0,222
247,874	233,551	-0,107	-0,121
248,888	-20,883	-0,364	-0,153
249,903	800,000	-0,072	-0,151
250,917	-8,592	-0,221	-0,102
251,932	249,685	-0,117	-0,137
252,947	102,738	-0,169	-0,136
253,961	135,507	-0,186	-0,167
254,976	145,307	-0,063	-0,058
255,990	-8,075	-0,248	-0,115
257,005	149,794	-0,099	-0,092
258,020	-171,379	-0,123	-0,003
259,034	278,916	-0,114	-0,141
260,049	143,975	-0,174	-0,160
261,063	41,628	-0,146	-0,091
262,078	-130,290	-0,226	0,021
263,093	800,000	-0,111	-0,216
264,107	241,962	-0,103	-0,119
265,122	-169,412	-0,153	-0,004
266,136	4,484	-0,095	-0,048
267,151	21,194	-0,182	-0,101
268,166	-30,081	-0,152	-0,059
269,180	288,345	-0,148	-0,185
270,195	89,426	-0,132	-0,102
271,209	40,973	-0,291	-0,181
272,224	625,173	-0,026	-0,045
273,239	-61,723	-0,223	-0,064
274,253	391,727	-0,119	-0,170
275,268	-45,785	-0,235	-0,079
276,282	39,105	-0,216	-0,133
277,297	318,678	-0,102	-0,133
278,312	-200,000	-0,036	-0,190
279,326	148,236	-0,136	-0,126
280,341	-121,702	-0,149	-0,017
281,355	-141,765	-0,173	0,012
282,370	221,473	-0,146	-0,162
283,384	6,290	-0,246	-0,125
284,399	-106,028	-0,214	-0,033
285,414	92,381	-0,149	-0,115
286,428	-31,115	-0,254	-0,098
287,443	626,912	-0,072	-0,125
288,457	-51,320	-0,069	-0,022
289,472	46,075	-0,177	-0,113
290,487	-90,735	-0,215	-0,042
291,501	-68,836	-0,340	-0,090
292,516	7,689	-0,219	-0,112
293,530	149,387	-0,135	-0,126
294,545	-161,838	-0,128	-0,004
295,560	-39,969	-0,187	0,067
296,574	-30,449	-0,094	-0,037
297,589	202,935	-0,110	-0,117
298,603	47,813	-0,122	-0,078
299,618	800,000	-0,090	-0,186
300,633	65,589	-0,149	-0,104
301,647	-20,542	-0,172	-0,072
302,662	25,608	-0,086	-0,049
303,676	241,244	-0,095	-0,110
304,691	37,804	-0,259	-0,157
305,706	-7,371	-0,192	-0,089
306,720	84,529	-0,189	-0,142
307,735	743,731	-0,095	-0,177
308,749	-82,469	-0,063	0,014
309,764	800,000	-0,054	0,105
310,779	86,464	-0,165	-0,125
311,793	-114,847	-0,271	-0,035
312,808	-109,381	-0,178	-0,026
313,822	193,215	-0,234	-0,243
314,837	-5,158	-0,099	-0,047
315,852	-7,707	-0,074	-0,034
316,866	213,080	-0,045	-0,048
317,881	-200,000	0,039	-0,140
318,895	339,023	-0,100	-0,134
319,910	-74,740	-0,216	-0,053
320,925	680,010	-0,126	-0,227
321,939	198,985	-0,098	-0,103
322,954	800,000	-0,055	-0,108
323,968	-169,041	-0,260	-0,006
324,983	40,918	-0,223	-0,137
325,997	-44,470	-0,240	-0,082
327,012	352,728	-0,169	-0,231
328,027	-82,064	-0,200	0,044
329,041	148,154	-0,213	-0,197
330,056	228,221	-0,104	-0,117
331,070	32,718	-0,122	0,072
332,085	-125,636	-0,112	-0,011
333,100	111,623	-0,106	-0,087
334,114	-128,755	-0,190	0,018
335,129	54,310	-0,112	-0,074
336,143	-11,134	-0,085	-0,038
337,158	-200,000	0,012	-0,061
338,173	402,464	-0,092	-0,133
339,187	-96,547	-0,143	-0,026
340,202	115,979	-0,170	-0,142
341,216	76,588	-0,123	-0,089
342,231	52,916	0,030	-0,020
343,246	800,000	-0,046	-0,134
344,260	56,889	-0,117	-0,078
345,275	711,185	-0,051	-0,093
346,289	486,591	-0,053	-0,083
347,304	800,000	-0,024	-0,072
348,319	269,509	-0,097	-0,116
349,333	-39,468	-0,185	-0,066
350,348	90,401	-0,198	-0,151
351,362	116,391	-0,198	-0,166
352,377	139,377	-0,074	0,067
353,392	-162,106	-0,149	-0,005
354,406	-20,271	-0,151	-0,063
355,421	207,625	1311,121	1400,157
356,435	159,727	1471,342	1400,599
