DTS Sentinel unit serial number:	SN410029Multiplexer serial number:	ORYXHardware model number:	OX2-SRSoftware version number:	ORYX F/W v4,00 Oryx Data Collector v3.7.2.0data status	okinstallation	B3 Nyhavnadifferential loss correction	single-endedforward channel	channel 1reverse channel	N/Adate	2023/12/02time	11:07:30forward acquisition time	300,00reverse acquisition time	0,00gamma	499,1914k internal	0,3197k external	0,3197temperature offset calibration	1,0000default loss term (dB/km)	0,3820temperature slope calibration	1,0000multiplexer offset coefficient	1,0000multiplexer slope coefficient	1,0000fibre end	0,00T internal ref (°C)	14,20T ext. ref 1 (°C)	-1,35T ext. ref 2 (°C)	-1,39length (m)	temperature (°C)	Stokes	anti-Stokes-744,400	141,281	-0,146	-0,141
-743,385	-200,000	0,052	0,241
-742,371	783,673	-0,113	-0,227
-741,356	-200,000	0,009	0,299
-740,342	104,694	-0,112	-0,096
-739,327	-200,000	-0,002	0,456
-738,312	100,136	-0,374	-0,316
-737,298	-200,000	0,026	0,193
-736,283	725,758	-0,143	-0,278
-735,269	-200,000	-0,020	0,363
-734,254	97,798	-0,272	-0,228
-733,239	30,795	-0,195	0,121
-732,225	61,308	-0,205	-0,148
-731,210	12,496	0,096	0,054
-730,196	440,894	-0,050	0,080
-729,181	593,809	-0,044	0,079
-728,167	-5,343	-0,060	-0,030
-727,152	-200,000	0,002	0,101
-726,137	-200,000	-0,010	-0,080
-725,123	-33,727	-0,120	-0,048
-724,108	4,182	-0,106	-0,056
-723,094	66,458	-0,114	-0,084
-722,079	408,416	-0,054	-0,083
-721,064	-200,000	0,004	-0,075
-720,050	-30,100	-0,047	-0,019
-719,035	208,552	-0,031	0,035
-718,021	-200,000	0,020	-0,086
-717,006	110,999	-0,029	-0,025
-715,991	-200,000	-0,003	-0,098
-714,977	347,567	-0,022	0,032
-713,962	-200,000	0,007	-0,025
-712,948	-33,182	0,072	-0,029
-711,933	-200,000	0,005	-0,082
-710,918	-126,065	0,113	-0,012
-709,904	436,746	0,089	-0,141
-708,889	727,382	-0,026	0,051
-707,875	17,089	-0,043	0,025
-706,860	27,972	0,119	0,073
-705,845	208,285	-0,066	-0,075
-704,831	-200,000	-0,012	-0,065
-703,816	631,918	-0,028	0,053
-702,802	262,203	-0,056	0,070
-701,787	266,216	-0,060	-0,077
-700,772	330,919	-0,067	-0,094
-699,758	800,000	0,061	-0,124
-698,743	-176,292	0,082	-0,002
-697,729	-20,456	-0,030	-0,013
-696,714	-37,720	0,154	0,059
-695,699	-61,878	-0,086	0,026
-694,685	23,266	-0,164	-0,098
-693,670	257,665	-0,023	0,029
-692,656	-76,386	0,062	0,016
-691,641	-200,000	0,007	0,069
-690,627	800,000	-0,026	-0,059
-689,612	304,416	-0,039	0,052
-688,597	176,582	0,012	-0,012
-687,583	17,539	-0,095	-0,055
-686,568	551,128	-0,053	-0,093
-685,554	-191,282	0,079	0,001
-684,539	-175,038	0,088	-0,002
-683,524	-200,000	0,013	0,043
-682,510	-200,000	-0,004	0,125
-681,495	800,000	-0,032	0,077
-680,481	-19,119	-0,071	-0,032
-679,466	-87,416	-0,050	0,011
-678,451	800,000	-0,017	-0,043
-677,437	50,679	-0,111	0,076
-676,422	11,454	0,055	0,030
-675,408	605,267	0,074	0,134
-674,393	-200,000	-0,016	0,115
-673,378	704,125	-0,078	-0,150
-672,364	37,320	-0,018	0,012
-671,349	-51,447	0,128	0,043
-670,335	248,634	-0,050	0,062
-669,320	439,843	-0,050	-0,080
-668,305	175,814	0,077	0,082
-667,291	800,000	-0,032	-0,090
-666,276	-22,063	-0,071	-0,031
-665,262	63,079	-0,189	-0,137
-664,247	-89,492	0,138	0,029
-663,232	27,802	-0,074	0,045
-662,218	297,695	0,043	0,057
-661,203	-32,394	0,133	0,054
-660,189	272,992	-0,086	0,111
-659,174	-200,000	0,016	-0,104
-658,159	162,961	-0,118	0,120
-657,145	252,872	0,088	-0,109
-656,130	44,900	0,062	-0,041
-655,116	-200,000	0,014	0,073
-654,101	778,517	-0,046	-0,091
-653,086	766,314	0,078	-0,155
-652,072	-98,483	-0,102	-0,019
-651,057	-5,307	0,051	-0,025
-650,043	480,191	0,036	-0,060
-649,028	-116,100	-0,109	0,014
-648,014	-118,113	0,083	0,011
-646,999	-200,000	0,000	-0,024
-645,984	254,448	-0,080	-0,100
-644,970	800,000	0,090	-0,209
-643,955	364,531	-0,042	-0,061
-642,941	621,211	-0,094	-0,173
-641,926	800,000	0,065	-0,139
-640,911	81,249	0,042	0,033
-639,897	-123,273	0,103	0,012
-638,882	216,282	-0,040	0,047
-637,868	-119,077	-0,112	0,014
-636,853	145,830	-0,050	-0,049
-635,838	-160,790	-0,112	-0,004
-634,824	4,319	0,144	0,076
-633,809	571,510	-0,030	-0,053
-632,795	-200,000	0,008	0,106
-631,780	-87,614	0,139	0,030
-630,765	-55,403	0,087	-0,028
-629,751	800,000	0,035	-0,072
-628,736	17,411	-0,105	-0,061
-627,722	18,648	0,061	-0,036
-626,707	-131,978	0,095	0,009
-625,692	373,656	-0,011	0,016
-624,678	327,532	0,028	0,040
-623,663	187,783	0,061	0,066
-622,649	-38,734	-0,172	-0,066
-621,634	278,859	-0,112	-0,145
-620,619	-200,000	0,023	-0,085
-619,605	-6,882	0,094	0,046
-618,590	370,399	-0,024	-0,035
-617,576	-200,000	-0,008	0,076
-616,561	-122,056	0,079	-0,009
-615,546	-18,982	0,030	-0,014
-614,532	-66,595	-0,182	0,052
-613,517	13,647	0,154	-0,086
-612,503	13,518	0,081	-0,045
-611,488	-200,000	-0,006	0,099
-610,474	333,919	-0,055	0,078
-609,459	250,117	-0,040	0,049
-608,444	120,346	-0,068	-0,062
-607,430	-200,000	0,003	-0,042
-606,415	-200,000	-0,022	-0,115
-605,401	-200,000	0,005	-0,037
-604,386	-37,720	0,070	0,027
-603,371	351,880	0,040	-0,058
-602,357	-100,676	0,100	-0,018
-601,342	-200,000	0,005	0,029
-600,328	-200,000	-0,016	-0,075
-599,313	187,895	0,097	-0,105
-598,298	64,565	-0,105	0,076
-597,284	-148,944	0,126	-0,007
-596,269	73,181	0,080	-0,060
-595,255	-20,979	0,086	-0,038
-594,240	-0,116	-0,079	-0,041
-593,225	39,165	-0,093	-0,060
-592,211	800,000	0,043	-0,103
-591,196	-200,000	0,009	-0,031
-590,182	-65,815	0,171	0,049
-589,167	-84,896	0,103	0,023
-588,152	249,979	-0,101	-0,124
-587,138	162,273	0,077	0,078
-586,123	800,000	-0,043	-0,118
-585,109	-88,631	-0,074	-0,016
-584,094	63,347	-0,066	-0,048
-583,079	-14,697	0,028	0,013
-582,065	-120,740	0,123	-0,015
-581,050	-200,000	-0,002	0,058
-580,036	-200,000	-0,005	-0,027
-579,021	105,660	-0,107	-0,091
-578,006	-91,923	0,034	-0,007
-576,992	-73,981	-0,093	-0,024
-575,977	-171,106	0,100	0,002
-574,963	0,970	0,159	0,082
-573,948	702,530	0,008	0,016
-572,934	-4,179	-0,119	-0,060
-571,919	54,557	-0,096	-0,066
-570,904	-200,000	-0,033	-0,165
-569,890	-154,710	0,023	0,001
-568,875	5,876	0,069	-0,037
-567,861	132,909	-0,138	0,128
-566,846	-85,505	-0,048	0,011
-565,831	79,143	0,076	-0,059
-564,817	-200,000	0,007	-0,031
-563,802	173,316	-0,075	-0,078
-562,788	334,989	-0,028	-0,040
-561,773	-140,289	0,097	-0,007
-560,758	-200,000	-0,007	0,071
-559,744	800,000	0,047	-0,141
-558,729	-140,832	-0,193	0,014
-557,715	12,533	-0,163	-0,090
-556,700	-91,146	0,108	0,022
-555,685	-43,766	0,115	-0,042
-554,671	-200,000	-0,028	-0,120
-553,656	22,345	-0,062	-0,036
-552,642	730,941	-0,061	0,118
-551,627	-177,135	0,087	0,002
-550,612	-74,693	-0,070	0,018
-549,598	14,086	-0,064	0,036
-548,583	-123,939	-0,107	-0,012
-547,569	800,000	0,056	-0,123
-546,554	-102,378	-0,069	-0,012
-545,539	-159,251	0,139	0,006
-544,525	-200,000	0,002	0,082
-543,510	88,966	0,040	-0,032
-542,496	-200,000	-0,021	-0,080
-541,481	-53,961	0,059	-0,019
-540,466	107,935	-0,099	-0,085
-539,452	-200,000	0,007	-0,054
-538,437	0,005	-0,055	-0,028
-537,423	-99,936	-0,043	-0,008
-536,408	-200,000	-0,002	0,042
-535,393	-200,000	-0,044	-0,176
-534,379	136,849	-0,017	0,017
-533,364	-71,388	0,129	-0,035
-532,350	-166,292	0,105	0,003
-531,335	19,919	0,046	-0,027
-530,321	-200,000	0,005	-0,111
-529,306	-70,176	-0,124	-0,034
-528,291	394,310	0,038	-0,057
-527,277	39,291	-0,049	0,031
-526,262	765,122	-0,030	-0,058
-525,248	-119,689	-0,051	-0,006
-524,233	32,655	0,106	0,066
-523,218	-11,868	0,128	0,060
-522,204	139,877	-0,067	-0,064
-521,189	800,000	-0,012	0,025
-520,175	-200,000	0,008	-0,092
-519,160	-3,152	-0,032	-0,016
-518,145	318,755	-0,013	-0,017
-517,131	800,000	0,027	0,067
-516,116	394,824	0,094	0,141
-515,102	554,667	-0,051	0,089
-514,087	-200,000	-0,004	0,025
-513,072	180,084	-0,062	0,065
-512,058	-200,000	0,001	0,023
-511,043	-200,000	0,031	0,103
-510,029	-73,592	0,043	0,011
-509,014	-200,000	0,023	-0,103
-507,999	-129,560	0,071	-0,007
-506,985	545,755	0,035	-0,061
-505,970	-42,037	-0,108	-0,040
-504,956	-6,281	-0,063	0,031
-503,941	301,384	0,020	-0,027
-502,926	800,000	0,041	-0,125
-501,912	-128,384	-0,119	0,012
-500,897	323,335	-0,031	0,043
-499,883	84,043	0,119	-0,093
-498,868	800,000	-0,028	-0,081
-497,853	8,091	0,044	-0,024
-496,839	634,852	-0,047	-0,087
-495,824	11,935	0,011	0,006
-494,810	-200,000	0,023	0,083
-493,795	-200,000	-0,033	0,132
-492,781	-200,000	-0,053	-0,212
-491,766	138,198	-0,223	-0,211
-490,751	-200,000	-0,002	-0,072
-489,737	-137,697	0,083	-0,007
-488,722	-86,338	0,150	-0,033
-487,708	-200,000	0,028	0,097
-486,693	406,438	-0,068	0,104
-485,678	401,385	0,033	-0,050
-484,664	325,497	-0,171	-0,237
-483,649	-200,000	0,020	-0,084
-482,635	-38,051	0,028	0,011
-481,620	800,000	0,044	0,124
-480,605	72,118	-0,034	-0,025
-479,591	-148,402	-0,045	-0,003
-478,576	800,000	-0,024	-0,051
-477,562	33,976	0,031	-0,019
-476,547	-2,632	0,062	-0,031
-475,532	313,880	-0,081	0,111
-474,518	511,763	0,056	0,095
-473,503	530,206	0,069	0,118
-472,489	215,000	-0,049	0,056
-471,474	-200,000	-0,033	0,110
-470,459	-193,478	-0,156	-0,001
-469,445	-38,739	-0,097	-0,037
-468,430	169,957	-0,085	-0,087
-467,416	69,967	-0,024	-0,018
-466,401	800,000	-0,005	0,013
-465,386	800,000	-0,014	-0,031
-464,372	-200,000	0,001	-0,041
-463,357	-28,639	-0,075	-0,031
-462,343	-200,000	0,006	-0,077
-461,328	-200,000	0,016	-0,135
-460,313	33,245	0,030	-0,019
-459,299	69,171	0,043	-0,032
-458,284	800,000	-0,017	-0,037
-457,270	91,034	0,097	0,079
-456,255	265,525	0,044	-0,055
-455,241	-200,000	0,005	-0,117
-454,226	-200,000	0,008	-0,034
-453,211	572,874	-0,046	-0,081
-452,197	-158,580	0,047	-0,002
-451,182	358,335	0,068	0,098
-450,168	800,000	0,067	-0,207
-449,153	365,579	-0,112	-0,162
-448,138	-127,826	-0,122	0,012
-447,124	-140,440	0,028	0,002
-446,109	462,754	0,037	0,060
-445,095	-23,647	0,182	0,078
-444,080	-114,000	-0,091	0,013
-443,065	-191,019	0,090	-0,001
-442,051	327,321	-0,037	-0,051
-441,036	-200,000	0,028	-0,113
-440,022	-200,000	0,055	-0,193
-439,007	800,000	-0,010	0,029
-437,992	-136,877	-0,013	-0,001
-436,978	-126,224	0,160	0,017
-435,963	121,189	-0,031	-0,028
-434,949	800,000	-0,017	-0,037
-433,934	411,441	-0,044	0,067
-432,919	-48,764	0,030	-0,010
-431,905	3,918	0,023	0,012
-430,890	800,000	-0,009	-0,020
-429,876	-200,000	-0,006	0,157
-428,861	307,161	-0,027	0,036
-427,846	229,805	0,039	0,046
-426,832	28,471	-0,059	0,036
-425,817	5,473	-0,124	-0,065
-424,803	-125,506	-0,084	0,009
-423,788	800,000	-0,027	-0,059
-422,773	800,000	-0,045	-0,131
-421,759	-200,000	0,018	0,073
-420,744	222,312	0,043	0,050
-419,730	-200,000	0,000	-0,118
-418,715	178,357	0,053	0,056
-417,701	231,874	0,020	-0,023
-416,686	-200,000	0,003	-0,162
-415,671	-178,198	0,119	0,002
-414,657	28,335	0,024	-0,014
-413,642	-72,537	0,023	-0,006
-412,628	-89,571	-0,034	0,007
-411,613	-200,000	-0,009	0,032
-410,598	800,000	0,032	0,088
-409,584	800,000	0,057	0,161
-408,569	-14,082	0,110	0,051
-407,555	-60,168	0,063	0,019
-406,540	695,313	-0,098	0,185
-405,525	-114,686	-0,144	0,020
-404,511	121,111	0,090	-0,080
-403,496	-99,569	-0,027	0,005
-402,482	27,437	-0,138	0,083
-401,467	111,035	0,109	0,094
-400,452	-179,170	0,020	0,000
-399,438	800,000	-0,028	0,063
-398,423	-183,064	0,069	0,001
-397,409	-200,000	-0,019	-0,192
-396,394	210,640	0,038	0,043
-395,379	-90,310	-0,123	0,026
-394,365	62,479	-0,036	-0,026
-393,350	-200,000	0,023	0,094
-392,336	-28,567	0,163	0,067
-391,321	-5,757	-0,094	0,046
-390,306	800,000	0,034	0,092
-389,292	267,615	-0,063	0,079
-388,277	131,422	0,046	0,043
-387,263	50,286	-0,102	-0,069
-386,248	-129,552	0,251	0,025
-385,233	676,109	-0,028	-0,053
-384,219	-19,040	0,143	-0,064
-383,204	-136,758	-0,100	-0,008
-382,190	-99,847	-0,126	-0,022
-381,175	258,009	0,059	0,073
-380,160	-103,013	0,129	0,022
-379,146	-35,222	0,104	0,040
-378,131	-200,000	0,029	0,160
-377,117	-167,604	0,119	-0,003
-376,102	-200,000	0,017	0,120
-375,088	-31,214	0,045	0,018
-374,073	183,747	-0,093	-0,099
-373,058	492,627	-0,073	0,121
-372,044	290,715	-0,034	0,044
-371,029	-200,000	0,022	0,141
-370,015	-64,519	0,059	0,017
-369,000	-200,000	-0,020	-0,105
-367,985	-103,360	-0,032	0,005
-366,971	302,144	-0,021	-0,028
-365,956	-71,470	-0,097	0,026
-364,942	291,052	-0,035	0,046
-363,927	-46,281	0,074	0,026
-362,912	-200,000	0,001	0,105
-361,898	1,207	0,024	0,012
-360,883	146,996	-0,049	-0,047
-359,869	53,808	-0,044	-0,030
-358,854	-200,000	-0,001	0,024
-357,839	-200,000	0,005	0,105
-356,825	499,377	0,048	0,079
-355,810	-113,937	-0,085	-0,012
-354,796	287,668	0,033	0,042
-353,781	43,573	-0,064	0,042
-352,766	214,751	0,086	-0,098
-351,752	52,799	-0,036	0,024
-350,737	-200,000	-0,026	0,172
-349,723	-127,648	0,054	0,005
-348,708	169,288	0,030	0,031
-347,693	-200,000	-0,030	-0,124
-346,679	184,293	-0,130	0,138
-345,664	111,473	-0,153	-0,132
-344,650	365,529	-0,035	-0,050
-343,635	564,363	-0,070	-0,121
-342,620	-200,000	0,012	0,077
-341,606	-200,000	-0,025	0,081
-340,591	263,356	0,019	0,023
-339,577	-86,667	0,079	-0,017
-338,562	800,000	0,028	-0,069
-337,548	207,765	0,032	0,036
-336,533	-200,000	0,014	0,064
-335,518	-200,000	-0,001	0,123
-334,504	70,680	0,098	0,072
-333,489	75,743	-0,048	0,036
-332,475	119,885	-0,033	-0,029
-331,460	42,491	-0,079	0,051
-330,445	-200,000	0,018	0,078
-329,431	-45,382	0,075	0,026
-328,416	-200,000	0,018	0,113
-327,402	-200,000	-0,003	0,028
-326,387	-100,068	0,096	-0,017
-325,372	-200,000	0,002	-0,069
-324,358	181,182	0,050	0,052
-323,343	800,000	0,035	0,106
-322,329	417,962	0,039	-0,060
-321,314	-9,470	0,104	-0,049
-320,299	-200,000	0,000	-0,021
-319,285	-200,000	0,015	0,050
-318,270	-200,000	-0,018	0,125
-317,256	50,367	-0,120	-0,081
-316,241	80,366	0,037	0,028
-315,226	-52,111	0,058	-0,019
-314,212	-200,000	-0,067	0,000
-313,197	183,535	0,069	-0,073
-312,183	83,313	0,034	0,026
-311,168	168,719	0,051	-0,052
-310,153	-200,000	0,016	-0,109
-309,139	188,568	0,072	0,077
-308,124	671,629	-0,075	0,140
-307,110	-107,815	0,132	0,020
-306,095	-200,000	0,045	0,183
-305,080	-200,000	-0,022	0,111
-304,066	-49,411	-0,087	-0,030
-303,051	44,392	-0,172	-0,113
-302,037	439,178	0,067	0,105
-301,022	426,963	-0,070	-0,108
-300,008	-200,000	0,005	0,143
-298,993	95,932	0,104	0,085
-297,978	305,746	-0,056	0,074
-296,964	165,117	-0,113	0,114
-295,949	161,216	-0,078	0,079
-294,935	190,445	-0,061	-0,066
-293,920	-140,299	-0,140	-0,010
-292,905	167,149	-0,130	0,132
-291,891	54,534	0,132	0,091
-290,876	-200,000	0,038	-0,136
-289,862	800,000	0,020	-0,046
-288,847	-186,689	-0,065	0,001
-287,832	120,528	0,009	-0,008
-286,818	-200,000	0,003	-0,100
-285,803	-72,112	0,175	-0,046
-284,789	2,629	0,132	0,068
-283,774	-200,000	-0,007	0,126
-282,759	115,208	-0,048	-0,042
-281,745	800,000	0,036	-0,100
-280,730	50,236	0,011	-0,007
-279,716	20,134	0,087	-0,050
-278,701	-38,816	-0,042	0,016
-277,686	209,554	0,092	0,103
-276,672	800,000	0,008	0,021
-275,657	-200,000	0,083	0,000
-274,643	40,583	-0,137	0,088
-273,628	183,102	0,019	-0,021
-272,613	-200,000	-0,027	-0,109
-271,599	11,379	0,022	-0,012
-270,584	-37,945	0,081	0,030
-269,570	-200,000	-0,008	-0,049
-268,555	-26,060	-0,033	0,014
-267,540	668,800	-0,023	-0,043
-266,526	153,299	-0,040	-0,040
-265,511	800,000	-0,029	0,066
-264,497	-200,000	-0,009	0,037
-263,482	124,782	0,184	0,165
-262,467	800,000	-0,037	-0,097
-261,453	339,729	-0,070	0,098
-260,438	483,156	-0,036	-0,058
-259,424	-134,127	-0,112	0,010
-258,409	-200,000	0,010	0,082
-257,395	51,961	0,059	0,040
-256,380	127,036	0,060	0,054
-255,365	-59,615	0,142	0,043
-254,351	-200,000	-0,012	0,049
-253,336	800,000	0,044	0,094
-252,322	193,264	-0,068	-0,073
-251,307	310,163	-0,033	-0,044
-250,292	88,369	0,101	-0,080
-249,278	-200,000	0,026	0,086
-248,263	-89,509	0,028	-0,006
-247,249	-200,000	-0,023	-0,084
-246,234	-75,861	-0,082	-0,021
-245,219	800,000	0,038	-0,078
-244,205	489,517	-0,021	-0,035
-243,190	221,246	-0,079	-0,090
-242,176	800,000	-0,019	-0,054
-241,161	76,559	0,093	0,070
-240,146	92,610	-0,090	0,072
-239,132	-200,000	0,023	-0,073
-238,117	800,000	-0,032	0,086
-237,103	-200,000	-0,040	-0,140
-236,088	346,990	0,014	0,019
-235,073	57,443	0,036	0,025
-234,059	-200,000	0,009	0,094
-233,044	800,000	0,063	0,164
-232,030	-161,888	-0,106	0,004
-231,015	469,823	0,043	-0,070
-230,000	-200,000	0,009	0,074
-228,986	800,000	0,021	0,048
-227,971	-40,876	-0,074	-0,027
-226,957	-200,000	-0,032	0,117
-225,942	451,574	-0,018	-0,028
-224,927	-200,000	0,012	0,108
-223,913	-3,543	-0,048	-0,024
-222,898	-200,000	-0,003	-0,029
-221,884	-96,732	0,045	0,008
-220,869	138,317	-0,014	0,013
-219,855	-200,000	0,027	0,187
-218,840	800,000	-0,006	-0,014
-217,825	-200,000	-0,008	0,027
-216,811	-200,000	0,059	0,000
-215,796	151,845	-0,095	-0,093
-214,782	-200,000	-0,018	0,067
-213,767	-200,000	0,006	-0,025
-212,752	800,000	0,061	0,133
-211,738	-200,000	-0,028	0,223
-210,723	-200,000	0,040	0,137
-209,709	18,504	0,055	-0,031
-208,694	800,000	-0,069	-0,155
-207,679	-200,000	0,024	-0,089
-206,665	211,235	0,123	0,139
-205,650	-200,000	0,050	0,160
-204,636	-69,993	0,053	-0,014
-203,621	-139,170	-0,063	0,005
-202,606	249,250	0,010	-0,012
-201,592	-200,000	-0,008	0,057
-200,577	-200,000	0,013	-0,066
-199,563	-109,269	-0,160	0,024
-198,548	-14,413	-0,059	0,027
-197,533	800,000	0,063	0,151
-196,519	142,995	-0,066	-0,063
-195,504	-80,149	0,090	-0,021
-194,490	127,752	-0,031	0,028
-193,475	134,876	0,032	0,030
-192,460	-69,986	-0,049	0,013
-191,446	-200,000	0,030	0,099
-190,431	-200,000	-0,020	0,087
-189,417	-200,000	0,013	0,118
-188,402	-45,571	-0,068	0,024
-187,387	800,000	-0,066	-0,207
-186,373	2,082	0,034	0,017
-185,358	329,376	0,052	0,071
-184,344	578,708	-0,023	0,041
-183,329	-139,261	-0,012	-0,001
-182,315	-21,359	-0,060	-0,026
-181,300	-133,268	-0,044	-0,004
-180,285	800,000	-0,074	0,148
-179,271	-200,000	-0,012	0,050
-178,256	98,919	0,051	-0,042
-177,242	-47,360	0,085	0,029
-176,227	-126,224	-0,081	0,009
-175,212	-69,630	0,099	0,027
-174,198	800,000	0,052	-0,107
-173,183	147,546	-0,037	-0,036
-172,169	-46,406	-0,161	-0,056
-171,154	-200,000	0,001	-0,112
-170,139	298,194	-0,061	0,081
-169,125	-43,945	0,133	-0,048
-168,110	133,362	0,025	0,023
-167,096	26,414	-0,058	-0,035
-166,081	72,419	-0,042	0,031
-165,066	-200,000	0,015	-0,079
-164,052	-200,000	0,009	-0,178
-163,037	-63,165	-0,084	0,025
-162,023	-116,454	-0,127	0,017
-161,008	-200,000	0,015	0,073
-159,993	-200,000	-0,002	0,014
-158,979	800,000	-0,016	0,036
-157,964	-200,000	-0,024	-0,136
-156,950	-50,933	-0,120	0,040
-155,935	-140,437	0,101	0,007
-154,920	-200,000	-0,018	-0,080
-153,906	535,435	-0,024	0,040
-152,891	-200,000	-0,005	-0,045
-151,877	140,507	-0,078	-0,074
-150,862	800,000	-0,028	-0,058
-149,847	207,100	-0,065	-0,072
-148,833	266,044	-0,072	-0,090
-147,818	82,684	-0,033	0,026
-146,804	800,000	-0,035	0,078
-145,789	112,018	0,081	-0,070
-144,775	-200,000	0,023	-0,149
-143,760	800,000	-0,039	-0,117
-142,745	790,125	0,032	-0,063
-141,731	37,783	-0,102	0,064
-140,716	-93,825	0,056	0,011
-139,702	69,023	0,149	0,109
-138,687	149,156	0,148	0,143
-137,672	-16,378	0,083	-0,037
-136,658	-85,892	-0,064	0,014
-135,643	302,901	-0,084	-0,111
-134,629	-74,647	0,114	-0,029
-133,614	800,000	0,092	-0,233
-132,599	-200,000	0,029	-0,099
-131,585	289,923	0,055	0,071
-130,570	34,012	-0,093	0,058
-129,556	-200,000	0,014	0,058
-128,541	76,463	0,086	-0,064
-127,526	785,978	0,019	-0,037
-126,512	-200,000	0,003	0,057
-125,497	81,216	-0,007	0,005
-124,483	-47,788	0,133	0,045
-123,468	50,739	0,054	0,037
-122,453	-141,506	-0,101	-0,007
-121,439	134,132	0,047	0,043
-120,424	-200,000	0,004	-0,030
-119,410	252,979	-0,030	0,036
-118,395	45,661	0,135	0,089
-117,380	800,000	0,029	0,083
-116,366	70,761	-0,031	-0,023
-115,351	189,986	-0,022	0,023
-114,337	-8,750	-0,068	-0,032
-113,322	-37,593	0,094	-0,035
-112,307	-87,752	0,045	0,009
-111,293	-176,012	0,134	-0,002
-110,278	91,528	0,053	0,042
-109,264	-200,000	0,021	0,133
-108,249	170,843	-0,051	0,052
-107,234	-15,042	-0,100	-0,045
-106,220	-200,000	-0,012	-0,155
-105,205	33,781	0,173	0,107
-104,191	556,351	0,022	0,037
-103,176	-115,930	0,053	-0,007
-102,162	765,910	-0,055	0,107
-101,147	291,632	0,041	-0,054
-100,132	131,485	-0,124	0,113
-99,118	277,005	0,015	0,019
-98,103	329,244	0,013	-0,017
-97,089	-200,000	-0,009	-0,035
-96,074	800,000	-0,032	0,079
-95,059	349,350	-0,031	-0,043
-94,045	800,000	-0,047	-0,106
-93,030	-200,000	0,016	-0,056
-92,016	97,497	0,096	-0,078
-91,001	-200,000	0,009	-0,094
-89,986	98,966	-0,050	-0,041
-88,972	-200,000	-0,009	0,030
-87,957	40,681	0,076	-0,049
-86,943	-20,819	-0,079	0,034
-85,928	9,309	0,006	-0,003
-84,913	52,070	-0,129	-0,087
-83,899	270,504	0,065	0,081
-82,884	-134,233	0,094	0,008
-81,870	800,000	0,033	0,066
-80,855	105,891	0,036	0,031
-79,840	84,618	0,120	-0,094
-78,826	489,119	0,017	0,028
-77,811	182,964	-0,085	-0,089
-76,797	800,000	0,077	-0,203
-75,782	-200,000	-0,001	-0,014
-74,767	800,000	-0,027	-0,054
-73,753	251,438	0,046	-0,056
-72,738	800,000	-0,066	-0,176
-71,724	800,000	0,062	-0,129
-70,709	251,089	-0,066	-0,080
-69,694	800,000	0,033	0,096
-68,680	243,093	0,145	0,173
-67,665	120,290	-0,066	0,058
-66,651	-200,000	-0,033	0,195
-65,636	462,487	0,035	0,056
-64,622	12,220	0,056	0,030
-63,607	-200,000	-0,039	-0,180
-62,592	41,453	-0,081	-0,052
-61,578	-11,841	0,120	-0,056
-60,563	65,234	-0,080	-0,058
-59,549	-62,989	0,079	0,023
-58,534	-18,595	-1,397	-0,615
-57,519	378,045	-1,439	-2,093
-56,505	-200,000	-0,553	-4,549
-55,490	165,814	0,856	0,859
-54,476	800,000	4,876	11,391
-53,461	-200,000	18,787	302,918
-52,446	800,000	736,169	2286,734
-51,432	565,999	1652,345	2851,967
-50,417	78,840	1669,230	1264,677
-49,403	22,168	1541,882	889,822
-48,388	16,097	1464,558	815,704
-47,373	17,791	1454,783	818,411
-46,359	16,954	1444,945	808,826
-45,344	14,325	1440,366	793,646
-44,330	14,233	1438,539	792,165
-43,315	14,274	1436,747	791,346
-42,300	14,292	1435,067	790,473
-41,286	14,258	1434,050	789,721
-40,271	14,292	1432,535	789,018
-39,257	14,220	1431,633	788,144
-38,242	14,321	1429,984	787,689
-37,227	14,357	1428,796	787,175
-36,213	14,317	1427,595	786,291
-35,198	14,314	1426,436	785,606
-34,184	14,332	1425,405	785,094
-33,169	14,269	1424,021	783,999
-32,154	14,303	1423,085	783,614
-31,140	14,300	1421,582	782,740
-30,125	14,366	1420,437	782,390
-29,111	14,313	1419,434	781,561
-28,096	14,324	1418,273	780,938
-27,082	14,223	1417,391	779,947
-26,067	14,191	1416,426	779,234
-25,052	14,252	1415,045	778,731
-24,038	14,205	1414,323	778,081
-23,023	14,202	1413,308	777,478
-22,009	14,212	1412,227	776,899
-20,994	14,150	1411,505	776,182
-19,979	14,167	1410,638	775,751
-18,965	14,174	1409,422	775,087
-17,950	14,197	1408,423	774,612
-16,936	14,174	1407,540	773,989
-15,921	14,119	1406,477	773,117
-14,906	14,125	1405,841	772,767
-13,892	14,136	1404,488	772,042
-12,877	14,117	1403,724	771,505
-11,863	14,128	1402,966	771,108
-10,848	14,159	1402,078	770,733
-9,833	14,072	1401,302	769,869
-8,819	14,032	1400,294	769,100
-7,804	14,051	1399,259	768,588
-6,790	14,087	1398,099	768,091
-5,775	14,029	1397,137	767,262
-4,760	14,033	1396,403	766,846
-3,746	14,001	1395,601	766,226
-2,731	13,998	1394,732	765,707
-1,717	14,033	1393,742	765,293
-0,702	13,997	1392,080	764,181
0,313	17,892	1310,213	737,287
1,327	34,252	705,855	435,124
2,342	53,005	124,014	83,923
3,356	2,229	16,570	8,455
4,371	5,063	3,231	1,679
5,386	43,896	0,436	0,282
6,400	-200,000	0,009	0,182
7,415	173,500	-0,243	-0,248
8,429	-34,224	-0,341	-0,132
9,444	3,999	-0,428	-0,221
10,459	-69,088	-0,369	-0,100
11,473	150,166	-0,363	-0,348
12,488	-117,948	-0,307	-0,038
13,502	93,850	-0,281	-0,225
14,517	82,885	-0,327	-0,251
15,531	-22,500	-0,439	-0,187
16,546	74,157	-0,334	-0,248
17,561	95,511	-0,500	-0,403
18,575	260,248	-0,164	-0,201
19,590	97,144	-0,378	-0,307
20,604	-129,276	-0,187	0,018
21,619	68,248	-0,415	-0,300
22,634	138,740	-0,485	-0,451
23,648	271,043	-0,359	-0,448
24,663	128,096	-0,355	-0,320
25,677	148,932	-0,412	-0,394
26,692	21,549	-0,430	-0,247
27,707	54,411	-0,321	-0,218
28,721	21,946	-0,403	-0,231
29,736	80,469	-0,430	-0,327
30,750	44,485	-0,409	-0,265
31,765	52,069	-0,316	-0,212
32,780	290,760	-0,125	-0,161
33,794	2,429	-0,449	-0,229
34,809	49,335	-0,409	-0,271
35,823	-46,167	-0,441	-0,152
36,838	241,132	-0,383	-0,452
37,853	41,605	-0,440	-0,281
38,867	315,531	-0,258	-0,345
39,882	-20,175	-0,482	-0,209
40,896	-19,590	-0,337	-0,147
41,911	348,025	-0,210	-0,293
42,926	46,179	-0,323	-0,211
43,940	153,419	-0,229	-0,221
44,955	-31,876	-0,424	-0,167
45,969	64,499	-0,385	-0,273
46,984	496,173	-0,235	-0,382
47,999	100,332	-0,315	-0,257
49,013	15,068	-0,407	-0,224
50,028	13,429	-0,296	-0,162
51,042	58,649	-0,414	-0,286
52,057	42,191	-0,405	-0,259
53,071	30,276	-0,453	-0,272
54,086	160,857	-0,362	-0,357
55,101	118,072	-0,270	-0,234
56,115	543,844	-0,161	-0,273
57,130	-8,417	-0,521	-0,246
58,144	54,229	-0,415	-0,281
59,159	55,115	-0,480	-0,326
60,174	107,228	-0,323	-0,270
61,188	-35,037	-0,391	-0,150
62,203	-84,805	-0,395	-0,087
63,217	68,591	-0,319	-0,230
64,232	61,156	-0,283	-0,198
65,247	-71,854	-0,425	-0,111
66,261	119,517	-0,346	-0,302
67,276	40,752	-0,349	-0,221
68,290	169,798	-0,277	-0,279
69,305	23,892	-0,332	-0,192
70,320	-123,505	-0,295	-0,033
71,334	26,468	-0,247	-0,145
72,349	-22,774	-0,389	-0,165
73,363	121,396	-0,332	-0,291
74,378	223,127	-0,297	-0,338
75,393	15,181	-0,372	-0,204
76,407	507,963	-0,226	-0,371
77,422	-6,730	-0,208	-0,099
78,436	-75,478	-0,286	-0,071
79,451	1,128	-0,265	-0,133
80,466	-66,829	-0,236	-0,065
81,480	44,138	-0,395	-0,254
82,495	288,548	-0,253	-0,323
83,509	1,604	-0,119	-0,060
84,524	-8,529	-0,279	-0,131
85,539	121,294	-0,232	-0,203
86,553	101,270	-0,227	-0,186
87,568	3,100	-0,301	-0,153
88,582	45,504	-0,352	-0,228
89,597	-13,005	-0,309	-0,141
90,611	73,805	-0,233	-0,171
91,626	245,154	-0,216	-0,256
92,641	119,941	-0,260	-0,226
93,655	-33,248	-0,288	-0,111
94,670	-25,270	-0,368	-0,152
95,684	-23,963	-0,308	-0,129
96,699	-23,651	-0,364	-0,153
97,714	166,555	-0,225	-0,224
98,728	38,814	-0,210	-0,132
99,743	108,961	-0,348	-0,292
100,757	177,539	-0,202	-0,207
101,772	-7,390	-0,321	-0,152
102,787	110,076	-0,264	-0,222
103,801	90,317	-0,341	-0,268
104,816	15,282	-0,268	-0,147
105,830	-9,102	-0,332	-0,155
106,845	177,907	-0,241	-0,247
107,860	102,994	-0,212	-0,174
108,874	182,655	-0,226	-0,235
109,889	5,273	-0,319	-0,164
110,903	252,925	-0,175	-0,210
111,918	-29,146	-0,340	-0,136
112,933	6,975	-0,153	-0,080
113,947	-16,991	-0,275	-0,121
114,962	73,046	-0,277	-0,202
115,976	94,401	-0,297	-0,236
116,991	186,015	-0,254	-0,265
118,006	272,625	-0,240	-0,297
119,020	183,675	-0,202	-0,209
120,035	731,875	-0,103	-0,194
121,049	100,486	-0,225	-0,183
122,064	288,887	-0,160	-0,204
123,079	402,917	-0,191	-0,282
124,093	255,758	-0,271	-0,327
125,108	-60,518	-0,226	-0,067
126,122	-78,584	-0,428	-0,102
127,137	-27,054	-0,217	-0,088
128,151	89,419	-0,185	-0,145
129,166	-83,481	-0,226	-0,050
130,181	-77,909	-0,107	-0,026
131,195	17,510	-0,240	-0,133
132,210	159,754	-0,210	-0,204
133,224	678,254	-0,197	-0,361
134,239	234,986	-0,189	-0,219
135,254	483,633	-0,158	-0,253
136,268	-64,699	-0,222	-0,062
137,283	88,457	-0,290	-0,225
138,297	35,202	-0,295	-0,180
139,312	68,103	-0,213	-0,152
140,327	122,269	-0,202	-0,177
141,341	65,764	-0,226	-0,160
142,356	62,876	-0,095	-0,066
143,370	-72,589	-0,218	-0,056
144,385	30,186	-0,223	-0,133
145,400	109,504	-0,371	-0,311
146,414	-2,800	-0,236	-0,115
147,429	62,392	-0,279	-0,195
148,443	-50,522	-0,188	-0,062
149,458	-135,946	-0,208	-0,017
150,473	28,947	-0,264	-0,156
151,487	-59,134	-0,227	-0,068
152,502	126,041	-0,148	-0,131
153,516	2,842	-0,330	-0,167
154,531	260,885	-0,255	-0,308
155,546	114,347	-0,194	-0,165
156,560	355,646	-0,156	-0,218
157,575	5,961	-0,270	-0,139
158,589	-50,888	-0,144	-0,047
159,604	110,775	-0,231	-0,194
160,619	23,143	-0,253	-0,145
161,633	177,054	-0,318	-0,324
162,648	69,299	-0,235	-0,169
163,662	132,409	-0,249	-0,224
164,677	800,000	-0,036	-0,070
165,692	638,827	-0,096	-0,172
166,706	157,950	-0,188	-0,182
167,721	56,754	-0,298	-0,203
168,735	8,920	-0,274	-0,144
169,750	64,514	-0,230	-0,162
170,764	31,174	-0,262	-0,157
171,779	-104,471	-0,233	-0,037
172,794	185,365	-0,247	-0,257
173,808	27,443	-0,173	-0,101
174,823	302,510	-0,125	-0,161
175,837	14,179	-0,295	-0,160
176,852	31,429	-0,214	-0,128
177,867	-25,122	-0,320	-0,132
178,881	194,991	-0,202	-0,214
179,896	159,491	-0,221	-0,214
180,910	97,002	-0,273	-0,218
181,925	-200,000	-0,087	-0,312
182,940	133,224	-0,210	-0,189
183,954	-163,206	-0,296	-0,010
184,969	-41,848	-0,110	-0,039
185,983	-42,051	-0,206	-0,073
186,998	-61,438	-0,340	-0,099
188,013	52,820	-0,243	-0,162
189,027	36,536	-0,250	-0,153
190,042	-124,291	-0,306	0,033
191,056	117,892	-0,263	-0,226
192,071	153,958	-0,198	-0,189
193,086	-2,702	-0,271	-0,131
194,100	-31,916	-0,202	-0,078
195,115	-85,892	-0,179	0,038
196,129	352,446	-0,237	-0,327
197,144	128,099	-0,276	-0,245
198,159	362,628	-0,182	-0,255
199,173	50,745	-0,166	-0,109
200,188	-57,733	-0,137	0,041
201,202	-0,347	-0,210	-0,104
202,217	72,808	-0,133	-0,097
203,232	-200,000	-0,055	-0,230
204,246	447,261	-0,162	-0,250
205,261	117,353	-0,264	-0,226
206,275	709,362	-0,150	-0,278
207,290	-92,621	-0,228	-0,044
208,304	193,817	-0,145	-0,153
209,319	800,000	-0,081	-0,177
210,334	133,965	-0,142	-0,128
211,348	246,402	-0,111	-0,130
212,363	-45,211	-0,235	-0,081
213,377	330,794	-0,167	-0,224
214,392	-87,733	-0,181	0,038
215,407	-58,195	-0,187	-0,056
216,421	800,000	-0,139	-0,301
217,436	-92,932	-0,204	-0,039
218,450	110,720	-0,255	-0,213
219,465	170,992	-0,227	-0,226
220,480	20,907	-0,081	-0,046
221,494	-63,446	-0,151	-0,043
222,509	-25,502	-0,142	0,058
223,523	-75,525	-0,177	-0,043
224,538	443,185	-0,060	0,091
225,553	156,320	-0,197	-0,189
226,567	800,000	-0,112	-0,253
227,582	57,269	-0,226	-0,153
228,596	102,942	-0,139	-0,113
229,611	800,000	-0,021	-0,053
230,626	-7,344	-0,259	-0,121
231,640	217,512	-0,226	-0,250
232,655	-13,726	-0,224	-0,100
233,669	109,266	-0,199	-0,165
234,684	97,000	-0,225	-0,179
235,699	186,601	-0,199	-0,206
236,713	390,055	-0,127	-0,183
237,728	158,347	-0,134	-0,129
238,742	468,076	-0,084	-0,131
239,757	-20,829	-0,232	-0,098
240,772	-174,494	-0,167	-0,003
241,786	298,625	-0,174	-0,222
242,801	324,561	-0,110	-0,146
243,815	422,858	-0,140	-0,210
244,830	327,494	-0,106	-0,141
245,844	-13,966	-0,165	0,074
246,859	291,674	-0,119	-0,150
247,874	-73,062	-0,176	-0,044
248,888	115,566	-0,220	-0,186
249,903	128,397	-0,189	-0,167
250,917	-40,820	-0,231	-0,083
251,932	-3,465	-0,210	-0,101
252,947	800,000	-0,061	-0,139
253,961	357,503	-0,159	-0,220
254,976	79,375	-0,157	-0,116
255,990	-27,634	-0,286	-0,114
257,005	23,755	-0,132	-0,075
258,020	441,987	-0,080	-0,122
259,034	35,136	-0,148	-0,089
260,049	-110,541	-0,220	-0,031
261,063	77,610	-0,162	-0,119
262,078	121,738	-0,250	-0,216
263,093	800,000	-0,053	-0,143
264,107	89,671	-0,152	-0,117
265,122	134,874	-0,048	0,044
266,136	-48,122	-0,243	-0,081
267,151	789,771	-0,043	0,082
268,166	-48,002	-0,177	-0,059
269,180	112,066	-0,199	-0,166
270,195	800,000	-0,109	-0,222
271,209	343,235	-0,187	-0,255
272,224	136,078	-0,227	-0,205
273,239	157,501	-0,113	0,109
274,253	-73,542	-0,156	0,039
275,268	-42,673	-0,147	0,051
276,282	800,000	-0,098	-0,240
277,297	63,247	-0,103	-0,071
278,312	-67,050	-0,053	-0,014
279,326	717,862	-0,101	-0,185
280,341	-200,000	0,014	-0,062
281,355	-76,954	-0,135	-0,032
282,370	-88,410	-0,134	0,027
283,384	-158,707	-0,231	-0,009
284,399	43,389	-0,183	-0,116
285,414	37,237	-0,170	-0,104
286,428	73,927	-0,210	-0,152
287,443	-200,000	-0,018	-0,078
288,457	-112,196	-0,173	0,024
289,472	-173,628	-0,245	0,005
290,487	-32,940	-0,184	-0,070
291,501	-108,791	-0,165	-0,024
292,516	-10,593	-0,191	-0,087
293,530	-98,978	-0,185	-0,032
294,545	-200,000	-0,029	-0,125
295,560	-200,000	-0,066	-0,208
296,574	43,399	-0,154	0,097
297,589	219,336	-0,210	-0,232
298,603	326,471	-0,097	-0,129
299,618	152,792	-0,134	-0,127
300,633	243,773	-0,149	-0,173
301,647	182,124	-0,182	-0,186
302,662	-88,403	-0,161	0,033
303,676	800,000	0,029	-0,079
304,691	800,000	-0,119	-0,234
305,706	65,832	-0,214	-0,149
306,720	182,111	-0,105	-0,107
307,735	800,000	-0,099	-0,247
308,749	192,950	-0,101	-0,105
309,764	-200,000	-0,009	0,038
310,779	800,000	-0,081	-0,166
311,793	352,168	-0,089	-0,122
312,808	800,000	-0,050	-0,107
313,822	-44,032	-0,304	-0,105
314,837	10,404	-0,252	-0,132
315,852	49,259	-0,057	-0,037
316,866	-133,330	-0,082	-0,007
317,881	-200,000	-0,021	-0,092
318,895	-2,321	-0,165	-0,080
319,910	120,001	-0,126	-0,108
320,925	800,000	-0,049	-0,098
321,939	-33,660	-0,197	-0,075
322,954	509,682	-0,084	-0,135
323,968	291,432	-0,084	-0,106
324,983	199,170	-0,092	-0,098
325,997	-200,000	-0,033	-0,168
327,012	-200,000	-0,021	-0,188
328,027	-200,000	-0,042	-0,294
329,041	-62,225	-0,209	-0,060
330,056	83,596	-0,114	-0,085
331,070	196,503	-0,155	-0,163
332,085	-46,311	-0,129	-0,043
333,100	252,130	-0,114	-0,134
334,114	276,490	-0,084	-0,103
335,129	-71,277	-0,096	-0,025
336,143	800,000	-0,109	-0,229
337,158	-38,430	-0,047	-0,017
338,173	-200,000	0,016	-0,133
339,187	-104,072	-0,100	0,016
340,202	-67,921	-0,160	-0,043
341,216	-26,934	-0,104	-0,042
342,231	76,519	-0,204	-0,148
343,246	-101,679	-0,236	-0,039
344,260	272,176	-0,126	-0,154
345,275	421,646	-0,087	-0,129
346,289	227,800	-0,120	-0,135
347,304	127,348	-0,205	-0,179
348,319	-45,032	-0,115	-0,039
349,333	-2,164	-0,262	-0,126
350,348	-200,000	-0,114	-0,000
351,362	-200,000	-0,078	-0,243
352,377	800,000	0,003	0,007
353,392	800,000	-0,051	-0,131
354,406	427,013	-0,024	-0,036
355,421	208,930	1313,280	1413,424
356,435	160,782	1473,834	1413,922
