DTS Sentinel unit serial number:	SN410029Multiplexer serial number:	ORYXHardware model number:	OX2-SRSoftware version number:	ORYX F/W v4,00 Oryx Data Collector v3.7.2.0data status	okinstallation	B3 Nyhavnadifferential loss correction	single-endedforward channel	channel 1reverse channel	N/Adate	2023/12/01time	13:07:30forward acquisition time	300,00reverse acquisition time	0,00gamma	499,1914k internal	0,3213k external	0,3213temperature offset calibration	1,0000default loss term (dB/km)	0,3820temperature slope calibration	1,0000multiplexer offset coefficient	1,0000multiplexer slope coefficient	1,0000fibre end	0,00T internal ref (°C)	9,22T ext. ref 1 (°C)	-4,65T ext. ref 2 (°C)	-4,74length (m)	temperature (°C)	Stokes	anti-Stokes-744,400	-200,000	-0,041	-0,272
-743,385	66,447	-0,189	0,139
-742,371	631,735	-0,101	-0,187
-741,356	-200,000	-0,043	0,197
-740,342	-1,209	-0,371	-0,189
-739,327	-200,000	0,027	0,260
-738,312	152,796	-0,224	-0,222
-737,298	-200,000	-0,079	0,336
-736,283	-200,000	-0,030	-0,232
-735,269	800,000	-0,028	0,062
-734,254	47,489	-0,241	-0,162
-733,239	101,215	-0,147	0,124
-732,225	37,184	-0,108	-0,069
-731,210	178,526	0,136	0,144
-730,196	-174,426	-0,043	-0,001
-729,181	248,615	0,071	0,087
-728,167	302,551	-0,030	0,040
-727,152	800,000	-0,018	0,047
-726,137	-200,000	0,004	-0,065
-725,123	-80,735	0,014	-0,003
-724,108	-111,839	-0,041	0,006
-723,094	327,061	0,027	0,037
-722,079	98,925	-0,108	0,090
-721,064	-136,242	0,050	-0,004
-720,050	-200,000	-0,055	-0,209
-719,035	-37,149	-0,068	-0,026
-718,021	-61,084	-0,116	-0,035
-717,006	800,000	-0,050	0,141
-715,991	-22,553	-0,161	-0,070
-714,977	800,000	0,052	-0,117
-713,962	-37,626	-0,131	0,050
-712,948	800,000	0,055	0,146
-711,933	-15,490	0,035	-0,016
-710,918	-19,231	-0,015	-0,007
-709,904	-86,777	-0,170	-0,037
-708,889	-200,000	-0,003	0,123
-707,875	177,110	-0,041	-0,043
-706,860	-57,105	-0,107	0,034
-705,845	0,298	0,084	-0,043
-704,831	-200,000	0,001	0,092
-703,816	223,137	0,087	-0,101
-702,802	-200,000	0,032	-0,135
-701,787	-9,392	-0,187	-0,090
-700,772	478,891	0,041	-0,067
-699,758	5,926	0,075	0,040
-698,743	800,000	-0,016	-0,044
-697,729	-23,347	0,108	-0,047
-696,714	611,067	-0,027	0,049
-695,699	-200,000	0,002	0,049
-694,685	87,831	-0,024	0,020
-693,670	-200,000	0,005	-0,099
-692,656	86,612	0,068	-0,054
-691,641	800,000	-0,021	0,060
-690,627	800,000	0,077	0,177
-689,612	78,959	0,131	-0,101
-688,597	-72,606	0,060	-0,016
-687,583	-200,000	-0,012	0,100
-686,568	-55,454	0,066	-0,021
-685,554	23,156	0,034	0,020
-684,539	-200,000	-0,004	-0,022
-683,524	800,000	-0,013	0,028
-682,510	144,974	0,046	0,044
-681,495	-200,000	-0,003	0,038
-680,481	800,000	-0,036	0,098
-679,466	800,000	0,023	0,073
-678,451	-192,578	-0,060	0,000
-677,437	593,609	-0,017	-0,030
-676,422	800,000	0,044	-0,119
-675,408	586,818	-0,058	0,103
-674,393	626,904	0,018	-0,033
-673,378	7,142	-0,101	0,054
-672,364	-18,423	-0,104	-0,047
-671,349	-58,833	0,008	-0,002
-670,335	-100,125	-0,066	-0,012
-669,320	179,505	0,077	-0,081
-668,305	68,805	0,039	0,029
-667,291	-200,000	0,005	-0,056
-666,276	800,000	0,021	-0,062
-665,262	-149,633	-0,137	-0,008
-664,247	800,000	-0,013	0,032
-663,232	-200,000	0,015	0,121
-662,218	75,677	-0,035	-0,027
-661,203	134,485	0,085	-0,079
-660,189	-200,000	0,004	-0,101
-659,174	-157,109	-0,080	0,003
-658,159	178,866	-0,025	0,026
-657,145	-81,883	-0,139	0,033
-656,130	41,872	-0,100	0,065
-655,116	59,018	-0,071	0,051
-654,101	-200,000	0,016	-0,078
-653,086	-200,000	-0,002	0,042
-652,072	46,313	0,124	0,083
-651,057	800,000	-0,023	-0,071
-650,043	110,872	-0,095	-0,082
-649,028	-134,489	0,101	0,009
-648,014	-179,468	-0,122	-0,002
-646,999	61,949	-0,107	0,077
-645,984	-200,000	-0,005	0,065
-644,970	139,584	-0,058	-0,055
-643,955	-75,784	-0,250	-0,063
-642,941	-128,854	-0,245	-0,025
-641,926	-0,236	0,050	0,026
-640,911	-71,410	-0,052	-0,014
-639,897	116,295	-0,058	0,051
-638,882	160,469	-0,067	-0,068
-637,868	360,182	-0,024	0,035
-636,853	800,000	0,021	-0,067
-635,838	800,000	-0,022	-0,068
-634,824	-200,000	-0,003	-0,013
-633,809	-137,884	-0,096	-0,008
-632,795	299,000	0,070	0,094
-631,780	-29,214	0,167	0,069
-630,765	173,027	0,047	-0,049
-629,751	-46,285	0,100	-0,035
-628,736	-200,000	-0,002	-0,044
-627,722	800,000	0,018	-0,040
-626,707	152,534	0,047	-0,046
-625,692	394,372	0,034	0,052
-624,678	-200,000	-0,006	-0,029
-623,663	-200,000	-0,005	-0,019
-622,649	53,455	-0,043	0,030
-621,634	115,869	-0,060	0,053
-620,619	366,589	-0,015	-0,022
-619,605	217,664	0,031	-0,035
-618,590	-173,111	0,046	-0,001
-617,576	11,870	0,067	-0,037
-616,561	599,408	0,077	-0,138
-615,546	-200,000	-0,029	0,175
-614,532	-110,674	-0,095	-0,014
-613,517	180,002	0,077	-0,081
-612,503	-200,000	-0,019	0,108
-611,488	-200,000	0,025	0,136
-610,474	175,520	0,071	0,074
-609,459	129,877	0,035	-0,032
-608,444	-117,105	-0,157	-0,020
-607,430	800,000	-0,007	0,017
-606,415	-200,000	-0,008	-0,076
-605,401	800,000	-0,017	0,051
-604,386	800,000	0,018	0,045
-603,371	40,180	-0,074	0,048
-602,357	-90,722	0,051	-0,010
-601,342	-162,529	-0,199	-0,007
-600,328	-152,766	-0,110	-0,006
-599,313	-32,510	0,110	0,044
-598,298	-200,000	0,001	0,024
-597,284	-10,646	-0,092	-0,044
-596,269	-200,000	0,019	0,169
-595,255	-127,353	-0,138	0,014
-594,240	-41,860	-0,096	0,035
-593,225	800,000	0,014	0,042
-592,211	-16,274	-0,069	-0,032
-591,196	312,597	-0,050	0,068
-590,182	25,946	0,141	-0,084
-589,167	-51,514	0,045	0,015
-588,152	800,000	0,010	-0,025
-587,138	333,134	-0,041	-0,057
-586,123	775,336	0,009	0,018
-585,109	193,671	-0,102	0,111
-584,094	359,076	0,058	-0,084
-583,079	239,254	0,054	0,065
-582,065	-200,000	-0,001	0,043
-581,050	533,190	-0,042	0,072
-580,036	104,134	-0,196	-0,166
-579,021	44,070	-0,082	-0,054
-578,006	-32,422	-0,055	-0,022
-576,992	-82,877	-0,125	-0,029
-575,977	800,000	0,013	-0,029
-574,963	-200,000	0,010	0,051
-573,948	800,000	0,038	0,084
-572,934	-200,000	0,004	-0,098
-571,919	-48,092	0,087	-0,030
-570,904	-200,000	-0,000	-0,038
-569,890	800,000	-0,098	-0,225
-568,875	800,000	0,018	0,040
-567,861	-77,001	0,207	0,052
-566,846	800,000	-0,028	0,064
-565,831	-200,000	0,019	0,086
-564,817	-50,429	-0,047	-0,016
-563,802	-200,000	-0,017	-0,111
-562,788	-200,000	0,012	-0,080
-561,773	495,446	0,046	0,077
-560,758	267,613	-0,042	-0,053
-559,744	-200,000	0,023	0,101
-558,729	-42,533	-0,059	0,022
-557,715	-200,000	0,001	0,078
-556,700	347,363	-0,036	-0,052
-555,685	74,146	0,059	-0,044
-554,671	-200,000	0,021	0,145
-553,656	146,708	0,117	0,113
-552,642	-69,658	-0,076	0,021
-551,627	-148,790	0,115	0,007
-550,612	800,000	-0,024	0,060
-549,598	-89,818	-0,037	0,008
-548,583	-200,000	-0,014	-0,096
-547,569	-200,000	0,008	0,153
-546,554	800,000	-0,030	0,077
-545,539	-35,177	0,087	-0,034
-544,525	-200,000	0,024	-0,106
-543,510	-200,000	-0,024	-0,134
-542,496	291,362	0,124	-0,163
-541,481	55,918	-0,116	-0,081
-540,466	106,742	-0,024	0,021
-539,452	800,000	0,021	0,065
-538,437	800,000	-0,034	0,078
-537,423	164,867	0,066	0,067
-536,408	800,000	0,027	0,079
-535,393	800,000	0,011	-0,034
-534,379	627,007	-0,026	-0,047
-533,364	-53,755	-0,103	-0,034
-532,350	-165,415	0,071	-0,002
-531,335	-49,367	0,034	-0,012
-530,321	5,733	0,067	0,035
-529,306	52,150	-0,130	-0,089
-528,291	130,856	0,090	-0,083
-527,277	-183,635	-0,088	0,001
-526,262	800,000	-0,037	0,084
-525,248	800,000	-0,037	0,113
-524,233	125,601	0,148	0,135
-523,218	-200,000	0,008	0,111
-522,204	-23,440	0,056	0,024
-521,189	-200,000	0,027	0,090
-520,175	46,392	-0,156	-0,104
-519,160	-18,402	-0,113	-0,050
-518,145	334,280	-0,052	-0,072
-517,131	28,311	-0,042	-0,025
-516,116	-11,349	-0,034	0,016
-515,102	32,850	-0,067	0,042
-514,087	-200,000	0,001	-0,040
-513,072	-132,743	-0,109	0,010
-512,058	800,000	0,038	-0,076
-511,043	-56,466	0,177	0,056
-510,029	-200,000	-0,004	0,036
-509,014	268,644	0,134	0,170
-507,999	-122,174	0,054	0,006
-506,985	-30,888	-0,109	-0,044
-505,970	118,184	0,008	0,007
-504,956	-130,224	-0,062	-0,006
-503,941	-124,751	-0,098	-0,011
-502,926	800,000	-0,063	0,149
-501,912	-117,502	0,147	0,019
-500,897	21,899	0,016	0,009
-499,883	-200,000	0,003	-0,047
-498,868	-200,000	-0,003	-0,042
-497,853	63,884	0,107	-0,077
-496,839	39,096	0,045	0,029
-495,824	800,000	-0,031	-0,085
-494,810	-140,060	0,134	-0,010
-493,795	-101,491	0,052	0,009
-492,781	115,829	0,084	-0,074
-491,766	800,000	-0,026	-0,077
-490,751	-200,000	0,031	-0,127
-489,737	-200,000	0,005	-0,055
-488,722	800,000	0,022	-0,048
-487,708	-200,000	-0,008	0,098
-486,693	-57,855	-0,091	-0,028
-485,678	-45,193	-0,037	-0,013
-484,664	-200,000	-0,016	-0,095
-483,649	51,934	-0,081	-0,055
-482,635	22,714	-0,084	-0,049
-481,620	327,539	0,031	-0,042
-480,605	-74,455	0,058	-0,015
-479,591	64,986	0,069	0,050
-478,576	257,009	-0,040	0,049
-477,562	164,003	-0,030	-0,030
-476,547	31,936	-0,118	0,073
-475,532	256,920	-0,069	0,085
-474,518	-32,470	0,068	0,027
-473,503	76,174	0,069	-0,053
-472,489	-200,000	0,001	0,063
-471,474	-200,000	-0,004	-0,046
-470,459	-139,299	-0,123	-0,009
-469,445	-200,000	0,036	-0,211
-468,430	-200,000	-0,005	-0,045
-467,416	537,754	0,038	0,065
-466,401	800,000	0,018	0,047
-465,386	352,114	-0,051	0,072
-464,372	438,612	-0,037	-0,059
-463,357	141,219	0,056	0,054
-462,343	-113,904	-0,146	-0,020
-461,328	-42,026	0,104	0,038
-460,313	-200,000	-0,022	-0,096
-459,299	-200,000	0,009	0,048
-458,284	55,095	0,115	0,079
-457,270	-78,877	-0,094	0,023
-456,255	535,507	0,046	-0,078
-455,241	-24,814	-0,056	-0,024
-454,226	-50,910	-0,079	0,027
-453,211	33,252	-0,037	-0,023
-452,197	355,501	0,034	0,048
-451,182	-142,354	0,147	0,010
-450,168	800,000	0,064	-0,152
-449,153	590,956	0,029	-0,051
-448,138	229,782	0,019	0,022
-447,124	157,595	0,072	-0,071
-446,109	-200,000	-0,001	0,036
-445,095	546,099	-0,024	0,041
-444,080	800,000	-0,096	0,258
-443,065	629,700	0,078	-0,142
-442,051	-46,271	-0,113	-0,040
-441,036	-53,799	0,015	0,005
-440,022	-200,000	-0,016	0,126
-439,007	146,479	0,023	-0,022
-437,992	800,000	-0,043	0,127
-436,978	10,639	0,092	-0,050
-435,963	-200,000	0,004	-0,023
-434,949	40,646	-0,062	0,040
-433,934	-200,000	0,001	-0,093
-432,919	800,000	0,018	-0,048
-431,905	176,875	-0,139	0,145
-430,890	-77,605	0,074	-0,018
-429,876	159,548	-0,046	-0,046
-428,861	800,000	0,003	-0,007
-427,846	-200,000	-0,002	0,117
-426,832	31,064	-0,255	-0,156
-425,817	-104,330	0,097	-0,016
-424,803	753,944	-0,020	0,038
-423,788	35,781	0,123	0,077
-422,773	-200,000	0,007	0,127
-421,759	-200,000	-0,051	-0,165
-420,744	-124,993	0,040	0,004
-419,730	-200,000	0,013	-0,095
-418,715	268,319	-0,099	-0,125
-417,701	800,000	0,031	0,086
-416,686	-200,000	-0,017	0,101
-415,671	796,203	-0,010	-0,020
-414,657	800,000	0,032	-0,077
-413,642	-132,557	0,100	0,009
-412,628	148,168	-0,073	-0,070
-411,613	661,155	0,035	-0,064
-410,598	800,000	-0,018	-0,036
-409,584	-134,888	-0,040	0,003
-408,569	130,314	-0,020	0,019
-407,555	-200,000	-0,013	-0,048
-406,540	157,211	0,064	-0,064
-405,525	63,889	0,088	-0,063
-404,511	42,930	0,087	-0,057
-403,496	778,722	0,035	-0,069
-402,482	134,092	-0,097	0,090
-401,467	800,000	0,046	0,108
-400,452	-200,000	-0,011	0,080
-399,438	776,583	0,014	0,028
-398,423	-82,882	-0,130	0,030
-397,409	-200,000	0,024	-0,086
-396,394	800,000	-0,048	-0,129
-395,379	111,309	-0,030	-0,026
-394,365	40,780	0,102	-0,065
-393,350	681,734	-0,043	0,080
-392,336	-200,000	-0,018	-0,081
-391,321	-65,654	-0,171	-0,049
-390,306	100,377	0,077	-0,063
-389,292	213,528	-0,024	-0,027
-388,277	-56,370	-0,081	-0,026
-387,263	384,684	0,023	0,034
-386,248	-188,962	0,008	0,000
-385,233	-177,692	0,135	-0,002
-384,219	401,461	0,018	0,027
-383,204	800,000	-0,018	-0,048
-382,190	162,365	-0,084	-0,085
-381,175	-97,680	-0,132	0,024
-380,160	-144,650	0,224	-0,015
-379,146	28,214	-0,042	0,025
-378,131	162,934	-0,054	-0,055
-377,117	-200,000	-0,004	-0,028
-376,102	-200,000	0,020	-0,095
-375,088	800,000	0,038	-0,099
-374,073	800,000	0,043	-0,086
-373,058	-88,617	0,093	0,020
-372,044	135,525	0,104	-0,097
-371,029	-200,000	0,022	0,071
-370,015	-200,000	0,041	-0,189
-369,000	800,000	0,054	-0,157
-367,985	800,000	-0,035	0,074
-366,971	730,584	0,072	0,137
-365,956	-12,342	-0,142	0,066
-364,942	-200,000	-0,023	0,090
-363,927	-200,000	0,040	0,150
-362,912	-174,290	-0,068	0,001
-361,898	-200,000	-0,026	0,165
-360,883	122,489	-0,103	-0,092
-359,869	-200,000	0,020	-0,167
-358,854	-157,915	0,161	0,007
-357,839	92,843	0,105	-0,085
-356,825	30,345	0,151	0,092
-355,810	-200,000	0,020	0,182
-354,796	-200,000	-0,011	-0,080
-353,781	194,177	-0,043	-0,047
-352,766	-200,000	-0,042	-0,163
-351,752	113,470	-0,032	-0,028
-350,737	159,390	-0,109	0,109
-349,723	-200,000	0,004	0,022
-348,708	408,990	-0,049	-0,074
-347,693	163,892	0,124	-0,125
-346,679	341,991	-0,060	-0,084
-345,664	721,795	0,033	-0,063
-344,650	800,000	0,044	0,134
-343,635	154,761	0,029	-0,028
-342,620	298,963	0,026	0,034
-341,606	-52,856	0,106	0,035
-340,591	108,705	-0,103	-0,088
-339,577	189,808	-0,099	-0,106
-338,562	776,844	-0,056	0,110
-337,548	344,310	-0,028	0,039
-336,533	800,000	-0,014	0,038
-335,518	101,755	-0,035	0,029
-334,504	368,721	0,069	0,100
-333,489	-200,000	0,009	-0,120
-332,475	-21,862	-0,047	-0,020
-331,460	56,956	-0,037	-0,026
-330,445	-200,000	-0,007	0,068
-329,431	-200,000	-0,026	0,198
-328,416	88,521	0,110	0,087
-327,402	800,000	0,043	0,092
-326,387	-5,198	-0,042	0,020
-325,372	800,000	-0,048	-0,104
-324,358	-200,000	-0,021	0,142
-323,343	48,732	0,044	0,029
-322,329	-200,000	0,008	0,098
-321,314	241,008	0,096	0,115
-320,299	-200,000	-0,019	0,098
-319,285	-200,000	0,032	0,145
-318,270	532,152	0,039	-0,066
-317,256	-200,000	-0,006	0,032
-316,241	-124,290	-0,068	0,007
-315,226	48,469	0,106	0,070
-314,212	-125,963	-0,049	0,005
-313,197	-200,000	0,009	0,073
-312,183	-126,806	0,030	0,003
-311,168	-71,309	-0,073	0,019
-310,153	129,073	0,098	-0,089
-309,139	800,000	0,052	0,145
-308,124	347,618	-0,034	0,047
-307,110	688,355	-0,075	0,140
-306,095	203,428	0,064	-0,070
-305,080	64,010	0,066	0,047
-304,066	800,000	-0,049	-0,135
-303,051	-200,000	-0,007	-0,093
-302,037	113,130	-0,059	-0,051
-301,022	86,670	0,003	0,002
-300,008	-21,848	0,053	0,023
-298,993	-200,000	-0,004	0,040
-297,978	270,389	-0,037	0,046
-296,964	-86,404	-0,096	0,021
-295,949	-200,000	-0,002	-0,070
-294,935	-118,626	0,043	-0,005
-293,920	-200,000	-0,000	0,096
-292,905	800,000	-0,017	0,042
-291,891	-19,049	0,088	0,039
-290,876	-95,422	-0,066	0,013
-289,862	26,984	-0,067	0,040
-288,847	-200,000	-0,005	-0,067
-287,832	84,444	0,027	-0,021
-286,818	-84,732	0,086	0,019
-285,803	98,160	0,070	0,058
-284,789	-200,000	-0,002	0,032
-283,774	183,909	-0,027	0,028
-282,759	-200,000	0,005	-0,132
-281,745	-200,000	-0,011	0,055
-280,730	-13,264	-0,090	-0,042
-279,716	800,000	-0,019	0,050
-278,701	800,000	-0,005	0,015
-277,686	-200,000	0,001	0,036
-276,672	-108,079	-0,019	-0,003
-275,657	-12,646	0,123	0,057
-274,643	172,567	-0,013	-0,013
-273,628	545,380	-0,063	-0,107
-272,613	-96,912	-0,021	-0,004
-271,599	523,071	0,053	0,089
-270,584	374,783	0,044	0,064
-269,570	76,049	-0,018	-0,013
-268,555	-200,000	-0,012	-0,060
-267,540	800,000	-0,070	-0,163
-266,526	427,776	-0,039	-0,061
-265,511	53,222	0,167	-0,114
-264,497	800,000	0,050	0,110
-263,482	-6,494	0,072	0,035
-262,467	-200,000	0,005	0,089
-261,453	405,584	0,039	0,058
-260,438	157,000	-0,119	-0,117
-259,424	-200,000	0,020	-0,111
-258,409	-103,269	-0,041	-0,007
-257,395	-200,000	0,005	0,092
-256,380	429,190	-0,062	0,095
-255,365	-200,000	0,003	0,105
-254,351	800,000	0,012	-0,030
-253,336	115,200	0,039	0,034
-252,322	81,954	-0,144	-0,111
-251,307	-200,000	-0,016	-0,078
-250,292	-166,307	0,042	-0,001
-249,278	-15,597	0,160	0,072
-248,263	-200,000	0,008	0,090
-247,249	48,030	0,075	0,050
-246,234	230,568	0,076	0,088
-245,219	-200,000	0,007	-0,139
-244,205	-98,124	0,111	0,020
-243,190	-6,021	0,139	-0,067
-242,176	28,087	0,063	-0,038
-241,161	-200,000	0,026	0,103
-240,146	436,631	0,059	0,092
-239,132	-200,000	-0,042	-0,146
-238,117	-163,472	-0,112	-0,004
-237,103	38,226	-0,063	-0,040
-236,088	38,820	0,048	-0,030
-235,073	59,457	0,040	-0,028
-234,059	-200,000	0,009	0,093
-233,044	70,137	-0,065	0,048
-232,030	-77,409	-0,066	-0,016
-231,015	438,075	-0,050	0,078
-230,000	-48,620	0,046	-0,015
-228,986	-57,412	-0,099	0,031
-227,971	-200,000	0,007	-0,057
-226,957	-200,000	-0,009	0,100
-225,942	-33,267	-0,113	0,044
-224,927	-66,281	0,090	0,025
-223,913	800,000	0,023	0,067
-222,898	106,299	-0,041	-0,034
-221,884	104,210	-0,093	-0,078
-220,869	-200,000	0,051	0,170
-219,855	-16,747	0,096	-0,043
-218,840	800,000	0,025	-0,070
-217,825	-49,891	-0,051	0,017
-216,811	3,155	-0,126	-0,065
-215,796	-79,153	-0,064	-0,015
-214,782	295,283	0,059	-0,077
-213,767	-139,563	0,028	0,002
-212,752	4,653	0,102	-0,053
-211,738	-61,490	-0,019	-0,006
-210,723	111,497	-0,083	-0,071
-209,709	-118,533	-0,055	0,007
-208,694	800,000	-0,028	-0,085
-207,679	-75,953	0,062	-0,015
-206,665	-200,000	-0,018	0,101
-205,650	-40,102	0,053	-0,019
-204,636	-0,534	-0,060	0,030
-203,621	31,158	-0,093	0,057
-202,606	-90,285	-0,138	0,028
-201,592	-108,636	-0,029	0,004
-200,577	255,670	-0,051	-0,062
-199,563	-100,945	0,074	0,013
-198,548	-200,000	-0,005	-0,108
-197,533	50,350	0,139	0,093
-196,519	800,000	-0,036	-0,096
-195,504	298,326	0,066	-0,086
-194,490	-200,000	-0,059	-0,231
-193,475	800,000	-0,029	-0,068
-192,460	-200,000	-0,031	0,138
-191,446	29,091	0,141	0,085
-190,431	-200,000	0,001	0,155
-189,417	243,008	0,050	-0,059
-188,402	-200,000	0,026	0,150
-187,387	-200,000	-0,001	-0,040
-186,373	-200,000	0,001	-0,012
-185,358	-200,000	-0,004	0,037
-184,344	369,142	0,050	-0,072
-183,329	-200,000	0,003	-0,027
-182,315	-81,935	0,114	0,026
-181,300	-128,132	0,048	0,005
-180,285	800,000	-0,012	0,036
-179,271	35,037	-0,065	-0,040
-178,256	-48,526	0,050	0,017
-177,242	-200,000	-0,018	0,201
-176,227	107,821	0,120	0,101
-175,212	-11,192	0,108	-0,050
-174,198	668,830	-0,047	-0,086
-173,183	-98,207	-0,050	-0,009
-172,169	557,269	0,055	-0,094
-171,154	800,000	-0,009	-0,024
-170,139	800,000	0,054	-0,167
-169,125	188,132	0,117	0,124
-168,110	136,520	0,040	0,037
-167,096	800,000	0,023	0,061
-166,081	86,475	0,099	0,077
-165,066	800,000	0,035	-0,069
-164,052	800,000	-0,033	-0,100
-163,037	-45,498	0,083	0,029
-162,023	-200,000	0,020	0,084
-161,008	-200,000	0,023	0,129
-159,993	418,279	-0,077	-0,116
-158,979	667,405	-0,026	-0,048
-157,964	-34,324	0,084	-0,032
-156,950	-45,253	-0,149	-0,052
-155,935	-200,000	-0,028	-0,127
-154,920	13,517	0,054	0,029
-153,906	200,220	0,051	-0,055
-152,891	800,000	-0,024	-0,065
-151,877	204,456	-0,124	-0,136
-150,862	-69,317	-0,050	-0,014
-149,847	574,450	-0,007	-0,012
-148,833	90,725	0,062	0,049
-147,818	-200,000	0,000	0,049
-146,804	244,207	-0,025	-0,030
-145,789	63,606	0,033	-0,024
-144,775	146,167	-0,059	-0,056
-143,760	179,992	-0,041	-0,043
-142,745	150,489	-0,141	-0,136
-141,731	230,548	0,084	0,098
-140,716	-104,426	0,084	-0,014
-139,702	-40,756	-0,050	-0,018
-138,687	119,970	0,042	-0,036
-137,672	489,081	0,053	0,086
-136,658	153,903	-0,063	-0,061
-135,643	281,533	-0,032	0,040
-134,629	39,132	-0,067	-0,043
-133,614	-200,000	-0,019	0,078
-132,599	252,077	0,058	0,070
-131,585	800,000	0,011	-0,023
-130,570	-200,000	0,009	-0,073
-129,556	800,000	0,054	-0,158
-128,541	800,000	0,034	-0,082
-127,526	-60,655	-0,070	0,021
-126,512	-36,140	0,068	0,026
-125,497	18,840	0,044	-0,025
-124,483	-200,000	0,005	-0,064
-123,468	800,000	-0,019	-0,040
-122,453	-132,053	-0,144	-0,013
-121,439	800,000	0,033	0,085
-120,424	800,000	0,054	-0,121
-119,410	-200,000	-0,016	0,095
-118,395	-200,000	-0,028	0,134
-117,380	800,000	0,007	0,016
-116,366	-200,000	0,027	0,151
-115,351	-200,000	0,009	0,034
-114,337	-200,000	-0,005	-0,127
-113,322	-146,098	-0,028	0,002
-112,307	-125,075	-0,055	-0,006
-111,293	430,951	0,056	0,086
-110,278	-200,000	-0,020	0,166
-109,264	-200,000	-0,034	0,198
-108,249	-3,097	0,108	0,053
-107,234	800,000	0,036	-0,080
-106,220	358,662	-0,086	-0,122
-105,205	-200,000	-0,002	-0,080
-104,191	134,564	0,038	0,035
-103,176	-200,000	0,015	0,051
-102,162	-17,010	0,062	0,028
-101,147	-64,588	-0,100	-0,029
-100,132	177,690	-0,115	-0,119
-99,118	-80,400	-0,068	0,016
-98,103	409,896	0,049	0,073
-97,089	304,819	0,092	-0,122
-96,074	35,733	-0,139	0,086
-95,059	461,678	-0,050	-0,080
-94,045	-31,205	-0,232	0,092
-93,030	-136,721	0,068	0,005
-92,016	683,562	-0,034	-0,064
-91,001	-27,448	-0,041	0,017
-89,986	231,060	0,038	-0,044
-88,972	800,000	-0,038	-0,076
-87,957	148,200	0,130	0,124
-86,943	147,791	0,071	-0,068
-85,928	173,181	-0,120	-0,122
-84,913	71,934	-0,052	0,038
-83,899	800,000	0,020	0,043
-82,884	231,362	0,057	0,066
-81,870	-52,375	-0,076	0,025
-80,855	350,303	0,063	-0,089
-79,840	-200,000	-0,020	0,140
-78,826	24,267	-0,032	-0,018
-77,811	545,272	-0,007	0,012
-76,797	800,000	0,025	-0,065
-75,782	-7,862	-0,022	0,010
-74,767	507,154	0,039	0,064
-73,753	97,954	0,116	0,094
-72,738	-200,000	-0,015	-0,059
-71,724	-200,000	-0,012	-0,049
-70,709	77,484	0,031	-0,023
-69,694	-21,282	-0,088	-0,038
-68,680	507,114	0,073	0,120
-67,665	505,745	-0,084	0,139
-66,651	142,566	0,040	-0,038
-65,636	-200,000	-0,041	-0,149
-64,622	800,000	-0,046	-0,102
-63,607	404,417	0,028	-0,042
-62,592	71,777	0,012	-0,009
-61,578	-200,000	0,012	0,116
-60,563	-8,361	0,097	0,046
-59,549	-128,460	-0,109	0,011
-58,534	30,047	-2,005	-1,203
-57,519	536,024	-1,138	-1,912
-56,505	-200,000	-0,383	-4,389
-55,490	420,418	0,964	1,461
-54,476	800,000	5,124	11,356
-53,461	-200,000	21,939	343,543
-52,446	800,000	763,222	2322,462
-51,432	539,214	1660,640	2796,630
-50,417	70,324	1657,916	1206,674
-49,403	16,920	1531,799	853,108
-48,388	11,076	1455,917	782,627
-47,373	19,289	1447,701	817,526
-46,359	14,512	1436,680	788,596
-45,344	9,333	1432,577	761,689
-44,330	9,286	1430,701	760,438
-43,315	9,281	1428,908	759,434
-42,300	9,264	1427,110	758,365
-41,286	9,266	1425,840	757,670
-40,271	9,286	1424,551	757,049
-39,257	9,225	1423,487	756,168
-38,242	9,342	1422,148	755,978
-37,227	9,323	1421,142	755,324
-36,213	9,273	1420,021	754,464
-35,198	9,302	1418,574	753,802
-34,184	9,357	1417,616	753,521
-33,169	9,282	1416,226	752,397
-32,154	9,301	1415,385	752,011
-31,140	9,290	1413,944	751,163
-30,125	9,299	1413,006	750,676
-29,111	9,300	1411,842	750,033
-28,096	9,316	1410,521	749,377
-27,082	9,301	1409,282	748,617
-26,067	9,183	1408,535	747,642
-25,052	9,268	1407,317	747,363
-24,038	9,273	1406,296	746,812
-23,023	9,251	1405,481	746,250
-22,009	9,245	1404,454	745,648
-20,994	9,242	1403,247	744,959
-19,979	9,251	1402,373	744,511
-18,965	9,183	1401,697	743,805
-17,950	9,212	1400,687	743,372
-16,936	9,162	1399,764	742,621
-15,921	9,105	1398,753	741,791
-14,906	9,156	1397,954	741,573
-13,892	9,177	1396,769	741,014
-12,877	9,203	1396,035	740,715
-11,863	9,200	1395,179	740,219
-10,848	9,112	1394,440	739,388
-9,833	9,111	1393,609	738,913
-8,819	9,038	1392,533	737,979
-7,804	9,041	1391,617	737,476
-6,790	9,067	1390,555	737,006
-5,775	9,078	1389,480	736,455
-4,760	9,083	1388,418	735,888
-3,746	9,078	1387,544	735,370
-2,731	9,078	1386,832	734,966
-1,717	9,104	1385,862	734,542
-0,702	9,085	1384,162	733,523
0,313	13,122	1296,115	705,275
1,327	29,232	686,290	409,763
2,342	44,797	118,777	76,881
3,356	-1,712	16,618	8,218
4,371	-4,323	3,749	1,821
5,386	5,769	1,129	0,587
6,400	800,000	0,213	0,614
7,415	-82,563	-0,195	-0,044
8,429	-42,662	-0,295	-0,105
9,444	63,855	-0,234	-0,165
10,459	87,351	-0,390	-0,304
11,473	-116,345	-0,135	-0,017
12,488	-41,206	-0,172	-0,062
13,502	25,921	-0,386	-0,226
14,517	134,104	-0,342	-0,312
15,531	59,472	-0,444	-0,308
16,546	98,280	-0,370	-0,300
17,561	701,368	-0,229	-0,427
18,575	34,735	-0,247	-0,152
19,590	212,767	-0,223	-0,248
20,604	-62,583	-0,174	-0,050
21,619	36,542	-0,398	-0,247
22,634	69,805	-0,513	-0,372
23,648	3,941	-0,529	-0,271
24,663	14,272	-0,426	-0,233
25,677	435,059	-0,173	-0,266
26,692	240,522	-0,235	-0,276
27,707	110,408	-0,288	-0,244
28,721	290,764	-0,294	-0,376
29,736	96,035	-0,309	-0,248
30,750	94,604	-0,449	-0,359
31,765	176,758	-0,317	-0,325
32,780	-103,143	-0,391	-0,064
33,794	79,921	-0,246	-0,185
34,809	3,787	-0,362	-0,185
35,823	118,154	-0,393	-0,340
36,838	95,802	-0,290	-0,233
37,853	175,787	-0,356	-0,363
38,867	48,663	-0,275	-0,180
39,882	220,935	-0,237	-0,268
40,896	-15,526	-0,295	-0,132
41,911	23,166	-0,355	-0,204
42,926	19,824	-0,357	-0,201
43,940	93,972	-0,336	-0,268
44,955	-2,039	-0,449	-0,221
45,969	11,022	-0,407	-0,218
46,984	177,114	-0,258	-0,264
47,999	67,128	-0,326	-0,233
49,013	-24,432	-0,421	-0,175
50,028	-72,072	-0,381	-0,099
51,042	48,793	-0,360	-0,237
52,057	-47,937	-0,353	-0,119
53,071	13,235	-0,454	-0,246
54,086	365,253	-0,220	-0,312
55,101	118,314	-0,352	-0,305
56,115	213,601	-0,310	-0,344
57,130	28,862	-0,343	-0,203
58,144	219,177	-0,306	-0,344
59,159	144,769	-0,318	-0,298
60,174	-47,505	-0,479	-0,162
61,188	61,837	-0,402	-0,280
62,203	77,967	-0,292	-0,218
63,217	58,353	-0,399	-0,274
64,232	44,431	-0,251	-0,161
65,247	322,152	-0,205	-0,274
66,261	25,171	-0,391	-0,227
67,276	69,785	-0,364	-0,262
68,290	121,783	-0,167	-0,146
69,305	-69,690	-0,386	-0,103
70,320	-52,539	-0,286	-0,092
71,334	-7,886	-0,310	-0,146
72,349	77,962	-0,247	-0,184
73,363	47,587	-0,276	-0,180
74,378	138,651	-0,274	-0,252
75,393	16,519	-0,376	-0,207
76,407	70,415	-0,291	-0,210
77,422	37,451	-0,138	-0,085
78,436	-3,316	-0,237	-0,115
79,451	-24,921	-0,383	-0,158
80,466	51,388	-0,351	-0,233
81,480	98,524	-0,358	-0,288
82,495	89,825	-0,416	-0,325
83,509	237,551	-0,141	-0,164
84,524	370,717	-0,176	-0,251
85,539	4,724	-0,417	-0,214
86,553	9,252	-0,278	-0,147
87,568	155,670	-0,300	-0,289
88,582	12,053	-0,421	-0,226
89,597	71,166	-0,291	-0,211
90,611	94,103	-0,207	-0,164
91,626	126,278	-0,262	-0,232
92,641	25,131	-0,216	-0,125
93,655	97,277	-0,192	-0,154
94,670	97,853	-0,196	-0,158
95,684	-15,713	-0,467	-0,207
96,699	-1,302	-0,221	-0,109
97,714	-56,901	-0,296	-0,091
98,728	-182,160	-0,335	0,004
99,743	-77,093	-0,231	-0,056
100,757	0,054	-0,211	-0,104
101,772	-120,314	-0,119	-0,014
102,787	228,379	-0,212	-0,242
103,801	-42,962	-0,235	-0,083
104,816	-20,763	-0,381	-0,162
105,830	-87,382	-0,336	-0,071
106,845	-24,245	-0,315	-0,131
107,860	101,209	-0,257	-0,209
108,874	57,681	-0,293	-0,200
109,889	69,823	-0,285	-0,205
110,903	101,230	-0,290	-0,236
111,918	339,610	-0,217	-0,297
112,933	-107,982	-0,132	-0,020
113,947	-44,662	-0,182	-0,063
114,962	291,265	-0,165	-0,210
115,976	-0,990	-0,367	-0,181
116,991	26,609	-0,292	-0,170
118,006	344,088	-0,190	-0,261
119,020	-94,401	-0,231	-0,044
120,035	-123,777	-0,223	0,024
121,049	125,282	-0,084	-0,074
122,064	10,081	-0,233	-0,123
123,079	-75,666	-0,185	-0,046
124,093	-106,761	-0,369	-0,057
125,108	-66,980	-0,210	-0,057
126,122	-16,319	-0,315	-0,139
127,137	32,649	-0,297	-0,178
128,151	148,669	-0,131	-0,124
129,166	3,929	-0,124	-0,063
130,181	259,600	-0,225	-0,272
131,195	11,142	-0,127	-0,068
132,210	130,501	-0,252	-0,225
133,224	-31,381	-0,364	-0,142
134,239	182,096	-0,170	-0,175
135,254	131,306	-0,256	-0,229
136,268	59,536	-0,270	-0,185
137,283	41,308	-0,246	-0,154
138,297	-34,135	-0,199	-0,076
139,312	72,968	-0,257	-0,187
140,327	139,483	-0,195	-0,179
141,341	66,509	-0,158	-0,112
142,356	800,000	-0,167	-0,327
143,370	97,690	-0,300	-0,240
144,385	4,058	-0,258	-0,131
145,400	6,088	-0,140	-0,072
146,414	-51,205	-0,354	-0,115
147,429	-32,044	-0,252	-0,098
148,443	800,000	-0,120	-0,234
149,458	-14,111	-0,286	-0,128
150,473	-22,974	-0,199	-0,083
151,487	11,823	-0,235	-0,125
152,502	24,037	-0,160	-0,092
153,516	325,410	-0,242	-0,322
154,531	-31,894	-0,256	-0,099
155,546	210,812	-0,125	-0,137
156,560	12,617	-0,231	-0,124
157,575	-22,591	-0,201	-0,084
158,589	71,157	-0,240	-0,173
159,604	-54,047	-0,342	-0,108
160,619	18,241	-0,259	-0,143
161,633	-78,334	-0,151	-0,036
162,648	187,537	-0,228	-0,237
163,662	185,754	-0,208	-0,215
164,677	83,615	-0,264	-0,200
165,692	-27,345	-0,314	-0,127
166,706	9,283	-0,312	-0,163
167,721	60,149	-0,260	-0,179
168,735	-63,793	-0,280	-0,079
169,750	28,976	-0,232	-0,136
170,764	800,000	-0,126	-0,257
171,779	26,142	-0,171	-0,099
172,794	-77,842	-0,139	-0,033
173,808	52,637	-0,248	-0,164
174,823	7,789	-0,309	-0,160
175,837	-158,583	-0,167	0,007
176,852	97,747	-0,213	-0,170
177,867	-104,623	-0,105	-0,017
178,881	353,899	-0,101	-0,139
179,896	-31,790	-0,112	-0,043
180,910	167,661	-0,148	-0,146
181,925	217,324	-0,159	-0,177
182,940	-22,096	-0,312	-0,131
183,954	46,324	-0,222	-0,143
184,969	-63,526	-0,210	-0,060
185,983	205,889	-0,216	-0,233
186,998	235,800	-0,224	-0,257
188,013	6,943	-0,166	-0,085
189,027	800,000	-0,098	-0,226
190,042	800,000	-0,089	-0,248
191,056	-106,471	-0,203	-0,031
192,071	38,929	-0,211	-0,130
193,086	68,677	-0,138	-0,098
194,100	-62,231	-0,294	-0,084
195,115	441,529	-0,123	-0,187
196,129	100,007	-0,258	-0,207
197,144	-72,685	-0,281	-0,071
198,159	3,596	-0,142	-0,072
199,173	603,195	-0,157	-0,271
200,188	-28,774	-0,141	-0,056
201,202	23,780	-0,229	-0,131
202,217	106,637	-0,248	-0,204
203,232	164,749	-0,186	-0,181
204,246	722,074	-0,094	-0,173
205,261	85,339	-0,237	-0,180
206,275	800,000	-0,106	-0,269
207,290	93,574	-0,102	-0,080
208,304	340,820	-0,145	-0,197
209,319	-134,945	-0,168	-0,014
210,334	-73,371	-0,342	-0,086
211,348	53,934	-0,181	-0,120
212,363	74,698	-0,214	-0,156
213,377	-8,374	-0,196	-0,091
214,392	622,058	-0,070	-0,123
215,407	-73,475	-0,282	-0,071
216,421	-2,240	-0,176	-0,085
217,436	54,670	-0,176	-0,117
218,450	-32,964	-0,184	-0,070
219,465	116,880	-0,173	-0,147
220,480	72,641	-0,205	-0,148
221,494	-58,166	-0,250	-0,075
222,509	7,924	-0,124	-0,064
223,523	685,752	-0,116	-0,209
224,538	182,740	-0,140	-0,143
225,553	84,556	-0,263	-0,199
226,567	351,877	-0,161	-0,221
227,582	-186,719	-0,146	0,001
228,596	71,049	-0,213	-0,152
229,611	30,015	-0,119	0,070
230,626	99,201	-0,078	-0,062
231,640	169,552	-0,143	-0,141
232,655	101,413	-0,172	-0,139
233,669	-118,169	-0,161	-0,020
234,684	-10,112	-0,191	-0,087
235,699	-42,862	-0,176	0,062
236,713	584,725	-0,072	-0,123
237,728	-25,434	-0,110	-0,045
238,742	70,585	-0,221	-0,158
239,757	99,447	-0,230	-0,184
240,772	11,565	-0,233	-0,123
241,786	42,489	-0,237	-0,149
242,801	7,894	-0,177	-0,091
243,815	-32,074	-0,146	0,056
244,830	-110,616	-0,213	-0,030
245,844	-73,568	-0,214	-0,053
246,859	11,409	-0,120	-0,063
247,874	128,303	-0,196	-0,172
248,888	-66,925	-0,274	0,074
249,903	800,000	-0,008	-0,020
250,917	-117,412	-0,146	-0,018
251,932	-200,000	-0,013	0,066
252,947	-31,498	-0,129	-0,050
253,961	-9,298	-0,190	-0,087
254,976	-50,557	-0,151	-0,049
255,990	348,673	-0,177	-0,241
257,005	95,679	-0,199	-0,157
258,020	-43,249	-0,209	-0,073
259,034	127,368	-0,100	-0,087
260,049	82,328	-0,181	-0,135
261,063	133,584	-0,085	-0,075
262,078	-89,380	-0,170	0,034
263,093	-50,324	-0,236	-0,076
264,107	-97,800	-0,099	0,017
265,122	145,121	-0,109	-0,100
266,136	-130,418	-0,258	-0,024
267,151	-24,435	-0,272	-0,111
268,166	-25,838	-0,217	-0,088
269,180	100,689	-0,127	-0,102
270,195	800,000	-0,112	-0,223
271,209	-54,746	-0,151	-0,047
272,224	85,084	-0,083	-0,063
273,239	-40,041	-0,119	-0,042
274,253	210,979	-0,150	-0,162
275,268	-34,088	-0,099	-0,037
276,282	26,148	-0,251	-0,144
277,297	-62,096	-0,153	-0,044
278,312	46,013	-0,269	-0,171
279,326	147,153	-0,101	-0,094
280,341	69,202	-0,112	-0,079
281,355	388,762	-0,029	-0,041
282,370	-99,050	-0,194	0,033
283,384	11,177	-0,225	-0,118
284,399	117,694	-0,216	-0,183
285,414	-42,469	-0,221	-0,077
286,428	358,524	-0,114	-0,157
287,443	611,082	-0,050	-0,086
288,457	-60,388	-0,222	-0,065
289,472	64,507	-0,147	-0,102
290,487	-113,576	-0,133	-0,018
291,501	198,558	-0,142	-0,150
292,516	-49,645	-0,220	-0,072
293,530	8,493	-0,224	-0,115
294,545	103,672	-0,143	-0,115
295,560	55,482	-0,112	-0,075
296,574	100,468	-0,242	-0,193
297,589	-70,477	-0,208	0,054
298,603	-51,383	-0,283	-0,090
299,618	329,724	-0,037	-0,049
300,633	191,320	-0,088	-0,091
301,647	0,276	-0,114	0,055
302,662	800,000	-0,076	0,148
303,676	68,240	-0,045	0,031
304,691	5,644	-0,120	-0,061
305,706	-60,738	-0,166	-0,048
306,720	-88,600	-0,283	-0,057
307,735	-115,677	-0,222	-0,028
308,749	-89,234	-0,247	-0,049
309,764	-82,914	-0,109	-0,024
310,779	-179,834	-0,257	-0,004
311,793	104,011	-0,106	-0,086
312,808	67,576	-0,124	-0,087
313,822	82,347	-0,126	-0,094
314,837	47,404	-0,148	-0,094
315,852	-200,000	-0,050	-0,261
316,866	-104,697	-0,107	-0,017
317,881	-108,928	-0,125	-0,018
318,895	-88,250	-0,224	0,046
319,910	129,200	-0,143	-0,125
320,925	42,192	-0,208	-0,130
321,939	-77,979	-0,131	-0,031
322,954	-55,325	-0,179	-0,055
323,968	303,311	0,091	-0,115
324,983	191,607	-0,133	-0,138
325,997	-8,186	-0,064	0,029
327,012	479,965	-0,144	-0,225
328,027	66,720	-0,147	-0,102
329,041	350,490	-0,127	-0,172
330,056	3,682	-0,124	-0,062
331,070	95,800	-0,194	-0,151
332,085	88,623	-0,094	-0,072
333,100	703,010	-0,065	-0,117
334,114	765,174	-0,119	-0,223
335,129	30,875	-0,190	-0,111
336,143	111,178	-0,173	-0,142
337,158	63,744	-0,219	-0,150
338,173	283,919	-0,019	0,023
339,187	-145,145	-0,180	-0,011
340,202	-124,221	-0,146	-0,015
341,216	-200,000	-0,029	-0,150
342,231	-47,080	-0,224	-0,074
343,246	-95,269	-0,206	-0,037
344,260	800,000	-0,042	-0,096
345,275	800,000	-0,079	-0,231
346,289	-10,315	-0,173	-0,078
347,304	37,983	-0,165	0,100
348,319	637,410	-0,029	0,050
349,333	141,530	-0,083	-0,075
350,348	-52,689	-0,149	-0,047
351,362	-114,952	-0,107	0,014
352,377	117,249	-0,122	-0,103
353,392	275,291	-0,057	-0,069
354,406	54,860	-0,111	-0,073
355,421	208,290	1311,691	1402,756
356,435	160,262	1472,008	1403,210
