DTS Sentinel unit serial number:	SN410029Multiplexer serial number:	ORYXHardware model number:	OX2-SRSoftware version number:	ORYX F/W v4,00 Oryx Data Collector v3.7.2.0data status	okinstallation	B3 Nyhavnadifferential loss correction	single-endedforward channel	channel 1reverse channel	N/Adate	2023/12/01time	06:07:30forward acquisition time	300,00reverse acquisition time	0,00gamma	499,1914k internal	0,3213k external	0,3213temperature offset calibration	1,0000default loss term (dB/km)	0,3820temperature slope calibration	1,0000multiplexer offset coefficient	1,0000multiplexer slope coefficient	1,0000fibre end	0,00T internal ref (°C)	7,81T ext. ref 1 (°C)	-6,84T ext. ref 2 (°C)	-6,98length (m)	temperature (°C)	Stokes	anti-Stokes-744,400	464,637	-0,223	-0,363
-743,385	-200,000	-0,020	0,248
-742,371	126,148	-0,164	-0,150
-741,356	-200,000	-0,049	0,206
-740,342	-41,450	-0,156	-0,058
-739,327	299,697	0,079	0,106
-738,312	-98,020	-0,310	-0,057
-737,298	-200,000	-0,040	0,154
-736,283	79,331	-0,305	-0,237
-735,269	-200,000	-0,055	0,406
-734,254	19,982	-0,067	-0,039
-733,239	70,161	-0,173	0,129
-732,225	-200,000	-0,020	-0,210
-731,210	162,546	0,121	0,123
-730,196	-200,000	-0,013	0,062
-729,181	-200,000	0,022	-0,177
-728,167	-200,000	0,005	0,041
-727,152	800,000	-0,051	-0,150
-726,137	-62,121	-0,073	0,022
-725,123	515,521	-0,106	0,180
-724,108	-46,598	-0,158	0,056
-723,094	646,309	-0,050	0,093
-722,079	84,836	0,022	0,017
-721,064	303,859	-0,023	0,031
-720,050	-97,212	0,066	-0,012
-719,035	-82,558	0,041	0,010
-718,021	74,315	0,044	0,034
-717,006	-200,000	-0,010	-0,092
-715,991	2,836	0,095	-0,050
-714,977	-22,201	-0,093	0,041
-713,962	-200,000	0,010	-0,077
-712,948	800,000	-0,055	0,112
-711,933	800,000	0,023	0,064
-710,918	800,000	0,018	0,041
-709,904	88,841	-0,074	0,059
-708,889	30,229	-0,110	-0,068
-707,875	-2,543	-0,108	-0,055
-706,860	19,900	0,049	0,029
-705,845	-200,000	0,013	0,073
-704,831	-200,000	0,004	-0,089
-703,816	459,236	-0,106	0,171
-702,802	-200,000	-0,003	-0,053
-701,787	120,711	-0,078	0,071
-700,772	-78,995	-0,084	-0,020
-699,758	-200,000	-0,003	-0,054
-698,743	-46,469	0,101	0,035
-697,729	4,147	-0,111	0,059
-696,714	-64,366	-0,032	-0,009
-695,699	66,429	0,060	-0,044
-694,685	123,199	0,014	-0,013
-693,670	-102,272	-0,099	0,017
-692,656	-108,941	0,012	0,002
-691,641	800,000	0,010	-0,023
-690,627	61,967	0,106	-0,076
-689,612	311,643	0,029	-0,040
-688,597	-0,276	0,115	0,059
-687,583	-200,000	-0,031	-0,106
-686,568	-200,000	0,014	0,071
-685,554	-134,395	-0,040	-0,004
-684,539	443,917	0,081	0,129
-683,524	588,657	-0,005	0,010
-682,510	-200,000	0,026	-0,100
-681,495	-39,853	-0,144	-0,054
-680,481	-200,000	0,007	-0,028
-679,466	97,012	0,090	-0,075
-678,451	-200,000	0,003	-0,041
-677,437	49,214	0,048	0,032
-676,422	800,000	-0,008	-0,018
-675,408	-2,243	0,087	-0,044
-674,393	800,000	-0,026	-0,079
-673,378	461,452	0,057	-0,092
-672,364	800,000	-0,006	0,014
-671,349	-150,714	-0,150	0,008
-670,335	310,709	0,078	-0,106
-669,320	-200,000	-0,039	0,126
-668,305	-57,944	0,020	-0,006
-667,291	-2,134	-0,088	0,044
-666,276	190,149	-0,114	0,123
-665,262	176,217	-0,039	-0,041
-664,247	-17,777	0,127	0,057
-663,232	-200,000	0,008	0,083
-662,218	107,933	-0,019	0,016
-661,203	26,692	0,133	0,080
-660,189	800,000	0,034	0,072
-659,174	-94,174	-0,069	-0,014
-658,159	800,000	-0,031	-0,063
-657,145	-118,928	-0,135	0,017
-656,130	-200,000	-0,059	0,000
-655,116	40,047	0,052	0,034
-654,101	337,274	0,045	-0,063
-653,086	36,324	-0,053	-0,034
-652,072	-200,000	0,009	0,058
-651,057	-86,805	0,034	-0,008
-650,043	-53,773	0,035	0,012
-649,028	299,022	-0,053	0,071
-648,014	-71,009	0,095	-0,026
-646,999	-200,000	0,022	-0,076
-645,984	800,000	0,028	-0,069
-644,970	556,610	-0,049	-0,085
-643,955	94,590	-0,068	0,056
-642,941	-144,553	0,160	0,011
-641,926	800,000	0,050	0,113
-640,911	-16,412	0,054	-0,025
-639,897	800,000	0,090	0,242
-638,882	-200,000	0,011	0,061
-637,868	-54,895	-0,130	-0,042
-636,853	394,985	0,055	-0,083
-635,838	125,388	-0,111	-0,101
-634,824	-200,000	-0,010	-0,131
-633,809	506,018	-0,029	-0,049
-632,795	165,826	0,030	-0,031
-631,780	344,793	-0,053	0,075
-630,765	414,402	0,083	-0,128
-629,751	-100,371	-0,089	0,016
-628,736	800,000	-0,043	-0,119
-627,722	-200,000	0,016	-0,062
-626,707	73,573	0,141	0,106
-625,692	800,000	0,028	0,061
-624,678	-200,000	0,011	0,069
-623,663	212,959	-0,040	0,045
-622,649	-79,104	-0,174	-0,042
-621,634	111,385	-0,124	-0,108
-620,619	97,722	-0,061	-0,051
-619,605	-142,799	-0,124	0,009
-618,590	-200,000	0,012	-0,058
-617,576	-130,232	0,051	0,005
-616,561	800,000	-0,017	0,043
-615,546	-16,465	0,060	0,027
-614,532	173,012	-0,153	-0,159
-613,517	171,024	-0,041	-0,042
-612,503	17,365	0,188	-0,107
-611,488	79,528	0,079	0,061
-610,474	800,000	-0,060	0,123
-609,459	762,803	0,022	0,042
-608,444	-94,490	-0,109	-0,021
-607,430	-42,152	-0,070	-0,026
-606,415	-200,000	0,006	0,062
-605,401	-106,473	0,045	0,007
-604,386	32,365	0,065	0,040
-603,371	15,953	-0,075	0,042
-602,357	54,257	-0,030	-0,021
-601,342	-81,065	0,070	-0,016
-600,328	101,483	-0,073	-0,061
-599,313	524,559	-0,050	0,085
-598,298	3,777	0,030	-0,016
-597,284	800,000	-0,018	-0,054
-596,269	3,349	-0,066	0,035
-595,255	-200,000	-0,021	0,148
-594,240	-81,531	-0,210	-0,049
-593,225	-200,000	-0,024	0,114
-592,211	218,640	-0,101	0,117
-591,196	-200,000	-0,034	0,116
-590,182	-150,808	0,033	0,002
-589,167	315,174	-0,031	0,042
-588,152	84,507	0,110	0,087
-587,138	-90,225	0,078	0,016
-586,123	800,000	-0,026	-0,071
-585,109	654,430	0,044	0,082
-584,094	-55,919	0,119	0,038
-583,079	800,000	-0,029	0,063
-582,065	-200,000	0,008	0,053
-581,050	800,000	-0,020	0,059
-580,036	249,417	-0,037	0,045
-579,021	143,206	-0,043	0,041
-578,006	-200,000	0,040	-0,155
-576,992	461,509	0,034	-0,054
-575,977	3,782	0,067	0,035
-574,963	447,567	-0,057	-0,091
-573,948	-23,368	-0,042	-0,018
-572,934	-14,356	0,039	0,018
-571,919	-89,068	-0,129	0,027
-570,904	10,849	-0,096	-0,053
-569,890	-99,863	-0,115	0,021
-568,875	-159,959	-0,079	-0,003
-567,861	258,199	0,077	0,096
-566,846	800,000	0,040	-0,112
-565,831	-200,000	0,016	0,134
-564,817	-98,408	-0,080	-0,015
-563,802	252,427	-0,070	-0,087
-562,788	581,532	0,080	-0,142
-561,773	220,326	-0,060	-0,069
-560,758	-126,007	0,060	0,006
-559,744	-183,199	0,085	-0,001
-558,729	800,000	0,010	-0,030
-557,715	-200,000	0,045	-0,206
-556,700	-200,000	-0,011	-0,036
-555,685	-116,149	-0,179	0,024
-554,671	37,546	-0,030	0,019
-553,656	800,000	-0,040	0,085
-552,642	125,326	0,069	0,062
-551,627	33,243	0,145	0,090
-550,612	120,355	-0,038	0,034
-549,598	-133,089	-0,084	-0,008
-548,583	183,345	0,119	-0,127
-547,569	-131,399	0,028	0,003
-546,554	767,162	-0,086	0,168
-545,539	-200,000	0,021	0,099
-544,525	512,633	-0,035	0,059
-543,510	314,046	0,028	0,038
-542,496	-12,042	-0,128	0,060
-541,481	5,111	0,085	0,045
-540,466	-40,627	0,108	0,040
-539,452	73,128	-0,092	-0,069
-538,437	115,410	-0,112	0,099
-537,423	800,000	0,014	-0,029
-536,408	-97,565	-0,097	-0,018
-535,393	-200,000	0,004	-0,128
-534,379	62,784	0,008	0,006
-533,364	-111,815	0,139	-0,020
-532,350	28,467	-0,108	-0,066
-531,335	253,649	0,051	-0,062
-530,321	178,703	0,063	0,066
-529,306	800,000	0,024	0,064
-528,291	104,023	0,034	0,029
-527,277	26,865	0,034	0,020
-526,262	281,091	-0,095	-0,122
-525,248	-125,452	0,215	0,023
-524,233	-99,500	-0,154	0,028
-523,218	800,000	0,026	0,074
-522,204	-200,000	0,015	-0,053
-521,189	213,537	0,020	0,023
-520,175	643,170	0,060	-0,110
-519,160	235,649	-0,089	-0,106
-518,145	-32,273	0,174	0,069
-517,131	12,422	-0,029	-0,016
-516,116	800,000	0,030	-0,084
-515,102	-173,362	-0,125	-0,003
-514,087	-75,556	-0,034	0,009
-513,072	-200,000	-0,019	-0,089
-512,058	-200,000	-0,002	0,038
-511,043	162,521	0,088	0,088
-510,029	217,951	-0,070	-0,081
-509,014	361,234	0,011	0,016
-507,999	487,160	-0,076	0,124
-506,985	-190,537	0,168	-0,001
-505,970	-172,785	-0,130	-0,003
-504,956	-49,070	0,066	0,022
-503,941	-200,000	-0,000	0,005
-502,926	-58,673	-0,085	-0,026
-501,912	-200,000	0,005	0,029
-500,897	800,000	0,026	0,053
-499,883	-153,917	0,066	-0,003
-498,868	215,005	-0,084	-0,095
-497,853	192,691	0,039	0,043
-496,839	65,320	-0,075	-0,054
-495,824	800,000	0,045	0,106
-494,810	-40,092	-0,009	0,003
-493,795	36,822	0,103	0,065
-492,781	-200,000	0,007	0,038
-491,766	-175,513	0,081	-0,002
-490,751	53,696	-0,102	0,070
-489,737	379,751	-0,022	-0,032
-488,722	152,127	-0,127	0,124
-487,708	128,741	0,090	0,082
-486,693	111,965	-0,034	-0,030
-485,678	-157,991	-0,025	0,001
-484,664	100,313	0,073	-0,060
-483,649	-179,925	0,060	-0,001
-482,635	-100,314	-0,114	-0,020
-481,620	143,698	0,036	-0,034
-480,605	-96,351	-0,063	-0,012
-479,591	185,917	0,015	-0,016
-478,576	-154,076	0,066	0,003
-477,562	-200,000	-0,002	0,020
-476,547	607,782	0,016	0,029
-475,532	38,779	-0,084	0,054
-474,518	26,395	-0,061	-0,037
-473,503	-200,000	0,045	0,161
-472,489	-121,018	-0,167	-0,020
-471,474	250,447	-0,108	0,132
-470,459	148,558	-0,076	-0,073
-469,445	-200,000	-0,035	-0,157
-468,430	-138,099	-0,200	-0,016
-467,416	167,660	0,041	-0,042
-466,401	166,085	-0,098	-0,100
-465,386	800,000	0,052	0,124
-464,372	-31,602	-0,029	-0,012
-463,357	-200,000	-0,013	-0,127
-462,343	-37,860	-0,088	-0,034
-461,328	101,940	0,065	0,054
-460,313	629,589	-0,072	-0,131
-459,299	-101,492	-0,076	-0,013
-458,284	202,192	-0,047	0,052
-457,270	271,575	0,030	0,038
-456,255	55,381	-0,111	-0,077
-455,241	-8,015	-0,095	0,046
-454,226	10,024	-0,097	-0,053
-453,211	274,234	0,080	-0,101
-452,197	-91,582	-0,073	0,015
-451,182	-91,773	0,191	0,039
-450,168	800,000	0,044	0,105
-449,153	800,000	0,011	-0,022
-448,138	800,000	0,054	-0,116
-447,124	51,105	-0,122	-0,082
-446,109	-200,000	-0,005	-0,028
-445,095	111,709	-0,114	0,098
-444,080	-200,000	0,014	0,100
-443,065	-200,000	0,001	0,007
-442,051	-200,000	-0,004	-0,056
-441,036	332,993	-0,081	-0,112
-440,022	96,281	-0,038	0,031
-439,007	62,260	-0,013	0,010
-437,992	89,643	0,111	0,089
-436,978	-161,818	-0,029	0,001
-435,963	-152,300	-0,100	0,005
-434,949	-91,569	0,188	0,038
-433,934	538,370	0,019	0,033
-432,919	800,000	-0,017	0,040
-431,905	145,955	0,030	-0,029
-430,890	-53,687	0,112	0,036
-429,876	-168,451	0,063	-0,002
-428,861	-200,000	-0,033	0,185
-427,846	286,318	0,078	-0,101
-426,832	-200,000	-0,006	-0,116
-425,817	-200,000	0,005	-0,039
-424,803	800,000	-0,022	0,066
-423,788	305,005	0,036	0,047
-422,773	169,004	-0,067	0,068
-421,759	-78,681	0,191	0,046
-420,744	207,333	-0,049	0,055
-419,730	-87,412	-0,070	-0,015
-418,715	-5,729	-0,141	0,069
-417,701	83,976	-0,020	0,016
-416,686	-129,414	0,095	-0,009
-415,671	394,124	0,100	0,150
-414,657	-115,208	0,033	0,004
-413,642	-88,155	0,056	0,012
-412,628	460,175	0,091	-0,146
-411,613	398,242	0,018	-0,027
-410,598	-96,308	0,057	-0,011
-409,584	278,396	0,058	0,074
-408,569	-200,000	-0,013	0,127
-407,555	800,000	0,003	0,007
-406,540	398,416	-0,125	0,188
-405,525	-78,316	-0,052	0,013
-404,511	-200,000	0,025	0,081
-403,496	-200,000	0,018	-0,251
-402,482	-200,000	-0,008	-0,122
-401,467	175,057	-0,072	-0,075
-400,452	-143,398	0,093	-0,006
-399,438	-92,605	0,060	0,012
-398,423	-132,546	-0,102	-0,009
-397,409	-200,000	0,008	-0,134
-396,394	800,000	-0,027	-0,068
-395,379	11,849	0,113	0,062
-394,365	-65,625	-0,053	-0,015
-393,350	30,260	-0,037	0,022
-392,336	-200,000	0,018	-0,135
-391,321	-86,540	0,137	-0,030
-390,306	101,739	-0,055	0,046
-389,292	-54,277	0,051	-0,017
-388,277	-33,407	-0,026	-0,010
-387,263	-38,257	0,131	0,049
-386,248	343,954	-0,067	-0,094
-385,233	-25,794	0,125	0,053
-384,219	-200,000	-0,014	-0,046
-383,204	-139,491	-0,067	-0,005
-382,190	-200,000	-0,052	0,000
-381,175	-94,251	-0,185	0,036
-380,160	77,885	0,080	0,061
-379,146	-57,768	0,063	0,020
-378,131	412,381	0,019	0,029
-377,117	104,652	-0,041	-0,035
-376,102	98,412	0,090	-0,074
-375,088	-200,000	0,009	-0,062
-374,073	-200,000	-0,006	-0,140
-373,058	-67,896	-0,066	0,018
-372,044	16,390	-0,065	0,037
-371,029	57,875	-0,033	-0,023
-370,015	800,000	0,009	-0,029
-369,000	-200,000	-0,002	0,030
-367,985	-200,000	-0,009	0,049
-366,971	-200,000	0,011	0,040
-365,956	800,000	0,024	-0,056
-364,942	101,162	0,062	-0,051
-363,927	510,379	0,025	0,042
-362,912	-200,000	-0,018	0,062
-361,898	-129,291	0,045	0,004
-360,883	368,054	-0,083	-0,120
-359,869	-144,685	-0,118	0,008
-358,854	133,379	-0,037	0,034
-357,839	412,626	0,005	0,008
-356,825	282,594	-0,029	-0,037
-355,810	-200,000	-0,030	0,098
-354,796	26,533	-0,104	-0,062
-353,781	800,000	0,020	-0,039
-352,766	411,950	0,020	-0,030
-351,752	-86,167	-0,104	0,023
-350,737	-200,000	0,031	0,149
-349,723	-200,000	0,039	0,215
-348,708	86,531	0,099	0,078
-347,693	-27,812	0,145	-0,060
-346,679	800,000	0,027	-0,061
-345,664	11,590	-0,043	0,023
-344,650	-200,000	0,161	0,000
-343,635	-200,000	0,020	-0,172
-342,620	147,445	-0,024	-0,023
-341,606	35,990	0,058	-0,036
-340,591	360,287	0,067	-0,096
-339,577	405,791	-0,044	-0,066
-338,562	120,908	0,063	-0,056
-337,548	54,140	-0,083	-0,057
-336,533	500,519	-0,069	-0,114
-335,518	-2,079	0,089	-0,045
-334,504	-200,000	0,016	0,080
-333,489	-31,447	-0,081	0,032
-332,475	6,422	-0,158	-0,084
-331,460	-22,419	-0,050	-0,021
-330,445	-124,455	0,134	-0,015
-329,431	715,970	0,030	0,057
-328,416	-200,000	0,035	0,191
-327,402	95,231	0,102	0,083
-326,387	-117,934	-0,137	0,017
-325,372	-200,000	0,005	-0,151
-324,358	510,228	-0,044	0,074
-323,343	109,250	-0,112	-0,096
-322,329	-200,000	-0,029	0,177
-321,314	-98,469	-0,050	0,009
-320,299	306,070	0,086	0,115
-319,285	-178,564	-0,105	0,002
-318,270	-200,000	-0,012	-0,101
-317,256	21,165	0,052	-0,030
-316,241	574,847	-0,051	-0,089
-315,226	-200,000	-0,014	0,149
-314,212	408,202	-0,082	0,124
-313,197	-7,297	0,084	0,041
-312,183	-104,492	0,170	0,028
-311,168	800,000	-0,086	-0,207
-310,153	-200,000	0,023	-0,139
-309,139	-200,000	0,004	-0,140
-308,124	-200,000	-0,008	-0,067
-307,110	130,370	-0,042	0,038
-306,095	-127,310	0,082	-0,008
-305,080	384,895	-0,098	-0,144
-304,066	159,934	-0,057	-0,057
-303,051	-50,575	0,088	0,029
-302,037	-200,000	-0,027	-0,115
-301,022	43,164	0,137	-0,089
-300,008	-31,375	-0,066	0,026
-298,993	-70,193	0,148	-0,040
-297,978	-26,090	-0,083	-0,035
-296,964	-200,000	0,020	0,070
-295,949	-3,066	0,137	-0,068
-294,935	-200,000	0,009	0,082
-293,920	800,000	0,034	0,085
-292,905	145,399	0,073	0,069
-291,891	800,000	0,067	0,150
-290,876	800,000	-0,047	0,116
-289,862	-200,000	-0,026	-0,085
-288,847	26,818	0,146	-0,087
-287,832	800,000	-0,067	0,148
-286,818	72,922	0,058	0,043
-285,803	-4,492	0,105	-0,052
-284,789	49,745	-0,053	-0,035
-283,774	401,295	-0,031	0,047
-282,759	90,389	0,111	0,089
-281,745	-65,255	-0,103	-0,029
-280,730	-55,198	0,058	-0,019
-279,716	240,697	-0,033	-0,040
-278,701	-6,268	0,113	0,055
-277,686	106,470	-0,108	0,091
-276,672	-200,000	0,011	-0,050
-275,657	-167,992	0,118	-0,003
-274,643	302,318	0,055	-0,072
-273,628	-200,000	-0,038	-0,191
-272,613	90,674	0,096	-0,077
-271,599	-127,850	-0,059	0,006
-270,584	566,314	0,009	0,015
-269,570	-200,000	-0,038	0,151
-268,555	-143,755	-0,100	0,007
-267,540	-38,585	-0,072	0,027
-266,526	37,343	-0,121	-0,076
-265,511	800,000	-0,015	0,032
-264,497	14,344	0,074	0,041
-263,482	28,080	0,078	0,047
-262,467	-56,252	0,204	-0,064
-261,453	88,403	0,142	-0,112
-260,438	-77,698	-0,088	-0,021
-259,424	-49,711	-0,043	0,015
-258,409	161,932	0,047	-0,047
-257,395	154,794	0,167	0,163
-256,380	-200,000	-0,003	0,107
-255,365	800,000	0,049	0,114
-254,351	56,228	-0,161	-0,111
-253,336	-200,000	0,001	-0,146
-252,322	-200,000	0,000	-0,015
-251,307	320,220	-0,037	0,050
-250,292	-70,800	0,176	0,047
-249,278	-29,546	0,215	0,087
-248,263	-59,498	0,109	-0,033
-247,249	-22,378	-0,110	0,047
-246,234	-200,000	0,021	-0,069
-245,219	800,000	-0,066	-0,133
-244,205	-200,000	-0,017	0,134
-243,190	800,000	0,077	0,154
-242,176	328,816	-0,041	-0,057
-241,161	586,066	0,024	-0,043
-240,146	-45,573	0,081	-0,028
-239,132	-200,000	-0,013	0,151
-238,117	650,182	-0,057	0,105
-237,103	-200,000	0,016	0,058
-236,088	79,979	0,081	-0,062
-235,073	155,432	0,098	0,096
-234,059	-200,000	-0,010	0,083
-233,044	246,002	0,033	0,040
-232,030	-200,000	-0,007	-0,110
-231,015	-9,691	-0,045	-0,021
-230,000	369,183	0,016	0,023
-228,986	89,173	-0,159	-0,126
-227,971	87,779	-0,146	-0,114
-226,957	-103,047	0,048	0,008
-225,942	751,192	0,027	-0,051
-224,927	-37,684	-0,181	-0,068
-223,913	261,885	0,090	-0,110
-222,898	-50,719	-0,078	-0,026
-221,884	4,751	0,075	-0,039
-220,869	423,352	0,032	-0,050
-219,855	800,000	-0,027	0,080
-218,840	-200,000	-0,020	0,128
-217,825	71,691	-0,085	0,063
-216,811	277,924	0,094	0,119
-215,796	371,896	0,047	0,069
-214,782	-200,000	-0,061	0,215
-213,767	613,924	0,038	-0,068
-212,752	113,343	0,067	0,058
-211,738	-0,636	0,049	0,024
-210,723	234,500	0,052	-0,061
-209,709	29,518	-0,076	0,046
-208,694	345,075	-0,101	0,142
-207,679	-200,000	0,013	-0,049
-206,665	-1,004	-0,014	-0,007
-205,650	800,000	0,043	-0,104
-204,636	-44,703	-0,068	-0,024
-203,621	-7,550	0,120	-0,057
-202,606	7,301	0,082	-0,043
-201,592	385,687	-0,058	-0,085
-200,577	-176,019	0,116	-0,002
-199,563	399,400	-0,055	-0,082
-198,548	-143,022	0,113	-0,008
-197,533	50,179	0,076	0,051
-196,519	-200,000	0,020	-0,084
-195,504	414,680	-0,065	-0,099
-194,490	381,357	-0,071	-0,103
-193,475	-200,000	-0,024	-0,206
-192,460	800,000	0,022	-0,045
-191,446	57,673	-0,040	0,028
-190,431	17,912	0,082	0,046
-189,417	-200,000	-0,029	0,097
-188,402	150,102	0,039	0,037
-187,387	-42,105	0,068	0,025
-186,373	639,007	0,042	0,076
-185,358	-39,239	-0,072	-0,027
-184,344	800,000	-0,009	0,021
-183,329	413,918	0,045	-0,068
-182,315	214,484	-0,037	-0,041
-181,300	800,000	-0,044	-0,132
-180,285	-200,000	-0,010	-0,156
-179,271	-107,107	0,113	0,018
-178,256	-70,230	0,097	-0,026
-177,242	-75,244	0,079	-0,020
-176,227	-47,747	-0,071	0,024
-175,212	-200,000	-0,005	-0,044
-174,198	660,307	-0,026	-0,049
-173,183	800,000	-0,039	-0,081
-172,169	-85,484	-0,101	0,022
-171,154	800,000	0,057	-0,153
-170,139	-88,710	0,123	0,026
-169,125	97,695	0,013	-0,011
-168,110	-200,000	-0,004	0,016
-167,096	800,000	-0,085	0,224
-166,081	-174,273	0,023	0,000
-165,066	-28,201	-0,100	-0,041
-164,052	-200,000	-0,004	0,060
-163,037	800,000	-0,058	0,149
-162,023	136,052	-0,053	-0,049
-161,008	213,461	-0,105	0,117
-159,993	-86,844	0,128	-0,027
-158,979	800,000	0,017	0,046
-157,964	191,180	-0,075	-0,080
-156,950	-200,000	-0,004	-0,119
-155,935	-200,000	0,021	0,096
-154,920	-76,538	0,120	0,030
-153,906	-200,000	0,047	0,202
-152,891	-168,332	-0,042	-0,001
-151,877	-200,000	-0,056	0,178
-150,862	107,820	-0,120	0,101
-149,847	-200,000	-0,026	-0,130
-148,833	448,429	-0,052	-0,082
-147,818	186,212	-0,026	0,027
-146,804	-178,630	0,023	-0,000
-145,789	579,355	-0,096	0,167
-144,775	800,000	0,058	-0,170
-143,760	201,066	-0,084	0,092
-142,745	-200,000	-0,006	0,030
-141,731	-59,185	-0,109	0,033
-140,716	83,815	-0,131	-0,101
-139,702	-200,000	0,002	-0,066
-138,687	-55,215	0,019	-0,006
-137,672	93,874	0,081	-0,065
-136,658	-200,000	0,007	-0,030
-135,643	88,204	0,083	-0,065
-134,629	-200,000	-0,011	-0,036
-133,614	-70,738	-0,120	-0,032
-132,599	-200,000	0,007	0,025
-131,585	-112,581	-0,025	0,003
-130,570	800,000	0,056	0,164
-129,556	800,000	-0,073	-0,174
-128,541	361,046	0,024	0,034
-127,526	381,986	-0,016	0,023
-126,512	-200,000	-0,006	0,088
-125,497	-161,908	0,015	-0,001
-124,483	-21,279	0,100	0,043
-123,468	-161,748	-0,117	0,004
-122,453	-115,548	0,072	0,009
-121,439	-168,510	0,097	-0,003
-120,424	3,877	0,063	0,032
-119,410	-95,499	0,101	0,019
-118,395	-63,757	-0,094	-0,027
-117,380	240,751	0,053	0,063
-116,366	141,826	-0,023	0,022
-115,351	-200,000	-0,015	-0,070
-114,337	-71,216	-0,125	0,033
-113,322	-16,927	0,106	-0,047
-112,307	96,924	0,048	0,039
-111,293	-150,906	-0,059	-0,003
-110,278	-200,000	0,003	0,015
-109,264	659,418	0,059	0,109
-108,249	229,455	-0,060	-0,070
-107,234	800,000	-0,041	0,111
-106,220	-200,000	0,015	0,059
-105,205	144,605	0,020	0,019
-104,191	-83,726	0,138	-0,031
-103,176	47,270	-0,146	0,096
-102,162	-200,000	0,032	-0,156
-101,147	394,868	-0,026	-0,038
-100,132	-54,614	-0,045	-0,014
-99,118	225,250	0,010	-0,011
-98,103	-105,239	0,124	0,020
-97,089	497,495	0,042	0,069
-96,074	-49,891	0,087	0,029
-95,059	383,157	-0,010	0,014
-94,045	462,778	0,058	-0,091
-93,030	-157,457	0,107	0,004
-92,016	522,423	-0,092	-0,153
-91,001	148,129	0,064	0,061
-89,986	-47,616	0,128	0,044
-88,972	800,000	0,040	0,110
-87,957	188,483	0,022	-0,023
-86,943	22,383	-0,112	0,064
-85,928	-113,548	-0,041	0,006
-84,913	-200,000	-0,032	-0,162
-83,899	-157,590	-0,069	0,003
-82,884	-200,000	0,009	0,133
-81,870	244,629	-0,113	0,134
-80,855	-175,369	0,081	0,002
-79,840	-200,000	-0,012	0,065
-78,826	-8,315	-0,057	-0,027
-77,811	205,980	-0,068	-0,075
-76,797	-200,000	-0,010	0,043
-75,782	-200,000	0,001	0,078
-74,767	-200,000	0,015	0,083
-73,753	-69,476	-0,059	-0,016
-72,738	-89,026	0,063	0,013
-71,724	409,803	0,041	-0,061
-70,709	800,000	-0,011	-0,023
-69,694	51,502	0,077	-0,052
-68,680	800,000	-0,061	-0,124
-67,665	800,000	-0,020	-0,049
-66,651	3,868	0,073	0,037
-65,636	258,679	-0,117	0,143
-64,622	0,555	0,034	-0,017
-63,607	-49,704	-0,080	-0,027
-62,592	-64,801	-0,052	-0,015
-61,578	119,520	-0,036	0,031
-60,563	-65,252	0,149	-0,042
-59,549	145,023	-0,092	0,087
-58,534	74,856	-2,070	-1,536
-57,519	508,004	-1,048	-1,723
-56,505	-200,000	-0,530	-4,508
-55,490	800,000	0,797	1,730
-54,476	800,000	5,446	11,519
-53,461	-200,000	22,601	347,250
-52,446	800,000	757,316	2284,193
-51,432	530,372	1641,426	2746,265
-50,417	67,349	1639,958	1178,806
-49,403	15,396	1517,969	837,949
-48,388	9,657	1444,159	769,669
-47,373	19,320	1436,967	811,798
-46,359	13,190	1425,570	776,428
-45,344	8,001	1421,507	749,675
-44,330	7,909	1419,750	748,281
-43,315	7,872	1417,688	746,988
-42,300	7,861	1416,307	746,182
-41,286	7,965	1414,634	745,758
-40,271	7,854	1413,692	744,711
-39,257	7,893	1412,377	744,171
-38,242	7,952	1411,123	743,759
-37,227	7,937	1410,194	743,168
-36,213	7,864	1408,965	742,150
-35,198	7,907	1407,747	741,683
-34,184	7,938	1406,804	741,301
-33,169	7,856	1405,418	740,157
-32,154	7,889	1404,750	739,930
-31,140	7,909	1403,309	739,234
-30,125	7,940	1402,120	738,722
-29,111	7,869	1401,325	737,943
-28,096	7,903	1399,698	737,217
-27,082	7,826	1398,656	736,281
-26,067	7,767	1397,821	735,535
-25,052	7,890	1396,439	735,351
-24,038	7,874	1395,704	734,859
-23,023	7,834	1394,562	734,047
-22,009	7,796	1393,788	733,433
-20,994	7,761	1392,603	732,616
-19,979	7,833	1391,788	732,492
-18,965	7,769	1390,877	731,687
-17,950	7,765	1389,826	731,087
-16,936	7,772	1388,927	730,620
-15,921	7,718	1387,930	729,816
-14,906	7,748	1386,824	729,344
-13,892	7,771	1386,011	728,991
-12,877	7,742	1385,338	728,476
-11,863	7,700	1384,418	727,772
-10,848	7,727	1383,686	727,480
-9,833	7,706	1382,535	726,751
-8,819	7,675	1381,719	726,150
-7,804	7,650	1380,598	725,417
-6,790	7,672	1379,810	725,075
-5,775	7,693	1378,733	724,578
-4,760	7,676	1377,834	723,999
-3,746	7,667	1377,063	723,524
-2,731	7,663	1376,163	723,003
-1,717	7,638	1375,286	722,398
-0,702	7,628	1373,518	721,397
0,313	11,550	1283,543	691,899
1,327	27,200	675,489	398,923
2,342	42,162	116,102	74,186
3,356	-0,860	16,547	8,232
4,371	2,768	3,973	2,025
5,386	3,504	1,454	0,745
6,400	571,751	0,415	0,715
7,415	-169,672	-0,230	-0,006
8,429	46,901	-0,173	-0,113
9,444	-34,289	-0,285	-0,110
10,459	12,443	-0,255	-0,138
11,473	-31,290	-0,285	-0,112
12,488	-119,494	-0,274	-0,033
13,502	64,903	-0,237	-0,168
14,517	-0,618	-0,210	-0,104
15,531	141,849	-0,388	-0,362
16,546	101,368	-0,226	-0,185
17,561	1,663	-0,398	-0,201
18,575	-19,865	-0,151	0,065
19,590	-5,410	-0,213	-0,102
20,604	-35,926	-0,292	0,110
21,619	70,997	-0,286	-0,208
22,634	197,476	-0,352	-0,378
23,648	65,781	-0,461	-0,328
24,663	122,468	-0,376	-0,330
25,677	-8,345	-0,503	-0,237
26,692	104,884	-0,150	-0,125
27,707	-73,679	-0,323	-0,082
28,721	-22,779	-0,497	-0,210
29,736	9,988	-0,402	-0,214
30,750	265,036	-0,302	-0,371
31,765	-17,652	-0,424	-0,187
32,780	22,219	-0,360	-0,206
33,794	97,363	-0,292	-0,236
34,809	57,518	-0,394	-0,270
35,823	108,018	-0,424	-0,356
36,838	573,617	-0,213	-0,367
37,853	91,588	-0,399	-0,315
38,867	60,740	-0,419	-0,291
39,882	-51,174	-0,412	-0,135
40,896	72,361	-0,286	-0,209
41,911	5,543	-0,326	-0,169
42,926	-23,664	-0,284	-0,119
43,940	-6,788	-0,437	-0,208
44,955	74,659	-0,428	-0,316
45,969	16,362	-0,395	-0,218
46,984	41,470	-0,329	-0,209
47,999	24,013	-0,282	-0,163
49,013	-22,665	-0,377	-0,159
50,028	-143,957	-0,286	-0,019
51,042	-200,000	-0,303	0,001
52,057	-9,619	-0,396	-0,185
53,071	45,958	-0,297	-0,193
54,086	-61,997	-0,310	-0,090
55,101	44,761	-0,296	-0,191
56,115	12,300	-0,337	-0,182
57,130	-6,482	-0,386	-0,184
58,144	317,326	-0,166	-0,221
59,159	256,610	-0,254	-0,307
60,174	-16,819	-0,446	-0,197
61,188	108,067	-0,365	-0,305
62,203	105,552	-0,298	-0,247
63,217	-42,734	-0,244	-0,086
64,232	-35,842	-0,314	-0,119
65,247	107,947	-0,368	-0,307
66,261	121,992	-0,354	-0,310
67,276	-3,760	-0,405	-0,197
68,290	-107,250	-0,301	-0,046
69,305	-7,178	-0,348	-0,165
70,320	-6,653	-0,420	-0,200
71,334	-27,067	-0,372	-0,151
72,349	-175,254	-0,319	0,006
73,363	46,207	-0,440	-0,285
74,378	186,467	-0,270	-0,282
75,393	19,405	-0,367	-0,206
76,407	-16,424	-0,125	-0,055
77,422	110,969	-0,247	-0,209
78,436	106,415	-0,272	-0,226
79,451	65,798	-0,402	-0,285
80,466	22,725	-0,319	-0,182
81,480	12,910	-0,420	-0,227
82,495	153,945	-0,197	-0,189
83,509	-96,865	-0,290	0,053
84,524	-94,157	-0,314	-0,060
85,539	279,649	-0,184	-0,230
86,553	-2,478	-0,195	-0,095
87,568	1,611	-0,253	-0,127
88,582	-113,774	-0,451	-0,061
89,597	22,334	-0,263	-0,150
90,611	73,331	-0,375	-0,274
91,626	174,237	-0,238	-0,241
92,641	-43,423	-0,291	-0,102
93,655	-128,598	-0,251	-0,024
94,670	33,833	-0,301	-0,183
95,684	44,261	-0,400	-0,256
96,699	169,942	-0,221	-0,221
97,714	79,281	-0,221	-0,165
98,728	44,384	-0,217	-0,139
99,743	-61,353	-0,222	-0,065
100,757	-25,519	-0,322	-0,132
101,772	37,950	-0,273	-0,169
102,787	66,441	-0,367	-0,260
103,801	47,060	-0,163	-0,106
104,816	189,776	-0,254	-0,267
105,830	113,378	-0,289	-0,245
106,845	160,695	-0,200	-0,196
107,860	-18,395	-0,373	-0,162
108,874	219,690	-0,225	-0,252
109,889	43,896	-0,320	-0,204
110,903	-31,166	-0,275	-0,108
111,918	82,194	-0,305	-0,231
112,933	-8,166	-0,250	-0,117
113,947	-127,151	-0,219	0,022
114,962	-169,932	-0,231	-0,006
115,976	-40,923	-0,161	-0,058
116,991	131,518	-0,323	-0,290
118,006	-46,951	-0,209	-0,071
119,020	36,854	-0,234	-0,144
120,035	-131,389	-0,306	-0,028
121,049	198,848	-0,160	-0,171
122,064	-105,490	-0,266	-0,042
123,079	20,359	-0,262	-0,147
124,093	-99,108	-0,310	-0,054
125,108	78,314	-0,209	-0,155
126,122	-55,290	-0,155	-0,048
127,137	73,729	-0,090	-0,066
128,151	-115,387	-0,252	-0,033
129,166	336,471	-0,106	-0,144
130,181	-0,843	-0,149	-0,073
131,195	113,239	-0,237	-0,200
132,210	51,826	-0,161	-0,107
133,224	-2,286	-0,323	-0,157
134,239	93,921	-0,153	-0,121
135,254	-85,769	-0,300	-0,064
136,268	55,383	-0,115	-0,078
137,283	64,276	-0,312	-0,219
138,297	128,603	-0,273	-0,242
139,312	251,747	-0,272	-0,323
140,327	-119,488	-0,234	-0,028
141,341	-13,856	-0,254	-0,114
142,356	-82,400	-0,252	-0,057
143,370	9,315	-0,149	-0,078
144,385	5,410	-0,371	-0,190
145,400	136,095	-0,240	-0,218
146,414	-11,867	-0,388	-0,177
147,429	10,578	-0,234	-0,124
148,443	264,770	-0,160	-0,195
149,458	239,587	-0,146	-0,169
150,473	-71,109	-0,169	-0,044
151,487	-54,236	-0,208	0,065
152,502	20,167	-0,284	-0,159
153,516	259,219	-0,192	-0,231
154,531	677,012	-0,163	-0,296
155,546	206,593	-0,217	-0,235
156,560	-172,863	-0,267	0,006
157,575	294,446	-0,142	-0,181
158,589	176,966	-0,185	-0,188
159,604	230,032	-0,186	-0,211
160,619	202,745	-0,334	-0,359
161,633	128,716	-0,236	-0,210
162,648	36,170	-0,284	-0,173
163,662	2,124	-0,351	-0,176
164,677	0,199	-0,223	-0,110
165,692	74,574	-0,289	-0,211
166,706	51,094	-0,280	-0,184
167,721	96,416	-0,185	-0,147
168,735	22,525	-0,248	-0,141
169,750	322,156	-0,182	-0,241
170,764	-78,276	-0,187	-0,044
171,779	-13,801	-0,176	-0,079
172,794	46,069	-0,355	-0,228
173,808	125,360	-0,232	-0,203
174,823	353,581	-0,205	-0,283
175,837	445,743	-0,113	-0,173
176,852	39,173	-0,286	-0,177
177,867	59,627	-0,261	-0,178
178,881	101,856	-0,172	-0,139
179,896	50,276	-0,143	-0,094
180,910	78,230	-0,220	-0,163
181,925	-14,570	-0,233	-0,103
182,940	-11,760	-0,331	-0,150
183,954	114,600	-0,259	-0,219
184,969	0,189	-0,193	-0,095
185,983	-25,007	-0,207	-0,085
186,998	0,246	-0,192	-0,095
188,013	17,785	-0,273	-0,150
189,027	-40,998	-0,404	-0,144
190,042	450,054	-0,119	-0,182
191,056	202,383	-0,180	-0,193
192,071	800,000	-0,090	-0,186
193,086	709,939	-0,148	-0,272
194,100	32,892	-0,214	-0,128
195,115	54,182	-0,243	-0,162
196,129	-25,439	-0,226	-0,092
197,144	51,134	-0,243	-0,159
198,159	177,196	-0,219	-0,221
199,173	800,000	-0,184	-0,361
200,188	-128,644	-0,184	0,018
201,202	31,279	-0,194	-0,115
202,217	235,747	-0,108	-0,123
203,232	23,002	-0,119	-0,068
204,246	55,066	-0,277	-0,185
205,261	342,011	-0,250	-0,340
206,275	-161,576	-0,221	-0,008
207,290	-161,615	-0,114	-0,004
208,304	-154,933	-0,208	-0,009
209,319	-176,584	-0,225	0,004
210,334	38,636	-0,282	-0,174
211,348	800,000	-0,054	-0,151
212,363	-162,477	-0,303	-0,010
213,377	171,475	-0,134	-0,133
214,392	192,945	-0,097	-0,102
215,407	449,243	-0,112	-0,171
216,421	-200,000	-0,018	-0,174
217,436	21,183	-0,277	-0,155
218,450	31,430	-0,265	-0,157
219,465	-45,297	-0,369	-0,126
220,480	800,000	-0,142	-0,306
221,494	9,351	-0,181	-0,095
222,509	720,852	-0,136	-0,251
223,523	-27,686	-0,065	-0,026
224,538	64,818	-0,137	-0,096
225,553	-77,367	-0,277	-0,066
226,567	194,840	-0,160	-0,168
227,582	-38,398	-0,257	-0,093
228,596	13,286	-0,198	-0,106
229,611	-102,332	-0,129	-0,021
230,626	-23,155	-0,131	-0,054
231,640	-151,320	-0,182	0,009
232,655	168,507	-0,166	-0,163
233,669	141,163	-0,232	-0,212
234,684	-5,838	-0,220	-0,104
235,699	-77,664	-0,203	-0,048
236,713	-37,357	-0,151	-0,055
237,728	800,000	-0,075	-0,212
238,742	163,022	-0,125	-0,122
239,757	70,849	-0,233	-0,167
240,772	-57,903	-0,295	-0,088
241,786	282,700	-0,172	-0,213
242,801	-16,179	-0,195	-0,085
243,815	-138,167	-0,218	0,016
244,830	-51,492	-0,108	-0,034
245,844	235,529	-0,113	-0,129
246,859	719,308	-0,093	-0,172
247,874	-59,555	-0,231	-0,068
248,888	800,000	-0,063	-0,185
249,903	54,950	-0,093	-0,062
250,917	61,215	-0,150	-0,103
251,932	-69,629	-0,161	-0,042
252,947	42,514	-0,287	-0,179
253,961	53,994	-0,175	-0,116
254,976	34,768	-0,245	-0,147
255,990	265,618	-0,184	-0,221
257,005	-79,912	-0,222	-0,051
258,020	-45,523	-0,106	-0,036
259,034	-176,033	0,053	0,001
260,049	142,394	-0,187	-0,171
261,063	259,930	-0,169	-0,201
262,078	800,000	-0,058	-0,117
263,093	-9,834	-0,336	-0,153
264,107	-54,030	-0,194	-0,060
265,122	343,400	-0,145	-0,196
266,136	207,017	-0,124	-0,133
267,151	-58,132	-0,236	-0,070
268,166	107,492	-0,164	-0,135
269,180	466,670	-0,109	-0,169
270,195	-51,742	-0,145	-0,046
271,209	382,474	-0,125	-0,177
272,224	121,603	-0,235	-0,202
273,239	-149,064	-0,279	-0,015
274,253	133,583	-0,132	-0,117
275,268	-86,360	-0,141	-0,030
276,282	403,046	-0,166	-0,242
277,297	-128,433	-0,330	-0,032
278,312	249,631	-0,243	-0,284
279,326	193,796	-0,193	-0,201
280,341	13,084	-0,110	0,058
281,355	-200,000	-0,003	0,112
282,370	164,158	-0,238	-0,230
283,384	-36,631	-0,193	-0,071
284,399	204,933	-0,190	-0,203
285,414	306,407	-0,094	-0,121
286,428	471,171	-0,127	-0,197
287,443	800,000	-0,060	-0,122
288,457	-32,423	-0,049	0,019
289,472	234,949	-0,085	-0,097
290,487	452,817	-0,111	-0,170
291,501	153,026	-0,237	-0,223
292,516	7,694	-0,178	-0,091
293,530	45,810	-0,116	0,074
294,545	406,967	-0,073	-0,106
295,560	-95,160	-0,239	-0,044
296,574	-112,713	-0,199	0,027
297,589	-10,507	-0,189	-0,085
298,603	289,659	-0,161	-0,201
299,618	-156,522	-0,196	-0,008
300,633	-200,000	0,001	-0,142
301,647	-145,435	-0,191	-0,012
302,662	-120,379	-0,231	0,027
303,676	800,000	-0,059	-0,142
304,691	189,302	-0,147	-0,151
305,706	128,383	-0,134	-0,117
306,720	595,998	-0,109	-0,187
307,735	137,380	-0,147	-0,132
308,749	85,168	-0,097	-0,073
309,764	54,977	-0,084	-0,056
310,779	11,890	-0,174	-0,091
311,793	18,163	-0,216	-0,118
312,808	767,639	-0,067	-0,126
313,822	368,402	-0,104	-0,145
314,837	40,333	-0,046	0,028
315,852	-46,919	-0,160	0,053
316,866	-200,000	-0,016	-0,102
317,881	-52,902	-0,167	0,052
318,895	129,259	-0,055	0,048
319,910	3,946	-0,201	-0,100
320,925	-50,233	-0,242	-0,078
321,939	91,782	-0,150	-0,116
322,954	-144,106	-0,096	0,006
323,968	142,891	-0,159	-0,145
324,983	-104,411	-0,102	-0,016
325,997	195,171	-0,121	-0,126
327,012	292,186	-0,073	-0,091
328,027	-58,496	-0,224	-0,066
329,041	138,863	-0,111	-0,100
330,056	-200,000	-0,040	-0,252
331,070	800,000	-0,030	0,057
332,085	35,049	-0,174	0,104
333,100	7,182	-0,176	0,090
334,114	-59,886	-0,226	-0,066
335,129	-89,189	-0,116	-0,023
336,143	38,562	-0,121	-0,073
337,158	-3,740	-0,144	-0,068
338,173	18,901	-0,141	-0,077
339,187	800,000	-0,075	-0,146
340,202	-13,650	-0,105	-0,046
341,216	234,121	-0,096	-0,109
342,231	-70,104	-0,077	0,020
343,246	-14,569	-0,025	0,011
344,260	153,721	-0,041	-0,039
345,275	70,633	-0,066	-0,047
346,289	-139,567	-0,195	0,014
347,304	-120,090	-0,249	0,029
348,319	-86,656	-0,168	-0,035
349,333	89,401	-0,071	-0,054
350,348	122,205	-0,057	-0,049
351,362	-81,155	-0,108	-0,024
352,377	222,203	-0,126	-0,138
353,392	-34,835	-0,171	-0,064
354,406	-96,748	-0,060	0,011
355,421	208,166	1307,421	1398,134
356,435	160,166	1467,171	1398,559
