DTS Sentinel unit serial number:	SN410029Multiplexer serial number:	ORYXHardware model number:	OX2-SRSoftware version number:	ORYX F/W v4,00 Oryx Data Collector v3.7.2.0data status	okinstallation	B3 Nyhavnadifferential loss correction	single-endedforward channel	channel 1reverse channel	N/Adate	2023/12/01time	00:47:30forward acquisition time	300,00reverse acquisition time	0,00gamma	499,1914k internal	0,3211k external	0,3211temperature offset calibration	1,0000default loss term (dB/km)	0,3820temperature slope calibration	1,0000multiplexer offset coefficient	1,0000multiplexer slope coefficient	1,0000fibre end	0,00T internal ref (°C)	9,11T ext. ref 1 (°C)	-5,95T ext. ref 2 (°C)	-6,09length (m)	temperature (°C)	Stokes	anti-Stokes-744,400	281,436	-0,124	-0,161
-743,385	-200,000	-0,013	0,178
-742,371	206,169	-0,147	-0,166
-741,356	-200,000	-0,051	0,284
-740,342	19,630	-0,186	-0,108
-739,327	800,000	0,081	0,198
-738,312	135,281	-0,217	-0,205
-737,298	800,000	-0,104	0,214
-736,283	-200,000	-0,040	-0,205
-735,269	800,000	0,100	0,308
-734,254	-73,803	-0,144	0,038
-733,239	-43,095	-0,302	0,110
-732,225	187,664	-0,174	-0,189
-731,210	418,671	0,054	0,084
-730,196	-12,469	0,122	-0,058
-729,181	-17,549	-0,163	-0,074
-728,167	800,000	-0,023	-0,066
-727,152	337,243	-0,012	0,017
-726,137	-200,000	-0,003	0,063
-725,123	-114,427	-0,048	0,007
-724,108	-112,114	-0,230	0,033
-723,094	-41,169	-0,074	0,028
-722,079	239,897	0,102	-0,123
-721,064	54,763	0,054	-0,038
-720,050	-147,370	0,154	-0,009
-719,035	493,038	-0,063	0,105
-718,021	-32,317	-0,063	-0,025
-717,006	323,762	-0,055	-0,076
-715,991	-200,000	0,035	-0,139
-714,977	113,192	-0,137	-0,120
-713,962	27,603	0,140	-0,085
-712,948	272,018	0,074	-0,094
-711,933	-200,000	-0,003	-0,086
-710,918	612,923	-0,026	-0,048
-709,904	-162,241	0,041	-0,001
-708,889	55,611	-0,168	-0,118
-707,875	-97,851	-0,110	-0,020
-706,860	233,717	0,063	-0,075
-705,845	-56,715	0,020	-0,006
-704,831	-200,000	0,008	0,044
-703,816	-133,303	0,088	0,008
-702,802	-32,587	-0,114	0,046
-701,787	-200,000	0,046	-0,169
-700,772	-137,057	-0,049	-0,004
-699,758	-12,729	0,152	-0,072
-698,743	800,000	-0,036	0,074
-697,729	134,020	-0,066	-0,062
-696,714	-66,660	-0,066	-0,019
-695,699	109,010	0,089	-0,077
-694,685	-14,624	-0,122	0,057
-693,670	-156,485	-0,045	-0,002
-692,656	464,553	0,012	-0,020
-691,641	-69,755	0,060	-0,016
-690,627	-92,003	-0,091	-0,018
-689,612	352,811	-0,054	-0,077
-688,597	-200,000	-0,023	-0,094
-687,583	-67,132	-0,098	-0,028
-686,568	-162,922	0,173	0,006
-685,554	-200,000	-0,007	0,057
-684,539	234,968	0,086	0,103
-683,524	386,185	0,036	0,053
-682,510	29,144	-0,049	0,030
-681,495	-2,009	-0,158	-0,080
-680,481	-98,756	0,104	0,019
-679,466	-200,000	0,039	-0,169
-678,451	-200,000	-0,011	0,102
-677,437	-123,520	0,097	-0,011
-676,422	-36,132	0,083	0,032
-675,408	800,000	-0,032	-0,094
-674,393	19,221	0,052	0,030
-673,378	646,692	-0,054	-0,100
-672,364	235,873	-0,049	-0,058
-671,349	800,000	0,029	-0,082
-670,335	-115,072	0,107	0,014
-669,320	-83,565	-0,092	0,021
-668,305	376,918	0,028	0,042
-667,291	11,242	-0,112	0,062
-666,276	800,000	0,041	-0,118
-665,262	429,589	-0,054	-0,085
-664,247	-62,492	0,105	-0,031
-663,232	35,660	0,090	0,057
-662,218	718,417	0,021	-0,040
-661,203	105,209	0,057	-0,048
-660,189	356,899	0,068	-0,099
-659,174	521,711	-0,041	-0,070
-658,159	128,930	0,063	0,058
-657,145	800,000	0,034	0,106
-656,130	-200,000	0,010	0,100
-655,116	-200,000	-0,036	-0,165
-654,101	410,483	0,031	-0,048
-653,086	161,481	-0,142	0,144
-652,072	352,474	-0,062	-0,089
-651,057	-63,051	-0,043	-0,013
-650,043	800,000	-0,023	-0,056
-649,028	-140,072	0,027	-0,002
-648,014	-9,303	0,097	0,047
-646,999	-200,000	0,014	0,057
-645,984	-29,744	0,122	0,050
-644,970	-150,288	-0,137	-0,007
-643,955	-78,057	-0,182	0,045
-642,941	327,075	0,059	-0,082
-641,926	98,716	-0,126	-0,105
-640,911	66,180	-0,096	-0,070
-639,897	14,484	-0,170	0,095
-638,882	-200,000	0,019	-0,103
-637,868	-47,810	-0,078	0,027
-636,853	-81,362	-0,074	0,017
-635,838	59,449	0,048	-0,034
-634,824	343,128	-0,006	-0,008
-633,809	385,508	0,053	0,079
-632,795	-104,056	-0,008	-0,001
-631,780	800,000	-0,015	0,031
-630,765	-59,567	0,036	0,011
-629,751	-200,000	0,014	0,083
-628,736	-136,578	-0,084	-0,007
-627,722	-40,503	-0,043	0,016
-626,707	-200,000	-0,009	0,040
-625,692	41,136	0,183	-0,119
-624,678	587,269	0,022	-0,040
-623,663	-200,000	0,025	-0,089
-622,649	-200,000	-0,027	-0,229
-621,634	-200,000	-0,000	0,024
-620,619	11,516	-0,069	-0,038
-619,605	-24,471	0,053	0,023
-618,590	800,000	-0,010	0,025
-617,576	-200,000	0,018	-0,226
-616,561	479,748	0,045	-0,073
-615,546	-1,351	-0,081	-0,041
-614,532	413,498	-0,022	-0,034
-613,517	800,000	-0,026	0,071
-612,503	-23,146	0,075	0,032
-611,488	800,000	-0,038	-0,118
-610,474	-200,000	-0,025	0,171
-609,459	249,121	-0,036	0,044
-608,444	-191,927	-0,070	-0,000
-607,430	-183,629	-0,124	-0,001
-606,415	-71,648	-0,212	-0,057
-605,401	42,498	-0,024	0,016
-604,386	800,000	-0,073	0,162
-603,371	179,858	0,037	-0,040
-602,357	711,305	-0,029	-0,056
-601,342	194,773	0,047	0,051
-600,328	800,000	0,039	-0,097
-599,313	5,396	0,087	-0,046
-598,298	218,018	-0,071	-0,082
-597,284	62,299	0,129	-0,092
-596,269	157,357	0,069	-0,069
-595,255	800,000	0,047	0,147
-594,240	-45,713	-0,160	-0,057
-593,225	239,936	0,054	-0,065
-592,211	78,362	0,013	-0,010
-591,196	360,702	0,008	0,012
-590,182	-88,404	0,125	0,027
-589,167	354,321	-0,040	0,057
-588,152	118,281	-0,026	-0,023
-587,138	17,726	-0,092	-0,053
-586,123	800,000	0,059	-0,185
-585,109	290,960	0,023	-0,030
-584,094	-75,204	0,030	-0,008
-583,079	800,000	-0,033	-0,100
-582,065	282,758	0,159	-0,206
-581,050	24,077	-0,065	-0,038
-580,036	487,461	0,025	-0,041
-579,021	32,176	-0,095	0,059
-578,006	69,580	0,043	-0,032
-576,992	800,000	0,008	-0,022
-575,977	800,000	-0,022	0,047
-574,963	158,579	0,064	0,064
-573,948	238,136	0,063	-0,075
-572,934	-138,581	-0,134	-0,010
-571,919	38,576	-0,038	0,024
-570,904	-200,000	0,027	-0,118
-569,890	183,119	0,016	-0,018
-568,875	-200,000	0,013	0,079
-567,861	45,757	-0,029	-0,019
-566,846	800,000	0,066	0,167
-565,831	37,268	0,060	-0,038
-564,817	-200,000	-0,002	0,034
-563,802	54,777	-0,111	-0,077
-562,788	685,809	-0,003	-0,007
-561,773	-31,691	-0,062	0,025
-560,758	-9,056	0,109	-0,052
-559,744	218,089	0,046	-0,053
-558,729	-0,642	0,108	-0,055
-557,715	720,179	0,029	0,055
-556,700	-200,000	-0,047	0,153
-555,685	144,391	-0,137	-0,132
-554,671	-200,000	-0,005	-0,089
-553,656	55,058	-0,025	-0,017
-552,642	-33,487	0,034	-0,013
-551,627	78,920	0,077	0,059
-550,612	41,345	0,119	0,077
-549,598	-67,573	0,149	-0,042
-548,583	51,181	-0,195	-0,133
-547,569	41,222	-0,092	-0,060
-546,554	345,404	-0,122	0,172
-545,539	-200,000	-0,003	0,010
-544,525	-21,056	0,079	0,035
-543,510	380,320	-0,025	-0,038
-542,496	49,695	-0,065	-0,044
-541,481	-94,573	0,096	-0,019
-540,466	-32,482	-0,031	-0,013
-539,452	800,000	0,042	-0,087
-538,437	-200,000	-0,009	0,113
-537,423	-169,255	-0,022	-0,001
-536,408	-44,046	0,152	-0,055
-535,393	-126,195	0,112	0,012
-534,379	-27,818	-0,094	-0,039
-533,364	677,402	0,053	-0,099
-532,350	435,982	-0,022	-0,034
-531,335	313,267	0,094	-0,127
-530,321	800,000	0,055	0,111
-529,306	226,780	0,060	-0,071
-528,291	566,937	-0,072	-0,126
-527,277	800,000	0,043	-0,111
-526,262	-58,783	-0,128	0,040
-525,248	-69,717	-0,084	-0,023
-524,233	-46,618	0,071	0,025
-523,218	321,442	-0,115	0,157
-522,204	-200,000	-0,004	-0,109
-521,189	520,598	-0,055	-0,093
-520,175	-72,966	-0,065	-0,017
-519,160	614,511	0,019	0,034
-518,145	444,762	0,031	0,049
-517,131	800,000	-0,023	0,047
-516,116	-19,013	0,128	-0,057
-515,102	-30,143	0,032	0,013
-514,087	-12,157	-0,079	0,037
-513,072	141,220	0,051	-0,049
-512,058	-78,472	-0,086	0,021
-511,043	113,837	0,097	-0,085
-510,029	-67,050	0,103	0,029
-509,014	463,056	0,038	0,061
-507,999	-70,546	0,079	-0,021
-506,985	-200,000	-0,007	-0,149
-505,970	-81,482	-0,180	-0,042
-504,956	-154,830	-0,117	0,005
-503,941	-119,885	-0,092	-0,011
-502,926	-95,765	-0,067	-0,013
-501,912	18,890	0,162	0,093
-500,897	-200,000	0,017	0,078
-499,883	-200,000	-0,005	-0,126
-498,868	800,000	-0,032	-0,074
-497,853	215,606	0,079	-0,090
-496,839	-200,000	-0,010	-0,043
-495,824	98,028	-0,065	-0,054
-494,810	420,595	0,066	0,102
-493,795	356,651	0,062	-0,089
-492,781	115,927	-0,020	0,018
-491,766	300,534	-0,093	-0,124
-490,751	542,850	-0,044	-0,076
-489,737	472,044	-0,014	-0,023
-488,722	-200,000	-0,008	0,100
-487,708	-74,130	0,165	0,043
-486,693	-200,000	-0,011	0,040
-485,678	-200,000	-0,026	-0,137
-484,664	232,478	-0,050	-0,059
-483,649	43,869	-0,058	0,038
-482,635	199,987	0,010	-0,011
-481,620	42,701	0,070	0,046
-480,605	800,000	0,055	0,142
-479,591	32,213	-0,044	-0,027
-478,576	34,573	0,081	-0,050
-477,562	-200,000	0,014	-0,065
-476,547	4,894	0,117	0,062
-475,532	217,593	-0,024	-0,028
-474,518	51,286	0,021	0,014
-473,503	-68,168	0,068	-0,019
-472,489	-200,000	-0,023	0,174
-471,474	-200,000	-0,020	-0,138
-470,459	-200,000	-0,011	-0,040
-469,445	-200,000	0,045	-0,168
-468,430	497,037	-0,088	-0,145
-467,416	-200,000	0,008	-0,044
-466,401	284,804	0,047	0,061
-465,386	14,432	0,053	-0,029
-464,372	800,000	0,034	-0,092
-463,357	134,234	0,066	0,061
-462,343	-23,177	0,008	0,003
-461,328	2,741	-0,054	-0,028
-460,313	-54,934	0,109	-0,035
-459,299	-60,793	-0,021	0,006
-458,284	800,000	0,036	-0,112
-457,270	-2,496	0,082	-0,041
-456,255	-200,000	-0,012	0,123
-455,241	800,000	-0,048	-0,116
-454,226	118,229	-0,104	0,092
-453,211	154,235	0,089	-0,088
-452,197	-200,000	-0,022	0,093
-451,182	800,000	-0,016	0,048
-450,168	-35,772	-0,059	0,023
-449,153	800,000	0,056	-0,155
-448,138	245,104	-0,073	-0,088
-447,124	-200,000	0,037	0,189
-446,109	260,685	-0,054	-0,066
-445,095	-200,000	0,047	0,183
-444,080	-109,581	0,043	0,006
-443,065	-80,573	0,126	-0,030
-442,051	259,203	0,027	0,033
-441,036	800,000	0,063	-0,140
-440,022	69,145	-0,132	0,097
-439,007	291,075	-0,090	-0,117
-437,992	-200,000	0,020	0,064
-436,978	-12,321	0,130	0,061
-435,963	192,363	0,106	0,115
-434,949	138,455	-0,050	-0,047
-433,934	456,254	0,033	-0,053
-432,919	195,632	0,044	0,047
-431,905	-200,000	-0,007	0,076
-430,890	210,788	0,093	0,105
-429,876	-200,000	-0,024	0,099
-428,861	800,000	0,049	0,130
-427,846	800,000	0,056	0,159
-426,832	361,709	-0,065	0,094
-425,817	-127,770	-0,067	0,007
-424,803	623,250	-0,012	-0,021
-423,788	122,453	0,074	0,066
-422,773	696,454	-0,068	0,129
-421,759	800,000	-0,075	0,215
-420,744	800,000	-0,040	0,115
-419,730	-80,060	-0,113	0,027
-418,715	180,033	0,063	0,066
-417,701	323,420	0,070	-0,096
-416,686	435,479	0,057	-0,089
-415,671	800,000	0,040	-0,080
-414,657	-97,043	-0,064	0,012
-413,642	98,692	0,057	0,047
-412,628	445,786	-0,050	-0,079
-411,613	-200,000	-0,008	-0,137
-410,598	73,824	-0,024	-0,018
-409,584	776,602	-0,023	-0,044
-408,569	145,595	-0,038	-0,036
-407,555	-115,864	0,084	-0,011
-406,540	5,182	-0,059	0,031
-405,525	190,509	-0,073	-0,079
-404,511	800,000	0,038	-0,093
-403,496	-134,966	0,074	0,006
-402,482	152,773	-0,120	0,117
-401,467	128,715	0,100	-0,091
-400,452	90,912	-0,030	-0,024
-399,438	16,212	0,039	0,022
-398,423	583,914	-0,027	-0,047
-397,409	800,000	0,014	0,029
-396,394	584,037	0,051	0,089
-395,379	80,243	0,017	0,013
-394,365	286,718	0,007	0,009
-393,350	-101,200	0,212	0,037
-392,336	35,399	0,074	0,046
-391,321	-102,417	-0,108	-0,018
-390,306	-24,507	-0,074	-0,032
-389,292	86,170	0,106	-0,083
-388,277	-176,362	0,043	0,001
-387,263	800,000	0,042	0,115
-386,248	70,390	-0,104	-0,077
-385,233	-15,226	-0,020	0,009
-384,219	40,824	-0,078	0,050
-383,204	-103,060	-0,139	0,023
-382,190	-104,763	-0,053	-0,009
-381,175	800,000	-0,052	-0,130
-380,160	-20,439	0,032	-0,014
-379,146	-82,760	-0,077	0,018
-378,131	-131,978	0,147	-0,013
-377,117	-142,573	0,215	0,015
-376,102	388,128	-0,023	0,034
-375,088	-200,000	0,015	-0,067
-374,073	219,440	0,069	0,080
-373,058	-200,000	-0,032	0,109
-372,044	-41,060	-0,111	-0,041
-371,029	-80,036	-0,129	0,031
-370,015	-163,669	0,097	-0,003
-369,000	602,800	-0,021	-0,037
-367,985	103,010	0,089	-0,075
-366,971	297,974	-0,013	0,017
-365,956	-200,000	0,003	0,040
-364,942	222,085	0,049	0,056
-363,927	800,000	-0,017	-0,043
-362,912	64,044	0,114	0,081
-361,898	411,973	-0,079	-0,120
-360,883	-200,000	-0,011	0,117
-359,869	196,350	-0,068	0,074
-358,854	126,561	-0,036	0,033
-357,839	44,762	0,044	-0,029
-356,825	-10,413	-0,164	0,077
-355,810	688,010	-0,030	-0,056
-354,796	-200,000	-0,003	0,039
-353,781	800,000	0,006	0,016
-352,766	-11,810	-0,045	-0,021
-351,752	126,121	-0,045	-0,041
-350,737	3,866	0,040	0,021
-349,723	-3,777	0,077	0,038
-348,708	-118,701	-0,125	-0,016
-347,693	34,379	-0,126	0,079
-346,679	380,682	-0,077	-0,114
-345,664	416,193	0,021	0,033
-344,650	145,430	-0,067	-0,064
-343,635	-200,000	-0,000	-0,076
-342,620	-200,000	-0,010	0,169
-341,606	-15,744	0,063	0,028
-340,591	16,471	0,036	-0,020
-339,577	-98,197	-0,083	0,015
-338,562	800,000	-0,053	-0,134
-337,548	800,000	-0,078	0,170
-336,533	483,887	0,046	0,075
-335,518	-85,097	0,072	0,016
-334,504	-63,456	0,071	0,021
-333,489	716,743	-0,066	-0,126
-332,475	-200,000	0,007	-0,057
-331,460	216,287	-0,076	0,087
-330,445	-98,854	0,029	0,005
-329,431	253,232	0,038	-0,046
-328,416	312,741	0,088	0,118
-327,402	202,132	0,049	0,054
-326,387	-200,000	0,005	0,034
-325,372	-200,000	-0,005	0,021
-324,358	-26,823	0,046	0,019
-323,343	-200,000	0,022	0,113
-322,329	151,269	0,060	0,058
-321,314	263,484	0,081	-0,100
-320,299	-200,000	0,008	0,066
-319,285	-88,231	-0,144	-0,030
-318,270	-160,695	-0,036	-0,001
-317,256	-200,000	-0,038	-0,125
-316,241	-200,000	-0,002	0,011
-315,226	5,277	0,065	-0,034
-314,212	30,871	0,120	0,073
-313,197	800,000	0,040	0,112
-312,183	97,449	-0,094	0,077
-311,168	-200,000	-0,012	-0,087
-310,153	26,843	0,069	-0,041
-309,139	800,000	-0,017	-0,054
-308,124	-99,102	0,140	0,025
-307,110	800,000	0,024	-0,063
-306,095	-23,348	0,096	0,041
-305,080	18,541	-0,037	0,021
-304,066	-57,530	-0,061	-0,019
-303,051	800,000	0,035	-0,070
-302,037	39,004	-0,127	-0,080
-301,022	-90,811	0,163	-0,033
-300,008	215,562	-0,096	0,109
-298,993	65,513	0,121	0,087
-297,978	151,003	0,110	0,107
-296,964	-66,916	0,045	-0,013
-295,949	327,078	-0,021	-0,029
-294,935	116,475	-0,116	-0,101
-293,920	-200,000	-0,014	0,069
-292,905	-200,000	0,012	0,047
-291,891	-92,210	-0,073	0,015
-290,876	-131,736	0,049	0,005
-289,862	78,324	-0,128	-0,097
-288,847	39,787	0,106	-0,067
-287,832	282,067	-0,098	-0,125
-286,818	-200,000	-0,001	-0,029
-285,803	236,910	0,090	-0,106
-284,789	728,390	0,104	0,198
-283,774	800,000	-0,025	0,069
-282,759	188,340	-0,074	0,079
-281,745	-77,706	0,049	0,012
-280,730	435,139	0,060	0,094
-279,716	43,509	-0,061	-0,040
-278,701	-200,000	0,027	0,086
-277,686	-200,000	-0,005	0,052
-276,672	342,402	-0,031	0,043
-275,657	384,367	-0,066	-0,098
-274,643	13,791	0,152	0,084
-273,628	-11,200	-0,104	-0,049
-272,613	-8,257	-0,030	-0,014
-271,599	-21,456	-0,192	-0,083
-270,584	53,179	0,108	0,074
-269,570	472,258	0,017	0,028
-268,555	6,137	-0,150	0,079
-267,540	102,412	0,055	0,046
-266,526	45,545	-0,118	0,077
-265,511	107,325	0,044	-0,037
-264,497	-129,703	-0,105	-0,010
-263,482	-146,000	-0,039	-0,002
-262,467	506,151	-0,021	-0,035
-261,453	322,207	-0,048	0,065
-260,438	800,000	-0,029	-0,086
-259,424	-47,702	0,039	-0,013
-258,409	63,529	0,034	0,024
-257,395	223,775	0,018	-0,021
-256,380	-200,000	-0,009	-0,075
-255,365	-141,962	0,106	-0,007
-254,351	21,093	-0,003	-0,002
-253,336	-200,000	-0,021	-0,080
-252,322	-159,803	-0,138	0,005
-251,307	-200,000	-0,023	-0,122
-250,292	2,598	-0,052	0,027
-249,278	-149,773	0,117	-0,006
-248,263	209,606	-0,077	0,086
-247,249	-53,168	-0,042	-0,014
-246,234	-81,529	-0,081	-0,019
-245,219	-72,058	-0,037	0,010
-244,205	-200,000	0,009	-0,110
-243,190	-200,000	0,010	0,081
-242,176	107,944	0,062	0,052
-241,161	800,000	0,057	0,141
-240,146	800,000	-0,013	0,027
-239,132	185,334	0,025	-0,026
-238,117	800,000	-0,049	0,104
-237,103	135,979	-0,081	0,075
-236,088	-200,000	0,002	0,118
-235,073	-106,168	0,050	-0,008
-234,059	-74,892	0,071	0,018
-233,044	-200,000	-0,001	0,022
-232,030	322,073	-0,056	-0,075
-231,015	101,606	0,025	-0,021
-230,000	-200,000	-0,013	-0,051
-228,986	518,980	-0,023	0,038
-227,971	-200,000	0,021	0,074
-226,957	115,647	-0,027	0,024
-225,942	800,000	-0,065	0,160
-224,927	-81,470	-0,065	0,015
-223,913	-61,553	-0,074	-0,022
-222,898	-200,000	0,002	-0,072
-221,884	-200,000	0,004	-0,116
-220,869	174,001	0,016	0,017
-219,855	-9,768	0,108	0,051
-218,840	-72,057	-0,068	-0,018
-217,825	-32,731	-0,081	-0,032
-216,811	371,459	-0,027	-0,040
-215,796	154,918	-0,033	0,032
-214,782	-44,057	-0,098	-0,035
-213,767	-164,694	0,168	-0,005
-212,752	-200,000	-0,005	0,047
-211,738	800,000	0,052	0,115
-210,723	92,362	-0,061	0,049
-209,709	-200,000	-0,025	-0,147
-208,694	-200,000	-0,027	0,098
-207,679	-200,000	-0,005	0,065
-206,665	275,966	0,054	0,068
-205,650	800,000	0,032	0,064
-204,636	-200,000	-0,005	-0,032
-203,621	800,000	-0,008	0,022
-202,606	-103,978	-0,051	0,008
-201,592	302,141	-0,073	-0,097
-200,577	800,000	-0,029	0,065
-199,563	432,147	-0,113	-0,174
-198,548	-91,569	0,064	0,013
-197,533	61,768	-0,019	0,014
-196,519	-118,959	0,139	-0,017
-195,504	312,683	-0,045	0,060
-194,490	225,693	-0,049	0,057
-193,475	0,063	0,048	0,024
-192,460	-11,242	0,088	-0,041
-191,446	6,277	0,168	0,088
-190,431	800,000	-0,106	0,229
-189,417	-108,846	-0,029	-0,004
-188,402	800,000	0,030	0,070
-187,387	-69,077	-0,039	0,010
-186,373	300,340	-0,049	-0,065
-185,358	-200,000	0,016	0,143
-184,344	800,000	0,069	0,143
-183,329	-124,961	-0,066	-0,007
-182,315	-12,488	0,119	0,055
-181,300	453,106	0,070	0,110
-180,285	-46,975	-0,037	0,013
-179,271	349,297	0,028	0,039
-178,256	800,000	0,007	0,021
-177,242	240,147	0,072	-0,086
-176,227	39,336	0,048	0,031
-175,212	744,714	-0,052	0,100
-174,198	800,000	-0,062	-0,128
-173,183	156,445	0,071	0,070
-172,169	51,866	0,051	-0,034
-171,154	3,698	-0,066	-0,034
-170,139	23,534	0,093	-0,054
-169,125	210,555	0,067	0,075
-168,110	436,700	-0,072	0,112
-167,096	12,394	-0,037	-0,020
-166,081	-108,553	0,093	0,014
-165,066	-83,666	-0,068	0,015
-164,052	754,974	-0,103	-0,197
-163,037	-200,000	-0,004	-0,078
-162,023	44,927	0,078	0,051
-161,008	-200,000	-0,024	-0,154
-159,993	10,335	-0,082	0,044
-158,979	-200,000	0,034	-0,126
-157,964	55,723	0,040	-0,027
-156,950	-58,975	-0,019	-0,006
-155,935	-95,641	0,158	0,030
-154,920	5,645	-0,038	-0,020
-153,906	800,000	0,049	0,147
-152,891	113,996	0,047	0,041
-151,877	-69,576	0,134	-0,036
-150,862	59,003	-0,092	-0,064
-149,847	250,508	-0,081	-0,098
-148,833	478,305	0,010	-0,017
-147,818	225,924	-0,032	0,037
-146,804	172,976	-0,081	0,082
-145,789	-5,318	0,044	0,021
-144,775	380,222	-0,038	-0,056
-143,760	9,288	-0,116	0,062
-142,745	-134,985	0,131	0,011
-141,731	111,828	0,084	0,072
-140,716	-77,500	0,082	0,020
-139,702	800,000	-0,044	0,102
-138,687	-87,593	0,054	0,011
-137,672	-200,000	-0,009	-0,087
-136,658	-96,979	0,002	0,000
-135,643	354,800	0,034	0,048
-134,629	-20,984	-0,130	0,056
-133,614	-200,000	-0,002	0,241
-132,599	-39,771	0,055	0,020
-131,585	-200,000	0,013	0,062
-130,570	800,000	-0,075	0,150
-129,556	-200,000	0,010	-0,032
-128,541	-15,415	-0,131	0,059
-127,526	113,049	0,139	-0,119
-126,512	800,000	0,076	0,181
-125,497	-200,000	-0,014	-0,091
-124,483	-34,185	-0,080	0,031
-123,468	95,930	-0,052	0,042
-122,453	386,350	0,068	0,099
-121,439	800,000	-0,037	-0,116
-120,424	800,000	-0,068	-0,211
-119,410	191,991	-0,073	-0,078
-118,395	219,313	0,035	0,040
-117,380	-200,000	0,033	0,119
-116,366	131,098	-0,107	0,098
-115,351	-200,000	-0,034	-0,144
-114,337	534,580	-0,102	-0,171
-113,322	750,104	0,017	-0,032
-112,307	184,994	0,028	-0,029
-111,293	453,409	-0,031	0,049
-110,278	800,000	0,040	-0,089
-109,264	4,180	-0,205	-0,106
-108,249	506,903	-0,010	-0,016
-107,234	-44,884	0,102	-0,036
-106,220	800,000	0,017	0,037
-105,205	-200,000	-0,021	0,102
-104,191	-200,000	0,022	0,082
-103,176	-200,000	-0,001	0,084
-102,162	-65,425	-0,118	0,033
-101,147	-36,885	-0,112	-0,042
-100,132	326,053	-0,041	0,055
-99,118	-200,000	-0,006	-0,027
-98,103	-200,000	0,018	-0,062
-97,089	800,000	-0,033	0,088
-96,074	133,634	-0,074	0,067
-95,059	-62,944	0,046	-0,013
-94,045	51,079	-0,042	-0,028
-93,030	800,000	-0,023	-0,056
-92,016	379,817	-0,069	0,100
-91,001	800,000	0,076	-0,174
-89,986	-132,416	-0,107	0,010
-88,972	163,435	0,117	0,116
-87,957	800,000	0,023	-0,052
-86,943	83,107	-0,103	0,079
-85,928	-200,000	0,016	-0,057
-84,913	-200,000	0,022	-0,071
-83,899	-200,000	-0,011	-0,089
-82,884	-200,000	0,052	0,197
-81,870	-174,283	0,158	0,003
-80,855	46,545	0,087	0,057
-79,840	127,420	-0,104	-0,094
-78,826	355,424	-0,089	0,126
-77,811	275,764	0,069	0,087
-76,797	617,882	0,070	0,125
-75,782	-11,181	0,081	-0,038
-74,767	172,007	-0,068	0,069
-73,753	-74,134	-0,182	-0,046
-72,738	800,000	0,023	0,046
-71,724	-6,102	-0,061	-0,029
-70,709	290,788	-0,019	0,024
-69,694	800,000	0,044	0,117
-68,680	-106,323	0,229	-0,036
-67,665	40,515	-0,079	-0,050
-66,651	-142,798	0,031	0,002
-65,636	337,242	0,037	0,052
-64,622	-200,000	0,005	-0,069
-63,607	-108,198	0,034	0,005
-62,592	-200,000	-0,017	-0,067
-61,578	-87,937	0,089	-0,019
-60,563	-200,000	0,006	-0,068
-59,549	-200,000	0,001	0,097
-58,534	77,705	-1,987	-1,492
-57,519	462,499	-1,194	-1,888
-56,505	-200,000	-0,508	-4,529
-55,490	389,246	0,968	1,419
-54,476	800,000	5,381	12,065
-53,461	-200,000	22,066	340,328
-52,446	800,000	760,739	2302,464
-51,432	534,255	1655,934	2780,198
-50,417	69,601	1653,908	1200,932
-49,403	16,768	1528,706	851,233
-48,388	10,956	1452,987	781,033
-47,373	19,132	1444,850	815,755
-46,359	14,302	1433,806	786,589
-45,344	9,240	1429,713	760,269
-44,330	9,202	1427,865	759,078
-43,315	9,145	1426,079	757,826
-42,300	9,178	1424,301	757,013
-41,286	9,197	1423,063	756,412
-40,271	9,186	1421,790	755,654
-39,257	9,177	1420,697	754,998
-38,242	9,236	1419,495	754,611
-37,227	9,157	1418,514	753,683
-36,213	9,188	1417,321	753,167
-35,198	9,239	1415,983	752,665
-34,184	9,207	1414,871	751,895
-33,169	9,144	1413,670	750,931
-32,154	9,181	1412,622	750,519
-31,140	9,211	1411,444	750,006
-30,125	9,232	1410,318	749,472
-29,111	9,251	1408,851	748,752
-28,096	9,231	1407,800	748,074
-27,082	9,133	1406,728	747,015
-26,067	9,117	1405,674	746,352
-25,052	9,173	1404,486	745,953
-24,038	9,158	1403,618	745,390
-23,023	9,136	1402,986	744,922
-22,009	9,132	1401,730	744,209
-20,994	9,116	1400,520	743,463
-19,979	9,112	1399,917	743,091
-18,965	9,084	1398,903	742,396
-17,950	9,074	1397,965	741,823
-16,936	9,078	1397,232	741,422
-15,921	8,993	1396,167	740,433
-14,906	9,029	1395,202	740,057
-13,892	9,079	1394,152	739,702
-12,877	9,088	1393,438	739,337
-11,863	9,062	1392,677	738,782
-10,848	9,031	1391,622	738,053
-9,833	8,984	1391,001	737,473
-8,819	8,942	1389,912	736,673
-7,804	8,979	1388,974	736,318
-6,790	8,977	1387,926	735,725
-5,775	8,931	1386,775	734,872
-4,760	8,966	1385,858	734,519
-3,746	8,983	1384,880	734,049
-2,731	8,956	1384,047	733,455
-1,717	8,929	1383,316	732,915
-0,702	8,969	1381,462	732,088
0,313	12,876	1292,900	702,979
1,327	28,784	684,024	407,703
2,342	44,282	118,143	76,330
3,356	0,850	16,599	8,358
4,371	4,281	3,661	1,885
5,386	9,076	1,218	0,646
6,400	-200,000	0,161	0,660
7,415	18,989	-0,193	-0,109
8,429	3,362	-0,237	-0,121
9,444	73,516	-0,315	-0,232
10,459	800,000	-0,141	-0,298
11,473	209,021	-0,225	-0,249
12,488	37,905	-0,280	-0,175
13,502	21,369	-0,278	-0,159
14,517	77,298	-0,308	-0,230
15,531	-53,412	-0,346	-0,111
16,546	34,349	-0,374	-0,229
17,561	97,625	-0,392	-0,317
18,575	153,489	-0,159	-0,154
19,590	288,240	-0,219	-0,279
20,604	-62,499	-0,319	-0,093
21,619	90,286	-0,400	-0,315
22,634	-16,510	-0,512	-0,228
23,648	48,975	-0,326	-0,215
24,663	95,690	-0,414	-0,333
25,677	87,520	-0,347	-0,270
26,692	94,488	-0,308	-0,246
27,707	4,106	-0,374	-0,192
28,721	29,729	-0,493	-0,295
29,736	321,607	-0,306	-0,410
30,750	118,922	-0,342	-0,297
31,765	396,712	-0,341	-0,502
32,780	39,684	-0,255	-0,161
33,794	109,043	-0,394	-0,332
34,809	27,313	-0,346	-0,204
35,823	55,822	-0,339	-0,231
36,838	263,526	-0,251	-0,307
37,853	104,799	-0,343	-0,284
38,867	-24,057	-0,369	-0,154
39,882	-10,193	-0,416	-0,194
40,896	558,433	-0,229	-0,390
41,911	201,381	-0,344	-0,372
42,926	112,123	-0,350	-0,297
43,940	8,955	-0,481	-0,254
44,955	310,866	-0,374	-0,494
45,969	133,748	-0,295	-0,268
46,984	-42,895	-0,510	-0,181
47,999	122,893	-0,290	-0,255
49,013	41,128	-0,396	-0,251
50,028	-19,525	-0,365	-0,158
51,042	-2,086	-0,316	-0,155
52,057	66,585	-0,311	-0,222
53,071	170,776	-0,270	-0,272
54,086	63,765	-0,275	-0,194
55,101	-38,437	-0,377	-0,139
56,115	104,627	-0,233	-0,192
57,130	488,232	-0,185	-0,298
58,144	217,014	-0,286	-0,320
59,159	192,662	-0,310	-0,329
60,174	89,259	-0,354	-0,276
61,188	1,198	-0,397	-0,199
62,203	-3,969	-0,403	-0,195
63,217	418,800	-0,222	-0,335
64,232	16,465	-0,494	-0,273
65,247	205,511	-0,259	-0,283
66,261	37,693	-0,370	-0,230
67,276	358,613	-0,258	-0,362
68,290	220,386	-0,328	-0,370
69,305	193,564	-0,291	-0,309
70,320	-44,013	-0,303	-0,106
71,334	87,246	-0,228	-0,177
72,349	-62,728	-0,403	-0,116
73,363	170,127	-0,315	-0,316
74,378	20,670	-0,387	-0,219
75,393	35,924	-0,278	-0,171
76,407	-107,826	-0,374	-0,056
77,422	36,346	-0,233	-0,144
78,436	83,467	-0,223	-0,170
79,451	186,985	-0,196	-0,205
80,466	54,546	-0,260	-0,175
81,480	113,114	-0,241	-0,205
82,495	-44,063	-0,321	-0,112
83,509	52,352	-0,253	-0,169
84,524	81,820	-0,193	-0,146
85,539	19,623	-0,306	-0,172
86,553	-42,368	-0,312	-0,111
87,568	89,747	-0,305	-0,238
88,582	4,129	-0,357	-0,182
89,597	-7,133	-0,322	-0,152
90,611	-132,070	-0,220	-0,020
91,626	-81,889	-0,092	-0,021
92,641	-114,212	-0,352	-0,047
93,655	-101,792	-0,327	-0,055
94,670	249,136	-0,176	-0,209
95,684	59,270	-0,328	-0,225
96,699	44,926	-0,332	-0,214
97,714	209,722	-0,223	-0,245
98,728	-146,686	-0,333	-0,020
99,743	-59,192	-0,250	-0,075
100,757	76,136	-0,211	-0,156
101,772	28,550	-0,242	-0,143
102,787	33,447	-0,227	-0,137
103,801	234,090	-0,361	-0,416
104,816	-105,383	-0,304	-0,048
105,830	62,411	-0,324	-0,226
106,845	247,596	-0,176	-0,209
107,860	-18,067	-0,264	-0,115
108,874	-43,817	-0,372	-0,130
109,889	134,103	-0,238	-0,215
110,903	-27,669	-0,262	-0,106
111,918	164,110	-0,171	-0,169
112,933	-126,960	-0,240	-0,024
113,947	-100,309	-0,217	-0,037
114,962	41,492	-0,159	-0,101
115,976	62,779	-0,300	-0,209
116,991	32,362	-0,355	-0,214
118,006	193,486	-0,323	-0,342
119,020	67,259	-0,272	-0,194
120,035	97,823	-0,163	-0,131
121,049	-129,673	-0,179	0,017
122,064	37,726	-0,226	-0,140
123,079	4,144	-0,281	-0,143
124,093	336,373	-0,142	-0,193
125,108	-32,009	-0,216	-0,084
126,122	106,436	-0,280	-0,231
127,137	-159,971	-0,274	-0,010
128,151	-134,300	-0,192	0,016
129,166	-73,221	-0,328	-0,083
130,181	311,373	-0,193	-0,253
131,195	60,861	-0,220	-0,152
132,210	-14,433	-0,299	-0,134
133,224	556,155	-0,126	-0,213
134,239	-25,799	-0,214	-0,088
135,254	-32,797	-0,239	-0,092
136,268	-85,880	-0,293	-0,063
137,283	124,478	-0,142	-0,125
138,297	183,148	-0,266	-0,274
139,312	185,643	-0,256	-0,266
140,327	-107,078	-0,259	0,039
141,341	66,581	-0,232	-0,164
142,356	236,968	-0,145	-0,168
143,370	545,284	-0,153	-0,255
144,385	-81,736	-0,300	-0,068
145,400	-53,541	-0,361	-0,114
146,414	127,245	-0,239	-0,211
147,429	296,143	-0,171	-0,218
148,443	210,617	-0,241	-0,264
149,458	209,983	-0,133	-0,146
150,473	57,300	-0,210	-0,143
151,487	16,803	-0,264	-0,145
152,502	66,047	-0,232	-0,164
153,516	-110,847	-0,150	0,021
154,531	-99,820	-0,313	-0,054
155,546	-105,336	-0,252	-0,040
156,560	63,688	-0,226	-0,158
157,575	147,751	-0,167	-0,156
158,589	-58,829	-0,153	0,046
159,604	-140,777	-0,295	0,021
160,619	-35,245	-0,379	-0,143
161,633	76,326	-0,237	-0,175
162,648	226,176	-0,266	-0,300
163,662	-200,000	-0,073	-0,242
164,677	71,188	-0,249	-0,179
165,692	32,363	-0,170	-0,102
166,706	466,650	-0,062	-0,096
167,721	190,535	-0,254	-0,265
168,735	24,047	-0,288	-0,165
169,750	171,809	-0,159	-0,159
170,764	245,180	-0,176	-0,206
171,779	65,804	-0,197	-0,138
172,794	-68,606	-0,309	-0,083
173,808	-165,434	-0,182	0,005
174,823	-106,256	-0,240	-0,037
175,837	158,491	-0,226	-0,218
176,852	58,047	-0,173	-0,118
177,867	449,772	-0,115	-0,177
178,881	-1,757	-0,189	-0,092
179,896	325,031	-0,050	-0,067
180,910	87,209	-0,214	-0,164
181,925	121,839	-0,244	-0,212
182,940	-23,295	-0,236	-0,098
183,954	36,967	-0,155	-0,095
184,969	457,344	-0,191	-0,296
185,983	528,891	-0,168	-0,276
186,998	705,412	-0,120	-0,220
188,013	90,611	-0,205	-0,159
189,027	16,118	-0,223	-0,121
190,042	161,845	-0,235	-0,229
191,056	120,658	-0,195	-0,168
192,071	-27,996	-0,206	-0,082
193,086	9,379	-0,248	-0,130
194,100	168,625	-0,140	-0,138
195,115	5,611	-0,289	-0,148
196,129	16,469	-0,213	-0,116
197,144	90,713	-0,199	-0,154
198,159	76,423	-0,302	-0,221
199,173	-22,623	-0,176	-0,073
200,188	523,979	-0,103	-0,168
201,202	-60,236	-0,201	-0,059
202,217	241,649	-0,152	-0,176
203,232	-20,700	-0,158	-0,067
204,246	67,952	-0,204	-0,144
205,261	-136,086	-0,292	-0,023
206,275	-189,987	-0,117	0,001
207,290	269,484	-0,136	-0,166
208,304	-54,761	-0,143	-0,044
209,319	19,306	-0,264	-0,146
210,334	-54,033	-0,238	-0,075
211,348	120,344	-0,221	-0,190
212,363	121,722	-0,153	-0,132
213,377	106,514	-0,165	-0,135
214,392	8,018	-0,127	-0,066
215,407	800,000	-0,147	-0,345
216,421	78,294	-0,223	-0,165
217,436	-30,804	-0,193	-0,075
218,450	3,623	-0,246	-0,124
219,465	4,074	-0,248	-0,125
220,480	247,781	-0,168	-0,197
221,494	-64,978	-0,204	-0,057
222,509	31,250	-0,098	-0,058
223,523	13,138	-0,173	-0,092
224,538	189,137	-0,078	-0,081
225,553	161,498	-0,146	-0,141
226,567	-190,603	-0,311	-0,002
227,582	-100,152	-0,145	-0,025
228,596	123,812	-0,149	-0,129
229,611	212,595	-0,058	-0,063
230,626	97,551	-0,081	0,064
231,640	14,372	-0,209	-0,112
232,655	102,173	-0,226	-0,182
233,669	465,429	-0,081	-0,126
234,684	27,144	-0,224	-0,130
235,699	800,000	-0,084	-0,172
236,713	39,448	-0,137	0,084
237,728	-21,874	-0,130	-0,054
238,742	70,657	-0,124	-0,089
239,757	235,981	-0,140	-0,160
240,772	304,509	-0,232	-0,299
241,786	-46,553	-0,272	-0,092
242,801	690,309	-0,084	-0,152
243,815	31,814	-0,088	-0,052
244,830	64,478	-0,119	0,083
245,844	-134,541	-0,117	-0,010
246,859	-52,480	-0,164	-0,052
247,874	33,931	-0,099	-0,059
248,888	9,377	-0,200	-0,104
249,903	800,000	-0,135	-0,311
250,917	58,184	-0,214	-0,145
251,932	-114,741	-0,256	-0,033
252,947	54,777	-0,171	-0,114
253,961	113,561	-0,180	-0,151
254,976	271,753	-0,133	-0,161
255,990	241,295	-0,205	-0,236
257,005	100,424	-0,175	-0,140
258,020	-200,000	-0,027	-0,176
259,034	-132,045	-0,184	-0,016
260,049	-24,921	-0,279	-0,114
261,063	-35,704	-0,151	-0,056
262,078	197,808	-0,196	-0,207
263,093	353,146	-0,203	-0,279
264,107	64,597	-0,155	-0,108
265,122	143,213	-0,022	0,020
266,136	-154,317	-0,155	-0,007
267,151	800,000	0,039	-0,089
268,166	-77,248	-0,156	-0,037
269,180	361,215	-0,150	-0,207
270,195	157,219	-0,208	-0,198
271,209	63,716	-0,208	-0,144
272,224	178,564	-0,114	-0,114
273,239	-200,000	-0,012	-0,130
274,253	-34,596	-0,265	-0,099
275,268	800,000	-0,036	-0,101
276,282	135,071	-0,168	-0,150
277,297	169,234	-0,244	-0,240
278,312	215,998	-0,136	-0,149
279,326	100,871	-0,230	-0,184
280,341	-33,585	-0,133	-0,050
281,355	119,511	-0,144	-0,123
282,370	115,854	-0,157	-0,132
283,384	800,000	-0,075	-0,168
284,399	243,208	-0,139	-0,161
285,414	133,664	-0,182	-0,162
286,428	-76,422	-0,084	-0,020
287,443	270,397	-0,045	-0,055
288,457	46,584	-0,186	-0,119
289,472	123,465	-0,066	-0,057
290,487	800,000	-0,056	-0,153
291,501	766,338	-0,104	-0,195
292,516	-15,822	-0,126	-0,055
293,530	-87,343	-0,237	-0,049
294,545	453,336	-0,045	0,068
295,560	176,430	-0,109	-0,109
296,574	-68,691	-0,247	0,065
297,589	108,423	-0,228	-0,187
298,603	538,147	-0,129	-0,211
299,618	17,135	-0,169	-0,092
300,633	800,000	-0,077	-0,153
301,647	421,070	-0,109	-0,161
302,662	-92,502	-0,133	0,025
303,676	-46,214	-0,117	-0,039
304,691	644,373	-0,082	-0,145
305,706	-27,996	-0,173	-0,068
306,720	121,323	-0,153	-0,131
307,735	-180,773	-0,136	0,002
308,749	153,832	-0,044	-0,041
309,764	-22,347	-0,221	-0,092
310,779	-59,857	-0,132	-0,039
311,793	102,364	-0,131	-0,105
312,808	-200,000	-0,098	-0,307
313,822	272,249	-0,089	-0,108
314,837	57,347	-0,206	-0,138
315,852	-83,419	-0,080	-0,017
316,866	24,570	-0,116	-0,066
317,881	-24,036	-0,159	-0,065
318,895	167,689	-0,075	-0,073
319,910	-77,164	-0,132	-0,031
320,925	399,515	-0,148	-0,213
321,939	149,553	-0,157	-0,146
322,954	210,041	-0,117	-0,126
323,968	-135,949	-0,182	0,014
324,983	-52,439	-0,151	-0,048
325,997	45,922	-0,154	-0,097
327,012	744,568	-0,132	-0,244
328,027	271,891	-0,156	-0,189
329,041	148,417	-0,168	-0,155
330,056	-136,672	-0,183	0,014
331,070	800,000	-0,040	-0,100
332,085	277,199	-0,112	-0,136
333,100	265,400	-0,168	-0,201
334,114	170,294	-0,187	-0,183
335,129	131,187	-0,098	-0,086
336,143	59,661	-0,151	-0,102
337,158	800,000	-0,046	-0,117
338,173	800,000	-0,081	-0,184
339,187	466,540	-0,086	-0,133
340,202	202,046	-0,113	-0,120
341,216	-45,799	-0,114	-0,038
342,231	206,038	-0,137	-0,147
343,246	-57,007	-0,064	-0,019
344,260	-117,733	-0,170	-0,021
345,275	800,000	-0,073	-0,175
346,289	266,778	-0,070	-0,084
347,304	-25,246	-0,125	0,050
348,319	-82,349	-0,132	0,029
349,333	11,015	-0,302	-0,158
350,348	298,424	-0,143	-0,180
351,362	136,791	-0,130	-0,116
352,377	800,000	-0,085	-0,207
353,392	-56,392	-0,236	-0,071
354,406	45,775	-0,192	-0,121
355,421	208,325	1310,512	1402,610
356,435	160,295	1470,675	1403,068
