DTS Sentinel unit serial number:	SN410029Multiplexer serial number:	ORYXHardware model number:	OX2-SRSoftware version number:	ORYX F/W v4,00 Oryx Data Collector v3.7.2.0data status	okinstallation	B3 Nyhavnadifferential loss correction	single-endedforward channel	channel 1reverse channel	N/Adate	2023/12/05time	00:52:30forward acquisition time	300,00reverse acquisition time	0,00gamma	499,1914k internal	0,3200k external	0,3200temperature offset calibration	1,0000default loss term (dB/km)	0,3820temperature slope calibration	1,0000multiplexer offset coefficient	1,0000multiplexer slope coefficient	1,0000fibre end	0,00T internal ref (°C)	13,81T ext. ref 1 (°C)	-1,18T ext. ref 2 (°C)	-1,20length (m)	temperature (°C)	Stokes	anti-Stokes-744,400	432,202	-0,179	-0,283
-743,385	-200,000	0,006	0,252
-742,371	273,028	-0,154	-0,198
-741,356	-200,000	0,018	0,269
-740,342	159,427	-0,181	-0,183
-739,327	-200,000	-0,009	0,307
-738,312	422,067	-0,214	-0,336
-737,298	-200,000	-0,051	0,213
-736,283	217,545	-0,141	-0,163
-735,269	-200,000	-0,071	0,369
-734,254	181,048	-0,298	-0,319
-733,239	-57,502	-0,140	0,044
-732,225	-200,000	-0,006	-0,160
-731,210	-45,236	0,149	0,053
-730,196	-200,000	-0,010	-0,066
-729,181	-200,000	0,002	-0,012
-728,167	49,482	-0,133	0,091
-727,152	-152,491	0,126	0,006
-726,137	233,468	-0,109	-0,130
-725,123	76,564	0,039	0,030
-724,108	35,838	-0,132	-0,084
-723,094	70,935	-0,019	0,014
-722,079	-200,000	-0,035	-0,117
-721,064	257,603	0,022	0,028
-720,050	22,207	-0,096	0,057
-719,035	10,599	0,101	-0,056
-718,021	160,974	-0,091	-0,092
-717,006	23,169	-0,057	-0,034
-715,991	800,000	-0,041	-0,084
-714,977	-13,263	-0,086	-0,040
-713,962	-32,241	-0,109	0,044
-712,948	233,573	0,020	-0,024
-711,933	51,142	-0,049	0,033
-710,918	-120,803	0,024	0,003
-709,904	29,197	-0,121	-0,075
-708,889	-200,000	-0,001	0,009
-707,875	800,000	0,030	-0,077
-706,860	635,125	-0,055	-0,102
-705,845	800,000	-0,081	0,190
-704,831	-96,895	0,041	-0,008
-703,816	267,838	-0,039	-0,050
-702,802	29,514	-0,157	-0,097
-701,787	-200,000	-0,021	-0,087
-700,772	-68,469	0,035	-0,010
-699,758	-200,000	-0,000	0,025
-698,743	289,165	0,054	-0,072
-697,729	333,798	0,106	-0,149
-696,714	44,200	-0,143	0,095
-695,699	-200,000	0,009	0,142
-694,685	-200,000	-0,019	-0,101
-693,670	800,000	-0,038	-0,097
-692,656	-200,000	0,002	-0,052
-691,641	-200,000	-0,033	-0,111
-690,627	34,515	-0,091	0,057
-689,612	34,541	0,158	-0,100
-688,597	-66,824	0,096	-0,027
-687,583	-200,000	-0,023	-0,106
-686,568	-101,764	0,046	0,008
-685,554	112,145	-0,127	0,111
-684,539	-126,186	0,146	-0,016
-683,524	59,004	0,040	0,028
-682,510	-9,922	0,119	0,057
-681,495	120,198	-0,047	0,043
-680,481	-200,000	-0,008	0,062
-679,466	48,191	-0,124	-0,084
-678,451	435,424	-0,022	0,035
-677,437	38,089	-0,100	-0,064
-676,422	-66,771	-0,056	-0,016
-675,408	-37,221	-0,144	0,056
-674,393	800,000	-0,082	-0,173
-673,378	-200,000	-0,013	-0,050
-672,364	-22,467	0,011	-0,005
-671,349	-200,000	-0,011	-0,232
-670,335	381,686	-0,015	-0,023
-669,320	-200,000	-0,012	-0,050
-668,305	-200,000	0,017	0,064
-667,291	-200,000	-0,035	-0,122
-666,276	-60,711	-0,092	-0,028
-665,262	152,741	-0,072	-0,071
-664,247	451,732	0,026	0,042
-663,232	245,293	-0,044	0,054
-662,218	259,932	0,112	0,141
-661,203	-91,426	0,075	-0,015
-660,189	98,469	-0,122	0,102
-659,174	-35,443	-0,103	-0,040
-658,159	-200,000	0,001	-0,176
-657,145	-200,000	0,009	-0,092
-656,130	-200,000	0,025	-0,145
-655,116	-15,153	-0,062	-0,029
-654,101	800,000	-0,017	0,048
-653,086	16,211	0,100	-0,057
-652,072	800,000	0,022	-0,049
-651,057	-200,000	0,026	-0,111
-650,043	114,934	0,057	-0,050
-649,028	83,331	0,060	0,047
-648,014	-200,000	-0,011	-0,065
-646,999	-117,539	-0,023	0,003
-645,984	-146,450	-0,031	-0,002
-644,970	-200,000	-0,023	-0,105
-643,955	-17,503	-0,114	-0,052
-642,941	-119,720	-0,062	0,008
-641,926	-200,000	-0,007	-0,166
-640,911	96,341	0,046	0,038
-639,897	398,663	0,021	-0,032
-638,882	134,108	0,066	0,062
-637,868	105,640	-0,054	0,046
-636,853	742,671	-0,050	-0,098
-635,838	-122,934	-0,067	0,008
-634,824	361,970	-0,015	-0,021
-633,809	-70,728	-0,070	0,019
-632,795	131,259	0,130	0,121
-631,780	-10,593	-0,123	0,059
-630,765	33,712	-0,013	-0,008
-629,751	62,306	0,104	-0,075
-628,736	800,000	0,050	-0,142
-627,722	163,861	-0,038	-0,039
-626,707	-200,000	-0,009	0,081
-625,692	225,919	0,129	-0,152
-624,678	-200,000	0,001	0,014
-623,663	126,433	0,087	-0,080
-622,649	-29,789	-0,253	-0,104
-621,634	-200,000	0,027	-0,088
-620,619	-36,121	0,117	0,045
-619,605	87,674	0,021	-0,017
-618,590	16,291	-0,130	0,074
-617,576	-156,894	0,131	-0,006
-616,561	-200,000	0,010	0,039
-615,546	-29,086	-0,131	-0,054
-614,532	800,000	-0,015	-0,040
-613,517	14,104	-0,127	-0,071
-612,503	800,000	0,030	-0,071
-611,488	283,536	-0,050	-0,065
-610,474	62,447	-0,022	0,016
-609,459	-27,761	0,112	0,047
-608,444	-200,000	0,010	-0,049
-607,430	-140,580	0,041	-0,003
-606,415	244,135	0,077	-0,094
-605,401	-200,000	0,033	0,130
-604,386	70,834	-0,160	0,120
-603,371	83,890	-0,044	0,035
-602,357	-200,000	-0,010	-0,038
-601,342	87,682	-0,074	0,059
-600,328	-56,518	0,091	-0,029
-599,313	210,615	-0,119	-0,135
-598,298	-31,539	0,250	-0,101
-597,284	37,244	-0,074	0,047
-596,269	800,000	-0,010	0,020
-595,255	137,000	0,086	-0,081
-594,240	800,000	-0,046	-0,129
-593,225	-200,000	-0,034	-0,118
-592,211	800,000	0,045	0,127
-591,196	800,000	-0,045	0,136
-590,182	253,344	-0,120	-0,148
-589,167	-200,000	-0,001	-0,037
-588,152	358,112	-0,072	-0,104
-587,138	367,554	-0,015	-0,021
-586,123	800,000	0,023	0,073
-585,109	-114,111	0,058	0,008
-584,094	800,000	0,013	-0,026
-583,079	-200,000	-0,006	-0,059
-582,065	-200,000	-0,004	-0,064
-581,050	800,000	0,044	0,126
-580,036	-147,528	-0,052	0,003
-579,021	-23,334	-0,108	0,047
-578,006	-200,000	0,021	-0,072
-576,992	-200,000	-0,002	-0,088
-575,977	413,518	0,060	-0,093
-574,963	-42,092	-0,050	-0,018
-573,948	226,543	0,047	0,055
-572,934	-200,000	0,002	-0,055
-571,919	-12,821	0,046	-0,022
-570,904	455,031	0,058	-0,093
-569,890	800,000	-0,062	-0,131
-568,875	-65,076	-0,059	-0,017
-567,861	349,857	0,047	0,067
-566,846	-200,000	-0,001	-0,018
-565,831	-200,000	0,013	0,045
-564,817	-45,192	-0,037	-0,013
-563,802	-38,127	-0,059	-0,022
-562,788	-200,000	0,001	-0,010
-561,773	-60,946	0,090	-0,027
-560,758	422,404	-0,035	-0,055
-559,744	-26,580	0,072	-0,030
-558,729	-200,000	-0,005	-0,019
-557,715	495,818	-0,076	-0,127
-556,700	162,933	-0,037	-0,038
-555,685	-200,000	-0,001	-0,004
-554,671	800,000	0,025	0,057
-553,656	22,271	-0,036	-0,021
-552,642	353,199	0,100	-0,144
-551,627	-136,366	-0,048	0,004
-550,612	-54,339	-0,013	0,004
-549,598	-178,368	-0,151	-0,002
-548,583	19,361	-0,182	-0,106
-547,569	14,607	0,048	-0,027
-546,554	-34,736	0,113	0,044
-545,539	87,080	-0,115	0,091
-544,525	-9,035	-0,154	-0,074
-543,510	-200,000	0,012	0,039
-542,496	90,263	-0,071	-0,057
-541,481	468,909	0,025	-0,040
-540,466	-200,000	-0,031	-0,141
-539,452	-200,000	-0,020	-0,178
-538,437	222,560	0,052	0,060
-537,423	-77,764	-0,038	0,009
-536,408	14,433	-0,085	-0,048
-535,393	31,707	0,111	-0,069
-534,379	175,868	-0,057	0,059
-533,364	768,990	-0,040	0,079
-532,350	800,000	0,045	0,132
-531,335	800,000	0,037	-0,112
-530,321	190,135	0,055	0,060
-529,306	-70,172	-0,082	-0,022
-528,291	171,671	0,161	-0,167
-527,277	-71,066	-0,168	0,045
-526,262	-200,000	0,007	-0,028
-525,248	-56,226	0,081	0,026
-524,233	339,310	-0,053	0,074
-523,218	-107,040	0,234	0,037
-522,204	725,533	-0,083	-0,161
-521,189	244,206	-0,031	-0,038
-520,175	800,000	0,085	0,224
-519,160	41,918	0,029	0,019
-518,145	-200,000	-0,056	0,223
-517,131	-133,046	0,112	0,010
-516,116	-200,000	-0,008	-0,073
-515,102	-200,000	-0,003	0,067
-514,087	72,818	-0,072	-0,054
-513,072	50,501	-0,054	-0,037
-512,058	118,124	0,023	-0,021
-511,043	357,024	-0,029	-0,042
-510,029	-0,174	0,043	0,022
-509,014	289,797	-0,032	-0,043
-507,999	74,638	0,102	-0,077
-506,985	-162,380	-0,077	-0,003
-505,970	-59,619	-0,132	-0,041
-504,956	260,596	-0,060	-0,075
-503,941	29,267	0,138	-0,085
-502,926	800,000	0,043	0,123
-501,912	-200,000	-0,009	-0,077
-500,897	-9,787	-0,122	0,058
-499,883	-119,242	-0,050	-0,006
-498,868	-40,293	-0,047	0,017
-497,853	-118,688	-0,065	-0,008
-496,839	596,747	0,061	0,110
-495,824	-13,529	0,155	0,072
-494,810	26,433	-0,122	0,073
-493,795	-200,000	0,029	0,137
-492,781	-200,000	-0,026	-0,149
-491,766	29,990	-0,061	-0,038
-490,751	344,785	-0,038	0,054
-489,737	-200,000	0,002	-0,046
-488,722	-145,628	0,060	-0,004
-487,708	-200,000	0,022	0,113
-486,693	-200,000	-0,018	0,071
-485,678	-200,000	-0,017	0,078
-484,664	29,618	-0,077	-0,047
-483,649	-82,432	-0,114	0,026
-482,635	57,851	-0,034	-0,024
-481,620	175,480	-0,044	0,046
-480,605	317,439	0,070	0,095
-479,591	800,000	0,032	0,065
-478,576	25,488	-0,046	0,027
-477,562	-200,000	-0,018	0,073
-476,547	-64,214	-0,049	0,014
-475,532	-200,000	0,004	-0,056
-474,518	89,620	0,071	0,057
-473,503	-7,276	-0,019	-0,009
-472,489	-91,480	0,153	0,031
-471,474	181,171	-0,084	0,089
-470,459	31,395	-0,080	-0,049
-469,445	138,341	0,082	-0,078
-468,430	-200,000	-0,008	-0,113
-467,416	-21,975	0,126	-0,055
-466,401	-200,000	0,004	0,093
-465,386	-11,645	-0,189	0,089
-464,372	304,669	0,025	0,033
-463,357	-141,206	-0,051	0,004
-462,343	-90,843	-0,088	-0,018
-461,328	-52,711	0,087	0,029
-460,313	800,000	-0,020	0,052
-459,299	-117,235	0,104	-0,013
-458,284	13,601	0,054	0,030
-457,270	339,946	-0,035	0,049
-456,255	800,000	0,056	-0,158
-455,241	-200,000	-0,007	-0,090
-454,226	-60,255	0,074	0,023
-453,211	235,169	0,183	0,218
-452,197	-51,011	0,087	0,029
-451,182	463,244	0,020	0,032
-450,168	31,069	-0,013	-0,008
-449,153	56,698	-0,047	-0,033
-448,138	206,328	-0,121	0,136
-447,124	-55,426	0,128	-0,041
-446,109	561,691	-0,028	0,050
-445,095	-200,000	-0,007	-0,050
-444,080	30,299	-0,088	0,054
-443,065	175,508	0,052	-0,054
-442,051	-40,695	-0,123	0,046
-441,036	180,418	0,090	-0,095
-440,022	-200,000	-0,003	-0,225
-439,007	-98,642	0,097	-0,018
-437,992	-156,380	0,012	0,001
-436,978	-95,630	-0,079	-0,015
-435,963	-76,241	0,082	0,021
-434,949	373,558	-0,064	0,093
-433,934	26,134	0,100	-0,060
-432,919	-200,000	-0,021	-0,087
-431,905	215,375	-0,095	-0,108
-430,890	186,016	0,074	0,079
-429,876	-200,000	0,009	0,146
-428,861	-57,422	0,068	0,021
-427,846	-200,000	0,005	0,021
-426,832	110,697	-0,032	-0,028
-425,817	186,802	-0,037	-0,040
-424,803	324,896	0,058	-0,079
-423,788	-200,000	-0,010	0,036
-422,773	-103,198	-0,024	-0,004
-421,759	-25,879	0,178	0,075
-420,744	49,981	0,050	0,034
-419,730	-200,000	-0,004	-0,024
-418,715	800,000	-0,043	-0,099
-417,701	800,000	-0,049	-0,099
-416,686	800,000	-0,038	0,080
-415,671	710,484	-0,051	0,097
-414,657	401,629	-0,014	-0,021
-413,642	383,714	0,065	0,096
-412,628	352,935	-0,083	-0,119
-411,613	-200,000	-0,012	-0,127
-410,598	377,916	-0,054	0,080
-409,584	421,543	-0,061	0,095
-408,569	800,000	0,026	0,058
-407,555	750,522	-0,028	-0,055
-406,540	-200,000	0,018	0,126
-405,525	800,000	0,037	0,094
-404,511	800,000	0,048	-0,112
-403,496	306,722	0,069	-0,093
-402,482	-164,915	0,055	0,002
-401,467	-98,170	0,028	-0,005
-400,452	469,608	0,082	0,132
-399,438	-67,317	-0,032	-0,009
-398,423	228,156	-0,036	-0,042
-397,409	-200,000	-0,011	-0,071
-396,394	-200,000	0,022	0,080
-395,379	220,110	0,082	0,095
-394,365	-71,619	0,170	-0,045
-393,350	-18,021	0,104	-0,047
-392,336	36,621	0,037	-0,023
-391,321	-84,576	0,054	0,012
-390,306	87,165	0,064	-0,050
-389,292	-163,159	-0,061	0,002
-388,277	-200,000	-0,008	0,127
-387,263	-165,984	0,086	-0,003
-386,248	294,712	0,070	0,091
-385,233	528,166	-0,076	0,129
-384,219	82,957	0,028	0,022
-383,204	800,000	-0,007	0,016
-382,190	-130,857	0,010	0,001
-381,175	-200,000	-0,028	0,125
-380,160	78,214	0,118	0,090
-379,146	-111,156	-0,117	0,017
-378,131	114,258	-0,099	0,087
-377,117	-200,000	0,004	0,058
-376,102	-200,000	0,007	-0,034
-375,088	800,000	0,027	-0,053
-374,073	-59,531	0,037	-0,011
-373,058	169,800	0,107	0,110
-372,044	-200,000	0,009	0,055
-371,029	-66,176	0,135	0,038
-370,015	800,000	-0,032	0,079
-369,000	3,530	-0,122	0,064
-367,985	137,393	-0,127	0,119
-366,971	-200,000	-0,002	0,106
-365,956	135,806	-0,031	-0,029
-364,942	-73,636	0,066	0,017
-363,927	-8,610	-0,065	0,031
-362,912	567,685	0,031	-0,054
-361,898	-98,536	-0,136	0,025
-360,883	13,195	-0,074	-0,041
-359,869	800,000	-0,020	0,046
-358,854	575,677	0,020	-0,035
-357,839	-123,679	0,123	-0,014
-356,825	14,384	-0,062	0,034
-355,810	-14,389	0,102	-0,047
-354,796	657,565	-0,054	-0,100
-353,781	303,964	-0,012	-0,017
-352,766	-200,000	0,024	0,145
-351,752	324,136	0,069	-0,094
-350,737	604,812	0,031	0,056
-349,723	378,763	-0,023	-0,034
-348,708	547,754	0,037	-0,063
-347,693	-158,869	-0,027	-0,001
-346,679	-200,000	0,017	0,114
-345,664	-92,456	-0,112	-0,022
-344,650	-5,166	0,098	-0,048
-343,635	358,245	0,073	-0,104
-342,620	-0,932	-0,097	0,049
-341,606	82,713	0,087	0,068
-340,591	272,826	-0,069	-0,087
-339,577	-84,262	-0,083	-0,019
-338,562	-200,000	-0,041	-0,157
-337,548	-200,000	-0,007	-0,036
-336,533	285,370	0,099	-0,128
-335,518	-200,000	0,002	-0,059
-334,504	-31,947	0,046	-0,018
-333,489	-24,141	0,031	-0,013
-332,475	800,000	-0,033	-0,070
-331,460	-200,000	-0,005	-0,026
-330,445	-200,000	0,012	-0,102
-329,431	-74,076	0,025	0,006
-328,416	331,619	0,030	0,041
-327,402	-38,018	0,181	-0,069
-326,387	-135,343	-0,096	0,008
-325,372	-109,570	0,079	-0,012
-324,358	-200,000	-0,021	-0,103
-323,343	133,614	-0,156	0,144
-322,329	27,503	0,150	0,090
-321,314	473,669	0,069	0,111
-320,299	800,000	-0,028	-0,067
-319,285	599,590	0,006	-0,010
-318,270	-200,000	-0,021	0,145
-317,256	88,664	0,087	0,069
-316,241	800,000	0,074	-0,207
-315,226	727,589	0,054	0,104
-314,212	95,358	-0,112	-0,092
-313,197	-200,000	0,049	0,194
-312,183	-163,226	-0,128	0,004
-311,168	-200,000	-0,004	-0,044
-310,153	-200,000	-0,026	-0,141
-309,139	-110,415	-0,090	-0,013
-308,124	-39,481	0,087	-0,032
-307,110	800,000	-0,047	-0,097
-306,095	170,608	0,110	0,112
-305,080	3,808	0,133	-0,069
-304,066	-200,000	0,005	-0,046
-303,051	306,470	0,052	-0,069
-302,037	69,894	-0,173	-0,128
-301,022	-200,000	-0,012	-0,154
-300,008	216,539	-0,046	0,053
-298,993	172,909	0,066	-0,068
-297,978	206,443	0,050	0,056
-296,964	92,146	-0,039	0,032
-295,949	85,425	-0,048	0,038
-294,935	-200,000	0,004	-0,078
-293,920	-89,230	0,027	0,006
-292,905	-165,941	0,159	0,005
-291,891	-11,685	0,074	-0,035
-290,876	235,250	-0,049	0,058
-289,862	514,122	0,043	0,073
-288,847	-71,571	0,030	0,008
-287,832	367,455	-0,084	-0,121
-286,818	-198,501	0,110	0,000
-285,803	575,398	-0,023	-0,041
-284,789	205,777	0,064	-0,071
-283,774	-59,416	-0,053	0,016
-282,759	-200,000	-0,036	0,242
-281,745	166,239	0,046	0,047
-280,730	-81,029	-0,232	-0,055
-279,716	103,531	0,083	-0,070
-278,701	-168,906	0,099	0,003
-277,686	-128,242	-0,028	0,003
-276,672	163,352	0,061	-0,062
-275,657	-35,138	0,098	0,038
-274,643	526,176	-0,052	-0,087
-273,628	-31,502	-0,048	0,019
-272,613	52,826	0,059	0,040
-271,599	752,741	0,068	-0,132
-270,584	-159,554	0,103	0,004
-269,570	165,060	0,088	0,089
-268,555	800,000	-0,009	0,024
-267,540	-200,000	-0,056	-0,188
-266,526	30,830	-0,103	0,063
-265,511	-76,047	0,032	0,008
-264,497	70,131	0,040	0,030
-263,482	800,000	-0,040	0,124
-262,467	-200,000	-0,002	0,132
-261,453	469,457	0,067	0,109
-260,438	710,910	-0,060	-0,114
-259,424	800,000	-0,026	0,075
-258,409	-200,000	0,045	-0,159
-257,395	-200,000	-0,004	-0,041
-256,380	-126,542	0,082	0,009
-255,365	338,917	-0,102	-0,142
-254,351	800,000	0,049	-0,107
-253,336	285,764	0,084	0,108
-252,322	111,888	-0,119	0,102
-251,307	106,288	0,039	-0,033
-250,292	-124,348	0,102	-0,011
-249,278	-200,000	0,000	0,038
-248,263	20,529	0,116	0,067
-247,249	77,271	-0,070	0,053
-246,234	-61,224	-0,099	0,029
-245,219	800,000	0,062	-0,135
-244,205	-73,486	-0,067	-0,017
-243,190	70,282	0,048	-0,035
-242,176	130,074	-0,088	-0,081
-241,161	413,372	-0,050	0,077
-240,146	-200,000	-0,021	0,221
-239,132	-164,485	-0,203	-0,006
-238,117	121,037	-0,098	-0,087
-237,103	214,224	-0,049	-0,056
-236,088	-0,403	-0,077	-0,039
-235,073	800,000	0,025	0,049
-234,059	102,220	-0,177	0,147
-233,044	353,300	0,086	0,123
-232,030	-173,368	-0,087	0,002
-231,015	-55,162	0,165	0,052
-230,000	483,874	0,024	0,039
-228,986	-200,000	-0,020	-0,085
-227,971	283,033	0,040	0,051
-226,957	130,921	0,087	0,080
-225,942	315,145	0,040	0,054
-224,927	-200,000	-0,006	0,031
-223,913	420,140	0,082	-0,126
-222,898	-200,000	-0,008	-0,036
-221,884	30,354	-0,121	-0,074
-220,869	-114,697	0,078	-0,010
-219,855	30,489	0,160	0,097
-218,840	-200,000	0,024	0,088
-217,825	800,000	0,025	-0,073
-216,811	295,500	-0,085	-0,111
-215,796	285,952	-0,095	-0,122
-214,782	-200,000	0,022	0,084
-213,767	-78,250	-0,038	-0,009
-212,752	-84,518	0,030	0,007
-211,738	-104,235	0,114	-0,019
-210,723	-147,062	0,110	0,007
-209,709	207,409	-0,069	0,077
-208,694	30,582	-0,069	0,042
-207,679	-200,000	0,007	0,043
-206,665	13,651	0,105	0,058
-205,650	24,141	0,052	0,031
-204,636	133,587	0,157	0,144
-203,621	-200,000	-0,003	0,095
-202,606	-200,000	-0,001	0,137
-201,592	576,011	-0,085	-0,148
-200,577	-200,000	0,015	-0,200
-199,563	59,694	-0,036	-0,025
-198,548	-75,341	-0,072	-0,018
-197,533	-200,000	-0,006	0,037
-196,519	476,062	0,059	0,095
-195,504	-70,268	0,023	0,006
-194,490	482,968	0,040	0,064
-193,475	-27,154	0,116	0,048
-192,460	127,213	-0,084	0,076
-191,446	473,638	-0,038	0,062
-190,431	-100,930	0,090	0,016
-189,417	-195,433	0,084	-0,000
-188,402	-98,451	0,066	-0,012
-187,387	232,786	-0,066	0,077
-186,373	-200,000	-0,003	0,168
-185,358	103,899	0,092	0,077
-184,344	-138,294	-0,035	0,003
-183,329	800,000	0,041	0,094
-182,315	134,759	-0,073	0,068
-181,300	-200,000	0,031	0,105
-180,285	-200,000	0,021	-0,178
-179,271	49,096	-0,248	-0,166
-178,256	-144,769	-0,123	-0,008
-177,242	27,403	-0,157	0,094
-176,227	800,000	-0,040	0,126
-175,212	571,312	0,020	0,035
-174,198	626,609	0,038	-0,068
-173,183	-200,000	-0,009	-0,045
-172,169	-48,292	0,021	0,007
-171,154	-200,000	0,000	0,022
-170,139	-200,000	-0,011	-0,089
-169,125	234,413	0,080	-0,094
-168,110	266,448	-0,024	0,030
-167,096	11,297	0,114	0,062
-166,081	-40,781	-0,202	-0,074
-165,066	279,253	-0,008	0,011
-164,052	-155,676	-0,140	0,006
-163,037	2,132	-0,050	0,026
-162,023	706,274	0,020	-0,038
-161,008	6,169	-0,137	0,072
-159,993	-200,000	0,016	0,083
-158,979	15,864	-0,066	0,037
-157,964	-68,824	0,099	-0,027
-156,950	-126,026	-0,045	-0,005
-155,935	-200,000	0,011	0,045
-154,920	265,077	0,059	0,074
-153,906	614,336	-0,088	0,157
-152,891	67,678	-0,122	-0,088
-151,877	454,062	0,027	0,042
-150,862	800,000	-0,036	-0,083
-149,847	-36,721	0,047	-0,018
-148,833	338,331	-0,063	0,088
-147,818	68,782	0,039	0,028
-146,804	661,765	0,013	0,024
-145,789	-200,000	-0,034	0,120
-144,775	800,000	-0,023	0,054
-143,760	-200,000	0,054	-0,171
-142,745	800,000	-0,039	0,082
-141,731	150,571	0,112	-0,108
-140,716	800,000	0,019	-0,050
-139,702	-74,832	0,038	-0,010
-138,687	392,252	0,059	-0,088
-137,672	-39,954	0,093	-0,034
-136,658	-129,776	-0,092	-0,009
-135,643	-179,006	-0,062	-0,001
-134,629	-200,000	0,009	-0,071
-133,614	-141,096	0,077	-0,006
-132,599	392,339	-0,044	0,066
-131,585	427,431	0,106	0,164
-130,570	-103,555	-0,074	-0,012
-129,556	-102,514	-0,123	-0,021
-128,541	-200,000	-0,024	-0,089
-127,526	1,503	-0,055	-0,028
-126,512	-9,602	0,071	-0,033
-125,497	-200,000	0,004	0,056
-124,483	-200,000	0,005	0,062
-123,468	800,000	0,030	-0,063
-122,453	-166,674	0,022	-0,001
-121,439	-3,970	-0,159	0,078
-120,424	131,802	0,045	-0,041
-119,410	-200,000	0,003	0,032
-118,395	-40,409	-0,148	-0,054
-117,380	177,876	0,106	0,110
-116,366	234,381	0,036	-0,043
-115,351	177,512	0,032	-0,033
-114,337	-20,952	-0,013	0,006
-113,322	-7,418	0,040	-0,019
-112,307	800,000	-0,028	0,080
-111,293	-82,753	0,048	-0,011
-110,278	101,333	-0,068	0,056
-109,264	690,634	-0,016	0,030
-108,249	301,105	-0,064	-0,085
-107,234	298,052	-0,087	-0,114
-106,220	-200,000	-0,021	0,122
-105,205	46,304	0,075	0,049
-104,191	-200,000	-0,004	-0,021
-103,176	800,000	0,086	0,237
-102,162	213,368	0,053	0,059
-101,147	420,805	-0,029	0,044
-100,132	752,179	-0,034	0,065
-99,118	236,088	-0,093	-0,109
-98,103	-200,000	-0,023	0,079
-97,089	56,959	-0,157	0,108
-96,074	-200,000	0,012	0,127
-95,059	-200,000	0,010	0,084
-94,045	774,783	0,040	0,077
-93,030	-91,044	-0,107	0,022
-92,016	-200,000	0,008	-0,053
-91,001	147,963	-0,056	-0,054
-89,986	560,628	-0,069	-0,119
-88,972	311,670	0,037	0,050
-87,957	-200,000	-0,012	0,098
-86,943	-200,000	-0,023	0,083
-85,928	-200,000	-0,017	-0,057
-84,913	692,946	0,030	0,056
-83,899	-5,087	0,196	-0,095
-82,884	-200,000	-0,014	0,059
-81,870	257,261	-0,048	0,059
-80,855	196,237	0,107	0,115
-79,840	27,857	0,062	-0,037
-78,826	-200,000	-0,002	0,053
-77,811	247,426	-0,132	-0,158
-76,797	26,828	0,051	-0,030
-75,782	-20,767	0,081	0,035
-74,767	-75,331	0,139	0,035
-73,753	75,351	0,040	-0,030
-72,738	14,891	-0,020	0,011
-71,724	49,591	-0,060	-0,040
-70,709	-200,000	-0,002	-0,016
-69,694	-25,615	-0,017	-0,007
-68,680	17,832	0,069	0,039
-67,665	-200,000	0,020	0,074
-66,651	-200,000	-0,004	0,021
-65,636	109,072	0,044	-0,037
-64,622	-4,334	-0,081	0,040
-63,607	800,000	-0,055	-0,118
-62,592	-200,000	0,013	0,075
-61,578	-200,000	0,004	0,035
-60,563	-200,000	-0,013	-0,084
-59,549	-200,000	-0,017	0,104
-58,534	-18,650	-1,662	-0,731
-57,519	480,238	-1,291	-2,081
-56,505	-200,000	-0,620	-4,608
-55,490	192,859	0,950	1,018
-54,476	800,000	4,818	11,471
-53,461	-200,000	18,967	313,991
-52,446	-200,000	739,188	2326,230
-51,432	575,218	1655,719	2873,668
-50,417	79,117	1671,715	1266,799
-49,403	21,810	1544,520	888,694
-48,388	15,669	1467,113	814,288
-47,373	17,881	1456,895	819,275
-46,359	16,855	1447,068	808,792
-45,344	13,964	1442,457	792,331
-44,330	13,855	1440,591	790,753
-43,315	13,833	1438,826	789,649
-42,300	13,868	1437,119	788,847
-41,286	13,924	1435,878	788,402
-40,271	13,839	1434,751	787,345
-39,257	13,807	1433,621	786,540
-38,242	13,869	1432,357	786,113
-37,227	13,932	1431,133	785,708
-36,213	13,932	1429,615	784,847
-35,198	13,934	1428,491	784,205
-34,184	13,923	1427,646	783,658
-33,169	13,903	1426,111	782,690
-32,154	13,888	1425,198	782,089
-31,140	13,920	1423,874	781,483
-30,125	13,976	1422,643	781,038
-29,111	13,934	1421,682	780,282
-28,096	13,914	1420,542	779,530
-27,082	13,830	1419,477	778,520
-26,067	13,819	1418,258	777,770
-25,052	13,802	1417,398	777,184
-24,038	13,809	1416,367	776,622
-23,023	13,829	1415,260	776,079
-22,009	13,841	1414,270	775,563
-20,994	13,810	1413,357	774,883
-19,979	13,776	1412,626	774,293
-18,965	13,767	1411,625	773,672
-17,950	13,794	1410,624	773,217
-16,936	13,780	1409,752	772,646
-15,921	13,780	1408,534	771,948
-14,906	13,763	1407,599	771,325
-13,892	13,743	1406,698	770,704
-12,877	13,780	1405,668	770,286
-11,863	13,761	1404,907	769,750
-10,848	13,728	1404,153	769,152
-9,833	13,695	1403,173	768,430
-8,819	13,673	1402,345	767,843
-7,804	13,645	1401,540	767,243
-6,790	13,648	1400,405	766,602
-5,775	13,649	1399,357	766,002
-4,760	13,666	1398,239	765,440
-3,746	13,613	1397,503	764,761
-2,731	13,611	1396,630	764,241
-1,717	13,626	1395,708	763,779
-0,702	13,612	1394,169	762,840
0,313	17,351	1311,589	735,027
1,327	33,388	705,550	432,551
2,342	51,330	123,717	82,986
3,356	2,797	16,618	8,504
4,371	-3,126	3,199	1,573
5,386	-63,876	0,628	0,181
6,400	179,077	0,145	0,150
7,415	46,001	-0,267	-0,175
8,429	12,670	-0,377	-0,205
9,444	-1,927	-0,268	-0,133
10,459	-45,244	-0,370	-0,129
11,473	119,755	-0,293	-0,257
12,488	-99,554	-0,259	-0,046
13,502	577,670	-0,121	-0,210
14,517	-139,219	-0,506	-0,038
15,531	63,699	-0,313	-0,222
16,546	208,846	-0,281	-0,311
17,561	49,646	-0,469	-0,312
18,575	-96,231	-0,297	-0,055
19,590	58,323	-0,228	-0,158
20,604	-13,650	-0,265	-0,121
21,619	55,089	-0,381	-0,260
22,634	111,435	-0,266	-0,227
23,648	151,184	-0,459	-0,442
24,663	94,402	-0,364	-0,292
25,677	111,630	-0,360	-0,306
26,692	125,298	-0,281	-0,251
27,707	21,915	-0,326	-0,187
28,721	5,882	-0,338	-0,176
29,736	-24,197	-0,522	-0,219
30,750	224,561	-0,261	-0,299
31,765	73,823	-0,472	-0,349
32,780	202,419	-0,356	-0,388
33,794	-5,331	-0,348	-0,168
34,809	50,325	-0,353	-0,235
35,823	75,978	-0,344	-0,256
36,838	144,196	-0,289	-0,272
37,853	78,285	-0,401	-0,302
38,867	123,081	-0,307	-0,271
39,882	-84,493	-0,376	-0,083
40,896	-43,920	-0,331	-0,117
41,911	31,394	-0,372	-0,225
42,926	15,570	-0,438	-0,242
43,940	31,602	-0,392	-0,237
44,955	141,323	-0,462	-0,432
45,969	196,312	-0,270	-0,290
46,984	69,611	-0,384	-0,278
47,999	250,392	-0,302	-0,363
49,013	4,815	-0,265	-0,137
50,028	-10,357	-0,333	-0,155
51,042	-72,074	-0,361	-0,094
52,057	72,887	-0,339	-0,249
53,071	55,749	-0,413	-0,282
54,086	51,693	-0,360	-0,241
55,101	50,121	-0,283	-0,188
56,115	51,892	-0,384	-0,257
57,130	-74,546	-0,373	-0,094
58,144	27,143	-0,467	-0,275
59,159	51,250	-0,430	-0,287
60,174	77,515	-0,373	-0,279
61,188	-33,653	-0,417	-0,161
62,203	18,236	-0,344	-0,193
63,217	-115,475	-0,193	-0,025
64,232	-4,879	-0,301	-0,146
65,247	156,915	-0,328	-0,320
66,261	-110,956	-0,441	-0,063
67,276	20,717	-0,355	-0,202
68,290	-59,680	-0,294	-0,088
69,305	158,082	-0,225	-0,220
70,320	-34,237	-0,461	-0,177
71,334	-55,832	-0,297	-0,093
72,349	-56,035	-0,259	-0,081
73,363	-8,612	-0,317	-0,149
74,378	107,926	-0,357	-0,299
75,393	15,825	-0,426	-0,235
76,407	113,345	-0,261	-0,223
77,422	-20,603	-0,348	-0,150
78,436	-77,293	-0,310	-0,075
79,451	164,339	-0,167	-0,165
80,466	220,739	-0,296	-0,334
81,480	188,790	-0,152	-0,160
82,495	75,559	-0,353	-0,262
83,509	88,287	-0,340	-0,265
84,524	119,668	-0,340	-0,296
85,539	12,797	-0,325	-0,176
86,553	37,355	-0,308	-0,191
87,568	25,520	-0,389	-0,227
88,582	-66,723	-0,410	-0,113
89,597	67,988	-0,351	-0,252
90,611	-56,363	-0,337	-0,105
91,626	49,780	-0,263	-0,173
92,641	-13,404	-0,252	-0,114
93,655	118,240	-0,302	-0,261
94,670	-0,471	-0,319	-0,158
95,684	8,099	-0,408	-0,214
96,699	88,066	-0,392	-0,305
97,714	9,593	-0,307	-0,163
98,728	6,241	-0,302	-0,157
99,743	120,407	-0,227	-0,198
100,757	94,534	-0,210	-0,167
101,772	-34,637	-0,305	-0,116
102,787	-92,375	-0,323	-0,063
103,801	139,447	-0,231	-0,213
104,816	33,844	-0,186	-0,113
105,830	-56,301	-0,357	-0,111
106,845	285,744	-0,200	-0,254
107,860	29,146	-0,308	-0,183
108,874	-60,473	-0,357	-0,106
109,889	-74,545	-0,359	-0,090
110,903	-34,667	-0,281	-0,107
111,918	10,729	-0,304	-0,162
112,933	91,279	-0,245	-0,193
113,947	15,808	-0,232	-0,128
114,962	-32,664	-0,263	-0,102
115,976	-79,470	-0,161	-0,038
116,991	-40,740	-0,308	-0,111
118,006	15,021	-0,356	-0,194
119,020	214,602	-0,160	-0,177
120,035	-12,568	-0,235	-0,107
121,049	363,833	-0,093	-0,131
122,064	48,021	-0,266	-0,174
123,079	297,755	-0,158	-0,203
124,093	174,512	-0,225	-0,228
125,108	69,059	-0,281	-0,202
126,122	196,396	-0,227	-0,242
127,137	46,134	-0,259	-0,168
128,151	55,496	-0,184	-0,125
129,166	-75,367	-0,410	-0,102
130,181	160,671	-0,232	-0,227
131,195	115,376	-0,359	-0,307
132,210	26,013	-0,258	-0,150
133,224	95,138	-0,097	-0,078
134,239	54,212	-0,304	-0,205
135,254	131,098	-0,205	-0,184
136,268	-27,037	-0,223	-0,091
137,283	148,724	-0,235	-0,222
138,297	22,959	-0,319	-0,182
139,312	142,586	-0,303	-0,281
140,327	126,106	-0,252	-0,223
141,341	-19,973	-0,192	-0,083
142,356	-40,369	-0,251	-0,091
143,370	-116,115	-0,180	-0,023
144,385	-29,498	-0,280	-0,111
145,400	80,161	-0,244	-0,183
146,414	70,279	-0,217	-0,156
147,429	33,903	-0,366	-0,222
148,443	-7,380	-0,336	-0,158
149,458	24,343	-0,174	-0,100
150,473	39,959	-0,413	-0,259
151,487	200,940	-0,174	-0,188
152,502	301,019	-0,225	-0,291
153,516	139,684	-0,189	-0,173
154,531	59,716	-0,173	-0,119
155,546	643,843	-0,119	-0,212
156,560	421,530	-0,158	-0,238
157,575	-70,504	-0,081	-0,021
158,589	-21,356	-0,178	-0,076
159,604	17,795	-0,244	-0,135
160,619	180,839	-0,291	-0,298
161,633	142,839	-0,225	-0,209
162,648	48,692	-0,203	-0,133
163,662	38,314	-0,276	-0,171
164,677	217,754	-0,138	-0,153
165,692	30,288	-0,185	-0,110
166,706	-64,330	-0,338	-0,095
167,721	442,036	-0,151	-0,231
168,735	37,756	-0,327	-0,202
169,750	299,031	-0,196	-0,252
170,764	8,107	-0,223	-0,117
171,779	-40,562	-0,197	-0,071
172,794	800,000	-0,106	-0,260
173,808	-86,315	-0,284	-0,060
174,823	12,990	-0,350	-0,188
175,837	160,322	-0,256	-0,249
176,852	367,853	-0,159	-0,225
177,867	294,061	-0,158	-0,202
178,881	-62,601	-0,311	-0,089
179,896	157,772	-0,134	-0,129
180,910	-10,976	-0,196	-0,090
181,925	117,415	-0,222	-0,190
182,940	22,832	-0,243	-0,138
183,954	22,266	-0,344	-0,195
184,969	99,526	-0,235	-0,189
185,983	31,483	-0,127	-0,076
186,998	-91,168	-0,173	-0,034
188,013	-35,463	-0,224	-0,084
189,027	99,442	-0,261	-0,210
190,042	29,091	-0,258	-0,152
191,056	17,797	-0,313	-0,173
192,071	800,000	-0,068	-0,190
193,086	-124,842	-0,212	-0,022
194,100	-16,694	-0,227	-0,100
195,115	133,122	-0,130	-0,117
196,129	29,114	-0,177	-0,104
197,144	221,998	-0,317	-0,355
198,159	4,708	-0,213	-0,108
199,173	378,861	-0,156	-0,222
200,188	-200,000	-0,055	-0,200
201,202	197,673	-0,162	-0,172
202,217	-31,082	-0,273	-0,107
203,232	192,425	-0,174	-0,183
204,246	800,000	-0,133	-0,285
205,261	120,845	-0,140	-0,121
206,275	58,593	-0,225	-0,153
207,290	-10,902	-0,244	-0,111
208,304	-119,641	-0,166	-0,020
209,319	-149,478	-0,132	-0,007
210,334	503,163	-0,064	-0,104
211,348	-82,015	-0,273	-0,062
212,363	227,232	-0,142	-0,161
213,377	-27,136	-0,240	-0,097
214,392	-79,928	-0,118	-0,027
215,407	108,685	-0,117	-0,097
216,421	268,850	-0,224	-0,273
217,436	-44,512	-0,094	-0,032
218,450	17,646	-0,230	-0,127
219,465	-122,883	-0,252	-0,028
220,480	56,844	-0,131	-0,088
221,494	51,739	-0,157	-0,104
222,509	644,769	-0,075	-0,133
223,523	144,140	-0,144	-0,133
224,538	323,156	-0,174	-0,231
225,553	144,924	-0,178	-0,165
226,567	103,902	-0,158	-0,129
227,582	325,524	-0,176	-0,234
228,596	-200,000	0,015	-0,201
229,611	658,173	-0,072	-0,128
230,626	568,044	-0,158	-0,267
231,640	-153,709	-0,124	0,006
232,655	-83,085	-0,224	-0,050
233,669	167,790	-0,239	-0,236
234,684	208,681	-0,307	-0,333
235,699	-7,571	-0,123	-0,057
236,713	134,976	-0,111	-0,100
237,728	141,045	-0,172	-0,158
238,742	-21,539	-0,244	-0,103
239,757	340,166	-0,104	-0,140
240,772	264,760	-0,117	-0,141
241,786	-109,593	-0,353	-0,051
242,801	83,906	-0,161	-0,122
243,815	-200,000	-0,046	-0,241
244,830	91,266	-0,310	-0,241
245,844	199,759	-0,225	-0,239
246,859	98,971	-0,198	-0,158
247,874	15,061	-0,225	-0,121
248,888	197,208	-0,115	-0,122
249,903	217,282	-0,076	-0,083
250,917	18,955	-0,183	0,101
251,932	-82,789	-0,184	-0,041
252,947	131,755	-0,158	-0,141
253,961	398,597	-0,127	-0,185
254,976	800,000	-0,110	-0,240
255,990	195,633	-0,145	-0,153
257,005	81,888	-0,245	-0,183
258,020	13,320	-0,169	-0,090
259,034	110,041	-0,187	-0,155
260,049	351,797	-0,138	-0,190
261,063	298,930	-0,223	-0,285
262,078	564,064	-0,177	-0,297
263,093	159,452	-0,174	-0,168
264,107	-156,061	-0,229	0,010
265,122	-93,448	-0,068	0,013
266,136	-200,000	-0,001	0,014
267,151	205,413	-0,162	-0,174
268,166	45,572	-0,122	-0,078
269,180	514,564	-0,153	-0,248
270,195	82,334	-0,169	-0,127
271,209	238,889	-0,153	-0,177
272,224	-44,370	-0,204	-0,070
273,239	61,199	-0,169	-0,116
274,253	385,415	-0,171	-0,245
275,268	-133,692	-0,198	-0,017
276,282	-154,066	-0,129	0,006
277,297	31,841	-0,304	-0,180
278,312	39,231	-0,226	-0,139
279,326	800,000	-0,126	-0,304
280,341	-31,419	-0,079	-0,031
281,355	451,078	-0,100	-0,152
282,370	238,066	-0,149	-0,171
283,384	44,933	-0,201	-0,128
284,399	26,317	-0,205	-0,118
285,414	-44,252	-0,093	0,032
286,428	119,304	-0,076	-0,065
287,443	520,747	-0,117	-0,190
288,457	-73,999	-0,224	-0,056
289,472	196,703	-0,188	-0,198
290,487	-64,701	-0,266	-0,074
291,501	800,000	-0,108	-0,284
292,516	-34,685	-0,328	-0,123
293,530	526,958	-0,083	-0,136
294,545	-39,977	-0,104	-0,037
295,560	-44,512	-0,116	0,040
296,574	-39,232	-0,189	-0,068
297,589	543,256	-0,145	-0,239
298,603	44,158	-0,196	-0,124
299,618	800,000	-0,055	-0,145
300,633	144,818	-0,129	-0,119
301,647	-150,655	-0,130	0,007
302,662	-200,000	-0,001	-0,067
303,676	800,000	-0,032	-0,083
304,691	43,532	-0,166	-0,104
305,706	-95,627	-0,233	-0,043
306,720	81,387	-0,097	-0,072
307,735	42,379	-0,082	-0,051
308,749	-44,016	-0,221	-0,076
309,764	32,080	-0,156	-0,092
310,779	-81,862	-0,219	0,049
311,793	461,908	-0,127	-0,195
312,808	800,000	-0,081	-0,219
313,822	800,000	-0,115	-0,289
314,837	-0,058	-0,129	-0,063
315,852	72,949	-0,173	-0,124
316,866	10,569	-0,126	-0,066
317,881	794,627	-0,059	-0,113
318,895	76,156	-0,105	-0,077
319,910	47,826	-0,149	-0,095
320,925	103,609	-0,183	-0,148
321,939	-76,205	-0,100	0,024
322,954	-200,000	-0,052	-0,209
323,968	-127,261	-0,133	0,013
324,983	79,189	-0,082	-0,061
325,997	-73,796	-0,222	0,055
327,012	2,980	-0,187	-0,093
328,027	393,588	-0,125	-0,179
329,041	-200,000	-0,036	-0,249
330,056	-200,000	-0,027	-0,144
331,070	-71,931	-0,174	-0,044
332,085	-105,671	-0,147	0,023
333,100	122,097	-0,138	-0,119
334,114	236,598	-0,120	-0,137
335,129	-200,000	-0,061	-0,203
336,143	-200,000	-0,008	-0,134
337,158	132,876	-0,159	-0,141
338,173	65,652	-0,178	-0,124
339,187	-200,000	-0,022	-0,087
340,202	-148,218	-0,201	-0,011
341,216	147,400	-0,134	-0,124
342,231	382,506	-0,118	-0,166
343,246	481,402	-0,149	-0,234
344,260	92,345	-0,110	-0,085
345,275	460,979	-0,079	-0,122
346,289	800,000	-0,099	-0,197
347,304	473,484	-0,103	-0,160
348,319	-14,604	-0,060	-0,026
349,333	81,861	-0,144	-0,107
350,348	-134,904	-0,281	-0,023
351,362	-31,163	-0,134	-0,051
352,377	-200,000	-0,015	-0,123
353,392	51,804	-0,114	-0,074
354,406	34,974	-0,123	-0,074
355,421	207,176	1316,332	1410,058
356,435	159,356	1477,254	1410,537
