DTS Sentinel unit serial number:	SN410029Multiplexer serial number:	ORYXHardware model number:	OX2-SRSoftware version number:	ORYX F/W v4,00 Oryx Data Collector v3.7.2.0data status	okinstallation	B3 Nyhavnadifferential loss correction	single-endedforward channel	channel 1reverse channel	N/Adate	2023/11/30time	13:57:30forward acquisition time	300,00reverse acquisition time	0,00gamma	499,1914k internal	0,3213k external	0,3213temperature offset calibration	1,0000default loss term (dB/km)	0,3820temperature slope calibration	1,0000multiplexer offset coefficient	1,0000multiplexer slope coefficient	1,0000fibre end	0,00T internal ref (°C)	11,14T ext. ref 1 (°C)	-2,13T ext. ref 2 (°C)	-2,21length (m)	temperature (°C)	Stokes	anti-Stokes-744,400	197,045	-0,273	-0,302
-743,385	-200,000	0,091	0,367
-742,371	96,925	-0,170	-0,141
-741,356	-200,000	-0,019	0,258
-740,342	158,986	-0,187	-0,189
-739,327	-200,000	-0,010	0,391
-738,312	800,000	-0,075	-0,237
-737,298	-200,000	-0,086	0,350
-736,283	800,000	-0,084	-0,256
-735,269	-200,000	-0,005	0,407
-734,254	35,642	-0,246	-0,156
-733,239	86,354	-0,195	0,155
-732,225	-200,000	-0,024	-0,211
-731,210	143,399	0,015	-0,014
-730,196	11,624	0,119	-0,066
-729,181	93,051	-0,034	-0,028
-728,167	63,324	-0,027	0,019
-727,152	389,497	0,022	0,033
-726,137	97,650	-0,068	-0,056
-725,123	102,023	-0,046	0,038
-724,108	192,782	-0,055	-0,060
-723,094	394,776	-0,132	-0,200
-722,079	235,379	0,054	-0,065
-721,064	261,079	-0,061	-0,077
-720,050	800,000	-0,030	-0,088
-719,035	30,751	-0,100	0,062
-718,021	-22,218	-0,068	0,030
-717,006	-200,000	0,012	-0,088
-715,991	-200,000	-0,018	-0,067
-714,977	-200,000	0,021	-0,143
-713,962	-42,369	-0,065	0,024
-712,948	-99,560	0,197	-0,036
-711,933	222,013	0,062	-0,072
-710,918	-200,000	-0,004	0,083
-709,904	391,000	-0,117	-0,176
-708,889	-166,274	-0,228	0,007
-707,875	150,183	0,097	0,095
-706,860	-200,000	-0,010	-0,059
-705,845	54,735	-0,096	0,067
-704,831	316,603	0,085	0,116
-703,816	-200,000	-0,039	-0,154
-702,802	34,436	0,120	-0,075
-701,787	-200,000	-0,050	-0,203
-700,772	-100,140	-0,054	0,010
-699,758	800,000	-0,041	0,112
-698,743	74,990	0,068	0,052
-697,729	273,360	0,023	-0,029
-696,714	-106,412	-0,118	0,019
-695,699	-200,000	0,033	0,135
-694,685	233,742	0,055	0,066
-693,670	14,761	-0,132	-0,074
-692,656	106,004	0,114	-0,097
-691,641	586,469	0,023	0,040
-690,627	-22,772	-0,065	0,028
-689,612	-44,437	0,066	0,024
-688,597	359,687	0,079	-0,114
-687,583	-93,286	-0,164	-0,033
-686,568	136,076	-0,111	-0,105
-685,554	368,777	0,032	-0,046
-684,539	199,986	-0,068	-0,076
-683,524	-161,058	-0,045	-0,002
-682,510	-200,000	-0,020	-0,196
-681,495	166,889	0,043	0,044
-680,481	290,286	-0,038	0,050
-679,466	800,000	-0,027	-0,084
-678,451	210,887	-0,064	-0,072
-677,437	-32,858	0,116	0,046
-676,422	71,142	0,070	-0,052
-675,408	-189,174	-0,085	0,001
-674,393	155,131	-0,017	-0,017
-673,378	-200,000	-0,026	-0,234
-672,364	800,000	0,036	-0,107
-671,349	-168,405	-0,077	-0,002
-670,335	698,086	-0,032	-0,062
-669,320	-101,977	0,182	0,031
-668,305	116,834	0,083	0,074
-667,291	300,055	-0,053	0,070
-666,276	192,049	-0,125	-0,136
-665,262	193,617	-0,028	-0,031
-664,247	-1,708	-0,091	-0,046
-663,232	-144,571	0,055	-0,004
-662,218	55,617	0,025	-0,017
-661,203	147,248	-0,045	0,044
-660,189	-200,000	0,013	-0,101
-659,174	-98,085	-0,173	-0,032
-658,159	60,524	-0,047	-0,033
-657,145	-200,000	-0,003	0,015
-656,130	70,753	0,130	0,097
-655,116	-200,000	0,006	0,111
-654,101	247,985	-0,034	0,042
-653,086	-73,732	-0,063	0,016
-652,072	709,305	0,023	0,045
-651,057	-200,000	0,012	-0,040
-650,043	19,337	0,118	-0,068
-649,028	800,000	0,024	-0,054
-648,014	370,243	-0,098	0,143
-646,999	43,951	-0,058	0,039
-645,984	800,000	0,027	0,071
-644,970	-110,951	-0,145	-0,021
-643,955	-200,000	-0,008	0,057
-642,941	-200,000	0,010	-0,145
-641,926	-74,205	0,057	-0,015
-640,911	458,093	-0,026	0,042
-639,897	-106,437	0,097	-0,015
-638,882	88,352	0,053	0,042
-637,868	800,000	0,017	0,042
-636,853	-200,000	0,012	0,058
-635,838	-200,000	0,008	0,038
-634,824	-200,000	0,039	-0,167
-633,809	-120,068	0,037	-0,005
-632,795	-27,214	0,117	-0,049
-631,780	29,229	-0,068	0,042
-630,765	73,003	0,124	-0,093
-629,751	800,000	-0,036	-0,097
-628,736	800,000	-0,060	-0,161
-627,722	514,719	-0,023	0,039
-626,707	8,938	0,067	-0,036
-625,692	-200,000	0,009	0,095
-624,678	-200,000	0,021	0,106
-623,663	633,848	-0,060	-0,110
-622,649	800,000	-0,042	0,090
-621,634	-170,208	0,070	0,002
-620,619	61,832	0,075	-0,054
-619,605	-200,000	0,017	0,137
-618,590	800,000	-0,063	0,183
-617,576	89,255	0,123	0,099
-616,561	6,098	-0,110	-0,059
-615,546	-192,551	0,021	0,000
-614,532	120,964	-0,106	-0,096
-613,517	-200,000	-0,003	-0,010
-612,503	800,000	-0,042	-0,090
-611,488	-167,004	0,081	-0,002
-610,474	409,604	0,030	0,046
-609,459	-26,709	0,118	0,049
-608,444	216,260	-0,022	-0,025
-607,430	49,697	-0,069	0,046
-606,415	-200,000	0,002	-0,023
-605,401	5,683	0,033	-0,017
-604,386	-90,144	-0,021	0,004
-603,371	800,000	0,024	0,053
-602,357	67,750	-0,034	-0,025
-601,342	-200,000	-0,026	-0,100
-600,328	-140,574	0,056	0,004
-599,313	800,000	-0,018	-0,039
-598,298	-200,000	-0,030	-0,137
-597,284	224,548	-0,069	0,081
-596,269	10,844	-0,049	-0,027
-595,255	-18,675	0,048	0,022
-594,240	278,510	-0,094	-0,120
-593,225	-51,221	-0,110	-0,037
-592,211	-42,985	0,095	-0,035
-591,196	-4,943	-0,209	-0,103
-590,182	-98,834	0,061	0,011
-589,167	190,702	0,061	-0,066
-588,152	515,521	0,093	-0,156
-587,138	60,131	-0,058	0,041
-586,123	-200,000	0,025	-0,081
-585,109	-49,392	0,077	-0,026
-584,094	-200,000	0,013	0,083
-583,079	-15,775	-0,054	0,025
-582,065	57,340	-0,026	0,018
-581,050	-200,000	0,019	0,070
-580,036	268,254	0,108	0,137
-579,021	114,441	-0,194	-0,170
-578,006	-23,497	0,074	-0,032
-576,992	-148,818	-0,095	0,005
-575,977	-200,000	0,035	0,129
-574,963	-200,000	0,002	0,049
-573,948	800,000	-0,021	0,064
-572,934	-132,176	-0,109	0,010
-571,919	-200,000	0,023	-0,234
-570,904	800,000	-0,053	-0,106
-569,890	-126,151	-0,132	-0,014
-568,875	-118,821	0,077	0,010
-567,861	97,471	-0,067	-0,055
-566,846	138,000	0,067	-0,063
-565,831	742,799	0,079	-0,153
-564,817	-200,000	0,000	0,015
-563,802	40,021	0,025	0,016
-562,788	23,506	0,062	0,036
-561,773	-200,000	0,018	-0,123
-560,758	423,898	-0,027	-0,041
-559,744	800,000	0,027	0,058
-558,729	-200,000	0,021	0,185
-557,715	800,000	0,030	-0,078
-556,700	670,056	-0,038	0,070
-555,685	-107,204	-0,106	0,017
-554,671	-146,755	0,046	0,003
-553,656	10,018	-0,041	-0,022
-552,642	-200,000	0,001	0,055
-551,627	800,000	0,061	0,143
-550,612	-109,816	-0,111	-0,017
-549,598	-200,000	-0,020	-0,137
-548,583	196,860	-0,026	0,029
-547,569	174,645	-0,038	0,040
-546,554	-200,000	0,028	-0,105
-545,539	800,000	-0,025	0,067
-544,525	-200,000	0,035	-0,113
-543,510	-200,000	-0,002	0,030
-542,496	-153,239	-0,028	-0,001
-541,481	-200,000	0,019	0,178
-540,466	17,255	0,063	-0,036
-539,452	115,054	0,033	0,029
-538,437	800,000	-0,046	0,094
-537,423	605,364	0,059	0,106
-536,408	-134,223	-0,201	0,018
-535,393	800,000	-0,034	-0,077
-534,379	-200,000	-0,002	-0,117
-533,364	265,843	-0,080	0,101
-532,350	60,249	-0,067	-0,048
-531,335	426,091	0,057	0,088
-530,321	14,066	0,131	0,073
-529,306	-200,000	-0,015	0,098
-528,291	-22,645	-0,119	-0,051
-527,277	149,042	-0,089	-0,086
-526,262	800,000	0,072	-0,148
-525,248	-200,000	-0,003	-0,073
-524,233	-200,000	0,014	-0,126
-523,218	-131,183	0,076	0,007
-522,204	800,000	0,027	-0,070
-521,189	211,116	0,077	-0,087
-520,175	-73,447	0,035	-0,009
-519,160	5,104	-0,114	-0,060
-518,145	92,774	0,174	0,141
-517,131	199,646	0,037	0,041
-516,116	497,167	0,030	0,049
-515,102	-82,124	0,097	-0,023
-514,087	-162,102	0,105	0,004
-513,072	-103,114	-0,181	-0,030
-512,058	-48,871	0,090	-0,031
-511,043	-135,206	0,029	-0,002
-510,029	-105,039	-0,056	-0,009
-509,014	386,875	0,051	0,076
-507,999	800,000	0,021	0,064
-506,985	-169,722	-0,138	0,004
-505,970	-200,000	0,001	0,048
-504,956	297,438	0,048	0,064
-503,941	18,452	0,081	-0,047
-502,926	655,301	0,003	0,006
-501,912	306,622	-0,011	-0,015
-500,897	-200,000	0,002	-0,048
-499,883	-69,342	0,037	-0,010
-498,868	-53,933	-0,158	0,051
-497,853	54,489	-0,042	-0,029
-496,839	45,675	-0,112	0,074
-495,824	800,000	0,043	0,088
-494,810	610,244	0,067	-0,120
-493,795	140,777	0,029	-0,027
-492,781	-200,000	-0,017	0,056
-491,766	360,843	0,068	-0,097
-490,751	118,301	0,012	0,010
-489,737	-22,529	0,103	-0,044
-488,722	-200,000	0,032	-0,176
-487,708	-117,332	0,105	-0,013
-486,693	-200,000	-0,023	0,153
-485,678	800,000	-0,004	0,011
-484,664	-14,037	-0,027	-0,012
-483,649	-98,154	-0,062	-0,011
-482,635	-200,000	0,008	0,113
-481,620	-200,000	-0,001	-0,021
-480,605	329,172	0,064	0,089
-479,591	80,906	-0,088	0,068
-478,576	-200,000	0,017	0,086
-477,562	-200,000	-0,012	-0,047
-476,547	227,839	0,046	-0,054
-475,532	2,671	-0,050	-0,026
-474,518	488,408	0,019	-0,031
-473,503	206,096	0,047	0,052
-472,489	-200,000	-0,005	0,060
-471,474	664,626	-0,054	0,100
-470,459	800,000	-0,040	0,089
-469,445	2,114	0,179	-0,093
-468,430	-39,801	-0,048	-0,018
-467,416	-200,000	0,026	-0,143
-466,401	800,000	0,047	0,128
-465,386	245,820	-0,081	0,098
-464,372	-153,040	-0,129	-0,006
-463,357	-17,707	-0,111	0,050
-462,343	-70,293	-0,037	-0,010
-461,328	445,117	0,084	-0,132
-460,313	-200,000	-0,004	-0,045
-459,299	11,617	0,096	0,053
-458,284	-200,000	-0,002	-0,083
-457,270	429,946	0,035	0,055
-456,255	800,000	0,020	-0,059
-455,241	301,631	-0,076	0,101
-454,226	425,672	0,048	0,074
-453,211	-200,000	0,004	-0,058
-452,197	-34,591	0,135	-0,053
-451,182	36,515	0,083	0,052
-450,168	-14,846	0,082	-0,038
-449,153	800,000	-0,062	0,159
-448,138	-138,989	-0,099	-0,008
-447,124	349,933	-0,093	0,131
-446,109	-55,842	0,091	-0,029
-445,095	-200,000	-0,003	-0,038
-444,080	-200,000	0,016	0,152
-443,065	-43,541	0,085	-0,030
-442,051	-200,000	0,031	0,124
-441,036	220,701	-0,072	-0,083
-440,022	-200,000	-0,035	-0,112
-439,007	102,862	0,136	-0,114
-437,992	-200,000	-0,005	-0,032
-436,978	278,741	0,094	0,120
-435,963	-170,089	-0,059	0,001
-434,949	185,503	0,112	0,119
-433,934	-200,000	0,038	0,159
-432,919	-99,302	-0,048	0,009
-431,905	-200,000	0,015	-0,071
-430,890	-108,607	0,147	0,022
-429,876	-56,985	0,064	-0,020
-428,861	647,131	-0,080	0,146
-427,846	-55,105	-0,204	0,065
-426,832	598,963	-0,081	0,144
-425,817	-169,325	0,115	-0,003
-424,803	206,911	0,022	0,025
-423,788	506,536	0,032	0,053
-422,773	-57,063	0,143	-0,045
-421,759	-8,816	0,054	0,026
-420,744	-144,661	-0,151	-0,010
-419,730	800,000	-0,060	-0,146
-418,715	800,000	-0,067	-0,141
-417,701	30,851	0,045	-0,027
-416,686	520,829	0,091	0,154
-415,671	-22,678	-0,080	0,034
-414,657	800,000	0,033	-0,068
-413,642	800,000	0,017	0,046
-412,628	-49,807	-0,018	0,006
-411,613	-57,372	-0,178	0,056
-410,598	800,000	0,044	-0,109
-409,584	67,226	-0,026	-0,019
-408,569	-30,675	0,132	0,053
-407,555	357,571	0,073	0,104
-406,540	227,823	0,039	-0,046
-405,525	232,009	0,123	-0,145
-404,511	383,234	-0,106	-0,156
-403,496	-200,000	-0,009	-0,088
-402,482	800,000	0,075	0,159
-401,467	509,359	0,077	0,128
-400,452	-149,653	0,125	0,007
-399,438	-150,537	-0,119	0,006
-398,423	369,347	-0,038	-0,055
-397,409	-73,400	-0,186	0,048
-396,394	42,422	-0,096	0,062
-395,379	601,924	0,033	0,059
-394,365	225,046	0,070	0,081
-393,350	-105,848	0,029	-0,005
-392,336	156,101	0,049	0,049
-391,321	516,634	0,010	-0,017
-390,306	80,978	-0,023	0,018
-389,292	-103,372	0,098	-0,016
-388,277	800,000	-0,023	0,054
-387,263	-200,000	0,024	0,119
-386,248	165,965	-0,076	0,077
-385,233	4,364	-0,102	-0,053
-384,219	800,000	0,007	-0,020
-383,204	1,447	0,193	-0,099
-382,190	-173,709	-0,092	-0,002
-381,175	-200,000	0,024	0,107
-380,160	-32,943	0,093	-0,037
-379,146	638,507	0,016	-0,030
-378,131	155,927	-0,043	-0,043
-377,117	-77,409	0,085	0,021
-376,102	138,254	-0,076	0,072
-375,088	534,212	-0,025	0,043
-374,073	97,446	-0,022	0,018
-373,058	800,000	0,037	-0,097
-372,044	-57,245	0,096	0,030
-371,029	-200,000	-0,002	-0,031
-370,015	-118,181	-0,076	0,010
-369,000	321,968	-0,010	0,013
-367,985	-129,956	-0,170	-0,016
-366,971	-95,176	-0,108	0,021
-365,956	-54,012	-0,075	-0,024
-364,942	-111,762	0,218	-0,031
-363,927	-71,333	-0,164	-0,043
-362,912	-200,000	-0,005	0,057
-361,898	-4,555	-0,057	0,028
-360,883	347,485	0,028	0,039
-359,869	11,120	0,036	-0,020
-358,854	-30,074	0,089	0,036
-357,839	-6,407	-0,036	0,018
-356,825	-184,752	0,111	-0,001
-355,810	795,155	0,042	0,082
-354,796	-200,000	-0,034	-0,113
-353,781	-200,000	-0,004	-0,036
-352,766	800,000	0,024	-0,056
-351,752	-200,000	0,000	-0,086
-350,737	667,125	-0,069	-0,128
-349,723	-28,624	-0,139	-0,057
-348,708	636,267	0,059	0,108
-347,693	6,878	-0,110	-0,058
-346,679	-200,000	0,001	-0,060
-345,664	-22,507	0,031	-0,013
-344,650	-200,000	-0,024	-0,201
-343,635	137,624	0,097	-0,090
-342,620	-200,000	0,012	0,084
-341,606	142,872	0,071	-0,067
-340,591	147,869	-0,030	-0,029
-339,577	-200,000	-0,025	-0,105
-338,562	-111,911	-0,041	0,006
-337,548	-64,259	-0,036	0,010
-336,533	-105,491	0,035	-0,006
-335,518	-42,465	0,030	0,011
-334,504	109,365	0,031	0,027
-333,489	225,773	-0,049	-0,057
-332,475	458,821	-0,076	-0,121
-331,460	223,741	-0,016	-0,019
-330,445	-4,093	-0,134	0,066
-329,431	800,000	-0,032	-0,082
-328,416	800,000	0,025	0,073
-327,402	167,500	-0,048	-0,048
-326,387	-45,296	-0,026	-0,009
-325,372	111,091	-0,051	-0,044
-324,358	-200,000	-0,024	-0,084
-323,343	-104,590	-0,086	-0,014
-322,329	-81,681	0,073	-0,017
-321,314	29,745	0,085	0,051
-320,299	-200,000	-0,061	0,209
-319,285	-200,000	0,009	0,225
-318,270	-200,000	0,004	-0,124
-317,256	800,000	0,036	0,091
-316,241	168,152	-0,032	-0,033
-315,226	-58,206	0,030	0,009
-314,212	67,536	0,092	-0,067
-313,197	-144,514	-0,044	-0,003
-312,183	40,497	-0,053	0,034
-311,168	210,785	-0,023	-0,026
-310,153	800,000	0,025	-0,065
-309,139	172,146	0,012	0,012
-308,124	2,652	-0,095	-0,049
-307,110	19,788	-0,031	0,018
-306,095	22,596	0,042	0,024
-305,080	85,400	-0,061	0,048
-304,066	-200,000	-0,008	0,055
-303,051	-200,000	-0,006	0,084
-302,037	144,077	0,032	-0,030
-301,022	-3,862	-0,102	0,050
-300,008	-47,749	0,116	-0,040
-298,993	-200,000	-0,004	0,068
-297,978	40,793	0,115	0,074
-296,964	-1,204	-0,070	0,035
-295,949	-180,182	-0,115	0,002
-294,935	248,937	-0,113	-0,137
-293,920	800,000	0,026	0,054
-292,905	108,703	0,114	-0,097
-291,891	115,820	-0,052	0,046
-290,876	-200,000	-0,011	0,070
-289,862	-44,070	-0,094	-0,034
-288,847	-200,000	-0,011	0,045
-287,832	321,097	-0,023	0,031
-286,818	198,459	-0,104	-0,113
-285,803	-200,000	0,008	0,085
-284,789	-90,637	0,072	-0,015
-283,774	-14,132	0,126	0,057
-282,759	-38,880	0,048	-0,018
-281,745	800,000	0,018	-0,041
-280,730	441,758	-0,020	-0,032
-279,716	104,143	0,033	-0,027
-278,701	-12,186	-0,070	0,033
-277,686	-200,000	0,019	0,068
-276,672	-66,873	0,104	0,029
-275,657	-200,000	0,016	0,114
-274,643	41,815	0,030	-0,019
-273,628	240,510	0,033	-0,039
-272,613	-17,721	0,059	0,026
-271,599	-200,000	0,027	-0,108
-270,584	0,455	-0,057	0,029
-269,570	800,000	0,025	0,054
-268,555	98,039	0,076	-0,062
-267,540	-200,000	0,001	0,130
-266,526	96,539	-0,011	0,009
-265,511	-200,000	-0,017	-0,099
-264,497	-99,078	0,067	-0,012
-263,482	20,797	0,041	0,023
-262,467	249,044	0,015	-0,018
-261,453	-200,000	0,006	0,043
-260,438	800,000	0,045	-0,121
-259,424	97,133	-0,076	-0,062
-258,409	-53,572	-0,163	0,053
-257,395	800,000	-0,020	-0,060
-256,380	-45,323	-0,072	0,025
-255,365	-167,057	0,059	-0,002
-254,351	39,838	-0,130	0,083
-253,336	649,492	-0,031	-0,056
-252,322	211,615	-0,056	-0,062
-251,307	338,052	-0,104	-0,144
-250,292	800,000	-0,023	-0,061
-249,278	-89,695	0,183	-0,038
-248,263	800,000	-0,032	0,094
-247,249	-131,848	-0,161	-0,015
-246,234	800,000	0,032	-0,065
-245,219	-200,000	0,037	-0,124
-244,205	90,756	-0,041	0,033
-243,190	-135,420	-0,099	0,008
-242,176	-130,948	0,164	0,015
-241,161	125,844	-0,116	0,104
-240,146	-200,000	0,014	0,097
-239,132	800,000	-0,063	-0,176
-238,117	52,492	0,106	-0,072
-237,103	-200,000	-0,001	-0,064
-236,088	149,186	-0,079	-0,076
-235,073	-59,103	0,053	0,016
-234,059	-15,130	0,044	-0,020
-233,044	375,488	-0,032	0,046
-232,030	97,431	-0,122	0,099
-231,015	354,524	0,040	0,056
-230,000	800,000	0,005	0,013
-228,986	-51,733	0,112	0,037
-227,971	248,157	0,058	0,070
-226,957	43,495	-0,084	0,054
-225,942	356,910	-0,020	0,029
-224,927	591,173	0,046	0,080
-223,913	-200,000	0,030	0,112
-222,898	-157,728	-0,124	0,005
-221,884	297,402	0,050	-0,065
-220,869	-46,119	-0,084	0,029
-219,855	-57,018	0,124	-0,039
-218,840	800,000	-0,079	0,206
-217,825	-28,555	0,010	0,004
-216,811	800,000	0,092	-0,186
-215,796	-200,000	0,012	-0,181
-214,782	-200,000	-0,010	0,069
-213,767	-200,000	-0,024	-0,075
-212,752	321,018	0,006	-0,008
-211,738	107,236	0,073	0,061
-210,723	684,946	-0,031	0,057
-209,709	-127,608	-0,074	0,007
-208,694	119,539	0,020	0,018
-207,679	-38,946	-0,116	0,043
-206,665	-52,189	-0,021	-0,007
-205,650	-74,316	0,125	0,032
-204,636	437,207	0,051	0,079
-203,621	-41,615	0,009	-0,003
-202,606	-200,000	0,019	-0,061
-201,592	-200,000	-0,010	-0,082
-200,577	-200,000	-0,021	-0,098
-199,563	119,719	-0,024	0,021
-198,548	144,830	0,012	0,011
-197,533	800,000	-0,064	0,148
-196,519	-167,819	0,042	0,001
-195,504	79,561	-0,057	0,044
-194,490	422,865	-0,044	0,067
-193,475	-1,619	0,055	0,027
-192,460	168,755	0,067	-0,068
-191,446	800,000	-0,022	-0,054
-190,431	-200,000	-0,014	0,050
-189,417	-12,404	0,139	-0,064
-188,402	357,691	-0,074	0,105
-187,387	552,447	-0,067	-0,115
-186,373	361,378	0,059	-0,084
-185,358	-141,394	-0,162	0,011
-184,344	-160,215	0,208	0,008
-183,329	110,050	0,178	0,151
-182,315	471,840	0,034	-0,055
-181,300	-149,100	-0,036	-0,002
-180,285	407,252	-0,064	0,096
-179,271	-152,407	-0,131	-0,007
-178,256	-200,000	-0,005	0,018
-177,242	685,980	0,049	-0,090
-176,227	-200,000	0,004	-0,016
-175,212	800,000	0,018	0,051
-174,198	38,325	0,117	0,074
-173,183	9,352	0,153	-0,082
-172,169	-83,102	-0,078	-0,018
-171,154	-200,000	0,047	-0,195
-170,139	396,979	0,012	0,017
-169,125	-200,000	-0,019	-0,065
-168,110	186,253	0,098	-0,104
-167,096	-200,000	-0,023	-0,114
-166,081	326,686	-0,052	0,071
-165,066	195,116	-0,085	0,092
-164,052	607,502	-0,077	0,136
-163,037	20,488	-0,054	-0,031
-162,023	157,234	0,064	0,063
-161,008	800,000	-0,023	-0,052
-159,993	-36,463	-0,032	0,012
-158,979	-40,295	0,138	-0,051
-157,964	-105,711	-0,146	-0,023
-156,950	226,194	0,044	-0,051
-155,935	-145,342	-0,147	-0,009
-154,920	2,121	0,104	0,053
-153,906	800,000	-0,018	0,041
-152,891	737,202	0,038	-0,072
-151,877	-142,657	-0,156	-0,011
-150,862	-100,463	0,039	0,007
-149,847	-200,000	0,001	-0,003
-148,833	800,000	-0,045	0,126
-147,818	800,000	0,034	0,075
-146,804	-123,380	0,085	-0,009
-145,789	117,999	-0,118	0,103
-144,775	758,869	-0,012	-0,024
-143,760	-13,734	-0,083	-0,038
-142,745	-16,629	0,046	-0,021
-141,731	-86,267	0,120	0,026
-140,716	-200,000	0,007	0,053
-139,702	-76,113	-0,029	-0,007
-138,687	131,830	0,018	0,017
-137,672	-79,834	-0,047	-0,011
-136,658	800,000	-0,058	-0,114
-135,643	-200,000	-0,019	-0,128
-134,629	-200,000	-0,005	0,021
-133,614	36,168	0,134	-0,083
-132,599	270,971	-0,025	0,031
-131,585	40,392	-0,083	0,053
-130,570	127,120	-0,043	-0,039
-129,556	-108,592	0,051	0,008
-128,541	303,903	-0,028	0,037
-127,526	25,229	-0,075	0,044
-126,512	-200,000	-0,043	0,157
-125,497	10,654	0,083	0,044
-124,483	-89,149	0,069	0,014
-123,468	-12,037	-0,055	0,025
-122,453	137,850	-0,140	-0,130
-121,439	56,327	-0,034	-0,023
-120,424	328,862	0,051	-0,069
-119,410	290,393	-0,023	-0,030
-118,395	582,404	-0,033	0,058
-117,380	-200,000	0,012	0,097
-116,366	-3,239	0,103	0,051
-115,351	800,000	-0,049	-0,109
-114,337	-61,107	0,040	-0,012
-113,322	-73,869	-0,032	-0,008
-112,307	800,000	0,031	0,062
-111,293	-200,000	-0,004	-0,020
-110,278	-142,722	0,047	-0,003
-109,264	-151,980	-0,076	0,004
-108,249	-27,649	-0,143	-0,058
-107,234	800,000	-0,077	-0,157
-106,220	-119,233	-0,067	-0,008
-105,205	-200,000	0,021	-0,190
-104,191	523,979	0,013	0,021
-103,176	-200,000	-0,001	0,050
-102,162	-200,000	-0,034	-0,128
-101,147	-200,000	0,032	0,134
-100,132	134,812	-0,083	-0,076
-99,118	346,259	-0,047	0,065
-98,103	292,595	0,052	0,067
-97,089	220,009	-0,073	-0,083
-96,074	21,201	-0,090	0,051
-95,059	-125,260	0,060	0,006
-94,045	-200,000	0,026	-0,179
-93,030	-200,000	0,020	-0,154
-92,016	-102,954	0,023	0,004
-91,001	-95,473	-0,101	-0,019
-89,986	62,832	-0,079	0,056
-88,972	252,747	-0,086	0,104
-87,957	-200,000	-0,007	0,027
-86,943	349,710	0,050	0,071
-85,928	800,000	-0,027	0,070
-84,913	800,000	0,033	0,067
-83,899	-156,482	-0,162	-0,007
-82,884	-200,000	-0,007	0,070
-81,870	399,418	-0,076	0,113
-80,855	-200,000	0,011	0,083
-79,840	800,000	-0,025	0,075
-78,826	-162,497	-0,074	-0,003
-77,811	-200,000	0,040	-0,308
-76,797	151,728	-0,117	-0,113
-75,782	275,909	0,084	0,105
-74,767	-85,966	-0,205	0,044
-73,753	-19,154	0,081	-0,035
-72,738	605,853	-0,032	-0,057
-71,724	-200,000	-0,014	0,055
-70,709	26,918	-0,096	-0,057
-69,694	-200,000	-0,027	0,112
-68,680	154,317	-0,058	0,056
-67,665	481,983	-0,102	0,164
-66,651	-200,000	0,010	0,058
-65,636	-200,000	0,001	-0,041
-64,622	-40,385	-0,026	0,009
-63,607	-77,475	0,114	-0,028
-62,592	-200,000	-0,000	0,093
-61,578	356,626	0,041	0,057
-60,563	-200,000	0,046	0,153
-59,549	-200,000	-0,001	0,065
-58,534	3,205	-1,824	-0,933
-57,519	506,573	-1,318	-2,165
-56,505	-200,000	-0,355	-4,444
-55,490	270,397	0,970	1,205
-54,476	800,000	5,215	11,452
-53,461	-200,000	20,584	328,553
-52,446	800,000	753,234	2315,387
-51,432	552,644	1659,435	2823,422
-50,417	74,071	1664,390	1230,860
-49,403	19,012	1537,684	867,238
-48,388	12,960	1460,068	794,202
-47,373	18,890	1450,761	817,565
-46,359	16,093	1440,032	798,184
-45,344	11,220	1435,973	772,711
-44,330	11,195	1434,054	771,525
-43,315	11,197	1431,937	770,367
-42,300	11,177	1430,362	769,393
-41,286	11,230	1428,888	768,820
-40,271	11,184	1427,920	768,051
-39,257	11,153	1426,609	767,169
-38,242	11,200	1425,421	766,723
-37,227	11,181	1424,392	766,047
-36,213	11,237	1422,899	765,477
-35,198	11,151	1422,283	764,712
-34,184	11,282	1420,903	764,556
-33,169	11,197	1419,600	763,426
-32,154	11,259	1418,673	763,187
-31,140	11,268	1417,399	762,513
-30,125	11,297	1416,430	762,099
-29,111	11,256	1415,159	761,193
-28,096	11,238	1413,985	760,449
-27,082	11,148	1412,961	759,443
-26,067	11,169	1411,888	758,936
-25,052	11,187	1410,819	758,413
-24,038	11,187	1409,947	757,918
-23,023	11,147	1408,934	757,153
-22,009	11,150	1407,647	756,447
-20,994	11,157	1406,807	756,000
-19,979	11,154	1405,909	755,471
-18,965	11,124	1404,821	754,718
-17,950	11,152	1403,944	754,346
-16,936	11,143	1403,200	753,875
-15,921	11,053	1402,379	752,987
-14,906	11,069	1401,285	752,440
-13,892	11,102	1400,125	751,944
-12,877	11,056	1399,835	751,546
-11,863	11,075	1398,739	751,012
-10,848	11,041	1397,811	750,328
-9,833	11,045	1396,878	749,813
-8,819	10,978	1396,199	749,111
-7,804	11,011	1395,178	748,686
-6,790	10,945	1394,233	747,845
-5,775	11,007	1393,016	747,447
-4,760	11,026	1392,069	747,000
-3,746	10,987	1391,220	746,334
-2,731	10,984	1390,273	745,781
-1,717	10,986	1389,505	745,348
-0,702	10,960	1387,738	744,252
0,313	15,011	1302,445	717,059
1,327	31,309	694,994	419,771
2,342	48,618	120,943	79,777
3,356	-0,574	16,484	8,217
4,371	3,630	3,415	1,750
5,386	-35,295	0,811	0,309
6,400	800,000	0,196	0,428
7,415	-112,848	-0,237	0,033
8,429	247,611	-0,177	-0,211
9,444	-62,692	-0,361	-0,105
10,459	-19,263	-0,238	-0,104
11,473	111,359	-0,249	-0,211
12,488	91,008	-0,189	-0,150
13,502	84,707	-0,236	-0,182
14,517	-57,393	-0,389	-0,120
15,531	68,918	-0,361	-0,261
16,546	-42,458	-0,329	-0,117
17,561	-7,283	-0,407	-0,193
18,575	137,469	-0,198	-0,182
19,590	164,532	-0,234	-0,233
20,604	-99,450	-0,381	-0,067
21,619	72,659	-0,373	-0,273
22,634	112,884	-0,421	-0,359
23,648	57,826	-0,385	-0,265
24,663	181,185	-0,309	-0,320
25,677	82,451	-0,377	-0,288
26,692	49,222	-0,485	-0,320
27,707	10,824	-0,328	-0,175
28,721	-19,607	-0,405	-0,176
29,736	100,872	-0,331	-0,271
30,750	92,790	-0,348	-0,276
31,765	139,522	-0,342	-0,316
32,780	152,166	-0,301	-0,289
33,794	-100,839	-0,350	-0,060
34,809	49,359	-0,346	-0,228
35,823	-15,049	-0,397	-0,178
36,838	102,670	-0,502	-0,413
37,853	158,618	-0,311	-0,304
38,867	246,709	-0,357	-0,424
39,882	155,315	-0,341	-0,330
40,896	242,032	-0,349	-0,411
41,911	360,975	-0,216	-0,305
42,926	-128,185	-0,389	-0,038
43,940	102,657	-0,250	-0,206
44,955	76,042	-0,394	-0,293
45,969	2,264	-0,362	-0,183
46,984	186,058	-0,295	-0,309
47,999	151,726	-0,287	-0,275
49,013	63,303	-0,273	-0,192
50,028	44,748	-0,234	-0,151
51,042	14,004	-0,383	-0,209
52,057	157,522	-0,338	-0,329
53,071	-50,989	-0,349	-0,114
54,086	221,597	-0,258	-0,291
55,101	50,401	-0,467	-0,309
56,115	106,055	-0,297	-0,246
57,130	169,042	-0,215	-0,215
58,144	95,563	-0,319	-0,255
59,159	106,201	-0,330	-0,274
60,174	93,562	-0,390	-0,310
61,188	329,327	-0,222	-0,300
62,203	38,891	-0,280	-0,175
63,217	123,268	-0,328	-0,288
64,232	32,661	-0,354	-0,214
65,247	213,715	-0,343	-0,381
66,261	157,876	-0,289	-0,281
67,276	94,714	-0,249	-0,198
68,290	-58,324	-0,374	-0,113
69,305	34,151	-0,306	-0,187
70,320	-73,312	-0,383	-0,097
71,334	-5,398	-0,273	-0,131
72,349	91,288	-0,249	-0,195
73,363	-22,553	-0,444	-0,187
74,378	3,385	-0,369	-0,188
75,393	800,000	-0,099	-0,241
76,407	17,656	-0,241	-0,134
77,422	-51,386	-0,330	-0,108
78,436	51,879	-0,272	-0,181
79,451	504,762	-0,234	-0,380
80,466	54,537	-0,409	-0,275
81,480	114,551	-0,251	-0,214
82,495	234,909	-0,218	-0,252
83,509	-53,632	-0,272	-0,087
84,524	418,108	-0,178	-0,267
85,539	180,664	-0,255	-0,262
86,553	89,320	-0,298	-0,232
87,568	-52,032	-0,348	-0,113
88,582	12,650	-0,347	-0,187
89,597	565,308	-0,194	-0,331
90,611	152,691	-0,240	-0,229
91,626	-92,719	-0,321	-0,062
92,641	37,989	-0,311	-0,193
93,655	50,101	-0,208	-0,137
94,670	119,545	-0,274	-0,237
95,684	80,484	-0,324	-0,244
96,699	136,416	-0,289	-0,264
97,714	476,242	-0,227	-0,360
98,728	113,047	-0,318	-0,269
99,743	-95,402	-0,262	-0,049
100,757	44,307	-0,180	-0,115
101,772	3,865	-0,298	-0,152
102,787	210,203	-0,257	-0,282
103,801	31,961	-0,266	-0,160
104,816	3,223	-0,231	-0,117
105,830	14,003	-0,255	-0,139
106,845	77,377	-0,214	-0,159
107,860	800,000	-0,082	-0,178
108,874	269,228	-0,251	-0,308
109,889	310,879	-0,202	-0,265
110,903	33,390	-0,216	-0,130
111,918	313,415	-0,235	-0,309
112,933	356,991	-0,159	-0,222
113,947	44,525	-0,381	-0,244
114,962	183,896	-0,136	-0,140
115,976	82,166	-0,240	-0,182
116,991	-8,960	-0,221	-0,103
118,006	11,437	-0,291	-0,155
119,020	-119,647	-0,340	-0,041
120,035	124,139	-0,206	-0,181
121,049	62,654	-0,192	-0,133
122,064	-37,385	-0,269	-0,100
123,079	-79,273	-0,225	-0,053
124,093	161,652	-0,237	-0,231
125,108	31,191	-0,347	-0,207
126,122	800,000	-0,096	-0,187
127,137	135,369	-0,180	-0,163
128,151	31,113	-0,203	-0,121
129,166	41,180	-0,242	-0,152
130,181	-52,848	-0,314	-0,100
131,195	-94,733	-0,448	-0,084
132,210	32,885	-0,377	-0,227
133,224	158,982	-0,239	-0,232
134,239	-31,580	-0,309	-0,120
135,254	-158,154	-0,176	0,007
136,268	230,561	-0,171	-0,196
137,283	-10,114	-0,318	-0,147
138,297	286,937	-0,215	-0,271
139,312	39,256	-0,275	-0,171
140,327	93,535	-0,209	-0,165
141,341	79,120	-0,257	-0,191
142,356	800,000	-0,087	-0,206
143,370	516,421	-0,156	-0,255
144,385	-76,311	-0,307	-0,075
145,400	512,426	-0,175	-0,285
146,414	12,946	-0,323	-0,173
147,429	132,233	-0,237	-0,213
148,443	-200,000	-0,092	-0,309
149,458	94,924	-0,268	-0,212
150,473	172,093	-0,129	-0,129
151,487	-16,880	-0,346	-0,152
152,502	96,113	-0,259	-0,206
153,516	347,819	-0,185	-0,254
154,531	329,162	-0,192	-0,257
155,546	-57,560	-0,266	-0,081
156,560	140,506	-0,178	-0,163
157,575	93,065	-0,277	-0,218
158,589	-200,000	-0,183	-0,000
159,604	91,476	-0,282	-0,220
160,619	130,952	-0,114	-0,102
161,633	735,030	-0,192	-0,359
162,648	-89,807	-0,237	-0,048
163,662	243,898	-0,186	-0,217
164,677	495,562	-0,154	-0,247
165,692	138,922	-0,200	-0,182
166,706	-38,830	-0,295	-0,108
167,721	-5,209	-0,292	-0,139
168,735	800,000	-0,074	-0,219
169,750	175,907	-0,167	-0,168
170,764	800,000	-0,144	-0,285
171,779	195,121	-0,213	-0,225
172,794	371,151	-0,158	-0,223
173,808	-59,304	-0,332	-0,098
174,823	107,146	-0,149	-0,123
175,837	691,240	-0,093	-0,170
176,852	97,948	-0,272	-0,217
177,867	-15,321	-0,216	-0,095
178,881	-183,448	-0,289	-0,003
179,896	-200,000	-0,064	-0,300
180,910	-50,366	-0,283	-0,092
181,925	-20,021	-0,354	-0,151
182,940	-185,008	-0,330	-0,004
183,954	150,461	-0,205	-0,193
184,969	363,254	-0,122	-0,170
185,983	20,172	-0,227	-0,127
186,998	-56,879	-0,275	-0,084
188,013	404,318	-0,139	-0,204
189,027	-8,260	-0,184	-0,085
190,042	208,070	-0,236	-0,256
191,056	196,788	-0,238	-0,252
192,071	-42,969	-0,293	-0,102
193,086	129,313	-0,200	-0,178
194,100	328,031	-0,153	-0,204
195,115	77,682	-0,223	-0,164
196,129	23,674	-0,218	-0,124
197,144	-64,048	-0,285	-0,080
198,159	73,849	-0,245	-0,178
199,173	192,700	-0,249	-0,261
200,188	434,087	-0,084	-0,127
201,202	238,182	-0,158	-0,182
202,217	464,962	-0,130	-0,202
203,232	381,858	-0,116	-0,165
204,246	84,682	-0,215	-0,163
205,261	-5,581	-0,214	-0,101
206,275	-110,341	-0,158	-0,023
207,290	746,593	-0,038	-0,071
208,304	19,512	-0,223	-0,124
209,319	206,291	-0,116	-0,125
210,334	-18,960	-0,219	-0,094
211,348	-27,131	-0,216	-0,087
212,363	52,715	-0,225	-0,148
213,377	-13,188	-0,189	-0,085
214,392	203,160	-0,096	-0,102
215,407	-49,716	-0,140	-0,046
216,421	-91,223	-0,166	-0,033
217,436	348,588	-0,069	-0,094
218,450	48,503	-0,251	-0,162
219,465	180,165	-0,208	-0,212
220,480	204,765	-0,231	-0,248
221,494	84,218	-0,218	-0,165
222,509	-147,697	-0,167	0,010
223,523	-20,693	-0,221	-0,093
224,538	10,389	-0,180	-0,095
225,553	35,819	-0,183	-0,111
226,567	133,284	-0,251	-0,225
227,582	72,684	-0,244	-0,176
228,596	668,896	-0,063	0,113
229,611	-82,658	-0,231	-0,051
230,626	16,647	-0,191	-0,104
231,640	-200,000	-0,052	-0,189
232,655	-21,799	-0,209	-0,088
233,669	-86,700	-0,312	-0,065
234,684	306,880	-0,174	-0,225
235,699	50,860	-0,165	-0,108
236,713	279,111	-0,119	-0,147
237,728	-86,607	-0,127	0,027
238,742	95,906	-0,151	-0,119
239,757	49,546	-0,144	-0,093
240,772	95,320	-0,221	-0,174
241,786	31,305	-0,132	-0,078
242,801	-123,027	-0,174	-0,019
243,815	800,000	-0,039	-0,117
244,830	-69,948	-0,172	-0,045
245,844	7,266	-0,235	-0,121
246,859	138,898	-0,156	-0,142
247,874	217,932	-0,168	-0,185
248,888	535,883	-0,118	-0,194
249,903	8,619	-0,153	-0,079
250,917	145,047	-0,118	0,109
251,932	-6,120	-0,079	0,037
252,947	800,000	-0,078	-0,162
253,961	-77,937	-0,228	-0,054
254,976	274,877	-0,164	-0,201
255,990	800,000	-0,055	-0,137
257,005	673,201	-0,106	-0,190
258,020	68,219	-0,143	-0,101
259,034	124,087	-0,177	-0,153
260,049	14,920	-0,166	-0,089
261,063	-54,770	-0,239	-0,074
262,078	209,572	-0,161	-0,174
263,093	-200,000	-0,065	-0,262
264,107	11,069	-0,178	-0,094
265,122	800,000	-0,068	-0,178
266,136	22,439	-0,176	-0,099
267,151	12,105	-0,061	-0,032
268,166	457,899	-0,133	-0,204
269,180	800,000	-0,133	-0,257
270,195	800,000	-0,042	-0,124
271,209	235,396	-0,117	-0,133
272,224	654,739	-0,094	-0,166
273,239	52,089	-0,075	-0,049
274,253	-111,997	-0,181	-0,025
275,268	29,122	-0,158	-0,092
276,282	56,343	-0,129	-0,086
277,297	-182,717	-0,171	0,002
278,312	-44,733	-0,261	-0,089
279,326	-200,000	-0,053	-0,164
280,341	171,337	-0,093	-0,092
281,355	800,000	-0,040	0,107
282,370	17,071	-0,266	-0,145
283,384	134,486	-0,235	-0,209
284,399	499,511	-0,198	-0,315
285,414	-131,063	-0,158	-0,014
286,428	-11,854	-0,121	-0,054
287,443	-58,751	-0,048	-0,014
288,457	-105,882	-0,097	-0,015
289,472	-159,640	-0,131	0,005
290,487	132,009	-0,201	-0,178
291,501	86,150	-0,215	-0,163
292,516	789,444	-0,076	-0,145
293,530	178,219	-0,127	-0,128
294,545	86,739	-0,090	-0,068
295,560	-97,858	-0,080	-0,014
296,574	800,000	-0,080	-0,160
297,589	298,029	-0,161	-0,203
298,603	43,382	-0,178	-0,112
299,618	94,190	-0,164	-0,128
300,633	15,552	-0,156	-0,084
301,647	-200,000	-0,059	-0,181
302,662	-174,452	-0,233	0,004
303,676	-51,488	-0,235	-0,075
304,691	489,584	-0,086	-0,135
305,706	14,760	-0,238	-0,128
306,720	412,008	-0,090	-0,132
307,735	800,000	0,016	0,038
308,749	800,000	0,032	0,070
309,764	-93,182	-0,183	-0,035
310,779	221,066	-0,189	-0,209
311,793	-133,769	-0,118	-0,010
312,808	-53,839	-0,259	-0,081
313,822	83,383	-0,157	-0,117
314,837	651,914	-0,087	-0,154
315,852	800,000	-0,056	-0,132
316,866	-82,167	-0,202	-0,045
317,881	418,688	-0,070	-0,104
318,895	-200,000	-0,030	-0,174
319,910	-75,904	-0,188	-0,045
320,925	189,550	-0,211	-0,217
321,939	348,189	-0,092	-0,125
322,954	-200,000	-0,018	-0,126
323,968	517,260	0,025	0,039
324,983	-114,811	-0,173	-0,022
325,997	-15,946	-0,079	-0,034
327,012	226,588	-0,134	-0,149
328,027	286,217	-0,093	-0,116
329,041	-6,371	-0,167	-0,078
330,056	236,770	-0,108	-0,123
331,070	-200,000	-0,026	-0,095
332,085	3,141	-0,172	-0,086
333,100	-61,489	-0,098	-0,028
334,114	-0,036	-0,028	0,013
335,129	800,000	-0,089	-0,251
336,143	301,283	-0,154	-0,195
337,158	-187,289	-0,186	0,002
338,173	800,000	-0,046	-0,100
339,187	3,974	-0,174	-0,087
340,202	-200,000	-0,002	-0,073
341,216	182,653	-0,182	-0,184
342,231	196,769	-0,168	-0,175
343,246	800,000	-0,100	-0,226
344,260	237,766	-0,097	-0,110
345,275	34,681	-0,076	0,045
346,289	800,000	-0,053	-0,103
347,304	248,699	-0,118	-0,137
348,319	170,253	-0,152	-0,149
349,333	-69,604	-0,146	-0,038
350,348	10,885	-0,094	-0,049
351,362	34,004	-0,050	0,030
352,377	80,679	-0,136	-0,100
353,392	-25,219	-0,189	0,076
354,406	-47,937	-0,232	-0,076
355,421	205,958	1312,941	1397,398
356,435	158,374	1473,444	1397,890
