DTS Sentinel unit serial number:	SN410029Multiplexer serial number:	ORYXHardware model number:	OX2-SRSoftware version number:	ORYX F/W v4,00 Oryx Data Collector v3.7.2.0data status	okinstallation	B3 Nyhavnadifferential loss correction	single-endedforward channel	channel 1reverse channel	N/Adate	2023/12/05time	04:22:30forward acquisition time	300,00reverse acquisition time	0,00gamma	499,1914k internal	0,3201k external	0,3201temperature offset calibration	1,0000default loss term (dB/km)	0,3820temperature slope calibration	1,0000multiplexer offset coefficient	1,0000multiplexer slope coefficient	1,0000fibre end	0,00T internal ref (°C)	14,15T ext. ref 1 (°C)	-0,77T ext. ref 2 (°C)	-0,81length (m)	temperature (°C)	Stokes	anti-Stokes-744,400	32,739	-0,222	-0,140
-743,385	-200,000	-0,108	0,360
-742,371	142,984	-0,088	-0,085
-741,356	-200,000	-0,024	0,383
-740,342	299,526	-0,194	-0,261
-739,327	800,000	0,147	0,370
-738,312	7,198	-0,333	-0,180
-737,298	800,000	-0,164	0,334
-736,283	50,995	-0,202	-0,139
-735,269	800,000	0,082	0,242
-734,254	235,481	-0,240	-0,289
-733,239	27,660	-0,224	0,137
-732,225	197,735	-0,201	-0,224
-731,210	504,679	0,014	-0,024
-730,196	800,000	-0,027	0,054
-729,181	-13,987	-0,078	0,037
-728,167	57,418	-0,054	0,038
-727,152	185,233	0,085	0,091
-726,137	341,228	-0,098	0,140
-725,123	389,680	0,056	0,084
-724,108	54,230	-0,131	-0,091
-723,094	-200,000	-0,037	-0,195
-722,079	-99,932	-0,189	-0,034
-721,064	-200,000	0,042	-0,150
-720,050	800,000	0,052	-0,119
-719,035	419,308	0,056	-0,087
-718,021	89,432	-0,012	-0,009
-717,006	-200,000	0,010	-0,043
-715,991	-78,372	-0,064	0,016
-714,977	-70,127	-0,152	-0,042
-713,962	-127,822	-0,030	0,003
-712,948	41,983	-0,057	-0,038
-711,933	-200,000	-0,031	0,101
-710,918	-109,707	-0,180	-0,027
-709,904	-200,000	-0,018	0,114
-708,889	331,414	-0,091	-0,128
-707,875	73,468	-0,038	-0,029
-706,860	800,000	0,082	-0,167
-705,845	-200,000	0,005	-0,049
-704,831	-132,382	0,039	0,004
-703,816	-132,295	0,027	-0,003
-702,802	-13,214	0,047	-0,022
-701,787	-24,257	-0,218	0,094
-700,772	800,000	-0,024	-0,049
-699,758	800,000	0,045	0,134
-698,743	-137,380	0,054	0,004
-697,729	-200,000	-0,001	0,107
-696,714	-15,936	-0,143	-0,066
-695,699	-147,702	-0,049	-0,003
-694,685	30,770	0,123	-0,076
-693,670	21,536	-0,130	-0,077
-692,656	800,000	0,032	0,083
-691,641	-134,689	0,057	-0,005
-690,627	647,923	0,042	0,079
-689,612	236,651	-0,046	-0,056
-688,597	682,523	0,046	-0,087
-687,583	-153,931	0,106	0,005
-686,568	49,851	-0,069	0,047
-685,554	800,000	0,021	-0,056
-684,539	800,000	0,051	-0,112
-683,524	-56,415	-0,072	0,023
-682,510	-42,688	0,075	0,028
-681,495	420,826	-0,025	-0,040
-680,481	17,623	-0,091	-0,052
-679,466	800,000	-0,031	-0,080
-678,451	800,000	0,037	-0,103
-677,437	-106,629	-0,134	0,021
-676,422	223,751	0,076	0,089
-675,408	800,000	-0,050	-0,120
-674,393	800,000	0,038	0,089
-673,378	133,511	-0,069	-0,065
-672,364	-86,614	-0,121	0,027
-671,349	156,073	-0,066	-0,067
-670,335	-61,509	0,043	0,013
-669,320	110,272	-0,054	0,047
-668,305	125,875	-0,058	-0,053
-667,291	12,459	-0,094	0,052
-666,276	111,990	-0,042	-0,037
-665,262	-200,000	-0,017	-0,098
-664,247	21,930	-0,046	-0,027
-663,232	212,127	-0,060	-0,069
-662,218	52,270	-0,113	-0,078
-661,203	35,156	0,109	0,069
-660,189	-114,445	-0,091	-0,013
-659,174	-200,000	0,002	-0,060
-658,159	30,032	-0,110	-0,068
-657,145	-200,000	-0,039	-0,242
-656,130	259,189	-0,066	-0,083
-655,116	513,057	-0,066	-0,113
-654,101	-0,425	-0,111	0,057
-653,086	-200,000	-0,003	0,191
-652,072	166,406	-0,083	-0,085
-651,057	132,776	0,151	-0,141
-650,043	-59,204	-0,126	-0,039
-649,028	800,000	0,047	0,116
-648,014	800,000	-0,045	-0,099
-646,999	-89,212	0,163	0,035
-645,984	-200,000	-0,043	0,208
-644,970	203,399	0,069	-0,077
-643,955	-46,926	-0,122	0,043
-642,941	800,000	-0,037	0,095
-641,926	-200,000	-0,000	-0,171
-640,911	217,352	-0,072	-0,083
-639,897	156,465	0,092	-0,092
-638,882	254,684	0,095	-0,118
-637,868	-40,694	-0,041	-0,015
-636,853	-33,995	-0,053	-0,021
-635,838	-200,000	-0,013	-0,045
-634,824	-200,000	0,020	-0,079
-633,809	800,000	0,025	0,058
-632,795	103,410	0,066	-0,056
-631,780	-200,000	0,026	-0,138
-630,765	-144,429	-0,178	-0,012
-629,751	-57,083	0,052	0,016
-628,736	-200,000	0,038	-0,140
-627,722	193,079	-0,103	-0,113
-626,707	-200,000	-0,006	0,043
-625,692	636,973	-0,016	0,030
-624,678	-200,000	-0,006	0,132
-623,663	333,536	-0,115	0,162
-622,649	272,552	0,053	-0,068
-621,634	800,000	-0,021	-0,048
-620,619	650,054	0,045	-0,083
-619,605	800,000	0,030	-0,080
-618,590	-19,823	-0,087	-0,039
-617,576	-200,000	0,003	0,114
-616,561	800,000	0,026	0,057
-615,546	0,865	-0,096	-0,050
-614,532	279,840	-0,019	-0,025
-613,517	-150,708	-0,184	0,010
-612,503	50,519	-0,069	0,047
-611,488	-20,359	-0,052	0,023
-610,474	493,497	0,042	-0,070
-609,459	-79,698	0,057	-0,014
-608,444	-200,000	-0,029	-0,096
-607,430	800,000	-0,007	0,018
-606,415	-61,754	-0,148	-0,045
-605,401	21,434	-0,175	-0,103
-604,386	-200,000	0,041	0,163
-603,371	67,789	0,061	-0,045
-602,357	561,922	0,050	0,087
-601,342	-0,577	-0,064	-0,033
-600,328	95,647	-0,045	-0,037
-599,313	174,089	0,051	-0,053
-598,298	663,450	-0,044	-0,082
-597,284	800,000	0,033	-0,097
-596,269	-200,000	-0,032	-0,135
-595,255	204,669	0,025	-0,028
-594,240	-104,618	-0,067	0,011
-593,225	-200,000	-0,001	0,078
-592,211	-171,750	-0,097	0,002
-591,196	35,423	0,010	-0,006
-590,182	167,508	-0,113	-0,116
-589,167	267,686	0,034	0,043
-588,152	245,879	0,020	-0,024
-587,138	-32,966	-0,034	-0,014
-586,123	-126,267	-0,086	-0,009
-585,109	-94,964	0,086	-0,017
-584,094	-9,316	-0,041	-0,020
-583,079	-13,369	0,107	-0,050
-582,065	-53,772	-0,152	-0,050
-581,050	-200,000	-0,028	0,164
-580,036	-181,100	-0,063	-0,001
-579,021	-41,109	-0,080	-0,030
-578,006	-200,000	-0,008	0,073
-576,992	110,799	-0,075	0,065
-575,977	394,341	-0,076	-0,115
-574,963	800,000	0,028	0,071
-573,948	124,346	0,048	0,043
-572,934	250,104	-0,059	0,072
-571,919	19,378	-0,089	-0,052
-570,904	-200,000	0,004	-0,041
-569,890	-200,000	-0,007	-0,038
-568,875	800,000	0,023	0,047
-567,861	39,193	0,102	-0,066
-566,846	-165,088	0,153	-0,005
-565,831	800,000	0,043	0,091
-564,817	-57,918	-0,078	-0,024
-563,802	568,274	0,042	-0,075
-562,788	-72,388	-0,098	-0,026
-561,773	-132,065	0,121	-0,011
-560,758	10,761	0,094	-0,052
-559,744	94,705	0,058	0,048
-558,729	800,000	0,059	-0,167
-557,715	145,185	0,083	0,080
-556,700	-129,944	0,162	-0,016
-555,685	61,195	-0,149	-0,107
-554,671	-200,000	-0,015	0,051
-553,656	134,996	0,148	0,138
-552,642	-200,000	-0,005	-0,126
-551,627	-105,789	-0,058	0,009
-550,612	369,920	-0,020	-0,029
-549,598	205,386	-0,075	0,084
-548,583	136,185	-0,084	0,079
-547,569	7,293	-0,049	0,026
-546,554	800,000	-0,043	-0,089
-545,539	800,000	0,063	0,185
-544,525	800,000	0,028	0,081
-543,510	63,189	-0,073	-0,053
-542,496	600,793	-0,045	-0,080
-541,481	-200,000	0,060	-0,273
-540,466	346,890	-0,075	0,107
-539,452	643,414	0,067	0,124
-538,437	-200,000	-0,018	0,094
-537,423	800,000	0,049	0,100
-536,408	-69,950	-0,053	0,014
-535,393	-200,000	0,036	-0,255
-534,379	694,031	-0,052	-0,099
-533,364	56,041	-0,150	0,105
-532,350	607,215	0,059	0,107
-531,335	191,436	0,085	-0,092
-530,321	463,700	0,061	-0,098
-529,306	-28,374	0,013	-0,005
-528,291	-54,835	-0,112	0,036
-527,277	116,534	0,048	-0,042
-526,262	673,852	-0,045	-0,084
-525,248	800,000	-0,074	-0,214
-524,233	41,779	-0,012	-0,008
-523,218	175,950	-0,025	0,026
-522,204	-200,000	-0,004	0,031
-521,189	-133,200	-0,027	0,002
-520,175	382,678	-0,097	-0,145
-519,160	181,387	0,079	-0,084
-518,145	800,000	0,043	0,089
-517,131	-58,919	0,022	-0,007
-516,116	800,000	0,029	-0,065
-515,102	349,899	0,052	-0,075
-514,087	800,000	-0,015	0,042
-513,072	238,223	-0,108	-0,129
-512,058	-105,120	0,033	0,005
-511,043	-146,127	-0,126	0,008
-510,029	186,084	0,113	-0,121
-509,014	800,000	-0,012	0,027
-507,999	394,065	-0,034	-0,051
-506,985	-89,775	0,125	0,026
-505,970	800,000	-0,041	-0,106
-504,956	-200,000	0,004	-0,048
-503,941	-200,000	0,027	0,106
-502,926	17,753	0,140	0,080
-501,912	59,430	-0,073	0,052
-500,897	-110,161	0,095	-0,014
-499,883	63,637	0,037	-0,027
-498,868	-126,048	-0,133	0,014
-497,853	159,490	-0,015	0,015
-496,839	-171,482	0,052	-0,001
-495,824	69,915	-0,021	0,016
-494,810	-200,000	0,025	-0,120
-493,795	-200,000	-0,008	-0,036
-492,781	308,238	0,067	0,090
-491,766	800,000	-0,021	-0,049
-490,751	-24,585	-0,083	-0,035
-489,737	-200,000	-0,009	-0,043
-488,722	260,190	-0,033	-0,041
-487,708	-60,673	0,063	-0,019
-486,693	95,726	0,048	0,040
-485,678	-56,627	-0,076	0,024
-484,664	800,000	-0,036	-0,076
-483,649	-26,676	-0,072	0,030
-482,635	263,954	0,095	-0,120
-481,620	409,986	-0,014	0,021
-480,605	-44,336	0,148	0,053
-479,591	268,219	0,036	0,046
-478,576	146,497	0,126	-0,122
-477,562	767,215	0,017	0,034
-476,547	193,794	-0,109	0,119
-475,532	-113,959	0,068	-0,009
-474,518	22,672	-0,032	0,019
-473,503	-200,000	0,022	0,088
-472,489	800,000	0,069	0,151
-471,474	228,932	0,032	0,038
-470,459	-200,000	-0,012	0,044
-469,445	-193,456	0,044	-0,000
-468,430	55,547	-0,030	-0,021
-467,416	297,557	-0,078	0,103
-466,401	-125,696	0,051	0,005
-465,386	-200,000	0,017	0,059
-464,372	-34,558	0,080	0,031
-463,357	206,460	-0,166	-0,186
-462,343	-200,000	0,020	0,110
-461,328	-123,610	0,081	0,009
-460,313	-200,000	-0,015	0,084
-459,299	-38,032	0,072	0,027
-458,284	-121,327	0,100	0,012
-457,270	40,222	-0,021	0,014
-456,255	-67,874	-0,133	0,037
-455,241	55,110	-0,067	0,046
-454,226	4,649	0,023	-0,012
-453,211	-200,000	0,018	0,071
-452,197	800,000	0,053	0,134
-451,182	14,891	0,040	0,022
-450,168	206,585	0,168	0,189
-449,153	-80,861	-0,064	-0,015
-448,138	-200,000	0,003	0,023
-447,124	123,448	0,128	0,115
-446,109	519,732	-0,048	0,082
-445,095	-105,124	0,046	-0,007
-444,080	-200,000	0,005	0,048
-443,065	-200,000	-0,008	-0,142
-442,051	-200,000	0,045	0,192
-441,036	-200,000	0,034	-0,122
-440,022	387,430	-0,151	-0,225
-439,007	64,624	-0,100	0,073
-437,992	595,112	0,046	0,083
-436,978	-61,779	-0,128	0,038
-435,963	-12,621	-0,046	-0,022
-434,949	-191,687	-0,087	0,001
-433,934	94,432	0,126	-0,103
-432,919	16,078	0,132	-0,074
-431,905	-200,000	0,002	-0,063
-430,890	-52,766	0,155	0,051
-429,876	52,416	0,106	0,073
-428,861	-56,951	0,092	-0,029
-427,846	-104,688	0,109	-0,018
-426,832	29,972	-0,026	0,016
-425,817	800,000	-0,034	0,070
-424,803	294,862	0,020	0,026
-423,788	-23,371	0,058	0,025
-422,773	0,743	-0,039	0,020
-421,759	-200,000	0,007	0,090
-420,744	-86,695	0,071	0,015
-419,730	800,000	0,016	0,048
-418,715	-72,446	0,075	-0,020
-417,701	800,000	0,017	-0,035
-416,686	-200,000	-0,008	0,052
-415,671	-20,032	0,055	0,024
-414,657	366,497	0,068	-0,099
-413,642	-15,337	-0,125	-0,057
-412,628	139,294	-0,027	-0,025
-411,613	272,797	-0,049	0,062
-410,598	-200,000	-0,025	-0,117
-409,584	480,639	-0,066	0,108
-408,569	66,015	0,070	0,051
-407,555	39,740	-0,071	-0,045
-406,540	195,239	0,056	0,061
-405,525	800,000	-0,075	-0,157
-404,511	800,000	-0,040	-0,097
-403,496	800,000	-0,063	-0,125
-402,482	-200,000	0,015	-0,065
-401,467	568,890	-0,046	0,080
-400,452	800,000	-0,054	0,110
-399,438	644,971	0,060	0,110
-398,423	-200,000	-0,015	-0,107
-397,409	303,444	0,056	-0,074
-396,394	-44,250	-0,171	-0,061
-395,379	-34,463	-0,065	0,025
-394,365	-71,116	0,087	0,023
-393,350	-165,615	0,103	-0,003
-392,336	304,417	0,060	0,080
-391,321	100,905	-0,057	-0,047
-390,306	406,789	0,044	-0,067
-389,292	-133,790	-0,062	0,005
-388,277	450,202	0,043	0,068
-387,263	-72,429	-0,037	-0,010
-386,248	-200,000	0,009	0,062
-385,233	-150,657	0,108	0,006
-384,219	-11,793	-0,098	-0,046
-383,204	-37,800	-0,077	-0,029
-382,190	-200,000	-0,003	0,090
-381,175	345,659	-0,083	0,117
-380,160	435,353	0,103	0,161
-379,146	-87,816	0,073	-0,016
-378,131	-200,000	0,030	0,000
-377,117	-12,383	0,076	-0,036
-376,102	-21,341	-0,053	0,023
-375,088	800,000	-0,021	-0,057
-374,073	-200,000	0,002	0,008
-373,058	-200,000	0,001	0,016
-372,044	800,000	0,013	0,035
-371,029	-128,601	0,068	0,007
-370,015	-93,393	-0,086	0,017
-369,000	-164,856	-0,151	-0,005
-367,985	800,000	-0,033	-0,074
-366,971	-200,000	0,023	-0,076
-365,956	341,526	-0,019	0,026
-364,942	800,000	-0,018	0,057
-363,927	-52,465	0,164	-0,054
-362,912	-200,000	-0,025	0,131
-361,898	-200,000	-0,016	0,058
-360,883	-37,349	0,140	-0,053
-359,869	-52,680	0,033	0,011
-358,854	497,842	0,052	0,087
-357,839	-200,000	-0,010	0,050
-356,825	68,941	0,176	0,129
-355,810	-35,584	0,059	0,023
-354,796	483,351	-0,081	-0,133
-353,781	-196,904	0,058	-0,000
-352,766	206,061	-0,049	0,054
-351,752	-200,000	0,001	-0,034
-350,737	258,749	0,064	0,079
-349,723	-200,000	-0,026	0,094
-348,708	-37,485	0,108	-0,041
-347,693	76,134	-0,031	-0,024
-346,679	-15,004	-0,039	-0,018
-345,664	800,000	0,025	-0,052
-344,650	-200,000	-0,018	-0,062
-343,635	22,237	0,047	-0,028
-342,620	-200,000	0,013	0,068
-341,606	198,124	0,025	-0,028
-340,591	-34,411	-0,153	-0,060
-339,577	-41,535	-0,129	-0,047
-338,562	800,000	0,020	0,049
-337,548	-200,000	-0,010	-0,085
-336,533	8,560	0,095	0,051
-335,518	-63,760	-0,038	-0,011
-334,504	800,000	0,071	0,154
-333,489	-77,676	0,108	0,027
-332,475	18,800	-0,129	-0,074
-331,460	-200,000	0,002	-0,060
-330,445	-102,620	0,063	-0,011
-329,431	78,820	0,033	0,025
-328,416	-152,572	0,131	-0,007
-327,402	800,000	0,015	-0,032
-326,387	11,713	-0,172	-0,094
-325,372	-150,443	0,095	-0,005
-324,358	-86,528	0,103	-0,022
-323,343	-200,000	0,029	-0,095
-322,329	468,376	-0,039	-0,064
-321,314	-91,688	0,073	0,015
-320,299	-4,458	0,066	-0,033
-319,285	-37,360	0,059	0,022
-318,270	74,972	-0,064	-0,049
-317,256	-109,678	-0,062	0,009
-316,241	228,026	0,063	-0,073
-315,226	-200,000	0,018	0,108
-314,212	-200,000	-0,007	-0,092
-313,197	800,000	-0,061	0,132
-312,183	-200,000	0,018	-0,079
-311,168	397,234	-0,140	-0,210
-310,153	-36,488	-0,095	0,036
-309,139	-200,000	0,003	-0,021
-308,124	-85,300	0,137	0,030
-307,110	224,586	0,086	-0,099
-306,095	-200,000	-0,008	0,083
-305,080	-29,647	-0,102	-0,042
-304,066	-18,632	-0,087	-0,039
-303,051	-200,000	-0,008	-0,211
-302,037	430,076	0,020	0,032
-301,022	700,056	0,088	0,167
-300,008	-70,823	0,033	-0,009
-298,993	-128,064	0,140	0,014
-297,978	-68,258	-0,226	0,062
-296,964	-185,780	-0,098	-0,001
-295,949	-16,332	-0,033	-0,015
-294,935	800,000	0,026	-0,081
-293,920	-200,000	0,030	0,142
-292,905	176,596	0,102	0,106
-291,891	180,930	-0,039	-0,041
-290,876	-200,000	0,009	0,034
-289,862	216,503	0,050	-0,057
-288,847	577,292	-0,028	-0,048
-287,832	-200,000	-0,041	-0,000
-286,818	-131,441	-0,203	-0,019
-285,803	-200,000	0,014	-0,065
-284,789	800,000	0,062	0,123
-283,774	800,000	0,045	0,116
-282,759	317,013	-0,069	-0,094
-281,745	-200,000	0,042	-0,208
-280,730	-49,802	-0,049	0,017
-279,716	-200,000	-0,001	0,069
-278,701	-69,399	0,060	-0,016
-277,686	-153,503	-0,089	-0,004
-276,672	-200,000	-0,006	0,099
-275,657	-200,000	-0,017	-0,099
-274,643	204,900	-0,118	-0,131
-273,628	-200,000	0,052	-0,239
-272,613	117,849	0,037	0,033
-271,599	-19,649	0,118	0,052
-270,584	-20,475	-0,037	0,016
-269,570	-104,343	0,146	-0,024
-268,555	623,164	-0,089	0,161
-267,540	-143,941	0,076	0,005
-266,526	20,577	-0,148	0,085
-265,511	344,092	-0,114	0,160
-264,497	-200,000	-0,011	-0,129
-263,482	285,400	-0,044	0,057
-262,467	-9,552	0,107	-0,051
-261,453	33,954	0,009	-0,005
-260,438	232,346	0,059	-0,070
-259,424	222,428	-0,051	-0,058
-258,409	15,346	-0,056	0,031
-257,395	183,627	-0,044	0,047
-256,380	800,000	-0,037	0,113
-255,365	-200,000	0,006	0,073
-254,351	-200,000	-0,003	0,032
-253,336	-200,000	-0,032	-0,127
-252,322	-200,000	0,003	-0,072
-251,307	-200,000	-0,002	-0,025
-250,292	-35,931	0,082	-0,031
-249,278	-92,847	0,067	0,013
-248,263	19,947	0,074	0,043
-247,249	88,045	-0,088	0,069
-246,234	-84,419	0,053	0,012
-245,219	420,902	-0,014	0,021
-244,205	96,127	-0,074	0,061
-243,190	-130,872	0,025	0,002
-242,176	30,221	0,028	-0,017
-241,161	757,611	0,081	0,157
-240,146	429,997	-0,057	0,088
-239,132	208,917	0,044	-0,049
-238,117	-93,792	0,023	-0,004
-237,103	722,995	-0,041	-0,078
-236,088	344,071	-0,030	0,042
-235,073	-105,275	0,110	-0,018
-234,059	-3,893	-0,040	-0,020
-233,044	-119,710	0,192	0,023
-232,030	-31,073	0,064	0,026
-231,015	-96,348	-0,175	-0,033
-230,000	33,974	0,054	0,034
-228,986	575,080	-0,048	-0,084
-227,971	11,503	-0,077	0,042
-226,957	-95,042	0,053	-0,010
-225,942	-200,000	-0,041	0,136
-224,927	385,051	-0,069	0,102
-223,913	-176,330	-0,039	0,001
-222,898	-200,000	-0,010	0,041
-221,884	800,000	-0,015	0,047
-220,869	256,971	0,027	0,034
-219,855	168,178	0,076	0,077
-218,840	111,420	-0,075	-0,064
-217,825	-89,116	0,086	0,018
-216,811	800,000	-0,058	-0,150
-215,796	-121,786	-0,091	0,011
-214,782	-200,000	-0,025	-0,127
-213,767	800,000	-0,024	-0,068
-212,752	486,585	-0,037	-0,060
-211,738	-200,000	0,052	-0,183
-210,723	-200,000	-0,006	-0,032
-209,709	55,899	0,088	-0,061
-208,694	-54,204	0,046	0,015
-207,679	800,000	-0,056	0,126
-206,665	-138,044	0,090	0,007
-205,650	-139,334	0,174	0,013
-204,636	-77,088	-0,019	0,005
-203,621	800,000	0,049	-0,137
-202,606	-200,000	-0,043	-0,140
-201,592	65,056	-0,031	-0,023
-200,577	-26,211	-0,025	0,010
-199,563	800,000	0,025	0,072
-198,548	-200,000	0,025	0,093
-197,533	2,558	-0,050	0,026
-196,519	-77,481	-0,097	0,024
-195,504	-4,853	-0,093	0,046
-194,490	-200,000	-0,012	-0,075
-193,475	-112,630	-0,042	0,006
-192,460	-137,993	0,053	-0,004
-191,446	29,937	0,093	0,057
-190,431	-200,000	-0,023	0,203
-189,417	661,998	0,052	0,095
-188,402	34,230	-0,138	0,086
-187,387	-200,000	-0,007	0,030
-186,373	34,340	0,084	0,052
-185,358	-200,000	0,005	0,064
-184,344	-200,000	0,028	0,101
-183,329	184,578	-0,065	0,069
-182,315	106,356	-0,033	-0,028
-181,300	-200,000	0,038	-0,129
-180,285	31,538	-0,184	0,112
-179,271	-64,158	0,063	-0,018
-178,256	240,126	-0,088	0,104
-177,242	87,068	0,075	0,059
-176,227	-200,000	-0,016	0,120
-175,212	103,089	-0,083	0,069
-174,198	-200,000	0,019	0,135
-173,183	219,825	-0,080	-0,091
-172,169	-75,517	-0,070	-0,018
-171,154	302,551	0,070	-0,093
-170,139	289,269	-0,012	-0,015
-169,125	-200,000	0,020	0,111
-168,110	364,218	-0,040	0,057
-167,096	79,668	0,030	-0,023
-166,081	177,399	-0,047	0,049
-165,066	-200,000	-0,017	-0,069
-164,052	800,000	0,016	-0,041
-163,037	-74,607	-0,052	-0,013
-162,023	-200,000	0,003	-0,054
-161,008	-39,943	0,153	-0,057
-159,993	-43,383	0,070	0,025
-158,979	325,230	-0,088	0,120
-157,964	-134,931	-0,113	0,010
-156,950	-200,000	0,001	-0,075
-155,935	-97,989	0,135	0,024
-154,920	-109,417	0,115	-0,017
-153,906	107,478	0,045	0,038
-152,891	-200,000	0,009	0,087
-151,877	-118,816	-0,143	-0,018
-150,862	-124,835	-0,057	0,006
-149,847	3,489	0,021	0,011
-148,833	800,000	-0,022	-0,057
-147,818	442,688	0,042	0,066
-146,804	541,338	0,049	0,084
-145,789	-124,524	0,099	-0,011
-144,775	-200,000	-0,021	0,090
-143,760	-88,797	0,112	0,024
-142,745	689,089	-0,024	0,045
-141,731	22,421	0,175	-0,101
-140,716	800,000	-0,045	0,095
-139,702	-200,000	-0,002	0,056
-138,687	-200,000	-0,008	0,075
-137,672	55,469	0,058	-0,040
-136,658	800,000	-0,035	-0,096
-135,643	-200,000	-0,030	-0,121
-134,629	574,692	-0,025	-0,043
-133,614	800,000	0,029	0,078
-132,599	277,767	-0,052	0,066
-131,585	-77,342	-0,123	-0,030
-130,570	7,377	-0,140	0,074
-129,556	124,786	-0,095	-0,085
-128,541	-200,000	0,003	-0,104
-127,526	141,825	0,126	-0,118
-126,512	-93,978	0,123	0,024
-125,497	27,110	0,047	-0,028
-124,483	-156,016	0,216	0,010
-123,468	-200,000	0,021	0,078
-122,453	-7,531	-0,141	0,067
-121,439	-200,000	-0,006	-0,065
-120,424	-117,877	0,072	0,009
-119,410	-200,000	-0,003	-0,047
-118,395	261,762	-0,048	0,059
-117,380	-183,171	0,046	-0,001
-116,366	-95,642	0,075	0,014
-115,351	11,777	-0,062	-0,034
-114,337	-30,400	-0,015	0,006
-113,322	191,925	-0,092	-0,098
-112,307	77,757	0,051	-0,039
-111,293	-200,000	0,032	0,143
-110,278	188,800	0,006	0,007
-109,264	-173,299	0,180	-0,004
-108,249	-75,386	-0,058	0,015
-107,234	-200,000	-0,006	0,029
-106,220	-200,000	-0,008	0,098
-105,205	138,281	-0,025	0,023
-104,191	-154,244	0,093	0,004
-103,176	800,000	0,050	0,111
-102,162	-133,103	0,175	-0,015
-101,147	800,000	-0,046	0,105
-100,132	-200,000	-0,018	0,150
-99,118	800,000	0,033	-0,087
-98,103	-200,000	0,006	-0,025
-97,089	800,000	0,011	-0,025
-96,074	-99,562	-0,010	0,002
-95,059	401,584	0,093	0,138
-94,045	92,612	-0,108	0,086
-93,030	478,401	0,022	-0,036
-92,016	213,302	-0,057	-0,064
-91,001	92,292	0,035	0,028
-89,986	-103,348	-0,022	-0,004
-88,972	800,000	0,023	0,063
-87,957	106,541	0,050	0,042
-86,943	-200,000	-0,034	0,120
-85,928	133,510	-0,031	-0,028
-84,913	-200,000	0,011	-0,142
-83,899	-43,605	-0,096	0,034
-82,884	-200,000	-0,011	-0,062
-81,870	-30,606	0,125	-0,050
-80,855	592,362	0,032	0,056
-79,840	497,585	0,057	0,094
-78,826	182,071	-0,112	-0,117
-77,811	229,663	-0,086	0,100
-76,797	117,632	-0,039	0,034
-75,782	-56,184	0,167	0,052
-74,767	237,315	0,052	0,062
-73,753	152,527	0,151	0,146
-72,738	-200,000	-0,001	-0,066
-71,724	800,000	-0,028	0,063
-70,709	-5,227	-0,060	-0,029
-69,694	-90,366	0,028	0,006
-68,680	800,000	0,010	-0,030
-67,665	800,000	-0,059	0,127
-66,651	800,000	0,035	0,099
-65,636	62,003	0,101	0,071
-64,622	-200,000	0,007	-0,087
-63,607	125,328	0,007	0,007
-62,592	463,041	0,024	-0,039
-61,578	-200,000	0,034	0,116
-60,563	800,000	-0,050	0,147
-59,549	235,025	0,045	0,053
-58,534	-69,083	-1,696	-0,459
-57,519	495,085	-1,282	-2,092
-56,505	-200,000	-0,583	-4,566
-55,490	184,621	0,956	1,004
-54,476	800,000	4,847	11,575
-53,461	-200,000	18,880	304,616
-52,446	800,000	735,866	2288,980
-51,432	566,466	1652,224	2849,499
-50,417	78,969	1670,161	1264,621
-49,403	22,120	1542,943	889,190
-48,388	16,038	1465,540	815,044
-47,373	17,747	1455,809	817,855
-46,359	16,922	1445,898	808,300
-45,344	14,287	1441,415	793,150
-44,330	14,195	1439,439	791,590
-43,315	14,208	1437,743	790,686
-42,300	14,228	1436,181	789,894
-41,286	14,278	1434,876	789,383
-40,271	14,194	1433,655	788,282
-39,257	14,212	1432,442	787,669
-38,242	14,226	1431,073	786,950
-37,227	14,277	1429,963	786,551
-36,213	14,240	1428,700	785,650
-35,198	14,246	1427,255	784,849
-34,184	14,321	1426,326	784,667
-33,169	14,240	1425,136	783,597
-32,154	14,299	1424,145	783,298
-31,140	14,326	1422,478	782,477
-30,125	14,284	1421,576	781,751
-29,111	14,303	1420,431	781,183
-28,096	14,249	1419,406	780,330
-27,082	14,154	1418,431	779,319
-26,067	14,149	1417,345	778,666
-25,052	14,212	1416,103	778,251
-24,038	14,147	1415,282	777,462
-23,023	14,126	1414,403	776,848
-22,009	14,206	1413,160	776,510
-20,994	14,119	1412,428	775,668
-19,979	14,135	1411,603	775,262
-18,965	14,117	1410,555	774,571
-17,950	14,115	1409,465	773,934
-16,936	14,100	1408,791	773,462
-15,921	14,066	1407,479	772,553
-14,906	14,067	1406,841	772,177
-13,892	14,102	1405,689	771,677
-12,877	14,050	1404,996	771,021
-11,863	14,054	1403,974	770,450
-10,848	14,112	1402,958	770,133
-9,833	14,062	1402,055	769,373
-8,819	13,991	1401,487	768,698
-7,804	14,002	1400,309	768,074
-6,790	13,964	1399,303	767,315
-5,775	13,970	1398,337	766,785
-4,760	13,972	1397,326	766,206
-3,746	13,986	1396,646	765,868
-2,731	13,939	1395,895	765,208
-1,717	13,931	1394,919	764,606
-0,702	13,950	1393,038	763,635
0,313	17,819	1310,998	736,581
1,327	33,934	706,198	434,116
2,342	52,117	124,358	83,711
3,356	2,598	16,608	8,486
4,371	8,150	3,270	1,731
5,386	5,940	0,574	0,300
6,400	-200,000	0,066	0,234
7,415	-20,495	-0,213	-0,092
8,429	41,625	-0,225	-0,144
9,444	54,693	-0,347	-0,236
10,459	-103,530	-0,373	-0,061
11,473	9,481	-0,335	-0,179
12,488	-36,011	-0,284	-0,108
13,502	-118,051	-0,258	0,032
14,517	19,465	-0,326	-0,185
15,531	-13,527	-0,345	-0,157
16,546	62,508	-0,305	-0,215
17,561	190,142	-0,221	-0,234
18,575	37,731	-0,230	-0,144
19,590	314,295	-0,221	-0,295
20,604	-1,308	-0,269	-0,133
21,619	165,206	-0,308	-0,308
22,634	94,066	-0,454	-0,363
23,648	51,053	-0,406	-0,271
24,663	47,882	-0,365	-0,240
25,677	163,421	-0,289	-0,287
26,692	172,499	-0,289	-0,294
27,707	25,198	-0,431	-0,252
28,721	39,028	-0,398	-0,251
29,736	225,336	-0,258	-0,295
30,750	131,036	-0,373	-0,338
31,765	66,484	-0,428	-0,306
32,780	81,316	-0,332	-0,253
33,794	107,015	-0,335	-0,281
34,809	85,800	-0,319	-0,248
35,823	130,627	-0,234	-0,211
36,838	-30,242	-0,477	-0,190
37,853	152,945	-0,410	-0,396
38,867	-50,967	-0,482	-0,159
39,882	64,318	-0,349	-0,247
40,896	-22,707	-0,370	-0,157
41,911	89,321	-0,319	-0,251
42,926	-13,826	-0,468	-0,213
43,940	-59,604	-0,323	-0,097
44,955	-21,727	-0,393	-0,168
45,969	48,612	-0,361	-0,238
46,984	-4,475	-0,275	-0,133
47,999	21,991	-0,372	-0,214
49,013	77,662	-0,358	-0,268
50,028	184,237	-0,249	-0,260
51,042	8,122	-0,311	-0,164
52,057	65,184	-0,297	-0,211
53,071	59,909	-0,329	-0,229
54,086	69,872	-0,405	-0,294
55,101	-66,010	-0,410	-0,114
56,115	154,012	-0,288	-0,278
57,130	86,217	-0,321	-0,249
58,144	140,436	-0,249	-0,231
59,159	104,083	-0,316	-0,261
60,174	73,779	-0,425	-0,313
61,188	69,788	-0,321	-0,233
62,203	-15,933	-0,367	-0,164
63,217	225,689	-0,295	-0,337
64,232	19,502	-0,252	-0,142
65,247	60,720	-0,392	-0,273
66,261	-48,619	-0,368	-0,124
67,276	71,090	-0,341	-0,248
68,290	-22,290	-0,390	-0,166
69,305	78,604	-0,365	-0,274
70,320	-3,186	-0,226	-0,110
71,334	-68,583	-0,455	-0,123
72,349	-50,844	-0,299	-0,098
73,363	55,680	-0,387	-0,263
74,378	20,107	-0,378	-0,214
75,393	-79,632	-0,362	-0,085
76,407	74,149	-0,209	-0,154
77,422	18,212	-0,368	-0,206
78,436	20,902	-0,294	-0,167
79,451	286,195	-0,202	-0,257
80,466	195,609	-0,194	-0,207
81,480	41,634	-0,420	-0,267
82,495	44,594	-0,259	-0,167
83,509	57,698	-0,191	-0,131
84,524	-22,548	-0,463	-0,196
85,539	61,001	-0,356	-0,248
86,553	-55,485	-0,218	-0,068
87,568	194,110	-0,231	-0,246
88,582	514,627	-0,159	-0,262
89,597	2,277	-0,274	-0,139
90,611	-102,388	-0,301	-0,050
91,626	176,812	-0,264	-0,270
92,641	-40,680	-0,338	-0,122
93,655	-48,434	-0,280	-0,094
94,670	41,851	-0,295	-0,187
95,684	69,793	-0,388	-0,280
96,699	118,025	-0,266	-0,230
97,714	88,458	-0,195	-0,152
98,728	2,989	-0,154	-0,078
99,743	45,912	-0,268	-0,174
100,757	131,579	-0,338	-0,305
101,772	-15,794	-0,345	-0,153
102,787	-34,597	-0,290	-0,111
103,801	-48,351	-0,289	-0,097
104,816	55,900	-0,333	-0,226
105,830	-28,617	-0,082	-0,033
106,845	55,861	-0,254	-0,173
107,860	110,965	-0,338	-0,285
108,874	-112,033	-0,342	-0,048
109,889	-42,372	-0,333	-0,118
110,903	146,254	-0,264	-0,249
111,918	71,433	-0,285	-0,207
112,933	126,104	-0,247	-0,219
113,947	0,800	-0,240	-0,120
114,962	102,031	-0,252	-0,206
115,976	-137,118	-0,332	-0,026
116,991	-20,387	-0,306	-0,131
118,006	2,208	-0,329	-0,166
119,020	-100,327	-0,344	-0,059
120,035	117,229	-0,129	-0,111
121,049	35,968	-0,239	-0,147
122,064	52,793	-0,279	-0,186
123,079	-63,822	-0,155	-0,044
124,093	32,876	-0,303	-0,183
125,108	33,822	-0,133	-0,081
126,122	158,875	-0,235	-0,229
127,137	73,676	-0,254	-0,186
128,151	93,193	-0,224	-0,177
129,166	-32,945	-0,393	-0,152
130,181	-31,479	-0,257	-0,100
131,195	78,051	-0,256	-0,191
132,210	134,723	-0,314	-0,285
133,224	16,284	-0,360	-0,198
134,239	195,270	-0,209	-0,222
135,254	210,972	-0,180	-0,198
136,268	105,075	-0,300	-0,247
137,283	-0,823	-0,293	-0,145
138,297	314,534	-0,152	-0,200
139,312	380,127	-0,234	-0,336
140,327	-22,134	-0,263	-0,111
141,341	-129,449	-0,214	-0,020
142,356	37,225	-0,227	-0,140
143,370	-121,212	-0,223	-0,026
144,385	-75,492	-0,315	0,078
145,400	79,013	-0,191	-0,143
146,414	83,894	-0,201	-0,153
147,429	-37,709	-0,264	-0,098
148,443	-165,479	-0,194	0,006
149,458	452,824	-0,160	-0,248
150,473	800,000	-0,114	-0,323
151,487	51,653	-0,302	-0,200
152,502	30,748	-0,262	-0,156
153,516	-16,691	-0,307	-0,135
154,531	199,095	-0,244	-0,261
155,546	546,627	-0,172	-0,289
156,560	-146,222	-0,220	-0,013
157,575	331,419	-0,163	-0,219
158,589	38,393	-0,278	-0,173
159,604	-3,272	-0,327	-0,159
160,619	160,923	-0,148	-0,145
161,633	-23,438	-0,341	-0,142
162,648	-81,271	-0,268	-0,061
163,662	-45,688	-0,318	-0,109
164,677	100,400	-0,289	-0,234
165,692	259,985	-0,178	-0,215
166,706	-163,875	-0,119	-0,004
167,721	55,556	-0,251	-0,169
168,735	86,822	-0,293	-0,225
169,750	12,812	-0,272	-0,146
170,764	92,624	-0,207	-0,163
171,779	-24,623	-0,266	-0,110
172,794	329,355	-0,197	-0,265
173,808	36,604	-0,195	-0,120
174,823	95,103	-0,263	-0,208
175,837	800,000	-0,158	-0,316
176,852	145,324	-0,213	-0,199
177,867	190,198	-0,249	-0,261
178,881	800,000	-0,076	-0,210
179,896	51,081	-0,198	-0,131
180,910	135,327	-0,149	-0,135
181,925	200,036	-0,184	-0,196
182,940	-60,264	-0,247	-0,073
183,954	312,668	-0,189	-0,247
184,969	34,304	-0,382	-0,232
185,983	49,897	-0,215	-0,141
186,998	119,229	-0,121	-0,104
188,013	95,046	-0,274	-0,217
189,027	445,295	-0,172	-0,263
190,042	93,540	-0,239	-0,188
191,056	107,091	-0,278	-0,229
192,071	221,942	-0,215	-0,241
193,086	-200,000	-0,014	-0,098
194,100	-162,246	-0,204	-0,007
195,115	-142,982	-0,101	-0,007
196,129	73,407	-0,292	-0,212
197,144	323,853	-0,170	-0,226
198,159	-104,590	-0,209	-0,033
199,173	-107,201	-0,160	-0,024
200,188	83,145	-0,187	-0,141
201,202	20,355	-0,272	-0,152
202,217	215,550	-0,181	-0,200
203,232	800,000	-0,072	-0,142
204,246	-73,235	-0,350	-0,088
205,261	162,469	-0,270	-0,263
206,275	-21,073	-0,228	-0,096
207,290	19,054	-0,097	-0,054
208,304	89,989	-0,145	-0,113
209,319	75,961	-0,108	-0,079
210,334	237,714	-0,126	-0,145
211,348	-12,344	-0,246	-0,111
212,363	800,000	-0,147	-0,295
213,377	800,000	-0,090	-0,219
214,392	164,752	-0,173	-0,169
215,407	-38,798	-0,199	-0,073
216,421	-48,333	-0,178	-0,059
217,436	231,921	-0,194	-0,222
218,450	187,643	-0,101	-0,105
219,465	-45,804	-0,330	-0,112
220,480	-51,150	-0,232	-0,075
221,494	154,621	-0,176	-0,167
222,509	30,075	-0,187	-0,111
223,523	256,746	-0,106	-0,127
224,538	-10,830	-0,259	-0,118
225,553	453,699	-0,131	-0,201
226,567	800,000	-0,107	-0,208
227,582	108,973	-0,255	-0,211
228,596	-61,495	-0,142	-0,041
229,611	3,178	-0,155	-0,078
230,626	-4,383	-0,095	-0,045
231,640	51,313	-0,177	-0,116
232,655	6,855	-0,199	-0,102
233,669	50,793	-0,214	-0,140
234,684	435,517	-0,161	-0,244
235,699	-2,532	-0,198	-0,096
236,713	-11,790	-0,083	-0,038
237,728	-200,000	-0,010	0,052
238,742	-68,728	-0,240	-0,064
239,757	196,523	-0,133	-0,141
240,772	-58,048	-0,152	-0,046
241,786	70,851	-0,187	-0,134
242,801	246,832	-0,136	-0,159
243,815	30,848	-0,118	0,070
244,830	67,638	-0,153	-0,108
245,844	114,979	-0,291	-0,246
246,859	46,453	-0,239	-0,153
247,874	-58,335	-0,276	-0,083
248,888	-57,125	-0,293	-0,089
249,903	-13,118	-0,169	-0,076
250,917	50,354	-0,139	0,091
251,932	-56,842	-0,191	-0,058
252,947	-106,636	-0,295	0,045
253,961	-53,509	-0,253	-0,079
254,976	-36,148	-0,176	-0,065
255,990	800,000	-0,123	-0,290
257,005	563,368	-0,025	-0,041
258,020	-11,170	-0,265	-0,120
259,034	-187,362	-0,184	-0,002
260,049	344,385	-0,074	-0,101
261,063	-79,099	-0,167	-0,039
262,078	-139,065	-0,350	-0,026
263,093	-146,309	-0,294	-0,018
264,107	3,297	-0,242	-0,121
265,122	121,107	-0,179	-0,154
266,136	-45,244	-0,154	-0,053
267,151	156,623	-0,110	-0,105
268,166	200,333	-0,157	-0,167
269,180	160,886	-0,207	-0,200
270,195	-144,481	-0,211	-0,013
271,209	-20,414	-0,165	-0,070
272,224	111,345	-0,156	-0,130
273,239	162,535	-0,172	-0,167
274,253	413,778	-0,130	-0,192
275,268	-6,897	-0,219	-0,103
276,282	800,000	-0,053	-0,140
277,297	800,000	-0,035	-0,083
278,312	-157,883	-0,210	-0,008
279,326	567,821	-0,126	-0,213
280,341	-89,181	-0,070	0,014
281,355	9,192	-0,212	-0,110
282,370	58,130	-0,190	-0,129
283,384	-96,005	-0,144	-0,026
284,399	230,634	-0,161	-0,182
285,414	-200,000	0,005	-0,196
286,428	78,389	-0,182	-0,134
287,443	-19,774	-0,190	-0,081
288,457	-58,514	-0,185	-0,055
289,472	-123,802	-0,126	-0,014
290,487	-112,154	-0,246	0,034
291,501	81,417	-0,234	-0,174
292,516	800,000	-0,126	-0,259
293,530	67,628	-0,148	-0,104
294,545	45,734	-0,193	-0,123
295,560	10,931	-0,092	0,048
296,574	257,513	-0,136	-0,162
297,589	-20,135	-0,110	-0,046
298,603	494,433	-0,098	-0,156
299,618	111,432	-0,181	-0,150
300,633	-50,092	-0,104	-0,034
301,647	704,822	-0,065	-0,118
302,662	20,834	-0,133	-0,074
303,676	382,603	-0,074	-0,105
304,691	800,000	-0,105	-0,204
305,706	20,432	-0,130	-0,072
306,720	-140,412	-0,181	0,013
307,735	200,708	-0,097	-0,103
308,749	29,034	-0,045	0,026
309,764	-3,446	-0,176	-0,084
310,779	-148,100	-0,154	0,009
311,793	-11,751	-0,165	-0,074
312,808	-200,000	-0,011	-0,304
313,822	83,139	-0,111	-0,083
314,837	468,748	-0,110	-0,171
315,852	4,093	-0,200	-0,101
316,866	317,852	-0,152	-0,199
317,881	267,745	-0,127	-0,153
318,895	35,212	-0,224	-0,135
319,910	800,000	-0,084	-0,234
320,925	170,008	-0,077	-0,076
321,939	-200,000	-0,053	-0,168
322,954	800,000	-0,128	-0,268
323,968	-67,059	-0,149	0,040
324,983	261,022	-0,105	-0,125
325,997	-101,808	-0,139	-0,023
327,012	580,934	-0,119	-0,202
328,027	402,270	-0,176	-0,255
329,041	-152,795	-0,246	-0,012
330,056	205,973	-0,093	-0,099
331,070	-79,359	-0,095	-0,022
332,085	296,630	-0,051	-0,064
333,100	61,423	-0,125	-0,086
334,114	-116,502	-0,183	-0,023
335,129	-28,689	-0,218	-0,086
336,143	309,387	-0,126	-0,162
337,158	-200,000	-0,047	-0,170
338,173	96,022	-0,026	-0,020
339,187	193,876	-0,121	-0,126
340,202	5,407	-0,162	-0,082
341,216	8,978	-0,170	0,088
342,231	22,536	-0,120	-0,067
343,246	229,924	-0,122	-0,137
344,260	0,428	-0,128	-0,062
345,275	-200,000	-0,019	0,123
346,289	97,767	-0,134	-0,106
347,304	-200,000	-0,016	-0,063
348,319	14,009	-0,155	-0,082
349,333	357,773	-0,109	-0,149
350,348	59,361	-0,100	-0,067
351,362	-200,000	-0,048	-0,222
352,377	-20,410	-0,094	-0,040
353,392	-162,265	-0,060	0,002
354,406	-200,000	-0,040	-0,172
355,421	209,774	1314,623	1415,840
356,435	161,464	1475,338	1416,332
