DTS Sentinel unit serial number:	SN410029Multiplexer serial number:	ORYXHardware model number:	OX2-SRSoftware version number:	ORYX F/W v4,00 Oryx Data Collector v3.7.2.0data status	okinstallation	B3 Nyhavnadifferential loss correction	single-endedforward channel	channel 1reverse channel	N/Adate	2023/12/05time	05:02:30forward acquisition time	300,00reverse acquisition time	0,00gamma	499,1914k internal	0,3201k external	0,3201temperature offset calibration	1,0000default loss term (dB/km)	0,3820temperature slope calibration	1,0000multiplexer offset coefficient	1,0000multiplexer slope coefficient	1,0000fibre end	0,00T internal ref (°C)	14,09T ext. ref 1 (°C)	-0,90T ext. ref 2 (°C)	-0,93length (m)	temperature (°C)	Stokes	anti-Stokes-744,400	152,342	-0,225	-0,224
-743,385	-200,000	0,010	0,334
-742,371	733,662	-0,096	-0,188
-741,356	-200,000	-0,047	0,305
-740,342	277,049	-0,114	-0,148
-739,327	-200,000	-0,007	0,279
-738,312	725,828	-0,144	-0,280
-737,298	800,000	-0,087	0,196
-736,283	161,758	-0,256	-0,261
-735,269	-200,000	0,011	0,266
-734,254	-35,863	-0,326	-0,128
-733,239	-114,184	-0,245	0,034
-732,225	325,007	-0,152	-0,212
-731,210	41,053	0,084	-0,055
-730,196	-200,000	-0,008	-0,055
-729,181	18,886	-0,052	-0,030
-728,167	17,911	0,055	-0,032
-727,152	360,907	0,075	-0,110
-726,137	-153,430	-0,177	-0,009
-725,123	-90,657	0,060	0,012
-724,108	-72,988	-0,089	-0,023
-723,094	300,830	-0,018	-0,024
-722,079	800,000	-0,011	-0,025
-721,064	-200,000	0,001	0,035
-720,050	-200,000	-0,017	0,130
-719,035	-200,000	-0,014	0,064
-718,021	-200,000	0,002	0,131
-717,006	-97,511	-0,161	0,030
-715,991	266,577	0,007	-0,009
-714,977	-200,000	-0,011	0,085
-713,962	80,805	-0,148	-0,116
-712,948	80,284	0,040	-0,031
-711,933	-54,207	-0,116	-0,038
-710,918	226,857	0,052	0,061
-709,904	47,606	-0,121	0,082
-708,889	-84,550	0,021	-0,005
-707,875	-180,706	-0,032	-0,000
-706,860	167,115	-0,133	0,137
-705,845	55,816	0,070	0,049
-704,831	-200,000	0,015	0,085
-703,816	800,000	0,019	0,053
-702,802	-200,000	-0,017	-0,085
-701,787	-200,000	0,008	-0,127
-700,772	-200,000	-0,040	0,216
-699,758	-66,306	0,023	0,007
-698,743	-123,848	-0,084	-0,010
-697,729	800,000	0,044	0,091
-696,714	-2,432	0,043	0,022
-695,699	-200,000	0,008	-0,038
-694,685	632,023	0,072	-0,134
-693,670	-200,000	-0,011	-0,068
-692,656	-42,820	-0,133	-0,049
-691,641	31,947	0,087	-0,054
-690,627	-200,000	-0,020	0,108
-689,612	161,472	-0,030	-0,030
-688,597	-200,000	-0,003	-0,010
-687,583	800,000	-0,100	-0,223
-686,568	-200,000	0,007	-0,163
-685,554	-200,000	0,016	-0,086
-684,539	-31,418	0,076	0,031
-683,524	115,725	0,031	-0,027
-682,510	-138,785	0,069	0,005
-681,495	201,903	0,075	-0,084
-680,481	-200,000	-0,005	-0,102
-679,466	-62,211	-0,180	-0,054
-678,451	357,143	0,008	0,012
-677,437	237,481	-0,044	0,053
-676,422	55,977	-0,042	-0,030
-675,408	249,306	0,025	0,031
-674,393	-123,091	-0,128	-0,015
-673,378	-3,703	-0,115	-0,058
-672,364	758,057	-0,067	-0,131
-671,349	33,377	0,028	0,018
-670,335	163,293	0,030	-0,031
-669,320	-200,000	0,031	0,135
-668,305	27,083	0,101	0,061
-667,291	800,000	0,042	0,115
-666,276	-109,453	-0,163	0,025
-665,262	-200,000	-0,006	0,080
-664,247	800,000	0,025	-0,064
-663,232	251,694	0,045	-0,055
-662,218	348,491	0,026	0,037
-661,203	-52,595	0,079	0,026
-660,189	134,109	-0,024	0,023
-659,174	-53,676	0,100	-0,033
-658,159	-200,000	0,025	-0,207
-657,145	800,000	0,046	-0,137
-656,130	251,344	-0,044	-0,054
-655,116	307,955	-0,015	0,020
-654,101	800,000	-0,024	0,070
-653,086	-100,177	-0,060	-0,011
-652,072	124,340	0,058	0,053
-651,057	-164,426	0,081	-0,003
-650,043	13,192	-0,096	-0,054
-649,028	261,917	0,068	-0,086
-648,014	800,000	-0,027	0,076
-646,999	800,000	0,008	0,023
-645,984	-200,000	0,017	-0,118
-644,970	90,587	0,064	-0,052
-643,955	-8,567	-0,113	-0,055
-642,941	-200,000	-0,004	-0,109
-641,926	-55,306	0,071	0,023
-640,911	-200,000	0,043	0,148
-639,897	-200,000	0,007	0,050
-638,882	-3,265	0,111	-0,056
-637,868	477,394	-0,051	-0,085
-636,853	-66,205	0,040	-0,011
-635,838	-200,000	-0,011	-0,089
-634,824	124,065	0,133	0,121
-633,809	340,625	-0,035	0,050
-632,795	-187,675	0,171	0,002
-631,780	-200,000	0,007	-0,067
-630,765	25,822	0,097	0,058
-629,751	-200,000	-0,005	-0,162
-628,736	-200,000	0,028	-0,124
-627,722	-200,000	-0,005	-0,084
-626,707	-200,000	0,021	-0,076
-625,692	800,000	-0,007	-0,016
-624,678	-57,802	-0,028	0,009
-623,663	800,000	-0,033	0,103
-622,649	-48,481	-0,075	0,026
-621,634	714,771	-0,065	0,125
-620,619	-200,000	0,001	0,024
-619,605	800,000	0,028	0,074
-618,590	-61,676	0,034	0,010
-617,576	800,000	-0,013	0,026
-616,561	182,586	-0,042	-0,045
-615,546	800,000	-0,046	-0,112
-614,532	-34,124	-0,022	-0,009
-613,517	-55,782	-0,116	-0,037
-612,503	-200,000	0,027	-0,140
-611,488	-200,000	0,017	-0,122
-610,474	-11,669	0,073	0,034
-609,459	-200,000	-0,006	0,045
-608,444	128,234	-0,022	0,020
-607,430	-200,000	-0,000	0,013
-606,415	800,000	-0,056	-0,157
-605,401	-94,186	0,023	-0,005
-604,386	-9,332	0,040	0,019
-603,371	-49,517	-0,060	0,021
-602,357	-6,091	0,173	0,085
-601,342	84,072	-0,026	-0,021
-600,328	-44,099	0,098	-0,035
-599,313	-146,457	0,054	-0,003
-598,298	102,579	0,127	-0,108
-597,284	-200,000	-0,002	-0,047
-596,269	-95,027	-0,112	0,022
-595,255	-121,181	-0,133	-0,016
-594,240	710,563	0,018	-0,035
-593,225	209,587	-0,046	-0,053
-592,211	-200,000	0,014	0,160
-591,196	800,000	-0,032	0,080
-590,182	800,000	-0,029	-0,090
-589,167	142,217	0,088	0,085
-588,152	-131,383	0,067	-0,006
-587,138	402,103	0,054	-0,082
-586,123	434,915	0,031	-0,050
-585,109	800,000	-0,065	-0,134
-584,094	642,192	0,032	-0,059
-583,079	800,000	-0,034	0,084
-582,065	353,892	-0,075	0,108
-581,050	800,000	0,011	-0,031
-580,036	121,821	0,025	0,022
-579,021	217,110	-0,018	-0,021
-578,006	-200,000	0,013	-0,057
-576,992	-200,000	-0,020	-0,086
-575,977	-200,000	0,038	-0,136
-574,963	-200,000	-0,007	0,103
-573,948	3,948	-0,130	0,068
-572,934	800,000	0,032	0,091
-571,919	-200,000	-0,012	-0,073
-570,904	-20,616	-0,080	0,035
-569,890	-200,000	-0,000	0,046
-568,875	530,696	-0,024	0,041
-567,861	800,000	-0,039	-0,106
-566,846	800,000	-0,030	-0,094
-565,831	-155,070	-0,023	0,001
-564,817	119,253	-0,140	-0,125
-563,802	800,000	0,043	-0,114
-562,788	215,076	-0,115	-0,131
-561,773	-200,000	0,026	0,129
-560,758	800,000	0,031	0,071
-559,744	-46,867	-0,154	-0,054
-558,729	800,000	0,015	0,046
-557,715	-15,801	-0,090	-0,041
-556,700	-110,053	-0,028	-0,004
-555,685	800,000	-0,021	0,055
-554,671	800,000	0,085	-0,172
-553,656	-200,000	0,027	-0,133
-552,642	-70,892	0,099	-0,027
-551,627	-47,648	0,113	0,039
-550,612	-200,000	-0,061	0,000
-549,598	-82,550	-0,123	-0,029
-548,583	-78,399	0,197	-0,048
-547,569	106,525	0,055	0,047
-546,554	-33,897	0,134	-0,053
-545,539	-200,000	0,000	-0,011
-544,525	-85,304	0,095	-0,021
-543,510	-200,000	0,001	-0,016
-542,496	-200,000	-0,013	0,122
-541,481	5,558	-0,082	-0,044
-540,466	-141,366	0,077	-0,006
-539,452	800,000	-0,034	-0,074
-538,437	-200,000	0,020	-0,110
-537,423	146,003	-0,051	0,049
-536,408	513,665	0,040	-0,067
-535,393	111,320	0,043	-0,037
-534,379	-200,000	-0,001	0,070
-533,364	800,000	0,026	-0,057
-532,350	-200,000	-0,016	0,113
-531,335	245,530	-0,036	-0,044
-530,321	384,285	-0,013	-0,020
-529,306	35,278	-0,088	-0,056
-528,291	-200,000	0,013	0,064
-527,277	800,000	-0,026	-0,063
-526,262	800,000	0,054	-0,118
-525,248	-200,000	-0,007	0,089
-524,233	-200,000	0,004	0,059
-523,218	-83,336	-0,047	-0,011
-522,204	233,964	0,068	0,081
-521,189	-121,545	-0,036	-0,004
-520,175	-81,723	-0,252	0,059
-519,160	-38,926	0,093	-0,035
-518,145	442,504	0,047	0,075
-517,131	-128,374	-0,075	-0,008
-516,116	-112,261	-0,111	-0,016
-515,102	800,000	-0,047	0,117
-514,087	106,268	0,064	-0,054
-513,072	-200,000	-0,004	-0,098
-512,058	-200,000	-0,014	-0,152
-511,043	114,471	-0,041	0,036
-510,029	-200,000	-0,039	0,128
-509,014	-45,645	0,093	0,033
-507,999	775,891	-0,030	-0,059
-506,985	800,000	-0,030	-0,061
-505,970	-200,000	-0,012	-0,134
-504,956	-130,615	0,129	0,012
-503,941	-121,730	-0,141	0,017
-502,926	298,578	-0,052	0,069
-501,912	230,957	-0,098	0,115
-500,897	-170,402	0,049	-0,001
-499,883	-71,894	-0,115	-0,030
-498,868	-200,000	0,004	0,240
-497,853	-200,000	-0,003	0,167
-496,839	-200,000	-0,011	-0,134
-495,824	119,160	0,069	-0,061
-494,810	570,407	-0,068	0,120
-493,795	-68,566	0,120	0,033
-492,781	-53,807	-0,051	0,017
-491,766	-66,622	-0,109	0,031
-490,751	280,124	-0,092	-0,119
-489,737	-200,000	0,021	0,119
-488,722	-200,000	-0,017	-0,075
-487,708	-200,000	-0,012	-0,135
-486,693	800,000	-0,018	0,050
-485,678	-100,230	0,014	-0,003
-484,664	-142,421	-0,121	-0,008
-483,649	-200,000	-0,004	-0,051
-482,635	-41,172	-0,135	-0,050
-481,620	78,698	0,117	0,090
-480,605	800,000	0,022	0,055
-479,591	-35,536	-0,105	-0,041
-478,576	-3,122	0,036	-0,018
-477,562	-200,000	0,007	-0,061
-476,547	-200,000	0,006	-0,087
-475,532	521,470	0,050	-0,084
-474,518	31,602	-0,018	-0,011
-473,503	-200,000	-0,007	-0,138
-472,489	-200,000	0,007	0,092
-471,474	-49,631	0,087	-0,030
-470,459	-79,057	-0,081	-0,020
-469,445	-76,527	0,064	0,016
-468,430	462,633	0,042	-0,068
-467,416	-119,707	0,147	0,018
-466,401	442,633	0,026	0,041
-465,386	268,569	0,017	-0,022
-464,372	168,623	0,058	-0,060
-463,357	800,000	-0,031	-0,071
-462,343	127,285	-0,114	-0,104
-461,328	-32,946	0,086	0,034
-460,313	455,814	-0,044	0,071
-459,299	-56,967	0,092	-0,029
-458,284	-200,000	0,017	0,000
-457,270	589,226	0,090	-0,160
-456,255	-9,704	-0,048	-0,023
-455,241	377,591	0,077	-0,113
-454,226	35,366	-0,142	-0,089
-453,211	52,305	0,059	-0,040
-452,197	-200,000	0,002	-0,092
-451,182	-58,378	0,128	-0,040
-450,168	-103,002	0,126	0,021
-449,153	-200,000	-0,003	0,072
-448,138	-118,830	0,068	0,009
-447,124	800,000	-0,055	-0,114
-446,109	800,000	0,039	-0,118
-445,095	304,735	0,034	0,045
-444,080	800,000	-0,042	0,130
-443,065	-43,280	0,033	0,012
-442,051	169,883	0,068	-0,070
-441,036	-35,726	0,036	-0,014
-440,022	82,714	-0,026	-0,021
-439,007	426,644	0,040	0,062
-437,992	-133,721	0,157	-0,014
-436,978	364,571	-0,027	0,039
-435,963	47,712	0,073	0,049
-434,949	-200,000	0,016	-0,169
-433,934	478,317	0,042	0,069
-432,919	800,000	0,040	-0,093
-431,905	213,523	-0,096	0,109
-430,890	-25,854	0,171	0,072
-429,876	-113,375	0,034	-0,005
-428,861	-140,262	0,072	-0,005
-427,846	190,839	-0,032	-0,035
-426,832	185,780	0,106	-0,114
-425,817	-153,768	-0,101	-0,005
-424,803	-0,247	-0,084	-0,043
-423,788	-26,179	-0,087	-0,037
-422,773	800,000	0,067	0,192
-421,759	800,000	-0,041	-0,107
-420,744	138,356	-0,046	0,044
-419,730	234,278	0,015	-0,018
-418,715	-200,000	-0,016	-0,060
-417,701	41,063	-0,043	0,028
-416,686	89,327	0,053	0,043
-415,671	-200,000	-0,004	-0,123
-414,657	800,000	0,053	0,114
-413,642	-112,008	-0,032	0,005
-412,628	198,775	0,096	-0,106
-411,613	800,000	0,050	0,103
-410,598	599,476	0,092	-0,164
-409,584	-50,245	0,102	0,034
-408,569	-200,000	-0,023	0,087
-407,555	105,647	0,049	-0,042
-406,540	-200,000	-0,001	-0,050
-405,525	624,427	0,027	-0,049
-404,511	-33,966	-0,100	-0,039
-403,496	-200,000	-0,001	0,015
-402,482	178,953	0,118	0,124
-401,467	182,449	-0,067	0,071
-400,452	800,000	0,042	0,117
-399,438	224,126	0,006	0,007
-398,423	-120,561	-0,085	0,010
-397,409	-200,000	0,030	-0,146
-396,394	420,049	-0,044	0,068
-395,379	286,793	-0,035	0,046
-394,365	-20,975	0,120	0,052
-393,350	-200,000	-0,027	0,199
-392,336	-165,065	0,039	-0,001
-391,321	-115,952	0,138	-0,018
-390,306	800,000	-0,050	0,102
-389,292	139,654	0,036	0,034
-388,277	2,364	0,041	-0,021
-387,263	795,693	-0,042	0,084
-386,248	-200,000	0,007	0,024
-385,233	800,000	-0,056	0,125
-384,219	84,293	-0,039	-0,030
-383,204	67,990	0,080	-0,059
-382,190	478,267	-0,046	0,075
-381,175	715,389	0,081	0,154
-380,160	766,496	-0,094	0,185
-379,146	305,030	0,028	0,038
-378,131	231,521	0,094	0,110
-377,117	639,482	0,060	0,110
-376,102	800,000	-0,034	0,078
-375,088	-200,000	0,016	-0,059
-374,073	-200,000	-0,030	-0,155
-373,058	-50,203	0,105	-0,036
-372,044	-200,000	0,004	0,082
-371,029	-52,468	0,034	-0,011
-370,015	800,000	-0,003	-0,006
-369,000	446,212	0,044	-0,069
-367,985	54,108	-0,073	-0,051
-366,971	284,977	-0,017	-0,022
-365,956	346,596	0,047	0,067
-364,942	800,000	-0,034	-0,086
-363,927	-22,105	-0,073	0,031
-362,912	18,846	-0,203	-0,116
-361,898	699,186	-0,060	-0,114
-360,883	-59,479	-0,169	-0,052
-359,869	417,851	-0,061	-0,093
-358,854	275,390	0,043	0,055
-357,839	29,974	-0,095	0,058
-356,825	131,011	0,065	0,060
-355,810	-200,000	-0,015	0,058
-354,796	-200,000	-0,004	-0,047
-353,781	68,223	-0,117	0,085
-352,766	433,930	0,070	-0,109
-351,752	-25,775	-0,100	0,042
-350,737	449,718	0,072	0,113
-349,723	32,292	0,163	0,101
-348,708	187,791	0,100	0,107
-347,693	-137,711	0,030	-0,002
-346,679	-22,676	-0,082	-0,035
-345,664	-200,000	-0,029	-0,122
-344,650	149,368	0,047	-0,045
-343,635	-200,000	0,007	0,070
-342,620	-47,592	-0,035	-0,012
-341,606	-200,000	0,010	0,052
-340,591	-111,791	-0,066	-0,009
-339,577	-192,903	-0,063	0,000
-338,562	800,000	-0,012	-0,027
-337,548	-150,144	0,106	0,006
-336,533	-200,000	0,010	-0,051
-335,518	20,352	-0,083	0,048
-334,504	-89,465	0,022	-0,005
-333,489	-200,000	0,030	0,100
-332,475	-200,000	0,011	0,139
-331,460	-153,841	-0,046	-0,002
-330,445	113,425	0,101	-0,088
-329,431	-178,755	0,070	-0,001
-328,416	327,697	-0,038	0,053
-327,402	800,000	-0,030	0,071
-326,387	3,271	-0,036	-0,019
-325,372	-62,633	0,093	0,027
-324,358	160,814	-0,043	0,043
-323,343	-33,836	0,081	0,032
-322,329	800,000	0,021	-0,054
-321,314	87,155	-0,065	0,051
-320,299	139,446	0,051	0,048
-319,285	555,404	-0,049	0,084
-318,270	58,058	-0,127	-0,089
-317,256	281,606	0,067	-0,086
-316,241	-93,028	-0,068	-0,014
-315,226	232,319	-0,095	0,112
-314,212	-84,393	-0,055	-0,012
-313,197	-24,432	0,139	0,059
-312,183	-200,000	-0,008	-0,065
-311,168	-114,021	0,109	0,015
-310,153	-200,000	-0,005	-0,045
-309,139	69,077	0,074	-0,055
-308,124	309,043	0,056	0,075
-307,110	800,000	0,056	0,163
-306,095	-151,272	0,104	0,005
-305,080	45,077	-0,046	-0,030
-304,066	4,659	-0,057	0,030
-303,051	45,956	0,036	0,024
-302,037	-39,474	0,039	0,015
-301,022	154,649	0,062	0,061
-300,008	420,182	-0,014	0,021
-298,993	549,660	0,095	0,163
-297,978	184,976	-0,098	0,105
-296,964	-200,000	-0,003	-0,047
-295,949	-11,980	0,029	0,013
-294,935	-69,857	0,175	0,047
-293,920	-95,556	-0,032	0,006
-292,905	-67,443	-0,075	0,021
-291,891	-15,792	0,114	0,051
-290,876	-200,000	0,020	-0,070
-289,862	12,789	-0,107	-0,059
-288,847	-200,000	-0,005	0,062
-287,832	244,914	-0,052	-0,063
-286,818	2,055	-0,115	-0,059
-285,803	756,085	0,043	-0,084
-284,789	-200,000	-0,068	0,000
-283,774	4,596	-0,033	0,017
-282,759	-59,990	-0,168	-0,051
-281,745	-200,000	-0,015	0,075
-280,730	-200,000	0,008	-0,047
-279,716	295,367	0,029	0,039
-278,701	-200,000	-0,017	0,122
-277,686	800,000	0,039	0,112
-276,672	-42,701	-0,079	0,029
-275,657	-22,037	-0,018	0,008
-274,643	5,803	0,047	-0,025
-273,628	176,642	0,036	-0,037
-272,613	93,841	-0,082	0,066
-271,599	757,960	-0,039	0,076
-270,584	-104,694	0,120	-0,019
-269,570	402,710	-0,037	0,056
-268,555	77,276	-0,093	-0,071
-267,540	-200,000	0,002	0,039
-266,526	737,913	-0,074	-0,143
-265,511	-200,000	-0,010	-0,038
-264,497	296,366	-0,056	-0,073
-263,482	800,000	-0,026	-0,059
-262,467	18,510	-0,110	0,063
-261,453	241,167	0,079	0,095
-260,438	-27,466	-0,140	-0,058
-259,424	-118,299	-0,040	0,005
-258,409	374,772	0,043	-0,063
-257,395	800,000	0,014	-0,038
-256,380	362,553	0,053	0,077
-255,365	-200,000	-0,042	0,211
-254,351	9,147	0,055	-0,029
-253,336	107,783	0,112	-0,095
-252,322	297,102	0,038	0,049
-251,307	-200,000	0,005	-0,090
-250,292	-21,644	-0,024	0,010
-249,278	-200,000	-0,005	0,042
-248,263	27,137	0,062	-0,037
-247,249	-108,835	0,082	0,012
-246,234	-200,000	0,008	0,085
-245,219	-105,055	-0,158	0,025
-244,205	800,000	-0,026	-0,060
-243,190	-200,000	-0,004	0,064
-242,176	37,134	0,081	0,051
-241,161	472,600	0,028	0,046
-240,146	800,000	0,032	-0,071
-239,132	-86,244	-0,086	-0,019
-238,117	612,978	-0,033	0,060
-237,103	-132,755	-0,044	0,004
-236,088	48,272	-0,113	0,075
-235,073	181,263	-0,092	0,096
-234,059	28,163	-0,144	0,086
-233,044	-200,000	-0,016	0,109
-232,030	201,289	0,045	-0,050
-231,015	142,830	0,061	0,058
-230,000	-58,570	-0,064	0,020
-228,986	285,784	-0,030	0,039
-227,971	-200,000	-0,001	0,070
-226,957	224,595	-0,052	0,061
-225,942	180,688	0,148	0,155
-224,927	-200,000	-0,022	-0,071
-223,913	-94,617	-0,180	-0,034
-222,898	-88,119	-0,161	0,034
-221,884	-188,663	-0,181	-0,002
-220,869	-200,000	-0,013	0,058
-219,855	234,809	0,019	0,022
-218,840	-200,000	-0,003	-0,026
-217,825	-200,000	0,015	0,115
-216,811	-93,096	0,048	0,009
-215,796	353,768	-0,063	-0,089
-214,782	-200,000	-0,038	0,157
-213,767	377,239	-0,031	0,045
-212,752	-113,639	-0,032	-0,004
-211,738	-200,000	-0,029	0,124
-210,723	-200,000	-0,007	0,051
-209,709	-200,000	-0,014	-0,085
-208,694	535,461	-0,045	-0,076
-207,679	-120,146	0,071	0,009
-206,665	4,675	0,051	-0,027
-205,650	17,935	0,219	-0,124
-204,636	-86,865	0,095	-0,021
-203,621	-200,000	0,020	0,083
-202,606	800,000	-0,042	0,111
-201,592	800,000	-0,040	-0,100
-200,577	114,110	-0,091	0,079
-199,563	800,000	0,022	-0,048
-198,548	24,392	0,076	0,044
-197,533	12,874	0,141	0,077
-196,519	75,617	0,074	0,056
-195,504	-151,285	-0,114	-0,006
-194,490	800,000	-0,035	0,071
-193,475	800,000	-0,027	-0,080
-192,460	-69,214	0,053	-0,014
-191,446	94,014	-0,051	-0,041
-190,431	-26,200	-0,064	0,027
-189,417	-77,443	-0,110	0,027
-188,402	126,966	-0,074	0,067
-187,387	-200,000	-0,011	-0,069
-186,373	379,701	0,031	-0,045
-185,358	-47,722	-0,131	0,045
-184,344	98,064	0,167	-0,137
-183,329	-169,200	0,060	-0,002
-182,315	641,354	0,034	-0,061
-181,300	-40,323	-0,121	0,044
-180,285	-153,880	-0,037	-0,002
-179,271	78,204	0,095	-0,072
-178,256	-96,712	-0,098	0,018
-177,242	800,000	0,057	-0,117
-176,227	800,000	0,026	0,053
-175,212	-3,420	-0,108	0,053
-174,198	246,705	0,049	-0,058
-173,183	-22,596	-0,085	-0,036
-172,169	39,483	-0,062	-0,040
-171,154	-78,851	0,143	-0,034
-170,139	352,825	0,076	0,108
-169,125	-184,063	-0,012	-0,000
-168,110	-72,884	0,075	0,020
-167,096	45,925	0,081	-0,053
-166,081	-68,966	-0,049	0,013
-165,066	796,036	0,033	0,065
-164,052	-200,000	-0,008	-0,071
-163,037	794,158	-0,037	-0,072
-162,023	1,506	-0,108	-0,055
-161,008	161,648	0,034	-0,034
-159,993	-31,030	0,140	-0,056
-158,979	-200,000	-0,012	-0,080
-157,964	-53,727	0,022	-0,007
-156,950	-200,000	0,035	-0,132
-155,935	239,469	0,044	-0,052
-154,920	114,170	0,050	0,043
-153,906	-198,123	-0,060	-0,000
-152,891	40,632	-0,069	0,044
-151,877	292,743	-0,055	0,071
-150,862	800,000	0,024	0,070
-149,847	-200,000	-0,007	-0,112
-148,833	317,528	0,042	-0,056
-147,818	462,843	0,055	0,088
-146,804	-200,000	0,011	0,102
-145,789	153,473	0,106	-0,103
-144,775	-6,024	0,044	-0,021
-143,760	-200,000	-0,005	-0,030
-142,745	30,852	-0,134	-0,081
-141,731	-200,000	-0,034	0,118
-140,716	147,551	0,041	0,039
-139,702	35,647	-0,115	0,072
-138,687	-126,706	0,127	0,013
-137,672	-139,117	-0,085	0,006
-136,658	284,681	0,059	0,076
-135,643	-200,000	-0,024	-0,084
-134,629	52,535	-0,067	-0,045
-133,614	509,669	-0,039	-0,064
-132,599	59,671	0,111	-0,078
-131,585	240,789	0,077	0,092
-130,570	-168,109	0,082	0,002
-129,556	127,954	-0,099	-0,089
-128,541	-200,000	0,007	-0,075
-127,526	10,673	0,107	0,058
-126,512	394,545	-0,019	0,029
-125,497	-70,374	0,138	0,037
-124,483	-23,394	0,039	-0,016
-123,468	-69,373	-0,013	0,004
-122,453	-102,679	0,118	0,020
-121,439	-200,000	-0,004	0,049
-120,424	-86,476	-0,082	-0,018
-119,410	39,122	-0,096	0,061
-118,395	-200,000	0,003	0,009
-117,380	-200,000	-0,014	-0,046
-116,366	800,000	-0,037	0,106
-115,351	238,274	-0,069	0,081
-114,337	-58,327	-0,178	-0,055
-113,322	-200,000	-0,010	0,049
-112,307	-76,752	0,188	-0,046
-111,293	-200,000	0,041	-0,179
-110,278	800,000	0,010	0,025
-109,264	-200,000	0,008	-0,033
-108,249	52,797	0,111	-0,075
-107,234	207,711	0,069	-0,077
-106,220	64,831	0,073	-0,052
-105,205	-200,000	-0,029	-0,109
-104,191	497,887	0,041	-0,067
-103,176	800,000	0,051	0,135
-102,162	-50,369	-0,066	-0,022
-101,147	-200,000	0,014	-0,131
-100,132	-137,709	-0,233	0,018
-99,118	-200,000	-0,085	-0,314
-98,103	301,092	0,059	0,077
-97,089	-26,700	0,125	0,051
-96,074	-126,687	0,080	-0,008
-95,059	-43,108	0,031	-0,011
-94,045	-200,000	0,000	-0,096
-93,030	345,151	0,063	0,088
-92,016	-200,000	0,000	-0,003
-91,001	-67,123	0,067	-0,019
-89,986	-197,904	0,096	0,000
-88,972	-99,200	0,063	-0,011
-87,957	-200,000	0,034	0,124
-86,943	800,000	-0,055	-0,116
-85,928	-47,027	-0,055	0,019
-84,913	7,387	-0,113	-0,060
-83,899	800,000	0,039	-0,115
-82,884	800,000	0,006	-0,013
-81,870	645,885	0,041	0,074
-80,855	-121,644	-0,030	0,003
-79,840	110,704	-0,086	-0,073
-78,826	593,410	0,029	-0,051
-77,811	-200,000	0,003	0,093
-76,797	30,469	0,045	0,027
-75,782	585,782	-0,061	-0,107
-74,767	25,698	0,114	0,067
-73,753	523,551	0,026	-0,044
-72,738	-18,415	-0,053	0,023
-71,724	190,612	0,053	-0,057
-70,709	-200,000	0,008	-0,122
-69,694	-112,597	0,090	0,013
-68,680	310,806	0,078	0,104
-67,665	22,350	0,171	0,099
-66,651	164,596	-0,011	0,011
-65,636	487,190	-0,022	0,036
-64,622	-141,273	0,086	-0,006
-63,607	800,000	0,051	-0,129
-62,592	-65,258	0,020	0,006
-61,578	-7,911	-0,031	-0,015
-60,563	173,722	0,054	0,055
-59,549	17,004	0,038	0,021
-58,534	-2,150	-1,564	-0,775
-57,519	465,246	-1,282	-2,039
-56,505	-200,000	-0,516	-4,571
-55,490	125,394	1,041	0,930
-54,476	800,000	4,833	11,414
-53,461	-200,000	18,852	306,318
-52,446	800,000	737,066	2297,105
-51,432	568,863	1653,325	2856,240
-50,417	78,967	1670,397	1264,795
-49,403	22,073	1543,286	889,152
-48,388	15,976	1465,985	814,997
-47,373	17,762	1456,162	818,128
-46,359	16,856	1446,336	808,233
-45,344	14,234	1441,835	793,132
-44,330	14,150	1439,761	791,556
-43,315	14,142	1438,166	790,610
-42,300	14,153	1436,420	789,668
-41,286	14,152	1435,504	789,129
-40,271	14,154	1434,016	788,289
-39,257	14,140	1432,737	787,490
-38,242	14,208	1431,403	787,050
-37,227	14,234	1430,112	786,434
-36,213	14,234	1428,814	785,685
-35,198	14,197	1427,716	784,874
-34,184	14,238	1426,739	784,503
-33,169	14,172	1425,429	783,439
-32,154	14,208	1424,194	782,898
-31,140	14,198	1423,035	782,182
-30,125	14,182	1422,004	781,510
-29,111	14,232	1420,787	781,047
-28,096	14,180	1419,732	780,190
-27,082	14,128	1418,747	779,375
-26,067	14,128	1417,590	778,706
-25,052	14,162	1416,597	778,291
-24,038	14,122	1415,673	777,565
-23,023	14,085	1414,588	776,762
-22,009	14,126	1413,399	776,269
-20,994	14,068	1412,871	775,676
-19,979	14,079	1411,940	775,187
-18,965	14,042	1410,758	774,335
-17,950	14,018	1409,960	773,755
-16,936	14,077	1408,816	773,370
-15,921	14,040	1407,817	772,619
-14,906	14,014	1406,998	772,020
-13,892	14,064	1405,944	771,642
-12,877	14,000	1405,261	770,937
-11,863	14,009	1404,208	770,372
-10,848	13,995	1403,259	769,753
-9,833	13,983	1402,677	769,347
-8,819	13,951	1401,709	768,640
-7,804	13,954	1400,565	767,993
-6,790	13,891	1399,778	767,238
-5,775	13,972	1398,489	766,879
-4,760	13,962	1397,436	766,225
-3,746	13,885	1396,812	765,497
-2,731	13,911	1396,084	765,184
-1,717	13,924	1395,138	764,699
-0,702	13,944	1393,230	763,713
0,313	17,718	1311,108	736,209
1,327	33,980	705,558	433,830
2,342	51,940	124,021	83,414
3,356	1,098	16,696	8,447
4,371	2,743	3,075	1,572
5,386	13,980	0,474	0,260
6,400	800,000	0,087	0,251
7,415	230,668	-0,160	-0,185
8,429	71,217	-0,287	-0,210
9,444	-21,410	-0,396	-0,170
10,459	338,618	-0,207	-0,285
11,473	129,606	-0,269	-0,243
12,488	-63,480	-0,383	-0,111
13,502	-60,336	-0,441	-0,132
14,517	187,802	-0,362	-0,382
15,531	149,114	-0,359	-0,343
16,546	120,706	-0,387	-0,340
17,561	135,326	-0,311	-0,286
18,575	250,794	-0,206	-0,248
19,590	102,476	-0,203	-0,167
20,604	-29,803	-0,151	0,061
21,619	10,393	-0,456	-0,245
22,634	67,647	-0,470	-0,338
23,648	110,223	-0,291	-0,246
24,663	129,340	-0,417	-0,376
25,677	-54,297	-0,311	-0,099
26,692	180,440	-0,323	-0,335
27,707	154,208	-0,339	-0,328
28,721	117,724	-0,436	-0,379
29,736	41,775	-0,471	-0,301
30,750	67,998	-0,320	-0,231
31,765	122,458	-0,333	-0,294
32,780	-41,666	-0,534	-0,193
33,794	240,104	-0,313	-0,368
34,809	381,144	-0,232	-0,337
35,823	52,527	-0,418	-0,281
36,838	94,664	-0,395	-0,316
37,853	98,109	-0,406	-0,330
38,867	250,688	-0,304	-0,364
39,882	-39,851	-0,323	-0,118
40,896	56,135	-0,269	-0,184
41,911	56,692	-0,322	-0,221
42,926	252,324	-0,332	-0,399
43,940	105,252	-0,314	-0,261
44,955	217,523	-0,388	-0,436
45,969	64,744	-0,436	-0,309
46,984	176,877	-0,259	-0,266
47,999	115,738	-0,330	-0,285
49,013	-2,920	-0,425	-0,209
50,028	23,862	-0,395	-0,229
51,042	156,524	-0,200	-0,195
52,057	232,203	-0,258	-0,299
53,071	-9,065	-0,373	-0,175
54,086	93,099	-0,317	-0,252
55,101	170,268	-0,313	-0,315
56,115	7,977	-0,396	-0,208
57,130	45,258	-0,306	-0,198
58,144	7,466	-0,261	-0,137
59,159	77,442	-0,336	-0,251
60,174	74,292	-0,296	-0,219
61,188	122,227	-0,302	-0,266
62,203	13,777	-0,280	-0,153
63,217	-30,618	-0,465	-0,184
64,232	42,574	-0,346	-0,221
65,247	64,193	-0,220	-0,155
66,261	-57,765	-0,328	-0,100
67,276	257,118	-0,282	-0,341
68,290	-41,631	-0,381	-0,137
69,305	105,016	-0,196	-0,163
70,320	-49,104	-0,192	-0,064
71,334	-4,277	-0,322	-0,156
72,349	6,737	-0,380	-0,198
73,363	7,069	-0,302	-0,158
74,378	141,090	-0,307	-0,285
75,393	52,875	-0,352	-0,236
76,407	17,131	-0,386	-0,214
77,422	150,203	-0,273	-0,260
78,436	-32,993	-0,361	-0,140
79,451	173,985	-0,249	-0,253
80,466	215,493	-0,295	-0,330
81,480	96,031	-0,315	-0,253
82,495	0,879	-0,264	-0,132
83,509	48,636	-0,278	-0,183
84,524	234,308	-0,262	-0,304
85,539	196,597	-0,238	-0,255
86,553	243,924	-0,198	-0,234
87,568	60,219	-0,224	-0,155
88,582	164,199	-0,236	-0,234
89,597	50,928	-0,306	-0,203
90,611	-67,211	-0,287	-0,079
91,626	-110,182	-0,416	0,060
92,641	20,206	-0,183	-0,103
93,655	57,571	-0,383	-0,262
94,670	177,394	-0,255	-0,261
95,684	268,402	-0,262	-0,323
96,699	194,884	-0,219	-0,234
97,714	800,000	-0,074	-0,199
98,728	154,786	-0,260	-0,251
99,743	89,385	-0,266	-0,208
100,757	-118,547	-0,387	-0,047
101,772	66,244	-0,255	-0,181
102,787	66,481	-0,266	-0,189
103,801	161,023	-0,272	-0,267
104,816	-7,341	-0,277	-0,131
105,830	117,664	-0,241	-0,208
106,845	21,399	-0,200	-0,114
107,860	-54,441	-0,406	-0,128
108,874	18,163	-0,262	-0,146
109,889	194,419	-0,295	-0,314
110,903	91,077	-0,382	-0,300
111,918	503,807	-0,187	-0,304
112,933	132,249	-0,133	-0,120
113,947	8,461	-0,088	0,046
114,962	-67,169	-0,356	-0,097
115,976	-86,461	-0,244	-0,052
116,991	87,357	-0,250	-0,194
118,006	514,302	-0,220	-0,361
119,020	-200,000	-0,159	0,000
120,035	119,175	-0,250	-0,216
121,049	22,908	-0,281	-0,161
122,064	-84,197	-0,235	-0,052
123,079	91,505	-0,165	-0,130
124,093	296,966	-0,183	-0,235
125,108	-127,958	-0,358	0,035
126,122	-26,412	-0,295	-0,121
127,137	78,338	-0,261	-0,195
128,151	288,302	-0,267	-0,338
129,166	-40,667	-0,274	-0,099
130,181	117,831	-0,165	-0,142
131,195	290,912	-0,271	-0,346
132,210	118,069	-0,266	-0,230
133,224	789,503	-0,149	-0,288
134,239	35,229	-0,262	-0,160
135,254	18,686	-0,079	-0,044
136,268	627,719	-0,128	-0,226
137,283	55,782	-0,208	-0,141
138,297	-34,388	-0,328	-0,125
139,312	53,066	-0,287	-0,192
140,327	205,969	-0,153	-0,167
141,341	168,571	-0,158	-0,157
142,356	77,500	-0,198	-0,147
143,370	109,339	-0,281	-0,235
144,385	-7,111	-0,311	-0,147
145,400	330,688	-0,214	-0,288
146,414	-28,036	-0,279	-0,112
147,429	-115,902	-0,196	-0,025
148,443	19,769	-0,269	-0,151
149,458	238,992	-0,198	-0,230
150,473	274,177	-0,232	-0,287
151,487	91,170	-0,237	-0,185
152,502	-45,930	-0,248	-0,085
153,516	120,924	-0,217	-0,189
154,531	509,145	-0,240	-0,390
155,546	216,811	-0,241	-0,268
156,560	30,680	-0,244	-0,145
157,575	-129,299	-0,214	-0,021
158,589	102,222	-0,176	-0,143
159,604	258,912	-0,187	-0,225
160,619	279,066	-0,158	-0,197
161,633	220,597	-0,141	-0,158
162,648	116,083	-0,237	-0,202
163,662	119,723	-0,261	-0,226
164,677	97,673	-0,142	-0,114
165,692	800,000	-0,111	-0,216
166,706	30,783	-0,260	-0,155
167,721	-4,468	-0,269	-0,129
168,735	97,686	-0,264	-0,211
169,750	7,922	-0,277	-0,144
170,764	62,492	-0,212	-0,148
171,779	36,139	-0,185	-0,114
172,794	442,815	-0,106	-0,162
173,808	-3,627	-0,258	-0,124
174,823	81,394	-0,200	-0,150
175,837	145,007	-0,160	-0,149
176,852	-27,919	-0,280	-0,112
177,867	-2,135	-0,197	-0,096
178,881	308,358	-0,111	-0,145
179,896	65,902	-0,256	-0,180
180,910	188,529	-0,086	-0,090
181,925	125,021	-0,176	-0,154
182,940	172,117	-0,227	-0,227
183,954	232,720	-0,195	-0,223
184,969	-13,395	-0,152	-0,068
185,983	116,426	-0,151	-0,129
186,998	800,000	-0,053	-0,152
188,013	5,096	-0,129	-0,066
189,027	-129,024	-0,239	-0,023
190,042	-9,379	-0,190	-0,088
191,056	388,622	-0,142	-0,206
192,071	485,237	-0,201	-0,320
193,086	46,428	-0,160	-0,103
194,100	800,000	-0,136	-0,289
195,115	800,000	-0,176	-0,361
196,129	-9,140	-0,252	-0,117
197,144	57,830	-0,206	-0,140
198,159	800,000	-0,087	-0,168
199,173	117,900	-0,224	-0,192
200,188	114,700	-0,185	-0,157
201,202	51,981	-0,203	-0,134
202,217	800,000	-0,056	-0,152
203,232	434,023	-0,150	-0,228
204,246	110,082	-0,262	-0,218
205,261	496,717	-0,063	-0,101
206,275	166,678	-0,191	-0,189
207,290	271,513	-0,131	-0,160
208,304	54,667	-0,202	-0,135
209,319	-68,849	-0,179	-0,048
210,334	91,837	-0,218	-0,170
211,348	109,804	-0,222	-0,185
212,363	-50,521	-0,199	-0,065
213,377	34,504	-0,177	-0,107
214,392	800,000	-0,147	-0,319
215,407	293,394	0,015	-0,019
216,421	-3,095	-0,293	-0,141
217,436	-16,515	-0,231	-0,101
218,450	48,169	-0,234	-0,152
219,465	19,519	-0,213	-0,119
220,480	-96,926	-0,273	-0,049
221,494	-161,088	-0,230	0,008
222,509	-200,000	-0,035	-0,185
223,523	-48,206	-0,174	-0,058
224,538	189,011	-0,154	-0,160
225,553	242,008	-0,216	-0,252
226,567	101,680	-0,192	-0,155
227,582	65,888	-0,215	-0,151
228,596	6,587	-0,185	-0,095
229,611	13,473	-0,069	-0,037
230,626	28,580	-0,231	-0,135
231,640	-30,094	-0,182	-0,071
232,655	800,000	-0,131	-0,324
233,669	133,926	-0,151	-0,135
234,684	-80,936	-0,264	-0,060
235,699	158,195	-0,191	-0,183
236,713	-200,000	-0,038	-0,243
237,728	179,105	-0,073	-0,075
238,742	24,282	-0,304	-0,173
239,757	4,951	-0,237	-0,121
240,772	14,964	-0,148	-0,080
241,786	134,063	-0,163	-0,146
242,801	202,942	-0,145	-0,155
243,815	4,760	-0,111	-0,056
244,830	63,832	-0,174	-0,121
245,844	97,549	-0,205	-0,163
246,859	-6,050	-0,134	-0,063
247,874	164,272	-0,118	-0,116
248,888	364,309	-0,127	-0,178
249,903	383,033	-0,197	-0,281
250,917	-120,283	-0,115	0,013
251,932	62,334	-0,171	-0,118
252,947	32,969	-0,176	-0,105
253,961	16,378	-0,219	-0,119
254,976	42,928	-0,242	-0,152
255,990	381,408	-0,114	-0,162
257,005	800,000	-0,081	-0,180
258,020	-169,937	-0,264	-0,006
259,034	110,019	-0,071	-0,059
260,049	41,751	-0,083	-0,052
261,063	202,771	-0,144	-0,154
262,078	-145,271	-0,203	0,013
263,093	-34,133	-0,289	-0,109
264,107	-112,312	-0,139	-0,019
265,122	-101,461	-0,148	0,025
266,136	-24,718	-0,148	-0,061
267,151	151,772	-0,112	-0,106
268,166	-200,000	-0,031	-0,237
269,180	123,113	-0,215	-0,186
270,195	147,032	-0,171	-0,159
271,209	81,263	-0,153	-0,114
272,224	410,126	-0,105	-0,155
273,239	309,114	-0,154	-0,199
274,253	800,000	-0,118	-0,226
275,268	-29,350	-0,214	-0,084
276,282	243,740	-0,157	-0,182
277,297	-80,509	-0,175	-0,040
278,312	-186,112	-0,184	0,002
279,326	-120,414	-0,121	-0,014
280,341	-57,577	-0,206	0,062
281,355	-94,373	-0,259	-0,048
282,370	244,615	-0,142	-0,165
283,384	800,000	-0,145	-0,385
284,399	191,007	-0,094	-0,098
285,414	800,000	-0,087	-0,232
286,428	77,013	-0,190	-0,139
287,443	34,277	-0,246	-0,148
288,457	-49,005	-0,149	0,049
289,472	175,200	-0,058	-0,058
290,487	87,448	-0,144	-0,110
291,501	65,377	-0,162	-0,113
292,516	226,413	-0,111	-0,124
293,530	800,000	-0,053	-0,108
294,545	-103,941	-0,209	-0,033
295,560	81,297	-0,095	-0,071
296,574	90,652	-0,061	0,047
297,589	137,808	-0,165	-0,149
298,603	-146,644	-0,316	-0,019
299,618	138,619	-0,143	-0,129
300,633	223,289	-0,103	-0,114
301,647	-200,000	0,035	-0,118
302,662	-200,000	0,023	-0,176
303,676	27,129	-0,177	-0,102
304,691	556,044	-0,139	-0,232
305,706	249,658	-0,198	-0,231
306,720	48,294	-0,209	-0,134
307,735	-105,002	-0,133	-0,021
308,749	76,366	-0,115	-0,084
309,764	49,208	-0,170	-0,110
310,779	-5,284	-0,089	0,042
311,793	474,020	-0,086	-0,133
312,808	-17,174	-0,187	-0,081
313,822	11,993	-0,224	-0,118
314,837	800,000	-0,062	-0,156
315,852	-111,267	-0,038	0,005
316,866	69,765	-0,123	-0,087
317,881	-65,985	-0,147	0,040
318,895	393,092	-0,100	-0,144
319,910	-200,000	-0,183	-0,000
320,925	-87,792	-0,140	-0,029
321,939	269,221	-0,127	-0,154
322,954	117,778	-0,173	-0,147
323,968	140,619	-0,154	-0,140
324,983	-25,478	-0,172	-0,070
325,997	800,000	0,037	-0,084
327,012	-192,704	-0,269	-0,002
328,027	120,212	-0,196	-0,167
329,041	105,372	-0,158	-0,128
330,056	-61,905	-0,188	-0,054
331,070	124,854	-0,081	-0,071
332,085	-200,000	-0,036	-0,190
333,100	124,018	-0,191	-0,164
334,114	453,063	-0,126	-0,193
335,129	800,000	-0,067	-0,200
336,143	79,634	-0,216	-0,159
337,158	390,012	-0,139	-0,199
338,173	87,961	-0,162	-0,123
339,187	350,926	-0,127	-0,174
340,202	460,114	-0,047	-0,072
341,216	28,878	-0,088	-0,051
342,231	161,081	-0,188	-0,180
343,246	-139,060	-0,199	-0,015
344,260	800,000	-0,037	-0,109
345,275	-35,573	-0,167	0,062
346,289	-200,000	-0,021	0,105
347,304	-24,544	-0,206	-0,084
348,319	-86,547	-0,090	0,019
349,333	470,536	-0,122	-0,189
350,348	-66,398	-0,279	-0,076
351,362	-178,808	-0,165	-0,003
352,377	-1,907	-0,153	-0,074
353,392	-200,000	0,016	-0,074
354,406	-200,000	-0,039	-0,140
355,421	210,993	1313,711	1418,553
356,435	162,452	1474,310	1419,042
