DTS Sentinel unit serial number:	SN410029Multiplexer serial number:	ORYXHardware model number:	OX2-SRSoftware version number:	ORYX F/W v4,00 Oryx Data Collector v3.7.2.0data status	okinstallation	B3 Nyhavnadifferential loss correction	single-endedforward channel	channel 1reverse channel	N/Adate	2023/11/30time	05:32:30forward acquisition time	300,00reverse acquisition time	0,00gamma	499,1914k internal	0,3211k external	0,3211temperature offset calibration	1,0000default loss term (dB/km)	0,3820temperature slope calibration	1,0000multiplexer offset coefficient	1,0000multiplexer slope coefficient	1,0000fibre end	0,00T internal ref (°C)	10,25T ext. ref 1 (°C)	-5,04T ext. ref 2 (°C)	-5,13length (m)	temperature (°C)	Stokes	anti-Stokes-744,400	800,000	-0,096	-0,236
-743,385	800,000	0,043	0,108
-742,371	241,880	-0,171	-0,208
-741,356	-200,000	0,009	0,370
-740,342	248,843	-0,205	-0,252
-739,327	-200,000	-0,013	0,215
-738,312	800,000	-0,093	-0,294
-737,298	54,388	-0,109	0,076
-736,283	173,957	-0,188	-0,197
-735,269	-200,000	0,043	0,237
-734,254	-200,000	-0,071	-0,364
-733,239	-15,279	-0,185	0,086
-732,225	800,000	-0,064	-0,178
-731,210	490,181	0,098	0,163
-730,196	800,000	0,044	-0,102
-729,181	391,594	-0,042	-0,064
-728,167	-7,931	0,024	0,012
-727,152	800,000	0,025	0,074
-726,137	800,000	0,016	-0,033
-725,123	23,918	-0,109	0,065
-724,108	-27,140	-0,179	0,075
-723,094	-101,378	-0,195	0,034
-722,079	-153,394	0,032	0,002
-721,064	-149,281	0,019	0,001
-720,050	-200,000	-0,011	-0,044
-719,035	-0,386	-0,128	-0,066
-718,021	800,000	0,053	0,120
-717,006	26,126	-0,109	-0,066
-715,991	-200,000	0,018	-0,069
-714,977	-93,379	0,047	-0,009
-713,962	-6,745	0,100	0,049
-712,948	58,420	0,034	-0,024
-711,933	314,974	-0,020	0,027
-710,918	36,528	-0,111	0,071
-709,904	-200,000	0,028	-0,091
-708,889	-200,000	-0,026	0,134
-707,875	-171,965	0,125	-0,003
-706,860	800,000	-0,015	0,037
-705,845	8,563	0,015	-0,008
-704,831	-92,088	0,036	-0,007
-703,816	489,958	0,056	-0,093
-702,802	-100,239	-0,050	-0,009
-701,787	-34,298	0,097	0,038
-700,772	800,000	0,047	-0,100
-699,758	-200,000	-0,014	-0,079
-698,743	800,000	-0,038	-0,094
-697,729	284,862	0,049	-0,064
-696,714	800,000	-0,045	0,092
-695,699	-28,071	0,073	0,030
-694,685	20,725	-0,160	-0,093
-693,670	-200,000	0,023	-0,202
-692,656	-200,000	-0,006	0,022
-691,641	-70,878	-0,129	0,035
-690,627	134,683	-0,089	-0,084
-689,612	309,232	0,028	0,038
-688,597	-89,984	-0,117	0,024
-687,583	-88,135	-0,031	-0,007
-686,568	67,430	-0,067	0,049
-685,554	11,859	-0,087	0,048
-684,539	48,587	-0,067	0,045
-683,524	199,561	0,018	0,020
-682,510	-200,000	-0,009	-0,076
-681,495	97,354	-0,095	0,079
-680,481	102,966	-0,064	-0,054
-679,466	-14,213	-0,059	-0,028
-678,451	-1,734	-0,003	0,002
-677,437	-200,000	-0,007	0,027
-676,422	800,000	0,019	-0,039
-675,408	333,794	0,025	0,035
-674,393	800,000	0,028	-0,058
-673,378	7,864	0,099	0,054
-672,364	-90,081	-0,127	-0,026
-671,349	-121,326	0,093	0,011
-670,335	238,685	0,053	-0,064
-669,320	285,924	-0,107	0,140
-668,305	-200,000	-0,006	0,133
-667,291	584,456	-0,040	-0,072
-666,276	-103,232	-0,070	0,012
-665,262	-3,998	-0,012	-0,006
-664,247	-200,000	0,003	-0,049
-663,232	800,000	0,042	-0,090
-662,218	-76,036	0,153	-0,039
-661,203	689,655	0,028	-0,053
-660,189	-44,608	0,125	0,045
-659,174	-32,959	0,077	-0,031
-658,159	-200,000	0,024	-0,154
-657,145	521,177	0,051	-0,087
-656,130	-105,363	0,095	-0,016
-655,116	276,127	0,048	0,062
-654,101	-53,971	-0,033	-0,011
-653,086	88,490	-0,108	-0,087
-652,072	-200,000	-0,014	-0,049
-651,057	-156,004	-0,068	0,003
-650,043	14,954	-0,060	-0,034
-649,028	-193,912	-0,082	0,000
-648,014	338,724	0,056	-0,079
-646,999	-88,670	-0,074	-0,016
-645,984	153,358	-0,083	-0,082
-644,970	222,721	0,047	-0,055
-643,955	507,274	-0,060	-0,101
-642,941	-200,000	0,001	-0,072
-641,926	-126,509	0,011	0,001
-640,911	78,641	-0,075	0,057
-639,897	785,167	-0,027	0,054
-638,882	208,757	-0,036	0,041
-637,868	32,884	-0,047	0,030
-636,853	800,000	-0,011	0,024
-635,838	-129,227	0,087	-0,009
-634,824	73,904	0,042	-0,032
-633,809	-71,153	-0,013	-0,003
-632,795	-200,000	-0,019	0,171
-631,780	6,347	0,160	0,086
-630,765	-18,990	-0,083	-0,037
-629,751	530,778	0,026	-0,045
-628,736	-83,875	-0,151	-0,034
-627,722	-48,383	-0,112	0,039
-626,707	-127,738	0,134	-0,014
-625,692	-200,000	-0,007	-0,104
-624,678	800,000	0,016	0,043
-623,663	800,000	0,067	-0,146
-622,649	64,282	-0,068	0,049
-621,634	469,187	0,024	-0,039
-620,619	22,782	-0,049	0,029
-619,605	800,000	-0,021	0,053
-618,590	444,650	0,113	0,180
-617,576	334,539	0,029	0,041
-616,561	100,994	-0,056	-0,047
-615,546	-108,487	-0,039	-0,006
-614,532	-200,000	-0,027	-0,115
-613,517	-69,113	-0,095	-0,026
-612,503	-200,000	0,018	-0,074
-611,488	-99,003	0,023	0,004
-610,474	800,000	-0,010	-0,029
-609,459	-170,311	0,082	-0,002
-608,444	61,622	-0,128	-0,092
-607,430	-200,000	0,007	0,070
-606,415	-6,758	0,075	-0,037
-605,401	-147,792	-0,060	-0,004
-604,386	-200,000	0,043	0,187
-603,371	691,246	-0,034	-0,064
-602,357	-172,816	-0,095	0,002
-601,342	518,795	-0,032	0,054
-600,328	-200,000	-0,027	-0,166
-599,313	17,987	0,023	-0,013
-598,298	-27,538	-0,096	-0,040
-597,284	135,642	-0,149	0,140
-596,269	-109,158	0,111	0,017
-595,255	587,651	0,037	0,066
-594,240	14,884	-0,097	0,055
-593,225	-200,000	-0,003	-0,064
-592,211	519,068	-0,037	-0,062
-591,196	98,544	-0,057	0,048
-590,182	159,553	0,052	-0,052
-589,167	-173,457	-0,034	-0,001
-588,152	-30,171	0,034	-0,014
-587,138	49,432	-0,076	0,052
-586,123	-92,932	-0,149	-0,030
-585,109	523,232	0,072	-0,123
-584,094	63,583	-0,041	-0,030
-583,079	800,000	-0,076	0,195
-582,065	-200,000	0,047	-0,209
-581,050	-121,709	0,121	0,014
-580,036	-48,328	-0,149	-0,051
-579,021	-77,968	-0,106	-0,026
-578,006	-123,146	-0,096	0,011
-576,992	-200,000	-0,023	-0,083
-575,977	-106,573	-0,119	0,019
-574,963	-132,698	0,084	-0,008
-573,948	397,548	-0,099	-0,149
-572,934	-200,000	-0,042	-0,132
-571,919	667,174	-0,074	-0,138
-570,904	-109,252	0,047	0,007
-569,890	-19,057	-0,064	-0,028
-568,875	-200,000	-0,010	0,051
-567,861	4,012	0,100	-0,053
-566,846	-200,000	0,029	0,112
-565,831	12,013	-0,087	-0,048
-564,817	-200,000	-0,070	-0,265
-563,802	1,478	-0,166	-0,086
-562,788	65,888	0,085	-0,062
-561,773	-107,150	-0,146	0,023
-560,758	-200,000	0,024	0,150
-559,744	-200,000	-0,001	0,072
-558,729	-50,134	0,037	0,013
-557,715	566,713	-0,078	0,137
-556,700	-200,000	0,025	-0,099
-555,685	-147,270	-0,141	-0,008
-554,671	755,576	0,070	0,137
-553,656	102,235	0,136	0,114
-552,642	637,310	0,029	-0,052
-551,627	272,977	0,074	-0,094
-550,612	210,643	0,055	-0,063
-549,598	100,519	-0,078	-0,065
-548,583	528,492	-0,040	0,068
-547,569	-88,676	0,155	0,033
-546,554	-180,374	0,024	0,000
-545,539	-200,000	0,001	0,078
-544,525	800,000	0,034	0,095
-543,510	-45,438	-0,174	0,062
-542,496	-131,943	-0,115	0,011
-541,481	-200,000	-0,021	0,120
-540,466	800,000	-0,027	0,069
-539,452	245,879	-0,053	0,065
-538,437	-200,000	0,013	0,225
-537,423	428,309	-0,079	0,124
-536,408	-200,000	0,031	0,118
-535,393	-79,207	-0,056	0,014
-534,379	800,000	0,007	-0,020
-533,364	59,025	0,045	-0,031
-532,350	600,963	0,048	0,087
-531,335	89,963	0,147	0,118
-530,321	-115,515	0,125	-0,017
-529,306	-200,000	0,033	-0,127
-528,291	-133,365	-0,092	0,008
-527,277	800,000	0,013	-0,037
-526,262	91,658	0,027	-0,022
-525,248	-200,000	0,012	0,059
-524,233	158,546	-0,126	0,126
-523,218	292,719	0,046	0,061
-522,204	-33,690	0,027	0,011
-521,189	800,000	0,034	-0,084
-520,175	23,974	0,094	0,056
-519,160	800,000	0,078	0,163
-518,145	-84,665	-0,084	-0,019
-517,131	603,037	-0,030	-0,055
-516,116	-200,000	-0,005	-0,021
-515,102	-200,000	-0,042	0,163
-514,087	253,224	0,066	-0,082
-513,072	1,447	-0,154	-0,079
-512,058	-200,000	-0,008	-0,060
-511,043	-145,039	0,071	0,005
-510,029	89,183	0,116	-0,093
-509,014	-200,000	0,008	0,038
-507,999	690,926	0,072	0,137
-506,985	454,885	-0,034	0,055
-505,970	800,000	-0,061	0,168
-504,956	-200,000	-0,016	0,079
-503,941	9,913	0,051	0,028
-502,926	800,000	-0,037	-0,111
-501,912	191,673	-0,051	0,055
-500,897	-200,000	0,081	0,000
-499,883	266,891	-0,122	-0,153
-498,868	800,000	-0,053	-0,120
-497,853	-200,000	0,012	-0,130
-496,839	-200,000	-0,006	-0,032
-495,824	103,492	-0,180	0,152
-494,810	66,188	-0,048	0,035
-493,795	800,000	0,058	0,172
-492,781	-51,802	-0,057	-0,019
-491,766	130,541	0,095	-0,088
-490,751	402,774	-0,039	-0,059
-489,737	-200,000	-0,005	-0,075
-488,722	196,090	-0,007	-0,008
-487,708	183,471	-0,074	0,078
-486,693	321,138	-0,078	-0,107
-485,678	-200,000	-0,017	-0,149
-484,664	93,677	0,103	-0,083
-483,649	22,629	-0,101	0,059
-482,635	124,267	0,076	-0,069
-481,620	497,789	0,020	-0,033
-480,605	-200,000	-0,043	0,157
-479,591	-18,938	0,080	0,036
-478,576	-156,021	-0,134	-0,006
-477,562	800,000	-0,048	0,110
-476,547	322,327	-0,045	-0,062
-475,532	-200,000	0,018	-0,147
-474,518	-121,329	0,076	-0,009
-473,503	42,315	0,123	0,080
-472,489	-160,613	-0,082	-0,003
-471,474	110,355	-0,138	-0,119
-470,459	356,087	0,038	0,054
-469,445	322,966	0,072	-0,098
-468,430	-62,488	-0,073	0,022
-467,416	-15,751	0,107	0,049
-466,401	-200,000	0,001	-0,042
-465,386	-177,719	-0,033	0,001
-464,372	-200,000	0,008	0,031
-463,357	122,013	-0,068	0,061
-462,343	169,599	-0,053	-0,054
-461,328	16,045	0,061	-0,034
-460,313	127,070	-0,108	-0,098
-459,299	-135,045	0,138	-0,012
-458,284	-183,426	0,084	0,001
-457,270	-21,741	-0,038	0,016
-456,255	-200,000	-0,004	-0,203
-455,241	-200,000	-0,032	-0,120
-454,226	-200,000	0,002	0,027
-453,211	-143,344	0,123	-0,008
-452,197	-69,885	0,043	0,012
-451,182	800,000	0,027	-0,082
-450,168	204,624	0,108	-0,120
-449,153	800,000	-0,080	-0,168
-448,138	800,000	-0,025	-0,067
-447,124	-165,274	-0,038	-0,001
-446,109	468,979	0,064	-0,104
-445,095	-125,491	-0,121	0,013
-444,080	-161,162	-0,101	0,004
-443,065	-200,000	-0,008	-0,140
-442,051	-200,000	-0,003	0,081
-441,036	229,747	0,005	-0,006
-440,022	54,838	0,075	0,052
-439,007	476,395	-0,017	0,028
-437,992	800,000	0,050	0,145
-436,978	-111,446	0,129	-0,019
-435,963	416,402	0,086	-0,131
-434,949	52,229	-0,093	-0,063
-433,934	149,788	0,024	0,023
-432,919	-119,269	-0,075	0,009
-431,905	375,450	-0,059	0,087
-430,890	800,000	0,052	0,132
-429,876	-200,000	-0,000	0,043
-428,861	-71,384	0,164	-0,044
-427,846	-77,735	-0,092	0,023
-426,832	-144,715	-0,065	0,004
-425,817	800,000	-0,037	-0,105
-424,803	498,219	-0,048	-0,080
-423,788	107,242	0,099	-0,084
-422,773	-48,762	-0,233	-0,080
-421,759	44,736	0,086	0,056
-420,744	-200,000	0,020	0,074
-419,730	-200,000	-0,001	0,075
-418,715	-71,519	-0,045	-0,012
-417,701	-200,000	0,007	0,118
-416,686	-200,000	0,020	0,080
-415,671	-200,000	0,007	-0,058
-414,657	108,723	0,053	0,046
-413,642	110,974	0,062	0,053
-412,628	461,474	-0,056	-0,089
-411,613	800,000	-0,053	-0,140
-410,598	203,034	0,036	0,040
-409,584	-200,000	-0,009	0,060
-408,569	-63,586	0,049	-0,014
-407,555	800,000	-0,049	0,101
-406,540	336,152	0,090	0,125
-405,525	122,006	-0,023	-0,020
-404,511	276,514	0,068	-0,087
-403,496	-200,000	-0,053	-0,178
-402,482	-200,000	0,037	-0,163
-401,467	84,040	0,064	0,050
-400,452	-66,190	0,037	0,011
-399,438	800,000	-0,036	0,077
-398,423	-200,000	0,018	-0,127
-397,409	800,000	0,067	-0,136
-396,394	-103,178	0,082	-0,014
-395,379	227,794	0,101	0,118
-394,365	-5,473	0,023	0,011
-393,350	-125,667	0,023	0,002
-392,336	-200,000	0,003	0,067
-391,321	800,000	0,027	0,065
-390,306	230,086	-0,024	0,028
-389,292	91,744	-0,033	-0,027
-388,277	12,923	0,063	-0,035
-387,263	-200,000	-0,007	0,099
-386,248	-200,000	0,030	0,193
-385,233	-200,000	-0,014	-0,061
-384,219	800,000	-0,008	-0,024
-383,204	800,000	-0,030	0,072
-382,190	147,427	0,094	-0,091
-381,175	143,809	-0,064	-0,061
-380,160	800,000	-0,048	0,098
-379,146	-46,872	0,124	-0,043
-378,131	800,000	0,021	0,049
-377,117	-71,290	-0,056	0,015
-376,102	281,192	-0,049	0,062
-375,088	-200,000	0,001	-0,159
-374,073	169,898	0,008	-0,009
-373,058	-200,000	-0,023	0,089
-372,044	-200,000	0,028	0,129
-371,029	-162,417	0,126	-0,004
-370,015	-19,674	-0,056	-0,025
-369,000	603,636	-0,050	-0,089
-367,985	800,000	-0,034	0,070
-366,971	78,707	-0,036	0,028
-365,956	-125,460	0,103	-0,011
-364,942	800,000	0,056	-0,122
-363,927	-143,840	-0,100	0,007
-362,912	-113,562	-0,014	0,002
-361,898	33,547	0,053	0,033
-360,883	-200,000	0,009	-0,077
-359,869	-200,000	0,018	0,117
-358,854	-177,106	0,140	-0,002
-357,839	185,638	-0,045	-0,048
-356,825	-29,536	-0,061	0,025
-355,810	35,795	-0,104	0,065
-354,796	89,556	-0,072	-0,058
-353,781	-83,238	0,277	-0,063
-352,766	98,704	-0,106	0,088
-351,752	75,871	-0,014	-0,010
-350,737	-143,976	0,118	0,008
-349,723	644,704	0,072	-0,131
-348,708	57,794	-0,076	0,053
-347,693	-83,349	-0,073	0,017
-346,679	154,132	-0,084	-0,082
-345,664	-200,000	0,007	-0,081
-344,650	-200,000	0,007	0,045
-343,635	-142,335	0,070	0,005
-342,620	-200,000	-0,002	0,031
-341,606	800,000	0,032	0,088
-340,591	800,000	0,062	0,124
-339,577	204,390	-0,090	0,100
-338,562	-200,000	-0,002	-0,064
-337,548	-200,000	0,015	-0,104
-336,533	-200,000	0,005	0,052
-335,518	57,007	0,157	-0,109
-334,504	-122,343	-0,014	0,002
-333,489	17,875	-0,096	0,054
-332,475	326,369	-0,069	-0,094
-331,460	106,814	-0,054	-0,045
-330,445	-170,418	0,086	0,002
-329,431	800,000	-0,064	0,138
-328,416	-20,252	0,117	0,051
-327,402	-161,046	0,123	-0,005
-326,387	12,485	-0,155	0,085
-325,372	22,639	-0,036	-0,021
-324,358	-84,689	-0,129	-0,029
-323,343	254,749	0,025	-0,031
-322,329	-200,000	-0,006	-0,030
-321,314	297,014	0,107	0,141
-320,299	-169,649	0,143	0,004
-319,285	48,215	-0,085	-0,057
-318,270	88,240	-0,064	0,051
-317,256	-200,000	-0,017	-0,056
-316,241	167,327	0,038	0,038
-315,226	350,297	-0,041	0,058
-314,212	800,000	-0,018	0,043
-313,197	69,228	-0,034	0,025
-312,183	-9,033	0,147	0,070
-311,168	-200,000	-0,011	-0,128
-310,153	536,092	-0,054	-0,092
-309,139	81,012	-0,029	-0,022
-308,124	-200,000	0,002	0,039
-307,110	800,000	0,032	-0,066
-306,095	800,000	0,061	0,138
-305,080	-200,000	0,011	-0,036
-304,066	-200,000	-0,007	-0,151
-303,051	-200,000	-0,004	0,014
-302,037	-117,991	0,074	-0,009
-301,022	-200,000	0,038	-0,138
-300,008	254,463	0,056	-0,068
-298,993	-71,809	0,055	0,015
-297,978	-200,000	0,009	0,064
-296,964	639,859	0,021	-0,038
-295,949	43,613	-0,180	-0,117
-294,935	13,044	0,107	-0,059
-293,920	800,000	-0,027	-0,077
-292,905	41,315	-0,115	-0,074
-291,891	125,391	0,070	0,063
-290,876	288,549	-0,075	0,097
-289,862	647,246	0,083	-0,152
-288,847	-151,194	-0,187	-0,010
-287,832	-200,000	-0,005	-0,131
-286,818	-200,000	0,018	0,066
-285,803	0,878	0,114	0,058
-284,789	65,097	0,037	0,027
-283,774	42,506	-0,033	0,021
-282,759	-125,242	-0,041	-0,004
-281,745	326,826	-0,054	0,074
-280,730	364,215	-0,029	0,042
-279,716	273,426	0,100	0,126
-278,701	-18,861	-0,051	-0,023
-277,686	-13,862	0,113	0,052
-276,672	90,544	0,059	-0,047
-275,657	118,498	-0,041	-0,036
-274,643	134,914	-0,040	-0,037
-273,628	70,664	0,067	0,049
-272,613	-66,101	-0,155	-0,044
-271,599	283,541	0,042	0,053
-270,584	-200,000	-0,009	-0,089
-269,570	404,475	0,022	0,032
-268,555	-100,287	0,122	0,021
-267,540	800,000	0,010	0,024
-266,526	800,000	-0,052	-0,102
-265,511	170,715	0,094	0,096
-264,497	452,499	-0,059	-0,092
-263,482	-200,000	0,009	0,053
-262,467	-200,000	-0,001	0,116
-261,453	21,006	0,094	0,054
-260,438	-200,000	-0,027	-0,103
-259,424	55,029	0,104	-0,071
-258,409	114,025	-0,119	-0,103
-257,395	-200,000	0,007	-0,083
-256,380	2,563	-0,089	-0,046
-255,365	-148,347	0,089	-0,005
-254,351	-49,012	-0,023	-0,008
-253,336	72,688	0,135	-0,100
-252,322	-128,803	-0,214	0,021
-251,307	109,479	0,192	0,164
-250,292	223,394	0,032	0,037
-249,278	189,806	-0,088	0,094
-248,263	320,448	-0,072	-0,097
-247,249	-53,075	0,128	-0,042
-246,234	800,000	-0,029	0,084
-245,219	-200,000	-0,014	-0,105
-244,205	-200,000	-0,013	-0,052
-243,190	250,169	-0,117	0,141
-242,176	-54,135	0,092	-0,029
-241,161	-200,000	-0,009	0,056
-240,146	531,107	0,012	0,020
-239,132	228,577	0,120	-0,139
-238,117	45,170	-0,124	0,081
-237,103	-103,378	0,160	-0,027
-236,088	800,000	-0,045	-0,091
-235,073	-23,642	0,140	-0,060
-234,059	23,671	-0,096	-0,056
-233,044	6,958	0,010	0,005
-232,030	237,618	0,032	-0,037
-231,015	759,599	-0,075	0,144
-230,000	255,972	-0,037	-0,046
-228,986	-200,000	0,000	0,063
-227,971	800,000	-0,051	0,125
-226,957	-105,737	0,095	0,015
-225,942	-73,922	-0,094	-0,024
-224,927	31,888	0,014	0,009
-223,913	-200,000	0,015	-0,125
-222,898	-177,076	0,040	0,001
-221,884	183,408	-0,024	0,025
-220,869	-72,532	0,076	-0,020
-219,855	-104,112	0,127	-0,021
-218,840	-174,211	-0,077	0,002
-217,825	90,095	0,029	0,023
-216,811	33,232	-0,092	-0,057
-215,796	-69,835	-0,152	-0,041
-214,782	202,396	-0,040	0,044
-213,767	310,445	0,101	0,135
-212,752	-35,076	0,063	0,024
-211,738	-26,246	0,115	-0,048
-210,723	49,511	-0,068	-0,045
-209,709	-143,614	0,018	0,001
-208,694	-200,000	0,009	0,184
-207,679	-200,000	-0,013	0,081
-206,665	52,753	0,096	0,065
-205,650	-82,688	0,086	0,020
-204,636	423,666	0,043	-0,066
-203,621	322,295	0,055	0,075
-202,606	114,244	0,137	0,118
-201,592	130,782	-0,131	-0,119
-200,577	-65,148	-0,061	-0,017
-199,563	-200,000	-0,037	-0,138
-198,548	800,000	0,035	0,099
-197,533	81,794	0,116	0,089
-196,519	322,661	0,025	-0,035
-195,504	305,492	0,046	0,061
-194,490	3,337	-0,071	0,036
-193,475	229,726	0,081	0,094
-192,460	-88,501	-0,034	-0,007
-191,446	124,390	-0,025	0,022
-190,431	83,993	0,051	0,039
-189,417	94,810	-0,053	0,043
-188,402	-111,404	0,093	-0,013
-187,387	-200,000	0,010	-0,079
-186,373	702,653	0,027	0,050
-185,358	-157,881	0,104	-0,004
-184,344	130,095	-0,014	-0,012
-183,329	328,931	0,072	0,098
-182,315	-138,722	-0,046	-0,004
-181,300	-200,000	-0,011	-0,097
-180,285	-200,000	0,024	-0,103
-179,271	-92,423	-0,097	-0,019
-178,256	800,000	0,079	0,174
-177,242	325,365	0,078	0,105
-176,227	800,000	-0,042	-0,086
-175,212	126,886	0,044	0,039
-174,198	-15,260	0,042	0,019
-173,183	-51,714	0,132	-0,043
-172,169	31,791	-0,067	-0,041
-171,154	-200,000	-0,020	-0,067
-170,139	800,000	0,022	0,055
-169,125	800,000	0,039	0,100
-168,110	298,176	0,046	0,060
-167,096	-8,872	0,070	0,033
-166,081	-7,456	0,034	-0,016
-165,066	-5,817	-0,163	-0,079
-164,052	800,000	-0,045	-0,091
-163,037	-200,000	-0,029	0,100
-162,023	-200,000	-0,014	0,070
-161,008	146,666	0,134	0,128
-159,993	-124,123	0,089	-0,010
-158,979	-158,796	-0,077	0,003
-157,964	-85,279	-0,215	-0,047
-156,950	-200,000	0,011	0,111
-155,935	-200,000	0,020	-0,096
-154,920	380,301	0,055	0,080
-153,906	-104,916	-0,043	0,007
-152,891	800,000	0,043	0,084
-151,877	161,563	0,151	-0,149
-150,862	-200,000	-0,026	0,096
-149,847	83,263	-0,059	-0,046
-148,833	26,580	-0,075	-0,045
-147,818	779,909	0,050	-0,098
-146,804	-200,000	0,004	0,024
-145,789	-39,890	0,089	-0,033
-144,775	-138,727	0,063	0,005
-143,760	31,340	0,069	0,042
-142,745	510,645	0,049	-0,082
-141,731	-67,005	-0,064	-0,018
-140,716	800,000	0,031	0,077
-139,702	-28,336	-0,102	-0,041
-138,687	-29,004	0,117	-0,047
-137,672	229,466	-0,012	0,014
-136,658	44,848	0,094	0,061
-135,643	-200,000	0,006	0,077
-134,629	0,346	0,121	0,061
-133,614	-153,491	-0,140	0,007
-132,599	-59,960	0,097	0,029
-131,585	49,709	-0,097	0,065
-130,570	-200,000	-0,007	-0,090
-129,556	68,587	-0,065	-0,047
-128,541	800,000	-0,020	-0,062
-127,526	-117,954	0,037	0,005
-126,512	-40,662	0,054	-0,020
-125,497	23,630	-0,143	-0,083
-124,483	-177,783	0,122	-0,002
-123,468	691,388	-0,066	-0,124
-122,453	260,008	-0,060	0,074
-121,439	-200,000	-0,018	-0,080
-120,424	-101,763	-0,144	0,024
-119,410	-200,000	0,007	0,034
-118,395	-53,645	0,031	0,010
-117,380	-200,000	0,022	0,072
-116,366	-200,000	0,016	0,055
-115,351	128,187	-0,067	0,060
-114,337	800,000	-0,019	-0,056
-113,322	800,000	0,032	-0,082
-112,307	-144,560	0,104	0,007
-111,293	800,000	-0,019	-0,046
-110,278	-200,000	-0,014	0,130
-109,264	546,792	-0,113	0,192
-108,249	244,783	-0,026	-0,032
-107,234	-164,744	0,119	0,004
-106,220	179,604	-0,072	0,074
-105,205	-200,000	0,008	-0,059
-104,191	-122,568	0,032	0,004
-103,176	109,295	0,066	-0,056
-102,162	-200,000	-0,003	-0,147
-101,147	-55,370	-0,076	0,024
-100,132	800,000	-0,066	-0,182
-99,118	-200,000	-0,017	-0,073
-98,103	-200,000	0,042	0,134
-97,089	-200,000	-0,001	-0,042
-96,074	-200,000	-0,024	0,104
-95,059	89,190	0,077	0,061
-94,045	-200,000	-0,003	0,123
-93,030	164,611	-0,037	0,037
-92,016	-88,679	0,070	0,014
-91,001	-67,656	-0,086	0,024
-89,986	-145,418	0,080	0,005
-88,972	7,609	-0,059	-0,031
-87,957	649,924	-0,026	0,048
-86,943	-200,000	0,013	0,072
-85,928	295,078	-0,102	-0,133
-84,913	-200,000	0,010	-0,053
-83,899	342,631	-0,044	-0,061
-82,884	-5,866	0,085	-0,041
-81,870	-200,000	-0,002	0,118
-80,855	-101,354	-0,023	-0,004
-79,840	800,000	-0,039	0,114
-78,826	89,737	-0,037	-0,029
-77,811	-200,000	0,001	-0,079
-76,797	-4,974	-0,093	0,045
-75,782	800,000	-0,055	-0,135
-74,767	237,599	0,046	-0,054
-73,753	104,375	-0,050	-0,042
-72,738	-94,344	-0,039	0,007
-71,724	800,000	-0,028	-0,085
-70,709	-200,000	-0,003	-0,068
-69,694	-39,708	0,124	0,046
-68,680	481,599	0,019	-0,030
-67,665	713,263	0,066	-0,123
-66,651	-200,000	-0,019	-0,066
-65,636	800,000	0,033	0,093
-64,622	52,091	-0,102	-0,068
-63,607	-200,000	-0,015	-0,048
-62,592	800,000	-0,062	-0,138
-61,578	-200,000	0,010	-0,089
-60,563	104,081	0,103	-0,085
-59,549	289,818	-0,072	0,093
-58,534	27,280	-1,993	-1,179
-57,519	430,930	-1,205	-1,848
-56,505	-200,000	-0,370	-4,434
-55,490	468,282	0,952	1,513
-54,476	800,000	5,146	11,230
-53,461	-200,000	21,162	338,211
-52,446	800,000	758,689	2352,380
-51,432	558,967	1661,574	2841,124
-50,417	73,713	1661,349	1227,243
-49,403	18,153	1535,083	861,738
-48,388	12,136	1458,081	789,423
-47,373	19,280	1449,372	818,946
-46,359	15,528	1438,719	795,058
-45,344	10,335	1434,624	768,046
-44,330	10,331	1432,478	766,850
-43,315	10,280	1430,776	765,663
-42,300	10,325	1428,950	764,871
-41,286	10,314	1427,885	764,216
-40,271	10,285	1426,840	763,492
-39,257	10,252	1425,567	762,621
-38,242	10,340	1424,280	762,322
-37,227	10,320	1423,236	761,636
-36,213	10,349	1421,768	760,955
-35,198	10,341	1420,691	760,313
-34,184	10,387	1419,971	760,112
-33,169	10,310	1418,475	758,922
-32,154	10,355	1417,536	758,602
-31,140	10,337	1416,383	757,870
-30,125	10,397	1415,111	757,441
-29,111	10,314	1414,046	756,449
-28,096	10,294	1413,042	755,787
-27,082	10,246	1411,639	754,783
-26,067	10,257	1410,678	754,293
-25,052	10,292	1409,599	753,849
-24,038	10,311	1408,720	753,435
-23,023	10,252	1407,606	752,536
-22,009	10,321	1406,363	752,164
-20,994	10,232	1405,729	751,376
-19,979	10,273	1404,703	750,990
-18,965	10,244	1403,679	750,281
-17,950	10,251	1402,934	749,885
-16,936	10,222	1402,133	749,293
-15,921	10,155	1401,093	748,396
-14,906	10,210	1400,091	748,086
-13,892	10,231	1399,039	747,591
-12,877	10,169	1398,379	746,918
-11,863	10,197	1397,670	746,640
-10,848	10,192	1396,596	746,013
-9,833	10,129	1395,759	745,248
-8,819	10,115	1394,843	744,664
-7,804	10,071	1394,236	744,104
-6,790	10,086	1393,036	743,503
-5,775	10,088	1391,903	742,881
-4,760	10,172	1390,783	742,640
-3,746	10,100	1389,998	741,859
-2,731	10,083	1389,172	741,310
-1,717	10,097	1388,402	740,934
-0,702	10,097	1386,455	739,865
0,313	14,218	1299,427	712,248
1,327	30,566	690,197	415,358
2,342	47,434	119,530	78,423
3,356	-1,037	16,588	8,247
4,371	13,973	3,517	1,924
5,386	-39,143	1,017	0,375
6,400	800,000	0,179	0,478
7,415	100,552	-0,270	-0,221
8,429	69,151	-0,240	-0,174
9,444	-0,362	-0,359	-0,179
10,459	16,431	-0,318	-0,177
11,473	-70,851	-0,355	-0,094
12,488	14,563	-0,295	-0,162
13,502	306,448	-0,231	-0,304
14,517	-62,255	-0,337	-0,098
15,531	49,962	-0,377	-0,250
16,546	4,873	-0,431	-0,222
17,561	81,274	-0,445	-0,338
18,575	-68,801	-0,204	-0,055
19,590	-10,602	-0,362	-0,168
20,604	-200,000	-0,033	-0,136
21,619	62,824	-0,453	-0,319
22,634	37,321	-0,428	-0,267
23,648	98,605	-0,428	-0,348
24,663	112,411	-0,290	-0,247
25,677	111,371	-0,347	-0,294
26,692	-33,521	-0,331	-0,128
27,707	-5,402	-0,309	-0,149
28,721	235,841	-0,270	-0,315
29,736	25,089	-0,509	-0,296
30,750	101,784	-0,247	-0,203
31,765	-47,655	-0,444	-0,151
32,780	25,214	-0,420	-0,245
33,794	-66,858	-0,441	-0,122
34,809	163,026	-0,315	-0,311
35,823	48,873	-0,363	-0,239
36,838	44,074	-0,517	-0,333
37,853	-44,493	-0,362	-0,127
38,867	-17,071	-0,396	-0,175
39,882	188,252	-0,326	-0,343
40,896	-49,294	-0,418	-0,139
41,911	55,868	-0,364	-0,248
42,926	388,591	-0,200	-0,291
43,940	47,110	-0,341	-0,223
44,955	35,439	-0,358	-0,221
45,969	-182,326	-0,282	0,004
46,984	182,797	-0,309	-0,321
47,999	-70,792	-0,391	-0,103
49,013	82,199	-0,204	-0,155
50,028	23,677	-0,414	-0,239
51,042	68,315	-0,342	-0,246
52,057	63,083	-0,354	-0,249
53,071	117,183	-0,349	-0,301
54,086	196,620	-0,262	-0,281
55,101	109,954	-0,247	-0,208
56,115	99,673	-0,323	-0,262
57,130	89,906	-0,358	-0,281
58,144	85,517	-0,322	-0,248
59,159	54,179	-0,366	-0,247
60,174	1,030	-0,371	-0,186
61,188	47,648	-0,294	-0,192
62,203	12,697	-0,287	-0,155
63,217	42,272	-0,337	-0,215
64,232	-9,198	-0,343	-0,160
65,247	-8,954	-0,318	-0,149
66,261	39,706	-0,342	-0,215
67,276	161,748	-0,310	-0,304
68,290	76,878	-0,442	-0,329
69,305	73,784	-0,295	-0,217
70,320	14,885	-0,291	-0,159
71,334	97,054	-0,237	-0,191
72,349	35,535	-0,263	-0,162
73,363	-2,926	-0,309	-0,151
74,378	4,268	-0,241	-0,123
75,393	-17,594	-0,338	-0,148
76,407	57,023	-0,264	-0,180
77,422	-35,916	-0,413	-0,156
78,436	80,589	-0,290	-0,218
79,451	201,363	-0,179	-0,193
80,466	44,737	-0,433	-0,278
81,480	20,312	-0,403	-0,227
82,495	48,841	-0,364	-0,239
83,509	800,000	-0,120	-0,297
84,524	13,239	-0,283	-0,153
85,539	153,806	-0,171	-0,164
86,553	-21,594	-0,338	-0,143
87,568	-6,428	-0,273	-0,130
88,582	95,176	-0,326	-0,260
89,597	232,238	-0,267	-0,307
90,611	82,578	-0,183	-0,139
91,626	88,521	-0,271	-0,211
92,641	-143,996	-0,219	0,014
93,655	208,484	-0,222	-0,243
94,670	-100,587	-0,421	-0,072
95,684	380,709	-0,289	-0,416
96,699	73,613	-0,294	-0,215
97,714	62,861	-0,377	-0,264
98,728	86,460	-0,267	-0,206
99,743	-61,447	-0,233	-0,068
100,757	-152,237	-0,299	-0,015
101,772	33,840	-0,264	-0,160
102,787	1,691	-0,293	-0,147
103,801	33,215	-0,316	-0,191
104,816	-12,520	-0,285	-0,130
105,830	-110,644	-0,358	-0,051
106,845	34,826	-0,316	-0,193
107,860	-48,002	-0,172	-0,058
108,874	-66,760	-0,364	-0,100
109,889	224,382	-0,217	-0,246
110,903	-55,701	-0,402	-0,125
111,918	171,725	-0,276	-0,277
112,933	-121,860	-0,153	-0,017
113,947	-9,822	-0,229	-0,106
114,962	5,650	-0,388	-0,200
115,976	326,539	-0,168	-0,225
116,991	800,000	-0,116	-0,246
118,006	37,878	-0,227	-0,140
119,020	222,335	-0,241	-0,272
120,035	-102,517	-0,215	-0,036
121,049	-93,819	-0,198	-0,038
122,064	88,783	-0,260	-0,201
123,079	27,700	-0,338	-0,198
124,093	76,710	-0,303	-0,224
125,108	95,604	-0,286	-0,228
126,122	293,462	-0,162	-0,207
127,137	82,306	-0,280	-0,211
128,151	53,776	-0,216	-0,144
129,166	-23,722	-0,205	-0,085
130,181	26,663	-0,249	-0,145
131,195	8,557	-0,242	-0,127
132,210	57,153	-0,201	-0,137
133,224	161,387	-0,232	-0,227
134,239	-116,811	-0,228	-0,029
135,254	24,455	-0,159	-0,092
136,268	-113,976	-0,163	0,022
137,283	130,047	-0,236	-0,211
138,297	201,440	-0,346	-0,372
139,312	187,142	-0,139	-0,145
140,327	267,644	-0,178	-0,217
141,341	13,218	-0,206	-0,111
142,356	-115,542	-0,320	-0,041
143,370	-7,379	-0,319	-0,150
144,385	119,062	-0,161	-0,139
145,400	278,010	-0,185	-0,230
146,414	186,950	-0,268	-0,278
147,429	94,452	-0,304	-0,241
148,443	436,639	-0,123	-0,188
149,458	-51,258	-0,287	-0,093
150,473	193,620	-0,241	-0,255
151,487	-95,872	-0,213	-0,039
152,502	-39,836	-0,299	-0,108
153,516	-19,340	-0,366	-0,157
154,531	46,622	-0,196	-0,126
155,546	177,478	-0,208	-0,211
156,560	11,264	-0,311	-0,165
157,575	-159,231	-0,132	-0,005
158,589	285,716	-0,188	-0,236
159,604	37,888	-0,212	-0,131
160,619	115,588	-0,242	-0,206
161,633	185,450	-0,289	-0,299
162,648	800,000	-0,138	-0,293
163,662	-20,275	-0,276	-0,118
164,677	-141,055	-0,099	0,007
165,692	128,217	-0,233	-0,206
166,706	800,000	-0,211	-0,420
167,721	-122,875	-0,356	-0,039
168,735	-87,094	-0,317	-0,066
169,750	387,879	-0,130	-0,187
170,764	101,054	-0,253	-0,204
171,779	-31,751	-0,375	-0,146
172,794	105,972	-0,225	-0,185
173,808	196,121	-0,203	-0,215
174,823	294,852	-0,231	-0,295
175,837	-92,168	-0,227	-0,044
176,852	-27,623	-0,265	-0,106
177,867	102,602	-0,137	-0,111
178,881	-7,343	-0,303	-0,142
179,896	-23,397	-0,146	-0,061
180,910	135,942	-0,190	-0,172
181,925	9,593	-0,233	-0,122
182,940	-104,815	-0,273	-0,043
183,954	-90,801	-0,133	-0,026
184,969	175,559	-0,244	-0,246
185,983	765,844	-0,121	-0,229
186,998	162,822	-0,183	-0,178
188,013	153,340	-0,177	-0,169
189,027	45,554	-0,203	-0,130
190,042	541,064	-0,149	-0,247
191,056	47,985	-0,230	-0,149
192,071	172,240	-0,177	-0,177
193,086	-94,733	-0,221	-0,041
194,100	-84,534	-0,302	0,065
195,115	48,111	-0,135	-0,087
196,129	34,389	-0,325	-0,196
197,144	122,530	-0,250	-0,217
198,159	2,266	-0,139	-0,069
199,173	-121,326	-0,260	-0,030
200,188	279,550	-0,147	-0,182
201,202	286,808	-0,052	0,065
202,217	-16,690	-0,228	-0,099
203,232	19,673	-0,259	-0,144
204,246	-98,598	-0,175	-0,031
205,261	157,744	-0,090	-0,087
206,275	8,719	-0,098	-0,051
207,290	-52,072	-0,287	-0,092
208,304	-200,000	-0,036	-0,131
209,319	-62,488	-0,315	-0,090
210,334	-96,382	-0,303	-0,055
211,348	161,247	-0,143	-0,139
212,363	335,431	-0,127	-0,171
213,377	104,742	-0,172	-0,140
214,392	800,000	-0,093	-0,193
215,407	309,885	-0,140	-0,181
216,421	60,457	-0,189	-0,129
217,436	89,594	-0,229	-0,176
218,450	43,290	-0,139	-0,088
219,465	296,794	-0,145	-0,184
220,480	800,000	-0,137	-0,265
221,494	694,863	-0,145	-0,265
222,509	155,776	-0,165	-0,158
223,523	51,095	-0,234	-0,153
224,538	122,125	-0,146	-0,126
225,553	195,372	-0,194	-0,204
226,567	56,267	-0,207	-0,139
227,582	305,747	-0,125	-0,161
228,596	-54,666	-0,181	-0,056
229,611	128,256	-0,132	-0,116
230,626	210,768	-0,222	-0,241
231,640	-200,000	-0,053	-0,274
232,655	79,351	-0,154	-0,114
233,669	117,089	-0,309	-0,262
234,684	146,198	-0,181	-0,167
235,699	-47,018	-0,249	-0,084
236,713	51,124	-0,225	-0,147
237,728	142,092	-0,112	-0,102
238,742	33,938	-0,152	-0,091
239,757	44,753	-0,125	-0,079
240,772	457,555	-0,164	-0,252
241,786	-200,000	0,007	-0,282
242,801	623,744	-0,111	-0,195
243,815	23,510	-0,122	-0,069
244,830	115,562	-0,124	-0,105
245,844	800,000	-0,063	-0,156
246,859	70,902	-0,308	-0,220
247,874	722,873	-0,109	-0,202
248,888	-118,019	-0,144	-0,018
249,903	-73,836	-0,129	0,032
250,917	223,880	-0,178	-0,199
251,932	-54,988	-0,191	-0,059
252,947	144,864	-0,125	-0,115
253,961	280,597	-0,150	-0,185
254,976	26,373	-0,270	-0,155
255,990	44,991	-0,149	-0,094
257,005	201,358	-0,067	-0,071
258,020	480,343	-0,127	-0,200
259,034	-100,700	-0,073	-0,012
260,049	318,986	-0,087	-0,114
261,063	486,564	-0,131	-0,207
262,078	17,502	-0,127	-0,069
263,093	34,154	-0,131	-0,078
264,107	-129,065	-0,154	0,015
265,122	-124,011	-0,198	-0,021
266,136	753,410	-0,108	-0,203
267,151	-76,164	-0,146	-0,035
268,166	274,651	-0,136	-0,166
269,180	-200,000	-0,103	-0,316
270,195	425,911	-0,116	-0,173
271,209	506,570	-0,164	-0,263
272,224	492,195	-0,107	-0,170
273,239	-7,182	-0,121	-0,056
274,253	-200,000	-0,038	-0,164
275,268	156,264	-0,138	-0,131
276,282	98,429	-0,163	-0,130
277,297	247,739	-0,237	-0,276
278,312	-123,970	-0,280	-0,030
279,326	672,338	-0,086	-0,154
280,341	127,723	-0,110	-0,096
281,355	-52,051	-0,125	-0,040
282,370	42,143	-0,107	0,067
283,384	-55,916	-0,203	0,062
284,399	-82,565	-0,283	-0,063
285,414	320,187	-0,135	-0,177
286,428	338,554	-0,112	-0,150
287,443	103,678	-0,071	0,057
288,457	-32,197	-0,119	0,046
289,472	377,488	-0,152	-0,215
290,487	348,685	-0,122	-0,166
291,501	-83,769	-0,213	-0,046
292,516	125,401	-0,194	-0,168
293,530	56,119	-0,152	-0,101
294,545	-200,000	-0,020	-0,087
295,560	99,690	-0,092	-0,074
296,574	-93,419	-0,176	0,033
297,589	238,977	-0,141	-0,161
298,603	800,000	-0,121	-0,243
299,618	161,761	-0,106	-0,102
300,633	75,914	-0,125	-0,091
301,647	-17,477	-0,096	-0,041
302,662	468,349	-0,056	-0,087
303,676	618,904	-0,110	-0,191
304,691	51,770	-0,238	-0,155
305,706	107,335	-0,186	-0,151
306,720	800,000	-0,118	-0,296
307,735	-182,556	-0,143	0,002
308,749	27,635	-0,115	-0,066
309,764	-105,792	-0,164	-0,025
310,779	-85,685	-0,124	0,026
311,793	-110,401	-0,211	0,030
312,808	128,665	-0,182	-0,159
313,822	15,949	-0,294	-0,158
314,837	392,798	-0,088	-0,125
315,852	-1,839	-0,087	0,042
316,866	-61,372	-0,202	-0,058
317,881	-16,799	-0,138	0,060
318,895	179,933	-0,130	-0,131
319,910	-200,000	0,010	-0,071
320,925	175,825	-0,108	-0,108
321,939	124,490	-0,245	-0,211
322,954	213,858	-0,123	-0,133
323,968	245,042	-0,053	-0,061
324,983	340,381	-0,097	-0,130
325,997	367,281	-0,102	-0,142
327,012	-49,006	-0,116	-0,038
328,027	229,097	-0,117	-0,131
329,041	-36,620	-0,085	-0,031
330,056	313,599	-0,134	-0,173
331,070	216,287	-0,096	-0,105
332,085	91,607	-0,133	-0,102
333,100	-1,575	-0,138	-0,066
334,114	305,134	-0,128	-0,163
335,129	74,982	-0,135	-0,097
336,143	-38,364	-0,128	-0,046
337,158	160,673	-0,139	-0,133
338,173	45,789	-0,112	-0,071
339,187	-60,637	-0,219	-0,063
340,202	232,591	-0,109	-0,123
341,216	17,419	-0,215	-0,116
342,231	309,491	-0,217	-0,279
343,246	293,127	-0,134	-0,167
344,260	240,942	-0,108	-0,124
345,275	-149,147	-0,127	0,007
346,289	-46,956	-0,110	0,037
347,304	-200,000	-0,006	-0,077
348,319	460,002	-0,103	-0,157
349,333	256,698	-0,180	-0,211
350,348	688,469	-0,103	-0,185
351,362	-83,750	-0,079	-0,017
352,377	800,000	-0,028	-0,079
353,392	353,177	0,039	-0,053
354,406	-86,983	-0,123	0,025
355,421	206,887	1310,429	1398,057
356,435	159,128	1470,601	1398,524
