DTS Sentinel unit serial number:	SN410029Multiplexer serial number:	ORYXHardware model number:	OX2-SRSoftware version number:	ORYX F/W v4,00 Oryx Data Collector v3.7.2.0data status	okinstallation	B3 Nyhavnadifferential loss correction	single-endedforward channel	channel 1reverse channel	N/Adate	2023/12/01time	06:17:30forward acquisition time	300,00reverse acquisition time	0,00gamma	499,1914k internal	0,3213k external	0,3213temperature offset calibration	1,0000default loss term (dB/km)	0,3820temperature slope calibration	1,0000multiplexer offset coefficient	1,0000multiplexer slope coefficient	1,0000fibre end	0,00T internal ref (°C)	7,80T ext. ref 1 (°C)	-6,61T ext. ref 2 (°C)	-6,78length (m)	temperature (°C)	Stokes	anti-Stokes-744,400	162,407	-0,160	-0,163
-743,385	-23,583	-0,126	0,055
-742,371	89,675	-0,191	-0,154
-741,356	-200,000	0,039	0,371
-740,342	128,996	-0,171	-0,158
-739,327	-200,000	-0,070	0,227
-738,312	182,164	-0,203	-0,217
-737,298	-200,000	-0,036	0,250
-736,283	800,000	-0,077	-0,239
-735,269	800,000	0,100	0,255
-734,254	37,466	-0,258	-0,165
-733,239	-32,305	-0,385	0,155
-732,225	-200,000	-0,039	-0,253
-731,210	151,347	0,149	0,147
-730,196	-200,000	0,017	0,071
-729,181	-165,014	0,037	-0,001
-728,167	187,831	0,066	0,072
-727,152	228,454	0,036	0,042
-726,137	-148,622	-0,287	0,017
-725,123	108,889	-0,040	-0,034
-724,108	800,000	-0,067	-0,169
-723,094	392,769	-0,054	-0,081
-722,079	197,495	-0,071	-0,079
-721,064	-25,840	0,073	-0,031
-720,050	-200,000	0,022	-0,123
-719,035	66,721	0,097	-0,071
-718,021	-200,000	0,020	-0,091
-717,006	15,373	-0,119	-0,067
-715,991	179,735	-0,029	-0,030
-714,977	-200,000	-0,017	-0,064
-713,962	-14,015	-0,079	-0,037
-712,948	-200,000	-0,023	0,105
-711,933	-58,419	-0,059	-0,018
-710,918	-200,000	0,014	-0,045
-709,904	15,019	-0,171	-0,097
-708,889	800,000	-0,044	0,103
-707,875	620,517	-0,026	0,048
-706,860	312,626	0,098	0,134
-705,845	211,875	0,018	-0,021
-704,831	-60,962	0,092	-0,028
-703,816	-200,000	0,002	-0,025
-702,802	34,328	-0,065	-0,041
-701,787	219,170	0,055	-0,064
-700,772	-187,385	0,089	-0,001
-699,758	-119,171	-0,137	-0,017
-698,743	-200,000	0,005	0,087
-697,729	-200,000	0,003	-0,081
-696,714	-200,000	0,001	-0,024
-695,699	-200,000	-0,021	-0,076
-694,685	9,014	-0,100	0,054
-693,670	-46,908	-0,101	-0,036
-692,656	228,459	0,066	-0,078
-691,641	655,978	0,012	0,023
-690,627	-200,000	0,007	-0,022
-689,612	-200,000	-0,029	0,117
-688,597	800,000	0,013	-0,027
-687,583	-47,682	-0,077	-0,027
-686,568	157,693	-0,024	-0,024
-685,554	-63,405	-0,043	-0,013
-684,539	65,562	-0,071	-0,052
-683,524	-200,000	0,017	-0,064
-682,510	103,324	0,012	-0,010
-681,495	-200,000	-0,019	-0,073
-680,481	-200,000	-0,025	-0,161
-679,466	-94,839	-0,051	-0,010
-678,451	800,000	0,022	-0,047
-677,437	-85,010	0,035	-0,008
-676,422	225,724	-0,040	-0,047
-675,408	-100,334	0,085	-0,015
-674,393	1,913	-0,094	-0,049
-673,378	-113,942	0,115	-0,016
-672,364	133,702	-0,123	-0,115
-671,349	800,000	-0,019	-0,050
-670,335	-61,956	0,086	-0,026
-669,320	-200,000	-0,005	-0,041
-668,305	-66,030	-0,076	0,022
-667,291	-200,000	0,017	-0,145
-666,276	335,188	-0,057	-0,080
-665,262	42,967	-0,091	-0,060
-664,247	-62,574	0,016	0,005
-663,232	-41,145	0,102	-0,038
-662,218	800,000	0,051	0,122
-661,203	21,931	0,025	0,015
-660,189	21,162	0,016	0,009
-659,174	800,000	0,057	0,151
-658,159	-133,833	-0,065	0,006
-657,145	-200,000	0,009	-0,120
-656,130	800,000	0,048	0,101
-655,116	40,969	-0,104	-0,068
-654,101	-73,027	-0,038	0,010
-653,086	52,340	-0,128	0,088
-652,072	-109,002	-0,192	0,029
-651,057	-57,160	-0,159	0,050
-650,043	-200,000	0,007	-0,095
-649,028	-30,508	-0,080	0,033
-648,014	213,740	0,061	0,069
-646,999	80,067	-0,039	-0,030
-645,984	228,594	0,041	-0,049
-644,970	35,639	-0,034	0,021
-643,955	-176,731	-0,055	0,001
-642,941	-200,000	0,031	0,100
-641,926	-200,000	0,020	0,094
-640,911	66,535	-0,106	-0,078
-639,897	-55,372	-0,110	0,035
-638,882	800,000	0,014	-0,029
-637,868	281,924	0,078	-0,101
-636,853	11,681	-0,122	-0,067
-635,838	-64,757	-0,126	-0,037
-634,824	-32,127	-0,076	0,030
-633,809	-200,000	0,017	0,112
-632,795	-163,592	-0,072	-0,002
-631,780	-200,000	0,016	0,091
-630,765	-200,000	-0,012	-0,093
-629,751	139,431	-0,015	0,015
-628,736	-200,000	-0,027	-0,171
-627,722	383,394	0,092	0,136
-626,707	-200,000	-0,022	0,090
-625,692	-14,775	0,055	0,025
-624,678	-200,000	-0,025	-0,123
-623,663	-200,000	-0,005	-0,211
-622,649	41,687	-0,057	-0,037
-621,634	800,000	-0,032	-0,094
-620,619	7,642	-0,058	-0,031
-619,605	-13,798	0,212	0,099
-618,590	70,848	-0,058	-0,043
-617,576	-200,000	-0,027	0,108
-616,561	240,461	0,025	-0,030
-615,546	-122,778	-0,046	0,005
-614,532	216,561	-0,112	-0,129
-613,517	201,259	-0,036	-0,040
-612,503	461,238	0,042	-0,068
-611,488	800,000	-0,066	0,138
-610,474	-200,000	0,042	0,142
-609,459	-55,823	-0,032	-0,010
-608,444	603,910	0,034	0,062
-607,430	258,446	-0,074	-0,092
-606,415	-200,000	-0,009	0,041
-605,401	-200,000	-0,020	0,078
-604,386	800,000	0,047	0,109
-603,371	220,157	0,095	0,110
-602,357	10,790	-0,062	-0,034
-601,342	-20,386	0,129	-0,057
-600,328	-200,000	-0,008	-0,151
-599,313	-41,984	-0,119	0,044
-598,298	-147,775	-0,063	0,004
-597,284	116,311	0,110	0,097
-596,269	-200,000	-0,052	0,183
-595,255	800,000	-0,047	-0,114
-594,240	-112,815	0,049	-0,007
-593,225	-200,000	0,006	-0,045
-592,211	-49,914	0,147	0,050
-591,196	-51,852	0,078	0,026
-590,182	800,000	0,015	-0,044
-589,167	-200,000	-0,014	0,129
-588,152	364,388	0,031	-0,045
-587,138	800,000	0,027	0,075
-586,123	800,000	-0,027	-0,054
-585,109	-200,000	0,011	-0,107
-584,094	127,162	0,035	0,032
-583,079	161,572	-0,037	0,037
-582,065	-200,000	-0,024	0,088
-581,050	531,294	-0,082	0,140
-580,036	-200,000	-0,030	0,141
-579,021	-17,608	0,091	-0,041
-578,006	173,479	0,029	-0,030
-576,992	-200,000	-0,019	0,073
-575,977	163,306	0,047	-0,048
-574,963	-99,572	0,127	-0,023
-573,948	348,768	0,059	-0,084
-572,934	-200,000	-0,015	-0,083
-571,919	-37,701	-0,026	-0,010
-570,904	76,423	-0,085	0,065
-569,890	49,038	0,048	0,032
-568,875	-200,000	0,036	-0,145
-567,861	148,517	-0,058	-0,056
-566,846	100,045	0,125	-0,105
-565,831	-51,230	-0,093	0,031
-564,817	-9,711	0,051	0,025
-563,802	-200,000	-0,004	-0,078
-562,788	-150,945	-0,048	-0,003
-561,773	-200,000	0,002	0,027
-560,758	-46,453	0,108	-0,038
-559,744	-7,946	0,121	0,058
-558,729	13,698	-0,054	0,030
-557,715	405,980	0,071	-0,109
-556,700	153,497	-0,064	-0,064
-555,685	-56,228	-0,131	-0,042
-554,671	71,737	0,159	0,119
-553,656	130,883	0,132	0,122
-552,642	9,755	0,133	-0,072
-551,627	-200,000	0,015	0,057
-550,612	-200,000	-0,014	-0,127
-549,598	-200,000	-0,025	0,079
-548,583	97,641	0,086	0,071
-547,569	473,516	-0,070	0,114
-546,554	588,905	0,032	0,058
-545,539	-126,254	-0,073	0,008
-544,525	-141,463	-0,090	-0,006
-543,510	-47,532	0,061	0,021
-542,496	800,000	0,053	-0,118
-541,481	239,914	-0,096	0,116
-540,466	-200,000	0,001	-0,089
-539,452	185,791	0,057	-0,061
-538,437	164,868	-0,013	0,013
-537,423	800,000	0,013	-0,031
-536,408	-200,000	0,007	-0,025
-535,393	-9,805	0,064	0,031
-534,379	267,858	-0,040	-0,050
-533,364	800,000	-0,006	-0,016
-532,350	-200,000	0,018	-0,105
-531,335	-2,354	0,080	0,040
-530,321	-148,516	0,021	0,001
-529,306	26,791	0,087	-0,052
-528,291	61,613	-0,001	-0,000
-527,277	800,000	-0,031	-0,096
-526,262	800,000	0,061	-0,139
-525,248	800,000	0,018	-0,051
-524,233	-169,486	0,085	0,002
-523,218	679,902	-0,049	-0,092
-522,204	19,539	-0,109	0,063
-521,189	-42,687	-0,089	0,032
-520,175	-92,542	-0,119	-0,024
-519,160	-200,000	0,014	-0,045
-518,145	38,083	0,077	-0,049
-517,131	800,000	0,038	-0,108
-516,116	800,000	0,062	0,134
-515,102	800,000	0,039	-0,110
-514,087	-200,000	-0,036	-0,132
-513,072	44,146	-0,019	-0,013
-512,058	-15,304	-0,127	0,058
-511,043	8,401	0,018	-0,010
-510,029	495,416	-0,041	-0,067
-509,014	-124,138	0,118	0,013
-507,999	-200,000	0,003	-0,062
-506,985	153,867	0,074	-0,073
-505,970	-77,519	-0,075	-0,019
-504,956	-27,965	-0,029	0,012
-503,941	-150,221	0,066	0,004
-502,926	-200,000	0,007	-0,025
-501,912	-127,140	-0,090	-0,009
-500,897	-200,000	-0,022	0,142
-499,883	78,131	-0,065	0,050
-498,868	800,000	-0,039	-0,093
-497,853	-17,768	-0,106	-0,048
-496,839	-200,000	-0,022	-0,137
-495,824	125,290	0,012	-0,011
-494,810	-36,860	0,129	0,050
-493,795	152,877	0,050	0,049
-492,781	800,000	-0,044	-0,118
-491,766	-200,000	0,005	-0,153
-490,751	22,733	-0,072	-0,042
-489,737	-200,000	-0,015	-0,079
-488,722	-15,743	0,137	-0,062
-487,708	-200,000	-0,007	0,078
-486,693	654,481	0,084	-0,155
-485,678	-49,483	0,027	0,009
-484,664	-144,011	-0,090	0,006
-483,649	39,572	-0,100	-0,064
-482,635	-111,415	0,214	-0,031
-481,620	150,081	0,051	0,050
-480,605	-82,466	-0,087	0,020
-479,591	-83,256	0,087	0,020
-478,576	-23,240	-0,199	0,086
-477,562	800,000	-0,015	0,035
-476,547	800,000	0,024	-0,056
-475,532	-4,051	-0,193	-0,095
-474,518	163,016	-0,085	-0,086
-473,503	57,111	-0,059	-0,041
-472,489	-35,035	0,121	-0,047
-471,474	117,181	-0,034	0,030
-470,459	346,901	-0,065	-0,091
-469,445	-114,164	-0,094	-0,013
-468,430	-200,000	-0,022	-0,095
-467,416	-200,000	0,003	-0,158
-466,401	46,948	0,058	0,039
-465,386	-10,064	0,072	-0,034
-464,372	118,483	-0,074	-0,065
-463,357	-200,000	-0,002	-0,210
-462,343	-200,000	-0,014	-0,060
-461,328	261,238	-0,007	0,009
-460,313	-116,107	0,043	0,006
-459,299	362,482	-0,065	0,093
-458,284	246,978	-0,060	0,073
-457,270	-190,653	0,032	0,000
-456,255	-129,448	-0,009	-0,001
-455,241	-200,000	0,016	-0,125
-454,226	-126,257	-0,049	-0,005
-453,211	-136,875	0,055	0,004
-452,197	-51,868	0,023	0,008
-451,182	800,000	0,039	0,118
-450,168	-200,000	0,008	-0,094
-449,153	-51,651	-0,027	-0,009
-448,138	-69,982	-0,099	0,027
-447,124	-200,000	0,004	-0,067
-446,109	207,548	0,091	0,102
-445,095	-110,788	-0,086	-0,013
-444,080	-200,000	-0,020	0,124
-443,065	139,424	0,077	0,072
-442,051	249,976	-0,025	0,031
-441,036	-24,201	-0,050	-0,021
-440,022	800,000	0,027	-0,069
-439,007	129,203	0,135	-0,123
-437,992	-109,694	0,108	0,016
-436,978	374,392	0,045	-0,066
-435,963	345,686	-0,032	-0,045
-434,949	800,000	-0,053	0,108
-433,934	-62,837	0,043	0,013
-432,919	-78,102	0,054	0,013
-431,905	118,041	0,057	-0,050
-430,890	800,000	-0,027	-0,063
-429,876	487,215	-0,043	0,071
-428,861	-200,000	-0,005	0,117
-427,846	116,343	0,065	-0,057
-426,832	38,688	-0,031	-0,020
-425,817	-18,423	0,009	0,004
-424,803	-200,000	0,015	0,091
-423,788	-200,000	0,008	-0,039
-422,773	800,000	-0,017	-0,048
-421,759	44,351	-0,093	-0,061
-420,744	-200,000	0,004	-0,082
-419,730	61,767	-0,087	0,062
-418,715	19,211	0,044	-0,025
-417,701	-200,000	-0,035	0,115
-416,686	652,450	0,022	-0,040
-415,671	-200,000	-0,030	0,190
-414,657	-200,000	-0,027	0,175
-413,642	-78,472	-0,049	-0,012
-412,628	287,591	-0,043	0,056
-411,613	-200,000	0,007	-0,092
-410,598	-17,180	-0,095	-0,043
-409,584	-127,860	0,081	-0,008
-408,569	250,569	0,115	0,141
-407,555	-200,000	-0,014	0,081
-406,540	-23,947	-0,117	0,050
-405,525	-74,981	-0,042	-0,011
-404,511	800,000	-0,031	-0,081
-403,496	-58,737	-0,045	-0,014
-402,482	-200,000	-0,005	0,036
-401,467	-200,000	0,023	0,130
-400,452	792,792	-0,013	-0,026
-399,438	-200,000	-0,028	-0,112
-398,423	-141,972	-0,030	0,002
-397,409	487,190	0,110	-0,181
-396,394	192,666	-0,089	-0,096
-395,379	-200,000	-0,029	-0,141
-394,365	31,983	0,197	-0,121
-393,350	800,000	0,019	0,046
-392,336	157,125	0,035	0,034
-391,321	-69,048	0,034	0,009
-390,306	182,530	-0,165	-0,175
-389,292	-26,704	-0,135	0,056
-388,277	773,488	-0,027	0,053
-387,263	5,424	-0,071	-0,037
-386,248	-3,127	0,153	0,076
-385,233	-200,000	-0,008	0,037
-384,219	122,891	0,144	-0,129
-383,204	107,820	-0,091	-0,077
-382,190	-125,692	0,132	0,014
-381,175	-71,934	-0,072	0,019
-380,160	-91,058	0,130	-0,026
-379,146	-124,872	0,089	-0,010
-378,131	-200,000	0,001	0,057
-377,117	-122,649	-0,036	-0,004
-376,102	800,000	-0,008	0,026
-375,088	-117,342	-0,059	0,008
-374,073	35,266	-0,032	0,020
-373,058	-165,276	-0,047	-0,001
-372,044	181,733	-0,099	0,104
-371,029	-183,010	0,083	0,001
-370,015	-200,000	-0,027	-0,110
-369,000	284,436	-0,075	-0,096
-367,985	800,000	0,026	-0,059
-366,971	146,548	0,028	-0,027
-365,956	44,579	0,040	-0,026
-364,942	-53,444	0,092	0,030
-363,927	166,333	0,010	-0,010
-362,912	-11,593	-0,103	0,048
-361,898	-141,731	0,104	0,007
-360,883	800,000	0,063	-0,151
-359,869	361,313	-0,037	-0,053
-358,854	30,390	0,057	-0,035
-357,839	64,293	-0,069	-0,049
-356,825	800,000	0,038	0,084
-355,810	-200,000	-0,009	0,067
-354,796	-200,000	0,003	0,065
-353,781	15,002	-0,163	-0,091
-352,766	800,000	0,051	-0,146
-351,752	578,771	0,004	-0,007
-350,737	28,083	0,077	-0,046
-349,723	800,000	-0,018	-0,043
-348,708	254,008	0,039	0,047
-347,693	-200,000	0,019	-0,112
-346,679	297,388	0,022	-0,028
-345,664	-127,447	-0,075	-0,008
-344,650	-60,466	-0,085	-0,026
-343,635	-136,774	0,036	0,003
-342,620	79,326	0,068	0,052
-341,606	105,335	0,153	0,129
-340,591	99,492	0,008	-0,006
-339,577	800,000	0,041	-0,108
-338,562	-107,452	-0,033	0,005
-337,548	206,333	-0,061	0,068
-336,533	-139,621	-0,080	-0,006
-335,518	152,166	0,049	-0,047
-334,504	800,000	-0,037	0,100
-333,489	-200,000	0,009	0,055
-332,475	-138,151	-0,145	0,011
-331,460	-200,000	0,022	-0,086
-330,445	61,457	0,104	-0,073
-329,431	188,124	0,038	0,041
-328,416	265,471	0,041	0,051
-327,402	-200,000	-0,038	-0,166
-326,387	-32,708	0,055	-0,022
-325,372	458,337	-0,050	0,080
-324,358	92,615	0,081	-0,065
-323,343	800,000	0,011	-0,026
-322,329	212,521	0,055	-0,061
-321,314	-200,000	-0,016	0,173
-320,299	19,352	-0,111	-0,063
-319,285	-38,439	0,140	-0,053
-318,270	-200,000	0,016	0,051
-317,256	800,000	0,022	-0,066
-316,241	-181,800	-0,223	0,003
-315,226	136,126	-0,060	0,055
-314,212	-200,000	-0,007	0,079
-313,197	746,236	0,017	0,032
-312,183	-200,000	0,010	0,079
-311,168	-150,584	-0,008	0,000
-310,153	-102,690	-0,134	-0,023
-309,139	-39,668	0,095	0,035
-308,124	-171,601	0,078	0,002
-307,110	-103,437	0,072	0,012
-306,095	-105,425	-0,125	0,020
-305,080	800,000	0,016	-0,047
-304,066	800,000	0,041	-0,086
-303,051	-200,000	0,004	0,052
-302,037	49,851	-0,067	-0,045
-301,022	-14,016	-0,102	0,047
-300,008	20,602	0,085	0,049
-298,993	-96,256	0,091	-0,017
-297,978	-200,000	0,007	0,067
-296,964	603,677	-0,025	-0,044
-295,949	-200,000	-0,004	-0,038
-294,935	90,646	-0,070	0,056
-293,920	-200,000	-0,001	0,042
-292,905	-200,000	0,033	-0,169
-291,891	800,000	0,041	-0,116
-290,876	-11,534	0,082	0,038
-289,862	800,000	0,013	0,036
-288,847	-57,786	-0,069	0,021
-287,832	-200,000	0,011	0,050
-286,818	538,926	0,091	-0,154
-285,803	445,152	0,027	-0,042
-284,789	800,000	0,022	-0,067
-283,774	-106,640	-0,025	0,004
-282,759	-45,455	-0,068	0,024
-281,745	265,008	-0,104	-0,129
-280,730	-130,842	-0,041	-0,004
-279,716	532,218	0,035	-0,059
-278,701	325,939	-0,026	-0,035
-277,686	180,006	0,070	0,073
-276,672	-200,000	0,022	0,083
-275,657	-27,175	0,106	0,044
-274,643	-116,540	0,063	0,008
-273,628	-57,717	0,046	-0,014
-272,613	-132,093	0,107	0,010
-271,599	-117,784	0,145	-0,018
-270,584	-200,000	-0,007	0,034
-269,570	675,233	0,044	0,082
-268,555	393,060	-0,044	0,065
-267,540	653,029	0,059	-0,109
-266,526	-117,313	-0,053	0,007
-265,511	-200,000	0,023	-0,093
-264,497	-101,835	-0,072	0,012
-263,482	-126,366	0,183	0,019
-262,467	-200,000	-0,051	-0,177
-261,453	-200,000	-0,002	0,051
-260,438	-200,000	-0,019	-0,107
-259,424	-200,000	0,024	0,106
-258,409	-200,000	0,033	0,154
-257,395	264,492	0,074	0,091
-256,380	384,918	-0,064	0,094
-255,365	96,153	0,050	0,040
-254,351	178,907	-0,092	-0,096
-253,336	-200,000	0,005	0,166
-252,322	623,623	0,053	-0,095
-251,307	-162,463	-0,089	-0,003
-250,292	-80,741	0,045	0,010
-249,278	50,196	0,071	0,048
-248,263	-174,093	0,142	-0,003
-247,249	26,178	0,065	0,038
-246,234	411,098	0,014	0,022
-245,219	-200,000	-0,036	0,144
-244,205	800,000	0,017	0,050
-243,190	62,131	-0,053	0,037
-242,176	-200,000	-0,018	0,131
-241,161	6,638	0,087	0,046
-240,146	-200,000	-0,018	0,098
-239,132	50,283	-0,055	0,037
-238,117	227,916	-0,082	0,095
-237,103	-200,000	0,002	0,027
-236,088	-122,345	0,124	0,014
-235,073	-75,460	0,136	0,034
-234,059	800,000	-0,061	0,151
-233,044	-97,240	0,044	-0,008
-232,030	-200,000	-0,009	0,050
-231,015	800,000	-0,018	-0,043
-230,000	114,887	-0,108	-0,093
-228,986	22,264	0,090	0,052
-227,971	-137,815	-0,035	0,003
-226,957	68,669	-0,062	-0,045
-225,942	39,313	0,053	-0,033
-224,927	21,504	-0,048	-0,028
-223,913	-151,610	-0,074	0,004
-222,898	-45,222	-0,114	-0,040
-221,884	-179,520	-0,120	-0,002
-220,869	800,000	-0,012	-0,026
-219,855	79,064	-0,151	-0,115
-218,840	686,267	0,091	0,169
-217,825	-200,000	0,016	-0,064
-216,811	269,897	0,035	0,044
-215,796	78,925	-0,017	0,013
-214,782	592,897	0,017	-0,030
-213,767	800,000	0,068	0,198
-212,752	-84,150	-0,028	0,006
-211,738	245,986	0,052	-0,062
-210,723	787,587	-0,110	0,216
-209,709	-17,867	-0,084	0,037
-208,694	-45,138	-0,072	-0,025
-207,679	-59,268	-0,083	-0,025
-206,665	-200,000	0,003	0,167
-205,650	-200,000	0,011	0,121
-204,636	-200,000	-0,001	-0,015
-203,621	800,000	0,040	-0,080
-202,606	178,646	-0,021	-0,022
-201,592	571,464	-0,081	0,141
-200,577	46,567	0,109	-0,072
-199,563	-200,000	-0,005	0,122
-198,548	-36,476	0,067	0,025
-197,533	-200,000	0,012	0,103
-196,519	-122,369	-0,113	0,013
-195,504	800,000	-0,040	-0,087
-194,490	-84,961	0,082	-0,018
-193,475	-200,000	0,007	0,060
-192,460	-200,000	-0,004	-0,093
-191,446	147,481	0,115	0,110
-190,431	-200,000	-0,006	0,046
-189,417	40,865	-0,102	-0,065
-188,402	213,633	0,043	0,048
-187,387	733,852	-0,050	-0,095
-186,373	-95,689	-0,211	-0,040
-185,358	-131,676	-0,008	0,001
-184,344	77,750	0,074	0,056
-183,329	800,000	0,031	-0,076
-182,315	-200,000	-0,009	0,079
-181,300	-200,000	-0,008	-0,059
-180,285	409,734	-0,060	-0,090
-179,271	46,902	0,118	-0,077
-178,256	800,000	0,041	0,111
-177,242	-200,000	0,001	0,071
-176,227	800,000	0,062	0,142
-175,212	-200,000	-0,004	0,039
-174,198	800,000	0,047	0,143
-173,183	-134,346	-0,078	-0,007
-172,169	-200,000	0,027	0,089
-171,154	-200,000	-0,033	0,128
-170,139	800,000	0,043	-0,101
-169,125	436,814	0,039	0,061
-168,110	499,935	-0,035	0,058
-167,096	-10,488	0,092	0,043
-166,081	676,668	-0,020	0,037
-165,066	-190,421	-0,141	-0,001
-164,052	-200,000	0,006	-0,046
-163,037	800,000	-0,036	0,082
-162,023	36,558	-0,032	0,020
-161,008	-5,937	0,206	0,099
-159,993	-107,196	-0,094	0,015
-158,979	-200,000	-0,044	0,143
-157,964	800,000	-0,016	-0,032
-156,950	47,789	0,015	0,010
-155,935	-123,578	-0,045	-0,005
-154,920	-102,137	-0,047	-0,008
-153,906	98,481	0,106	0,086
-152,891	43,490	-0,155	0,100
-151,877	136,819	0,052	0,048
-150,862	800,000	-0,026	0,051
-149,847	-200,000	0,016	-0,056
-148,833	273,920	0,063	-0,079
-147,818	-69,520	-0,091	0,024
-146,804	153,125	0,138	0,133
-145,789	800,000	0,051	0,138
-144,775	800,000	0,051	-0,154
-143,760	-200,000	-0,040	-0,138
-142,745	-200,000	0,017	-0,058
-141,731	547,124	0,030	0,052
-140,716	800,000	-0,030	0,074
-139,702	107,938	0,073	0,062
-138,687	-46,531	-0,082	0,028
-137,672	800,000	0,009	-0,022
-136,658	-55,902	-0,171	-0,054
-135,643	455,176	0,086	-0,135
-134,629	-122,825	0,062	0,007
-133,614	-200,000	0,011	0,052
-132,599	-200,000	0,033	0,163
-131,585	-200,000	-0,046	0,166
-130,570	-45,821	0,030	-0,010
-129,556	-200,000	0,028	0,097
-128,541	214,989	0,035	0,040
-127,526	20,873	-0,101	-0,057
-126,512	-200,000	0,011	0,041
-125,497	38,157	0,055	-0,034
-124,483	375,575	-0,057	0,083
-123,468	-90,704	0,039	-0,008
-122,453	800,000	-0,032	-0,070
-121,439	-21,118	0,011	-0,005
-120,424	-200,000	-0,017	0,130
-119,410	-24,719	-0,162	0,068
-118,395	-200,000	-0,008	0,146
-117,380	52,764	-0,105	-0,071
-116,366	-116,618	0,117	-0,015
-115,351	662,844	-0,045	-0,083
-114,337	10,584	-0,178	0,095
-113,322	-36,581	-0,096	-0,036
-112,307	142,020	-0,050	-0,047
-111,293	-112,807	-0,110	0,015
-110,278	315,880	0,026	0,034
-109,264	-200,000	0,004	0,103
-108,249	64,258	-0,062	-0,044
-107,234	-4,367	-0,060	-0,029
-106,220	106,274	-0,097	-0,081
-105,205	-200,000	-0,015	-0,053
-104,191	-93,125	-0,027	-0,005
-103,176	-200,000	-0,012	-0,038
-102,162	173,289	0,035	0,036
-101,147	67,186	-0,140	0,101
-100,132	800,000	0,049	-0,118
-99,118	-200,000	0,011	0,122
-98,103	9,981	-0,077	-0,041
-97,089	800,000	0,055	0,118
-96,074	258,339	0,031	-0,038
-95,059	543,371	0,006	-0,010
-94,045	800,000	-0,018	-0,053
-93,030	-200,000	0,004	-0,045
-92,016	10,282	0,063	0,034
-91,001	-20,960	-0,099	-0,043
-89,986	-200,000	0,013	-0,071
-88,972	138,746	-0,022	0,020
-87,957	-16,420	0,081	-0,036
-86,943	203,552	0,037	0,041
-85,928	46,721	-0,110	-0,072
-84,913	569,014	-0,035	-0,061
-83,899	260,654	-0,031	0,038
-82,884	53,177	0,075	0,051
-81,870	185,757	0,059	0,062
-80,855	-200,000	-0,020	-0,081
-79,840	-82,444	0,093	-0,021
-78,826	-200,000	-0,006	-0,098
-77,811	352,273	0,043	-0,060
-76,797	100,327	-0,034	0,028
-75,782	-40,516	-0,060	0,022
-74,767	239,299	0,085	0,100
-73,753	-200,000	0,004	-0,083
-72,738	71,681	0,052	0,038
-71,724	240,700	0,081	-0,095
-70,709	51,311	-0,181	-0,121
-69,694	-200,000	-0,003	-0,020
-68,680	329,301	0,016	-0,021
-67,665	-78,836	0,054	-0,013
-66,651	335,559	0,047	0,065
-65,636	-96,215	0,112	0,021
-64,622	-12,671	-0,044	0,020
-63,607	-200,000	-0,018	-0,072
-62,592	191,411	0,057	0,061
-61,578	74,231	-0,024	-0,018
-60,563	146,974	-0,059	-0,056
-59,549	-200,000	-0,027	0,142
-58,534	89,145	-2,095	-1,645
-57,519	550,054	-1,072	-1,820
-56,505	-200,000	-0,397	-4,348
-55,490	764,985	0,873	1,681
-54,476	800,000	5,324	11,539
-53,461	-200,000	22,547	347,074
-52,446	800,000	757,529	2284,364
-51,432	529,922	1641,654	2745,569
-50,417	67,293	1640,057	1178,542
-49,403	15,437	1517,811	838,029
-48,388	9,659	1444,174	769,652
-47,373	19,286	1437,317	811,796
-46,359	13,170	1425,786	776,420
-45,344	7,926	1421,518	749,291
-44,330	7,894	1419,627	748,113
-43,315	7,927	1417,731	747,240
-42,300	7,884	1415,995	746,094
-41,286	7,992	1414,687	745,880
-40,271	7,888	1413,474	744,723
-39,257	7,865	1412,513	744,080
-38,242	7,902	1411,401	743,638
-37,227	7,891	1410,224	742,937
-36,213	7,916	1408,861	742,305
-35,198	7,902	1407,591	741,542
-34,184	7,953	1406,797	741,332
-33,169	7,863	1405,308	740,100
-32,154	7,864	1404,626	739,716
-31,140	7,851	1403,347	738,953
-30,125	7,942	1401,980	738,624
-29,111	7,866	1401,070	737,762
-28,096	7,904	1399,838	737,261
-27,082	7,811	1398,783	736,245
-26,067	7,816	1397,503	735,566
-25,052	7,836	1396,563	735,133
-24,038	7,871	1395,541	734,730
-23,023	7,815	1394,609	733,951
-22,009	7,794	1393,634	733,309
-20,994	7,807	1392,486	732,737
-19,979	7,805	1391,755	732,313
-18,965	7,761	1390,789	731,575
-17,950	7,752	1389,838	731,001
-16,936	7,723	1389,000	730,398
-15,921	7,681	1387,998	729,647
-14,906	7,761	1386,906	729,413
-13,892	7,771	1385,871	728,887
-12,877	7,755	1385,155	728,407
-11,863	7,739	1384,452	727,934
-10,848	7,732	1383,421	727,334
-9,833	7,671	1382,592	726,587
-8,819	7,647	1381,837	726,052
-7,804	7,655	1380,725	725,477
-6,790	7,655	1379,835	724,980
-5,775	7,650	1378,801	724,382
-4,760	7,594	1377,917	723,634
-3,746	7,615	1377,074	723,256
-2,731	7,685	1376,024	722,998
-1,717	7,634	1375,337	722,375
-0,702	7,621	1373,585	721,367
0,313	11,554	1283,534	691,879
1,327	27,082	675,629	398,728
2,342	42,099	116,098	74,157
3,356	-2,338	16,576	8,164
4,371	7,667	3,846	2,023
5,386	22,606	1,385	0,797
6,400	316,096	0,455	0,606
7,415	37,638	-0,222	-0,138
8,429	60,494	-0,307	-0,214
9,444	14,634	-0,306	-0,168
10,459	-44,898	-0,365	-0,127
11,473	194,950	-0,229	-0,246
12,488	33,726	-0,267	-0,163
13,502	24,893	-0,324	-0,189
14,517	102,202	-0,281	-0,231
15,531	-48,811	-0,433	-0,145
16,546	4,365	-0,260	-0,134
17,561	32,547	-0,363	-0,220
18,575	143,267	-0,098	0,092
19,590	6,374	-0,269	-0,140
20,604	-73,138	-0,252	-0,065
21,619	24,106	-0,439	-0,254
22,634	29,998	-0,412	-0,247
23,648	53,437	-0,465	-0,313
24,663	144,947	-0,411	-0,387
25,677	77,850	-0,269	-0,202
26,692	95,254	-0,384	-0,307
27,707	107,500	-0,228	-0,191
28,721	-50,703	-0,452	-0,149
29,736	-32,016	-0,487	-0,191
30,750	155,178	-0,400	-0,387
31,765	82,397	-0,402	-0,306
32,780	55,615	-0,362	-0,246
33,794	20,093	-0,349	-0,198
34,809	-24,115	-0,303	-0,127
35,823	66,171	-0,441	-0,314
36,838	22,702	-0,328	-0,188
37,853	56,719	-0,373	-0,254
38,867	451,183	-0,179	-0,278
39,882	92,366	-0,415	-0,328
40,896	15,560	-0,402	-0,222
41,911	65,916	-0,320	-0,227
42,926	-61,407	-0,345	-0,101
43,940	154,230	-0,366	-0,353
44,955	-15,409	-0,388	-0,173
45,969	113,383	-0,338	-0,288
46,984	-54,130	-0,355	-0,113
47,999	97,840	-0,323	-0,261
49,013	124,471	-0,276	-0,244
50,028	173,109	-0,208	-0,210
51,042	1,053	-0,354	-0,178
52,057	7,995	-0,310	-0,163
53,071	69,297	-0,387	-0,279
54,086	3,577	-0,367	-0,187
55,101	28,788	-0,415	-0,246
56,115	-125,014	-0,345	-0,037
57,130	34,920	-0,304	-0,186
58,144	112,355	-0,338	-0,287
59,159	-60,490	-0,495	-0,147
60,174	-92,634	-0,449	-0,088
61,188	35,490	-0,317	-0,195
62,203	-75,529	-0,418	-0,103
63,217	-38,857	-0,367	-0,135
64,232	82,024	-0,331	-0,251
65,247	36,726	-0,261	-0,161
66,261	160,863	-0,269	-0,263
67,276	30,070	-0,356	-0,212
68,290	69,820	-0,251	-0,181
69,305	255,976	-0,161	-0,194
70,320	-6,847	-0,310	-0,147
71,334	9,689	-0,325	-0,172
72,349	27,710	-0,342	-0,201
73,363	-22,128	-0,389	-0,165
74,378	7,416	-0,367	-0,192
75,393	-1,788	-0,262	-0,129
76,407	-34,730	-0,320	-0,122
77,422	-81,375	-0,211	-0,048
78,436	62,948	-0,248	-0,174
79,451	-30,898	-0,452	-0,178
80,466	-58,373	-0,379	-0,115
81,480	81,582	-0,239	-0,181
82,495	-37,949	-0,311	-0,115
83,509	86,502	-0,288	-0,222
84,524	101,977	-0,295	-0,241
85,539	48,741	-0,202	-0,133
86,553	6,072	-0,218	-0,113
87,568	-72,577	-0,367	-0,094
88,582	131,052	-0,159	-0,143
89,597	17,667	-0,317	-0,176
90,611	20,840	-0,319	-0,180
91,626	18,554	-0,237	-0,132
92,641	136,459	-0,246	-0,224
93,655	-40,421	-0,219	-0,079
94,670	123,855	-0,247	-0,217
95,684	141,211	-0,110	-0,102
96,699	-7,646	-0,446	-0,210
97,714	323,532	-0,252	-0,337
98,728	118,415	-0,269	-0,232
99,743	5,591	-0,244	-0,126
100,757	-7,639	-0,280	-0,132
101,772	-123,894	-0,282	-0,031
102,787	38,908	-0,319	-0,199
103,801	32,123	-0,243	-0,146
104,816	39,276	-0,201	-0,125
105,830	5,479	-0,213	-0,110
106,845	66,603	-0,166	-0,118
107,860	42,195	-0,315	-0,200
108,874	17,431	-0,310	-0,171
109,889	-29,880	-0,403	-0,159
110,903	181,547	-0,107	-0,110
111,918	31,000	-0,400	-0,239
112,933	280,771	-0,183	-0,229
113,947	296,765	-0,212	-0,272
114,962	-51,886	-0,265	-0,086
115,976	-102,232	-0,335	-0,056
116,991	53,512	-0,299	-0,200
118,006	-29,308	-0,433	-0,172
119,020	58,003	-0,185	-0,126
120,035	160,379	-0,207	-0,202
121,049	17,419	-0,270	-0,149
122,064	276,587	-0,192	-0,238
123,079	131,536	-0,210	-0,188
124,093	120,516	-0,268	-0,233
125,108	84,484	-0,187	-0,142
126,122	-169,721	-0,186	-0,005
127,137	-65,586	-0,172	-0,048
128,151	-0,634	-0,431	-0,213
129,166	57,319	-0,098	-0,066
130,181	132,731	-0,216	-0,194
131,195	246,782	-0,237	-0,279
132,210	31,354	-0,139	-0,083
133,224	108,482	-0,274	-0,228
134,239	295,654	-0,184	-0,236
135,254	273,734	-0,227	-0,281
136,268	155,006	-0,262	-0,251
137,283	15,065	-0,242	-0,131
138,297	43,008	-0,261	-0,166
139,312	35,569	-0,405	-0,247
140,327	45,377	-0,329	-0,211
141,341	75,982	-0,188	-0,138
142,356	224,365	-0,169	-0,190
143,370	-27,756	-0,275	-0,111
144,385	180,653	-0,150	-0,153
145,400	64,449	-0,360	-0,252
146,414	240,674	-0,217	-0,253
147,429	24,738	-0,337	-0,194
148,443	-100,254	-0,222	0,038
149,458	-41,022	-0,242	-0,086
150,473	-67,510	-0,122	-0,033
151,487	131,943	-0,209	-0,188
152,502	44,787	-0,247	-0,158
153,516	7,527	-0,289	-0,150
154,531	6,048	-0,326	-0,168
155,546	-96,457	-0,187	0,034
156,560	-90,390	-0,161	-0,032
157,575	108,708	-0,160	-0,133
158,589	132,899	-0,195	-0,175
159,604	800,000	-0,103	-0,305
160,619	5,916	-0,270	-0,138
161,633	337,293	-0,211	-0,286
162,648	177,336	-0,114	-0,115
163,662	4,231	-0,174	-0,088
164,677	-10,840	-0,136	-0,062
165,692	131,609	-0,140	-0,126
166,706	-44,514	-0,263	-0,091
167,721	-72,988	-0,211	-0,054
168,735	73,729	-0,211	-0,153
169,750	-37,786	-0,326	-0,120
170,764	-74,039	-0,233	-0,058
171,779	800,000	-0,104	-0,203
172,794	429,002	-0,132	-0,199
173,808	-129,271	-0,329	-0,031
174,823	-47,162	-0,314	-0,106
175,837	196,986	-0,278	-0,295
176,852	297,239	-0,167	-0,214
177,867	249,636	-0,154	-0,181
178,881	275,904	-0,095	-0,117
179,896	80,115	-0,062	-0,047
180,910	-5,661	-0,233	-0,110
181,925	-46,560	-0,309	-0,105
182,940	264,964	-0,139	-0,168
183,954	178,324	-0,243	-0,247
184,969	115,789	-0,163	-0,138
185,983	27,609	-0,253	-0,147
186,998	102,792	-0,211	-0,172
188,013	184,772	-0,150	-0,154
189,027	165,777	-0,262	-0,257
190,042	245,514	-0,213	-0,249
191,056	-129,358	-0,274	-0,026
192,071	671,765	-0,089	-0,161
193,086	-87,247	-0,228	-0,048
194,100	417,053	-0,099	-0,148
195,115	74,327	-0,156	-0,113
196,129	-200,000	-0,061	-0,210
197,144	800,000	-0,160	-0,329
198,159	-163,729	-0,165	-0,005
199,173	-180,443	-0,243	0,003
200,188	19,787	-0,162	-0,090
201,202	88,730	-0,099	0,076
202,217	-77,055	-0,198	-0,048
203,232	31,785	-0,225	-0,134
204,246	156,662	-0,232	-0,222
205,261	200,224	-0,184	-0,196
206,275	478,627	-0,124	-0,196
207,290	-73,225	-0,316	-0,079
208,304	31,512	-0,130	0,077
209,319	221,075	-0,124	-0,138
210,334	800,000	-0,095	-0,268
211,348	79,891	-0,281	-0,209
212,363	133,949	-0,233	-0,209
213,377	321,118	-0,152	-0,200
214,392	-108,894	-0,229	-0,033
215,407	-178,791	-0,172	0,003
216,421	19,023	-0,225	-0,125
217,436	-200,000	-0,053	-0,184
218,450	210,425	-0,239	-0,260
219,465	37,678	-0,185	-0,113
220,480	-96,152	-0,191	-0,035
221,494	-106,503	-0,290	0,044
222,509	468,199	-0,212	-0,329
223,523	592,568	-0,140	-0,240
224,538	57,050	-0,207	-0,139
225,553	64,840	-0,161	-0,112
226,567	-147,543	-0,377	0,022
227,582	-54,834	-0,295	-0,092
228,596	691,674	-0,084	-0,154
229,611	800,000	-0,095	-0,191
230,626	-200,000	-0,024	-0,162
231,640	-124,025	-0,199	-0,021
232,655	-14,760	-0,241	-0,106
233,669	184,673	-0,129	-0,132
234,684	63,620	-0,133	-0,092
235,699	-100,422	-0,267	-0,045
236,713	-0,096	-0,065	-0,032
237,728	-184,562	-0,223	-0,002
238,742	-38,961	-0,138	-0,050
239,757	80,435	-0,181	-0,134
240,772	148,652	-0,221	-0,206
241,786	-53,149	-0,181	-0,057
242,801	-35,131	-0,170	0,064
243,815	-2,409	-0,191	-0,092
244,830	-200,000	0,011	-0,199
245,844	80,888	-0,165	-0,123
246,859	284,025	-0,208	-0,258
247,874	-59,094	-0,293	0,087
248,888	524,542	-0,105	-0,171
249,903	273,930	-0,199	-0,244
250,917	-17,867	0,025	-0,011
251,932	-200,000	-0,202	-0,000
252,947	157,345	-0,055	-0,053
253,961	-82,877	-0,144	-0,032
254,976	304,667	-0,187	-0,240
255,990	49,755	-0,296	-0,192
257,005	-129,383	-0,279	-0,026
258,020	-86,017	-0,175	0,037
259,034	34,390	-0,226	-0,136
260,049	124,426	-0,223	-0,193
261,063	-9,206	-0,178	-0,082
262,078	-130,943	-0,175	-0,016
263,093	56,424	-0,250	-0,167
264,107	168,904	-0,149	-0,146
265,122	-119,175	-0,193	-0,023
266,136	423,292	-0,072	-0,107
267,151	-135,858	-0,283	-0,023
268,166	-200,000	-0,057	-0,188
269,180	-52,960	-0,169	-0,053
270,195	-28,811	-0,200	-0,079
271,209	-92,076	-0,221	-0,043
272,224	334,493	-0,138	-0,185
273,239	401,048	-0,042	-0,060
274,253	-57,633	-0,142	0,042
275,268	91,179	-0,125	-0,097
276,282	104,818	-0,169	-0,137
277,297	53,379	-0,087	-0,057
278,312	-17,780	-0,176	-0,076
279,326	-76,611	-0,143	-0,034
280,341	800,000	-0,073	-0,206
281,355	298,234	-0,129	-0,163
282,370	57,580	-0,153	-0,103
283,384	118,878	-0,175	-0,149
284,399	420,141	-0,140	-0,207
285,414	54,709	-0,138	-0,092
286,428	404,297	-0,099	-0,144
287,443	46,169	-0,081	-0,052
288,457	65,451	-0,224	-0,155
289,472	101,556	-0,209	-0,167
290,487	258,495	-0,240	-0,285
291,501	800,000	-0,073	-0,182
292,516	-5,660	-0,043	0,020
293,530	487,369	-0,115	-0,181
294,545	286,297	-0,092	-0,114
295,560	-21,289	-0,116	-0,049
296,574	116,817	-0,097	-0,082
297,589	42,404	-0,136	-0,085
298,603	513,136	-0,112	-0,179
299,618	800,000	-0,086	-0,182
300,633	-31,252	-0,135	-0,052
301,647	641,977	-0,097	-0,171
302,662	243,228	-0,095	0,110
303,676	-74,798	-0,211	-0,052
304,691	-71,673	-0,160	0,041
305,706	-100,522	-0,237	-0,040
306,720	361,012	-0,081	-0,112
307,735	-114,331	-0,144	-0,019
308,749	-200,000	0,025	-0,115
309,764	53,955	-0,179	-0,118
310,779	430,571	-0,090	-0,134
311,793	-166,314	-0,188	0,005
312,808	-19,953	-0,241	-0,102
313,822	361,766	-0,114	-0,158
314,837	49,459	-0,179	-0,115
315,852	65,919	-0,135	-0,094
316,866	-200,000	-0,050	-0,174
317,881	135,019	-0,114	-0,101
318,895	187,046	-0,114	-0,116
319,910	113,460	-0,225	-0,187
320,925	-200,000	-0,037	-0,222
321,939	-82,475	-0,142	-0,031
322,954	118,970	-0,156	-0,132
323,968	261,149	-0,095	-0,113
324,983	56,605	-0,157	-0,105
325,997	264,897	-0,073	-0,088
327,012	126,238	-0,121	-0,105
328,027	-43,093	-0,143	0,049
329,041	-200,000	-0,033	-0,145
330,056	-2,415	-0,129	-0,062
331,070	-121,567	-0,131	-0,015
332,085	7,303	-0,085	0,043
333,100	28,197	-0,230	-0,133
334,114	137,357	-0,055	-0,050
335,129	-80,934	-0,101	-0,023
336,143	-73,851	-0,245	-0,060
337,158	-200,000	-0,001	-0,014
338,173	-148,410	-0,134	-0,007
339,187	651,743	0,013	0,023
340,202	83,725	-0,054	-0,040
341,216	278,770	-0,123	-0,150
342,231	11,218	-0,202	-0,106
343,246	-173,534	-0,238	-0,005
344,260	122,156	-0,091	-0,078
345,275	189,951	-0,103	-0,105
346,289	-200,000	0,013	-0,110
347,304	-131,324	-0,051	-0,005
348,319	337,590	-0,044	-0,059
349,333	-200,000	-0,032	-0,128
350,348	16,363	-0,149	-0,080
351,362	-160,794	-0,187	0,007
352,377	-98,939	-0,051	-0,009
353,392	-2,593	-0,098	0,047
354,406	88,233	-0,117	-0,089
355,421	207,642	1307,811	1396,908
356,435	159,741	1467,622	1397,342
