DTS Sentinel unit serial number:	SN410029Multiplexer serial number:	ORYXHardware model number:	OX2-SRSoftware version number:	ORYX F/W v4,00 Oryx Data Collector v3.7.2.0data status	okinstallation	B3 Nyhavnadifferential loss correction	single-endedforward channel	channel 1reverse channel	N/Adate	2023/11/30time	22:32:30forward acquisition time	300,00reverse acquisition time	0,00gamma	499,1914k internal	0,3210k external	0,3210temperature offset calibration	1,0000default loss term (dB/km)	0,3820temperature slope calibration	1,0000multiplexer offset coefficient	1,0000multiplexer slope coefficient	1,0000fibre end	0,00T internal ref (°C)	10,04T ext. ref 1 (°C)	-5,03T ext. ref 2 (°C)	-5,17length (m)	temperature (°C)	Stokes	anti-Stokes-744,400	389,009	-0,138	-0,207
-743,385	-200,000	0,048	0,317
-742,371	800,000	0,029	-0,064
-741,356	-200,000	0,044	0,380
-740,342	39,926	-0,261	-0,170
-739,327	800,000	-0,123	0,248
-738,312	760,558	-0,155	-0,305
-737,298	798,653	-0,121	0,244
-736,283	-200,000	-0,028	-0,110
-735,269	-200,000	0,006	0,399
-734,254	-18,535	-0,252	-0,114
-733,239	-94,601	-0,210	0,041
-732,225	243,257	-0,144	-0,176
-731,210	678,425	0,078	0,148
-730,196	-200,000	0,029	0,153
-729,181	19,857	-0,177	0,103
-728,167	316,954	0,033	0,045
-727,152	699,660	-0,010	-0,020
-726,137	-118,183	-0,154	0,020
-725,123	-104,135	-0,191	-0,032
-724,108	800,000	-0,041	-0,132
-723,094	130,564	-0,124	-0,116
-722,079	-131,875	-0,013	0,001
-721,064	239,219	0,064	-0,077
-720,050	-200,000	-0,008	-0,104
-719,035	-186,501	-0,110	0,001
-718,021	-200,000	0,018	0,129
-717,006	-200,000	-0,029	-0,142
-715,991	-134,126	0,092	0,008
-714,977	-200,000	-0,013	-0,064
-713,962	-187,294	-0,133	-0,001
-712,948	321,784	-0,024	0,033
-711,933	242,632	-0,045	-0,054
-710,918	-200,000	-0,014	0,105
-709,904	-7,075	-0,115	0,057
-708,889	193,699	-0,080	-0,088
-707,875	-10,113	-0,085	-0,041
-706,860	-200,000	0,001	0,086
-705,845	-63,245	0,063	-0,019
-704,831	-144,082	0,043	-0,003
-703,816	-200,000	0,028	-0,117
-702,802	-200,000	-0,004	0,029
-701,787	370,404	0,082	-0,121
-700,772	31,781	-0,108	-0,067
-699,758	66,297	0,133	-0,098
-698,743	-200,000	0,069	0,238
-697,729	-200,000	-0,032	0,143
-696,714	28,462	0,005	0,003
-695,699	-200,000	-0,001	0,074
-694,685	800,000	-0,065	0,139
-693,670	6,623	-0,028	0,015
-692,656	-15,695	0,047	-0,022
-691,641	-200,000	0,018	0,099
-690,627	137,994	0,065	-0,062
-689,612	-110,204	-0,092	-0,014
-688,597	-200,000	0,001	0,108
-687,583	83,426	0,074	-0,058
-686,568	236,889	-0,014	-0,016
-685,554	753,166	0,025	0,050
-684,539	590,800	0,099	0,177
-683,524	-125,317	0,047	0,005
-682,510	800,000	0,029	0,084
-681,495	-148,352	-0,165	0,010
-680,481	-136,929	-0,196	-0,016
-679,466	-148,312	-0,027	-0,002
-678,451	-64,512	0,114	0,033
-677,437	-200,000	-0,001	0,008
-676,422	93,917	0,054	0,044
-675,408	56,660	-0,195	0,137
-674,393	116,597	-0,050	-0,045
-673,378	115,497	-0,013	0,011
-672,364	77,850	-0,066	-0,051
-671,349	614,772	0,050	-0,090
-670,335	800,000	0,058	0,140
-669,320	4,610	-0,082	-0,043
-668,305	532,119	-0,031	0,053
-667,291	-33,589	0,189	0,075
-666,276	28,984	-0,143	-0,088
-665,262	-200,000	0,009	0,031
-664,247	-75,001	-0,164	0,042
-663,232	215,458	-0,033	0,037
-662,218	-100,285	0,155	0,028
-661,203	-77,488	-0,103	0,026
-660,189	-200,000	0,004	-0,019
-659,174	-200,000	-0,025	-0,083
-658,159	339,490	-0,145	-0,205
-657,145	-200,000	0,001	-0,231
-656,130	-200,000	-0,027	-0,132
-655,116	180,153	0,027	-0,028
-654,101	377,763	-0,020	0,030
-653,086	604,814	0,024	0,044
-652,072	166,046	-0,033	-0,034
-651,057	365,426	-0,039	-0,057
-650,043	67,471	0,106	0,078
-649,028	-72,716	0,049	0,013
-648,014	-200,000	0,036	-0,135
-646,999	-200,000	-0,024	0,115
-645,984	306,059	-0,041	0,056
-644,970	-200,000	-0,020	0,076
-643,955	-200,000	0,028	-0,101
-642,941	794,188	0,045	-0,090
-641,926	-200,000	-0,004	0,022
-640,911	237,045	-0,093	-0,111
-639,897	201,467	0,144	-0,161
-638,882	-124,266	0,087	0,010
-637,868	-49,504	-0,044	-0,015
-636,853	800,000	-0,044	0,123
-635,838	50,317	0,087	0,059
-634,824	-129,892	0,102	-0,010
-633,809	-1,959	0,135	0,068
-632,795	-89,190	-0,047	-0,010
-631,780	89,738	-0,064	0,052
-630,765	8,921	0,061	-0,033
-629,751	262,221	-0,040	-0,051
-628,736	-14,767	-0,112	-0,052
-627,722	-58,659	-0,072	0,022
-626,707	-200,000	0,025	0,099
-625,692	-132,936	-0,032	0,003
-624,678	-200,000	0,005	-0,043
-623,663	-200,000	-0,015	-0,061
-622,649	-200,000	-0,023	-0,097
-621,634	-200,000	0,016	-0,067
-620,619	184,592	-0,059	-0,063
-619,605	-200,000	-0,012	0,095
-618,590	478,555	0,039	0,063
-617,576	-92,607	0,115	0,023
-616,561	359,385	-0,092	0,133
-615,546	-200,000	-0,005	-0,131
-614,532	800,000	-0,054	-0,125
-613,517	-34,626	-0,121	0,048
-612,503	-3,707	-0,086	0,043
-611,488	-200,000	0,004	-0,107
-610,474	42,693	0,026	0,017
-609,459	98,161	-0,053	0,044
-608,444	-82,088	-0,132	-0,031
-607,430	-114,153	0,112	0,015
-606,415	-200,000	0,006	0,186
-605,401	30,337	-0,071	-0,044
-604,386	-20,914	0,059	-0,026
-603,371	-200,000	0,034	0,168
-602,357	27,855	-0,036	0,022
-601,342	800,000	0,090	-0,245
-600,328	-200,000	-0,010	-0,184
-599,313	64,683	0,002	0,002
-598,298	143,398	-0,091	-0,088
-597,284	199,926	-0,095	0,105
-596,269	-200,000	-0,021	0,099
-595,255	64,066	0,018	0,013
-594,240	550,449	-0,009	0,015
-593,225	-200,000	-0,014	-0,116
-592,211	-130,277	-0,031	-0,003
-591,196	-200,000	-0,014	0,102
-590,182	-97,292	0,100	-0,019
-589,167	800,000	0,030	0,065
-588,152	-200,000	0,011	0,050
-587,138	-200,000	0,016	-0,175
-586,123	473,004	-0,054	-0,087
-585,109	-200,000	0,013	-0,062
-584,094	5,540	-0,154	-0,082
-583,079	800,000	0,016	-0,035
-582,065	-82,386	-0,038	-0,009
-581,050	-51,161	-0,092	0,031
-580,036	77,405	0,018	-0,014
-579,021	-121,455	-0,035	-0,004
-578,006	182,836	0,129	-0,137
-576,992	15,014	-0,027	-0,015
-575,977	-8,693	0,045	0,022
-574,963	-41,293	0,140	0,052
-573,948	-200,000	0,038	0,123
-572,934	-93,394	0,036	0,007
-571,919	-69,311	-0,136	0,037
-570,904	-200,000	0,013	0,071
-569,890	356,771	-0,006	-0,009
-568,875	-142,280	0,004	-0,000
-567,861	-200,000	0,027	0,000
-566,846	800,000	0,084	0,186
-565,831	-200,000	-0,014	-0,062
-564,817	-200,000	-0,005	-0,111
-563,802	191,938	-0,089	-0,097
-562,788	81,886	-0,008	-0,006
-561,773	66,699	0,045	0,033
-560,758	-200,000	-0,038	-0,169
-559,744	541,791	0,058	-0,101
-558,729	-158,779	0,058	-0,002
-557,715	-157,616	0,044	0,002
-556,700	-109,405	-0,023	-0,004
-555,685	-200,000	-0,001	-0,060
-554,671	-2,784	-0,107	-0,054
-553,656	107,295	0,082	-0,070
-552,642	182,004	0,037	-0,040
-551,627	369,987	0,085	0,124
-550,612	289,098	0,017	-0,022
-549,598	-200,000	-0,032	-0,135
-548,583	56,275	-0,068	-0,047
-547,569	396,296	-0,050	0,076
-546,554	351,840	-0,023	0,033
-545,539	-104,148	-0,046	-0,008
-544,525	250,618	-0,024	0,029
-543,510	-200,000	0,011	-0,095
-542,496	19,849	-0,180	-0,104
-541,481	800,000	-0,061	-0,154
-540,466	-27,804	-0,092	0,038
-539,452	145,092	0,038	-0,037
-538,437	-200,000	-0,018	0,187
-537,423	355,075	0,067	0,096
-536,408	514,093	-0,011	0,019
-535,393	-161,053	-0,142	-0,005
-534,379	800,000	0,064	0,188
-533,364	-23,181	-0,037	0,016
-532,350	-200,000	-0,009	0,076
-531,335	-111,202	0,163	0,024
-530,321	-113,779	0,014	0,002
-529,306	-21,711	-0,064	0,028
-528,291	-200,000	0,012	0,111
-527,277	800,000	0,056	-0,138
-526,262	61,579	-0,074	-0,053
-525,248	-18,938	0,086	0,038
-524,233	-31,271	-0,178	0,072
-523,218	184,625	0,080	0,085
-522,204	422,061	0,065	0,100
-521,189	214,510	0,025	0,028
-520,175	-0,867	0,145	-0,073
-519,160	267,606	-0,050	-0,063
-518,145	97,589	0,079	0,065
-517,131	-200,000	0,021	-0,096
-516,116	536,282	0,056	0,096
-515,102	24,975	-0,088	0,052
-514,087	-200,000	-0,012	-0,083
-513,072	-129,485	0,085	0,008
-512,058	-36,671	0,029	0,011
-511,043	-78,590	0,153	-0,037
-510,029	-200,000	0,010	0,106
-509,014	372,177	0,039	0,057
-507,999	800,000	0,031	0,093
-506,985	800,000	-0,058	0,168
-505,970	800,000	-0,027	0,065
-504,956	-200,000	-0,010	0,051
-503,941	41,173	-0,058	0,038
-502,926	-200,000	0,018	0,141
-501,912	-200,000	-0,005	-0,087
-500,897	800,000	0,035	-0,083
-499,883	36,981	-0,016	0,010
-498,868	15,933	-0,122	-0,069
-497,853	800,000	-0,064	-0,168
-496,839	294,623	0,086	0,113
-495,824	232,853	-0,036	0,043
-494,810	-200,000	-0,015	0,126
-493,795	800,000	-0,007	0,020
-492,781	347,855	0,044	-0,062
-491,766	-143,910	-0,150	-0,010
-490,751	-58,696	-0,063	0,020
-489,737	276,644	-0,034	-0,043
-488,722	800,000	0,043	0,088
-487,708	800,000	-0,020	0,062
-486,693	84,314	0,065	0,051
-485,678	-24,762	-0,081	0,034
-484,664	137,311	-0,024	-0,022
-483,649	-89,280	-0,220	-0,046
-482,635	-200,000	-0,008	-0,027
-481,620	-200,000	-0,027	0,120
-480,605	-48,981	0,109	0,037
-479,591	669,693	-0,029	0,054
-478,576	-200,000	0,010	-0,034
-477,562	-113,511	0,052	-0,007
-476,547	800,000	-0,023	-0,057
-475,532	194,466	0,067	-0,073
-474,518	248,839	-0,023	0,028
-473,503	-66,567	0,113	-0,032
-472,489	634,126	0,020	0,037
-471,474	-26,177	0,105	0,044
-470,459	40,718	0,066	-0,043
-469,445	-200,000	0,002	-0,104
-468,430	-44,544	-0,191	-0,068
-467,416	4,359	0,105	-0,055
-466,401	16,915	0,082	0,047
-465,386	107,249	0,085	0,073
-464,372	-50,887	-0,128	0,043
-463,357	-168,961	0,143	-0,004
-462,343	576,339	-0,081	-0,142
-461,328	684,321	-0,055	-0,103
-460,313	52,075	0,046	0,031
-459,299	11,433	-0,054	-0,030
-458,284	-200,000	0,030	0,149
-457,270	23,337	0,034	-0,020
-456,255	346,474	-0,066	-0,093
-455,241	385,118	-0,050	-0,074
-454,226	30,731	0,058	-0,036
-453,211	25,842	-0,035	0,021
-452,197	468,874	-0,019	0,031
-451,182	418,171	-0,043	0,067
-450,168	-92,988	-0,052	-0,010
-449,153	500,888	0,069	0,115
-448,138	-66,673	-0,102	-0,029
-447,124	-157,232	-0,054	0,002
-446,109	-200,000	0,007	-0,026
-445,095	91,995	0,032	-0,026
-444,080	277,597	0,076	0,097
-443,065	-200,000	0,003	-0,053
-442,051	-107,534	-0,049	-0,008
-441,036	-169,866	0,048	0,001
-440,022	78,032	-0,096	-0,073
-439,007	-4,852	-0,028	0,014
-437,992	800,000	0,049	0,129
-436,978	-200,000	-0,047	0,224
-435,963	-17,860	-0,075	-0,034
-434,949	-161,215	-0,039	0,001
-433,934	-168,822	0,046	0,001
-432,919	800,000	-0,034	-0,096
-431,905	-200,000	0,017	-0,129
-430,890	159,627	-0,036	-0,036
-429,876	167,386	0,023	-0,024
-428,861	47,132	-0,016	-0,011
-427,846	319,972	-0,096	-0,131
-426,832	192,153	-0,105	-0,113
-425,817	-200,000	-0,059	-0,240
-424,803	249,095	0,106	-0,128
-423,788	800,000	0,031	0,075
-422,773	800,000	-0,046	-0,110
-421,759	245,426	0,096	0,116
-420,744	56,738	-0,018	-0,012
-419,730	-200,000	0,026	0,103
-418,715	15,709	-0,056	0,032
-417,701	537,543	0,047	-0,079
-416,686	-200,000	-0,016	0,141
-415,671	-200,000	0,023	0,089
-414,657	-200,000	0,008	0,120
-413,642	686,860	-0,071	0,133
-412,628	-200,000	0,013	0,075
-411,613	70,560	0,074	-0,055
-410,598	-158,025	-0,089	0,004
-409,584	800,000	-0,038	0,101
-408,569	290,802	0,066	0,086
-407,555	46,263	-0,056	-0,037
-406,540	36,242	0,068	-0,043
-405,525	-52,541	-0,076	0,025
-404,511	-110,616	-0,030	0,004
-403,496	-106,103	0,163	-0,026
-402,482	-200,000	0,044	0,155
-401,467	252,224	-0,020	0,024
-400,452	515,615	0,064	0,108
-399,438	-200,000	0,012	0,101
-398,423	313,484	0,066	0,088
-397,409	-93,278	-0,007	0,001
-396,394	72,368	-0,091	0,068
-395,379	-200,000	-0,001	0,009
-394,365	-111,910	-0,019	-0,003
-393,350	-200,000	0,010	0,047
-392,336	4,744	-0,070	0,037
-391,321	199,334	-0,065	-0,071
-390,306	-200,000	-0,025	-0,164
-389,292	800,000	0,008	0,016
-388,277	35,322	-0,051	0,032
-387,263	-79,942	0,092	-0,022
-386,248	553,563	0,070	-0,121
-385,233	200,929	-0,043	0,047
-384,219	50,162	-0,026	-0,018
-383,204	-148,936	0,020	-0,001
-382,190	-130,443	-0,081	-0,008
-381,175	-90,916	-0,090	-0,018
-380,160	-79,849	0,018	0,004
-379,146	99,824	0,067	-0,056
-378,131	-200,000	-0,028	0,177
-377,117	229,859	0,048	-0,056
-376,102	-169,275	-0,139	0,004
-375,088	800,000	-0,042	-0,129
-374,073	-47,180	0,041	0,014
-373,058	-22,861	0,158	0,068
-372,044	11,707	0,099	0,054
-371,029	800,000	0,060	-0,124
-370,015	29,800	-0,129	0,078
-369,000	-200,000	-0,011	0,102
-367,985	177,355	-0,058	-0,060
-366,971	800,000	-0,057	-0,173
-365,956	49,456	-0,044	0,030
-364,942	-158,519	0,127	-0,005
-363,927	164,917	0,007	0,007
-362,912	22,107	-0,060	-0,035
-361,898	82,273	-0,053	0,041
-360,883	-150,482	0,058	-0,003
-359,869	800,000	0,018	0,051
-358,854	112,858	-0,034	-0,029
-357,839	800,000	0,028	-0,084
-356,825	-200,000	-0,014	-0,150
-355,810	800,000	-0,069	-0,147
-354,796	103,894	-0,030	0,025
-353,781	800,000	-0,046	-0,129
-352,766	-98,134	0,105	-0,019
-351,752	208,796	-0,084	0,094
-350,737	354,388	0,027	0,039
-349,723	189,806	0,104	0,111
-348,708	-200,000	0,017	0,103
-347,693	-93,313	0,093	0,018
-346,679	800,000	-0,069	-0,143
-345,664	800,000	-0,052	-0,153
-344,650	140,631	-0,017	0,016
-343,635	-200,000	-0,004	0,040
-342,620	134,687	-0,024	0,022
-341,606	-129,783	0,078	0,008
-340,591	800,000	-0,031	0,067
-339,577	-200,000	-0,046	-0,250
-338,562	283,085	-0,031	-0,040
-337,548	-72,789	0,090	0,023
-336,533	-200,000	0,020	0,231
-335,518	-66,772	-0,076	-0,021
-334,504	-200,000	-0,022	0,089
-333,489	202,945	-0,041	-0,045
-332,475	-173,051	0,044	-0,001
-331,460	130,779	0,098	-0,090
-330,445	-105,899	-0,087	-0,014
-329,431	433,445	0,051	0,080
-328,416	800,000	0,021	0,057
-327,402	14,835	0,246	0,137
-326,387	244,844	-0,142	0,171
-325,372	445,526	-0,010	-0,016
-324,358	-200,000	-0,016	-0,102
-323,343	72,274	-0,054	-0,040
-322,329	6,715	-0,049	0,026
-321,314	593,181	0,077	0,135
-320,299	-95,259	-0,069	0,013
-319,285	248,059	-0,062	-0,075
-318,270	-200,000	0,030	0,100
-317,256	-200,000	-0,037	-0,207
-316,241	-200,000	0,066	-0,214
-315,226	-71,581	0,017	0,005
-314,212	-82,161	0,123	0,028
-313,197	118,193	0,018	0,016
-312,183	306,413	0,007	0,010
-311,168	68,556	0,045	0,033
-310,153	800,000	-0,017	-0,044
-309,139	320,535	-0,020	-0,027
-308,124	47,234	0,036	0,024
-307,110	-200,000	-0,006	0,059
-306,095	199,473	-0,046	0,050
-305,080	-5,179	0,119	0,058
-304,066	71,159	0,029	0,022
-303,051	57,167	0,116	-0,080
-302,037	-200,000	-0,002	-0,072
-301,022	-113,272	0,069	0,010
-300,008	-8,165	0,155	0,074
-298,993	-39,330	0,139	0,052
-297,978	289,488	0,012	-0,016
-296,964	258,003	-0,084	0,103
-295,949	-40,440	-0,082	0,030
-294,935	-41,206	-0,081	-0,030
-293,920	-145,313	0,138	0,009
-292,905	-103,877	0,216	0,036
-291,891	-59,295	0,072	0,022
-290,876	133,699	0,069	-0,064
-289,862	53,631	0,103	0,070
-288,847	-64,956	-0,032	-0,009
-287,832	661,669	0,067	0,123
-286,818	-200,000	0,004	-0,038
-285,803	50,182	0,070	-0,047
-284,789	-200,000	-0,023	-0,075
-283,774	-200,000	0,002	-0,007
-282,759	-111,548	0,041	0,006
-281,745	35,913	-0,054	-0,034
-280,730	-12,287	0,026	0,012
-279,716	800,000	-0,050	0,153
-278,701	79,878	0,069	0,053
-277,686	-200,000	-0,002	0,097
-276,672	-20,607	0,115	0,050
-275,657	521,818	-0,022	0,037
-274,643	-74,282	0,047	-0,012
-273,628	262,464	0,078	-0,096
-272,613	800,000	-0,058	0,143
-271,599	224,398	-0,011	-0,013
-270,584	73,732	-0,061	0,045
-269,570	-136,657	0,161	0,013
-268,555	-200,000	-0,004	0,237
-267,540	800,000	-0,015	0,039
-266,526	354,286	-0,082	-0,117
-265,511	-92,585	-0,075	0,015
-264,497	182,119	0,071	0,074
-263,482	-200,000	0,014	0,101
-262,467	-126,294	-0,065	0,007
-261,453	-200,000	-0,025	0,164
-260,438	-200,000	-0,024	0,112
-259,424	-151,337	-0,130	-0,007
-258,409	185,973	0,050	-0,053
-257,395	800,000	-0,073	-0,211
-256,380	-174,219	0,111	-0,002
-255,365	-101,720	-0,093	-0,016
-254,351	800,000	0,034	-0,096
-253,336	800,000	0,040	0,088
-252,322	128,646	-0,070	-0,064
-251,307	-200,000	-0,015	-0,060
-250,292	112,716	0,073	-0,063
-249,278	-105,758	-0,052	0,008
-248,263	-149,486	-0,076	0,004
-247,249	-200,000	0,031	0,113
-246,234	63,486	0,105	0,075
-245,219	120,968	-0,055	-0,048
-244,205	15,158	-0,035	-0,019
-243,190	-200,000	-0,010	-0,041
-242,176	285,842	0,094	0,121
-241,161	-200,000	-0,003	-0,084
-240,146	-200,000	-0,019	0,090
-239,132	-0,165	-0,131	-0,066
-238,117	800,000	-0,057	0,164
-237,103	-55,760	-0,091	-0,029
-236,088	-200,000	-0,005	-0,105
-235,073	800,000	-0,064	0,164
-234,059	-200,000	-0,016	-0,102
-233,044	34,305	0,101	-0,063
-232,030	77,394	-0,077	-0,058
-231,015	-200,000	0,008	0,125
-230,000	800,000	-0,079	-0,173
-228,986	-160,488	0,063	-0,002
-227,971	65,067	0,051	0,037
-226,957	-20,923	0,174	-0,076
-225,942	687,504	0,020	-0,038
-224,927	-200,000	-0,016	-0,071
-223,913	800,000	-0,004	0,014
-222,898	352,677	0,038	-0,054
-221,884	108,983	-0,061	-0,052
-220,869	-200,000	-0,031	0,159
-219,855	75,587	0,134	0,101
-218,840	-200,000	0,004	0,147
-217,825	-200,000	0,009	-0,079
-216,811	-155,682	-0,079	-0,004
-215,796	-200,000	-0,008	-0,065
-214,782	800,000	-0,042	-0,104
-213,767	-60,434	0,077	0,023
-212,752	3,425	0,040	-0,021
-211,738	62,446	-0,031	-0,022
-210,723	-0,801	-0,150	-0,075
-209,709	-113,264	0,115	0,016
-208,694	-4,709	0,016	0,008
-207,679	-200,000	0,000	0,109
-206,665	-200,000	0,005	-0,050
-205,650	-200,000	-0,003	0,072
-204,636	-200,000	0,009	-0,062
-203,621	800,000	0,063	0,165
-202,606	371,116	0,090	-0,131
-201,592	340,753	-0,070	-0,097
-200,577	12,406	0,095	0,052
-199,563	479,990	0,066	-0,106
-198,548	61,034	0,144	-0,102
-197,533	-200,000	0,001	0,134
-196,519	185,654	0,084	0,089
-195,504	196,535	-0,032	-0,034
-194,490	-23,553	-0,111	0,047
-193,475	104,949	-0,023	-0,019
-192,460	-200,000	-0,007	-0,052
-191,446	800,000	0,023	0,050
-190,431	-200,000	0,038	0,137
-189,417	-59,065	-0,016	-0,005
-188,402	-200,000	0,002	-0,080
-187,387	-200,000	0,000	-0,122
-186,373	-1,418	-0,089	-0,045
-185,358	72,482	-0,079	-0,059
-184,344	158,161	0,046	0,045
-183,329	216,613	0,032	-0,037
-182,315	-38,775	-0,038	0,014
-181,300	-81,383	-0,035	-0,008
-180,285	-200,000	-0,042	-0,165
-179,271	-200,000	-0,011	-0,143
-178,256	58,024	-0,080	-0,055
-177,242	265,427	0,064	0,080
-176,227	614,079	0,036	-0,064
-175,212	-200,000	0,021	0,073
-174,198	15,612	0,036	-0,020
-173,183	800,000	-0,048	-0,110
-172,169	602,382	-0,026	-0,046
-171,154	419,999	-0,085	-0,129
-170,139	800,000	-0,026	0,053
-169,125	223,084	-0,069	-0,079
-168,110	351,295	0,007	0,010
-167,096	71,932	-0,066	-0,049
-166,081	-21,515	-0,070	0,030
-165,066	-101,071	-0,137	-0,024
-164,052	-5,868	0,057	0,028
-163,037	270,900	0,013	-0,016
-162,023	562,631	0,064	0,111
-161,008	800,000	-0,013	0,030
-159,993	-12,939	-0,042	0,019
-158,979	-105,698	0,112	0,018
-157,964	25,558	-0,085	-0,050
-156,950	179,603	-0,131	-0,136
-155,935	-200,000	-0,002	0,042
-154,920	-200,000	0,001	0,010
-153,906	800,000	0,038	-0,086
-152,891	-200,000	-0,012	-0,067
-151,877	75,397	-0,050	-0,037
-150,862	-200,000	-0,021	-0,084
-149,847	800,000	0,021	-0,060
-148,833	-41,573	0,052	-0,019
-147,818	-200,000	0,008	-0,033
-146,804	-200,000	-0,002	0,055
-145,789	331,028	-0,014	0,019
-144,775	438,226	-0,026	-0,040
-143,760	444,608	-0,058	-0,091
-142,745	-200,000	-0,015	-0,085
-141,731	49,286	-0,057	0,038
-140,716	-144,271	-0,030	-0,002
-139,702	428,932	0,036	-0,056
-138,687	382,308	0,079	-0,115
-137,672	-129,386	-0,029	0,003
-136,658	22,856	-0,183	-0,106
-135,643	-127,868	0,008	0,001
-134,629	-200,000	-0,014	0,112
-133,614	35,025	0,074	-0,046
-132,599	144,707	-0,092	0,087
-131,585	-200,000	0,037	0,239
-130,570	154,883	0,049	-0,047
-129,556	-34,058	0,128	0,050
-128,541	42,148	-0,041	-0,026
-127,526	4,215	0,089	-0,046
-126,512	79,387	0,042	-0,032
-125,497	-182,969	-0,129	-0,002
-124,483	-200,000	-0,009	-0,078
-123,468	-82,771	-0,084	0,019
-122,453	-159,533	-0,131	-0,005
-121,439	-200,000	-0,004	-0,109
-120,424	800,000	0,044	-0,116
-119,410	-200,000	-0,004	0,074
-118,395	-74,373	0,055	0,014
-117,380	-200,000	0,026	-0,113
-116,366	218,088	-0,094	0,106
-115,351	-191,355	-0,174	0,001
-114,337	599,064	-0,008	0,015
-113,322	800,000	0,008	-0,015
-112,307	14,086	0,027	-0,015
-111,293	588,285	-0,057	0,099
-110,278	-200,000	0,000	0,107
-109,264	-200,000	0,009	0,111
-108,249	800,000	-0,015	0,037
-107,234	104,656	-0,050	-0,042
-106,220	401,452	-0,058	-0,087
-105,205	765,710	0,090	0,175
-104,191	-118,277	0,123	0,015
-103,176	144,601	-0,071	0,067
-102,162	-43,975	-0,098	0,035
-101,147	-200,000	0,004	-0,100
-100,132	-87,471	-0,124	-0,026
-99,118	-118,113	-0,137	0,017
-98,103	417,772	0,043	0,066
-97,089	-98,931	0,045	-0,008
-96,074	322,033	-0,018	0,024
-95,059	-120,929	-0,014	-0,002
-94,045	-200,000	0,001	-0,096
-93,030	-200,000	-0,003	-0,113
-92,016	-200,000	-0,038	-0,131
-91,001	81,258	-0,103	0,079
-89,986	-27,098	-0,092	-0,038
-88,972	800,000	0,023	0,056
-87,957	-51,482	-0,107	-0,035
-86,943	-200,000	-0,042	0,154
-85,928	-37,994	-0,146	-0,055
-84,913	-200,000	-0,002	0,026
-83,899	-200,000	-0,001	0,032
-82,884	-74,112	0,054	0,014
-81,870	-144,947	0,044	-0,003
-80,855	-83,454	-0,055	0,012
-79,840	317,644	0,063	-0,084
-78,826	-21,047	0,118	0,051
-77,811	98,605	-0,082	0,067
-76,797	-200,000	0,039	0,154
-75,782	-200,000	0,044	0,151
-74,767	83,834	0,088	-0,068
-73,753	264,170	0,068	0,084
-72,738	-125,278	0,075	-0,008
-71,724	-45,081	-0,056	0,020
-70,709	-200,000	0,008	-0,045
-69,694	-200,000	-0,002	0,051
-68,680	-200,000	0,037	-0,123
-67,665	-80,629	-0,056	0,013
-66,651	668,560	-0,053	-0,098
-65,636	-200,000	0,020	-0,075
-64,622	33,262	0,018	-0,011
-63,607	143,283	-0,025	-0,023
-62,592	-200,000	-0,008	0,158
-61,578	-119,220	0,045	0,005
-60,563	-200,000	-0,023	0,156
-59,549	597,568	0,064	0,112
-58,534	30,990	-2,017	-1,218
-57,519	410,790	-1,231	-1,850
-56,505	-200,000	-0,348	-4,505
-55,490	268,267	0,973	1,206
-54,476	800,000	5,281	11,829
-53,461	-200,000	21,435	344,450
-52,446	800,000	762,267	2368,334
-51,432	558,913	1666,083	2849,634
-50,417	73,449	1663,554	1227,916
-49,403	17,917	1537,293	862,055
-48,388	11,841	1461,086	789,873
-47,373	19,607	1451,932	822,225
-46,359	15,411	1441,220	796,136
-45,344	10,160	1436,963	768,708
-44,330	10,122	1434,970	767,429
-43,315	10,094	1433,301	766,371
-42,300	10,067	1431,514	765,260
-41,286	10,110	1430,317	764,794
-40,271	10,065	1429,200	763,954
-39,257	10,077	1427,991	763,334
-38,242	10,134	1426,787	762,931
-37,227	10,088	1425,752	762,126
-36,213	10,102	1424,524	761,507
-35,198	10,157	1423,204	761,032
-34,184	10,159	1422,280	760,516
-33,169	10,083	1420,977	759,429
-32,154	10,098	1419,957	758,926
-31,140	10,140	1418,584	758,362
-30,125	10,157	1417,561	757,864
-29,111	10,162	1416,378	757,225
-28,096	10,143	1415,165	756,454
-27,082	10,067	1414,080	755,490
-26,067	10,068	1413,260	755,024
-25,052	10,102	1411,844	754,397
-24,038	10,103	1411,088	753,969
-23,023	10,088	1410,015	753,298
-22,009	10,042	1409,067	752,543
-20,994	10,065	1407,952	752,026
-19,979	10,007	1407,152	751,297
-18,965	10,045	1406,174	750,925
-17,950	10,048	1405,199	750,385
-16,936	10,026	1404,486	749,874
-15,921	9,963	1403,551	749,052
-14,906	9,939	1402,744	748,480
-13,892	10,010	1401,687	748,214
-12,877	9,989	1400,733	747,579
-11,863	9,953	1399,987	746,983
-10,848	9,932	1398,865	746,257
-9,833	9,942	1397,813	745,712
-8,819	9,903	1397,243	745,199
-7,804	9,904	1396,388	744,719
-6,790	9,824	1395,356	743,766
-5,775	9,893	1394,110	743,395
-4,760	9,862	1393,291	742,784
-3,746	9,891	1392,398	742,412
-2,731	9,883	1391,402	741,815
-1,717	9,875	1390,750	741,399
-0,702	9,895	1388,710	740,375
0,313	13,952	1301,310	712,363
1,327	30,266	691,164	415,398
2,342	47,237	119,675	78,468
3,356	1,179	16,465	8,310
4,371	7,723	3,518	1,852
5,386	-9,920	1,128	0,527
6,400	787,361	0,288	0,560
7,415	120,940	-0,123	-0,108
8,429	-18,863	-0,446	-0,195
9,444	219,081	-0,226	-0,256
10,459	-104,487	-0,098	-0,016
11,473	-49,920	-0,309	-0,103
12,488	13,538	-0,252	-0,138
13,502	0,043	-0,315	-0,158
14,517	172,778	-0,321	-0,326
15,531	218,593	-0,290	-0,326
16,546	146,237	-0,305	-0,289
17,561	23,531	-0,474	-0,274
18,575	-200,000	-0,043	-0,199
19,590	16,140	-0,348	-0,193
20,604	-99,903	-0,200	0,035
21,619	41,636	-0,480	-0,306
22,634	68,473	-0,447	-0,322
23,648	-24,110	-0,581	-0,243
24,663	35,557	-0,319	-0,197
25,677	127,123	-0,292	-0,260
26,692	40,589	-0,303	-0,192
27,707	27,391	-0,373	-0,220
28,721	84,293	-0,403	-0,309
29,736	227,768	-0,355	-0,407
30,750	66,396	-0,444	-0,317
31,765	130,899	-0,359	-0,324
32,780	37,139	-0,353	-0,219
33,794	-32,132	-0,503	-0,197
34,809	22,756	-0,354	-0,203
35,823	182,283	-0,296	-0,307
36,838	-20,011	-0,443	-0,191
37,853	197,579	-0,245	-0,263
38,867	8,492	-0,478	-0,252
39,882	20,012	-0,288	-0,163
40,896	-40,074	-0,324	-0,118
41,911	-38,569	-0,313	-0,116
42,926	49,842	-0,319	-0,211
43,940	60,691	-0,346	-0,241
44,955	120,713	-0,338	-0,295
45,969	120,786	-0,381	-0,333
46,984	13,571	-0,330	-0,179
47,999	81,643	-0,300	-0,228
49,013	46,513	-0,330	-0,215
50,028	64,895	-0,381	-0,270
51,042	84,467	-0,268	-0,206
52,057	55,410	-0,317	-0,215
53,071	-36,438	-0,376	-0,142
54,086	190,340	-0,271	-0,286
55,101	5,409	-0,254	-0,131
56,115	0,731	-0,323	-0,162
57,130	7,759	-0,235	-0,123
58,144	1,547	-0,338	-0,170
59,159	47,098	-0,395	-0,258
60,174	132,838	-0,417	-0,378
61,188	-18,897	-0,356	-0,155
62,203	36,778	-0,313	-0,193
63,217	0,476	-0,291	-0,146
64,232	-5,188	-0,398	-0,192
65,247	-0,107	-0,409	-0,204
66,261	1,979	-0,458	-0,231
67,276	19,442	-0,388	-0,218
68,290	153,378	-0,350	-0,336
69,305	131,485	-0,257	-0,232
70,320	24,455	-0,297	-0,172
71,334	-11,703	-0,398	-0,182
72,349	68,369	-0,230	-0,165
73,363	157,456	-0,410	-0,398
74,378	-16,459	-0,357	-0,158
75,393	-29,092	-0,303	-0,121
76,407	6,167	-0,167	-0,086
77,422	-151,837	-0,222	-0,011
78,436	314,234	-0,116	-0,153
79,451	-100,250	-0,434	-0,075
80,466	-21,360	-0,358	-0,153
81,480	14,181	-0,225	-0,123
82,495	94,494	-0,260	-0,207
83,509	30,536	-0,333	-0,199
84,524	732,747	-0,079	-0,149
85,539	-47,496	-0,331	-0,112
86,553	-1,158	-0,350	-0,173
87,568	4,147	-0,400	-0,205
88,582	37,841	-0,352	-0,219
89,597	382,254	-0,187	-0,270
90,611	-4,414	-0,308	-0,148
91,626	494,764	-0,149	-0,241
92,641	162,249	-0,190	-0,186
93,655	2,074	-0,249	-0,126
94,670	-7,589	-0,258	-0,122
95,684	99,048	-0,289	-0,234
96,699	267,426	-0,201	-0,246
97,714	-3,602	-0,308	-0,149
98,728	326,810	-0,184	-0,247
99,743	192,001	-0,229	-0,242
100,757	5,224	-0,297	-0,153
101,772	-2,731	-0,315	-0,153
102,787	163,912	-0,193	-0,190
103,801	-17,116	-0,134	-0,059
104,816	39,322	-0,214	-0,133
105,830	63,721	-0,214	-0,150
106,845	199,321	-0,177	-0,190
107,860	-40,697	-0,338	-0,122
108,874	51,008	-0,264	-0,174
109,889	77,043	-0,214	-0,159
110,903	115,847	-0,300	-0,257
111,918	156,643	-0,331	-0,320
112,933	-49,555	-0,288	-0,095
113,947	67,361	-0,061	-0,044
114,962	169,325	-0,190	-0,189
115,976	-73,681	-0,447	-0,113
116,991	-23,126	-0,302	-0,126
118,006	7,999	-0,352	-0,184
119,020	343,829	-0,165	-0,227
120,035	676,205	-0,173	-0,315
121,049	-0,192	-0,236	-0,117
122,064	30,631	-0,194	-0,116
123,079	-27,441	-0,346	-0,140
124,093	112,244	-0,340	-0,287
125,108	-92,400	-0,317	-0,062
126,122	273,453	-0,162	-0,200
127,137	25,864	-0,235	-0,136
128,151	-1,153	-0,241	-0,118
129,166	78,663	-0,128	-0,095
130,181	115,005	-0,213	-0,181
131,195	-73,374	-0,361	-0,091
132,210	63,898	-0,363	-0,254
133,224	36,631	-0,372	-0,229
134,239	136,616	-0,189	-0,172
135,254	-36,057	-0,265	0,099
136,268	7,540	-0,180	-0,093
137,283	-131,615	-0,330	-0,030
138,297	-79,785	-0,304	-0,071
139,312	-178,981	-0,301	-0,005
140,327	111,678	-0,289	-0,243
141,341	-34,318	-0,161	-0,061
142,356	-108,562	-0,233	0,034
143,370	-177,782	-0,348	-0,006
144,385	-108,755	-0,129	-0,019
145,400	153,340	-0,184	-0,175
146,414	138,853	-0,294	-0,269
147,429	46,729	-0,258	-0,167
148,443	24,280	-0,272	-0,156
149,458	-85,511	-0,190	-0,041
150,473	125,063	-0,162	-0,142
151,487	11,763	-0,226	-0,120
152,502	13,033	-0,317	-0,170
153,516	56,296	-0,253	-0,171
154,531	281,214	-0,217	-0,271
155,546	147,436	-0,270	-0,253
156,560	157,513	-0,238	-0,230
157,575	95,392	-0,189	-0,150
158,589	-4,696	-0,184	-0,088
159,604	156,539	-0,349	-0,335
160,619	124,228	-0,182	-0,159
161,633	23,529	-0,278	-0,159
162,648	-6,229	-0,241	-0,114
163,662	-102,947	-0,174	-0,028
164,677	664,762	-0,069	-0,125
165,692	162,992	-0,259	-0,253
166,706	176,126	-0,227	-0,229
167,721	116,655	-0,233	-0,199
168,735	66,764	-0,206	-0,146
169,750	49,651	-0,245	-0,160
170,764	30,341	-0,223	-0,132
171,779	119,855	-0,203	-0,175
172,794	59,561	-0,210	0,144
173,808	61,521	-0,268	-0,185
174,823	432,938	-0,244	-0,370
175,837	224,301	-0,170	-0,191
176,852	800,000	-0,156	-0,309
177,867	-7,840	-0,192	-0,090
178,881	-92,691	-0,212	0,041
179,896	70,767	-0,200	-0,144
180,910	-23,657	-0,215	-0,089
181,925	134,189	-0,264	-0,238
182,940	174,427	-0,166	-0,167
183,954	150,044	-0,296	-0,279
184,969	-4,587	-0,140	-0,067
185,983	296,593	-0,149	-0,190
186,998	356,131	-0,150	-0,208
188,013	19,723	-0,214	-0,119
189,027	7,725	-0,233	-0,121
190,042	12,575	-0,209	-0,112
191,056	-200,000	-0,075	-0,370
192,071	136,977	-0,182	-0,165
193,086	800,000	-0,080	-0,158
194,100	89,882	-0,258	-0,200
195,115	50,032	-0,154	-0,101
196,129	219,564	-0,152	-0,169
197,144	-184,302	-0,241	-0,003
198,159	141,920	-0,167	-0,154
199,173	-15,917	-0,153	0,067
200,188	-2,937	-0,144	-0,069
201,202	-130,131	-0,040	0,004
202,217	-38,812	-0,299	-0,109
203,232	5,808	-0,251	-0,128
204,246	33,411	-0,286	-0,172
205,261	-126,834	-0,267	-0,027
206,275	-1,630	-0,291	-0,142
207,290	143,290	-0,093	-0,086
208,304	-51,224	-0,137	-0,044
209,319	78,661	-0,064	0,047
210,334	116,767	-0,119	-0,101
211,348	-51,851	-0,192	-0,061
212,363	323,599	-0,162	-0,214
213,377	-21,077	-0,211	-0,089
214,392	66,488	-0,164	-0,115
215,407	42,071	-0,115	-0,072
216,421	-198,875	-0,111	-0,000
217,436	-44,521	-0,341	-0,117
218,450	93,074	-0,220	-0,172
219,465	-43,277	-0,241	-0,084
220,480	303,404	-0,119	-0,153
221,494	50,892	-0,164	-0,107
222,509	-25,438	-0,191	-0,078
223,523	144,240	-0,148	-0,137
224,538	225,739	-0,199	-0,223
225,553	184,069	-0,184	-0,189
226,567	21,951	-0,274	-0,154
227,582	90,526	-0,125	-0,097
228,596	376,648	-0,154	-0,218
229,611	-29,547	-0,180	-0,071
230,626	65,078	-0,101	-0,071
231,640	-18,378	-0,159	-0,068
232,655	-55,435	-0,159	-0,049
233,669	330,840	-0,133	-0,178
234,684	-116,599	-0,353	-0,044
235,699	291,535	-0,163	-0,206
236,713	7,038	-0,228	-0,117
237,728	-136,056	-0,126	0,010
238,742	122,054	-0,200	-0,172
239,757	244,222	-0,094	-0,110
240,772	219,857	-0,204	-0,226
241,786	228,745	-0,217	-0,245
242,801	-122,624	-0,152	-0,017
243,815	-61,093	-0,221	-0,064
244,830	22,521	-0,174	-0,098
245,844	-46,121	-0,163	-0,055
246,859	31,104	-0,107	-0,063
247,874	-36,543	-0,294	-0,109
248,888	219,023	-0,168	-0,185
249,903	774,868	-0,078	-0,148
250,917	-58,977	-0,134	-0,040
251,932	256,837	-0,040	-0,048
252,947	320,299	-0,147	-0,193
253,961	64,134	-0,246	-0,170
254,976	232,701	-0,187	-0,212
255,990	520,910	-0,138	-0,224
257,005	-93,739	-0,203	-0,038
258,020	800,000	-0,059	-0,158
259,034	-6,534	-0,257	-0,120
260,049	-118,976	-0,149	0,018
261,063	9,048	-0,159	-0,083
262,078	-22,926	-0,321	-0,133
263,093	196,397	-0,115	-0,121
264,107	527,889	-0,075	-0,122
265,122	24,826	-0,254	-0,144
266,136	52,531	-0,160	-0,105
267,151	129,443	-0,163	-0,143
268,166	-34,953	-0,306	-0,114
269,180	714,301	-0,101	-0,186
270,195	124,052	-0,246	-0,213
271,209	140,561	-0,169	-0,154
272,224	-127,471	-0,170	-0,017
273,239	-60,620	-0,190	-0,055
274,253	-71,408	-0,099	-0,025
275,268	-103,741	-0,170	-0,027
276,282	478,690	-0,137	-0,215
277,297	112,154	-0,195	-0,162
278,312	-107,818	-0,103	-0,015
279,326	64,686	-0,160	-0,111
280,341	113,973	-0,177	-0,149
281,355	-105,420	-0,169	-0,026
282,370	-98,512	-0,224	-0,039
283,384	-94,701	-0,137	-0,025
284,399	-155,021	-0,117	0,005
285,414	265,104	-0,089	-0,107
286,428	-56,644	-0,129	-0,039
287,443	118,297	-0,062	-0,053
288,457	102,313	-0,212	-0,170
289,472	-26,350	-0,271	-0,109
290,487	472,089	-0,103	-0,160
291,501	682,133	-0,091	-0,164
292,516	227,476	-0,178	-0,200
293,530	0,948	-0,200	-0,098
294,545	531,723	-0,040	-0,066
295,560	769,110	-0,050	0,094
296,574	-143,806	-0,123	-0,008
297,589	800,000	-0,123	-0,299
298,603	-55,624	-0,199	-0,061
299,618	299,173	-0,151	-0,192
300,633	-72,362	-0,149	-0,038
301,647	107,755	-0,192	-0,157
302,662	136,222	-0,055	-0,050
303,676	26,550	-0,239	-0,137
304,691	-12,150	-0,165	-0,074
305,706	13,932	-0,054	-0,029
306,720	488,163	-0,073	-0,115
307,735	75,188	-0,218	-0,157
308,749	800,000	-0,043	-0,094
309,764	6,432	-0,065	0,033
310,779	397,232	-0,086	-0,124
311,793	463,507	-0,064	-0,098
312,808	318,536	-0,134	-0,174
313,822	-25,496	-0,264	-0,107
314,837	120,903	-0,203	-0,173
315,852	50,015	-0,107	-0,069
316,866	366,329	-0,037	-0,051
317,881	-200,000	-0,009	-0,038
318,895	38,742	-0,152	-0,093
319,910	144,901	-0,145	-0,133
320,925	525,831	-0,087	-0,141
321,939	-7,755	-0,193	-0,089
322,954	-6,187	-0,147	-0,068
323,968	-154,873	-0,154	0,007
324,983	800,000	-0,061	0,181
325,997	24,822	-0,154	-0,087
327,012	468,243	-0,116	-0,179
328,027	647,520	-0,099	-0,174
329,041	-27,496	-0,124	-0,049
330,056	334,912	-0,075	-0,101
331,070	-40,493	-0,171	-0,060
332,085	180,248	-0,051	-0,052
333,100	300,924	-0,073	-0,093
334,114	144,316	-0,125	-0,115
335,129	-38,881	-0,217	-0,078
336,143	51,605	-0,135	-0,088
337,158	50,499	-0,146	-0,094
338,173	-88,380	-0,143	0,029
339,187	800,000	-0,075	-0,156
340,202	800,000	-0,074	-0,215
341,216	100,506	-0,095	0,076
342,231	800,000	-0,057	-0,114
343,246	-21,178	-0,058	-0,024
344,260	800,000	-0,043	-0,088
345,275	-200,000	-0,020	-0,070
346,289	-117,623	-0,086	-0,010
347,304	-31,595	-0,273	-0,105
348,319	-151,792	-0,178	0,009
349,333	-118,896	-0,168	0,020
350,348	531,663	-0,088	-0,144
351,362	800,000	-0,056	-0,153
352,377	94,965	-0,102	-0,079
353,392	-94,834	-0,061	-0,011
354,406	342,390	-0,003	0,004
355,421	208,774	1309,831	1403,568
356,435	160,664	1469,896	1404,034
