DTS Sentinel unit serial number:	SN410029Multiplexer serial number:	ORYXHardware model number:	OX2-SRSoftware version number:	ORYX F/W v4,00 Oryx Data Collector v3.7.2.0data status	okinstallation	B3 Nyhavnadifferential loss correction	single-endedforward channel	channel 1reverse channel	N/Adate	2023/12/02time	13:42:30forward acquisition time	300,00reverse acquisition time	0,00gamma	499,1914k internal	0,3198k external	0,3198temperature offset calibration	1,0000default loss term (dB/km)	0,3820temperature slope calibration	1,0000multiplexer offset coefficient	1,0000multiplexer slope coefficient	1,0000fibre end	0,00T internal ref (°C)	14,64T ext. ref 1 (°C)	0,31T ext. ref 2 (°C)	0,31length (m)	temperature (°C)	Stokes	anti-Stokes-744,400	45,564	-0,279	-0,187
-743,385	-200,000	0,012	0,348
-742,371	54,816	-0,282	-0,197
-741,356	-200,000	0,077	0,382
-740,342	-2,743	-0,128	-0,065
-739,327	-200,000	0,078	0,272
-738,312	40,188	-0,241	-0,158
-737,298	800,000	-0,108	0,270
-736,283	303,629	-0,213	-0,288
-735,269	-200,000	0,012	0,205
-734,254	96,890	-0,295	-0,246
-733,239	274,876	-0,101	0,131
-732,225	-200,000	-0,013	-0,190
-731,210	800,000	-0,037	0,087
-730,196	467,554	-0,055	-0,090
-729,181	-38,421	-0,104	-0,040
-728,167	-169,698	-0,115	0,003
-727,152	54,648	-0,026	0,018
-726,137	-13,829	-0,149	0,070
-725,123	-132,526	-0,085	-0,008
-724,108	-200,000	-0,046	-0,191
-723,094	-200,000	-0,067	-0,230
-722,079	369,851	-0,026	-0,039
-721,064	304,696	0,077	-0,104
-720,050	-106,840	-0,082	-0,013
-719,035	669,354	0,005	-0,009
-718,021	345,826	-0,050	-0,072
-717,006	172,689	-0,023	0,024
-715,991	-156,125	-0,114	-0,005
-714,977	28,549	-0,079	0,049
-713,962	-67,619	0,028	0,008
-712,948	-73,564	0,126	0,033
-711,933	206,968	-0,100	0,113
-710,918	-200,000	-0,011	0,156
-709,904	6,430	-0,034	-0,018
-708,889	-148,185	-0,105	-0,006
-707,875	115,779	-0,064	-0,057
-706,860	-200,000	-0,003	-0,057
-705,845	84,545	0,063	0,050
-704,831	-200,000	0,008	-0,063
-703,816	-200,000	-0,012	0,112
-702,802	-141,428	-0,036	-0,003
-701,787	-200,000	0,001	-0,034
-700,772	800,000	0,030	-0,088
-699,758	-200,000	0,015	-0,059
-698,743	288,659	-0,022	-0,029
-697,729	800,000	0,022	0,057
-696,714	-200,000	0,005	-0,109
-695,699	-168,839	-0,115	0,003
-694,685	-25,063	-0,112	0,048
-693,670	251,263	-0,074	-0,092
-692,656	-43,050	-0,075	-0,027
-691,641	204,077	0,017	-0,019
-690,627	-200,000	-0,038	0,142
-689,612	-61,425	-0,057	0,017
-688,597	800,000	-0,053	-0,131
-687,583	-56,313	0,003	-0,001
-686,568	338,351	0,068	-0,096
-685,554	-200,000	0,002	-0,015
-684,539	800,000	-0,056	-0,121
-683,524	-39,932	0,100	-0,038
-682,510	178,706	0,059	0,063
-681,495	-59,301	-0,146	-0,045
-680,481	-72,448	-0,123	0,033
-679,466	800,000	0,017	0,047
-678,451	-75,990	-0,102	-0,026
-677,437	-13,998	0,061	-0,029
-676,422	417,668	-0,019	-0,029
-675,408	218,670	-0,066	0,077
-674,393	-200,000	-0,037	0,174
-673,378	800,000	-0,038	0,079
-672,364	51,722	0,053	-0,036
-671,349	174,839	-0,083	0,088
-670,335	-200,000	0,007	-0,085
-669,320	-139,677	0,077	-0,006
-668,305	800,000	-0,037	0,087
-667,291	-62,250	-0,103	0,031
-666,276	800,000	-0,028	-0,060
-665,262	137,718	-0,062	0,059
-664,247	142,084	-0,035	0,033
-663,232	26,224	-0,059	0,036
-662,218	800,000	0,033	0,093
-661,203	-115,481	0,151	-0,020
-660,189	75,914	0,077	-0,059
-659,174	47,167	0,014	0,009
-658,159	-200,000	0,035	-0,129
-657,145	-200,000	-0,016	0,163
-656,130	-64,565	-0,013	0,004
-655,116	-176,489	0,221	0,004
-654,101	386,938	0,083	0,125
-653,086	-200,000	-0,018	0,106
-652,072	-200,000	-0,023	-0,083
-651,057	201,594	-0,079	-0,088
-650,043	-137,924	0,064	-0,005
-649,028	187,199	-0,040	0,044
-648,014	-200,000	-0,004	-0,034
-646,999	426,296	0,014	-0,022
-645,984	-115,222	0,123	0,017
-644,970	800,000	0,008	-0,021
-643,955	39,664	-0,187	-0,122
-642,941	800,000	-0,019	-0,046
-641,926	223,859	-0,013	0,015
-640,911	-200,000	0,037	-0,139
-639,897	419,465	-0,073	0,113
-638,882	62,978	-0,072	0,052
-637,868	166,995	-0,033	-0,034
-636,853	-200,000	-0,030	0,148
-635,838	82,364	-0,130	0,102
-634,824	-200,000	0,005	-0,103
-633,809	2,041	-0,066	0,035
-632,795	800,000	-0,034	0,086
-631,780	312,015	0,025	-0,034
-630,765	162,385	-0,163	-0,166
-629,751	-86,444	-0,080	-0,018
-628,736	-200,000	-0,005	0,043
-627,722	800,000	-0,026	0,054
-626,707	800,000	0,009	0,024
-625,692	320,539	0,057	0,078
-624,678	-29,779	0,068	0,028
-623,663	540,881	0,043	-0,075
-622,649	-200,000	0,003	-0,104
-621,634	147,479	-0,086	-0,084
-620,619	-136,895	0,088	-0,007
-619,605	800,000	-0,067	-0,214
-618,590	-53,123	0,202	-0,067
-617,576	-76,854	0,080	-0,020
-616,561	800,000	0,030	-0,084
-615,546	800,000	0,023	-0,062
-614,532	-49,345	-0,162	-0,056
-613,517	229,331	-0,049	-0,058
-612,503	-200,000	-0,038	-0,123
-611,488	-169,492	0,031	0,001
-610,474	-73,288	-0,093	-0,025
-609,459	-1,341	0,116	0,059
-608,444	-200,000	0,003	-0,078
-607,430	-86,950	-0,128	-0,028
-606,415	-200,000	0,011	0,055
-605,401	113,490	-0,077	-0,067
-604,386	800,000	0,019	0,051
-603,371	-94,924	0,086	-0,017
-602,357	-74,373	-0,053	0,014
-601,342	39,787	0,027	0,017
-600,328	-67,826	0,089	0,025
-599,313	84,103	-0,069	-0,055
-598,298	-200,000	-0,007	0,094
-597,284	68,020	0,052	0,038
-596,269	-163,154	0,084	-0,003
-595,255	148,110	0,019	0,019
-594,240	-200,000	0,034	-0,128
-593,225	48,428	0,026	-0,018
-592,211	367,305	-0,048	0,071
-591,196	36,658	0,036	-0,023
-590,182	146,237	0,064	-0,063
-589,167	-200,000	0,032	0,112
-588,152	82,871	-0,073	0,057
-587,138	-200,000	0,004	-0,023
-586,123	-200,000	0,038	-0,141
-585,109	-200,000	0,038	-0,134
-584,094	-50,354	-0,109	-0,037
-583,079	-9,816	-0,022	0,011
-582,065	-113,662	0,108	0,015
-581,050	58,195	-0,150	0,106
-580,036	-129,124	0,140	0,014
-579,021	227,729	-0,056	-0,066
-578,006	181,928	-0,055	-0,059
-576,992	-98,963	-0,065	0,012
-575,977	800,000	-0,023	0,069
-574,963	-200,000	0,005	0,043
-573,948	-12,014	-0,038	-0,018
-572,934	-19,323	0,047	-0,021
-571,919	-73,318	0,098	-0,026
-570,904	800,000	0,022	-0,056
-569,890	749,598	-0,053	-0,103
-568,875	-130,145	-0,061	0,006
-567,861	-200,000	-0,002	0,020
-566,846	-200,000	0,003	0,062
-565,831	751,008	-0,081	0,159
-564,817	100,339	0,042	0,035
-563,802	24,583	0,039	-0,023
-562,788	-81,237	0,042	0,010
-561,773	261,417	-0,012	0,015
-560,758	180,249	0,005	-0,005
-559,744	482,976	-0,028	0,046
-558,729	-200,000	0,019	0,074
-557,715	-180,982	0,064	-0,001
-556,700	123,325	0,056	-0,051
-555,685	23,314	0,096	-0,057
-554,671	148,960	0,127	-0,124
-553,656	179,207	-0,079	-0,084
-552,642	-200,000	-0,015	-0,183
-551,627	0,151	-0,081	-0,042
-550,612	-151,114	-0,197	-0,011
-549,598	-195,155	-0,072	0,000
-548,583	4,240	-0,113	-0,060
-547,569	800,000	0,018	0,045
-546,554	322,013	0,034	0,046
-545,539	19,413	0,060	0,035
-544,525	-7,536	-0,064	-0,031
-543,510	306,061	0,042	-0,057
-542,496	-88,106	-0,060	0,013
-541,481	29,541	-0,011	-0,007
-540,466	487,500	0,047	-0,078
-539,452	648,789	-0,057	0,106
-538,437	-28,515	0,094	-0,039
-537,423	-200,000	-0,011	0,102
-536,408	184,666	0,021	-0,023
-535,393	-40,353	0,057	-0,021
-534,379	800,000	-0,008	0,023
-533,364	63,702	-0,026	-0,019
-532,350	-200,000	0,000	-0,101
-531,335	-200,000	-0,009	0,092
-530,321	127,758	0,104	0,095
-529,306	800,000	-0,034	-0,081
-528,291	-27,689	0,142	-0,059
-527,277	-107,967	-0,084	0,013
-526,262	-120,791	-0,106	-0,013
-525,248	-200,000	0,009	0,071
-524,233	-5,573	0,093	0,046
-523,218	483,466	-0,070	-0,116
-522,204	207,387	-0,020	-0,023
-521,189	-21,430	0,040	0,017
-520,175	-47,932	-0,086	0,030
-519,160	-200,000	0,018	-0,064
-518,145	-82,566	-0,165	0,038
-517,131	-66,704	0,087	-0,025
-516,116	-200,000	0,010	-0,077
-515,102	-200,000	-0,012	-0,119
-514,087	800,000	0,041	-0,084
-513,072	0,290	0,084	-0,043
-512,058	311,574	-0,081	0,110
-511,043	-182,789	0,055	-0,001
-510,029	405,812	-0,028	0,042
-509,014	149,788	-0,120	0,117
-507,999	577,322	0,051	0,091
-506,985	-91,335	-0,063	0,013
-505,970	644,816	0,056	-0,104
-504,956	-1,647	-0,137	-0,069
-503,941	74,227	-0,117	0,089
-502,926	231,175	0,082	0,097
-501,912	775,992	0,088	0,174
-500,897	800,000	-0,051	0,118
-499,883	-120,702	-0,113	0,014
-498,868	800,000	-0,020	-0,045
-497,853	616,031	-0,051	-0,093
-496,839	517,997	-0,078	0,132
-495,824	439,832	-0,050	0,078
-494,810	-200,000	0,052	0,191
-493,795	9,710	0,132	0,072
-492,781	93,479	-0,063	-0,052
-491,766	-200,000	-0,007	-0,025
-490,751	800,000	0,008	-0,016
-489,737	-97,305	0,101	0,019
-488,722	-200,000	-0,021	0,144
-487,708	421,940	0,019	0,030
-486,693	-200,000	-0,008	0,032
-485,678	-7,383	0,089	-0,043
-484,664	-123,212	-0,128	-0,015
-483,649	50,688	-0,142	-0,096
-482,635	151,301	0,069	-0,068
-481,620	127,037	0,030	-0,028
-480,605	-93,954	0,072	0,014
-479,591	497,538	-0,026	0,043
-478,576	-200,000	0,014	0,097
-477,562	-107,344	-0,155	0,024
-476,547	161,849	0,024	-0,024
-475,532	62,966	-0,096	-0,069
-474,518	107,737	0,086	0,073
-473,503	313,168	0,059	-0,080
-472,489	-82,111	-0,060	0,014
-471,474	179,870	0,187	0,198
-470,459	-200,000	-0,022	0,088
-469,445	51,020	-0,078	-0,053
-468,430	-200,000	-0,048	0,000
-467,416	134,137	-0,083	0,077
-466,401	1,269	0,020	0,010
-465,386	188,201	0,078	-0,084
-464,372	-134,532	-0,092	0,008
-463,357	742,867	-0,036	0,070
-462,343	-200,000	-0,012	-0,072
-461,328	52,175	-0,082	-0,056
-460,313	584,404	-0,047	-0,084
-459,299	26,730	0,096	0,058
-458,284	-200,000	0,001	-0,063
-457,270	-200,000	0,007	0,092
-456,255	-200,000	0,020	-0,127
-455,241	82,894	-0,107	-0,083
-454,226	-200,000	-0,021	0,103
-453,211	62,522	0,136	0,098
-452,197	800,000	0,046	0,099
-451,182	-200,000	0,010	0,158
-450,168	-153,742	0,086	0,004
-449,153	377,641	0,065	0,096
-448,138	-200,000	0,029	-0,112
-447,124	-9,019	-0,020	0,010
-446,109	8,158	0,099	0,053
-445,095	99,549	0,053	-0,044
-444,080	422,759	0,040	0,062
-443,065	519,221	0,071	0,121
-442,051	-200,000	-0,011	0,086
-441,036	800,000	-0,046	0,096
-440,022	84,258	0,116	-0,091
-439,007	1,025	-0,070	-0,036
-437,992	-105,449	0,038	0,006
-436,978	562,869	-0,104	0,182
-435,963	-54,711	0,094	0,030
-434,949	11,397	0,054	-0,030
-433,934	55,256	-0,101	-0,070
-432,919	-200,000	-0,021	-0,181
-431,905	-66,811	-0,010	-0,003
-430,890	24,041	-0,063	0,037
-429,876	789,517	0,044	-0,088
-428,861	-200,000	-0,011	0,053
-427,846	-104,383	-0,113	0,019
-426,832	-86,820	-0,109	-0,024
-425,817	42,714	-0,073	0,048
-424,803	399,049	0,084	0,127
-423,788	25,790	-0,051	-0,030
-422,773	-41,348	-0,070	0,026
-421,759	-82,194	0,111	0,026
-420,744	-152,648	0,040	0,002
-419,730	201,335	-0,091	0,101
-418,715	412,691	-0,019	-0,030
-417,701	-26,688	-0,068	-0,029
-416,686	800,000	0,022	0,055
-415,671	-61,611	-0,079	0,024
-414,657	-200,000	0,006	0,059
-413,642	98,468	0,063	0,052
-412,628	-69,971	0,148	-0,040
-411,613	800,000	-0,027	-0,066
-410,598	-124,713	-0,117	-0,013
-409,584	800,000	0,074	-0,175
-408,569	-125,117	0,079	0,009
-407,555	3,419	0,049	0,026
-406,540	800,000	-0,043	0,110
-405,525	-200,000	-0,016	-0,059
-404,511	-200,000	-0,006	-0,103
-403,496	-52,844	-0,075	0,025
-402,482	800,000	0,046	-0,112
-401,467	-18,518	0,108	-0,048
-400,452	187,952	0,074	0,080
-399,438	465,279	-0,019	-0,030
-398,423	-200,000	-0,100	-0,000
-397,409	-121,868	0,052	0,006
-396,394	-139,033	-0,112	-0,009
-395,379	71,962	0,118	0,088
-394,365	-22,338	0,069	0,030
-393,350	-200,000	-0,020	0,091
-392,336	212,324	-0,097	-0,110
-391,321	-200,000	0,024	-0,089
-390,306	137,281	-0,112	-0,105
-389,292	-200,000	-0,022	-0,093
-388,277	191,626	0,030	-0,032
-387,263	-59,126	-0,086	0,026
-386,248	208,509	0,082	-0,092
-385,233	-37,217	0,057	-0,022
-384,219	-200,000	0,019	-0,165
-383,204	-200,000	0,001	-0,070
-382,190	800,000	0,012	-0,028
-381,175	186,121	0,025	-0,027
-380,160	-200,000	0,002	0,074
-379,146	618,579	-0,042	0,076
-378,131	-64,918	-0,178	0,051
-377,117	-200,000	-0,024	-0,079
-376,102	-136,049	0,081	0,007
-375,088	25,231	-0,090	-0,054
-374,073	-61,216	0,155	-0,046
-373,058	388,731	-0,087	-0,130
-372,044	-200,000	0,022	0,095
-371,029	-165,810	0,027	-0,001
-370,015	800,000	0,029	0,091
-369,000	180,312	-0,050	-0,053
-367,985	-200,000	-0,014	-0,156
-366,971	-200,000	0,006	-0,070
-365,956	78,882	-0,034	-0,026
-364,942	-111,594	0,060	-0,009
-363,927	-200,000	0,010	0,137
-362,912	800,000	-0,005	0,010
-361,898	7,479	-0,031	0,016
-360,883	-200,000	-0,025	-0,155
-359,869	800,000	-0,042	-0,107
-358,854	-134,028	0,103	0,009
-357,839	99,942	0,132	0,110
-356,825	800,000	-0,044	0,090
-355,810	284,821	-0,067	0,087
-354,796	-200,000	0,008	-0,038
-353,781	-200,000	0,007	-0,068
-352,766	800,000	-0,097	-0,194
-351,752	-200,000	0,015	-0,078
-350,737	176,912	0,050	0,052
-349,723	106,756	0,067	0,057
-348,708	-200,000	-0,009	-0,042
-347,693	800,000	-0,018	-0,049
-346,679	-200,000	0,014	0,102
-345,664	800,000	-0,020	0,062
-344,650	139,315	0,053	-0,050
-343,635	800,000	0,063	-0,126
-342,620	614,933	0,040	0,072
-341,606	131,108	0,069	0,064
-340,591	-0,666	0,071	-0,036
-339,577	800,000	-0,034	-0,079
-338,562	228,300	-0,059	0,069
-337,548	355,124	0,043	-0,061
-336,533	800,000	0,020	-0,053
-335,518	-71,242	-0,004	0,001
-334,504	-136,330	0,161	-0,013
-333,489	-125,568	0,097	0,010
-332,475	-0,156	-0,137	0,070
-331,460	-9,847	-0,057	-0,027
-330,445	140,290	-0,036	-0,034
-329,431	-200,000	0,023	-0,076
-328,416	-200,000	0,015	-0,066
-327,402	26,699	0,133	0,079
-326,387	800,000	-0,029	0,083
-325,372	-90,512	0,124	-0,025
-324,358	-200,000	0,014	-0,112
-323,343	-200,000	0,007	-0,075
-322,329	23,836	0,008	0,005
-321,314	-200,000	0,008	0,100
-320,299	800,000	0,052	0,122
-319,285	-46,663	0,058	0,020
-318,270	-200,000	-0,015	-0,086
-317,256	60,782	-0,126	-0,089
-316,241	-200,000	-0,020	0,132
-315,226	-122,907	0,066	-0,008
-314,212	800,000	0,049	0,105
-313,197	-33,316	0,089	0,035
-312,183	578,698	0,027	0,047
-311,168	800,000	-0,018	-0,055
-310,153	84,650	-0,079	-0,062
-309,139	42,799	-0,129	-0,084
-308,124	800,000	-0,051	0,132
-307,110	689,399	0,035	0,066
-306,095	425,602	0,081	0,126
-305,080	-200,000	-0,005	0,067
-304,066	337,949	-0,052	-0,073
-303,051	-10,899	-0,036	-0,017
-302,037	-200,000	-0,012	-0,125
-301,022	800,000	-0,038	-0,091
-300,008	456,805	0,048	0,077
-298,993	-200,000	-0,015	-0,071
-297,978	-109,549	0,035	-0,005
-296,964	-200,000	0,005	0,039
-295,949	350,982	-0,069	-0,098
-294,935	-42,949	-0,055	0,020
-293,920	-153,508	0,039	0,002
-292,905	-108,452	0,100	-0,015
-291,891	-63,847	-0,023	0,007
-290,876	117,068	0,060	-0,052
-289,862	-24,943	-0,058	-0,025
-288,847	-37,637	0,075	-0,029
-287,832	-73,673	-0,090	0,023
-286,818	4,443	-0,141	0,074
-285,803	-57,740	0,110	-0,034
-284,789	800,000	0,027	-0,058
-283,774	-31,509	0,061	0,024
-282,759	452,976	0,029	0,046
-281,745	18,065	-0,126	0,072
-280,730	95,664	-0,011	0,009
-279,716	83,356	0,020	-0,015
-278,701	671,670	0,044	0,082
-277,686	800,000	0,007	-0,020
-276,672	155,595	-0,029	-0,028
-275,657	-99,639	-0,062	-0,011
-274,643	234,906	0,022	-0,026
-273,628	573,816	0,034	-0,060
-272,613	-2,103	-0,125	0,062
-271,599	-22,104	-0,060	-0,026
-270,584	374,982	0,084	0,123
-269,570	-107,059	-0,051	-0,008
-268,555	-200,000	-0,014	0,058
-267,540	135,019	-0,050	-0,047
-266,526	-200,000	0,008	-0,073
-265,511	-200,000	0,021	-0,128
-264,497	-164,362	-0,069	-0,002
-263,482	14,558	0,104	0,058
-262,467	-200,000	0,014	0,108
-261,453	21,143	-0,108	-0,063
-260,438	201,528	0,030	0,033
-259,424	238,097	-0,027	0,032
-258,409	-200,000	-0,032	-0,119
-257,395	-62,230	0,078	-0,023
-256,380	-200,000	-0,025	-0,081
-255,365	-200,000	0,028	0,096
-254,351	628,505	0,092	0,167
-253,336	800,000	-0,035	-0,076
-252,322	301,440	-0,061	-0,081
-251,307	-200,000	0,005	-0,064
-250,292	336,849	0,048	-0,067
-249,278	-108,599	0,150	0,023
-248,263	365,155	-0,061	0,088
-247,249	154,107	0,021	0,020
-246,234	-152,057	-0,130	0,007
-245,219	-200,000	-0,013	0,088
-244,205	-200,000	0,015	0,081
-243,190	800,000	-0,010	0,021
-242,176	-150,193	-0,080	-0,004
-241,161	6,105	0,039	0,020
-240,146	-200,000	-0,009	0,035
-239,132	-84,872	-0,088	-0,019
-238,117	-60,281	0,070	-0,021
-237,103	-36,997	-0,174	-0,066
-236,088	800,000	0,084	-0,170
-235,073	-155,873	0,045	-0,002
-234,059	-115,027	0,078	-0,010
-233,044	-30,604	-0,042	0,017
-232,030	-51,557	-0,049	-0,016
-231,015	-200,000	0,006	-0,074
-230,000	-75,352	-0,050	0,013
-228,986	-200,000	0,005	0,018
-227,971	-200,000	0,045	-0,144
-226,957	-45,526	-0,062	0,022
-225,942	-101,284	-0,039	0,007
-224,927	-200,000	-0,010	0,044
-223,913	-103,931	-0,062	0,010
-222,898	800,000	-0,021	-0,050
-221,884	800,000	0,032	-0,091
-220,869	-0,947	0,165	0,083
-219,855	5,617	0,099	0,052
-218,840	800,000	0,051	0,112
-217,825	414,653	-0,004	-0,006
-216,811	46,470	-0,143	-0,095
-215,796	-200,000	0,023	-0,081
-214,782	561,700	-0,016	0,028
-213,767	1,951	0,124	0,064
-212,752	-131,557	0,015	0,001
-211,738	-91,351	-0,083	-0,017
-210,723	-74,538	-0,050	-0,013
-209,709	10,483	-0,079	-0,043
-208,694	346,730	-0,070	-0,098
-207,679	628,870	-0,079	-0,143
-206,665	-80,749	0,054	0,013
-205,650	-68,261	0,054	0,015
-204,636	792,539	0,076	0,150
-203,621	15,114	0,104	0,058
-202,606	-200,000	0,011	-0,044
-201,592	164,563	0,017	-0,017
-200,577	-200,000	-0,008	-0,058
-199,563	79,415	0,038	-0,029
-198,548	542,080	0,083	-0,142
-197,533	566,617	0,006	0,010
-196,519	37,660	-0,069	0,043
-195,504	-200,000	-0,008	0,129
-194,490	267,150	-0,051	-0,063
-193,475	-26,405	-0,033	-0,014
-192,460	-57,791	0,103	0,032
-191,446	171,057	0,053	0,054
-190,431	-200,000	0,018	0,084
-189,417	800,000	0,080	0,221
-188,402	119,456	0,045	0,039
-187,387	-200,000	-0,009	-0,029
-186,373	172,247	-0,106	0,109
-185,358	-126,838	-0,077	-0,008
-184,344	-89,745	0,336	0,070
-183,329	-40,870	0,075	0,027
-182,315	-200,000	0,016	0,191
-181,300	74,119	-0,061	0,046
-180,285	473,598	-0,009	0,014
-179,271	-112,531	-0,053	-0,008
-178,256	257,344	-0,013	-0,016
-177,242	-200,000	0,026	-0,084
-176,227	9,868	0,012	-0,006
-175,212	7,571	0,055	0,029
-174,198	-12,947	0,076	0,035
-173,183	20,336	-0,100	-0,057
-172,169	-126,511	-0,126	0,013
-171,154	-127,181	0,098	0,010
-170,139	800,000	-0,033	0,096
-169,125	-8,377	0,048	-0,023
-168,110	519,378	0,044	0,074
-167,096	177,645	0,062	-0,064
-166,081	329,100	-0,047	-0,064
-165,066	251,882	-0,008	0,009
-164,052	-200,000	0,014	0,067
-163,037	673,636	0,066	0,122
-162,023	-97,090	-0,082	-0,015
-161,008	-200,000	0,015	0,089
-159,993	-200,000	-0,025	0,189
-158,979	-200,000	-0,017	0,143
-157,964	-49,570	0,095	0,032
-156,950	-19,461	0,054	0,024
-155,935	-73,516	0,044	-0,011
-154,920	-200,000	-0,007	-0,070
-153,906	-128,021	0,117	0,012
-152,891	58,532	-0,086	0,060
-151,877	-127,105	0,071	-0,007
-150,862	196,998	0,054	-0,058
-149,847	800,000	-0,024	0,060
-148,833	64,086	0,022	-0,016
-147,818	-200,000	0,008	0,036
-146,804	800,000	0,026	0,055
-145,789	-200,000	-0,006	0,049
-144,775	-40,556	-0,122	0,045
-143,760	-200,000	0,027	-0,102
-142,745	155,741	-0,049	0,048
-141,731	233,939	0,016	0,019
-140,716	47,131	0,004	-0,003
-139,702	271,763	0,102	-0,128
-138,687	-200,000	-0,001	0,023
-137,672	-7,987	-0,123	-0,059
-136,658	800,000	-0,059	-0,125
-135,643	-82,913	0,172	-0,039
-134,629	-42,207	-0,104	0,038
-133,614	-56,727	0,072	0,023
-132,599	-200,000	0,004	0,152
-131,585	-34,975	-0,066	0,026
-130,570	-200,000	0,020	-0,081
-129,556	-200,000	-0,017	0,105
-128,541	-200,000	0,042	-0,163
-127,526	273,625	-0,006	0,007
-126,512	407,062	0,101	0,152
-125,497	-200,000	0,011	0,096
-124,483	87,522	-0,110	0,086
-123,468	-200,000	0,007	0,091
-122,453	-66,812	-0,129	0,036
-121,439	160,795	-0,033	-0,033
-120,424	-200,000	-0,015	-0,067
-119,410	7,643	0,138	0,073
-118,395	169,559	-0,007	-0,007
-117,380	142,901	-0,024	-0,023
-116,366	-200,000	-0,028	-0,098
-115,351	-96,048	0,120	-0,022
-114,337	-200,000	-0,018	-0,110
-113,322	-43,568	-0,019	0,007
-112,307	765,948	-0,061	-0,119
-111,293	594,717	-0,051	-0,089
-110,278	-200,000	-0,007	0,167
-109,264	-200,000	0,003	0,012
-108,249	102,174	-0,053	-0,044
-107,234	334,945	-0,032	-0,044
-106,220	0,413	-0,055	0,028
-105,205	800,000	0,010	0,027
-104,191	-200,000	-0,022	0,123
-103,176	-15,750	-0,121	-0,055
-102,162	-200,000	0,004	-0,193
-101,147	-119,710	-0,167	-0,020
-100,132	800,000	-0,044	0,112
-99,118	469,079	0,087	-0,139
-98,103	-13,950	-0,058	-0,027
-97,089	409,376	-0,014	0,022
-96,074	-200,000	-0,014	0,048
-95,059	183,379	-0,019	-0,020
-94,045	-200,000	0,012	0,109
-93,030	-149,525	-0,175	0,010
-92,016	28,265	-0,262	-0,157
-91,001	629,613	-0,034	-0,061
-89,986	800,000	-0,076	-0,175
-88,972	46,879	0,089	-0,058
-87,957	138,147	0,098	0,091
-86,943	-86,184	0,150	0,032
-85,928	629,103	0,037	-0,067
-84,913	800,000	-0,042	0,099
-83,899	-22,749	-0,053	0,022
-82,884	561,254	-0,011	-0,019
-81,870	128,454	-0,028	0,025
-80,855	800,000	-0,026	-0,073
-79,840	-7,016	-0,052	0,025
-78,826	-120,225	0,167	-0,020
-77,811	-200,000	-0,011	-0,059
-76,797	383,440	0,045	0,066
-75,782	725,713	0,038	0,073
-74,767	-97,520	0,060	0,011
-73,753	-125,577	0,070	0,007
-72,738	267,966	-0,015	0,019
-71,724	-200,000	0,002	0,037
-70,709	-182,925	0,135	-0,002
-69,694	-33,107	-0,078	-0,030
-68,680	364,061	-0,049	-0,071
-67,665	-200,000	-0,014	0,144
-66,651	91,636	-0,158	0,126
-65,636	-32,984	0,017	0,007
-64,622	800,000	0,052	-0,125
-63,607	90,777	-0,032	0,026
-62,592	-200,000	0,029	-0,146
-61,578	-75,302	-0,066	-0,016
-60,563	12,700	-0,094	0,051
-59,549	43,270	-0,095	0,061
-58,534	-50,877	-1,502	-0,497
-57,519	319,408	-1,532	-2,064
-56,505	-200,000	-0,623	-4,572
-55,490	202,023	0,926	1,013
-54,476	800,000	4,958	11,253
-53,461	-200,000	18,378	293,589
-52,446	800,000	729,821	2247,591
-51,432	559,256	1645,637	2826,042
-50,417	79,004	1665,980	1262,737
-49,403	22,543	1539,279	890,006
-48,388	16,509	1462,390	816,296
-47,373	17,834	1452,701	817,247
-46,359	17,133	1442,684	808,222
-45,344	14,773	1437,992	794,285
-44,330	14,694	1436,182	792,879
-43,315	14,713	1434,461	791,989
-42,300	14,702	1432,843	791,010
-41,286	14,733	1431,732	790,512
-40,271	14,702	1430,201	789,487
-39,257	14,724	1429,014	788,905
-38,242	14,760	1427,736	788,340
-37,227	14,761	1426,593	787,682
-36,213	14,765	1425,194	786,898
-35,198	14,759	1424,129	786,251
-34,184	14,792	1423,303	785,921
-33,169	14,691	1421,909	784,642
-32,154	14,744	1420,818	784,260
-31,140	14,763	1419,442	783,558
-30,125	14,761	1418,413	782,948
-29,111	14,709	1417,405	782,118
-28,096	14,707	1416,254	781,442
-27,082	14,641	1415,302	780,574
-26,067	14,672	1413,980	779,958
-25,052	14,644	1413,027	779,273
-24,038	14,668	1412,103	778,844
-23,023	14,635	1411,082	778,097
-22,009	14,712	1410,005	777,830
-20,994	14,624	1409,087	776,882
-19,979	14,630	1408,216	776,397
-18,965	14,561	1407,428	775,608
-17,950	14,579	1406,291	775,037
-16,936	14,584	1405,252	774,460
-15,921	14,547	1404,321	773,740
-14,906	14,569	1403,298	773,251
-13,892	14,563	1402,457	772,725
-12,877	14,560	1401,472	772,140
-11,863	14,610	1400,448	771,778
-10,848	14,526	1399,582	770,881
-9,833	14,545	1398,827	770,520
-8,819	14,533	1397,936	769,942
-7,804	14,497	1396,875	769,161
-6,790	14,506	1395,711	768,533
-5,775	14,482	1394,901	767,943
-4,760	14,467	1393,989	767,344
-3,746	14,462	1393,204	766,856
-2,731	14,432	1392,618	766,364
-1,717	14,499	1391,600	766,084
-0,702	14,466	1389,780	764,900
0,313	18,296	1308,463	737,870
1,327	34,700	705,865	436,054
2,342	53,255	124,248	84,160
3,356	4,821	16,601	8,614
4,371	3,493	3,069	1,579
5,386	7,206	0,551	0,290
6,400	236,656	0,159	0,186
7,415	45,278	-0,347	-0,226
8,429	415,897	-0,140	-0,212
9,444	66,659	-0,366	-0,263
10,459	74,660	-0,345	-0,256
11,473	16,230	-0,268	-0,149
12,488	26,704	-0,270	-0,159
13,502	134,927	-0,240	-0,220
14,517	35,204	-0,366	-0,226
15,531	-15,014	-0,363	-0,164
16,546	178,337	-0,359	-0,371
17,561	-11,090	-0,412	-0,191
18,575	366,594	-0,174	-0,249
19,590	294,311	-0,242	-0,314
20,604	8,864	-0,226	-0,120
21,619	49,972	-0,378	-0,252
22,634	173,299	-0,392	-0,400
23,648	102,553	-0,402	-0,332
24,663	155,372	-0,356	-0,347
25,677	171,122	-0,336	-0,341
26,692	94,254	-0,272	-0,218
27,707	4,320	-0,354	-0,183
28,721	167,618	-0,315	-0,317
29,736	290,327	-0,352	-0,452
30,750	88,483	-0,432	-0,339
31,765	84,793	-0,361	-0,279
32,780	177,739	-0,336	-0,346
33,794	-46,980	-0,360	-0,124
34,809	-67,052	-0,329	-0,091
35,823	50,629	-0,415	-0,277
36,838	54,314	-0,246	-0,167
37,853	113,757	-0,515	-0,442
38,867	56,273	-0,378	-0,259
39,882	40,097	-0,307	-0,194
40,896	-50,308	-0,199	-0,066
41,911	84,753	-0,194	-0,150
42,926	-8,522	-0,341	-0,161
43,940	130,782	-0,249	-0,225
44,955	82,591	-0,406	-0,311
45,969	186,726	-0,325	-0,342
46,984	36,571	-0,360	-0,224
47,999	111,755	-0,293	-0,249
49,013	247,057	-0,220	-0,262
50,028	30,702	-0,334	-0,201
51,042	181,036	-0,250	-0,259
52,057	90,166	-0,375	-0,295
53,071	12,321	-0,498	-0,270
54,086	121,072	-0,308	-0,270
55,101	53,453	-0,234	-0,158
56,115	-23,763	-0,466	-0,196
57,130	86,509	-0,384	-0,298
58,144	45,537	-0,436	-0,283
59,159	35,258	-0,454	-0,280
60,174	-3,998	-0,484	-0,236
61,188	2,481	-0,428	-0,218
62,203	45,791	-0,414	-0,269
63,217	-63,787	-0,328	-0,094
64,232	36,645	-0,233	-0,145
65,247	-20,853	-0,340	-0,146
66,261	208,820	-0,347	-0,382
67,276	21,946	-0,383	-0,220
68,290	119,805	-0,308	-0,269
69,305	-20,393	-0,359	-0,155
70,320	68,359	-0,146	-0,105
71,334	25,141	-0,309	-0,180
72,349	-5,971	-0,330	-0,158
73,363	-104,017	-0,348	-0,057
74,378	37,262	-0,300	-0,187
75,393	-87,015	-0,342	-0,073
76,407	81,775	-0,430	-0,327
77,422	55,594	-0,316	-0,215
78,436	378,978	-0,139	-0,200
79,451	8,375	-0,328	-0,173
80,466	-43,680	-0,364	-0,128
81,480	56,605	-0,306	-0,209
82,495	215,174	-0,289	-0,323
83,509	0,925	-0,307	-0,154
84,524	224,918	-0,134	-0,153
85,539	123,852	-0,324	-0,286
86,553	20,620	-0,320	-0,181
87,568	-66,849	-0,394	-0,109
88,582	105,890	-0,235	-0,195
89,597	-30,414	-0,337	-0,134
90,611	316,213	-0,237	-0,315
91,626	3,279	-0,346	-0,176
92,641	12,151	-0,318	-0,172
93,655	99,144	-0,334	-0,271
94,670	170,970	-0,259	-0,261
95,684	-1,119	-0,273	-0,135
96,699	58,805	-0,313	-0,216
97,714	-40,898	-0,179	-0,065
98,728	83,775	-0,241	-0,185
99,743	-20,922	-0,289	-0,124
100,757	-47,842	-0,232	-0,078
101,772	67,246	-0,424	-0,303
102,787	234,999	-0,232	-0,269
103,801	74,236	-0,271	-0,199
104,816	87,271	-0,255	-0,197
105,830	4,044	-0,385	-0,197
106,845	-79,917	-0,315	-0,074
107,860	800,000	-0,085	-0,181
108,874	272,795	-0,231	-0,286
109,889	-124,814	-0,307	-0,033
110,903	-3,836	-0,296	-0,144
111,918	148,026	-0,261	-0,247
112,933	90,263	-0,330	-0,259
113,947	0,147	-0,271	-0,135
114,962	219,598	-0,193	-0,217
115,976	-200,000	-0,237	-0,000
116,991	-0,596	-0,400	-0,198
118,006	124,827	-0,293	-0,258
119,020	36,397	-0,160	-0,099
120,035	49,348	-0,184	-0,121
121,049	270,230	-0,202	-0,249
122,064	523,762	-0,147	-0,243
123,079	102,894	-0,282	-0,231
124,093	101,875	-0,225	-0,184
125,108	30,134	-0,340	-0,203
126,122	1,280	-0,298	-0,150
127,137	20,676	-0,273	-0,154
128,151	226,959	-0,172	-0,196
129,166	-2,394	-0,232	-0,114
130,181	-51,634	-0,284	-0,092
131,195	21,672	-0,179	-0,102
132,210	9,116	-0,369	-0,194
133,224	114,490	-0,189	-0,161
134,239	-175,079	-0,321	0,006
135,254	800,000	-0,091	-0,190
136,268	86,778	-0,138	-0,106
137,283	83,035	-0,205	-0,156
138,297	266,662	-0,211	-0,259
139,312	-74,515	-0,236	-0,059
140,327	141,737	-0,242	-0,224
141,341	-122,835	-0,283	0,032
142,356	136,143	-0,209	-0,190
143,370	18,200	-0,244	-0,136
144,385	54,468	-0,226	-0,152
145,400	-4,764	-0,336	-0,162
146,414	151,379	-0,279	-0,266
147,429	67,608	-0,215	-0,153
148,443	-200,000	-0,052	-0,295
149,458	-10,586	-0,230	-0,106
150,473	55,862	-0,261	-0,177
151,487	356,315	-0,144	-0,201
152,502	44,856	-0,269	-0,173
153,516	-11,262	-0,357	-0,164
154,531	273,584	-0,179	-0,221
155,546	-51,278	-0,316	-0,103
156,560	188,070	-0,236	-0,247
157,575	-31,460	-0,280	-0,110
158,589	-63,200	-0,184	-0,053
159,604	189,466	-0,187	-0,196
160,619	800,000	-0,126	-0,288
161,633	45,747	-0,269	-0,173
162,648	38,985	-0,192	-0,120
163,662	349,024	-0,246	-0,340
164,677	290,659	-0,166	-0,211
165,692	22,300	-0,199	-0,113
166,706	23,245	-0,269	-0,154
167,721	207,488	-0,223	-0,243
168,735	320,399	-0,206	-0,273
169,750	171,387	-0,228	-0,228
170,764	-33,917	-0,277	-0,106
171,779	14,617	-0,359	-0,195
172,794	-30,992	-0,253	-0,099
173,808	-30,527	-0,301	-0,118
174,823	196,649	-0,243	-0,259
175,837	118,963	-0,241	-0,208
176,852	212,529	-0,201	-0,221
177,867	112,407	-0,267	-0,225
178,881	66,093	-0,182	-0,129
179,896	800,000	-0,084	-0,228
180,910	58,648	-0,316	-0,216
181,925	114,402	-0,217	-0,184
182,940	-50,924	-0,283	-0,092
183,954	4,959	-0,223	-0,114
184,969	-139,172	-0,276	-0,020
185,983	425,118	-0,124	-0,187
186,998	-72,728	-0,348	-0,089
188,013	35,048	-0,111	-0,068
189,027	12,360	-0,291	-0,156
190,042	-57,698	-0,231	-0,070
191,056	350,434	-0,120	-0,166
192,071	-78,665	-0,277	-0,066
193,086	45,215	-0,325	-0,208
194,100	745,809	-0,070	-0,131
195,115	-89,859	-0,194	-0,039
196,129	337,137	-0,176	-0,239
197,144	-91,422	-0,205	-0,040
198,159	-53,533	-0,271	-0,086
199,173	46,554	-0,257	-0,165
200,188	109,181	-0,217	-0,181
201,202	-4,264	-0,258	-0,124
202,217	-31,807	-0,145	-0,056
203,232	33,479	-0,224	-0,135
204,246	157,967	-0,180	-0,174
205,261	16,844	-0,255	-0,140
206,275	636,630	-0,104	-0,185
207,290	67,666	-0,163	-0,115
208,304	14,550	-0,241	-0,131
209,319	44,779	-0,282	-0,180
210,334	-38,389	-0,168	-0,062
211,348	-16,746	-0,136	0,060
212,363	-3,091	-0,175	-0,084
213,377	366,447	-0,128	-0,180
214,392	-96,307	-0,240	-0,044
215,407	79,175	-0,219	-0,163
216,421	27,964	-0,215	-0,126
217,436	22,951	-0,305	-0,173
218,450	169,218	-0,218	-0,216
219,465	-13,107	-0,191	-0,086
220,480	311,804	-0,130	-0,170
221,494	114,184	-0,217	-0,184
222,509	-33,593	-0,093	-0,035
223,523	48,560	-0,123	-0,080
224,538	-64,585	-0,368	-0,103
225,553	-67,500	-0,184	-0,050
226,567	160,841	-0,178	-0,173
227,582	295,768	-0,182	-0,232
228,596	411,826	-0,144	-0,212
229,611	-17,259	-0,179	-0,078
230,626	98,851	-0,187	-0,150
231,640	138,444	-0,173	-0,158
232,655	34,457	-0,235	-0,142
233,669	20,418	-0,300	-0,168
234,684	390,495	-0,191	-0,276
235,699	268,877	-0,087	-0,106
236,713	-60,984	-0,093	-0,027
237,728	148,704	-0,140	-0,131
238,742	144,864	-0,111	-0,103
239,757	113,357	-0,219	-0,184
240,772	28,945	-0,239	-0,140
241,786	525,793	-0,158	-0,259
242,801	131,358	-0,144	-0,128
243,815	36,973	-0,140	-0,086
244,830	81,472	-0,235	-0,176
245,844	-24,734	-0,213	-0,087
246,859	123,449	-0,219	-0,191
247,874	144,993	-0,151	-0,140
248,888	-46,665	-0,248	-0,084
249,903	418,675	-0,193	-0,287
250,917	304,080	-0,125	-0,161
251,932	206,019	-0,125	-0,134
252,947	800,000	-0,083	-0,197
253,961	471,568	-0,098	-0,154
254,976	136,971	-0,175	-0,159
255,990	26,412	-0,172	-0,099
257,005	503,909	-0,082	-0,132
258,020	800,000	-0,033	-0,086
259,034	455,470	-0,113	-0,175
260,049	-20,559	-0,142	-0,060
261,063	245,566	-0,151	-0,176
262,078	742,045	-0,157	-0,293
263,093	-95,121	-0,280	-0,052
264,107	705,520	-0,162	-0,298
265,122	-24,260	-0,141	0,058
266,136	605,421	-0,069	-0,119
267,151	253,327	-0,151	-0,179
268,166	-142,835	-0,131	-0,009
269,180	-61,686	-0,112	-0,032
270,195	-41,936	-0,181	-0,064
271,209	-49,871	-0,187	0,061
272,224	-164,326	-0,124	0,004
273,239	-72,660	-0,157	-0,040
274,253	191,836	-0,153	-0,160
275,268	116,850	-0,170	-0,144
276,282	-156,187	-0,173	-0,007
277,297	273,127	-0,214	-0,262
278,312	-67,077	-0,170	0,046
279,326	-171,265	-0,197	-0,004
280,341	800,000	-0,067	-0,166
281,355	4,855	-0,126	-0,064
282,370	800,000	-0,026	-0,066
283,384	63,799	-0,086	-0,059
284,399	85,954	-0,223	-0,169
285,414	-108,743	-0,250	-0,037
286,428	133,870	-0,123	-0,110
287,443	-85,891	-0,168	-0,036
288,457	800,000	-0,049	-0,147
289,472	63,663	-0,189	-0,131
290,487	403,462	-0,160	-0,232
291,501	-50,456	-0,077	-0,025
292,516	32,291	-0,101	-0,060
293,530	-29,412	-0,123	-0,048
294,545	-45,663	-0,104	-0,035
295,560	-9,331	-0,122	-0,056
296,574	17,658	-0,140	-0,077
297,589	-31,167	-0,214	-0,083
298,603	189,215	-0,163	-0,168
299,618	-115,624	-0,230	0,029
300,633	3,544	-0,229	-0,115
301,647	61,431	-0,086	-0,059
302,662	-200,000	-0,043	-0,131
303,676	559,949	-0,061	-0,102
304,691	-151,783	-0,190	0,009
305,706	222,924	-0,125	-0,140
306,720	-11,952	-0,153	-0,069
307,735	79,751	-0,147	-0,109
308,749	114,791	-0,212	-0,178
309,764	-11,865	-0,092	0,042
310,779	5,623	-0,073	0,037
311,793	116,305	-0,191	-0,161
312,808	111,338	-0,117	-0,097
313,822	34,865	-0,213	-0,128
314,837	-41,383	-0,121	-0,043
315,852	159,754	-0,043	-0,041
316,866	45,076	-0,109	-0,069
317,881	364,588	-0,051	-0,071
318,895	134,279	-0,103	-0,092
319,910	-100,446	-0,250	-0,042
320,925	37,309	-0,189	-0,115
321,939	-109,447	-0,115	0,017
322,954	13,215	-0,194	-0,103
323,968	-61,719	-0,054	0,015
324,983	-26,896	-0,268	-0,107
325,997	271,578	-0,159	-0,193
327,012	60,899	-0,188	-0,128
328,027	681,418	-0,100	-0,180
329,041	-63,284	-0,243	-0,068
330,056	-2,002	-0,188	-0,091
331,070	180,904	-0,050	-0,050
332,085	489,885	-0,083	-0,130
333,100	-77,479	-0,098	-0,023
334,114	50,373	-0,239	-0,155
335,129	27,177	-0,309	-0,178
336,143	800,000	-0,050	-0,103
337,158	456,944	-0,171	-0,262
338,173	-136,885	-0,213	0,017
339,187	-38,709	-0,135	-0,049
340,202	-200,000	-0,009	-0,061
341,216	-108,632	-0,137	0,020
342,231	447,567	-0,134	-0,203
343,246	8,680	-0,240	-0,124
344,260	-91,724	-0,145	0,028
345,275	-80,396	-0,078	0,018
346,289	490,790	-0,101	-0,159
347,304	-119,191	-0,160	-0,019
348,319	-30,423	-0,216	-0,084
349,333	800,000	-0,086	-0,175
350,348	240,674	-0,143	-0,164
351,362	-196,069	-0,080	-0,000
352,377	-11,224	-0,135	-0,061
353,392	27,374	-0,081	0,046
354,406	-44,746	-0,167	-0,057
355,421	207,893	1312,425	1409,008
356,435	159,937	1472,895	1409,509
