DTS Sentinel unit serial number:	SN410029Multiplexer serial number:	ORYXHardware model number:	OX2-SRSoftware version number:	ORYX F/W v4,00 Oryx Data Collector v3.7.2.0data status	okinstallation	B3 Nyhavnadifferential loss correction	single-endedforward channel	channel 1reverse channel	N/Adate	2023/11/29time	19:17:30forward acquisition time	300,00reverse acquisition time	0,00gamma	499,1914k internal	0,3210k external	0,3210temperature offset calibration	1,0000default loss term (dB/km)	0,3820temperature slope calibration	1,0000multiplexer offset coefficient	1,0000multiplexer slope coefficient	1,0000fibre end	0,00T internal ref (°C)	10,99T ext. ref 1 (°C)	-4,32T ext. ref 2 (°C)	-4,44length (m)	temperature (°C)	Stokes	anti-Stokes-744,400	227,911	-0,213	-0,251
-743,385	-200,000	0,007	0,158
-742,371	150,926	-0,111	-0,110
-741,356	-200,000	0,051	0,287
-740,342	64,673	-0,237	-0,173
-739,327	-200,000	0,029	0,286
-738,312	240,904	-0,280	-0,340
-737,298	-200,000	0,030	0,218
-736,283	649,291	-0,110	-0,206
-735,269	800,000	-0,063	0,167
-734,254	85,111	-0,166	-0,132
-733,239	-103,644	-0,242	0,041
-732,225	-200,000	-0,071	-0,309
-731,210	45,636	0,176	0,118
-730,196	-92,030	-0,137	0,028
-729,181	-200,000	-0,003	-0,030
-728,167	-153,658	-0,071	-0,003
-727,152	-200,000	-0,021	-0,082
-726,137	-200,000	-0,049	-0,198
-725,123	429,644	0,035	-0,055
-724,108	676,847	-0,043	0,082
-723,094	-200,000	-0,017	-0,118
-722,079	-200,000	0,027	-0,134
-721,064	-200,000	-0,024	-0,141
-720,050	59,228	0,144	-0,103
-719,035	800,000	-0,026	-0,074
-718,021	-84,037	-0,084	0,019
-717,006	-83,562	-0,114	0,026
-715,991	597,083	-0,081	-0,145
-714,977	800,000	-0,025	-0,070
-713,962	-132,692	-0,143	-0,013
-712,948	196,770	-0,085	-0,094
-711,933	171,558	0,036	0,037
-710,918	496,571	0,106	0,177
-709,904	-114,780	-0,107	0,015
-708,889	800,000	-0,036	-0,103
-707,875	-200,000	-0,017	0,058
-706,860	21,565	-0,113	0,066
-705,845	68,640	0,073	-0,054
-704,831	-159,929	-0,083	-0,003
-703,816	86,567	-0,101	0,080
-702,802	-9,995	-0,023	0,011
-701,787	-29,467	-0,079	-0,033
-700,772	-200,000	0,040	-0,170
-699,758	-29,871	-0,007	0,003
-698,743	800,000	0,047	0,102
-697,729	-200,000	0,005	0,059
-696,714	800,000	0,043	0,093
-695,699	303,717	0,047	-0,063
-694,685	-200,000	0,022	0,072
-693,670	-45,307	-0,127	0,046
-692,656	-17,441	-0,044	-0,020
-691,641	-65,205	0,119	-0,034
-690,627	211,900	0,033	-0,038
-689,612	-100,095	-0,026	0,005
-688,597	367,225	0,048	-0,070
-687,583	-57,119	-0,202	0,064
-686,568	81,560	-0,090	-0,071
-685,554	-200,000	0,010	-0,131
-684,539	800,000	-0,026	0,061
-683,524	-200,000	0,024	-0,084
-682,510	-200,000	-0,017	0,066
-681,495	-200,000	0,040	-0,133
-680,481	111,409	-0,142	-0,124
-679,466	-200,000	0,029	-0,124
-678,451	-200,000	-0,032	-0,147
-677,437	76,143	-0,075	-0,057
-676,422	-200,000	0,040	0,132
-675,408	20,696	0,046	0,027
-674,393	-200,000	0,028	-0,139
-673,378	72,194	-0,042	0,032
-672,364	-200,000	0,016	-0,086
-671,349	-65,458	-0,076	-0,022
-670,335	6,569	0,039	0,021
-669,320	365,538	-0,050	0,072
-668,305	-77,106	-0,039	0,010
-667,291	222,870	0,053	0,062
-666,276	97,720	-0,120	0,100
-665,262	733,172	0,054	-0,105
-664,247	279,543	-0,042	-0,055
-663,232	800,000	-0,032	-0,079
-662,218	147,433	0,015	-0,014
-661,203	-62,499	-0,142	0,043
-660,189	299,824	-0,047	0,063
-659,174	-68,657	-0,129	-0,036
-658,159	644,470	-0,048	0,088
-657,145	49,974	-0,069	0,047
-656,130	167,609	-0,014	-0,014
-655,116	-200,000	0,049	0,200
-654,101	-200,000	-0,010	-0,097
-653,086	472,294	-0,034	0,056
-652,072	-29,781	-0,144	0,059
-651,057	-200,000	0,022	-0,119
-650,043	-171,707	0,032	0,001
-649,028	60,769	0,151	0,108
-648,014	-200,000	-0,013	-0,045
-646,999	26,618	-0,006	-0,004
-645,984	800,000	0,026	-0,071
-644,970	-125,741	-0,093	-0,010
-643,955	-126,308	0,172	-0,018
-642,941	-52,112	-0,062	-0,021
-641,926	-200,000	0,017	-0,062
-640,911	225,731	0,076	0,089
-639,897	28,255	0,099	0,060
-638,882	57,990	-0,048	0,034
-637,868	-200,000	0,013	-0,061
-636,853	7,139	-0,188	-0,101
-635,838	137,609	-0,071	0,067
-634,824	761,860	0,064	0,126
-633,809	800,000	-0,030	-0,063
-632,795	-158,977	0,112	0,004
-631,780	359,037	-0,018	0,026
-630,765	-66,412	0,088	-0,025
-629,751	-43,895	-0,091	0,033
-628,736	155,276	0,052	-0,052
-627,722	173,907	-0,135	0,141
-626,707	301,750	-0,027	-0,037
-625,692	-157,379	0,151	0,006
-624,678	800,000	-0,032	-0,090
-623,663	-168,591	0,068	-0,002
-622,649	-200,000	0,006	-0,049
-621,634	-44,193	0,079	-0,028
-620,619	-132,836	-0,099	0,009
-619,605	-146,074	-0,045	-0,003
-618,590	-109,414	-0,095	0,014
-617,576	-39,706	0,098	0,037
-616,561	800,000	-0,028	-0,067
-615,546	92,843	-0,048	-0,039
-614,532	40,811	-0,100	-0,065
-613,517	-178,002	-0,103	0,002
-612,503	-200,000	0,016	-0,147
-611,488	-200,000	0,028	-0,159
-610,474	13,550	0,035	-0,019
-609,459	113,626	-0,073	-0,064
-608,444	296,929	0,031	-0,041
-607,430	-200,000	0,010	-0,083
-606,415	287,162	-0,028	0,037
-605,401	-125,690	0,204	0,022
-604,386	24,513	-0,107	-0,064
-603,371	800,000	-0,005	-0,015
-602,357	-55,802	-0,052	-0,017
-601,342	-18,240	-0,041	-0,018
-600,328	-69,021	-0,148	-0,041
-599,313	-200,000	-0,014	-0,151
-598,298	-200,000	0,024	0,131
-597,284	-200,000	-0,007	0,028
-596,269	143,121	0,015	-0,015
-595,255	-56,268	0,107	0,034
-594,240	15,088	-0,133	-0,075
-593,225	-200,000	0,007	-0,102
-592,211	800,000	0,033	-0,067
-591,196	-200,000	-0,001	0,017
-590,182	-130,874	0,075	-0,007
-589,167	800,000	-0,070	0,166
-588,152	-75,458	0,041	-0,010
-587,138	172,804	0,081	0,084
-586,123	-53,730	-0,035	0,011
-585,109	-33,541	-0,062	-0,024
-584,094	-200,000	0,009	0,064
-583,079	800,000	0,041	0,106
-582,065	420,028	0,059	0,091
-581,050	-200,000	-0,015	0,072
-580,036	24,335	0,148	-0,088
-579,021	-77,057	-0,126	-0,031
-578,006	-135,676	-0,175	-0,015
-576,992	800,000	-0,017	-0,037
-575,977	-117,439	0,094	0,012
-574,963	-200,000	-0,007	0,023
-573,948	-79,121	-0,137	-0,033
-572,934	199,266	-0,018	0,020
-571,919	227,228	-0,053	0,062
-570,904	-200,000	-0,035	0,133
-569,890	142,046	-0,094	-0,090
-568,875	-53,774	-0,146	0,048
-567,861	97,825	-0,092	0,076
-566,846	-162,037	0,034	-0,001
-565,831	110,274	0,024	0,020
-564,817	-200,000	0,017	-0,091
-563,802	141,610	-0,198	-0,189
-562,788	800,000	0,010	0,032
-561,773	84,029	0,141	0,110
-560,758	79,808	-0,036	-0,028
-559,744	-104,381	0,070	-0,012
-558,729	160,912	-0,075	-0,075
-557,715	414,244	0,053	-0,082
-556,700	800,000	-0,036	-0,098
-555,685	-200,000	-0,005	-0,165
-554,671	60,894	-0,009	0,007
-553,656	800,000	0,019	-0,052
-552,642	-200,000	-0,027	0,179
-551,627	-200,000	0,055	0,259
-550,612	364,779	0,027	0,040
-549,598	-109,570	-0,031	0,005
-548,583	-200,000	-0,022	-0,124
-547,569	-143,523	-0,105	0,007
-546,554	-107,502	0,102	-0,016
-545,539	-18,091	0,104	0,047
-544,525	-200,000	-0,017	0,094
-543,510	-154,828	-0,048	0,002
-542,496	430,478	-0,025	-0,039
-541,481	-152,808	-0,145	-0,007
-540,466	430,905	-0,020	0,031
-539,452	-200,000	-0,017	-0,083
-538,437	53,909	0,068	-0,047
-537,423	-200,000	0,039	0,193
-536,408	744,229	0,010	-0,019
-535,393	800,000	-0,048	-0,097
-534,379	307,721	0,030	0,040
-533,364	-200,000	0,009	-0,284
-532,350	54,656	0,037	-0,026
-531,335	-99,485	0,165	0,030
-530,321	364,768	-0,056	0,081
-529,306	51,107	-0,097	-0,066
-528,291	199,156	0,019	0,021
-527,277	111,844	-0,105	-0,091
-526,262	353,100	0,040	0,058
-525,248	-66,225	0,083	0,024
-524,233	-39,981	0,153	0,057
-523,218	-7,592	-0,159	0,077
-522,204	-12,789	0,059	0,028
-521,189	-62,204	-0,041	-0,012
-520,175	-12,891	-0,039	0,018
-519,160	-65,039	0,061	0,018
-518,145	-200,000	-0,004	0,026
-517,131	-76,247	-0,118	0,030
-516,116	-19,090	0,131	-0,058
-515,102	-200,000	0,013	0,052
-514,087	-200,000	-0,001	-0,119
-513,072	65,413	-0,019	-0,014
-512,058	-200,000	0,019	-0,078
-511,043	405,463	-0,041	0,062
-510,029	552,022	0,095	0,165
-509,014	-102,459	0,121	-0,021
-507,999	-145,945	-0,062	0,004
-506,985	-148,944	-0,090	0,005
-505,970	-31,102	-0,053	-0,021
-504,956	94,456	-0,060	-0,049
-503,941	-159,069	0,040	0,002
-502,926	-200,000	0,010	0,153
-501,912	800,000	0,047	0,143
-500,897	35,405	0,043	-0,027
-499,883	-200,000	-0,001	0,183
-498,868	800,000	-0,046	0,115
-497,853	-173,585	0,036	0,001
-496,839	708,266	-0,044	0,085
-495,824	-49,843	-0,113	0,038
-494,810	73,073	0,066	-0,050
-493,795	-200,000	0,018	-0,060
-492,781	12,615	0,054	0,030
-491,766	-200,000	0,035	-0,162
-490,751	-200,000	0,033	-0,201
-489,737	233,645	-0,076	0,090
-488,722	-200,000	-0,048	0,243
-487,708	-200,000	0,010	0,183
-486,693	190,095	-0,057	0,061
-485,678	323,484	0,064	0,088
-484,664	-200,000	0,014	-0,069
-483,649	706,966	-0,013	-0,026
-482,635	78,159	-0,081	-0,062
-481,620	-200,000	-0,013	0,098
-480,605	238,064	0,057	0,068
-479,591	-64,985	-0,230	-0,066
-478,576	171,221	0,016	0,017
-477,562	23,105	-0,066	0,039
-476,547	236,705	-0,084	-0,099
-475,532	-34,030	0,121	-0,048
-474,518	-76,228	-0,154	0,039
-473,503	163,919	0,109	0,110
-472,489	-57,237	0,135	-0,042
-471,474	-120,211	-0,028	0,003
-470,459	-14,016	-0,101	0,046
-469,445	-200,000	0,016	-0,133
-468,430	-21,355	-0,045	-0,020
-467,416	-130,862	0,084	-0,008
-466,401	44,502	0,139	0,092
-465,386	278,359	0,048	-0,061
-464,372	630,899	-0,061	-0,111
-463,357	271,178	-0,144	0,183
-462,343	-200,000	-0,004	-0,026
-461,328	542,350	-0,073	-0,125
-460,313	14,290	-0,052	-0,029
-459,299	-60,214	0,080	0,024
-458,284	40,397	0,172	-0,111
-457,270	-132,118	0,029	-0,003
-456,255	71,474	0,066	-0,049
-455,241	800,000	-0,045	0,092
-454,226	800,000	0,029	-0,058
-453,211	-200,000	-0,017	-0,121
-452,197	-160,595	0,211	-0,008
-451,182	-67,424	-0,021	0,006
-450,168	-200,000	-0,003	0,074
-449,153	392,371	-0,039	0,059
-448,138	-34,097	0,099	-0,039
-447,124	-6,332	0,102	0,050
-446,109	-200,000	-0,014	-0,142
-445,095	-200,000	0,019	-0,086
-444,080	51,694	-0,028	0,019
-443,065	-200,000	-0,011	0,085
-442,051	-200,000	0,006	0,148
-441,036	221,505	-0,036	-0,041
-440,022	1,818	-0,060	-0,031
-439,007	229,607	-0,052	0,061
-437,992	-200,000	0,003	0,208
-436,978	119,160	0,083	0,074
-435,963	800,000	-0,027	0,074
-434,949	800,000	-0,036	-0,083
-433,934	-200,000	0,011	-0,072
-432,919	-0,699	-0,065	-0,033
-431,905	800,000	-0,072	0,157
-430,890	145,961	0,055	0,053
-429,876	-92,878	-0,022	0,004
-428,861	278,974	0,064	-0,083
-427,846	72,100	-0,120	0,089
-426,832	126,762	-0,167	0,152
-425,817	11,843	0,086	0,047
-424,803	385,851	-0,101	-0,150
-423,788	800,000	0,024	-0,065
-422,773	-200,000	0,002	0,069
-421,759	-88,136	0,074	0,016
-420,744	450,112	0,063	-0,099
-419,730	-184,542	0,083	0,001
-418,715	-200,000	0,027	-0,144
-417,701	111,276	-0,056	0,048
-416,686	563,699	-0,027	-0,048
-415,671	-91,334	0,184	-0,037
-414,657	213,884	-0,029	-0,033
-413,642	-121,535	0,168	-0,020
-412,628	41,637	-0,063	-0,041
-411,613	-200,000	0,024	0,120
-410,598	-102,633	0,100	0,017
-409,584	36,858	-0,043	-0,027
-408,569	800,000	0,073	0,157
-407,555	146,152	0,044	-0,042
-406,540	800,000	0,026	-0,079
-405,525	-116,318	0,054	0,007
-404,511	-200,000	0,019	-0,066
-403,496	142,570	-0,054	-0,052
-402,482	-66,317	-0,119	0,034
-401,467	-52,496	0,141	0,046
-400,452	-200,000	0,017	0,120
-399,438	-200,000	0,018	0,170
-398,423	658,592	-0,014	0,025
-397,409	-142,874	-0,149	-0,010
-396,394	-131,762	-0,030	0,003
-395,379	-19,573	-0,113	0,050
-394,365	569,351	-0,024	-0,042
-393,350	44,525	0,035	0,023
-392,336	217,181	0,114	-0,130
-391,321	339,208	-0,057	-0,079
-390,306	-200,000	-0,051	-0,169
-389,292	-200,000	0,000	-0,120
-388,277	17,110	0,073	0,042
-387,263	0,159	-0,131	0,067
-386,248	-158,699	0,056	-0,002
-385,233	-200,000	-0,001	-0,027
-384,219	124,052	0,066	0,059
-383,204	493,370	-0,042	-0,069
-382,190	160,771	-0,065	-0,065
-381,175	-60,189	0,101	-0,030
-380,160	800,000	0,044	0,096
-379,146	-200,000	-0,034	0,137
-378,131	206,753	-0,029	0,033
-377,117	800,000	0,082	0,181
-376,102	-38,325	-0,095	-0,036
-375,088	-109,813	0,091	0,013
-374,073	-51,131	-0,087	-0,029
-373,058	289,382	-0,033	-0,042
-372,044	-111,468	-0,013	-0,002
-371,029	800,000	-0,031	0,081
-370,015	800,000	-0,016	-0,037
-369,000	-117,071	-0,101	-0,013
-367,985	800,000	-0,010	-0,030
-366,971	537,138	0,082	0,140
-365,956	-25,825	0,123	0,052
-364,942	-200,000	-0,001	0,109
-363,927	-200,000	-0,038	0,128
-362,912	116,529	0,190	0,166
-361,898	-200,000	-0,000	0,029
-360,883	15,501	0,142	0,080
-359,869	800,000	-0,011	0,030
-358,854	252,413	-0,113	-0,138
-357,839	167,555	0,096	0,097
-356,825	253,773	0,079	0,097
-355,810	-200,000	0,014	-0,101
-354,796	243,662	-0,048	-0,058
-353,781	496,493	0,056	-0,092
-352,766	294,116	0,068	-0,089
-351,752	-39,513	-0,089	0,033
-350,737	558,291	0,051	0,089
-349,723	56,489	0,050	-0,034
-348,708	-200,000	-0,003	-0,074
-347,693	-200,000	-0,005	-0,048
-346,679	-34,225	0,068	-0,026
-345,664	-79,654	-0,107	0,025
-344,650	-122,796	0,084	-0,010
-343,635	-200,000	-0,001	0,039
-342,620	-200,000	0,011	0,161
-341,606	800,000	0,063	0,135
-340,591	-179,763	0,081	-0,001
-339,577	270,053	0,074	-0,093
-338,562	0,737	0,061	-0,031
-337,548	-200,000	-0,011	0,117
-336,533	149,154	-0,049	0,047
-335,518	576,782	-0,057	0,100
-334,504	-200,000	0,029	0,095
-333,489	-200,000	0,020	-0,113
-332,475	-200,000	-0,016	-0,065
-331,460	325,130	-0,026	0,036
-330,445	-200,000	0,029	-0,099
-329,431	-171,061	0,082	-0,002
-328,416	-45,433	0,058	-0,020
-327,402	39,923	0,158	-0,101
-326,387	-200,000	-0,015	-0,119
-325,372	-23,063	0,060	0,026
-324,358	42,756	-0,070	-0,045
-323,343	-200,000	0,026	-0,093
-322,329	-200,000	0,029	0,096
-321,314	644,922	0,100	0,184
-320,299	-200,000	-0,007	0,022
-319,285	800,000	-0,049	0,102
-318,270	-200,000	-0,021	-0,075
-317,256	-24,251	-0,163	-0,069
-316,241	-200,000	-0,034	-0,227
-315,226	-14,906	0,047	0,021
-314,212	800,000	0,023	0,056
-313,197	-200,000	-0,005	0,045
-312,183	309,672	0,054	-0,072
-311,168	-76,905	-0,034	-0,008
-310,153	-200,000	0,033	-0,107
-309,139	78,694	0,118	0,090
-308,124	-73,055	-0,057	0,015
-307,110	-200,000	0,014	-0,094
-306,095	800,000	-0,039	-0,095
-305,080	-96,574	0,073	-0,014
-304,066	153,610	0,013	-0,013
-303,051	212,569	-0,088	-0,099
-302,037	769,588	-0,035	0,068
-301,022	549,067	0,057	0,098
-300,008	-35,005	0,095	0,037
-298,993	-200,000	-0,008	0,069
-297,978	-152,182	-0,137	-0,007
-296,964	-137,504	-0,133	-0,011
-295,949	764,290	-0,121	-0,234
-294,935	800,000	0,039	-0,086
-293,920	550,873	0,013	-0,023
-292,905	-163,572	0,026	-0,001
-291,891	6,929	0,010	-0,005
-290,876	-37,260	-0,086	-0,033
-289,862	-36,659	0,045	-0,017
-288,847	-155,104	-0,099	-0,005
-287,832	-8,449	0,075	0,036
-286,818	-183,740	0,019	-0,000
-285,803	371,378	-0,025	-0,036
-284,789	134,899	-0,046	-0,042
-283,774	130,462	0,015	0,014
-282,759	-200,000	0,015	0,088
-281,745	-72,524	-0,107	-0,028
-280,730	320,273	-0,034	-0,046
-279,716	800,000	0,066	0,163
-278,701	-165,590	0,018	-0,001
-277,686	600,328	-0,049	0,086
-276,672	131,715	0,073	-0,067
-275,657	278,890	0,065	-0,082
-274,643	-200,000	-0,013	-0,053
-273,628	399,182	-0,075	-0,112
-272,613	-200,000	0,003	-0,071
-271,599	-200,000	0,011	0,042
-270,584	-200,000	0,026	0,130
-269,570	158,211	-0,121	0,120
-268,555	-105,291	-0,057	-0,009
-267,540	30,867	-0,197	-0,120
-266,526	588,030	0,027	-0,047
-265,511	94,773	-0,123	-0,100
-264,497	491,640	0,077	-0,125
-263,482	252,547	0,104	0,126
-262,467	800,000	0,014	0,034
-261,453	108,010	0,066	-0,056
-260,438	556,443	0,033	-0,057
-259,424	84,580	0,063	-0,049
-258,409	182,506	-0,067	-0,071
-257,395	560,266	0,014	0,024
-256,380	-26,563	-0,105	0,044
-255,365	-106,516	0,111	0,017
-254,351	741,089	-0,038	0,073
-253,336	800,000	-0,027	-0,071
-252,322	58,107	0,106	0,074
-251,307	-130,537	-0,122	-0,012
-250,292	165,304	0,115	-0,116
-249,278	-200,000	-0,006	0,053
-248,263	46,563	0,019	-0,012
-247,249	145,346	0,083	0,079
-246,234	-114,623	-0,095	0,013
-245,219	-32,171	-0,123	0,049
-244,205	148,208	-0,045	-0,043
-243,190	-45,495	0,101	-0,035
-242,176	-200,000	-0,014	0,064
-241,161	-200,000	0,010	-0,078
-240,146	-18,025	-0,058	0,026
-239,132	-80,219	-0,030	-0,007
-238,117	-144,797	-0,029	-0,002
-237,103	-200,000	-0,059	-0,229
-236,088	800,000	-0,090	-0,183
-235,073	-200,000	0,027	-0,178
-234,059	-165,541	-0,022	-0,001
-233,044	-172,021	0,094	0,002
-232,030	-200,000	-0,003	-0,008
-231,015	-122,632	-0,026	0,003
-230,000	-200,000	0,003	-0,071
-228,986	236,109	-0,040	-0,048
-227,971	800,000	0,030	0,073
-226,957	3,767	-0,061	-0,032
-225,942	-200,000	-0,010	-0,039
-224,927	-148,721	-0,087	0,005
-223,913	82,918	-0,089	0,069
-222,898	-155,782	0,149	0,007
-221,884	42,780	-0,141	-0,091
-220,869	156,362	0,055	0,054
-219,855	-200,000	0,077	0,272
-218,840	-58,589	0,100	0,031
-217,825	-57,375	0,068	-0,021
-216,811	-136,324	-0,059	-0,005
-215,796	-200,000	0,010	-0,109
-214,782	-88,137	-0,133	-0,028
-213,767	-200,000	-0,001	0,055
-212,752	523,277	-0,084	0,140
-211,738	281,286	0,116	0,148
-210,723	95,918	0,101	-0,082
-209,709	-200,000	-0,003	-0,038
-208,694	158,735	-0,103	0,102
-207,679	425,592	-0,046	-0,071
-206,665	200,850	0,035	-0,038
-205,650	654,207	0,003	0,005
-204,636	222,178	0,051	-0,058
-203,621	-108,226	-0,032	-0,005
-202,606	-68,497	0,159	-0,043
-201,592	5,977	0,072	0,038
-200,577	719,099	0,043	-0,082
-199,563	225,974	-0,058	-0,067
-198,548	46,115	0,116	0,076
-197,533	280,110	0,038	0,048
-196,519	249,371	-0,070	0,085
-195,504	258,570	-0,055	-0,067
-194,490	800,000	0,015	-0,040
-193,475	-200,000	0,013	-0,200
-192,460	-134,414	-0,168	0,014
-191,446	-200,000	-0,008	0,055
-190,431	-67,050	-0,065	0,018
-189,417	32,683	0,075	0,046
-188,402	-44,535	0,135	0,048
-187,387	-149,103	-0,202	0,011
-186,373	187,905	-0,031	-0,033
-185,358	73,541	0,027	-0,020
-184,344	800,000	0,021	0,055
-183,329	-200,000	-0,011	0,172
-182,315	-200,000	0,009	0,047
-181,300	79,034	-0,170	-0,129
-180,285	-200,000	-0,032	-0,222
-179,271	464,288	0,040	-0,064
-178,256	-174,930	-0,126	0,002
-177,242	-82,947	0,104	-0,024
-176,227	10,947	0,106	0,057
-175,212	800,000	-0,074	-0,157
-174,198	-200,000	0,005	-0,043
-173,183	-91,043	-0,178	0,036
-172,169	20,786	-0,035	-0,020
-171,154	-111,415	0,122	0,017
-170,139	-200,000	-0,016	0,087
-169,125	51,754	0,139	-0,094
-168,110	26,670	0,054	0,032
-167,096	131,123	0,092	0,083
-166,081	13,060	-0,135	0,074
-165,066	-200,000	-0,008	0,068
-164,052	-34,421	0,106	0,041
-163,037	-200,000	-0,015	0,060
-162,023	142,901	0,124	0,117
-161,008	800,000	0,017	-0,042
-159,993	800,000	0,085	0,228
-158,979	-200,000	0,005	-0,117
-157,964	-137,855	-0,103	0,008
-156,950	-200,000	-0,019	-0,088
-155,935	-18,558	0,047	-0,021
-154,920	-69,868	-0,121	0,033
-153,906	-54,021	0,103	0,033
-152,891	800,000	-0,027	0,056
-151,877	-200,000	-0,008	-0,034
-150,862	100,621	-0,094	-0,077
-149,847	395,027	0,017	-0,025
-148,833	-92,435	-0,060	0,012
-147,818	800,000	0,045	0,102
-146,804	548,651	0,008	0,013
-145,789	800,000	-0,032	0,079
-144,775	164,710	0,104	0,104
-143,760	512,442	-0,054	-0,089
-142,745	-64,060	0,099	0,029
-141,731	800,000	-0,109	-0,223
-140,716	800,000	-0,018	-0,046
-139,702	583,463	0,089	0,155
-138,687	113,118	-0,052	0,045
-137,672	-200,000	-0,001	0,004
-136,658	-200,000	-0,004	-0,233
-135,643	-200,000	0,010	0,124
-134,629	-200,000	-0,006	0,110
-133,614	54,797	0,043	0,029
-132,599	-71,277	-0,125	-0,033
-131,585	303,606	0,058	-0,077
-130,570	800,000	0,046	-0,096
-129,556	-200,000	-0,001	-0,115
-128,541	-156,087	-0,101	0,004
-127,526	332,330	-0,081	0,111
-126,512	87,234	0,059	-0,046
-125,497	36,639	0,054	0,034
-124,483	147,933	-0,011	0,010
-123,468	-200,000	-0,030	0,145
-122,453	7,184	0,049	0,026
-121,439	-200,000	0,002	0,045
-120,424	-200,000	0,005	0,042
-119,410	491,393	0,048	0,078
-118,395	117,402	0,016	-0,014
-117,380	-172,927	0,159	0,003
-116,366	-32,754	0,074	0,029
-115,351	6,043	-0,029	0,015
-114,337	800,000	-0,002	0,006
-113,322	-48,592	0,050	0,017
-112,307	-200,000	0,010	-0,106
-111,293	0,744	0,084	-0,042
-110,278	353,593	0,107	0,151
-109,264	248,780	0,007	-0,009
-108,249	160,017	0,061	-0,060
-107,234	-200,000	0,007	0,059
-106,220	-107,206	0,096	-0,015
-105,205	444,687	-0,052	0,080
-104,191	324,254	0,006	0,008
-103,176	-146,635	-0,056	-0,003
-102,162	-1,779	0,064	-0,032
-101,147	800,000	0,008	-0,020
-100,132	32,361	-0,032	-0,019
-99,118	-200,000	0,023	0,113
-98,103	-200,000	0,002	0,052
-97,089	-200,000	-0,024	-0,107
-96,074	-8,142	0,063	-0,030
-95,059	800,000	-0,033	0,078
-94,045	710,754	-0,108	-0,202
-93,030	62,104	-0,053	-0,037
-92,016	-50,830	-0,151	0,050
-91,001	-37,305	-0,069	-0,026
-89,986	-98,288	0,115	0,021
-88,972	800,000	-0,043	0,129
-87,957	-200,000	0,018	0,103
-86,943	800,000	-0,028	0,072
-85,928	57,836	0,023	-0,016
-84,913	-48,510	-0,214	-0,072
-83,899	-157,089	-0,049	-0,002
-82,884	-200,000	-0,006	0,107
-81,870	800,000	0,079	0,181
-80,855	1,024	0,095	0,048
-79,840	517,172	-0,039	-0,064
-78,826	18,617	0,060	0,034
-77,811	800,000	-0,045	-0,104
-76,797	-69,762	0,123	-0,033
-75,782	130,109	0,067	-0,061
-74,767	-117,768	0,100	0,013
-73,753	353,985	-0,033	-0,046
-72,738	-200,000	0,062	0,212
-71,724	-30,922	-0,075	-0,030
-70,709	-68,639	-0,098	-0,027
-69,694	-125,789	0,164	0,017
-68,680	78,848	0,077	-0,058
-67,665	-34,495	0,049	-0,019
-66,651	-3,161	0,040	0,020
-65,636	18,031	0,117	0,066
-64,622	235,126	-0,054	-0,063
-63,607	199,628	-0,069	0,075
-62,592	-65,452	0,015	-0,004
-61,578	800,000	-0,021	0,056
-60,563	-200,000	-0,005	-0,065
-59,549	247,066	-0,060	0,072
-58,534	16,044	-1,974	-1,096
-57,519	443,155	-1,232	-1,914
-56,505	-200,000	-0,447	-4,427
-55,490	726,753	0,721	1,365
-54,476	800,000	5,059	11,313
-53,461	-200,000	20,826	329,429
-52,446	800,000	756,965	2322,262
-51,432	549,996	1662,258	2825,131
-50,417	73,626	1664,394	1229,638
-49,403	18,876	1537,368	867,106
-48,388	12,881	1460,174	794,551
-47,373	19,060	1450,965	819,191
-46,359	15,959	1440,533	798,500
-45,344	11,125	1436,128	772,994
-44,330	11,031	1434,527	771,653
-43,315	11,050	1432,648	770,703
-42,300	11,024	1430,644	769,470
-41,286	11,048	1429,487	768,932
-40,271	11,013	1428,303	768,098
-39,257	10,998	1427,081	767,340
-38,242	11,041	1425,922	766,893
-37,227	11,028	1424,857	766,227
-36,213	11,074	1423,549	765,709
-35,198	11,108	1422,156	765,089
-34,184	11,121	1421,408	764,720
-33,169	11,057	1420,057	763,660
-32,154	11,120	1418,932	763,322
-31,140	11,098	1417,865	762,616
-30,125	11,144	1416,564	762,099
-29,111	11,078	1415,848	761,377
-28,096	11,113	1414,359	760,707
-27,082	11,050	1413,261	759,789
-26,067	11,036	1412,334	759,196
-25,052	11,035	1411,302	758,606
-24,038	11,034	1410,260	758,014
-23,023	11,038	1409,266	757,466
-22,009	11,028	1408,153	756,793
-20,994	11,017	1407,143	756,166
-19,979	11,031	1406,207	755,702
-18,965	10,962	1405,211	754,815
-17,950	10,901	1404,768	754,258
-16,936	10,969	1403,692	753,968
-15,921	10,952	1402,515	753,229
-14,906	10,953	1401,683	752,755
-13,892	10,896	1400,667	751,917
-12,877	10,918	1400,029	751,645
-11,863	10,909	1399,222	751,142
-10,848	10,915	1398,065	750,519
-9,833	10,856	1397,226	749,764
-8,819	10,831	1396,512	749,235
-7,804	10,827	1395,658	748,727
-6,790	10,831	1394,527	748,112
-5,775	10,857	1393,481	747,639
-4,760	10,893	1392,417	747,206
-3,746	10,905	1391,418	746,697
-2,731	10,825	1390,713	745,918
-1,717	10,787	1390,132	745,400
-0,702	10,825	1388,146	744,480
0,313	14,795	1301,803	716,384
1,327	30,933	693,286	418,246
2,342	47,812	120,291	79,106
3,356	1,817	16,372	8,300
4,371	-5,535	3,342	1,612
5,386	-30,668	0,992	0,394
6,400	-200,000	0,057	0,420
7,415	300,259	-0,166	-0,217
8,429	126,682	-0,170	-0,151
9,444	29,715	-0,394	-0,236
10,459	249,094	-0,249	-0,298
11,473	-1,425	-0,300	-0,149
12,488	140,281	-0,147	-0,137
13,502	-31,939	-0,241	-0,094
14,517	-37,627	-0,380	-0,142
15,531	390,127	-0,247	-0,362
16,546	145,368	-0,297	-0,280
17,561	305,709	-0,257	-0,337
18,575	2,205	-0,231	-0,117
19,590	286,490	-0,243	-0,310
20,604	183,029	-0,156	-0,162
21,619	137,707	-0,381	-0,352
22,634	61,863	-0,461	-0,323
23,648	123,223	-0,387	-0,342
24,663	155,856	-0,425	-0,413
25,677	18,927	-0,368	-0,207
26,692	83,025	-0,365	-0,280
27,707	-42,922	-0,378	-0,134
28,721	21,375	-0,446	-0,254
29,736	65,289	-0,242	-0,172
30,750	-1,408	-0,428	-0,212
31,765	54,839	-0,287	-0,195
32,780	48,408	-0,423	-0,278
33,794	-111,381	-0,403	-0,057
34,809	25,688	-0,373	-0,218
35,823	104,016	-0,431	-0,356
36,838	217,000	-0,304	-0,341
37,853	62,266	-0,452	-0,317
38,867	89,942	-0,488	-0,383
39,882	183,727	-0,276	-0,287
40,896	-22,137	-0,317	-0,134
41,911	-14,769	-0,417	-0,187
42,926	-49,216	-0,440	-0,147
43,940	93,008	-0,264	-0,210
44,955	24,759	-0,373	-0,217
45,969	111,025	-0,311	-0,263
46,984	181,449	-0,309	-0,320
47,999	16,393	-0,337	-0,187
49,013	66,033	-0,261	-0,186
50,028	173,676	-0,382	-0,387
51,042	150,138	-0,282	-0,269
52,057	126,491	-0,443	-0,394
53,071	153,829	-0,300	-0,289
54,086	54,833	-0,319	-0,216
55,101	120,521	-0,281	-0,245
56,115	41,231	-0,366	-0,232
57,130	-57,105	-0,301	-0,092
58,144	238,453	-0,375	-0,438
59,159	196,663	-0,263	-0,282
60,174	208,187	-0,339	-0,373
61,188	-5,164	-0,391	-0,188
62,203	56,644	-0,264	-0,180
63,217	58,984	-0,264	-0,182
64,232	205,762	-0,292	-0,319
65,247	216,027	-0,326	-0,364
66,261	119,724	-0,311	-0,270
67,276	-54,497	-0,363	-0,115
68,290	360,013	-0,235	-0,330
69,305	93,213	-0,232	-0,184
70,320	6,664	-0,359	-0,187
71,334	29,499	-0,339	-0,202
72,349	171,772	-0,230	-0,232
73,363	82,115	-0,420	-0,319
74,378	255,250	-0,255	-0,307
75,393	-63,837	-0,320	-0,091
76,407	58,396	-0,228	-0,157
77,422	69,886	-0,342	-0,247
78,436	66,218	-0,275	-0,196
79,451	143,870	-0,280	-0,262
80,466	-3,237	-0,368	-0,179
81,480	-42,294	-0,282	-0,100
82,495	-78,129	-0,252	-0,060
83,509	-157,411	-0,301	-0,012
84,524	-68,242	-0,335	-0,091
85,539	46,915	-0,300	-0,195
86,553	-168,218	-0,301	-0,008
87,568	12,803	-0,200	-0,108
88,582	160,283	-0,241	-0,236
89,597	-12,459	-0,484	-0,221
90,611	4,843	-0,278	-0,143
91,626	161,141	-0,169	-0,166
92,641	19,784	-0,263	-0,148
93,655	-0,565	-0,311	-0,154
94,670	61,176	-0,250	-0,174
95,684	160,963	-0,362	-0,354
96,699	42,279	-0,342	-0,217
97,714	56,482	-0,207	-0,141
98,728	800,000	-0,119	-0,289
99,743	16,081	-0,287	-0,158
100,757	189,338	-0,235	-0,247
101,772	-11,086	-0,416	-0,191
102,787	359,729	-0,189	-0,265
103,801	131,475	-0,355	-0,320
104,816	8,534	-0,262	-0,137
105,830	43,614	-0,351	-0,224
106,845	61,278	-0,210	-0,146
107,860	-38,771	-0,269	-0,099
108,874	9,439	-0,277	-0,146
109,889	3,273	-0,233	-0,118
110,903	69,468	-0,299	-0,215
111,918	-0,195	-0,227	-0,112
112,933	230,018	-0,191	-0,218
113,947	234,952	-0,227	-0,263
114,962	-53,019	-0,410	-0,131
115,976	-95,248	-0,289	-0,054
116,991	0,649	-0,331	-0,165
118,006	3,571	-0,335	-0,170
119,020	-120,481	-0,211	-0,025
120,035	62,436	-0,216	-0,151
121,049	-200,000	-0,034	-0,107
122,064	-43,918	-0,307	-0,107
123,079	-45,311	-0,135	-0,047
124,093	196,072	-0,204	-0,217
125,108	66,081	-0,256	-0,181
126,122	104,085	-0,275	-0,226
127,137	240,733	-0,185	-0,216
128,151	31,100	-0,192	-0,115
129,166	273,731	-0,212	-0,262
130,181	-80,464	-0,359	-0,083
131,195	35,041	-0,322	-0,196
132,210	475,255	-0,199	-0,315
133,224	-0,141	-0,162	-0,080
134,239	800,000	-0,093	-0,284
135,254	-53,212	-0,264	-0,084
136,268	230,770	-0,123	-0,140
137,283	126,681	-0,274	-0,242
138,297	196,196	-0,341	-0,362
139,312	188,705	-0,304	-0,318
140,327	298,060	-0,173	-0,222
141,341	233,292	-0,144	-0,165
142,356	-32,387	-0,279	-0,108
143,370	-16,693	-0,168	-0,074
144,385	-45,463	-0,262	0,090
145,400	158,283	-0,227	-0,220
146,414	-5,639	-0,375	-0,178
147,429	16,062	-0,384	-0,210
148,443	146,350	-0,239	-0,224
149,458	225,145	-0,190	-0,214
150,473	89,717	-0,247	-0,192
151,487	191,153	-0,216	-0,227
152,502	-23,970	-0,250	-0,104
153,516	168,889	-0,300	-0,298
154,531	39,973	-0,234	-0,146
155,546	154,957	-0,090	-0,086
156,560	-97,423	-0,269	-0,048
157,575	-57,703	-0,191	-0,058
158,589	123,421	-0,181	-0,158
159,604	-167,063	-0,160	-0,004
160,619	-34,577	-0,317	-0,120
161,633	50,176	-0,233	-0,153
162,648	240,147	-0,147	-0,170
163,662	13,776	-0,255	-0,137
164,677	-200,000	-0,002	-0,077
165,692	146,982	-0,215	-0,201
166,706	156,322	-0,228	-0,219
167,721	33,862	-0,286	-0,173
168,735	275,637	-0,168	-0,208
169,750	47,512	-0,248	-0,160
170,764	5,334	-0,333	-0,170
171,779	58,233	-0,151	-0,103
172,794	-83,503	-0,291	-0,064
173,808	139,572	-0,210	-0,192
174,823	-135,281	-0,327	-0,027
175,837	43,041	-0,175	-0,111
176,852	7,023	-0,199	-0,103
177,867	126,930	-0,187	-0,165
178,881	215,297	-0,165	-0,182
179,896	-17,739	-0,341	-0,148
180,910	319,173	-0,151	-0,199
181,925	443,246	-0,098	-0,150
182,940	344,409	-0,118	-0,162
183,954	55,142	-0,245	-0,164
184,969	-165,514	-0,143	-0,004
185,983	-200,000	-0,137	-0,000
186,998	-33,570	-0,242	-0,092
188,013	53,096	-0,223	-0,148
189,027	301,195	-0,161	-0,207
190,042	205,525	-0,283	-0,306
191,056	-116,744	-0,133	0,017
192,071	79,930	-0,188	-0,140
193,086	-200,000	-0,088	-0,291
194,100	43,559	-0,176	-0,111
195,115	-18,425	-0,174	-0,075
196,129	-70,624	-0,187	-0,049
197,144	725,655	-0,126	-0,234
198,159	80,310	-0,122	-0,091
199,173	-60,186	-0,264	-0,078
200,188	-46,194	-0,289	-0,098
201,202	-178,109	-0,274	0,004
202,217	-63,890	-0,338	-0,095
203,232	-53,173	-0,236	-0,075
204,246	70,951	-0,195	-0,140
205,261	319,132	-0,259	-0,341
206,275	707,380	-0,106	-0,196
207,290	400,710	-0,115	-0,167
208,304	-200,000	-0,011	-0,104
209,319	122,915	-0,223	-0,193
210,334	162,282	-0,188	-0,183
211,348	9,409	-0,278	-0,145
212,363	171,426	-0,217	-0,216
213,377	1,944	-0,234	-0,117
214,392	-74,353	-0,190	-0,047
215,407	-169,761	-0,249	-0,006
216,421	-189,690	-0,111	0,001
217,436	-2,967	-0,131	-0,063
218,450	140,537	-0,146	-0,134
219,465	498,639	-0,214	-0,342
220,480	218,482	-0,252	-0,279
221,494	216,881	-0,204	-0,225
222,509	-17,581	-0,216	-0,094
223,523	-200,000	-0,020	-0,164
224,538	60,054	-0,297	-0,203
225,553	-62,928	-0,196	-0,056
226,567	461,448	-0,162	-0,251
227,582	163,262	-0,223	-0,217
228,596	25,725	-0,215	-0,123
229,611	36,714	-0,123	-0,075
230,626	7,006	-0,213	-0,110
231,640	310,919	-0,167	-0,217
232,655	-200,000	-0,037	-0,203
233,669	229,315	-0,162	-0,183
234,684	145,694	-0,148	-0,137
235,699	724,405	-0,111	-0,205
236,713	-134,875	-0,073	-0,006
237,728	335,793	-0,112	-0,150
238,742	-74,404	-0,306	-0,076
239,757	-133,888	-0,300	-0,025
240,772	211,735	-0,167	-0,182
241,786	84,863	-0,385	-0,292
242,801	152,692	-0,058	0,054
243,815	634,834	-0,097	-0,171
244,830	164,211	-0,162	-0,158
245,844	-20,516	-0,150	-0,063
246,859	-200,000	-0,146	0,000
247,874	91,677	-0,162	-0,126
248,888	244,772	-0,155	-0,180
249,903	800,000	-0,074	-0,159
250,917	258,173	-0,078	-0,093
251,932	-87,569	-0,226	-0,047
252,947	156,958	-0,089	-0,085
253,961	34,047	-0,293	-0,176
254,976	83,542	-0,278	-0,209
255,990	-15,303	-0,162	-0,071
257,005	-34,405	-0,250	-0,094
258,020	48,148	-0,178	-0,115
259,034	-39,487	-0,213	-0,077
260,049	101,527	-0,178	-0,143
261,063	570,542	-0,074	-0,125
262,078	107,347	-0,159	-0,131
263,093	339,027	-0,233	-0,314
264,107	800,000	-0,077	-0,165
265,122	800,000	-0,049	-0,124
266,136	156,396	-0,096	-0,091
267,151	-200,000	-0,054	-0,183
268,166	234,174	-0,077	-0,088
269,180	344,287	-0,095	-0,128
270,195	398,298	-0,111	-0,161
271,209	13,292	-0,182	-0,097
272,224	800,000	-0,083	-0,187
273,239	800,000	-0,038	-0,100
274,253	800,000	-0,090	-0,174
275,268	-143,529	-0,103	0,007
276,282	-50,388	-0,315	-0,102
277,297	800,000	-0,101	-0,199
278,312	800,000	-0,044	-0,119
279,326	800,000	-0,103	-0,206
280,341	66,576	-0,200	-0,140
281,355	-200,000	-0,023	-0,136
282,370	91,276	-0,124	-0,096
283,384	616,135	-0,158	-0,275
284,399	800,000	-0,047	-0,138
285,414	800,000	-0,096	-0,243
286,428	-91,763	-0,132	-0,026
287,443	-8,403	-0,186	-0,086
288,457	109,356	-0,140	-0,115
289,472	635,245	-0,108	-0,190
290,487	-76,154	-0,251	-0,060
291,501	137,051	-0,278	-0,250
292,516	47,548	-0,197	-0,126
293,530	16,060	-0,192	-0,104
294,545	272,411	-0,092	-0,111
295,560	-115,715	-0,164	-0,021
296,574	326,331	-0,108	-0,143
297,589	85,277	-0,167	-0,126
298,603	233,092	-0,179	-0,203
299,618	800,000	-0,057	-0,150
300,633	44,436	-0,156	-0,098
301,647	-111,346	-0,197	-0,027
302,662	32,514	-0,162	-0,096
303,676	-78,002	-0,141	0,033
304,691	-6,359	-0,244	-0,114
305,706	302,421	-0,150	-0,191
306,720	265,933	-0,150	-0,180
307,735	-9,965	-0,139	-0,063
308,749	-200,000	-0,020	-0,095
309,764	85,900	-0,174	-0,131
310,779	800,000	-0,112	-0,218
311,793	-69,011	-0,226	0,059
312,808	171,622	-0,135	-0,133
313,822	-68,994	-0,159	-0,042
314,837	587,351	-0,135	-0,228
315,852	418,258	-0,064	-0,095
316,866	800,000	0,023	-0,063
317,881	157,978	-0,186	-0,177
318,895	-71,739	-0,183	-0,047
319,910	81,031	-0,182	-0,135
320,925	800,000	-0,042	-0,120
321,939	43,457	-0,197	-0,124
322,954	-176,423	-0,085	0,001
323,968	84,633	-0,114	-0,085
324,983	800,000	-0,024	-0,055
325,997	-200,000	-0,072	-0,274
327,012	16,473	-0,274	-0,148
328,027	-32,344	-0,171	-0,065
329,041	215,356	-0,104	-0,114
330,056	-68,005	-0,148	-0,039
331,070	-173,593	-0,227	-0,005
332,085	13,858	-0,080	-0,042
333,100	-200,000	0,007	-0,061
334,114	800,000	-0,102	-0,203
335,129	113,558	-0,178	-0,148
336,143	12,131	-0,126	-0,066
337,158	-44,881	-0,105	0,036
338,173	-101,984	-0,072	0,012
339,187	-9,874	-0,078	-0,035
340,202	-68,040	-0,105	0,028
341,216	-0,950	-0,061	-0,029
342,231	800,000	-0,082	-0,240
343,246	18,736	-0,236	-0,129
344,260	44,391	-0,207	-0,130
345,275	-51,949	-0,111	-0,035
346,289	6,028	-0,101	-0,051
347,304	25,275	-0,112	-0,064
348,319	642,582	-0,088	-0,154
349,333	-77,666	-0,187	-0,044
350,348	69,295	-0,094	-0,066
351,362	493,497	-0,045	-0,071
352,377	-52,179	-0,107	-0,034
353,392	50,945	-0,213	0,138
354,406	-103,865	-0,223	0,035
355,421	205,722	1310,706	1395,491
356,435	158,180	1470,936	1395,970
