DTS Sentinel unit serial number:	SN410029Multiplexer serial number:	ORYXHardware model number:	OX2-SRSoftware version number:	ORYX F/W v4,00 Oryx Data Collector v3.7.2.0data status	okinstallation	B3 Nyhavnadifferential loss correction	single-endedforward channel	channel 1reverse channel	N/Adate	2023/12/01time	14:47:30forward acquisition time	300,00reverse acquisition time	0,00gamma	499,1914k internal	0,3212k external	0,3212temperature offset calibration	1,0000default loss term (dB/km)	0,3820temperature slope calibration	1,0000multiplexer offset coefficient	1,0000multiplexer slope coefficient	1,0000fibre end	0,00T internal ref (°C)	11,14T ext. ref 1 (°C)	-2,22T ext. ref 2 (°C)	-2,29length (m)	temperature (°C)	Stokes	anti-Stokes-744,400	722,505	-0,188	-0,365
-743,385	-200,000	0,018	0,513
-742,371	248,355	-0,121	-0,149
-741,356	-200,000	0,003	0,227
-740,342	17,912	-0,244	-0,140
-739,327	800,000	-0,121	0,344
-738,312	198,484	-0,197	-0,219
-737,298	800,000	0,083	0,197
-736,283	-13,626	-0,262	-0,122
-735,269	-200,000	-0,060	0,280
-734,254	241,106	-0,137	-0,166
-733,239	-160,782	-0,223	-0,008
-732,225	215,261	-0,186	-0,214
-731,210	69,192	0,077	0,057
-730,196	800,000	0,026	-0,079
-729,181	800,000	-0,026	0,078
-728,167	713,765	-0,051	0,099
-727,152	-133,364	0,034	0,003
-726,137	22,020	-0,065	0,038
-725,123	-90,392	-0,076	0,016
-724,108	-5,754	-0,055	0,027
-723,094	624,814	0,028	-0,052
-722,079	-47,590	-0,132	0,046
-721,064	-158,496	0,101	0,004
-720,050	-200,000	0,010	0,037
-719,035	407,467	-0,063	0,097
-718,021	-75,986	-0,054	-0,014
-717,006	-66,463	-0,166	0,047
-715,991	158,359	-0,059	-0,059
-714,977	800,000	-0,011	0,033
-713,962	-118,782	-0,114	0,014
-712,948	-136,991	0,107	0,009
-711,933	72,189	-0,016	-0,012
-710,918	519,746	-0,094	-0,160
-709,904	210,439	-0,115	-0,130
-708,889	-200,000	0,003	-0,095
-707,875	-22,912	-0,122	-0,053
-706,860	242,476	0,071	-0,087
-705,845	424,603	0,071	0,111
-704,831	800,000	0,048	0,144
-703,816	-24,570	-0,081	0,035
-702,802	633,251	-0,086	-0,158
-701,787	-200,000	-0,013	-0,094
-700,772	-200,000	-0,010	-0,082
-699,758	14,479	-0,139	-0,078
-698,743	800,000	-0,052	0,127
-697,729	-200,000	-0,024	0,143
-696,714	-71,054	0,015	-0,004
-695,699	99,816	0,077	-0,064
-694,685	357,394	-0,088	0,127
-693,670	-81,835	-0,098	-0,023
-692,656	-200,000	-0,033	-0,134
-691,641	-200,000	-0,042	0,000
-690,627	-147,320	-0,132	-0,008
-689,612	-68,733	0,093	0,026
-688,597	736,938	-0,003	0,006
-687,583	467,370	-0,045	0,073
-686,568	-42,544	-0,145	0,053
-685,554	53,298	0,117	0,081
-684,539	-12,572	0,125	0,059
-683,524	2,967	0,139	0,073
-682,510	624,947	0,047	0,085
-681,495	-18,782	-0,098	-0,044
-680,481	-200,000	0,005	0,056
-679,466	269,573	0,053	-0,068
-678,451	476,955	-0,060	-0,098
-677,437	800,000	0,017	-0,043
-676,422	145,398	-0,050	-0,049
-675,408	36,723	-0,069	-0,044
-674,393	-103,346	0,075	-0,013
-673,378	-200,000	-0,147	0,000
-672,364	361,923	-0,061	0,088
-671,349	73,545	0,033	-0,025
-670,335	233,895	-0,120	0,143
-669,320	31,088	0,056	0,035
-668,305	641,346	-0,082	-0,152
-667,291	2,740	0,077	0,040
-666,276	-34,692	0,060	-0,024
-665,262	-200,000	-0,007	0,083
-664,247	800,000	-0,055	-0,169
-663,232	-12,140	-0,112	-0,053
-662,218	204,595	0,070	-0,079
-661,203	90,943	0,027	0,022
-660,189	526,195	-0,036	-0,062
-659,174	74,807	0,022	0,017
-658,159	-200,000	0,017	-0,060
-657,145	-200,000	0,036	-0,123
-656,130	67,535	-0,047	0,035
-655,116	59,375	0,038	0,027
-654,101	530,225	-0,032	-0,054
-653,086	-200,000	0,020	0,121
-652,072	800,000	0,042	0,084
-651,057	731,586	0,039	0,076
-650,043	-13,731	-0,105	-0,049
-649,028	-200,000	0,015	0,159
-648,014	-128,464	0,184	0,019
-646,999	-182,846	0,015	0,000
-645,984	-200,000	-0,006	-0,025
-644,970	270,766	0,038	0,048
-643,955	-124,431	-0,139	-0,015
-642,941	136,655	-0,104	-0,098
-641,926	-200,000	-0,003	-0,143
-640,911	-131,061	0,170	-0,016
-639,897	-35,716	0,070	0,027
-638,882	164,612	-0,022	-0,023
-637,868	-200,000	-0,003	0,009
-636,853	-200,000	0,004	-0,054
-635,838	-200,000	-0,022	-0,083
-634,824	352,885	-0,028	0,040
-633,809	-39,211	0,012	-0,005
-632,795	-37,707	0,048	-0,018
-631,780	172,808	-0,038	-0,040
-630,765	407,377	-0,088	0,134
-629,751	800,000	0,024	-0,066
-628,736	-200,000	-0,011	-0,039
-627,722	120,674	-0,027	-0,024
-626,707	-46,559	0,137	0,048
-625,692	118,957	-0,091	0,081
-624,678	-200,000	-0,007	0,047
-623,663	-200,000	0,006	-0,108
-622,649	602,895	-0,059	-0,106
-621,634	800,000	-0,021	0,057
-620,619	151,530	0,044	0,043
-619,605	202,875	0,025	0,028
-618,590	-200,000	0,009	0,071
-617,576	800,000	-0,013	-0,036
-616,561	-200,000	0,020	-0,093
-615,546	-200,000	-0,018	-0,081
-614,532	381,654	-0,053	0,079
-613,517	437,255	0,031	0,049
-612,503	135,422	0,065	0,061
-611,488	-35,654	0,045	-0,017
-610,474	452,563	-0,065	0,104
-609,459	-200,000	0,010	0,118
-608,444	-200,000	0,009	0,039
-607,430	-200,000	0,001	-0,030
-606,415	800,000	0,024	0,056
-605,401	199,688	0,082	0,091
-604,386	-200,000	0,007	-0,039
-603,371	-200,000	-0,049	0,164
-602,357	-74,202	-0,143	0,037
-601,342	-200,000	0,015	-0,100
-600,328	428,503	0,016	-0,025
-599,313	-131,265	-0,062	0,006
-598,298	-168,256	-0,098	0,003
-597,284	800,000	0,030	-0,089
-596,269	-60,120	0,028	0,008
-595,255	587,488	-0,042	0,075
-594,240	609,882	0,022	0,039
-593,225	94,920	0,117	0,096
-592,211	-125,763	-0,114	-0,012
-591,196	-200,000	0,054	-0,184
-590,182	-200,000	0,043	-0,000
-589,167	800,000	-0,025	0,070
-588,152	471,764	-0,037	0,060
-587,138	-200,000	-0,013	-0,078
-586,123	800,000	0,047	-0,114
-585,109	-200,000	-0,011	0,056
-584,094	365,606	-0,055	-0,081
-583,079	-130,994	0,071	-0,007
-582,065	111,122	0,098	0,085
-581,050	-200,000	-0,032	0,127
-580,036	-111,459	-0,051	0,007
-579,021	61,647	0,051	0,037
-578,006	19,009	0,131	-0,075
-576,992	311,354	-0,088	-0,120
-575,977	110,916	0,072	0,062
-574,963	-200,000	-0,008	0,096
-573,948	-200,000	0,032	0,161
-572,934	800,000	-0,030	0,086
-571,919	-200,000	0,014	-0,131
-570,904	8,274	-0,184	-0,099
-569,890	99,293	-0,046	-0,038
-568,875	-74,834	0,044	0,011
-567,861	178,918	-0,058	-0,061
-566,846	324,375	0,041	0,057
-565,831	-67,631	0,101	-0,028
-564,817	-28,445	-0,117	0,048
-563,802	-200,000	-0,019	-0,124
-562,788	-110,549	-0,091	-0,013
-561,773	-200,000	-0,010	-0,050
-560,758	275,292	0,117	0,150
-559,744	144,040	0,015	-0,014
-558,729	14,293	0,029	-0,016
-557,715	294,501	0,037	-0,049
-556,700	-69,883	0,051	-0,014
-555,685	103,770	-0,065	-0,055
-554,671	138,183	-0,073	0,069
-553,656	-200,000	-0,010	0,096
-552,642	-28,619	-0,057	0,023
-551,627	318,573	-0,061	0,084
-550,612	-20,766	-0,063	-0,028
-549,598	-61,209	-0,110	-0,033
-548,583	-200,000	-0,025	-0,081
-547,569	223,905	0,091	0,105
-546,554	-200,000	-0,019	0,175
-545,539	548,171	0,063	0,109
-544,525	337,280	-0,032	-0,045
-543,510	-107,061	-0,079	0,012
-542,496	27,996	-0,098	-0,059
-541,481	-200,000	0,021	-0,151
-540,466	-200,000	0,016	0,157
-539,452	293,392	0,077	-0,101
-538,437	-200,000	0,001	0,053
-537,423	800,000	0,031	-0,070
-536,408	800,000	0,040	0,084
-535,393	54,867	0,028	-0,019
-534,379	-56,948	-0,075	0,024
-533,364	-200,000	0,002	0,036
-532,350	-200,000	-0,008	0,041
-531,335	800,000	0,072	-0,146
-530,321	-39,387	0,144	-0,054
-529,306	800,000	-0,051	-0,120
-528,291	-200,000	0,015	-0,075
-527,277	800,000	0,036	-0,080
-526,262	-200,000	0,049	-0,189
-525,248	-66,348	0,051	-0,014
-524,233	-200,000	-0,019	-0,070
-523,218	800,000	-0,063	0,166
-522,204	211,621	0,038	0,043
-521,189	160,345	-0,142	-0,142
-520,175	-31,650	0,063	0,025
-519,160	85,177	0,059	-0,047
-518,145	-55,523	-0,077	-0,024
-517,131	-200,000	0,011	0,113
-516,116	-107,600	-0,066	-0,010
-515,102	-18,827	-0,046	0,021
-514,087	-51,844	0,064	0,021
-513,072	-80,365	-0,125	0,030
-512,058	186,709	0,069	-0,074
-511,043	59,415	-0,056	-0,040
-510,029	110,659	-0,027	-0,023
-509,014	-27,978	0,161	0,067
-507,999	217,202	-0,119	-0,136
-506,985	319,890	0,062	-0,084
-505,970	-200,000	-0,006	-0,062
-504,956	13,712	-0,105	-0,059
-503,941	70,245	-0,007	-0,005
-502,926	8,938	0,085	0,046
-501,912	129,797	-0,116	-0,107
-500,897	-200,000	-0,024	0,140
-499,883	6,843	0,067	-0,036
-498,868	-200,000	-0,020	-0,119
-497,853	208,161	0,031	-0,035
-496,839	-200,000	0,003	0,039
-495,824	35,466	-0,034	-0,021
-494,810	-50,077	0,065	0,022
-493,795	696,683	0,089	0,168
-492,781	755,861	-0,038	-0,075
-491,766	730,908	-0,025	0,048
-490,751	800,000	-0,048	-0,098
-489,737	-141,920	0,053	-0,004
-488,722	-200,000	-0,007	0,065
-487,708	-101,830	0,066	0,011
-486,693	53,171	0,035	0,024
-485,678	-135,204	0,016	-0,001
-484,664	-200,000	0,018	0,090
-483,649	-200,000	-0,004	-0,132
-482,635	33,754	0,079	-0,049
-481,620	-120,676	-0,048	0,006
-480,605	-200,000	0,013	0,178
-479,591	-113,056	0,094	-0,013
-478,576	42,029	-0,041	-0,026
-477,562	9,387	-0,034	-0,018
-476,547	800,000	-0,049	-0,148
-475,532	150,507	0,008	-0,008
-474,518	-26,498	0,031	0,013
-473,503	-67,304	0,078	-0,022
-472,489	-200,000	0,036	0,161
-471,474	-200,000	0,016	-0,054
-470,459	-200,000	-0,002	0,019
-469,445	293,946	-0,091	-0,119
-468,430	-200,000	0,005	-0,053
-467,416	800,000	-0,040	0,106
-466,401	-9,520	0,042	-0,020
-465,386	51,218	-0,065	0,044
-464,372	-200,000	-0,025	0,180
-463,357	-8,296	-0,095	0,046
-462,343	800,000	0,017	-0,035
-461,328	267,154	0,076	-0,095
-460,313	-200,000	0,008	0,082
-459,299	-200,000	0,050	0,181
-458,284	800,000	-0,013	-0,037
-457,270	-200,000	0,016	-0,086
-456,255	127,047	-0,107	-0,097
-455,241	-200,000	0,035	-0,143
-454,226	430,212	-0,059	-0,092
-453,211	-137,523	-0,080	0,006
-452,197	108,699	0,128	0,110
-451,182	800,000	-0,017	0,035
-450,168	-200,000	-0,019	-0,073
-449,153	800,000	-0,021	-0,043
-448,138	94,649	-0,110	0,089
-447,124	117,316	-0,093	0,082
-446,109	-80,680	0,105	0,025
-445,095	-200,000	-0,017	-0,080
-444,080	28,695	0,118	0,071
-443,065	-200,000	-0,008	0,040
-442,051	-200,000	0,011	0,136
-441,036	540,083	-0,033	-0,056
-440,022	-95,456	-0,081	-0,015
-439,007	73,817	0,071	0,054
-437,992	499,038	0,061	-0,101
-436,978	111,959	0,039	0,033
-435,963	-200,000	0,018	0,111
-434,949	800,000	0,033	0,084
-433,934	41,588	-0,191	-0,124
-432,919	30,688	0,060	-0,037
-431,905	612,186	-0,034	-0,060
-430,890	88,608	0,022	-0,018
-429,876	-200,000	0,026	-0,090
-428,861	-102,550	-0,031	-0,005
-427,846	288,169	-0,028	0,036
-426,832	800,000	0,060	0,169
-425,817	220,399	0,060	-0,068
-424,803	17,305	-0,074	-0,042
-423,788	304,885	0,057	-0,076
-422,773	5,050	0,117	0,062
-421,759	-123,595	-0,129	0,014
-420,744	800,000	-0,065	-0,181
-419,730	-200,000	-0,012	0,044
-418,715	121,538	-0,092	-0,082
-417,701	-32,376	0,062	-0,025
-416,686	790,707	-0,028	-0,055
-415,671	376,996	0,041	-0,060
-414,657	460,580	-0,026	0,042
-413,642	498,261	0,026	0,043
-412,628	72,824	0,077	0,058
-411,613	-152,901	-0,131	-0,007
-410,598	-100,846	0,055	0,010
-409,584	-12,941	0,052	0,024
-408,569	-200,000	0,014	-0,103
-407,555	-200,000	-0,021	0,312
-406,540	-200,000	-0,049	0,177
-405,525	-200,000	-0,006	-0,135
-404,511	800,000	-0,046	-0,104
-403,496	-200,000	-0,013	-0,071
-402,482	-200,000	-0,024	-0,087
-401,467	-140,556	-0,064	-0,005
-400,452	-148,676	0,054	-0,003
-399,438	-200,000	0,011	0,126
-398,423	-136,138	-0,061	-0,005
-397,409	-200,000	-0,008	-0,108
-396,394	345,073	-0,009	0,013
-395,379	291,346	0,046	0,059
-394,365	28,818	-0,061	-0,037
-393,350	352,364	-0,043	-0,061
-392,336	-200,000	0,000	0,045
-391,321	-104,642	-0,105	0,017
-390,306	800,000	0,051	0,146
-389,292	503,633	-0,084	-0,139
-388,277	-102,032	-0,060	0,010
-387,263	271,918	0,037	0,047
-386,248	69,307	0,099	0,073
-385,233	-16,235	-0,062	-0,028
-384,219	-200,000	-0,012	-0,038
-383,204	-200,000	-0,004	0,089
-382,190	29,737	-0,077	-0,047
-381,175	-161,044	0,089	-0,003
-380,160	-198,490	0,063	0,000
-379,146	91,338	0,045	0,036
-378,131	-184,244	0,078	0,001
-377,117	798,067	-0,057	0,113
-376,102	443,899	-0,031	-0,049
-375,088	-200,000	0,006	0,129
-374,073	800,000	-0,061	0,181
-373,058	-200,000	-0,001	-0,011
-372,044	265,934	-0,092	0,115
-371,029	-66,079	-0,083	-0,023
-370,015	-50,592	0,085	0,028
-369,000	285,776	-0,066	-0,085
-367,985	296,090	-0,049	0,064
-366,971	734,924	0,080	-0,155
-365,956	392,437	-0,030	-0,045
-364,942	-97,496	0,069	0,013
-363,927	-99,161	0,127	-0,023
-362,912	279,110	0,077	-0,098
-361,898	-200,000	-0,031	-0,117
-360,883	94,710	0,081	-0,065
-359,869	146,871	0,027	-0,026
-358,854	-115,773	0,154	0,020
-357,839	-200,000	0,000	-0,041
-356,825	80,639	-0,029	0,022
-355,810	-200,000	-0,003	-0,113
-354,796	95,175	-0,104	-0,085
-353,781	147,973	0,030	0,029
-352,766	238,665	-0,050	-0,059
-351,752	-123,205	0,046	-0,005
-350,737	-200,000	-0,047	0,153
-349,723	-59,861	0,026	0,008
-348,708	-200,000	0,029	0,169
-347,693	-95,661	0,149	0,028
-346,679	-57,484	-0,088	0,027
-345,664	385,016	-0,009	-0,013
-344,650	-132,572	0,075	0,007
-343,635	-101,252	-0,065	-0,011
-342,620	350,722	0,004	-0,006
-341,606	-18,781	0,057	0,025
-340,591	-58,358	-0,098	0,030
-339,577	144,764	-0,060	-0,058
-338,562	-113,080	-0,056	-0,008
-337,548	-87,239	0,097	-0,021
-336,533	-6,672	-0,039	0,019
-335,518	-104,148	0,087	0,014
-334,504	7,451	-0,036	-0,019
-333,489	-45,000	0,106	0,037
-332,475	585,459	-0,048	0,085
-331,460	83,546	-0,133	0,103
-330,445	800,000	0,041	-0,104
-329,431	-200,000	-0,006	-0,073
-328,416	-75,198	0,099	0,025
-327,402	179,334	0,046	-0,048
-326,387	-200,000	0,014	0,066
-325,372	800,000	0,057	0,145
-324,358	88,000	0,031	-0,024
-323,343	-13,915	-0,063	0,029
-322,329	60,960	0,089	0,063
-321,314	264,565	0,066	0,082
-320,299	4,486	-0,105	0,055
-319,285	14,889	-0,035	-0,020
-318,270	-155,281	0,155	-0,007
-317,256	146,100	-0,059	-0,057
-316,241	327,926	0,017	-0,023
-315,226	-200,000	0,010	-0,045
-314,212	446,816	0,027	0,042
-313,197	-200,000	0,016	0,069
-312,183	800,000	-0,005	-0,010
-311,168	523,980	0,061	-0,103
-310,153	-200,000	-0,006	-0,137
-309,139	-200,000	-0,007	-0,042
-308,124	-105,307	0,078	0,013
-307,110	120,603	0,130	-0,115
-306,095	-100,042	-0,110	0,019
-305,080	-200,000	0,011	-0,135
-304,066	133,536	-0,109	-0,101
-303,051	14,990	-0,058	0,032
-302,037	-200,000	0,033	0,117
-301,022	-60,814	0,021	-0,006
-300,008	-200,000	-0,023	0,134
-298,993	800,000	0,053	0,130
-297,978	-200,000	0,001	0,020
-296,964	464,331	-0,058	-0,092
-295,949	-200,000	-0,021	-0,086
-294,935	-76,585	0,020	0,005
-293,920	452,852	0,053	-0,084
-292,905	-200,000	0,037	0,138
-291,891	-109,334	0,080	-0,012
-290,876	30,285	-0,046	-0,028
-289,862	-86,088	-0,052	0,011
-288,847	-200,000	0,001	-0,024
-287,832	138,033	-0,016	-0,015
-286,818	-98,886	0,091	-0,016
-285,803	500,509	0,018	0,030
-284,789	-200,000	0,013	-0,050
-283,774	150,357	-0,010	-0,010
-282,759	-62,781	0,032	-0,009
-281,745	363,623	0,058	-0,083
-280,730	-143,020	-0,069	0,005
-279,716	-88,479	-0,069	0,015
-278,701	434,281	0,030	-0,047
-277,686	800,000	0,019	0,053
-276,672	-200,000	0,043	0,143
-275,657	-103,524	-0,060	0,010
-274,643	671,926	-0,079	-0,147
-273,628	-200,000	0,034	-0,137
-272,613	-200,000	-0,020	-0,140
-271,599	-9,780	0,105	0,049
-270,584	-116,999	0,062	0,008
-269,570	261,807	-0,086	0,107
-268,555	-200,000	0,011	0,057
-267,540	-200,000	-0,016	-0,131
-266,526	800,000	-0,041	0,112
-265,511	620,793	-0,026	-0,047
-264,497	-81,689	-0,066	0,015
-263,482	206,090	0,041	0,045
-262,467	800,000	-0,009	0,022
-261,453	-200,000	0,050	-0,166
-260,438	-200,000	0,014	-0,056
-259,424	216,576	0,057	-0,065
-258,409	649,422	0,024	0,045
-257,395	-200,000	-0,048	0,162
-256,380	800,000	0,054	0,115
-255,365	211,001	0,086	0,096
-254,351	21,395	-0,034	-0,020
-253,336	-19,964	-0,050	-0,022
-252,322	-200,000	-0,005	-0,035
-251,307	-200,000	-0,014	-0,141
-250,292	-120,305	0,119	-0,014
-249,278	-142,570	-0,134	-0,009
-248,263	-200,000	0,025	-0,082
-247,249	475,192	0,017	-0,027
-246,234	800,000	-0,010	0,024
-245,219	159,853	0,082	0,081
-244,205	99,818	-0,027	0,022
-243,190	45,819	-0,003	-0,002
-242,176	13,607	-0,017	0,010
-241,161	-200,000	-0,024	0,077
-240,146	-200,000	-0,011	0,078
-239,132	-200,000	-0,030	0,114
-238,117	396,243	-0,097	-0,145
-237,103	-46,623	-0,006	-0,002
-236,088	-200,000	-0,031	-0,110
-235,073	-200,000	0,027	0,123
-234,059	-37,134	-0,099	0,038
-233,044	13,657	0,115	0,063
-232,030	800,000	0,071	0,146
-231,015	800,000	-0,042	-0,123
-230,000	-27,168	-0,104	-0,043
-228,986	-78,080	-0,061	-0,015
-227,971	125,558	-0,103	0,092
-226,957	330,737	-0,093	0,128
-225,942	-69,226	0,076	-0,020
-224,927	-51,092	-0,031	0,010
-223,913	386,592	-0,077	-0,114
-222,898	153,796	-0,048	0,046
-221,884	-23,448	-0,089	0,038
-220,869	-42,341	-0,101	0,036
-219,855	-200,000	-0,019	0,090
-218,840	800,000	0,026	-0,062
-217,825	800,000	-0,011	0,032
-216,811	800,000	-0,065	-0,179
-215,796	318,478	-0,049	0,066
-214,782	-200,000	-0,015	0,168
-213,767	-51,569	0,080	0,026
-212,752	29,955	0,119	0,072
-211,738	-200,000	0,008	0,066
-210,723	-75,261	0,151	0,038
-209,709	800,000	-0,058	-0,122
-208,694	-200,000	-0,022	0,185
-207,679	425,827	-0,027	-0,041
-206,665	-77,131	0,063	0,015
-205,650	-200,000	0,047	0,167
-204,636	234,055	0,082	0,095
-203,621	0,572	-0,102	-0,052
-202,606	800,000	-0,072	-0,181
-201,592	-200,000	0,021	-0,210
-200,577	143,604	-0,070	-0,066
-199,563	-80,454	0,067	0,016
-198,548	365,315	0,095	-0,136
-197,533	42,905	0,065	0,042
-196,519	-157,604	0,024	-0,001
-195,504	521,388	0,025	0,042
-194,490	800,000	-0,058	-0,126
-193,475	311,166	0,031	0,042
-192,460	800,000	-0,077	-0,158
-191,446	-64,248	0,088	-0,025
-190,431	109,075	0,059	-0,050
-189,417	212,886	0,057	0,064
-188,402	800,000	-0,026	-0,057
-187,387	94,921	-0,125	0,101
-186,373	131,018	0,048	-0,043
-185,358	-200,000	-0,019	-0,069
-184,344	209,361	0,075	-0,084
-183,329	-200,000	0,024	-0,112
-182,315	-123,642	0,110	0,012
-181,300	800,000	-0,024	0,052
-180,285	175,772	-0,078	0,081
-179,271	-23,916	-0,146	-0,062
-178,256	399,689	-0,036	0,054
-177,242	-16,565	0,046	-0,021
-176,227	-200,000	-0,019	0,072
-175,212	-5,353	0,052	-0,025
-174,198	-200,000	-0,003	0,025
-173,183	-65,036	-0,075	-0,021
-172,169	-47,000	-0,123	-0,042
-171,154	58,186	-0,061	0,043
-170,139	-200,000	-0,003	-0,049
-169,125	88,557	0,164	0,129
-168,110	21,020	-0,076	0,044
-167,096	-200,000	0,020	0,102
-166,081	-26,481	0,097	-0,040
-165,066	-89,589	-0,060	-0,012
-164,052	800,000	0,005	0,009
-163,037	-122,822	0,139	0,016
-162,023	-200,000	0,037	-0,167
-161,008	-132,673	0,059	0,005
-159,993	34,767	0,014	-0,009
-158,979	-153,054	-0,093	0,005
-157,964	-200,000	0,015	-0,049
-156,950	-200,000	0,005	-0,073
-155,935	-200,000	0,005	0,099
-154,920	139,455	0,050	0,047
-153,906	-140,366	0,027	-0,002
-152,891	17,816	-0,081	0,046
-151,877	-150,265	-0,106	0,006
-150,862	-4,802	0,032	0,016
-149,847	800,000	0,050	0,141
-148,833	306,539	-0,073	0,096
-147,818	-200,000	-0,009	0,067
-146,804	-140,096	0,159	0,012
-145,789	-200,000	0,024	-0,094
-144,775	-200,000	0,003	-0,083
-143,760	54,220	-0,102	-0,070
-142,745	-200,000	0,016	-0,064
-141,731	65,465	0,058	0,042
-140,716	-106,684	0,155	0,024
-139,702	-57,025	0,119	0,037
-138,687	-54,673	0,037	0,012
-137,672	800,000	-0,038	-0,094
-136,658	240,571	0,030	-0,035
-135,643	-97,615	-0,081	-0,015
-134,629	800,000	-0,040	-0,079
-133,614	-200,000	0,015	-0,056
-132,599	-200,000	0,001	0,077
-131,585	800,000	-0,013	0,037
-130,570	-200,000	-0,002	0,030
-129,556	75,323	-0,087	0,065
-128,541	646,095	-0,093	-0,169
-127,526	-200,000	-0,003	0,037
-126,512	-111,044	0,104	-0,015
-125,497	435,251	0,046	0,071
-124,483	-200,000	0,016	0,175
-123,468	-150,998	0,078	0,004
-122,453	-113,913	-0,282	0,038
-121,439	62,060	-0,077	-0,054
-120,424	-200,000	0,008	0,028
-119,410	-200,000	-0,036	0,138
-118,395	83,348	0,079	0,061
-117,380	73,764	0,070	-0,052
-116,366	300,672	0,003	0,004
-115,351	789,772	-0,046	-0,090
-114,337	800,000	0,011	-0,030
-113,322	205,276	0,037	0,041
-112,307	-200,000	-0,025	0,135
-111,293	175,100	-0,051	-0,052
-110,278	-54,738	-0,207	0,066
-109,264	2,102	-0,102	-0,052
-108,249	-98,927	-0,054	-0,010
-107,234	538,095	0,012	-0,021
-106,220	64,072	-0,164	-0,117
-105,205	-162,951	-0,039	-0,001
-104,191	-129,201	-0,066	-0,006
-103,176	-200,000	0,043	0,151
-102,162	-97,850	-0,103	-0,019
-101,147	-34,107	-0,122	0,047
-100,132	-24,345	-0,040	0,017
-99,118	-177,223	0,037	0,001
-98,103	-200,000	-0,011	-0,042
-97,089	-200,000	0,013	0,041
-96,074	-200,000	0,005	-0,035
-95,059	-90,483	-0,094	-0,019
-94,045	145,744	-0,092	-0,087
-93,030	292,429	0,079	-0,101
-92,016	-200,000	-0,031	-0,166
-91,001	-200,000	-0,021	0,076
-89,986	707,254	-0,058	0,109
-88,972	-40,376	0,100	-0,037
-87,957	236,221	0,072	0,084
-86,943	217,889	0,032	-0,036
-85,928	-177,967	-0,127	0,002
-84,913	167,324	0,133	0,134
-83,899	207,645	-0,052	0,057
-82,884	532,536	-0,031	0,052
-81,870	346,257	0,096	0,134
-80,855	-70,897	-0,153	-0,040
-79,840	800,000	-0,017	0,046
-78,826	9,359	0,110	-0,059
-77,811	-200,000	-0,032	-0,132
-76,797	-64,108	0,180	0,051
-75,782	-200,000	0,043	0,159
-74,767	127,887	0,037	0,033
-73,753	-200,000	-0,003	-0,073
-72,738	317,912	0,049	0,066
-71,724	-126,062	-0,080	0,008
-70,709	-75,932	-0,156	-0,039
-69,694	-158,225	-0,150	0,006
-68,680	130,323	0,021	-0,019
-67,665	684,208	-0,040	-0,074
-66,651	-200,000	-0,007	0,041
-65,636	800,000	-0,046	0,098
-64,622	800,000	0,019	0,048
-63,607	-78,501	0,036	-0,009
-62,592	248,328	-0,076	-0,091
-61,578	800,000	0,030	-0,059
-60,563	-100,075	0,049	-0,009
-59,549	-0,301	0,078	0,039
-58,534	17,106	-1,894	-1,057
-57,519	379,310	-1,418	-2,055
-56,505	-200,000	-0,396	-4,588
-55,490	528,685	0,836	1,397
-54,476	800,000	5,005	11,197
-53,461	-200,000	20,655	329,829
-52,446	800,000	754,345	2317,833
-51,432	552,386	1659,662	2823,696
-50,417	73,889	1664,726	1230,367
-49,403	18,992	1538,081	867,491
-48,388	12,998	1460,781	794,893
-47,373	18,941	1451,492	818,344
-46,359	16,041	1440,975	798,576
-45,344	11,259	1436,557	773,322
-44,330	11,184	1434,757	771,966
-43,315	11,190	1432,465	770,731
-42,300	11,162	1430,941	769,746
-41,286	11,174	1429,881	769,204
-40,271	11,148	1428,404	768,255
-39,257	11,155	1427,206	767,613
-38,242	11,186	1426,185	767,184
-37,227	11,164	1424,957	766,387
-36,213	11,206	1423,738	765,898
-35,198	11,205	1422,455	765,176
-34,184	11,266	1421,772	765,063
-33,169	11,198	1420,242	763,887
-32,154	11,261	1419,285	763,643
-31,140	11,276	1417,882	762,929
-30,125	11,261	1416,933	762,317
-29,111	11,254	1415,813	761,650
-28,096	11,271	1414,570	761,031
-27,082	11,223	1413,509	760,206
-26,067	11,184	1412,331	759,357
-25,052	11,201	1411,375	758,895
-24,038	11,180	1410,352	758,215
-23,023	11,136	1409,597	757,572
-22,009	11,140	1408,306	756,866
-20,994	11,149	1407,335	756,356
-19,979	11,151	1406,600	755,943
-18,965	11,141	1405,518	755,284
-17,950	11,113	1404,658	754,661
-16,936	11,085	1403,945	754,117
-15,921	11,067	1402,911	753,448
-14,906	11,037	1401,990	752,784
-13,892	11,114	1400,930	752,545
-12,877	11,083	1400,257	752,007
-11,863	11,146	1398,983	751,588
-10,848	11,057	1398,361	750,809
-9,833	11,000	1397,519	750,063
-8,819	10,981	1396,653	749,481
-7,804	10,950	1395,968	748,940
-6,790	10,963	1394,612	748,243
-5,775	11,011	1393,619	747,901
-4,760	10,993	1392,713	747,305
-3,746	10,990	1391,956	746,852
-2,731	10,951	1391,242	746,259
-1,717	10,931	1390,365	745,667
-0,702	10,933	1388,385	744,584
0,313	15,032	1302,650	717,372
1,327	31,316	694,603	419,614
2,342	48,552	120,695	79,600
3,356	1,819	16,458	8,337
4,371	1,606	3,442	1,741
5,386	-8,912	0,931	0,438
6,400	-200,000	0,023	0,457
7,415	-54,444	-0,318	-0,101
8,429	-83,303	-0,248	-0,056
9,444	232,600	-0,257	-0,298
10,459	20,963	-0,305	-0,174
11,473	53,489	-0,358	-0,241
12,488	61,915	-0,194	-0,136
13,502	-36,944	-0,385	-0,145
14,517	-64,886	-0,461	-0,130
15,531	265,740	-0,327	-0,402
16,546	25,779	-0,383	-0,224
17,561	260,172	-0,255	-0,311
18,575	206,314	-0,138	-0,151
19,590	111,030	-0,281	-0,238
20,604	215,223	-0,155	-0,173
21,619	46,810	-0,314	-0,205
22,634	22,356	-0,446	-0,256
23,648	83,012	-0,495	-0,379
24,663	89,257	-0,456	-0,357
25,677	223,172	-0,226	-0,257
26,692	-33,055	-0,364	-0,141
27,707	33,986	-0,423	-0,258
28,721	59,773	-0,352	-0,244
29,736	28,161	-0,429	-0,254
30,750	242,971	-0,337	-0,397
31,765	113,989	-0,312	-0,267
32,780	156,155	-0,311	-0,302
33,794	232,665	-0,210	-0,243
34,809	110,632	-0,282	-0,239
35,823	40,765	-0,383	-0,242
36,838	174,543	-0,428	-0,435
37,853	46,093	-0,339	-0,220
38,867	311,824	-0,251	-0,332
39,882	323,969	-0,248	-0,333
40,896	33,180	-0,328	-0,200
41,911	51,719	-0,298	-0,199
42,926	-23,559	-0,395	-0,166
43,940	57,802	-0,333	-0,228
44,955	118,531	-0,366	-0,318
45,969	141,277	-0,348	-0,324
46,984	86,641	-0,306	-0,237
47,999	18,395	-0,280	-0,157
49,013	170,501	-0,305	-0,307
50,028	133,188	-0,250	-0,227
51,042	17,794	-0,281	-0,157
52,057	142,342	-0,315	-0,294
53,071	65,784	-0,223	-0,158
54,086	-49,895	-0,369	-0,122
55,101	-43,744	-0,346	-0,122
56,115	-43,970	-0,268	-0,094
57,130	1,530	-0,402	-0,202
58,144	60,312	-0,371	-0,257
59,159	-31,665	-0,371	-0,145
60,174	39,114	-0,460	-0,288
61,188	194,114	-0,361	-0,384
62,203	12,236	-0,401	-0,216
63,217	60,482	-0,404	-0,280
64,232	42,641	-0,300	-0,191
65,247	141,164	-0,239	-0,221
66,261	90,506	-0,440	-0,345
67,276	107,735	-0,328	-0,274
68,290	50,791	-0,319	-0,211
69,305	-15,668	-0,276	-0,123
70,320	481,000	-0,109	-0,174
71,334	-49,580	-0,279	-0,092
72,349	-6,692	-0,364	-0,173
73,363	-21,309	-0,349	-0,149
74,378	72,429	-0,332	-0,242
75,393	114,342	-0,278	-0,237
76,407	34,140	-0,328	-0,200
77,422	55,914	-0,256	-0,174
78,436	-112,950	-0,365	-0,050
79,451	22,300	-0,329	-0,188
80,466	64,508	-0,347	-0,244
81,480	128,770	-0,296	-0,264
82,495	20,630	-0,309	-0,174
83,509	-96,075	-0,376	-0,069
84,524	-60,902	-0,250	-0,073
85,539	246,313	-0,218	-0,258
86,553	24,893	-0,355	-0,206
87,568	79,642	-0,309	-0,232
88,582	83,694	-0,293	-0,223
89,597	-16,650	-0,414	-0,182
90,611	-145,381	-0,281	0,017
91,626	320,918	-0,155	-0,207
92,641	-61,040	-0,310	-0,091
93,655	13,515	-0,196	-0,106
94,670	145,025	-0,345	-0,323
95,684	800,000	-0,230	-0,466
96,699	-49,935	-0,334	-0,110
97,714	99,919	-0,258	-0,209
98,728	13,461	-0,335	-0,181
99,743	-200,000	-0,029	-0,193
100,757	28,909	-0,307	-0,182
101,772	70,840	-0,223	-0,161
102,787	53,093	-0,263	-0,176
103,801	96,901	-0,199	-0,159
104,816	495,019	-0,143	-0,230
105,830	5,324	-0,240	-0,123
106,845	-45,871	-0,285	-0,098
107,860	-14,935	-0,263	-0,117
108,874	-40,413	-0,302	-0,109
109,889	-13,367	-0,294	-0,133
110,903	147,205	-0,251	-0,236
111,918	273,354	-0,193	-0,238
112,933	184,527	-0,174	-0,180
113,947	-25,632	-0,203	-0,083
114,962	-40,214	-0,224	-0,081
115,976	70,102	-0,247	-0,178
116,991	111,888	-0,204	-0,172
118,006	-47,913	-0,259	-0,087
119,020	104,353	-0,237	-0,194
120,035	209,111	-0,140	-0,154
121,049	116,523	-0,187	-0,160
122,064	101,537	-0,271	-0,220
123,079	-25,712	-0,381	-0,156
124,093	132,676	-0,161	-0,145
125,108	65,749	-0,184	-0,130
126,122	-83,759	-0,326	-0,072
127,137	22,368	-0,229	-0,130
128,151	33,635	-0,247	-0,149
129,166	-67,395	-0,269	-0,073
130,181	43,139	-0,182	-0,115
131,195	170,850	-0,289	-0,289
132,210	191,953	-0,248	-0,261
133,224	123,326	-0,263	-0,230
134,239	17,378	-0,191	-0,105
135,254	13,298	-0,278	-0,150
136,268	32,686	-0,257	-0,154
137,283	6,110	-0,306	-0,158
138,297	61,967	-0,235	-0,163
139,312	36,027	-0,209	-0,128
140,327	326,333	-0,156	-0,209
141,341	175,490	-0,202	-0,204
142,356	49,844	-0,133	-0,087
143,370	87,656	-0,264	-0,203
144,385	-174,134	-0,216	0,004
145,400	-60,690	-0,260	-0,076
146,414	60,347	-0,243	-0,167
147,429	76,107	-0,227	-0,167
148,443	357,635	-0,228	-0,317
149,458	-59,830	-0,187	-0,055
150,473	800,000	0,068	-0,134
151,487	87,233	-0,324	-0,249
152,502	-77,026	-0,370	-0,089
153,516	-27,270	-0,346	-0,140
154,531	92,442	-0,212	-0,166
155,546	151,963	-0,324	-0,307
156,560	55,128	-0,214	-0,143
157,575	77,201	-0,229	-0,169
158,589	134,809	-0,198	-0,179
159,604	-31,546	-0,374	-0,145
160,619	60,817	-0,346	-0,238
161,633	-8,129	-0,311	-0,145
162,648	111,414	-0,342	-0,287
163,662	78,430	-0,134	-0,100
164,677	207,006	-0,127	-0,138
165,692	21,617	-0,218	-0,123
166,706	307,963	-0,164	-0,213
167,721	391,327	-0,149	-0,215
168,735	-34,262	-0,412	-0,156
169,750	-23,944	-0,286	-0,118
170,764	31,562	-0,196	-0,117
171,779	-61,778	-0,358	-0,103
172,794	133,929	-0,193	-0,173
173,808	-200,000	-0,079	-0,243
174,823	256,422	-0,179	-0,213
175,837	-116,072	-0,223	0,028
176,852	88,490	-0,211	-0,162
177,867	-15,438	-0,174	-0,077
178,881	-89,583	-0,269	-0,054
179,896	-79,419	-0,239	-0,056
180,910	243,815	-0,179	-0,209
181,925	117,662	-0,203	-0,173
182,940	205,790	-0,210	-0,227
183,954	401,657	-0,177	-0,259
184,969	71,596	-0,090	-0,065
185,983	-159,408	-0,251	0,010
186,998	-148,463	-0,141	-0,008
188,013	185,813	-0,146	-0,150
189,027	247,754	-0,173	-0,203
190,042	-3,977	-0,244	-0,117
191,056	175,984	-0,205	-0,207
192,071	3,448	-0,232	-0,117
193,086	181,224	-0,142	-0,144
194,100	-11,190	-0,211	-0,096
195,115	780,883	-0,128	-0,243
196,129	103,996	-0,275	-0,224
197,144	51,062	-0,250	-0,164
198,159	-4,783	-0,231	-0,110
199,173	-34,861	-0,199	-0,075
200,188	39,349	-0,246	-0,152
201,202	800,000	-0,085	-0,229
202,217	98,927	-0,199	-0,159
203,232	314,380	-0,183	-0,239
204,246	-17,365	-0,232	-0,101
205,261	454,085	-0,141	-0,217
206,275	293,046	-0,201	-0,255
207,290	-126,036	-0,204	-0,021
208,304	556,466	-0,040	-0,067
209,319	547,776	-0,056	-0,092
210,334	12,794	-0,176	-0,094
211,348	616,286	-0,113	-0,197
212,363	13,294	-0,254	-0,136
213,377	211,438	-0,200	-0,218
214,392	122,432	-0,253	-0,219
215,407	-34,923	-0,186	-0,070
216,421	89,868	-0,141	-0,109
217,436	-82,069	-0,261	-0,059
218,450	103,668	-0,223	-0,181
219,465	141,265	-0,122	-0,112
220,480	-1,814	-0,266	-0,129
221,494	227,035	-0,171	-0,192
222,509	78,777	-0,191	-0,141
223,523	-72,272	-0,033	-0,008
224,538	227,608	-0,172	-0,194
225,553	300,022	-0,109	-0,139
226,567	-53,233	-0,255	-0,080
227,582	45,483	-0,191	-0,122
228,596	345,715	-0,129	-0,176
229,611	800,000	0,069	-0,176
230,626	188,498	-0,146	-0,151
231,640	76,714	-0,229	-0,168
232,655	786,321	-0,127	-0,243
233,669	169,061	-0,254	-0,251
234,684	800,000	-0,109	-0,330
235,699	45,766	-0,213	-0,136
236,713	14,262	-0,226	-0,121
237,728	-39,620	-0,071	0,025
238,742	486,107	-0,093	-0,147
239,757	61,766	-0,263	-0,180
240,772	345,451	-0,100	-0,136
241,786	533,541	-0,119	-0,196
242,801	122,072	-0,188	-0,162
243,815	182,649	-0,147	-0,150
244,830	-71,687	-0,180	-0,046
245,844	41,764	-0,221	-0,138
246,859	7,298	-0,238	-0,122
247,874	298,893	-0,170	-0,216
248,888	156,965	-0,163	-0,156
249,903	197,297	-0,150	-0,158
250,917	-17,055	-0,222	-0,096
251,932	268,791	-0,161	-0,196
252,947	126,730	-0,203	-0,178
253,961	263,977	-0,128	-0,154
254,976	-0,036	-0,251	-0,123
255,990	-157,248	-0,248	-0,010
257,005	-17,753	-0,208	-0,090
258,020	129,671	-0,114	-0,100
259,034	-159,047	-0,236	-0,009
260,049	-18,729	-0,235	-0,100
261,063	510,278	-0,105	-0,170
262,078	330,816	-0,124	-0,165
263,093	-104,179	-0,203	-0,032
264,107	249,583	-0,062	-0,072
265,122	-98,366	-0,170	-0,030
266,136	-25,493	-0,262	-0,106
267,151	-19,396	-0,080	-0,034
268,166	41,786	-0,246	-0,153
269,180	487,946	-0,116	-0,183
270,195	-142,670	-0,295	-0,020
271,209	148,965	-0,196	-0,183
272,224	295,550	-0,179	-0,227
273,239	-57,892	-0,164	-0,049
274,253	113,887	-0,184	-0,154
275,268	-160,381	-0,285	-0,010
276,282	-149,091	-0,103	0,006
277,297	173,445	-0,200	-0,198
278,312	316,482	-0,132	-0,172
279,326	66,723	-0,182	-0,128
280,341	-74,583	-0,126	-0,031
281,355	161,250	-0,127	-0,123
282,370	-169,486	-0,128	-0,003
283,384	-167,778	-0,115	0,003
284,399	293,948	-0,133	-0,168
285,414	800,000	-0,084	-0,210
286,428	32,425	-0,165	-0,098
287,443	-200,000	0,001	-0,042
288,457	-95,762	-0,148	-0,027
289,472	-73,869	-0,160	0,040
290,487	39,335	-0,113	-0,069
291,501	337,012	-0,199	-0,266
292,516	-121,320	-0,077	-0,009
293,530	55,178	-0,247	-0,164
294,545	360,253	-0,174	-0,241
295,560	17,994	-0,122	-0,067
296,574	800,000	-0,037	-0,081
297,589	72,656	-0,196	-0,140
298,603	308,492	-0,174	-0,223
299,618	380,894	-0,144	-0,203
300,633	-6,968	-0,235	-0,109
301,647	88,947	-0,140	-0,107
302,662	27,022	0,032	-0,019
303,676	800,000	-0,081	-0,180
304,691	-94,441	-0,122	-0,023
305,706	-34,865	-0,127	-0,047
306,720	-14,601	-0,162	-0,071
307,735	50,451	-0,147	-0,095
308,749	241,448	-0,177	-0,203
309,764	24,048	-0,145	-0,082
310,779	-59,511	-0,199	-0,058
311,793	-148,170	-0,047	0,003
312,808	-1,329	-0,136	-0,066
313,822	-105,529	-0,211	-0,033
314,837	84,291	-0,151	-0,113
315,852	-86,920	-0,114	-0,024
316,866	-200,000	0,001	-0,076
317,881	324,214	-0,107	-0,141
318,895	-128,913	-0,067	-0,006
319,910	367,857	-0,102	-0,142
320,925	-1,829	-0,224	-0,108
321,939	-182,868	-0,123	-0,001
322,954	12,438	-0,026	0,014
323,968	118,154	-0,095	0,080
324,983	98,648	-0,163	-0,129
325,997	124,883	-0,266	-0,230
327,012	-73,909	-0,201	-0,050
328,027	23,939	-0,186	-0,105
329,041	122,481	-0,151	-0,129
330,056	800,000	-0,096	-0,200
331,070	-200,000	-0,061	-0,194
332,085	191,825	-0,132	-0,136
333,100	-36,820	-0,060	0,022
334,114	800,000	-0,071	-0,176
335,129	160,555	-0,150	-0,143
336,143	78,628	-0,167	-0,122
337,158	-200,000	-0,031	-0,131
338,173	-26,882	-0,129	-0,051
339,187	80,368	-0,043	-0,031
340,202	-87,850	-0,143	-0,029
341,216	279,043	-0,144	-0,176
342,231	-10,997	-0,238	-0,107
343,246	291,027	-0,147	-0,183
344,260	166,537	-0,118	-0,115
345,275	800,000	-0,092	-0,185
346,289	-107,798	-0,082	-0,012
347,304	15,531	-0,086	0,046
348,319	458,651	-0,068	-0,104
349,333	800,000	-0,068	-0,182
350,348	79,735	-0,133	-0,097
351,362	-40,207	-0,135	-0,048
352,377	-27,943	-0,170	-0,067
353,392	298,948	-0,174	-0,220
354,406	316,539	-0,058	-0,074
355,421	209,451	1313,276	1408,546
356,435	161,210	1473,779	1409,021
