DTS Sentinel unit serial number:	SN410029Multiplexer serial number:	ORYXHardware model number:	OX2-SRSoftware version number:	ORYX F/W v4,00 Oryx Data Collector v3.7.2.0data status	okinstallation	B3 Nyhavnadifferential loss correction	single-endedforward channel	channel 1reverse channel	N/Adate	2023/12/04time	23:37:30forward acquisition time	300,00reverse acquisition time	0,00gamma	499,1914k internal	0,3200k external	0,3200temperature offset calibration	1,0000default loss term (dB/km)	0,3820temperature slope calibration	1,0000multiplexer offset coefficient	1,0000multiplexer slope coefficient	1,0000fibre end	0,00T internal ref (°C)	14,12T ext. ref 1 (°C)	-1,20T ext. ref 2 (°C)	-1,21length (m)	temperature (°C)	Stokes	anti-Stokes-744,400	181,893	-0,190	-0,203
-743,385	-200,000	0,020	0,321
-742,371	18,204	-0,320	-0,185
-741,356	800,000	0,105	0,314
-740,342	-23,551	-0,234	-0,102
-739,327	800,000	0,105	0,312
-738,312	-200,000	-0,106	-0,365
-737,298	-200,000	0,044	0,203
-736,283	800,000	-0,064	-0,201
-735,269	-200,000	-0,012	0,241
-734,254	-66,576	-0,205	-0,059
-733,239	127,695	-0,138	0,128
-732,225	-200,000	-0,025	-0,194
-731,210	56,086	0,132	0,093
-730,196	-200,000	-0,004	-0,022
-729,181	455,961	-0,010	-0,016
-728,167	473,781	0,014	-0,022
-727,152	-174,729	0,196	0,004
-726,137	-78,334	-0,045	-0,011
-725,123	112,517	-0,071	-0,062
-724,108	800,000	-0,085	-0,174
-723,094	-30,972	-0,114	-0,046
-722,079	89,962	-0,133	-0,108
-721,064	24,461	-0,110	-0,066
-720,050	-200,000	0,047	0,154
-719,035	281,220	-0,015	-0,019
-718,021	-200,000	-0,011	-0,064
-717,006	-200,000	-0,032	-0,167
-715,991	-200,000	-0,031	-0,102
-714,977	-189,489	-0,086	-0,001
-713,962	-200,000	0,032	-0,154
-712,948	800,000	0,006	-0,015
-711,933	800,000	-0,017	-0,038
-710,918	-55,099	-0,126	0,041
-709,904	367,447	0,060	-0,088
-708,889	-200,000	-0,004	-0,140
-707,875	-200,000	-0,007	-0,127
-706,860	-101,496	-0,181	0,032
-705,845	125,171	0,054	0,050
-704,831	-200,000	0,002	0,066
-703,816	280,148	0,096	-0,125
-702,802	-16,959	-0,205	-0,094
-701,787	-200,000	0,039	-0,204
-700,772	186,372	0,071	-0,077
-699,758	800,000	-0,007	-0,019
-698,743	-124,115	0,168	-0,019
-697,729	110,030	0,194	0,169
-696,714	316,863	0,085	0,117
-695,699	-200,000	0,024	0,112
-694,685	-200,000	0,039	-0,159
-693,670	365,548	0,096	-0,141
-692,656	-200,000	0,002	-0,116
-691,641	-163,933	0,123	0,004
-690,627	-87,709	0,037	-0,008
-689,612	66,320	0,066	-0,049
-688,597	410,600	0,067	-0,103
-687,583	800,000	-0,085	-0,197
-686,568	352,012	-0,027	-0,039
-685,554	119,096	0,046	-0,041
-684,539	-200,000	-0,009	0,104
-683,524	538,979	-0,045	-0,078
-682,510	-77,526	-0,024	-0,006
-681,495	16,757	-0,038	0,022
-680,481	-92,854	0,035	0,007
-679,466	-75,897	-0,112	-0,029
-678,451	-200,000	-0,004	-0,107
-677,437	-96,955	0,107	0,020
-676,422	3,565	0,048	0,025
-675,408	-73,700	0,020	0,005
-674,393	-12,840	0,038	0,018
-673,378	-51,925	0,057	0,019
-672,364	800,000	0,041	0,090
-671,349	800,000	0,040	0,093
-670,335	-86,475	-0,162	-0,036
-669,320	74,801	-0,065	-0,049
-668,305	30,362	0,062	-0,038
-667,291	98,902	-0,139	-0,116
-666,276	-96,739	-0,090	-0,017
-665,262	-123,426	-0,064	-0,007
-664,247	110,767	-0,047	0,041
-663,232	-87,110	0,117	0,026
-662,218	133,734	0,088	-0,083
-661,203	15,188	0,073	0,041
-660,189	16,731	-0,150	0,086
-659,174	-200,000	0,002	0,010
-658,159	-200,000	0,024	-0,098
-657,145	170,135	0,103	-0,107
-656,130	800,000	-0,040	-0,113
-655,116	-200,000	0,015	-0,057
-654,101	664,435	0,031	0,059
-653,086	800,000	0,051	0,156
-652,072	-146,634	-0,120	-0,007
-651,057	181,864	0,018	-0,019
-650,043	-31,599	-0,098	0,040
-649,028	290,521	-0,074	-0,098
-648,014	800,000	-0,017	0,045
-646,999	126,403	0,059	0,054
-645,984	268,566	0,057	-0,072
-644,970	-79,799	0,095	-0,023
-643,955	-121,717	-0,084	-0,010
-642,941	-48,916	-0,113	-0,039
-641,926	9,362	-0,084	0,046
-640,911	322,620	0,014	-0,020
-639,897	800,000	0,028	0,058
-638,882	-2,126	0,103	0,052
-637,868	114,587	-0,081	-0,071
-636,853	800,000	-0,079	-0,189
-635,838	-200,000	0,015	0,084
-634,824	-200,000	0,008	-0,084
-633,809	800,000	-0,042	-0,099
-632,795	800,000	-0,025	-0,060
-631,780	90,505	0,087	-0,071
-630,765	-200,000	-0,013	0,057
-629,751	259,987	0,130	-0,163
-628,736	609,369	-0,017	-0,031
-627,722	-28,372	-0,020	-0,008
-626,707	36,874	-0,078	0,050
-625,692	800,000	0,072	0,167
-624,678	-200,000	0,018	0,073
-623,663	203,156	0,146	0,164
-622,649	800,000	-0,042	-0,117
-621,634	-200,000	-0,026	-0,165
-620,619	-200,000	0,046	-0,186
-619,605	-200,000	0,007	0,065
-618,590	176,513	0,069	0,072
-617,576	-148,661	0,062	-0,004
-616,561	36,766	0,071	0,045
-615,546	-166,654	-0,167	0,005
-614,532	-200,000	0,052	-0,191
-613,517	-200,000	-0,002	-0,013
-612,503	-39,976	0,127	0,048
-611,488	11,774	-0,053	-0,029
-610,474	49,877	0,022	-0,015
-609,459	800,000	0,075	0,157
-608,444	-200,000	-0,001	0,091
-607,430	-200,000	-0,007	-0,039
-606,415	5,031	-0,171	-0,091
-605,401	-39,062	0,063	-0,024
-604,386	-53,652	0,212	0,070
-603,371	72,520	0,043	0,032
-602,357	-5,062	-0,167	-0,083
-601,342	224,358	0,149	-0,174
-600,328	-11,236	-0,070	-0,033
-599,313	800,000	0,063	-0,176
-598,298	463,451	0,014	-0,023
-597,284	-94,259	-0,064	-0,013
-596,269	-24,363	0,071	-0,030
-595,255	63,362	0,074	-0,053
-594,240	145,753	-0,048	0,046
-593,225	800,000	-0,014	-0,043
-592,211	-200,000	-0,021	-0,108
-591,196	-57,772	0,079	0,025
-590,182	106,086	0,092	0,079
-589,167	318,894	0,055	0,075
-588,152	-200,000	0,030	0,096
-587,138	119,995	0,134	0,120
-586,123	139,791	-0,056	0,053
-585,109	-120,103	0,081	0,010
-584,094	32,400	-0,114	0,071
-583,079	167,132	0,055	-0,057
-582,065	800,000	0,006	-0,017
-581,050	-94,709	-0,090	-0,018
-580,036	70,520	-0,101	-0,076
-579,021	-151,351	-0,107	0,006
-578,006	278,487	-0,055	-0,071
-576,992	18,310	0,045	-0,026
-575,977	536,264	-0,075	0,129
-574,963	189,454	-0,054	0,058
-573,948	-13,118	-0,173	0,081
-572,934	800,000	-0,073	0,179
-571,919	-50,417	-0,077	-0,026
-570,904	221,596	0,099	-0,115
-569,890	-18,323	0,089	0,040
-568,875	-200,000	0,008	0,097
-567,861	-200,000	0,009	0,055
-566,846	-200,000	-0,034	-0,122
-565,831	-89,778	0,144	-0,030
-564,817	297,310	-0,037	-0,049
-563,802	-200,000	-0,044	-0,212
-562,788	-200,000	0,010	-0,075
-561,773	-105,145	0,024	0,004
-560,758	800,000	0,106	0,216
-559,744	-120,954	0,078	0,009
-558,729	-131,106	0,147	-0,014
-557,715	49,174	-0,087	-0,059
-556,700	-110,327	-0,033	-0,005
-555,685	-200,000	-0,014	0,060
-554,671	-200,000	0,045	-0,156
-553,656	800,000	0,030	0,066
-552,642	112,241	-0,120	0,105
-551,627	-76,599	0,073	-0,018
-550,612	-53,113	-0,008	-0,003
-549,598	139,099	-0,103	-0,098
-548,583	-53,808	-0,138	-0,045
-547,569	-146,427	0,016	-0,001
-546,554	166,206	-0,066	-0,067
-545,539	-200,000	0,005	0,101
-544,525	10,251	-0,079	0,043
-543,510	-200,000	0,000	-0,032
-542,496	-148,978	-0,069	0,004
-541,481	13,177	0,071	0,040
-540,466	-192,148	0,056	0,000
-539,452	-106,449	0,132	-0,021
-538,437	-200,000	0,007	0,098
-537,423	616,143	0,094	0,170
-536,408	37,550	0,036	0,023
-535,393	-167,294	-0,098	0,003
-534,379	-73,014	0,096	0,025
-533,364	46,859	-0,079	0,053
-532,350	430,736	-0,048	-0,075
-531,335	145,793	0,117	0,113
-530,321	-200,000	0,006	0,087
-529,306	-43,882	-0,070	-0,025
-528,291	169,724	-0,058	-0,060
-527,277	-200,000	0,030	-0,140
-526,262	146,790	-0,086	-0,084
-525,248	-200,000	-0,016	-0,117
-524,233	800,000	0,027	-0,055
-523,218	800,000	-0,059	0,142
-522,204	-20,325	-0,038	0,017
-521,189	46,517	-0,146	-0,098
-520,175	131,020	-0,025	-0,023
-519,160	236,051	0,042	-0,050
-518,145	-200,000	0,017	0,112
-517,131	84,100	0,042	0,033
-516,116	-68,110	-0,069	-0,019
-515,102	800,000	-0,026	0,053
-514,087	33,519	-0,115	0,072
-513,072	186,471	-0,012	-0,013
-512,058	-80,192	-0,111	-0,027
-511,043	409,343	-0,060	-0,092
-510,029	4,578	0,105	0,055
-509,014	-88,323	-0,115	0,024
-507,999	-57,970	-0,084	-0,026
-506,985	-104,515	0,146	-0,024
-505,970	-35,673	-0,111	-0,043
-504,956	-92,538	-0,074	-0,015
-503,941	97,869	0,139	-0,115
-502,926	-131,268	-0,081	0,008
-501,912	-55,885	0,046	0,015
-500,897	69,421	0,155	0,115
-499,883	183,258	-0,127	-0,135
-498,868	800,000	-0,042	0,113
-497,853	354,293	0,042	-0,060
-496,839	342,999	0,079	-0,112
-495,824	-200,000	0,004	0,180
-494,810	260,662	0,053	0,066
-493,795	156,353	0,065	-0,065
-492,781	103,901	0,076	-0,064
-491,766	-69,561	0,026	0,007
-490,751	-116,132	-0,101	-0,013
-489,737	-200,000	0,000	0,014
-488,722	4,832	-0,078	0,041
-487,708	144,119	0,053	-0,051
-486,693	-95,898	0,065	0,012
-485,678	-200,000	-0,006	-0,089
-484,664	109,102	-0,109	-0,094
-483,649	800,000	0,077	-0,156
-482,635	-114,367	-0,133	0,018
-481,620	800,000	-0,036	-0,072
-480,605	283,311	0,135	0,175
-479,591	-200,000	0,030	0,105
-478,576	-141,856	-0,078	-0,006
-477,562	-176,889	0,040	-0,001
-476,547	342,839	-0,090	0,128
-475,532	227,639	0,117	0,137
-474,518	329,038	0,068	0,095
-473,503	-88,533	-0,034	0,007
-472,489	462,144	0,024	0,039
-471,474	282,193	-0,066	-0,085
-470,459	800,000	-0,076	0,156
-469,445	-200,000	0,015	-0,056
-468,430	-161,945	0,040	-0,001
-467,416	7,786	0,057	0,030
-466,401	800,000	-0,015	-0,032
-465,386	490,468	0,025	0,041
-464,372	-15,846	0,029	-0,013
-463,357	-29,155	-0,020	-0,008
-462,343	-200,000	-0,019	-0,084
-461,328	62,453	0,078	-0,056
-460,313	130,824	-0,083	-0,076
-459,299	60,716	0,044	0,031
-458,284	-2,041	0,079	0,040
-457,270	13,934	-0,037	-0,021
-456,255	-122,422	-0,078	-0,009
-455,241	800,000	-0,075	-0,186
-454,226	188,821	-0,046	-0,050
-453,211	-20,235	0,062	-0,027
-452,197	409,457	-0,113	0,173
-451,182	80,422	0,077	0,060
-450,168	-3,932	0,066	0,033
-449,153	558,171	0,047	-0,081
-448,138	-200,000	0,003	-0,024
-447,124	3,314	-0,103	0,053
-446,109	-200,000	0,004	-0,066
-445,095	-116,995	-0,114	-0,015
-444,080	700,523	-0,032	0,061
-443,065	34,822	0,084	0,053
-442,051	385,050	-0,044	-0,065
-441,036	5,329	0,091	-0,048
-440,022	535,498	0,033	-0,057
-439,007	286,896	-0,061	-0,080
-437,992	1,058	0,060	0,031
-436,978	-200,000	0,021	0,092
-435,963	580,906	-0,064	0,113
-434,949	162,850	0,020	0,020
-433,934	675,636	-0,028	-0,053
-432,919	400,249	-0,067	-0,101
-431,905	800,000	0,029	-0,091
-430,890	800,000	0,048	0,121
-429,876	62,833	0,067	0,048
-428,861	25,648	-0,033	0,020
-427,846	-200,000	0,020	0,124
-426,832	-43,274	-0,167	-0,060
-425,817	158,760	-0,024	0,024
-424,803	800,000	-0,051	0,104
-423,788	-84,486	0,108	-0,024
-422,773	-200,000	0,025	0,169
-421,759	-200,000	0,042	0,176
-420,744	-122,296	-0,014	0,002
-419,730	-55,676	-0,151	-0,048
-418,715	36,674	0,038	-0,024
-417,701	-36,978	-0,103	-0,040
-416,686	260,372	0,032	-0,040
-415,671	395,968	0,079	-0,118
-414,657	800,000	0,040	0,114
-413,642	800,000	-0,042	0,113
-412,628	800,000	-0,054	0,149
-411,613	-200,000	0,027	-0,087
-410,598	-44,941	-0,106	-0,038
-409,584	166,320	0,041	0,041
-408,569	-200,000	0,034	0,113
-407,555	-200,000	0,023	0,168
-406,540	-125,400	-0,143	0,015
-405,525	-74,121	0,124	-0,032
-404,511	719,115	-0,029	-0,055
-403,496	1,090	-0,090	-0,046
-402,482	800,000	0,017	0,048
-401,467	-34,252	0,112	-0,044
-400,452	-200,000	0,002	0,054
-399,438	-200,000	0,011	-0,064
-398,423	-200,000	0,006	0,061
-397,409	-200,000	0,003	0,051
-396,394	350,559	-0,083	0,118
-395,379	273,132	-0,023	-0,030
-394,365	180,334	0,050	-0,053
-393,350	56,546	0,044	0,031
-392,336	-101,639	0,113	-0,019
-391,321	-200,000	-0,022	-0,083
-390,306	402,131	0,056	-0,085
-389,292	-200,000	0,003	0,109
-388,277	308,435	0,042	0,056
-387,263	249,546	-0,035	0,043
-386,248	-200,000	0,002	-0,130
-385,233	301,152	0,058	0,076
-384,219	68,593	-0,034	-0,025
-383,204	301,136	-0,069	-0,091
-382,190	-171,021	-0,052	-0,001
-381,175	317,022	-0,152	-0,207
-380,160	-200,000	-0,014	0,130
-379,146	217,988	0,068	0,078
-378,131	-200,000	-0,036	0,164
-377,117	-200,000	0,005	0,175
-376,102	-174,687	0,117	-0,002
-375,088	-200,000	0,026	-0,102
-374,073	722,376	0,056	-0,107
-373,058	-200,000	-0,006	0,039
-372,044	800,000	0,045	0,109
-371,029	-72,172	-0,094	-0,025
-370,015	-2,789	0,176	-0,088
-369,000	638,923	0,025	-0,045
-367,985	155,923	-0,115	-0,113
-366,971	184,508	-0,072	-0,076
-365,956	106,652	-0,091	-0,077
-364,942	251,832	-0,023	0,028
-363,927	-200,000	-0,042	0,134
-362,912	26,900	-0,040	-0,024
-361,898	729,286	-0,038	-0,074
-360,883	-121,936	0,058	-0,007
-359,869	-200,000	0,017	-0,135
-358,854	348,886	0,061	0,086
-357,839	-200,000	0,012	0,083
-356,825	598,777	-0,059	0,105
-355,810	115,880	0,051	-0,045
-354,796	-34,172	0,054	-0,021
-353,781	305,089	-0,084	-0,112
-352,766	800,000	-0,024	-0,057
-351,752	-12,025	0,141	0,066
-350,737	122,082	-0,053	-0,047
-349,723	173,235	-0,087	0,090
-348,708	-38,757	-0,125	0,047
-347,693	255,687	0,124	-0,152
-346,679	-127,227	-0,091	-0,009
-345,664	-112,158	0,106	0,015
-344,650	-135,159	-0,200	-0,017
-343,635	-200,000	0,003	-0,065
-342,620	800,000	0,037	0,083
-341,606	-200,000	0,024	0,102
-340,591	37,717	-0,086	0,055
-339,577	-200,000	0,033	-0,119
-338,562	800,000	0,031	-0,072
-337,548	-200,000	0,010	0,047
-336,533	103,242	0,140	-0,117
-335,518	61,082	0,081	0,057
-334,504	-200,000	0,023	0,172
-333,489	384,647	0,027	0,040
-332,475	48,943	-0,118	0,079
-331,460	-55,541	-0,196	0,062
-330,445	552,199	0,122	-0,211
-329,431	468,424	-0,056	0,090
-328,416	-67,203	0,162	0,045
-327,402	312,064	-0,024	0,032
-326,387	800,000	-0,029	-0,085
-325,372	-200,000	-0,018	-0,080
-324,358	-200,000	-0,075	-0,263
-323,343	-200,000	-0,001	0,013
-322,329	315,596	-0,091	-0,123
-321,314	17,336	0,116	0,066
-320,299	176,175	-0,079	-0,082
-319,285	800,000	0,013	0,034
-318,270	206,369	-0,029	0,032
-317,256	-78,039	0,087	-0,021
-316,241	702,591	0,046	-0,088
-315,226	79,762	0,143	0,110
-314,212	-193,508	0,185	-0,001
-313,197	-56,221	-0,023	-0,007
-312,183	-13,538	0,160	-0,074
-311,168	800,000	-0,055	-0,124
-310,153	125,997	-0,082	-0,074
-309,139	354,693	-0,009	0,013
-308,124	800,000	0,011	0,031
-307,110	-17,536	0,132	0,059
-306,095	145,203	0,100	0,095
-305,080	-200,000	0,040	0,161
-304,066	-128,408	0,014	-0,001
-303,051	-84,752	-0,163	0,036
-302,037	21,159	0,041	-0,024
-301,022	208,575	-0,015	0,017
-300,008	800,000	-0,054	0,145
-298,993	-103,708	0,054	-0,009
-297,978	172,714	0,136	-0,141
-296,964	-200,000	-0,039	-0,167
-295,949	-43,178	0,045	-0,016
-294,935	-200,000	-0,007	-0,146
-293,920	-164,836	-0,028	-0,001
-292,905	-131,475	0,092	0,009
-291,891	-23,934	-0,176	0,075
-290,876	-200,000	0,073	0,000
-289,862	35,505	0,039	0,024
-288,847	-107,593	-0,040	0,006
-287,832	79,840	0,093	0,072
-286,818	-200,000	0,015	0,080
-285,803	292,189	0,023	0,030
-284,789	171,847	-0,106	0,109
-283,774	48,570	0,066	0,044
-282,759	67,092	-0,076	-0,056
-281,745	-200,000	-0,008	0,117
-280,730	-120,352	-0,181	0,022
-279,716	-200,000	-0,024	-0,086
-278,701	-200,000	0,018	-0,067
-277,686	647,705	0,090	0,165
-276,672	750,570	-0,030	0,057
-275,657	-84,394	0,066	0,015
-274,643	-112,950	-0,064	-0,009
-273,628	800,000	0,052	-0,104
-272,613	-200,000	-0,034	-0,151
-271,599	-161,617	0,050	0,002
-270,584	64,493	0,022	-0,016
-269,570	457,619	-0,038	-0,060
-268,555	94,785	0,051	0,041
-267,540	-178,013	0,083	0,001
-266,526	-200,000	-0,033	-0,146
-265,511	101,680	0,040	-0,033
-264,497	-200,000	-0,050	0,180
-263,482	334,422	0,065	0,090
-262,467	389,647	-0,035	0,052
-261,453	-200,000	0,028	0,188
-260,438	-200,000	-0,003	-0,035
-259,424	-166,997	0,069	-0,002
-258,409	-2,996	-0,056	0,028
-257,395	208,386	-0,021	0,023
-256,380	428,369	-0,018	0,028
-255,365	-51,933	0,082	0,027
-254,351	-74,888	-0,030	0,008
-253,336	85,151	-0,120	0,094
-252,322	800,000	0,011	-0,035
-251,307	93,621	0,067	-0,054
-250,292	-152,290	-0,056	0,003
-249,278	329,322	0,029	0,040
-248,263	306,518	0,038	-0,051
-247,249	-196,261	-0,073	-0,000
-246,234	800,000	0,051	-0,129
-245,219	-61,875	-0,053	0,016
-244,205	12,554	-0,016	-0,009
-243,190	300,374	0,077	0,102
-242,176	-119,971	0,065	0,008
-241,161	-200,000	-0,004	-0,089
-240,146	33,847	-0,016	-0,010
-239,132	-56,557	-0,077	0,024
-238,117	-162,262	-0,172	-0,006
-237,103	800,000	0,006	0,015
-236,088	63,088	0,075	0,054
-235,073	-200,000	0,006	-0,036
-234,059	800,000	0,053	-0,131
-233,044	-151,896	-0,036	-0,002
-232,030	-188,050	0,055	-0,000
-231,015	800,000	0,005	0,016
-230,000	118,839	-0,064	-0,057
-228,986	-84,266	0,049	-0,011
-227,971	164,855	0,075	-0,076
-226,957	103,604	0,084	-0,070
-225,942	-200,000	0,003	0,152
-224,927	800,000	0,025	-0,050
-223,913	-200,000	0,006	-0,136
-222,898	-200,000	-0,014	0,062
-221,884	548,772	0,044	0,075
-220,869	800,000	-0,049	0,109
-219,855	244,445	0,054	-0,065
-218,840	10,315	0,030	-0,016
-217,825	-144,112	-0,088	0,006
-216,811	800,000	-0,040	-0,089
-215,796	-200,000	-0,002	-0,081
-214,782	35,454	0,027	0,017
-213,767	184,661	-0,070	0,074
-212,752	103,573	0,108	0,090
-211,738	131,235	0,083	0,076
-210,723	-200,000	0,013	-0,088
-209,709	161,513	0,048	-0,048
-208,694	524,504	0,085	-0,143
-207,679	-200,000	-0,021	-0,110
-206,665	39,373	0,071	0,045
-205,650	13,566	-0,049	0,027
-204,636	37,844	0,097	-0,061
-203,621	800,000	-0,012	-0,036
-202,606	-200,000	0,007	-0,097
-201,592	24,224	-0,132	-0,078
-200,577	329,049	0,026	-0,035
-199,563	89,811	-0,120	0,096
-198,548	-200,000	-0,037	0,184
-197,533	-200,000	-0,028	0,156
-196,519	-76,554	-0,045	-0,011
-195,504	65,176	-0,033	-0,024
-194,490	800,000	0,022	-0,051
-193,475	-127,429	-0,211	-0,022
-192,460	-122,506	-0,089	-0,010
-191,446	800,000	0,098	0,207
-190,431	-200,000	0,011	-0,039
-189,417	800,000	-0,019	0,055
-188,402	-44,217	-0,102	-0,036
-187,387	-77,857	-0,135	0,033
-186,373	-5,678	-0,103	0,050
-185,358	6,748	0,108	0,057
-184,344	800,000	-0,031	0,077
-183,329	-85,137	0,064	0,014
-182,315	800,000	-0,038	0,083
-181,300	664,822	-0,011	0,021
-180,285	89,098	0,048	-0,038
-179,271	-95,862	-0,157	-0,030
-178,256	-200,000	-0,047	-0,164
-177,242	117,412	0,035	0,030
-176,227	-200,000	-0,003	0,069
-175,212	800,000	0,017	0,038
-174,198	-5,155	-0,051	-0,025
-173,183	-200,000	-0,015	-0,114
-172,169	-200,000	0,161	-0,000
-171,154	188,442	0,031	-0,033
-170,139	-134,595	-0,060	-0,005
-169,125	-93,612	0,173	-0,034
-168,110	-110,871	-0,088	-0,013
-167,096	-200,000	0,006	0,126
-166,081	800,000	-0,013	-0,032
-165,066	-84,587	0,157	0,035
-164,052	-31,221	-0,119	0,048
-163,037	-200,000	0,019	0,091
-162,023	-75,921	0,170	0,042
-161,008	300,768	0,049	-0,064
-159,993	-200,000	0,024	-0,106
-158,979	-138,319	-0,172	0,013
-157,964	292,404	-0,049	0,063
-156,950	-150,725	-0,058	-0,003
-155,935	-48,782	-0,053	-0,018
-154,920	-200,000	0,016	-0,131
-153,906	-99,753	0,060	-0,011
-152,891	-200,000	-0,009	0,032
-151,877	-140,582	-0,070	-0,005
-150,862	371,422	-0,113	-0,164
-149,847	-21,417	-0,079	-0,034
-148,833	298,229	-0,051	-0,066
-147,818	66,356	0,054	0,039
-146,804	800,000	-0,029	0,082
-145,789	158,752	-0,025	-0,025
-144,775	380,237	-0,038	-0,055
-143,760	-84,515	0,150	-0,033
-142,745	187,081	0,034	-0,036
-141,731	212,969	0,042	-0,047
-140,716	166,726	0,037	-0,037
-139,702	-27,959	0,043	0,017
-138,687	-23,883	-0,133	-0,056
-137,672	2,868	-0,055	-0,028
-136,658	709,448	-0,061	0,114
-135,643	325,941	-0,111	0,151
-134,629	-200,000	-0,026	0,087
-133,614	-200,000	0,012	0,115
-132,599	-200,000	-0,020	0,063
-131,585	-106,829	-0,036	-0,006
-130,570	345,364	0,016	-0,023
-129,556	-200,000	0,013	-0,127
-128,541	290,166	0,140	0,181
-127,526	16,076	0,089	0,050
-126,512	-200,000	0,027	-0,124
-125,497	78,352	0,123	0,093
-124,483	94,240	0,031	-0,025
-123,468	333,785	-0,101	0,139
-122,453	-13,349	0,038	-0,017
-121,439	-200,000	-0,002	-0,056
-120,424	-159,678	0,187	-0,007
-119,410	-200,000	-0,012	0,066
-118,395	262,571	0,045	-0,056
-117,380	-26,589	0,031	0,013
-116,366	86,146	-0,084	0,065
-115,351	-200,000	-0,010	-0,085
-114,337	-200,000	0,031	-0,186
-113,322	14,095	0,039	0,021
-112,307	254,547	0,015	0,018
-111,293	-200,000	-0,005	0,023
-110,278	185,864	-0,060	-0,063
-109,264	54,714	0,084	0,057
-108,249	-200,000	0,012	-0,049
-107,234	-112,722	-0,063	0,009
-106,220	-13,966	-0,132	-0,060
-105,205	800,000	-0,041	-0,083
-104,191	-136,101	0,092	-0,008
-103,176	88,622	-0,100	0,078
-102,162	306,600	0,118	0,156
-101,147	681,662	0,005	0,009
-100,132	800,000	0,023	0,071
-99,118	240,667	0,028	-0,033
-98,103	800,000	0,052	-0,158
-97,089	240,225	0,046	0,054
-96,074	-40,587	0,138	-0,051
-95,059	713,298	0,079	0,149
-94,045	-200,000	0,010	-0,058
-93,030	2,722	-0,057	0,029
-92,016	-200,000	-0,007	0,092
-91,001	437,513	-0,057	-0,089
-89,986	82,318	0,091	0,070
-88,972	-164,123	-0,051	-0,002
-87,957	154,905	0,066	-0,065
-86,943	6,767	-0,034	-0,018
-85,928	-81,451	0,074	-0,017
-84,913	267,576	-0,030	0,037
-83,899	-161,969	-0,048	-0,002
-82,884	39,066	-0,109	0,069
-81,870	800,000	0,037	-0,097
-80,855	800,000	-0,062	0,136
-79,840	-200,000	0,002	-0,031
-78,826	800,000	-0,046	-0,104
-77,811	614,970	0,034	0,060
-76,797	-103,431	0,042	0,007
-75,782	54,417	-0,021	0,014
-74,767	-166,216	0,109	0,003
-73,753	-0,335	-0,019	-0,009
-72,738	-71,019	-0,115	0,031
-71,724	-107,057	-0,142	0,022
-70,709	-63,525	0,084	-0,024
-69,694	-173,764	-0,123	-0,003
-68,680	-66,988	0,162	-0,045
-67,665	-84,103	-0,060	0,013
-66,651	306,964	0,141	0,187
-65,636	157,892	0,019	-0,019
-64,622	-199,950	0,071	-0,000
-63,607	-200,000	-0,002	-0,067
-62,592	72,751	0,038	0,028
-61,578	452,886	-0,024	-0,037
-60,563	-95,063	0,156	0,030
-59,549	394,492	-0,048	0,071
-58,534	-61,068	-1,379	-0,410
-57,519	301,197	-1,500	-1,967
-56,505	-200,000	-0,506	-4,751
-55,490	161,377	0,972	0,963
-54,476	800,000	4,828	11,417
-53,461	-200,000	18,817	305,554
-52,446	800,000	736,683	2295,916
-51,432	568,197	1653,125	2855,265
-50,417	79,018	1670,345	1265,328
-49,403	22,116	1543,283	889,588
-48,388	16,027	1466,196	815,563
-47,373	17,777	1456,096	818,368
-46,359	16,875	1446,383	808,550
-45,344	14,272	1441,721	793,448
-44,330	14,202	1439,851	792,051
-43,315	14,202	1437,978	790,991
-42,300	14,229	1436,331	790,180
-41,286	14,223	1435,277	789,543
-40,271	14,184	1434,275	788,773
-39,257	14,189	1432,459	787,768
-38,242	14,245	1431,151	787,282
-37,227	14,277	1430,107	786,830
-36,213	14,251	1428,868	785,994
-35,198	14,214	1427,828	785,215
-34,184	14,269	1426,923	784,944
-33,169	14,215	1425,478	783,862
-32,154	14,232	1424,416	783,330
-31,140	14,274	1422,976	782,703
-30,125	14,263	1422,056	782,115
-29,111	14,250	1421,019	781,453
-28,096	14,213	1419,794	780,576
-27,082	14,130	1418,891	779,657
-26,067	14,126	1417,595	778,895
-25,052	14,153	1416,550	778,415
-24,038	14,140	1415,495	777,742
-23,023	14,117	1414,652	777,143
-22,009	14,147	1413,451	776,590
-20,994	14,122	1412,716	776,038
-19,979	14,109	1411,689	775,383
-18,965	14,042	1411,178	774,757
-17,950	14,119	1409,819	774,341
-16,936	14,087	1409,128	773,783
-15,921	14,072	1407,963	773,041
-14,906	14,060	1406,837	772,335
-13,892	14,044	1406,120	771,837
-12,877	14,030	1405,228	771,253
-11,863	14,066	1404,321	770,889
-10,848	14,067	1403,428	770,373
-9,833	14,037	1402,475	769,682
-8,819	13,964	1401,785	768,934
-7,804	13,951	1400,693	768,244
-6,790	13,981	1399,681	767,797
-5,775	13,945	1398,479	766,938
-4,760	13,962	1397,806	766,619
-3,746	13,976	1396,935	766,177
-2,731	13,942	1396,057	765,504
-1,717	13,930	1395,263	764,983
-0,702	13,977	1393,339	764,119
0,313	17,711	1311,305	736,470
1,327	33,891	706,098	434,067
2,342	52,419	123,998	83,608
3,356	1,116	16,645	8,424
4,371	5,057	3,138	1,629
5,386	0,617	0,513	0,259
6,400	-200,000	-0,007	0,246
7,415	-6,724	-0,277	-0,133
8,429	26,437	-0,325	-0,192
9,444	34,752	-0,278	-0,172
10,459	-37,054	-0,364	-0,137
11,473	34,312	-0,261	-0,161
12,488	-6,310	-0,319	-0,153
13,502	-54,834	-0,398	-0,126
14,517	-36,182	-0,331	-0,126
15,531	104,783	-0,384	-0,320
16,546	-52,677	-0,399	-0,129
17,561	129,179	-0,387	-0,350
18,575	-92,210	-0,203	-0,040
19,590	158,828	-0,300	-0,295
20,604	-83,593	-0,251	-0,056
21,619	34,697	-0,516	-0,318
22,634	-13,921	-0,512	-0,233
23,648	74,631	-0,396	-0,294
24,663	27,373	-0,402	-0,238
25,677	800,000	-0,176	-0,351
26,692	165,711	-0,264	-0,264
27,707	100,315	-0,312	-0,256
28,721	281,018	-0,284	-0,360
29,736	85,733	-0,440	-0,341
30,750	9,465	-0,525	-0,279
31,765	216,600	-0,214	-0,241
32,780	55,352	-0,533	-0,363
33,794	113,560	-0,276	-0,236
34,809	-6,963	-0,450	-0,215
35,823	107,300	-0,365	-0,306
36,838	53,498	-0,378	-0,255
37,853	242,330	-0,356	-0,421
38,867	107,846	-0,343	-0,288
39,882	121,402	-0,405	-0,356
40,896	17,802	-0,327	-0,183
41,911	124,186	-0,299	-0,265
42,926	73,622	-0,396	-0,292
43,940	53,064	-0,394	-0,265
44,955	200,172	-0,398	-0,432
45,969	120,404	-0,328	-0,287
46,984	16,866	-0,414	-0,230
47,999	47,045	-0,376	-0,246
49,013	69,096	-0,231	-0,167
50,028	27,647	-0,321	-0,190
51,042	101,034	-0,426	-0,349
52,057	25,454	-0,298	-0,174
53,071	-41,153	-0,444	-0,161
54,086	105,274	-0,277	-0,230
55,101	23,869	-0,399	-0,231
56,115	28,653	-0,339	-0,202
57,130	66,578	-0,352	-0,252
58,144	109,887	-0,335	-0,283
59,159	115,795	-0,367	-0,316
60,174	45,624	-0,385	-0,250
61,188	15,951	-0,284	-0,157
62,203	455,651	-0,237	-0,371
63,217	206,197	-0,199	-0,218
64,232	-1,673	-0,317	-0,157
65,247	36,305	-0,310	-0,192
66,261	153,737	-0,239	-0,231
67,276	-32,913	-0,324	-0,126
68,290	8,252	-0,375	-0,198
69,305	-82,195	-0,300	-0,068
70,320	127,926	-0,196	-0,176
71,334	4,589	-0,258	-0,133
72,349	-40,057	-0,259	-0,094
73,363	10,275	-0,266	-0,142
74,378	-38,079	-0,328	-0,122
75,393	60,734	-0,355	-0,247
76,407	342,878	-0,191	-0,264
77,422	-36,452	-0,264	-0,099
78,436	92,161	-0,296	-0,234
79,451	21,339	-0,358	-0,204
80,466	-37,381	-0,172	-0,064
81,480	111,911	-0,216	-0,184
82,495	22,702	-0,161	-0,093
83,509	-36,552	-0,348	-0,131
84,524	-6,866	-0,253	-0,120
85,539	47,157	-0,273	-0,178
86,553	-93,043	-0,376	-0,073
87,568	-80,270	-0,313	-0,073
88,582	28,045	-0,305	-0,180
89,597	-57,634	-0,363	-0,111
90,611	232,451	-0,173	-0,200
91,626	27,166	-0,353	-0,208
92,641	65,132	-0,441	-0,312
93,655	21,883	-0,375	-0,214
94,670	-26,397	-0,232	-0,095
95,684	328,319	-0,190	-0,257
96,699	14,908	-0,377	-0,207
97,714	6,232	-0,234	-0,122
98,728	-56,954	-0,299	-0,092
99,743	-115,983	-0,390	-0,050
100,757	103,420	-0,173	-0,142
101,772	26,661	-0,376	-0,220
102,787	73,802	-0,193	-0,142
103,801	91,159	-0,259	-0,204
104,816	-21,312	-0,313	-0,134
105,830	20,372	-0,215	-0,121
106,845	193,601	-0,166	-0,176
107,860	66,624	-0,264	-0,188
108,874	39,423	-0,207	-0,130
109,889	62,657	-0,322	-0,225
110,903	-47,078	-0,350	-0,119
111,918	106,344	-0,289	-0,240
112,933	24,125	-0,276	-0,159
113,947	119,087	-0,311	-0,270
114,962	15,420	-0,200	-0,110
115,976	152,378	-0,264	-0,252
116,991	54,017	-0,349	-0,235
118,006	285,765	-0,231	-0,292
119,020	144,780	-0,298	-0,279
120,035	133,347	-0,221	-0,201
121,049	240,779	-0,175	-0,205
122,064	-18,229	-0,229	-0,100
123,079	101,499	-0,228	-0,186
124,093	0,210	-0,314	-0,156
125,108	251,046	-0,201	-0,239
126,122	142,366	-0,272	-0,253
127,137	24,918	-0,275	-0,159
128,151	5,101	-0,166	-0,085
129,166	60,135	-0,288	-0,199
130,181	-40,076	-0,357	-0,129
131,195	51,951	-0,245	-0,163
132,210	36,299	-0,308	-0,190
133,224	43,695	-0,334	-0,213
134,239	92,884	-0,177	-0,140
135,254	109,921	-0,146	-0,122
136,268	523,228	-0,137	-0,226
137,283	-84,792	-0,230	-0,050
138,297	37,172	-0,324	-0,200
139,312	72,013	-0,291	-0,212
140,327	250,089	-0,203	-0,241
141,341	88,581	-0,194	-0,151
142,356	-52,679	-0,262	-0,084
143,370	-36,808	-0,311	-0,116
144,385	-68,542	-0,246	-0,066
145,400	110,396	-0,223	-0,187
146,414	144,789	-0,292	-0,273
147,429	110,234	-0,288	-0,242
148,443	250,304	-0,144	-0,172
149,458	188,458	-0,153	-0,160
150,473	-50,559	-0,194	-0,064
151,487	-134,689	-0,318	-0,027
152,502	133,233	-0,216	-0,195
153,516	-14,657	-0,343	-0,153
154,531	127,949	-0,286	-0,254
155,546	-20,868	-0,322	-0,137
156,560	-55,482	-0,175	0,054
157,575	9,222	-0,259	-0,136
158,589	-11,461	-0,170	-0,078
159,604	-10,349	-0,306	-0,141
160,619	426,318	-0,200	-0,302
161,633	-42,673	-0,242	-0,086
162,648	123,728	-0,332	-0,291
163,662	335,451	-0,171	-0,232
164,677	78,618	-0,216	-0,161
165,692	104,283	-0,216	-0,178
166,706	71,018	-0,310	-0,224
167,721	7,937	-0,250	-0,130
168,735	644,466	-0,205	-0,367
169,750	149,754	-0,228	-0,216
170,764	-20,435	-0,149	-0,064
171,779	606,902	-0,160	-0,280
172,794	800,000	-0,065	-0,198
173,808	151,223	-0,212	-0,201
174,823	31,774	-0,250	-0,149
175,837	113,579	-0,228	-0,193
176,852	-38,709	-0,283	-0,104
177,867	-31,636	-0,279	-0,109
178,881	28,260	-0,072	-0,042
179,896	487,189	-0,118	-0,188
180,910	-5,267	-0,224	-0,107
181,925	177,981	-0,220	-0,223
182,940	-69,471	-0,165	-0,044
183,954	105,555	-0,273	-0,224
184,969	71,737	-0,149	-0,107
185,983	298,220	-0,169	-0,217
186,998	-139,085	-0,331	-0,025
188,013	-32,735	-0,218	-0,084
189,027	301,500	-0,146	-0,189
190,042	22,350	-0,249	-0,142
191,056	58,128	-0,239	-0,163
192,071	292,160	-0,187	-0,238
193,086	-68,551	-0,328	-0,088
194,100	571,391	-0,082	-0,140
195,115	-63,689	-0,156	0,044
196,129	-13,174	-0,204	-0,092
197,144	168,222	-0,306	-0,303
198,159	-63,119	-0,309	-0,088
199,173	-123,708	-0,205	0,022
200,188	42,077	-0,233	-0,147
201,202	800,000	-0,088	-0,256
202,217	-6,558	-0,154	-0,073
203,232	151,072	-0,162	-0,153
204,246	163,691	-0,185	-0,181
205,261	80,509	-0,313	-0,234
206,275	688,864	-0,137	-0,251
207,290	126,055	-0,095	-0,084
208,304	62,142	-0,256	-0,177
209,319	183,897	-0,186	-0,192
210,334	184,296	-0,206	-0,212
211,348	85,274	-0,187	-0,143
212,363	46,790	-0,336	-0,217
213,377	-200,000	-0,035	-0,177
214,392	334,822	-0,123	-0,165
215,407	800,000	-0,038	-0,088
216,421	172,269	-0,287	-0,287
217,436	158,980	-0,226	-0,218
218,450	68,776	-0,177	-0,126
219,465	173,745	-0,155	-0,156
220,480	-155,127	-0,197	-0,009
221,494	216,062	-0,086	-0,095
222,509	501,924	-0,129	-0,208
223,523	-36,503	-0,074	-0,027
224,538	148,351	-0,142	-0,134
225,553	43,794	-0,301	-0,191
226,567	43,129	-0,254	-0,160
227,582	125,093	-0,234	-0,205
228,596	29,295	-0,190	-0,112
229,611	-41,896	-0,228	-0,081
230,626	-19,391	-0,198	-0,085
231,640	59,917	-0,198	-0,136
232,655	0,800	-0,226	-0,112
233,669	302,249	-0,169	-0,218
234,684	-106,140	-0,172	-0,027
235,699	-55,492	-0,237	-0,073
236,713	800,000	-0,050	-0,138
237,728	15,749	-0,298	0,162
238,742	-200,000	-0,042	-0,182
239,757	424,339	-0,157	-0,234
240,772	63,240	-0,127	-0,088
241,786	-200,000	-0,021	-0,240
242,801	574,737	-0,099	-0,168
243,815	293,764	-0,100	-0,127
244,830	154,050	-0,109	-0,104
245,844	-23,311	-0,241	-0,100
246,859	469,748	-0,134	-0,209
247,874	248,153	-0,212	-0,248
248,888	-200,000	-0,071	-0,301
249,903	6,312	-0,181	-0,093
250,917	-73,920	-0,214	-0,054
251,932	264,149	-0,129	-0,156
252,947	-113,895	-0,205	-0,027
253,961	347,077	-0,153	-0,209
254,976	58,181	-0,212	-0,143
255,990	174,049	-0,158	-0,158
257,005	125,293	-0,201	-0,175
258,020	61,018	-0,147	-0,101
259,034	800,000	0,007	0,013
260,049	-33,318	-0,182	-0,069
261,063	-156,650	-0,284	-0,012
262,078	-88,369	-0,269	-0,055
263,093	-101,523	-0,211	0,035
264,107	74,004	-0,152	-0,110
265,122	-27,955	-0,165	-0,066
266,136	-45,466	-0,142	-0,048
267,151	302,382	-0,119	-0,152
268,166	374,595	-0,174	-0,246
269,180	85,476	-0,171	-0,129
270,195	231,209	-0,165	-0,187
271,209	208,611	-0,218	-0,236
272,224	363,661	-0,153	-0,213
273,239	26,934	-0,173	-0,100
274,253	-123,221	-0,238	0,026
275,268	120,858	-0,133	-0,114
276,282	102,137	-0,198	-0,160
277,297	97,898	-0,174	-0,139
278,312	258,288	-0,124	-0,148
279,326	53,973	-0,225	-0,149
280,341	-63,614	-0,147	-0,041
281,355	-100,366	-0,247	0,042
282,370	-200,000	-0,003	-0,083
283,384	12,839	-0,111	-0,059
284,399	169,320	-0,198	-0,195
285,414	-200,000	-0,051	-0,282
286,428	-200,000	-0,028	-0,133
287,443	-110,553	-0,162	-0,023
288,457	-86,680	-0,156	-0,033
289,472	-41,137	-0,152	-0,054
290,487	119,150	-0,094	-0,080
291,501	-20,127	-0,217	-0,092
292,516	188,603	-0,198	-0,205
293,530	-15,479	-0,088	-0,039
294,545	6,412	-0,224	-0,115
295,560	-125,075	-0,067	-0,007
296,574	-189,037	-0,312	-0,003
297,589	281,553	-0,118	-0,146
298,603	-30,629	-0,141	-0,055
299,618	-125,185	-0,173	-0,018
300,633	800,000	-0,107	-0,252
301,647	800,000	0,067	-0,130
302,662	24,840	-0,080	-0,046
303,676	-14,837	-0,215	-0,095
304,691	5,770	-0,176	-0,089
305,706	695,195	-0,139	-0,253
306,720	137,282	-0,227	-0,205
307,735	317,436	-0,125	-0,164
308,749	227,232	-0,163	-0,183
309,764	674,519	-0,110	-0,198
310,779	-31,526	-0,159	-0,061
311,793	-99,759	-0,222	-0,038
312,808	-108,306	-0,058	-0,009
313,822	-18,823	-0,180	-0,077
314,837	-60,077	-0,164	-0,048
315,852	-98,981	-0,161	-0,028
316,866	37,350	-0,176	-0,107
317,881	-112,879	-0,112	-0,015
318,895	246,001	-0,207	-0,240
319,910	800,000	-0,099	-0,220
320,925	-0,865	-0,110	-0,053
321,939	800,000	-0,042	-0,111
322,954	0,605	-0,166	-0,081
323,968	415,876	-0,043	-0,063
324,983	132,299	-0,080	0,071
325,997	143,942	-0,162	-0,149
327,012	-175,155	-0,155	0,003
328,027	28,343	-0,140	-0,081
329,041	560,807	-0,099	-0,165
330,056	312,868	-0,052	-0,068
331,070	-48,601	-0,052	-0,017
332,085	-73,591	-0,135	-0,034
333,100	85,296	-0,155	-0,117
334,114	300,308	-0,111	-0,141
335,129	-200,000	-0,047	-0,194
336,143	800,000	-0,086	-0,164
337,158	621,923	-0,099	-0,173
338,173	-57,942	-0,119	0,035
339,187	-74,104	-0,121	-0,030
340,202	10,898	-0,034	-0,018
341,216	117,558	-0,156	-0,132
342,231	-166,888	-0,178	-0,005
343,246	-200,000	-0,005	-0,200
344,260	-18,135	-0,240	-0,103
345,275	91,137	-0,111	-0,086
346,289	-129,269	-0,146	-0,014
347,304	-143,328	-0,186	0,012
348,319	-31,870	-0,219	-0,084
349,333	-121,670	-0,165	0,019
350,348	101,592	-0,095	-0,076
351,362	57,065	-0,138	-0,092
352,377	41,117	0,036	-0,022
353,392	-38,082	-0,200	0,073
354,406	147,173	-0,192	-0,177
355,421	208,129	1315,975	1412,655
356,435	160,125	1476,867	1413,135
