DTS Sentinel unit serial number:	SN410029Multiplexer serial number:	ORYXHardware model number:	OX2-SRSoftware version number:	ORYX F/W v4,00 Oryx Data Collector v3.7.2.0data status	okinstallation	B3 Nyhavnadifferential loss correction	single-endedforward channel	channel 1reverse channel	N/Adate	2023/12/02time	08:27:30forward acquisition time	300,00reverse acquisition time	0,00gamma	499,1914k internal	0,3195k external	0,3195temperature offset calibration	1,0000default loss term (dB/km)	0,3820temperature slope calibration	1,0000multiplexer offset coefficient	1,0000multiplexer slope coefficient	1,0000fibre end	0,00T internal ref (°C)	15,38T ext. ref 1 (°C)	0,11T ext. ref 2 (°C)	0,09length (m)	temperature (°C)	Stokes	anti-Stokes-744,400	507,021	-0,115	-0,195
-743,385	800,000	0,077	0,232
-742,371	162,097	-0,230	-0,235
-741,356	-200,000	-0,048	0,404
-740,342	800,000	-0,129	-0,301
-739,327	-200,000	0,053	0,248
-738,312	98,708	-0,162	-0,136
-737,298	800,000	0,105	0,253
-736,283	55,220	-0,161	-0,114
-735,269	800,000	0,090	0,270
-734,254	601,232	-0,155	-0,281
-733,239	587,298	-0,115	0,207
-732,225	564,087	-0,193	-0,342
-731,210	338,615	0,097	0,138
-730,196	269,084	-0,023	-0,030
-729,181	-200,000	0,005	0,050
-728,167	-112,540	-0,125	0,018
-727,152	-200,000	0,013	-0,062
-726,137	-156,323	0,043	0,002
-725,123	-108,043	-0,096	-0,015
-724,108	46,895	-0,089	-0,060
-723,094	800,000	0,061	-0,183
-722,079	-200,000	0,051	-0,202
-721,064	125,720	-0,115	-0,106
-720,050	-65,649	-0,077	0,022
-719,035	-200,000	-0,003	0,102
-718,021	-131,276	-0,090	-0,009
-717,006	-66,919	-0,079	-0,023
-715,991	13,841	-0,063	0,035
-714,977	-118,804	-0,165	0,021
-713,962	800,000	-0,038	-0,098
-712,948	-105,354	-0,108	-0,018
-711,933	-200,000	0,004	-0,021
-710,918	-200,000	-0,039	-0,155
-709,904	-41,791	0,086	0,032
-708,889	62,184	0,071	-0,051
-707,875	577,068	0,015	-0,026
-706,860	800,000	0,043	-0,087
-705,845	391,665	-0,051	-0,078
-704,831	281,789	-0,084	-0,109
-703,816	71,741	0,065	0,049
-702,802	155,732	0,025	-0,025
-701,787	49,807	-0,065	-0,044
-700,772	230,690	-0,032	-0,038
-699,758	800,000	-0,041	0,125
-698,743	-64,310	0,192	0,056
-697,729	114,797	-0,047	0,041
-696,714	54,714	-0,047	-0,033
-695,699	-200,000	0,013	-0,141
-694,685	-200,000	-0,026	-0,084
-693,670	304,425	-0,016	-0,022
-692,656	-172,902	0,032	-0,001
-691,641	275,550	0,008	0,010
-690,627	421,544	-0,114	0,179
-689,612	-102,818	-0,093	0,016
-688,597	-103,853	0,032	0,005
-687,583	-2,580	-0,131	0,067
-686,568	-132,774	-0,052	-0,005
-685,554	800,000	0,015	0,043
-684,539	-200,000	-0,041	0,173
-683,524	676,371	-0,055	0,105
-682,510	-25,153	0,166	0,071
-681,495	283,740	-0,031	0,041
-680,481	-121,827	0,057	-0,007
-679,466	-200,000	-0,023	-0,091
-678,451	-200,000	-0,020	-0,107
-677,437	741,635	-0,026	-0,051
-676,422	190,807	-0,083	-0,091
-675,408	-200,000	0,008	0,112
-674,393	10,289	0,101	0,056
-673,378	-200,000	0,022	-0,175
-672,364	-73,986	-0,176	-0,046
-671,349	-200,000	-0,003	-0,053
-670,335	-19,212	0,123	-0,055
-669,320	800,000	0,010	0,023
-668,305	232,485	0,108	0,129
-667,291	-60,219	0,023	-0,007
-666,276	-52,731	-0,085	-0,028
-665,262	-200,000	0,004	-0,033
-664,247	146,379	-0,093	0,090
-663,232	-200,000	0,030	0,178
-662,218	33,890	-0,081	0,051
-661,203	158,491	0,030	0,030
-660,189	-200,000	0,001	0,055
-659,174	173,980	-0,068	-0,072
-658,159	212,947	0,111	-0,128
-657,145	800,000	-0,049	-0,105
-656,130	271,453	0,050	-0,065
-655,116	-46,805	-0,030	0,011
-654,101	13,611	0,087	-0,049
-653,086	126,513	-0,028	0,026
-652,072	154,773	-0,116	0,116
-651,057	-200,000	-0,018	-0,153
-650,043	738,176	-0,089	-0,175
-649,028	257,203	0,020	-0,025
-648,014	137,015	0,001	-0,001
-646,999	10,480	0,147	0,081
-645,984	657,422	-0,059	0,111
-644,970	-69,067	-0,011	-0,003
-643,955	-69,138	-0,062	-0,017
-642,941	265,785	-0,039	-0,049
-641,926	14,381	0,096	0,054
-640,911	-200,000	-0,031	0,188
-639,897	92,444	0,124	0,101
-638,882	-200,000	0,014	0,096
-637,868	-121,327	0,048	0,006
-636,853	-74,820	-0,054	-0,014
-635,838	240,800	-0,107	-0,129
-634,824	-59,137	-0,037	-0,011
-633,809	577,545	0,069	0,123
-632,795	199,437	0,075	0,084
-631,780	-60,870	0,079	0,024
-630,765	289,954	0,013	0,018
-629,751	3,685	-0,107	-0,056
-628,736	800,000	-0,040	-0,081
-627,722	800,000	0,017	-0,041
-626,707	461,343	-0,064	-0,104
-625,692	-24,881	-0,112	0,048
-624,678	486,144	0,061	0,100
-623,663	-200,000	-0,055	-0,176
-622,649	-16,809	-0,079	0,036
-621,634	-162,072	-0,131	0,005
-620,619	25,383	-0,041	0,025
-619,605	-51,105	0,082	-0,028
-618,590	-140,354	-0,074	-0,006
-617,576	-109,977	0,107	0,016
-616,561	-115,885	-0,153	-0,021
-615,546	-72,065	-0,075	-0,020
-614,532	800,000	0,048	-0,127
-613,517	-93,118	-0,086	0,017
-612,503	41,313	0,097	-0,063
-611,488	800,000	0,083	0,208
-610,474	-111,504	0,152	0,022
-609,459	800,000	0,055	-0,128
-608,444	-200,000	-0,006	-0,123
-607,430	90,369	-0,098	-0,080
-606,415	-200,000	-0,008	0,110
-605,401	158,530	0,073	0,074
-604,386	-159,835	0,010	0,000
-603,371	109,821	0,048	0,042
-602,357	282,511	-0,031	0,041
-601,342	-101,980	-0,122	-0,021
-600,328	376,735	-0,036	-0,053
-599,313	-101,767	0,112	-0,019
-598,298	800,000	-0,014	-0,035
-597,284	220,339	0,076	0,089
-596,269	327,681	0,003	-0,005
-595,255	-78,473	0,069	-0,017
-594,240	77,323	-0,151	-0,116
-593,225	57,686	-0,133	0,094
-592,211	-200,000	0,012	-0,136
-591,196	-200,000	0,006	-0,060
-590,182	-128,684	0,203	0,020
-589,167	800,000	0,008	0,019
-588,152	-95,929	-0,029	0,006
-587,138	-200,000	-0,014	-0,151
-586,123	146,155	0,090	-0,087
-585,109	-200,000	0,033	-0,160
-584,094	223,227	-0,053	-0,062
-583,079	84,329	-0,043	0,034
-582,065	-200,000	0,020	0,176
-581,050	344,828	0,068	0,098
-580,036	192,847	-0,146	-0,160
-579,021	-200,000	-0,013	0,085
-578,006	-200,000	-0,013	-0,163
-576,992	-11,404	-0,122	0,058
-575,977	26,434	-0,108	0,066
-574,963	-200,000	0,052	0,254
-573,948	334,595	0,031	-0,043
-572,934	192,328	0,037	-0,040
-571,919	800,000	-0,036	-0,094
-570,904	-136,411	0,059	-0,005
-569,890	433,856	-0,048	-0,075
-568,875	-48,405	-0,101	-0,035
-567,861	-200,000	0,003	0,179
-566,846	-200,000	0,012	0,137
-565,831	80,590	0,081	-0,063
-564,817	800,000	-0,032	-0,087
-563,802	251,430	0,012	-0,015
-562,788	47,831	-0,064	0,043
-561,773	27,847	-0,081	-0,049
-560,758	236,325	-0,040	0,048
-559,744	-133,562	0,064	0,006
-558,729	800,000	0,017	-0,054
-557,715	93,408	-0,018	0,015
-556,700	36,321	-0,081	0,052
-555,685	143,347	-0,050	0,048
-554,671	633,286	0,034	-0,063
-553,656	332,528	-0,011	-0,016
-552,642	232,462	0,044	0,053
-551,627	-87,733	-0,067	-0,014
-550,612	43,747	0,039	0,026
-549,598	800,000	-0,062	-0,147
-548,583	-200,000	-0,003	-0,077
-547,569	-53,720	-0,084	-0,028
-546,554	-200,000	-0,007	0,141
-545,539	361,151	0,025	-0,036
-544,525	499,036	-0,062	-0,104
-543,510	64,444	-0,051	0,037
-542,496	800,000	0,013	-0,028
-541,481	229,443	-0,062	-0,073
-540,466	-200,000	0,016	-0,069
-539,452	-155,231	0,245	-0,011
-538,437	-113,488	-0,142	-0,020
-537,423	-200,000	-0,026	-0,088
-536,408	-200,000	-0,013	-0,093
-535,393	-101,824	-0,140	0,024
-534,379	76,863	-0,022	-0,017
-533,364	445,124	0,106	0,169
-532,350	800,000	0,033	-0,090
-531,335	-139,172	0,056	0,004
-530,321	800,000	-0,039	0,083
-529,306	263,624	-0,054	0,068
-528,291	-24,539	-0,094	0,040
-527,277	-200,000	0,012	-0,071
-526,262	-42,187	0,080	-0,029
-525,248	9,603	-0,142	0,078
-524,233	270,172	-0,021	-0,026
-523,218	-200,000	0,000	-0,002
-522,204	156,076	0,049	0,049
-521,189	-20,246	-0,199	-0,088
-520,175	400,693	0,036	-0,054
-519,160	-200,000	-0,035	0,111
-518,145	210,667	0,019	0,021
-517,131	142,758	0,083	0,080
-516,116	29,944	-0,054	0,033
-515,102	238,311	-0,085	-0,103
-514,087	-157,127	-0,071	0,003
-513,072	-126,554	0,085	0,009
-512,058	-117,299	0,102	-0,013
-511,043	800,000	0,057	-0,140
-510,029	-95,932	-0,035	-0,007
-509,014	-10,806	-0,042	0,020
-507,999	17,782	0,100	-0,057
-506,985	80,255	0,048	-0,037
-505,970	800,000	-0,024	0,057
-504,956	75,094	-0,114	-0,087
-503,941	229,217	0,095	-0,112
-502,926	-122,290	0,086	-0,010
-501,912	210,587	0,032	-0,036
-500,897	33,484	0,068	-0,042
-499,883	100,121	0,022	-0,018
-498,868	473,466	-0,107	-0,175
-497,853	339,790	0,039	0,055
-496,839	-171,566	0,045	0,001
-495,824	-156,919	0,138	0,006
-494,810	729,377	0,075	0,144
-493,795	800,000	0,023	0,073
-492,781	306,764	-0,049	0,065
-491,766	37,434	-0,104	-0,067
-490,751	43,526	-0,178	0,117
-489,737	-14,643	0,148	-0,069
-488,722	427,282	0,072	-0,113
-487,708	-200,000	0,023	0,126
-486,693	-85,195	-0,085	0,019
-485,678	-200,000	0,010	-0,116
-484,664	-200,000	-0,003	-0,088
-483,649	717,293	0,024	0,047
-482,635	20,954	-0,036	-0,021
-481,620	83,050	0,100	0,078
-480,605	-200,000	-0,021	0,114
-479,591	61,298	0,089	-0,063
-478,576	-78,439	0,154	0,038
-477,562	126,834	-0,180	-0,165
-476,547	-200,000	-0,023	-0,077
-475,532	18,455	-0,123	0,071
-474,518	-200,000	-0,035	0,202
-473,503	-167,889	0,099	-0,003
-472,489	800,000	-0,058	0,124
-471,474	212,390	-0,076	0,086
-470,459	-200,000	-0,018	-0,085
-469,445	-200,000	-0,007	-0,064
-468,430	-123,514	-0,159	0,018
-467,416	-200,000	0,004	0,018
-466,401	117,094	-0,050	0,044
-465,386	8,043	0,030	0,016
-464,372	-200,000	0,024	0,114
-463,357	240,437	-0,046	0,055
-462,343	-200,000	0,003	-0,032
-461,328	131,682	-0,051	-0,048
-460,313	118,936	0,022	0,020
-459,299	280,462	-0,062	0,080
-458,284	-14,503	0,171	-0,079
-457,270	-136,555	-0,007	0,001
-456,255	280,190	0,053	-0,068
-455,241	374,162	-0,070	-0,103
-454,226	-200,000	0,001	-0,099
-453,211	-9,552	0,043	-0,020
-452,197	-84,413	-0,041	0,009
-451,182	-29,687	0,102	-0,042
-450,168	-132,951	0,037	0,003
-449,153	-11,225	-0,228	0,108
-448,138	15,290	0,057	-0,032
-447,124	-200,000	0,024	-0,163
-446,109	800,000	-0,031	-0,087
-445,095	-200,000	-0,010	0,105
-444,080	-200,000	0,082	-0,000
-443,065	150,665	-0,029	-0,028
-442,051	-200,000	-0,008	-0,040
-441,036	363,057	-0,035	0,050
-440,022	4,559	-0,138	-0,073
-439,007	157,897	0,104	0,103
-437,992	800,000	-0,044	0,094
-436,978	18,113	0,091	0,052
-435,963	-200,000	0,026	0,146
-434,949	800,000	0,048	-0,125
-433,934	179,416	-0,050	-0,053
-432,919	-200,000	0,013	-0,048
-431,905	186,191	0,021	-0,022
-430,890	24,933	0,152	-0,091
-429,876	49,867	-0,049	0,033
-428,861	-9,155	0,026	0,013
-427,846	-89,707	0,073	-0,015
-426,832	-200,000	0,011	-0,111
-425,817	58,879	-0,129	-0,091
-424,803	-200,000	0,018	-0,069
-423,788	-200,000	-0,003	-0,073
-422,773	-200,000	-0,006	-0,028
-421,759	800,000	-0,024	0,069
-420,744	74,824	-0,025	0,019
-419,730	151,062	0,071	0,069
-418,715	-200,000	-0,017	-0,089
-417,701	-200,000	0,012	-0,078
-416,686	800,000	-0,016	-0,035
-415,671	-90,505	-0,108	-0,022
-414,657	800,000	-0,037	-0,094
-413,642	-107,022	0,173	0,027
-412,628	-27,011	-0,113	0,047
-411,613	-34,584	-0,117	-0,046
-410,598	-142,652	-0,057	0,004
-409,584	58,841	0,019	0,013
-408,569	8,806	-0,018	0,010
-407,555	800,000	0,028	0,073
-406,540	17,953	0,136	0,078
-405,525	131,358	-0,026	-0,024
-404,511	-70,143	-0,052	-0,014
-403,496	-19,005	-0,129	-0,057
-402,482	-115,417	0,162	0,022
-401,467	800,000	0,026	0,062
-400,452	800,000	-0,028	0,062
-399,438	-200,000	-0,020	0,068
-398,423	800,000	0,017	0,051
-397,409	-200,000	-0,030	-0,110
-396,394	122,785	-0,047	0,042
-395,379	800,000	0,073	-0,149
-394,365	-199,386	0,046	-0,000
-393,350	341,885	0,091	0,128
-392,336	-98,805	0,187	0,034
-391,321	179,874	-0,044	0,046
-390,306	800,000	0,014	-0,042
-389,292	57,454	-0,115	-0,080
-388,277	138,047	-0,033	0,031
-387,263	52,742	0,109	-0,075
-386,248	-65,681	-0,081	0,023
-385,233	-200,000	0,003	-0,144
-384,219	-200,000	0,021	-0,274
-383,204	706,117	-0,053	-0,100
-382,190	523,411	0,020	-0,033
-381,175	-101,155	0,076	0,013
-380,160	-200,000	-0,035	-0,151
-379,146	105,296	0,055	-0,046
-378,131	739,136	0,004	0,007
-377,117	-200,000	0,001	-0,045
-376,102	-200,000	0,002	-0,053
-375,088	7,293	-0,020	-0,011
-374,073	546,283	-0,064	-0,111
-373,058	119,140	-0,048	-0,042
-372,044	57,324	-0,056	-0,039
-371,029	304,966	0,058	0,078
-370,015	800,000	0,036	0,112
-369,000	-22,507	0,082	-0,035
-367,985	-38,392	-0,105	0,040
-366,971	-112,057	0,236	0,034
-365,956	-105,808	0,037	-0,006
-364,942	-111,037	0,102	-0,015
-363,927	800,000	-0,036	0,090
-362,912	800,000	0,015	0,046
-361,898	-13,481	0,046	-0,021
-360,883	-200,000	-0,010	-0,187
-359,869	-16,845	-0,064	0,029
-358,854	-200,000	0,016	0,141
-357,839	144,251	-0,028	0,027
-356,825	270,718	-0,004	-0,005
-355,810	365,822	0,068	0,098
-354,796	637,240	-0,035	0,064
-353,781	135,032	-0,060	0,056
-352,766	-111,710	0,097	-0,014
-351,752	-48,116	-0,073	0,025
-350,737	10,899	-0,061	-0,034
-349,723	21,121	-0,041	-0,024
-348,708	220,369	-0,093	0,107
-347,693	157,122	0,065	-0,065
-346,679	65,196	-0,007	0,005
-345,664	19,696	-0,035	-0,020
-344,650	-200,000	0,005	0,020
-343,635	186,485	0,012	0,013
-342,620	-200,000	0,015	0,124
-341,606	-17,567	0,012	0,005
-340,591	-200,000	0,005	0,161
-339,577	261,338	0,057	0,071
-338,562	-200,000	-0,004	-0,028
-337,548	800,000	-0,013	0,035
-336,533	-182,191	-0,130	0,002
-335,518	380,203	-0,053	0,078
-334,504	-200,000	-0,011	0,046
-333,489	-33,738	-0,119	-0,047
-332,475	354,016	0,025	-0,036
-331,460	-200,000	-0,021	-0,100
-330,445	79,669	0,011	0,009
-329,431	-55,253	-0,095	-0,030
-328,416	-2,936	0,101	-0,051
-327,402	276,246	0,093	0,119
-326,387	-141,341	-0,097	-0,007
-325,372	-200,000	0,036	0,191
-324,358	-200,000	-0,002	-0,040
-323,343	740,864	-0,041	-0,079
-322,329	211,730	0,026	0,029
-321,314	-24,310	0,046	-0,020
-320,299	800,000	0,064	-0,141
-319,285	19,360	-0,094	-0,054
-318,270	93,200	-0,024	0,019
-317,256	-200,000	0,013	-0,061
-316,241	-200,000	-0,003	0,041
-315,226	-137,853	-0,077	0,006
-314,212	-76,746	0,220	-0,055
-313,197	800,000	-0,009	0,019
-312,183	-200,000	0,000	0,170
-311,168	129,163	-0,086	-0,078
-310,153	-200,000	0,016	-0,130
-309,139	-94,542	0,094	-0,018
-308,124	-105,264	0,050	0,008
-307,110	651,731	0,025	0,046
-306,095	-149,544	0,048	0,003
-305,080	-200,000	0,030	0,148
-304,066	324,170	-0,054	0,074
-303,051	-116,708	-0,062	-0,008
-302,037	-125,191	0,080	0,009
-301,022	-200,000	0,016	-0,113
-300,008	42,200	0,010	-0,007
-298,993	106,142	-0,072	0,061
-297,978	-87,851	0,083	-0,018
-296,964	95,970	0,070	0,057
-295,949	-200,000	-0,033	-0,128
-294,935	800,000	-0,073	-0,181
-293,920	-171,745	0,046	0,001
-292,905	800,000	-0,047	0,136
-291,891	-74,830	-0,183	-0,047
-290,876	179,043	-0,082	0,086
-289,862	-88,552	0,082	0,017
-288,847	238,377	-0,034	-0,041
-287,832	-73,308	0,064	-0,017
-286,818	-136,365	-0,077	0,006
-285,803	295,057	-0,022	0,029
-284,789	279,547	0,081	0,104
-283,774	179,636	0,071	0,075
-282,759	148,010	0,039	-0,038
-281,745	62,410	-0,128	0,091
-280,730	800,000	-0,046	0,130
-279,716	-200,000	0,022	-0,153
-278,701	263,899	0,070	0,088
-277,686	-19,469	0,125	0,055
-276,672	-200,000	-0,004	0,071
-275,657	-83,153	-0,064	0,015
-274,643	-95,581	0,029	0,006
-273,628	-200,000	-0,007	0,114
-272,613	800,000	0,047	-0,101
-271,599	148,802	-0,040	0,038
-270,584	256,798	0,129	0,159
-269,570	323,676	0,128	0,175
-268,555	51,154	0,068	0,046
-267,540	229,159	-0,051	-0,060
-266,526	5,878	0,076	-0,040
-265,511	-149,634	-0,079	0,004
-264,497	-200,000	-0,003	-0,017
-263,482	496,833	0,053	-0,087
-262,467	57,762	-0,091	0,063
-261,453	-200,000	0,046	0,153
-260,438	-104,684	0,113	-0,018
-259,424	-110,655	0,061	-0,009
-258,409	-27,820	-0,062	-0,026
-257,395	-13,332	-0,074	0,034
-256,380	-110,983	-0,055	-0,008
-255,365	11,392	0,072	-0,039
-254,351	248,670	-0,094	-0,114
-253,336	-200,000	-0,039	0,127
-252,322	-88,155	0,095	-0,020
-251,307	188,597	-0,001	-0,001
-250,292	800,000	-0,016	-0,049
-249,278	682,922	-0,049	-0,092
-248,263	-200,000	-0,025	-0,081
-247,249	-200,000	0,030	0,161
-246,234	800,000	0,014	-0,033
-245,219	-200,000	0,005	-0,069
-244,205	-38,357	0,114	-0,043
-243,190	-115,960	0,147	0,019
-242,176	-158,817	0,082	0,003
-241,161	344,963	0,053	0,075
-240,146	-200,000	0,023	-0,114
-239,132	800,000	-0,036	0,097
-238,117	-200,000	0,010	-0,086
-237,103	344,891	-0,085	0,119
-236,088	398,232	-0,038	-0,057
-235,073	-51,614	-0,053	-0,018
-234,059	800,000	-0,060	0,141
-233,044	233,279	0,047	0,055
-232,030	-200,000	0,009	-0,073
-231,015	-35,806	-0,128	0,049
-230,000	-7,160	0,006	0,003
-228,986	346,907	-0,061	-0,086
-227,971	-95,261	0,063	0,012
-226,957	275,579	0,084	0,107
-225,942	4,257	0,058	0,030
-224,927	-200,000	0,002	-0,098
-223,913	-8,357	-0,144	0,069
-222,898	-137,519	0,071	-0,006
-221,884	87,389	0,030	-0,024
-220,869	800,000	0,058	0,135
-219,855	-200,000	-0,005	0,023
-218,840	-200,000	0,006	0,091
-217,825	349,090	0,046	-0,065
-216,811	-200,000	0,015	-0,175
-215,796	-16,699	-0,099	-0,045
-214,782	-3,531	0,112	-0,056
-213,767	-19,358	-0,045	0,020
-212,752	-200,000	-0,012	0,099
-211,738	-27,907	-0,048	0,020
-210,723	3,069	-0,151	0,078
-209,709	276,452	-0,009	0,012
-208,694	-53,081	-0,160	0,052
-207,679	800,000	0,023	-0,059
-206,665	800,000	-0,074	0,163
-205,650	-11,441	0,075	0,035
-204,636	256,014	0,093	0,114
-203,621	-146,633	0,063	0,004
-202,606	58,827	-0,067	-0,047
-201,592	800,000	0,077	-0,166
-200,577	-95,864	-0,063	-0,012
-199,563	51,185	0,083	-0,056
-198,548	-200,000	0,003	-0,026
-197,533	-25,989	0,096	0,040
-196,519	252,495	0,077	-0,094
-195,504	-200,000	0,019	-0,107
-194,490	41,143	-0,145	-0,094
-193,475	-7,838	-0,043	0,021
-192,460	-200,000	-0,005	0,092
-191,446	800,000	0,013	0,035
-190,431	-151,097	0,094	0,005
-189,417	-57,530	-0,012	-0,004
-188,402	-12,471	0,040	-0,019
-187,387	785,184	-0,036	0,070
-186,373	177,273	0,070	0,073
-185,358	161,688	-0,058	0,058
-184,344	-35,204	0,165	0,064
-183,329	61,740	-0,039	0,028
-182,315	267,513	0,067	-0,084
-181,300	51,930	0,042	-0,029
-180,285	295,951	-0,037	-0,049
-179,271	-81,988	-0,159	0,037
-178,256	-200,000	0,003	-0,085
-177,242	347,794	0,047	0,066
-176,227	-200,000	-0,023	0,214
-175,212	248,256	0,005	-0,005
-174,198	-200,000	0,015	-0,078
-173,183	800,000	-0,017	-0,046
-172,169	-78,310	-0,151	-0,037
-171,154	305,121	0,017	0,023
-170,139	-80,893	-0,076	-0,018
-169,125	-143,727	-0,054	0,004
-168,110	-121,186	0,017	0,002
-167,096	-65,400	-0,042	0,012
-166,081	34,896	-0,164	-0,102
-165,066	-87,678	0,041	-0,009
-164,052	-200,000	0,018	-0,081
-163,037	523,067	0,039	-0,065
-162,023	-11,858	0,197	-0,092
-161,008	-200,000	-0,009	0,170
-159,993	-200,000	-0,006	0,115
-158,979	104,551	-0,116	0,097
-157,964	800,000	0,020	0,050
-156,950	800,000	0,053	-0,125
-155,935	-24,282	0,138	0,058
-154,920	-42,395	0,107	0,039
-153,906	30,521	0,015	-0,009
-152,891	-200,000	0,011	0,079
-151,877	-43,006	0,118	-0,043
-150,862	-30,415	0,079	0,032
-149,847	70,027	-0,150	0,110
-148,833	-69,036	0,087	0,024
-147,818	800,000	-0,014	-0,037
-146,804	-200,000	0,002	-0,037
-145,789	800,000	-0,038	0,077
-144,775	405,761	-0,072	-0,108
-143,760	-200,000	0,015	0,103
-142,745	325,891	0,052	-0,072
-141,731	578,166	-0,029	-0,051
-140,716	542,861	-0,049	0,084
-139,702	800,000	0,039	0,114
-138,687	800,000	0,042	-0,099
-137,672	-40,096	-0,073	0,027
-136,658	456,348	-0,035	-0,055
-135,643	13,363	0,101	0,056
-134,629	-94,662	0,132	-0,025
-133,614	-32,799	-0,014	-0,006
-132,599	-200,000	0,016	0,055
-131,585	45,915	0,033	-0,022
-130,570	800,000	0,045	0,114
-129,556	-146,304	-0,098	0,006
-128,541	681,521	0,052	-0,096
-127,526	778,844	0,020	-0,038
-126,512	-200,000	0,014	-0,091
-125,497	-44,951	0,093	0,033
-124,483	458,823	0,047	0,075
-123,468	-200,000	-0,052	0,196
-122,453	-135,143	-0,040	-0,003
-121,439	-175,026	-0,035	-0,001
-120,424	7,550	0,032	-0,017
-119,410	-200,000	0,011	0,037
-118,395	800,000	0,020	-0,058
-117,380	602,483	-0,058	0,103
-116,366	125,523	-0,051	0,046
-115,351	466,332	0,052	-0,083
-114,337	318,822	-0,008	-0,011
-113,322	-200,000	-0,019	0,082
-112,307	-180,927	-0,027	0,000
-111,293	-38,593	0,058	0,022
-110,278	214,938	0,040	-0,045
-109,264	-148,304	-0,151	-0,009
-108,249	-34,313	-0,047	0,018
-107,234	47,197	0,008	0,005
-106,220	518,718	0,076	-0,128
-105,205	-200,000	-0,001	-0,133
-104,191	476,143	-0,047	-0,076
-103,176	-70,856	0,075	0,020
-102,162	211,412	0,035	0,039
-101,147	-46,368	-0,117	-0,041
-100,132	800,000	0,092	0,190
-99,118	800,000	0,003	0,008
-98,103	-200,000	-0,018	-0,120
-97,089	0,182	0,045	0,023
-96,074	-59,810	0,079	-0,024
-95,059	800,000	0,014	0,028
-94,045	267,652	0,007	-0,009
-93,030	-200,000	0,003	-0,147
-92,016	-200,000	0,015	0,083
-91,001	118,609	0,040	0,035
-89,986	-200,000	-0,009	0,183
-88,972	-200,000	-0,004	-0,135
-87,957	-85,399	0,127	0,028
-86,943	800,000	0,077	-0,155
-85,928	-47,218	-0,161	-0,056
-84,913	-200,000	0,012	0,126
-83,899	446,345	-0,034	0,053
-82,884	-111,215	0,073	0,011
-81,870	-51,228	0,100	0,033
-80,855	151,314	-0,008	-0,008
-79,840	-186,677	-0,073	-0,001
-78,826	-78,784	-0,077	-0,019
-77,811	96,662	-0,092	-0,075
-76,797	159,501	-0,047	0,047
-75,782	-200,000	0,017	-0,124
-74,767	-200,000	-0,026	0,122
-73,753	101,765	-0,073	0,061
-72,738	-75,001	-0,062	0,016
-71,724	1,947	-0,045	0,023
-70,709	-159,135	-0,137	0,005
-69,694	-75,682	-0,016	-0,004
-68,680	800,000	-0,026	-0,070
-67,665	-177,806	-0,023	-0,000
-66,651	16,089	0,047	-0,026
-65,636	-200,000	0,004	0,135
-64,622	315,486	0,043	0,058
-63,607	441,929	-0,081	-0,126
-62,592	-200,000	0,018	-0,057
-61,578	-33,910	0,174	0,068
-60,563	-200,000	0,026	0,120
-59,549	233,599	0,090	0,105
-58,534	-68,872	-1,448	-0,394
-57,519	585,911	-1,323	-2,317
-56,505	-200,000	-0,423	-4,454
-55,490	134,325	1,017	0,936
-54,476	800,000	4,882	11,224
-53,461	-200,000	17,985	284,191
-52,446	800,000	725,024	2223,484
-51,432	558,243	1640,327	2817,688
-50,417	79,818	1662,568	1265,546
-49,403	23,261	1536,238	892,781
-48,388	17,197	1459,806	819,008
-47,373	17,992	1449,592	817,072
-46,359	17,514	1440,050	809,379
-45,344	15,484	1435,294	796,989
-44,330	15,417	1433,380	795,574
-43,315	15,437	1431,804	794,763
-42,300	15,446	1429,986	793,764
-41,286	15,507	1428,719	793,319
-40,271	15,463	1427,757	792,546
-39,257	15,444	1426,506	791,729
-38,242	15,507	1424,931	791,120
-37,227	15,508	1423,817	790,479
-36,213	15,491	1422,621	789,701
-35,198	15,496	1421,400	789,018
-34,184	15,536	1420,480	788,665
-33,169	15,481	1419,128	787,621
-32,154	15,504	1418,179	787,171
-31,140	15,467	1416,840	786,223
-30,125	15,510	1415,835	785,838
-29,111	15,500	1414,659	785,105
-28,096	15,471	1413,737	784,428
-27,082	15,420	1412,516	783,479
-26,067	15,409	1411,114	782,618
-25,052	15,354	1410,475	781,976
-24,038	15,402	1409,351	781,544
-23,023	15,370	1408,262	780,762
-22,009	15,375	1407,106	780,110
-20,994	15,361	1406,315	779,578
-19,979	15,355	1405,381	779,000
-18,965	15,312	1404,476	778,265
-17,950	15,313	1403,407	777,647
-16,936	15,338	1402,607	777,290
-15,921	15,298	1401,420	776,416
-14,906	15,320	1400,365	775,904
-13,892	15,332	1399,535	775,469
-12,877	15,351	1398,611	775,016
-11,863	15,310	1397,703	774,288
-10,848	15,355	1396,622	773,870
-9,833	15,323	1395,767	773,215
-8,819	15,224	1394,960	772,277
-7,804	15,200	1394,099	771,660
-6,790	15,251	1393,012	771,263
-5,775	15,227	1391,940	770,527
-4,760	15,251	1391,105	770,146
-3,746	15,216	1390,346	769,533
-2,731	15,242	1389,486	769,148
-1,717	15,205	1388,439	768,370
-0,702	15,222	1386,686	767,448
0,313	19,097	1306,656	741,062
1,327	35,522	707,139	439,171
2,342	54,851	125,013	85,395
3,356	2,838	16,627	8,525
4,371	-2,985	3,206	1,581
5,386	-54,741	0,554	0,176
6,400	-200,000	0,039	0,232
7,415	167,428	-0,168	-0,169
8,429	-49,777	-0,340	-0,114
9,444	216,360	-0,257	-0,290
10,459	93,597	-0,295	-0,236
11,473	40,580	-0,327	-0,208
12,488	21,975	-0,136	-0,078
13,502	-75,924	-0,359	-0,089
14,517	178,479	-0,272	-0,282
15,531	97,473	-0,406	-0,330
16,546	49,657	-0,259	-0,172
17,561	114,943	-0,393	-0,339
18,575	-38,650	-0,266	-0,099
19,590	40,155	-0,216	-0,137
20,604	-18,769	-0,308	-0,135
21,619	117,602	-0,332	-0,289
22,634	190,538	-0,362	-0,386
23,648	56,165	-0,467	-0,320
24,663	201,738	-0,414	-0,451
25,677	108,956	-0,261	-0,220
26,692	-1,434	-0,311	-0,155
27,707	37,363	-0,301	-0,188
28,721	-37,763	-0,379	-0,142
29,736	13,339	-0,388	-0,212
30,750	132,043	-0,501	-0,456
31,765	99,033	-0,375	-0,306
32,780	59,329	-0,368	-0,256
33,794	117,734	-0,348	-0,303
34,809	15,130	-0,298	-0,165
35,823	106,564	-0,392	-0,329
36,838	111,969	-0,434	-0,371
37,853	246,891	-0,339	-0,405
38,867	234,107	-0,309	-0,360
39,882	158,700	-0,413	-0,406
40,896	-26,307	-0,289	-0,119
41,911	50,109	-0,343	-0,228
42,926	170,856	-0,320	-0,324
43,940	103,996	-0,259	-0,215
44,955	104,808	-0,403	-0,335
45,969	87,001	-0,309	-0,241
46,984	99,737	-0,242	-0,197
47,999	86,279	-0,332	-0,258
49,013	-22,470	-0,347	-0,148
50,028	57,146	-0,396	-0,272
51,042	17,108	-0,398	-0,222
52,057	20,704	-0,403	-0,230
53,071	115,528	-0,430	-0,371
54,086	621,070	-0,201	-0,358
55,101	-13,950	-0,269	-0,122
56,115	-111,120	-0,385	-0,055
57,130	-25,548	-0,212	-0,088
58,144	41,367	-0,281	-0,179
59,159	33,217	-0,319	-0,195
60,174	23,611	-0,333	-0,193
61,188	146,281	-0,278	-0,263
62,203	412,644	-0,145	-0,218
63,217	-34,822	-0,382	-0,146
64,232	33,890	-0,393	-0,240
65,247	175,829	-0,364	-0,372
66,261	438,847	-0,205	-0,317
67,276	72,747	-0,238	-0,175
68,290	194,557	-0,264	-0,282
69,305	204,752	-0,224	-0,245
70,320	453,947	-0,192	-0,301
71,334	105,596	-0,301	-0,251
72,349	506,844	-0,154	-0,252
73,363	141,966	-0,314	-0,294
74,378	65,723	-0,347	-0,247
75,393	29,548	-0,341	-0,204
76,407	198,049	-0,269	-0,290
77,422	-80,162	-0,295	-0,069
78,436	32,166	-0,199	-0,120
79,451	22,893	-0,360	-0,207
80,466	-26,209	-0,344	-0,142
81,480	62,790	-0,362	-0,255
82,495	164,589	-0,189	-0,188
83,509	17,031	-0,295	-0,164
84,524	154,332	-0,295	-0,285
85,539	172,644	-0,207	-0,210
86,553	79,371	-0,248	-0,187
87,568	-9,923	-0,430	-0,201
88,582	209,205	-0,325	-0,358
89,597	133,110	-0,226	-0,205
90,611	-84,941	-0,322	-0,070
91,626	-4,448	-0,186	-0,090
92,641	-54,620	-0,332	-0,105
93,655	62,166	-0,257	-0,180
94,670	139,971	-0,230	-0,213
95,684	82,269	-0,315	-0,240
96,699	106,716	-0,229	-0,191
97,714	174,869	-0,188	-0,191
98,728	-2,386	-0,294	-0,144
99,743	-71,419	-0,335	-0,087
100,757	-96,275	-0,224	-0,041
101,772	463,685	-0,268	-0,422
102,787	180,638	-0,296	-0,305
103,801	98,930	-0,336	-0,272
104,816	-124,108	-0,247	-0,027
105,830	-80,709	-0,352	-0,082
106,845	72,496	-0,202	-0,148
107,860	-62,905	-0,335	-0,097
108,874	34,014	-0,195	-0,119
109,889	133,515	-0,287	-0,260
110,903	390,198	-0,211	-0,308
111,918	114,190	-0,278	-0,237
112,933	-22,021	-0,316	-0,134
113,947	-51,434	-0,294	-0,096
114,962	39,990	-0,325	-0,204
115,976	58,122	-0,104	-0,071
116,991	800,000	-0,108	-0,263
118,006	34,621	-0,300	-0,184
119,020	123,481	-0,211	-0,185
120,035	26,309	-0,227	-0,133
121,049	62,098	-0,295	-0,206
122,064	156,032	-0,238	-0,230
123,079	301,360	-0,173	-0,224
124,093	235,836	-0,255	-0,296
125,108	19,902	-0,194	-0,110
126,122	221,422	-0,220	-0,248
127,137	-52,415	-0,337	-0,109
128,151	104,039	-0,214	-0,176
129,166	-17,169	-0,238	-0,105
130,181	-158,070	-0,246	-0,010
131,195	107,693	-0,220	-0,184
132,210	65,365	-0,223	-0,158
133,224	106,232	-0,277	-0,230
134,239	-30,002	-0,394	-0,157
135,254	33,060	-0,231	-0,140
136,268	290,430	-0,114	-0,145
137,283	-14,014	-0,326	-0,147
138,297	54,869	-0,317	-0,214
139,312	385,746	-0,133	-0,193
140,327	121,222	-0,276	-0,241
141,341	800,000	-0,147	-0,332
142,356	60,185	-0,149	-0,103
143,370	-84,245	-0,336	-0,074
144,385	15,460	-0,308	-0,169
145,400	62,186	-0,268	-0,187
146,414	255,953	-0,232	-0,279
147,429	66,916	-0,270	-0,192
148,443	158,086	-0,226	-0,220
149,458	317,644	-0,155	-0,206
150,473	48,316	-0,288	-0,188
151,487	114,205	-0,146	-0,124
152,502	215,873	-0,240	-0,267
153,516	109,661	-0,161	-0,135
154,531	138,643	-0,297	-0,272
155,546	-44,150	-0,235	-0,082
156,560	44,521	-0,196	-0,126
157,575	-17,948	-0,110	-0,048
158,589	180,419	-0,238	-0,245
159,604	34,290	-0,238	-0,145
160,619	180,797	-0,294	-0,302
161,633	364,766	-0,189	-0,267
162,648	-68,998	-0,354	-0,095
163,662	602,500	-0,149	-0,261
164,677	150,275	-0,135	-0,128
165,692	66,658	-0,238	-0,169
166,706	71,759	-0,133	-0,096
167,721	134,175	-0,217	-0,196
168,735	6,187	-0,395	-0,204
169,750	98,518	-0,181	-0,146
170,764	45,660	-0,262	-0,169
171,779	342,094	-0,139	-0,191
172,794	0,153	-0,192	-0,095
173,808	461,424	-0,121	-0,188
174,823	-19,946	-0,285	-0,122
175,837	-112,248	-0,189	-0,026
176,852	622,365	-0,217	-0,383
177,867	-157,169	-0,147	-0,006
178,881	-15,793	-0,243	-0,108
179,896	33,324	-0,199	-0,120
180,910	547,956	-0,125	-0,209
181,925	421,554	-0,148	-0,222
182,940	180,491	-0,277	-0,284
183,954	342,706	-0,192	-0,262
184,969	656,257	-0,109	-0,195
185,983	66,125	-0,354	-0,250
186,998	166,396	-0,144	-0,142
188,013	244,900	-0,183	-0,215
189,027	318,997	-0,076	-0,101
190,042	74,368	-0,196	-0,144
191,056	214,823	-0,211	-0,234
192,071	800,000	-0,087	-0,253
193,086	-33,827	-0,155	-0,059
194,100	800,000	-0,083	-0,169
195,115	-136,030	-0,225	-0,018
196,129	-71,764	-0,192	-0,050
197,144	324,418	-0,179	-0,239
198,159	-106,464	-0,186	-0,029
199,173	88,935	-0,207	-0,161
200,188	-10,504	-0,256	-0,118
201,202	64,961	-0,197	-0,138
202,217	800,000	-0,094	-0,230
203,232	83,599	-0,144	-0,109
204,246	99,034	-0,237	-0,191
205,261	233,308	-0,295	-0,338
206,275	117,298	-0,182	-0,156
207,290	39,350	-0,195	-0,122
208,304	277,983	-0,119	-0,148
209,319	-19,301	-0,324	-0,139
210,334	579,837	-0,103	-0,177
211,348	17,124	-0,191	-0,105
212,363	-120,603	-0,210	-0,024
213,377	604,756	-0,043	-0,075
214,392	-63,539	-0,122	-0,035
215,407	378,061	-0,083	-0,119
216,421	-31,570	-0,230	-0,089
217,436	-2,532	-0,257	-0,125
218,450	124,216	-0,231	-0,202
219,465	306,886	-0,128	-0,166
220,480	800,000	-0,129	-0,264
221,494	102,408	-0,073	-0,059
222,509	-84,293	-0,198	0,043
223,523	-87,432	-0,195	-0,041
224,538	7,072	-0,263	-0,136
225,553	88,009	-0,211	-0,162
226,567	0,082	-0,266	-0,131
227,582	-78,207	-0,183	-0,043
228,596	56,813	-0,086	-0,058
229,611	38,332	-0,137	-0,085
230,626	-97,539	-0,258	-0,046
231,640	-170,586	-0,209	0,005
232,655	57,812	-0,382	-0,259
233,669	28,078	-0,251	-0,147
234,684	-129,231	-0,239	-0,023
235,699	259,414	-0,205	-0,246
236,713	241,850	-0,150	-0,174
237,728	763,912	-0,112	-0,213
238,742	369,948	-0,122	-0,172
239,757	94,229	-0,256	-0,202
240,772	-57,276	-0,266	-0,081
241,786	285,803	-0,119	-0,149
242,801	362,985	-0,185	-0,258
243,815	38,903	-0,186	-0,115
244,830	71,453	-0,106	-0,077
245,844	11,492	-0,195	-0,103
246,859	126,682	-0,176	-0,155
247,874	208,168	-0,173	-0,188
248,888	156,045	-0,129	-0,123
249,903	9,311	-0,266	-0,139
250,917	-152,547	-0,174	-0,008
251,932	796,691	-0,097	-0,186
252,947	-57,731	-0,278	-0,084
253,961	76,050	-0,178	-0,130
254,976	229,567	-0,204	-0,231
255,990	22,822	-0,206	-0,116
257,005	800,000	-0,064	-0,157
258,020	-119,027	-0,095	-0,011
259,034	-82,037	-0,233	-0,052
260,049	800,000	-0,057	-0,174
261,063	175,990	-0,192	-0,193
262,078	165,395	-0,274	-0,269
263,093	20,469	-0,217	-0,121
264,107	-124,616	-0,115	0,012
265,122	38,402	-0,154	-0,095
266,136	136,026	-0,089	-0,081
267,151	153,637	-0,128	-0,122
268,166	85,528	-0,171	-0,130
269,180	-103,921	-0,185	-0,030
270,195	-21,629	-0,177	-0,074
271,209	800,000	-0,039	-0,103
272,224	-181,377	-0,189	-0,003
273,239	84,860	-0,173	-0,131
274,253	235,218	-0,158	-0,180
275,268	70,383	-0,194	-0,139
276,282	-96,998	-0,088	-0,016
277,297	-15,737	-0,134	-0,059
278,312	122,983	-0,127	-0,110
279,326	34,666	-0,246	-0,149
280,341	346,912	-0,151	-0,206
281,355	119,924	-0,138	-0,118
282,370	-84,947	-0,217	-0,047
283,384	-5,247	-0,159	-0,075
284,399	-94,285	-0,283	-0,053
285,414	-200,000	-0,056	-0,181
286,428	38,468	-0,183	-0,113
287,443	-145,659	-0,093	-0,006
288,457	126,862	-0,090	-0,079
289,472	-55,235	-0,133	-0,041
290,487	57,251	-0,200	-0,134
291,501	154,961	-0,206	-0,196
292,516	-80,363	-0,156	-0,036
293,530	102,341	-0,098	-0,079
294,545	-200,000	-0,019	-0,114
295,560	-22,127	-0,015	-0,006
296,574	-80,455	-0,282	-0,064
297,589	161,731	-0,227	-0,220
298,603	-200,000	-0,022	-0,227
299,618	339,485	-0,122	-0,165
300,633	243,805	-0,154	-0,179
301,647	-66,615	-0,153	-0,042
302,662	-127,897	0,034	0,003
303,676	65,543	-0,037	0,026
304,691	25,452	-0,095	-0,054
305,706	-157,313	-0,088	0,004
306,720	32,356	-0,119	-0,071
307,735	4,165	-0,120	-0,060
308,749	-98,750	-0,077	-0,013
309,764	-40,462	-0,199	-0,071
310,779	-80,145	-0,175	-0,040
311,793	-200,000	-0,016	-0,065
312,808	800,000	-0,057	-0,127
313,822	800,000	-0,068	-0,186
314,837	-76,018	-0,217	-0,052
315,852	-22,017	-0,154	-0,064
316,866	384,652	-0,121	-0,172
317,881	137,942	-0,097	-0,088
318,895	48,766	-0,163	-0,105
319,910	111,833	-0,201	-0,167
320,925	800,000	-0,050	-0,125
321,939	716,423	-0,061	-0,112
322,954	109,175	-0,280	-0,231
323,968	229,838	-0,105	-0,119
324,983	479,909	-0,082	-0,128
325,997	105,109	-0,162	-0,132
327,012	242,348	-0,181	-0,209
328,027	337,414	-0,072	-0,096
329,041	800,000	-0,114	-0,246
330,056	-200,000	-0,026	-0,224
331,070	-48,136	-0,141	0,047
332,085	101,255	-0,141	-0,113
333,100	800,000	-0,080	-0,211
334,114	40,208	-0,101	-0,062
335,129	-10,742	-0,175	-0,079
336,143	607,278	-0,172	-0,296
337,158	-155,990	-0,183	0,008
338,173	334,996	-0,056	0,075
339,187	71,251	-0,078	0,055
340,202	11,805	-0,133	-0,070
341,216	324,662	-0,171	-0,226
342,231	-200,000	-0,030	-0,178
343,246	175,175	-0,088	-0,088
344,260	125,859	-0,240	-0,209
345,275	-86,383	-0,109	0,023
346,289	-55,306	-0,153	0,047
347,304	256,616	-0,014	-0,016
348,319	-200,000	-0,077	-0,335
349,333	498,977	-0,175	-0,278
350,348	800,000	-0,066	-0,133
351,362	-84,737	-0,174	-0,037
352,377	-161,743	-0,080	0,003
353,392	800,000	-0,104	-0,202
354,406	-92,607	-0,092	-0,018
355,421	209,779	1311,685	1415,349
356,435	161,465	1472,070	1415,861
