DTS Sentinel unit serial number:	SN410029Multiplexer serial number:	ORYXHardware model number:	OX2-SRSoftware version number:	ORYX F/W v4,00 Oryx Data Collector v3.7.2.0data status	okinstallation	B3 Nyhavnadifferential loss correction	single-endedforward channel	channel 1reverse channel	N/Adate	2023/11/29time	08:17:30forward acquisition time	300,00reverse acquisition time	0,00gamma	499,1914k internal	0,3211k external	0,3211temperature offset calibration	1,0000default loss term (dB/km)	0,3820temperature slope calibration	1,0000multiplexer offset coefficient	1,0000multiplexer slope coefficient	1,0000fibre end	0,00T internal ref (°C)	8,87T ext. ref 1 (°C)	-6,20T ext. ref 2 (°C)	-6,30length (m)	temperature (°C)	Stokes	anti-Stokes-744,400	-200,000	-0,020	-0,220
-743,385	-200,000	-0,008	0,188
-742,371	6,003	-0,277	-0,148
-741,356	-200,000	0,011	0,281
-740,342	124,014	-0,203	-0,185
-739,327	-200,000	-0,010	0,131
-738,312	224,413	-0,240	-0,282
-737,298	800,000	-0,060	0,132
-736,283	8,450	-0,210	-0,114
-735,269	-200,000	-0,043	0,275
-734,254	448,784	-0,149	-0,238
-733,239	21,331	-0,270	0,158
-732,225	473,507	-0,110	-0,181
-731,210	280,216	-0,092	0,120
-730,196	-200,000	-0,012	-0,121
-729,181	-200,000	-0,014	-0,050
-728,167	-151,934	-0,179	-0,009
-727,152	800,000	0,016	0,042
-726,137	40,316	-0,057	0,037
-725,123	642,479	0,035	-0,064
-724,108	800,000	-0,088	-0,232
-723,094	-200,000	0,003	0,029
-722,079	-200,000	0,004	0,122
-721,064	20,963	-0,058	0,034
-720,050	-125,603	0,156	-0,017
-719,035	800,000	-0,024	-0,069
-718,021	16,153	0,109	-0,062
-717,006	137,532	-0,082	-0,078
-715,991	117,099	-0,059	-0,052
-714,977	-114,490	-0,198	-0,027
-713,962	-147,786	-0,072	0,004
-712,948	339,912	0,055	-0,078
-711,933	-86,563	-0,030	-0,007
-710,918	-26,698	0,035	-0,015
-709,904	565,692	-0,061	-0,108
-708,889	-92,672	-0,088	0,018
-707,875	29,768	-0,098	-0,060
-706,860	-155,949	0,162	-0,007
-705,845	225,027	0,128	0,150
-704,831	-69,117	-0,020	0,005
-703,816	-142,576	-0,066	-0,005
-702,802	-110,800	-0,092	-0,014
-701,787	-38,335	-0,133	-0,051
-700,772	-45,156	-0,153	-0,055
-699,758	-200,000	-0,018	-0,089
-698,743	250,845	0,029	0,036
-697,729	-91,434	0,113	0,023
-696,714	591,380	-0,085	0,153
-695,699	-200,000	-0,006	-0,065
-694,685	800,000	-0,051	0,154
-693,670	-36,040	-0,170	-0,066
-692,656	503,250	0,028	0,047
-691,641	281,586	0,091	-0,118
-690,627	174,478	-0,077	-0,080
-689,612	-200,000	-0,040	0,148
-688,597	-200,000	0,023	0,074
-687,583	757,390	-0,038	-0,076
-686,568	800,000	-0,024	-0,053
-685,554	-200,000	-0,031	-0,138
-684,539	61,685	0,214	0,154
-683,524	-200,000	-0,109	0,000
-682,510	98,718	0,146	-0,122
-681,495	800,000	-0,044	0,114
-680,481	-200,000	0,006	-0,141
-679,466	432,373	0,002	-0,004
-678,451	-200,000	-0,010	-0,040
-677,437	142,378	-0,038	0,036
-676,422	155,589	-0,034	0,034
-675,408	-200,000	-0,003	0,011
-674,393	-66,539	0,046	0,013
-673,378	-200,000	-0,031	-0,139
-672,364	337,226	0,057	-0,080
-671,349	-41,511	-0,096	0,035
-670,335	-73,539	-0,042	0,011
-669,320	-69,153	0,207	0,057
-668,305	-200,000	0,013	-0,097
-667,291	-200,000	0,015	0,116
-666,276	-6,311	-0,149	-0,073
-665,262	69,048	-0,056	-0,042
-664,247	404,500	-0,109	-0,167
-663,232	800,000	0,014	0,029
-662,218	-114,128	-0,074	0,010
-661,203	257,753	-0,065	-0,080
-660,189	-23,777	0,121	0,052
-659,174	-200,000	0,022	-0,074
-658,159	-110,149	-0,069	-0,010
-657,145	184,838	0,115	0,123
-656,130	800,000	0,030	-0,068
-655,116	49,149	0,122	0,082
-654,101	800,000	0,062	0,133
-653,086	274,584	0,123	0,157
-652,072	-153,180	-0,059	0,003
-651,057	-118,222	-0,150	0,019
-650,043	-75,506	0,129	-0,033
-649,028	800,000	0,019	-0,041
-648,014	-200,000	-0,001	0,066
-646,999	-21,345	-0,087	-0,038
-645,984	22,907	-0,064	-0,038
-644,970	-170,234	-0,059	0,001
-643,955	156,545	-0,071	-0,071
-642,941	800,000	0,048	0,110
-641,926	-143,406	-0,108	0,007
-640,911	-159,230	0,104	0,004
-639,897	94,936	0,179	0,147
-638,882	69,405	0,049	-0,036
-637,868	-120,862	-0,044	-0,005
-636,853	-134,966	-0,085	0,007
-635,838	36,784	0,091	-0,058
-634,824	-111,402	-0,065	0,009
-633,809	-200,000	0,027	0,092
-632,795	-200,000	0,015	0,126
-631,780	-200,000	-0,020	-0,085
-630,765	800,000	0,077	0,153
-629,751	-37,594	-0,090	-0,034
-628,736	589,456	-0,057	-0,103
-627,722	800,000	-0,018	-0,048
-626,707	800,000	-0,013	-0,027
-625,692	122,244	-0,074	0,066
-624,678	-157,213	0,089	-0,004
-623,663	26,064	0,081	0,049
-622,649	230,138	0,033	-0,039
-621,634	-200,000	-0,015	-0,069
-620,619	-69,631	0,058	-0,016
-619,605	-20,703	-0,088	0,039
-618,590	-200,000	-0,014	0,094
-617,576	315,411	0,051	0,070
-616,561	18,599	-0,050	0,029
-615,546	-183,415	-0,072	0,001
-614,532	-200,000	0,028	-0,195
-613,517	304,140	-0,047	-0,063
-612,503	-200,000	-0,030	0,110
-611,488	77,045	0,093	0,071
-610,474	800,000	-0,038	0,109
-609,459	-200,000	0,012	0,092
-608,444	618,737	-0,049	-0,090
-607,430	-92,816	-0,022	-0,004
-606,415	-192,093	-0,057	0,000
-605,401	-200,000	-0,009	-0,077
-604,386	-33,001	-0,058	-0,023
-603,371	118,737	0,163	-0,145
-602,357	-200,000	-0,009	-0,040
-601,342	800,000	-0,023	0,055
-600,328	125,588	-0,101	-0,092
-599,313	388,402	-0,019	-0,028
-598,298	104,093	0,091	-0,077
-597,284	-200,000	0,003	0,080
-596,269	10,825	-0,076	-0,042
-595,255	49,904	0,114	-0,078
-594,240	165,478	-0,050	0,051
-593,225	8,358	0,023	-0,012
-592,211	-200,000	0,002	-0,085
-591,196	-70,129	-0,012	-0,003
-590,182	-200,000	0,006	0,019
-589,167	368,491	-0,065	0,095
-588,152	-200,000	0,019	0,075
-587,138	-83,150	-0,146	-0,034
-586,123	-45,662	-0,044	-0,016
-585,109	-129,657	0,145	-0,014
-584,094	-23,315	-0,144	-0,062
-583,079	-116,431	0,098	-0,013
-582,065	394,229	0,094	0,142
-581,050	-200,000	-0,000	0,030
-580,036	-1,055	0,078	-0,040
-579,021	800,000	0,044	-0,106
-578,006	45,056	-0,218	-0,144
-576,992	-1,225	0,135	-0,068
-575,977	-200,000	-0,014	0,099
-574,963	800,000	0,030	0,087
-573,948	-21,869	-0,056	0,024
-572,934	168,479	-0,103	-0,106
-571,919	93,957	-0,056	-0,046
-570,904	-106,063	0,106	0,017
-569,890	572,896	-0,041	-0,072
-568,875	122,823	-0,115	0,103
-567,861	800,000	-0,028	-0,071
-566,846	800,000	-0,018	-0,047
-565,831	-200,000	-0,029	-0,134
-564,817	-200,000	-0,004	0,015
-563,802	264,767	-0,101	-0,126
-562,788	-200,000	0,026	0,163
-561,773	132,819	-0,064	-0,060
-560,758	-152,897	0,085	0,004
-559,744	800,000	0,015	0,039
-558,729	-44,702	0,070	-0,025
-557,715	-200,000	0,011	0,099
-556,700	-200,000	0,021	-0,139
-555,685	-138,276	0,087	-0,007
-554,671	-93,562	0,114	0,022
-553,656	-200,000	0,016	-0,088
-552,642	-25,483	0,114	0,048
-551,627	-200,000	0,001	-0,052
-550,612	-200,000	-0,002	-0,045
-549,598	-200,000	0,016	0,080
-548,583	800,000	-0,083	0,175
-547,569	127,495	-0,047	0,043
-546,554	-200,000	-0,038	0,243
-545,539	-200,000	-0,007	0,026
-544,525	-145,273	0,124	-0,008
-543,510	800,000	-0,065	0,176
-542,496	153,029	-0,051	-0,051
-541,481	60,538	0,062	-0,044
-540,466	-105,651	-0,054	-0,009
-539,452	467,948	0,021	0,034
-538,437	-47,569	0,090	0,031
-537,423	-78,578	0,097	0,024
-536,408	-32,571	0,036	-0,014
-535,393	556,475	0,032	0,055
-534,379	52,892	0,047	-0,032
-533,364	-36,697	0,132	-0,051
-532,350	-200,000	0,013	0,116
-531,335	-15,608	0,046	-0,021
-530,321	471,249	0,052	-0,085
-529,306	120,189	-0,026	-0,023
-528,291	68,532	-0,090	-0,067
-527,277	-35,247	0,018	-0,007
-526,262	-200,000	-0,005	-0,078
-525,248	-22,253	-0,056	-0,024
-524,233	73,260	0,013	0,010
-523,218	-200,000	-0,001	-0,144
-522,204	100,014	-0,047	-0,040
-521,189	162,854	-0,033	-0,033
-520,175	97,669	-0,053	-0,044
-519,160	369,214	-0,041	-0,060
-518,145	116,144	-0,075	0,066
-517,131	153,154	-0,152	0,149
-516,116	-200,000	0,006	-0,157
-515,102	-133,379	0,095	-0,008
-514,087	-86,887	-0,211	0,046
-513,072	-200,000	-0,049	-0,157
-512,058	-200,000	0,001	0,048
-511,043	800,000	-0,037	0,105
-510,029	-99,644	0,100	-0,018
-509,014	411,680	0,089	0,136
-507,999	-143,126	-0,034	0,002
-506,985	288,999	-0,064	-0,084
-505,970	-200,000	0,013	-0,084
-504,956	226,089	-0,015	0,017
-503,941	-26,905	-0,071	0,030
-502,926	-200,000	0,002	-0,038
-501,912	453,075	0,027	0,043
-500,897	261,225	0,085	0,106
-499,883	-200,000	-0,040	-0,170
-498,868	57,696	0,191	-0,134
-497,853	800,000	-0,067	-0,135
-496,839	-95,647	0,071	-0,013
-495,824	189,847	0,098	0,106
-494,810	-63,057	0,107	0,031
-493,795	50,880	0,061	-0,041
-492,781	-115,552	0,085	-0,011
-491,766	136,866	-0,048	-0,045
-490,751	12,833	-0,151	-0,083
-489,737	60,362	-0,128	0,091
-488,722	-200,000	-0,011	0,097
-487,708	68,162	-0,143	-0,105
-486,693	-200,000	0,015	0,120
-485,678	245,418	0,027	0,033
-484,664	385,817	0,036	-0,054
-483,649	210,883	-0,081	-0,092
-482,635	-109,481	-0,089	0,013
-481,620	129,484	0,145	0,133
-480,605	-200,000	0,025	0,199
-479,591	-110,143	-0,043	0,006
-478,576	-200,000	-0,010	-0,036
-477,562	493,901	0,081	-0,133
-476,547	64,620	-0,085	0,061
-475,532	592,576	-0,028	-0,049
-474,518	20,346	0,085	-0,049
-473,503	107,532	-0,075	-0,064
-472,489	-99,991	0,078	-0,014
-471,474	-200,000	-0,028	0,094
-470,459	-200,000	-0,001	0,112
-469,445	-102,461	-0,128	-0,022
-468,430	-127,008	-0,035	-0,004
-467,416	39,476	0,149	0,096
-466,401	-200,000	-0,004	0,018
-465,386	-131,354	0,075	0,007
-464,372	376,591	0,005	-0,007
-463,357	800,000	-0,025	-0,062
-462,343	60,912	-0,029	-0,021
-461,328	222,397	-0,085	-0,098
-460,313	-22,392	-0,108	-0,046
-459,299	-81,376	0,085	0,020
-458,284	-200,000	0,107	-0,000
-457,270	-200,000	0,038	-0,122
-456,255	114,082	-0,053	-0,046
-455,241	547,257	0,087	-0,150
-454,226	-178,350	-0,023	-0,000
-453,211	0,275	0,058	0,030
-452,197	-200,000	0,016	0,067
-451,182	57,717	-0,055	0,039
-450,168	16,066	0,079	-0,044
-449,153	108,216	-0,053	0,045
-448,138	-128,851	0,020	0,002
-447,124	-74,608	0,012	-0,003
-446,109	309,210	0,073	0,097
-445,095	476,009	0,063	0,102
-444,080	-200,000	0,013	0,086
-443,065	259,808	-0,102	-0,126
-442,051	318,097	0,048	-0,065
-441,036	800,000	0,087	-0,225
-440,022	-200,000	-0,006	0,022
-439,007	121,992	0,072	0,064
-437,992	-66,997	0,101	-0,028
-436,978	37,647	0,118	0,075
-435,963	-200,000	-0,001	0,054
-434,949	53,431	-0,049	0,033
-433,934	-200,000	0,048	-0,273
-432,919	141,287	-0,115	-0,110
-431,905	82,451	-0,028	0,022
-430,890	46,903	0,069	-0,046
-429,876	-200,000	0,035	-0,149
-428,861	-72,455	0,042	0,011
-427,846	72,101	-0,046	0,035
-426,832	-80,784	-0,046	-0,011
-425,817	-200,000	0,006	0,040
-424,803	10,852	-0,045	-0,024
-423,788	-28,442	-0,148	0,061
-422,773	-103,995	0,060	0,010
-421,759	18,037	0,112	0,064
-420,744	80,906	0,066	-0,051
-419,730	-69,197	-0,114	0,031
-418,715	800,000	-0,062	-0,127
-417,701	-200,000	-0,040	-0,143
-416,686	384,417	0,041	0,061
-415,671	224,202	0,034	-0,039
-414,657	453,207	-0,045	-0,071
-413,642	559,025	0,107	-0,185
-412,628	800,000	-0,029	-0,079
-411,613	144,839	0,096	-0,092
-410,598	65,206	-0,059	0,043
-409,584	-200,000	0,013	0,047
-408,569	66,970	-0,134	0,098
-407,555	201,447	-0,032	0,036
-406,540	77,525	0,078	0,060
-405,525	295,514	-0,100	-0,132
-404,511	800,000	0,056	-0,117
-403,496	203,473	-0,078	-0,086
-402,482	17,744	-0,023	-0,013
-401,467	-200,000	-0,001	-0,006
-400,452	518,945	0,041	0,069
-399,438	-200,000	0,035	-0,130
-398,423	-122,276	-0,075	0,009
-397,409	107,054	-0,058	-0,049
-396,394	800,000	0,034	-0,086
-395,379	-197,584	-0,036	-0,000
-394,365	800,000	0,053	-0,123
-393,350	800,000	-0,004	-0,009
-392,336	646,717	0,095	0,174
-391,321	800,000	-0,036	0,101
-390,306	-200,000	0,002	0,086
-389,292	-91,478	0,050	0,010
-388,277	460,816	0,032	-0,052
-387,263	-200,000	0,006	-0,039
-386,248	-34,515	0,038	-0,015
-385,233	-200,000	-0,007	0,051
-384,219	614,951	0,012	0,022
-383,204	41,216	0,030	0,020
-382,190	800,000	0,037	-0,075
-381,175	-200,000	-0,004	0,051
-380,160	800,000	0,009	-0,021
-379,146	321,839	-0,027	0,037
-378,131	74,924	-0,006	-0,005
-377,117	-185,260	-0,085	-0,001
-376,102	-31,397	-0,072	-0,029
-375,088	800,000	-0,042	0,091
-374,073	446,303	0,061	0,096
-373,058	-6,639	0,026	0,013
-372,044	174,932	-0,066	-0,068
-371,029	95,860	0,115	0,094
-370,015	-200,000	-0,014	-0,052
-369,000	286,859	-0,051	-0,066
-367,985	-139,030	-0,067	0,005
-366,971	195,189	-0,042	-0,046
-365,956	800,000	0,047	0,138
-364,942	301,885	-0,100	-0,132
-363,927	26,235	0,064	0,038
-362,912	-108,807	0,023	-0,004
-361,898	-200,000	0,010	-0,147
-360,883	-200,000	0,028	0,114
-359,869	-200,000	-0,007	-0,026
-358,854	769,550	-0,013	-0,025
-357,839	-111,468	0,130	-0,019
-356,825	-200,000	-0,005	0,174
-355,810	468,457	0,020	-0,032
-354,796	20,036	0,051	0,029
-353,781	53,745	-0,102	-0,070
-352,766	62,878	-0,117	-0,083
-351,752	-200,000	0,006	0,165
-350,737	800,000	0,055	0,112
-349,723	84,225	0,047	0,037
-348,708	-80,456	0,084	-0,020
-347,693	-0,434	-0,092	0,046
-346,679	800,000	-0,048	-0,122
-345,664	-119,571	0,090	-0,011
-344,650	-98,744	0,113	-0,020
-343,635	60,969	0,074	-0,053
-342,620	-166,275	-0,115	-0,003
-341,606	461,733	-0,026	-0,042
-340,591	211,426	0,048	0,054
-339,577	-55,138	-0,070	0,022
-338,562	60,936	0,072	-0,051
-337,548	-162,474	-0,240	-0,008
-336,533	-40,789	0,074	-0,027
-335,518	-200,000	-0,013	0,077
-334,504	-26,833	0,034	0,014
-333,489	-50,991	-0,082	0,027
-332,475	64,752	-0,018	0,013
-331,460	116,053	0,092	0,080
-330,445	77,847	-0,085	-0,065
-329,431	800,000	-0,017	0,048
-328,416	800,000	0,015	-0,039
-327,402	800,000	0,037	0,102
-326,387	-93,197	0,048	0,009
-325,372	-103,366	-0,023	-0,004
-324,358	12,147	0,115	-0,063
-323,343	-200,000	-0,004	0,094
-322,329	800,000	0,045	0,094
-321,314	53,440	0,078	0,054
-320,299	-90,498	-0,063	-0,013
-319,285	800,000	0,043	0,094
-318,270	-200,000	-0,041	0,158
-317,256	113,037	-0,031	-0,026
-316,241	-21,840	-0,120	0,052
-315,226	-200,000	-0,008	-0,055
-314,212	25,127	0,163	0,097
-313,197	-25,909	-0,091	0,038
-312,183	264,530	0,053	0,066
-311,168	125,523	0,044	-0,040
-310,153	448,586	0,011	0,017
-309,139	17,180	0,012	0,006
-308,124	800,000	-0,036	0,084
-307,110	800,000	-0,026	-0,076
-306,095	800,000	0,029	0,078
-305,080	-40,217	-0,028	0,010
-304,066	-97,800	-0,077	-0,014
-303,051	-200,000	0,015	-0,056
-302,037	-27,189	-0,056	0,023
-301,022	-88,052	0,031	0,006
-300,008	-173,749	0,122	-0,003
-298,993	-99,798	0,038	-0,007
-297,978	-200,000	0,002	0,152
-296,964	-32,395	-0,139	0,055
-295,949	-200,000	0,007	-0,049
-294,935	800,000	0,018	0,040
-293,920	800,000	0,032	0,096
-292,905	433,042	-0,051	0,080
-291,891	473,209	0,025	-0,041
-290,876	82,562	0,103	0,080
-289,862	178,883	-0,049	-0,051
-288,847	339,914	0,006	0,009
-287,832	800,000	-0,031	0,061
-286,818	800,000	-0,008	0,025
-285,803	-110,668	0,026	-0,004
-284,789	153,019	-0,124	-0,121
-283,774	-6,030	0,115	-0,056
-282,759	61,338	-0,052	0,037
-281,745	-200,000	-0,006	0,061
-280,730	-200,000	-0,020	-0,174
-279,716	427,207	-0,040	0,062
-278,701	800,000	0,005	0,011
-277,686	-23,126	0,050	0,021
-276,672	36,490	0,008	-0,005
-275,657	-104,173	-0,101	0,017
-274,643	-127,759	0,042	-0,004
-273,628	31,820	-0,059	0,036
-272,613	800,000	-0,035	0,086
-271,599	800,000	0,035	0,092
-270,584	57,381	0,193	0,134
-269,570	-200,000	-0,015	-0,086
-268,555	6,375	-0,030	0,016
-267,540	36,465	-0,106	-0,066
-266,526	431,814	-0,016	-0,024
-265,511	-23,619	-0,061	-0,026
-264,497	-157,880	-0,073	-0,003
-263,482	357,326	0,023	0,033
-262,467	-200,000	0,006	0,034
-261,453	800,000	0,007	0,017
-260,438	-59,530	-0,186	-0,056
-259,424	231,664	-0,032	0,038
-258,409	-69,211	0,053	-0,014
-257,395	-200,000	0,011	0,057
-256,380	-28,188	0,035	-0,014
-255,365	167,698	0,027	0,028
-254,351	800,000	0,028	0,060
-253,336	800,000	-0,047	-0,107
-252,322	-200,000	-0,024	-0,186
-251,307	421,334	-0,046	-0,070
-250,292	-17,063	-0,058	0,026
-249,278	-200,000	-0,003	-0,026
-248,263	73,454	0,143	-0,106
-247,249	96,429	0,128	0,104
-246,234	-96,371	-0,099	0,018
-245,219	-200,000	-0,018	-0,124
-244,205	800,000	-0,011	0,026
-243,190	347,214	0,026	-0,037
-242,176	800,000	0,051	0,103
-241,161	-200,000	-0,033	0,125
-240,146	316,001	0,067	0,090
-239,132	-1,771	-0,015	0,007
-238,117	-200,000	-0,011	-0,140
-237,103	-200,000	0,037	-0,150
-236,088	-68,007	-0,035	-0,010
-235,073	-144,748	0,092	0,006
-234,059	103,101	-0,099	0,083
-233,044	-200,000	0,015	-0,091
-232,030	-54,415	-0,073	-0,024
-231,015	-200,000	-0,003	-0,158
-230,000	-55,881	0,084	-0,027
-228,986	-114,353	0,068	-0,009
-227,971	-130,940	0,076	0,007
-226,957	403,845	-0,069	0,104
-225,942	463,151	0,014	0,022
-224,927	260,365	-0,013	0,016
-223,913	-200,000	-0,010	0,089
-222,898	-200,000	0,006	-0,066
-221,884	800,000	-0,051	-0,132
-220,869	-200,000	-0,010	-0,077
-219,855	-200,000	0,013	0,089
-218,840	-105,259	0,062	-0,010
-217,825	519,282	-0,106	0,176
-216,811	19,542	-0,069	0,040
-215,796	-200,000	0,009	0,122
-214,782	-116,322	0,059	0,008
-213,767	-200,000	-0,004	0,023
-212,752	-159,402	0,079	-0,003
-211,738	101,163	0,079	0,065
-210,723	467,921	0,120	0,191
-209,709	-82,615	-0,046	-0,010
-208,694	84,051	-0,035	0,027
-207,679	371,173	-0,049	-0,070
-206,665	-14,956	0,083	-0,038
-205,650	-79,943	0,145	0,034
-204,636	-5,222	-0,160	0,078
-203,621	-63,302	0,102	0,030
-202,606	-200,000	0,001	-0,031
-201,592	310,760	0,023	0,030
-200,577	-115,837	-0,089	0,012
-199,563	-200,000	0,002	0,013
-198,548	-200,000	0,037	0,117
-197,533	38,126	0,023	0,014
-196,519	800,000	-0,035	-0,091
-195,504	-200,000	0,002	-0,062
-194,490	-10,789	-0,068	0,032
-193,475	-164,396	-0,118	-0,004
-192,460	-90,579	-0,011	-0,002
-191,446	15,984	0,105	-0,058
-190,431	-91,440	0,180	-0,036
-189,417	245,822	0,066	-0,079
-188,402	259,609	-0,058	0,071
-187,387	623,758	-0,059	-0,107
-186,373	-200,000	0,001	-0,012
-185,358	237,140	0,039	0,045
-184,344	102,182	-0,073	-0,060
-183,329	-200,000	-0,002	0,015
-182,315	-118,393	0,091	-0,011
-181,300	-27,749	-0,113	-0,046
-180,285	121,906	-0,033	0,029
-179,271	50,565	-0,113	-0,076
-178,256	-200,000	0,008	0,026
-177,242	-200,000	-0,044	0,140
-176,227	282,447	-0,035	-0,045
-175,212	-200,000	0,001	0,097
-174,198	558,437	-0,050	0,086
-173,183	-66,987	-0,177	-0,049
-172,169	-200,000	0,001	-0,006
-171,154	-28,092	-0,094	-0,038
-170,139	-200,000	-0,002	-0,049
-169,125	-99,011	0,238	-0,042
-168,110	-90,931	0,092	0,019
-167,096	97,423	-0,088	0,072
-166,081	794,900	-0,040	-0,079
-165,066	312,509	-0,088	0,117
-164,052	-116,266	-0,080	0,010
-163,037	146,205	0,100	-0,095
-162,023	-200,000	0,003	0,015
-161,008	800,000	0,016	0,043
-159,993	-24,871	0,042	-0,018
-158,979	-53,970	-0,019	-0,006
-157,964	800,000	-0,030	-0,065
-156,950	488,198	-0,028	0,045
-155,935	-56,877	0,173	0,054
-154,920	-44,686	0,111	0,039
-153,906	-24,627	-0,058	0,024
-152,891	-22,063	-0,003	-0,001
-151,877	517,565	-0,046	-0,077
-150,862	598,587	-0,057	-0,100
-149,847	-200,000	0,009	-0,192
-148,833	-37,766	0,095	-0,036
-147,818	16,054	0,040	-0,023
-146,804	159,867	0,024	-0,024
-145,789	-31,038	-0,060	0,024
-144,775	39,863	0,043	-0,027
-143,760	82,204	0,048	0,037
-142,745	-200,000	0,010	-0,040
-141,731	-6,565	0,083	-0,040
-140,716	745,971	-0,036	0,070
-139,702	206,104	0,037	-0,040
-138,687	437,553	-0,041	0,063
-137,672	-200,000	0,027	0,089
-136,658	95,344	0,054	-0,044
-135,643	451,540	0,046	-0,072
-134,629	194,652	0,062	-0,067
-133,614	-200,000	-0,019	0,098
-132,599	-200,000	-0,001	-0,020
-131,585	800,000	0,078	0,154
-130,570	353,399	0,062	-0,088
-129,556	-200,000	0,017	-0,081
-128,541	305,439	0,025	0,033
-127,526	-200,000	-0,011	0,092
-126,512	800,000	0,001	-0,002
-125,497	-200,000	0,007	0,082
-124,483	72,219	0,066	-0,049
-123,468	198,381	-0,079	-0,085
-122,453	-24,746	0,128	-0,053
-121,439	-200,000	-0,044	-0,155
-120,424	129,890	-0,053	-0,048
-119,410	507,381	0,070	0,116
-118,395	800,000	0,022	0,058
-117,380	370,186	0,087	0,125
-116,366	470,682	-0,121	-0,193
-115,351	231,695	-0,059	-0,068
-114,337	-200,000	0,003	0,049
-113,322	75,479	-0,137	-0,102
-112,307	130,396	0,023	0,020
-111,293	-29,797	0,115	0,046
-110,278	-200,000	-0,007	0,112
-109,264	-200,000	0,006	0,029
-108,249	-200,000	-0,005	0,064
-107,234	8,704	-0,100	0,053
-106,220	800,000	-0,026	-0,074
-105,205	-32,959	0,152	-0,060
-104,191	-1,495	-0,088	0,044
-103,176	-127,403	0,080	-0,008
-102,162	-67,365	0,128	-0,035
-101,147	-200,000	-0,002	-0,013
-100,132	94,158	0,105	0,084
-99,118	-65,334	-0,116	-0,033
-98,103	666,491	-0,024	0,044
-97,089	251,709	-0,046	0,055
-96,074	-80,629	0,038	0,009
-95,059	97,044	0,083	-0,067
-94,045	80,927	-0,161	-0,123
-93,030	-200,000	0,008	-0,088
-92,016	182,747	0,025	-0,026
-91,001	14,063	0,048	0,027
-89,986	800,000	-0,042	0,086
-88,972	-123,424	0,049	-0,005
-87,957	5,374	-0,063	0,033
-86,943	228,451	0,087	-0,100
-85,928	-87,295	-0,063	0,013
-84,913	-200,000	0,057	0,193
-83,899	-200,000	0,032	0,123
-82,884	-200,000	0,001	-0,140
-81,870	-1,169	0,070	-0,035
-80,855	-200,000	0,007	0,051
-79,840	-63,408	-0,077	0,022
-78,826	-200,000	-0,019	-0,203
-77,811	612,763	-0,037	-0,065
-76,797	-90,840	-0,059	-0,012
-75,782	800,000	-0,041	-0,087
-74,767	-200,000	-0,006	-0,022
-73,753	37,239	0,117	-0,073
-72,738	-78,092	0,113	-0,027
-71,724	-67,997	-0,038	-0,010
-70,709	-25,747	0,060	-0,025
-69,694	320,560	-0,036	0,048
-68,680	318,001	-0,082	0,109
-67,665	-200,000	-0,020	0,112
-66,651	-132,543	0,068	-0,006
-65,636	-200,000	0,033	0,217
-64,622	-37,223	-0,041	0,015
-63,607	297,553	0,059	-0,077
-62,592	147,822	-0,088	-0,084
-61,578	-39,705	-0,029	0,011
-60,563	268,724	-0,065	0,081
-59,549	-200,000	-0,008	0,031
-58,534	44,489	-2,066	-1,337
-57,519	395,023	-1,308	-1,931
-56,505	-200,000	-0,263	-4,396
-55,490	507,381	0,950	1,561
-54,476	800,000	5,230	11,420
-53,461	-200,000	21,920	337,791
-52,446	800,000	758,478	2293,716
-51,432	532,345	1652,210	2769,584
-50,417	69,046	1650,083	1195,198
-49,403	16,502	1525,020	847,748
-48,388	10,734	1449,650	778,089
-47,373	18,994	1441,649	813,205
-46,359	14,088	1430,219	783,520
-45,344	9,008	1426,447	757,353
-44,330	8,965	1424,544	756,108
-43,315	8,922	1422,642	754,867
-42,300	8,998	1420,692	754,160
-41,286	8,967	1419,840	753,532
-40,271	8,933	1418,416	752,586
-39,257	8,918	1417,187	751,831
-38,242	8,969	1416,131	751,482
-37,227	9,000	1415,041	751,018
-36,213	8,977	1413,728	750,186
-35,198	8,993	1412,493	749,575
-34,184	8,985	1411,481	748,970
-33,169	8,891	1410,207	747,822
-32,154	8,996	1409,147	747,723
-31,140	8,969	1407,743	746,824
-30,125	9,006	1406,796	746,466
-29,111	8,950	1405,725	745,605
-28,096	8,960	1404,537	744,994
-27,082	8,906	1403,359	744,084
-26,067	8,875	1402,162	743,275
-25,052	8,881	1401,371	742,857
-24,038	8,896	1400,504	742,437
-23,023	8,894	1399,393	741,808
-22,009	8,907	1398,280	741,251
-20,994	8,876	1397,177	740,490
-19,979	8,885	1396,607	740,201
-18,965	8,875	1395,459	739,518
-17,950	8,819	1394,510	738,724
-16,936	8,862	1393,502	738,362
-15,921	8,801	1392,545	737,541
-14,906	8,821	1391,734	737,178
-13,892	8,856	1390,610	736,712
-12,877	8,819	1390,053	736,217
-11,863	8,826	1389,097	735,713
-10,848	8,789	1388,094	734,985
-9,833	8,806	1387,306	734,615
-8,819	8,719	1386,339	733,672
-7,804	8,723	1385,463	733,198
-6,790	8,727	1384,412	732,632
-5,775	8,722	1383,500	732,099
-4,760	8,718	1382,417	731,475
-3,746	8,743	1381,482	731,068
-2,731	8,774	1380,660	730,744
-1,717	8,704	1380,076	730,087
-0,702	8,732	1378,051	729,116
0,313	12,814	1289,649	700,868
1,327	28,842	681,948	406,552
2,342	44,972	117,388	76,094
3,356	0,150	16,375	8,205
4,371	3,278	3,786	1,937
5,386	11,104	1,253	0,674
6,400	-200,000	0,156	0,664
7,415	-156,317	-0,234	0,010
8,429	73,942	-0,212	-0,156
9,444	4,678	-0,297	-0,153
10,459	-81,067	-0,236	-0,055
11,473	-102,633	-0,314	-0,052
12,488	-13,458	-0,353	-0,161
13,502	49,543	-0,353	-0,234
14,517	-67,639	-0,397	-0,109
15,531	-74,967	-0,347	-0,087
16,546	18,686	-0,301	-0,169
17,561	44,265	-0,313	-0,202
18,575	-86,031	-0,226	0,049
19,590	800,000	-0,117	-0,258
20,604	65,645	-0,074	-0,053
21,619	69,734	-0,437	-0,316
22,634	211,331	-0,301	-0,334
23,648	104,493	-0,343	-0,284
24,663	44,450	-0,420	-0,271
25,677	-13,784	-0,399	-0,181
26,692	14,941	-0,414	-0,228
27,707	120,717	-0,295	-0,258
28,721	117,995	-0,334	-0,289
29,736	77,637	-0,301	-0,225
30,750	56,732	-0,399	-0,273
31,765	5,973	-0,319	-0,166
32,780	-15,206	-0,423	-0,190
33,794	42,146	-0,301	-0,192
34,809	274,620	-0,208	-0,259
35,823	-52,437	-0,277	-0,090
36,838	113,472	-0,316	-0,270
37,853	208,035	-0,361	-0,397
38,867	159,985	-0,303	-0,297
39,882	-88,473	-0,245	-0,051
40,896	55,515	-0,341	-0,232
41,911	52,764	-0,287	-0,193
42,926	81,886	-0,408	-0,310
43,940	270,484	-0,263	-0,326
44,955	124,571	-0,346	-0,306
45,969	85,531	-0,256	-0,197
46,984	46,271	-0,377	-0,245
47,999	62,713	-0,384	-0,270
49,013	-7,499	-0,379	-0,180
50,028	45,742	-0,358	-0,232
51,042	137,492	-0,318	-0,293
52,057	-16,243	-0,329	-0,146
53,071	207,978	-0,299	-0,328
54,086	253,811	-0,227	-0,273
55,101	800,000	-0,161	-0,336
56,115	98,466	-0,335	-0,271
57,130	-90,052	-0,370	-0,075
58,144	14,472	-0,356	-0,194
59,159	187,039	-0,292	-0,306
60,174	155,954	-0,314	-0,304
61,188	54,127	-0,315	-0,212
62,203	69,050	-0,361	-0,260
63,217	354,153	-0,189	-0,264
64,232	72,640	-0,325	-0,237
65,247	13,890	-0,488	-0,266
66,261	-17,196	-0,362	-0,159
67,276	249,386	-0,285	-0,340
68,290	-0,784	-0,321	-0,159
69,305	-33,699	-0,211	-0,081
70,320	116,484	-0,263	-0,226
71,334	47,494	-0,282	-0,184
72,349	146,948	-0,254	-0,240
73,363	800,000	-0,174	-0,347
74,378	65,641	-0,420	-0,298
75,393	-77,798	-0,338	-0,081
76,407	-27,574	-0,327	-0,133
77,422	426,016	-0,211	-0,319
78,436	-39,345	-0,347	-0,127
79,451	149,738	-0,306	-0,291
80,466	-12,438	-0,418	-0,191
81,480	145,587	-0,369	-0,347
82,495	269,568	-0,205	-0,253
83,509	48,784	-0,296	-0,194
84,524	65,566	-0,280	-0,198
85,539	-22,985	-0,278	-0,117
86,553	-80,152	-0,275	-0,064
87,568	-53,556	-0,391	-0,124
88,582	23,052	-0,418	-0,239
89,597	-29,856	-0,332	-0,132
90,611	-54,600	-0,309	-0,097
91,626	798,202	-0,094	-0,181
92,641	-3,528	-0,267	-0,130
93,655	166,657	-0,230	-0,229
94,670	-59,500	-0,347	-0,104
95,684	99,754	-0,370	-0,300
96,699	115,546	-0,231	-0,197
97,714	107,778	-0,287	-0,239
98,728	33,190	-0,319	-0,193
99,743	93,689	-0,282	-0,223
100,757	-145,235	-0,272	-0,017
101,772	57,872	-0,246	-0,168
102,787	56,659	-0,436	-0,296
103,801	-14,806	-0,306	-0,137
104,816	114,268	-0,332	-0,282
105,830	-11,025	-0,226	-0,104
106,845	142,208	-0,170	-0,158
107,860	5,798	-0,334	-0,172
108,874	465,218	-0,212	-0,333
109,889	28,940	-0,213	-0,126
110,903	548,725	-0,181	-0,305
111,918	-84,647	-0,270	-0,059
112,933	98,955	-0,237	-0,191
113,947	26,141	-0,257	-0,149
114,962	-17,418	-0,220	-0,096
115,976	137,761	-0,233	-0,213
116,991	52,806	-0,344	-0,229
118,006	140,015	-0,143	-0,132
119,020	800,000	-0,068	-0,179
120,035	-36,808	-0,267	-0,099
121,049	-102,604	-0,259	0,043
122,064	-68,330	-0,193	-0,052
123,079	188,361	-0,200	-0,209
124,093	-19,317	-0,348	-0,150
125,108	51,865	-0,400	-0,265
126,122	-35,132	-0,285	-0,108
127,137	-105,217	-0,284	-0,045
128,151	81,323	-0,136	-0,102
129,166	-37,838	-0,274	-0,101
130,181	22,785	-0,194	-0,110
131,195	35,286	-0,247	-0,150
132,210	24,079	-0,169	-0,097
133,224	-21,247	-0,354	-0,150
134,239	239,104	-0,226	-0,262
135,254	30,903	-0,298	-0,177
136,268	24,558	-0,359	-0,207
137,283	-22,370	-0,296	-0,124
138,297	58,757	-0,280	-0,191
139,312	147,253	-0,259	-0,243
140,327	280,671	-0,166	-0,208
141,341	290,068	-0,242	-0,307
142,356	-72,500	-0,144	-0,037
143,370	-110,126	-0,241	-0,035
144,385	10,862	-0,322	-0,171
145,400	93,194	-0,266	-0,209
146,414	223,610	-0,234	-0,263
147,429	191,411	-0,183	-0,192
148,443	-81,090	-0,130	-0,030
149,458	102,363	-0,271	-0,221
150,473	86,327	-0,278	-0,213
151,487	74,191	-0,093	-0,068
152,502	194,473	-0,113	-0,119
153,516	800,000	-0,121	-0,271
154,531	-46,039	-0,306	-0,104
155,546	-126,305	-0,194	-0,020
156,560	537,336	-0,163	-0,271
157,575	148,224	-0,205	-0,192
158,589	-139,460	-0,164	0,012
159,604	62,920	-0,304	-0,211
160,619	178,246	-0,281	-0,286
161,633	338,824	-0,102	-0,138
162,648	610,747	-0,099	-0,172
163,662	-98,489	-0,180	-0,032
164,677	64,166	-0,176	-0,123
165,692	6,282	-0,213	-0,110
166,706	-1,529	-0,140	-0,068
167,721	-90,592	-0,212	-0,042
168,735	-45,384	-0,318	-0,109
169,750	44,182	-0,169	-0,107
170,764	12,685	-0,302	-0,161
171,779	46,533	-0,189	-0,122
172,794	-43,461	-0,303	-0,106
173,808	-129,055	-0,166	-0,016
174,823	75,981	-0,314	-0,231
175,837	6,058	-0,199	-0,102
176,852	270,059	-0,153	-0,187
177,867	-61,463	-0,274	-0,080
178,881	44,182	-0,270	-0,172
179,896	259,785	-0,203	-0,244
180,910	-40,707	-0,284	-0,102
181,925	-48,903	-0,307	-0,101
182,940	133,134	-0,193	-0,173
183,954	39,719	-0,398	-0,248
184,969	-65,097	-0,212	-0,059
185,983	149,467	-0,185	-0,174
186,998	44,509	-0,232	-0,148
188,013	74,681	-0,209	-0,152
189,027	111,507	-0,321	-0,269
190,042	-200,000	-0,024	-0,265
191,056	256,087	-0,124	-0,148
192,071	43,745	-0,265	-0,168
193,086	-119,296	-0,210	0,025
194,100	64,005	-0,140	-0,097
195,115	-33,434	-0,276	-0,105
196,129	141,110	-0,309	-0,284
197,144	-2,588	-0,274	-0,132
198,159	121,362	-0,229	-0,198
199,173	-40,761	-0,268	-0,096
200,188	531,420	-0,160	-0,263
201,202	560,551	-0,127	-0,214
202,217	159,111	-0,186	-0,180
203,232	93,800	-0,130	-0,102
204,246	207,157	-0,227	-0,245
205,261	381,865	-0,185	-0,264
206,275	47,709	-0,113	-0,073
207,290	117,471	-0,058	0,049
208,304	80,967	-0,135	-0,101
209,319	80,156	-0,215	-0,160
210,334	227,654	-0,143	-0,161
211,348	37,890	-0,250	-0,153
212,363	-200,000	-0,007	-0,140
213,377	-38,587	-0,225	-0,082
214,392	166,845	-0,169	-0,166
215,407	-26,015	-0,212	-0,086
216,421	-102,473	-0,147	-0,024
217,436	283,203	-0,112	-0,139
218,450	194,855	-0,180	-0,189
219,465	-57,014	-0,288	-0,087
220,480	-59,096	-0,200	-0,059
221,494	-74,387	-0,173	-0,043
222,509	12,379	-0,209	-0,111
223,523	89,542	-0,256	-0,197
224,538	45,581	-0,236	-0,150
225,553	-29,787	-0,150	-0,059
226,567	693,002	-0,160	-0,292
227,582	211,536	-0,219	-0,239
228,596	253,991	-0,134	-0,159
229,611	800,000	-0,030	-0,078
230,626	492,836	-0,113	-0,180
231,640	57,312	-0,161	-0,108
232,655	192,588	-0,273	-0,285
233,669	-76,581	-0,291	-0,070
234,684	429,608	-0,198	-0,297
235,699	7,972	-0,252	-0,130
236,713	0,010	-0,237	-0,116
237,728	212,181	-0,092	-0,101
238,742	-92,702	-0,104	-0,020
239,757	585,905	-0,123	-0,209
240,772	227,949	-0,087	-0,098
241,786	23,216	-0,221	-0,125
242,801	-118,769	-0,214	-0,026
243,815	20,711	-0,151	-0,084
244,830	176,808	-0,154	-0,155
245,844	704,513	-0,133	-0,242
246,859	-72,302	-0,289	-0,073
247,874	-40,360	-0,254	-0,091
248,888	618,417	-0,123	-0,214
249,903	197,622	-0,152	-0,160
250,917	-102,461	-0,168	0,027
251,932	234,935	-0,101	-0,116
252,947	51,347	-0,208	-0,136
253,961	101,733	-0,192	-0,155
254,976	16,624	-0,172	-0,094
255,990	444,672	-0,156	-0,237
257,005	24,516	-0,169	-0,096
258,020	800,000	-0,135	-0,258
259,034	280,890	-0,091	-0,113
260,049	-178,239	-0,099	0,002
261,063	171,453	-0,186	-0,184
262,078	-26,128	-0,210	-0,085
263,093	63,334	-0,226	-0,156
264,107	64,872	-0,113	-0,079
265,122	245,181	-0,133	-0,155
266,136	68,155	-0,149	-0,105
267,151	-113,981	-0,149	-0,020
268,166	-69,238	-0,197	-0,052
269,180	98,194	-0,361	-0,286
270,195	800,000	-0,156	-0,367
271,209	251,048	-0,080	-0,094
272,224	52,405	-0,195	-0,128
273,239	-17,641	-0,131	-0,056
274,253	566,953	-0,082	-0,138
275,268	19,540	-0,189	-0,104
276,282	590,771	-0,111	-0,189
277,297	800,000	-0,099	-0,208
278,312	113,823	-0,156	-0,131
279,326	475,159	-0,118	-0,183
280,341	28,200	-0,171	-0,099
281,355	-94,950	-0,124	0,023
282,370	122,202	-0,130	-0,112
283,384	147,262	-0,184	-0,170
284,399	152,736	-0,188	-0,177
285,414	132,883	-0,136	-0,121
286,428	552,026	-0,100	-0,165
287,443	167,225	-0,043	-0,042
288,457	45,783	-0,183	-0,116
289,472	82,280	-0,054	-0,041
290,487	231,832	-0,137	-0,155
291,501	-138,498	-0,203	-0,015
292,516	-95,949	-0,157	0,028
293,530	-95,292	-0,178	-0,033
294,545	-200,000	0,017	-0,117
295,560	147,504	-0,111	-0,103
296,574	219,488	-0,170	-0,188
297,589	39,897	-0,253	-0,156
298,603	-14,645	-0,184	-0,081
299,618	725,672	-0,104	-0,192
300,633	75,774	-0,122	-0,089
301,647	747,018	-0,083	-0,154
302,662	50,816	-0,079	-0,051
303,676	278,283	0,071	-0,087
304,691	404,313	-0,096	-0,139
305,706	800,000	-0,082	-0,189
306,720	69,044	-0,184	-0,130
307,735	751,139	-0,066	-0,123
308,749	-200,000	-0,008	-0,117
309,764	287,333	-0,115	-0,143
310,779	26,063	-0,108	-0,062
311,793	185,671	-0,159	-0,163
312,808	347,963	-0,132	-0,179
313,822	-68,932	-0,246	-0,065
314,837	-169,269	-0,299	0,007
315,852	238,313	-0,100	-0,114
316,866	-83,417	-0,210	-0,046
317,881	370,055	-0,143	-0,199
318,895	-30,161	-0,180	-0,070
319,910	-130,240	-0,191	-0,018
320,925	-38,135	-0,249	-0,090
321,939	415,259	-0,091	-0,133
322,954	-5,934	-0,207	-0,097
323,968	-200,000	-0,022	-0,221
324,983	-13,238	-0,230	-0,102
325,997	178,618	-0,167	-0,167
327,012	-145,335	-0,120	-0,007
328,027	693,201	-0,154	-0,278
329,041	-200,000	-0,034	-0,131
330,056	-77,403	0,086	-0,020
331,070	-200,000	-0,050	-0,171
332,085	52,429	-0,141	-0,092
333,100	528,635	-0,119	-0,193
334,114	78,249	-0,210	-0,153
335,129	380,228	-0,138	-0,194
336,143	-55,822	-0,189	-0,057
337,158	174,561	-0,145	-0,143
338,173	246,867	-0,042	-0,049
339,187	121,571	-0,071	-0,060
340,202	363,288	-0,208	-0,287
341,216	800,000	-0,074	-0,185
342,231	-30,408	-0,179	-0,069
343,246	463,539	-0,072	-0,110
344,260	320,966	-0,085	-0,110
345,275	536,983	-0,044	0,071
346,289	-40,886	-0,078	-0,027
347,304	352,718	-0,115	-0,157
348,319	600,096	-0,104	-0,178
349,333	522,262	-0,099	-0,160
350,348	78,657	-0,137	-0,100
351,362	580,075	-0,099	-0,167
352,377	-75,333	-0,139	-0,034
353,392	29,538	-0,148	-0,086
354,406	15,641	-0,175	-0,094
355,421	207,981	1304,375	1394,858
356,435	160,014	1463,805	1395,321
