DTS Sentinel unit serial number:	SN410029Multiplexer serial number:	ORYXHardware model number:	OX2-SRSoftware version number:	ORYX F/W v4,00 Oryx Data Collector v3.7.2.0data status	okinstallation	B3 Nyhavnadifferential loss correction	single-endedforward channel	channel 1reverse channel	N/Adate	2023/12/01time	00:52:30forward acquisition time	300,00reverse acquisition time	0,00gamma	499,1914k internal	0,3211k external	0,3211temperature offset calibration	1,0000default loss term (dB/km)	0,3820temperature slope calibration	1,0000multiplexer offset coefficient	1,0000multiplexer slope coefficient	1,0000fibre end	0,00T internal ref (°C)	9,07T ext. ref 1 (°C)	-5,98T ext. ref 2 (°C)	-6,11length (m)	temperature (°C)	Stokes	anti-Stokes-744,400	422,984	-0,127	-0,198
-743,385	-200,000	-0,072	0,372
-742,371	800,000	-0,096	-0,210
-741,356	-200,000	-0,012	0,378
-740,342	-200,000	-0,034	-0,228
-739,327	591,021	-0,114	0,205
-738,312	79,359	-0,293	-0,228
-737,298	-200,000	-0,078	0,263
-736,283	230,485	-0,216	-0,256
-735,269	800,000	0,118	0,278
-734,254	-200,000	-0,025	-0,318
-733,239	-156,882	-0,208	-0,009
-732,225	364,981	-0,073	-0,107
-731,210	-200,000	0,033	0,113
-730,196	-200,000	0,001	0,042
-729,181	-190,809	0,049	-0,000
-728,167	-200,000	0,012	-0,142
-727,152	-200,000	0,001	-0,055
-726,137	237,730	0,054	-0,064
-725,123	420,788	-0,010	-0,016
-724,108	91,948	0,103	-0,084
-723,094	574,404	-0,048	-0,085
-722,079	-55,887	0,061	0,020
-721,064	103,449	0,062	0,053
-720,050	32,438	-0,089	0,055
-719,035	-200,000	0,022	0,118
-718,021	800,000	0,046	-0,096
-717,006	-45,873	-0,250	0,089
-715,991	587,568	-0,046	-0,083
-714,977	111,425	-0,016	-0,014
-713,962	76,045	0,024	-0,019
-712,948	-200,000	0,003	0,088
-711,933	565,712	0,021	0,037
-710,918	-200,000	0,015	0,095
-709,904	-200,000	-0,011	-0,042
-708,889	663,521	0,031	-0,058
-707,875	295,265	-0,106	-0,141
-706,860	259,381	-0,090	-0,112
-705,845	104,706	0,024	-0,021
-704,831	684,946	-0,023	0,044
-703,816	-200,000	0,000	0,165
-702,802	165,557	-0,033	0,034
-701,787	18,196	-0,125	-0,072
-700,772	411,865	-0,040	-0,062
-699,758	-200,000	0,015	-0,053
-698,743	-200,000	0,030	0,095
-697,729	-93,977	-0,034	-0,007
-696,714	-72,788	-0,045	-0,012
-695,699	800,000	-0,043	-0,089
-694,685	-45,936	-0,120	0,043
-693,670	-200,000	-0,006	0,071
-692,656	196,238	-0,091	0,100
-691,641	-140,658	0,091	0,007
-690,627	209,793	0,034	-0,039
-689,612	357,289	0,038	0,056
-688,597	-200,000	0,012	0,062
-687,583	-69,539	-0,087	0,024
-686,568	25,867	-0,031	-0,019
-685,554	800,000	0,036	-0,110
-684,539	-200,000	-0,019	0,070
-683,524	-121,159	0,121	-0,014
-682,510	47,227	0,134	0,090
-681,495	153,330	-0,058	-0,057
-680,481	209,586	0,040	0,046
-679,466	36,080	-0,006	0,004
-678,451	800,000	-0,050	0,113
-677,437	-200,000	0,010	-0,106
-676,422	-200,000	-0,014	-0,086
-675,408	-79,194	0,218	0,053
-674,393	-53,978	-0,206	0,067
-673,378	144,524	-0,045	0,044
-672,364	-131,385	-0,119	0,011
-671,349	6,975	-0,127	-0,068
-670,335	-80,116	0,058	-0,014
-669,320	-101,444	0,068	0,012
-668,305	-145,390	0,090	-0,006
-667,291	-200,000	-0,008	0,062
-666,276	468,566	0,043	-0,071
-665,262	209,753	-0,076	0,086
-664,247	-4,375	-0,102	-0,051
-663,232	-118,826	-0,118	0,015
-662,218	-42,012	-0,143	-0,053
-661,203	-78,756	0,031	-0,008
-660,189	505,436	0,045	0,076
-659,174	131,727	-0,008	0,007
-658,159	-200,000	0,015	-0,066
-657,145	719,170	-0,001	-0,002
-656,130	800,000	0,039	0,098
-655,116	161,461	0,067	-0,067
-654,101	-38,054	-0,048	-0,018
-653,086	-200,000	-0,028	0,183
-652,072	82,504	-0,051	0,040
-651,057	-200,000	-0,003	-0,122
-650,043	-200,000	0,075	-0,000
-649,028	114,380	-0,050	0,044
-648,014	-62,986	0,092	-0,027
-646,999	88,556	-0,064	0,051
-645,984	-200,000	-0,013	0,078
-644,970	-39,788	0,061	-0,023
-643,955	-46,281	-0,068	0,024
-642,941	140,310	0,097	0,093
-641,926	69,156	-0,121	0,090
-640,911	-7,942	0,101	-0,049
-639,897	91,935	-0,085	0,069
-638,882	-200,000	0,005	-0,023
-637,868	800,000	0,036	0,093
-636,853	-45,236	-0,019	0,007
-635,838	-42,020	-0,075	-0,028
-634,824	413,570	-0,027	0,041
-633,809	-200,000	-0,000	-0,078
-632,795	132,136	0,023	-0,021
-631,780	234,377	-0,014	-0,016
-630,765	751,004	-0,058	-0,113
-629,751	173,283	-0,096	-0,100
-628,736	-121,212	-0,117	-0,014
-627,722	-200,000	0,006	-0,107
-626,707	657,564	0,040	-0,074
-625,692	-35,675	-0,085	-0,033
-624,678	800,000	0,037	0,111
-623,663	189,870	0,114	-0,123
-622,649	-44,346	-0,120	-0,043
-621,634	-200,000	0,003	0,034
-620,619	30,562	-0,188	-0,116
-619,605	766,862	-0,037	-0,074
-618,590	169,486	0,093	0,096
-617,576	-49,681	0,169	-0,058
-616,561	-200,000	0,024	0,076
-615,546	-43,167	-0,117	-0,042
-614,532	173,726	-0,054	-0,056
-613,517	347,463	0,078	-0,111
-612,503	557,689	-0,028	-0,049
-611,488	471,727	0,069	0,113
-610,474	298,778	-0,083	-0,110
-609,459	-29,816	-0,083	0,034
-608,444	-137,193	-0,059	-0,005
-607,430	-153,824	0,108	0,005
-606,415	201,378	0,060	-0,067
-605,401	329,401	0,028	-0,039
-604,386	226,473	0,061	0,072
-603,371	267,359	0,046	0,058
-602,357	320,291	0,072	0,099
-601,342	174,156	0,089	-0,093
-600,328	-109,453	-0,060	0,009
-599,313	-200,000	0,011	-0,155
-598,298	308,489	0,090	-0,121
-597,284	32,451	0,082	0,051
-596,269	-75,637	-0,056	-0,014
-595,255	65,980	0,105	0,076
-594,240	13,077	0,118	-0,065
-593,225	-135,600	-0,244	0,021
-592,211	583,924	-0,070	0,125
-591,196	-165,543	0,135	-0,004
-590,182	44,380	-0,062	-0,041
-589,167	153,976	-0,092	0,091
-588,152	-164,362	0,122	0,004
-587,138	55,456	-0,032	-0,023
-586,123	-4,387	-0,214	-0,106
-585,109	769,012	0,012	-0,024
-584,094	-200,000	0,001	-0,067
-583,079	-97,564	0,091	0,017
-582,065	210,202	0,025	-0,028
-581,050	-200,000	0,011	0,146
-580,036	5,458	-0,116	-0,061
-579,021	-23,076	-0,113	0,049
-578,006	-5,041	-0,125	-0,062
-576,992	207,155	-0,052	0,059
-575,977	344,238	-0,091	-0,128
-574,963	-200,000	-0,032	-0,131
-573,948	204,389	0,169	0,189
-572,934	-38,114	-0,154	0,059
-571,919	-200,000	-0,036	-0,174
-570,904	165,853	0,154	-0,157
-569,890	-200,000	-0,007	-0,095
-568,875	800,000	0,045	0,130
-567,861	-47,538	0,092	-0,032
-566,846	-75,048	-0,075	-0,019
-565,831	800,000	0,030	0,072
-564,817	800,000	0,041	-0,107
-563,802	800,000	-0,055	-0,149
-562,788	207,693	-0,034	-0,038
-561,773	214,036	-0,027	-0,031
-560,758	179,522	0,042	-0,044
-559,744	-200,000	0,004	0,032
-558,729	494,749	0,077	-0,128
-557,715	-200,000	-0,008	0,085
-556,700	103,933	-0,105	0,089
-555,685	200,870	-0,123	-0,137
-554,671	266,515	-0,023	-0,029
-553,656	800,000	0,070	0,148
-552,642	343,012	0,081	0,115
-551,627	-106,369	-0,037	0,006
-550,612	-65,648	0,084	-0,024
-549,598	14,926	-0,102	0,057
-548,583	800,000	-0,033	-0,079
-547,569	85,829	-0,112	-0,088
-546,554	456,595	-0,030	0,049
-545,539	-100,857	0,048	-0,008
-544,525	-61,514	0,062	0,019
-543,510	731,664	-0,086	-0,166
-542,496	800,000	-0,007	0,016
-541,481	-163,891	-0,071	-0,002
-540,466	-200,000	0,006	-0,085
-539,452	-29,839	0,037	-0,015
-538,437	154,587	-0,080	0,079
-537,423	-68,909	0,084	0,023
-536,408	-200,000	0,000	0,015
-535,393	518,467	0,106	-0,180
-534,379	52,714	-0,130	-0,089
-533,364	70,836	-0,108	-0,080
-532,350	800,000	0,028	0,067
-531,335	1,257	0,032	-0,016
-530,321	-200,000	0,010	-0,071
-529,306	-200,000	-0,022	-0,075
-528,291	126,350	-0,075	-0,069
-527,277	-3,800	0,013	0,007
-526,262	-99,186	0,105	0,019
-525,248	159,615	-0,058	0,059
-524,233	800,000	0,047	0,128
-523,218	175,256	0,144	0,151
-522,204	106,850	-0,064	0,055
-521,189	-27,052	-0,093	-0,039
-520,175	-200,000	-0,024	0,157
-519,160	272,957	-0,059	-0,075
-518,145	466,073	-0,033	0,053
-517,131	262,294	0,109	0,136
-516,116	576,205	0,049	0,087
-515,102	629,741	-0,040	0,073
-514,087	-186,698	-0,070	-0,001
-513,072	-3,079	-0,124	0,062
-512,058	-200,000	-0,024	0,089
-511,043	-134,805	0,073	0,006
-510,029	-200,000	-0,007	-0,039
-509,014	-200,000	-0,072	0,233
-507,999	-200,000	0,008	0,138
-506,985	151,696	0,058	0,057
-505,970	691,992	0,068	-0,128
-504,956	63,894	-0,146	-0,105
-503,941	800,000	-0,037	-0,106
-502,926	-12,955	0,076	0,036
-501,912	-200,000	0,001	0,148
-500,897	116,148	0,025	-0,022
-499,883	-200,000	0,024	-0,152
-498,868	60,793	0,085	-0,060
-497,853	431,778	-0,064	-0,100
-496,839	285,818	-0,086	-0,112
-495,824	154,975	0,029	0,029
-494,810	53,967	0,123	0,085
-493,795	800,000	0,041	0,101
-492,781	-200,000	0,002	-0,108
-491,766	68,324	-0,025	0,018
-490,751	-10,526	0,029	-0,014
-489,737	-200,000	0,009	-0,079
-488,722	-83,371	0,035	0,008
-487,708	104,910	0,120	0,101
-486,693	94,812	-0,132	0,107
-485,678	-200,000	-0,002	-0,076
-484,664	-200,000	0,006	-0,046
-483,649	-200,000	-0,044	-0,207
-482,635	88,987	-0,046	-0,037
-481,620	211,967	0,048	-0,054
-480,605	-0,705	0,048	0,024
-479,591	-92,291	0,039	-0,008
-478,576	9,718	-0,013	0,007
-477,562	-7,299	0,021	-0,010
-476,547	-40,288	0,091	-0,034
-475,532	-106,791	0,077	-0,012
-474,518	800,000	0,034	-0,101
-473,503	-112,936	0,041	0,006
-472,489	-20,104	0,099	0,043
-471,474	-27,203	-0,017	0,007
-470,459	450,154	0,005	0,007
-469,445	800,000	-0,079	-0,201
-468,430	155,519	0,129	-0,127
-467,416	233,874	0,055	-0,065
-466,401	-91,337	0,075	0,015
-465,386	770,366	-0,051	0,100
-464,372	437,817	-0,043	0,068
-463,357	-154,427	-0,037	-0,002
-462,343	-143,918	0,029	-0,002
-461,328	227,535	-0,091	-0,107
-460,313	62,982	0,072	-0,052
-459,299	-62,384	0,115	0,034
-458,284	-26,245	0,052	0,022
-457,270	800,000	-0,025	-0,068
-456,255	-60,851	0,121	0,037
-455,241	68,722	-0,153	-0,113
-454,226	-200,000	0,016	-0,066
-453,211	355,975	0,098	-0,140
-452,197	-102,047	0,073	-0,012
-451,182	799,300	-0,075	-0,149
-450,168	800,000	0,032	0,100
-449,153	293,087	-0,032	-0,042
-448,138	-146,647	0,056	-0,003
-447,124	-130,894	-0,111	0,011
-446,109	-89,319	0,123	-0,026
-445,095	-56,198	-0,044	-0,014
-444,080	-200,000	0,013	0,080
-443,065	-119,419	-0,132	-0,016
-442,051	20,708	-0,058	0,034
-441,036	411,133	-0,056	-0,085
-440,022	-53,951	-0,145	-0,047
-439,007	-40,998	0,173	0,064
-437,992	-132,448	-0,192	-0,017
-436,978	-200,000	0,013	0,067
-435,963	-0,336	0,178	-0,090
-434,949	504,305	-0,043	0,072
-433,934	-73,436	-0,058	0,015
-432,919	-200,000	-0,023	-0,100
-431,905	800,000	-0,015	0,045
-430,890	55,564	-0,080	0,055
-429,876	317,228	-0,102	0,138
-428,861	292,961	0,036	-0,048
-427,846	-20,328	0,020	0,009
-426,832	-113,506	-0,142	0,020
-425,817	137,085	0,044	0,041
-424,803	-200,000	0,005	0,018
-423,788	19,053	0,013	0,007
-422,773	591,286	0,023	0,040
-421,759	257,052	0,043	-0,053
-420,744	-200,000	-0,016	-0,051
-419,730	334,105	-0,018	-0,025
-418,715	800,000	-0,044	-0,121
-417,701	-200,000	-0,037	-0,139
-416,686	-129,024	-0,029	0,003
-415,671	572,814	0,052	0,091
-414,657	52,038	0,095	-0,064
-413,642	19,446	-0,144	0,083
-412,628	-159,691	0,018	-0,001
-411,613	-9,040	0,137	-0,065
-410,598	315,392	-0,081	0,109
-409,584	-126,789	0,019	0,002
-408,569	-200,000	-0,007	0,042
-407,555	-24,828	-0,106	-0,045
-406,540	-200,000	-0,017	0,076
-405,525	-119,402	0,161	0,020
-404,511	311,096	-0,123	-0,165
-403,496	-43,888	-0,115	-0,041
-402,482	800,000	0,011	-0,023
-401,467	82,474	-0,122	0,095
-400,452	118,233	0,116	0,102
-399,438	341,387	0,057	0,080
-398,423	-151,029	0,078	-0,004
-397,409	122,353	-0,109	-0,097
-396,394	530,832	0,034	-0,057
-395,379	-200,000	0,028	0,122
-394,365	69,382	-0,057	-0,042
-393,350	239,311	-0,059	0,070
-392,336	203,295	0,058	-0,064
-391,321	-165,264	-0,099	0,003
-390,306	-200,000	-0,000	0,014
-389,292	5,881	0,124	0,065
-388,277	-200,000	0,013	0,058
-387,263	-200,000	0,014	0,064
-386,248	189,177	0,034	-0,036
-385,233	800,000	0,053	-0,147
-384,219	-200,000	0,018	-0,059
-383,204	800,000	-0,033	0,081
-382,190	-200,000	-0,003	-0,055
-381,175	-95,045	0,132	-0,025
-380,160	-200,000	0,004	-0,027
-379,146	-200,000	0,020	0,262
-378,131	-93,724	-0,098	0,019
-377,117	800,000	0,011	-0,026
-376,102	5,797	-0,070	0,037
-375,088	-200,000	0,007	-0,100
-374,073	-200,000	0,020	0,065
-373,058	-200,000	-0,009	0,110
-372,044	313,451	-0,094	0,127
-371,029	-93,759	-0,160	0,031
-370,015	-200,000	-0,048	0,175
-369,000	46,434	0,015	-0,010
-367,985	-200,000	-0,002	-0,176
-366,971	-200,000	-0,002	0,017
-365,956	-200,000	0,008	0,050
-364,942	800,000	0,062	0,129
-363,927	-131,166	-0,110	-0,010
-362,912	80,442	0,077	0,059
-361,898	84,922	0,104	0,082
-360,883	-39,639	-0,195	-0,073
-359,869	65,457	0,024	-0,018
-358,854	-200,000	-0,007	-0,042
-357,839	221,298	0,077	0,088
-356,825	-104,466	0,148	0,024
-355,810	468,410	0,037	0,059
-354,796	-90,063	-0,100	0,021
-353,781	-180,515	-0,170	0,002
-352,766	396,462	0,069	-0,104
-351,752	-200,000	0,001	-0,004
-350,737	-120,428	0,025	0,003
-349,723	800,000	-0,011	-0,032
-348,708	630,373	0,035	0,064
-347,693	-19,566	0,139	0,061
-346,679	800,000	0,034	-0,070
-345,664	-133,134	0,140	0,012
-344,650	120,773	0,118	0,105
-343,635	800,000	0,013	0,035
-342,620	111,247	0,050	-0,043
-341,606	145,335	0,070	-0,067
-340,591	310,773	0,051	-0,069
-339,577	-185,667	0,048	0,001
-338,562	-80,947	-0,044	-0,010
-337,548	203,151	-0,036	-0,040
-336,533	65,210	0,078	-0,056
-335,518	798,484	0,034	0,067
-334,504	-146,219	-0,104	-0,006
-333,489	800,000	-0,029	0,090
-332,475	-200,000	0,008	-0,060
-331,460	-104,837	-0,067	0,011
-330,445	-74,892	0,062	0,016
-329,431	494,927	0,051	0,084
-328,416	73,093	-0,011	0,008
-327,402	0,488	-0,097	-0,049
-326,387	-200,000	0,009	0,052
-325,372	87,217	-0,104	-0,082
-324,358	188,890	-0,054	0,058
-323,343	800,000	0,015	0,030
-322,329	449,784	0,077	0,121
-321,314	800,000	0,016	0,039
-320,299	800,000	-0,042	-0,120
-319,285	-115,700	0,121	0,016
-318,270	52,538	0,012	0,008
-317,256	-200,000	-0,026	0,000
-316,241	160,552	0,106	0,105
-315,226	14,125	0,089	0,049
-314,212	-200,000	0,003	-0,047
-313,197	-53,507	0,132	0,043
-312,183	230,814	0,049	0,057
-311,168	28,115	-0,027	-0,016
-310,153	136,190	-0,083	0,077
-309,139	-200,000	0,073	0,235
-308,124	-200,000	0,010	0,118
-307,110	210,273	0,061	0,068
-306,095	-19,054	-0,128	-0,057
-305,080	-200,000	-0,012	0,079
-304,066	-72,934	0,070	0,018
-303,051	-200,000	0,006	-0,046
-302,037	-41,247	0,085	0,031
-301,022	16,253	-0,085	0,047
-300,008	-89,138	0,117	-0,024
-298,993	800,000	-0,023	0,057
-297,978	-200,000	0,008	-0,074
-296,964	299,924	0,055	0,072
-295,949	-31,738	0,088	0,035
-294,935	74,160	0,102	-0,076
-293,920	-94,550	0,090	0,017
-292,905	603,959	0,060	0,107
-291,891	12,415	0,063	0,034
-290,876	-200,000	-0,019	0,069
-289,862	-200,000	-0,013	-0,113
-288,847	469,726	0,010	-0,016
-287,832	-23,639	-0,026	-0,011
-286,818	800,000	-0,022	-0,068
-285,803	13,546	0,069	0,038
-284,789	-63,523	-0,007	0,002
-283,774	-200,000	-0,047	0,148
-282,759	75,562	-0,024	0,018
-281,745	-200,000	0,002	0,034
-280,730	-200,000	-0,021	-0,096
-279,716	217,684	0,023	0,026
-278,701	800,000	0,043	0,096
-277,686	-200,000	-0,001	-0,133
-276,672	-42,510	-0,064	0,023
-275,657	-110,899	-0,093	-0,013
-274,643	-25,075	-0,182	-0,077
-273,628	434,203	-0,030	0,047
-272,613	-17,139	0,073	-0,033
-271,599	800,000	-0,026	-0,073
-270,584	-200,000	0,004	0,138
-269,570	800,000	-0,029	0,075
-268,555	-91,688	0,091	-0,018
-267,540	564,091	-0,059	-0,103
-266,526	-200,000	0,014	-0,230
-265,511	-18,044	0,176	-0,078
-264,497	211,848	-0,022	0,025
-263,482	-200,000	0,012	0,132
-262,467	191,942	0,085	-0,092
-261,453	800,000	-0,056	0,124
-260,438	226,395	-0,074	-0,086
-259,424	-170,486	-0,034	-0,001
-258,409	184,164	-0,056	-0,059
-257,395	-36,929	-0,116	0,044
-256,380	220,255	0,173	0,198
-255,365	-76,229	0,105	-0,026
-254,351	77,364	0,086	0,065
-253,336	252,245	-0,058	0,070
-252,322	-91,000	-0,073	0,015
-251,307	800,000	-0,005	-0,015
-250,292	-200,000	0,020	0,066
-249,278	-133,634	0,061	-0,005
-248,263	-200,000	-0,015	0,108
-247,249	133,889	0,064	-0,059
-246,234	227,076	-0,047	0,054
-245,219	-200,000	0,022	-0,154
-244,205	-200,000	-0,031	0,097
-243,190	-1,804	0,096	-0,048
-242,176	-73,622	0,089	0,023
-241,161	-27,078	0,118	0,049
-240,146	-200,000	-0,036	0,114
-239,132	163,292	-0,041	-0,041
-238,117	268,877	-0,009	0,012
-237,103	-110,829	-0,129	0,019
-236,088	-115,903	0,046	-0,006
-235,073	104,189	0,142	0,118
-234,059	-200,000	-0,021	0,123
-233,044	800,000	0,044	-0,088
-232,030	-35,044	0,045	-0,017
-231,015	-4,287	-0,111	-0,054
-230,000	-200,000	-0,010	-0,136
-228,986	-200,000	-0,024	0,134
-227,971	52,420	0,028	0,019
-226,957	-134,296	0,107	0,009
-225,942	16,646	-0,092	-0,051
-224,927	103,818	-0,058	-0,048
-223,913	70,517	-0,160	0,117
-222,898	800,000	0,031	-0,081
-221,884	-170,778	0,048	0,001
-220,869	6,421	-0,054	0,029
-219,855	270,534	0,039	0,049
-218,840	31,015	-0,051	-0,031
-217,825	49,812	0,045	-0,030
-216,811	374,477	-0,058	-0,084
-215,796	-200,000	-0,023	-0,113
-214,782	35,272	-0,064	0,040
-213,767	115,234	0,078	-0,068
-212,752	51,643	-0,112	-0,076
-211,738	-200,000	0,007	-0,041
-210,723	626,408	0,015	-0,027
-209,709	800,000	0,056	-0,170
-208,694	300,845	-0,077	-0,101
-207,679	797,883	0,093	-0,183
-206,665	-92,752	0,097	-0,019
-205,650	-51,117	0,060	0,020
-204,636	800,000	0,010	-0,025
-203,621	604,976	0,091	-0,162
-202,606	-13,999	0,029	0,013
-201,592	800,000	0,032	-0,076
-200,577	-200,000	-0,004	-0,061
-199,563	-200,000	-0,027	0,129
-198,548	-108,103	0,091	0,014
-197,533	145,771	0,079	0,075
-196,519	12,637	-0,058	-0,032
-195,504	800,000	-0,091	0,213
-194,490	121,970	0,008	-0,007
-193,475	497,652	0,044	-0,072
-192,460	93,842	-0,135	0,109
-191,446	118,603	0,120	-0,105
-190,431	-200,000	-0,005	0,173
-189,417	-161,841	-0,215	-0,008
-188,402	800,000	0,036	0,087
-187,387	5,039	0,081	-0,042
-186,373	20,870	-0,110	0,063
-185,358	-189,217	0,190	-0,002
-184,344	404,255	0,080	0,119
-183,329	89,678	-0,075	0,059
-182,315	-118,804	0,138	-0,017
-181,300	-200,000	0,000	-0,049
-180,285	-180,099	-0,173	0,003
-179,271	99,334	0,091	0,075
-178,256	450,869	0,049	0,077
-177,242	250,294	-0,077	0,093
-176,227	-200,000	-0,012	0,114
-175,212	185,623	-0,070	0,074
-174,198	-200,000	0,017	0,057
-173,183	-0,267	-0,076	-0,038
-172,169	174,598	0,057	-0,059
-171,154	-110,923	0,093	-0,013
-170,139	-93,517	-0,099	0,019
-169,125	30,770	-0,017	-0,010
-168,110	554,113	-0,017	-0,030
-167,096	-74,565	0,195	0,049
-166,081	641,420	-0,002	0,003
-165,066	348,068	-0,021	0,029
-164,052	131,515	-0,106	-0,097
-163,037	-16,904	-0,096	0,043
-162,023	43,508	-0,043	0,028
-161,008	56,477	-0,111	-0,077
-159,993	800,000	-0,044	-0,111
-158,979	97,072	-0,144	-0,117
-157,964	-200,000	-0,005	-0,027
-156,950	-92,031	-0,220	-0,044
-155,935	60,914	-0,093	-0,065
-154,920	65,847	0,121	0,087
-153,906	139,942	0,021	0,020
-152,891	138,979	-0,075	0,070
-151,877	-200,000	-0,008	0,071
-150,862	-200,000	-0,020	-0,103
-149,847	545,905	-0,062	0,106
-148,833	-66,954	-0,206	-0,057
-147,818	733,816	0,046	0,088
-146,804	800,000	-0,046	0,114
-145,789	-53,746	0,129	-0,041
-144,775	412,922	0,061	-0,093
-143,760	182,049	-0,024	0,025
-142,745	92,800	0,051	-0,041
-141,731	800,000	-0,007	0,018
-140,716	-9,544	0,043	-0,020
-139,702	557,491	0,104	-0,178
-138,687	-116,832	-0,011	-0,001
-137,672	-39,647	-0,022	0,008
-136,658	203,232	0,070	-0,077
-135,643	-17,594	-0,051	-0,023
-134,629	-3,793	-0,040	-0,019
-133,614	4,386	0,122	0,063
-132,599	699,202	0,009	-0,018
-131,585	800,000	0,035	0,077
-130,570	800,000	-0,024	0,063
-129,556	-108,189	-0,116	-0,018
-128,541	-28,659	-0,059	-0,024
-127,526	-200,000	-0,011	-0,046
-126,512	800,000	-0,015	-0,038
-125,497	-135,258	0,246	0,021
-124,483	167,344	-0,022	-0,022
-123,468	-200,000	0,009	0,059
-122,453	191,643	-0,058	0,062
-121,439	800,000	0,023	0,060
-120,424	119,194	-0,082	0,072
-119,410	-200,000	0,004	0,114
-118,395	-17,385	-0,092	0,041
-117,380	-120,356	0,089	0,011
-116,366	3,914	-0,028	0,015
-115,351	228,553	-0,109	0,126
-114,337	145,967	-0,068	-0,064
-113,322	131,496	0,076	-0,069
-112,307	-200,000	0,009	-0,037
-111,293	203,843	-0,040	-0,044
-110,278	800,000	-0,049	-0,147
-109,264	-49,207	0,114	0,038
-108,249	21,537	-0,111	-0,064
-107,234	-200,000	0,020	-0,160
-106,220	75,146	-0,104	-0,078
-105,205	127,162	0,090	0,081
-104,191	-7,766	-0,063	0,030
-103,176	-200,000	-0,000	0,049
-102,162	800,000	0,056	0,147
-101,147	-200,000	-0,035	0,135
-100,132	30,441	0,096	-0,058
-99,118	558,565	0,034	-0,058
-98,103	-128,583	-0,159	0,016
-97,089	394,474	-0,072	-0,106
-96,074	-32,786	0,166	0,065
-95,059	-153,327	-0,090	0,004
-94,045	-200,000	-0,022	0,145
-93,030	23,604	-0,039	-0,023
-92,016	11,130	-0,180	0,097
-91,001	38,066	0,030	-0,019
-89,986	84,126	-0,048	0,037
-88,972	657,046	0,009	0,016
-87,957	99,538	-0,090	0,073
-86,943	-56,639	-0,101	0,031
-85,928	-200,000	-0,017	-0,077
-84,913	125,141	-0,017	-0,015
-83,899	419,075	0,061	-0,093
-82,884	-128,782	0,165	-0,016
-81,870	-3,643	0,013	0,006
-80,855	-200,000	-0,022	-0,074
-79,840	113,575	-0,070	-0,060
-78,826	-6,808	0,070	0,034
-77,811	-12,629	-0,051	-0,023
-76,797	331,573	0,019	0,026
-75,782	-78,906	0,034	0,008
-74,767	-160,503	-0,025	-0,001
-73,753	-200,000	0,003	0,087
-72,738	-200,000	-0,022	0,149
-71,724	71,702	0,008	-0,006
-70,709	-113,944	-0,054	-0,007
-69,694	-3,479	-0,134	-0,065
-68,680	20,882	0,187	-0,107
-67,665	-200,000	0,022	0,093
-66,651	-87,747	-0,151	0,032
-65,636	302,777	-0,054	-0,071
-64,622	-171,150	0,182	0,004
-63,607	-57,346	-0,074	0,023
-62,592	642,342	-0,037	-0,066
-61,578	-200,000	-0,020	-0,104
-60,563	135,436	0,085	-0,078
-59,549	446,913	-0,053	0,082
-58,534	30,442	-2,058	-1,239
-57,519	453,558	-1,149	-1,801
-56,505	-200,000	-0,506	-4,631
-55,490	277,278	1,073	1,350
-54,476	800,000	5,461	12,007
-53,461	-200,000	21,841	339,093
-52,446	800,000	760,180	2299,698
-51,432	533,764	1655,495	2778,639
-50,417	69,477	1653,696	1200,242
-49,403	16,727	1528,591	851,030
-48,388	10,876	1452,860	780,643
-47,373	19,043	1444,726	815,328
-46,359	14,233	1433,751	786,292
-45,344	9,273	1429,388	760,319
-44,330	9,158	1427,556	758,769
-43,315	9,128	1425,483	757,493
-42,300	9,133	1423,918	756,653
-41,286	9,167	1422,633	756,103
-40,271	9,113	1421,778	755,365
-39,257	9,137	1420,582	754,808
-38,242	9,179	1419,160	754,221
-37,227	9,118	1418,248	753,420
-36,213	9,105	1417,091	752,716
-35,198	9,173	1415,532	752,177
-34,184	9,224	1414,578	751,883
-33,169	9,115	1413,428	750,726
-32,154	9,114	1412,402	750,147
-31,140	9,165	1410,927	749,573
-30,125	9,200	1409,756	749,085
-29,111	9,165	1408,949	748,465
-28,096	9,162	1407,601	747,703
-27,082	9,112	1406,457	746,831
-26,067	9,127	1405,203	746,209
-25,052	9,106	1404,375	745,641
-24,038	9,108	1403,429	745,115
-23,023	9,131	1402,526	744,715
-22,009	9,116	1401,365	744,001
-20,994	9,050	1400,490	743,199
-19,979	9,119	1399,390	742,907
-18,965	9,062	1398,627	742,204
-17,950	9,071	1397,637	741,692
-16,936	9,046	1396,673	741,035
-15,921	8,989	1395,850	740,305
-14,906	9,002	1394,909	739,838
-13,892	9,065	1393,855	739,539
-12,877	9,026	1393,237	739,004
-11,863	8,985	1392,219	738,245
-10,848	9,011	1391,276	737,836
-9,833	8,941	1390,458	737,046
-8,819	8,912	1389,541	736,400
-7,804	8,913	1388,466	735,802
-6,790	8,935	1387,555	735,396
-5,775	8,893	1386,638	734,684
-4,760	8,915	1385,634	734,226
-3,746	8,956	1384,603	733,839
-2,731	8,944	1383,814	733,334
-1,717	8,913	1382,853	732,653
-0,702	8,887	1381,191	731,627
0,313	12,857	1292,924	702,966
1,327	28,846	684,227	407,996
2,342	44,174	118,113	76,276
3,356	0,492	16,658	8,368
4,371	9,884	3,676	1,962
5,386	-4,594	1,188	0,576
6,400	800,000	0,253	0,601
7,415	17,108	-0,248	-0,138
8,429	290,458	-0,147	-0,188
9,444	-20,472	-0,327	-0,141
10,459	-23,759	-0,318	-0,134
11,473	-8,419	-0,269	-0,127
12,488	-25,869	-0,256	-0,106
13,502	-25,743	-0,317	-0,131
14,517	156,150	-0,244	-0,237
15,531	370,857	-0,187	-0,268
16,546	-48,594	-0,293	-0,099
17,561	75,132	-0,301	-0,223
18,575	64,130	-0,117	-0,083
19,590	800,000	-0,127	-0,264
20,604	-64,107	-0,173	-0,049
21,619	26,744	-0,447	-0,263
22,634	217,881	-0,336	-0,378
23,648	106,014	-0,340	-0,283
24,663	83,482	-0,286	-0,220
25,677	-75,540	-0,411	-0,102
26,692	-27,721	-0,364	-0,148
27,707	-16,036	-0,310	-0,138
28,721	139,524	-0,258	-0,239
29,736	75,665	-0,462	-0,343
30,750	100,989	-0,353	-0,289
31,765	121,790	-0,322	-0,283
32,780	43,376	-0,392	-0,252
33,794	51,978	-0,246	-0,165
34,809	104,576	-0,331	-0,274
35,823	233,341	-0,293	-0,340
36,838	-40,770	-0,433	-0,157
37,853	58,537	-0,396	-0,273
38,867	44,005	-0,342	-0,220
39,882	127,424	-0,282	-0,252
40,896	174,822	-0,347	-0,353
41,911	234,616	-0,240	-0,279
42,926	-15,522	-0,407	-0,182
43,940	204,171	-0,333	-0,363
44,955	3,934	-0,475	-0,243
45,969	63,447	-0,305	-0,215
46,984	-28,412	-0,308	-0,124
47,999	-10,836	-0,336	-0,155
49,013	138,753	-0,209	-0,193
50,028	-5,457	-0,382	-0,183
51,042	54,016	-0,362	-0,244
52,057	1,078	-0,320	-0,161
53,071	8,463	-0,329	-0,173
54,086	-28,310	-0,282	-0,114
55,101	108,619	-0,196	-0,164
56,115	-21,027	-0,346	-0,148
57,130	223,489	-0,216	-0,245
58,144	96,501	-0,272	-0,219
59,159	4,710	-0,349	-0,179
60,174	204,498	-0,245	-0,266
61,188	41,557	-0,347	-0,220
62,203	87,048	-0,391	-0,303
63,217	125,441	-0,353	-0,312
64,232	48,678	-0,329	-0,216
65,247	107,939	-0,275	-0,230
66,261	-83,963	-0,395	-0,087
67,276	134,524	-0,300	-0,273
68,290	82,071	-0,377	-0,286
69,305	-24,945	-0,258	-0,107
70,320	-165,387	-0,289	0,009
71,334	4,085	-0,254	-0,130
72,349	96,495	-0,315	-0,253
73,363	13,884	-0,400	-0,218
74,378	75,353	-0,400	-0,295
75,393	32,049	-0,166	-0,100
76,407	178,556	-0,242	-0,248
77,422	92,561	-0,185	-0,146
78,436	127,792	-0,179	-0,159
79,451	22,249	-0,286	-0,163
80,466	19,177	-0,255	-0,143
81,480	132,204	-0,244	-0,220
82,495	34,277	-0,289	-0,176
83,509	60,801	-0,324	-0,225
84,524	98,989	-0,279	-0,226
85,539	-34,998	-0,265	-0,101
86,553	-5,262	-0,300	-0,144
87,568	196,604	-0,307	-0,328
88,582	-21,227	-0,410	-0,175
89,597	46,898	-0,285	-0,185
90,611	-93,717	-0,234	-0,045
91,626	282,420	-0,167	-0,210
92,641	116,332	-0,245	-0,210
93,655	7,580	-0,259	-0,135
94,670	215,381	-0,250	-0,278
95,684	70,288	-0,359	-0,259
96,699	45,968	-0,395	-0,255
97,714	233,456	-0,186	-0,214
98,728	123,781	-0,198	-0,174
99,743	98,928	-0,147	-0,119
100,757	800,000	-0,069	-0,187
101,772	54,035	-0,275	-0,185
102,787	98,729	-0,337	-0,272
103,801	411,107	-0,173	-0,257
104,816	143,432	-0,220	-0,205
105,830	58,011	-0,211	-0,144
106,845	-2,095	-0,217	-0,106
107,860	617,005	-0,113	-0,199
108,874	147,518	-0,258	-0,243
109,889	313,024	-0,243	-0,320
110,903	-70,153	-0,266	-0,070
111,918	94,182	-0,143	-0,113
112,933	6,859	-0,167	-0,087
113,947	90,617	-0,256	-0,200
114,962	508,547	-0,163	-0,265
115,976	440,310	-0,229	-0,350
116,991	27,339	-0,292	-0,171
118,006	380,067	-0,191	-0,275
119,020	1,896	-0,243	-0,122
120,035	202,946	-0,182	-0,196
121,049	-73,415	-0,086	0,022
122,064	-75,572	-0,330	-0,081
123,079	-101,031	-0,296	-0,050
124,093	16,005	-0,273	-0,149
125,108	49,984	-0,342	-0,225
126,122	54,879	-0,265	-0,178
127,137	414,224	-0,161	-0,239
128,151	214,879	-0,166	-0,184
129,166	221,036	-0,182	-0,204
130,181	-110,986	-0,229	-0,032
131,195	186,473	-0,255	-0,265
132,210	283,059	-0,208	-0,261
133,224	171,828	-0,226	-0,227
134,239	-13,195	-0,268	-0,121
135,254	112,752	-0,192	-0,162
136,268	108,631	-0,252	-0,210
137,283	71,482	-0,263	-0,190
138,297	106,093	-0,073	-0,060
139,312	10,126	-0,156	-0,082
140,327	203,866	-0,324	-0,350
141,341	299,754	-0,138	-0,177
142,356	90,909	-0,233	-0,182
143,370	-71,431	-0,426	-0,110
144,385	175,490	-0,242	-0,245
145,400	516,970	-0,170	-0,279
146,414	378,645	-0,142	-0,204
147,429	141,579	-0,142	-0,131
148,443	39,017	-0,153	-0,095
149,458	29,479	-0,247	-0,146
150,473	45,942	-0,217	-0,139
151,487	62,569	-0,252	-0,175
152,502	32,356	-0,205	-0,123
153,516	167,032	-0,211	-0,208
154,531	78,607	-0,230	-0,171
155,546	-30,579	-0,215	-0,084
156,560	595,695	-0,128	-0,221
157,575	182,724	-0,184	-0,189
158,589	-141,651	-0,311	-0,021
159,604	-12,832	-0,345	-0,156
160,619	-37,661	-0,246	-0,091
161,633	59,621	-0,162	-0,111
162,648	486,680	-0,087	-0,139
163,662	800,000	-0,108	-0,221
164,677	79,016	-0,140	-0,104
165,692	-74,873	-0,229	-0,057
166,706	-77,367	-0,229	-0,055
167,721	153,530	-0,224	-0,213
168,735	340,914	-0,139	-0,190
169,750	-37,696	-0,310	-0,114
170,764	388,516	-0,175	-0,253
171,779	-18,967	-0,260	-0,112
172,794	270,689	-0,141	-0,173
173,808	399,589	-0,111	-0,162
174,823	149,179	-0,213	-0,200
175,837	39,549	-0,169	-0,105
176,852	7,616	-0,245	-0,127
177,867	65,096	-0,202	-0,141
178,881	-53,148	-0,238	0,075
179,896	125,166	-0,259	-0,227
180,910	47,512	-0,182	-0,118
181,925	204,965	-0,177	-0,191
182,940	-41,128	-0,285	-0,102
183,954	37,438	-0,169	-0,104
184,969	5,541	-0,227	-0,116
185,983	-25,134	-0,283	-0,116
186,998	59,764	-0,237	-0,162
188,013	386,182	-0,091	-0,131
189,027	358,403	-0,234	-0,325
190,042	9,911	-0,228	-0,119
191,056	425,437	-0,189	-0,283
192,071	-11,879	-0,235	-0,107
193,086	190,075	-0,096	-0,100
194,100	76,358	-0,154	-0,113
195,115	-84,905	-0,223	-0,048
196,129	33,333	-0,242	-0,145
197,144	325,275	-0,273	-0,363
198,159	-84,283	-0,393	-0,086
199,173	8,939	-0,157	-0,082
200,188	42,397	-0,184	-0,116
201,202	106,237	-0,207	-0,170
202,217	51,829	-0,183	-0,120
203,232	85,095	-0,184	-0,140
204,246	90,973	-0,150	-0,116
205,261	72,754	-0,202	-0,146
206,275	143,348	-0,156	-0,144
207,290	34,449	-0,276	-0,166
208,304	-100,202	-0,173	-0,030
209,319	-33,750	-0,182	-0,069
210,334	-147,505	-0,170	0,010
211,348	44,621	-0,269	-0,171
212,363	112,043	-0,280	-0,234
213,377	24,624	-0,239	-0,137
214,392	9,084	-0,269	-0,140
215,407	73,493	-0,203	-0,147
216,421	-163,755	-0,232	-0,007
217,436	510,245	-0,101	-0,163
218,450	217,039	-0,206	-0,227
219,465	101,857	-0,163	-0,131
220,480	52,577	-0,242	-0,159
221,494	342,435	-0,098	-0,133
222,509	420,966	-0,112	-0,166
223,523	126,557	-0,236	-0,207
224,538	800,000	-0,066	-0,135
225,553	22,441	-0,153	-0,086
226,567	-75,374	-0,304	-0,074
227,582	118,191	-0,205	-0,175
228,596	800,000	-0,143	-0,281
229,611	81,832	-0,098	-0,073
230,626	-11,453	-0,159	-0,072
231,640	110,578	-0,166	-0,138
232,655	-73,035	-0,213	-0,054
233,669	432,499	-0,082	-0,123
234,684	728,245	-0,125	-0,232
235,699	800,000	-0,102	-0,276
236,713	-93,519	-0,245	-0,046
237,728	140,791	-0,157	-0,143
238,742	126,567	-0,196	-0,171
239,757	-20,140	-0,186	-0,079
240,772	325,144	-0,158	-0,209
241,786	66,711	-0,187	-0,131
242,801	78,565	-0,258	-0,190
243,815	124,049	-0,134	-0,116
244,830	5,531	-0,111	-0,057
245,844	92,172	-0,159	-0,124
246,859	-172,308	-0,247	-0,005
247,874	73,325	-0,201	-0,145
248,888	409,303	-0,168	-0,246
249,903	800,000	-0,130	-0,353
250,917	800,000	-0,066	-0,157
251,932	-111,423	-0,098	0,014
252,947	-100,276	-0,230	-0,039
253,961	3,298	-0,152	-0,076
254,976	-15,808	-0,206	-0,090
255,990	-21,685	-0,162	-0,068
257,005	-84,324	-0,135	-0,029
258,020	314,529	-0,089	-0,116
259,034	-91,809	-0,159	-0,031
260,049	395,127	-0,131	-0,189
261,063	214,815	-0,105	-0,115
262,078	206,618	-0,101	-0,109
263,093	-45,522	-0,148	-0,050
264,107	-32,073	-0,186	-0,071
265,122	-172,615	-0,176	0,004
266,136	-147,563	-0,186	0,011
267,151	-27,133	-0,078	-0,031
268,166	254,987	-0,157	-0,185
269,180	161,340	-0,145	-0,140
270,195	637,462	-0,134	-0,236
271,209	11,800	-0,142	-0,075
272,224	645,856	0,030	-0,054
273,239	106,287	-0,086	0,070
274,253	-107,758	-0,300	-0,045
275,268	-166,720	-0,156	-0,004
276,282	383,660	-0,139	-0,198
277,297	-200,000	-0,056	-0,231
278,312	800,000	-0,049	-0,124
279,326	-64,065	-0,187	0,052
280,341	194,116	-0,143	-0,149
281,355	-4,861	-0,035	-0,017
282,370	-145,605	-0,118	0,007
283,384	168,833	-0,213	-0,209
284,399	84,641	-0,164	-0,123
285,414	-46,601	-0,144	-0,048
286,428	9,650	-0,213	-0,111
287,443	101,834	-0,039	0,031
288,457	287,281	-0,079	-0,099
289,472	350,632	-0,086	-0,118
290,487	334,862	-0,206	-0,275
291,501	-54,733	-0,227	-0,070
292,516	-20,753	-0,157	0,066
293,530	-17,639	-0,186	-0,080
294,545	-129,620	-0,079	-0,007
295,560	56,929	-0,119	-0,080
296,574	171,881	-0,172	-0,170
297,589	294,578	-0,175	-0,220
298,603	-14,469	-0,190	-0,084
299,618	63,181	-0,221	-0,152
300,633	228,238	-0,119	-0,134
301,647	13,653	0,017	-0,009
302,662	800,000	0,062	-0,130
303,676	-11,623	-0,079	-0,035
304,691	-79,755	-0,264	-0,061
305,706	443,981	-0,123	-0,185
306,720	355,835	-0,053	-0,073
307,735	91,412	-0,145	-0,112
308,749	27,906	-0,130	-0,075
309,764	264,252	-0,040	-0,048
310,779	-200,000	-0,001	-0,087
311,793	4,521	-0,178	-0,090
312,808	800,000	-0,080	-0,194
313,822	265,057	-0,108	-0,130
314,837	800,000	-0,045	-0,124
315,852	200,554	-0,125	-0,132
316,866	800,000	-0,098	-0,211
317,881	547,266	-0,078	-0,129
318,895	-200,000	-0,022	-0,116
319,910	-200,000	0,017	-0,143
320,925	800,000	-0,067	-0,184
321,939	63,762	-0,199	-0,137
322,954	800,000	-0,045	-0,130
323,968	434,632	-0,100	-0,149
324,983	-101,850	-0,166	-0,027
325,997	-127,321	-0,193	-0,019
327,012	648,595	-0,080	-0,140
328,027	-123,094	-0,202	-0,022
329,041	-41,720	-0,101	0,035
330,056	-117,544	-0,091	-0,011
331,070	302,049	0,045	-0,057
332,085	-101,619	-0,145	0,024
333,100	32,838	-0,231	-0,137
334,114	177,642	-0,230	-0,230
335,129	-200,000	-0,052	-0,196
336,143	-24,456	0,053	-0,022
337,158	-118,567	-0,102	-0,012
338,173	331,392	-0,056	0,075
339,187	-3,972	-0,208	-0,098
340,202	-107,409	-0,130	-0,019
341,216	-165,477	-0,124	-0,004
342,231	-155,276	-0,191	-0,008
343,246	-107,473	-0,159	-0,024
344,260	-118,080	-0,127	0,015
345,275	-27,140	-0,043	0,017
346,289	-10,137	-0,085	0,038
347,304	556,671	-0,077	-0,128
348,319	44,109	-0,139	-0,087
349,333	800,000	-0,027	-0,057
350,348	800,000	-0,084	-0,221
351,362	511,230	-0,134	-0,214
352,377	-1,460	-0,158	-0,076
353,392	166,212	-0,055	-0,054
354,406	-19,945	-0,159	0,067
355,421	207,030	1310,860	1399,179
356,435	159,247	1471,061	1399,641
