DTS Sentinel unit serial number:	SN410029Multiplexer serial number:	ORYXHardware model number:	OX2-SRSoftware version number:	ORYX F/W v4,00 Oryx Data Collector v3.7.2.0data status	okinstallation	B3 Nyhavnadifferential loss correction	single-endedforward channel	channel 1reverse channel	N/Adate	2023/12/01time	20:37:30forward acquisition time	300,00reverse acquisition time	0,00gamma	499,1914k internal	0,3197k external	0,3197temperature offset calibration	1,0000default loss term (dB/km)	0,3820temperature slope calibration	1,0000multiplexer offset coefficient	1,0000multiplexer slope coefficient	1,0000fibre end	0,00T internal ref (°C)	15,90T ext. ref 1 (°C)	1,47T ext. ref 2 (°C)	1,48length (m)	temperature (°C)	Stokes	anti-Stokes-744,400	129,458	-0,249	-0,232
-743,385	-200,000	0,021	0,297
-742,371	-200,000	-0,011	-0,177
-741,356	-200,000	-0,010	0,271
-740,342	13,002	-0,259	-0,145
-739,327	-200,000	-0,055	0,214
-738,312	62,632	-0,311	-0,226
-737,298	-200,000	-0,052	0,363
-736,283	265,995	-0,179	-0,227
-735,269	-200,000	-0,004	0,458
-734,254	298,443	-0,169	-0,227
-733,239	-20,491	-0,204	0,091
-732,225	800,000	-0,098	-0,266
-731,210	157,978	0,174	0,175
-730,196	-119,651	-0,115	0,014
-729,181	66,226	-0,040	-0,030
-728,167	800,000	0,015	0,036
-727,152	524,598	-0,054	-0,092
-726,137	561,579	-0,025	0,044
-725,123	-59,671	-0,094	0,029
-724,108	-200,000	0,004	-0,123
-723,094	-138,763	-0,169	0,013
-722,079	322,317	-0,109	-0,152
-721,064	28,687	-0,068	-0,042
-720,050	19,059	-0,081	0,047
-719,035	-90,413	0,035	0,007
-718,021	-104,441	-0,090	0,015
-717,006	17,522	-0,037	-0,021
-715,991	-139,778	-0,093	0,007
-714,977	800,000	0,031	-0,069
-713,962	180,349	-0,036	0,039
-712,948	40,988	-0,067	0,044
-711,933	458,152	-0,021	0,035
-710,918	-117,338	0,088	0,012
-709,904	-109,645	0,055	-0,008
-708,889	635,396	-0,085	-0,157
-707,875	800,000	-0,072	-0,147
-706,860	-200,000	0,025	0,114
-705,845	800,000	-0,048	0,123
-704,831	315,931	-0,051	-0,070
-703,816	-34,318	0,089	0,036
-702,802	23,344	-0,015	0,009
-701,787	800,000	-0,039	0,106
-700,772	-74,175	-0,084	-0,022
-699,758	-200,000	0,001	0,053
-698,743	234,285	0,083	-0,100
-697,729	-200,000	0,013	-0,043
-696,714	-200,000	0,002	-0,078
-695,699	89,963	0,080	-0,065
-694,685	-200,000	-0,016	-0,162
-693,670	514,042	0,069	-0,117
-692,656	800,000	-0,035	-0,087
-691,641	211,083	0,084	0,096
-690,627	-76,604	-0,043	0,011
-689,612	-64,662	0,095	-0,028
-688,597	-35,207	0,071	-0,028
-687,583	-91,704	-0,031	-0,006
-686,568	384,737	-0,059	-0,089
-685,554	-200,000	0,010	-0,134
-684,539	198,448	0,065	-0,073
-683,524	-89,597	0,072	-0,015
-682,510	115,058	0,110	-0,098
-681,495	-122,230	-0,140	0,016
-680,481	-200,000	0,001	-0,040
-679,466	70,198	0,134	-0,101
-678,451	351,582	-0,067	-0,097
-677,437	-200,000	0,012	-0,088
-676,422	168,140	-0,082	0,085
-675,408	55,571	-0,030	0,021
-674,393	-21,436	0,074	0,032
-673,378	393,458	0,030	-0,045
-672,364	165,460	0,045	-0,047
-671,349	91,685	-0,047	0,038
-670,335	370,280	-0,041	0,061
-669,320	400,706	0,089	0,137
-668,305	-200,000	-0,051	0,167
-667,291	-200,000	0,012	-0,048
-666,276	155,927	-0,028	0,028
-665,262	-200,000	0,002	-0,012
-664,247	50,159	-0,085	-0,058
-663,232	-39,699	0,161	-0,061
-662,218	366,137	-0,031	-0,046
-661,203	40,365	0,064	0,042
-660,189	-86,941	0,073	0,016
-659,174	8,046	0,138	-0,075
-658,159	-3,988	-0,231	0,116
-657,145	-127,607	-0,100	0,010
-656,130	70,647	0,138	-0,104
-655,116	456,457	-0,009	-0,014
-654,101	53,257	-0,016	0,011
-653,086	91,379	0,051	0,041
-652,072	69,357	-0,017	-0,013
-651,057	-143,825	-0,103	-0,007
-650,043	188,308	0,042	-0,046
-649,028	-41,577	-0,056	-0,021
-648,014	-200,000	0,015	-0,066
-646,999	-41,259	-0,082	0,031
-645,984	408,246	0,009	-0,013
-644,970	800,000	-0,021	0,053
-643,955	121,612	-0,045	-0,041
-642,941	800,000	0,019	-0,042
-641,926	-200,000	0,024	-0,122
-640,911	-200,000	-0,011	-0,094
-639,897	-200,000	0,007	0,064
-638,882	-122,276	0,098	0,012
-637,868	-200,000	-0,026	-0,108
-636,853	272,792	0,083	-0,106
-635,838	800,000	-0,035	-0,079
-634,824	129,500	-0,054	-0,050
-633,809	-165,130	0,118	-0,004
-632,795	800,000	0,053	0,147
-631,780	-101,459	0,136	-0,024
-630,765	-200,000	-0,037	-0,233
-629,751	-82,486	0,062	0,014
-628,736	-144,776	-0,082	0,005
-627,722	254,817	0,028	-0,034
-626,707	611,113	-0,019	-0,035
-625,692	30,708	0,136	0,085
-624,678	318,139	-0,035	-0,049
-623,663	34,120	-0,122	0,077
-622,649	352,119	-0,053	0,076
-621,634	138,029	0,053	0,050
-620,619	-200,000	-0,051	-0,188
-619,605	800,000	-0,023	0,065
-618,590	-103,306	0,102	-0,017
-617,576	162,884	-0,055	-0,056
-616,561	-49,587	-0,069	-0,024
-615,546	800,000	0,031	0,075
-614,532	304,559	-0,062	0,083
-613,517	99,424	-0,102	0,085
-612,503	10,659	0,138	0,076
-611,488	133,459	-0,030	0,028
-610,474	-200,000	0,011	0,177
-609,459	250,224	0,093	0,114
-608,444	446,757	-0,026	0,041
-607,430	76,124	-0,068	-0,052
-606,415	46,783	-0,122	-0,082
-605,401	-200,000	0,006	-0,031
-604,386	-183,681	0,046	-0,001
-603,371	44,386	-0,075	0,050
-602,357	-104,096	-0,071	0,012
-601,342	383,300	0,071	-0,106
-600,328	72,941	0,090	-0,068
-599,313	66,345	-0,117	0,086
-598,298	800,000	0,010	0,026
-597,284	12,755	0,044	0,025
-596,269	-200,000	0,013	0,092
-595,255	674,585	0,072	0,135
-594,240	53,874	-0,070	-0,049
-593,225	-200,000	-0,013	-0,073
-592,211	158,983	-0,051	-0,051
-591,196	546,858	-0,011	0,020
-590,182	-200,000	-0,006	0,103
-589,167	292,392	0,048	0,064
-588,152	-55,840	0,071	0,023
-587,138	91,426	-0,078	0,064
-586,123	-114,774	-0,144	-0,020
-585,109	244,792	-0,030	-0,037
-584,094	800,000	-0,064	-0,132
-583,079	-141,976	0,168	-0,012
-582,065	-200,000	0,001	0,084
-581,050	413,430	0,054	-0,083
-580,036	134,480	-0,020	0,018
-579,021	185,675	-0,090	-0,096
-578,006	66,551	-0,021	-0,016
-576,992	800,000	0,039	0,103
-575,977	-198,562	-0,077	0,000
-574,963	684,319	0,034	0,064
-573,948	277,093	-0,044	0,056
-572,934	82,872	-0,081	-0,063
-571,919	-41,216	-0,022	0,008
-570,904	-77,640	-0,114	0,028
-569,890	-23,779	-0,069	0,030
-568,875	142,692	0,040	-0,039
-567,861	246,530	0,095	0,116
-566,846	44,442	-0,038	0,025
-565,831	-200,000	-0,001	-0,005
-564,817	512,796	0,118	0,200
-563,802	36,705	-0,107	0,068
-562,788	800,000	-0,028	0,063
-561,773	-34,891	0,076	0,030
-560,758	-200,000	0,003	0,013
-559,744	289,821	0,028	0,037
-558,729	-155,723	0,049	-0,002
-557,715	156,033	-0,079	-0,079
-556,700	-185,455	-0,235	-0,003
-555,685	-181,985	0,023	0,000
-554,671	-146,544	-0,029	0,002
-553,656	800,000	-0,055	-0,154
-552,642	-17,109	-0,093	0,042
-551,627	-97,089	0,053	-0,010
-550,612	800,000	-0,096	-0,218
-549,598	-78,842	-0,086	0,021
-548,583	-111,948	-0,085	0,012
-547,569	37,222	0,110	-0,070
-546,554	557,562	0,082	0,144
-545,539	800,000	-0,032	0,087
-544,525	-53,467	0,010	0,003
-543,510	-21,330	0,041	0,018
-542,496	506,908	-0,073	-0,122
-541,481	-200,000	-0,018	-0,159
-540,466	-200,000	-0,050	0,184
-539,452	-200,000	0,055	0,178
-538,437	-102,882	0,090	-0,015
-537,423	-79,192	-0,032	-0,008
-536,408	707,678	-0,044	0,085
-535,393	21,536	-0,141	-0,082
-534,379	126,766	0,031	0,028
-533,364	-4,741	0,055	0,027
-532,350	240,468	-0,042	0,051
-531,335	68,667	-0,039	-0,029
-530,321	135,854	0,010	-0,009
-529,306	71,210	-0,055	0,041
-528,291	198,866	0,046	0,051
-527,277	-47,482	0,026	0,009
-526,262	335,519	-0,076	-0,107
-525,248	-25,396	0,107	-0,046
-524,233	-200,000	-0,009	0,069
-523,218	-61,407	-0,056	-0,017
-522,204	-130,472	-0,134	0,013
-521,189	-108,564	-0,184	-0,028
-520,175	-200,000	-0,004	-0,049
-519,160	422,573	-0,044	0,068
-518,145	24,870	0,087	0,052
-517,131	800,000	0,041	0,111
-516,116	532,529	0,082	0,141
-515,102	-15,949	-0,065	0,030
-514,087	-200,000	-0,021	-0,085
-513,072	-118,302	-0,084	0,011
-512,058	150,654	0,008	-0,008
-511,043	40,405	0,065	0,042
-510,029	-61,846	0,081	-0,024
-509,014	17,047	-0,143	0,082
-507,999	523,148	0,047	-0,079
-506,985	-58,335	-0,132	-0,041
-505,970	-200,000	-0,052	-0,207
-504,956	-200,000	-0,024	-0,116
-503,941	-17,935	-0,112	-0,050
-502,926	103,330	-0,019	0,016
-501,912	-179,028	-0,044	-0,001
-500,897	146,011	0,081	-0,078
-499,883	205,148	-0,052	0,058
-498,868	-8,960	-0,138	-0,066
-497,853	2,755	-0,070	0,036
-496,839	-200,000	0,002	-0,039
-495,824	102,366	0,077	-0,065
-494,810	-20,508	0,021	0,009
-493,795	-108,671	-0,058	0,009
-492,781	-128,666	0,089	-0,009
-491,766	800,000	-0,013	-0,030
-490,751	-90,603	0,099	-0,021
-489,737	-66,699	0,134	-0,038
-488,722	345,387	-0,045	0,064
-487,708	42,633	-0,091	-0,059
-486,693	800,000	0,040	0,103
-485,678	552,382	-0,019	-0,034
-484,664	-200,000	0,045	-0,158
-483,649	-10,132	0,080	-0,038
-482,635	458,624	-0,021	-0,033
-481,620	87,652	0,044	-0,035
-480,605	-200,000	0,014	-0,051
-479,591	309,941	-0,087	0,118
-478,576	119,092	-0,092	0,082
-477,562	800,000	0,040	0,100
-476,547	-200,000	-0,012	-0,045
-475,532	-200,000	0,013	0,144
-474,518	176,501	0,042	0,044
-473,503	451,260	0,056	-0,090
-472,489	130,806	0,049	0,045
-471,474	86,479	-0,087	-0,069
-470,459	800,000	-0,048	-0,107
-469,445	212,026	-0,039	-0,044
-468,430	207,779	-0,074	-0,083
-467,416	-200,000	0,032	-0,114
-466,401	-42,749	0,019	0,007
-465,386	137,532	-0,155	0,147
-464,372	800,000	0,061	0,136
-463,357	-41,772	-0,124	-0,046
-462,343	-194,621	-0,055	0,000
-461,328	-200,000	0,012	0,094
-460,313	-123,554	-0,071	0,008
-459,299	251,195	-0,069	0,084
-458,284	-200,000	-0,002	-0,106
-457,270	279,573	0,049	0,063
-456,255	251,785	-0,132	-0,162
-455,241	-159,132	-0,147	-0,006
-454,226	-26,689	-0,133	-0,056
-453,211	432,564	0,020	-0,032
-452,197	8,763	0,108	0,059
-451,182	800,000	-0,021	-0,058
-450,168	-200,000	-0,003	-0,030
-449,153	-200,000	0,005	-0,057
-448,138	800,000	0,043	-0,102
-447,124	800,000	0,036	-0,088
-446,109	204,071	-0,047	-0,052
-445,095	800,000	-0,017	0,048
-444,080	-94,690	0,046	-0,009
-443,065	-200,000	0,021	0,086
-442,051	-108,591	0,086	0,013
-441,036	-200,000	-0,002	-0,077
-440,022	-23,597	-0,103	0,044
-439,007	271,375	-0,028	-0,036
-437,992	366,995	-0,023	0,033
-436,978	-70,580	-0,134	-0,036
-435,963	-50,469	0,028	0,009
-434,949	-200,000	0,012	-0,115
-433,934	11,684	-0,031	-0,017
-432,919	515,379	0,023	-0,039
-431,905	-138,482	0,080	0,006
-430,890	-153,210	-0,108	0,005
-429,876	800,000	-0,052	0,108
-428,861	800,000	0,022	-0,067
-427,846	-40,973	0,128	0,047
-426,832	800,000	0,009	-0,020
-425,817	224,745	-0,057	-0,066
-424,803	-56,569	0,068	0,022
-423,788	-117,240	0,011	-0,001
-422,773	-137,423	0,030	-0,002
-421,759	-200,000	0,006	0,031
-420,744	-60,787	-0,037	0,011
-419,730	-137,526	-0,052	0,004
-418,715	597,930	-0,040	0,072
-417,701	35,525	-0,021	0,013
-416,686	-200,000	-0,017	0,077
-415,671	11,635	0,117	0,064
-414,657	-200,000	0,001	-0,058
-413,642	-59,190	0,124	-0,038
-412,628	-92,138	-0,051	-0,010
-411,613	-51,970	-0,115	0,038
-410,598	411,308	0,082	-0,125
-409,584	-89,111	0,156	0,033
-408,569	-200,000	-0,008	0,054
-407,555	-43,177	0,094	0,034
-406,540	-10,555	-0,109	-0,052
-405,525	-200,000	-0,005	0,038
-404,511	232,191	-0,105	-0,125
-403,496	-200,000	-0,002	-0,010
-402,482	-115,380	-0,008	0,001
-401,467	800,000	0,031	0,098
-400,452	-60,201	0,098	0,030
-399,438	758,186	-0,048	0,095
-398,423	-166,891	0,088	0,003
-397,409	-200,000	0,006	0,063
-396,394	8,221	0,030	0,016
-395,379	-97,674	-0,004	0,001
-394,365	-141,483	-0,019	0,001
-393,350	-73,946	-0,085	-0,022
-392,336	-166,079	0,031	0,001
-391,321	418,232	0,014	0,021
-390,306	-106,575	0,161	0,025
-389,292	-51,242	0,182	-0,061
-388,277	174,124	-0,096	0,100
-387,263	-13,688	-0,097	0,045
-386,248	301,425	-0,023	-0,031
-385,233	-65,465	0,087	-0,025
-384,219	-70,261	-0,052	-0,014
-383,204	74,488	0,044	0,033
-382,190	-19,435	-0,103	-0,046
-381,175	-200,000	-0,046	0,150
-380,160	-200,000	0,015	-0,068
-379,146	7,110	0,126	0,067
-378,131	-200,000	0,001	0,018
-377,117	-66,343	0,080	-0,023
-376,102	414,409	-0,084	-0,130
-375,088	325,444	0,044	-0,061
-374,073	800,000	-0,029	-0,074
-373,058	-128,259	0,097	-0,010
-372,044	534,473	0,035	0,060
-371,029	6,004	0,127	0,067
-370,015	576,030	0,025	-0,044
-369,000	-3,800	-0,104	-0,052
-367,985	-200,000	0,003	0,080
-366,971	96,139	0,061	-0,050
-365,956	-130,173	-0,051	-0,005
-364,942	-200,000	-0,010	0,049
-363,927	800,000	0,014	0,035
-362,912	-113,329	0,101	0,014
-361,898	-24,332	-0,075	-0,032
-360,883	332,971	-0,078	0,109
-359,869	67,925	0,068	-0,050
-358,854	16,577	0,063	-0,036
-357,839	800,000	0,016	-0,041
-356,825	-156,512	-0,082	-0,004
-355,810	800,000	0,053	-0,116
-354,796	186,738	0,045	0,048
-353,781	358,084	0,100	-0,144
-352,766	605,894	0,020	-0,036
-351,752	-117,747	0,050	0,006
-350,737	86,593	-0,084	0,067
-349,723	-200,000	0,049	0,177
-348,708	-200,000	0,001	-0,051
-347,693	64,652	-0,084	0,061
-346,679	800,000	-0,038	-0,113
-345,664	-42,998	-0,129	-0,047
-344,650	117,266	0,018	0,016
-343,635	12,975	-0,060	-0,033
-342,620	341,765	-0,082	-0,115
-341,606	800,000	0,044	-0,112
-340,591	-200,000	-0,014	0,063
-339,577	148,081	-0,069	-0,067
-338,562	-200,000	0,016	-0,105
-337,548	-12,852	-0,048	0,022
-336,533	75,182	0,078	-0,059
-335,518	800,000	0,014	0,043
-334,504	-200,000	0,009	0,032
-333,489	247,944	-0,023	0,028
-332,475	-96,773	-0,048	0,009
-331,460	390,843	-0,037	-0,054
-330,445	63,338	-0,142	-0,102
-329,431	-98,083	0,025	-0,004
-328,416	42,878	0,063	-0,041
-327,402	-47,689	0,066	0,023
-326,387	162,556	-0,113	-0,113
-325,372	800,000	-0,082	-0,167
-324,358	800,000	0,044	-0,121
-323,343	-146,352	0,055	-0,003
-322,329	-34,994	0,059	-0,023
-321,314	-200,000	-0,008	-0,058
-320,299	-200,000	-0,003	-0,037
-319,285	-200,000	0,014	-0,091
-318,270	-111,842	-0,058	-0,008
-317,256	68,431	0,022	-0,016
-316,241	242,447	-0,033	-0,040
-315,226	45,601	0,124	-0,082
-314,212	-56,924	-0,073	0,023
-313,197	-85,753	0,023	-0,005
-312,183	340,706	-0,038	0,053
-311,168	-166,835	-0,054	0,002
-310,153	800,000	-0,044	-0,110
-309,139	800,000	-0,013	0,030
-308,124	209,521	0,040	0,045
-307,110	-64,325	-0,059	0,017
-306,095	-200,000	0,010	0,038
-305,080	750,177	0,017	0,033
-304,066	-200,000	0,028	-0,097
-303,051	476,694	-0,034	-0,055
-302,037	800,000	0,017	0,037
-301,022	-200,000	0,002	0,054
-300,008	800,000	-0,116	0,243
-298,993	-200,000	0,015	0,061
-297,978	-91,385	0,156	-0,032
-296,964	368,402	0,040	-0,058
-295,949	612,155	-0,044	0,080
-294,935	28,281	0,082	0,050
-293,920	110,179	-0,114	-0,098
-292,905	53,178	0,077	0,053
-291,891	-87,986	-0,092	-0,020
-290,876	-30,587	0,087	0,035
-289,862	-100,645	0,118	-0,021
-288,847	203,684	0,076	0,084
-287,832	26,868	-0,085	0,051
-286,818	-119,829	-0,120	0,015
-285,803	328,609	0,030	0,041
-284,789	-8,819	0,065	0,031
-283,774	-200,000	-0,032	0,145
-282,759	419,252	0,040	-0,061
-281,745	224,159	0,098	-0,114
-280,730	-80,389	-0,126	0,030
-279,716	245,197	0,038	0,045
-278,701	703,750	0,064	0,120
-277,686	800,000	0,042	0,095
-276,672	-200,000	0,002	0,101
-275,657	63,995	0,112	-0,080
-274,643	118,433	-0,027	-0,024
-273,628	-137,536	0,033	-0,003
-272,613	57,654	-0,046	-0,032
-271,599	100,567	-0,030	-0,025
-270,584	-19,566	0,073	0,032
-269,570	800,000	0,023	-0,057
-268,555	55,567	-0,025	-0,017
-267,540	292,467	-0,013	0,017
-266,526	800,000	-0,052	-0,143
-265,511	-200,000	-0,005	-0,069
-264,497	206,494	0,015	-0,016
-263,482	91,812	0,080	0,064
-262,467	-61,856	-0,015	0,005
-261,453	800,000	0,005	-0,015
-260,438	35,904	-0,045	-0,028
-259,424	-48,569	-0,029	-0,010
-258,409	-61,136	-0,089	-0,027
-257,395	508,489	-0,046	-0,077
-256,380	-200,000	0,029	0,141
-255,365	102,393	0,101	0,084
-254,351	185,093	0,056	0,059
-253,336	160,469	0,059	0,059
-252,322	800,000	0,017	-0,053
-251,307	-200,000	0,011	0,066
-250,292	800,000	-0,004	-0,011
-249,278	-158,804	0,061	0,002
-248,263	674,285	0,016	0,030
-247,249	331,736	-0,055	0,076
-246,234	87,232	0,040	0,032
-245,219	31,882	-0,053	0,033
-244,205	-200,000	-0,011	-0,040
-243,190	800,000	0,045	-0,137
-242,176	-200,000	0,004	-0,063
-241,161	-70,098	0,126	0,034
-240,146	106,562	-0,049	0,042
-239,132	-1,428	-0,068	0,034
-238,117	383,156	-0,048	-0,070
-237,103	131,990	0,094	0,087
-236,088	-94,234	0,072	0,014
-235,073	4,118	0,149	0,078
-234,059	368,904	0,078	0,114
-233,044	123,206	-0,032	-0,029
-232,030	-200,000	0,023	0,092
-231,015	533,645	0,063	-0,107
-230,000	-84,498	-0,123	0,028
-228,986	-200,000	0,020	-0,065
-227,971	-113,698	-0,059	-0,008
-226,957	67,344	0,146	0,106
-225,942	-35,972	-0,008	-0,003
-224,927	92,887	0,063	-0,051
-223,913	-156,496	0,147	0,006
-222,898	652,857	0,009	-0,016
-221,884	127,524	-0,016	0,014
-220,869	365,334	-0,106	-0,152
-219,855	-200,000	-0,026	0,105
-218,840	153,613	-0,033	-0,032
-217,825	-200,000	0,026	-0,147
-216,811	-48,211	-0,054	-0,019
-215,796	-132,751	-0,034	0,003
-214,782	216,710	0,023	0,027
-213,767	53,548	0,079	0,054
-212,752	308,454	-0,058	0,078
-211,738	-200,000	0,027	0,163
-210,723	295,774	0,080	0,105
-209,709	-134,423	0,147	-0,013
-208,694	-128,713	0,087	-0,009
-207,679	178,288	0,055	-0,058
-206,665	601,544	0,023	-0,041
-205,650	-200,000	0,019	-0,124
-204,636	800,000	0,041	0,109
-203,621	-125,110	0,132	-0,014
-202,606	-7,685	-0,118	0,057
-201,592	74,305	-0,074	-0,055
-200,577	-14,304	-0,034	-0,015
-199,563	308,761	-0,025	0,034
-198,548	-200,000	-0,003	0,081
-197,533	20,723	0,131	0,076
-196,519	-200,000	-0,024	0,149
-195,504	21,354	0,057	-0,033
-194,490	800,000	0,015	-0,033
-193,475	-200,000	0,003	0,039
-192,460	-200,000	-0,004	-0,056
-191,446	-200,000	-0,007	-0,117
-190,431	157,206	-0,065	0,064
-189,417	308,800	0,026	-0,035
-188,402	-200,000	0,027	-0,164
-187,387	200,017	0,013	0,014
-186,373	30,869	0,035	-0,021
-185,358	-28,069	0,061	-0,025
-184,344	51,518	0,032	-0,022
-183,329	800,000	0,048	0,128
-182,315	-200,000	-0,038	0,167
-181,300	-200,000	0,047	0,157
-180,285	301,961	-0,076	-0,100
-179,271	800,000	-0,043	-0,117
-178,256	188,980	-0,032	0,034
-177,242	-78,771	0,101	-0,024
-176,227	86,642	0,082	0,064
-175,212	-97,344	-0,048	-0,009
-174,198	272,413	0,064	0,081
-173,183	503,043	0,021	0,034
-172,169	-48,200	-0,053	0,018
-171,154	-200,000	0,020	0,115
-170,139	53,525	0,071	-0,048
-169,125	759,252	0,060	0,117
-168,110	269,889	0,005	0,007
-167,096	-15,432	0,090	0,041
-166,081	-200,000	-0,010	-0,047
-165,066	37,123	-0,152	-0,096
-164,052	-200,000	-0,006	-0,187
-163,037	64,173	0,132	-0,094
-162,023	-200,000	0,013	0,105
-161,008	248,345	0,041	-0,050
-159,993	773,923	-0,041	-0,080
-158,979	-41,985	-0,033	-0,012
-157,964	-200,000	0,007	-0,031
-156,950	64,868	-0,062	-0,045
-155,935	58,244	0,063	-0,044
-154,920	271,338	0,020	0,025
-153,906	-9,194	0,103	0,049
-152,891	-200,000	0,060	0,233
-151,877	-51,171	-0,112	0,037
-150,862	174,067	0,114	-0,117
-149,847	800,000	-0,015	-0,042
-148,833	448,117	-0,101	-0,159
-147,818	-122,852	0,068	0,008
-146,804	270,674	0,068	-0,085
-145,789	-91,998	0,073	0,015
-144,775	-200,000	0,003	0,031
-143,760	-200,000	0,023	-0,077
-142,745	12,804	-0,135	-0,074
-141,731	-200,000	-0,013	0,078
-140,716	-150,923	0,097	0,005
-139,702	17,170	0,079	0,044
-138,687	800,000	-0,043	0,129
-137,672	-152,570	0,049	0,002
-136,658	800,000	-0,063	-0,147
-135,643	-173,563	-0,011	-0,000
-134,629	-200,000	0,002	-0,091
-133,614	-200,000	0,003	0,010
-132,599	30,175	0,066	0,040
-131,585	108,207	0,143	0,121
-130,570	84,353	-0,090	-0,070
-129,556	-200,000	0,028	-0,108
-128,541	33,834	-0,061	-0,037
-127,526	-61,360	-0,018	0,005
-126,512	-183,789	-0,142	-0,002
-125,497	110,927	0,150	-0,128
-124,483	328,930	-0,060	0,083
-123,468	727,825	-0,070	0,134
-122,453	54,741	-0,098	-0,067
-121,439	-200,000	0,022	-0,102
-120,424	-22,216	-0,120	0,051
-119,410	466,893	0,082	0,132
-118,395	752,821	0,026	-0,051
-117,380	800,000	0,021	-0,042
-116,366	-54,151	0,178	0,057
-115,351	373,314	-0,032	-0,047
-114,337	-80,121	-0,087	0,020
-113,322	800,000	0,036	-0,107
-112,307	800,000	0,038	0,092
-111,293	568,539	0,038	-0,065
-110,278	49,545	0,049	-0,033
-109,264	-200,000	-0,010	-0,048
-108,249	566,094	-0,040	0,068
-107,234	-200,000	0,002	-0,040
-106,220	-77,531	0,107	-0,026
-105,205	-113,247	0,062	0,009
-104,191	800,000	-0,024	-0,070
-103,176	29,199	0,152	-0,091
-102,162	182,592	0,017	0,018
-101,147	144,277	0,042	0,040
-100,132	-200,000	0,014	-0,175
-99,118	-15,906	0,081	0,036
-98,103	800,000	-0,040	-0,088
-97,089	800,000	0,016	0,048
-96,074	-132,948	0,152	-0,014
-95,059	59,541	-0,047	-0,033
-94,045	-200,000	-0,021	0,099
-93,030	-200,000	0,006	-0,076
-92,016	128,191	-0,195	-0,176
-91,001	43,324	0,121	0,078
-89,986	800,000	-0,070	0,155
-88,972	-200,000	0,030	0,150
-87,957	301,903	-0,067	-0,088
-86,943	-46,304	0,069	0,024
-85,928	800,000	-0,050	-0,127
-84,913	-123,189	-0,134	0,015
-83,899	-11,179	0,110	-0,051
-82,884	255,774	-0,016	0,020
-81,870	-200,000	-0,012	0,046
-80,855	-10,797	0,128	0,060
-79,840	106,529	-0,068	0,058
-78,826	-200,000	-0,010	-0,118
-77,811	381,103	0,124	-0,181
-76,797	-200,000	0,000	-0,097
-75,782	-134,500	0,112	-0,010
-74,767	-79,800	0,136	0,032
-73,753	247,221	-0,055	-0,066
-72,738	-52,349	-0,035	0,011
-71,724	-64,435	-0,137	-0,039
-70,709	336,387	-0,045	-0,062
-69,694	466,046	-0,082	0,131
-68,680	-124,041	0,174	-0,019
-67,665	-112,329	0,096	-0,014
-66,651	-129,881	0,080	-0,008
-65,636	-128,837	-0,090	-0,009
-64,622	141,222	0,097	-0,091
-63,607	284,253	0,057	-0,073
-62,592	249,790	-0,122	-0,147
-61,578	85,133	0,174	-0,135
-60,563	188,193	0,073	-0,077
-59,549	-200,000	-0,029	0,113
-58,534	-33,025	-1,385	-0,542
-57,519	342,315	-1,583	-2,203
-56,505	-200,000	-0,466	-4,438
-55,490	197,539	0,753	0,816
-54,476	800,000	4,656	11,346
-53,461	-200,000	17,721	280,829
-52,446	800,000	720,586	2218,867
-51,432	559,828	1634,430	2809,384
-50,417	80,833	1657,921	1266,512
-49,403	23,801	1531,736	892,458
-48,388	17,729	1455,603	818,822
-47,373	18,232	1444,941	815,204
-46,359	17,833	1435,465	807,924
-45,344	16,050	1430,763	796,773
-44,330	15,917	1429,257	795,269
-43,315	15,978	1427,054	794,302
-42,300	15,972	1425,769	793,527
-41,286	16,016	1424,308	792,892
-40,271	16,002	1423,090	792,114
-39,257	15,988	1421,812	791,309
-38,242	16,089	1420,292	790,905
-37,227	16,032	1419,346	790,079
-36,213	15,975	1418,051	789,057
-35,198	15,968	1416,899	788,353
-34,184	16,054	1415,821	788,126
-33,169	15,910	1414,579	786,726
-32,154	15,987	1413,725	786,580
-31,140	15,972	1412,414	785,751
-30,125	16,027	1411,131	785,265
-29,111	16,047	1409,882	784,629
-28,096	16,013	1408,769	783,822
-27,082	15,918	1407,869	782,847
-26,067	15,976	1406,405	782,272
-25,052	15,971	1405,470	781,695
-24,038	15,953	1404,542	781,067
-23,023	15,964	1403,288	780,389
-22,009	15,913	1402,572	779,724
-20,994	15,839	1401,800	778,920
-19,979	15,896	1400,690	778,536
-18,965	15,838	1399,765	777,720
-17,950	15,893	1398,762	777,387
-16,936	15,865	1397,898	776,746
-15,921	15,836	1396,532	775,823
-14,906	15,856	1395,638	775,387
-13,892	15,788	1394,933	774,650
-12,877	15,839	1393,707	774,177
-11,863	15,813	1392,998	773,628
-10,848	15,862	1392,002	773,274
-9,833	15,755	1391,096	772,242
-8,819	15,776	1390,059	771,735
-7,804	15,753	1389,040	771,030
-6,790	15,738	1388,254	770,496
-5,775	15,747	1387,177	769,912
-4,760	15,710	1386,361	769,257
-3,746	15,674	1385,704	768,696
-2,731	15,776	1384,708	768,580
-1,717	15,770	1383,719	767,972
-0,702	15,711	1381,876	766,651
0,313	19,541	1302,536	740,278
1,327	35,913	706,115	439,218
2,342	54,820	125,207	85,474
3,356	3,196	16,519	8,485
4,371	5,546	3,097	1,615
5,386	-33,175	0,581	0,227
6,400	576,884	-0,018	-0,032
7,415	-96,188	-0,325	-0,061
8,429	71,113	-0,283	-0,207
9,444	551,956	-0,269	-0,459
10,459	253,948	-0,191	-0,232
11,473	274,457	-0,248	-0,311
12,488	2,112	-0,259	-0,132
13,502	-8,531	-0,319	-0,151
14,517	16,342	-0,274	-0,153
15,531	39,009	-0,430	-0,271
16,546	11,303	-0,404	-0,218
17,561	97,263	-0,419	-0,340
18,575	212,993	-0,213	-0,238
19,590	261,371	-0,271	-0,333
20,604	27,371	-0,265	-0,157
21,619	106,733	-0,379	-0,318
22,634	95,388	-0,429	-0,345
23,648	273,602	-0,354	-0,444
24,663	141,840	-0,330	-0,310
25,677	66,169	-0,384	-0,276
26,692	-25,883	-0,390	-0,162
27,707	158,485	-0,225	-0,221
28,721	-0,078	-0,351	-0,176
29,736	238,703	-0,211	-0,248
30,750	228,028	-0,340	-0,392
31,765	158,743	-0,385	-0,378
32,780	171,269	-0,256	-0,259
33,794	210,610	-0,249	-0,276
34,809	800,000	-0,163	-0,325
35,823	299,798	-0,274	-0,357
36,838	35,319	-0,387	-0,239
37,853	18,897	-0,432	-0,244
38,867	158,266	-0,397	-0,390
39,882	144,285	-0,343	-0,323
40,896	85,592	-0,306	-0,238
41,911	111,312	-0,364	-0,310
42,926	136,915	-0,321	-0,296
43,940	-20,780	-0,461	-0,199
44,955	42,751	-0,333	-0,214
45,969	259,579	-0,274	-0,335
46,984	199,239	-0,247	-0,268
47,999	-40,366	-0,364	-0,133
49,013	204,844	-0,213	-0,233
50,028	17,218	-0,385	-0,215
51,042	-27,756	-0,281	-0,114
52,057	27,038	-0,379	-0,223
53,071	189,702	-0,385	-0,407
54,086	137,753	-0,384	-0,355
55,101	64,520	-0,287	-0,204
56,115	42,119	-0,142	-0,090
57,130	83,824	-0,384	-0,295
58,144	-7,814	-0,402	-0,191
59,159	-15,468	-0,474	-0,212
60,174	65,313	-0,446	-0,318
61,188	20,449	-0,278	-0,158
62,203	47,236	-0,284	-0,186
63,217	161,477	-0,199	-0,196
64,232	113,397	-0,314	-0,268
65,247	105,430	-0,335	-0,279
66,261	153,166	-0,282	-0,272
67,276	61,478	-0,324	-0,226
68,290	180,093	-0,310	-0,321
69,305	14,920	-0,266	-0,146
70,320	7,024	-0,290	-0,152
71,334	-41,266	-0,101	-0,036
72,349	17,233	-0,388	-0,216
73,363	158,139	-0,274	-0,268
74,378	63,468	-0,377	-0,266
75,393	-10,725	-0,338	-0,157
76,407	-12,739	-0,297	-0,136
77,422	-79,090	-0,310	-0,074
78,436	-85,327	-0,331	-0,072
79,451	23,543	-0,268	-0,155
80,466	94,087	-0,295	-0,235
81,480	40,926	-0,347	-0,220
82,495	474,086	-0,180	-0,287
83,509	53,254	-0,233	-0,157
84,524	-55,078	-0,346	-0,109
85,539	-17,733	-0,243	-0,107
86,553	-115,784	-0,273	-0,036
87,568	98,320	-0,242	-0,196
88,582	-17,263	-0,325	-0,143
89,597	187,735	-0,271	-0,284
90,611	-76,404	-0,212	-0,052
91,626	269,422	-0,191	-0,236
92,641	215,511	-0,141	-0,158
93,655	244,109	-0,271	-0,320
94,670	80,935	-0,288	-0,218
95,684	265,426	-0,245	-0,301
96,699	213,018	-0,239	-0,266
97,714	52,975	-0,187	-0,125
98,728	-111,548	-0,162	-0,023
99,743	370,734	-0,135	-0,192
100,757	-60,185	-0,328	-0,097
101,772	-6,848	-0,300	-0,143
102,787	33,543	-0,315	-0,192
103,801	72,277	-0,316	-0,231
104,816	532,989	-0,213	-0,356
105,830	3,850	-0,194	-0,099
106,845	128,629	-0,196	-0,175
107,860	-200,000	-0,001	-0,174
108,874	-5,214	-0,386	-0,186
109,889	-12,153	-0,307	-0,141
110,903	83,334	-0,207	-0,158
111,918	-57,903	-0,397	-0,121
112,933	5,813	-0,196	-0,102
113,947	37,713	-0,195	-0,121
114,962	17,277	-0,309	-0,172
115,976	143,154	-0,272	-0,254
116,991	11,795	-0,378	-0,203
118,006	-53,316	-0,265	-0,085
119,020	-14,377	-0,287	-0,129
120,035	-38,192	-0,227	-0,084
121,049	-60,440	-0,283	-0,084
122,064	-94,496	-0,197	-0,037
123,079	100,827	-0,304	-0,248
124,093	-200,000	-0,064	-0,285
125,108	366,717	-0,134	-0,189
126,122	11,625	-0,224	-0,120
127,137	-7,933	-0,274	-0,129
128,151	449,905	-0,098	-0,152
129,166	71,174	-0,154	-0,112
130,181	81,023	-0,210	-0,159
131,195	247,570	-0,176	-0,209
132,210	287,272	-0,243	-0,308
133,224	36,549	-0,188	-0,116
134,239	211,475	-0,180	-0,198
135,254	1,187	-0,226	-0,113
136,268	425,274	-0,129	-0,196
137,283	178,329	-0,224	-0,229
138,297	-5,461	-0,348	-0,167
139,312	178,749	-0,232	-0,238
140,327	5,473	-0,317	-0,164
141,341	0,725	-0,170	-0,085
142,356	-38,287	-0,242	-0,089
143,370	97,472	-0,241	-0,193
144,385	-14,543	-0,344	-0,154
145,400	78,026	-0,251	-0,187
146,414	331,200	-0,232	-0,314
147,429	120,752	-0,226	-0,197
148,443	114,359	-0,220	-0,187
149,458	401,000	-0,147	-0,217
150,473	-73,523	-0,296	-0,075
151,487	-0,244	-0,277	-0,137
152,502	281,843	-0,184	-0,231
153,516	21,916	-0,299	-0,170
154,531	57,359	-0,264	-0,180
155,546	-1,699	-0,218	-0,107
156,560	-16,799	-0,283	-0,125
157,575	-106,750	-0,175	0,027
158,589	175,182	-0,174	-0,177
159,604	-58,969	-0,342	-0,103
160,619	181,728	-0,225	-0,232
161,633	-15,205	-0,353	-0,157
162,648	10,824	-0,214	-0,114
163,662	423,862	-0,143	-0,216
164,677	-40,226	-0,347	-0,126
165,692	243,348	-0,229	-0,269
166,706	572,578	-0,158	-0,270
167,721	800,000	-0,148	-0,315
168,735	-83,066	-0,236	-0,053
169,750	-111,862	-0,239	-0,033
170,764	382,516	-0,084	-0,121
171,779	-37,718	-0,238	-0,088
172,794	-53,907	-0,153	-0,049
173,808	-93,147	-0,326	-0,063
174,823	-37,936	-0,227	-0,084
175,837	604,322	-0,173	-0,302
176,852	160,651	-0,133	-0,129
177,867	22,735	-0,219	-0,125
178,881	166,245	-0,158	-0,156
179,896	196,737	-0,162	-0,173
180,910	233,178	-0,219	-0,252
181,925	225,395	-0,191	-0,216
182,940	52,572	-0,285	-0,190
183,954	246,781	-0,207	-0,244
184,969	63,536	-0,285	-0,199
185,983	283,046	-0,177	-0,223
186,998	227,842	-0,145	-0,164
188,013	61,530	-0,213	-0,148
189,027	143,858	-0,229	-0,213
190,042	248,011	-0,184	-0,218
191,056	271,584	-0,166	-0,205
192,071	170,881	-0,169	-0,169
193,086	195,549	-0,140	-0,149
194,100	-18,940	-0,244	-0,105
195,115	800,000	-0,081	-0,230
196,129	42,523	-0,209	-0,132
197,144	-67,407	-0,255	-0,069
198,159	800,000	-0,123	-0,263
199,173	363,514	-0,148	-0,208
200,188	-10,348	-0,245	0,113
201,202	763,988	-0,113	-0,215
202,217	69,434	-0,227	-0,162
203,232	-59,283	-0,208	-0,062
204,246	102,305	-0,169	-0,138
205,261	-18,911	-0,106	-0,046
206,275	800,000	-0,132	-0,261
207,290	639,260	-0,111	-0,197
208,304	176,839	-0,182	-0,184
209,319	-92,554	-0,258	-0,050
210,334	-41,430	-0,172	-0,061
211,348	800,000	-0,102	-0,239
212,363	72,895	-0,292	-0,212
213,377	-200,000	-0,049	-0,157
214,392	122,838	-0,037	-0,032
215,407	585,551	-0,094	-0,162
216,421	28,370	-0,220	-0,129
217,436	408,689	-0,100	-0,147
218,450	-103,924	-0,152	-0,024
219,465	40,582	-0,223	-0,139
220,480	-66,471	-0,217	-0,060
221,494	-200,000	-0,057	-0,242
222,509	66,218	-0,172	-0,122
223,523	234,671	-0,140	-0,161
224,538	180,713	-0,175	-0,178
225,553	30,398	-0,342	-0,203
226,567	-33,670	-0,216	-0,082
227,582	-62,907	-0,285	-0,081
228,596	214,225	-0,150	-0,165
229,611	123,013	-0,185	-0,161
230,626	-46,613	-0,227	-0,077
231,640	-1,746	-0,262	-0,128
232,655	80,646	-0,277	-0,207
233,669	395,528	-0,173	-0,251
234,684	227,174	-0,201	-0,227
235,699	230,312	-0,312	-0,355
236,713	25,830	-0,146	-0,084
237,728	287,878	-0,074	-0,093
238,742	135,862	-0,167	-0,151
239,757	-141,954	-0,202	0,014
240,772	241,856	-0,110	-0,128
241,786	34,464	-0,248	-0,150
242,801	-44,365	-0,207	-0,072
243,815	75,340	-0,149	-0,109
244,830	696,592	-0,078	-0,143
245,844	-52,857	-0,161	-0,051
246,859	-35,806	-0,189	-0,071
247,874	154,496	-0,171	-0,163
248,888	114,316	-0,199	-0,168
249,903	-21,957	-0,176	-0,074
250,917	-0,966	-0,147	-0,072
251,932	-19,913	-0,065	-0,028
252,947	11,905	-0,127	-0,068
253,961	10,867	-0,050	-0,026
254,976	-25,631	-0,251	-0,102
255,990	625,442	-0,088	-0,155
257,005	352,275	-0,193	-0,266
258,020	389,750	-0,176	-0,253
259,034	263,437	-0,170	-0,205
260,049	226,081	-0,153	-0,172
261,063	761,064	-0,119	-0,225
262,078	42,875	-0,194	-0,122
263,093	-108,062	-0,179	-0,027
264,107	-77,465	-0,281	-0,067
265,122	101,838	-0,173	-0,140
266,136	80,094	-0,131	-0,097
267,151	-71,176	-0,082	0,021
268,166	-42,696	-0,186	-0,065
269,180	93,770	-0,124	-0,097
270,195	-16,173	-0,137	-0,060
271,209	-74,995	-0,107	-0,026
272,224	186,971	-0,114	-0,117
273,239	442,316	-0,100	-0,153
274,253	52,894	-0,273	-0,180
275,268	93,355	-0,226	-0,177
276,282	436,813	-0,051	-0,077
277,297	70,340	-0,264	-0,188
278,312	-35,897	-0,285	-0,106
279,326	92,236	-0,115	-0,090
280,341	428,381	-0,077	-0,115
281,355	46,611	-0,220	-0,141
282,370	-141,514	-0,100	0,007
283,384	279,338	-0,107	-0,132
284,399	-52,424	-0,164	-0,052
285,414	-68,126	-0,227	-0,061
286,428	348,519	-0,009	0,012
287,443	114,348	-0,121	-0,102
288,457	55,076	-0,128	-0,085
289,472	-51,512	-0,155	-0,050
290,487	372,663	-0,116	-0,163
291,501	112,127	-0,276	-0,230
292,516	-81,118	-0,271	-0,061
293,530	64,614	-0,258	-0,179
294,545	668,769	-0,100	-0,179
295,560	-106,871	-0,121	-0,018
296,574	29,774	-0,161	-0,094
297,589	147,631	-0,104	-0,097
298,603	169,715	-0,184	-0,181
299,618	-38,632	-0,140	-0,051
300,633	-1,990	-0,127	-0,061
301,647	-127,829	-0,118	-0,012
302,662	61,609	-0,072	0,049
303,676	-92,635	-0,118	-0,023
304,691	-3,709	-0,070	-0,034
305,706	510,496	-0,100	-0,161
306,720	315,022	-0,094	-0,122
307,735	421,877	-0,116	-0,172
308,749	93,683	-0,138	-0,108
309,764	30,651	-0,112	0,066
310,779	-137,258	-0,248	0,019
311,793	-69,635	-0,259	-0,068
312,808	6,062	-0,236	-0,120
313,822	99,889	-0,243	-0,194
314,837	31,062	-0,169	-0,100
315,852	-10,691	-0,105	-0,048
316,866	-75,980	-0,128	0,031
317,881	800,000	-0,095	-0,212
318,895	6,957	-0,246	-0,126
319,910	800,000	-0,115	-0,221
320,925	-200,000	-0,009	-0,093
321,939	-18,432	-0,175	0,075
322,954	-200,000	0,028	-0,214
323,968	-200,000	-0,032	-0,118
324,983	72,023	-0,156	-0,112
325,997	800,000	-0,053	-0,131
327,012	137,421	-0,157	-0,141
328,027	217,590	-0,159	-0,175
329,041	800,000	-0,087	-0,178
330,056	262,032	-0,143	-0,171
331,070	-51,342	-0,159	-0,051
332,085	-129,096	-0,096	-0,009
333,100	-85,444	-0,130	-0,028
334,114	26,268	-0,153	-0,088
335,129	-24,419	-0,111	-0,045
336,143	222,680	-0,159	-0,176
337,158	-200,000	0,013	-0,135
338,173	86,186	-0,163	-0,123
339,187	26,981	-0,171	-0,098
340,202	118,346	-0,124	-0,105
341,216	-7,212	-0,201	-0,093
342,231	-200,000	-0,053	-0,184
343,246	37,272	-0,090	-0,055
344,260	101,384	-0,066	-0,053
345,275	261,913	-0,083	-0,099
346,289	109,084	-0,121	-0,099
347,304	344,140	-0,143	-0,193
348,319	-44,217	-0,248	-0,085
349,333	-200,000	0,002	-0,188
350,348	-107,014	-0,102	0,015
351,362	800,000	-0,070	0,167
352,377	174,121	-0,140	-0,139
353,392	119,699	-0,107	-0,091
354,406	-200,000	0,011	-0,036
355,421	209,002	1313,284	1414,020
356,435	160,846	1473,844	1414,546
