DTS Sentinel unit serial number:	SN410029Multiplexer serial number:	ORYXHardware model number:	OX2-SRSoftware version number:	ORYX F/W v4,00 Oryx Data Collector v3.7.2.0data status	okinstallation	B3 Nyhavnadifferential loss correction	single-endedforward channel	channel 1reverse channel	N/Adate	2023/11/29time	21:47:30forward acquisition time	300,00reverse acquisition time	0,00gamma	499,1914k internal	0,3210k external	0,3210temperature offset calibration	1,0000default loss term (dB/km)	0,3820temperature slope calibration	1,0000multiplexer offset coefficient	1,0000multiplexer slope coefficient	1,0000fibre end	0,00T internal ref (°C)	10,81T ext. ref 1 (°C)	-4,42T ext. ref 2 (°C)	-4,51length (m)	temperature (°C)	Stokes	anti-Stokes-744,400	182,442	-0,264	-0,283
-743,385	800,000	0,108	0,255
-742,371	164,742	-0,160	-0,164
-741,356	800,000	0,165	0,387
-740,342	436,902	-0,120	-0,190
-739,327	-200,000	0,021	0,337
-738,312	-5,223	-0,149	-0,074
-737,298	309,233	-0,146	0,198
-736,283	302,458	-0,159	-0,213
-735,269	-200,000	0,034	0,357
-734,254	443,592	-0,055	-0,088
-733,239	192,721	-0,226	0,248
-732,225	150,657	-0,206	-0,203
-731,210	260,080	0,110	0,139
-730,196	96,456	-0,093	0,077
-729,181	-109,956	-0,151	0,023
-728,167	-40,863	-0,065	-0,024
-727,152	-19,329	-0,058	0,026
-726,137	-114,954	-0,175	-0,024
-725,123	-160,659	-0,096	0,004
-724,108	-29,724	-0,123	-0,050
-723,094	800,000	0,023	-0,070
-722,079	-148,999	0,046	0,003
-721,064	-200,000	-0,010	-0,149
-720,050	800,000	-0,029	-0,080
-719,035	-43,419	-0,060	0,022
-718,021	49,735	0,083	-0,056
-717,006	800,000	0,031	-0,082
-715,991	-200,000	0,016	-0,090
-714,977	-200,000	-0,051	-0,194
-713,962	-57,789	-0,062	0,020
-712,948	151,852	-0,032	0,031
-711,933	103,620	-0,100	-0,085
-710,918	800,000	0,004	-0,012
-709,904	-100,160	-0,081	0,015
-708,889	132,908	-0,073	-0,069
-707,875	111,864	-0,070	-0,061
-706,860	-200,000	-0,018	-0,087
-705,845	-200,000	0,034	-0,129
-704,831	402,460	-0,077	0,117
-703,816	131,281	-0,113	0,105
-702,802	184,827	-0,055	-0,059
-701,787	-8,142	0,079	0,038
-700,772	-8,567	-0,136	-0,066
-699,758	55,484	0,103	-0,072
-698,743	-78,498	0,073	0,018
-697,729	-22,627	0,022	0,010
-696,714	-200,000	0,014	0,162
-695,699	130,300	0,007	0,007
-694,685	790,385	0,036	-0,072
-693,670	800,000	0,039	-0,115
-692,656	134,192	-0,081	-0,076
-691,641	-200,000	-0,037	0,133
-690,627	-200,000	0,005	0,034
-689,612	800,000	-0,012	0,033
-688,597	-49,204	-0,058	0,020
-687,583	176,685	-0,031	0,033
-686,568	800,000	-0,043	-0,117
-685,554	800,000	-0,065	-0,159
-684,539	-200,000	-0,013	-0,101
-683,524	-171,309	0,130	-0,003
-682,510	-0,404	-0,111	0,057
-681,495	-114,434	-0,128	0,018
-680,481	493,123	0,032	-0,053
-679,466	267,635	-0,042	-0,054
-678,451	52,212	-0,080	-0,055
-677,437	110,245	0,047	0,041
-676,422	234,990	0,073	0,088
-675,408	-200,000	-0,006	0,143
-674,393	800,000	-0,039	0,122
-673,378	-200,000	-0,014	-0,131
-672,364	-141,786	-0,174	-0,012
-671,349	34,362	-0,107	-0,067
-670,335	97,434	-0,032	0,027
-669,320	-94,943	0,033	0,006
-668,305	-176,005	0,125	0,002
-667,291	-200,000	-0,056	0,204
-666,276	-33,256	-0,047	-0,019
-665,262	800,000	0,008	0,023
-664,247	-200,000	-0,005	-0,064
-663,232	306,041	0,063	-0,085
-662,218	-72,364	-0,127	0,034
-661,203	-11,245	-0,011	0,005
-660,189	-162,190	0,019	-0,001
-659,174	-59,313	-0,170	-0,053
-658,159	82,526	-0,082	-0,064
-657,145	78,393	-0,043	0,033
-656,130	-200,000	0,002	-0,009
-655,116	-17,013	0,009	-0,004
-654,101	56,142	0,053	-0,037
-653,086	26,366	-0,066	-0,040
-652,072	96,597	-0,025	0,020
-651,057	117,908	0,049	0,044
-650,043	800,000	-0,049	-0,113
-649,028	44,916	0,035	-0,023
-648,014	-103,985	0,070	-0,012
-646,999	-200,000	0,011	-0,095
-645,984	-5,240	-0,040	-0,020
-644,970	261,380	-0,022	-0,027
-643,955	196,986	0,063	-0,070
-642,941	622,331	0,013	-0,023
-641,926	800,000	0,066	0,138
-640,911	202,304	-0,049	0,054
-639,897	-60,560	-0,084	0,026
-638,882	800,000	0,029	-0,067
-637,868	85,339	-0,085	0,067
-636,853	15,124	-0,019	0,011
-635,838	800,000	-0,030	0,073
-634,824	533,990	0,007	-0,012
-633,809	60,586	0,049	-0,035
-632,795	247,138	-0,054	0,066
-631,780	567,909	0,032	-0,057
-630,765	-130,675	-0,082	-0,008
-629,751	-200,000	0,026	-0,135
-628,736	-200,000	0,005	0,130
-627,722	800,000	0,052	0,106
-626,707	-17,175	0,073	-0,033
-625,692	-50,627	0,165	0,056
-624,678	170,596	-0,039	0,040
-623,663	173,986	0,028	-0,030
-622,649	285,398	0,066	-0,086
-621,634	149,764	-0,051	-0,050
-620,619	-200,000	-0,014	-0,055
-619,605	-200,000	-0,006	0,044
-618,590	-6,030	-0,099	0,049
-617,576	-200,000	0,013	-0,069
-616,561	-200,000	0,010	-0,045
-615,546	-67,810	-0,182	-0,051
-614,532	-200,000	0,009	-0,099
-613,517	41,936	-0,149	-0,097
-612,503	-157,056	0,064	-0,003
-611,488	45,791	0,074	0,049
-610,474	146,764	-0,031	0,030
-609,459	800,000	0,027	0,069
-608,444	57,605	-0,071	-0,050
-607,430	617,042	0,044	-0,080
-606,415	337,501	-0,060	0,084
-605,401	493,539	0,036	0,060
-604,386	800,000	-0,040	0,081
-603,371	91,837	0,124	-0,100
-602,357	-35,548	0,019	0,007
-601,342	-200,000	-0,014	0,089
-600,328	-200,000	-0,013	-0,102
-599,313	-200,000	0,007	-0,057
-598,298	-200,000	-0,021	-0,119
-597,284	-200,000	-0,032	0,112
-596,269	31,741	-0,057	0,036
-595,255	-81,575	0,041	-0,010
-594,240	329,346	-0,029	-0,041
-593,225	800,000	-0,043	-0,117
-592,211	-112,194	-0,101	-0,015
-591,196	246,967	0,038	-0,046
-590,182	-94,081	-0,064	0,012
-589,167	-187,774	0,120	-0,001
-588,152	-200,000	0,024	-0,087
-587,138	-77,873	-0,109	-0,027
-586,123	12,514	-0,155	-0,086
-585,109	65,416	-0,045	0,033
-584,094	289,556	0,044	-0,058
-583,079	-175,800	-0,039	0,001
-582,065	575,186	0,062	0,110
-581,050	22,706	0,036	0,021
-580,036	-74,476	0,079	-0,020
-579,021	140,436	-0,096	-0,091
-578,006	29,097	-0,114	-0,070
-576,992	280,880	0,086	0,111
-575,977	800,000	-0,097	0,198
-574,963	-15,706	0,097	0,044
-573,948	-131,125	-0,133	-0,013
-572,934	466,646	-0,119	0,192
-571,919	68,626	-0,044	0,032
-570,904	683,157	-0,062	-0,118
-569,890	-116,576	0,061	0,008
-568,875	-200,000	-0,007	0,039
-567,861	793,754	0,065	0,130
-566,846	-200,000	0,013	0,081
-565,831	164,386	-0,030	0,031
-564,817	218,492	-0,134	-0,155
-563,802	133,318	0,084	0,079
-562,788	70,216	-0,162	-0,120
-561,773	-14,616	-0,124	0,057
-560,758	-200,000	0,006	0,210
-559,744	-6,504	0,054	-0,026
-558,729	-200,000	-0,009	0,054
-557,715	3,683	0,086	-0,045
-556,700	402,759	-0,079	-0,120
-555,685	-200,000	-0,048	-0,158
-554,671	38,019	-0,131	-0,084
-553,656	148,862	-0,043	0,042
-552,642	-200,000	-0,005	0,042
-551,627	-200,000	-0,007	0,111
-550,612	-136,648	0,067	0,005
-549,598	82,409	0,086	-0,067
-548,583	-3,197	-0,126	-0,063
-547,569	-63,745	-0,113	-0,033
-546,554	167,825	0,015	-0,016
-545,539	-200,000	-0,022	-0,106
-544,525	-156,155	0,136	-0,006
-543,510	-190,290	-0,104	0,001
-542,496	337,100	0,096	-0,135
-541,481	-200,000	-0,038	-0,145
-540,466	287,037	-0,040	0,052
-539,452	-200,000	0,014	0,063
-538,437	-200,000	0,037	0,122
-537,423	71,257	0,091	-0,068
-536,408	465,451	-0,026	-0,043
-535,393	-68,017	-0,039	0,011
-534,379	800,000	-0,053	0,149
-533,364	-42,438	-0,053	-0,020
-532,350	218,306	-0,004	-0,005
-531,335	800,000	0,063	0,145
-530,321	338,886	0,034	-0,048
-529,306	-86,411	-0,145	-0,032
-528,291	-129,094	0,093	0,009
-527,277	427,634	-0,081	0,126
-526,262	-81,679	0,068	-0,016
-525,248	-69,842	-0,063	0,017
-524,233	-64,856	0,136	-0,039
-523,218	-83,683	0,141	0,032
-522,204	316,152	0,033	-0,045
-521,189	-81,740	-0,073	0,017
-520,175	125,705	-0,046	0,042
-519,160	-59,833	0,037	-0,011
-518,145	-200,000	0,019	0,087
-517,131	-200,000	-0,013	0,075
-516,116	-200,000	0,001	-0,120
-515,102	-200,000	-0,004	0,018
-514,087	150,562	-0,091	0,089
-513,072	354,033	-0,026	-0,037
-512,058	-200,000	0,012	0,066
-511,043	800,000	-0,041	0,126
-510,029	800,000	0,019	0,040
-509,014	-200,000	-0,003	0,124
-507,999	57,421	-0,087	0,061
-506,985	-154,517	-0,116	-0,005
-505,970	-119,711	-0,068	0,008
-504,956	800,000	-0,028	0,072
-503,941	657,654	0,061	0,114
-502,926	-43,198	0,176	0,064
-501,912	-200,000	-0,008	-0,046
-500,897	78,222	-0,138	-0,106
-499,883	-127,124	-0,114	-0,012
-498,868	112,949	0,036	0,031
-497,853	-1,383	0,109	0,055
-496,839	-200,000	0,022	-0,097
-495,824	800,000	0,038	-0,077
-494,810	73,676	0,057	-0,043
-493,795	-200,000	0,007	0,027
-492,781	-41,064	-0,163	-0,060
-491,766	-12,891	0,090	-0,042
-490,751	-105,747	0,038	-0,006
-489,737	68,158	0,119	0,087
-488,722	-123,700	0,140	-0,016
-487,708	-67,979	-0,166	0,046
-486,693	152,997	-0,065	0,064
-485,678	10,521	-0,012	0,007
-484,664	-13,887	0,024	-0,011
-483,649	455,539	-0,055	-0,088
-482,635	-98,988	0,117	0,021
-481,620	294,642	-0,044	0,058
-480,605	332,785	0,048	0,067
-479,591	450,041	0,038	0,060
-478,576	800,000	-0,003	0,008
-477,562	-78,095	-0,102	-0,025
-476,547	800,000	0,031	0,072
-475,532	800,000	-0,065	-0,147
-474,518	30,038	-0,029	-0,018
-473,503	-200,000	-0,014	0,076
-472,489	201,039	0,065	0,071
-471,474	800,000	-0,052	0,103
-470,459	-91,547	-0,109	0,022
-469,445	93,199	0,141	-0,114
-468,430	130,177	0,035	-0,032
-467,416	85,608	0,086	-0,068
-466,401	-200,000	0,015	-0,176
-465,386	-82,013	-0,062	0,014
-464,372	303,994	0,023	-0,031
-463,357	-101,015	-0,022	-0,004
-462,343	-7,922	0,018	-0,009
-461,328	757,475	-0,059	0,115
-460,313	-108,863	-0,055	-0,008
-459,299	800,000	0,018	0,042
-458,284	-200,000	0,007	-0,058
-457,270	19,729	-0,187	-0,108
-456,255	-155,332	-0,079	0,004
-455,241	133,408	-0,083	-0,077
-454,226	-172,163	-0,141	0,003
-453,211	-184,704	0,084	0,001
-452,197	316,146	0,025	-0,033
-451,182	175,434	-0,027	-0,028
-450,168	-200,000	0,028	0,109
-449,153	80,705	-0,113	-0,087
-448,138	-200,000	0,008	-0,045
-447,124	78,166	-0,036	-0,028
-446,109	-200,000	0,006	-0,022
-445,095	38,983	-0,062	0,040
-444,080	800,000	-0,032	-0,075
-443,065	254,149	-0,038	0,047
-442,051	-126,745	0,152	0,016
-441,036	62,491	-0,080	-0,057
-440,022	-200,000	0,004	0,037
-439,007	-200,000	0,008	0,070
-437,992	-200,000	-0,051	0,167
-436,978	-67,161	-0,131	0,037
-435,963	174,476	-0,068	0,071
-434,949	29,219	-0,114	0,069
-433,934	800,000	0,033	-0,072
-432,919	220,800	-0,066	-0,076
-431,905	32,992	-0,087	-0,054
-430,890	520,498	0,047	-0,079
-429,876	-39,331	0,066	-0,025
-428,861	-200,000	-0,015	0,091
-427,846	-200,000	-0,000	-0,087
-426,832	800,000	-0,078	-0,235
-425,817	-200,000	-0,014	-0,057
-424,803	46,760	-0,057	-0,038
-423,788	-82,714	0,016	-0,004
-422,773	-200,000	0,014	0,045
-421,759	-200,000	-0,025	0,154
-420,744	315,661	-0,025	0,033
-419,730	-200,000	-0,033	-0,197
-418,715	-96,377	0,079	0,015
-417,701	48,881	-0,062	0,042
-416,686	800,000	-0,045	-0,098
-415,671	-110,616	0,067	-0,010
-414,657	-110,642	0,089	-0,013
-413,642	18,651	0,151	0,086
-412,628	265,795	0,082	-0,103
-411,613	-200,000	-0,013	-0,090
-410,598	479,838	0,054	0,088
-409,584	546,416	-0,042	-0,071
-408,569	596,471	0,036	-0,064
-407,555	326,327	0,098	0,134
-406,540	4,518	0,123	0,064
-405,525	-200,000	0,023	0,131
-404,511	-200,000	0,005	-0,058
-403,496	-99,271	0,055	-0,010
-402,482	800,000	0,053	0,144
-401,467	184,324	0,135	0,143
-400,452	181,251	-0,093	-0,098
-399,438	-160,719	-0,074	-0,003
-398,423	800,000	-0,049	0,153
-397,409	-200,000	-0,021	-0,173
-396,394	161,991	-0,088	0,089
-395,379	25,490	-0,033	0,020
-394,365	63,960	-0,130	-0,093
-393,350	800,000	0,023	0,066
-392,336	263,267	0,024	0,030
-391,321	39,131	0,098	-0,063
-390,306	-200,000	-0,022	-0,099
-389,292	800,000	-0,085	-0,175
-388,277	-76,049	0,067	0,017
-387,263	-152,434	-0,012	0,001
-386,248	-200,000	0,049	0,177
-385,233	-200,000	-0,000	-0,041
-384,219	-200,000	-0,032	-0,120
-383,204	-200,000	0,009	-0,096
-382,190	23,224	0,071	0,042
-381,175	-95,059	-0,022	-0,004
-380,160	79,354	0,113	-0,087
-379,146	44,627	0,114	0,075
-378,131	766,547	0,053	0,103
-377,117	22,327	-0,093	0,054
-376,102	-200,000	-0,022	0,159
-375,088	82,657	-0,090	-0,070
-374,073	-85,010	0,058	0,013
-373,058	-200,000	-0,029	-0,197
-372,044	380,270	-0,051	0,075
-371,029	298,334	0,024	0,031
-370,015	462,268	-0,043	-0,069
-369,000	-126,422	-0,038	0,004
-367,985	260,359	0,052	-0,064
-366,971	95,709	-0,060	0,049
-365,956	-143,509	0,091	0,006
-364,942	353,671	-0,071	0,100
-363,927	-200,000	0,002	0,069
-362,912	190,811	0,026	0,028
-361,898	5,037	0,079	0,041
-360,883	408,698	-0,062	-0,094
-359,869	-65,830	0,087	-0,025
-358,854	-31,787	0,074	0,030
-357,839	20,388	0,062	0,036
-356,825	122,078	-0,136	-0,122
-355,810	33,892	-0,024	0,015
-354,796	249,887	0,081	0,099
-353,781	76,790	-0,060	-0,045
-352,766	-200,000	-0,017	-0,086
-351,752	-75,564	-0,023	0,006
-350,737	-200,000	0,002	-0,120
-349,723	-133,776	-0,136	-0,012
-348,708	625,255	0,036	0,064
-347,693	-200,000	-0,015	0,061
-346,679	800,000	0,021	-0,055
-345,664	426,953	-0,043	0,066
-344,650	386,375	0,061	0,090
-343,635	-200,000	0,010	0,275
-342,620	178,443	-0,112	0,117
-341,606	-200,000	-0,023	0,083
-340,591	55,078	0,097	-0,067
-339,577	-200,000	-0,039	-0,152
-338,562	-164,393	-0,130	0,004
-337,548	461,768	0,045	-0,072
-336,533	274,116	0,072	-0,092
-335,518	-98,934	0,147	0,026
-334,504	13,844	0,060	-0,033
-333,489	109,427	-0,064	0,054
-332,475	106,157	-0,064	-0,054
-331,460	-200,000	-0,010	0,095
-330,445	329,208	-0,028	0,038
-329,431	386,367	0,103	0,153
-328,416	-200,000	0,046	0,149
-327,402	-200,000	-0,010	-0,031
-326,387	-54,982	0,147	0,047
-325,372	-127,859	0,036	0,004
-324,358	368,530	0,058	-0,084
-323,343	-66,003	0,107	-0,030
-322,329	-95,149	0,047	-0,009
-321,314	203,946	0,098	0,109
-320,299	-200,000	0,000	0,204
-319,285	-137,709	0,028	0,002
-318,270	428,121	0,021	0,032
-317,256	-33,091	-0,107	-0,042
-316,241	-61,976	0,135	0,040
-315,226	-200,000	-0,003	0,064
-314,212	188,900	0,109	-0,116
-313,197	-167,742	0,030	0,001
-312,183	-23,819	-0,115	0,049
-311,168	280,181	-0,062	0,079
-310,153	-73,076	-0,141	0,037
-309,139	-82,465	-0,073	-0,017
-308,124	279,499	0,075	0,096
-307,110	67,533	-0,045	-0,033
-306,095	-127,849	-0,071	-0,007
-305,080	-46,493	0,075	0,026
-304,066	-99,834	-0,122	-0,022
-303,051	-76,393	0,020	0,005
-302,037	800,000	0,053	-0,161
-301,022	-40,163	0,140	-0,052
-300,008	204,235	0,098	-0,109
-298,993	455,384	0,083	-0,131
-297,978	800,000	0,032	-0,077
-296,964	-200,000	0,007	0,134
-295,949	800,000	-0,019	0,049
-294,935	38,704	-0,063	-0,040
-293,920	-131,883	0,227	0,021
-292,905	428,418	-0,030	-0,047
-291,891	-48,960	0,071	0,024
-290,876	308,138	-0,009	-0,013
-289,862	48,632	-0,089	0,059
-288,847	603,664	-0,014	-0,025
-287,832	800,000	0,022	0,052
-286,818	-125,423	0,144	0,015
-285,803	-200,000	-0,001	0,066
-284,789	-200,000	-0,001	0,023
-283,774	-117,597	0,084	-0,011
-282,759	-164,922	-0,067	-0,002
-281,745	-22,391	-0,159	-0,068
-280,730	-200,000	0,013	-0,089
-279,716	283,574	0,050	0,064
-278,701	-200,000	0,007	0,032
-277,686	-13,965	0,095	0,043
-276,672	-200,000	-0,017	0,088
-275,657	39,911	0,111	-0,071
-274,643	-200,000	-0,011	-0,109
-273,628	42,721	-0,046	0,030
-272,613	44,729	-0,044	-0,029
-271,599	800,000	0,026	0,057
-270,584	800,000	0,038	-0,077
-269,570	-178,041	-0,095	-0,002
-268,555	-200,000	0,008	-0,061
-267,540	-141,848	-0,121	-0,008
-266,526	116,074	0,014	0,013
-265,511	562,073	0,066	-0,114
-264,497	-85,931	-0,176	-0,038
-263,482	-171,807	0,131	-0,003
-262,467	114,781	0,050	-0,044
-261,453	415,387	0,070	0,106
-260,438	194,173	0,109	-0,118
-259,424	-29,777	-0,171	-0,069
-258,409	160,666	0,048	-0,048
-257,395	316,584	0,038	-0,052
-256,380	-200,000	0,026	-0,082
-255,365	800,000	-0,040	0,100
-254,351	-200,000	0,012	-0,051
-253,336	-4,645	0,030	-0,015
-252,322	557,895	-0,083	-0,143
-251,307	161,899	-0,088	-0,088
-250,292	-200,000	-0,018	0,084
-249,278	-200,000	0,009	0,046
-248,263	176,913	-0,104	0,107
-247,249	95,193	0,062	0,050
-246,234	181,351	0,078	0,081
-245,219	-128,737	-0,077	0,008
-244,205	-54,736	0,073	-0,023
-243,190	5,055	-0,120	0,063
-242,176	30,844	0,086	0,053
-241,161	800,000	0,021	0,063
-240,146	-200,000	-0,001	0,028
-239,132	-48,397	0,040	0,014
-238,117	79,736	-0,073	-0,056
-237,103	-93,642	-0,063	0,012
-236,088	498,391	-0,039	0,064
-235,073	-76,586	0,134	0,033
-234,059	800,000	-0,050	0,139
-233,044	30,672	0,063	-0,038
-232,030	5,292	-0,125	-0,065
-231,015	18,892	-0,036	0,020
-230,000	800,000	0,036	0,105
-228,986	44,417	0,096	0,063
-227,971	-200,000	0,011	0,042
-226,957	-200,000	-0,044	0,180
-225,942	-24,990	0,091	-0,038
-224,927	-96,216	-0,098	0,018
-223,913	-75,965	-0,078	-0,019
-222,898	79,603	0,013	-0,010
-221,884	284,386	0,100	-0,128
-220,869	-76,118	0,043	0,011
-219,855	80,164	-0,073	0,056
-218,840	-67,484	0,058	-0,016
-217,825	-39,121	0,136	0,050
-216,811	-52,404	0,075	-0,024
-215,796	800,000	0,053	0,133
-214,782	-200,000	0,009	-0,098
-213,767	800,000	-0,022	-0,049
-212,752	-200,000	-0,013	0,133
-211,738	1,907	0,124	0,063
-210,723	-30,732	-0,116	0,046
-209,709	194,129	-0,093	-0,101
-208,694	280,039	-0,025	0,032
-207,679	176,737	-0,089	-0,092
-206,665	-200,000	-0,010	-0,052
-205,650	445,699	0,022	-0,035
-204,636	105,052	0,061	0,051
-203,621	-84,965	0,082	0,018
-202,606	-39,385	-0,109	-0,040
-201,592	-92,307	-0,092	-0,018
-200,577	-61,799	0,093	-0,028
-199,563	485,890	0,063	0,103
-198,548	197,959	0,080	0,087
-197,533	-200,000	-0,029	-0,127
-196,519	292,117	0,049	-0,064
-195,504	800,000	0,082	-0,163
-194,490	-200,000	0,037	-0,171
-193,475	85,676	-0,023	-0,018
-192,460	437,828	0,025	-0,039
-191,446	243,228	0,114	-0,136
-190,431	73,041	-0,030	0,022
-189,417	597,136	0,023	0,041
-188,402	800,000	-0,018	-0,046
-187,387	-63,341	-0,076	-0,022
-186,373	43,260	-0,068	0,044
-185,358	800,000	0,038	0,089
-184,344	179,755	0,062	0,064
-183,329	-200,000	0,002	0,008
-182,315	-96,499	0,119	-0,022
-181,300	800,000	-0,011	-0,030
-180,285	-103,958	0,023	-0,004
-179,271	-200,000	0,006	-0,077
-178,256	-200,000	-0,005	-0,119
-177,242	-196,459	0,098	-0,000
-176,227	-27,810	0,201	0,082
-175,212	-200,000	-0,001	-0,023
-174,198	-200,000	0,016	0,070
-173,183	-58,964	0,027	0,008
-172,169	466,986	-0,134	-0,214
-171,154	261,206	0,052	-0,064
-170,139	113,704	0,115	-0,099
-169,125	124,386	0,077	-0,068
-168,110	-140,030	0,074	-0,005
-167,096	-80,867	0,083	-0,019
-166,081	451,565	-0,030	-0,048
-165,066	800,000	-0,034	-0,073
-164,052	-69,755	-0,116	0,031
-163,037	545,581	-0,054	0,092
-162,023	88,716	0,078	0,061
-161,008	326,953	-0,038	0,051
-159,993	-200,000	-0,036	0,153
-158,979	800,000	-0,030	0,074
-157,964	800,000	-0,031	-0,078
-156,950	-200,000	0,014	-0,078
-155,935	570,405	-0,022	-0,038
-154,920	-200,000	-0,004	-0,016
-153,906	-171,058	0,136	-0,003
-152,891	-43,228	-0,108	-0,038
-151,877	162,196	0,032	0,031
-150,862	344,680	0,069	0,097
-149,847	-200,000	-0,010	-0,106
-148,833	31,135	0,101	-0,061
-147,818	800,000	-0,019	0,038
-146,804	50,481	0,032	-0,022
-145,789	354,622	-0,054	0,076
-144,775	-132,301	0,059	-0,005
-143,760	10,141	-0,107	-0,057
-142,745	800,000	0,028	0,075
-141,731	175,565	0,013	-0,014
-140,716	258,909	-0,062	-0,076
-139,702	-200,000	-0,015	0,080
-138,687	213,932	0,060	0,067
-137,672	-97,894	-0,069	0,012
-136,658	247,669	-0,083	-0,100
-135,643	-141,572	-0,039	0,003
-134,629	-43,284	0,015	0,005
-133,614	-150,131	0,053	-0,003
-132,599	-1,992	-0,079	0,039
-131,585	-1,273	-0,039	0,019
-130,570	-81,439	-0,159	-0,037
-129,556	-200,000	0,009	0,072
-128,541	800,000	-0,022	0,057
-127,526	392,787	0,032	0,048
-126,512	-31,181	0,161	0,064
-125,497	-154,558	0,015	-0,001
-124,483	-200,000	0,002	0,037
-123,468	-200,000	-0,016	0,065
-122,453	350,327	-0,080	-0,112
-121,439	278,787	0,010	-0,013
-120,424	-106,017	0,048	0,008
-119,410	409,261	-0,037	-0,056
-118,395	800,000	0,027	0,054
-117,380	-200,000	0,026	0,162
-116,366	-26,983	0,032	-0,013
-115,351	453,792	-0,018	0,028
-114,337	-3,483	-0,121	-0,059
-113,322	-85,969	-0,089	-0,019
-112,307	46,307	-0,058	0,038
-111,293	182,022	0,105	0,110
-110,278	-200,000	-0,000	-0,012
-109,264	88,046	0,042	0,033
-108,249	-6,153	0,098	-0,047
-107,234	-18,717	0,066	-0,029
-106,220	-66,668	-0,110	0,031
-105,205	-47,062	0,087	0,030
-104,191	33,387	-0,118	0,072
-103,176	-161,849	-0,059	0,002
-102,162	-23,160	0,091	0,039
-101,147	65,936	0,086	0,062
-100,132	259,176	0,150	-0,183
-99,118	-146,471	-0,129	0,008
-98,103	-200,000	-0,004	0,087
-97,089	236,286	0,120	0,141
-96,074	16,642	0,120	0,067
-95,059	-134,660	-0,041	-0,004
-94,045	-50,167	0,139	-0,046
-93,030	800,000	-0,032	0,091
-92,016	335,429	0,057	-0,079
-91,001	-200,000	-0,003	0,065
-89,986	96,878	0,074	-0,060
-88,972	800,000	-0,043	0,106
-87,957	-89,402	-0,081	0,017
-86,943	-200,000	0,040	0,130
-85,928	180,361	-0,108	-0,112
-84,913	608,046	0,017	-0,031
-83,899	-200,000	-0,004	0,036
-82,884	525,208	0,062	0,104
-81,870	107,746	0,012	0,010
-80,855	180,782	0,040	0,041
-79,840	-200,000	-0,035	0,197
-78,826	-200,000	-0,002	0,013
-77,811	-200,000	0,025	0,097
-76,797	25,097	-0,049	0,029
-75,782	142,182	0,059	0,055
-74,767	255,123	0,090	0,109
-73,753	344,563	0,044	0,062
-72,738	129,800	0,066	0,060
-71,724	800,000	-0,055	0,120
-70,709	-31,386	-0,178	0,070
-69,694	61,400	0,051	-0,036
-68,680	-66,984	0,153	0,042
-67,665	-200,000	0,006	0,151
-66,651	-200,000	0,021	0,119
-65,636	800,000	-0,030	0,082
-64,622	27,582	0,137	-0,081
-63,607	800,000	-0,062	0,123
-62,592	-200,000	-0,027	0,188
-61,578	468,058	-0,020	-0,032
-60,563	111,984	0,039	-0,034
-59,549	-200,000	-0,053	0,208
-58,534	47,485	-1,920	-1,262
-57,519	376,398	-1,415	-2,045
-56,505	-200,000	-0,221	-4,247
-55,490	520,727	0,835	1,388
-54,476	800,000	4,945	11,035
-53,461	-200,000	20,852	329,213
-52,446	800,000	757,622	2324,400
-51,432	550,123	1662,259	2825,362
-50,417	73,477	1663,736	1228,378
-49,403	18,658	1537,013	865,788
-48,388	12,661	1459,946	793,350
-47,373	18,961	1451,074	818,764
-46,359	15,799	1440,233	797,560
-45,344	10,916	1435,844	771,835
-44,330	10,860	1434,069	770,581
-43,315	10,819	1432,054	769,273
-42,300	10,861	1430,253	768,476
-41,286	10,884	1429,134	767,954
-40,271	10,830	1427,815	766,957
-39,257	10,806	1426,747	766,242
-38,242	10,851	1425,528	765,770
-37,227	10,877	1424,484	765,301
-36,213	10,868	1423,017	764,439
-35,198	10,861	1422,211	763,943
-34,184	10,937	1421,170	763,713
-33,169	10,867	1419,813	762,621
-32,154	10,907	1418,730	762,198
-31,140	10,916	1417,525	761,563
-30,125	10,942	1416,493	761,102
-29,111	10,919	1415,363	760,354
-28,096	10,909	1414,321	759,718
-27,082	10,905	1412,992	758,955
-26,067	10,884	1411,876	758,230
-25,052	10,834	1410,978	757,479
-24,038	10,854	1409,787	756,904
-23,023	10,862	1409,082	756,535
-22,009	10,877	1407,611	755,787
-20,994	10,846	1406,871	755,212
-19,979	10,816	1405,912	754,527
-18,965	10,827	1404,902	754,006
-17,950	10,823	1403,930	753,435
-16,936	10,820	1403,301	753,056
-15,921	10,716	1402,325	752,018
-14,906	10,749	1401,294	751,589
-13,892	10,771	1400,424	751,195
-12,877	10,755	1399,494	750,592
-11,863	10,723	1398,947	750,121
-10,848	10,715	1397,961	749,523
-9,833	10,703	1397,109	748,979
-8,819	10,633	1396,322	748,203
-7,804	10,657	1395,280	747,729
-6,790	10,663	1394,303	747,202
-5,775	10,666	1393,177	746,586
-4,760	10,681	1392,205	746,101
-3,746	10,682	1391,311	745,597
-2,731	10,666	1390,408	745,011
-1,717	10,640	1389,801	744,534
-0,702	10,664	1387,811	743,551
0,313	14,639	1301,208	715,374
1,327	30,859	692,579	417,647
2,342	48,017	120,032	79,013
3,356	2,102	16,436	8,347
4,371	14,786	3,396	1,868
5,386	42,660	0,749	0,480
6,400	-200,000	0,062	0,459
7,415	-27,613	-0,268	-0,109
8,429	-107,558	-0,179	-0,027
9,444	68,807	-0,399	-0,289
10,459	-19,276	-0,401	-0,175
11,473	33,325	-0,270	-0,165
12,488	-40,242	-0,168	-0,061
13,502	-50,261	-0,396	-0,131
14,517	33,264	-0,333	-0,203
15,531	-73,668	-0,393	-0,100
16,546	-23,675	-0,406	-0,171
17,561	187,925	-0,302	-0,318
18,575	-112,785	-0,172	-0,024
19,590	43,424	-0,302	-0,194
20,604	-101,473	-0,410	-0,070
21,619	131,878	-0,381	-0,346
22,634	-0,493	-0,576	-0,287
23,648	87,995	-0,412	-0,321
24,663	58,733	-0,488	-0,337
25,677	181,852	-0,273	-0,283
26,692	21,512	-0,286	-0,163
27,707	38,947	-0,351	-0,221
28,721	55,955	-0,398	-0,272
29,736	22,745	-0,521	-0,300
30,750	47,602	-0,370	-0,242
31,765	119,886	-0,441	-0,385
32,780	91,874	-0,305	-0,242
33,794	55,914	-0,275	-0,187
34,809	30,909	-0,341	-0,205
35,823	317,851	-0,288	-0,384
36,838	96,990	-0,487	-0,393
37,853	165,770	-0,233	-0,232
38,867	342,713	-0,276	-0,381
39,882	-35,783	-0,426	-0,161
40,896	39,035	-0,296	-0,186
41,911	-39,456	-0,411	-0,151
42,926	328,378	-0,152	-0,206
43,940	46,342	-0,384	-0,250
44,955	16,070	-0,400	-0,221
45,969	104,478	-0,304	-0,252
46,984	158,103	-0,288	-0,281
47,999	-23,773	-0,301	-0,126
49,013	46,105	-0,306	-0,199
50,028	129,459	-0,303	-0,272
51,042	120,780	-0,261	-0,228
52,057	82,609	-0,422	-0,322
53,071	94,756	-0,337	-0,269
54,086	73,629	-0,348	-0,256
55,101	113,420	-0,288	-0,245
56,115	46,582	-0,325	-0,212
57,130	-10,561	-0,403	-0,187
58,144	72,468	-0,334	-0,244
59,159	122,498	-0,354	-0,311
60,174	-37,631	-0,288	-0,107
61,188	66,415	-0,306	-0,218
62,203	98,415	-0,335	-0,271
63,217	210,305	-0,253	-0,280
64,232	4,399	-0,271	-0,139
65,247	19,865	-0,363	-0,204
66,261	88,301	-0,345	-0,268
67,276	-29,464	-0,393	-0,157
68,290	-24,066	-0,311	-0,130
69,305	28,841	-0,202	-0,120
70,320	124,984	-0,204	-0,180
71,334	145,517	-0,241	-0,226
72,349	64,467	-0,378	-0,267
73,363	15,871	-0,372	-0,205
74,378	-49,488	-0,399	-0,132
75,393	496,125	-0,194	-0,314
76,407	-62,239	-0,255	-0,074
77,422	135,693	-0,256	-0,233
78,436	54,777	-0,274	-0,185
79,451	-14,821	-0,222	-0,100
80,466	32,810	-0,458	-0,277
81,480	169,632	-0,253	-0,253
82,495	95,473	-0,258	-0,206
83,509	135,121	-0,302	-0,275
84,524	-77,403	-0,270	-0,065
85,539	153,853	-0,212	-0,204
86,553	56,448	-0,294	-0,200
87,568	-125,426	-0,395	-0,042
88,582	-64,033	-0,272	-0,077
89,597	-86,306	-0,364	-0,078
90,611	353,501	-0,173	-0,242
91,626	52,269	-0,277	-0,185
92,641	-81,099	-0,182	-0,042
93,655	254,753	-0,212	-0,255
94,670	171,174	-0,300	-0,301
95,684	7,104	-0,315	-0,164
96,699	-26,932	-0,387	-0,158
97,714	-19,408	-0,378	-0,163
98,728	18,209	-0,312	-0,173
99,743	-94,101	-0,267	-0,051
100,757	2,036	-0,290	-0,146
101,772	136,762	-0,295	-0,269
102,787	126,114	-0,342	-0,303
103,801	-24,820	-0,221	-0,091
104,816	-73,625	-0,408	-0,103
105,830	30,197	-0,176	-0,105
106,845	-81,681	-0,418	-0,095
107,860	55,262	-0,277	-0,187
108,874	271,196	-0,225	-0,278
109,889	-22,279	-0,231	-0,097
110,903	66,598	-0,185	-0,132
111,918	95,523	-0,259	-0,206
112,933	-24,054	-0,163	-0,068
113,947	106,931	-0,225	-0,187
114,962	-41,299	-0,233	-0,083
115,976	23,519	-0,206	-0,118
116,991	253,621	-0,253	-0,303
118,006	47,564	-0,353	-0,230
119,020	54,641	-0,243	-0,163
120,035	18,102	-0,141	-0,078
121,049	98,964	-0,219	-0,176
122,064	66,319	-0,144	-0,102
123,079	48,309	-0,369	-0,240
124,093	209,460	-0,200	-0,219
125,108	-39,223	-0,228	-0,083
126,122	91,388	-0,159	-0,125
127,137	36,938	-0,248	-0,153
128,151	-5,262	-0,221	-0,106
129,166	21,148	-0,101	-0,057
130,181	23,592	-0,357	-0,204
131,195	148,232	-0,290	-0,273
132,210	383,145	-0,163	-0,235
133,224	104,969	-0,272	-0,223
134,239	-12,533	-0,149	-0,068
135,254	133,101	-0,185	-0,167
136,268	-1,119	-0,379	-0,186
137,283	-10,975	-0,398	-0,183
138,297	109,671	-0,179	-0,149
139,312	286,236	-0,189	-0,238
140,327	12,116	-0,380	-0,203
141,341	-41,563	-0,296	-0,106
142,356	124,359	-0,205	-0,180
143,370	103,052	-0,228	-0,186
144,385	356,837	-0,138	-0,193
145,400	291,187	-0,239	-0,303
146,414	26,652	-0,442	-0,257
147,429	-53,705	-0,373	-0,118
148,443	392,662	-0,165	-0,240
149,458	26,452	-0,239	-0,139
150,473	800,000	-0,087	-0,191
151,487	95,934	-0,229	-0,182
152,502	254,322	-0,189	-0,225
153,516	-200,000	-0,251	0,000
154,531	298,534	-0,215	-0,276
155,546	21,228	-0,139	-0,078
156,560	-21,965	-0,278	-0,117
157,575	58,816	-0,292	-0,199
158,589	-32,408	-0,192	-0,074
159,604	45,703	-0,273	-0,175
160,619	181,871	-0,178	-0,183
161,633	-51,954	-0,316	-0,102
162,648	45,824	-0,236	-0,151
163,662	28,411	-0,309	-0,181
164,677	-73,821	-0,259	-0,065
165,692	185,209	-0,205	-0,212
166,706	-42,052	-0,323	-0,114
167,721	254,993	-0,194	-0,232
168,735	-19,658	-0,250	-0,107
169,750	413,453	-0,177	-0,262
170,764	225,911	-0,167	-0,188
171,779	63,444	-0,277	-0,193
172,794	-137,710	-0,172	0,013
173,808	64,587	-0,332	-0,232
174,823	29,527	-0,287	-0,169
175,837	290,248	-0,258	-0,326
176,852	-123,216	-0,186	-0,020
177,867	-74,932	-0,140	-0,035
178,881	-91,550	-0,125	-0,024
179,896	-30,852	-0,136	-0,053
180,910	131,290	-0,219	-0,195
181,925	12,211	-0,302	-0,161
182,940	-159,001	-0,175	-0,007
183,954	-34,864	-0,326	-0,123
184,969	15,394	-0,182	-0,099
185,983	-188,874	-0,207	0,002
186,998	-31,488	-0,250	-0,097
188,013	27,949	-0,214	-0,125
189,027	794,222	-0,185	-0,355
190,042	90,920	-0,258	-0,201
191,056	77,490	-0,225	-0,166
192,071	-76,793	-0,194	-0,047
193,086	-95,882	-0,138	-0,025
194,100	-38,002	-0,210	-0,077
195,115	-72,772	-0,077	-0,020
196,129	10,540	-0,287	-0,151
197,144	297,165	-0,142	-0,182
198,159	72,407	-0,272	-0,196
199,173	-4,473	-0,126	-0,060
200,188	-179,543	-0,294	-0,004
201,202	97,411	-0,121	-0,096
202,217	34,366	-0,205	-0,123
203,232	-165,748	-0,256	-0,008
204,246	137,965	-0,162	-0,147
205,261	242,681	-0,131	-0,152
206,275	800,000	-0,159	-0,332
207,290	-180,022	-0,221	0,003
208,304	-147,382	-0,132	0,008
209,319	97,581	-0,227	-0,181
210,334	185,460	-0,202	-0,208
211,348	28,557	-0,208	-0,121
212,363	-10,666	-0,359	-0,164
213,377	-200,000	-0,036	-0,121
214,392	-8,570	-0,151	-0,070
215,407	469,181	-0,125	-0,195
216,421	426,003	-0,119	-0,177
217,436	155,405	-0,198	-0,189
218,450	0,590	-0,320	-0,158
219,465	122,651	-0,168	-0,145
220,480	-9,184	-0,094	-0,044
221,494	568,909	-0,073	-0,123
222,509	56,876	-0,143	-0,096
223,523	211,578	-0,130	-0,142
224,538	51,411	-0,277	-0,181
225,553	-118,805	-0,148	-0,018
226,567	97,602	-0,150	-0,119
227,582	164,610	-0,178	-0,174
228,596	117,953	-0,178	-0,152
229,611	-54,009	-0,073	-0,023
230,626	43,042	-0,181	-0,114
231,640	-170,455	-0,281	-0,007
232,655	192,189	-0,102	-0,107
233,669	-18,125	-0,176	-0,076
234,684	-40,477	-0,255	-0,091
235,699	83,573	-0,155	-0,116
236,713	800,000	-0,124	-0,247
237,728	-87,013	-0,267	-0,056
238,742	-57,071	-0,363	-0,110
239,757	-95,972	-0,249	-0,045
240,772	-116,687	-0,178	0,022
241,786	249,208	-0,177	-0,207
242,801	158,453	-0,252	-0,241
243,815	-17,080	-0,164	-0,071
244,830	100,600	-0,267	-0,214
245,844	-60,327	-0,198	-0,058
246,859	112,130	-0,164	-0,137
247,874	52,984	-0,240	-0,158
248,888	71,439	-0,273	-0,196
249,903	726,265	-0,123	-0,228
250,917	502,440	-0,147	-0,236
251,932	-52,538	-0,173	-0,055
252,947	-105,423	-0,178	-0,028
253,961	-41,268	-0,309	-0,109
254,976	-96,097	-0,184	-0,034
255,990	98,776	-0,234	-0,186
257,005	101,470	-0,172	-0,138
258,020	372,537	-0,134	-0,189
259,034	168,774	-0,118	-0,116
260,049	103,965	-0,141	-0,114
261,063	-15,140	-0,269	-0,118
262,078	168,746	-0,171	-0,168
263,093	131,583	-0,270	-0,240
264,107	-135,512	-0,257	0,021
265,122	285,742	-0,105	-0,131
266,136	138,092	-0,218	-0,197
267,151	11,595	-0,196	-0,103
268,166	29,921	-0,168	-0,098
269,180	6,468	-0,184	-0,094
270,195	291,881	-0,133	-0,167
271,209	4,943	-0,246	-0,124
272,224	-156,040	-0,261	-0,011
273,239	-27,330	-0,181	-0,072
274,253	304,772	-0,126	-0,161
275,268	18,366	-0,203	-0,111
276,282	800,000	-0,060	-0,165
277,297	204,561	-0,157	-0,168
278,312	-93,448	-0,151	-0,029
279,326	691,596	-0,069	-0,124
280,341	38,260	-0,189	-0,115
281,355	-119,709	-0,308	-0,036
282,370	800,000	-0,071	-0,202
283,384	215,613	-0,195	-0,213
284,399	-200,000	-0,027	-0,100
285,414	14,237	-0,210	-0,112
286,428	55,650	-0,098	-0,065
287,443	-32,792	-0,168	0,064
288,457	142,271	-0,071	-0,065
289,472	-24,078	-0,175	-0,072
290,487	800,000	-0,105	-0,233
291,501	114,768	-0,108	-0,091
292,516	163,868	-0,152	-0,147
293,530	376,458	-0,120	-0,169
294,545	128,409	-0,081	0,071
295,560	123,463	-0,122	-0,105
296,574	-146,635	-0,104	-0,006
297,589	299,724	-0,095	-0,120
298,603	51,179	-0,182	-0,119
299,618	76,795	-0,199	-0,145
300,633	800,000	-0,043	-0,092
301,647	-200,000	-0,006	-0,132
302,662	108,613	-0,116	-0,096
303,676	-111,047	-0,200	-0,028
304,691	-48,410	-0,225	-0,074
305,706	118,519	-0,165	-0,140
306,720	-42,857	-0,130	-0,045
307,735	-71,706	-0,202	-0,051
308,749	29,640	-0,093	-0,054
309,764	-66,843	-0,149	-0,040
310,779	-26,927	-0,133	-0,053
311,793	-141,268	-0,102	0,007
312,808	-200,000	-0,104	-0,348
313,822	-200,000	-0,037	-0,174
314,837	13,107	-0,175	-0,093
315,852	-165,052	-0,187	0,006
316,866	-13,108	-0,171	-0,076
317,881	218,242	-0,147	-0,162
318,895	289,312	-0,152	-0,190
319,910	87,478	-0,178	-0,135
320,925	10,006	-0,134	-0,070
321,939	800,000	-0,096	-0,204
322,954	80,243	-0,093	0,069
323,968	167,443	-0,145	-0,141
324,983	-8,269	-0,111	0,051
325,997	-32,464	-0,157	-0,060
327,012	-18,592	-0,164	-0,070
328,027	-200,000	-0,147	-0,000
329,041	736,691	-0,062	-0,115
330,056	800,000	-0,007	-0,017
331,070	800,000	0,037	-0,083
332,085	113,381	-0,017	0,014
333,100	-172,741	-0,126	0,003
334,114	6,376	-0,106	0,054
335,129	-4,484	-0,125	-0,059
336,143	-55,768	-0,075	0,023
337,158	800,000	-0,042	-0,100
338,173	436,765	-0,122	-0,182
339,187	5,001	-0,144	-0,072
340,202	37,608	-0,171	-0,104
341,216	-144,408	-0,121	0,008
342,231	-200,000	-0,032	-0,126
343,246	-46,648	-0,128	-0,043
344,260	-64,096	-0,150	-0,041
345,275	-50,856	-0,124	-0,040
346,289	338,619	-0,148	-0,198
347,304	29,656	-0,127	-0,074
348,319	-200,000	-0,010	-0,164
349,333	425,535	-0,107	-0,159
350,348	186,537	-0,130	-0,133
351,362	213,018	-0,062	-0,068
352,377	9,996	-0,191	0,099
353,392	-131,529	-0,177	-0,016
354,406	800,000	-0,072	-0,186
355,421	207,044	1307,154	1395,689
356,435	159,261	1466,917	1396,173
