DTS Sentinel unit serial number:	SN410029Multiplexer serial number:	ORYXHardware model number:	OX2-SRSoftware version number:	ORYX F/W v4,00 Oryx Data Collector v3.7.2.0data status	okinstallation	B3 Nyhavnadifferential loss correction	single-endedforward channel	channel 1reverse channel	N/Adate	2023/12/04time	01:57:30forward acquisition time	300,00reverse acquisition time	0,00gamma	499,1914k internal	0,3205k external	0,3205temperature offset calibration	1,0000default loss term (dB/km)	0,3820temperature slope calibration	1,0000multiplexer offset coefficient	1,0000multiplexer slope coefficient	1,0000fibre end	0,00T internal ref (°C)	12,36T ext. ref 1 (°C)	-2,91T ext. ref 2 (°C)	-2,94length (m)	temperature (°C)	Stokes	anti-Stokes-744,400	139,820	-0,228	-0,219
-743,385	-200,000	-0,041	0,373
-742,371	-200,000	-0,053	-0,209
-741,356	-200,000	0,041	0,260
-740,342	-100,455	-0,301	-0,054
-739,327	-200,000	0,088	0,281
-738,312	800,000	-0,139	-0,311
-737,298	-200,000	-0,029	0,299
-736,283	301,232	-0,193	-0,260
-735,269	-200,000	-0,005	0,341
-734,254	711,336	-0,068	-0,131
-733,239	17,881	-0,194	0,112
-732,225	658,136	-0,110	-0,206
-731,210	-200,000	0,038	0,158
-730,196	800,000	0,023	-0,066
-729,181	-200,000	-0,008	-0,084
-728,167	-7,910	-0,028	-0,014
-727,152	261,748	-0,019	0,023
-726,137	66,268	-0,017	0,013
-725,123	-151,704	-0,125	-0,007
-724,108	800,000	-0,063	-0,127
-723,094	-200,000	-0,029	-0,109
-722,079	-200,000	-0,039	-0,137
-721,064	800,000	-0,015	0,040
-720,050	38,432	-0,045	0,029
-719,035	800,000	-0,020	0,050
-718,021	-99,010	-0,101	-0,018
-717,006	258,460	-0,064	-0,080
-715,991	-55,893	-0,133	-0,043
-714,977	192,845	-0,012	-0,013
-713,962	-200,000	-0,020	-0,074
-712,948	49,848	-0,065	0,045
-711,933	258,431	0,048	0,060
-710,918	5,090	-0,047	-0,025
-709,904	29,866	-0,164	-0,101
-708,889	-200,000	-0,003	-0,058
-707,875	-121,533	0,092	-0,011
-706,860	-200,000	0,030	0,127
-705,845	144,410	0,100	0,096
-704,831	249,429	-0,125	0,154
-703,816	257,350	0,058	0,072
-702,802	-200,000	0,002	-0,050
-701,787	-5,248	-0,140	-0,069
-700,772	800,000	-0,019	0,044
-699,758	106,242	0,069	0,059
-698,743	648,344	0,046	0,086
-697,729	52,706	-0,094	-0,065
-696,714	800,000	0,031	0,063
-695,699	-61,078	-0,145	-0,044
-694,685	65,004	-0,044	0,032
-693,670	-200,000	-0,012	-0,042
-692,656	-200,000	0,017	-0,060
-691,641	-200,000	0,004	-0,112
-690,627	-62,638	-0,111	0,033
-689,612	167,326	-0,081	0,083
-688,597	371,348	0,043	-0,063
-687,583	357,686	0,058	-0,084
-686,568	200,015	-0,098	-0,109
-685,554	100,802	-0,045	0,038
-684,539	-100,584	0,075	0,013
-683,524	-200,000	-0,004	-0,125
-682,510	-6,674	-0,111	-0,054
-681,495	283,662	-0,070	0,091
-680,481	-200,000	-0,016	-0,056
-679,466	64,834	0,053	-0,039
-678,451	800,000	-0,029	-0,064
-677,437	800,000	-0,038	-0,084
-676,422	35,708	-0,101	-0,064
-675,408	-161,281	0,031	0,001
-674,393	-170,437	-0,100	0,002
-673,378	257,482	-0,012	-0,014
-672,364	220,785	-0,095	-0,111
-671,349	800,000	0,037	-0,089
-670,335	328,650	0,035	0,048
-669,320	195,386	0,069	0,076
-668,305	31,936	-0,091	-0,057
-667,291	-200,000	0,029	0,099
-666,276	-200,000	-0,019	0,075
-665,262	-98,011	0,067	-0,012
-664,247	-200,000	0,006	0,086
-663,232	26,076	0,107	0,065
-662,218	-48,010	-0,140	0,049
-661,203	800,000	0,012	0,036
-660,189	-200,000	0,048	-0,160
-659,174	-85,094	-0,138	-0,031
-658,159	-92,333	0,064	0,013
-657,145	129,177	0,086	-0,079
-656,130	183,571	0,032	0,034
-655,116	800,000	0,033	0,070
-654,101	86,353	-0,043	0,034
-653,086	264,652	0,025	-0,031
-652,072	350,548	0,137	-0,197
-651,057	-200,000	-0,006	-0,077
-650,043	-148,044	-0,126	-0,007
-649,028	-200,000	0,005	-0,068
-648,014	289,055	-0,051	-0,067
-646,999	-187,127	0,097	0,001
-645,984	619,244	-0,066	0,121
-644,970	-200,000	-0,007	0,115
-643,955	-13,017	0,059	-0,028
-642,941	198,751	-0,052	0,058
-641,926	-200,000	0,019	-0,069
-640,911	800,000	-0,022	0,047
-639,897	-200,000	-0,033	0,164
-638,882	142,210	-0,033	0,032
-637,868	800,000	-0,051	-0,103
-636,853	656,748	0,038	-0,072
-635,838	199,079	-0,041	-0,046
-634,824	-200,000	0,014	-0,191
-633,809	37,474	-0,053	0,034
-632,795	-40,409	0,090	-0,034
-631,780	-57,065	-0,040	0,013
-630,765	800,000	-0,043	0,100
-629,751	279,584	-0,043	-0,056
-628,736	118,759	-0,060	-0,054
-627,722	-90,998	0,123	0,025
-626,707	-85,619	-0,130	0,029
-625,692	15,722	0,176	0,100
-624,678	-112,863	-0,101	0,014
-623,663	800,000	0,020	-0,054
-622,649	-7,996	-0,115	-0,056
-621,634	581,295	-0,015	-0,027
-620,619	-158,026	-0,097	0,004
-619,605	121,637	0,114	-0,103
-618,590	-47,536	-0,116	0,040
-617,576	800,000	0,056	0,116
-616,561	-200,000	0,006	-0,057
-615,546	-200,000	0,025	-0,238
-614,532	-100,646	-0,090	-0,016
-613,517	81,487	0,062	-0,048
-612,503	-4,575	-0,003	-0,001
-611,488	137,073	0,029	-0,028
-610,474	53,300	-0,057	0,039
-609,459	-9,223	-0,070	-0,034
-608,444	-50,661	-0,023	0,008
-607,430	116,098	-0,030	-0,027
-606,415	-200,000	-0,053	-0,182
-605,401	800,000	-0,042	-0,119
-604,386	-200,000	0,012	-0,056
-603,371	-200,000	-0,004	0,060
-602,357	147,149	0,129	0,125
-601,342	800,000	-0,042	-0,111
-600,328	18,429	-0,158	-0,091
-599,313	83,726	-0,066	-0,052
-598,298	-65,783	-0,072	0,021
-597,284	535,091	0,047	0,081
-596,269	-200,000	0,024	0,093
-595,255	238,902	0,038	0,046
-594,240	-16,459	0,060	-0,027
-593,225	-200,000	-0,022	-0,127
-592,211	800,000	0,053	-0,142
-591,196	-35,904	-0,029	0,011
-590,182	0,191	-0,131	0,067
-589,167	-11,803	0,129	0,061
-588,152	-200,000	0,021	0,083
-587,138	394,549	0,083	0,126
-586,123	62,966	0,037	0,027
-585,109	498,789	-0,058	-0,097
-584,094	-92,588	0,215	0,043
-583,079	83,655	0,066	-0,052
-582,065	-141,698	-0,114	-0,008
-581,050	729,482	0,044	-0,086
-580,036	-200,000	-0,017	0,070
-579,021	419,503	0,045	0,069
-578,006	83,715	0,036	-0,029
-576,992	-62,734	-0,085	-0,025
-575,977	366,086	-0,002	-0,003
-574,963	780,250	0,017	0,034
-573,948	109,757	-0,079	0,068
-572,934	-200,000	-0,015	-0,067
-571,919	199,641	0,042	-0,046
-570,904	132,987	-0,088	-0,082
-569,890	-200,000	-0,022	0,125
-568,875	-41,299	-0,059	0,022
-567,861	-200,000	0,006	-0,043
-566,846	-200,000	-0,017	0,121
-565,831	-18,075	0,129	0,058
-564,817	-200,000	-0,006	-0,067
-563,802	-35,931	0,096	-0,037
-562,788	416,924	0,057	0,088
-561,773	-119,361	-0,029	-0,004
-560,758	-200,000	0,001	-0,072
-559,744	800,000	-0,033	0,099
-558,729	192,318	-0,019	0,021
-557,715	800,000	-0,076	-0,167
-556,700	800,000	-0,056	-0,177
-555,685	800,000	0,020	0,049
-554,671	-148,495	-0,149	0,009
-553,656	-200,000	0,011	0,123
-552,642	195,647	-0,007	-0,008
-551,627	-200,000	0,027	-0,219
-550,612	171,667	-0,041	-0,042
-549,598	45,252	0,055	-0,036
-548,583	-200,000	0,006	0,061
-547,569	41,360	0,113	0,074
-546,554	800,000	0,012	0,032
-545,539	106,627	0,033	0,028
-544,525	-200,000	0,001	-0,006
-543,510	800,000	-0,035	-0,097
-542,496	800,000	-0,084	-0,210
-541,481	-200,000	-0,038	-0,159
-540,466	-41,925	0,059	0,021
-539,452	109,088	0,019	-0,016
-538,437	2,465	0,030	0,016
-537,423	800,000	-0,020	0,041
-536,408	234,519	-0,107	-0,127
-535,393	800,000	0,027	-0,065
-534,379	-200,000	-0,026	-0,135
-533,364	800,000	0,028	-0,078
-532,350	735,076	-0,025	0,049
-531,335	800,000	-0,036	-0,090
-530,321	124,545	-0,052	0,047
-529,306	295,077	-0,075	0,099
-528,291	27,839	-0,083	0,050
-527,277	112,603	0,053	-0,046
-526,262	94,275	0,053	-0,043
-525,248	-200,000	0,003	0,033
-524,233	161,685	0,062	-0,062
-523,218	298,067	0,080	0,106
-522,204	82,271	-0,031	0,024
-521,189	-89,955	-0,135	0,028
-520,175	800,000	-0,052	-0,151
-519,160	-200,000	-0,015	-0,136
-518,145	-148,543	-0,116	-0,007
-517,131	-37,085	0,082	0,031
-516,116	17,363	-0,043	0,025
-515,102	-42,148	-0,012	0,004
-514,087	800,000	0,040	-0,099
-513,072	13,715	-0,069	0,038
-512,058	-200,000	-0,004	0,042
-511,043	-92,486	-0,100	0,020
-510,029	-52,321	-0,059	0,019
-509,014	-186,319	-0,039	0,000
-507,999	-74,974	0,051	0,013
-506,985	124,174	0,058	-0,052
-505,970	-34,030	-0,129	-0,051
-504,956	-200,000	0,016	-0,086
-503,941	-200,000	0,004	-0,134
-502,926	-124,079	-0,169	0,019
-501,912	400,174	0,029	-0,044
-500,897	401,181	-0,038	0,058
-499,883	752,916	0,041	0,079
-498,868	-55,043	-0,083	-0,027
-497,853	94,296	0,072	0,059
-496,839	-200,000	-0,021	-0,083
-495,824	-169,778	0,039	0,001
-494,810	555,773	0,066	0,115
-493,795	-200,000	0,002	0,096
-492,781	28,395	-0,184	0,112
-491,766	800,000	-0,035	-0,098
-490,751	-162,083	-0,156	-0,006
-489,737	-19,002	0,002	-0,001
-488,722	800,000	0,043	-0,115
-487,708	-200,000	0,003	0,040
-486,693	-200,000	0,013	-0,192
-485,678	-200,000	-0,010	0,106
-484,664	55,915	0,010	-0,007
-483,649	-23,223	-0,102	-0,044
-482,635	-200,000	-0,018	0,071
-481,620	130,476	0,031	0,029
-480,605	-122,771	0,061	0,007
-479,591	-85,524	-0,076	0,017
-478,576	-200,000	0,003	0,043
-477,562	-37,100	-0,126	0,048
-476,547	800,000	0,013	-0,034
-475,532	91,413	-0,018	-0,015
-474,518	-80,816	0,090	-0,021
-473,503	-12,453	-0,147	0,069
-472,489	-160,285	-0,036	0,001
-471,474	-200,000	0,017	0,126
-470,459	-200,000	0,022	-0,112
-469,445	-59,543	-0,015	0,005
-468,430	665,631	-0,034	-0,063
-467,416	-200,000	0,039	-0,146
-466,401	69,402	0,025	-0,019
-465,386	-87,976	-0,136	0,029
-464,372	-120,787	0,093	0,011
-463,357	332,673	-0,070	-0,097
-462,343	-61,835	-0,171	-0,051
-461,328	-200,000	-0,003	-0,094
-460,313	221,664	0,073	0,085
-459,299	-200,000	-0,023	0,122
-458,284	135,483	-0,072	0,067
-457,270	-19,723	0,112	0,050
-456,255	50,603	-0,037	0,025
-455,241	-200,000	0,001	0,057
-454,226	472,679	0,044	-0,071
-453,211	284,992	0,098	-0,127
-452,197	282,996	0,058	-0,075
-451,182	-200,000	0,007	-0,053
-450,168	621,301	0,037	0,067
-449,153	-59,759	0,025	-0,008
-448,138	-40,892	-0,119	-0,044
-447,124	800,000	0,028	0,081
-446,109	-76,042	0,148	0,037
-445,095	800,000	0,006	0,015
-444,080	-200,000	-0,028	0,116
-443,065	674,550	-0,037	0,070
-442,051	-79,953	-0,069	-0,017
-441,036	31,690	-0,093	0,057
-440,022	-149,968	0,030	-0,002
-439,007	800,000	0,035	0,101
-437,992	-51,108	-0,086	-0,029
-436,978	-44,532	0,133	0,047
-435,963	195,951	-0,123	0,135
-434,949	185,906	0,081	0,087
-433,934	-200,000	0,010	-0,037
-432,919	-142,416	-0,073	0,005
-431,905	800,000	-0,041	0,127
-430,890	122,977	0,102	-0,092
-429,876	126,173	0,068	-0,061
-428,861	662,328	0,057	0,105
-427,846	-122,112	-0,128	-0,015
-426,832	363,733	-0,017	0,024
-425,817	46,069	0,119	-0,079
-424,803	64,749	-0,070	-0,051
-423,788	125,177	0,048	0,044
-422,773	255,221	-0,011	0,014
-421,759	-163,381	0,043	-0,001
-420,744	-81,651	0,098	0,023
-419,730	-134,219	-0,152	-0,013
-418,715	45,463	-0,065	0,043
-417,701	800,000	0,019	-0,052
-416,686	246,259	0,033	0,040
-415,671	-5,266	-0,027	0,013
-414,657	93,654	0,155	0,126
-413,642	-99,723	0,052	0,009
-412,628	-41,384	0,082	0,030
-411,613	-200,000	-0,015	-0,061
-410,598	-200,000	-0,012	0,156
-409,584	104,521	-0,036	-0,031
-408,569	-59,604	0,066	-0,020
-407,555	601,711	0,061	0,110
-406,540	-94,381	0,076	-0,015
-405,525	-67,800	-0,075	-0,021
-404,511	-43,245	0,069	-0,025
-403,496	-62,076	-0,107	-0,032
-402,482	298,855	-0,035	0,046
-401,467	312,946	-0,057	0,077
-400,452	-87,006	0,171	-0,037
-399,438	-15,455	-0,093	0,042
-398,423	-30,924	-0,187	0,075
-397,409	-200,000	-0,015	-0,149
-396,394	-200,000	0,010	-0,133
-395,379	31,246	0,021	0,013
-394,365	-200,000	-0,003	0,096
-393,350	800,000	0,036	0,079
-392,336	-200,000	0,013	0,073
-391,321	-47,114	-0,056	0,020
-390,306	211,984	0,037	0,041
-389,292	625,944	-0,051	-0,092
-388,277	-55,295	-0,038	-0,012
-387,263	455,460	-0,045	0,072
-386,248	16,116	0,117	-0,066
-385,233	800,000	-0,009	-0,024
-384,219	-34,491	0,037	0,015
-383,204	-99,940	0,097	-0,017
-382,190	-112,534	-0,037	-0,005
-381,175	20,512	0,087	0,050
-380,160	74,141	-0,083	0,063
-379,146	800,000	0,030	0,080
-378,131	-10,279	-0,053	0,025
-377,117	-2,458	0,068	0,034
-376,102	162,401	-0,080	-0,081
-375,088	92,916	-0,062	0,050
-374,073	800,000	-0,056	0,148
-373,058	25,649	0,063	0,037
-372,044	226,595	0,055	0,064
-371,029	-200,000	0,062	-0,222
-370,015	-74,986	0,082	-0,021
-369,000	158,840	0,036	0,035
-367,985	-200,000	0,048	-0,176
-366,971	-95,205	0,087	-0,017
-365,956	-99,259	0,036	0,006
-364,942	317,794	0,012	0,016
-363,927	-136,317	-0,129	-0,011
-362,912	-200,000	0,008	-0,069
-361,898	13,747	-0,088	-0,049
-360,883	-200,000	-0,001	-0,039
-359,869	87,598	0,015	-0,012
-358,854	536,801	-0,048	0,081
-357,839	-11,630	0,066	0,031
-356,825	361,598	-0,049	0,070
-355,810	231,271	-0,008	-0,009
-354,796	648,735	0,013	0,024
-353,781	182,004	0,059	-0,062
-352,766	-140,184	-0,069	-0,005
-351,752	127,793	0,058	0,053
-350,737	-200,000	-0,003	0,049
-349,723	249,948	0,080	0,097
-348,708	-142,630	0,117	0,008
-347,693	-121,171	-0,271	-0,032
-346,679	39,567	-0,098	-0,063
-345,664	-200,000	-0,034	0,110
-344,650	109,098	0,125	-0,107
-343,635	-200,000	-0,012	0,082
-342,620	-200,000	0,029	0,109
-341,606	-112,420	-0,051	0,007
-340,591	-64,139	0,118	0,034
-339,577	120,961	0,077	0,069
-338,562	800,000	-0,010	0,021
-337,548	257,480	-0,099	-0,122
-336,533	800,000	-0,006	-0,015
-335,518	201,658	0,086	-0,095
-334,504	-200,000	0,004	0,034
-333,489	177,116	0,045	0,047
-332,475	-200,000	-0,031	-0,125
-331,460	65,603	0,043	-0,031
-330,445	-200,000	-0,003	-0,110
-329,431	73,050	-0,087	-0,065
-328,416	99,727	0,033	0,028
-327,402	800,000	0,003	-0,009
-326,387	207,842	-0,031	-0,034
-325,372	21,052	-0,020	-0,011
-324,358	166,298	-0,089	0,090
-323,343	-5,712	-0,060	-0,029
-322,329	-122,487	0,183	-0,021
-321,314	43,933	0,008	-0,005
-320,299	800,000	0,085	0,175
-319,285	3,874	-0,144	-0,075
-318,270	-200,000	-0,028	-0,154
-317,256	800,000	-0,012	-0,027
-316,241	-200,000	-0,012	-0,068
-315,226	474,206	0,041	-0,067
-314,212	-76,208	0,167	0,042
-313,197	-95,662	0,087	0,016
-312,183	-125,144	-0,044	0,005
-311,168	155,646	0,041	-0,040
-310,153	800,000	0,015	0,046
-309,139	800,000	0,077	0,154
-308,124	54,465	-0,080	-0,055
-307,110	3,378	0,094	0,049
-306,095	-96,587	-0,060	-0,011
-305,080	800,000	0,029	-0,062
-304,066	78,372	-0,104	0,079
-303,051	9,420	-0,064	-0,034
-302,037	188,575	-0,020	-0,021
-301,022	25,806	0,075	0,044
-300,008	-200,000	-0,027	0,150
-298,993	800,000	0,051	0,113
-297,978	-15,389	0,149	0,068
-296,964	-111,943	0,051	-0,007
-295,949	249,599	0,042	-0,051
-294,935	-200,000	-0,006	-0,053
-293,920	127,546	-0,073	0,066
-292,905	-133,546	0,103	0,009
-291,891	-133,160	0,145	0,013
-290,876	346,126	0,082	-0,115
-289,862	-200,000	0,050	0,161
-288,847	222,070	0,009	-0,010
-287,832	-3,015	0,100	-0,050
-286,818	574,227	-0,036	-0,063
-285,803	-100,801	-0,089	0,016
-284,789	-73,994	0,119	0,030
-283,774	-200,000	-0,003	0,048
-282,759	-63,539	0,051	-0,015
-281,745	800,000	-0,041	0,108
-280,730	-79,908	-0,047	0,011
-279,716	-1,448	0,048	-0,024
-278,701	42,314	-0,079	-0,051
-277,686	-79,300	0,134	0,032
-276,672	704,458	-0,134	0,253
-275,657	800,000	-0,021	-0,066
-274,643	6,273	-0,103	-0,054
-273,628	283,398	0,040	-0,051
-272,613	800,000	-0,046	0,105
-271,599	-200,000	-0,006	-0,072
-270,584	270,627	-0,044	-0,055
-269,570	366,855	0,066	0,095
-268,555	-57,502	-0,045	0,014
-267,540	103,607	-0,031	-0,026
-266,526	118,073	-0,071	-0,062
-265,511	162,376	-0,093	-0,093
-264,497	-25,043	-0,036	-0,015
-263,482	-116,633	0,039	-0,005
-262,467	130,634	-0,014	-0,013
-261,453	139,948	0,018	-0,017
-260,438	76,668	-0,013	0,010
-259,424	360,598	-0,053	0,076
-258,409	-14,133	0,062	-0,028
-257,395	-200,000	0,055	-0,222
-256,380	-200,000	0,051	0,252
-255,365	475,380	-0,013	-0,021
-254,351	-200,000	0,051	0,193
-253,336	552,494	0,079	0,136
-252,322	70,827	0,145	-0,107
-251,307	-22,542	0,089	0,038
-250,292	-200,000	0,004	-0,026
-249,278	-200,000	-0,007	0,086
-248,263	800,000	-0,050	-0,102
-247,249	-200,000	-0,020	-0,142
-246,234	-138,406	-0,035	-0,003
-245,219	-200,000	0,021	-0,128
-244,205	800,000	0,059	-0,121
-243,190	56,799	0,078	0,054
-242,176	-200,000	0,020	0,088
-241,161	800,000	-0,019	0,041
-240,146	180,284	0,028	-0,030
-239,132	-184,583	0,016	0,000
-238,117	43,678	-0,070	0,045
-237,103	-200,000	-0,019	0,069
-236,088	363,289	-0,018	-0,026
-235,073	800,000	-0,023	0,060
-234,059	118,529	0,039	0,034
-233,044	43,468	0,065	0,042
-232,030	199,879	0,086	-0,094
-231,015	-200,000	0,007	-0,054
-230,000	-43,485	0,113	0,040
-228,986	-200,000	0,009	0,049
-227,971	45,336	-0,148	0,097
-226,957	-138,506	0,060	0,005
-225,942	-106,472	0,003	0,000
-224,927	259,047	0,108	-0,133
-223,913	800,000	0,039	-0,081
-222,898	142,819	0,097	-0,092
-221,884	288,210	-0,050	0,064
-220,869	118,749	-0,041	0,036
-219,855	84,342	0,112	0,087
-218,840	34,635	0,103	0,064
-217,825	800,000	0,033	0,072
-216,811	-200,000	-0,021	0,113
-215,796	-10,636	-0,113	-0,053
-214,782	269,450	0,079	-0,099
-213,767	-58,237	0,115	-0,035
-212,752	-200,000	-0,033	-0,124
-211,738	48,226	0,112	0,074
-210,723	442,543	-0,030	0,048
-209,709	-46,770	-0,113	-0,039
-208,694	17,969	-0,069	-0,039
-207,679	25,415	0,040	0,023
-206,665	800,000	-0,031	0,062
-205,650	800,000	0,035	0,108
-204,636	41,343	0,042	0,027
-203,621	800,000	0,019	0,051
-202,606	-200,000	0,018	-0,153
-201,592	-122,741	-0,096	0,011
-200,577	168,476	0,093	-0,095
-199,563	-156,815	-0,025	-0,001
-198,548	642,599	0,052	0,095
-197,533	-200,000	0,007	0,036
-196,519	-200,000	0,031	0,116
-195,504	109,455	-0,060	-0,051
-194,490	-200,000	0,006	-0,121
-193,475	456,790	0,016	-0,026
-192,460	-200,000	-0,010	0,102
-191,446	-200,000	0,010	-0,074
-190,431	800,000	0,033	0,090
-189,417	-200,000	0,034	0,186
-188,402	-24,217	0,140	0,059
-187,387	800,000	-0,056	-0,164
-186,373	-104,664	-0,107	-0,017
-185,358	800,000	0,050	0,100
-184,344	-126,957	0,098	-0,010
-183,329	-200,000	0,032	0,196
-182,315	-200,000	0,021	0,107
-181,300	318,037	-0,114	0,153
-180,285	-17,228	-0,042	0,019
-179,271	800,000	-0,081	-0,161
-178,256	-200,000	-0,002	-0,035
-177,242	50,825	-0,073	0,049
-176,227	-66,351	-0,131	0,037
-175,212	240,311	0,026	-0,031
-174,198	192,345	0,020	0,021
-173,183	-200,000	-0,003	0,091
-172,169	84,069	-0,044	0,034
-171,154	22,839	0,037	-0,021
-170,139	-40,557	-0,065	-0,024
-169,125	800,000	-0,007	0,020
-168,110	-126,613	0,041	-0,004
-167,096	-131,468	0,064	-0,006
-166,081	-200,000	0,001	0,071
-165,066	-112,970	0,045	0,006
-164,052	582,639	0,045	-0,079
-163,037	-200,000	0,042	-0,172
-162,023	398,152	0,023	-0,034
-161,008	-23,862	-0,052	-0,022
-159,993	80,035	0,035	-0,027
-158,979	-74,708	0,072	-0,018
-157,964	-47,948	-0,027	0,009
-156,950	411,997	-0,018	-0,028
-155,935	-62,284	-0,028	-0,008
-154,920	800,000	0,089	-0,198
-153,906	-110,412	-0,153	0,022
-152,891	46,877	-0,061	-0,040
-151,877	-85,016	-0,066	0,015
-150,862	47,013	-0,130	0,085
-149,847	-71,737	-0,125	-0,033
-148,833	800,000	-0,053	0,108
-147,818	-68,226	0,129	0,035
-146,804	800,000	-0,024	-0,068
-145,789	-83,321	0,099	0,022
-144,775	-200,000	-0,016	-0,063
-143,760	-200,000	0,032	0,191
-142,745	-149,690	-0,189	0,010
-141,731	800,000	-0,011	0,025
-140,716	-51,362	0,043	-0,014
-139,702	187,231	-0,047	0,050
-138,687	-200,000	0,011	-0,048
-137,672	-200,000	-0,006	0,144
-136,658	-10,485	0,073	0,034
-135,643	800,000	0,015	-0,031
-134,629	254,330	0,032	0,039
-133,614	164,054	-0,090	0,090
-132,599	-138,392	0,067	-0,005
-131,585	314,225	-0,113	0,151
-130,570	258,674	-0,064	0,079
-129,556	36,212	0,099	0,062
-128,541	800,000	-0,037	-0,073
-127,526	444,775	0,072	-0,113
-126,512	394,848	-0,050	-0,074
-125,497	-200,000	0,036	0,155
-124,483	-77,316	-0,109	-0,027
-123,468	-44,354	-0,098	-0,035
-122,453	-34,054	0,062	0,024
-121,439	8,107	-0,070	-0,037
-120,424	-200,000	-0,004	-0,100
-119,410	-200,000	-0,004	0,024
-118,395	30,102	0,093	0,056
-117,380	269,777	0,061	0,076
-116,366	669,352	0,044	-0,082
-115,351	-45,014	-0,076	0,027
-114,337	800,000	-0,051	-0,129
-113,322	-200,000	-0,004	0,100
-112,307	159,618	0,136	-0,135
-111,293	309,072	0,050	-0,066
-110,278	-200,000	0,040	-0,168
-109,264	145,302	0,034	-0,032
-108,249	355,545	-0,041	-0,059
-107,234	31,724	0,089	-0,054
-106,220	-44,689	-0,097	0,034
-105,205	-200,000	-0,009	0,064
-104,191	800,000	-0,092	0,190
-103,176	115,819	0,053	0,046
-102,162	-200,000	0,005	0,121
-101,147	380,561	0,039	-0,057
-100,132	576,942	-0,037	-0,064
-99,118	-200,000	-0,008	-0,076
-98,103	62,156	0,037	0,026
-97,089	-200,000	-0,005	0,100
-96,074	-200,000	0,028	0,099
-95,059	-104,905	0,110	-0,018
-94,045	-65,890	0,087	-0,025
-93,030	800,000	-0,063	-0,155
-92,016	-2,620	-0,111	-0,055
-91,001	5,045	0,104	0,054
-89,986	-200,000	-0,019	0,130
-88,972	-200,000	-0,018	0,127
-87,957	-34,657	-0,161	0,062
-86,943	624,404	0,043	0,076
-85,928	-200,000	0,014	0,089
-84,913	-200,000	-0,019	0,065
-83,899	800,000	-0,037	0,091
-82,884	-200,000	0,016	-0,096
-81,870	86,157	0,122	0,095
-80,855	30,040	0,043	0,026
-79,840	-86,228	-0,071	-0,015
-78,826	-109,900	-0,092	0,014
-77,811	257,774	0,045	-0,055
-76,797	-200,000	0,003	0,054
-75,782	-44,402	0,112	0,039
-74,767	800,000	0,049	0,144
-73,753	91,045	0,025	-0,020
-72,738	-112,148	0,028	-0,004
-71,724	-128,015	-0,067	0,007
-70,709	-124,382	0,156	-0,017
-69,694	-200,000	-0,007	0,022
-68,680	800,000	0,031	0,080
-67,665	-200,000	0,020	0,108
-66,651	118,095	-0,065	0,057
-65,636	128,671	-0,083	0,075
-64,622	-200,000	-0,004	-0,039
-63,607	-84,307	-0,228	0,051
-62,592	353,850	0,061	0,086
-61,578	800,000	0,018	0,054
-60,563	-200,000	0,034	0,159
-59,549	222,242	-0,061	0,069
-58,534	-21,984	-1,752	-0,750
-57,519	314,197	-1,444	-1,928
-56,505	-200,000	-0,495	-4,732
-55,490	284,163	1,110	1,416
-54,476	800,000	4,912	11,306
-53,461	-200,000	20,107	323,988
-52,446	800,000	751,100	2315,628
-51,432	552,321	1662,647	2835,203
-50,417	75,551	1672,315	1247,362
-49,403	20,199	1545,242	879,714
-48,388	14,238	1467,426	806,406
-47,373	18,264	1457,528	820,388
-46,359	16,402	1446,984	805,499
-45,344	12,486	1442,384	784,150
-44,330	12,441	1440,587	782,930
-43,315	12,369	1439,122	781,754
-42,300	12,408	1437,210	780,873
-41,286	12,435	1435,921	780,272
-40,271	12,400	1434,526	779,313
-39,257	12,425	1433,123	778,642
-38,242	12,436	1432,141	778,130
-37,227	12,443	1431,069	777,550
-36,213	12,413	1429,859	776,719
-35,198	12,441	1428,497	776,082
-34,184	12,479	1427,506	775,689
-33,169	12,420	1426,036	774,583
-32,154	12,467	1425,085	774,259
-31,140	12,481	1423,649	773,514
-30,125	12,517	1422,620	773,092
-29,111	12,505	1421,404	772,344
-28,096	12,476	1420,382	771,622
-27,082	12,403	1419,403	770,715
-26,067	12,415	1418,280	770,130
-25,052	12,409	1417,148	769,456
-24,038	12,393	1416,267	768,872
-23,023	12,353	1415,212	768,083
-22,009	12,370	1414,043	767,498
-20,994	12,397	1412,889	766,968
-19,979	12,361	1412,486	766,550
-18,965	12,333	1411,513	765,859
-17,950	12,295	1410,592	765,151
-16,936	12,328	1409,792	764,842
-15,921	12,309	1408,525	764,033
-14,906	12,312	1407,712	763,575
-13,892	12,332	1406,471	762,967
-12,877	12,317	1405,783	762,495
-11,863	12,250	1405,172	761,817
-10,848	12,264	1404,151	761,300
-9,833	12,252	1403,041	760,615
-8,819	12,222	1402,473	760,136
-7,804	12,243	1401,318	759,575
-6,790	12,201	1400,492	758,904
-5,775	12,209	1399,301	758,266
-4,760	12,222	1398,543	757,885
-3,746	12,212	1397,426	757,203
-2,731	12,167	1396,705	756,573
-1,717	12,160	1395,927	756,089
-0,702	12,144	1393,933	754,905
0,313	16,072	1309,181	727,156
1,327	32,265	700,668	426,426
2,342	50,136	122,316	81,473
3,356	-0,859	16,648	8,304
4,371	1,844	3,316	1,684
5,386	1,905	0,702	0,356
6,400	800,000	0,071	0,205
7,415	163,598	-0,208	-0,207
8,429	211,707	-0,235	-0,261
9,444	290,066	-0,308	-0,396
10,459	45,202	-0,384	-0,249
11,473	-8,284	-0,281	-0,133
12,488	-6,285	-0,238	-0,114
13,502	204,400	-0,290	-0,318
14,517	23,593	-0,324	-0,188
15,531	115,942	-0,325	-0,280
16,546	80,931	-0,272	-0,207
17,561	-8,724	-0,343	-0,162
18,575	119,405	-0,057	-0,050
19,590	51,056	-0,225	-0,150
20,604	39,624	-0,287	-0,181
21,619	68,089	-0,373	-0,269
22,634	156,874	-0,385	-0,375
23,648	32,681	-0,456	-0,277
24,663	21,597	-0,497	-0,285
25,677	92,626	-0,398	-0,316
26,692	-64,581	-0,379	-0,108
27,707	58,436	-0,393	-0,271
28,721	183,663	-0,337	-0,351
29,736	41,619	-0,438	-0,279
30,750	177,589	-0,317	-0,325
31,765	-3,506	-0,508	-0,248
32,780	34,492	-0,328	-0,201
33,794	-24,335	-0,341	-0,143
34,809	230,596	-0,334	-0,386
35,823	109,869	-0,344	-0,291
36,838	110,591	-0,386	-0,327
37,853	168,601	-0,408	-0,410
38,867	-47,211	-0,384	-0,131
39,882	77,979	-0,328	-0,246
40,896	182,130	-0,249	-0,259
41,911	112,074	-0,398	-0,338
42,926	13,343	-0,348	-0,190
43,940	137,819	-0,480	-0,443
44,955	122,586	-0,375	-0,330
45,969	-23,224	-0,280	-0,118
46,984	69,581	-0,412	-0,298
47,999	87,952	-0,321	-0,250
49,013	-2,018	-0,286	-0,141
50,028	54,797	-0,364	-0,247
51,042	125,844	-0,351	-0,312
52,057	377,123	-0,225	-0,324
53,071	49,325	-0,318	-0,210
54,086	376,257	-0,203	-0,292
55,101	123,425	-0,241	-0,213
56,115	188,604	-0,334	-0,352
57,130	-18,511	-0,232	-0,101
58,144	62,881	-0,412	-0,290
59,159	60,566	-0,431	-0,300
60,174	25,739	-0,417	-0,244
61,188	-35,434	-0,392	-0,149
62,203	35,151	-0,466	-0,286
63,217	65,527	-0,398	-0,283
64,232	13,573	-0,335	-0,182
65,247	75,654	-0,321	-0,238
66,261	158,847	-0,235	-0,229
67,276	364,558	-0,180	-0,255
68,290	96,437	-0,299	-0,240
69,305	86,617	-0,221	-0,171
70,320	7,330	-0,247	-0,129
71,334	-26,147	-0,285	-0,117
72,349	2,702	-0,357	-0,181
73,363	-33,236	-0,321	-0,124
74,378	29,694	-0,261	-0,156
75,393	66,284	-0,310	-0,221
76,407	54,373	-0,273	-0,184
77,422	-39,216	-0,272	-0,100
78,436	70,623	-0,313	-0,227
79,451	-105,286	-0,264	0,042
80,466	41,579	-0,350	-0,222
81,480	38,989	-0,307	-0,192
82,495	316,025	-0,308	-0,409
83,509	-85,452	-0,356	-0,077
84,524	-75,686	-0,355	-0,088
85,539	-97,865	-0,249	-0,045
86,553	-17,256	-0,268	-0,118
87,568	103,951	-0,380	-0,313
88,582	154,451	-0,278	-0,267
89,597	3,902	-0,255	-0,130
90,611	29,946	-0,335	-0,200
91,626	-74,020	-0,303	-0,076
92,641	119,455	-0,333	-0,289
93,655	218,921	-0,230	-0,259
94,670	-46,763	-0,323	-0,110
95,684	5,433	-0,350	-0,180
96,699	-142,740	-0,340	0,023
97,714	-72,760	-0,313	-0,080
98,728	-92,821	-0,281	-0,055
99,743	38,370	-0,255	-0,159
100,757	-48,027	-0,296	-0,100
101,772	-187,686	-0,332	0,003
102,787	88,462	-0,331	-0,258
103,801	420,541	-0,133	-0,201
104,816	40,410	-0,208	-0,131
105,830	387,622	-0,173	-0,251
106,845	-34,866	-0,284	-0,108
107,860	182,252	-0,220	-0,227
108,874	-148,264	-0,287	0,016
109,889	37,910	-0,321	-0,199
110,903	41,989	-0,273	-0,173
111,918	39,332	-0,281	-0,176
112,933	61,258	-0,254	-0,177
113,947	-127,360	-0,355	-0,036
114,962	127,008	-0,266	-0,236
115,976	185,979	-0,232	-0,242
116,991	14,952	-0,365	-0,199
118,006	200,751	-0,307	-0,331
119,020	192,772	-0,207	-0,219
120,035	118,257	-0,199	-0,172
121,049	-36,059	-0,351	-0,132
122,064	-5,500	-0,267	-0,128
123,079	-73,927	-0,303	-0,076
124,093	-130,049	-0,327	-0,031
125,108	260,715	-0,205	-0,249
126,122	-106,231	-0,185	-0,029
127,137	81,156	-0,270	-0,204
128,151	-0,374	-0,137	-0,068
129,166	-72,285	-0,128	0,033
130,181	17,755	-0,251	-0,139
131,195	223,841	-0,284	-0,321
132,210	113,171	-0,255	-0,216
133,224	-34,076	-0,264	-0,101
134,239	275,803	-0,186	-0,231
135,254	119,969	-0,240	-0,208
136,268	-23,783	-0,199	-0,083
137,283	148,331	-0,172	-0,162
138,297	179,811	-0,158	-0,161
139,312	-6,494	-0,297	-0,141
140,327	46,234	-0,275	-0,178
141,341	-183,162	-0,215	-0,003
142,356	26,674	-0,276	-0,161
143,370	115,583	-0,175	-0,149
144,385	52,978	-0,268	-0,179
145,400	132,949	-0,256	-0,231
146,414	95,854	-0,247	-0,197
147,429	110,021	-0,205	-0,172
148,443	23,843	-0,134	-0,077
149,458	-66,424	-0,246	-0,068
150,473	689,255	-0,120	-0,221
151,487	31,693	-0,302	-0,181
152,502	273,080	-0,285	-0,351
153,516	98,614	-0,275	-0,221
154,531	20,876	-0,311	-0,175
155,546	198,116	-0,157	-0,167
156,560	-141,983	-0,172	-0,012
157,575	72,625	-0,171	-0,124
158,589	676,480	-0,105	-0,192
159,604	109,181	-0,247	-0,206
160,619	-4,409	-0,239	-0,115
161,633	38,011	-0,317	-0,196
162,648	131,172	-0,339	-0,304
163,662	188,214	-0,168	-0,175
164,677	-20,004	-0,312	-0,133
165,692	103,110	-0,162	-0,132
166,706	116,608	-0,113	-0,096
167,721	800,000	-0,108	-0,241
168,735	5,021	-0,154	-0,079
169,750	95,174	-0,244	-0,194
170,764	37,184	-0,234	-0,144
171,779	-90,266	-0,192	0,038
172,794	-188,526	-0,196	-0,002
173,808	280,171	-0,073	-0,090
174,823	101,652	-0,201	-0,163
175,837	57,213	-0,211	-0,143
176,852	31,440	-0,307	-0,183
177,867	-71,100	-0,267	0,069
178,881	800,000	-0,078	-0,223
179,896	-137,937	-0,319	-0,024
180,910	94,331	-0,230	-0,182
181,925	238,330	-0,240	-0,277
182,940	175,626	-0,225	-0,227
183,954	127,358	-0,310	-0,274
184,969	192,993	-0,156	-0,164
185,983	320,334	-0,084	-0,111
186,998	42,376	-0,173	-0,109
188,013	29,007	-0,193	-0,113
189,027	222,511	-0,155	-0,174
190,042	181,901	-0,143	-0,146
191,056	527,900	-0,128	-0,210
192,071	130,898	-0,248	-0,221
193,086	800,000	-0,126	-0,244
194,100	305,598	-0,256	-0,331
195,115	-60,768	-0,283	-0,083
196,129	526,619	-0,128	-0,210
197,144	-7,275	-0,212	-0,099
198,159	-44,248	-0,201	-0,070
199,173	251,815	-0,150	-0,177
200,188	299,886	-0,106	-0,136
201,202	-9,937	-0,100	-0,046
202,217	12,688	-0,084	-0,045
203,232	75,046	-0,252	-0,184
204,246	625,674	-0,159	-0,279
205,261	5,023	-0,220	-0,112
206,275	-200,000	-0,076	-0,248
207,290	442,128	-0,086	-0,132
208,304	27,310	-0,109	-0,064
209,319	7,085	-0,136	0,070
210,334	54,110	-0,316	-0,211
211,348	-83,434	-0,282	-0,062
212,363	58,843	-0,179	-0,122
213,377	693,849	-0,143	-0,261
214,392	67,042	-0,166	-0,117
215,407	381,069	-0,127	-0,181
216,421	236,806	-0,140	-0,161
217,436	179,571	-0,207	-0,211
218,450	153,632	-0,166	-0,157
219,465	-50,834	-0,240	-0,078
220,480	173,898	-0,138	-0,138
221,494	436,095	-0,088	-0,133
222,509	-46,179	-0,263	-0,089
223,523	-114,575	-0,080	-0,011
224,538	522,222	-0,090	-0,147
225,553	299,407	-0,110	-0,140
226,567	146,958	-0,178	-0,166
227,582	14,674	-0,295	-0,160
228,596	-105,847	-0,229	-0,036
229,611	34,990	-0,147	-0,089
230,626	800,000	-0,079	-0,203
231,640	96,412	-0,169	-0,133
232,655	47,624	-0,154	-0,099
233,669	122,108	-0,271	-0,234
234,684	201,348	-0,127	-0,135
235,699	-71,829	-0,171	-0,044
236,713	47,926	-0,193	-0,125
237,728	691,270	-0,160	-0,292
238,742	624,922	-0,166	-0,290
239,757	800,000	-0,119	-0,252
240,772	-21,969	-0,247	-0,103
241,786	142,751	-0,168	-0,154
242,801	113,391	-0,069	-0,058
243,815	800,000	-0,046	-0,101
244,830	-200,000	0,018	-0,156
245,844	18,856	-0,186	-0,103
246,859	49,645	-0,169	-0,110
247,874	57,071	-0,299	-0,201
248,888	-16,506	-0,236	-0,103
249,903	-127,297	-0,182	-0,018
250,917	19,291	-0,235	-0,130
251,932	-137,739	-0,176	-0,013
252,947	-24,118	-0,189	-0,078
253,961	47,830	-0,228	-0,147
254,976	143,225	-0,222	-0,204
255,990	139,109	-0,242	-0,220
257,005	258,571	-0,177	-0,212
258,020	91,040	-0,210	-0,162
259,034	30,956	-0,111	-0,066
260,049	-172,482	-0,334	-0,007
261,063	181,821	-0,128	-0,130
262,078	285,586	-0,111	-0,138
263,093	34,738	-0,326	-0,196
264,107	22,082	-0,286	-0,161
265,122	-36,351	-0,207	-0,077
266,136	-70,576	-0,056	-0,015
267,151	63,165	-0,203	-0,140
268,166	-70,978	-0,191	-0,049
269,180	263,546	-0,186	-0,223
270,195	260,841	-0,087	-0,104
271,209	168,401	-0,178	-0,175
272,224	-151,507	-0,205	0,010
273,239	-80,898	-0,121	-0,028
274,253	-55,868	-0,096	-0,029
275,268	-7,850	-0,100	-0,046
276,282	203,893	-0,153	-0,163
277,297	-15,152	-0,257	-0,113
278,312	236,753	-0,125	-0,144
279,326	424,923	-0,173	-0,258
280,341	1,133	-0,108	-0,053
281,355	-21,929	-0,154	-0,064
282,370	31,071	-0,117	-0,069
283,384	-200,000	-0,049	-0,197
284,399	-50,443	-0,187	-0,060
285,414	-200,000	-0,037	-0,184
286,428	-200,000	0,007	-0,107
287,443	-33,176	-0,242	-0,092
288,457	248,075	-0,056	-0,065
289,472	-200,000	0,018	-0,121
290,487	800,000	-0,080	-0,188
291,501	-200,000	0,013	-0,132
292,516	-3,422	-0,170	-0,081
293,530	-200,000	-0,130	0,000
294,545	-81,640	-0,137	-0,031
295,560	36,207	-0,132	-0,080
296,574	-0,173	-0,129	-0,063
297,589	15,963	-0,240	-0,130
298,603	161,353	-0,205	-0,197
299,618	127,370	-0,135	-0,118
300,633	222,947	-0,084	-0,093
301,647	-24,724	-0,114	0,046
302,662	773,372	-0,059	-0,112
303,676	20,309	-0,137	-0,076
304,691	-72,578	-0,181	0,046
305,706	40,770	-0,114	-0,071
306,720	22,704	-0,212	-0,119
307,735	-200,000	0,038	-0,118
308,749	-200,000	-0,012	0,054
309,764	85,674	-0,088	0,066
310,779	117,382	-0,137	-0,116
311,793	111,652	-0,105	-0,087
312,808	243,029	-0,054	-0,062
313,822	122,546	-0,200	-0,172
314,837	-88,333	-0,119	0,024
315,852	800,000	-0,065	-0,133
316,866	-200,000	0,042	-0,138
317,881	800,000	-0,069	-0,176
318,895	800,000	-0,084	-0,193
319,910	800,000	-0,123	-0,259
320,925	14,847	-0,250	-0,134
321,939	-200,000	-0,026	-0,210
322,954	74,774	-0,146	-0,106
323,968	134,302	-0,164	-0,146
324,983	323,215	-0,178	-0,234
325,997	-200,000	-0,044	-0,199
327,012	-18,717	-0,266	-0,113
328,027	45,793	-0,123	-0,078
329,041	800,000	-0,054	-0,161
330,056	-150,418	-0,145	-0,008
331,070	396,865	-0,152	-0,219
332,085	-131,794	-0,100	-0,009
333,100	165,939	-0,110	-0,107
334,114	-200,000	-0,005	-0,099
335,129	197,257	-0,191	-0,200
336,143	68,499	-0,224	-0,157
337,158	351,788	-0,157	-0,214
338,173	-200,000	0,009	-0,144
339,187	185,665	-0,051	-0,052
340,202	22,309	-0,075	-0,042
341,216	194,952	-0,031	-0,033
342,231	800,000	-0,054	-0,147
343,246	-177,789	-0,103	-0,002
344,260	205,962	-0,078	-0,084
345,275	-71,388	-0,073	0,019
346,289	250,464	-0,154	-0,180
347,304	172,764	-0,178	-0,176
348,319	26,141	-0,184	-0,105
349,333	-27,761	-0,156	-0,062
350,348	794,536	-0,128	-0,242
351,362	12,204	-0,075	-0,039
352,377	52,874	-0,109	-0,071
353,392	147,985	-0,125	0,116
354,406	-82,880	-0,155	-0,034
355,421	209,184	1315,391	1413,278
356,435	160,983	1476,188	1413,746
