DTS Sentinel unit serial number:	SN410029Multiplexer serial number:	ORYXHardware model number:	OX2-SRSoftware version number:	ORYX F/W v4,00 Oryx Data Collector v3.7.2.0data status	okinstallation	B3 Nyhavnadifferential loss correction	single-endedforward channel	channel 1reverse channel	N/Adate	2023/12/01time	01:02:30forward acquisition time	300,00reverse acquisition time	0,00gamma	499,1914k internal	0,3211k external	0,3211temperature offset calibration	1,0000default loss term (dB/km)	0,3820temperature slope calibration	1,0000multiplexer offset coefficient	1,0000multiplexer slope coefficient	1,0000fibre end	0,00T internal ref (°C)	9,02T ext. ref 1 (°C)	-6,14T ext. ref 2 (°C)	-6,28length (m)	temperature (°C)	Stokes	anti-Stokes-744,400	244,800	-0,088	-0,107
-743,385	800,000	-0,106	0,255
-742,371	800,000	-0,065	-0,148
-741,356	-200,000	0,022	0,301
-740,342	-200,000	-0,081	-0,299
-739,327	-200,000	-0,023	0,268
-738,312	800,000	-0,096	-0,227
-737,298	-200,000	0,011	0,234
-736,283	142,351	-0,233	-0,224
-735,269	-200,000	0,025	0,259
-734,254	195,564	-0,187	-0,206
-733,239	-123,660	-0,169	-0,019
-732,225	-200,000	-0,011	-0,227
-731,210	64,634	0,110	0,081
-730,196	-14,033	-0,121	0,056
-729,181	693,987	-0,048	0,093
-728,167	-200,000	0,002	-0,052
-727,152	-18,206	-0,129	-0,058
-726,137	341,641	-0,052	0,073
-725,123	-33,957	-0,083	0,033
-724,108	-69,798	-0,025	-0,007
-723,094	-115,710	-0,241	0,032
-722,079	-26,619	-0,133	0,056
-721,064	-114,487	0,093	0,013
-720,050	54,822	-0,110	0,077
-719,035	-71,605	0,009	-0,002
-718,021	-53,327	-0,091	-0,030
-717,006	361,776	-0,029	-0,042
-715,991	40,879	-0,118	-0,077
-714,977	220,076	0,029	-0,033
-713,962	-11,289	-0,092	-0,044
-712,948	16,387	0,067	0,038
-711,933	401,087	0,065	0,100
-710,918	-200,000	0,018	-0,206
-709,904	35,976	-0,181	-0,115
-708,889	75,057	0,114	-0,087
-707,875	800,000	0,040	0,094
-706,860	-200,000	0,035	-0,129
-705,845	800,000	-0,090	-0,209
-704,831	312,068	0,049	0,067
-703,816	-200,000	-0,009	0,052
-702,802	5,150	-0,176	-0,093
-701,787	216,798	-0,073	-0,085
-700,772	800,000	-0,024	0,060
-699,758	-51,712	0,036	-0,012
-698,743	800,000	0,037	0,082
-697,729	-121,292	-0,171	0,020
-696,714	800,000	0,046	0,141
-695,699	-78,796	0,063	-0,015
-694,685	276,395	-0,076	-0,098
-693,670	32,281	-0,101	-0,063
-692,656	-200,000	-0,008	-0,074
-691,641	100,768	0,080	-0,067
-690,627	-200,000	0,013	0,245
-689,612	-63,547	-0,094	0,028
-688,597	119,162	-0,055	0,050
-687,583	-33,025	-0,205	-0,082
-686,568	-2,276	0,091	0,046
-685,554	-17,668	-0,101	-0,046
-684,539	-69,864	-0,018	0,005
-683,524	-51,383	0,049	0,016
-682,510	361,365	0,057	0,082
-681,495	215,917	-0,099	-0,114
-680,481	800,000	0,040	-0,089
-679,466	-200,000	-0,019	-0,175
-678,451	34,174	-0,107	-0,067
-677,437	61,433	-0,048	-0,034
-676,422	132,601	0,053	0,049
-675,408	301,321	-0,075	0,101
-674,393	800,000	-0,034	0,094
-673,378	-62,373	0,016	-0,005
-672,364	530,108	-0,072	-0,124
-671,349	21,097	-0,079	-0,046
-670,335	79,375	-0,036	0,028
-669,320	38,463	0,093	0,060
-668,305	-5,038	-0,031	0,015
-667,291	24,527	0,054	0,032
-666,276	468,847	-0,064	-0,104
-665,262	800,000	-0,011	0,025
-664,247	260,807	-0,083	0,104
-663,232	-200,000	0,013	0,060
-662,218	32,880	-0,007	-0,004
-661,203	800,000	0,045	0,144
-660,189	-200,000	0,021	-0,082
-659,174	488,132	0,009	0,015
-658,159	40,072	-0,094	-0,061
-657,145	-200,000	-0,013	-0,132
-656,130	-200,000	-0,007	-0,063
-655,116	15,503	-0,046	-0,026
-654,101	800,000	-0,003	0,008
-653,086	-126,875	0,148	-0,016
-652,072	-200,000	-0,003	-0,030
-651,057	-53,322	-0,037	0,012
-650,043	-200,000	-0,014	-0,125
-649,028	-95,877	0,008	0,001
-648,014	17,966	-0,075	0,043
-646,999	-200,000	-0,014	-0,067
-645,984	-131,638	0,086	-0,008
-644,970	800,000	0,020	0,041
-643,955	-6,477	-0,097	-0,048
-642,941	317,681	0,052	-0,071
-641,926	274,854	-0,051	-0,066
-640,911	23,965	-0,011	-0,006
-639,897	-200,000	-0,004	-0,049
-638,882	247,734	-0,092	0,113
-637,868	-26,037	0,098	-0,041
-636,853	9,094	-0,164	-0,089
-635,838	14,968	-0,044	-0,025
-634,824	-6,932	-0,093	-0,045
-633,809	-200,000	-0,003	0,039
-632,795	800,000	0,014	-0,033
-631,780	-200,000	-0,001	0,062
-630,765	723,802	0,040	0,077
-629,751	-56,306	-0,126	0,040
-628,736	-200,000	-0,009	-0,094
-627,722	-200,000	0,020	0,134
-626,707	-121,385	0,120	-0,014
-625,692	106,150	0,049	0,042
-624,678	-85,342	-0,087	0,020
-623,663	94,833	-0,074	0,061
-622,649	179,791	-0,044	-0,046
-621,634	-200,000	-0,037	-0,175
-620,619	800,000	-0,068	-0,143
-619,605	281,781	0,027	-0,034
-618,590	-133,807	-0,020	-0,002
-617,576	-174,475	0,114	-0,002
-616,561	-200,000	-0,023	-0,183
-615,546	-81,538	-0,032	-0,007
-614,532	800,000	0,021	-0,045
-613,517	-113,831	-0,126	-0,018
-612,503	-200,000	-0,003	-0,060
-611,488	-66,804	0,070	0,020
-610,474	-56,214	0,045	0,014
-609,459	-200,000	0,011	-0,069
-608,444	-10,685	0,079	0,037
-607,430	61,494	-0,031	-0,022
-606,415	-36,078	-0,202	-0,078
-605,401	-200,000	0,063	-0,260
-604,386	289,710	-0,068	0,089
-603,371	75,722	-0,136	0,103
-602,357	-200,000	0,004	0,052
-601,342	-200,000	-0,010	-0,066
-600,328	800,000	-0,047	-0,094
-599,313	-104,693	-0,117	0,019
-598,298	-149,164	0,036	0,002
-597,284	-133,273	0,106	-0,010
-596,269	-200,000	-0,010	0,121
-595,255	473,914	0,064	0,104
-594,240	144,068	-0,053	0,051
-593,225	-200,000	-0,013	-0,088
-592,211	34,990	-0,071	-0,045
-591,196	654,160	0,032	0,059
-590,182	-125,630	0,120	-0,013
-589,167	800,000	0,044	0,123
-588,152	51,654	-0,160	0,109
-587,138	412,719	-0,022	-0,034
-586,123	-68,123	-0,078	-0,022
-585,109	122,826	-0,078	-0,071
-584,094	800,000	0,042	-0,097
-583,079	-200,000	-0,001	0,072
-582,065	-200,000	-0,001	-0,065
-581,050	215,928	-0,073	-0,084
-580,036	29,455	0,069	-0,042
-579,021	800,000	-0,050	-0,142
-578,006	448,067	-0,050	0,080
-576,992	24,468	0,045	-0,027
-575,977	-200,000	-0,018	0,173
-574,963	-70,590	-0,063	-0,017
-573,948	800,000	-0,009	0,029
-572,934	-200,000	0,003	-0,061
-571,919	179,679	-0,024	-0,026
-570,904	-200,000	0,035	-0,153
-569,890	800,000	-0,073	-0,181
-568,875	-200,000	-0,019	-0,067
-567,861	-200,000	-0,007	-0,028
-566,846	-200,000	0,012	0,122
-565,831	-60,595	0,144	0,044
-564,817	-200,000	0,018	0,089
-563,802	385,639	0,032	-0,048
-562,788	87,964	-0,072	0,058
-561,773	68,443	0,118	-0,087
-560,758	-200,000	-0,006	-0,152
-559,744	-65,947	-0,124	-0,035
-558,729	-124,166	0,091	0,010
-557,715	163,401	-0,105	-0,106
-556,700	-85,963	0,100	-0,022
-555,685	69,374	0,069	-0,051
-554,671	49,115	0,060	-0,040
-553,656	422,889	-0,096	0,149
-552,642	-32,129	-0,087	0,035
-551,627	-200,000	0,010	-0,052
-550,612	-200,000	0,011	-0,106
-549,598	57,152	-0,138	-0,097
-548,583	-200,000	-0,005	0,073
-547,569	-200,000	-0,012	-0,058
-546,554	7,734	0,066	-0,035
-545,539	-200,000	-0,001	-0,021
-544,525	421,163	-0,096	-0,148
-543,510	-200,000	0,027	-0,129
-542,496	-200,000	-0,012	-0,095
-541,481	-200,000	0,019	-0,107
-540,466	800,000	0,046	-0,138
-539,452	140,290	-0,108	-0,102
-538,437	-78,899	0,122	-0,030
-537,423	-47,057	-0,041	0,014
-536,408	20,129	0,061	-0,035
-535,393	214,633	-0,119	-0,136
-534,379	-200,000	-0,001	0,006
-533,364	128,313	0,094	-0,086
-532,350	-101,297	0,134	-0,023
-531,335	800,000	-0,046	0,120
-530,321	-95,183	0,049	-0,009
-529,306	106,005	-0,109	-0,093
-528,291	174,564	-0,057	-0,060
-527,277	2,641	-0,074	-0,038
-526,262	5,792	-0,073	-0,039
-525,248	-197,726	0,234	-0,001
-524,233	-3,545	0,153	-0,076
-523,218	-93,804	-0,039	-0,008
-522,204	-117,282	-0,124	-0,016
-521,189	800,000	0,011	0,030
-520,175	-86,008	0,115	0,025
-519,160	-26,480	0,051	0,022
-518,145	511,417	0,078	-0,130
-517,131	175,184	0,060	0,062
-516,116	-200,000	0,003	-0,073
-515,102	800,000	0,013	-0,036
-514,087	-136,954	-0,118	0,010
-513,072	111,354	-0,153	-0,132
-512,058	800,000	-0,053	-0,126
-511,043	64,775	-0,034	0,025
-510,029	-136,907	-0,060	-0,005
-509,014	154,771	0,101	-0,100
-507,999	800,000	-0,050	0,105
-506,985	-13,430	-0,100	-0,046
-505,970	63,595	-0,091	0,066
-504,956	550,323	0,033	-0,056
-503,941	-200,000	-0,033	0,148
-502,926	800,000	-0,030	0,060
-501,912	-200,000	-0,010	0,068
-500,897	-77,152	-0,165	-0,041
-499,883	800,000	0,043	-0,122
-498,868	-200,000	0,014	-0,062
-497,853	410,837	-0,059	-0,090
-496,839	-200,000	0,004	-0,021
-495,824	-200,000	0,001	-0,022
-494,810	-62,771	0,119	0,035
-493,795	22,656	0,067	0,039
-492,781	-11,546	0,030	0,014
-491,766	-200,000	-0,020	-0,071
-490,751	46,317	-0,156	-0,103
-489,737	-46,848	-0,026	0,009
-488,722	-200,000	0,039	0,146
-487,708	48,535	-0,087	-0,059
-486,693	180,415	-0,044	0,047
-485,678	61,440	0,073	0,052
-484,664	1,769	-0,133	-0,069
-483,649	-138,649	-0,166	-0,013
-482,635	131,101	0,100	0,092
-481,620	19,381	-0,086	-0,050
-480,605	-200,000	0,009	-0,079
-479,591	-50,784	-0,053	-0,018
-478,576	-55,763	-0,057	-0,018
-477,562	-80,020	0,012	-0,003
-476,547	800,000	-0,058	-0,161
-475,532	438,232	-0,074	-0,116
-474,518	174,822	0,108	0,112
-473,503	-200,000	0,004	0,059
-472,489	-72,523	0,078	0,020
-471,474	166,959	-0,069	0,070
-470,459	760,552	-0,028	-0,055
-469,445	164,843	-0,071	-0,072
-468,430	800,000	0,029	-0,083
-467,416	101,884	-0,021	0,018
-466,401	-200,000	-0,012	0,113
-465,386	-21,881	-0,125	0,054
-464,372	147,552	-0,051	0,049
-463,357	-18,191	0,030	-0,014
-462,343	327,794	0,108	-0,149
-461,328	800,000	-0,031	0,076
-460,313	177,799	0,110	0,115
-459,299	-18,995	0,105	-0,047
-458,284	-200,000	-0,001	-0,058
-457,270	42,074	0,112	0,073
-456,255	800,000	-0,063	0,139
-455,241	139,147	-0,098	-0,092
-454,226	-6,243	-0,023	-0,011
-453,211	796,425	0,011	-0,021
-452,197	-70,411	0,194	-0,052
-451,182	177,153	-0,046	0,048
-450,168	-200,000	-0,019	-0,073
-449,153	-167,803	-0,052	-0,001
-448,138	156,621	0,041	0,041
-447,124	-144,197	-0,123	-0,008
-446,109	800,000	-0,051	0,142
-445,095	86,802	0,119	0,094
-444,080	-200,000	-0,002	-0,141
-443,065	-20,930	0,083	0,036
-442,051	243,543	-0,039	-0,047
-441,036	182,021	0,040	-0,042
-440,022	-120,206	-0,030	0,004
-439,007	-23,271	0,059	-0,025
-437,992	304,683	-0,047	-0,063
-436,978	44,096	-0,097	0,064
-435,963	800,000	0,032	0,079
-434,949	-18,002	-0,105	0,047
-433,934	-200,000	0,019	0,128
-432,919	-196,397	-0,015	0,000
-431,905	-35,355	0,102	0,040
-430,890	-142,158	-0,112	-0,008
-429,876	-200,000	-0,036	-0,185
-428,861	162,112	-0,042	-0,042
-427,846	-18,039	-0,065	-0,029
-426,832	800,000	0,017	-0,042
-425,817	-79,855	-0,042	0,010
-424,803	244,713	0,078	-0,094
-423,788	101,805	0,090	0,075
-422,773	315,143	-0,115	0,155
-421,759	800,000	0,047	0,139
-420,744	372,867	0,054	-0,080
-419,730	15,748	-0,118	-0,066
-418,715	-122,626	-0,048	-0,006
-417,701	-31,528	0,149	0,060
-416,686	284,004	0,063	0,082
-415,671	438,517	0,060	0,093
-414,657	28,763	-0,029	0,017
-413,642	212,067	-0,033	0,037
-412,628	-200,000	0,008	0,075
-411,613	451,173	0,106	-0,168
-410,598	800,000	0,018	-0,041
-409,584	563,970	-0,008	0,014
-408,569	-200,000	0,007	0,108
-407,555	259,040	0,096	0,118
-406,540	106,793	-0,078	0,066
-405,525	800,000	0,038	0,112
-404,511	462,633	-0,021	-0,034
-403,496	-200,000	-0,001	-0,114
-402,482	-161,897	0,071	-0,003
-401,467	-200,000	0,007	0,046
-400,452	-12,254	-0,016	-0,007
-399,438	-155,415	-0,107	-0,005
-398,423	-32,802	0,073	-0,029
-397,409	-151,281	0,051	0,003
-396,394	390,412	0,040	-0,060
-395,379	491,426	0,041	0,067
-394,365	51,823	0,078	-0,053
-393,350	-15,314	0,158	0,072
-392,336	43,236	-0,059	0,038
-391,321	123,006	0,061	0,054
-390,306	-200,000	0,012	0,045
-389,292	89,908	-0,043	0,034
-388,277	554,097	-0,071	0,122
-387,263	-50,240	0,122	0,041
-386,248	-49,631	0,141	-0,048
-385,233	61,104	0,032	-0,023
-384,219	-93,906	-0,144	0,028
-383,204	222,367	-0,026	-0,030
-382,190	241,264	0,004	-0,005
-381,175	-200,000	-0,018	-0,109
-380,160	655,895	0,069	0,128
-379,146	-200,000	-0,002	0,157
-378,131	-200,000	0,017	-0,103
-377,117	54,614	-0,088	0,060
-376,102	-71,566	0,039	0,010
-375,088	-153,988	-0,120	-0,006
-374,073	207,057	-0,031	-0,034
-373,058	-58,176	0,029	0,009
-372,044	-127,552	-0,069	0,007
-371,029	800,000	-0,047	0,102
-370,015	-200,000	-0,006	0,067
-369,000	-200,000	-0,041	0,135
-367,985	-200,000	-0,013	-0,044
-366,971	-166,527	-0,058	0,002
-365,956	-149,076	0,133	-0,007
-364,942	419,040	0,062	0,094
-363,927	-41,419	0,107	0,039
-362,912	226,156	-0,036	-0,042
-361,898	-145,308	0,033	0,002
-360,883	333,996	-0,078	-0,108
-359,869	156,679	0,041	0,040
-358,854	-77,602	0,071	-0,018
-357,839	-34,231	0,021	0,008
-356,825	33,307	-0,003	0,002
-355,810	800,000	0,100	0,226
-354,796	546,725	0,059	0,101
-353,781	23,650	-0,143	-0,084
-352,766	-200,000	-0,005	0,074
-351,752	319,681	0,025	-0,034
-350,737	-200,000	0,009	0,091
-349,723	-154,989	0,126	0,006
-348,708	-200,000	-0,012	0,079
-347,693	-200,000	-0,024	-0,092
-346,679	293,526	0,032	0,042
-345,664	-59,531	-0,112	0,034
-344,650	-120,342	0,050	-0,006
-343,635	64,784	0,043	0,031
-342,620	800,000	-0,013	-0,036
-341,606	-87,899	0,186	-0,040
-340,591	-148,846	-0,084	-0,005
-339,577	332,088	0,015	-0,021
-338,562	333,388	-0,054	0,075
-337,548	-9,013	0,122	0,058
-336,533	800,000	-0,016	-0,038
-335,518	61,678	0,143	0,101
-334,504	12,605	-0,040	-0,022
-333,489	-97,711	-0,109	0,020
-332,475	-125,001	-0,133	-0,014
-331,460	-115,990	0,031	0,004
-330,445	-119,590	0,173	0,021
-329,431	146,746	-0,067	-0,065
-328,416	362,183	0,079	0,113
-327,402	17,102	-0,046	-0,026
-326,387	-178,783	0,101	0,002
-325,372	310,018	-0,080	-0,107
-324,358	139,894	0,055	-0,052
-323,343	110,036	0,080	-0,068
-322,329	800,000	0,062	0,171
-321,314	-200,000	-0,027	0,092
-320,299	-200,000	0,035	0,110
-319,285	45,686	0,041	0,027
-318,270	87,086	-0,149	-0,118
-317,256	211,279	0,056	-0,063
-316,241	81,797	-0,098	-0,076
-315,226	144,253	0,043	-0,041
-314,212	77,366	0,038	0,029
-313,197	181,472	-0,033	0,034
-312,183	-118,538	0,088	-0,011
-311,168	-152,521	0,021	0,001
-310,153	-46,936	-0,060	0,021
-309,139	-112,672	0,103	-0,014
-308,124	742,840	-0,064	0,124
-307,110	26,452	0,193	0,115
-306,095	-200,000	-0,008	-0,054
-305,080	406,419	-0,036	0,055
-304,066	-200,000	-0,014	0,184
-303,051	108,669	0,053	-0,045
-302,037	6,150	-0,091	0,048
-301,022	-10,071	0,098	0,046
-300,008	476,565	0,041	0,066
-298,993	65,855	-0,134	-0,096
-297,978	-101,586	0,043	0,007
-296,964	311,436	0,102	-0,137
-295,949	-153,834	0,187	0,009
-294,935	800,000	0,073	0,179
-293,920	800,000	0,027	-0,067
-292,905	79,582	0,072	0,055
-291,891	158,704	-0,074	0,073
-290,876	800,000	0,019	0,055
-289,862	779,277	0,043	0,084
-288,847	210,334	-0,102	-0,115
-287,832	-200,000	-0,030	-0,184
-286,818	800,000	0,030	0,078
-285,803	121,431	0,151	0,134
-284,789	450,574	0,061	-0,097
-283,774	639,074	-0,057	-0,103
-282,759	309,215	-0,095	-0,127
-281,745	345,216	-0,066	-0,092
-280,730	-200,000	0,009	-0,114
-279,716	-17,217	0,140	-0,063
-278,701	129,218	-0,032	0,029
-277,686	-104,099	0,135	0,022
-276,672	800,000	0,052	0,136
-275,657	-114,345	0,085	-0,012
-274,643	-21,922	-0,126	-0,054
-273,628	-63,503	-0,043	0,013
-272,613	369,897	0,067	-0,097
-271,599	-200,000	-0,006	0,050
-270,584	68,015	0,135	0,099
-269,570	-37,232	-0,056	-0,021
-268,555	305,267	0,042	0,055
-267,540	196,925	-0,009	0,010
-266,526	120,596	-0,072	0,064
-265,511	-77,472	0,042	-0,010
-264,497	535,252	0,043	-0,072
-263,482	158,593	0,060	-0,059
-262,467	-61,010	-0,151	0,045
-261,453	-200,000	0,009	-0,036
-260,438	-145,650	-0,051	0,003
-259,424	-86,655	-0,109	-0,024
-258,409	-200,000	-0,017	-0,055
-257,395	-18,248	-0,066	0,029
-256,380	-68,862	0,123	0,034
-255,365	448,912	0,005	-0,008
-254,351	800,000	0,023	0,051
-253,336	-200,000	0,008	-0,044
-252,322	-32,568	0,054	-0,021
-251,307	-200,000	-0,033	-0,111
-250,292	579,121	0,019	0,034
-249,278	-21,751	-0,051	-0,022
-248,263	98,702	0,118	0,097
-247,249	162,457	0,037	0,037
-246,234	-67,756	-0,094	0,026
-245,219	102,101	-0,068	0,056
-244,205	800,000	0,019	-0,046
-243,190	-200,000	0,003	0,089
-242,176	406,723	0,042	0,064
-241,161	5,730	-0,067	-0,035
-240,146	-200,000	0,000	0,021
-239,132	82,369	-0,112	-0,087
-238,117	145,328	-0,041	-0,039
-237,103	-200,000	-0,047	-0,188
-236,088	-10,314	-0,124	0,058
-235,073	121,959	0,062	-0,055
-234,059	800,000	-0,033	0,080
-233,044	595,017	-0,055	0,096
-232,030	170,104	0,018	-0,018
-231,015	-200,000	0,013	0,107
-230,000	131,892	-0,081	0,074
-228,986	-117,484	-0,080	0,010
-227,971	-200,000	-0,001	-0,009
-226,957	236,878	0,012	0,014
-225,942	-3,321	0,073	0,036
-224,927	-200,000	-0,034	0,134
-223,913	-200,000	-0,024	0,110
-222,898	11,852	0,131	0,071
-221,884	240,058	-0,143	-0,169
-220,869	186,893	0,086	-0,091
-219,855	363,191	0,019	0,027
-218,840	800,000	0,054	0,119
-217,825	385,083	0,023	0,033
-216,811	299,787	-0,041	-0,053
-215,796	-200,000	-0,016	-0,057
-214,782	-19,388	0,049	-0,022
-213,767	141,158	-0,041	0,039
-212,752	-13,270	0,106	-0,049
-211,738	800,000	0,047	0,093
-210,723	-200,000	0,013	0,129
-209,709	-90,666	-0,123	-0,025
-208,694	519,772	-0,079	0,132
-207,679	330,086	0,102	0,140
-206,665	-98,253	-0,041	0,007
-205,650	-34,713	0,030	-0,012
-204,636	800,000	0,022	0,049
-203,621	2,036	0,039	0,020
-202,606	-84,793	-0,055	0,012
-201,592	-95,744	-0,120	-0,023
-200,577	-86,696	0,118	0,025
-199,563	-16,799	0,078	0,035
-198,548	-200,000	-0,005	-0,020
-197,533	477,576	0,037	-0,060
-196,519	70,296	0,081	-0,060
-195,504	80,140	-0,062	-0,048
-194,490	-97,923	-0,228	0,041
-193,475	-27,906	-0,086	0,035
-192,460	620,445	0,036	-0,064
-191,446	-200,000	0,007	-0,033
-190,431	168,689	-0,020	0,020
-189,417	-200,000	0,021	0,096
-188,402	-138,058	0,072	-0,006
-187,387	-53,625	0,074	0,024
-186,373	800,000	-0,021	-0,060
-185,358	-200,000	0,032	0,102
-184,344	-200,000	0,007	0,093
-183,329	800,000	0,071	0,222
-182,315	-200,000	0,001	0,074
-181,300	-200,000	-0,007	0,054
-180,285	800,000	-0,029	0,090
-179,271	-192,906	-0,098	0,001
-178,256	17,049	0,194	-0,109
-177,242	512,560	-0,037	-0,061
-176,227	17,211	0,078	0,044
-175,212	6,209	0,153	0,080
-174,198	86,522	0,057	-0,045
-173,183	183,361	-0,068	-0,071
-172,169	65,401	0,018	0,013
-171,154	24,839	-0,057	0,034
-170,139	21,328	0,086	0,050
-169,125	-75,177	0,126	-0,032
-168,110	-200,000	-0,002	0,024
-167,096	800,000	0,035	-0,089
-166,081	-200,000	-0,012	-0,047
-165,066	-86,393	-0,063	-0,014
-164,052	-45,025	0,070	0,024
-163,037	-200,000	0,005	0,030
-162,023	-133,593	0,045	-0,004
-161,008	247,776	0,059	0,071
-159,993	57,336	0,019	0,013
-158,979	27,952	-0,058	-0,034
-157,964	387,626	-0,073	-0,107
-156,950	689,373	-0,038	-0,070
-155,935	10,361	0,017	0,009
-154,920	-200,000	0,006	0,123
-153,906	-200,000	0,003	0,039
-152,891	144,423	-0,119	0,113
-151,877	-72,774	-0,024	-0,006
-150,862	57,963	-0,109	-0,076
-149,847	474,667	-0,048	-0,077
-148,833	800,000	-0,042	-0,085
-147,818	-200,000	0,035	0,125
-146,804	-155,495	-0,066	0,003
-145,789	607,185	0,007	-0,012
-144,775	-59,385	-0,046	-0,014
-143,760	-39,063	-0,011	-0,004
-142,745	463,868	-0,077	-0,123
-141,731	-200,000	-0,008	-0,141
-140,716	175,526	-0,018	-0,019
-139,702	220,292	0,030	0,034
-138,687	-55,226	0,073	0,023
-137,672	800,000	-0,031	-0,074
-136,658	-149,516	-0,054	0,003
-135,643	800,000	0,040	-0,097
-134,629	-200,000	0,009	-0,066
-133,614	800,000	0,048	0,105
-132,599	-200,000	0,001	0,131
-131,585	-200,000	0,009	0,030
-130,570	673,883	-0,077	0,142
-129,556	-29,622	-0,139	-0,056
-128,541	238,729	-0,055	-0,065
-127,526	-200,000	-0,004	-0,068
-126,512	-200,000	-0,009	-0,093
-125,497	800,000	0,029	-0,073
-124,483	-149,123	-0,055	-0,003
-123,468	-69,108	-0,077	-0,021
-122,453	-200,000	-0,004	-0,106
-121,439	317,554	-0,058	0,078
-120,424	-37,991	0,133	0,050
-119,410	175,024	0,083	-0,085
-118,395	281,087	-0,029	0,037
-117,380	36,551	-0,124	-0,077
-116,366	-138,328	0,148	-0,011
-115,351	-200,000	-0,006	0,040
-114,337	800,000	-0,014	-0,031
-113,322	-106,337	0,028	-0,004
-112,307	-14,206	-0,066	-0,030
-111,293	31,746	0,109	0,066
-110,278	-61,483	-0,138	0,041
-109,264	-200,000	-0,009	0,048
-108,249	36,670	-0,055	-0,034
-107,234	-122,917	-0,088	0,010
-106,220	-14,448	-0,073	-0,033
-105,205	-133,591	0,094	0,008
-104,191	109,778	0,047	-0,040
-103,176	800,000	0,042	0,096
-102,162	484,878	0,080	-0,129
-101,147	-200,000	-0,009	0,060
-100,132	800,000	-0,032	0,078
-99,118	-67,775	0,029	-0,008
-98,103	-184,628	0,101	-0,001
-97,089	-154,040	-0,057	0,003
-96,074	-73,945	0,122	0,031
-95,059	-79,706	0,019	-0,005
-94,045	51,959	0,027	-0,018
-93,030	-131,186	-0,133	0,012
-92,016	-115,384	-0,089	-0,012
-91,001	-200,000	0,038	0,155
-89,986	226,815	0,074	0,085
-88,972	-87,562	0,063	0,013
-87,957	18,516	-0,074	0,042
-86,943	23,513	0,102	-0,059
-85,928	124,568	0,091	-0,081
-84,913	-22,634	-0,051	-0,022
-83,899	-13,141	0,012	-0,006
-82,884	73,545	0,087	-0,064
-81,870	102,230	0,065	0,053
-80,855	800,000	0,043	0,117
-79,840	-200,000	0,012	-0,112
-78,826	-99,927	0,012	0,002
-77,811	251,299	-0,035	0,043
-76,797	-72,996	0,103	0,027
-75,782	55,850	0,054	-0,037
-74,767	-11,891	-0,077	-0,036
-73,753	98,655	0,092	0,075
-72,738	-136,265	0,077	-0,006
-71,724	154,394	-0,123	0,119
-70,709	800,000	-0,022	0,058
-69,694	324,590	-0,079	0,107
-68,680	54,457	-0,054	0,037
-67,665	-200,000	0,010	0,031
-66,651	-200,000	0,001	0,036
-65,636	-164,243	-0,070	0,002
-64,622	99,871	-0,029	0,024
-63,607	-115,488	-0,123	0,016
-62,592	371,161	-0,053	-0,076
-61,578	-200,000	0,013	-0,061
-60,563	224,432	0,039	0,044
-59,549	94,912	-0,107	0,086
-58,534	48,868	-2,003	-1,325
-57,519	354,169	-1,284	-1,806
-56,505	-200,000	-0,441	-4,605
-55,490	380,451	0,916	1,330
-54,476	800,000	5,518	12,036
-53,461	-200,000	21,988	341,653
-52,446	800,000	759,998	2301,583
-51,432	533,232	1655,743	2778,082
-50,417	69,451	1653,985	1200,391
-49,403	16,684	1528,889	851,026
-48,388	10,845	1453,316	780,785
-47,373	19,258	1445,252	816,698
-46,359	14,247	1434,110	786,604
-45,344	9,174	1429,967	760,198
-44,330	9,116	1428,010	758,853
-43,315	9,080	1426,077	757,623
-42,300	9,113	1424,397	756,859
-41,286	9,099	1423,312	756,185
-40,271	9,094	1422,039	755,457
-39,257	9,033	1420,931	754,546
-38,242	9,151	1419,626	754,385
-37,227	9,064	1418,735	753,467
-36,213	9,095	1417,319	752,832
-35,198	9,122	1415,902	752,179
-34,184	9,123	1415,223	751,791
-33,169	9,064	1413,807	750,733
-32,154	9,069	1412,822	750,203
-31,140	9,069	1411,558	749,499
-30,125	9,130	1410,329	749,105
-29,111	9,099	1409,246	748,356
-28,096	9,104	1407,926	747,646
-27,082	9,094	1406,822	746,983
-26,067	9,029	1406,131	746,285
-25,052	9,049	1404,765	745,621
-24,038	9,128	1403,696	745,395
-23,023	9,043	1402,992	744,593
-22,009	9,077	1401,780	744,082
-20,994	9,053	1400,844	743,442
-19,979	9,053	1400,015	742,974
-18,965	9,030	1398,867	742,229
-17,950	9,026	1397,854	741,641
-16,936	8,995	1397,194	741,118
-15,921	8,941	1396,073	740,243
-14,906	8,931	1395,445	739,834
-13,892	9,027	1394,110	739,545
-12,877	8,945	1393,672	738,902
-11,863	8,981	1392,698	738,522
-10,848	8,935	1391,997	737,910
-9,833	8,927	1390,878	737,251
-8,819	8,912	1389,886	736,624
-7,804	8,836	1389,217	735,889
-6,790	8,870	1387,893	735,315
-5,775	8,882	1386,938	734,833
-4,760	8,883	1386,151	734,394
-3,746	8,901	1384,965	733,820
-2,731	8,895	1384,128	733,318
-1,717	8,887	1383,336	732,833
-0,702	8,863	1381,719	731,837
0,313	12,852	1292,959	703,002
1,327	28,779	684,155	407,826
2,342	44,559	118,086	76,409
3,356	-0,993	16,601	8,257
4,371	-4,650	3,748	1,818
5,386	-5,715	1,214	0,585
6,400	800,000	0,225	0,654
7,415	-3,974	-0,246	-0,120
8,429	140,907	-0,242	-0,226
9,444	86,381	-0,306	-0,237
10,459	28,489	-0,353	-0,210
11,473	69,461	-0,352	-0,255
12,488	13,561	-0,293	-0,160
13,502	9,425	-0,253	-0,134
14,517	47,640	-0,304	-0,199
15,531	23,934	-0,384	-0,223
16,546	-131,975	-0,383	-0,035
17,561	21,328	-0,392	-0,224
18,575	-156,351	-0,162	0,007
19,590	95,846	-0,214	-0,172
20,604	-151,104	-0,220	-0,011
21,619	74,079	-0,450	-0,332
22,634	55,722	-0,448	-0,306
23,648	31,750	-0,414	-0,250
24,663	157,659	-0,396	-0,386
25,677	17,801	-0,326	-0,182
26,692	208,676	-0,243	-0,268
27,707	225,072	-0,338	-0,385
28,721	38,540	-0,411	-0,257
29,736	150,010	-0,262	-0,250
30,750	67,603	-0,400	-0,287
31,765	800,000	-0,138	-0,290
32,780	-39,159	-0,442	-0,163
33,794	150,728	-0,285	-0,273
34,809	124,866	-0,422	-0,374
35,823	62,536	-0,339	-0,238
36,838	157,817	-0,401	-0,390
37,853	126,566	-0,339	-0,302
38,867	236,032	-0,291	-0,339
39,882	113,857	-0,353	-0,302
40,896	100,119	-0,278	-0,227
41,911	25,875	-0,373	-0,218
42,926	146,800	-0,282	-0,267
43,940	194,540	-0,312	-0,333
44,955	51,228	-0,319	-0,212
45,969	222,078	-0,273	-0,309
46,984	130,287	-0,301	-0,271
47,999	-31,086	-0,346	-0,136
49,013	130,807	-0,293	-0,264
50,028	317,136	-0,290	-0,386
51,042	96,714	-0,288	-0,231
52,057	159,134	-0,315	-0,308
53,071	287,669	-0,286	-0,364
54,086	2,679	-0,204	-0,103
55,101	215,050	-0,287	-0,319
56,115	47,515	-0,214	-0,140
57,130	-78,083	-0,371	-0,089
58,144	153,887	-0,367	-0,354
59,159	35,447	-0,509	-0,313
60,174	44,655	-0,430	-0,277
61,188	112,641	-0,337	-0,287
62,203	52,756	-0,461	-0,309
63,217	3,940	-0,278	-0,142
64,232	-4,033	-0,369	-0,179
65,247	-32,764	-0,428	-0,166
66,261	312,938	-0,215	-0,285
67,276	-10,977	-0,348	-0,160
68,290	33,541	-0,256	-0,156
69,305	25,536	-0,453	-0,264
70,320	157,920	-0,294	-0,285
71,334	58,778	-0,329	-0,226
72,349	158,231	-0,386	-0,375
73,363	342,466	-0,260	-0,357
74,378	154,464	-0,332	-0,320
75,393	53,094	-0,326	-0,218
76,407	-99,633	-0,349	-0,061
77,422	-116,648	-0,243	-0,031
78,436	55,231	-0,362	-0,245
79,451	35,398	-0,317	-0,195
80,466	-84,134	-0,475	-0,105
81,480	324,192	-0,259	-0,348
82,495	499,716	-0,183	-0,296
83,509	-63,076	-0,199	-0,057
84,524	-73,040	-0,340	-0,087
85,539	192,212	-0,182	-0,193
86,553	8,131	-0,286	-0,150
87,568	63,787	-0,325	-0,228
88,582	3,617	-0,271	-0,138
89,597	234,994	-0,258	-0,298
90,611	3,078	-0,269	-0,136
91,626	16,156	-0,336	-0,185
92,641	-150,576	-0,198	0,010
93,655	-67,733	-0,334	-0,091
94,670	77,096	-0,266	-0,198
95,684	50,979	-0,299	-0,198
96,699	115,978	-0,263	-0,225
97,714	-75,437	-0,160	-0,040
98,728	43,789	-0,214	-0,137
99,743	-16,181	-0,310	-0,137
100,757	6,439	-0,256	-0,133
101,772	-68,799	-0,283	-0,076
102,787	293,685	-0,239	-0,305
103,801	43,359	-0,250	-0,160
104,816	-31,833	-0,269	-0,105
105,830	31,406	-0,251	-0,150
106,845	-140,840	-0,255	-0,018
107,860	39,509	-0,259	-0,162
108,874	37,547	-0,314	-0,195
109,889	53,369	-0,428	-0,286
110,903	324,412	-0,170	-0,227
111,918	85,570	-0,199	-0,152
112,933	87,045	-0,232	-0,179
113,947	-41,840	-0,229	-0,081
114,962	-44,822	-0,287	-0,099
115,976	111,479	-0,156	-0,131
116,991	74,304	-0,257	-0,188
118,006	47,569	-0,369	-0,240
119,020	403,276	-0,217	-0,320
120,035	-19,280	-0,315	-0,136
121,049	219,318	-0,206	-0,230
122,064	98,087	-0,279	-0,224
123,079	37,865	-0,317	-0,196
124,093	-115,776	-0,286	-0,037
125,108	-109,805	-0,362	-0,053
126,122	58,318	-0,220	-0,150
127,137	114,066	-0,196	-0,166
128,151	-130,680	-0,182	-0,017
129,166	219,528	-0,173	-0,193
130,181	154,267	-0,256	-0,245
131,195	52,252	-0,326	-0,217
132,210	258,856	-0,214	-0,257
133,224	101,758	-0,217	-0,177
134,239	22,086	-0,162	-0,092
135,254	-27,921	-0,236	-0,095
136,268	165,463	-0,176	-0,174
137,283	-88,370	-0,224	-0,046
138,297	147,667	-0,189	-0,178
139,312	113,311	-0,257	-0,217
140,327	276,259	-0,177	-0,220
141,341	124,945	-0,305	-0,268
142,356	55,616	-0,326	-0,219
143,370	142,905	-0,194	-0,180
144,385	32,324	-0,289	-0,173
145,400	-3,006	-0,328	-0,159
146,414	63,590	-0,216	-0,151
147,429	153,221	-0,182	-0,174
148,443	81,927	-0,230	-0,173
149,458	188,455	-0,214	-0,223
150,473	-58,879	-0,192	-0,058
151,487	-22,082	-0,392	-0,165
152,502	100,192	-0,200	-0,161
153,516	-42,138	-0,215	-0,076
154,531	55,588	-0,269	-0,181
155,546	763,949	-0,143	-0,271
156,560	-26,741	-0,245	-0,099
157,575	150,062	-0,171	-0,161
158,589	-10,215	-0,306	-0,141
159,604	265,680	-0,182	-0,221
160,619	91,947	-0,253	-0,198
161,633	-33,121	-0,282	-0,108
162,648	432,062	-0,134	-0,202
163,662	58,914	-0,212	-0,145
164,677	-84,823	-0,294	-0,064
165,692	152,054	-0,169	-0,161
166,706	46,667	-0,240	-0,155
167,721	114,934	-0,248	-0,210
168,735	89,950	-0,196	-0,152
169,750	-5,691	-0,186	-0,088
170,764	-43,553	-0,230	-0,080
171,779	41,997	-0,283	-0,178
172,794	273,883	-0,204	-0,251
173,808	204,634	-0,209	-0,225
174,823	81,140	-0,279	-0,209
175,837	200,255	-0,228	-0,244
176,852	329,372	-0,241	-0,322
177,867	195,960	-0,142	-0,150
178,881	-81,173	-0,226	-0,051
179,896	543,153	-0,088	-0,146
180,910	-42,663	-0,336	-0,118
181,925	-4,381	-0,239	-0,114
182,940	7,514	-0,335	-0,174
183,954	58,374	-0,283	-0,192
184,969	145,498	-0,095	-0,088
185,983	135,864	-0,134	-0,121
186,998	397,038	-0,082	-0,120
188,013	0,280	-0,224	-0,111
189,027	108,728	-0,229	-0,190
190,042	-123,004	-0,221	-0,024
191,056	-178,044	-0,256	-0,004
192,071	344,961	-0,171	-0,233
193,086	167,138	-0,087	-0,086
194,100	-18,623	-0,123	0,053
195,115	83,129	-0,209	-0,157
196,129	209,250	-0,147	-0,160
197,144	169,019	-0,114	-0,113
198,159	75,938	-0,233	-0,171
199,173	54,073	-0,219	-0,146
200,188	747,884	-0,108	-0,203
201,202	278,887	-0,129	-0,160
202,217	318,580	-0,152	-0,200
203,232	-29,524	-0,180	-0,071
204,246	29,200	-0,253	-0,149
205,261	337,566	-0,079	-0,107
206,275	800,000	-0,135	-0,285
207,290	76,756	-0,284	-0,209
208,304	-2,758	-0,162	-0,078
209,319	-200,000	-0,039	-0,120
210,334	147,669	-0,231	-0,216
211,348	563,553	-0,154	-0,259
212,363	262,948	-0,198	-0,238
213,377	-80,392	-0,125	-0,029
214,392	-25,292	-0,318	-0,130
215,407	-94,948	-0,130	-0,024
216,421	-129,856	-0,198	-0,019
217,436	57,538	-0,157	-0,106
218,450	-86,628	-0,323	-0,068
219,465	94,831	-0,150	-0,118
220,480	-8,965	-0,214	-0,099
221,494	7,210	-0,164	-0,085
222,509	-200,000	-0,046	-0,204
223,523	-69,688	-0,085	-0,022
224,538	-40,212	-0,153	-0,055
225,553	77,711	-0,111	-0,082
226,567	186,015	-0,274	-0,282
227,582	571,191	-0,180	-0,305
228,596	13,682	-0,107	-0,057
229,611	291,121	-0,158	-0,198
230,626	367,553	-0,145	-0,203
231,640	-200,000	-0,185	-0,000
232,655	83,716	-0,211	-0,159
233,669	271,553	-0,149	-0,182
234,684	77,179	-0,167	-0,122
235,699	119,866	-0,173	-0,148
236,713	-7,713	-0,248	-0,115
237,728	152,303	-0,122	-0,115
238,742	800,000	-0,037	-0,091
239,757	47,375	-0,203	-0,131
240,772	128,643	-0,221	-0,195
241,786	391,819	-0,169	-0,244
242,801	-156,175	-0,206	-0,009
243,815	60,199	-0,041	0,028
244,830	-64,479	-0,164	-0,046
245,844	96,311	-0,169	-0,134
246,859	421,888	-0,152	-0,226
247,874	31,718	-0,191	-0,113
248,888	119,652	-0,147	-0,126
249,903	-5,790	-0,140	-0,066
250,917	448,362	-0,138	-0,210
251,932	-103,926	-0,240	-0,038
252,947	-26,955	-0,104	0,042
253,961	248,842	-0,103	-0,120
254,976	77,477	-0,145	-0,106
255,990	-60,495	-0,195	-0,057
257,005	100,109	-0,134	-0,107
258,020	-102,128	-0,206	-0,034
259,034	-23,558	-0,198	-0,082
260,049	5,744	-0,205	-0,104
261,063	-46,239	-0,123	-0,042
262,078	-65,831	-0,216	0,059
263,093	157,863	-0,232	-0,221
264,107	800,000	-0,085	-0,165
265,122	-114,851	-0,061	-0,008
266,136	144,703	-0,094	-0,086
267,151	-5,707	-0,221	-0,104
268,166	188,568	-0,136	-0,141
269,180	40,299	-0,105	-0,065
270,195	800,000	-0,088	-0,169
271,209	800,000	-0,060	-0,136
272,224	159,000	-0,193	-0,184
273,239	502,353	-0,057	-0,091
274,253	-120,599	-0,217	-0,025
275,268	-108,965	-0,200	-0,029
276,282	129,670	-0,102	-0,090
277,297	-34,248	-0,117	-0,044
278,312	99,232	-0,151	-0,120
279,326	213,030	-0,121	-0,132
280,341	800,000	-0,076	-0,195
281,355	-67,178	-0,115	-0,031
282,370	66,561	-0,172	-0,120
283,384	-54,929	-0,165	-0,051
284,399	95,588	-0,203	-0,159
285,414	800,000	-0,101	-0,195
286,428	-200,000	0,026	-0,125
287,443	-4,061	-0,171	-0,081
288,457	7,025	-0,172	-0,088
289,472	38,126	-0,197	-0,120
290,487	-73,599	-0,251	-0,063
291,501	504,209	-0,170	-0,272
292,516	-29,896	-0,204	-0,079
293,530	-61,514	-0,105	-0,030
294,545	135,593	-0,130	-0,116
295,560	198,304	-0,062	-0,065
296,574	-62,936	-0,180	-0,051
297,589	-200,000	-0,012	-0,169
298,603	168,831	-0,104	-0,102
299,618	59,813	-0,167	-0,113
300,633	-106,120	-0,236	-0,036
301,647	-200,000	0,000	-0,017
302,662	-200,000	-0,001	-0,114
303,676	-70,455	-0,183	-0,047
304,691	39,309	-0,217	-0,133
305,706	26,126	-0,238	-0,136
306,720	58,566	-0,177	-0,119
307,735	-15,759	-0,121	0,053
308,749	-200,000	-0,021	-0,191
309,764	22,108	-0,127	-0,071
310,779	-28,108	-0,286	-0,113
311,793	91,751	-0,178	-0,138
312,808	-29,659	-0,226	-0,088
313,822	523,359	-0,109	-0,177
314,837	-200,000	-0,052	-0,233
315,852	-131,106	-0,160	-0,014
316,866	-98,337	-0,162	0,028
317,881	180,572	-0,026	-0,026
318,895	246,536	-0,100	-0,116
319,910	-8,404	-0,155	-0,071
320,925	152,002	-0,122	-0,114
321,939	-70,464	-0,204	-0,053
322,954	-197,123	-0,207	-0,001
323,968	-89,464	-0,165	-0,033
324,983	-128,185	-0,090	-0,009
325,997	-200,000	-0,005	-0,060
327,012	800,000	-0,044	-0,129
328,027	-124,976	-0,101	0,011
329,041	201,882	-0,107	-0,113
330,056	235,401	-0,074	0,084
331,070	800,000	-0,094	-0,187
332,085	13,832	-0,061	-0,033
333,100	249,196	-0,084	-0,098
334,114	75,423	-0,228	-0,164
335,129	800,000	-0,088	-0,186
336,143	197,476	-0,125	-0,131
337,158	-119,791	-0,170	0,020
338,173	-200,000	-0,050	-0,176
339,187	800,000	-0,101	-0,221
340,202	-34,941	-0,155	-0,058
341,216	304,363	-0,122	-0,155
342,231	800,000	-0,100	-0,232
343,246	455,856	-0,113	-0,173
344,260	26,597	-0,148	-0,085
345,275	79,490	-0,138	-0,102
346,289	-53,174	-0,145	-0,045
347,304	351,625	-0,134	-0,182
348,319	-81,551	-0,189	-0,042
349,333	21,890	-0,295	-0,164
350,348	246,445	-0,152	-0,175
351,362	800,000	-0,126	-0,253
352,377	-200,000	-0,022	0,123
353,392	-78,023	-0,100	0,023
354,406	-154,697	-0,117	-0,005
355,421	206,254	1312,693	1398,860
356,435	158,616	1473,120	1399,317
