DTS Sentinel unit serial number:	SN410029Multiplexer serial number:	ORYXHardware model number:	OX2-SRSoftware version number:	ORYX F/W v4,00 Oryx Data Collector v3.7.2.0data status	okinstallation	B3 Nyhavnadifferential loss correction	single-endedforward channel	channel 1reverse channel	N/Adate	2023/11/30time	16:02:30forward acquisition time	300,00reverse acquisition time	0,00gamma	499,1914k internal	0,3206k external	0,3206temperature offset calibration	1,0000default loss term (dB/km)	0,3820temperature slope calibration	1,0000multiplexer offset coefficient	1,0000multiplexer slope coefficient	1,0000fibre end	0,00T internal ref (°C)	12,68T ext. ref 1 (°C)	-1,72T ext. ref 2 (°C)	-1,75length (m)	temperature (°C)	Stokes	anti-Stokes-744,400	84,686	-0,222	-0,176
-743,385	-200,000	-0,016	0,223
-742,371	800,000	-0,085	-0,246
-741,356	-200,000	0,001	0,325
-740,342	793,940	-0,158	-0,317
-739,327	-200,000	0,093	0,343
-738,312	379,957	-0,290	-0,433
-737,298	-200,000	-0,039	0,134
-736,283	113,124	-0,328	-0,289
-735,269	357,596	0,144	0,209
-734,254	207,543	-0,233	-0,264
-733,239	-111,289	-0,205	0,030
-732,225	161,623	-0,113	-0,115
-731,210	-145,476	0,110	-0,007
-730,196	19,874	0,030	-0,017
-729,181	800,000	0,010	0,026
-728,167	800,000	-0,032	0,077
-727,152	344,934	0,095	0,136
-726,137	22,073	-0,110	0,065
-725,123	-32,679	0,096	-0,038
-724,108	-200,000	0,002	-0,057
-723,094	138,078	-0,132	0,125
-722,079	-90,355	-0,142	-0,030
-721,064	186,484	0,086	-0,093
-720,050	800,000	-0,024	-0,070
-719,035	13,597	-0,097	-0,054
-718,021	800,000	-0,042	0,095
-717,006	56,619	-0,075	0,053
-715,991	56,666	-0,050	-0,036
-714,977	127,561	-0,094	-0,087
-713,962	800,000	0,039	-0,078
-712,948	-181,698	-0,256	-0,003
-711,933	112,956	0,046	-0,041
-710,918	0,077	-0,049	-0,025
-709,904	-200,000	0,003	-0,149
-708,889	-54,146	-0,229	0,075
-707,875	800,000	-0,047	0,121
-706,860	267,878	-0,017	0,022
-705,845	249,686	-0,055	0,068
-704,831	-65,734	0,024	-0,007
-703,816	-98,872	-0,110	0,020
-702,802	48,896	-0,042	0,028
-701,787	332,218	-0,140	-0,196
-700,772	179,783	-0,086	-0,092
-699,758	-200,000	-0,035	0,173
-698,743	-125,665	-0,038	0,004
-697,729	584,101	-0,020	0,036
-696,714	14,785	0,067	-0,038
-695,699	569,738	-0,115	-0,203
-694,685	-163,843	-0,089	-0,003
-693,670	-27,571	-0,204	-0,086
-692,656	-126,779	-0,043	0,005
-691,641	-200,000	-0,001	0,015
-690,627	726,941	-0,023	-0,044
-689,612	-172,294	-0,109	-0,002
-688,597	265,123	0,082	0,104
-687,583	-61,823	-0,165	-0,050
-686,568	338,529	-0,015	0,021
-685,554	-50,335	0,045	0,015
-684,539	15,119	0,061	-0,034
-683,524	-200,000	0,014	0,084
-682,510	-200,000	-0,030	0,210
-681,495	-200,000	0,002	0,168
-680,481	175,777	0,008	-0,009
-679,466	149,217	-0,168	-0,165
-678,451	124,673	-0,159	-0,145
-677,437	-200,000	-0,021	-0,071
-676,422	-34,733	-0,094	-0,037
-675,408	-109,750	-0,043	0,006
-674,393	44,776	-0,078	0,052
-673,378	-45,384	-0,093	-0,033
-672,364	-200,000	0,014	-0,107
-671,349	800,000	-0,031	-0,094
-670,335	42,168	-0,104	-0,069
-669,320	120,273	-0,029	-0,026
-668,305	771,851	-0,025	-0,050
-667,291	-132,655	-0,025	0,002
-666,276	269,269	-0,024	-0,030
-665,262	29,284	0,045	-0,027
-664,247	158,647	-0,083	-0,083
-663,232	49,393	0,119	-0,081
-662,218	-200,000	-0,001	0,072
-661,203	-200,000	0,053	-0,205
-660,189	800,000	0,054	0,156
-659,174	-32,415	-0,143	0,057
-658,159	432,955	-0,074	-0,116
-657,145	-167,988	-0,128	-0,004
-656,130	-200,000	0,005	0,030
-655,116	-2,293	-0,075	-0,038
-654,101	-200,000	-0,009	-0,045
-653,086	39,947	-0,031	-0,020
-652,072	251,440	0,019	-0,024
-651,057	-158,715	-0,107	0,004
-650,043	800,000	-0,018	-0,042
-649,028	73,125	-0,091	-0,069
-648,014	58,471	0,129	-0,092
-646,999	277,483	-0,109	0,140
-645,984	-200,000	-0,010	-0,060
-644,970	167,039	-0,041	-0,042
-643,955	-116,398	-0,123	-0,016
-642,941	66,513	-0,075	-0,055
-641,926	-118,020	0,056	-0,007
-640,911	102,555	-0,080	0,068
-639,897	462,870	-0,013	-0,021
-638,882	175,615	-0,088	0,093
-637,868	118,028	0,033	-0,029
-636,853	44,607	-0,063	-0,042
-635,838	319,804	-0,062	-0,085
-634,824	-40,109	-0,058	-0,022
-633,809	800,000	0,036	0,079
-632,795	184,055	-0,048	0,052
-631,780	-200,000	0,007	0,033
-630,765	-200,000	0,002	-0,038
-629,751	-200,000	0,004	0,159
-628,736	-200,000	-0,003	0,099
-627,722	-111,016	0,068	-0,010
-626,707	-200,000	0,059	-0,228
-625,692	-46,286	0,096	0,034
-624,678	346,190	0,084	0,120
-623,663	-200,000	0,007	-0,146
-622,649	-97,224	0,034	-0,006
-621,634	409,609	-0,028	0,042
-620,619	2,750	-0,129	0,067
-619,605	-18,730	-0,017	0,008
-618,590	-129,974	-0,033	-0,003
-617,576	-25,984	0,135	0,057
-616,561	68,156	-0,072	0,054
-615,546	17,152	0,057	-0,033
-614,532	756,548	-0,104	-0,204
-613,517	624,944	-0,098	-0,179
-612,503	294,382	0,027	0,036
-611,488	131,488	0,040	-0,037
-610,474	800,000	0,054	0,147
-609,459	-100,117	0,156	0,028
-608,444	-153,025	-0,097	-0,005
-607,430	670,228	0,060	-0,113
-606,415	-33,342	-0,027	0,011
-605,401	291,382	0,017	-0,022
-604,386	123,974	-0,097	-0,088
-603,371	-54,123	-0,041	-0,013
-602,357	-200,000	0,028	-0,108
-601,342	-124,572	-0,075	-0,008
-600,328	-200,000	0,012	0,087
-599,313	800,000	0,042	-0,089
-598,298	-46,838	-0,129	-0,045
-597,284	-9,569	0,013	0,006
-596,269	155,651	0,057	0,057
-595,255	800,000	0,106	0,219
-594,240	-75,946	-0,115	0,029
-593,225	-200,000	-0,004	-0,131
-592,211	-90,451	0,077	-0,016
-591,196	797,727	0,023	0,047
-590,182	260,146	-0,019	0,024
-589,167	-200,000	-0,020	0,093
-588,152	-85,917	0,142	0,032
-587,138	57,815	-0,110	-0,077
-586,123	6,970	0,075	0,040
-585,109	-84,429	-0,066	-0,015
-584,094	-200,000	0,005	0,038
-583,079	-200,000	0,020	-0,116
-582,065	56,133	0,031	0,022
-581,050	800,000	-0,030	-0,079
-580,036	800,000	0,023	0,047
-579,021	65,489	-0,063	0,046
-578,006	799,391	-0,046	-0,091
-576,992	-200,000	0,021	-0,082
-575,977	304,201	0,042	0,056
-574,963	-175,417	0,127	0,002
-573,948	-154,893	0,084	0,004
-572,934	-124,857	-0,094	-0,010
-571,919	592,004	-0,069	-0,123
-570,904	181,923	0,046	-0,049
-569,890	-200,000	-0,009	-0,097
-568,875	-200,000	-0,004	-0,023
-567,861	-200,000	-0,016	-0,054
-566,846	-62,402	-0,028	-0,008
-565,831	-59,054	0,014	0,004
-564,817	-200,000	-0,012	0,138
-563,802	-200,000	0,000	0,019
-562,788	262,100	-0,036	-0,045
-561,773	-31,517	0,068	-0,028
-560,758	-200,000	-0,026	-0,088
-559,744	69,187	0,115	-0,085
-558,729	95,938	-0,084	0,069
-557,715	407,447	0,024	-0,036
-556,700	-79,884	-0,110	0,027
-555,685	216,696	-0,079	-0,091
-554,671	800,000	-0,035	-0,075
-553,656	137,264	-0,072	0,068
-552,642	-200,000	0,031	-0,190
-551,627	-200,000	0,034	0,121
-550,612	800,000	0,008	-0,024
-549,598	-200,000	-0,028	-0,118
-548,583	118,055	0,108	-0,096
-547,569	-143,689	0,085	-0,006
-546,554	-140,524	0,125	0,009
-545,539	148,624	-0,080	0,078
-544,525	-200,000	0,011	0,171
-543,510	800,000	0,020	-0,047
-542,496	-200,000	-0,004	0,017
-541,481	-200,000	0,002	-0,104
-540,466	103,077	0,070	0,059
-539,452	800,000	0,036	0,086
-538,437	26,559	-0,067	-0,040
-537,423	116,332	0,092	0,081
-536,408	2,396	-0,076	0,040
-535,393	-133,419	-0,151	-0,013
-534,379	800,000	0,070	-0,147
-533,364	52,211	-0,030	0,021
-532,350	161,266	0,054	-0,054
-531,335	800,000	0,028	0,067
-530,321	-200,000	0,028	0,139
-529,306	698,608	0,029	-0,056
-528,291	-39,069	-0,074	-0,028
-527,277	222,975	0,025	-0,029
-526,262	-200,000	0,012	0,067
-525,248	9,417	0,066	-0,036
-524,233	183,307	0,125	0,133
-523,218	-123,462	-0,035	0,004
-522,204	-200,000	0,033	0,123
-521,189	-29,637	0,035	-0,014
-520,175	-165,892	-0,113	0,003
-519,160	76,497	-0,054	0,041
-518,145	2,820	0,071	-0,037
-517,131	-49,419	-0,077	0,026
-516,116	-71,646	-0,076	0,020
-515,102	-40,360	0,082	0,031
-514,087	30,679	0,061	0,038
-513,072	-147,710	0,058	0,003
-512,058	31,351	-0,083	0,051
-511,043	698,828	-0,044	0,084
-510,029	-83,850	0,094	0,021
-509,014	800,000	0,018	-0,038
-507,999	800,000	-0,046	-0,145
-506,985	123,718	-0,052	-0,047
-505,970	244,745	0,058	0,070
-504,956	265,568	-0,032	0,040
-503,941	-200,000	0,036	0,153
-502,926	13,674	-0,020	0,011
-501,912	-200,000	-0,030	0,102
-500,897	-200,000	-0,004	-0,017
-499,883	-200,000	-0,001	-0,105
-498,868	800,000	-0,023	0,053
-497,853	-200,000	0,009	0,071
-496,839	-200,000	0,002	0,037
-495,824	168,726	0,092	0,095
-494,810	-194,035	0,090	-0,001
-493,795	54,309	-0,071	0,049
-492,781	-126,082	0,013	0,001
-491,766	-39,606	-0,120	0,045
-490,751	-143,639	0,032	-0,002
-489,737	-200,000	-0,004	-0,058
-488,722	66,171	-0,033	-0,024
-487,708	-200,000	0,019	0,167
-486,693	800,000	0,044	0,095
-485,678	-200,000	-0,021	0,154
-484,664	209,373	-0,028	0,031
-483,649	92,275	0,100	0,081
-482,635	-200,000	-0,012	0,077
-481,620	16,990	0,144	0,082
-480,605	296,724	-0,052	0,069
-479,591	-50,020	-0,140	-0,047
-478,576	-152,696	-0,157	0,008
-477,562	-52,233	-0,083	-0,028
-476,547	54,517	0,065	-0,045
-475,532	170,026	-0,040	-0,041
-474,518	-127,186	0,092	-0,010
-473,503	-120,322	-0,129	0,016
-472,489	104,152	0,170	0,143
-471,474	-11,632	-0,146	-0,069
-470,459	-11,359	-0,122	0,058
-469,445	20,825	-0,084	-0,049
-468,430	-200,000	-0,015	-0,250
-467,416	800,000	-0,008	-0,024
-466,401	432,939	0,014	-0,022
-465,386	-76,632	0,116	0,029
-464,372	-96,368	0,031	0,006
-463,357	642,737	0,112	0,206
-462,343	-95,836	-0,172	-0,033
-461,328	55,817	-0,083	-0,058
-460,313	-88,262	0,124	-0,026
-459,299	76,754	0,075	0,057
-458,284	-200,000	-0,029	-0,094
-457,270	665,519	0,037	-0,070
-456,255	81,152	0,161	0,125
-455,241	-200,000	-0,025	-0,177
-454,226	31,040	-0,050	-0,031
-453,211	-73,736	0,103	-0,027
-452,197	582,178	-0,096	-0,169
-451,182	567,227	-0,038	0,066
-450,168	-30,364	0,052	0,021
-449,153	264,732	-0,060	-0,076
-448,138	-170,245	-0,079	0,002
-447,124	-200,000	-0,013	-0,092
-446,109	-174,291	0,049	0,001
-445,095	800,000	-0,011	0,030
-444,080	-200,000	0,003	-0,026
-443,065	800,000	0,048	-0,101
-442,051	417,377	0,018	0,027
-441,036	800,000	0,031	-0,064
-440,022	280,964	-0,101	-0,130
-439,007	91,733	-0,119	0,096
-437,992	-103,500	0,054	-0,009
-436,978	-10,860	0,047	0,022
-435,963	-200,000	-0,012	0,047
-434,949	-111,061	0,064	0,009
-433,934	-164,899	-0,093	0,003
-432,919	-87,159	-0,120	0,026
-431,905	5,136	0,110	-0,058
-430,890	-39,648	0,120	0,045
-429,876	367,610	0,055	0,080
-428,861	800,000	-0,032	-0,071
-427,846	-168,489	0,093	0,003
-426,832	-0,313	-0,025	0,013
-425,817	-200,000	-0,008	-0,046
-424,803	-141,861	0,129	0,009
-423,788	-28,997	0,049	0,020
-422,773	50,496	0,089	-0,060
-421,759	-200,000	0,000	0,082
-420,744	800,000	0,034	0,107
-419,730	-21,818	0,082	0,036
-418,715	15,704	-0,082	-0,046
-417,701	154,411	-0,025	-0,025
-416,686	295,501	0,073	0,096
-415,671	-168,635	0,017	0,000
-414,657	-165,768	0,063	0,002
-413,642	-200,000	-0,017	0,086
-412,628	312,020	-0,062	0,084
-411,613	266,467	0,035	0,043
-410,598	-31,604	-0,067	0,027
-409,584	-200,000	0,013	0,091
-408,569	-200,000	-0,009	0,041
-407,555	-200,000	0,018	0,132
-406,540	-200,000	0,007	-0,132
-405,525	-200,000	-0,006	0,049
-404,511	197,774	-0,026	0,028
-403,496	-71,179	0,100	-0,027
-402,482	-200,000	-0,003	0,164
-401,467	800,000	0,059	0,139
-400,452	800,000	0,052	0,112
-399,438	-93,274	-0,174	0,034
-398,423	273,049	0,122	0,154
-397,409	-85,555	0,010	-0,002
-396,394	95,605	-0,067	0,055
-395,379	-30,450	0,129	0,052
-394,365	214,284	-0,036	0,041
-393,350	96,534	0,039	0,032
-392,336	-200,000	-0,030	0,175
-391,321	313,725	-0,088	-0,119
-390,306	-200,000	-0,014	0,084
-389,292	-174,275	-0,100	-0,002
-388,277	-200,000	-0,094	0,000
-387,263	143,414	-0,066	0,063
-386,248	122,054	0,122	0,109
-385,233	427,137	-0,036	0,056
-384,219	-200,000	-0,057	-0,185
-383,204	800,000	-0,032	-0,063
-382,190	-12,893	-0,281	-0,130
-381,175	-63,647	-0,067	0,020
-380,160	-200,000	-0,002	0,120
-379,146	-200,000	-0,021	-0,201
-378,131	245,952	0,055	0,067
-377,117	111,291	0,060	-0,051
-376,102	-200,000	-0,031	-0,202
-375,088	-200,000	0,000	0,001
-374,073	61,140	0,082	-0,058
-373,058	-200,000	0,014	0,062
-372,044	-38,580	0,133	0,050
-371,029	800,000	-0,041	-0,085
-370,015	26,637	0,034	0,020
-369,000	-121,719	-0,070	0,008
-367,985	-200,000	-0,027	-0,115
-366,971	800,000	-0,034	-0,105
-365,956	121,199	0,095	-0,085
-364,942	-200,000	-0,004	-0,013
-363,927	-200,000	0,034	-0,177
-362,912	216,697	0,071	0,081
-361,898	29,001	-0,062	0,038
-360,883	27,383	-0,061	-0,036
-359,869	-124,052	-0,041	0,005
-358,854	215,126	0,094	-0,106
-357,839	-100,558	0,076	0,013
-356,825	-200,000	-0,000	0,049
-355,810	-200,000	0,003	-0,213
-354,796	800,000	0,048	-0,126
-353,781	800,000	-0,015	-0,043
-352,766	92,543	-0,009	-0,007
-351,752	-124,160	0,031	0,003
-350,737	-37,789	0,035	0,013
-349,723	-200,000	0,022	0,125
-348,708	-200,000	0,003	0,041
-347,693	800,000	0,022	-0,054
-346,679	115,999	0,028	0,025
-345,664	-111,619	0,076	-0,011
-344,650	-42,597	0,072	-0,026
-343,635	481,524	0,011	-0,019
-342,620	-5,853	0,116	0,056
-341,606	-200,000	0,004	0,022
-340,591	31,929	-0,052	-0,032
-339,577	-117,164	-0,108	0,014
-338,562	-7,635	-0,084	-0,040
-337,548	-32,346	0,031	-0,012
-336,533	-85,633	0,073	0,016
-335,518	-107,659	0,134	0,021
-334,504	-87,882	-0,042	0,009
-333,489	-62,402	-0,166	0,049
-332,475	-200,000	-0,022	-0,077
-331,460	-200,000	-0,017	-0,077
-330,445	173,761	0,107	-0,110
-329,431	-194,214	0,033	0,000
-328,416	-69,679	0,148	-0,040
-327,402	800,000	0,073	0,163
-326,387	800,000	0,024	0,058
-325,372	269,228	-0,124	0,155
-324,358	161,098	-0,076	-0,076
-323,343	-26,969	-0,115	0,048
-322,329	40,714	0,065	-0,042
-321,314	800,000	-0,022	0,051
-320,299	800,000	0,024	0,062
-319,285	-86,560	-0,115	-0,025
-318,270	415,516	-0,021	-0,032
-317,256	-200,000	0,026	0,112
-316,241	-200,000	0,017	0,081
-315,226	200,433	0,063	0,069
-314,212	473,318	0,069	0,111
-313,197	-200,000	0,024	-0,144
-312,183	13,854	-0,077	-0,042
-311,168	-88,613	-0,140	0,029
-310,153	542,810	0,076	-0,130
-309,139	-200,000	0,009	-0,066
-308,124	-6,221	0,084	-0,041
-307,110	800,000	0,019	0,042
-306,095	-200,000	-0,034	0,150
-305,080	377,836	0,016	-0,023
-304,066	-200,000	0,011	0,051
-303,051	-200,000	0,013	-0,086
-302,037	-200,000	0,013	-0,045
-301,022	800,000	-0,034	-0,105
-300,008	464,677	0,080	0,127
-298,993	-200,000	-0,006	-0,041
-297,978	749,900	-0,034	-0,066
-296,964	800,000	0,009	-0,024
-295,949	-200,000	-0,031	0,134
-294,935	194,391	0,023	0,024
-293,920	800,000	-0,032	-0,079
-292,905	800,000	-0,056	0,128
-291,891	800,000	-0,018	-0,039
-290,876	800,000	0,036	-0,085
-289,862	-200,000	-0,007	0,087
-288,847	-65,370	-0,076	-0,022
-287,832	-7,715	0,212	-0,102
-286,818	184,486	0,113	-0,120
-285,803	172,916	0,069	-0,070
-284,789	474,251	-0,015	-0,024
-283,774	-200,000	0,001	0,160
-282,759	-47,504	-0,163	0,056
-281,745	185,542	-0,014	0,015
-280,730	-52,333	-0,115	-0,038
-279,716	-200,000	-0,019	0,111
-278,701	-73,227	0,136	-0,035
-277,686	57,115	-0,062	-0,043
-276,672	129,833	0,071	0,065
-275,657	80,708	-0,096	-0,074
-274,643	41,153	-0,114	-0,073
-273,628	-200,000	-0,004	0,033
-272,613	-200,000	-0,028	-0,244
-271,599	800,000	0,022	0,054
-270,584	800,000	-0,025	0,075
-269,570	646,926	-0,009	-0,016
-268,555	291,555	-0,077	-0,100
-267,540	193,165	-0,058	-0,063
-266,526	39,384	-0,099	0,063
-265,511	-200,000	-0,012	-0,099
-264,497	119,243	0,045	0,040
-263,482	337,017	-0,016	-0,022
-262,467	246,384	-0,037	-0,044
-261,453	-200,000	-0,033	-0,106
-260,438	99,450	0,041	-0,034
-259,424	675,282	0,061	0,114
-258,409	183,698	0,084	-0,089
-257,395	657,968	0,054	-0,099
-256,380	350,511	-0,008	-0,012
-255,365	-98,777	-0,135	-0,024
-254,351	-23,491	0,148	-0,063
-253,336	-200,000	-0,008	-0,027
-252,322	-6,105	-0,193	0,094
-251,307	-200,000	0,010	-0,160
-250,292	-8,968	-0,053	0,025
-249,278	-54,019	-0,026	0,008
-248,263	61,704	0,074	0,052
-247,249	30,942	0,092	0,056
-246,234	800,000	-0,016	-0,048
-245,219	-135,556	-0,062	-0,005
-244,205	31,485	-0,055	-0,034
-243,190	-13,014	-0,049	-0,022
-242,176	-173,010	0,122	-0,003
-241,161	800,000	-0,036	0,086
-240,146	77,795	-0,081	-0,061
-239,132	195,917	-0,060	0,065
-238,117	-200,000	0,005	0,047
-237,103	-90,224	-0,098	-0,020
-236,088	-200,000	0,024	-0,090
-235,073	55,106	0,043	-0,029
-234,059	161,854	-0,139	0,139
-233,044	-62,142	-0,061	-0,018
-232,030	-48,873	0,056	-0,019
-231,015	145,852	-0,118	-0,113
-230,000	-98,425	0,042	-0,008
-228,986	-26,821	-0,083	-0,034
-227,971	58,524	0,086	-0,060
-226,957	-109,500	0,169	0,025
-225,942	800,000	0,015	-0,045
-224,927	268,510	-0,068	-0,086
-223,913	-200,000	-0,002	-0,036
-222,898	208,949	-0,153	0,171
-221,884	-70,054	0,069	0,019
-220,869	3,346	0,062	-0,032
-219,855	-11,409	0,042	0,020
-218,840	-200,000	0,010	-0,110
-217,825	-86,109	-0,097	0,021
-216,811	74,882	0,083	-0,062
-215,796	-120,892	0,029	-0,003
-214,782	-52,543	0,140	-0,046
-213,767	-146,941	-0,049	-0,003
-212,752	214,126	-0,046	-0,052
-211,738	73,582	0,058	0,043
-210,723	-200,000	-0,036	0,151
-209,709	445,111	0,007	0,012
-208,694	-73,083	-0,090	-0,023
-207,679	-19,075	0,045	-0,020
-206,665	65,946	0,138	0,099
-205,650	271,110	-0,062	-0,077
-204,636	-23,045	0,054	0,023
-203,621	288,722	0,016	-0,021
-202,606	-25,532	0,119	-0,050
-201,592	268,261	0,037	0,046
-200,577	106,624	-0,059	0,049
-199,563	-90,156	0,164	0,034
-198,548	225,500	-0,010	-0,012
-197,533	175,992	-0,104	-0,107
-196,519	8,070	0,038	0,020
-195,504	19,224	-0,031	0,018
-194,490	303,454	0,070	-0,093
-193,475	-122,612	-0,153	0,017
-192,460	483,971	0,049	-0,080
-191,446	-83,190	0,050	0,011
-190,431	-138,245	0,035	0,003
-189,417	-200,000	0,009	0,091
-188,402	145,195	-0,078	0,074
-187,387	-200,000	0,007	0,061
-186,373	5,693	-0,052	0,027
-185,358	284,330	-0,017	0,022
-184,344	-200,000	-0,047	-0,159
-183,329	69,143	-0,179	0,130
-182,315	-200,000	-0,014	0,044
-181,300	178,201	-0,090	-0,094
-180,285	-24,217	-0,051	0,021
-179,271	800,000	0,050	-0,138
-178,256	-16,174	0,105	0,047
-177,242	-46,112	0,083	0,029
-176,227	106,264	0,075	0,063
-175,212	-200,000	0,006	-0,049
-174,198	-200,000	-0,026	-0,115
-173,183	-144,572	-0,029	-0,002
-172,169	570,037	0,006	-0,010
-171,154	800,000	0,015	-0,035
-170,139	-200,000	-0,016	0,114
-169,125	-145,547	0,099	0,006
-168,110	-200,000	-0,029	0,093
-167,096	608,446	-0,027	0,048
-166,081	589,971	0,015	-0,027
-165,066	175,970	-0,038	0,039
-164,052	170,001	0,088	-0,089
-163,037	-200,000	-0,024	0,094
-162,023	-200,000	0,040	0,140
-161,008	-200,000	0,010	0,081
-159,993	-117,608	-0,140	-0,018
-158,979	800,000	0,066	-0,132
-157,964	-176,380	-0,103	0,002
-156,950	800,000	-0,020	-0,061
-155,935	-35,347	0,194	0,075
-154,920	800,000	-0,044	0,090
-153,906	613,168	0,044	0,078
-152,891	-12,764	0,078	0,036
-151,877	-72,679	-0,134	0,035
-150,862	-90,365	-0,068	0,014
-149,847	-119,607	-0,066	0,008
-148,833	24,577	0,126	-0,074
-147,818	800,000	-0,037	-0,089
-146,804	535,770	0,036	0,061
-145,789	-200,000	0,007	0,057
-144,775	-200,000	-0,033	-0,143
-143,760	800,000	-0,054	-0,118
-142,745	45,019	-0,028	0,018
-141,731	12,204	-0,149	-0,081
-140,716	800,000	-0,040	0,093
-139,702	75,840	0,105	0,079
-138,687	-97,613	-0,098	0,018
-137,672	723,696	-0,037	-0,070
-136,658	-75,738	-0,056	-0,014
-135,643	-200,000	0,025	-0,097
-134,629	800,000	-0,025	0,068
-133,614	-200,000	-0,012	0,095
-132,599	-200,000	0,006	0,077
-131,585	-18,952	0,145	0,064
-130,570	-71,059	-0,107	-0,028
-129,556	187,024	-0,080	0,084
-128,541	-43,232	-0,013	0,005
-127,526	-52,884	-0,115	-0,037
-126,512	-200,000	0,018	0,137
-125,497	87,877	0,113	-0,088
-124,483	-200,000	-0,022	0,139
-123,468	378,764	0,108	-0,157
-122,453	-200,000	0,003	-0,018
-121,439	800,000	-0,088	-0,186
-120,424	-200,000	0,000	-0,013
-119,410	578,258	0,051	0,089
-118,395	162,584	-0,087	0,087
-117,380	-119,460	-0,082	-0,010
-116,366	-14,581	0,054	-0,024
-115,351	-200,000	0,015	0,112
-114,337	364,035	0,031	-0,044
-113,322	-200,000	-0,007	-0,102
-112,307	-200,000	-0,002	-0,113
-111,293	-200,000	0,021	0,163
-110,278	800,000	0,048	0,103
-109,264	-200,000	0,006	-0,198
-108,249	307,833	-0,098	-0,130
-107,234	23,407	-0,068	-0,040
-106,220	51,647	-0,103	0,069
-105,205	-200,000	-0,020	-0,101
-104,191	-33,781	0,065	-0,025
-103,176	800,000	-0,035	0,086
-102,162	-200,000	0,026	0,105
-101,147	-200,000	-0,006	-0,052
-100,132	228,661	-0,064	-0,074
-99,118	127,116	-0,035	0,032
-98,103	-200,000	-0,024	-0,084
-97,089	-200,000	-0,043	0,146
-96,074	-165,016	0,081	-0,003
-95,059	-75,287	-0,180	0,045
-94,045	-38,804	-0,131	-0,049
-93,030	-78,933	0,103	-0,025
-92,016	-104,310	-0,106	0,017
-91,001	69,899	0,035	-0,026
-89,986	-47,583	-0,014	-0,005
-88,972	-188,187	-0,047	-0,000
-87,957	58,364	-0,020	0,014
-86,943	8,112	0,105	-0,056
-85,928	119,615	-0,002	0,001
-84,913	-96,617	0,129	0,024
-83,899	201,692	-0,012	-0,014
-82,884	-200,000	-0,017	0,083
-81,870	-200,000	0,019	0,117
-80,855	800,000	-0,022	0,044
-79,840	74,030	-0,070	0,052
-78,826	216,796	-0,016	0,018
-77,811	800,000	0,015	-0,040
-76,797	-200,000	-0,019	-0,065
-75,782	-137,215	0,105	-0,008
-74,767	-200,000	-0,019	0,117
-73,753	-200,000	-0,038	0,123
-72,738	-200,000	-0,020	0,157
-71,724	87,905	-0,153	-0,120
-70,709	800,000	0,020	0,045
-69,694	-200,000	0,038	0,152
-68,680	-89,775	0,034	0,007
-67,665	359,070	-0,063	-0,089
-66,651	-200,000	0,033	0,121
-65,636	800,000	0,033	0,073
-64,622	-200,000	-0,015	-0,067
-63,607	-6,769	-0,102	0,049
-62,592	-44,314	-0,077	-0,027
-61,578	-200,000	0,023	0,135
-60,563	-200,000	0,003	0,057
-59,549	290,815	-0,098	0,126
-58,534	-9,644	-1,797	-0,844
-57,519	420,448	-1,422	-2,161
-56,505	-200,000	-0,358	-4,399
-55,490	296,502	0,861	1,119
-54,476	800,000	4,979	11,230
-53,461	-200,000	19,372	327,884
-52,446	-200,000	741,799	2335,355
-51,432	570,131	1651,580	2851,662
-50,417	77,194	1665,536	1250,293
-49,403	20,655	1538,865	878,130
-48,388	14,555	1461,323	804,348
-47,373	18,443	1451,601	817,665
-46,359	16,720	1441,280	803,599
-45,344	12,767	1436,798	782,222
-44,330	12,729	1434,873	780,961
-43,315	12,733	1433,090	779,976
-42,300	12,729	1431,490	779,058
-41,286	12,810	1430,332	778,779
-40,271	12,744	1428,902	777,655
-39,257	12,676	1427,838	776,724
-38,242	12,761	1426,417	776,322
-37,227	12,792	1424,990	775,665
-36,213	12,739	1423,861	774,765
-35,198	12,748	1422,753	774,175
-34,184	12,808	1421,833	773,926
-33,169	12,750	1420,412	772,851
-32,154	12,854	1419,279	772,692
-31,140	12,794	1418,211	771,798
-30,125	12,840	1417,053	771,356
-29,111	12,824	1415,909	770,626
-28,096	12,777	1414,804	769,773
-27,082	12,716	1413,839	768,932
-26,067	12,736	1412,661	768,352
-25,052	12,749	1411,640	767,829
-24,038	12,687	1410,918	767,114
-23,023	12,731	1409,618	766,583
-22,009	12,678	1408,578	765,740
-20,994	12,690	1407,706	765,293
-19,979	12,660	1407,230	764,863
-18,965	12,663	1406,031	764,193
-17,950	12,641	1405,006	763,504
-16,936	12,661	1404,138	763,096
-15,921	12,649	1403,084	762,434
-14,906	12,619	1402,047	761,703
-13,892	12,645	1401,147	761,305
-12,877	12,648	1400,308	760,831
-11,863	12,627	1399,552	760,295
-10,848	12,579	1398,709	759,585
-9,833	12,537	1397,828	758,878
-8,819	12,553	1396,878	758,407
-7,804	12,520	1396,047	757,774
-6,790	12,496	1395,060	757,098
-5,775	12,556	1393,926	756,729
-4,760	12,550	1392,805	756,063
-3,746	12,482	1392,056	755,309
-2,731	12,517	1391,181	754,968
-1,717	12,535	1390,287	754,535
-0,702	12,491	1388,495	753,329
0,313	16,390	1304,970	725,969
1,327	32,716	699,076	426,354
2,342	50,356	122,111	81,397
3,356	0,691	16,615	8,371
4,371	6,431	3,271	1,711
5,386	4,043	0,576	0,296
6,400	429,969	0,137	0,210
7,415	268,917	-0,079	-0,098
8,429	-38,765	-0,272	-0,101
9,444	84,443	-0,289	-0,223
10,459	96,369	-0,269	-0,217
11,473	-117,549	-0,306	-0,039
12,488	57,602	-0,212	-0,146
13,502	-16,861	-0,335	-0,149
14,517	36,505	-0,301	-0,187
15,531	389,799	-0,262	-0,385
16,546	147,159	-0,349	-0,332
17,561	125,125	-0,309	-0,275
18,575	16,754	-0,124	0,069
19,590	72,293	-0,224	-0,165
20,604	-141,648	-0,316	-0,022
21,619	142,578	-0,340	-0,319
22,634	130,766	-0,453	-0,410
23,648	140,524	-0,389	-0,362
24,663	-39,438	-0,418	-0,154
25,677	59,268	-0,450	-0,312
26,692	-85,044	-0,391	-0,086
27,707	45,169	-0,461	-0,299
28,721	-48,020	-0,362	-0,123
29,736	89,777	-0,421	-0,331
30,750	-25,110	-0,398	-0,166
31,765	61,535	-0,394	-0,276
32,780	-64,353	-0,466	-0,133
33,794	-48,448	-0,403	-0,136
34,809	-13,154	-0,391	-0,178
35,823	292,235	-0,230	-0,295
36,838	114,899	-0,337	-0,289
37,853	183,597	-0,356	-0,371
38,867	150,228	-0,361	-0,345
39,882	205,085	-0,306	-0,335
40,896	91,191	-0,470	-0,371
41,911	-49,557	-0,365	-0,122
42,926	161,023	-0,312	-0,307
43,940	181,817	-0,293	-0,304
44,955	195,438	-0,382	-0,409
45,969	214,575	-0,324	-0,362
46,984	31,326	-0,317	-0,191
47,999	21,607	-0,366	-0,209
49,013	126,514	-0,286	-0,255
50,028	-33,483	-0,431	-0,167
51,042	142,659	-0,275	-0,257
52,057	92,357	-0,383	-0,304
53,071	147,601	-0,278	-0,263
54,086	62,969	-0,257	-0,181
55,101	-158,695	-0,341	0,014
56,115	32,298	-0,378	-0,229
57,130	2,048	-0,341	-0,173
58,144	134,976	-0,430	-0,393
59,159	-10,342	-0,433	-0,201
60,174	161,193	-0,289	-0,284
61,188	3,146	-0,271	-0,138
62,203	-80,883	-0,495	-0,114
63,217	20,782	-0,306	-0,174
64,232	-44,912	-0,386	-0,134
65,247	246,018	-0,210	-0,249
66,261	-12,582	-0,465	-0,212
67,276	159,543	-0,324	-0,317
68,290	111,988	-0,260	-0,221
69,305	11,088	-0,301	-0,161
70,320	93,957	-0,279	-0,222
71,334	-32,756	-0,421	-0,164
72,349	-1,903	-0,306	-0,150
73,363	69,063	-0,349	-0,252
74,378	40,982	-0,273	-0,173
75,393	-8,254	-0,327	-0,154
76,407	571,635	-0,123	-0,211
77,422	-7,855	-0,227	-0,107
78,436	60,630	-0,261	-0,182
79,451	52,160	-0,254	-0,169
80,466	25,640	-0,349	-0,203
81,480	63,532	-0,274	-0,193
82,495	72,268	-0,324	-0,237
83,509	-57,714	-0,261	-0,080
84,524	209,852	-0,132	-0,146
85,539	57,848	-0,305	-0,209
86,553	-25,016	-0,311	-0,129
87,568	12,229	-0,201	-0,108
88,582	-23,839	-0,415	-0,174
89,597	273,319	-0,200	-0,249
90,611	114,160	-0,319	-0,272
91,626	-32,519	-0,138	-0,054
92,641	-69,699	-0,442	-0,118
93,655	44,211	-0,268	-0,172
94,670	137,278	-0,242	-0,222
95,684	37,804	-0,314	-0,195
96,699	48,449	-0,402	-0,263
97,714	22,351	-0,217	-0,124
98,728	-32,369	-0,299	-0,116
99,743	100,553	-0,199	-0,162
100,757	-15,706	-0,240	-0,107
101,772	-20,655	-0,258	-0,111
102,787	16,683	-0,354	-0,196
103,801	57,323	-0,361	-0,246
104,816	8,459	-0,331	-0,174
105,830	-140,978	-0,235	0,017
106,845	-123,162	-0,319	-0,035
107,860	-14,539	-0,319	-0,143
108,874	-94,908	-0,318	-0,060
109,889	95,588	-0,323	-0,258
110,903	-0,155	-0,316	-0,157
111,918	113,184	-0,213	-0,181
112,933	93,353	-0,285	-0,226
113,947	49,398	-0,169	-0,111
114,962	-22,917	-0,230	-0,097
115,976	138,292	-0,288	-0,265
116,991	-36,104	-0,238	-0,089
118,006	-59,530	-0,414	-0,124
119,020	12,262	-0,254	-0,136
120,035	-82,118	-0,167	-0,038
121,049	220,155	-0,224	-0,251
122,064	71,995	-0,234	-0,170
123,079	21,054	-0,364	-0,206
124,093	-59,400	-0,348	-0,104
125,108	14,104	-0,281	-0,153
126,122	-40,881	-0,389	-0,140
127,137	72,327	-0,205	-0,149
128,151	-66,265	-0,362	-0,100
129,166	-72,056	-0,230	-0,059
130,181	-17,923	-0,254	-0,111
131,195	-23,782	-0,271	-0,113
132,210	-37,562	-0,330	-0,122
133,224	311,123	-0,159	-0,209
134,239	169,442	-0,207	-0,207
135,254	311,109	-0,123	-0,162
136,268	800,000	-0,140	-0,304
137,283	11,646	-0,225	-0,120
138,297	136,736	-0,273	-0,249
139,312	154,488	-0,211	-0,203
140,327	6,235	-0,295	-0,152
141,341	45,804	-0,202	-0,130
142,356	38,115	-0,247	-0,153
143,370	-97,957	-0,295	0,053
144,385	-68,944	-0,210	-0,056
145,400	-98,900	-0,240	-0,042
146,414	29,609	-0,294	-0,174
147,429	185,641	-0,205	-0,212
148,443	800,000	-0,150	-0,341
149,458	-127,399	-0,223	-0,022
150,473	44,780	-0,204	-0,130
151,487	1,006	-0,174	-0,087
152,502	-9,157	-0,276	-0,128
153,516	56,606	-0,270	-0,183
154,531	194,727	-0,207	-0,219
155,546	426,829	-0,227	-0,342
156,560	80,217	-0,232	-0,174
157,575	177,101	-0,120	-0,122
158,589	51,010	-0,327	-0,216
159,604	57,369	-0,224	-0,152
160,619	-25,153	-0,246	-0,101
161,633	96,037	-0,253	-0,201
162,648	35,951	-0,260	-0,159
163,662	296,809	-0,109	-0,139
164,677	97,737	-0,216	-0,173
165,692	14,037	-0,297	-0,161
166,706	84,031	-0,289	-0,220
167,721	66,124	-0,293	-0,207
168,735	78,511	-0,329	-0,245
169,750	147,425	-0,119	-0,111
170,764	127,749	-0,217	-0,192
171,779	800,000	-0,060	-0,124
172,794	-20,502	-0,206	-0,088
173,808	-147,910	-0,211	-0,012
174,823	362,997	-0,185	-0,259
175,837	216,304	-0,226	-0,250
176,852	213,309	-0,199	-0,219
177,867	248,806	-0,220	-0,260
178,881	-72,856	-0,237	-0,060
179,896	60,339	-0,313	-0,215
180,910	-200,000	-0,016	-0,168
181,925	-131,511	-0,121	-0,011
182,940	122,787	-0,202	-0,176
183,954	129,178	-0,280	-0,249
184,969	624,294	-0,145	-0,256
185,983	147,989	-0,159	-0,149
186,998	32,430	-0,182	-0,109
188,013	194,670	-0,196	-0,207
189,027	-200,000	-0,049	-0,272
190,042	136,531	-0,219	-0,199
191,056	800,000	-0,089	-0,181
192,071	275,889	-0,210	-0,260
193,086	63,464	-0,119	-0,083
194,100	52,072	-0,198	-0,131
195,115	-45,913	-0,289	-0,098
196,129	59,668	-0,151	-0,104
197,144	204,285	-0,295	-0,318
198,159	-8,516	-0,260	-0,121
199,173	-129,169	-0,228	-0,022
200,188	-145,196	-0,186	0,012
201,202	-146,426	-0,215	-0,013
202,217	135,815	-0,272	-0,246
203,232	-3,814	-0,242	-0,116
204,246	646,967	-0,147	-0,262
205,261	123,552	-0,206	-0,179
206,275	526,118	-0,164	-0,269
207,290	121,694	-0,169	-0,147
208,304	167,852	-0,160	-0,158
209,319	800,000	-0,107	-0,216
210,334	-151,053	-0,157	0,008
211,348	67,074	-0,227	-0,160
212,363	69,642	-0,197	-0,140
213,377	59,272	-0,231	-0,158
214,392	-112,191	-0,334	-0,046
215,407	145,039	-0,087	-0,081
216,421	-70,228	-0,233	-0,061
217,436	186,275	-0,188	-0,194
218,450	594,475	-0,110	-0,190
219,465	23,904	-0,181	-0,103
220,480	152,177	-0,238	-0,226
221,494	315,348	-0,195	-0,256
222,509	125,074	-0,209	-0,182
223,523	147,751	-0,228	-0,213
224,538	15,023	-0,249	-0,135
225,553	387,494	-0,224	-0,322
226,567	143,492	-0,252	-0,233
227,582	150,701	-0,113	-0,106
228,596	56,246	-0,047	-0,032
229,611	-70,380	-0,281	-0,073
230,626	-139,869	-0,172	0,012
231,640	141,173	-0,182	-0,167
232,655	98,711	-0,241	-0,192
233,669	3,288	-0,284	-0,143
234,684	224,741	-0,110	-0,123
235,699	282,693	-0,173	-0,216
236,713	-5,863	-0,152	-0,072
237,728	101,128	-0,120	-0,097
238,742	-34,737	-0,198	-0,074
239,757	-53,728	-0,221	-0,069
240,772	-128,520	-0,261	-0,025
241,786	224,273	-0,238	-0,267
242,801	321,419	-0,147	-0,194
243,815	323,897	-0,179	-0,237
244,830	-10,838	-0,236	-0,107
245,844	-88,215	-0,146	-0,030
246,859	-1,472	-0,200	-0,097
247,874	374,438	-0,178	-0,251
248,888	-200,000	-0,090	-0,275
249,903	486,930	-0,120	-0,190
250,917	-24,758	-0,241	-0,098
251,932	253,876	-0,149	-0,176
252,947	-23,978	-0,161	0,066
253,961	1,161	-0,205	-0,101
254,976	136,823	-0,139	-0,126
255,990	106,005	-0,142	-0,116
257,005	12,430	-0,226	-0,120
258,020	41,809	-0,101	-0,063
259,034	-108,795	-0,150	-0,022
260,049	-105,746	-0,272	-0,042
261,063	139,967	-0,112	-0,102
262,078	25,324	-0,056	-0,032
263,093	-17,084	-0,175	-0,076
264,107	77,134	-0,085	-0,062
265,122	154,856	-0,155	-0,148
266,136	141,167	-0,183	-0,167
267,151	167,094	-0,108	-0,106
268,166	-2,459	-0,119	-0,057
269,180	-115,077	-0,232	0,030
270,195	-44,110	-0,281	-0,097
271,209	264,905	-0,159	-0,192
272,224	-61,146	-0,231	0,067
273,239	-148,943	-0,121	-0,007
274,253	-51,782	-0,148	-0,047
275,268	-24,457	-0,276	-0,113
276,282	416,369	-0,092	-0,136
277,297	-58,796	-0,135	-0,040
278,312	118,986	-0,096	-0,082
279,326	139,389	-0,119	-0,108
280,341	128,014	-0,025	0,022
281,355	800,000	-0,062	-0,135
282,370	-141,745	-0,330	0,022
283,384	10,738	-0,213	-0,112
284,399	262,141	-0,228	-0,273
285,414	-35,230	-0,295	-0,110
286,428	-51,432	-0,042	-0,013
287,443	339,683	-0,121	-0,163
288,457	53,625	-0,223	-0,147
289,472	-59,608	-0,172	-0,050
290,487	189,939	-0,164	-0,170
291,501	-200,000	-0,176	0,000
292,516	93,426	-0,195	-0,152
293,530	179,377	-0,150	-0,151
294,545	153,519	-0,126	-0,119
295,560	260,923	-0,120	-0,143
296,574	94,234	-0,138	0,107
297,589	159,038	-0,210	-0,201
298,603	41,965	-0,137	-0,086
299,618	21,049	-0,097	-0,054
300,633	134,870	-0,160	-0,143
301,647	-19,807	-0,144	-0,061
302,662	-147,318	-0,151	0,009
303,676	159,315	-0,053	-0,051
304,691	11,433	-0,143	-0,075
305,706	225,170	-0,155	-0,172
306,720	233,802	-0,143	-0,162
307,735	-48,291	-0,122	-0,040
308,749	-200,000	-0,043	-0,209
309,764	136,039	-0,152	-0,136
310,779	-31,365	-0,067	0,026
311,793	33,567	-0,201	-0,120
312,808	303,905	-0,162	-0,206
313,822	296,486	-0,163	-0,206
314,837	-112,589	-0,217	-0,029
315,852	21,119	-0,166	-0,093
316,866	-164,637	-0,174	0,005
317,881	94,913	-0,060	-0,047
318,895	689,642	-0,101	-0,182
319,910	183,928	-0,032	-0,032
320,925	54,009	-0,188	-0,124
321,939	-15,995	-0,081	-0,035
322,954	104,463	-0,074	0,060
323,968	-12,191	-0,188	-0,084
324,983	-13,231	-0,060	-0,027
325,997	-87,092	-0,275	-0,057
327,012	122,389	-0,188	-0,162
328,027	89,466	-0,159	-0,122
329,041	610,874	-0,130	-0,225
330,056	197,706	-0,105	-0,111
331,070	-200,000	-0,005	-0,026
332,085	293,276	-0,042	0,052
333,100	68,238	-0,137	-0,097
334,114	452,148	-0,097	-0,148
335,129	228,602	-0,138	-0,155
336,143	240,375	-0,121	-0,139
337,158	800,000	-0,088	-0,254
338,173	20,647	-0,106	-0,059
339,187	23,373	-0,170	-0,096
340,202	-8,702	-0,242	-0,111
341,216	228,223	-0,179	-0,200
342,231	679,518	-0,089	-0,160
343,246	493,282	-0,062	-0,097
344,260	-200,000	0,009	-0,040
345,275	108,061	-0,154	-0,126
346,289	197,354	-0,137	-0,144
347,304	-14,389	-0,123	-0,054
348,319	-122,661	-0,205	0,023
349,333	-135,781	-0,181	-0,014
350,348	61,296	-0,242	-0,165
351,362	-84,907	-0,103	0,022
352,377	-106,070	-0,107	-0,016
353,392	476,469	-0,070	-0,108
354,406	129,960	-0,094	-0,083
355,421	205,992	1312,696	1400,265
356,435	158,403	1473,171	1400,764
