DTS Sentinel unit serial number:	SN410029Multiplexer serial number:	ORYXHardware model number:	OX2-SRSoftware version number:	ORYX F/W v4,00 Oryx Data Collector v3.7.2.0data status	okinstallation	B3 Nyhavnadifferential loss correction	single-endedforward channel	channel 1reverse channel	N/Adate	2023/11/30time	13:27:30forward acquisition time	300,00reverse acquisition time	0,00gamma	499,1914k internal	0,3204k external	0,3204temperature offset calibration	1,0000default loss term (dB/km)	0,3820temperature slope calibration	1,0000multiplexer offset coefficient	1,0000multiplexer slope coefficient	1,0000fibre end	0,00T internal ref (°C)	10,62T ext. ref 1 (°C)	-2,81T ext. ref 2 (°C)	-2,88length (m)	temperature (°C)	Stokes	anti-Stokes-744,400	73,106	-0,247	-0,187
-743,385	-200,000	-0,049	0,217
-742,371	306,121	-0,118	-0,160
-741,356	-200,000	-0,109	0,360
-740,342	-200,000	-0,036	-0,239
-739,327	-200,000	-0,031	0,193
-738,312	633,569	-0,132	-0,244
-737,298	708,675	-0,106	0,205
-736,283	174,599	-0,218	-0,229
-735,269	-200,000	-0,014	0,281
-734,254	-8,066	-0,287	-0,140
-733,239	70,988	-0,122	0,092
-732,225	-200,000	0,012	-0,249
-731,210	-200,000	0,009	0,119
-730,196	5,500	-0,149	-0,079
-729,181	-36,832	0,143	-0,055
-728,167	800,000	-0,012	-0,028
-727,152	-109,080	0,053	-0,008
-726,137	-200,000	0,039	-0,198
-725,123	-138,594	-0,060	-0,005
-724,108	-64,136	-0,066	0,019
-723,094	-57,136	-0,114	0,036
-722,079	86,665	-0,052	-0,041
-721,064	-54,625	0,042	-0,014
-720,050	7,654	-0,021	-0,011
-719,035	442,235	-0,040	0,063
-718,021	-59,309	-0,162	0,050
-717,006	800,000	-0,091	-0,189
-715,991	108,338	-0,128	-0,111
-714,977	-200,000	-0,049	-0,187
-713,962	61,068	0,081	-0,058
-712,948	163,935	0,150	0,153
-711,933	-169,061	0,070	0,002
-710,918	-164,387	-0,105	0,003
-709,904	115,020	-0,071	-0,063
-708,889	-93,516	-0,056	0,011
-707,875	-20,701	0,079	0,035
-706,860	392,888	-0,067	-0,102
-705,845	800,000	0,010	0,025
-704,831	412,959	-0,040	-0,062
-703,816	177,090	-0,063	-0,067
-702,802	46,127	-0,128	0,086
-701,787	800,000	0,057	-0,174
-700,772	800,000	-0,103	-0,310
-699,758	-30,467	-0,064	0,026
-698,743	-4,920	0,136	0,068
-697,729	-200,000	0,032	0,183
-696,714	178,713	0,062	-0,066
-695,699	-149,980	0,069	-0,004
-694,685	-200,000	0,010	-0,061
-693,670	271,177	-0,102	-0,130
-692,656	105,001	0,033	0,028
-691,641	-149,163	0,187	-0,011
-690,627	222,991	-0,099	0,116
-689,612	800,000	-0,019	0,046
-688,597	-53,744	-0,157	0,052
-687,583	-200,000	0,032	-0,125
-686,568	-200,000	0,039	-0,147
-685,554	231,651	0,052	-0,062
-684,539	-200,000	0,013	-0,063
-683,524	-200,000	-0,012	0,128
-682,510	17,124	-0,132	-0,076
-681,495	-200,000	-0,005	-0,038
-680,481	-200,000	-0,020	-0,082
-679,466	-200,000	0,009	-0,065
-678,451	535,704	-0,034	-0,059
-677,437	-133,025	-0,121	-0,011
-676,422	-200,000	-0,012	0,087
-675,408	-137,087	0,094	-0,008
-674,393	800,000	0,046	-0,114
-673,378	53,438	-0,098	0,068
-672,364	800,000	-0,010	-0,022
-671,349	81,577	-0,046	0,036
-670,335	-12,082	-0,073	-0,035
-669,320	346,406	-0,055	0,078
-668,305	75,652	-0,074	0,057
-667,291	-89,748	-0,081	0,017
-666,276	229,674	-0,059	-0,070
-665,262	800,000	-0,067	-0,140
-664,247	99,163	-0,125	0,105
-663,232	-11,148	0,049	-0,023
-662,218	360,314	-0,043	0,062
-661,203	-144,903	0,097	-0,006
-660,189	52,266	-0,062	-0,043
-659,174	358,251	0,019	-0,027
-658,159	632,674	-0,091	0,167
-657,145	15,110	-0,051	0,029
-656,130	405,179	-0,047	-0,072
-655,116	385,789	0,047	-0,070
-654,101	47,540	-0,060	0,040
-653,086	-59,729	-0,099	-0,031
-652,072	183,694	-0,049	-0,053
-651,057	-200,000	-0,018	-0,109
-650,043	-200,000	-0,090	0,000
-649,028	-112,182	0,113	-0,016
-648,014	306,190	-0,019	-0,026
-646,999	-114,596	-0,103	0,014
-645,984	56,348	-0,063	-0,044
-644,970	502,725	-0,020	-0,034
-643,955	-144,361	-0,218	0,014
-642,941	-27,232	-0,019	-0,008
-641,926	-62,221	0,056	0,017
-640,911	-200,000	-0,005	-0,109
-639,897	378,371	-0,054	0,081
-638,882	-29,156	-0,105	0,043
-637,868	-36,097	0,046	0,018
-636,853	800,000	-0,065	0,145
-635,838	-138,115	-0,108	-0,009
-634,824	800,000	0,029	-0,062
-633,809	800,000	0,027	0,084
-632,795	-175,104	0,015	-0,000
-631,780	-200,000	-0,017	0,229
-630,765	-200,000	-0,018	0,097
-629,751	-108,346	-0,061	0,009
-628,736	-200,000	0,006	-0,058
-627,722	-200,000	0,015	-0,064
-626,707	-0,914	0,113	0,058
-625,692	228,317	-0,035	0,042
-624,678	-4,978	-0,042	-0,021
-623,663	418,941	-0,081	0,125
-622,649	-79,146	-0,043	-0,011
-621,634	-126,030	-0,104	0,011
-620,619	-96,930	-0,129	-0,024
-619,605	254,983	0,063	0,078
-618,590	-200,000	-0,026	0,172
-617,576	-200,000	0,012	0,114
-616,561	800,000	-0,063	0,150
-615,546	193,358	0,031	-0,034
-614,532	102,728	-0,034	0,029
-613,517	-200,000	-0,012	0,150
-612,503	-142,531	0,071	-0,005
-611,488	-62,438	0,106	0,032
-610,474	415,692	-0,021	0,033
-609,459	-39,506	0,086	0,032
-608,444	13,683	-0,069	-0,038
-607,430	81,463	0,070	0,054
-606,415	-3,060	-0,065	-0,033
-605,401	-49,090	-0,094	-0,032
-604,386	226,647	0,093	-0,109
-603,371	275,773	0,040	0,052
-602,357	42,818	0,048	-0,032
-601,342	-200,000	0,008	-0,070
-600,328	89,196	-0,035	0,028
-599,313	-200,000	0,010	0,192
-598,298	-156,242	0,105	0,005
-597,284	-34,632	-0,051	-0,020
-596,269	-144,723	0,055	0,004
-595,255	297,480	0,021	0,028
-594,240	579,392	-0,022	0,038
-593,225	219,491	-0,079	-0,092
-592,211	-133,044	0,048	0,004
-591,196	354,648	-0,046	0,066
-590,182	424,616	0,010	0,015
-589,167	105,962	-0,057	0,048
-588,152	-151,469	-0,120	-0,006
-587,138	800,000	0,042	0,120
-586,123	82,283	-0,050	0,039
-585,109	-122,644	0,088	0,010
-584,094	162,329	-0,080	0,081
-583,079	-102,924	0,054	0,009
-582,065	3,304	-0,077	0,040
-581,050	800,000	0,034	0,091
-580,036	-200,000	-0,051	-0,189
-579,021	-120,287	-0,101	0,012
-578,006	38,031	-0,087	-0,056
-576,992	139,078	0,068	0,064
-575,977	91,257	0,108	-0,087
-574,963	245,171	0,044	0,054
-573,948	-200,000	-0,005	0,031
-572,934	209,576	0,086	0,097
-571,919	-181,767	-0,097	0,001
-570,904	-130,653	0,034	0,003
-569,890	750,904	-0,052	0,102
-568,875	22,554	0,017	-0,010
-567,861	800,000	-0,063	0,129
-566,846	67,356	-0,135	0,099
-565,831	-200,000	-0,025	0,128
-564,817	-200,000	-0,020	-0,187
-563,802	539,966	-0,093	-0,160
-562,788	-110,216	0,063	-0,009
-561,773	-200,000	-0,021	-0,077
-560,758	-200,000	-0,005	0,070
-559,744	-200,000	-0,003	0,071
-558,729	550,696	-0,011	0,019
-557,715	-200,000	0,006	0,025
-556,700	111,793	-0,115	-0,100
-555,685	800,000	-0,048	-0,097
-554,671	-58,502	0,052	-0,016
-553,656	-200,000	-0,042	-0,148
-552,642	98,149	-0,034	0,028
-551,627	208,878	-0,109	0,123
-550,612	-200,000	-0,001	-0,123
-549,598	800,000	-0,051	-0,111
-548,583	-29,561	0,044	-0,018
-547,569	703,978	0,033	-0,063
-546,554	-104,402	-0,128	0,021
-545,539	-200,000	-0,022	0,169
-544,525	531,606	-0,018	0,031
-543,510	-82,538	-0,156	-0,036
-542,496	-80,329	-0,087	0,021
-541,481	-200,000	-0,030	-0,111
-540,466	695,781	0,045	-0,085
-539,452	-200,000	0,001	0,150
-538,437	118,759	0,070	0,062
-537,423	175,736	0,047	-0,049
-536,408	390,175	0,036	0,055
-535,393	-2,983	-0,078	-0,039
-534,379	93,022	-0,103	-0,084
-533,364	-31,113	-0,081	-0,033
-532,350	-39,363	0,099	0,037
-531,335	638,540	0,024	0,045
-530,321	426,111	-0,028	0,043
-529,306	105,312	-0,058	-0,049
-528,291	-200,000	0,008	0,058
-527,277	322,610	-0,097	-0,134
-526,262	167,505	0,084	-0,086
-525,248	2,861	0,104	0,054
-524,233	-200,000	-0,020	0,132
-523,218	64,486	-0,074	0,054
-522,204	800,000	0,051	-0,128
-521,189	800,000	0,015	-0,038
-520,175	211,973	0,022	-0,025
-519,160	-136,193	-0,142	0,012
-518,145	-54,156	-0,050	0,016
-517,131	-200,000	-0,001	-0,062
-516,116	330,027	-0,058	0,080
-515,102	-200,000	-0,024	0,144
-514,087	647,614	0,032	-0,060
-513,072	-200,000	0,044	-0,152
-512,058	-136,943	-0,043	-0,003
-511,043	-200,000	-0,038	0,161
-510,029	65,769	-0,062	0,045
-509,014	800,000	0,047	0,103
-507,999	800,000	0,017	0,046
-506,985	-112,076	0,171	-0,024
-505,970	800,000	0,021	-0,049
-504,956	-136,357	-0,011	-0,001
-503,941	-200,000	-0,007	0,050
-502,926	255,554	-0,061	-0,075
-501,912	800,000	0,038	-0,103
-500,897	-200,000	0,000	-0,087
-499,883	-200,000	0,005	-0,066
-498,868	-162,051	-0,133	-0,005
-497,853	800,000	-0,029	0,066
-496,839	264,781	-0,048	-0,061
-495,824	-110,431	-0,039	0,006
-494,810	-200,000	0,004	0,090
-493,795	530,184	0,051	0,087
-492,781	119,169	0,085	-0,076
-491,766	165,889	-0,140	-0,143
-490,751	800,000	-0,046	-0,109
-489,737	-87,122	0,086	-0,019
-488,722	-200,000	0,038	0,175
-487,708	0,059	0,081	-0,042
-486,693	-26,253	0,160	0,067
-485,678	-200,000	-0,020	-0,076
-484,664	47,691	0,058	0,039
-483,649	144,649	-0,068	-0,066
-482,635	483,458	0,043	0,071
-481,620	-112,416	-0,035	0,005
-480,605	163,038	-0,033	-0,033
-479,591	-200,000	0,006	-0,113
-478,576	-200,000	0,013	-0,115
-477,562	84,399	-0,134	-0,105
-476,547	800,000	-0,055	-0,116
-475,532	-200,000	0,027	0,113
-474,518	-200,000	0,004	-0,035
-473,503	-166,376	-0,020	-0,001
-472,489	513,110	-0,010	-0,016
-471,474	800,000	0,017	0,044
-470,459	476,713	0,012	-0,019
-469,445	-200,000	-0,021	-0,121
-468,430	366,519	-0,015	-0,022
-467,416	-79,187	0,114	0,028
-466,401	800,000	0,052	0,154
-465,386	800,000	0,001	0,003
-464,372	-56,663	0,063	0,020
-463,357	-200,000	0,009	0,036
-462,343	-144,272	-0,066	0,004
-461,328	-200,000	-0,013	-0,043
-460,313	597,189	-0,048	0,086
-459,299	-200,000	-0,001	0,011
-458,284	-73,819	-0,063	-0,016
-457,270	800,000	-0,075	0,171
-456,255	800,000	-0,043	-0,118
-455,241	-140,941	0,158	-0,011
-454,226	-120,829	-0,101	0,012
-453,211	540,025	0,066	0,113
-452,197	-200,000	-0,002	-0,102
-451,182	110,384	0,024	-0,021
-450,168	-37,810	0,077	-0,029
-449,153	189,010	0,019	0,020
-448,138	151,815	-0,038	0,038
-447,124	118,832	0,135	-0,120
-446,109	253,991	0,063	-0,078
-445,095	-200,000	0,011	-0,069
-444,080	-144,143	0,124	-0,008
-443,065	-42,001	0,045	0,016
-442,051	287,574	-0,074	0,096
-441,036	130,247	0,110	0,101
-440,022	-200,000	-0,001	-0,125
-439,007	800,000	-0,028	-0,072
-437,992	17,587	0,065	0,037
-436,978	800,000	-0,025	0,079
-435,963	541,533	0,070	0,120
-434,949	629,438	0,011	-0,020
-433,934	76,710	-0,071	0,054
-432,919	212,253	-0,047	-0,054
-431,905	-166,775	0,183	0,005
-430,890	-2,722	-0,078	0,039
-429,876	-127,551	0,033	0,003
-428,861	-45,775	-0,143	0,050
-427,846	-29,249	0,121	0,049
-426,832	-200,000	-0,035	-0,206
-425,817	68,205	0,057	0,042
-424,803	-200,000	-0,000	0,040
-423,788	800,000	-0,068	0,137
-422,773	800,000	0,052	0,119
-421,759	318,062	-0,065	-0,089
-420,744	-200,000	0,041	-0,139
-419,730	-200,000	0,017	-0,173
-418,715	287,254	-0,058	-0,075
-417,701	300,139	0,088	-0,116
-416,686	-200,000	-0,009	-0,036
-415,671	360,666	-0,019	-0,027
-414,657	-61,198	-0,067	0,020
-413,642	-24,785	0,122	0,052
-412,628	459,884	0,070	-0,113
-411,613	-93,852	-0,067	-0,013
-410,598	43,782	-0,085	-0,056
-409,584	-60,921	-0,021	-0,006
-408,569	-24,079	-0,091	0,039
-407,555	334,864	0,071	-0,099
-406,540	-109,426	-0,063	0,009
-405,525	-129,252	-0,065	-0,006
-404,511	-61,487	-0,097	-0,029
-403,496	800,000	-0,039	-0,088
-402,482	272,123	0,066	-0,084
-401,467	7,589	-0,031	-0,017
-400,452	120,885	0,058	0,052
-399,438	622,448	0,056	-0,102
-398,423	-43,795	-0,020	0,007
-397,409	217,686	-0,043	-0,049
-396,394	-126,848	-0,065	-0,007
-395,379	-54,275	0,143	-0,046
-394,365	43,516	0,028	0,018
-393,350	415,683	0,019	-0,030
-392,336	205,792	0,083	-0,093
-391,321	-77,680	-0,141	-0,035
-390,306	-200,000	-0,029	0,122
-389,292	27,253	-0,106	0,064
-388,277	298,931	0,025	-0,033
-387,263	-119,112	0,136	0,017
-386,248	-28,999	-0,168	0,069
-385,233	107,560	0,130	0,111
-384,219	-200,000	0,012	0,128
-383,204	-140,131	-0,091	0,007
-382,190	800,000	0,023	-0,053
-381,175	539,972	-0,024	-0,041
-380,160	-170,207	0,233	-0,006
-379,146	-142,120	0,117	0,008
-378,131	-75,013	-0,080	0,020
-377,117	130,122	-0,073	-0,066
-376,102	789,179	0,033	-0,065
-375,088	500,831	-0,028	-0,046
-374,073	-200,000	-0,012	0,045
-373,058	52,291	0,137	-0,093
-372,044	800,000	0,006	0,015
-371,029	-17,536	0,073	0,033
-370,015	-200,000	-0,003	-0,041
-369,000	-95,540	0,067	-0,013
-367,985	800,000	0,042	0,098
-366,971	363,765	-0,046	0,066
-365,956	-200,000	0,012	-0,123
-364,942	800,000	-0,039	0,087
-363,927	800,000	0,037	0,088
-362,912	-109,302	-0,107	0,016
-361,898	564,314	-0,046	-0,081
-360,883	-84,171	-0,115	-0,026
-359,869	-157,887	0,056	-0,002
-358,854	-97,828	-0,042	0,008
-357,839	142,715	0,041	0,039
-356,825	800,000	-0,021	0,044
-355,810	-105,697	-0,033	-0,005
-354,796	422,868	0,041	0,063
-353,781	-200,000	0,010	-0,060
-352,766	-133,494	-0,212	-0,019
-351,752	106,286	-0,064	0,054
-350,737	-200,000	0,002	0,010
-349,723	271,493	0,072	-0,091
-348,708	-8,949	0,149	0,071
-347,693	435,356	-0,079	0,123
-346,679	-36,329	-0,096	-0,037
-345,664	-10,759	0,045	0,021
-344,650	800,000	-0,030	0,089
-343,635	61,236	0,095	0,067
-342,620	100,281	0,085	0,071
-341,606	17,403	0,059	0,034
-340,591	-200,000	-0,011	-0,105
-339,577	-49,526	-0,062	-0,021
-338,562	-128,475	-0,084	0,008
-337,548	-200,000	-0,012	0,040
-336,533	4,264	0,131	0,068
-335,518	-22,188	0,086	-0,037
-334,504	-33,841	0,137	-0,054
-333,489	0,284	0,050	0,025
-332,475	800,000	0,012	0,026
-331,460	-132,136	-0,160	0,015
-330,445	-82,984	0,056	-0,013
-329,431	354,116	-0,094	0,134
-328,416	-109,104	0,115	-0,017
-327,402	555,197	0,038	0,065
-326,387	800,000	-0,066	-0,135
-325,372	-70,931	0,058	0,016
-324,358	-50,484	-0,214	-0,072
-323,343	437,871	0,061	-0,095
-322,329	159,608	0,059	0,059
-321,314	-107,918	0,109	0,017
-320,299	-43,409	-0,035	0,013
-319,285	-163,886	-0,097	-0,003
-318,270	268,159	-0,046	-0,058
-317,256	-69,037	0,117	-0,032
-316,241	326,410	0,078	-0,107
-315,226	-127,026	0,086	-0,009
-314,212	143,928	0,063	0,060
-313,197	-200,000	0,018	0,082
-312,183	-122,105	-0,069	-0,008
-311,168	800,000	-0,019	-0,056
-310,153	-200,000	-0,003	0,054
-309,139	663,015	-0,047	-0,087
-308,124	-200,000	-0,021	-0,082
-307,110	-200,000	-0,017	-0,057
-306,095	141,203	0,094	0,088
-305,080	-164,054	0,095	0,003
-304,066	195,577	-0,016	0,017
-303,051	189,858	0,073	0,079
-302,037	-194,588	-0,055	-0,000
-301,022	155,981	0,063	0,062
-300,008	301,420	0,155	0,204
-298,993	114,876	-0,097	0,085
-297,978	-91,875	0,068	-0,014
-296,964	-200,000	0,002	0,082
-295,949	133,926	0,060	-0,055
-294,935	303,536	0,062	-0,082
-293,920	-172,448	0,025	0,001
-292,905	-200,000	0,002	-0,042
-291,891	-20,509	0,123	0,054
-290,876	800,000	0,012	-0,033
-289,862	-200,000	0,033	0,126
-288,847	800,000	0,085	-0,171
-287,832	146,071	-0,002	-0,002
-286,818	348,705	0,062	0,087
-285,803	187,193	-0,059	0,063
-284,789	-146,114	-0,067	-0,004
-283,774	-20,430	0,045	0,020
-282,759	101,606	0,082	-0,068
-281,745	-164,851	-0,085	-0,003
-280,730	31,061	-0,050	-0,031
-279,716	70,489	0,047	-0,034
-278,701	257,765	0,045	0,055
-277,686	177,507	0,060	0,063
-276,672	-79,049	0,146	-0,035
-275,657	-200,000	0,004	-0,154
-274,643	-200,000	-0,010	-0,063
-273,628	-46,097	-0,023	0,008
-272,613	800,000	0,067	-0,135
-271,599	25,606	-0,145	-0,086
-270,584	85,114	-0,037	0,029
-269,570	42,877	0,070	-0,046
-268,555	-35,118	-0,072	0,028
-267,540	-200,000	0,017	-0,165
-266,526	-200,000	0,008	-0,035
-265,511	800,000	-0,019	0,047
-264,497	-11,028	0,100	-0,047
-263,482	-200,000	0,017	-0,067
-262,467	-200,000	0,021	0,143
-261,453	638,635	-0,052	0,094
-260,438	-36,137	-0,104	0,040
-259,424	75,045	-0,069	0,052
-258,409	-75,401	-0,047	-0,012
-257,395	433,333	0,083	0,128
-256,380	-60,089	-0,028	0,008
-255,365	24,375	0,104	-0,061
-254,351	29,094	-0,047	-0,029
-253,336	-200,000	-0,012	0,132
-252,322	-200,000	-0,010	-0,077
-251,307	-108,635	-0,100	-0,015
-250,292	800,000	-0,032	-0,082
-249,278	395,198	0,085	0,127
-248,263	-99,013	0,145	0,026
-247,249	-200,000	-0,063	0,243
-246,234	36,755	-0,131	0,083
-245,219	95,784	-0,022	-0,018
-244,205	-24,634	-0,199	-0,084
-243,190	4,270	-0,069	-0,036
-242,176	-121,705	-0,060	-0,007
-241,161	-52,137	0,170	0,056
-240,146	35,483	-0,043	0,027
-239,132	-111,208	-0,071	-0,010
-238,117	3,554	0,050	-0,026
-237,103	80,754	-0,112	0,086
-236,088	-200,000	0,027	0,143
-235,073	-149,994	-0,113	0,006
-234,059	800,000	0,003	-0,007
-233,044	54,181	0,111	-0,076
-232,030	742,616	-0,028	0,054
-231,015	141,558	-0,027	0,026
-230,000	-200,000	0,003	-0,119
-228,986	800,000	-0,011	-0,032
-227,971	-15,782	0,139	0,063
-226,957	-73,735	0,121	0,031
-225,942	134,105	-0,072	-0,066
-224,927	-46,697	-0,091	0,032
-223,913	157,115	-0,149	-0,147
-222,898	147,252	-0,093	-0,090
-221,884	-61,852	-0,022	0,007
-220,869	15,057	0,033	-0,018
-219,855	39,736	0,121	-0,077
-218,840	188,278	-0,039	0,042
-217,825	314,076	0,067	-0,090
-216,811	39,983	-0,189	0,120
-215,796	-200,000	-0,041	-0,146
-214,782	-58,287	0,175	-0,054
-213,767	-200,000	-0,003	0,137
-212,752	22,577	0,106	-0,062
-211,738	285,018	0,057	0,073
-210,723	9,629	0,133	-0,072
-209,709	-200,000	0,035	-0,135
-208,694	470,697	0,043	-0,069
-207,679	-200,000	0,030	-0,127
-206,665	120,061	0,127	-0,112
-205,650	-99,153	0,052	0,009
-204,636	-200,000	-0,037	0,150
-203,621	-67,231	0,051	0,014
-202,606	155,804	-0,055	-0,054
-201,592	-200,000	0,011	-0,044
-200,577	204,168	0,053	-0,059
-199,563	-94,494	-0,117	-0,023
-198,548	-148,974	0,138	-0,008
-197,533	800,000	-0,001	0,001
-196,519	-37,589	0,121	0,045
-195,504	-200,000	-0,031	-0,169
-194,490	-39,556	-0,048	0,018
-193,475	-200,000	0,006	0,052
-192,460	-94,253	0,067	0,013
-191,446	-13,653	0,046	-0,021
-190,431	-6,007	0,032	0,015
-189,417	197,780	-0,037	0,040
-188,402	-200,000	0,000	0,003
-187,387	388,452	-0,036	0,054
-186,373	800,000	0,074	-0,150
-185,358	163,948	0,070	-0,070
-184,344	70,859	-0,014	0,010
-183,329	-42,034	0,101	0,037
-182,315	512,064	-0,050	0,084
-181,300	800,000	0,007	0,021
-180,285	448,858	-0,064	-0,101
-179,271	194,496	-0,069	-0,075
-178,256	-200,000	-0,004	-0,086
-177,242	-200,000	-0,007	0,050
-176,227	800,000	0,054	0,153
-175,212	-200,000	0,006	-0,058
-174,198	-200,000	0,013	-0,059
-173,183	-200,000	-0,013	-0,094
-172,169	179,871	0,116	-0,120
-171,154	64,419	-0,063	-0,045
-170,139	611,916	0,062	-0,110
-169,125	800,000	0,014	0,028
-168,110	26,530	0,027	0,016
-167,096	66,656	-0,030	0,021
-166,081	-80,797	-0,184	-0,043
-165,066	176,749	-0,059	-0,061
-164,052	-200,000	0,004	0,066
-163,037	-189,985	-0,078	0,001
-162,023	527,483	0,077	0,130
-161,008	-69,863	0,080	-0,021
-159,993	-86,385	0,182	0,039
-158,979	-200,000	-0,023	-0,163
-157,964	-200,000	-0,040	-0,128
-156,950	-16,206	-0,103	0,046
-155,935	-200,000	-0,005	-0,039
-154,920	-75,206	0,050	0,012
-153,906	-200,000	-0,008	0,215
-152,891	800,000	0,035	0,096
-151,877	-16,651	-0,042	-0,019
-150,862	-115,183	-0,077	-0,010
-149,847	-200,000	-0,007	-0,047
-148,833	-200,000	-0,017	-0,073
-147,818	800,000	-0,034	0,076
-146,804	263,054	-0,043	-0,053
-145,789	800,000	-0,040	0,089
-144,775	453,180	-0,033	0,051
-143,760	-200,000	0,022	0,087
-142,745	-105,935	-0,053	-0,008
-141,731	-200,000	0,015	0,052
-140,716	-200,000	0,003	-0,082
-139,702	280,479	0,005	0,006
-138,687	386,284	0,035	0,051
-137,672	30,331	0,029	0,017
-136,658	446,959	-0,042	0,066
-135,643	143,212	-0,104	-0,099
-134,629	3,981	-0,093	0,048
-133,614	-83,976	0,081	0,018
-132,599	800,000	0,057	0,130
-131,585	800,000	-0,038	-0,084
-130,570	-200,000	0,041	0,132
-129,556	-7,477	0,047	-0,023
-128,541	-200,000	-0,029	-0,137
-127,526	169,529	-0,021	0,022
-126,512	-31,796	0,143	-0,057
-125,497	-200,000	-0,014	0,076
-124,483	424,020	0,088	0,135
-123,468	-200,000	-0,037	-0,123
-122,453	-107,402	-0,020	0,003
-121,439	86,080	-0,072	-0,056
-120,424	458,915	0,036	-0,057
-119,410	97,009	0,056	0,045
-118,395	253,923	-0,048	0,058
-117,380	82,684	0,034	0,026
-116,366	800,000	-0,070	0,174
-115,351	246,812	0,145	0,173
-114,337	-200,000	-0,006	-0,066
-113,322	800,000	-0,031	-0,073
-112,307	-56,035	-0,027	-0,009
-111,293	180,190	-0,090	0,093
-110,278	273,254	-0,009	-0,011
-109,264	-8,213	-0,049	0,023
-108,249	180,171	-0,036	-0,038
-107,234	284,557	-0,068	0,087
-106,220	220,934	-0,101	-0,115
-105,205	323,179	-0,055	-0,074
-104,191	30,246	-0,016	0,010
-103,176	-200,000	0,031	-0,152
-102,162	-200,000	-0,036	0,157
-101,147	-35,058	0,006	0,002
-100,132	800,000	-0,026	0,055
-99,118	152,673	0,092	-0,089
-98,103	-48,503	0,189	-0,064
-97,089	-200,000	-0,003	0,085
-96,074	61,808	0,109	0,077
-95,059	230,376	0,008	0,009
-94,045	754,552	0,045	0,087
-93,030	628,980	0,026	0,046
-92,016	-109,829	-0,075	-0,011
-91,001	-78,491	0,043	0,010
-89,986	135,535	0,061	-0,056
-88,972	-200,000	0,004	0,080
-87,957	150,438	0,019	0,018
-86,943	-79,755	-0,037	-0,009
-85,928	-39,967	0,080	0,029
-84,913	40,401	-0,084	0,054
-83,899	-200,000	0,004	-0,064
-82,884	674,629	0,040	-0,074
-81,870	800,000	0,035	-0,087
-80,855	-200,000	-0,000	-0,070
-79,840	26,549	0,074	-0,044
-78,826	-27,479	-0,089	0,037
-77,811	8,173	0,025	0,013
-76,797	-200,000	0,001	-0,059
-75,782	-58,753	0,171	0,052
-74,767	49,927	-0,110	0,073
-73,753	-200,000	-0,017	0,093
-72,738	-38,448	-0,092	-0,034
-71,724	169,079	-0,047	-0,047
-70,709	13,711	-0,039	0,021
-69,694	-153,400	-0,129	0,006
-68,680	-36,953	0,038	0,014
-67,665	-107,292	0,068	0,010
-66,651	-40,838	0,062	-0,023
-65,636	800,000	-0,035	0,073
-64,622	-16,713	0,108	0,048
-63,607	-200,000	-0,022	-0,135
-62,592	-200,000	0,022	-0,113
-61,578	-99,280	0,111	-0,020
-60,563	84,394	0,178	0,138
-59,549	148,752	0,064	0,061
-58,534	36,443	-2,156	-1,343
-57,519	485,031	-1,157	-1,871
-56,505	-200,000	-0,428	-4,507
-55,490	515,506	0,869	1,441
-54,476	800,000	5,253	11,678
-53,461	-200,000	21,986	348,358
-52,446	800,000	767,176	2349,832
-51,432	541,720	1668,019	2822,501
-50,417	72,340	1664,596	1225,383
-49,403	18,415	1537,588	866,422
-48,388	12,426	1461,021	794,207
-47,373	20,629	1452,648	829,121
-46,359	15,942	1441,348	800,287
-45,344	10,728	1437,315	773,104
-44,330	10,674	1435,490	771,829
-43,315	10,653	1433,567	770,666
-42,300	10,665	1431,830	769,761
-41,286	10,679	1430,559	769,114
-40,271	10,666	1429,301	768,342
-39,257	10,678	1428,150	767,750
-38,242	10,690	1426,956	767,138
-37,227	10,674	1426,035	766,534
-36,213	10,755	1424,588	766,109
-35,198	10,684	1423,354	765,081
-34,184	10,777	1422,484	765,021
-33,169	10,657	1421,129	763,696
-32,154	10,726	1420,338	763,568
-31,140	10,770	1418,806	762,921
-30,125	10,776	1417,925	762,443
-29,111	10,760	1416,500	761,574
-28,096	10,685	1415,752	760,788
-27,082	10,685	1414,175	759,908
-26,067	10,640	1413,380	759,240
-25,052	10,713	1412,231	758,937
-24,038	10,667	1411,467	758,278
-23,023	10,665	1410,175	757,548
-22,009	10,637	1409,348	756,941
-20,994	10,659	1408,251	756,426
-19,979	10,599	1407,500	755,710
-18,965	10,649	1406,260	755,248
-17,950	10,601	1405,620	754,651
-16,936	10,594	1404,742	754,113
-15,921	10,583	1403,638	753,442
-14,906	10,515	1402,888	752,690
-13,892	10,535	1402,001	752,281
-12,877	10,539	1401,254	751,867
-11,863	10,577	1400,247	751,474
-10,848	10,525	1399,134	750,604
-9,833	10,466	1398,308	749,855
-8,819	10,441	1397,654	749,362
-7,804	10,497	1396,659	749,058
-6,790	10,496	1395,684	748,502
-5,775	10,482	1394,599	747,822
-4,760	10,469	1393,850	747,330
-3,746	10,504	1392,652	746,822
-2,731	10,419	1392,131	746,120
-1,717	10,439	1391,148	745,654
-0,702	10,408	1389,290	744,488
0,313	14,508	1300,885	715,906
1,327	30,785	688,828	415,959
2,342	47,581	118,931	78,262
3,356	0,453	16,531	8,319
4,371	12,923	3,612	1,968
5,386	23,266	1,114	0,645
6,400	800,000	0,281	0,577
7,415	-109,372	-0,295	-0,044
8,429	97,273	-0,199	-0,161
9,444	47,349	-0,368	-0,242
10,459	48,429	-0,324	-0,214
11,473	67,859	-0,328	-0,236
12,488	237,870	-0,181	-0,213
13,502	241,852	-0,184	-0,217
14,517	79,442	-0,307	-0,232
15,531	-44,325	-0,473	-0,166
16,546	-87,796	-0,512	-0,108
17,561	117,188	-0,275	-0,238
18,575	194,786	-0,106	-0,114
19,590	-120,260	-0,277	-0,033
20,604	-46,594	-0,269	-0,093
21,619	104,864	-0,382	-0,318
22,634	110,160	-0,398	-0,337
23,648	76,321	-0,384	-0,287
24,663	81,989	-0,374	-0,286
25,677	5,882	-0,372	-0,194
26,692	0,850	-0,314	-0,158
27,707	-11,542	-0,454	-0,210
28,721	232,601	-0,268	-0,311
29,736	105,023	-0,428	-0,356
30,750	249,754	-0,338	-0,405
31,765	59,360	-0,395	-0,274
32,780	97,734	-0,401	-0,324
33,794	54,498	-0,334	-0,227
34,809	185,045	-0,307	-0,322
35,823	26,964	-0,461	-0,272
36,838	44,972	-0,394	-0,255
37,853	8,481	-0,465	-0,246
38,867	61,311	-0,348	-0,243
39,882	153,023	-0,301	-0,291
40,896	66,705	-0,352	-0,252
41,911	-43,146	-0,347	-0,123
42,926	37,319	-0,363	-0,226
43,940	138,589	-0,413	-0,382
44,955	263,939	-0,228	-0,280
45,969	70,700	-0,287	-0,209
46,984	-0,417	-0,386	-0,192
47,999	-73,109	-0,319	-0,082
49,013	-148,004	-0,322	-0,019
50,028	-13,354	-0,223	-0,102
51,042	188,115	-0,196	-0,207
52,057	26,987	-0,401	-0,236
53,071	112,047	-0,347	-0,295
54,086	58,068	-0,302	-0,208
55,101	23,502	-0,414	-0,239
56,115	50,996	-0,400	-0,266
57,130	-6,415	-0,334	-0,160
58,144	24,407	-0,431	-0,250
59,159	-13,834	-0,432	-0,195
60,174	17,192	-0,364	-0,203
61,188	-0,046	-0,350	-0,175
62,203	-27,975	-0,355	-0,144
63,217	251,149	-0,231	-0,277
64,232	95,106	-0,269	-0,216
65,247	-17,418	-0,403	-0,178
66,261	192,490	-0,240	-0,255
67,276	67,691	-0,348	-0,250
68,290	116,013	-0,247	-0,212
69,305	52,465	-0,382	-0,256
70,320	36,603	-0,296	-0,183
71,334	122,834	-0,211	-0,186
72,349	32,501	-0,299	-0,181
73,363	-1,923	-0,340	-0,167
74,378	-14,531	-0,469	-0,211
75,393	266,871	-0,191	-0,235
76,407	224,258	-0,240	-0,273
77,422	7,732	-0,248	-0,130
78,436	138,675	-0,243	-0,224
79,451	20,021	-0,377	-0,213
80,466	-31,890	-0,360	-0,141
81,480	102,270	-0,300	-0,246
82,495	-19,629	-0,299	-0,129
83,509	55,045	-0,293	-0,198
84,524	48,398	-0,267	-0,175
85,539	109,684	-0,227	-0,191
86,553	-8,092	-0,211	-0,099
87,568	141,744	-0,309	-0,288
88,582	97,167	-0,377	-0,303
89,597	-47,823	-0,265	-0,090
90,611	-21,021	-0,328	-0,140
91,626	-37,670	-0,335	-0,124
92,641	-41,829	-0,323	-0,116
93,655	-100,123	-0,456	-0,079
94,670	170,799	-0,253	-0,255
95,684	-49,773	-0,355	-0,118
96,699	-28,222	-0,261	-0,105
97,714	-29,151	-0,338	-0,135
98,728	69,327	-0,304	-0,219
99,743	56,449	-0,319	-0,217
100,757	265,036	-0,149	-0,183
101,772	427,253	-0,235	-0,357
102,787	-36,474	-0,333	-0,125
103,801	140,071	-0,215	-0,199
104,816	-56,321	-0,208	-0,064
105,830	359,644	-0,181	-0,255
106,845	77,826	-0,253	-0,188
107,860	46,606	-0,215	-0,140
108,874	-49,825	-0,308	-0,102
109,889	31,697	-0,218	-0,131
110,903	38,061	-0,219	-0,136
111,918	800,000	-0,124	-0,280
112,933	204,975	-0,115	-0,125
113,947	17,710	-0,263	-0,146
114,962	-16,933	-0,270	-0,119
115,976	748,984	-0,195	-0,369
116,991	1,292	-0,281	-0,141
118,006	123,012	-0,287	-0,252
119,020	52,413	-0,342	-0,228
120,035	-76,008	-0,329	-0,081
121,049	22,293	-0,200	-0,114
122,064	-15,885	-0,245	-0,109
123,079	-36,985	-0,158	-0,059
124,093	129,201	-0,232	-0,207
125,108	270,090	-0,212	-0,261
126,122	-102,539	-0,358	-0,059
127,137	-11,541	-0,283	-0,129
128,151	-48,154	-0,221	-0,074
129,166	108,796	-0,198	-0,165
130,181	-77,673	-0,388	-0,093
131,195	11,839	-0,251	-0,134
132,210	-55,260	-0,303	-0,095
133,224	52,735	-0,293	-0,195
134,239	48,824	-0,299	-0,196
135,254	29,304	-0,208	-0,123
136,268	100,373	-0,201	-0,163
137,283	-85,633	-0,316	-0,068
138,297	-27,597	-0,285	-0,115
139,312	52,155	-0,405	-0,269
140,327	1,077	-0,308	-0,154
141,341	471,150	-0,114	-0,180
142,356	29,451	-0,259	-0,153
143,370	31,670	-0,177	-0,106
144,385	86,162	-0,359	-0,276
145,400	9,948	-0,351	-0,186
146,414	278,258	-0,279	-0,347
147,429	307,913	-0,236	-0,308
148,443	-87,676	-0,241	-0,050
149,458	-33,399	-0,164	-0,063
150,473	-52,506	-0,224	-0,072
151,487	-89,140	-0,246	-0,050
152,502	76,843	-0,241	-0,178
153,516	499,393	-0,136	-0,219
154,531	14,095	-0,246	-0,133
155,546	-71,296	-0,274	-0,071
156,560	332,297	-0,113	-0,153
157,575	17,421	-0,244	-0,135
158,589	-19,982	-0,300	-0,128
159,604	69,696	-0,216	-0,155
160,619	40,514	-0,356	-0,223
161,633	278,513	-0,155	-0,193
162,648	-65,197	-0,358	-0,100
163,662	-44,627	-0,236	-0,082
164,677	26,214	-0,153	-0,089
165,692	230,620	-0,094	-0,108
166,706	266,092	-0,210	-0,256
167,721	-11,790	-0,320	-0,146
168,735	21,236	-0,242	-0,136
169,750	135,627	-0,176	-0,159
170,764	494,014	-0,140	-0,224
171,779	431,926	-0,125	-0,189
172,794	89,389	-0,232	-0,180
173,808	-133,224	-0,244	-0,021
174,823	66,968	-0,279	-0,198
175,837	105,643	-0,220	-0,181
176,852	-160,916	-0,270	-0,010
177,867	170,808	-0,252	-0,251
178,881	-48,746	-0,239	-0,079
179,896	119,495	-0,105	-0,090
180,910	100,526	-0,297	-0,240
181,925	199,286	-0,211	-0,225
182,940	21,551	-0,229	-0,129
183,954	152,391	-0,225	-0,214
184,969	143,816	-0,210	-0,195
185,983	-200,000	-0,060	-0,357
186,998	134,885	-0,230	-0,208
188,013	64,378	-0,264	-0,184
189,027	180,349	-0,153	-0,156
190,042	-47,895	-0,251	-0,084
191,056	189,896	-0,264	-0,276
192,071	124,954	-0,204	-0,179
193,086	-200,000	-0,043	-0,151
194,100	-58,286	-0,192	-0,058
195,115	84,148	-0,216	-0,164
196,129	239,102	-0,171	-0,198
197,144	198,134	-0,198	-0,211
198,159	-53,926	-0,214	-0,067
199,173	161,462	-0,237	-0,230
200,188	-194,999	-0,238	-0,001
201,202	-106,491	-0,105	-0,016
202,217	-40,422	-0,226	-0,081
203,232	-37,524	-0,292	-0,108
204,246	373,009	-0,123	-0,175
205,261	140,508	-0,341	-0,313
206,275	88,848	-0,269	-0,208
207,290	146,237	-0,208	-0,194
208,304	63,429	-0,220	-0,153
209,319	759,646	-0,069	-0,131
210,334	27,291	-0,302	-0,176
211,348	340,504	-0,192	-0,261
212,363	262,599	-0,271	-0,327
213,377	111,945	-0,183	-0,154
214,392	-38,416	-0,126	0,046
215,407	343,138	-0,121	-0,165
216,421	586,159	-0,126	-0,216
217,436	404,513	-0,193	-0,283
218,450	316,002	-0,132	-0,173
219,465	-23,663	-0,128	-0,053
220,480	-15,450	-0,176	-0,078
221,494	-77,587	-0,294	-0,070
222,509	410,795	-0,120	-0,177
223,523	393,454	-0,159	-0,229
224,538	-39,600	-0,215	-0,078
225,553	800,000	-0,095	-0,234
226,567	65,808	-0,257	-0,181
227,582	-64,221	-0,219	-0,062
228,596	-131,302	-0,263	-0,024
229,611	-200,000	-0,020	-0,242
230,626	-30,079	-0,178	-0,070
231,640	296,377	-0,179	-0,227
232,655	-7,052	-0,256	-0,120
233,669	79,053	-0,161	-0,120
234,684	-62,873	-0,258	-0,074
235,699	139,269	-0,185	-0,169
236,713	-58,709	-0,118	-0,035
237,728	800,000	-0,095	-0,204
238,742	-29,585	-0,239	-0,094
239,757	41,556	-0,151	-0,094
240,772	-15,847	-0,235	-0,103
241,786	22,016	-0,139	-0,078
242,801	52,799	-0,137	-0,090
243,815	800,000	-0,043	-0,117
244,830	136,868	-0,192	-0,174
245,844	97,269	-0,171	-0,135
246,859	-64,991	-0,235	-0,065
247,874	561,842	-0,150	-0,253
248,888	3,585	-0,255	-0,128
249,903	102,360	-0,148	-0,119
250,917	-121,274	-0,200	-0,023
251,932	-129,064	-0,159	0,015
252,947	95,728	-0,271	-0,214
253,961	116,734	-0,221	-0,187
254,976	459,302	-0,129	-0,200
255,990	-67,978	-0,219	-0,059
257,005	167,117	-0,220	-0,216
258,020	-97,199	-0,141	-0,025
259,034	95,827	-0,077	0,061
260,049	-162,968	-0,221	0,007
261,063	77,952	-0,211	-0,155
262,078	199,534	-0,164	-0,174
263,093	-60,509	-0,163	-0,048
264,107	39,709	-0,184	-0,114
265,122	28,749	-0,184	-0,107
266,136	31,107	-0,154	-0,091
267,151	-26,460	-0,156	-0,063
268,166	-61,393	-0,097	0,028
269,180	800,000	-0,099	-0,195
270,195	41,425	-0,126	-0,078
271,209	397,163	-0,144	-0,209
272,224	68,448	-0,146	-0,103
273,239	170,244	-0,105	-0,104
274,253	-67,988	-0,239	-0,064
275,268	-44,846	-0,139	-0,048
276,282	-22,385	-0,211	-0,088
277,297	145,043	-0,232	-0,214
278,312	-53,270	-0,171	-0,054
279,326	102,205	-0,164	-0,132
280,341	-200,000	-0,055	-0,301
281,355	495,252	-0,032	-0,050
282,370	-72,962	-0,226	-0,057
283,384	180,329	-0,197	-0,200
284,399	45,920	-0,143	-0,091
285,414	149,842	-0,225	-0,211
286,428	-42,003	-0,202	-0,071
287,443	-102,284	-0,142	-0,023
288,457	134,591	-0,156	-0,139
289,472	41,067	-0,214	-0,133
290,487	135,471	-0,187	-0,167
291,501	800,000	-0,076	-0,154
292,516	800,000	0,039	-0,077
293,530	412,963	-0,112	-0,165
294,545	541,011	-0,082	-0,135
295,560	-200,000	-0,010	-0,142
296,574	-10,924	-0,254	-0,115
297,589	-57,090	-0,145	-0,044
298,603	-33,220	-0,158	-0,060
299,618	151,806	-0,142	-0,133
300,633	323,271	-0,091	-0,120
301,647	-33,560	-0,109	-0,041
302,662	-118,995	-0,158	-0,019
303,676	-62,277	-0,217	-0,062
304,691	800,000	-0,064	-0,171
305,706	89,852	-0,180	-0,138
306,720	-6,552	-0,240	-0,112
307,735	1,295	-0,063	-0,031
308,749	-200,000	-0,019	-0,099
309,764	-66,284	-0,155	-0,042
310,779	-134,203	-0,302	-0,025
311,793	14,112	-0,242	-0,130
312,808	229,823	-0,061	-0,069
313,822	800,000	-0,113	-0,230
314,837	-127,204	-0,156	-0,016
315,852	3,146	-0,085	-0,043
316,866	14,212	-0,268	-0,143
317,881	-200,000	-0,025	-0,114
318,895	190,256	-0,151	-0,156
319,910	348,422	-0,098	-0,133
320,925	60,539	-0,202	-0,137
321,939	529,895	-0,079	-0,129
322,954	800,000	-0,073	-0,175
323,968	-116,436	-0,172	-0,022
324,983	-200,000	0,002	0,036
325,997	-111,561	-0,187	-0,026
327,012	166,455	-0,138	-0,135
328,027	506,432	-0,092	-0,147
329,041	511,441	-0,047	-0,076
330,056	800,000	-0,100	-0,193
331,070	-85,112	-0,186	-0,040
332,085	166,041	-0,043	-0,042
333,100	-200,000	0,000	0,010
334,114	119,650	-0,120	-0,102
335,129	459,001	-0,119	-0,182
336,143	-108,403	-0,193	0,028
337,158	-75,814	-0,147	-0,035
338,173	236,864	-0,068	0,077
339,187	-81,715	-0,094	-0,021
340,202	216,232	-0,065	-0,071
341,216	-200,000	0,009	-0,090
342,231	-200,000	-0,067	-0,203
343,246	-200,000	-0,054	-0,193
344,260	-22,419	-0,153	-0,063
345,275	17,242	-0,061	-0,033
346,289	-35,113	-0,114	-0,042
347,304	-78,031	-0,210	-0,049
348,319	108,117	-0,210	-0,172
349,333	76,101	-0,129	-0,094
350,348	-126,260	-0,245	0,025
351,362	-74,544	-0,179	-0,044
352,377	-200,000	-0,013	-0,048
353,392	292,291	-0,074	0,092
354,406	800,000	0,019	-0,047
355,421	203,828	1313,363	1395,006
356,435	156,651	1473,856	1395,459
