DTS Sentinel unit serial number:	SN410029Multiplexer serial number:	ORYXHardware model number:	OX2-SRSoftware version number:	ORYX F/W v4,00 Oryx Data Collector v3.7.2.0data status	okinstallation	B3 Nyhavnadifferential loss correction	single-endedforward channel	channel 1reverse channel	N/Adate	2023/11/28time	22:27:30forward acquisition time	300,00reverse acquisition time	0,00gamma	499,1914k internal	0,3211k external	0,3211temperature offset calibration	1,0000default loss term (dB/km)	0,3820temperature slope calibration	1,0000multiplexer offset coefficient	1,0000multiplexer slope coefficient	1,0000fibre end	0,00T internal ref (°C)	8,58T ext. ref 1 (°C)	-5,99T ext. ref 2 (°C)	-6,13length (m)	temperature (°C)	Stokes	anti-Stokes-744,400	120,208	-0,178	-0,160
-743,385	800,000	0,076	0,154
-742,371	94,208	-0,154	-0,127
-741,356	800,000	-0,090	0,208
-740,342	114,204	-0,270	-0,238
-739,327	-200,000	-0,037	0,258
-738,312	619,215	-0,199	-0,364
-737,298	-200,000	-0,062	0,272
-736,283	148,925	-0,168	-0,164
-735,269	-200,000	-0,035	0,241
-734,254	480,595	-0,152	-0,251
-733,239	-26,785	-0,241	0,102
-732,225	800,000	-0,094	-0,271
-731,210	275,842	-0,117	0,150
-730,196	25,246	-0,131	-0,079
-729,181	-123,070	-0,026	-0,003
-728,167	563,262	-0,054	-0,095
-727,152	-75,022	0,065	-0,017
-726,137	-48,193	-0,075	-0,026
-725,123	-32,262	-0,206	0,083
-724,108	6,587	-0,087	0,047
-723,094	248,633	0,070	-0,086
-722,079	578,652	0,014	0,025
-721,064	679,057	-0,081	-0,153
-720,050	-200,000	-0,002	-0,031
-719,035	-131,772	0,070	-0,007
-718,021	1,255	-0,015	-0,008
-717,006	-200,000	0,014	-0,062
-715,991	10,684	-0,068	-0,037
-714,977	419,631	-0,036	-0,057
-713,962	46,548	-0,034	-0,023
-712,948	-95,086	0,087	-0,017
-711,933	800,000	0,022	0,069
-710,918	601,536	-0,014	0,026
-709,904	309,795	0,035	-0,048
-708,889	-104,134	0,009	0,001
-707,875	735,190	-0,011	0,022
-706,860	69,403	-0,034	-0,025
-705,845	174,543	-0,058	0,061
-704,831	-147,513	0,152	-0,009
-703,816	800,000	0,014	0,036
-702,802	-142,318	-0,080	0,006
-701,787	633,062	0,114	-0,210
-700,772	-200,000	0,003	0,068
-699,758	721,038	0,008	0,015
-698,743	37,460	0,011	0,007
-697,729	-23,061	0,072	-0,031
-696,714	800,000	0,045	-0,107
-695,699	800,000	0,034	-0,078
-694,685	-200,000	-0,005	-0,084
-693,670	800,000	-0,054	0,137
-692,656	-200,000	-0,037	-0,138
-691,641	647,213	-0,045	0,083
-690,627	800,000	0,046	0,122
-689,612	593,880	-0,003	0,005
-688,597	223,898	0,049	-0,058
-687,583	82,095	-0,152	-0,119
-686,568	800,000	-0,019	-0,047
-685,554	-200,000	-0,054	0,184
-684,539	250,421	-0,040	-0,050
-683,524	534,161	0,048	0,083
-682,510	-108,052	-0,109	-0,017
-681,495	192,972	-0,129	0,141
-680,481	-80,121	0,111	-0,027
-679,466	-200,000	0,014	-0,045
-678,451	410,956	-0,065	0,100
-677,437	122,781	-0,148	-0,134
-676,422	-1,395	0,034	-0,017
-675,408	-200,000	-0,006	0,029
-674,393	800,000	0,046	0,124
-673,378	800,000	0,021	0,067
-672,364	800,000	-0,076	0,182
-671,349	141,141	0,019	-0,019
-670,335	178,489	0,104	0,110
-669,320	731,393	-0,028	0,055
-668,305	-161,193	-0,088	0,003
-667,291	418,389	-0,091	0,142
-666,276	-200,000	0,014	-0,112
-665,262	-200,000	0,003	-0,107
-664,247	628,322	-0,069	0,126
-663,232	800,000	0,048	-0,111
-662,218	0,347	0,091	0,047
-661,203	-200,000	0,000	-0,025
-660,189	-151,856	-0,017	0,001
-659,174	-105,493	-0,037	-0,006
-658,159	-200,000	-0,007	0,117
-657,145	223,197	-0,065	0,076
-656,130	-67,741	0,084	-0,024
-655,116	-43,990	0,055	-0,020
-654,101	-200,000	0,019	0,071
-653,086	-66,486	-0,072	0,020
-652,072	800,000	-0,024	0,075
-651,057	269,949	0,059	0,075
-650,043	800,000	0,031	-0,073
-649,028	-77,656	0,110	-0,027
-648,014	341,822	-0,040	0,056
-646,999	-200,000	0,048	-0,165
-645,984	800,000	0,026	0,055
-644,970	-200,000	0,006	-0,044
-643,955	678,006	-0,092	-0,174
-642,941	800,000	-0,060	-0,170
-641,926	-69,903	-0,069	0,019
-640,911	-200,000	0,008	0,091
-639,897	-24,013	0,105	0,045
-638,882	800,000	0,039	-0,114
-637,868	-74,224	0,102	-0,027
-636,853	-200,000	-0,037	-0,145
-635,838	450,813	-0,045	-0,071
-634,824	-200,000	0,012	-0,058
-633,809	103,414	-0,037	-0,031
-632,795	700,193	-0,019	0,037
-631,780	800,000	0,043	-0,114
-630,765	20,265	0,074	0,043
-629,751	-30,237	-0,094	-0,038
-628,736	800,000	-0,072	-0,161
-627,722	-82,767	-0,135	-0,031
-626,707	120,149	-0,103	0,092
-625,692	59,485	0,142	0,101
-624,678	-200,000	0,004	0,070
-623,663	650,776	0,065	-0,121
-622,649	-200,000	-0,014	-0,239
-621,634	800,000	-0,037	-0,094
-620,619	475,609	-0,071	-0,116
-619,605	150,970	0,042	0,041
-618,590	-200,000	0,038	-0,181
-617,576	17,684	0,119	0,068
-616,561	-29,262	-0,075	0,031
-615,546	5,241	0,051	0,027
-614,532	-65,677	-0,108	-0,031
-613,517	-200,000	0,035	-0,118
-612,503	-76,828	0,081	-0,020
-611,488	-200,000	0,007	0,056
-610,474	-200,000	-0,002	0,091
-609,459	800,000	-0,024	-0,053
-608,444	-200,000	-0,014	-0,103
-607,430	-200,000	-0,035	-0,182
-606,415	189,895	-0,145	-0,157
-605,401	660,144	-0,024	-0,044
-604,386	800,000	0,027	-0,063
-603,371	87,501	0,071	-0,057
-602,357	-200,000	-0,014	0,048
-601,342	282,276	-0,004	0,005
-600,328	157,967	-0,077	-0,077
-599,313	-200,000	-0,018	-0,078
-598,298	-7,295	0,150	-0,073
-597,284	769,696	-0,028	0,055
-596,269	611,673	-0,057	-0,103
-595,255	76,780	-0,127	0,097
-594,240	-1,420	-0,100	0,051
-593,225	-4,642	-0,182	-0,090
-592,211	-57,850	-0,068	-0,021
-591,196	-113,296	-0,125	0,018
-590,182	-200,000	-0,004	0,230
-589,167	-200,000	0,009	0,030
-588,152	173,846	0,053	-0,055
-587,138	-200,000	0,011	0,068
-586,123	-64,505	0,097	0,028
-585,109	132,618	-0,101	-0,094
-584,094	-122,099	0,076	-0,009
-583,079	-200,000	-0,004	0,177
-582,065	-200,000	0,011	-0,034
-581,050	-175,762	0,176	-0,003
-580,036	8,530	0,020	0,011
-579,021	-200,000	0,007	-0,035
-578,006	200,554	-0,039	0,043
-576,992	597,757	-0,038	-0,068
-575,977	-76,825	-0,134	0,033
-574,963	-200,000	-0,010	0,049
-573,948	143,456	0,090	0,087
-572,934	-200,000	-0,009	0,034
-571,919	525,104	-0,075	-0,127
-570,904	14,877	0,085	0,048
-569,890	-70,222	0,066	0,018
-568,875	165,020	0,062	0,063
-567,861	93,209	-0,028	-0,023
-566,846	-200,000	0,026	0,150
-565,831	629,877	-0,015	0,028
-564,817	551,128	-0,036	0,062
-563,802	52,033	-0,072	-0,049
-562,788	-200,000	0,001	-0,026
-561,773	-175,149	-0,089	-0,002
-560,758	-21,166	0,096	-0,042
-559,744	-1,129	0,075	0,038
-558,729	800,000	0,018	-0,043
-557,715	800,000	-0,012	-0,027
-556,700	-200,000	-0,000	-0,048
-555,685	-96,440	0,051	0,010
-554,671	-48,604	-0,020	0,007
-553,656	-111,561	0,167	-0,024
-552,642	116,027	-0,054	-0,048
-551,627	151,724	0,057	0,056
-550,612	-200,000	-0,001	-0,091
-549,598	-200,000	-0,005	-0,070
-548,583	-3,470	0,093	0,047
-547,569	-112,103	0,195	-0,028
-546,554	-45,027	-0,205	-0,073
-545,539	51,747	0,125	0,086
-544,525	-1,921	0,030	-0,015
-543,510	421,826	-0,094	-0,146
-542,496	-12,236	-0,137	-0,064
-541,481	-200,000	-0,104	0,000
-540,466	420,858	0,047	-0,073
-539,452	-200,000	0,015	0,094
-538,437	800,000	-0,044	0,112
-537,423	-200,000	-0,029	0,134
-536,408	-89,116	0,195	-0,041
-535,393	126,234	-0,071	-0,064
-534,379	-68,706	-0,202	-0,056
-533,364	111,549	0,057	0,049
-532,350	-200,000	0,059	0,210
-531,335	-92,474	0,117	0,023
-530,321	385,953	0,025	0,037
-529,306	231,508	0,032	-0,038
-528,291	-92,728	-0,169	0,034
-527,277	134,568	-0,053	-0,050
-526,262	94,693	0,061	-0,050
-525,248	-200,000	-0,006	0,075
-524,233	279,304	-0,044	-0,057
-523,218	32,964	-0,077	-0,048
-522,204	-91,816	0,111	-0,022
-521,189	-125,839	0,052	0,006
-520,175	-200,000	-0,034	-0,131
-519,160	-200,000	-0,012	-0,096
-518,145	261,655	0,060	0,075
-517,131	800,000	0,040	0,119
-516,116	-200,000	0,014	0,147
-515,102	-80,739	0,022	-0,005
-514,087	152,519	-0,053	-0,052
-513,072	800,000	-0,042	-0,087
-512,058	19,180	0,070	0,040
-511,043	-42,794	0,078	0,028
-510,029	131,773	0,082	0,075
-509,014	800,000	0,023	-0,049
-507,999	-200,000	-0,002	0,055
-506,985	37,658	-0,124	0,079
-505,970	-200,000	0,027	0,094
-504,956	800,000	-0,023	-0,071
-503,941	-200,000	-0,016	0,068
-502,926	-200,000	-0,039	0,131
-501,912	800,000	0,040	-0,128
-500,897	270,630	0,030	-0,038
-499,883	-73,855	0,080	0,021
-498,868	-200,000	-0,012	-0,165
-497,853	-6,491	0,081	-0,040
-496,839	139,621	-0,102	-0,096
-495,824	-123,734	-0,098	0,011
-494,810	-145,661	0,171	0,011
-493,795	768,580	-0,045	0,088
-492,781	-39,376	0,084	0,032
-491,766	505,485	-0,035	-0,058
-490,751	41,733	-0,027	-0,018
-489,737	19,423	0,119	0,068
-488,722	355,809	-0,081	-0,116
-487,708	295,611	0,063	-0,083
-486,693	41,006	-0,052	0,033
-485,678	118,498	-0,046	-0,041
-484,664	69,328	-0,103	-0,076
-483,649	-168,676	-0,155	0,004
-482,635	338,095	0,069	-0,097
-481,620	90,085	-0,066	-0,053
-480,605	-200,000	0,001	-0,082
-479,591	-38,204	0,043	0,016
-478,576	800,000	0,006	-0,018
-477,562	-104,165	0,128	0,021
-476,547	-72,017	-0,233	-0,062
-475,532	-98,277	0,032	0,006
-474,518	-66,172	0,090	-0,026
-473,503	197,646	0,002	0,002
-472,489	800,000	-0,018	0,055
-471,474	36,945	0,065	-0,041
-470,459	404,364	-0,081	-0,123
-469,445	273,390	-0,138	-0,176
-468,430	463,186	0,130	-0,209
-467,416	-121,638	0,082	-0,010
-466,401	347,378	0,064	-0,090
-465,386	-71,159	0,075	0,020
-464,372	306,508	-0,035	-0,047
-463,357	-57,511	-0,093	-0,029
-462,343	123,203	0,039	0,035
-461,328	44,600	-0,207	-0,136
-460,313	51,765	-0,010	-0,007
-459,299	394,315	0,079	0,118
-458,284	-200,000	-0,002	-0,045
-457,270	137,672	-0,041	-0,038
-456,255	116,943	0,075	0,066
-455,241	415,644	-0,054	-0,083
-454,226	-190,297	-0,084	0,001
-453,211	800,000	-0,010	-0,027
-452,197	485,627	0,037	-0,060
-451,182	-200,000	-0,006	-0,065
-450,168	-200,000	-0,016	0,102
-449,153	-83,693	0,090	0,020
-448,138	-200,000	0,073	0,000
-447,124	142,584	-0,139	0,133
-446,109	416,018	0,043	0,065
-445,095	800,000	-0,064	-0,146
-444,080	164,470	0,186	0,188
-443,065	67,832	-0,141	0,103
-442,051	149,675	-0,027	-0,026
-441,036	800,000	-0,015	-0,038
-440,022	77,326	0,107	-0,082
-439,007	-200,000	0,001	-0,020
-437,992	-83,090	0,069	-0,016
-436,978	-98,327	0,083	-0,015
-435,963	800,000	0,036	0,099
-434,949	272,827	-0,070	0,088
-433,934	11,889	-0,072	0,039
-432,919	800,000	-0,073	0,151
-431,905	0,052	0,056	0,029
-430,890	256,905	-0,058	-0,071
-429,876	18,587	0,078	-0,045
-428,861	69,659	-0,038	0,028
-427,846	-200,000	-0,016	0,082
-426,832	800,000	-0,010	-0,026
-425,817	-29,375	-0,137	-0,056
-424,803	-200,000	0,020	0,079
-423,788	-20,191	-0,056	-0,025
-422,773	-85,767	-0,004	0,001
-421,759	-126,043	-0,087	-0,009
-420,744	170,339	-0,110	-0,113
-419,730	34,617	-0,072	-0,045
-418,715	-147,545	-0,074	-0,004
-417,701	63,442	-0,089	0,064
-416,686	24,732	0,055	-0,033
-415,671	503,502	-0,035	0,059
-414,657	356,652	0,043	0,061
-413,642	-132,439	-0,090	-0,008
-412,628	158,506	0,081	-0,080
-411,613	475,631	-0,053	-0,086
-410,598	-60,949	-0,073	0,022
-409,584	2,418	0,114	-0,059
-408,569	-134,856	0,113	-0,010
-407,555	-200,000	0,024	-0,082
-406,540	-200,000	-0,002	-0,034
-405,525	-200,000	0,007	-0,037
-404,511	190,151	0,088	-0,095
-403,496	-107,148	0,033	-0,005
-402,482	321,144	-0,119	0,162
-401,467	-156,184	0,112	0,005
-400,452	-95,646	0,097	0,018
-399,438	-84,945	-0,078	-0,017
-398,423	800,000	0,039	-0,088
-397,409	-8,522	-0,056	-0,027
-396,394	-51,609	0,014	0,005
-395,379	-200,000	-0,018	-0,086
-394,365	139,345	0,080	-0,075
-393,350	351,888	0,068	0,096
-392,336	92,386	0,094	0,076
-391,321	139,366	-0,080	0,075
-390,306	536,211	-0,093	-0,158
-389,292	93,194	0,040	0,033
-388,277	-200,000	-0,020	0,099
-387,263	-165,178	0,115	-0,004
-386,248	-200,000	0,002	0,071
-385,233	157,536	-0,068	-0,067
-384,219	11,398	-0,059	0,032
-383,204	800,000	0,041	-0,096
-382,190	-69,257	0,080	0,022
-381,175	-146,573	-0,134	-0,008
-380,160	394,139	-0,039	-0,058
-379,146	-200,000	-0,031	0,128
-378,131	-129,800	0,127	-0,012
-377,117	54,495	0,065	0,045
-376,102	-19,697	-0,181	-0,080
-375,088	18,906	-0,089	-0,051
-374,073	-75,997	-0,013	-0,003
-373,058	-138,031	0,023	0,002
-372,044	800,000	-0,095	0,220
-371,029	-200,000	-0,005	0,027
-370,015	-141,531	-0,040	0,003
-369,000	97,822	-0,057	0,047
-367,985	-200,000	-0,039	-0,175
-366,971	-110,821	-0,118	0,017
-365,956	-200,000	0,026	0,094
-364,942	-200,000	-0,008	0,117
-363,927	93,759	-0,060	-0,048
-362,912	-76,478	0,037	0,009
-361,898	-200,000	-0,011	-0,209
-360,883	-55,026	-0,192	0,061
-359,869	410,586	0,044	0,066
-358,854	-200,000	0,012	0,100
-357,839	203,602	0,065	0,072
-356,825	23,810	0,113	0,066
-355,810	-68,956	0,215	-0,059
-354,796	-200,000	-0,011	-0,044
-353,781	-79,367	0,090	-0,022
-352,766	101,616	0,024	0,020
-351,752	-5,874	-0,092	0,045
-350,737	-65,339	0,090	0,026
-349,723	-150,528	-0,056	-0,003
-348,708	-97,126	-0,035	0,006
-347,693	451,330	-0,060	0,095
-346,679	800,000	-0,037	-0,080
-345,664	129,557	0,094	-0,086
-344,650	263,139	0,030	0,038
-343,635	-142,431	0,145	-0,010
-342,620	775,692	0,056	0,109
-341,606	-89,769	0,123	-0,026
-340,591	-60,870	0,061	-0,018
-339,577	-42,998	0,083	0,030
-338,562	-200,000	-0,008	-0,119
-337,548	35,584	0,036	-0,022
-336,533	648,972	0,054	0,098
-335,518	-54,542	0,037	0,012
-334,504	-200,000	-0,018	0,088
-333,489	23,201	0,095	0,056
-332,475	-200,000	0,041	0,134
-331,460	-51,015	0,072	-0,024
-330,445	-200,000	-0,007	-0,054
-329,431	82,938	0,104	-0,081
-328,416	-200,000	-0,011	-0,071
-327,402	76,807	0,045	-0,034
-326,387	587,819	0,079	0,140
-325,372	31,321	-0,108	-0,066
-324,358	489,381	-0,084	-0,138
-323,343	-12,934	-0,068	-0,031
-322,329	-200,000	0,017	-0,100
-321,314	-200,000	-0,003	0,072
-320,299	-156,359	-0,057	0,002
-319,285	-200,000	-0,000	-0,061
-318,270	507,141	0,052	-0,086
-317,256	-40,701	-0,138	-0,051
-316,241	-200,000	0,044	-0,209
-315,226	-200,000	-0,009	0,113
-314,212	339,319	-0,039	0,054
-313,197	410,432	-0,031	-0,047
-312,183	94,946	-0,113	0,092
-311,168	294,640	-0,084	-0,110
-310,153	-200,000	-0,000	0,090
-309,139	800,000	-0,037	0,093
-308,124	-200,000	0,038	-0,141
-307,110	800,000	-0,058	0,129
-306,095	-200,000	0,010	0,063
-305,080	-200,000	0,010	0,082
-304,066	-43,780	0,057	-0,020
-303,051	-41,992	-0,057	0,021
-302,037	395,047	-0,041	-0,061
-301,022	800,000	0,043	0,092
-300,008	176,422	-0,089	0,092
-298,993	535,267	0,085	0,144
-297,978	-22,412	-0,047	0,020
-296,964	-200,000	-0,015	-0,133
-295,949	0,034	0,030	-0,015
-294,935	435,366	-0,064	-0,100
-293,920	-200,000	0,003	-0,045
-292,905	-200,000	0,008	0,039
-291,891	60,138	-0,164	0,115
-290,876	-5,245	0,089	0,043
-289,862	-85,327	-0,127	0,028
-288,847	-200,000	-0,021	0,175
-287,832	-82,968	-0,035	-0,008
-286,818	279,434	0,014	0,018
-285,803	-200,000	0,004	0,086
-284,789	800,000	-0,029	0,086
-283,774	264,660	0,026	-0,032
-282,759	800,000	-0,065	-0,156
-281,745	-135,024	0,119	-0,010
-280,730	-123,184	-0,079	0,009
-279,716	407,480	-0,036	0,055
-278,701	-200,000	-0,007	0,074
-277,686	190,994	-0,106	0,114
-276,672	486,032	-0,008	0,012
-275,657	65,319	0,077	-0,056
-274,643	71,152	-0,085	-0,063
-273,628	71,162	0,028	-0,021
-272,613	-200,000	-0,011	-0,154
-271,599	70,373	-0,028	0,020
-270,584	800,000	0,015	0,032
-269,570	-92,839	0,063	0,012
-268,555	248,754	0,106	-0,127
-267,540	-40,257	-0,208	-0,076
-266,526	-200,000	-0,002	-0,175
-265,511	-24,639	0,074	-0,031
-264,497	-192,705	-0,099	-0,001
-263,482	163,002	0,070	0,070
-262,467	-150,255	-0,044	0,002
-261,453	-97,803	0,212	0,039
-260,438	-35,287	-0,142	0,055
-259,424	-46,891	0,038	-0,013
-258,409	323,535	-0,039	-0,053
-257,395	800,000	-0,045	0,109
-256,380	800,000	0,034	0,094
-255,365	-102,732	-0,083	-0,014
-254,351	-68,188	-0,167	-0,046
-253,336	108,569	0,092	-0,078
-252,322	278,194	0,055	-0,069
-251,307	-200,000	0,024	0,157
-250,292	-200,000	0,019	-0,122
-249,278	-200,000	0,012	0,065
-248,263	81,206	0,105	0,081
-247,249	-200,000	0,002	-0,108
-246,234	-200,000	0,017	0,130
-245,219	139,397	-0,041	-0,038
-244,205	800,000	0,060	-0,128
-243,190	51,598	-0,053	-0,036
-242,176	-85,491	-0,157	-0,035
-241,161	800,000	0,097	0,207
-240,146	139,493	0,036	0,033
-239,132	800,000	-0,060	-0,130
-238,117	-88,994	0,009	-0,002
-237,103	800,000	-0,005	-0,013
-236,088	683,175	-0,029	-0,053
-235,073	504,097	0,033	0,055
-234,059	800,000	-0,071	0,166
-233,044	16,121	0,206	0,115
-232,030	-200,000	-0,029	0,123
-231,015	-200,000	-0,021	0,123
-230,000	64,220	-0,120	-0,086
-228,986	153,416	0,093	0,091
-227,971	-60,172	0,130	-0,039
-226,957	-200,000	-0,010	0,230
-225,942	800,000	0,049	0,105
-224,927	603,497	-0,055	0,098
-223,913	656,955	-0,041	0,075
-222,898	-200,000	0,003	0,027
-221,884	1,627	-0,070	0,036
-220,869	-87,158	0,176	0,038
-219,855	-53,768	0,184	-0,059
-218,840	-35,559	-0,013	0,005
-217,825	-200,000	0,022	0,115
-216,811	800,000	0,038	-0,095
-215,796	-200,000	0,000	0,027
-214,782	-69,139	-0,075	0,020
-213,767	-124,512	0,178	0,019
-212,752	38,624	-0,153	-0,097
-211,738	-200,000	-0,022	0,246
-210,723	-200,000	0,009	0,091
-209,709	21,562	-0,102	-0,059
-208,694	-200,000	0,021	0,104
-207,679	26,868	0,156	-0,093
-206,665	123,017	0,042	0,037
-205,650	-42,142	0,087	-0,031
-204,636	-134,129	0,047	0,004
-203,621	-150,670	-0,060	-0,003
-202,606	800,000	0,058	0,115
-201,592	-176,671	0,172	0,003
-200,577	800,000	-0,022	-0,048
-199,563	-200,000	0,026	0,089
-198,548	-59,720	0,049	0,015
-197,533	62,298	-0,116	0,082
-196,519	-200,000	0,014	0,086
-195,504	87,405	0,098	0,077
-194,490	486,417	-0,045	0,073
-193,475	-172,116	-0,025	0,001
-192,460	159,472	-0,047	0,046
-191,446	95,624	0,081	0,065
-190,431	-25,039	-0,035	0,015
-189,417	48,799	-0,164	-0,109
-188,402	800,000	0,013	0,035
-187,387	249,825	-0,065	-0,078
-186,373	89,646	-0,061	-0,048
-185,358	-200,000	0,010	0,054
-184,344	15,283	0,062	0,034
-183,329	-200,000	0,006	0,063
-182,315	231,517	0,046	0,054
-181,300	-120,889	-0,129	0,015
-180,285	59,759	-0,017	0,012
-179,271	10,939	-0,026	0,014
-178,256	-146,380	-0,110	-0,007
-177,242	215,075	0,124	0,140
-176,227	152,375	0,117	0,113
-175,212	800,000	0,062	0,128
-174,198	-58,764	-0,046	-0,014
-173,183	-13,600	0,042	0,019
-172,169	-200,000	-0,001	-0,052
-171,154	167,772	-0,042	0,042
-170,139	-200,000	0,004	0,052
-169,125	-47,653	0,159	0,054
-168,110	-41,433	0,137	0,050
-167,096	-200,000	0,001	-0,092
-166,081	-66,094	0,038	0,011
-165,066	23,884	0,119	-0,070
-164,052	-148,346	-0,022	0,001
-163,037	67,999	0,048	0,035
-162,023	-48,680	0,013	0,005
-161,008	518,751	0,060	0,100
-159,993	-200,000	0,025	0,078
-158,979	54,580	-0,103	-0,070
-157,964	-200,000	-0,040	-0,144
-156,950	-200,000	0,011	0,035
-155,935	224,330	-0,068	0,078
-154,920	-177,362	-0,062	-0,001
-153,906	-28,658	-0,106	0,043
-152,891	718,534	0,067	-0,126
-151,877	-200,000	-0,026	0,096
-150,862	350,964	-0,078	-0,109
-149,847	-26,435	0,144	0,060
-148,833	-200,000	0,030	0,094
-147,818	597,954	0,024	0,042
-146,804	11,124	-0,127	0,069
-145,789	-165,989	-0,087	0,003
-144,775	-74,117	0,082	-0,021
-143,760	800,000	-0,046	-0,116
-142,745	-200,000	0,035	-0,136
-141,731	800,000	-0,078	-0,196
-140,716	-200,000	0,011	0,039
-139,702	315,392	0,043	0,058
-138,687	-200,000	-0,008	0,109
-137,672	800,000	-0,036	0,082
-136,658	800,000	-0,020	-0,051
-135,643	-200,000	-0,004	-0,104
-134,629	479,675	-0,066	-0,107
-133,614	238,191	0,147	0,173
-132,599	74,491	0,066	0,049
-131,585	370,535	0,112	0,161
-130,570	-200,000	0,014	0,087
-129,556	122,033	-0,089	0,079
-128,541	800,000	-0,017	0,042
-127,526	71,436	0,104	0,076
-126,512	222,700	0,047	-0,054
-125,497	-200,000	0,046	0,209
-124,483	-94,867	0,121	0,023
-123,468	435,574	-0,073	0,113
-122,453	-57,252	0,078	-0,024
-121,439	-200,000	0,004	-0,102
-120,424	190,910	0,045	-0,048
-119,410	-200,000	-0,007	-0,025
-118,395	-200,000	0,007	0,080
-117,380	-200,000	-0,003	-0,101
-116,366	360,293	0,039	0,055
-115,351	800,000	0,073	-0,179
-114,337	115,282	-0,168	0,145
-113,322	-99,519	-0,091	-0,016
-112,307	114,708	0,046	0,040
-111,293	800,000	-0,082	0,179
-110,278	-200,000	0,031	0,231
-109,264	800,000	0,071	0,160
-108,249	114,667	-0,013	0,011
-107,234	199,777	-0,052	0,057
-106,220	0,855	0,069	-0,035
-105,205	-58,267	0,170	-0,052
-104,191	800,000	-0,025	0,055
-103,176	-120,491	0,060	-0,007
-102,162	800,000	0,032	0,088
-101,147	351,062	-0,018	-0,025
-100,132	-55,236	-0,056	-0,018
-99,118	506,585	0,091	0,149
-98,103	105,824	-0,056	0,047
-97,089	-15,233	-0,025	0,011
-96,074	31,206	0,132	0,080
-95,059	457,004	-0,099	0,157
-94,045	-200,000	-0,006	0,139
-93,030	-124,338	-0,127	-0,014
-92,016	-200,000	-0,010	0,039
-91,001	-200,000	0,018	0,138
-89,986	-90,568	-0,084	0,017
-88,972	-80,249	0,137	0,032
-87,957	-161,808	-0,071	0,003
-86,943	-200,000	-0,010	0,121
-85,928	800,000	0,036	-0,107
-84,913	-200,000	-0,007	-0,040
-83,899	-166,930	-0,054	0,002
-82,884	74,387	0,182	0,135
-81,870	372,291	0,058	-0,083
-80,855	-200,000	0,017	0,131
-79,840	-7,071	0,043	-0,020
-78,826	323,611	-0,085	-0,114
-77,811	-200,000	-0,037	-0,120
-76,797	767,512	0,068	-0,130
-75,782	-118,706	0,077	-0,009
-74,767	361,612	0,054	0,077
-73,753	-200,000	0,011	0,051
-72,738	-200,000	-0,026	0,116
-71,724	800,000	-0,021	-0,044
-70,709	-140,309	-0,139	0,010
-69,694	49,681	0,045	-0,030
-68,680	100,005	-0,134	0,109
-67,665	-200,000	0,012	0,111
-66,651	329,021	0,019	0,026
-65,636	-107,757	0,055	0,008
-64,622	-162,260	0,094	-0,003
-63,607	-103,173	-0,177	0,029
-62,592	-200,000	0,045	-0,163
-61,578	189,255	-0,039	0,042
-60,563	-22,746	0,072	0,031
-59,549	800,000	-0,047	0,093
-58,534	55,865	-2,095	-1,432
-57,519	468,189	-1,192	-1,894
-56,505	-200,000	-0,292	-4,222
-55,490	609,486	0,900	1,593
-54,476	800,000	5,185	11,090
-53,461	-200,000	22,028	340,343
-52,446	800,000	757,341	2297,232
-51,432	533,669	1648,685	2766,528
-50,417	68,764	1646,692	1191,328
-49,403	16,264	1521,795	844,766
-48,388	10,417	1446,607	774,943
-47,373	19,169	1438,797	812,437
-46,359	13,894	1427,558	781,155
-45,344	8,728	1423,554	754,498
-44,330	8,682	1421,747	753,295
-43,315	8,699	1419,827	752,328
-42,300	8,643	1418,226	751,186
-41,286	8,695	1416,917	750,708
-40,271	8,619	1415,639	749,643
-39,257	8,600	1414,557	748,952
-38,242	8,661	1413,204	748,493
-37,227	8,628	1412,236	747,791
-36,213	8,709	1410,697	747,328
-35,198	8,696	1409,744	746,734
-34,184	8,730	1408,686	746,303
-33,169	8,615	1407,385	745,048
-32,154	8,648	1406,558	744,733
-31,140	8,655	1404,924	743,871
-30,125	8,643	1404,160	743,379
-29,111	8,641	1402,988	742,720
-28,096	8,682	1401,601	742,148
-27,082	8,580	1400,622	741,126
-26,067	8,577	1399,524	740,501
-25,052	8,612	1398,290	739,984
-24,038	8,635	1397,263	739,515
-23,023	8,601	1396,586	738,972
-22,009	8,599	1395,379	738,295
-20,994	8,616	1394,168	737,700
-19,979	8,576	1393,429	737,096
-18,965	8,580	1392,580	736,634
-17,950	8,551	1391,438	735,868
-16,936	8,529	1390,678	735,334
-15,921	8,502	1389,773	734,704
-14,906	8,552	1388,707	734,340
-13,892	8,594	1387,561	733,902
-12,877	8,514	1387,046	733,228
-11,863	8,515	1386,190	732,753
-10,848	8,536	1385,241	732,317
-9,833	8,475	1384,435	731,582
-8,819	8,460	1383,341	730,907
-7,804	8,446	1382,521	730,378
-6,790	8,419	1381,637	729,760
-5,775	8,415	1380,402	729,058
-4,760	8,423	1379,761	728,727
-3,746	8,464	1378,594	728,272
-2,731	8,466	1377,828	727,848
-1,717	8,454	1376,909	727,279
-0,702	8,415	1375,297	726,220
0,313	12,481	1287,035	698,039
1,327	28,426	679,952	404,444
2,342	43,993	117,148	75,573
3,356	1,058	16,484	8,310
4,371	-0,409	3,897	1,945
5,386	26,513	1,254	0,738
6,400	615,101	0,380	0,673
7,415	-89,041	-0,069	-0,014
8,429	14,290	-0,226	-0,124
9,444	-106,352	-0,358	-0,056
10,459	-5,346	-0,270	-0,130
11,473	53,507	-0,258	-0,174
12,488	-151,576	-0,354	0,018
13,502	28,448	-0,180	-0,107
14,517	59,578	-0,267	-0,185
15,531	-68,843	-0,424	-0,114
16,546	21,956	-0,322	-0,185
17,561	88,718	-0,318	-0,249
18,575	-29,076	-0,206	-0,083
19,590	65,534	-0,211	-0,150
20,604	-77,803	-0,187	0,045
21,619	13,589	-0,526	-0,286
22,634	71,824	-0,398	-0,291
23,648	149,891	-0,291	-0,278
24,663	4,885	-0,383	-0,198
25,677	91,676	-0,272	-0,215
26,692	67,644	-0,319	-0,229
27,707	111,647	-0,314	-0,267
28,721	-48,650	-0,428	-0,144
29,736	73,033	-0,248	-0,182
30,750	107,911	-0,368	-0,309
31,765	29,216	-0,321	-0,191
32,780	143,168	-0,352	-0,329
33,794	48,781	-0,367	-0,242
34,809	800,000	-0,154	-0,325
35,823	155,981	-0,359	-0,349
36,838	5,209	-0,462	-0,238
37,853	296,452	-0,194	-0,251
38,867	167,486	-0,393	-0,393
39,882	43,616	-0,368	-0,236
40,896	156,100	-0,271	-0,263
41,911	182,507	-0,223	-0,232
42,926	45,328	-0,297	-0,192
43,940	133,774	-0,328	-0,299
44,955	77,184	-0,338	-0,252
45,969	49,354	-0,334	-0,221
46,984	88,153	-0,226	-0,176
47,999	133,598	-0,278	-0,253
49,013	13,519	-0,358	-0,195
50,028	-31,236	-0,289	-0,114
51,042	57,296	-0,437	-0,299
52,057	-36,273	-0,379	-0,143
53,071	121,624	-0,282	-0,247
54,086	74,006	-0,202	-0,149
55,101	88,111	-0,188	-0,146
56,115	11,728	-0,313	-0,168
57,130	-4,381	-0,358	-0,173
58,144	128,297	-0,275	-0,246
59,159	15,345	-0,368	-0,202
60,174	-27,847	-0,353	-0,143
61,188	69,932	-0,236	-0,170
62,203	-46,623	-0,371	-0,127
63,217	-35,410	-0,388	-0,147
64,232	65,286	-0,175	-0,124
65,247	-19,192	-0,378	-0,164
66,261	43,014	-0,385	-0,246
67,276	8,497	-0,349	-0,184
68,290	19,852	-0,278	-0,157
69,305	46,561	-0,283	-0,184
70,320	523,319	-0,198	-0,327
71,334	-12,434	-0,256	-0,117
72,349	105,628	-0,328	-0,272
73,363	630,953	-0,175	-0,311
74,378	-35,561	-0,343	-0,130
75,393	-36,392	-0,360	-0,135
76,407	10,952	-0,303	-0,162
77,422	-12,120	-0,214	-0,098
78,436	-6,292	-0,279	-0,133
79,451	98,637	-0,351	-0,283
80,466	41,492	-0,329	-0,208
81,480	203,548	-0,202	-0,219
82,495	-12,665	-0,258	-0,117
83,509	11,663	-0,296	-0,158
84,524	-27,950	-0,337	-0,136
85,539	-19,547	-0,322	-0,139
86,553	-102,423	-0,282	-0,047
87,568	235,086	-0,307	-0,355
88,582	-5,576	-0,380	-0,182
89,597	155,358	-0,163	-0,157
90,611	82,546	-0,182	-0,138
91,626	-59,871	-0,357	-0,106
92,641	9,690	-0,257	-0,136
93,655	-101,592	-0,373	-0,063
94,670	45,493	-0,303	-0,195
95,684	-18,827	-0,324	-0,141
96,699	60,658	-0,235	-0,163
97,714	332,458	-0,267	-0,361
98,728	133,243	-0,228	-0,206
99,743	264,342	-0,191	-0,233
100,757	48,271	-0,157	-0,102
101,772	-1,081	-0,305	-0,150
102,787	413,064	-0,191	-0,284
103,801	48,404	-0,184	-0,120
104,816	800,000	-0,069	-0,200
105,830	-107,526	-0,335	-0,051
106,845	53,135	-0,354	-0,236
107,860	51,859	-0,297	-0,197
108,874	91,474	-0,339	-0,266
109,889	174,474	-0,363	-0,367
110,903	-30,570	-0,233	-0,092
111,918	-56,968	-0,229	-0,070
112,933	-72,171	-0,235	-0,060
113,947	68,324	-0,246	-0,176
114,962	-147,199	-0,260	-0,015
115,976	-58,204	-0,344	-0,104
116,991	193,756	-0,217	-0,230
118,006	-10,816	-0,322	-0,148
119,020	-157,165	-0,199	-0,008
120,035	-86,530	-0,241	-0,051
121,049	800,000	-0,082	-0,178
122,064	56,673	-0,261	-0,177
123,079	610,199	-0,105	-0,184
124,093	-95,233	-0,311	-0,058
125,108	290,558	-0,211	-0,268
126,122	98,675	-0,113	-0,091
127,137	-3,591	-0,365	-0,176
128,151	280,238	-0,190	-0,238
129,166	84,936	-0,246	-0,188
130,181	32,376	-0,342	-0,206
131,195	434,398	-0,131	-0,199
132,210	-70,110	-0,268	-0,071
133,224	193,704	-0,252	-0,266
134,239	800,000	-0,078	-0,197
135,254	485,836	-0,151	-0,240
136,268	85,295	-0,259	-0,198
137,283	42,945	-0,143	-0,091
138,297	73,272	-0,256	-0,187
139,312	-43,526	-0,404	-0,141
140,327	419,972	-0,102	-0,153
141,341	205,205	-0,090	-0,098
142,356	-146,458	-0,209	0,013
143,370	-32,384	-0,168	-0,065
144,385	469,128	-0,192	-0,301
145,400	208,441	-0,225	-0,245
146,414	46,149	-0,267	-0,172
147,429	62,285	-0,241	-0,167
148,443	233,963	-0,274	-0,315
149,458	108,874	-0,169	-0,141
150,473	49,748	-0,289	-0,189
151,487	102,628	-0,163	-0,133
152,502	12,382	-0,391	-0,209
153,516	146,220	-0,240	-0,224
154,531	414,168	-0,204	-0,304
155,546	241,162	-0,319	-0,371
156,560	139,131	-0,173	-0,158
157,575	3,954	-0,121	-0,061
158,589	336,714	-0,154	-0,209
159,604	63,531	-0,215	-0,150
160,619	137,262	-0,282	-0,256
161,633	255,030	-0,144	-0,172
162,648	38,098	-0,245	-0,151
163,662	-8,240	-0,224	-0,105
164,677	-20,031	-0,232	-0,099
165,692	-63,005	-0,325	-0,093
166,706	-59,071	-0,208	-0,062
167,721	46,299	-0,227	-0,146
168,735	580,121	-0,163	-0,279
169,750	82,858	-0,232	-0,175
170,764	596,816	-0,205	-0,355
171,779	347,255	-0,134	-0,184
172,794	-200,000	-0,072	-0,225
173,808	456,902	-0,103	-0,159
174,823	-20,111	-0,196	-0,083
175,837	443,008	-0,205	-0,313
176,852	488,297	-0,159	-0,253
177,867	-24,661	-0,254	-0,105
178,881	302,105	-0,167	-0,215
179,896	-10,999	-0,150	-0,069
180,910	-137,691	-0,211	-0,016
181,925	-40,075	-0,181	-0,065
182,940	25,760	-0,376	-0,217
183,954	503,677	-0,129	-0,207
184,969	208,572	-0,125	-0,136
185,983	185,528	-0,147	-0,152
186,998	189,666	-0,251	-0,262
188,013	13,111	-0,207	-0,111
189,027	62,104	-0,290	-0,200
190,042	30,422	-0,298	-0,176
191,056	50,684	-0,213	-0,139
192,071	800,000	-0,068	-0,181
193,086	800,000	-0,086	-0,208
194,100	116,230	-0,207	-0,176
195,115	800,000	-0,101	-0,242
196,129	40,042	-0,117	-0,073
197,144	151,647	-0,170	-0,161
198,159	115,925	-0,074	-0,063
199,173	-36,501	-0,261	-0,097
200,188	186,986	-0,208	-0,215
201,202	408,426	-0,139	-0,204
202,217	176,431	-0,235	-0,236
203,232	785,888	-0,019	-0,036
204,246	191,775	-0,208	-0,218
205,261	484,577	-0,108	-0,170
206,275	429,072	-0,163	-0,245
207,290	109,659	-0,158	-0,131
208,304	-46,780	-0,118	-0,040
209,319	-37,884	-0,319	-0,117
210,334	135,505	-0,223	-0,201
211,348	63,732	-0,292	-0,203
212,363	87,477	-0,228	-0,175
213,377	75,822	-0,230	-0,168
214,392	73,172	-0,274	-0,198
215,407	-200,000	-0,013	-0,102
216,421	714,411	-0,086	-0,158
217,436	19,984	-0,199	-0,111
218,450	-7,711	-0,172	-0,080
219,465	170,635	-0,152	-0,151
220,480	-100,092	-0,187	-0,032
221,494	78,035	-0,160	-0,118
222,509	235,076	-0,103	-0,118
223,523	238,319	-0,080	-0,091
224,538	-200,000	-0,026	-0,171
225,553	40,892	-0,199	-0,124
226,567	138,108	-0,085	-0,077
227,582	-24,122	-0,274	-0,113
228,596	123,886	-0,142	-0,123
229,611	666,015	-0,090	-0,161
230,626	389,559	-0,072	-0,103
231,640	-45,185	-0,131	-0,045
232,655	169,651	-0,233	-0,230
233,669	396,852	-0,185	-0,267
234,684	396,759	-0,155	-0,225
235,699	353,940	-0,128	-0,177
236,713	118,577	-0,123	-0,105
237,728	-53,036	-0,153	-0,048
238,742	49,474	-0,179	-0,116
239,757	-45,335	-0,283	-0,097
240,772	218,949	-0,218	-0,241
241,786	-46,855	-0,287	-0,096
242,801	800,000	-0,085	-0,235
243,815	-200,000	-0,042	-0,194
244,830	800,000	-0,065	-0,186
245,844	-43,769	-0,252	-0,087
246,859	51,509	-0,288	-0,189
247,874	-2,432	-0,212	-0,102
248,888	53,133	-0,159	-0,105
249,903	38,835	-0,235	-0,145
250,917	248,286	-0,110	-0,128
251,932	53,235	-0,161	-0,107
252,947	55,486	-0,296	-0,197
253,961	706,655	-0,136	-0,249
254,976	-43,803	-0,199	-0,069
255,990	306,325	-0,169	-0,217
257,005	800,000	-0,075	-0,187
258,020	-58,120	-0,277	-0,083
259,034	170,798	-0,148	-0,147
260,049	258,474	-0,156	-0,186
261,063	-18,182	-0,248	-0,106
262,078	449,062	-0,101	-0,154
263,093	93,398	-0,123	-0,096
264,107	-5,876	-0,167	-0,078
265,122	378,885	-0,102	-0,144
266,136	122,163	-0,113	-0,097
267,151	519,334	-0,069	0,112
268,166	106,996	-0,177	-0,145
269,180	96,223	-0,171	-0,135
270,195	78,352	-0,236	-0,173
271,209	108,038	-0,058	-0,048
272,224	335,660	-0,089	-0,119
273,239	344,783	-0,101	-0,137
274,253	-200,000	-0,030	-0,171
275,268	166,570	-0,218	-0,213
276,282	238,137	-0,187	-0,214
277,297	-29,586	-0,311	-0,122
278,312	-33,893	-0,190	-0,072
279,326	800,000	-0,071	-0,145
280,341	156,428	-0,171	-0,163
281,355	247,719	-0,126	-0,146
282,370	92,295	-0,169	-0,131
283,384	800,000	-0,074	-0,150
284,399	322,168	-0,160	-0,211
285,414	101,306	-0,074	-0,059
286,428	800,000	-0,126	-0,246
287,443	-52,982	-0,174	-0,055
288,457	-200,000	-0,027	-0,087
289,472	180,130	-0,042	-0,042
290,487	-1,559	-0,184	-0,089
291,501	429,423	-0,090	-0,134
292,516	114,951	-0,166	-0,139
293,530	108,294	-0,097	-0,080
294,545	-89,351	-0,115	-0,023
295,560	484,938	-0,064	-0,101
296,574	-93,403	-0,161	-0,030
297,589	447,456	-0,036	-0,054
298,603	173,921	-0,173	-0,172
299,618	-200,000	-0,042	-0,193
300,633	-58,322	-0,156	-0,046
301,647	477,080	-0,097	-0,152
302,662	-71,981	-0,131	-0,033
303,676	-129,411	-0,154	0,014
304,691	-200,000	-0,003	-0,068
305,706	451,110	-0,178	-0,271
306,720	800,000	-0,060	-0,134
307,735	118,438	-0,046	0,039
308,749	220,114	-0,088	-0,097
309,764	-106,125	-0,176	-0,027
310,779	197,747	-0,189	-0,199
311,793	722,095	-0,124	-0,227
312,808	-200,000	-0,046	-0,169
313,822	800,000	-0,045	-0,118
314,837	270,139	-0,097	-0,117
315,852	535,655	-0,142	-0,232
316,866	-145,030	-0,170	-0,010
317,881	-162,873	-0,174	-0,006
318,895	122,026	-0,103	-0,088
319,910	127,958	-0,092	-0,080
320,925	33,145	-0,115	-0,068
321,939	180,307	-0,097	-0,097
322,954	-61,781	-0,157	0,045
323,968	-83,575	-0,042	-0,009
324,983	182,163	-0,072	-0,072
325,997	-40,877	-0,168	-0,059
327,012	145,151	-0,270	-0,248
328,027	-28,528	-0,213	-0,084
329,041	800,000	-0,081	-0,170
330,056	-200,000	-0,024	-0,104
331,070	28,723	-0,130	0,075
332,085	-60,244	-0,046	0,013
333,100	-91,984	-0,216	0,042
334,114	49,117	-0,082	-0,053
335,129	-23,021	-0,263	-0,108
336,143	299,367	-0,134	-0,170
337,158	10,045	-0,140	0,072
338,173	252,080	-0,111	-0,130
339,187	800,000	-0,101	-0,220
340,202	-91,570	-0,063	0,012
341,216	342,404	-0,152	-0,204
342,231	52,262	-0,158	-0,103
343,246	669,547	-0,119	-0,212
344,260	92,815	-0,096	-0,074
345,275	19,784	-0,222	-0,122
346,289	25,441	-0,099	-0,056
347,304	784,835	-0,139	-0,262
348,319	-134,741	-0,099	0,008
349,333	216,214	-0,193	-0,211
350,348	47,350	-0,025	0,016
351,362	-58,603	-0,167	-0,049
352,377	-200,000	0,009	-0,027
353,392	-63,840	-0,209	-0,058
354,406	702,824	-0,098	-0,177
355,421	207,440	1305,862	1394,840
356,435	159,580	1465,470	1395,315
