DTS Sentinel unit serial number:	SN410029Multiplexer serial number:	ORYXHardware model number:	OX2-SRSoftware version number:	ORYX F/W v4,00 Oryx Data Collector v3.7.2.0data status	okinstallation	B3 Nyhavnadifferential loss correction	single-endedforward channel	channel 1reverse channel	N/Adate	2023/12/01time	17:12:30forward acquisition time	300,00reverse acquisition time	0,00gamma	499,1914k internal	0,3205k external	0,3205temperature offset calibration	1,0000default loss term (dB/km)	0,3820temperature slope calibration	1,0000multiplexer offset coefficient	1,0000multiplexer slope coefficient	1,0000fibre end	0,00T internal ref (°C)	13,92T ext. ref 1 (°C)	0,11T ext. ref 2 (°C)	0,08length (m)	temperature (°C)	Stokes	anti-Stokes-744,400	207,645	-0,202	-0,229
-743,385	800,000	0,129	0,360
-742,371	274,385	-0,200	-0,258
-741,356	-200,000	0,051	0,372
-740,342	598,049	-0,093	-0,168
-739,327	179,684	-0,150	0,160
-738,312	284,580	-0,156	-0,205
-737,298	-200,000	-0,027	0,251
-736,283	599,918	-0,183	-0,330
-735,269	381,538	0,136	0,204
-734,254	185,173	-0,200	-0,216
-733,239	276,053	-0,164	0,212
-732,225	-75,775	-0,127	-0,032
-731,210	37,390	0,086	0,055
-730,196	508,450	0,041	0,070
-729,181	164,950	-0,065	-0,066
-728,167	90,470	-0,089	-0,072
-727,152	240,451	-0,032	-0,038
-726,137	-91,880	0,047	0,010
-725,123	-76,442	-0,069	-0,017
-724,108	77,702	0,096	-0,074
-723,094	231,946	-0,095	-0,114
-722,079	800,000	0,007	-0,013
-721,064	-110,925	-0,123	-0,018
-720,050	-200,000	0,166	-0,000
-719,035	-168,468	0,008	0,000
-718,021	-200,000	-0,010	0,161
-717,006	-14,848	-0,064	-0,029
-715,991	-200,000	-0,002	0,040
-714,977	45,168	-0,032	-0,021
-713,962	9,295	0,154	-0,084
-712,948	-149,869	0,178	0,010
-711,933	74,683	0,102	-0,078
-710,918	-200,000	-0,005	0,059
-709,904	346,796	-0,018	-0,026
-708,889	436,710	-0,087	-0,138
-707,875	-41,484	0,080	-0,030
-706,860	-69,050	-0,144	0,040
-705,845	-174,701	-0,152	0,003
-704,831	-112,196	0,200	-0,029
-703,816	76,710	-0,186	0,143
-702,802	800,000	0,023	0,067
-701,787	115,789	-0,102	-0,091
-700,772	-147,631	-0,133	0,008
-699,758	231,821	-0,079	-0,094
-698,743	566,404	-0,098	-0,174
-697,729	-118,487	0,077	0,010
-696,714	302,128	0,056	0,075
-695,699	227,689	0,081	0,095
-694,685	-200,000	0,013	-0,097
-693,670	249,694	-0,131	-0,161
-692,656	172,823	-0,080	-0,084
-691,641	800,000	0,069	0,185
-690,627	35,931	-0,061	-0,039
-689,612	195,267	-0,068	-0,075
-688,597	67,405	0,037	-0,028
-687,583	532,345	-0,064	-0,110
-686,568	800,000	0,029	0,074
-685,554	-80,214	-0,063	0,015
-684,539	290,244	0,043	-0,057
-683,524	-200,000	-0,009	0,077
-682,510	544,529	0,027	0,047
-681,495	105,001	-0,027	0,023
-680,481	53,665	0,048	-0,033
-679,466	-200,000	0,021	0,075
-678,451	43,028	-0,068	-0,045
-677,437	800,000	0,029	-0,085
-676,422	800,000	-0,036	-0,099
-675,408	-200,000	-0,006	-0,067
-674,393	46,857	-0,084	-0,056
-673,378	30,953	-0,121	-0,075
-672,364	574,708	-0,066	-0,118
-671,349	-200,000	-0,047	-0,193
-670,335	130,274	-0,008	0,008
-669,320	24,641	-0,017	-0,010
-668,305	-67,003	0,032	-0,009
-667,291	475,276	0,086	-0,141
-666,276	131,459	0,023	0,021
-665,262	180,892	-0,137	0,145
-664,247	591,794	0,047	-0,085
-663,232	427,528	-0,088	-0,138
-662,218	-32,214	0,130	-0,052
-661,203	-200,000	0,002	-0,088
-660,189	-21,370	-0,092	-0,040
-659,174	105,722	-0,083	-0,071
-658,159	144,570	-0,166	-0,160
-657,145	63,536	-0,100	-0,073
-656,130	271,071	-0,039	0,050
-655,116	-200,000	-0,019	-0,088
-654,101	301,765	-0,079	0,105
-653,086	62,027	-0,093	-0,067
-652,072	800,000	-0,016	0,037
-651,057	16,238	-0,132	0,075
-650,043	-109,991	0,117	-0,018
-649,028	293,882	-0,028	0,037
-648,014	-125,853	-0,138	0,015
-646,999	-200,000	0,007	-0,098
-645,984	467,107	0,024	-0,040
-644,970	695,914	-0,068	-0,131
-643,955	216,729	-0,026	0,030
-642,941	-200,000	-0,012	-0,240
-641,926	-73,189	-0,130	0,034
-640,911	-26,818	-0,084	0,035
-639,897	117,798	0,111	-0,099
-638,882	30,132	0,056	0,034
-637,868	-200,000	0,009	-0,032
-636,853	180,990	-0,110	-0,117
-635,838	-200,000	-0,014	0,056
-634,824	-200,000	-0,036	-0,191
-633,809	-166,460	0,069	0,002
-632,795	-20,256	-0,047	0,021
-631,780	-176,441	-0,159	0,003
-630,765	3,052	-0,061	-0,032
-629,751	800,000	0,022	0,045
-628,736	-12,504	0,112	-0,053
-627,722	-200,000	0,013	0,108
-626,707	800,000	0,037	-0,116
-625,692	447,993	0,046	-0,073
-624,678	-37,593	0,026	0,010
-623,663	-158,549	-0,097	0,004
-622,649	110,720	-0,056	-0,049
-621,634	-200,000	0,025	-0,113
-620,619	-200,000	-0,011	-0,113
-619,605	-32,147	-0,086	-0,035
-618,590	-200,000	0,018	0,089
-617,576	-82,414	0,121	-0,028
-616,561	195,424	-0,035	-0,039
-615,546	-138,045	-0,125	0,010
-614,532	800,000	-0,036	-0,101
-613,517	169,425	-0,132	-0,137
-612,503	-6,053	-0,073	0,036
-611,488	-86,010	0,047	-0,010
-610,474	310,459	-0,060	0,081
-609,459	486,372	-0,044	-0,072
-608,444	-14,412	-0,106	-0,049
-607,430	135,542	-0,048	0,045
-606,415	11,074	0,105	-0,058
-605,401	20,494	-0,099	-0,058
-604,386	-22,372	0,174	0,076
-603,371	-200,000	0,002	0,098
-602,357	-24,634	-0,149	0,064
-601,342	328,782	0,053	-0,074
-600,328	-200,000	-0,003	-0,059
-599,313	495,215	-0,094	-0,156
-598,298	-200,000	0,035	-0,137
-597,284	96,780	0,090	0,075
-596,269	656,109	-0,040	0,074
-595,255	-106,974	-0,043	-0,007
-594,240	155,242	0,082	-0,082
-593,225	800,000	-0,013	-0,037
-592,211	-200,000	0,007	-0,115
-591,196	191,971	-0,095	-0,104
-590,182	1,568	-0,021	-0,011
-589,167	-200,000	0,022	-0,160
-588,152	-74,829	-0,172	0,044
-587,138	-200,000	-0,000	-0,054
-586,123	129,118	-0,040	0,037
-585,109	47,433	-0,076	0,051
-584,094	-99,545	-0,126	-0,023
-583,079	173,089	-0,168	-0,175
-582,065	-65,315	-0,103	0,030
-581,050	234,039	-0,020	-0,024
-580,036	219,034	0,041	-0,047
-579,021	45,906	-0,040	-0,027
-578,006	-3,896	-0,115	-0,058
-576,992	-61,320	0,112	-0,034
-575,977	-200,000	-0,001	0,087
-574,963	-200,000	-0,027	0,142
-573,948	30,425	0,027	0,017
-572,934	27,319	-0,062	-0,038
-571,919	-26,944	-0,025	0,011
-570,904	72,627	-0,093	0,070
-569,890	-17,077	0,079	0,036
-568,875	-95,628	0,135	0,026
-567,861	115,152	-0,072	0,064
-566,846	48,678	-0,074	-0,050
-565,831	-96,765	-0,111	-0,021
-564,817	-125,529	0,039	-0,004
-563,802	-105,828	-0,084	-0,014
-562,788	-200,000	0,012	0,083
-561,773	-8,010	0,104	-0,051
-560,758	712,224	-0,059	0,113
-559,744	578,219	-0,006	0,010
-558,729	390,140	-0,061	-0,091
-557,715	7,130	-0,181	-0,097
-556,700	-69,855	-0,102	-0,028
-555,685	80,784	-0,074	-0,057
-554,671	-120,102	0,094	0,011
-553,656	-200,000	-0,011	-0,068
-552,642	88,051	0,095	0,076
-551,627	-200,000	0,007	0,152
-550,612	-200,000	0,008	-0,042
-549,598	297,797	-0,051	-0,068
-548,583	180,279	-0,016	0,016
-547,569	-98,889	0,051	-0,009
-546,554	7,277	-0,096	0,052
-545,539	-192,700	0,078	-0,000
-544,525	-1,212	0,137	0,070
-543,510	143,038	-0,078	-0,075
-542,496	373,282	-0,027	-0,039
-541,481	800,000	-0,028	0,065
-540,466	800,000	0,084	0,199
-539,452	80,824	-0,060	-0,046
-538,437	-82,602	-0,035	0,008
-537,423	-190,393	0,065	-0,000
-536,408	25,637	0,046	-0,028
-535,393	-134,964	-0,094	-0,008
-534,379	800,000	-0,020	-0,055
-533,364	208,700	-0,006	0,007
-532,350	243,757	0,080	0,097
-531,335	52,639	0,016	-0,011
-530,321	159,418	-0,048	0,048
-529,306	-83,148	-0,041	-0,009
-528,291	74,173	-0,120	0,091
-527,277	117,176	-0,098	-0,087
-526,262	35,896	-0,082	0,052
-525,248	354,026	-0,059	-0,085
-524,233	-139,674	0,152	-0,011
-523,218	-200,000	-0,000	0,095
-522,204	800,000	-0,054	0,116
-521,189	800,000	0,048	0,132
-520,175	-162,309	0,098	0,003
-519,160	-86,718	-0,133	0,029
-518,145	800,000	-0,055	0,135
-517,131	800,000	0,059	0,144
-516,116	-200,000	-0,011	0,059
-515,102	800,000	-0,072	0,147
-514,087	251,262	0,063	-0,077
-513,072	800,000	0,038	-0,096
-512,058	-158,590	-0,058	0,002
-511,043	-118,030	0,134	0,017
-510,029	428,319	0,055	-0,087
-509,014	-127,172	0,122	-0,013
-507,999	-200,000	-0,006	-0,183
-506,985	-25,148	-0,129	-0,055
-505,970	738,308	-0,087	-0,168
-504,956	-52,204	0,096	-0,032
-503,941	-182,294	0,140	0,002
-502,926	32,500	-0,051	0,032
-501,912	-200,000	-0,010	0,076
-500,897	800,000	-0,009	-0,027
-499,883	644,924	0,023	-0,042
-498,868	800,000	0,012	0,037
-497,853	13,214	-0,151	-0,084
-496,839	-101,270	0,100	-0,017
-495,824	-85,635	0,052	0,012
-494,810	-200,000	0,000	0,068
-493,795	105,734	-0,095	-0,081
-492,781	-16,014	-0,093	-0,042
-491,766	35,095	0,135	-0,085
-490,751	106,451	-0,043	-0,037
-489,737	245,553	-0,012	0,015
-488,722	-48,242	-0,113	-0,039
-487,708	87,914	0,062	0,049
-486,693	-17,259	0,036	-0,016
-485,678	251,320	-0,060	-0,074
-484,664	557,495	0,034	0,060
-483,649	800,000	0,043	0,089
-482,635	-200,000	0,016	-0,054
-481,620	-56,399	0,073	-0,023
-480,605	800,000	0,033	0,091
-479,591	-3,867	-0,070	-0,035
-478,576	17,051	0,084	0,048
-477,562	-143,362	0,102	0,007
-476,547	41,609	-0,119	0,077
-475,532	102,982	0,088	0,074
-474,518	563,156	0,056	0,098
-473,503	-200,000	-0,019	0,084
-472,489	800,000	-0,067	-0,141
-471,474	-200,000	0,016	0,069
-470,459	-80,292	-0,102	0,024
-469,445	800,000	-0,040	0,086
-468,430	800,000	0,026	0,081
-467,416	800,000	-0,037	-0,085
-466,401	-200,000	0,052	0,206
-465,386	-3,397	0,098	0,049
-464,372	207,465	-0,035	-0,039
-463,357	-200,000	0,006	0,029
-462,343	358,894	0,060	-0,086
-461,328	37,014	0,061	-0,039
-460,313	91,840	-0,080	-0,065
-459,299	302,210	0,026	0,035
-458,284	-200,000	0,029	0,154
-457,270	47,502	0,055	0,037
-456,255	-200,000	0,006	-0,088
-455,241	-200,000	-0,002	-0,048
-454,226	417,252	0,012	-0,018
-453,211	496,703	0,061	0,101
-452,197	-200,000	-0,023	0,116
-451,182	-49,619	0,064	-0,022
-450,168	-18,652	0,146	0,065
-449,153	8,993	-0,174	-0,094
-448,138	-1,979	0,110	-0,055
-447,124	84,791	-0,068	-0,054
-446,109	64,369	-0,064	-0,046
-445,095	213,818	0,039	0,044
-444,080	-87,716	-0,020	-0,004
-443,065	-200,000	0,004	0,025
-442,051	-200,000	-0,004	-0,016
-441,036	800,000	0,022	0,058
-440,022	-1,402	-0,143	-0,072
-439,007	489,460	0,006	0,010
-437,992	-200,000	0,004	0,037
-436,978	581,632	0,128	0,226
-435,963	175,679	-0,118	0,123
-434,949	-90,412	-0,128	-0,026
-433,934	800,000	-0,054	-0,169
-432,919	-200,000	0,018	0,078
-431,905	-88,527	-0,096	-0,020
-430,890	-200,000	0,025	0,118
-429,876	-3,313	0,019	-0,009
-428,861	477,685	0,039	-0,064
-427,846	73,992	-0,026	0,020
-426,832	-200,000	-0,007	0,163
-425,817	800,000	0,058	-0,127
-424,803	-154,235	-0,054	0,003
-423,788	29,000	0,102	0,062
-422,773	-24,564	0,130	-0,055
-421,759	-176,452	-0,115	0,002
-420,744	-58,936	-0,143	0,044
-419,730	72,226	0,121	-0,090
-418,715	-200,000	-0,003	-0,085
-417,701	-168,566	-0,071	-0,002
-416,686	-100,891	-0,014	0,002
-415,671	217,743	0,064	0,074
-414,657	-200,000	-0,011	-0,054
-413,642	214,517	-0,052	0,059
-412,628	-121,483	-0,141	-0,017
-411,613	-200,000	-0,006	0,059
-410,598	72,236	0,093	-0,069
-409,584	327,799	0,034	0,047
-408,569	-200,000	-0,031	-0,141
-407,555	-50,558	0,068	0,023
-406,540	-200,000	0,007	-0,084
-405,525	-200,000	0,023	0,123
-404,511	-200,000	0,006	-0,131
-403,496	-126,319	-0,215	0,023
-402,482	-200,000	-0,002	0,064
-401,467	-98,975	-0,169	-0,030
-400,452	0,522	0,093	0,048
-399,438	800,000	0,114	0,236
-398,423	164,546	-0,060	0,060
-397,409	-50,630	0,045	-0,015
-396,394	73,881	-0,045	-0,034
-395,379	-200,000	0,039	0,130
-394,365	291,932	-0,037	0,049
-393,350	-8,861	-0,060	-0,029
-392,336	800,000	0,023	0,066
-391,321	800,000	0,039	-0,091
-390,306	-200,000	-0,005	-0,148
-389,292	-61,669	0,103	0,031
-388,277	-131,692	-0,177	0,016
-387,263	-104,716	0,086	-0,014
-386,248	257,222	0,026	-0,032
-385,233	-200,000	-0,002	-0,008
-384,219	800,000	0,065	0,147
-383,204	-200,000	0,014	-0,063
-382,190	514,058	-0,048	-0,080
-381,175	283,369	-0,065	0,083
-380,160	-55,030	0,175	0,056
-379,146	141,906	0,068	0,064
-378,131	-70,285	0,024	0,006
-377,117	800,000	-0,023	-0,051
-376,102	-75,001	0,062	0,016
-375,088	-39,154	-0,139	0,052
-374,073	700,335	0,070	0,132
-373,058	-91,428	0,191	0,039
-372,044	-124,838	-0,147	0,016
-371,029	-53,100	0,159	0,052
-370,015	800,000	0,056	0,125
-369,000	348,498	-0,055	-0,078
-367,985	24,114	-0,035	0,020
-366,971	189,786	-0,080	-0,086
-365,956	54,078	0,061	-0,042
-364,942	50,733	0,001	0,001
-363,927	71,386	0,081	0,060
-362,912	46,086	0,125	0,083
-361,898	-52,175	0,048	-0,016
-360,883	-133,258	0,241	-0,021
-359,869	-158,206	0,082	-0,003
-358,854	86,524	-0,152	0,120
-357,839	463,885	0,024	-0,039
-356,825	-200,000	-0,006	0,137
-355,810	800,000	0,021	0,056
-354,796	800,000	-0,056	-0,139
-353,781	-200,000	-0,022	-0,090
-352,766	113,734	0,074	-0,064
-351,752	53,342	-0,026	0,017
-350,737	800,000	0,025	0,069
-349,723	-200,000	0,006	0,094
-348,708	358,707	0,026	0,037
-347,693	86,687	-0,101	0,080
-346,679	-113,477	0,038	-0,005
-345,664	-91,291	0,085	0,017
-344,650	123,915	-0,096	0,087
-343,635	471,185	0,025	0,041
-342,620	67,866	0,025	0,018
-341,606	22,052	-0,150	-0,087
-340,591	-118,027	-0,095	0,012
-339,577	-40,269	0,080	0,029
-338,562	-7,476	0,052	0,025
-337,548	52,319	-0,030	-0,020
-336,533	-200,000	-0,012	-0,073
-335,518	105,450	0,034	-0,028
-334,504	9,625	-0,024	0,013
-333,489	-59,628	0,060	-0,018
-332,475	444,188	0,007	0,012
-331,460	-200,000	-0,018	-0,092
-330,445	70,685	0,096	0,071
-329,431	-80,509	-0,045	0,011
-328,416	800,000	0,032	0,087
-327,402	230,375	-0,125	0,146
-326,387	-200,000	-0,004	0,077
-325,372	24,533	-0,113	-0,066
-324,358	430,510	-0,048	-0,075
-323,343	-200,000	-0,004	-0,103
-322,329	-200,000	0,007	-0,121
-321,314	18,484	0,105	0,060
-320,299	-200,000	-0,024	0,189
-319,285	116,649	0,103	-0,090
-318,270	14,508	0,134	0,075
-317,256	-139,207	0,098	0,007
-316,241	800,000	0,041	-0,116
-315,226	174,704	-0,101	0,104
-314,212	-200,000	0,008	-0,045
-313,197	235,098	0,047	0,055
-312,183	223,725	-0,008	-0,009
-311,168	800,000	-0,038	-0,110
-310,153	147,648	-0,063	-0,060
-309,139	-1,423	0,156	-0,078
-308,124	-20,288	0,075	-0,033
-307,110	460,680	0,080	0,128
-306,095	-0,646	-0,073	0,037
-305,080	-200,000	0,041	-0,131
-304,066	-14,222	0,093	-0,043
-303,051	-200,000	-0,017	-0,069
-302,037	-200,000	0,009	-0,162
-301,022	800,000	0,072	-0,195
-300,008	-19,299	-0,040	-0,018
-298,993	-200,000	0,036	-0,152
-297,978	188,735	-0,059	0,063
-296,964	-200,000	-0,004	-0,073
-295,949	634,946	-0,094	-0,171
-294,935	64,745	0,097	-0,070
-293,920	-200,000	0,016	-0,092
-292,905	24,626	0,163	0,096
-291,891	680,441	-0,051	0,095
-290,876	-130,982	-0,151	0,014
-289,862	-200,000	-0,019	-0,063
-288,847	-200,000	0,001	-0,041
-287,832	-200,000	0,004	0,059
-286,818	800,000	-0,026	-0,069
-285,803	553,581	0,065	-0,113
-284,789	10,239	0,061	-0,033
-283,774	71,755	0,009	-0,007
-282,759	-200,000	-0,010	-0,108
-281,745	239,066	-0,101	0,121
-280,730	424,298	-0,015	0,024
-279,716	-118,034	-0,111	0,014
-278,701	73,289	0,050	-0,037
-277,686	-200,000	-0,028	0,099
-276,672	-89,396	0,168	0,035
-275,657	-200,000	-0,037	-0,122
-274,643	200,343	0,066	0,072
-273,628	-29,536	-0,063	-0,026
-272,613	-88,763	-0,140	-0,029
-271,599	-37,198	0,031	0,012
-270,584	189,834	-0,037	-0,040
-269,570	-132,916	0,118	-0,011
-268,555	33,826	-0,075	0,047
-267,540	800,000	-0,034	-0,100
-266,526	481,754	0,043	-0,069
-265,511	-170,166	0,128	0,003
-264,497	-36,690	-0,035	0,013
-263,482	564,292	0,061	-0,107
-262,467	-175,003	0,055	0,001
-261,453	-200,000	0,007	0,102
-260,438	-115,675	-0,158	0,021
-259,424	-36,180	0,137	0,053
-258,409	-120,791	0,119	-0,014
-257,395	800,000	-0,029	0,090
-256,380	-200,000	-0,016	0,098
-255,365	-28,318	-0,064	0,026
-254,351	497,351	-0,040	-0,066
-253,336	-200,000	-0,002	-0,009
-252,322	519,125	-0,085	-0,142
-251,307	800,000	0,071	-0,175
-250,292	123,226	-0,088	0,079
-249,278	79,755	0,193	0,148
-248,263	-182,427	0,076	0,001
-247,249	-62,112	0,063	0,019
-246,234	-200,000	-0,001	0,075
-245,219	218,949	0,058	0,066
-244,205	-59,400	0,021	0,006
-243,190	-124,988	-0,049	-0,005
-242,176	-62,308	-0,029	0,008
-241,161	-200,000	0,048	0,160
-240,146	-200,000	0,025	0,123
-239,132	36,482	-0,062	0,039
-238,117	-200,000	-0,003	-0,051
-237,103	405,523	0,051	-0,077
-236,088	-69,354	0,120	-0,033
-235,073	-69,102	0,174	0,047
-234,059	39,312	-0,095	0,061
-233,044	-121,491	-0,134	-0,016
-232,030	-200,000	0,012	-0,115
-231,015	-200,000	-0,010	-0,034
-230,000	157,143	-0,048	-0,048
-228,986	62,415	-0,035	-0,025
-227,971	-200,000	0,001	-0,037
-226,957	471,803	-0,067	-0,108
-225,942	800,000	0,041	0,087
-224,927	90,085	0,117	0,093
-223,913	259,238	0,035	0,044
-222,898	101,603	-0,040	0,033
-221,884	800,000	-0,011	0,026
-220,869	-17,108	-0,055	-0,025
-219,855	362,402	-0,006	-0,009
-218,840	-158,793	0,029	-0,001
-217,825	-5,928	0,042	0,020
-216,811	-101,665	-0,142	0,024
-215,796	800,000	-0,002	-0,005
-214,782	800,000	0,063	-0,137
-213,767	-174,550	0,125	0,002
-212,752	800,000	0,031	0,093
-211,738	-200,000	-0,011	0,085
-210,723	-200,000	-0,002	-0,043
-209,709	150,570	-0,045	0,043
-208,694	800,000	0,044	-0,121
-207,679	-115,486	-0,159	-0,021
-206,665	66,449	0,039	-0,028
-205,650	449,664	0,052	0,082
-204,636	130,676	-0,104	0,095
-203,621	48,443	0,136	0,090
-202,606	-200,000	0,010	-0,159
-201,592	800,000	0,015	-0,043
-200,577	421,670	0,018	0,027
-199,563	19,327	0,102	0,058
-198,548	-200,000	0,005	0,090
-197,533	-132,722	-0,161	0,014
-196,519	143,111	-0,068	-0,064
-195,504	119,479	0,067	-0,059
-194,490	-105,721	-0,083	-0,013
-193,475	60,597	-0,130	0,091
-192,460	-99,319	0,073	0,013
-191,446	55,434	0,086	0,059
-190,431	800,000	-0,053	0,108
-189,417	800,000	-0,058	0,139
-188,402	-200,000	-0,008	0,035
-187,387	-107,288	0,199	0,031
-186,373	70,686	0,100	-0,073
-185,358	-200,000	0,001	-0,105
-184,344	800,000	0,059	0,117
-183,329	180,846	-0,063	0,066
-182,315	213,249	-0,028	0,031
-181,300	386,668	-0,049	0,071
-180,285	-200,000	-0,008	-0,063
-179,271	194,915	-0,061	-0,066
-178,256	312,218	-0,113	-0,151
-177,242	-51,180	0,131	-0,043
-176,227	179,251	0,105	0,109
-175,212	-200,000	0,001	0,094
-174,198	665,918	0,062	0,114
-173,183	-153,353	-0,160	-0,008
-172,169	70,831	0,041	-0,030
-171,154	-200,000	0,000	-0,038
-170,139	-75,241	0,101	-0,025
-169,125	-200,000	-0,016	-0,073
-168,110	-79,551	0,075	0,018
-167,096	-200,000	0,033	0,118
-166,081	-77,417	0,131	0,032
-165,066	0,685	-0,111	-0,056
-164,052	-200,000	-0,034	-0,162
-163,037	-52,938	0,187	0,061
-162,023	-144,178	0,172	0,011
-161,008	-200,000	-0,006	0,032
-159,993	-33,896	0,061	0,024
-158,979	547,216	-0,075	-0,129
-157,964	99,266	0,039	0,032
-156,950	-69,900	-0,170	-0,046
-155,935	84,751	0,160	0,124
-154,920	-44,362	0,077	-0,027
-153,906	170,478	0,140	0,143
-152,891	179,595	-0,020	0,021
-151,877	-117,567	-0,055	-0,007
-150,862	-141,707	-0,126	0,009
-149,847	353,975	-0,050	-0,071
-148,833	5,763	-0,082	-0,043
-147,818	105,079	-0,048	0,040
-146,804	-147,451	0,081	-0,005
-145,789	11,462	-0,053	0,029
-144,775	800,000	-0,039	-0,082
-143,760	-200,000	0,005	-0,078
-142,745	402,116	-0,021	-0,032
-141,731	676,917	-0,014	0,026
-140,716	23,479	0,157	-0,091
-139,702	800,000	0,041	0,123
-138,687	-117,762	0,152	0,019
-137,672	800,000	0,041	-0,101
-136,658	229,734	0,074	-0,085
-135,643	524,112	0,058	0,097
-134,629	611,150	0,037	-0,067
-133,614	411,959	0,065	-0,098
-132,599	177,890	-0,053	-0,055
-131,585	117,734	-0,063	-0,055
-130,570	141,404	-0,102	0,096
-129,556	-200,000	0,011	0,082
-128,541	256,342	-0,056	0,069
-127,526	-200,000	-0,006	-0,036
-126,512	-94,014	0,093	-0,018
-125,497	-200,000	0,006	0,140
-124,483	455,660	0,034	-0,054
-123,468	64,364	0,044	0,032
-122,453	373,248	0,034	0,048
-121,439	212,829	-0,067	0,075
-120,424	-200,000	-0,015	-0,052
-119,410	-34,261	-0,026	-0,010
-118,395	800,000	-0,023	0,050
-117,380	337,483	-0,065	-0,089
-116,366	-200,000	-0,002	0,201
-115,351	661,957	-0,042	-0,078
-114,337	-31,427	-0,164	-0,065
-113,322	800,000	-0,003	-0,005
-112,307	463,431	0,029	0,046
-111,293	255,315	-0,016	0,019
-110,278	-200,000	-0,015	0,100
-109,264	289,045	-0,083	-0,107
-108,249	-200,000	-0,014	-0,146
-107,234	-89,971	-0,030	-0,006
-106,220	749,853	-0,054	-0,105
-105,205	-200,000	0,010	-0,117
-104,191	-200,000	-0,006	-0,048
-103,176	277,593	-0,104	-0,131
-102,162	-200,000	0,002	0,098
-101,147	-152,071	0,103	0,005
-100,132	-200,000	-0,011	-0,105
-99,118	-54,489	0,010	-0,003
-98,103	-200,000	-0,026	-0,166
-97,089	-200,000	-0,003	0,041
-96,074	800,000	0,040	-0,080
-95,059	-200,000	0,041	0,135
-94,045	93,849	-0,129	0,104
-93,030	800,000	-0,078	-0,189
-92,016	-200,000	0,036	-0,114
-91,001	-200,000	0,014	-0,071
-89,986	-29,089	0,099	0,040
-88,972	800,000	0,051	0,131
-87,957	327,648	-0,041	0,056
-86,943	800,000	-0,059	-0,126
-85,928	-172,069	-0,159	-0,004
-84,913	-200,000	0,004	0,042
-83,899	-200,000	0,019	0,110
-82,884	-200,000	0,063	0,238
-81,870	52,881	0,161	0,109
-80,855	606,756	0,047	0,083
-79,840	800,000	-0,037	-0,083
-78,826	361,765	-0,064	-0,091
-77,811	13,690	-0,054	-0,030
-76,797	-47,428	-0,043	-0,015
-75,782	-147,683	0,070	0,004
-74,767	-200,000	0,036	0,216
-73,753	-90,432	0,003	0,001
-72,738	-35,422	-0,050	0,019
-71,724	151,568	-0,050	0,049
-70,709	-106,750	-0,077	-0,012
-69,694	359,220	0,014	0,019
-68,680	-81,943	0,031	-0,007
-67,665	23,344	-0,057	-0,033
-66,651	307,069	0,025	0,033
-65,636	800,000	-0,069	0,201
-64,622	144,654	-0,067	-0,063
-63,607	406,524	-0,026	0,039
-62,592	116,309	-0,056	-0,049
-61,578	-23,269	-0,064	-0,027
-60,563	-76,049	0,091	0,023
-59,549	-129,769	-0,135	-0,013
-58,534	-58,989	-1,602	-0,486
-57,519	312,305	-1,532	-2,040
-56,505	-200,000	-0,430	-4,358
-55,490	295,680	0,695	0,902
-54,476	800,000	5,125	11,656
-53,461	-200,000	18,622	303,579
-52,446	800,000	734,168	2272,475
-51,432	560,082	1648,594	2827,122
-50,417	78,218	1666,222	1256,402
-49,403	21,841	1539,295	884,667
-48,388	15,773	1461,991	810,870
-47,373	17,864	1452,257	815,500
-46,359	16,945	1442,268	805,472
-45,344	14,063	1437,454	789,009
-44,330	13,993	1435,739	787,700
-43,315	14,021	1433,903	786,794
-42,300	13,961	1432,527	785,723
-41,286	14,004	1431,421	785,293
-40,271	14,003	1429,735	784,329
-39,257	13,962	1428,786	783,582
-38,242	14,024	1427,452	783,117
-37,227	13,990	1426,554	782,428
-36,213	14,049	1424,881	781,760
-35,198	14,006	1423,843	780,958
-34,184	14,064	1422,946	780,708
-33,169	13,976	1421,590	779,517
-32,154	13,996	1420,203	778,822
-31,140	14,013	1419,136	778,284
-30,125	14,065	1418,000	777,878
-29,111	14,049	1416,919	777,175
-28,096	13,993	1415,971	776,362
-27,082	14,003	1414,765	775,717
-26,067	13,940	1413,715	774,817
-25,052	13,981	1412,666	774,401
-24,038	13,901	1411,738	773,486
-23,023	13,891	1410,694	772,836
-22,009	13,921	1409,834	772,479
-20,994	13,874	1408,960	771,748
-19,979	13,881	1408,041	771,248
-18,965	13,893	1406,758	770,571
-17,950	13,881	1406,087	770,113
-16,936	13,907	1404,962	769,591
-15,921	13,848	1403,971	768,741
-14,906	13,898	1402,924	768,369
-13,892	13,893	1401,934	767,774
-12,877	13,889	1401,133	767,285
-11,863	13,867	1400,531	766,822
-10,848	13,862	1399,448	766,177
-9,833	13,808	1398,673	765,473
-8,819	13,782	1397,757	764,821
-7,804	13,769	1396,945	764,286
-6,790	13,752	1395,823	763,563
-5,775	13,750	1394,662	762,890
-4,760	13,801	1393,809	762,628
-3,746	13,778	1392,964	762,026
-2,731	13,739	1392,229	761,416
-1,717	13,744	1391,223	760,859
-0,702	13,684	1389,623	759,675
0,313	17,686	1307,547	733,241
1,327	34,241	703,764	432,834
2,342	53,003	123,620	83,467
3,356	3,094	16,489	8,443
4,371	17,396	3,256	1,822
5,386	-1,052	0,494	0,246
6,400	800,000	0,108	0,226
7,415	426,259	-0,166	-0,254
8,429	-79,541	-0,280	-0,066
9,444	-31,955	-0,356	-0,140
10,459	21,008	-0,282	-0,161
11,473	-101,977	-0,302	-0,051
12,488	259,820	-0,187	-0,229
13,502	800,000	-0,140	-0,289
14,517	64,754	-0,292	-0,208
15,531	223,516	-0,224	-0,255
16,546	144,723	-0,243	-0,229
17,561	12,196	-0,400	-0,217
18,575	163,156	-0,214	-0,212
19,590	35,574	-0,340	-0,210
20,604	98,775	-0,146	-0,118
21,619	15,877	-0,510	-0,282
22,634	81,386	-0,430	-0,328
23,648	56,607	-0,409	-0,280
24,663	-0,187	-0,453	-0,227
25,677	421,025	-0,236	-0,358
26,692	-73,035	-0,366	-0,094
27,707	149,098	-0,348	-0,332
28,721	148,586	-0,313	-0,299
29,736	91,569	-0,448	-0,354
30,750	59,374	-0,426	-0,296
31,765	162,677	-0,366	-0,362
32,780	-14,201	-0,402	-0,182
33,794	21,685	-0,322	-0,184
34,809	72,536	-0,327	-0,240
35,823	18,449	-0,383	-0,215
36,838	175,844	-0,297	-0,304
37,853	100,993	-0,414	-0,339
38,867	84,018	-0,326	-0,251
39,882	-0,171	-0,494	-0,247
40,896	99,361	-0,326	-0,265
41,911	137,631	-0,352	-0,324
42,926	-23,183	-0,388	-0,164
43,940	81,848	-0,409	-0,312
44,955	646,287	-0,223	-0,403
45,969	245,809	-0,273	-0,325
46,984	74,171	-0,362	-0,267
47,999	-105,294	-0,438	-0,070
49,013	75,509	-0,223	-0,165
50,028	-89,251	-0,282	-0,058
51,042	88,870	-0,293	-0,229
52,057	217,525	-0,370	-0,416
53,071	154,223	-0,316	-0,305
54,086	84,100	-0,354	-0,272
55,101	87,164	-0,266	-0,207
56,115	3,607	-0,325	-0,166
57,130	496,168	-0,174	-0,282
58,144	-12,212	-0,509	-0,233
59,159	37,064	-0,373	-0,232
60,174	17,955	-0,391	-0,218
61,188	139,816	-0,320	-0,296
62,203	12,876	-0,262	-0,142
63,217	103,470	-0,337	-0,278
64,232	48,047	-0,388	-0,254
65,247	20,609	-0,437	-0,248
66,261	187,189	-0,251	-0,264
67,276	84,310	-0,364	-0,279
68,290	93,239	-0,296	-0,235
69,305	234,694	-0,255	-0,296
70,320	41,954	-0,281	-0,179
71,334	22,103	-0,285	-0,163
72,349	-2,733	-0,420	-0,205
73,363	107,419	-0,322	-0,269
74,378	34,956	-0,331	-0,203
75,393	-15,860	-0,236	-0,105
76,407	17,289	-0,310	-0,172
77,422	-48,474	-0,357	-0,120
78,436	93,971	-0,328	-0,261
79,451	21,748	-0,268	-0,153
80,466	-65,858	-0,390	-0,109
81,480	293,378	-0,244	-0,313
82,495	8,327	-0,385	-0,203
83,509	-7,708	-0,248	-0,117
84,524	-118,535	-0,403	-0,049
85,539	27,438	-0,323	-0,190
86,553	223,404	-0,209	-0,237
87,568	13,414	-0,308	-0,167
88,582	56,636	-0,349	-0,238
89,597	81,467	-0,239	-0,181
90,611	197,589	-0,227	-0,244
91,626	82,530	-0,178	-0,135
92,641	150,030	-0,251	-0,238
93,655	7,248	-0,324	-0,169
94,670	12,650	-0,305	-0,164
95,684	306,353	-0,159	-0,208
96,699	250,941	-0,214	-0,256
97,714	20,848	-0,243	-0,137
98,728	11,822	-0,237	-0,127
99,743	77,283	-0,265	-0,197
100,757	186,943	-0,189	-0,198
101,772	65,307	-0,254	-0,180
102,787	243,201	-0,232	-0,273
103,801	105,234	-0,245	-0,203
104,816	-59,233	-0,290	-0,087
105,830	142,703	-0,305	-0,284
106,845	101,246	-0,252	-0,206
107,860	15,669	-0,252	-0,138
108,874	93,536	-0,363	-0,288
109,889	121,144	-0,242	-0,211
110,903	32,968	-0,274	-0,166
111,918	100,578	-0,256	-0,208
112,933	57,064	-0,198	-0,135
113,947	-196,090	-0,264	-0,001
114,962	1,316	-0,190	-0,095
115,976	-56,364	-0,211	-0,065
116,991	20,681	-0,245	-0,138
118,006	137,512	-0,270	-0,248
119,020	-111,335	-0,314	-0,044
120,035	16,774	-0,307	-0,169
121,049	265,471	-0,187	-0,228
122,064	22,300	-0,215	-0,123
123,079	-141,224	-0,282	0,020
124,093	167,959	-0,236	-0,235
125,108	128,386	-0,337	-0,300
126,122	-103,089	-0,206	-0,034
127,137	268,458	-0,248	-0,304
128,151	80,163	-0,213	-0,160
129,166	-8,550	-0,271	-0,127
130,181	24,792	-0,300	-0,174
131,195	106,882	-0,333	-0,276
132,210	27,553	-0,344	-0,202
133,224	374,752	-0,144	-0,206
134,239	-15,700	-0,082	-0,036
135,254	800,000	-0,064	-0,175
136,268	242,140	-0,150	-0,175
137,283	239,854	-0,246	-0,286
138,297	247,198	-0,222	-0,262
139,312	183,987	-0,191	-0,197
140,327	90,472	-0,292	-0,228
141,341	104,011	-0,262	-0,215
142,356	-21,881	-0,239	-0,101
143,370	11,271	-0,285	-0,152
144,385	298,376	-0,281	-0,362
145,400	71,678	-0,526	-0,381
146,414	155,129	-0,278	-0,267
147,429	360,807	-0,207	-0,291
148,443	249,932	-0,218	-0,259
149,458	112,649	-0,172	-0,145
150,473	456,787	-0,129	-0,201
151,487	-20,160	-0,162	-0,070
152,502	141,080	-0,158	-0,146
153,516	-38,623	-0,289	-0,106
154,531	800,000	-0,072	-0,197
155,546	217,377	-0,180	-0,200
156,560	465,709	-0,159	-0,250
157,575	452,479	-0,139	-0,215
158,589	77,051	-0,242	-0,179
159,604	-38,514	-0,330	-0,121
160,619	5,295	-0,296	-0,152
161,633	-53,421	-0,331	-0,105
162,648	86,157	-0,254	-0,195
163,662	378,772	-0,133	-0,191
164,677	153,232	-0,204	-0,195
165,692	-21,892	-0,327	-0,138
166,706	48,452	-0,264	-0,172
167,721	246,707	-0,208	-0,244
168,735	-28,484	-0,314	-0,125
169,750	52,234	-0,243	-0,161
170,764	137,093	-0,164	-0,149
171,779	311,863	-0,191	-0,250
172,794	800,000	-0,047	-0,100
173,808	800,000	-0,079	-0,190
174,823	-25,763	-0,274	-0,112
175,837	200,164	-0,187	-0,200
176,852	28,283	-0,322	-0,189
177,867	56,277	-0,169	-0,114
178,881	234,399	-0,186	-0,214
179,896	-0,629	-0,146	-0,072
180,910	161,973	-0,183	-0,179
181,925	119,629	-0,256	-0,221
182,940	17,925	-0,255	-0,141
183,954	68,280	-0,272	-0,193
184,969	800,000	-0,082	-0,186
185,983	34,859	-0,228	-0,139
186,998	4,188	-0,168	-0,085
188,013	218,291	-0,108	-0,120
189,027	-77,428	-0,254	-0,061
190,042	378,226	-0,116	-0,165
191,056	22,111	-0,239	-0,135
192,071	70,722	-0,181	-0,130
193,086	23,658	-0,164	-0,094
194,100	-1,202	-0,152	-0,074
195,115	236,226	-0,177	-0,203
196,129	534,956	-0,166	-0,274
197,144	5,573	-0,319	-0,163
198,159	145,890	-0,120	-0,112
199,173	484,637	-0,156	-0,248
200,188	-22,850	-0,121	-0,050
201,202	-200,000	-0,002	-0,145
202,217	-184,841	-0,171	-0,002
203,232	21,408	-0,183	-0,103
204,246	800,000	-0,143	-0,283
205,261	574,200	-0,124	-0,210
206,275	70,206	-0,242	-0,173
207,290	163,126	-0,204	-0,199
208,304	800,000	-0,052	-0,146
209,319	166,498	-0,175	-0,172
210,334	442,633	-0,089	-0,136
211,348	-60,353	-0,075	-0,022
212,363	-85,473	-0,179	-0,038
213,377	-47,571	-0,308	-0,103
214,392	94,069	-0,187	-0,147
215,407	800,000	-0,099	-0,205
216,421	-1,321	-0,329	-0,161
217,436	-200,000	-0,076	-0,233
218,450	98,217	-0,263	-0,210
219,465	79,157	-0,203	-0,150
220,480	157,124	-0,157	-0,151
221,494	800,000	-0,078	-0,190
222,509	221,468	-0,166	-0,185
223,523	-154,137	-0,141	0,007
224,538	85,233	-0,192	-0,146
225,553	-8,315	-0,219	-0,102
226,567	-95,241	-0,166	0,031
227,582	492,426	-0,142	-0,226
228,596	-50,746	-0,247	-0,080
229,611	739,301	-0,099	-0,185
230,626	-31,558	-0,154	-0,060
231,640	273,562	-0,099	-0,121
232,655	152,366	-0,290	-0,274
233,669	170,853	-0,191	-0,190
234,684	108,690	-0,233	-0,193
235,699	187,268	-0,088	-0,091
236,713	343,842	-0,077	-0,105
237,728	74,823	-0,198	-0,144
238,742	24,020	-0,104	-0,060
239,757	162,625	-0,127	-0,123
240,772	-200,000	-0,050	-0,224
241,786	159,864	-0,135	-0,130
242,801	-16,234	-0,245	-0,107
243,815	-33,573	-0,219	-0,083
244,830	-37,626	-0,065	-0,024
245,844	426,112	-0,095	-0,143
246,859	276,830	-0,134	-0,166
247,874	66,329	-0,213	-0,149
248,888	60,399	-0,267	-0,182
249,903	111,953	-0,197	-0,164
250,917	43,014	-0,147	-0,092
251,932	151,792	-0,162	-0,153
252,947	-19,533	-0,173	-0,074
253,961	105,978	-0,254	-0,208
254,976	-43,136	-0,298	-0,104
255,990	241,269	-0,260	-0,301
257,005	-3,020	-0,183	-0,088
258,020	86,694	-0,205	-0,156
259,034	309,110	-0,089	-0,115
260,049	72,411	-0,224	-0,161
261,063	-1,439	-0,201	-0,098
262,078	18,911	-0,247	-0,136
263,093	429,468	-0,174	-0,261
264,107	-4,700	-0,159	-0,075
265,122	290,182	-0,024	-0,030
266,136	104,364	-0,215	-0,175
267,151	-200,000	-0,188	-0,000
268,166	43,664	-0,136	-0,086
269,180	58,373	-0,236	-0,160
270,195	94,956	-0,157	-0,124
271,209	66,000	-0,190	-0,133
272,224	161,996	-0,049	-0,047
273,239	-189,430	-0,110	0,001
274,253	3,963	-0,247	-0,124
275,268	-200,000	0,003	-0,125
276,282	67,440	-0,249	-0,175
277,297	97,824	-0,287	-0,227
278,312	-28,201	-0,136	-0,054
279,326	233,499	-0,069	-0,079
280,341	-1,909	-0,151	-0,073
281,355	-27,900	-0,097	-0,038
282,370	-159,270	-0,133	-0,005
283,384	-47,414	-0,224	-0,075
284,399	153,949	-0,171	-0,162
285,414	242,194	-0,146	-0,169
286,428	453,716	-0,112	-0,172
287,443	-82,247	-0,117	0,026
288,457	147,037	-0,092	-0,085
289,472	-45,923	-0,234	-0,079
290,487	-65,828	-0,109	-0,030
291,501	219,914	-0,132	-0,146
292,516	-105,655	-0,213	-0,033
293,530	-150,228	-0,175	0,009
294,545	37,309	-0,202	-0,123
295,560	49,007	-0,110	-0,071
296,574	253,502	-0,135	-0,159
297,589	664,379	-0,137	-0,245
298,603	-200,000	-0,067	-0,255
299,618	92,102	-0,190	-0,147
300,633	-200,000	-0,057	-0,204
301,647	128,217	0,053	-0,046
302,662	-108,279	-0,097	-0,014
303,676	-119,041	-0,115	-0,014
304,691	67,716	-0,135	-0,095
305,706	-65,654	-0,229	-0,063
306,720	11,917	-0,205	-0,108
307,735	185,375	0,087	-0,089
308,749	176,803	-0,102	0,102
309,764	-200,000	0,017	-0,104
310,779	-104,708	-0,088	0,014
311,793	419,436	-0,104	-0,153
312,808	11,052	-0,163	-0,085
313,822	-185,633	-0,128	0,001
314,837	190,606	-0,216	-0,224
315,852	228,348	-0,103	-0,115
316,866	165,261	-0,197	-0,191
317,881	-200,000	0,045	-0,175
318,895	-98,606	-0,059	-0,010
319,910	-48,913	-0,150	-0,049
320,925	800,000	-0,061	-0,141
321,939	-97,570	-0,125	-0,022
322,954	24,426	-0,103	-0,058
323,968	-36,253	-0,164	-0,060
324,983	-29,925	-0,137	-0,053
325,997	192,305	-0,088	-0,091
327,012	-64,857	-0,189	-0,052
328,027	195,839	-0,131	-0,137
329,041	800,000	-0,041	-0,105
330,056	-200,000	-0,005	-0,107
331,070	23,501	-0,117	-0,066
332,085	-200,000	0,027	-0,120
333,100	-74,356	-0,160	0,039
334,114	-96,488	-0,234	0,042
335,129	-3,222	-0,133	-0,063
336,143	60,029	-0,175	-0,118
337,158	12,832	-0,166	-0,088
338,173	-200,000	-0,007	-0,113
339,187	-90,973	-0,257	-0,050
340,202	224,765	-0,060	0,066
341,216	-58,107	-0,063	-0,019
342,231	-41,719	-0,100	-0,035
343,246	800,000	-0,050	-0,122
344,260	137,535	-0,108	-0,097
345,275	800,000	-0,081	-0,185
346,289	68,140	-0,141	-0,099
347,304	800,000	-0,039	-0,104
348,319	-38,648	-0,233	-0,084
349,333	-200,000	-0,017	-0,115
350,348	800,000	-0,112	-0,267
351,362	153,031	-0,113	0,106
352,377	-200,000	-0,077	-0,241
353,392	676,197	-0,073	-0,130
354,406	-64,448	-0,144	-0,040
355,421	209,133	1312,960	1410,514
356,435	160,948	1473,476	1411,020
