DTS Sentinel unit serial number:	SN410029Multiplexer serial number:	ORYXHardware model number:	OX2-SRSoftware version number:	ORYX F/W v4,00 Oryx Data Collector v3.7.2.0data status	okinstallation	B3 Nyhavnadifferential loss correction	single-endedforward channel	channel 1reverse channel	N/Adate	2023/11/30time	11:12:30forward acquisition time	300,00reverse acquisition time	0,00gamma	499,1914k internal	0,3211k external	0,3211temperature offset calibration	1,0000default loss term (dB/km)	0,3820temperature slope calibration	1,0000multiplexer offset coefficient	1,0000multiplexer slope coefficient	1,0000fibre end	0,00T internal ref (°C)	9,50T ext. ref 1 (°C)	-5,65T ext. ref 2 (°C)	-5,76length (m)	temperature (°C)	Stokes	anti-Stokes-744,400	122,200	-0,205	-0,186
-743,385	-200,000	-0,078	0,374
-742,371	-200,000	-0,051	-0,366
-741,356	-200,000	-0,006	0,299
-740,342	404,252	-0,098	-0,151
-739,327	-200,000	-0,098	0,394
-738,312	3,150	-0,239	-0,125
-737,298	-200,000	-0,024	0,380
-736,283	225,583	-0,224	-0,263
-735,269	800,000	0,057	0,161
-734,254	12,275	-0,169	-0,094
-733,239	141,768	-0,161	0,155
-732,225	168,705	-0,083	-0,085
-731,210	451,764	-0,032	0,051
-730,196	800,000	0,033	-0,072
-729,181	-200,000	0,003	-0,052
-728,167	-153,320	0,064	0,003
-727,152	-169,988	0,088	-0,002
-726,137	680,265	0,057	-0,108
-725,123	-200,000	-0,040	-0,181
-724,108	-111,864	0,056	-0,008
-723,094	-4,096	-0,132	-0,066
-722,079	624,874	0,050	-0,092
-721,064	270,069	-0,069	0,089
-720,050	-32,305	0,116	-0,047
-719,035	-65,621	-0,057	-0,016
-718,021	28,806	-0,003	0,002
-717,006	73,553	-0,119	-0,090
-715,991	-200,000	0,019	-0,079
-714,977	-39,751	0,037	-0,014
-713,962	-52,101	-0,138	-0,046
-712,948	-50,559	0,047	-0,016
-711,933	-200,000	0,001	0,060
-710,918	-105,996	-0,100	-0,016
-709,904	-200,000	0,021	-0,087
-708,889	62,654	-0,170	-0,123
-707,875	90,117	-0,103	-0,083
-706,860	162,650	-0,057	-0,058
-705,845	-51,849	0,023	-0,008
-704,831	-107,980	-0,180	0,028
-703,816	44,272	-0,019	0,013
-702,802	-162,129	-0,128	0,005
-701,787	667,809	0,086	-0,162
-700,772	696,573	-0,036	-0,069
-699,758	800,000	-0,065	-0,148
-698,743	-200,000	-0,024	-0,176
-697,729	-47,581	-0,080	0,028
-696,714	800,000	0,025	-0,076
-695,699	-81,135	-0,102	-0,024
-694,685	-200,000	-0,031	-0,226
-693,670	281,807	-0,027	-0,035
-692,656	-75,753	0,106	-0,027
-691,641	-200,000	-0,002	0,013
-690,627	301,955	0,057	0,076
-689,612	-32,204	-0,079	0,032
-688,597	-138,119	-0,090	-0,007
-687,583	77,973	-0,063	-0,049
-686,568	741,121	0,106	-0,207
-685,554	-128,613	0,099	-0,010
-684,539	-113,572	-0,138	-0,019
-683,524	566,674	0,079	0,139
-682,510	800,000	-0,020	0,048
-681,495	3,163	-0,088	-0,046
-680,481	-61,851	-0,182	-0,055
-679,466	800,000	-0,026	-0,056
-678,451	86,576	-0,081	-0,065
-677,437	343,451	0,035	0,050
-676,422	-64,630	0,035	-0,010
-675,408	800,000	0,071	0,187
-674,393	399,883	-0,055	0,083
-673,378	-108,756	0,049	-0,008
-672,364	800,000	-0,041	-0,106
-671,349	800,000	0,053	-0,135
-670,335	800,000	-0,008	-0,017
-669,320	13,804	-0,113	0,063
-668,305	32,544	0,114	0,071
-667,291	-193,898	-0,051	-0,000
-666,276	629,227	-0,101	-0,185
-665,262	174,273	-0,061	-0,064
-664,247	-200,000	0,031	-0,187
-663,232	128,108	0,094	0,087
-662,218	17,056	-0,038	-0,022
-661,203	221,222	-0,061	0,071
-660,189	357,771	-0,110	-0,159
-659,174	-37,722	-0,104	-0,040
-658,159	-200,000	0,007	-0,169
-657,145	-170,475	-0,058	0,001
-656,130	800,000	0,038	-0,083
-655,116	631,131	0,049	-0,089
-654,101	88,024	-0,127	0,102
-653,086	-140,364	-0,165	0,012
-652,072	-200,000	-0,015	-0,117
-651,057	-6,313	-0,057	0,028
-650,043	385,322	-0,069	-0,103
-649,028	-56,069	-0,119	-0,038
-648,014	800,000	0,008	-0,023
-646,999	-25,591	-0,047	-0,020
-645,984	-29,345	0,104	-0,043
-644,970	-107,508	-0,122	0,019
-643,955	-109,688	-0,066	-0,010
-642,941	589,376	-0,044	-0,079
-641,926	-139,476	0,085	0,007
-640,911	-200,000	-0,002	-0,051
-639,897	-200,000	-0,007	0,104
-638,882	558,726	-0,094	-0,164
-637,868	-200,000	0,022	0,071
-636,853	-200,000	-0,020	-0,100
-635,838	765,030	0,058	-0,113
-634,824	233,783	-0,061	-0,072
-633,809	-61,526	0,157	-0,047
-632,795	265,444	-0,068	-0,085
-631,780	-122,784	-0,056	0,007
-630,765	205,020	-0,019	-0,022
-629,751	68,062	-0,106	-0,078
-628,736	136,945	-0,078	-0,074
-627,722	-53,371	0,114	0,037
-626,707	252,387	-0,079	-0,097
-625,692	90,715	-0,056	-0,046
-624,678	-12,432	0,058	-0,027
-623,663	800,000	0,041	-0,093
-622,649	-200,000	-0,004	-0,116
-621,634	264,230	-0,063	-0,080
-620,619	226,874	-0,059	-0,069
-619,605	-200,000	-0,026	0,085
-618,590	-200,000	0,006	0,120
-617,576	257,858	-0,030	-0,037
-616,561	137,462	-0,089	0,084
-615,546	-200,000	0,002	-0,104
-614,532	-200,000	-0,013	-0,053
-613,517	800,000	-0,041	-0,130
-612,503	488,619	-0,030	-0,050
-611,488	60,506	0,181	0,129
-610,474	800,000	0,024	0,052
-609,459	-200,000	0,036	-0,160
-608,444	-30,168	0,046	-0,019
-607,430	286,216	-0,125	-0,163
-606,415	34,801	0,042	0,027
-605,401	-36,738	0,062	-0,024
-604,386	-200,000	0,017	0,100
-603,371	114,539	-0,066	0,058
-602,357	-200,000	0,018	0,104
-601,342	86,523	-0,035	-0,028
-600,328	800,000	-0,037	-0,075
-599,313	160,921	-0,047	0,047
-598,298	-133,093	0,031	0,003
-597,284	472,874	0,056	-0,091
-596,269	442,229	0,031	0,050
-595,255	-89,849	-0,107	0,022
-594,240	10,607	0,037	0,021
-593,225	-200,000	0,008	-0,083
-592,211	319,770	0,050	-0,068
-591,196	159,599	-0,131	-0,131
-590,182	499,566	0,025	0,042
-589,167	-124,359	0,178	-0,020
-588,152	-150,497	-0,159	0,009
-587,138	103,578	0,019	0,016
-586,123	-200,000	-0,006	-0,097
-585,109	-44,462	-0,143	-0,051
-584,094	-200,000	-0,020	0,098
-583,079	188,775	0,023	0,025
-582,065	59,631	0,086	0,061
-581,050	-200,000	-0,001	-0,022
-580,036	-200,000	0,010	0,051
-579,021	-200,000	-0,011	-0,067
-578,006	-200,000	-0,027	-0,111
-576,992	-44,733	-0,079	0,028
-575,977	-115,409	-0,176	-0,024
-574,963	231,250	0,087	0,103
-573,948	57,714	-0,080	0,056
-572,934	-30,924	-0,059	0,024
-571,919	-2,976	-0,222	-0,111
-570,904	-200,000	-0,026	0,117
-569,890	465,658	-0,027	-0,044
-568,875	-7,625	-0,078	0,038
-567,861	38,067	-0,045	-0,029
-566,846	-200,000	0,023	0,092
-565,831	78,620	-0,091	-0,070
-564,817	-53,873	-0,064	-0,021
-563,802	-104,985	0,090	0,015
-562,788	800,000	-0,021	0,044
-561,773	580,079	0,075	0,133
-560,758	-154,330	-0,083	-0,004
-559,744	-103,903	0,131	0,022
-558,729	-200,000	-0,018	-0,140
-557,715	800,000	0,019	0,040
-556,700	-93,325	-0,153	0,030
-555,685	-200,000	-0,005	-0,026
-554,671	-58,001	-0,097	0,030
-553,656	-98,067	0,085	0,016
-552,642	726,287	-0,032	0,062
-551,627	-33,251	-0,072	0,029
-550,612	-86,180	-0,019	0,004
-549,598	94,475	0,060	-0,049
-548,583	-200,000	-0,005	0,081
-547,569	800,000	-0,013	0,040
-546,554	-16,963	-0,067	-0,030
-545,539	26,599	-0,024	0,014
-544,525	-200,000	0,012	0,166
-543,510	-200,000	0,007	0,118
-542,496	-119,168	-0,142	-0,018
-541,481	-37,618	-0,104	0,040
-540,466	-176,704	-0,059	-0,001
-539,452	77,735	0,079	0,060
-538,437	544,922	0,071	0,123
-537,423	596,396	0,019	-0,033
-536,408	290,199	-0,049	-0,064
-535,393	-200,000	0,011	-0,059
-534,379	65,684	-0,076	0,055
-533,364	-200,000	0,023	-0,117
-532,350	-200,000	-0,005	-0,073
-531,335	14,891	0,047	-0,026
-530,321	756,693	0,021	-0,040
-529,306	41,596	-0,128	-0,083
-528,291	339,948	-0,055	-0,077
-527,277	473,217	0,052	-0,085
-526,262	-37,469	-0,045	-0,017
-525,248	233,326	-0,078	-0,093
-524,233	90,942	0,100	-0,081
-523,218	800,000	-0,013	0,042
-522,204	800,000	0,053	0,112
-521,189	-77,918	-0,040	0,010
-520,175	-200,000	0,010	-0,137
-519,160	-142,392	-0,075	0,005
-518,145	-118,341	-0,070	0,009
-517,131	62,796	0,084	-0,060
-516,116	-200,000	0,001	-0,007
-515,102	-200,000	-0,011	0,047
-514,087	800,000	-0,022	-0,053
-513,072	-72,517	0,111	-0,029
-512,058	-86,163	-0,124	0,027
-511,043	86,852	0,087	-0,069
-510,029	-19,402	-0,065	-0,029
-509,014	-200,000	-0,025	0,108
-507,999	258,827	0,035	-0,044
-506,985	227,441	-0,079	-0,092
-505,970	-200,000	-0,009	-0,082
-504,956	-200,000	-0,002	-0,031
-503,941	-200,000	0,024	0,102
-502,926	-200,000	-0,021	0,118
-501,912	262,700	-0,011	-0,013
-500,897	800,000	0,024	0,057
-499,883	55,283	0,068	0,047
-498,868	-200,000	0,004	-0,049
-497,853	-183,093	-0,020	0,000
-496,839	-13,585	-0,034	0,016
-495,824	41,355	0,040	0,026
-494,810	-31,743	0,118	0,047
-493,795	-200,000	0,053	-0,191
-492,781	-200,000	0,012	-0,109
-491,766	609,617	0,045	-0,081
-490,751	461,478	-0,044	-0,070
-489,737	11,457	-0,087	-0,048
-488,722	-65,018	0,173	0,050
-487,708	283,592	0,081	0,104
-486,693	-132,469	-0,053	-0,005
-485,678	-20,658	0,041	0,018
-484,664	800,000	-0,041	-0,091
-483,649	195,592	0,023	-0,025
-482,635	-200,000	-0,031	-0,106
-481,620	-92,557	0,063	0,013
-480,605	-29,046	0,198	0,081
-479,591	-135,887	0,075	0,006
-478,576	-94,131	-0,070	0,014
-477,562	20,727	-0,064	-0,037
-476,547	60,253	0,144	0,102
-475,532	190,775	-0,025	-0,028
-474,518	-146,387	-0,147	0,009
-473,503	-93,005	0,123	0,024
-472,489	-160,819	0,079	0,003
-471,474	267,230	-0,021	0,026
-470,459	-200,000	-0,024	-0,160
-469,445	43,636	0,191	0,125
-468,430	-79,117	0,085	0,021
-467,416	185,238	-0,079	0,085
-466,401	772,247	0,032	-0,063
-465,386	-142,293	-0,039	0,003
-464,372	160,094	0,016	0,016
-463,357	192,064	-0,083	-0,090
-462,343	305,264	-0,105	-0,141
-461,328	-200,000	-0,030	-0,144
-460,313	-43,756	0,067	0,024
-459,299	-61,259	-0,074	0,022
-458,284	-200,000	0,013	-0,062
-457,270	-200,000	0,031	0,125
-456,255	-48,173	-0,048	-0,016
-455,241	-200,000	-0,005	-0,130
-454,226	-200,000	0,010	0,132
-453,211	-55,698	0,079	-0,025
-452,197	-140,028	0,080	0,006
-451,182	229,014	0,042	0,050
-450,168	111,507	-0,123	0,106
-449,153	800,000	-0,054	-0,114
-448,138	-200,000	0,015	-0,123
-447,124	-13,395	-0,093	0,043
-446,109	-200,000	0,007	-0,066
-445,095	-200,000	0,013	0,109
-444,080	220,699	0,060	0,069
-443,065	-148,958	0,139	0,008
-442,051	-115,443	0,077	-0,010
-441,036	-200,000	-0,007	-0,051
-440,022	-200,000	0,032	0,158
-439,007	39,039	-0,037	-0,024
-437,992	-140,256	0,029	-0,002
-436,978	-20,181	0,060	0,027
-435,963	-100,345	0,099	0,017
-434,949	249,245	-0,036	-0,044
-433,934	800,000	-0,031	-0,064
-432,919	757,319	-0,015	-0,028
-431,905	18,123	-0,089	0,051
-430,890	-200,000	-0,008	-0,078
-429,876	32,739	0,020	-0,012
-428,861	500,757	-0,086	0,143
-427,846	176,988	0,077	-0,080
-426,832	147,368	0,064	0,062
-425,817	-200,000	0,025	0,108
-424,803	39,604	0,152	-0,097
-423,788	800,000	0,029	-0,076
-422,773	-200,000	0,012	0,081
-421,759	13,390	0,068	0,037
-420,744	800,000	-0,061	0,128
-419,730	800,000	-0,018	-0,049
-418,715	327,908	-0,035	0,049
-417,701	105,294	0,177	-0,149
-416,686	213,091	-0,033	-0,037
-415,671	41,520	0,146	0,095
-414,657	44,378	0,114	0,075
-413,642	-200,000	0,008	-0,035
-412,628	-36,420	-0,096	-0,037
-411,613	180,757	0,026	-0,027
-410,598	-136,046	-0,096	-0,008
-409,584	419,795	-0,055	-0,085
-408,569	800,000	0,092	0,204
-407,555	-63,999	-0,126	-0,037
-406,540	-162,892	0,227	-0,008
-405,525	800,000	-0,015	0,039
-404,511	-200,000	0,006	-0,079
-403,496	-115,227	0,044	0,006
-402,482	509,935	-0,086	0,143
-401,467	-133,807	0,088	0,008
-400,452	-27,767	-0,072	0,030
-399,438	-200,000	0,004	0,156
-398,423	-139,306	-0,063	0,005
-397,409	-200,000	0,004	-0,031
-396,394	8,328	0,164	0,088
-395,379	-17,454	-0,047	0,021
-394,365	800,000	0,021	0,052
-393,350	300,568	0,070	-0,092
-392,336	-141,226	0,182	-0,013
-391,321	249,713	-0,065	0,080
-390,306	24,700	0,063	-0,037
-389,292	-49,795	0,041	-0,014
-388,277	800,000	0,033	-0,087
-387,263	-155,121	-0,073	0,003
-386,248	241,870	0,075	0,090
-385,233	800,000	-0,017	0,043
-384,219	15,285	-0,036	0,020
-383,204	-195,941	0,104	-0,001
-382,190	-136,822	-0,123	0,010
-381,175	6,231	0,178	0,094
-380,160	800,000	0,028	-0,059
-379,146	23,965	-0,014	-0,008
-378,131	144,745	-0,095	-0,091
-377,117	800,000	-0,048	0,101
-376,102	-200,000	-0,020	-0,070
-375,088	287,094	-0,060	-0,078
-374,073	322,864	0,016	-0,022
-373,058	-8,233	0,054	0,026
-372,044	275,436	0,054	0,069
-371,029	273,304	0,035	0,044
-370,015	527,572	-0,068	0,115
-369,000	345,147	-0,011	0,015
-367,985	-200,000	0,004	0,034
-366,971	32,383	-0,023	0,014
-365,956	800,000	-0,034	0,079
-364,942	180,531	0,038	-0,040
-363,927	175,762	0,042	-0,044
-362,912	223,581	0,100	-0,116
-361,898	54,394	0,097	-0,067
-360,883	4,811	-0,075	0,039
-359,869	-20,917	0,091	-0,040
-358,854	-200,000	-0,010	-0,040
-357,839	-70,785	-0,051	0,014
-356,825	89,954	0,199	-0,159
-355,810	800,000	0,070	0,149
-354,796	-111,999	-0,065	0,009
-353,781	800,000	-0,009	-0,025
-352,766	800,000	-0,047	-0,107
-351,752	266,790	0,099	0,124
-350,737	-200,000	0,005	0,030
-349,723	800,000	-0,021	-0,043
-348,708	-200,000	-0,025	0,206
-347,693	157,856	0,052	0,052
-346,679	438,845	0,054	-0,084
-345,664	800,000	-0,027	0,058
-344,650	-200,000	-0,030	0,094
-343,635	800,000	-0,058	0,146
-342,620	556,846	0,070	0,120
-341,606	617,630	0,059	0,106
-340,591	267,615	-0,014	0,017
-339,577	358,278	-0,061	-0,087
-338,562	-19,467	0,058	0,025
-337,548	-200,000	-0,014	0,064
-336,533	181,193	0,056	0,059
-335,518	-93,040	0,140	0,028
-334,504	-139,229	0,061	-0,005
-333,489	-57,718	0,071	0,022
-332,475	-104,120	-0,172	0,028
-331,460	71,535	-0,015	-0,011
-330,445	357,111	-0,026	0,038
-329,431	-200,000	0,004	0,029
-328,416	-200,000	0,035	0,111
-327,402	-200,000	-0,009	0,030
-326,387	-200,000	0,026	0,137
-325,372	422,863	0,026	-0,040
-324,358	-200,000	0,002	-0,166
-323,343	-200,000	-0,039	-0,162
-322,329	800,000	0,053	-0,125
-321,314	369,385	0,048	0,069
-320,299	516,796	-0,096	0,161
-319,285	709,000	0,027	-0,051
-318,270	144,043	-0,006	0,005
-317,256	-62,765	-0,158	-0,046
-316,241	-39,101	0,094	0,035
-315,226	-98,818	0,098	0,018
-314,212	584,434	-0,023	0,040
-313,197	-200,000	0,014	-0,044
-312,183	-127,320	-0,117	0,012
-311,168	39,091	0,112	0,071
-310,153	-42,992	-0,155	0,056
-309,139	140,437	0,060	-0,056
-308,124	16,193	-0,089	0,050
-307,110	-200,000	-0,002	0,036
-306,095	800,000	0,027	0,054
-305,080	-56,089	-0,050	-0,016
-304,066	-200,000	-0,024	0,103
-303,051	136,692	0,061	-0,057
-302,037	-137,099	-0,060	-0,005
-301,022	-60,216	0,043	-0,013
-300,008	199,335	0,044	-0,049
-298,993	-56,693	0,043	-0,014
-297,978	103,707	-0,099	0,083
-296,964	-4,729	-0,103	-0,050
-295,949	54,484	-0,124	-0,085
-294,935	-47,423	-0,094	-0,032
-293,920	477,216	-0,099	-0,160
-292,905	-174,861	0,120	-0,002
-291,891	83,855	0,098	0,076
-290,876	-200,000	0,005	0,072
-289,862	-200,000	-0,001	0,032
-288,847	662,874	-0,078	-0,144
-287,832	-200,000	-0,007	-0,090
-286,818	101,544	-0,039	0,032
-285,803	-28,491	0,042	0,017
-284,789	162,961	-0,046	0,046
-283,774	540,066	-0,059	0,101
-282,759	-1,068	-0,045	-0,022
-281,745	-98,331	-0,081	0,015
-280,730	-200,000	-0,003	0,030
-279,716	-200,000	-0,014	0,095
-278,701	16,064	-0,119	0,066
-277,686	800,000	0,023	0,053
-276,672	-121,507	0,106	0,012
-275,657	257,537	-0,088	-0,108
-274,643	134,329	0,067	-0,062
-273,628	-175,687	-0,111	0,002
-272,613	147,591	-0,091	-0,087
-271,599	-200,000	-0,005	0,043
-270,584	-200,000	-0,006	-0,045
-269,570	-200,000	-0,017	0,084
-268,555	-200,000	0,007	0,053
-267,540	436,742	0,052	-0,080
-266,526	-65,106	-0,133	-0,038
-265,511	-76,469	0,050	0,012
-264,497	-31,422	-0,086	0,034
-263,482	437,138	0,045	0,071
-262,467	173,163	0,098	0,101
-261,453	-58,892	-0,050	0,015
-260,438	647,061	-0,078	0,143
-259,424	-200,000	-0,015	-0,093
-258,409	-200,000	-0,008	-0,133
-257,395	-11,965	0,060	-0,028
-256,380	111,201	0,099	0,085
-255,365	77,157	0,093	-0,070
-254,351	800,000	0,016	0,050
-253,336	-57,488	0,123	-0,038
-252,322	-200,000	0,005	0,071
-251,307	-100,342	-0,122	0,021
-250,292	2,383	0,126	0,065
-249,278	666,082	-0,034	0,062
-248,263	91,357	0,015	0,012
-247,249	51,196	0,038	0,025
-246,234	688,428	-0,054	0,102
-245,219	89,938	0,021	-0,017
-244,205	122,922	0,111	-0,099
-243,190	800,000	0,034	0,105
-242,176	386,752	0,092	0,136
-241,161	-200,000	0,002	-0,158
-240,146	187,882	-0,068	0,072
-239,132	211,915	-0,112	0,126
-238,117	565,689	0,082	0,142
-237,103	-63,446	-0,089	-0,026
-236,088	-200,000	-0,011	-0,108
-235,073	-200,000	-0,029	-0,141
-234,059	213,239	0,141	0,158
-233,044	-200,000	0,006	0,056
-232,030	-200,000	-0,023	0,174
-231,015	26,497	0,076	0,045
-230,000	-200,000	0,026	-0,128
-228,986	20,557	-0,088	-0,051
-227,971	12,356	0,122	0,067
-226,957	800,000	0,016	0,048
-225,942	91,253	0,056	0,045
-224,927	457,412	0,049	0,077
-223,913	-10,257	-0,131	-0,061
-222,898	-200,000	-0,044	-0,145
-221,884	-73,530	-0,167	-0,043
-220,869	79,642	0,058	0,044
-219,855	-200,000	0,013	0,061
-218,840	800,000	0,013	0,026
-217,825	-200,000	0,010	-0,172
-216,811	164,017	-0,047	0,047
-215,796	-116,023	-0,033	-0,004
-214,782	29,878	0,064	-0,038
-213,767	-110,895	-0,021	-0,003
-212,752	-107,412	0,029	-0,004
-211,738	-67,854	-0,059	0,016
-210,723	47,982	0,116	0,077
-209,709	-9,164	-0,101	-0,048
-208,694	-98,180	0,049	-0,009
-207,679	800,000	-0,076	-0,160
-206,665	272,546	-0,066	0,082
-205,650	768,241	0,040	0,078
-204,636	42,477	0,066	0,043
-203,621	-200,000	0,002	-0,023
-202,606	-200,000	-0,033	-0,110
-201,592	364,925	-0,120	-0,172
-200,577	436,271	0,110	-0,170
-199,563	43,308	-0,104	-0,067
-198,548	-44,147	0,053	0,019
-197,533	800,000	0,053	0,111
-196,519	-200,000	0,025	0,000
-195,504	135,961	-0,140	0,130
-194,490	-152,001	-0,020	0,001
-193,475	-200,000	0,014	-0,095
-192,460	-112,871	-0,128	0,018
-191,446	212,995	0,165	0,185
-190,431	137,346	0,091	0,084
-189,417	800,000	-0,039	-0,097
-188,402	-126,657	0,197	0,020
-187,387	75,495	-0,024	-0,018
-186,373	-190,536	-0,091	0,001
-185,358	393,181	-0,093	-0,137
-184,344	-200,000	0,022	-0,075
-183,329	-73,549	0,090	-0,023
-182,315	163,388	-0,031	0,031
-181,300	602,383	0,055	-0,097
-180,285	710,636	0,048	-0,090
-179,271	-172,650	-0,083	-0,002
-178,256	460,820	-0,012	-0,019
-177,242	5,777	-0,058	0,030
-176,227	-57,924	0,204	0,063
-175,212	-119,288	0,038	-0,005
-174,198	-61,545	0,086	-0,026
-173,183	132,374	-0,147	-0,135
-172,169	-176,316	0,073	0,001
-171,154	3,985	0,165	-0,085
-170,139	-200,000	-0,013	0,074
-169,125	314,182	0,073	0,097
-168,110	-71,422	-0,162	0,043
-167,096	47,987	0,014	-0,009
-166,081	-200,000	-0,011	0,049
-165,066	59,222	-0,084	-0,058
-164,052	207,136	-0,103	0,114
-163,037	-185,187	0,083	0,001
-162,023	800,000	0,034	0,093
-161,008	1,015	0,085	-0,043
-159,993	-54,206	-0,087	0,028
-158,979	328,840	-0,080	0,110
-157,964	-120,511	-0,158	-0,019
-156,950	-200,000	0,036	-0,190
-155,935	172,145	0,055	0,056
-154,920	514,035	0,029	0,047
-153,906	193,146	0,053	-0,057
-152,891	-200,000	0,006	0,031
-151,877	-200,000	-0,011	0,096
-150,862	-69,523	-0,111	-0,030
-149,847	130,173	0,052	0,047
-148,833	334,203	-0,032	0,045
-147,818	149,070	0,149	0,143
-146,804	-134,193	-0,124	-0,011
-145,789	-137,021	0,119	-0,009
-144,775	294,185	0,055	-0,071
-143,760	-98,728	-0,103	-0,018
-142,745	800,000	-0,003	0,008
-141,731	800,000	0,013	-0,035
-140,716	-200,000	-0,009	-0,147
-139,702	-200,000	0,004	0,137
-138,687	-200,000	0,013	-0,059
-137,672	-43,037	-0,111	-0,040
-136,658	591,008	-0,049	-0,086
-135,643	635,683	-0,043	-0,077
-134,629	208,762	0,083	-0,092
-133,614	-101,668	0,101	-0,017
-132,599	485,592	0,065	-0,105
-131,585	-8,801	-0,120	-0,057
-130,570	-200,000	-0,013	0,045
-129,556	-26,552	-0,091	0,037
-128,541	48,332	0,097	-0,064
-127,526	322,232	-0,089	-0,120
-126,512	-131,229	0,118	-0,011
-125,497	405,585	0,024	0,036
-124,483	21,046	0,067	0,038
-123,468	273,244	-0,043	0,054
-122,453	800,000	0,031	-0,087
-121,439	-68,858	-0,072	-0,020
-120,424	-200,000	0,001	-0,138
-119,410	-140,557	0,156	0,011
-118,395	356,052	-0,052	0,074
-117,380	214,000	0,082	-0,092
-116,366	800,000	0,021	0,060
-115,351	-111,460	-0,177	0,025
-114,337	85,915	0,087	-0,068
-113,322	-154,410	0,158	0,007
-112,307	-117,698	0,074	-0,009
-111,293	-200,000	-0,002	0,030
-110,278	206,989	0,084	-0,092
-109,264	800,000	-0,012	-0,025
-108,249	207,411	0,073	-0,080
-107,234	800,000	-0,040	-0,104
-106,220	-200,000	0,007	-0,156
-105,205	373,313	0,080	0,115
-104,191	-200,000	-0,016	0,114
-103,176	-200,000	0,022	0,110
-102,162	-200,000	-0,007	0,067
-101,147	-37,474	0,148	-0,056
-100,132	-200,000	-0,023	-0,090
-99,118	385,449	0,028	-0,040
-98,103	133,865	-0,069	0,063
-97,089	-200,000	0,003	0,066
-96,074	530,740	0,051	0,085
-95,059	-81,690	-0,066	0,015
-94,045	800,000	-0,037	-0,078
-93,030	-155,997	0,078	-0,003
-92,016	-126,612	-0,242	-0,025
-91,001	-200,000	-0,061	-0,209
-89,986	800,000	-0,043	0,095
-88,972	-200,000	0,026	0,084
-87,957	800,000	0,056	-0,117
-86,943	32,616	-0,053	0,032
-85,928	14,494	-0,040	0,022
-84,913	-86,616	0,051	0,011
-83,899	-78,261	-0,097	0,023
-82,884	87,727	0,063	-0,049
-81,870	800,000	0,004	-0,010
-80,855	286,885	0,047	0,060
-79,840	11,844	0,079	-0,043
-78,826	800,000	-0,006	0,013
-77,811	-200,000	-0,025	-0,084
-76,797	-200,000	-0,015	-0,102
-75,782	-74,998	0,141	-0,035
-74,767	149,643	0,097	0,092
-73,753	800,000	0,039	0,108
-72,738	-57,199	-0,062	0,019
-71,724	-57,363	-0,106	0,033
-70,709	139,437	-0,054	-0,050
-69,694	800,000	0,003	-0,006
-68,680	154,271	0,030	-0,029
-67,665	-11,866	-0,117	0,054
-66,651	-200,000	-0,008	-0,051
-65,636	-200,000	0,001	-0,056
-64,622	529,720	-0,085	-0,142
-63,607	-200,000	-0,011	-0,121
-62,592	-41,275	-0,046	0,017
-61,578	-200,000	-0,032	-0,122
-60,563	674,153	-0,041	0,076
-59,549	217,632	-0,048	0,054
-58,534	39,659	-2,103	-1,329
-57,519	596,798	-1,210	-2,124
-56,505	-200,000	-0,390	-4,390
-55,490	616,906	0,916	1,629
-54,476	800,000	5,100	11,126
-53,461	-200,000	21,871	344,378
-52,446	800,000	763,163	2340,970
-51,432	546,102	1662,148	2815,707
-50,417	71,429	1658,664	1213,736
-49,403	17,274	1532,111	855,695
-48,388	11,319	1455,960	784,392
-47,373	19,418	1447,426	818,578
-46,359	14,854	1436,379	790,630
-45,344	9,598	1432,476	763,453
-44,330	9,571	1430,722	762,357
-43,315	9,541	1428,691	761,102
-42,300	9,540	1427,039	760,188
-41,286	9,547	1425,777	759,519
-40,271	9,543	1424,589	758,837
-39,257	9,556	1423,269	758,167
-38,242	9,600	1422,199	757,776
-37,227	9,520	1421,201	756,836
-36,213	9,594	1419,867	756,442
-35,198	9,565	1418,692	755,649
-34,184	9,655	1417,573	755,450
-33,169	9,548	1416,311	754,241
-32,154	9,558	1415,396	753,772
-31,140	9,578	1414,108	753,150
-30,125	9,636	1413,023	752,813
-29,111	9,624	1411,518	751,928
-28,096	9,608	1410,584	751,325
-27,082	9,540	1409,300	750,294
-26,067	9,473	1408,467	749,504
-25,052	9,531	1407,306	749,129
-24,038	9,568	1406,500	748,843
-23,023	9,523	1405,533	748,087
-22,009	9,519	1404,434	747,455
-20,994	9,530	1403,405	746,929
-19,979	9,498	1402,586	746,315
-18,965	9,482	1401,533	745,651
-17,950	9,472	1400,575	745,065
-16,936	9,453	1399,890	744,581
-15,921	9,402	1398,956	743,819
-14,906	9,447	1397,864	743,418
-13,892	9,502	1396,708	743,027
-12,877	9,496	1395,926	742,555
-11,863	9,475	1395,134	742,004
-10,848	9,408	1394,376	741,263
-9,833	9,367	1393,582	740,620
-8,819	9,346	1392,525	739,934
-7,804	9,324	1391,588	739,302
-6,790	9,318	1390,706	738,780
-5,775	9,320	1389,717	738,235
-4,760	9,321	1388,810	737,727
-3,746	9,354	1387,706	737,262
-2,731	9,344	1386,704	736,657
-1,717	9,353	1386,028	736,306
-0,702	9,317	1384,259	735,174
0,313	13,396	1296,206	707,015
1,327	29,492	687,260	411,222
2,342	46,059	118,819	77,442
3,356	1,999	16,523	8,383
4,371	11,064	3,698	1,988
5,386	-13,661	1,231	0,560
6,400	800,000	0,305	0,684
7,415	-179,925	-0,193	0,003
8,429	40,819	-0,206	-0,131
9,444	54,454	-0,347	-0,235
10,459	-19,043	-0,305	-0,133
11,473	-142,853	-0,289	-0,020
12,488	75,403	-0,152	-0,113
13,502	-73,666	-0,376	-0,096
14,517	-106,231	-0,248	-0,039
15,531	64,210	-0,336	-0,238
16,546	5,840	-0,392	-0,204
17,561	353,423	-0,207	-0,290
18,575	-3,383	-0,182	0,089
19,590	189,432	-0,323	-0,342
20,604	-58,124	-0,425	-0,130
21,619	102,535	-0,468	-0,386
22,634	79,155	-0,456	-0,344
23,648	545,962	-0,188	-0,317
24,663	56,278	-0,480	-0,328
25,677	32,883	-0,219	-0,133
26,692	18,288	-0,297	-0,166
27,707	16,506	-0,425	-0,236
28,721	-34,249	-0,364	-0,140
29,736	226,985	-0,368	-0,422
30,750	154,553	-0,300	-0,290
31,765	533,912	-0,231	-0,386
32,780	800,000	-0,197	-0,401
33,794	6,393	-0,335	-0,174
34,809	47,265	-0,313	-0,205
35,823	106,119	-0,251	-0,209
36,838	61,093	-0,230	-0,161
37,853	214,585	-0,276	-0,307
38,867	136,427	-0,285	-0,262
39,882	41,689	-0,301	-0,191
40,896	36,008	-0,376	-0,232
41,911	4,955	-0,406	-0,209
42,926	197,666	-0,393	-0,423
43,940	111,648	-0,427	-0,362
44,955	169,788	-0,369	-0,371
45,969	100,012	-0,483	-0,393
46,984	72,913	-0,286	-0,209
47,999	5,330	-0,407	-0,210
49,013	63,838	-0,221	-0,156
50,028	195,508	-0,415	-0,443
51,042	175,114	-0,381	-0,388
52,057	100,809	-0,369	-0,301
53,071	97,490	-0,353	-0,284
54,086	45,904	-0,427	-0,277
55,101	-27,685	-0,344	-0,139
56,115	-5,107	-0,436	-0,210
57,130	46,604	-0,377	-0,245
58,144	112,154	-0,310	-0,263
59,159	89,052	-0,372	-0,290
60,174	211,704	-0,336	-0,372
61,188	231,090	-0,170	-0,195
62,203	-26,018	-0,388	-0,159
63,217	-36,461	-0,392	-0,147
64,232	94,319	-0,374	-0,298
65,247	106,304	-0,300	-0,249
66,261	-27,069	-0,412	-0,168
67,276	45,297	-0,310	-0,200
68,290	-37,723	-0,317	-0,118
69,305	146,818	-0,293	-0,276
70,320	39,827	-0,262	-0,165
71,334	-130,713	-0,347	-0,032
72,349	-14,283	-0,317	-0,143
73,363	67,327	-0,337	-0,241
74,378	87,602	-0,308	-0,239
75,393	68,481	-0,353	-0,254
76,407	105,644	-0,235	-0,195
77,422	-38,781	-0,240	-0,088
78,436	-19,537	-0,275	-0,119
79,451	102,209	-0,350	-0,286
80,466	22,684	-0,427	-0,244
81,480	162,414	-0,298	-0,293
82,495	32,953	-0,283	-0,171
83,509	121,663	-0,305	-0,266
84,524	74,475	-0,300	-0,220
85,539	49,784	-0,316	-0,208
86,553	-32,938	-0,315	-0,122
87,568	-43,910	-0,342	-0,120
88,582	90,341	-0,180	-0,141
89,597	26,567	-0,280	-0,163
90,611	-62,756	-0,233	-0,067
91,626	237,195	-0,151	-0,176
92,641	-45,374	-0,177	-0,061
93,655	230,775	-0,212	-0,243
94,670	114,194	-0,303	-0,258
95,684	-11,837	-0,239	-0,109
96,699	276,502	-0,211	-0,263
97,714	-2,296	-0,328	-0,160
98,728	105,252	-0,184	-0,152
99,743	228,823	-0,209	-0,239
100,757	-28,897	-0,301	-0,120
101,772	61,881	-0,161	-0,112
102,787	82,621	-0,275	-0,209
103,801	23,535	-0,359	-0,206
104,816	167,125	-0,168	-0,166
105,830	323,287	-0,162	-0,217
106,845	-114,992	-0,250	-0,033
107,860	37,067	-0,264	-0,163
108,874	85,773	-0,246	-0,189
109,889	76,309	-0,286	-0,212
110,903	30,953	-0,310	-0,185
111,918	800,000	-0,120	-0,341
112,933	77,213	-0,300	-0,222
113,947	-23,530	-0,282	-0,118
114,962	120,635	-0,279	-0,242
115,976	783,698	-0,186	-0,358
116,991	800,000	-0,121	-0,289
118,006	59,067	-0,297	-0,204
119,020	90,297	-0,235	-0,184
120,035	163,300	-0,232	-0,228
121,049	30,808	-0,170	-0,101
122,064	-133,092	-0,248	-0,022
123,079	314,680	-0,193	-0,254
124,093	123,106	-0,245	-0,214
125,108	123,733	-0,189	-0,165
126,122	42,632	-0,215	-0,136
127,137	48,611	-0,244	-0,159
128,151	58,197	-0,231	-0,158
129,166	35,121	-0,243	-0,148
130,181	170,571	-0,305	-0,304
131,195	145,114	-0,324	-0,303
132,210	137,067	-0,248	-0,226
133,224	116,517	-0,176	-0,150
134,239	327,617	-0,230	-0,308
135,254	-65,851	-0,297	-0,082
136,268	40,554	-0,322	-0,202
137,283	-61,888	-0,282	-0,082
138,297	5,935	-0,284	-0,146
139,312	278,455	-0,167	-0,208
140,327	245,073	-0,232	-0,272
141,341	-19,235	-0,268	-0,115
142,356	184,906	-0,241	-0,249
143,370	100,878	-0,196	-0,159
144,385	62,871	-0,250	-0,174
145,400	531,250	-0,156	-0,259
146,414	142,948	-0,233	-0,216
147,429	800,000	-0,100	-0,202
148,443	277,973	-0,158	-0,196
149,458	174,250	-0,150	-0,151
150,473	208,244	-0,197	-0,214
151,487	-26,197	-0,357	-0,145
152,502	-74,367	-0,192	-0,048
153,516	68,798	-0,245	-0,175
154,531	65,301	-0,246	-0,173
155,546	237,014	-0,250	-0,289
156,560	-42,997	-0,269	-0,094
157,575	51,206	-0,197	-0,130
158,589	-37,438	-0,280	-0,104
159,604	7,146	-0,402	-0,208
160,619	377,655	-0,159	-0,227
161,633	46,026	-0,251	-0,162
162,648	272,924	-0,129	-0,159
163,662	84,559	-0,156	-0,119
164,677	454,638	-0,125	-0,193
165,692	67,388	-0,238	-0,168
166,706	9,663	-0,132	-0,070
167,721	18,299	-0,165	-0,092
168,735	39,233	-0,299	-0,186
169,750	652,261	-0,127	-0,227
170,764	90,381	-0,190	-0,148
171,779	-113,746	-0,246	-0,033
172,794	512,895	-0,152	-0,247
173,808	93,308	-0,162	-0,127
174,823	17,719	-0,154	-0,085
175,837	-121,314	-0,328	-0,038
176,852	107,376	-0,220	-0,182
177,867	-35,818	-0,251	-0,094
178,881	229,373	-0,170	-0,193
179,896	800,000	-0,126	-0,252
180,910	-66,309	-0,207	-0,057
181,925	327,114	-0,148	-0,198
182,940	616,622	-0,171	-0,299
183,954	-19,546	-0,366	-0,157
184,969	161,649	-0,146	-0,142
185,983	310,613	-0,190	-0,248
186,998	75,618	-0,301	-0,220
188,013	80,962	-0,240	-0,180
189,027	162,595	-0,251	-0,245
190,042	111,574	-0,328	-0,275
191,056	-33,866	-0,224	-0,085
192,071	0,468	-0,215	-0,106
193,086	800,000	-0,106	-0,208
194,100	-119,353	-0,327	0,039
195,115	-123,986	-0,168	0,018
196,129	89,184	-0,180	-0,139
197,144	102,999	-0,269	-0,219
198,159	119,920	-0,249	-0,214
199,173	26,662	-0,147	-0,085
200,188	181,248	-0,197	-0,201
201,202	97,158	-0,201	-0,160
202,217	-10,319	-0,133	-0,061
203,232	800,000	-0,098	-0,292
204,246	-9,948	-0,221	-0,101
205,261	118,505	-0,244	-0,209
206,275	163,408	-0,216	-0,210
207,290	120,788	-0,196	-0,168
208,304	314,794	-0,106	-0,139
209,319	9,630	-0,285	-0,149
210,334	-56,923	-0,236	-0,072
211,348	91,777	-0,238	-0,185
212,363	-56,076	-0,236	-0,072
213,377	-18,606	-0,218	-0,094
214,392	155,687	-0,144	-0,137
215,407	-63,043	-0,232	-0,066
216,421	48,645	-0,177	-0,115
217,436	281,962	-0,171	-0,212
218,450	255,893	-0,214	-0,255
219,465	271,180	-0,142	-0,174
220,480	409,644	-0,116	-0,171
221,494	-200,000	-0,050	-0,217
222,509	18,545	-0,057	-0,032
223,523	207,585	-0,082	-0,089
224,538	-139,063	-0,281	-0,021
225,553	-200,000	-0,084	-0,259
226,567	462,034	-0,146	-0,226
227,582	-56,868	-0,216	-0,066
228,596	-76,984	-0,135	-0,032
229,611	-83,242	-0,141	0,031
230,626	-9,843	-0,166	-0,076
231,640	772,547	-0,070	-0,132
232,655	225,648	-0,171	-0,192
233,669	172,840	-0,212	-0,211
234,684	279,243	-0,124	-0,153
235,699	89,358	-0,286	-0,220
236,713	-144,833	-0,180	-0,011
237,728	-190,426	-0,211	0,002
238,742	-138,873	-0,145	-0,011
239,757	192,368	-0,193	-0,201
240,772	256,964	-0,079	-0,093
241,786	391,556	-0,148	-0,213
242,801	164,220	-0,154	-0,150
243,815	-142,177	-0,096	-0,006
244,830	97,870	-0,234	-0,185
245,844	321,308	-0,086	-0,113
246,859	-47,361	-0,138	-0,046
247,874	800,000	-0,049	-0,126
248,888	-200,000	-0,025	-0,167
249,903	-16,962	-0,252	-0,109
250,917	404,447	-0,115	-0,168
251,932	114,606	-0,221	-0,186
252,947	800,000	-0,048	-0,124
253,961	325,558	-0,161	-0,214
254,976	95,334	-0,181	-0,142
255,990	37,532	-0,148	-0,091
257,005	800,000	-0,115	-0,248
258,020	800,000	-0,107	-0,248
259,034	28,769	-0,107	0,062
260,049	117,654	-0,177	-0,151
261,063	491,953	-0,064	-0,101
262,078	-33,469	-0,176	-0,067
263,093	310,696	-0,194	-0,251
264,107	372,127	-0,161	-0,226
265,122	132,684	-0,145	-0,129
266,136	60,777	-0,267	-0,182
267,151	193,069	-0,082	0,085
268,166	-24,092	-0,196	-0,080
269,180	11,151	-0,257	-0,135
270,195	800,000	-0,115	-0,222
271,209	-47,219	-0,164	-0,055
272,224	800,000	-0,058	-0,146
273,239	-29,970	-0,199	-0,078
274,253	71,209	-0,205	-0,146
275,268	395,520	-0,116	-0,167
276,282	236,745	-0,076	-0,087
277,297	151,902	-0,191	-0,179
278,312	-19,106	-0,160	-0,068
279,326	-41,968	-0,158	-0,055
280,341	-58,832	-0,238	0,070
281,355	73,641	-0,173	-0,124
282,370	115,271	-0,244	-0,205
283,384	13,884	-0,179	-0,096
284,399	74,543	-0,133	-0,096
285,414	-115,371	-0,138	-0,018
286,428	109,616	-0,230	-0,190
287,443	74,670	-0,128	-0,092
288,457	800,000	-0,099	-0,191
289,472	-200,000	-0,028	-0,167
290,487	-87,610	-0,252	-0,052
291,501	657,326	-0,151	-0,268
292,516	7,323	-0,192	-0,098
293,530	-23,432	-0,071	-0,029
294,545	73,264	-0,147	-0,106
295,560	31,785	-0,158	-0,093
296,574	725,886	-0,145	-0,266
297,589	-16,988	-0,161	-0,069
298,603	-52,852	-0,164	-0,052
299,618	-68,413	-0,150	-0,040
300,633	-200,000	-0,009	-0,122
301,647	800,000	-0,081	-0,195
302,662	102,114	-0,179	-0,143
303,676	-119,865	-0,122	-0,014
304,691	-68,126	-0,151	-0,040
305,706	43,372	-0,271	-0,170
306,720	154,229	-0,141	-0,133
307,735	-105,201	-0,085	-0,013
308,749	800,000	-0,084	-0,220
309,764	-35,160	-0,201	-0,075
310,779	327,478	-0,067	-0,088
311,793	-12,526	-0,177	-0,079
312,808	685,627	-0,035	-0,063
313,822	120,740	-0,228	-0,194
314,837	185,808	-0,145	-0,148
315,852	-200,000	-0,052	-0,172
316,866	54,956	-0,107	-0,071
317,881	-83,338	-0,070	-0,015
318,895	-70,341	-0,143	-0,037
319,910	-44,066	-0,125	0,043
320,925	800,000	-0,096	-0,207
321,939	-66,812	-0,187	-0,051
322,954	-71,789	-0,114	0,029
323,968	472,683	-0,074	-0,115
324,983	637,082	-0,052	-0,090
325,997	-162,725	-0,101	-0,003
327,012	236,045	-0,118	-0,134
328,027	-22,713	-0,156	-0,064
329,041	154,720	-0,107	-0,101
330,056	-41,227	-0,135	-0,047
331,070	-200,000	-0,003	-0,075
332,085	-25,806	-0,061	-0,025
333,100	54,300	-0,093	-0,061
334,114	800,000	-0,078	-0,204
335,129	27,996	-0,108	-0,062
336,143	-24,861	-0,087	-0,035
337,158	-200,000	0,031	-0,102
338,173	-13,274	-0,058	-0,026
339,187	-98,938	-0,111	0,019
340,202	486,361	-0,142	-0,222
341,216	-36,256	-0,176	-0,065
342,231	-55,580	-0,189	-0,058
343,246	116,197	-0,186	-0,156
344,260	43,631	-0,181	-0,113
345,275	79,343	-0,129	-0,095
346,289	53,220	-0,163	-0,107
347,304	779,804	-0,059	-0,111
348,319	156,823	-0,221	-0,209
349,333	274,156	-0,193	-0,235
350,348	14,157	-0,154	-0,082
351,362	800,000	-0,047	-0,125
352,377	-200,000	-0,057	-0,184
353,392	53,754	-0,235	-0,154
354,406	-200,000	-0,055	-0,181
355,421	206,997	1310,703	1398,805
356,435	159,221	1470,879	1399,263
