DTS Sentinel unit serial number:	SN410029Multiplexer serial number:	ORYXHardware model number:	OX2-SRSoftware version number:	ORYX F/W v4,00 Oryx Data Collector v3.7.2.0data status	okinstallation	B3 Nyhavnadifferential loss correction	single-endedforward channel	channel 1reverse channel	N/Adate	2023/12/04time	12:02:30forward acquisition time	300,00reverse acquisition time	0,00gamma	499,1914k internal	0,3202k external	0,3202temperature offset calibration	1,0000default loss term (dB/km)	0,3820temperature slope calibration	1,0000multiplexer offset coefficient	1,0000multiplexer slope coefficient	1,0000fibre end	0,00T internal ref (°C)	14,27T ext. ref 1 (°C)	-0,08T ext. ref 2 (°C)	-0,11length (m)	temperature (°C)	Stokes	anti-Stokes-744,400	233,638	-0,307	-0,368
-743,385	-200,000	-0,021	0,311
-742,371	800,000	-0,108	-0,229
-741,356	-200,000	0,065	0,326
-740,342	72,443	-0,244	-0,185
-739,327	800,000	-0,113	0,236
-738,312	57,087	-0,190	-0,134
-737,298	800,000	-0,077	0,244
-736,283	195,487	-0,211	-0,233
-735,269	-200,000	0,076	0,284
-734,254	188,108	-0,198	-0,216
-733,239	58,692	-0,180	0,128
-732,225	724,633	-0,098	-0,191
-731,210	97,199	0,012	0,010
-730,196	-28,301	-0,144	-0,060
-729,181	185,811	0,014	0,015
-728,167	-200,000	-0,006	0,046
-727,152	-63,827	-0,039	-0,011
-726,137	800,000	-0,044	0,100
-725,123	87,959	-0,060	-0,048
-724,108	80,256	-0,127	-0,099
-723,094	800,000	-0,065	-0,161
-722,079	-44,646	-0,040	0,015
-721,064	-180,172	0,074	-0,001
-720,050	-64,092	0,063	0,018
-719,035	800,000	-0,008	-0,024
-718,021	39,019	0,029	0,019
-717,006	-62,789	-0,160	0,048
-715,991	-200,000	-0,007	-0,060
-714,977	5,536	-0,134	-0,072
-713,962	-95,218	-0,068	0,013
-712,948	-111,366	-0,109	-0,016
-711,933	800,000	-0,020	-0,055
-710,918	-200,000	0,002	0,114
-709,904	123,194	-0,097	0,088
-708,889	-200,000	-0,011	-0,088
-707,875	-42,532	-0,084	-0,031
-706,860	77,298	-0,038	-0,030
-705,845	-33,010	-0,044	0,018
-704,831	387,906	-0,086	0,130
-703,816	-1,013	-0,070	-0,036
-702,802	-200,000	0,024	-0,123
-701,787	90,948	-0,058	-0,047
-700,772	-116,407	-0,068	-0,009
-699,758	800,000	0,005	0,012
-698,743	280,581	0,027	0,036
-697,729	177,877	-0,006	0,006
-696,714	-200,000	0,005	-0,041
-695,699	-26,362	-0,046	0,020
-694,685	-6,015	-0,166	-0,082
-693,670	355,283	0,043	-0,062
-692,656	386,025	0,024	0,037
-691,641	162,390	0,092	0,094
-690,627	-200,000	-0,011	0,116
-689,612	800,000	-0,007	0,021
-688,597	629,792	-0,045	-0,083
-687,583	-200,000	-0,009	-0,061
-686,568	104,393	-0,101	-0,087
-685,554	-200,000	0,028	-0,111
-684,539	-200,000	0,002	-0,084
-683,524	-41,965	0,164	0,061
-682,510	521,583	-0,125	0,214
-681,495	563,501	0,034	0,060
-680,481	282,500	-0,067	-0,087
-679,466	35,462	-0,088	-0,056
-678,451	759,072	0,076	0,150
-677,437	252,898	-0,047	-0,059
-676,422	800,000	0,028	-0,074
-675,408	-6,587	-0,102	0,050
-674,393	125,397	0,050	-0,046
-673,378	25,337	0,033	-0,020
-672,364	54,223	-0,091	-0,063
-671,349	800,000	-0,040	0,105
-670,335	-200,000	0,014	-0,185
-669,320	-200,000	-0,014	-0,056
-668,305	434,494	0,038	-0,060
-667,291	-200,000	0,000	-0,015
-666,276	259,820	-0,095	-0,119
-665,262	210,222	0,005	-0,006
-664,247	8,703	-0,178	-0,097
-663,232	800,000	-0,085	0,177
-662,218	153,405	-0,072	0,071
-661,203	39,567	0,085	-0,055
-660,189	157,912	0,027	0,028
-659,174	-33,654	-0,096	-0,038
-658,159	-200,000	0,026	-0,097
-657,145	-200,000	0,007	0,035
-656,130	-89,218	0,060	0,013
-655,116	-148,708	-0,125	0,007
-654,101	-200,000	0,012	-0,043
-653,086	24,182	-0,046	0,028
-652,072	-200,000	-0,017	0,074
-651,057	-27,968	-0,106	-0,044
-650,043	67,379	0,046	-0,034
-649,028	800,000	0,020	-0,053
-648,014	-125,253	0,179	-0,020
-646,999	-29,668	0,112	-0,046
-645,984	-50,449	0,103	0,035
-644,970	-200,000	0,007	-0,138
-643,955	235,076	-0,142	-0,170
-642,941	800,000	-0,061	-0,132
-641,926	-200,000	0,007	-0,063
-640,911	-200,000	0,012	0,055
-639,897	125,157	0,097	-0,089
-638,882	-200,000	-0,014	0,090
-637,868	-59,037	-0,103	0,032
-636,853	-82,960	-0,184	0,043
-635,838	71,231	0,090	0,068
-634,824	276,986	0,038	-0,049
-633,809	59,164	-0,076	-0,054
-632,795	800,000	0,030	0,076
-631,780	200,427	0,100	0,111
-630,765	-200,000	-0,004	0,106
-629,751	-99,510	-0,108	0,020
-628,736	-72,667	-0,095	-0,025
-627,722	141,146	0,080	-0,077
-626,707	-200,000	-0,030	-0,113
-625,692	8,367	0,169	0,092
-624,678	-200,000	-0,039	-0,155
-623,663	-200,000	0,008	0,027
-622,649	-88,791	-0,043	-0,009
-621,634	112,236	-0,109	-0,095
-620,619	-11,432	0,053	-0,025
-619,605	-200,000	-0,019	0,083
-618,590	281,909	0,036	0,046
-617,576	800,000	-0,045	0,097
-616,561	-11,361	-0,078	0,037
-615,546	-62,824	-0,110	0,033
-614,532	-167,408	-0,041	0,001
-613,517	63,700	0,015	0,011
-612,503	-200,000	0,001	0,030
-611,488	-200,000	0,029	0,113
-610,474	-116,807	-0,058	0,008
-609,459	-84,273	0,111	-0,025
-608,444	-7,150	-0,134	-0,065
-607,430	86,249	0,085	0,067
-606,415	42,140	-0,093	0,061
-605,401	-200,000	-0,012	-0,084
-604,386	191,728	0,076	-0,083
-603,371	-54,215	-0,038	0,012
-602,357	-200,000	-0,036	-0,161
-601,342	800,000	-0,019	-0,043
-600,328	760,149	0,054	-0,106
-599,313	-89,328	0,142	0,030
-598,298	45,083	0,025	-0,016
-597,284	-200,000	-0,014	-0,134
-596,269	237,494	0,083	0,100
-595,255	49,738	0,055	-0,038
-594,240	198,956	0,097	-0,108
-593,225	286,063	-0,057	-0,074
-592,211	755,987	0,047	-0,092
-591,196	178,247	0,064	0,068
-590,182	-9,870	0,110	0,053
-589,167	-57,506	0,182	-0,057
-588,152	53,098	0,049	-0,034
-587,138	-200,000	-0,032	0,260
-586,123	800,000	-0,076	-0,173
-585,109	684,767	-0,052	-0,099
-584,094	-200,000	0,008	-0,239
-583,079	800,000	0,040	0,082
-582,065	73,144	-0,043	0,032
-581,050	92,386	-0,086	-0,070
-580,036	-85,978	-0,027	0,006
-579,021	323,897	0,062	-0,085
-578,006	64,678	-0,025	-0,018
-576,992	-200,000	0,018	-0,078
-575,977	-155,769	0,093	0,004
-574,963	-95,343	0,137	0,026
-573,948	-200,000	-0,006	-0,022
-572,934	800,000	0,064	0,157
-571,919	800,000	-0,037	-0,098
-570,904	-200,000	0,012	-0,065
-569,890	-166,982	-0,034	-0,001
-568,875	15,234	-0,124	0,070
-567,861	-93,909	0,092	-0,018
-566,846	-200,000	-0,027	0,128
-565,831	800,000	-0,038	0,102
-564,817	-106,395	-0,102	-0,016
-563,802	-145,000	-0,078	-0,005
-562,788	-98,861	0,157	0,029
-561,773	-80,660	0,034	0,008
-560,758	800,000	-0,044	0,121
-559,744	156,176	0,004	-0,004
-558,729	-38,799	0,061	0,023
-557,715	465,570	-0,063	-0,102
-556,700	-121,211	-0,063	-0,007
-555,685	109,124	0,063	-0,054
-554,671	-27,160	-0,124	-0,052
-553,656	-200,000	0,016	0,052
-552,642	54,031	0,066	0,046
-551,627	-87,068	-0,164	-0,036
-550,612	53,957	-0,167	0,116
-549,598	341,201	0,028	0,040
-548,583	109,483	-0,117	0,101
-547,569	-42,861	-0,082	0,030
-546,554	119,712	0,054	-0,049
-545,539	-54,410	0,074	-0,024
-544,525	315,421	0,068	-0,093
-543,510	152,722	-0,053	-0,052
-542,496	299,900	-0,099	-0,132
-541,481	389,250	0,080	-0,120
-540,466	138,263	0,066	0,063
-539,452	127,641	-0,051	-0,047
-538,437	-200,000	0,006	0,055
-537,423	153,736	0,169	0,167
-536,408	-64,523	-0,090	-0,026
-535,393	-30,609	0,079	-0,032
-534,379	307,139	0,062	-0,084
-533,364	-110,728	-0,150	-0,022
-532,350	-200,000	0,010	0,103
-531,335	201,024	0,039	0,043
-530,321	-182,295	0,060	-0,001
-529,306	-200,000	-0,026	-0,088
-528,291	240,030	-0,037	0,045
-527,277	-62,861	-0,101	0,030
-526,262	-93,913	-0,102	0,020
-525,248	-200,000	0,019	-0,117
-524,233	-200,000	0,000	0,014
-523,218	212,516	0,036	0,040
-522,204	-200,000	-0,012	-0,058
-521,189	66,401	-0,085	-0,062
-520,175	307,388	0,061	-0,082
-519,160	-26,687	0,111	-0,047
-518,145	32,203	0,054	0,034
-517,131	-200,000	0,004	0,088
-516,116	222,944	0,041	0,047
-515,102	-80,214	-0,021	0,005
-514,087	-119,991	-0,152	0,019
-513,072	-12,709	0,182	-0,085
-512,058	-69,320	0,111	-0,030
-511,043	-136,979	0,013	-0,001
-510,029	800,000	-0,029	0,079
-509,014	33,940	0,067	0,042
-507,999	383,607	0,064	-0,095
-506,985	-56,368	-0,047	0,015
-505,970	45,537	0,073	-0,049
-504,956	800,000	0,034	-0,068
-503,941	230,330	0,021	0,024
-502,926	-4,081	0,083	-0,041
-501,912	-127,031	-0,004	-0,000
-500,897	-200,000	0,017	-0,150
-499,883	-133,649	-0,037	-0,003
-498,868	-129,442	-0,141	-0,014
-497,853	71,801	-0,071	0,053
-496,839	427,839	0,039	0,061
-495,824	-138,412	-0,016	0,001
-494,810	-200,000	-0,001	0,107
-493,795	-101,708	0,096	0,017
-492,781	-200,000	-0,013	0,093
-491,766	28,619	-0,135	0,082
-490,751	800,000	-0,057	-0,145
-489,737	41,275	0,052	0,034
-488,722	800,000	-0,011	0,031
-487,708	-200,000	-0,003	0,053
-486,693	-200,000	-0,011	0,125
-485,678	285,409	-0,075	0,097
-484,664	-200,000	-0,010	-0,074
-483,649	346,123	-0,059	-0,084
-482,635	800,000	-0,034	-0,072
-481,620	-127,977	0,092	0,009
-480,605	293,022	-0,070	0,092
-479,591	-200,000	-0,019	0,093
-478,576	103,746	0,047	0,040
-477,562	-183,880	-0,048	-0,001
-476,547	67,489	-0,054	0,040
-475,532	-200,000	0,009	0,072
-474,518	742,104	0,037	-0,071
-473,503	800,000	0,045	0,125
-472,489	800,000	0,030	0,091
-471,474	-121,958	0,044	0,005
-470,459	-83,041	-0,101	-0,023
-469,445	139,099	-0,050	0,047
-468,430	-84,269	0,104	0,024
-467,416	-16,732	-0,023	0,010
-466,401	-3,168	0,134	0,067
-465,386	800,000	0,045	0,100
-464,372	233,897	0,028	-0,034
-463,357	-32,583	0,081	0,032
-462,343	-200,000	0,020	0,136
-461,328	-200,000	0,000	-0,097
-460,313	-87,873	0,048	-0,010
-459,299	-150,448	-0,040	-0,002
-458,284	326,501	0,063	-0,087
-457,270	264,851	0,008	-0,009
-456,255	-200,000	0,005	-0,029
-455,241	261,700	-0,053	-0,067
-454,226	-200,000	-0,005	-0,071
-453,211	-36,759	0,093	0,036
-452,197	25,098	-0,021	-0,013
-451,182	-75,589	-0,057	0,014
-450,168	21,344	-0,020	0,011
-449,153	419,529	-0,058	0,090
-448,138	118,815	-0,027	-0,024
-447,124	-200,000	0,021	-0,148
-446,109	800,000	0,027	-0,058
-445,095	158,917	-0,040	-0,040
-444,080	19,822	0,070	-0,040
-443,065	7,015	0,025	0,014
-442,051	800,000	-0,013	-0,037
-441,036	23,444	-0,091	-0,053
-440,022	-200,000	0,019	-0,078
-439,007	112,588	0,064	-0,056
-437,992	557,221	0,017	0,030
-436,978	-63,777	0,069	-0,020
-435,963	535,982	0,033	-0,057
-434,949	174,837	-0,101	0,106
-433,934	800,000	0,065	-0,151
-432,919	-200,000	0,006	-0,029
-431,905	29,516	-0,037	0,023
-430,890	-200,000	-0,008	-0,105
-429,876	-200,000	-0,003	-0,044
-428,861	-46,643	-0,021	0,007
-427,846	564,616	-0,049	-0,085
-426,832	-30,250	-0,061	-0,025
-425,817	-26,536	-0,048	-0,020
-424,803	-64,438	-0,136	-0,039
-423,788	75,691	0,116	0,088
-422,773	-105,914	0,092	-0,015
-421,759	-200,000	-0,020	0,068
-420,744	-200,000	-0,006	0,028
-419,730	-200,000	0,015	-0,129
-418,715	-200,000	0,002	-0,029
-417,701	-16,145	-0,064	0,029
-416,686	-200,000	0,008	-0,077
-415,671	-35,408	0,075	0,029
-414,657	-200,000	0,002	0,028
-413,642	800,000	0,006	0,012
-412,628	-200,000	-0,013	-0,096
-411,613	280,278	-0,115	-0,148
-410,598	566,930	-0,044	-0,077
-409,584	100,559	0,054	-0,045
-408,569	-176,002	0,054	-0,001
-407,555	57,679	-0,031	-0,021
-406,540	48,379	-0,047	0,032
-405,525	800,000	0,015	-0,039
-404,511	800,000	0,082	-0,216
-403,496	146,394	-0,020	0,020
-402,482	55,143	-0,050	-0,035
-401,467	377,600	-0,036	0,053
-400,452	-200,000	-0,013	0,043
-399,438	760,854	-0,023	0,044
-398,423	-200,000	-0,027	0,088
-397,409	-46,171	0,016	-0,006
-396,394	187,553	0,053	0,057
-395,379	49,057	0,031	0,021
-394,365	-200,000	0,002	0,074
-393,350	-200,000	-0,022	-0,074
-392,336	12,981	0,053	-0,029
-391,321	-161,004	0,047	-0,002
-390,306	-38,840	-0,080	-0,030
-389,292	800,000	0,024	0,072
-388,277	-152,220	0,159	-0,008
-387,263	800,000	0,075	0,180
-386,248	800,000	0,070	0,154
-385,233	800,000	-0,051	0,149
-384,219	191,875	0,086	0,093
-383,204	-200,000	0,011	0,189
-382,190	-200,000	0,004	-0,047
-381,175	-200,000	-0,012	0,000
-380,160	62,029	-0,053	-0,038
-379,146	798,138	0,020	0,040
-378,131	-200,000	0,009	0,037
-377,117	142,578	0,078	0,074
-376,102	155,440	-0,142	0,140
-375,088	-200,000	0,006	0,067
-374,073	1,361	-0,076	-0,039
-373,058	130,735	0,038	0,035
-372,044	-67,659	0,061	-0,017
-371,029	800,000	0,030	-0,075
-370,015	-200,000	0,007	-0,103
-369,000	-200,000	0,007	-0,036
-367,985	174,933	-0,073	-0,075
-366,971	217,279	-0,060	-0,068
-365,956	-200,000	-0,026	-0,099
-364,942	-111,783	0,111	0,016
-363,927	-19,227	0,061	-0,027
-362,912	800,000	-0,021	-0,067
-361,898	734,766	-0,055	-0,105
-360,883	800,000	-0,029	-0,062
-359,869	155,899	-0,020	-0,020
-358,854	575,004	-0,036	-0,063
-357,839	-98,982	-0,077	0,014
-356,825	-151,941	0,021	0,001
-355,810	-200,000	-0,005	0,026
-354,796	-200,000	0,022	0,070
-353,781	800,000	-0,029	-0,076
-352,766	800,000	-0,027	-0,065
-351,752	401,938	0,023	-0,035
-350,737	-44,047	-0,022	0,008
-349,723	-200,000	-0,011	-0,047
-348,708	11,710	0,158	0,087
-347,693	-64,731	-0,099	-0,029
-346,679	24,130	-0,105	-0,062
-345,664	337,234	-0,075	-0,105
-344,650	800,000	0,038	0,107
-343,635	800,000	-0,019	0,053
-342,620	-200,000	-0,026	0,095
-341,606	-200,000	0,010	0,038
-340,591	800,000	0,031	0,077
-339,577	-200,000	-0,022	-0,143
-338,562	-43,460	0,049	0,017
-337,548	216,346	-0,058	0,066
-336,533	20,307	-0,079	0,046
-335,518	630,797	0,094	0,171
-334,504	387,949	0,026	-0,039
-333,489	-200,000	0,022	0,089
-332,475	-200,000	0,011	0,054
-331,460	-200,000	0,000	-0,070
-330,445	-51,179	-0,058	0,019
-329,431	91,419	-0,069	-0,055
-328,416	5,282	0,085	0,045
-327,402	762,124	0,011	0,022
-326,387	-200,000	-0,006	0,072
-325,372	-160,447	0,095	-0,004
-324,358	-81,456	-0,078	0,018
-323,343	-200,000	-0,037	-0,134
-322,329	399,568	0,110	0,166
-321,314	799,521	0,039	0,077
-320,299	800,000	-0,059	0,180
-319,285	-107,083	-0,100	0,016
-318,270	-200,000	-0,007	-0,061
-317,256	110,674	-0,060	-0,051
-316,241	-39,035	-0,061	0,023
-315,226	366,737	0,042	0,060
-314,212	800,000	0,041	0,102
-313,197	441,714	0,060	0,094
-312,183	-125,200	0,065	0,007
-311,168	204,626	-0,080	-0,089
-310,153	201,191	-0,057	0,063
-309,139	137,848	0,123	-0,116
-308,124	-200,000	-0,040	0,175
-307,110	-32,358	-0,037	0,015
-306,095	-185,060	0,068	0,001
-305,080	800,000	0,027	0,065
-304,066	-200,000	-0,036	-0,183
-303,051	174,564	-0,071	-0,073
-302,037	14,066	0,039	-0,022
-301,022	-20,785	0,057	-0,025
-300,008	-8,495	0,053	-0,025
-298,993	265,307	0,056	0,070
-297,978	526,162	0,002	0,004
-296,964	-200,000	0,003	-0,033
-295,949	-5,086	-0,175	-0,086
-294,935	366,473	-0,064	0,093
-293,920	-171,715	0,033	-0,001
-292,905	-41,218	0,100	-0,037
-291,891	-0,757	0,041	0,021
-290,876	682,132	-0,048	0,091
-289,862	-119,073	0,031	-0,004
-288,847	-54,697	-0,087	0,028
-287,832	374,477	-0,018	-0,027
-286,818	-200,000	-0,005	0,019
-285,803	-200,000	-0,008	0,040
-284,789	800,000	0,012	0,024
-283,774	157,154	0,077	0,076
-282,759	-200,000	0,000	0,097
-281,745	61,859	-0,095	0,067
-280,730	65,248	-0,018	-0,013
-279,716	-124,911	-0,137	0,015
-278,701	-12,539	0,006	-0,003
-277,686	800,000	-0,047	0,125
-276,672	52,062	0,105	0,071
-275,657	-118,839	0,091	-0,011
-274,643	800,000	0,021	-0,047
-273,628	8,321	-0,016	-0,009
-272,613	-200,000	0,010	0,095
-271,599	169,826	0,070	0,071
-270,584	-38,695	-0,112	-0,042
-269,570	12,672	0,020	0,011
-268,555	40,014	0,060	-0,038
-267,540	335,698	-0,076	0,106
-266,526	-79,511	-0,092	-0,022
-265,511	-200,000	0,002	-0,047
-264,497	18,816	0,110	0,063
-263,482	234,788	0,044	0,052
-262,467	800,000	0,043	-0,090
-261,453	-200,000	0,012	0,047
-260,438	92,061	-0,030	-0,024
-259,424	407,639	-0,070	-0,106
-258,409	477,105	-0,048	-0,078
-257,395	220,263	0,039	-0,044
-256,380	-173,584	0,102	0,002
-255,365	475,726	0,082	0,132
-254,351	-21,166	-0,058	0,025
-253,336	-72,829	-0,099	0,026
-252,322	-57,003	-0,144	0,045
-251,307	-200,000	-0,003	0,134
-250,292	16,268	0,107	-0,060
-249,278	-7,599	-0,137	-0,066
-248,263	800,000	-0,021	0,042
-247,249	84,440	0,107	0,083
-246,234	41,591	0,052	0,033
-245,219	800,000	-0,040	-0,082
-244,205	-8,282	-0,131	-0,063
-243,190	-200,000	-0,021	0,110
-242,176	260,667	0,054	-0,066
-241,161	47,549	0,070	0,047
-240,146	800,000	0,079	0,176
-239,132	-200,000	0,067	0,293
-238,117	-58,302	-0,016	0,005
-237,103	-29,952	-0,047	0,019
-236,088	459,481	0,071	-0,113
-235,073	394,528	0,037	0,056
-234,059	27,199	0,107	-0,064
-233,044	164,575	0,016	-0,016
-232,030	-200,000	-0,012	-0,130
-231,015	800,000	0,005	0,015
-230,000	166,708	0,092	-0,093
-228,986	22,663	-0,013	-0,007
-227,971	438,321	0,072	0,113
-226,957	800,000	-0,013	0,039
-225,942	-119,966	-0,027	0,003
-224,927	-151,711	-0,063	-0,003
-223,913	-39,212	-0,065	-0,024
-222,898	-62,443	0,099	-0,029
-221,884	474,441	-0,056	-0,091
-220,869	-200,000	0,003	-0,047
-219,855	467,053	0,050	-0,080
-218,840	180,499	-0,072	0,076
-217,825	-200,000	-0,001	-0,132
-216,811	248,762	-0,042	-0,050
-215,796	-64,579	-0,114	-0,033
-214,782	800,000	-0,027	-0,063
-213,767	-200,000	0,001	0,014
-212,752	-200,000	0,001	-0,067
-211,738	236,110	-0,079	0,093
-210,723	224,455	0,027	0,031
-209,709	-200,000	0,015	-0,150
-208,694	-200,000	-0,004	0,084
-207,679	157,109	-0,119	-0,117
-206,665	51,776	0,107	-0,072
-205,650	-200,000	0,032	-0,116
-204,636	800,000	-0,004	-0,011
-203,621	800,000	0,045	0,108
-202,606	15,694	-0,070	-0,039
-201,592	800,000	-0,052	0,116
-200,577	-200,000	-0,001	-0,015
-199,563	-200,000	0,017	-0,118
-198,548	-127,872	0,128	0,013
-197,533	-89,158	0,101	0,021
-196,519	800,000	-0,028	0,057
-195,504	453,493	0,043	-0,069
-194,490	-48,103	-0,112	-0,038
-193,475	60,151	-0,050	0,035
-192,460	24,001	-0,115	0,067
-191,446	146,295	0,101	0,097
-190,431	-51,074	-0,026	0,009
-189,417	24,653	-0,109	-0,064
-188,402	21,878	-0,178	-0,103
-187,387	355,234	-0,067	-0,095
-186,373	-200,000	-0,004	-0,173
-185,358	-132,888	-0,026	0,002
-184,344	-200,000	0,028	0,103
-183,329	-55,194	0,122	0,039
-182,315	-200,000	-0,010	-0,064
-181,300	-200,000	-0,009	-0,049
-180,285	-200,000	-0,022	0,143
-179,271	45,251	0,101	0,066
-178,256	-109,655	-0,170	-0,025
-177,242	800,000	-0,036	-0,093
-176,227	-200,000	-0,015	0,059
-175,212	671,780	-0,059	0,109
-174,198	-30,588	0,069	0,028
-173,183	94,074	0,055	0,044
-172,169	137,195	-0,041	0,039
-171,154	-200,000	0,004	0,044
-170,139	-68,457	-0,078	0,021
-169,125	800,000	0,055	-0,114
-168,110	702,145	0,052	-0,098
-167,096	237,866	-0,050	0,059
-166,081	380,084	-0,020	-0,029
-165,066	-200,000	-0,022	-0,117
-164,052	651,386	-0,075	-0,137
-163,037	1,246	-0,092	-0,047
-162,023	800,000	0,028	0,083
-161,008	-200,000	0,009	0,227
-159,993	1,887	0,059	-0,030
-158,979	66,568	-0,080	0,058
-157,964	-127,868	0,053	-0,005
-156,950	-11,993	-0,049	-0,023
-155,935	11,939	0,061	-0,033
-154,920	166,737	0,105	0,106
-153,906	103,938	0,105	-0,087
-152,891	-200,000	-0,017	0,190
-151,877	-200,000	-0,007	0,081
-150,862	-200,000	-0,001	0,087
-149,847	46,518	-0,055	-0,036
-148,833	744,711	-0,089	-0,172
-147,818	-200,000	0,020	0,100
-146,804	-86,004	0,077	-0,017
-145,789	800,000	0,041	-0,084
-144,775	-118,369	-0,089	0,011
-143,760	49,811	-0,079	-0,053
-142,745	-114,257	-0,092	0,013
-141,731	197,541	-0,125	-0,136
-140,716	214,181	-0,054	0,061
-139,702	144,454	-0,111	0,105
-138,687	-102,850	-0,073	0,012
-137,672	800,000	-0,020	0,044
-136,658	38,214	-0,034	0,021
-135,643	-39,862	0,065	0,024
-134,629	108,395	-0,154	-0,130
-133,614	-120,675	0,085	0,010
-132,599	-200,000	-0,008	-0,058
-131,585	-165,874	-0,108	0,003
-130,570	800,000	0,013	0,040
-129,556	160,027	0,090	0,089
-128,541	-171,037	-0,198	-0,005
-127,526	204,713	-0,055	0,061
-126,512	557,294	-0,047	-0,080
-125,497	-200,000	0,006	0,095
-124,483	198,082	-0,153	0,166
-123,468	-200,000	-0,005	-0,028
-122,453	-176,381	-0,107	0,002
-121,439	697,820	0,035	-0,066
-120,424	174,210	-0,040	-0,041
-119,410	427,028	0,056	0,086
-118,395	72,508	-0,029	-0,021
-117,380	249,352	-0,079	-0,095
-116,366	-51,520	0,128	0,042
-115,351	-103,517	-0,118	-0,019
-114,337	185,571	-0,068	-0,072
-113,322	193,132	-0,091	0,098
-112,307	-200,000	0,005	-0,046
-111,293	25,357	-0,065	-0,038
-110,278	149,783	0,016	0,016
-109,264	52,661	0,015	0,010
-108,249	249,526	0,089	-0,108
-107,234	207,916	-0,089	-0,099
-106,220	171,220	0,082	-0,083
-105,205	-130,559	-0,072	0,007
-104,191	-53,280	0,080	0,026
-103,176	448,798	0,069	0,108
-102,162	97,719	0,046	0,038
-101,147	-200,000	-0,015	-0,082
-100,132	-161,202	0,105	-0,004
-99,118	-200,000	0,004	-0,110
-98,103	74,643	0,046	0,034
-97,089	-59,130	-0,031	-0,009
-96,074	-200,000	-0,022	0,070
-95,059	-200,000	-0,006	0,061
-94,045	-27,539	-0,115	-0,047
-93,030	-53,006	-0,150	-0,049
-92,016	800,000	-0,018	-0,052
-91,001	-200,000	-0,001	-0,027
-89,986	-174,127	0,223	0,005
-88,972	550,768	-0,058	0,099
-87,957	-86,087	-0,055	0,012
-86,943	734,910	0,038	-0,072
-85,928	106,292	0,112	-0,094
-84,913	26,533	0,162	-0,096
-83,899	-200,000	-0,003	0,016
-82,884	16,792	-0,050	0,028
-81,870	-200,000	0,021	0,099
-80,855	800,000	-0,068	0,139
-79,840	-83,028	0,248	0,056
-78,826	51,906	-0,074	-0,050
-77,811	219,264	-0,015	0,017
-76,797	85,823	0,107	0,083
-75,782	151,043	-0,014	0,014
-74,767	592,859	0,059	-0,104
-73,753	483,829	0,027	-0,043
-72,738	-200,000	-0,006	0,070
-71,724	-200,000	-0,015	0,074
-70,709	-11,260	-0,099	-0,046
-69,694	-71,628	0,061	-0,016
-68,680	800,000	0,030	0,068
-67,665	-200,000	0,032	0,121
-66,651	-178,079	-0,067	-0,001
-65,636	-63,369	-0,147	-0,043
-64,622	-71,235	-0,127	-0,033
-63,607	404,504	0,134	-0,201
-62,592	-200,000	0,090	-0,307
-61,578	796,391	0,053	-0,104
-60,563	800,000	0,012	-0,024
-59,549	51,415	0,021	-0,014
-58,534	-59,494	-1,519	-0,459
-57,519	408,835	-1,319	-1,982
-56,505	-200,000	-0,668	-4,466
-55,490	183,055	0,988	1,033
-54,476	800,000	4,736	11,061
-53,461	-200,000	18,597	299,105
-52,446	800,000	732,675	2265,622
-51,432	560,345	1649,087	2830,687
-50,417	78,741	1668,254	1261,563
-49,403	22,184	1541,492	888,362
-48,388	16,132	1464,255	814,500
-47,373	17,715	1454,371	816,600
-46,359	16,897	1444,657	807,197
-45,344	14,387	1439,832	792,473
-44,330	14,325	1437,936	791,105
-43,315	14,338	1436,279	790,221
-42,300	14,362	1434,780	789,480
-41,286	14,318	1433,672	788,632
-40,271	14,329	1432,269	787,881
-39,257	14,320	1430,887	787,043
-38,242	14,400	1429,410	786,579
-37,227	14,390	1428,497	786,002
-36,213	14,359	1426,965	784,980
-35,198	14,386	1425,889	784,483
-34,184	14,416	1425,032	784,122
-33,169	14,336	1423,818	783,044
-32,154	14,420	1422,611	782,747
-31,140	14,375	1421,296	781,783
-30,125	14,399	1420,143	781,231
-29,111	14,433	1418,958	780,705
-28,096	14,361	1418,016	779,820
-27,082	14,338	1416,862	779,042
-26,067	14,266	1415,942	778,168
-25,052	14,301	1414,800	777,677
-24,038	14,302	1413,756	777,075
-23,023	14,283	1412,858	776,463
-22,009	14,274	1411,549	775,667
-20,994	14,234	1410,962	775,126
-19,979	14,283	1410,023	774,811
-18,965	14,201	1409,187	773,935
-17,950	14,213	1408,176	773,407
-16,936	14,238	1407,132	772,921
-15,921	14,197	1406,006	772,081
-14,906	14,180	1405,345	771,605
-13,892	14,185	1404,358	771,057
-12,877	14,165	1403,545	770,486
-11,863	14,171	1402,493	769,908
-10,848	14,182	1401,552	769,409
-9,833	14,143	1400,786	768,778
-8,819	14,094	1400,051	768,119
-7,804	14,129	1398,982	767,665
-6,790	14,092	1397,938	766,889
-5,775	14,112	1396,953	766,411
-4,760	14,100	1395,893	765,744
-3,746	14,056	1395,117	765,084
-2,731	14,084	1394,433	764,807
-1,717	14,086	1393,373	764,203
-0,702	14,129	1391,554	763,373
0,313	18,035	1309,849	736,609
1,327	34,570	705,742	435,141
2,342	53,659	123,989	84,039
3,356	2,994	16,663	8,533
4,371	5,691	3,162	1,647
5,386	47,143	0,423	0,278
6,400	-200,000	0,027	0,147
7,415	-3,257	-0,273	-0,134
8,429	54,169	-0,235	-0,159
9,444	133,956	-0,250	-0,229
10,459	119,564	-0,281	-0,246
11,473	158,901	-0,197	-0,193
12,488	-21,106	-0,286	-0,123
13,502	-63,087	-0,404	-0,117
14,517	17,789	-0,341	-0,191
15,531	84,032	-0,248	-0,192
16,546	40,242	-0,391	-0,248
17,561	139,113	-0,294	-0,273
18,575	-121,963	-0,173	-0,020
19,590	-85,893	-0,231	-0,050
20,604	200,346	-0,286	-0,311
21,619	84,287	-0,455	-0,351
22,634	-1,444	-0,348	-0,173
23,648	44,662	-0,426	-0,276
24,663	171,653	-0,359	-0,364
25,677	75,830	-0,319	-0,238
26,692	43,101	-0,316	-0,203
27,707	79,258	-0,212	-0,160
28,721	43,790	-0,276	-0,178
29,736	120,161	-0,320	-0,280
30,750	60,731	-0,457	-0,319
31,765	72,352	-0,482	-0,354
32,780	60,746	-0,306	-0,214
33,794	66,874	-0,244	-0,175
34,809	19,254	-0,405	-0,229
35,823	-21,494	-0,416	-0,178
36,838	77,783	-0,211	-0,159
37,853	63,440	-0,416	-0,294
38,867	229,348	-0,236	-0,272
39,882	3,507	-0,374	-0,191
40,896	185,528	-0,270	-0,283
41,911	-44,689	-0,423	-0,148
42,926	75,009	-0,364	-0,270
43,940	59,544	-0,344	-0,239
44,955	-46,858	-0,434	-0,149
45,969	112,354	-0,464	-0,396
46,984	163,351	-0,316	-0,313
47,999	94,729	-0,321	-0,257
49,013	367,782	-0,253	-0,361
50,028	-29,144	-0,505	-0,203
51,042	45,255	-0,419	-0,271
52,057	163,709	-0,429	-0,426
53,071	58,244	-0,395	-0,272
54,086	117,799	-0,319	-0,276
55,101	141,575	-0,342	-0,319
56,115	-3,037	-0,355	-0,174
57,130	91,165	-0,332	-0,262
58,144	484,556	-0,176	-0,283
59,159	84,405	-0,326	-0,251
60,174	157,947	-0,280	-0,274
61,188	43,243	-0,392	-0,252
62,203	368,456	-0,226	-0,322
63,217	84,393	-0,337	-0,259
64,232	-38,457	-0,401	-0,149
65,247	283,551	-0,231	-0,292
66,261	8,013	-0,420	-0,221
67,276	57,268	-0,283	-0,194
68,290	29,253	-0,346	-0,206
69,305	-128,174	-0,309	-0,031
70,320	52,933	-0,260	-0,175
71,334	49,471	-0,277	-0,183
72,349	194,180	-0,336	-0,359
73,363	61,973	-0,410	-0,287
74,378	70,843	-0,299	-0,217
75,393	18,892	-0,396	-0,222
76,407	167,514	-0,216	-0,216
77,422	-17,646	-0,332	-0,146
78,436	-12,642	-0,305	-0,139
79,451	-24,043	-0,228	-0,095
80,466	93,118	-0,318	-0,252
81,480	171,430	-0,298	-0,300
82,495	69,440	-0,242	-0,175
83,509	118,481	-0,286	-0,247
84,524	174,163	-0,183	-0,186
85,539	-147,942	-0,346	-0,020
86,553	49,128	-0,396	-0,261
87,568	52,511	-0,424	-0,284
88,582	-47,528	-0,434	-0,147
89,597	212,384	-0,256	-0,284
90,611	330,261	-0,196	-0,265
91,626	30,577	-0,307	-0,184
92,641	342,088	-0,190	-0,261
93,655	109,943	-0,243	-0,204
94,670	-66,769	-0,424	-0,117
95,684	65,020	-0,271	-0,192
96,699	42,557	-0,407	-0,260
97,714	352,751	-0,220	-0,306
98,728	-12,639	-0,294	-0,134
99,743	-40,297	-0,234	-0,085
100,757	74,959	-0,235	-0,173
101,772	31,900	-0,369	-0,222
102,787	-2,074	-0,396	-0,194
103,801	580,448	-0,214	-0,369
104,816	118,983	-0,276	-0,239
105,830	315,098	-0,150	-0,199
106,845	46,725	-0,273	-0,178
107,860	43,838	-0,237	-0,152
108,874	93,855	-0,342	-0,272
109,889	-33,616	-0,327	-0,126
110,903	79,723	-0,297	-0,224
111,918	143,390	-0,265	-0,247
112,933	17,511	-0,167	-0,093
113,947	58,816	-0,293	-0,202
114,962	-86,497	-0,347	-0,074
115,976	-69,638	-0,240	-0,064
116,991	102,386	-0,256	-0,210
118,006	-86,357	-0,392	-0,084
119,020	63,897	-0,231	-0,162
120,035	2,559	-0,255	-0,129
121,049	-122,246	-0,186	-0,021
122,064	-119,205	-0,201	0,024
123,079	61,695	-0,329	-0,229
124,093	-17,276	-0,336	-0,148
125,108	212,856	-0,214	-0,236
126,122	58,588	-0,275	-0,189
127,137	-118,609	-0,176	0,021
128,151	15,969	-0,093	-0,051
129,166	-26,188	-0,172	-0,070
130,181	107,618	-0,352	-0,293
131,195	213,724	-0,102	-0,113
132,210	-62,654	-0,415	-0,120
133,224	190,704	-0,176	-0,185
134,239	24,114	-0,175	-0,101
135,254	358,868	-0,129	-0,181
136,268	-74,957	-0,222	-0,055
137,283	-51,864	-0,307	-0,099
138,297	6,980	-0,270	-0,140
139,312	62,948	-0,267	-0,187
140,327	-70,771	-0,239	-0,063
141,341	102,795	-0,165	-0,135
142,356	354,826	-0,124	-0,173
143,370	23,027	-0,213	-0,122
144,385	87,543	-0,275	-0,212
145,400	97,724	-0,220	-0,176
146,414	412,225	-0,206	-0,307
147,429	120,144	-0,294	-0,254
148,443	-56,430	-0,324	-0,100
149,458	152,490	-0,196	-0,187
150,473	2,398	-0,279	-0,140
151,487	4,846	-0,318	-0,163
152,502	-168,868	-0,257	-0,007
153,516	53,040	-0,235	-0,156
154,531	-29,682	-0,370	-0,147
155,546	190,621	-0,247	-0,259
156,560	-24,653	-0,239	-0,099
157,575	800,000	-0,108	0,213
158,589	-55,406	-0,235	-0,073
159,604	800,000	-0,089	-0,181
160,619	129,739	-0,256	-0,228
161,633	66,185	-0,207	-0,146
162,648	48,867	-0,327	-0,214
163,662	-80,378	-0,231	-0,053
164,677	101,345	-0,161	-0,130
165,692	-41,821	-0,217	-0,077
166,706	105,040	-0,127	-0,105
167,721	120,541	-0,253	-0,219
168,735	-83,179	-0,322	-0,072
169,750	90,906	-0,234	-0,183
170,764	83,135	-0,090	-0,068
171,779	60,373	-0,171	-0,118
172,794	80,460	-0,177	-0,133
173,808	359,258	-0,169	-0,236
174,823	99,623	-0,310	-0,250
175,837	-10,402	-0,339	-0,156
176,852	134,315	-0,242	-0,218
177,867	192,917	-0,260	-0,274
178,881	-112,640	-0,186	-0,025
179,896	-179,827	-0,127	-0,002
180,910	-10,486	-0,340	-0,156
181,925	291,610	-0,174	-0,222
182,940	-3,074	-0,300	-0,145
183,954	78,802	-0,243	-0,181
184,969	409,328	-0,163	-0,241
185,983	689,845	-0,111	-0,203
186,998	195,663	-0,187	-0,198
188,013	-25,441	-0,308	-0,126
189,027	58,741	-0,250	-0,171
190,042	161,642	-0,284	-0,277
191,056	114,811	-0,321	-0,272
192,071	76,869	-0,298	-0,220
193,086	234,604	-0,192	-0,221
194,100	83,486	-0,179	-0,136
195,115	179,490	-0,185	-0,189
196,129	712,427	-0,131	-0,242
197,144	44,692	-0,290	-0,185
198,159	229,298	-0,165	-0,188
199,173	800,000	-0,099	-0,207
200,188	80,229	-0,143	-0,107
201,202	86,092	-0,242	-0,185
202,217	-96,880	-0,185	0,033
203,232	31,415	-0,188	-0,112
204,246	-78,410	-0,379	-0,090
205,261	159,337	-0,194	-0,188
206,275	47,230	-0,230	-0,149
207,290	22,040	-0,217	-0,122
208,304	210,338	-0,110	-0,121
209,319	283,612	-0,119	-0,149
210,334	98,434	-0,292	-0,234
211,348	154,836	-0,153	-0,146
212,363	123,348	-0,165	-0,144
213,377	9,014	-0,216	-0,113
214,392	208,574	-0,201	-0,219
215,407	-68,750	-0,254	-0,068
216,421	-66,265	-0,348	-0,096
217,436	65,403	-0,225	-0,158
218,450	-73,022	-0,175	-0,044
219,465	393,906	-0,187	-0,272
220,480	214,290	-0,184	-0,203
221,494	5,415	-0,195	-0,099
222,509	-26,160	-0,143	-0,058
223,523	251,412	-0,068	0,081
224,538	-67,128	-0,147	-0,040
225,553	36,204	-0,250	-0,152
226,567	116,733	-0,295	-0,251
227,582	110,476	-0,247	-0,206
228,596	122,368	-0,258	-0,224
229,611	-148,809	-0,231	-0,013
230,626	60,137	-0,241	-0,165
231,640	800,000	-0,083	-0,176
232,655	498,628	-0,097	-0,155
233,669	55,089	-0,268	-0,179
234,684	93,897	-0,152	-0,119
235,699	138,612	-0,209	-0,190
236,713	55,524	-0,269	-0,180
237,728	-47,667	-0,247	-0,082
238,742	-20,747	-0,302	-0,128
239,757	92,278	-0,240	-0,187
240,772	59,265	-0,314	-0,214
241,786	800,000	-0,068	-0,153
242,801	7,267	-0,280	-0,144
243,815	467,122	-0,135	-0,210
244,830	800,000	-0,142	-0,284
245,844	106,542	-0,215	-0,177
246,859	-22,250	-0,284	-0,118
247,874	800,000	-0,104	-0,202
248,888	40,650	-0,264	-0,165
249,903	126,978	-0,152	-0,133
250,917	81,210	-0,182	-0,136
251,932	-54,027	-0,181	-0,057
252,947	25,332	-0,132	-0,076
253,961	-21,301	-0,202	-0,085
254,976	54,637	-0,256	-0,170
255,990	31,550	-0,199	-0,118
257,005	359,369	-0,092	-0,127
258,020	145,337	-0,091	-0,084
259,034	-84,743	-0,172	0,037
260,049	430,378	-0,089	-0,133
261,063	-140,556	-0,245	-0,017
262,078	-200,000	-0,039	-0,233
263,093	-16,952	-0,114	-0,050
264,107	511,205	-0,085	-0,137
265,122	-25,373	-0,090	0,037
266,136	-65,179	-0,168	-0,046
267,151	125,965	-0,071	-0,062
268,166	-80,469	-0,233	-0,053
269,180	210,741	-0,160	-0,174
270,195	-31,205	-0,269	-0,104
271,209	-77,749	-0,273	-0,065
272,224	-62,804	-0,149	0,042
273,239	-104,933	-0,126	-0,020
274,253	-43,372	-0,153	-0,053
275,268	266,320	-0,090	-0,108
276,282	-198,271	-0,192	0,001
277,297	-127,033	-0,243	-0,024
278,312	141,465	-0,157	-0,143
279,326	-92,652	-0,173	-0,033
280,341	-11,890	-0,157	-0,071
281,355	-176,922	-0,217	-0,004
282,370	-111,083	-0,216	0,030
283,384	-27,178	-0,304	-0,122
284,399	11,211	-0,175	-0,092
285,414	260,599	-0,144	-0,172
286,428	162,226	-0,112	-0,108
287,443	-200,000	-0,007	-0,062
288,457	-97,001	-0,258	-0,046
289,472	85,375	-0,197	-0,149
290,487	128,489	-0,222	-0,195
291,501	-10,932	-0,184	-0,083
292,516	197,031	-0,200	-0,210
293,530	32,445	-0,182	-0,108
294,545	174,678	-0,100	-0,100
295,560	-53,244	-0,231	-0,073
296,574	77,876	-0,118	-0,087
297,589	-81,266	-0,205	-0,046
298,603	296,524	-0,162	-0,205
299,618	-200,000	-0,037	-0,253
300,633	241,392	-0,075	-0,087
301,647	-200,000	-0,006	0,025
302,662	-193,962	-0,138	-0,001
303,676	-61,492	-0,227	-0,065
304,691	7,453	-0,250	-0,129
305,706	95,942	-0,179	-0,141
306,720	605,620	-0,083	-0,143
307,735	-200,000	0,002	-0,256
308,749	-155,329	-0,086	0,004
309,764	-9,254	-0,172	-0,079
310,779	-36,688	-0,147	-0,054
311,793	58,827	-0,110	-0,074
312,808	118,636	-0,164	-0,139
313,822	272,357	-0,174	-0,212
314,837	-200,000	0,016	-0,226
315,852	-200,000	-0,010	-0,161
316,866	-80,273	-0,193	-0,044
317,881	-200,000	-0,026	-0,113
318,895	169,208	-0,140	-0,138
319,910	39,753	-0,072	-0,045
320,925	-200,000	-0,039	-0,180
321,939	82,991	-0,052	-0,039
322,954	36,403	-0,048	-0,029
323,968	-200,000	-0,020	-0,111
324,983	-200,000	-0,047	-0,168
325,997	63,984	-0,177	-0,122
327,012	320,201	-0,116	-0,152
328,027	-67,036	-0,233	-0,063
329,041	-108,524	-0,150	-0,022
330,056	-128,705	-0,175	-0,017
331,070	77,165	-0,183	-0,133
332,085	192,533	-0,065	-0,068
333,100	-163,159	-0,174	-0,006
334,114	-200,000	-0,026	-0,211
335,129	-140,272	-0,145	0,010
336,143	190,287	-0,154	-0,159
337,158	62,432	-0,195	-0,134
338,173	-27,617	-0,229	-0,091
339,187	-113,781	-0,123	-0,016
340,202	60,795	-0,103	-0,070
341,216	630,160	-0,094	-0,163
342,231	166,261	-0,187	-0,182
343,246	-29,513	-0,140	-0,055
344,260	352,546	-0,073	-0,100
345,275	-200,000	-0,030	0,091
346,289	-200,000	-0,008	-0,085
347,304	105,642	-0,088	-0,071
348,319	-18,239	-0,173	-0,074
349,333	30,794	-0,054	-0,032
350,348	-56,788	-0,205	-0,062
351,362	697,625	-0,015	-0,027
352,377	255,900	-0,043	-0,050
353,392	-103,227	-0,123	-0,020
354,406	-67,537	-0,147	-0,039
355,421	208,099	1316,370	1412,127
356,435	160,104	1477,307	1412,614
