DTS Sentinel unit serial number:	SN410029Multiplexer serial number:	ORYXHardware model number:	OX2-SRSoftware version number:	ORYX F/W v4,00 Oryx Data Collector v3.7.2.0data status	okinstallation	B3 Nyhavnadifferential loss correction	single-endedforward channel	channel 1reverse channel	N/Adate	2023/12/02time	22:57:30forward acquisition time	300,00reverse acquisition time	0,00gamma	499,1914k internal	0,3201k external	0,3201temperature offset calibration	1,0000default loss term (dB/km)	0,3820temperature slope calibration	1,0000multiplexer offset coefficient	1,0000multiplexer slope coefficient	1,0000fibre end	0,00T internal ref (°C)	13,23T ext. ref 1 (°C)	-1,74T ext. ref 2 (°C)	-1,75length (m)	temperature (°C)	Stokes	anti-Stokes-744,400	39,692	-0,340	-0,221
-743,385	800,000	-0,143	0,293
-742,371	468,938	-0,082	-0,134
-741,356	-200,000	0,060	0,304
-740,342	800,000	-0,094	-0,190
-739,327	743,826	0,107	0,210
-738,312	416,210	-0,231	-0,360
-737,298	-200,000	-0,111	0,388
-736,283	163,869	-0,269	-0,276
-735,269	800,000	0,116	0,331
-734,254	185,482	-0,133	-0,144
-733,239	-73,217	-0,230	0,061
-732,225	-200,000	-0,035	-0,137
-731,210	683,561	0,118	0,226
-730,196	96,876	-0,035	0,029
-729,181	-200,000	-0,054	-0,249
-728,167	-200,000	-0,026	-0,098
-727,152	63,992	-0,066	0,048
-726,137	100,426	-0,068	-0,057
-725,123	-48,307	-0,041	-0,014
-724,108	-52,855	-0,136	-0,045
-723,094	800,000	-0,119	-0,257
-722,079	-36,036	-0,118	-0,046
-721,064	423,485	-0,034	0,054
-720,050	-95,443	-0,119	-0,023
-719,035	-200,000	0,017	-0,121
-718,021	46,990	-0,062	0,042
-717,006	-200,000	-0,046	-0,160
-715,991	-200,000	-0,017	-0,104
-714,977	-66,803	-0,083	-0,024
-713,962	378,109	-0,094	-0,140
-712,948	800,000	0,052	0,149
-711,933	-200,000	-0,016	0,096
-710,918	800,000	-0,007	0,017
-709,904	-90,588	-0,099	0,021
-708,889	-47,957	-0,036	0,013
-707,875	437,024	-0,037	0,059
-706,860	-50,250	0,100	0,034
-705,845	800,000	0,029	0,086
-704,831	201,707	0,086	-0,096
-703,816	-60,945	-0,027	-0,008
-702,802	-28,624	-0,099	0,041
-701,787	-112,770	-0,083	-0,012
-700,772	-200,000	-0,003	-0,037
-699,758	-200,000	-0,015	-0,057
-698,743	711,513	0,049	0,095
-697,729	-33,532	-0,016	0,006
-696,714	-74,559	0,032	-0,008
-695,699	800,000	-0,031	-0,091
-694,685	19,239	-0,132	-0,076
-693,670	691,167	0,044	-0,085
-692,656	-110,311	-0,087	0,013
-691,641	189,940	0,096	0,104
-690,627	-37,868	0,035	0,014
-689,612	496,620	0,044	0,073
-688,597	-91,154	-0,023	-0,005
-687,583	5,670	-0,092	-0,049
-686,568	477,420	-0,027	-0,045
-685,554	-8,007	-0,081	0,040
-684,539	800,000	0,016	0,042
-683,524	-200,000	-0,015	0,143
-682,510	20,977	0,095	0,056
-681,495	16,792	-0,066	0,038
-680,481	-105,101	-0,094	0,015
-679,466	-160,455	-0,113	0,004
-678,451	128,106	0,055	-0,051
-677,437	-10,728	0,086	0,041
-676,422	-200,000	0,061	0,201
-675,408	40,016	-0,079	-0,051
-674,393	-145,816	0,061	0,004
-673,378	-159,318	-0,146	0,006
-672,364	421,125	-0,066	0,103
-671,349	-26,706	-0,061	0,026
-670,335	-81,581	0,027	-0,007
-669,320	143,883	-0,090	-0,087
-668,305	-200,000	0,052	0,178
-667,291	-200,000	0,010	0,036
-666,276	146,444	-0,030	-0,029
-665,262	800,000	0,040	-0,090
-664,247	800,000	-0,041	-0,095
-663,232	-200,000	0,002	-0,023
-662,218	34,821	0,069	0,044
-661,203	-200,000	0,012	-0,048
-660,189	-200,000	-0,021	-0,073
-659,174	-112,004	0,031	0,004
-658,159	800,000	-0,039	-0,106
-657,145	-200,000	-0,002	-0,020
-656,130	175,107	-0,043	0,046
-655,116	192,335	0,004	-0,004
-654,101	264,366	-0,057	-0,072
-653,086	255,578	-0,035	0,043
-652,072	-43,585	-0,119	-0,043
-651,057	-176,320	-0,182	-0,003
-650,043	12,872	-0,048	0,027
-649,028	48,940	0,116	-0,079
-648,014	373,974	-0,051	-0,076
-646,999	-200,000	0,015	-0,060
-645,984	-23,225	-0,175	0,076
-644,970	-51,557	-0,088	0,030
-643,955	129,829	-0,076	-0,070
-642,941	40,631	-0,061	-0,040
-641,926	-200,000	0,015	-0,083
-640,911	414,179	0,107	0,165
-639,897	134,712	-0,054	0,051
-638,882	-200,000	0,006	-0,026
-637,868	284,221	0,063	-0,082
-636,853	-104,406	-0,064	0,011
-635,838	-159,237	-0,046	-0,002
-634,824	421,679	0,019	0,030
-633,809	28,808	-0,174	0,107
-632,795	-17,696	0,146	0,066
-631,780	-200,000	0,004	-0,090
-630,765	-83,095	-0,106	-0,025
-629,751	-14,375	-0,032	-0,015
-628,736	-200,000	0,012	-0,050
-627,722	451,808	-0,057	-0,091
-626,707	-200,000	-0,005	-0,099
-625,692	-200,000	0,027	0,117
-624,678	1,540	-0,019	-0,010
-623,663	95,187	-0,139	0,114
-622,649	800,000	0,024	-0,073
-621,634	6,636	-0,100	0,054
-620,619	38,015	0,020	-0,013
-619,605	604,266	-0,051	-0,092
-618,590	-135,412	0,097	0,008
-617,576	102,456	-0,143	0,121
-616,561	-200,000	-0,002	0,150
-615,546	48,544	0,096	-0,065
-614,532	800,000	-0,040	-0,080
-613,517	-200,000	-0,021	-0,121
-612,503	517,638	0,028	0,048
-611,488	-15,311	0,041	0,019
-610,474	331,031	0,004	-0,006
-609,459	396,674	0,110	0,167
-608,444	-135,183	-0,169	-0,014
-607,430	-51,089	0,106	0,036
-606,415	579,747	0,077	-0,137
-605,401	119,423	-0,018	0,016
-604,386	-116,653	-0,089	-0,012
-603,371	-48,781	-0,086	-0,030
-602,357	-26,480	0,052	0,022
-601,342	314,109	0,009	-0,013
-600,328	495,567	0,040	-0,067
-599,313	87,476	-0,150	0,120
-598,298	-200,000	0,009	-0,035
-597,284	-200,000	-0,057	0,210
-596,269	648,431	0,060	0,112
-595,255	767,355	0,020	0,039
-594,240	675,749	-0,047	-0,089
-593,225	581,046	-0,033	0,059
-592,211	800,000	0,019	-0,054
-591,196	125,351	0,051	0,047
-590,182	-200,000	-0,013	0,120
-589,167	-200,000	-0,024	0,107
-588,152	800,000	-0,053	0,123
-587,138	-141,450	-0,063	-0,005
-586,123	361,244	-0,088	0,128
-585,109	124,770	-0,054	-0,049
-584,094	-200,000	-0,008	-0,031
-583,079	-200,000	0,017	0,156
-582,065	-23,294	-0,032	0,014
-581,050	79,580	-0,079	0,061
-580,036	-1,677	-0,046	0,023
-579,021	-117,126	0,113	0,015
-578,006	286,847	0,092	0,120
-576,992	96,188	0,080	-0,066
-575,977	576,906	-0,051	-0,090
-574,963	-200,000	-0,003	0,199
-573,948	443,549	-0,018	-0,028
-572,934	17,709	0,108	0,062
-571,919	147,645	0,056	-0,054
-570,904	800,000	0,036	-0,079
-569,890	506,546	-0,089	-0,150
-568,875	-200,000	0,019	-0,089
-567,861	-42,475	0,113	0,042
-566,846	-200,000	0,027	0,191
-565,831	8,865	-0,098	0,053
-564,817	-200,000	-0,027	-0,135
-563,802	-61,931	-0,079	-0,024
-562,788	-123,049	-0,060	-0,007
-561,773	43,158	-0,055	0,036
-560,758	-200,000	-0,007	0,148
-559,744	-200,000	-0,004	-0,019
-558,729	73,468	0,057	-0,043
-557,715	-40,284	-0,216	-0,081
-556,700	101,105	-0,011	0,009
-555,685	-108,046	0,154	0,024
-554,671	195,458	-0,017	-0,019
-553,656	211,792	0,071	-0,081
-552,642	-45,523	0,042	-0,015
-551,627	-189,068	-0,169	-0,001
-550,612	98,792	-0,143	-0,119
-549,598	108,282	-0,152	-0,131
-548,583	-200,000	0,019	-0,076
-547,569	800,000	0,020	-0,040
-546,554	-200,000	-0,031	0,099
-545,539	800,000	-0,018	-0,038
-544,525	335,297	0,014	-0,020
-543,510	800,000	-0,032	-0,101
-542,496	-35,279	0,117	0,046
-541,481	-121,820	0,024	0,003
-540,466	-200,000	0,004	-0,138
-539,452	419,492	0,111	-0,172
-538,437	-74,544	-0,083	-0,021
-537,423	-59,217	0,222	0,069
-536,408	-137,934	0,081	-0,006
-535,393	-79,837	-0,134	-0,032
-534,379	375,931	-0,115	-0,169
-533,364	200,430	0,067	-0,075
-532,350	-200,000	0,001	-0,029
-531,335	-154,092	0,052	-0,003
-530,321	-87,332	0,055	-0,012
-529,306	800,000	-0,017	-0,036
-528,291	-150,081	-0,043	0,002
-527,277	-31,100	0,071	0,029
-526,262	561,534	0,067	0,118
-525,248	-60,721	0,044	-0,013
-524,233	-101,393	0,099	-0,017
-523,218	-138,764	-0,032	0,002
-522,204	-200,000	-0,002	0,007
-521,189	800,000	-0,030	0,093
-520,175	-200,000	0,012	-0,077
-519,160	259,442	-0,129	-0,161
-518,145	21,885	0,118	-0,069
-517,131	76,717	0,070	0,053
-516,116	69,669	0,017	-0,013
-515,102	-116,514	0,113	-0,015
-514,087	-200,000	0,013	-0,086
-513,072	800,000	0,024	-0,072
-512,058	800,000	-0,106	-0,253
-511,043	-200,000	0,007	-0,039
-510,029	66,227	0,132	-0,096
-509,014	-200,000	0,009	0,088
-507,999	-7,652	-0,084	0,041
-506,985	291,427	-0,045	-0,060
-505,970	1,499	-0,072	0,037
-504,956	-41,780	-0,213	-0,078
-503,941	259,275	0,024	0,030
-502,926	-21,449	-0,063	0,028
-501,912	120,967	-0,073	0,065
-500,897	-21,196	0,082	-0,036
-499,883	-200,000	0,068	0,000
-498,868	66,516	0,113	-0,083
-497,853	800,000	-0,030	-0,088
-496,839	800,000	-0,022	-0,052
-495,824	28,894	0,072	-0,044
-494,810	-103,313	-0,064	0,011
-493,795	-125,507	0,148	0,016
-492,781	-81,084	0,077	-0,018
-491,766	-200,000	-0,012	-0,072
-490,751	280,822	-0,087	-0,113
-489,737	800,000	-0,039	0,086
-488,722	326,673	-0,069	0,096
-487,708	124,227	0,055	-0,050
-486,693	148,210	-0,137	-0,133
-485,678	-26,962	-0,067	-0,028
-484,664	-155,195	0,103	0,005
-483,649	-2,742	-0,067	0,034
-482,635	-200,000	-0,030	0,107
-481,620	368,751	0,066	0,096
-480,605	800,000	-0,018	-0,047
-479,591	-200,000	-0,030	-0,107
-478,576	101,569	-0,114	0,096
-477,562	435,237	0,023	0,036
-476,547	14,595	0,032	-0,018
-475,532	-200,000	0,012	0,072
-474,518	107,193	0,054	0,046
-473,503	-200,000	-0,012	0,075
-472,489	-200,000	-0,007	-0,055
-471,474	-44,399	-0,111	0,040
-470,459	800,000	-0,004	-0,009
-469,445	681,425	-0,075	-0,142
-468,430	-10,533	0,008	0,004
-467,416	-64,001	-0,031	0,009
-466,401	-200,000	0,000	-0,009
-465,386	-48,626	0,037	0,013
-464,372	533,851	-0,008	-0,014
-463,357	-200,000	0,046	-0,225
-462,343	-20,989	-0,073	0,032
-461,328	-200,000	-0,013	-0,076
-460,313	800,000	0,030	0,061
-459,299	60,724	0,269	0,192
-458,284	78,722	-0,118	0,091
-457,270	-200,000	-0,008	-0,051
-456,255	800,000	0,058	-0,131
-455,241	-200,000	-0,001	-0,025
-454,226	800,000	0,029	-0,083
-453,211	800,000	-0,050	0,151
-452,197	-148,584	-0,116	0,007
-451,182	800,000	0,108	0,232
-450,168	-187,953	0,109	-0,001
-449,153	37,238	-0,039	0,025
-448,138	451,840	0,018	0,028
-447,124	800,000	-0,025	-0,078
-446,109	800,000	0,026	-0,081
-445,095	-200,000	-0,003	0,043
-444,080	14,365	0,022	-0,012
-443,065	-8,653	0,129	0,062
-442,051	-200,000	-0,011	0,069
-441,036	-81,603	-0,117	0,027
-440,022	52,156	0,017	-0,012
-439,007	-31,910	0,087	-0,035
-437,992	-200,000	-0,018	-0,070
-436,978	95,417	0,037	-0,030
-435,963	-179,034	-0,115	0,002
-434,949	18,908	0,175	0,101
-433,934	-58,763	-0,184	0,057
-432,919	290,424	-0,055	-0,071
-431,905	-200,000	0,003	-0,019
-430,890	-200,000	-0,002	0,027
-429,876	-185,737	-0,039	0,000
-428,861	800,000	0,045	-0,100
-427,846	-121,197	-0,032	0,004
-426,832	199,764	0,007	-0,008
-425,817	-85,725	-0,077	0,017
-424,803	53,915	-0,036	0,025
-423,788	63,632	0,067	0,048
-422,773	-200,000	-0,015	-0,087
-421,759	37,731	-0,018	0,012
-420,744	271,930	0,040	-0,050
-419,730	-106,789	-0,130	-0,021
-418,715	-200,000	0,026	-0,156
-417,701	116,975	0,050	0,044
-416,686	149,763	-0,097	0,095
-415,671	800,000	-0,034	0,103
-414,657	-200,000	-0,025	0,094
-413,642	274,281	0,074	-0,094
-412,628	421,817	0,051	0,078
-411,613	-43,555	-0,072	-0,026
-410,598	-90,092	0,133	-0,028
-409,584	-175,466	0,101	0,002
-408,569	-200,000	-0,020	0,076
-407,555	-20,247	0,089	-0,039
-406,540	312,445	0,053	-0,071
-405,525	-200,000	0,014	-0,114
-404,511	-87,891	0,124	0,027
-403,496	-27,620	-0,060	0,025
-402,482	119,581	0,044	-0,039
-401,467	735,177	-0,039	0,076
-400,452	-200,000	-0,010	0,042
-399,438	-123,996	-0,032	-0,004
-398,423	800,000	-0,046	0,103
-397,409	-200,000	0,002	-0,100
-396,394	559,171	-0,061	-0,106
-395,379	-90,310	-0,088	0,018
-394,365	800,000	-0,038	-0,086
-393,350	555,416	0,084	0,146
-392,336	800,000	0,035	0,075
-391,321	800,000	0,037	0,087
-390,306	-200,000	-0,012	-0,083
-389,292	-38,147	0,118	0,045
-388,277	-200,000	0,002	0,024
-387,263	-164,625	-0,102	-0,003
-386,248	-45,323	0,012	0,004
-385,233	-46,330	-0,123	0,043
-384,219	1,489	0,064	-0,033
-383,204	800,000	-0,040	-0,101
-382,190	-200,000	-0,031	-0,143
-381,175	-200,000	0,012	0,043
-380,160	-200,000	0,003	-0,142
-379,146	77,985	-0,107	0,082
-378,131	-19,716	0,091	-0,040
-377,117	800,000	-0,018	-0,043
-376,102	48,312	0,016	-0,010
-375,088	800,000	-0,003	-0,007
-374,073	800,000	-0,012	0,029
-373,058	-175,695	0,047	-0,001
-372,044	-38,643	0,049	-0,018
-371,029	-123,304	0,119	0,013
-370,015	609,814	-0,038	-0,068
-369,000	-200,000	0,001	-0,003
-367,985	28,830	-0,066	-0,040
-366,971	-200,000	-0,009	0,072
-365,956	31,963	-0,100	-0,062
-364,942	151,249	0,173	0,169
-363,927	-200,000	-0,013	-0,128
-362,912	160,838	-0,103	0,104
-361,898	-133,446	0,057	-0,005
-360,883	-99,695	-0,058	-0,010
-359,869	-148,773	0,153	0,009
-358,854	22,993	0,084	0,049
-357,839	73,923	0,131	0,098
-356,825	-200,000	-0,007	0,092
-355,810	56,519	0,082	0,057
-354,796	-200,000	-0,014	0,060
-353,781	196,478	0,035	0,039
-352,766	59,300	-0,123	-0,087
-351,752	-3,255	-0,063	-0,031
-350,737	154,965	0,101	0,100
-349,723	-200,000	0,035	0,113
-348,708	81,024	-0,107	0,083
-347,693	-47,095	0,043	0,015
-346,679	-145,688	-0,073	0,005
-345,664	205,489	0,105	-0,117
-344,650	-113,542	0,112	-0,016
-343,635	800,000	0,050	0,148
-342,620	199,434	0,042	-0,046
-341,606	-200,000	0,005	-0,200
-340,591	233,300	-0,096	-0,113
-339,577	78,172	-0,054	-0,041
-338,562	77,058	-0,078	-0,059
-337,548	244,988	-0,071	-0,085
-336,533	-109,364	0,130	0,020
-335,518	-123,161	0,072	-0,008
-334,504	126,480	-0,031	-0,028
-333,489	-200,000	0,022	-0,094
-332,475	-43,917	-0,045	-0,016
-331,460	-157,601	-0,151	0,006
-330,445	-200,000	0,009	-0,064
-329,431	100,393	-0,031	0,026
-328,416	-24,157	0,065	0,028
-327,402	-10,656	-0,059	0,028
-326,387	-50,338	-0,064	-0,022
-325,372	800,000	-0,048	-0,124
-324,358	-124,768	-0,064	0,007
-323,343	-20,627	-0,150	-0,066
-322,329	525,532	0,050	-0,085
-321,314	800,000	0,046	-0,121
-320,299	521,470	-0,048	0,080
-319,285	465,874	0,036	-0,058
-318,270	-97,670	-0,061	0,011
-317,256	82,051	0,069	-0,054
-316,241	800,000	-0,022	-0,057
-315,226	695,031	0,039	-0,073
-314,212	37,610	0,197	0,125
-313,197	800,000	-0,026	0,058
-312,183	222,283	-0,071	0,082
-311,168	-200,000	0,014	-0,185
-310,153	-200,000	-0,001	-0,035
-309,139	150,900	0,041	-0,040
-308,124	-200,000	0,008	0,056
-307,110	-164,650	0,074	0,002
-306,095	800,000	0,074	0,216
-305,080	791,623	-0,030	0,060
-304,066	54,106	-0,053	-0,037
-303,051	-118,283	-0,039	0,005
-302,037	800,000	-0,016	0,048
-301,022	-24,922	-0,027	-0,011
-300,008	-200,000	-0,008	-0,033
-298,993	109,792	-0,075	0,064
-297,978	765,764	-0,031	0,061
-296,964	-134,892	0,091	0,008
-295,949	-152,443	-0,119	0,006
-294,935	-25,204	0,052	-0,022
-293,920	367,570	-0,031	-0,045
-292,905	-44,054	0,076	-0,027
-291,891	-200,000	-0,005	0,020
-290,876	-200,000	0,010	-0,050
-289,862	56,821	0,190	-0,132
-288,847	800,000	-0,044	-0,115
-287,832	-200,000	0,031	-0,105
-286,818	308,610	-0,054	-0,072
-285,803	-106,315	0,061	0,010
-284,789	-17,453	0,018	0,008
-283,774	-200,000	-0,030	0,159
-282,759	-200,000	0,031	0,109
-281,745	-151,437	0,087	0,005
-280,730	63,809	-0,137	-0,098
-279,716	-200,000	0,005	-0,113
-278,701	319,660	0,126	0,171
-277,686	-200,000	0,005	0,076
-276,672	800,000	-0,035	0,077
-275,657	-200,000	0,011	0,083
-274,643	-200,000	-0,010	0,098
-273,628	235,309	0,041	-0,048
-272,613	800,000	-0,024	0,076
-271,599	39,938	-0,113	-0,072
-270,584	193,540	0,081	0,088
-269,570	-200,000	0,019	0,112
-268,555	144,718	-0,065	0,063
-267,540	-12,781	-0,108	-0,050
-266,526	237,014	-0,096	-0,114
-265,511	649,445	-0,048	-0,088
-264,497	136,990	-0,078	0,073
-263,482	-25,223	0,166	-0,070
-262,467	-200,000	0,206	-0,001
-261,453	-200,000	-0,021	-0,136
-260,438	223,870	0,095	0,110
-259,424	-175,314	-0,029	-0,001
-258,409	-35,745	0,066	0,025
-257,395	66,824	0,105	0,076
-256,380	-200,000	-0,011	0,076
-255,365	17,045	0,111	0,063
-254,351	-82,943	-0,128	-0,029
-253,336	59,106	-0,153	-0,107
-252,322	-104,020	-0,037	-0,006
-251,307	-157,247	-0,003	-0,000
-250,292	433,173	0,014	0,022
-249,278	46,785	0,026	0,017
-248,263	184,590	0,093	0,098
-247,249	-200,000	0,006	0,020
-246,234	66,058	0,092	0,067
-245,219	253,405	-0,075	-0,091
-244,205	-67,443	-0,060	-0,017
-243,190	510,737	-0,056	-0,094
-242,176	147,411	0,055	0,052
-241,161	-200,000	0,032	0,168
-240,146	-118,226	-0,134	-0,017
-239,132	136,254	0,123	0,115
-238,117	90,081	-0,060	-0,048
-237,103	-78,558	-0,064	-0,015
-236,088	800,000	0,019	0,048
-235,073	80,668	0,092	0,070
-234,059	-79,225	0,085	-0,020
-233,044	-200,000	-0,011	0,081
-232,030	189,828	-0,117	0,125
-231,015	-5,041	0,055	-0,027
-230,000	-181,168	-0,056	-0,001
-228,986	800,000	0,020	-0,058
-227,971	-200,000	0,017	-0,066
-226,957	800,000	0,028	0,061
-225,942	-172,037	0,149	-0,003
-224,927	-200,000	0,001	0,011
-223,913	568,597	-0,085	-0,148
-222,898	-141,054	-0,022	0,002
-221,884	40,982	-0,049	0,032
-220,869	-70,369	0,148	0,040
-219,855	-91,250	-0,082	0,017
-218,840	171,512	-0,052	0,053
-217,825	69,582	-0,045	0,033
-216,811	-53,593	0,057	0,018
-215,796	133,185	0,017	0,016
-214,782	136,114	-0,037	0,035
-213,767	-167,701	-0,062	0,002
-212,752	-0,105	0,131	0,066
-211,738	159,676	-0,052	0,051
-210,723	-115,526	-0,038	-0,005
-209,709	-16,821	-0,129	-0,058
-208,694	-83,336	0,103	-0,023
-207,679	-200,000	0,001	-0,044
-206,665	-120,008	0,139	0,017
-205,650	64,222	-0,122	0,088
-204,636	301,212	-0,082	0,108
-203,621	146,475	-0,127	0,121
-202,606	-200,000	0,006	-0,107
-201,592	257,628	0,003	-0,003
-200,577	333,739	-0,043	0,059
-199,563	-107,527	0,073	0,011
-198,548	-0,832	0,062	0,031
-197,533	-102,268	-0,033	-0,006
-196,519	-200,000	-0,008	0,055
-195,504	-124,230	0,117	0,013
-194,490	508,272	0,031	-0,052
-193,475	-200,000	-0,016	0,058
-192,460	-171,121	0,082	0,002
-191,446	419,044	0,033	0,050
-190,431	-200,000	-0,030	0,104
-189,417	-149,963	-0,127	-0,007
-188,402	-69,661	0,161	-0,044
-187,387	-200,000	0,005	-0,156
-186,373	137,581	0,113	-0,106
-185,358	6,140	-0,062	-0,033
-184,344	-39,190	-0,056	0,021
-183,329	-122,083	0,143	0,017
-182,315	71,835	-0,024	-0,018
-181,300	-84,293	0,138	0,031
-180,285	-47,071	-0,049	-0,017
-179,271	-16,392	-0,089	-0,040
-178,256	-200,000	-0,014	-0,160
-177,242	-73,458	-0,006	0,002
-176,227	135,628	0,096	-0,089
-175,212	-200,000	0,004	0,088
-174,198	-200,000	0,008	-0,029
-173,183	258,051	0,086	-0,105
-172,169	-158,838	-0,157	0,006
-171,154	-142,601	-0,036	0,002
-170,139	18,470	0,117	0,066
-169,125	608,931	0,030	0,053
-168,110	4,218	-0,026	0,014
-167,096	-115,915	-0,130	0,017
-166,081	19,655	-0,144	-0,082
-165,066	194,642	0,098	-0,106
-164,052	55,881	-0,059	0,040
-163,037	-29,373	0,034	0,014
-162,023	800,000	0,060	0,119
-161,008	-200,000	-0,040	0,127
-159,993	-129,547	0,136	-0,013
-158,979	345,784	-0,067	0,094
-157,964	6,363	0,053	-0,028
-156,950	-66,041	0,113	-0,032
-155,935	-13,220	0,200	0,092
-154,920	115,371	-0,067	0,058
-153,906	751,345	-0,052	0,101
-152,891	278,518	0,042	0,053
-151,877	116,528	-0,142	0,124
-150,862	227,997	0,070	-0,082
-149,847	94,345	-0,057	-0,046
-148,833	-200,000	-0,037	-0,182
-147,818	-114,861	-0,044	0,006
-146,804	260,008	0,064	0,079
-145,789	594,094	0,060	-0,107
-144,775	75,537	-0,114	-0,085
-143,760	-11,959	-0,174	-0,081
-142,745	128,455	-0,073	-0,066
-141,731	-41,895	0,070	0,025
-140,716	-200,000	0,005	0,061
-139,702	-200,000	0,020	0,156
-138,687	-8,953	0,023	-0,011
-137,672	289,429	0,025	-0,032
-136,658	800,000	0,042	-0,112
-135,643	-86,693	-0,024	-0,005
-134,629	-150,003	-0,020	-0,001
-133,614	378,236	0,086	0,125
-132,599	1,048	0,154	0,078
-131,585	-200,000	0,019	-0,105
-130,570	-200,000	0,003	-0,106
-129,556	-200,000	0,003	-0,118
-128,541	-80,102	-0,206	-0,049
-127,526	116,085	-0,061	-0,053
-126,512	-42,186	0,075	-0,027
-125,497	-110,267	0,123	0,018
-124,483	-200,000	0,005	-0,047
-123,468	189,166	-0,104	0,111
-122,453	4,396	-0,061	0,032
-121,439	79,635	-0,104	-0,079
-120,424	-19,417	0,086	0,038
-119,410	-125,107	0,071	0,008
-118,395	498,827	0,055	0,090
-117,380	671,176	0,064	0,119
-116,366	124,969	0,147	0,131
-115,351	146,468	-0,087	-0,083
-114,337	800,000	-0,113	-0,236
-113,322	-86,240	-0,145	-0,031
-112,307	38,921	-0,083	-0,053
-111,293	-45,762	0,142	0,050
-110,278	258,979	0,064	-0,079
-109,264	-151,792	-0,054	0,003
-108,249	-145,495	-0,078	-0,005
-107,234	-200,000	-0,004	0,051
-106,220	582,991	-0,077	-0,134
-105,205	-200,000	0,043	-0,187
-104,191	-70,045	-0,041	-0,011
-103,176	660,567	0,055	0,101
-102,162	-200,000	-0,018	0,059
-101,147	-96,074	0,091	-0,017
-100,132	800,000	0,078	-0,162
-99,118	-47,054	-0,113	-0,039
-98,103	-101,524	-0,086	-0,015
-97,089	13,971	0,120	-0,066
-96,074	84,157	-0,081	0,063
-95,059	-73,487	0,061	0,016
-94,045	-200,000	-0,021	-0,078
-93,030	-111,732	0,069	-0,010
-92,016	-113,736	-0,074	0,010
-91,001	-29,230	-0,101	0,041
-89,986	800,000	0,058	0,170
-88,972	-42,754	0,091	0,033
-87,957	71,507	-0,066	0,049
-86,943	800,000	-0,030	-0,091
-85,928	-2,976	-0,080	-0,039
-84,913	-33,230	-0,050	0,020
-83,899	800,000	-0,035	0,087
-82,884	-200,000	-0,023	-0,088
-81,870	257,977	0,080	0,098
-80,855	392,946	-0,091	0,134
-79,840	-189,396	0,091	0,001
-78,826	43,002	-0,188	-0,121
-77,811	-200,000	-0,003	-0,105
-76,797	-117,667	0,104	0,013
-75,782	94,753	-0,045	0,036
-74,767	253,074	0,099	0,120
-73,753	-200,000	0,004	0,052
-72,738	24,644	0,110	0,064
-71,724	800,000	0,023	0,062
-70,709	800,000	0,060	-0,120
-69,694	-81,360	0,064	-0,015
-68,680	194,232	0,076	-0,082
-67,665	-88,172	-0,113	0,024
-66,651	-200,000	0,006	-0,042
-65,636	218,134	-0,075	-0,085
-64,622	313,465	-0,055	0,074
-63,607	800,000	0,025	-0,053
-62,592	104,961	-0,062	-0,052
-61,578	179,522	0,036	-0,037
-60,563	-25,460	-0,091	-0,038
-59,549	517,519	-0,108	0,179
-58,534	-11,571	-1,612	-0,747
-57,519	435,079	-1,318	-2,036
-56,505	-200,000	-0,564	-4,559
-55,490	194,834	1,011	1,088
-54,476	800,000	4,861	11,507
-53,461	-200,000	19,245	321,024
-52,446	-200,000	741,793	2334,605
-51,432	571,924	1656,104	2867,101
-50,417	78,092	1670,884	1260,664
-49,403	21,209	1544,043	885,155
-48,388	15,132	1466,353	811,067
-47,373	17,994	1456,685	819,517
-46,359	16,706	1446,434	807,543
-45,344	13,363	1441,785	788,901
-44,330	13,248	1439,971	787,327
-43,315	13,272	1438,301	786,495
-42,300	13,252	1436,428	785,346
-41,286	13,281	1435,259	784,812
-40,271	13,223	1434,010	783,822
-39,257	13,266	1432,706	783,282
-38,242	13,331	1431,302	782,797
-37,227	13,344	1430,175	782,210
-36,213	13,319	1428,694	781,251
-35,198	13,300	1427,647	780,556
-34,184	13,364	1426,675	780,298
-33,169	13,222	1425,594	779,003
-32,154	13,332	1424,164	778,708
-31,140	13,343	1423,136	778,169
-30,125	13,351	1422,025	777,567
-29,111	13,338	1420,825	776,819
-28,096	13,342	1419,688	776,185
-27,082	13,301	1418,391	775,254
-26,067	13,235	1417,325	774,331
-25,052	13,251	1416,470	773,906
-24,038	13,236	1415,511	773,281
-23,023	13,227	1414,384	772,593
-22,009	13,247	1413,383	772,110
-20,994	13,234	1412,591	771,583
-19,979	13,245	1411,494	771,008
-18,965	13,195	1410,665	770,287
-17,950	13,224	1409,618	769,820
-16,936	13,209	1408,833	769,292
-15,921	13,183	1407,708	768,524
-14,906	13,217	1406,536	768,013
-13,892	13,154	1405,949	767,367
-12,877	13,154	1404,959	766,797
-11,863	13,157	1404,142	766,336
-10,848	13,138	1403,390	765,805
-9,833	13,102	1402,361	765,045
-8,819	13,086	1401,522	764,482
-7,804	13,052	1400,705	763,849
-6,790	13,091	1399,413	763,297
-5,775	13,115	1398,404	762,828
-4,760	13,090	1397,509	762,193
-3,746	13,083	1396,530	761,596
-2,731	13,044	1395,838	761,010
-1,717	13,020	1395,063	760,446
-0,702	13,014	1393,142	759,341
0,313	17,052	1309,613	732,454
1,327	33,602	703,091	431,435
2,342	51,896	123,184	82,832
3,356	2,957	16,741	8,573
4,371	19,302	3,225	1,827
5,386	17,395	0,534	0,299
6,400	-200,000	0,068	0,292
7,415	-32,808	-0,186	-0,073
8,429	257,932	-0,211	-0,257
9,444	99,652	-0,297	-0,243
10,459	-1,511	-0,310	-0,154
11,473	41,208	-0,273	-0,174
12,488	-15,829	-0,273	-0,123
13,502	-33,547	-0,256	-0,099
14,517	36,548	-0,350	-0,218
15,531	1,780	-0,411	-0,209
16,546	-64,210	-0,410	-0,117
17,561	298,458	-0,220	-0,287
18,575	-126,023	-0,267	-0,028
19,590	342,812	-0,127	-0,177
20,604	-45,066	-0,232	-0,081
21,619	73,186	-0,414	-0,306
22,634	93,462	-0,462	-0,369
23,648	78,138	-0,401	-0,302
24,663	21,146	-0,370	-0,211
25,677	-42,479	-0,251	-0,090
26,692	-115,285	-0,354	-0,047
27,707	195,533	-0,270	-0,290
28,721	-13,387	-0,401	-0,183
29,736	107,176	-0,303	-0,254
30,750	119,715	-0,385	-0,337
31,765	64,813	-0,422	-0,300
32,780	51,883	-0,396	-0,266
33,794	159,297	-0,364	-0,358
34,809	4,995	-0,352	-0,182
35,823	-4,661	-0,328	-0,159
36,838	-30,806	-0,377	-0,150
37,853	68,575	-0,475	-0,343
38,867	39,931	-0,409	-0,258
39,882	14,237	-0,292	-0,160
40,896	-8,660	-0,262	-0,124
41,911	18,872	-0,355	-0,200
42,926	72,433	-0,391	-0,287
43,940	202,114	-0,300	-0,327
44,955	57,529	-0,354	-0,243
45,969	-40,139	-0,328	-0,120
46,984	20,323	-0,430	-0,244
47,999	-112,635	-0,431	-0,060
49,013	70,643	-0,313	-0,228
50,028	-97,741	-0,353	-0,064
51,042	126,209	-0,383	-0,341
52,057	60,184	-0,328	-0,228
53,071	41,172	-0,329	-0,209
54,086	76,238	-0,221	-0,164
55,101	-5,163	-0,382	-0,185
56,115	27,027	-0,375	-0,221
57,130	15,932	-0,281	-0,155
58,144	-2,486	-0,470	-0,231
59,159	231,813	-0,292	-0,337
60,174	117,108	-0,302	-0,261
61,188	124,176	-0,270	-0,239
62,203	328,844	-0,251	-0,340
63,217	-35,246	-0,366	-0,139
64,232	-5,934	-0,193	-0,092
65,247	-110,143	-0,487	-0,071
66,261	42,728	-0,354	-0,226
67,276	-13,040	-0,362	-0,165
68,290	-24,552	-0,410	-0,171
69,305	28,446	-0,374	-0,222
70,320	25,731	-0,345	-0,201
71,334	-20,786	-0,314	-0,135
72,349	60,133	-0,240	-0,166
73,363	12,679	-0,295	-0,160
74,378	13,471	-0,432	-0,235
75,393	121,256	-0,328	-0,287
76,407	-92,171	-0,381	-0,075
77,422	-24,270	-0,250	-0,104
78,436	24,375	-0,278	-0,161
79,451	213,349	-0,239	-0,265
80,466	-40,882	-0,102	-0,037
81,480	174,759	-0,220	-0,224
82,495	4,608	-0,324	-0,166
83,509	-9,005	-0,379	-0,178
84,524	-75,275	-0,244	-0,061
85,539	-79,672	-0,344	-0,081
86,553	-29,373	-0,232	-0,093
87,568	581,262	-0,169	-0,292
88,582	-7,073	-0,399	-0,189
89,597	-119,066	-0,343	-0,042
90,611	-48,947	-0,198	-0,066
91,626	58,671	-0,202	-0,139
92,641	63,927	-0,190	-0,134
93,655	-27,638	-0,262	-0,106
94,670	94,740	-0,240	-0,191
95,684	302,434	-0,226	-0,294
96,699	-36,234	-0,313	-0,118
97,714	-1,054	-0,294	-0,146
98,728	258,087	-0,214	-0,259
99,743	58,022	-0,313	-0,215
100,757	43,748	-0,273	-0,175
101,772	0,913	-0,313	-0,157
102,787	63,351	-0,308	-0,216
103,801	-71,009	-0,282	-0,074
104,816	11,864	-0,232	-0,125
105,830	76,629	-0,271	-0,201
106,845	381,426	-0,191	-0,275
107,860	86,761	-0,225	-0,174
108,874	-83,883	-0,306	-0,068
109,889	28,457	-0,277	-0,164
110,903	25,248	-0,373	-0,216
111,918	273,788	-0,206	-0,256
112,933	-79,875	-0,322	-0,075
113,947	79,026	-0,207	-0,155
114,962	177,855	-0,214	-0,219
115,976	117,904	-0,285	-0,246
116,991	135,260	-0,205	-0,186
118,006	-68,098	-0,336	-0,091
119,020	29,769	-0,406	-0,241
120,035	22,204	-0,271	-0,154
121,049	19,988	-0,274	-0,154
122,064	417,722	-0,070	-0,106
123,079	25,996	-0,256	-0,149
124,093	-85,223	-0,303	-0,066
125,108	79,021	-0,356	-0,266
126,122	-36,468	-0,292	-0,110
127,137	224,369	-0,239	-0,271
128,151	4,201	-0,272	-0,139
129,166	17,032	-0,155	-0,086
130,181	-43,792	-0,246	-0,086
131,195	-96,518	-0,343	-0,063
132,210	156,204	-0,227	-0,219
133,224	139,455	-0,230	-0,212
134,239	451,819	-0,081	-0,126
135,254	100,786	-0,094	-0,076
136,268	-154,802	-0,048	-0,002
137,283	-7,762	-0,365	-0,172
138,297	177,656	-0,188	-0,191
139,312	43,767	-0,262	-0,167
140,327	-18,079	-0,278	-0,121
141,341	14,600	-0,282	-0,153
142,356	-62,085	-0,213	-0,062
143,370	124,993	-0,254	-0,223
144,385	-37,472	-0,378	-0,140
145,400	132,493	-0,242	-0,218
146,414	330,182	-0,224	-0,302
147,429	202,884	-0,242	-0,262
148,443	348,233	-0,075	-0,103
149,458	-11,871	-0,248	-0,113
150,473	335,625	-0,209	-0,284
151,487	74,354	-0,241	-0,177
152,502	3,382	-0,299	-0,152
153,516	28,899	-0,335	-0,198
154,531	146,097	-0,229	-0,214
155,546	70,862	-0,141	-0,102
156,560	40,208	-0,231	-0,145
157,575	-47,929	-0,284	-0,095
158,589	55,172	-0,264	-0,178
159,604	-13,053	-0,306	-0,138
160,619	82,670	-0,244	-0,185
161,633	151,149	-0,226	-0,214
162,648	142,890	-0,283	-0,262
163,662	800,000	-0,145	-0,288
164,677	72,758	-0,111	-0,080
165,692	91,482	-0,182	-0,142
166,706	333,065	-0,165	-0,222
167,721	0,210	-0,309	-0,153
168,735	263,810	-0,170	-0,206
169,750	135,891	-0,298	-0,271
170,764	-4,406	-0,246	-0,118
171,779	-155,735	-0,246	0,011
172,794	4,540	-0,199	-0,102
173,808	72,273	-0,150	-0,109
174,823	66,974	-0,168	-0,119
175,837	6,142	-0,342	-0,176
176,852	227,874	-0,243	-0,276
177,867	34,319	-0,166	-0,100
178,881	-200,000	0,001	-0,193
179,896	-35,873	-0,358	-0,134
180,910	328,488	-0,289	-0,387
181,925	82,469	-0,240	-0,181
182,940	15,775	-0,253	-0,138
183,954	166,297	-0,127	-0,126
184,969	12,112	-0,245	-0,131
185,983	-17,288	-0,188	-0,082
186,998	109,956	-0,274	-0,229
188,013	-116,282	-0,202	-0,026
189,027	67,248	-0,263	-0,186
190,042	145,343	-0,223	-0,208
191,056	71,989	-0,255	-0,184
192,071	273,861	-0,175	-0,215
193,086	132,651	-0,220	-0,198
194,100	-12,910	-0,238	-0,107
195,115	145,029	-0,235	-0,219
196,129	24,063	-0,275	-0,158
197,144	244,736	-0,192	-0,225
198,159	-3,487	-0,306	-0,148
199,173	70,350	-0,344	-0,247
200,188	105,599	-0,150	-0,123
201,202	16,560	-0,244	-0,134
202,217	800,000	-0,085	-0,260
203,232	132,967	-0,230	-0,207
204,246	292,338	-0,140	-0,178
205,261	154,964	-0,185	-0,177
206,275	278,450	-0,140	-0,173
207,290	50,876	-0,169	-0,111
208,304	166,006	-0,168	-0,165
209,319	660,598	-0,162	-0,291
210,334	95,313	-0,206	-0,163
211,348	21,385	-0,246	-0,138
212,363	125,606	-0,126	-0,110
213,377	240,863	-0,206	-0,239
214,392	800,000	-0,115	-0,262
215,407	-98,723	-0,313	-0,055
216,421	-138,540	-0,224	-0,017
217,436	28,856	-0,204	-0,120
218,450	675,434	-0,126	-0,229
219,465	63,425	-0,156	-0,109
220,480	800,000	-0,114	-0,287
221,494	181,639	-0,114	-0,117
222,509	-20,358	-0,225	-0,096
223,523	-97,180	-0,266	-0,048
224,538	-46,114	-0,254	-0,086
225,553	49,531	-0,239	-0,156
226,567	11,492	-0,134	-0,071
227,582	800,000	-0,075	-0,209
228,596	268,178	-0,103	-0,125
229,611	-61,976	-0,221	-0,064
230,626	-98,837	-0,165	-0,029
231,640	715,442	-0,117	-0,216
232,655	177,500	-0,098	-0,099
233,669	182,928	-0,159	-0,163
234,684	223,308	-0,175	-0,196
235,699	351,288	-0,132	-0,181
236,713	331,790	-0,132	-0,177
237,728	-200,000	-0,040	-0,256
238,742	-132,477	-0,244	0,021
239,757	418,044	-0,126	-0,187
240,772	334,933	-0,160	-0,215
241,786	10,110	-0,212	-0,111
242,801	-7,694	-0,068	-0,032
243,815	326,442	-0,126	-0,168
244,830	-200,000	-0,033	-0,179
245,844	-71,532	-0,214	-0,055
246,859	134,646	-0,198	-0,178
247,874	94,981	-0,267	-0,210
248,888	111,695	-0,153	-0,127
249,903	177,787	-0,186	-0,188
250,917	-73,900	-0,215	0,054
251,932	275,648	-0,131	-0,161
252,947	113,773	-0,167	-0,140
253,961	215,299	-0,116	-0,128
254,976	-39,644	-0,218	-0,079
255,990	236,908	-0,191	-0,219
257,005	-13,211	-0,158	-0,071
258,020	800,000	-0,106	-0,287
259,034	62,092	-0,172	-0,118
260,049	112,445	-0,171	-0,143
261,063	-27,385	-0,217	-0,087
262,078	85,240	-0,215	-0,163
263,093	98,945	-0,114	-0,091
264,107	507,590	-0,148	-0,238
265,122	173,248	-0,074	-0,074
266,136	-200,000	-0,171	0,000
267,151	186,681	-0,080	0,082
268,166	35,084	-0,138	-0,083
269,180	800,000	-0,087	-0,174
270,195	388,567	-0,126	-0,181
271,209	83,953	-0,231	-0,174
272,224	800,000	-0,052	-0,107
273,239	242,601	-0,032	-0,037
274,253	361,448	-0,073	-0,102
275,268	264,592	-0,129	-0,155
276,282	334,878	-0,179	-0,240
277,297	104,207	-0,189	-0,153
278,312	-130,207	-0,178	0,017
279,326	492,572	-0,091	-0,145
280,341	117,827	-0,103	-0,088
281,355	278,969	-0,142	-0,176
282,370	117,110	-0,171	-0,145
283,384	-87,616	-0,308	-0,064
284,399	28,915	-0,292	-0,171
285,414	59,889	-0,172	-0,117
286,428	156,087	-0,147	-0,140
287,443	65,297	-0,241	-0,168
288,457	-84,051	-0,207	-0,045
289,472	264,285	-0,156	-0,188
290,487	725,395	-0,086	-0,160
291,501	-21,790	-0,148	-0,062
292,516	332,023	-0,063	-0,084
293,530	-77,951	-0,233	-0,055
294,545	-88,371	-0,203	-0,041
295,560	-97,076	-0,077	-0,014
296,574	-34,420	-0,266	-0,100
297,589	197,856	-0,171	-0,180
298,603	11,321	-0,278	-0,146
299,618	55,892	-0,026	0,018
300,633	800,000	-0,098	-0,261
301,647	-86,009	-0,198	-0,042
302,662	31,606	-0,269	-0,159
303,676	391,333	-0,094	-0,135
304,691	-113,442	-0,106	-0,014
305,706	-33,966	-0,145	0,055
306,720	372,603	-0,176	-0,247
307,735	800,000	-0,073	-0,204
308,749	126,393	-0,185	-0,161
309,764	18,094	-0,123	-0,067
310,779	-26,942	-0,217	-0,087
311,793	-96,543	-0,096	-0,017
312,808	227,761	-0,224	-0,251
313,822	635,542	-0,097	-0,170
314,837	40,663	-0,211	-0,130
315,852	-200,000	-0,018	-0,191
316,866	8,193	-0,128	-0,066
317,881	-53,269	-0,101	-0,032
318,895	189,511	-0,142	-0,146
319,910	147,983	-0,219	-0,204
320,925	51,291	-0,226	-0,147
321,939	378,913	-0,132	-0,187
322,954	138,701	-0,104	-0,094
323,968	-115,444	-0,041	0,005
324,983	-200,000	-0,222	0,000
325,997	-53,413	-0,194	-0,061
327,012	326,227	-0,146	-0,192
328,027	716,209	-0,118	-0,216
329,041	-161,026	-0,183	0,006
330,056	10,950	-0,150	-0,079
331,070	769,960	-0,044	-0,083
332,085	344,733	-0,061	-0,083
333,100	3,362	-0,207	-0,103
334,114	-7,490	-0,135	-0,062
335,129	125,458	-0,113	-0,098
336,143	144,681	-0,117	-0,108
337,158	800,000	0,052	-0,156
338,173	148,758	-0,111	-0,103
339,187	432,474	-0,073	0,109
340,202	-200,000	-0,022	-0,123
341,216	338,971	-0,061	-0,082
342,231	156,262	-0,149	-0,141
343,246	304,625	-0,181	-0,231
344,260	658,085	-0,061	-0,108
345,275	-54,994	-0,162	-0,050
346,289	-41,838	-0,103	-0,036
347,304	-35,943	-0,118	-0,044
348,319	-50,730	-0,199	-0,064
349,333	77,829	-0,185	-0,135
350,348	11,329	-0,118	-0,062
351,362	-22,348	-0,325	-0,134
352,377	188,895	-0,144	-0,148
353,392	99,517	-0,022	-0,018
354,406	101,409	-0,209	-0,167
355,421	210,210	1312,708	1415,059
356,435	161,811	1473,218	1415,554
