DTS Sentinel unit serial number:	SN410029Multiplexer serial number:	ORYXHardware model number:	OX2-SRSoftware version number:	ORYX F/W v4,00 Oryx Data Collector v3.7.2.0data status	okinstallation	B3 Nyhavnadifferential loss correction	single-endedforward channel	channel 1reverse channel	N/Adate	2023/11/29time	12:32:30forward acquisition time	300,00reverse acquisition time	0,00gamma	499,1914k internal	0,3212k external	0,3212temperature offset calibration	1,0000default loss term (dB/km)	0,3820temperature slope calibration	1,0000multiplexer offset coefficient	1,0000multiplexer slope coefficient	1,0000fibre end	0,00T internal ref (°C)	9,89T ext. ref 1 (°C)	-4,31T ext. ref 2 (°C)	-4,45length (m)	temperature (°C)	Stokes	anti-Stokes-744,400	265,039	-0,247	-0,313
-743,385	-200,000	0,057	0,229
-742,371	-22,578	-0,259	-0,113
-741,356	800,000	0,118	0,303
-740,342	-200,000	-0,055	-0,284
-739,327	-200,000	0,053	0,263
-738,312	380,571	-0,260	-0,388
-737,298	-200,000	0,020	0,289
-736,283	-200,000	-0,088	-0,303
-735,269	-200,000	-0,036	0,283
-734,254	800,000	-0,153	-0,314
-733,239	-9,375	-0,169	0,081
-732,225	-200,000	0,045	-0,251
-731,210	-200,000	0,032	0,150
-730,196	-29,775	-0,042	-0,017
-729,181	-200,000	-0,004	0,059
-728,167	739,670	-0,069	-0,134
-727,152	-103,872	-0,071	0,012
-726,137	800,000	0,020	-0,056
-725,123	110,295	-0,155	-0,135
-724,108	-90,972	-0,031	0,006
-723,094	-93,771	-0,092	-0,018
-722,079	800,000	-0,016	-0,047
-721,064	-200,000	0,001	-0,075
-720,050	-7,352	-0,063	-0,031
-719,035	162,898	-0,051	-0,051
-718,021	-200,000	0,018	-0,129
-717,006	61,897	-0,114	-0,082
-715,991	-200,000	0,011	-0,046
-714,977	61,468	0,032	-0,023
-713,962	-200,000	0,008	0,193
-712,948	800,000	0,023	0,054
-711,933	800,000	-0,024	0,063
-710,918	67,165	0,042	-0,031
-709,904	187,883	0,014	-0,015
-708,889	680,220	0,029	-0,054
-707,875	-200,000	-0,004	-0,114
-706,860	266,082	-0,011	0,013
-705,845	800,000	-0,047	0,150
-704,831	-200,000	0,020	-0,079
-703,816	-16,893	-0,090	-0,041
-702,802	800,000	0,054	0,137
-701,787	551,248	-0,040	0,070
-700,772	-157,629	-0,084	-0,004
-699,758	18,317	-0,085	-0,049
-698,743	-101,218	0,075	0,013
-697,729	800,000	0,024	0,063
-696,714	-125,960	0,115	-0,012
-695,699	53,579	0,054	-0,037
-694,685	-200,000	0,013	-0,065
-693,670	322,585	-0,070	-0,097
-692,656	-200,000	0,023	-0,073
-691,641	32,678	-0,065	0,040
-690,627	170,370	0,095	-0,099
-689,612	-162,412	-0,077	-0,003
-688,597	800,000	-0,030	0,079
-687,583	78,329	-0,045	0,034
-686,568	305,267	0,030	-0,041
-685,554	-39,357	-0,071	-0,027
-684,539	356,459	-0,044	-0,063
-683,524	245,457	0,056	-0,068
-682,510	109,792	-0,031	-0,027
-681,495	-200,000	0,017	0,119
-680,481	625,276	0,012	0,023
-679,466	-200,000	0,002	-0,041
-678,451	496,856	-0,055	-0,092
-677,437	-47,225	-0,117	0,041
-676,422	-179,587	0,168	0,003
-675,408	74,471	-0,057	-0,044
-674,393	-200,000	0,003	0,013
-673,378	-200,000	0,004	0,025
-672,364	-46,883	-0,049	0,017
-671,349	-200,000	-0,026	-0,103
-670,335	160,719	0,054	-0,055
-669,320	37,483	0,145	-0,093
-668,305	353,233	-0,082	0,118
-667,291	-44,668	0,050	-0,018
-666,276	-200,000	-0,014	0,000
-665,262	-132,559	-0,057	-0,005
-664,247	178,026	-0,055	-0,058
-663,232	800,000	0,005	-0,013
-662,218	800,000	-0,035	0,106
-661,203	-32,558	0,183	0,073
-660,189	226,164	-0,077	0,090
-659,174	-200,000	-0,011	-0,085
-658,159	-200,000	-0,012	-0,078
-657,145	-13,467	-0,018	0,009
-656,130	1,499	0,060	-0,031
-655,116	69,465	0,113	0,084
-654,101	-32,938	-0,057	-0,023
-653,086	190,386	0,124	0,135
-652,072	469,840	-0,021	-0,034
-651,057	-39,920	-0,029	-0,011
-650,043	-65,768	-0,113	-0,032
-649,028	-86,862	-0,008	0,002
-648,014	-200,000	-0,003	-0,016
-646,999	800,000	-0,018	-0,049
-645,984	525,445	0,004	-0,007
-644,970	-46,061	0,074	0,026
-643,955	-61,259	-0,171	-0,052
-642,941	-130,445	-0,129	0,012
-641,926	-165,415	0,118	0,004
-640,911	800,000	-0,052	-0,108
-639,897	59,793	0,024	-0,017
-638,882	-200,000	0,015	0,142
-637,868	800,000	0,056	-0,129
-636,853	156,984	-0,084	-0,084
-635,838	21,360	-0,199	-0,116
-634,824	-105,865	-0,102	0,016
-633,809	-163,798	0,114	0,004
-632,795	-200,000	0,000	0,069
-631,780	-31,665	-0,120	-0,048
-630,765	-166,191	0,076	-0,002
-629,751	800,000	0,051	-0,142
-628,736	94,883	-0,102	-0,084
-627,722	-164,367	-0,060	0,002
-626,707	-61,965	-0,054	-0,016
-625,692	-200,000	-0,012	0,066
-624,678	314,498	0,049	-0,067
-623,663	59,173	0,136	0,096
-622,649	10,571	-0,146	0,080
-621,634	-200,000	0,041	-0,208
-620,619	800,000	-0,084	-0,177
-619,605	362,795	0,105	0,152
-618,590	-110,970	0,183	-0,027
-617,576	-200,000	0,006	-0,027
-616,561	-35,722	0,108	-0,042
-615,546	10,801	-0,042	0,023
-614,532	786,169	0,032	0,063
-613,517	33,093	-0,012	0,007
-612,503	96,246	-0,065	0,054
-611,488	-200,000	-0,011	0,100
-610,474	297,186	0,057	0,075
-609,459	800,000	-0,033	-0,096
-608,444	800,000	-0,065	-0,176
-607,430	560,369	0,017	-0,030
-606,415	800,000	0,025	-0,062
-605,401	-200,000	-0,017	-0,092
-604,386	-200,000	-0,040	0,147
-603,371	800,000	0,004	-0,011
-602,357	800,000	-0,045	0,095
-601,342	-64,346	0,076	0,022
-600,328	59,971	-0,154	-0,110
-599,313	-200,000	-0,002	0,053
-598,298	425,513	0,009	-0,015
-597,284	-200,000	0,003	-0,125
-596,269	350,417	-0,030	0,042
-595,255	-200,000	0,006	0,108
-594,240	17,408	-0,125	0,072
-593,225	-200,000	-0,021	-0,103
-592,211	800,000	-0,055	-0,124
-591,196	42,911	0,118	-0,077
-590,182	9,008	-0,088	-0,048
-589,167	-143,552	0,051	0,003
-588,152	-51,354	0,125	0,042
-587,138	800,000	-0,007	-0,017
-586,123	-45,918	-0,109	-0,038
-585,109	-139,453	-0,131	0,010
-584,094	310,315	0,011	0,015
-583,079	310,469	0,094	0,128
-582,065	59,430	0,054	-0,039
-581,050	467,357	0,113	-0,183
-580,036	-200,000	0,028	0,128
-579,021	1,964	-0,167	0,087
-578,006	179,844	-0,144	-0,152
-576,992	-200,000	-0,001	-0,124
-575,977	311,438	0,093	-0,126
-574,963	-90,708	0,076	0,016
-573,948	-96,317	0,096	-0,018
-572,934	-200,000	-0,018	-0,122
-571,919	89,043	0,048	-0,039
-570,904	134,205	0,091	0,085
-569,890	-20,553	-0,040	-0,018
-568,875	121,967	0,054	-0,049
-567,861	57,101	-0,086	-0,060
-566,846	-200,000	-0,018	-0,136
-565,831	-50,983	0,142	-0,048
-564,817	553,418	-0,103	-0,179
-563,802	294,011	-0,012	0,016
-562,788	138,941	-0,038	0,036
-561,773	-163,352	-0,039	-0,001
-560,758	-200,000	0,012	-0,063
-559,744	-200,000	0,010	0,042
-558,729	659,302	-0,070	-0,130
-557,715	-175,520	-0,107	0,002
-556,700	-200,000	-0,008	-0,070
-555,685	-200,000	-0,012	0,056
-554,671	-144,145	-0,083	0,005
-553,656	-200,000	0,023	-0,105
-552,642	-84,140	-0,078	0,018
-551,627	-200,000	-0,007	-0,027
-550,612	242,633	-0,030	-0,037
-549,598	-200,000	-0,037	-0,129
-548,583	182,248	-0,053	-0,057
-547,569	-57,203	-0,067	0,021
-546,554	78,819	-0,120	-0,092
-545,539	-83,933	-0,051	0,012
-544,525	106,314	-0,063	0,054
-543,510	-200,000	-0,006	-0,214
-542,496	-200,000	0,000	-0,036
-541,481	-46,143	-0,108	0,038
-540,466	355,465	0,043	-0,062
-539,452	-114,749	0,037	-0,005
-538,437	599,773	-0,074	0,132
-537,423	-30,148	-0,025	-0,010
-536,408	5,393	-0,117	-0,062
-535,393	306,422	0,019	-0,026
-534,379	93,070	-0,094	-0,076
-533,364	299,600	0,043	-0,057
-532,350	-200,000	-0,003	-0,134
-531,335	-15,686	0,153	0,070
-530,321	800,000	-0,009	-0,026
-529,306	-200,000	0,021	-0,086
-528,291	240,788	-0,051	0,062
-527,277	-186,864	-0,021	0,000
-526,262	-15,122	-0,049	0,023
-525,248	800,000	0,027	0,057
-524,233	-200,000	-0,023	0,079
-523,218	97,872	0,034	0,028
-522,204	-200,000	-0,011	0,064
-521,189	-54,449	-0,078	-0,025
-520,175	605,190	-0,060	-0,109
-519,160	-120,890	0,128	-0,015
-518,145	-103,495	0,069	-0,012
-517,131	800,000	0,025	-0,080
-516,116	-160,792	0,179	0,007
-515,102	328,345	-0,040	0,056
-514,087	674,042	-0,108	0,203
-513,072	-42,181	-0,114	-0,042
-512,058	-200,000	0,019	-0,066
-511,043	-116,261	0,098	0,013
-510,029	800,000	-0,020	0,046
-509,014	-176,894	0,060	0,001
-507,999	-200,000	-0,005	-0,070
-506,985	256,627	-0,169	-0,209
-505,970	-107,373	0,064	0,010
-504,956	-36,275	-0,098	-0,038
-503,941	-141,033	0,157	-0,011
-502,926	800,000	0,057	0,138
-501,912	-83,956	0,027	0,006
-500,897	282,966	-0,054	-0,069
-499,883	-28,534	0,031	-0,013
-498,868	-75,579	-0,162	-0,041
-497,853	21,983	0,204	-0,119
-496,839	-200,000	0,004	0,100
-495,824	-24,703	0,137	-0,058
-494,810	800,000	-0,017	-0,035
-493,795	553,729	0,022	-0,037
-492,781	238,670	0,030	0,036
-491,766	395,009	-0,117	-0,176
-490,751	-33,791	-0,024	-0,009
-489,737	-200,000	0,008	-0,038
-488,722	317,940	0,038	0,051
-487,708	800,000	0,038	-0,109
-486,693	-67,469	-0,038	-0,011
-485,678	-61,195	-0,083	0,025
-484,664	-200,000	-0,037	-0,139
-483,649	-200,000	0,029	-0,109
-482,635	229,807	-0,084	0,098
-481,620	120,103	0,077	0,068
-480,605	800,000	0,021	0,053
-479,591	21,530	-0,116	-0,068
-478,576	107,566	0,059	-0,051
-477,562	442,062	-0,123	-0,195
-476,547	800,000	0,031	-0,065
-475,532	381,973	-0,039	0,057
-474,518	152,105	-0,048	0,047
-473,503	-74,410	0,010	0,002
-472,489	-33,365	0,143	-0,056
-471,474	-200,000	0,002	-0,010
-470,459	88,473	-0,100	-0,080
-469,445	489,367	-0,099	-0,163
-468,430	-200,000	-0,034	-0,133
-467,416	163,454	0,139	0,140
-466,401	-200,000	-0,061	0,241
-465,386	-200,000	-0,026	0,177
-464,372	43,955	0,046	0,030
-463,357	-200,000	0,002	-0,033
-462,343	800,000	0,065	-0,150
-461,328	76,298	-0,069	-0,052
-460,313	-200,000	-0,019	-0,068
-459,299	800,000	-0,027	0,056
-458,284	379,067	-0,066	0,097
-457,270	-69,408	-0,076	-0,021
-456,255	101,821	-0,059	-0,050
-455,241	-200,000	-0,006	-0,129
-454,226	-132,384	0,093	0,009
-453,211	391,059	-0,045	-0,067
-452,197	-200,000	0,000	0,150
-451,182	-200,000	0,011	0,086
-450,168	-162,677	0,094	-0,003
-449,153	180,393	-0,077	-0,081
-448,138	800,000	-0,060	-0,180
-447,124	-187,870	-0,046	0,000
-446,109	-200,000	0,037	0,129
-445,095	231,380	0,097	0,114
-444,080	12,963	-0,081	0,045
-443,065	800,000	0,042	0,117
-442,051	-4,443	0,049	0,024
-441,036	257,359	0,034	0,043
-440,022	-200,000	-0,006	0,049
-439,007	-123,311	-0,209	0,024
-437,992	717,691	0,043	0,082
-436,978	-91,445	0,091	-0,018
-435,963	-200,000	-0,009	-0,110
-434,949	-124,704	-0,038	-0,004
-433,934	206,486	0,061	-0,069
-432,919	-200,000	-0,004	-0,061
-431,905	-36,599	0,152	0,058
-430,890	53,292	-0,096	0,066
-429,876	279,593	0,172	0,220
-428,861	517,598	0,058	0,098
-427,846	18,137	-0,069	-0,039
-426,832	273,902	0,019	-0,024
-425,817	800,000	0,020	0,040
-424,803	800,000	-0,039	0,105
-423,788	134,059	0,097	0,090
-422,773	-200,000	-0,013	0,183
-421,759	-120,560	-0,160	0,019
-420,744	-127,092	0,032	-0,003
-419,730	-200,000	0,017	0,068
-418,715	211,432	-0,072	0,081
-417,701	149,648	-0,055	-0,053
-416,686	-139,472	0,031	0,002
-415,671	23,961	0,028	-0,017
-414,657	-200,000	-0,033	0,196
-413,642	-200,000	-0,020	0,072
-412,628	31,284	0,060	0,037
-411,613	330,275	-0,076	0,106
-410,598	-47,539	-0,087	0,030
-409,584	-200,000	0,010	0,081
-408,569	54,837	0,148	0,102
-407,555	800,000	0,091	0,218
-406,540	-101,294	0,124	0,021
-405,525	-19,283	-0,050	-0,022
-404,511	54,178	-0,049	0,034
-403,496	-200,000	0,043	-0,150
-402,482	-200,000	-0,002	0,016
-401,467	-27,693	0,097	-0,040
-400,452	-68,897	-0,038	0,010
-399,438	-200,000	-0,008	0,081
-398,423	-200,000	0,035	-0,186
-397,409	-25,203	0,068	-0,029
-396,394	-200,000	0,029	0,093
-395,379	-105,360	-0,130	0,021
-394,365	-200,000	-0,012	0,066
-393,350	-120,867	-0,054	0,006
-392,336	-200,000	0,030	0,164
-391,321	-141,592	-0,123	0,009
-390,306	337,367	-0,015	0,020
-389,292	-124,975	0,038	0,004
-388,277	800,000	-0,010	0,025
-387,263	-22,069	-0,089	-0,039
-386,248	-27,493	-0,087	0,036
-385,233	800,000	0,067	0,192
-384,219	-200,000	0,002	0,173
-383,204	-72,062	0,067	0,018
-382,190	4,601	-0,156	-0,081
-381,175	54,802	0,025	0,017
-380,160	-200,000	0,033	0,145
-379,146	61,365	-0,025	0,018
-378,131	-127,733	-0,115	0,012
-377,117	800,000	0,026	-0,074
-376,102	800,000	-0,040	0,090
-375,088	-200,000	-0,013	-0,065
-374,073	-81,815	-0,106	0,025
-373,058	-2,517	-0,019	0,009
-372,044	59,851	0,085	0,060
-371,029	6,100	-0,132	-0,070
-370,015	-47,412	-0,097	0,034
-369,000	-200,000	0,032	0,163
-367,985	-200,000	0,028	-0,090
-366,971	-200,000	-0,012	-0,047
-365,956	11,495	0,167	0,091
-364,942	-145,257	0,192	-0,012
-363,927	-200,000	0,017	0,112
-362,912	800,000	0,057	0,115
-361,898	-200,000	0,003	0,038
-360,883	-121,740	-0,149	-0,017
-359,869	-200,000	0,004	-0,093
-358,854	-200,000	0,003	-0,045
-357,839	-17,080	0,093	-0,042
-356,825	-45,172	0,064	0,023
-355,810	221,268	-0,040	0,046
-354,796	-45,278	-0,111	0,039
-353,781	-49,821	0,039	-0,013
-352,766	165,616	-0,124	-0,126
-351,752	-123,436	0,069	0,008
-350,737	-18,021	0,136	-0,061
-349,723	-92,762	0,115	-0,023
-348,708	-200,000	-0,014	0,055
-347,693	-53,761	0,058	0,019
-346,679	800,000	0,073	-0,155
-345,664	-109,427	0,055	0,008
-344,650	800,000	-0,047	0,099
-343,635	-200,000	-0,019	-0,104
-342,620	-200,000	0,032	0,108
-341,606	-6,384	-0,093	0,045
-340,591	376,067	-0,058	-0,084
-339,577	800,000	-0,105	-0,224
-338,562	-200,000	0,039	-0,172
-337,548	800,000	0,011	-0,028
-336,533	-200,000	-0,006	0,036
-335,518	733,593	0,010	-0,018
-334,504	-65,123	0,039	-0,011
-333,489	45,185	0,074	-0,049
-332,475	-125,011	-0,277	-0,030
-331,460	-51,314	-0,061	-0,020
-330,445	83,529	0,043	-0,034
-329,431	800,000	-0,036	0,105
-328,416	111,221	-0,046	-0,040
-327,402	800,000	0,044	0,129
-326,387	-84,458	0,113	-0,025
-325,372	-200,000	-0,017	-0,112
-324,358	-200,000	0,020	-0,063
-323,343	-200,000	0,003	-0,012
-322,329	800,000	-0,034	0,077
-321,314	-67,670	0,186	-0,052
-320,299	-200,000	0,004	-0,033
-319,285	-1,596	0,118	0,059
-318,270	-164,264	-0,124	0,004
-317,256	-200,000	-0,026	-0,090
-316,241	-200,000	-0,048	-0,249
-315,226	-43,177	-0,053	0,019
-314,212	-130,589	0,147	-0,014
-313,197	-36,623	0,066	0,025
-312,183	354,343	0,029	-0,041
-311,168	223,117	-0,123	-0,141
-310,153	-200,000	0,031	-0,099
-309,139	95,981	-0,061	0,050
-308,124	59,528	0,051	-0,036
-307,110	-96,738	-0,076	0,014
-306,095	-200,000	0,015	0,116
-305,080	800,000	-0,036	0,107
-304,066	590,836	0,031	-0,054
-303,051	800,000	0,045	-0,141
-302,037	800,000	-0,026	-0,067
-301,022	157,963	0,075	0,074
-300,008	-135,328	0,073	0,006
-298,993	800,000	0,042	0,092
-297,978	800,000	0,035	0,083
-296,964	233,533	-0,045	-0,053
-295,949	-200,000	-0,015	-0,095
-294,935	-97,104	0,075	-0,014
-293,920	-200,000	-0,009	0,059
-292,905	25,757	0,021	-0,013
-291,891	800,000	0,041	0,088
-290,876	800,000	0,022	0,066
-289,862	-106,400	-0,135	-0,021
-288,847	-34,259	-0,069	0,027
-287,832	49,472	-0,033	0,022
-286,818	-3,559	-0,063	-0,031
-285,803	13,825	0,125	0,069
-284,789	-54,416	-0,115	0,037
-283,774	-200,000	-0,024	0,079
-282,759	280,333	0,043	-0,055
-281,745	-161,935	0,143	0,005
-280,730	459,492	-0,040	0,063
-279,716	800,000	0,035	0,095
-278,701	-102,258	0,131	0,022
-277,686	-146,200	-0,026	-0,002
-276,672	-30,551	-0,072	-0,029
-275,657	-67,750	0,110	0,030
-274,643	-172,528	-0,049	0,001
-273,628	67,838	-0,046	0,033
-272,613	-132,361	0,155	0,014
-271,599	-30,635	-0,100	0,040
-270,584	-200,000	0,008	0,114
-269,570	-200,000	0,024	0,166
-268,555	104,678	-0,106	-0,089
-267,540	377,666	0,014	0,020
-266,526	581,649	0,037	-0,065
-265,511	-23,045	0,123	0,053
-264,497	224,807	-0,086	0,100
-263,482	-50,086	-0,071	0,024
-262,467	-200,000	0,024	0,121
-261,453	-200,000	0,023	0,074
-260,438	170,307	0,051	-0,052
-259,424	-160,310	-0,063	-0,002
-258,409	619,152	-0,021	-0,037
-257,395	122,825	-0,030	-0,026
-256,380	251,172	0,074	0,090
-255,365	241,928	-0,044	0,053
-254,351	91,734	-0,125	0,100
-253,336	-121,061	0,094	-0,011
-252,322	239,134	0,148	-0,176
-251,307	493,140	-0,058	-0,095
-250,292	800,000	0,072	0,145
-249,278	-200,000	-0,013	0,089
-248,263	-35,783	-0,053	-0,020
-247,249	-200,000	-0,026	0,114
-246,234	528,899	0,001	-0,002
-245,219	75,339	-0,077	0,058
-244,205	-200,000	-0,018	-0,113
-243,190	58,878	0,021	-0,014
-242,176	-200,000	0,040	0,133
-241,161	-118,383	0,205	0,026
-240,146	49,373	-0,131	0,088
-239,132	-67,298	0,063	0,018
-238,117	-75,731	-0,050	-0,013
-237,103	67,078	-0,131	-0,095
-236,088	473,855	0,038	0,060
-235,073	767,381	-0,031	0,060
-234,059	-25,277	-0,064	0,027
-233,044	80,644	0,170	0,130
-232,030	-22,793	0,108	0,046
-231,015	-1,292	0,041	0,020
-230,000	249,516	-0,086	-0,103
-228,986	800,000	-0,050	-0,105
-227,971	-116,306	0,048	0,006
-226,957	-200,000	0,004	0,032
-225,942	-52,059	0,019	-0,006
-224,927	86,913	0,076	0,059
-223,913	-17,031	-0,138	-0,062
-222,898	-25,457	-0,148	0,062
-221,884	800,000	0,030	-0,078
-220,869	800,000	0,032	0,095
-219,855	315,976	0,058	-0,078
-218,840	10,118	-0,102	-0,055
-217,825	-41,235	-0,070	-0,026
-216,811	-86,850	0,073	-0,016
-215,796	-200,000	-0,002	0,028
-214,782	-9,647	-0,106	-0,050
-213,767	-200,000	-0,006	0,075
-212,752	-200,000	0,011	0,037
-211,738	106,289	0,124	0,104
-210,723	26,258	0,095	0,056
-209,709	800,000	-0,070	0,162
-208,694	800,000	0,060	0,139
-207,679	56,722	0,117	-0,081
-206,665	483,630	0,066	-0,106
-205,650	-54,945	0,193	-0,061
-204,636	-140,899	0,093	-0,007
-203,621	251,935	-0,021	0,025
-202,606	-183,874	-0,036	0,000
-201,592	-127,586	-0,050	-0,005
-200,577	-92,563	0,070	-0,014
-199,563	80,492	0,186	-0,142
-198,548	800,000	-0,007	-0,022
-197,533	326,496	0,127	0,173
-196,519	-125,469	0,122	0,013
-195,504	-200,000	0,033	-0,152
-194,490	-200,000	0,028	0,142
-193,475	674,504	0,068	0,127
-192,460	261,427	0,072	-0,088
-191,446	455,481	0,068	0,108
-190,431	70,088	0,093	-0,068
-189,417	800,000	-0,027	0,081
-188,402	-200,000	-0,020	0,122
-187,387	95,850	-0,066	-0,054
-186,373	651,722	-0,087	-0,158
-185,358	-200,000	-0,019	-0,089
-184,344	-200,000	-0,001	0,064
-183,329	-200,000	0,048	0,192
-182,315	-200,000	-0,008	0,222
-181,300	364,502	-0,081	0,116
-180,285	-82,890	-0,153	0,035
-179,271	493,029	0,021	0,034
-178,256	-200,000	-0,004	-0,088
-177,242	72,119	0,106	0,078
-176,227	546,885	0,062	-0,106
-175,212	-76,352	0,053	0,013
-174,198	800,000	0,010	-0,021
-173,183	-200,000	-0,020	-0,082
-172,169	538,740	-0,092	-0,155
-171,154	36,462	0,088	-0,055
-170,139	75,342	0,134	0,100
-169,125	800,000	0,032	0,084
-168,110	-164,601	0,093	-0,003
-167,096	-200,000	-0,003	-0,100
-166,081	707,556	0,042	-0,079
-165,066	800,000	-0,030	-0,085
-164,052	52,897	0,051	0,034
-163,037	48,250	0,095	0,063
-162,023	-15,327	0,128	0,058
-161,008	-120,613	-0,201	0,024
-159,993	800,000	0,037	-0,116
-158,979	800,000	-0,028	-0,063
-157,964	-4,409	-0,038	0,019
-156,950	-200,000	-0,026	0,110
-155,935	148,316	-0,050	-0,048
-154,920	-200,000	-0,016	-0,066
-153,906	373,317	-0,024	0,035
-152,891	-21,634	-0,077	0,033
-151,877	800,000	-0,053	0,153
-150,862	159,753	-0,016	0,016
-149,847	-45,579	0,138	0,048
-148,833	490,075	-0,036	-0,058
-147,818	-200,000	-0,044	0,157
-146,804	-200,000	0,006	0,027
-145,789	-200,000	-0,013	-0,055
-144,775	625,022	-0,103	-0,184
-143,760	333,343	0,023	0,031
-142,745	-68,759	-0,094	0,025
-141,731	800,000	-0,003	0,007
-140,716	800,000	-0,055	0,118
-139,702	465,796	0,044	0,071
-138,687	47,381	0,051	0,034
-137,672	45,723	-0,080	-0,052
-136,658	-200,000	0,011	-0,144
-135,643	594,843	-0,054	-0,095
-134,629	55,417	-0,102	0,070
-133,614	-200,000	0,019	0,071
-132,599	-32,012	0,082	-0,032
-131,585	446,633	-0,058	0,090
-130,570	-200,000	-0,013	0,062
-129,556	477,848	0,067	0,108
-128,541	-191,552	-0,124	0,001
-127,526	-200,000	0,044	0,181
-126,512	-200,000	0,001	-0,023
-125,497	-200,000	-0,051	0,198
-124,483	800,000	-0,028	0,058
-123,468	-61,071	-0,069	0,021
-122,453	-200,000	0,010	0,068
-121,439	-138,732	-0,051	0,004
-120,424	-22,403	-0,056	0,024
-119,410	800,000	0,010	-0,027
-118,395	-60,817	-0,121	0,036
-117,380	800,000	0,050	0,127
-116,366	800,000	-0,086	-0,179
-115,351	-158,353	-0,179	0,007
-114,337	-162,943	-0,086	0,003
-113,322	33,689	0,042	-0,025
-112,307	124,914	-0,020	0,018
-111,293	24,529	-0,111	0,065
-110,278	290,498	-0,053	0,069
-109,264	155,831	0,124	-0,121
-108,249	-46,705	-0,083	-0,029
-107,234	279,455	0,052	0,066
-106,220	554,498	0,050	-0,085
-105,205	199,063	-0,030	-0,033
-104,191	-181,741	-0,064	0,001
-103,176	83,487	-0,063	-0,049
-102,162	-63,545	0,069	0,020
-101,147	769,962	-0,028	-0,055
-100,132	82,763	0,021	-0,016
-99,118	800,000	-0,040	-0,120
-98,103	162,212	-0,060	-0,059
-97,089	-70,778	-0,137	-0,036
-96,074	800,000	-0,029	0,084
-95,059	-200,000	-0,008	0,099
-94,045	-48,821	-0,114	0,038
-93,030	800,000	0,050	0,120
-92,016	116,144	-0,175	-0,151
-91,001	-200,000	0,025	-0,113
-89,986	-200,000	0,007	-0,035
-88,972	-200,000	-0,047	0,167
-87,957	-200,000	-0,006	0,064
-86,943	-139,442	-0,148	0,011
-85,928	-194,355	-0,139	-0,001
-84,913	-52,058	-0,170	-0,056
-83,899	-200,000	0,002	-0,076
-82,884	800,000	-0,033	0,085
-81,870	-2,819	0,088	-0,043
-80,855	261,309	-0,046	0,056
-79,840	-200,000	-0,010	-0,135
-78,826	55,718	-0,037	0,025
-77,811	93,916	0,063	-0,050
-76,797	171,213	-0,099	0,100
-75,782	641,025	-0,003	-0,006
-74,767	-161,767	0,068	-0,002
-73,753	800,000	-0,043	0,086
-72,738	-155,138	-0,195	0,009
-71,724	-153,552	0,156	-0,007
-70,709	160,135	-0,038	0,038
-69,694	162,884	0,055	-0,055
-68,680	800,000	-0,064	0,137
-67,665	247,759	0,138	0,165
-66,651	-123,771	-0,143	-0,016
-65,636	-29,184	0,017	-0,007
-64,622	-40,980	-0,174	-0,063
-63,607	-39,539	-0,053	0,020
-62,592	-116,754	-0,123	0,016
-61,578	-61,410	0,067	0,020
-60,563	241,654	0,034	0,040
-59,549	-37,618	0,079	-0,030
-58,534	51,958	-1,872	-1,256
-57,519	543,167	-1,192	-2,015
-56,505	-200,000	-0,466	-4,414
-55,490	337,377	1,101	1,514
-54,476	800,000	5,068	11,324
-53,461	-200,000	21,493	343,327
-52,446	800,000	761,626	2365,316
-51,432	558,788	1663,854	2844,128
-50,417	73,207	1661,148	1224,289
-49,403	17,779	1534,666	859,447
-48,388	11,699	1458,295	787,279
-47,373	19,557	1449,497	820,192
-46,359	15,267	1438,753	793,689
-45,344	9,973	1434,581	766,153
-44,330	9,937	1432,661	764,928
-43,315	9,903	1430,881	763,785
-42,300	9,896	1429,249	762,851
-41,286	9,952	1427,608	762,207
-40,271	9,880	1426,774	761,392
-39,257	9,938	1425,396	760,902
-38,242	9,937	1424,529	760,402
-37,227	9,954	1423,238	759,765
-36,213	9,980	1421,868	759,127
-35,198	9,970	1420,670	758,409
-34,184	10,004	1419,664	758,001
-33,169	9,909	1418,570	756,939
-32,154	9,980	1417,427	756,633
-31,140	9,951	1416,213	755,819
-30,125	10,051	1414,956	755,591
-29,111	9,996	1413,869	754,720
-28,096	9,979	1412,739	754,009
-27,082	9,964	1411,438	753,215
-26,067	9,905	1410,353	752,328
-25,052	9,927	1409,461	751,926
-24,038	9,903	1408,520	751,282
-23,023	9,925	1407,671	750,902
-22,009	9,918	1406,650	750,296
-20,994	9,934	1405,497	749,723
-19,979	9,930	1404,609	749,200
-18,965	9,879	1403,787	748,497
-17,950	9,895	1402,860	748,045
-16,936	9,840	1402,035	747,321
-15,921	9,822	1401,098	746,707
-14,906	9,826	1399,997	746,108
-13,892	9,874	1398,982	745,762
-12,877	9,859	1398,263	745,278
-11,863	9,808	1397,471	744,592
-10,848	9,807	1396,677	744,136
-9,833	9,778	1395,765	743,485
-8,819	9,743	1394,727	742,740
-7,804	9,695	1393,949	742,074
-6,790	9,711	1393,067	741,649
-5,775	9,730	1391,904	741,086
-4,760	9,756	1390,841	740,612
-3,746	9,770	1389,861	740,125
-2,731	9,724	1389,149	739,505
-1,717	9,735	1388,218	739,032
-0,702	9,701	1386,459	737,911
0,313	13,910	1298,978	710,545
1,327	30,296	689,456	414,229
2,342	47,573	119,198	78,244
3,356	0,680	16,660	8,376
4,371	3,889	3,492	1,793
5,386	3,821	1,200	0,616
6,400	-200,000	0,165	0,677
7,415	3,896	-0,203	-0,104
8,429	73,663	-0,239	-0,176
9,444	168,323	-0,332	-0,334
10,459	117,196	-0,258	-0,224
11,473	66,986	-0,235	-0,168
12,488	-66,763	-0,254	-0,070
13,502	-25,562	-0,341	-0,141
14,517	-37,491	-0,250	-0,093
15,531	222,035	-0,298	-0,339
16,546	32,840	-0,392	-0,238
17,561	-50,018	-0,331	-0,110
18,575	82,806	-0,109	-0,084
19,590	107,802	-0,320	-0,268
20,604	23,195	-0,217	-0,125
21,619	59,172	-0,457	-0,316
22,634	42,721	-0,410	-0,263
23,648	319,901	-0,308	-0,412
24,663	181,647	-0,294	-0,304
25,677	-13,142	-0,388	-0,177
26,692	33,361	-0,311	-0,190
27,707	-6,536	-0,408	-0,195
28,721	89,630	-0,377	-0,295
29,736	518,186	-0,301	-0,497
30,750	14,315	-0,386	-0,211
31,765	78,903	-0,386	-0,290
32,780	234,680	-0,364	-0,423
33,794	-59,096	-0,271	-0,082
34,809	-2,517	-0,353	-0,173
35,823	31,495	-0,469	-0,283
36,838	29,090	-0,392	-0,233
37,853	-5,706	-0,384	-0,184
38,867	-46,733	-0,373	-0,128
39,882	-63,599	-0,308	-0,088
40,896	-116,729	-0,440	-0,056
41,911	-117,670	-0,342	-0,043
42,926	14,316	-0,417	-0,228
43,940	-5,392	-0,464	-0,223
44,955	-26,118	-0,397	-0,163
45,969	180,256	-0,324	-0,334
46,984	41,473	-0,403	-0,256
47,999	43,448	-0,325	-0,208
49,013	25,826	-0,421	-0,246
50,028	-27,034	-0,408	-0,166
51,042	-2,810	-0,243	-0,119
52,057	94,973	-0,253	-0,202
53,071	164,456	-0,210	-0,208
54,086	333,168	-0,371	-0,504
55,101	162,074	-0,339	-0,333
56,115	14,001	-0,380	-0,207
57,130	15,752	-0,273	-0,150
58,144	-31,487	-0,331	-0,130
59,159	43,276	-0,337	-0,216
60,174	260,177	-0,308	-0,375
61,188	-31,479	-0,408	-0,160
62,203	-11,120	-0,215	-0,099
63,217	26,942	-0,334	-0,196
64,232	20,004	-0,498	-0,281
65,247	34,641	-0,451	-0,276
66,261	72,550	-0,358	-0,261
67,276	37,884	-0,388	-0,241
68,290	-12,809	-0,251	-0,114
69,305	45,029	-0,268	-0,173
70,320	-149,822	-0,244	-0,013
71,334	-125,381	-0,178	-0,019
72,349	-56,543	-0,325	-0,100
73,363	-0,756	-0,342	-0,169
74,378	55,092	-0,378	-0,255
75,393	118,469	-0,320	-0,277
76,407	116,237	-0,224	-0,192
77,422	-50,617	-0,344	-0,113
78,436	-4,497	-0,364	-0,175
79,451	-31,783	-0,269	-0,105
80,466	120,049	-0,362	-0,315
81,480	125,963	-0,343	-0,304
82,495	9,700	-0,405	-0,214
83,509	9,606	-0,318	-0,168
84,524	127,551	-0,300	-0,267
85,539	-26,194	-0,272	-0,111
86,553	-45,968	-0,350	-0,120
87,568	123,532	-0,322	-0,283
88,582	54,569	-0,248	-0,167
89,597	70,976	-0,405	-0,293
90,611	268,767	-0,235	-0,289
91,626	-106,921	-0,204	0,031
92,641	-0,438	-0,236	-0,117
93,655	406,784	-0,145	-0,215
94,670	23,751	-0,201	-0,115
95,684	19,779	-0,367	-0,206
96,699	280,353	-0,261	-0,327
97,714	461,384	-0,216	-0,338
98,728	-39,517	-0,404	-0,147
99,743	-44,712	-0,229	-0,080
100,757	-20,135	-0,332	-0,142
101,772	267,975	-0,290	-0,356
102,787	155,591	-0,198	-0,191
103,801	75,411	-0,356	-0,263
104,816	-23,408	-0,239	-0,100
105,830	155,428	-0,314	-0,302
106,845	150,670	-0,184	-0,175
107,860	119,794	-0,230	-0,199
108,874	86,960	-0,243	-0,188
109,889	423,031	-0,222	-0,334
110,903	163,258	-0,227	-0,223
111,918	109,459	-0,300	-0,251
112,933	460,079	-0,079	-0,123
113,947	1,163	-0,288	-0,144
114,962	-113,727	-0,325	-0,044
115,976	179,473	-0,131	-0,134
116,991	172,943	-0,240	-0,242
118,006	122,713	-0,377	-0,329
119,020	84,579	-0,268	-0,205
120,035	28,287	-0,177	-0,104
121,049	-183,301	-0,244	0,003
122,064	-76,717	-0,275	-0,067
123,079	115,516	-0,224	-0,191
124,093	128,064	-0,212	-0,189
125,108	59,904	-0,237	-0,163
126,122	65,179	-0,245	-0,172
127,137	43,523	-0,217	-0,138
128,151	452,893	-0,178	-0,275
129,166	-125,374	-0,225	-0,024
130,181	-64,662	-0,258	-0,072
131,195	-160,156	-0,189	0,007
132,210	417,057	-0,137	-0,204
133,224	196,560	-0,251	-0,266
134,239	-53,564	-0,235	-0,074
135,254	-35,123	-0,196	-0,074
136,268	-49,722	-0,272	-0,090
137,283	-55,150	-0,180	-0,056
138,297	117,406	-0,308	-0,264
139,312	-7,406	-0,321	-0,151
140,327	48,293	-0,329	-0,214
141,341	222,997	-0,205	-0,230
142,356	-15,692	-0,170	-0,075
143,370	13,498	-0,324	-0,175
144,385	212,541	-0,258	-0,284
145,400	11,366	-0,270	-0,144
146,414	-104,139	-0,212	-0,034
147,429	-10,978	-0,231	-0,106
148,443	800,000	-0,184	-0,359
149,458	-55,789	-0,369	-0,114
150,473	20,270	-0,163	-0,091
151,487	56,040	-0,181	-0,122
152,502	93,362	-0,308	-0,242
153,516	181,310	-0,296	-0,303
154,531	-48,082	-0,282	-0,094
155,546	46,767	-0,264	-0,170
156,560	-72,615	-0,169	-0,043
157,575	51,651	-0,159	-0,105
158,589	454,963	-0,113	-0,175
159,604	102,524	-0,225	-0,183
160,619	45,795	-0,321	-0,206
161,633	139,250	-0,251	-0,230
162,648	123,196	-0,086	-0,075
163,662	-80,219	-0,116	-0,027
164,677	-14,764	-0,253	-0,113
165,692	-84,854	-0,176	-0,038
166,706	-24,747	-0,252	-0,104
167,721	66,887	-0,258	-0,182
168,735	324,489	-0,214	-0,284
169,750	31,667	-0,443	-0,264
170,764	361,487	-0,177	-0,247
171,779	-90,427	-0,189	-0,038
172,794	90,367	-0,198	-0,154
173,808	54,811	-0,286	-0,191
174,823	-75,353	-0,323	-0,079
175,837	118,235	-0,309	-0,264
176,852	24,208	-0,124	-0,071
177,867	11,715	-0,216	-0,115
178,881	-200,000	-0,030	-0,168
179,896	181,141	-0,201	-0,205
180,910	255,127	-0,239	-0,285
181,925	106,028	-0,152	-0,125
182,940	259,349	-0,116	-0,139
183,954	183,455	-0,185	-0,190
184,969	124,468	-0,263	-0,230
185,983	-200,000	0,016	-0,113
186,998	7,294	-0,250	-0,129
188,013	227,159	-0,200	-0,226
189,027	-13,997	-0,230	-0,103
190,042	110,286	-0,247	-0,206
191,056	14,449	-0,232	-0,125
192,071	147,137	-0,274	-0,256
193,086	800,000	-0,037	-0,074
194,100	117,936	-0,192	-0,164
195,115	217,973	-0,193	-0,214
196,129	-16,403	-0,278	-0,122
197,144	236,388	-0,232	-0,267
198,159	248,176	-0,152	-0,179
199,173	-2,618	-0,313	-0,151
200,188	311,284	-0,130	-0,169
201,202	246,837	-0,159	-0,186
202,217	-126,643	-0,113	0,011
203,232	-29,905	-0,271	-0,106
204,246	182,736	-0,114	-0,116
205,261	-78,093	-0,232	-0,055
206,275	21,913	-0,248	-0,139
207,290	160,394	-0,178	-0,172
208,304	28,643	-0,237	-0,138
209,319	628,912	-0,078	-0,138
210,334	-46,143	-0,282	-0,096
211,348	132,733	-0,189	-0,169
212,363	284,292	-0,278	-0,346
213,377	-38,126	-0,170	-0,062
214,392	79,780	-0,155	-0,115
215,407	-50,996	-0,181	-0,058
216,421	125,503	-0,135	-0,118
217,436	17,456	-0,281	-0,154
218,450	114,881	-0,222	-0,187
219,465	47,761	-0,278	-0,179
220,480	13,512	-0,257	-0,138
221,494	-10,355	-0,151	-0,069
222,509	69,911	-0,214	-0,152
223,523	32,488	-0,191	-0,114
224,538	425,464	-0,196	-0,293
225,553	-49,093	-0,189	-0,062
226,567	218,509	-0,123	-0,136
227,582	-127,788	-0,209	-0,021
228,596	232,440	-0,140	-0,159
229,611	-200,000	0,006	-0,094
230,626	274,697	-0,189	-0,232
231,640	-100,454	-0,192	-0,033
232,655	200,913	-0,180	-0,191
233,669	515,033	-0,210	-0,340
234,684	22,164	-0,231	-0,130
235,699	800,000	-0,064	-0,143
236,713	112,583	-0,107	-0,089
237,728	4,802	-0,252	-0,128
238,742	-14,330	-0,200	-0,089
239,757	32,079	-0,205	-0,122
240,772	-101,617	-0,202	-0,034
241,786	150,993	-0,137	-0,128
242,801	40,229	-0,221	-0,137
243,815	166,888	-0,087	-0,085
244,830	124,704	-0,057	-0,050
245,844	-69,776	-0,260	-0,068
246,859	-23,456	-0,236	-0,097
247,874	-1,402	-0,199	-0,096
248,888	-200,000	-0,017	-0,236
249,903	25,706	-0,153	-0,087
250,917	223,943	-0,113	-0,127
251,932	-82,730	-0,136	-0,030
252,947	486,949	-0,110	-0,174
253,961	-93,008	-0,181	-0,035
254,976	342,378	-0,060	-0,081
255,990	106,915	-0,179	-0,147
257,005	-79,981	-0,162	-0,037
258,020	296,703	-0,063	-0,079
259,034	-67,876	-0,210	-0,056
260,049	59,131	-0,199	-0,135
261,063	169,353	-0,229	-0,226
262,078	276,717	-0,126	-0,154
263,093	243,486	-0,142	-0,165
264,107	40,660	-0,254	-0,158
265,122	56,148	-0,208	-0,139
266,136	38,479	-0,209	-0,128
267,151	-200,000	-0,026	-0,107
268,166	73,008	-0,146	-0,105
269,180	-33,016	-0,362	-0,137
270,195	-15,350	-0,190	-0,083
271,209	-0,559	-0,177	-0,086
272,224	74,389	-0,150	-0,108
273,239	710,740	-0,029	-0,054
274,253	-25,408	-0,192	-0,078
275,268	-129,319	-0,175	-0,017
276,282	247,476	-0,108	-0,126
277,297	-140,684	-0,151	-0,011
278,312	-76,646	-0,158	0,038
279,326	-68,877	-0,175	-0,046
280,341	-18,457	-0,147	-0,063
281,355	-63,184	-0,199	-0,056
282,370	-26,147	-0,097	-0,039
283,384	632,740	-0,091	-0,159
284,399	175,872	-0,136	-0,136
285,414	-79,265	0,010	0,002
286,428	685,540	-0,119	-0,214
287,443	-84,905	-0,240	-0,051
288,457	-78,913	-0,081	-0,019
289,472	364,211	-0,196	-0,272
290,487	11,322	-0,169	-0,089
291,501	800,000	-0,061	-0,131
292,516	157,296	-0,133	-0,127
293,530	16,395	-0,173	-0,094
294,545	-41,592	-0,089	-0,031
295,560	-85,029	-0,133	-0,028
296,574	-65,660	-0,140	-0,038
297,589	-79,864	-0,211	-0,048
298,603	-69,083	-0,193	-0,051
299,618	152,850	-0,205	-0,192
300,633	-98,751	-0,114	-0,020
301,647	309,937	-0,021	-0,027
302,662	388,687	-0,037	-0,052
303,676	-200,000	-0,022	-0,125
304,691	383,323	-0,149	-0,211
305,706	428,869	-0,132	-0,197
306,720	248,115	-0,180	-0,209
307,735	-200,000	-0,095	-0,000
308,749	439,024	-0,133	-0,200
309,764	89,769	-0,184	-0,141
310,779	-141,753	-0,161	0,011
311,793	-97,077	-0,179	-0,032
312,808	281,285	-0,080	-0,099
313,822	345,692	-0,192	-0,259
314,837	-200,000	-0,058	-0,176
315,852	-200,000	-0,049	-0,166
316,866	187,776	-0,170	-0,174
317,881	800,000	-0,038	-0,094
318,895	49,739	-0,165	-0,107
319,910	-48,404	-0,191	-0,063
320,925	-73,426	-0,252	-0,063
321,939	-81,001	-0,045	-0,010
322,954	-200,000	-0,034	-0,125
323,968	57,813	-0,119	-0,080
324,983	-127,796	-0,146	0,014
325,997	37,203	-0,190	-0,115
327,012	155,933	-0,123	-0,116
328,027	466,871	-0,072	-0,110
329,041	95,362	-0,140	-0,109
330,056	-130,803	0,086	0,008
331,070	404,068	-0,029	-0,042
332,085	-123,412	-0,145	-0,016
333,100	-154,252	-0,066	0,003
334,114	221,937	-0,075	-0,083
335,129	800,000	-0,130	-0,258
336,143	58,692	-0,170	-0,114
337,158	486,278	-0,076	-0,120
338,173	77,238	-0,117	-0,085
339,187	109,862	-0,089	-0,073
340,202	-87,090	-0,150	-0,031
341,216	-54,168	-0,172	-0,053
342,231	800,000	-0,070	-0,182
343,246	-97,440	-0,110	-0,019
344,260	5,240	-0,139	-0,070
345,275	-74,172	-0,200	0,049
346,289	-200,000	-0,009	-0,076
347,304	-88,691	-0,160	0,032
348,319	-30,245	-0,112	-0,043
349,333	-12,379	-0,211	-0,094
350,348	164,969	-0,205	-0,198
351,362	-109,895	-0,255	-0,036
352,377	-33,956	-0,125	0,047
353,392	122,716	0,075	-0,064
354,406	-26,797	-0,164	-0,065
355,421	208,094	1306,081	1396,797
356,435	160,104	1465,730	1397,268
