DTS Sentinel unit serial number:	SN410029Multiplexer serial number:	ORYXHardware model number:	OX2-SRSoftware version number:	ORYX F/W v4,00 Oryx Data Collector v3.7.2.0data status	okinstallation	B3 Nyhavnadifferential loss correction	single-endedforward channel	channel 1reverse channel	N/Adate	2023/11/30time	11:42:30forward acquisition time	300,00reverse acquisition time	0,00gamma	499,1914k internal	0,3211k external	0,3211temperature offset calibration	1,0000default loss term (dB/km)	0,3820temperature slope calibration	1,0000multiplexer offset coefficient	1,0000multiplexer slope coefficient	1,0000fibre end	0,00T internal ref (°C)	9,42T ext. ref 1 (°C)	-5,55T ext. ref 2 (°C)	-5,65length (m)	temperature (°C)	Stokes	anti-Stokes-744,400	113,749	-0,239	-0,210
-743,385	800,000	-0,091	0,246
-742,371	273,654	-0,189	-0,243
-741,356	-200,000	-0,084	0,312
-740,342	276,200	-0,086	-0,110
-739,327	800,000	-0,059	0,187
-738,312	233,261	-0,237	-0,283
-737,298	-200,000	-0,021	0,233
-736,283	271,783	-0,189	-0,242
-735,269	800,000	0,108	0,238
-734,254	-33,889	-0,307	-0,122
-733,239	-29,946	-0,362	0,149
-732,225	-181,290	-0,062	0,001
-731,210	263,115	0,126	0,159
-730,196	-35,919	-0,082	-0,032
-729,181	181,482	0,031	-0,033
-728,167	55,565	-0,029	-0,021
-727,152	-74,431	-0,130	-0,034
-726,137	685,958	-0,057	-0,109
-725,123	-43,081	-0,053	-0,019
-724,108	51,400	-0,093	0,064
-723,094	-32,462	0,111	-0,045
-722,079	-200,000	-0,006	-0,044
-721,064	-200,000	0,032	0,125
-720,050	-200,000	0,005	-0,093
-719,035	800,000	0,018	0,046
-718,021	23,734	-0,035	0,021
-717,006	133,604	-0,103	-0,097
-715,991	800,000	-0,063	-0,131
-714,977	-114,904	-0,057	-0,008
-713,962	-61,347	0,061	0,019
-712,948	4,619	-0,124	-0,066
-711,933	69,498	0,082	0,061
-710,918	-69,953	-0,039	0,011
-709,904	800,000	-0,028	0,083
-708,889	212,457	-0,041	0,047
-707,875	355,645	0,077	-0,112
-706,860	388,798	-0,054	-0,081
-705,845	-53,311	-0,090	0,030
-704,831	-200,000	0,005	-0,043
-703,816	750,967	-0,039	0,077
-702,802	-200,000	-0,013	-0,152
-701,787	421,316	-0,076	-0,118
-700,772	108,666	-0,146	-0,126
-699,758	94,262	-0,068	0,056
-698,743	-200,000	-0,014	0,075
-697,729	217,556	0,067	0,077
-696,714	-28,327	0,123	0,051
-695,699	103,005	-0,103	-0,087
-694,685	320,017	-0,111	-0,153
-693,670	421,404	-0,035	0,055
-692,656	487,023	0,068	0,112
-691,641	800,000	-0,033	0,086
-690,627	556,498	0,059	0,103
-689,612	-143,532	-0,019	0,001
-688,597	330,879	-0,015	-0,021
-687,583	800,000	0,014	0,033
-686,568	26,665	-0,053	0,032
-685,554	397,522	0,039	0,059
-684,539	-200,000	-0,018	0,059
-683,524	333,025	0,029	0,040
-682,510	800,000	0,007	0,017
-681,495	-148,424	-0,120	0,007
-680,481	201,815	-0,077	-0,086
-679,466	47,814	0,070	-0,047
-678,451	-46,103	0,042	0,015
-677,437	-82,904	-0,041	-0,010
-676,422	-200,000	-0,016	0,121
-675,408	264,319	0,053	0,066
-674,393	29,326	-0,054	0,033
-673,378	37,474	0,059	-0,038
-672,364	800,000	-0,049	-0,110
-671,349	-200,000	-0,002	0,033
-670,335	-188,493	-0,101	-0,001
-669,320	211,130	0,015	-0,017
-668,305	392,929	0,058	0,088
-667,291	134,139	0,030	-0,029
-666,276	759,278	-0,051	-0,101
-665,262	-200,000	-0,005	-0,021
-664,247	187,739	-0,035	-0,038
-663,232	-42,563	0,073	-0,027
-662,218	337,449	0,054	0,077
-661,203	800,000	0,041	0,083
-660,189	-107,800	0,045	0,007
-659,174	201,890	-0,036	0,040
-658,159	184,883	-0,050	0,053
-657,145	-200,000	-0,003	0,102
-656,130	-200,000	0,027	-0,099
-655,116	-36,011	-0,054	-0,021
-654,101	47,012	0,075	0,050
-653,086	-157,925	-0,088	-0,004
-652,072	217,836	-0,114	-0,132
-651,057	-8,836	-0,081	-0,039
-650,043	-200,000	0,007	-0,049
-649,028	83,137	-0,093	-0,073
-648,014	-58,736	0,037	0,012
-646,999	-91,646	0,076	-0,015
-645,984	273,090	0,008	0,010
-644,970	-200,000	-0,003	0,028
-643,955	-56,030	-0,061	0,020
-642,941	169,091	-0,068	-0,071
-641,926	406,156	0,024	0,037
-640,911	636,794	-0,049	-0,090
-639,897	-27,618	0,096	-0,040
-638,882	-200,000	-0,018	0,112
-637,868	800,000	-0,043	-0,101
-636,853	442,277	-0,056	-0,088
-635,838	-31,029	0,140	-0,057
-634,824	-123,204	0,064	-0,007
-633,809	-200,000	0,000	0,027
-632,795	-200,000	-0,008	0,029
-631,780	47,597	-0,007	0,005
-630,765	-102,538	-0,068	-0,012
-629,751	186,911	0,085	-0,091
-628,736	-200,000	0,010	-0,106
-627,722	50,291	0,083	-0,057
-626,707	173,471	-0,084	-0,088
-625,692	348,980	0,057	-0,081
-624,678	195,867	0,132	0,145
-623,663	-3,114	-0,069	-0,035
-622,649	-177,488	-0,181	0,003
-621,634	102,564	0,057	0,048
-620,619	51,087	-0,140	-0,096
-619,605	280,017	0,028	0,036
-618,590	16,033	-0,168	0,095
-617,576	25,934	0,148	-0,089
-616,561	182,397	-0,030	-0,032
-615,546	-58,815	-0,157	-0,049
-614,532	-153,362	-0,037	-0,002
-613,517	-144,309	-0,128	-0,008
-612,503	85,341	0,063	0,050
-611,488	-97,002	-0,059	0,011
-610,474	-101,983	0,113	0,020
-609,459	-200,000	0,012	-0,121
-608,444	91,171	-0,074	0,060
-607,430	7,017	-0,062	-0,033
-606,415	40,536	0,009	-0,006
-605,401	-98,418	-0,132	-0,024
-604,386	-135,231	-0,042	-0,004
-603,371	788,551	0,035	-0,070
-602,357	-171,492	-0,042	-0,001
-601,342	-40,256	0,054	-0,020
-600,328	800,000	0,014	-0,032
-599,313	-200,000	-0,008	-0,139
-598,298	205,397	0,074	-0,083
-597,284	122,994	0,034	-0,031
-596,269	261,656	0,103	0,129
-595,255	380,209	0,025	-0,037
-594,240	113,588	-0,042	0,037
-593,225	-111,126	-0,059	0,009
-592,211	-200,000	0,019	0,184
-591,196	135,911	0,085	-0,079
-590,182	-102,000	-0,016	-0,003
-589,167	-200,000	0,025	0,111
-588,152	113,591	0,077	0,067
-587,138	-51,999	-0,158	0,052
-586,123	441,281	-0,042	-0,067
-585,109	-126,415	-0,065	0,007
-584,094	800,000	-0,040	-0,098
-583,079	-39,672	0,124	0,047
-582,065	-200,000	-0,019	0,108
-581,050	13,652	0,110	-0,062
-580,036	175,461	0,036	-0,038
-579,021	28,926	-0,126	-0,077
-578,006	-200,000	-0,018	-0,125
-576,992	-136,907	-0,151	0,012
-575,977	187,522	0,080	-0,086
-574,963	800,000	0,024	-0,052
-573,948	-80,474	-0,088	-0,021
-572,934	-200,000	-0,018	-0,062
-571,919	8,420	0,139	-0,075
-570,904	70,242	-0,140	-0,104
-569,890	-200,000	-0,004	-0,051
-568,875	-200,000	-0,013	-0,043
-567,861	-101,942	0,130	0,022
-566,846	-200,000	0,043	0,209
-565,831	800,000	-0,047	-0,094
-564,817	-21,834	-0,067	0,029
-563,802	-80,104	0,127	-0,030
-562,788	-200,000	-0,016	0,063
-561,773	800,000	0,017	0,049
-560,758	17,178	0,023	-0,013
-559,744	-167,880	0,024	-0,001
-558,729	37,589	-0,081	-0,052
-557,715	723,186	-0,037	-0,071
-556,700	-31,707	0,036	-0,014
-555,685	-200,000	0,010	0,073
-554,671	-165,690	0,074	0,002
-553,656	77,339	0,083	0,063
-552,642	645,544	0,052	0,096
-551,627	-200,000	-0,001	-0,068
-550,612	-200,000	0,004	0,086
-549,598	93,459	0,052	0,042
-548,583	-200,000	0,001	-0,083
-547,569	-200,000	-0,013	-0,069
-546,554	-12,016	-0,072	0,034
-545,539	-200,000	0,002	-0,098
-544,525	-200,000	-0,004	0,060
-543,510	800,000	-0,059	0,125
-542,496	28,114	0,028	-0,017
-541,481	129,822	-0,044	0,040
-540,466	-200,000	-0,001	0,071
-539,452	32,107	-0,068	0,042
-538,437	-200,000	-0,022	0,081
-537,423	-91,288	0,107	0,022
-536,408	-14,878	-0,184	0,085
-535,393	-38,614	0,078	-0,029
-534,379	-129,917	0,063	0,006
-533,364	-57,109	-0,130	0,041
-532,350	156,942	-0,061	-0,060
-531,335	-200,000	0,000	-0,081
-530,321	-79,045	0,047	-0,011
-529,306	623,821	0,046	0,083
-528,291	-171,170	-0,054	0,001
-527,277	147,149	0,067	0,065
-526,262	169,900	-0,026	-0,027
-525,248	-122,946	0,107	0,012
-524,233	-200,000	-0,010	-0,045
-523,218	-121,566	-0,088	0,010
-522,204	-77,737	-0,044	-0,011
-521,189	-89,937	-0,071	0,015
-520,175	329,789	-0,033	0,046
-519,160	234,839	-0,109	0,129
-518,145	-200,000	0,025	0,116
-517,131	168,906	0,089	0,091
-516,116	-200,000	0,019	0,061
-515,102	128,696	0,051	-0,047
-514,087	62,708	-0,111	-0,080
-513,072	102,128	-0,068	-0,057
-512,058	-200,000	0,008	-0,230
-511,043	-200,000	-0,013	-0,048
-510,029	-13,675	0,046	-0,021
-509,014	360,948	-0,042	0,060
-507,999	-108,339	-0,059	-0,009
-506,985	85,162	0,094	0,074
-505,970	-49,570	-0,151	-0,051
-504,956	263,831	0,058	0,073
-503,941	-25,767	0,086	-0,036
-502,926	-62,743	-0,018	-0,005
-501,912	-200,000	-0,010	-0,078
-500,897	-64,147	0,044	0,013
-499,883	-67,415	0,029	-0,008
-498,868	-200,000	0,003	0,025
-497,853	195,621	0,064	-0,070
-496,839	-93,501	-0,088	0,017
-495,824	177,763	0,044	-0,046
-494,810	-200,000	0,018	0,134
-493,795	-200,000	-0,006	-0,032
-492,781	-200,000	-0,006	-0,081
-491,766	48,670	0,141	-0,095
-490,751	601,102	-0,061	0,110
-489,737	800,000	0,053	0,128
-488,722	257,460	0,086	0,107
-487,708	800,000	-0,030	0,079
-486,693	-117,378	0,040	-0,005
-485,678	0,221	-0,079	-0,040
-484,664	-87,109	-0,128	-0,028
-483,649	-105,354	-0,089	0,014
-482,635	227,443	-0,130	-0,152
-481,620	-200,000	0,040	-0,174
-480,605	543,617	0,072	-0,124
-479,591	147,641	0,025	-0,024
-478,576	593,083	-0,041	0,073
-477,562	154,528	0,039	0,038
-476,547	343,750	-0,046	0,065
-475,532	-82,163	-0,031	-0,007
-474,518	656,165	0,056	0,104
-473,503	250,701	-0,087	-0,107
-472,489	-105,572	-0,109	-0,018
-471,474	309,826	0,049	-0,066
-470,459	130,849	0,089	-0,082
-469,445	-115,635	-0,135	-0,018
-468,430	219,870	-0,065	-0,075
-467,416	-148,658	-0,023	-0,001
-466,401	-25,725	0,124	-0,052
-465,386	-200,000	0,024	0,113
-464,372	306,505	0,050	-0,067
-463,357	-200,000	-0,006	0,045
-462,343	88,457	-0,032	-0,025
-461,328	-71,206	-0,144	0,038
-460,313	-200,000	-0,001	-0,003
-459,299	800,000	-0,029	0,071
-458,284	800,000	0,076	0,184
-457,270	140,963	0,044	0,042
-456,255	204,248	-0,072	0,080
-455,241	-200,000	-0,006	0,020
-454,226	800,000	0,040	-0,106
-453,211	341,470	0,041	-0,057
-452,197	65,710	0,100	-0,073
-451,182	9,169	-0,037	-0,020
-450,168	494,349	0,021	-0,035
-449,153	-200,000	0,005	0,080
-448,138	800,000	-0,026	-0,081
-447,124	-200,000	0,008	-0,115
-446,109	635,826	0,082	-0,150
-445,095	-84,891	0,159	0,035
-444,080	-2,925	0,086	0,043
-443,065	800,000	0,048	0,123
-442,051	-200,000	-0,014	0,094
-441,036	-200,000	0,009	-0,107
-440,022	800,000	-0,060	-0,131
-439,007	-200,000	0,000	0,022
-437,992	-61,830	0,049	-0,014
-436,978	-37,616	0,163	-0,062
-435,963	-95,317	0,031	0,006
-434,949	767,809	0,028	0,054
-433,934	800,000	0,087	-0,193
-432,919	800,000	-0,047	-0,137
-431,905	499,783	0,065	-0,107
-430,890	18,450	0,152	0,087
-429,876	10,482	-0,067	0,036
-428,861	-114,036	0,089	-0,012
-427,846	-171,340	0,124	0,003
-426,832	-107,717	0,048	-0,007
-425,817	558,310	-0,037	-0,064
-424,803	-16,723	0,090	-0,041
-423,788	166,301	-0,020	0,020
-422,773	-200,000	-0,010	-0,053
-421,759	-137,034	-0,090	-0,007
-420,744	66,322	0,066	0,048
-419,730	480,070	-0,013	0,021
-418,715	-200,000	-0,010	-0,086
-417,701	-200,000	0,010	-0,065
-416,686	199,046	0,055	0,060
-415,671	-200,000	-0,006	0,071
-414,657	89,875	0,131	0,104
-413,642	-200,000	0,005	0,097
-412,628	-41,647	0,026	0,010
-411,613	58,277	0,031	0,022
-410,598	82,770	-0,146	-0,113
-409,584	-128,668	0,187	-0,019
-408,569	194,242	-0,032	0,035
-407,555	335,388	0,089	0,124
-406,540	53,958	0,103	0,071
-405,525	-142,466	-0,111	0,008
-404,511	56,494	0,053	0,037
-403,496	-200,000	-0,010	-0,088
-402,482	800,000	0,009	-0,019
-401,467	800,000	0,070	0,148
-400,452	372,423	-0,040	0,058
-399,438	800,000	0,043	0,095
-398,423	94,579	-0,065	-0,053
-397,409	207,740	-0,027	0,030
-396,394	96,046	0,058	-0,048
-395,379	-53,227	0,102	0,033
-394,365	421,163	0,024	0,037
-393,350	139,178	0,069	-0,065
-392,336	445,468	-0,034	-0,054
-391,321	756,251	-0,034	-0,065
-390,306	119,292	0,068	-0,060
-389,292	-200,000	-0,016	-0,068
-388,277	-200,000	0,040	0,134
-387,263	-200,000	0,032	0,139
-386,248	800,000	0,033	0,069
-385,233	-200,000	0,022	0,074
-384,219	-64,752	-0,128	0,037
-383,204	800,000	-0,051	-0,117
-382,190	800,000	-0,016	-0,031
-381,175	-105,292	-0,097	-0,016
-380,160	283,900	-0,063	0,081
-379,146	-200,000	-0,023	0,098
-378,131	800,000	0,007	-0,023
-377,117	155,433	0,012	-0,012
-376,102	-88,242	-0,076	0,016
-375,088	200,508	-0,098	-0,108
-374,073	56,338	-0,019	0,013
-373,058	-200,000	0,002	-0,064
-372,044	-166,269	0,125	-0,004
-371,029	800,000	-0,029	-0,074
-370,015	78,247	0,079	-0,060
-369,000	-161,077	0,136	-0,005
-367,985	-40,545	0,179	-0,066
-366,971	39,571	0,061	-0,039
-365,956	-14,767	-0,041	0,019
-364,942	75,906	0,033	-0,025
-363,927	-200,000	0,007	0,051
-362,912	216,917	0,087	0,099
-361,898	-200,000	-0,033	0,115
-360,883	-200,000	-0,029	-0,133
-359,869	-113,983	-0,109	0,015
-358,854	-65,086	0,137	0,039
-357,839	324,274	0,071	0,097
-356,825	354,945	-0,033	0,047
-355,810	-173,628	-0,140	-0,003
-354,796	76,740	-0,075	-0,057
-353,781	-109,380	-0,131	-0,020
-352,766	381,780	-0,016	-0,024
-351,752	127,660	0,055	-0,050
-350,737	-200,000	0,001	-0,017
-349,723	35,640	0,162	0,101
-348,708	294,985	0,054	0,071
-347,693	160,813	-0,067	0,066
-346,679	-64,568	0,098	-0,028
-345,664	374,320	0,065	0,095
-344,650	-173,920	0,047	-0,001
-343,635	-124,731	-0,033	-0,004
-342,620	-46,130	0,138	-0,048
-341,606	209,427	-0,113	0,127
-340,591	351,256	-0,046	0,065
-339,577	377,055	0,015	0,023
-338,562	-118,890	-0,165	0,020
-337,548	-136,490	0,043	0,004
-336,533	46,732	0,114	0,075
-335,518	212,007	0,046	-0,052
-334,504	-61,485	0,041	0,012
-333,489	292,517	0,030	-0,039
-332,475	33,426	0,087	0,054
-331,460	221,321	-0,003	0,004
-330,445	-84,092	0,083	0,019
-329,431	68,621	-0,120	0,088
-328,416	-200,000	0,027	-0,106
-327,402	-200,000	-0,015	0,093
-326,387	-46,224	0,058	0,020
-325,372	800,000	-0,033	0,088
-324,358	507,629	0,042	-0,069
-323,343	622,131	-0,029	-0,052
-322,329	200,916	0,081	-0,089
-321,314	-200,000	-0,002	0,057
-320,299	-200,000	0,025	0,079
-319,285	56,844	-0,097	0,068
-318,270	198,074	-0,132	-0,144
-317,256	-156,517	-0,097	-0,004
-316,241	-5,815	0,108	0,052
-315,226	-200,000	-0,001	0,069
-314,212	-100,501	0,159	0,028
-313,197	-200,000	-0,058	0,232
-312,183	293,582	-0,016	-0,021
-311,168	121,641	0,032	0,028
-310,153	-89,945	-0,036	0,007
-309,139	-200,000	-0,013	-0,099
-308,124	579,157	0,021	-0,036
-307,110	30,325	0,137	-0,084
-306,095	454,620	0,037	-0,059
-305,080	-162,256	0,165	-0,006
-304,066	-34,170	-0,182	-0,071
-303,051	511,889	0,030	0,051
-302,037	501,888	-0,041	0,067
-301,022	-200,000	-0,050	-0,182
-300,008	430,751	-0,086	-0,133
-298,993	-38,330	0,131	0,049
-297,978	-200,000	-0,020	0,227
-296,964	86,394	-0,047	-0,037
-295,949	492,648	0,068	-0,111
-294,935	-200,000	-0,018	-0,097
-293,920	800,000	-0,016	-0,042
-292,905	-195,583	0,047	-0,000
-291,891	137,950	0,085	0,079
-290,876	24,973	-0,085	0,050
-289,862	-49,489	-0,076	-0,026
-288,847	109,689	0,077	0,066
-287,832	-200,000	-0,030	-0,154
-286,818	-200,000	-0,016	0,070
-285,803	-200,000	0,018	-0,122
-284,789	-200,000	0,010	-0,058
-283,774	800,000	0,027	0,074
-282,759	-55,686	-0,150	-0,048
-281,745	162,334	-0,023	-0,023
-280,730	266,018	-0,044	-0,055
-279,716	-200,000	0,016	-0,136
-278,701	331,172	-0,037	0,052
-277,686	800,000	0,034	0,071
-276,672	800,000	-0,010	0,020
-275,657	-58,332	0,082	-0,025
-274,643	-200,000	0,022	-0,172
-273,628	264,110	-0,091	-0,113
-272,613	-116,568	0,028	0,004
-271,599	497,710	-0,061	0,100
-270,584	800,000	0,039	0,100
-269,570	-91,432	-0,043	-0,009
-268,555	602,051	-0,065	-0,115
-267,540	800,000	-0,020	0,043
-266,526	74,231	-0,072	-0,053
-265,511	-146,621	-0,062	0,004
-264,497	-57,762	-0,049	-0,015
-263,482	-47,864	0,085	0,029
-262,467	601,149	0,044	0,078
-261,453	71,201	-0,053	-0,039
-260,438	-124,075	0,050	-0,006
-259,424	220,968	-0,035	0,040
-258,409	-200,000	-0,003	-0,094
-257,395	-200,000	-0,020	-0,083
-256,380	-114,526	0,102	0,014
-255,365	460,446	-0,077	-0,123
-254,351	-200,000	0,009	0,076
-253,336	727,019	-0,007	-0,014
-252,322	800,000	-0,024	0,060
-251,307	154,678	-0,040	0,039
-250,292	-94,619	0,148	0,028
-249,278	-6,588	-0,029	0,014
-248,263	310,507	0,008	-0,011
-247,249	-57,208	-0,149	-0,046
-246,234	711,943	0,032	0,060
-245,219	106,693	0,064	-0,054
-244,205	-70,630	-0,063	-0,017
-243,190	-86,312	-0,088	-0,019
-242,176	241,086	0,033	-0,040
-241,161	551,183	-0,030	-0,051
-240,146	-124,290	0,083	0,009
-239,132	-46,636	-0,166	0,058
-238,117	441,557	-0,049	-0,076
-237,103	800,000	-0,058	-0,141
-236,088	126,787	0,082	0,074
-235,073	224,597	-0,091	-0,104
-234,059	70,326	0,033	0,024
-233,044	276,032	0,100	-0,126
-232,030	-200,000	0,009	-0,089
-231,015	19,775	-0,142	-0,081
-230,000	-32,230	-0,059	0,023
-228,986	-200,000	-0,003	0,030
-227,971	-200,000	0,018	0,095
-226,957	214,978	0,127	0,144
-225,942	-200,000	-0,033	0,116
-224,927	-141,023	0,044	0,003
-223,913	-32,680	0,048	0,019
-222,898	157,096	0,030	-0,030
-221,884	-144,248	0,069	0,005
-220,869	800,000	-0,024	0,052
-219,855	21,930	-0,068	0,040
-218,840	397,832	0,087	0,129
-217,825	-200,000	0,021	-0,147
-216,811	-145,606	-0,091	-0,006
-215,796	-200,000	-0,003	-0,106
-214,782	110,107	0,046	0,039
-213,767	88,779	0,060	-0,047
-212,752	-200,000	0,020	0,121
-211,738	-200,000	-0,044	0,157
-210,723	92,982	-0,111	0,089
-209,709	145,963	-0,101	0,097
-208,694	-200,000	0,003	-0,028
-207,679	-101,927	0,109	-0,019
-206,665	95,067	0,056	0,045
-205,650	-200,000	-0,006	-0,076
-204,636	800,000	0,024	0,056
-203,621	-52,020	0,082	0,027
-202,606	406,368	-0,039	-0,058
-201,592	214,133	-0,074	-0,084
-200,577	-200,000	0,003	-0,035
-199,563	-172,713	-0,178	0,004
-198,548	324,527	-0,019	0,026
-197,533	-200,000	0,014	0,096
-196,519	63,627	0,114	0,081
-195,504	53,019	-0,122	0,083
-194,490	198,543	-0,133	-0,145
-193,475	-126,842	0,117	-0,012
-192,460	-200,000	0,005	0,104
-191,446	-200,000	0,020	0,094
-190,431	697,469	-0,056	-0,104
-189,417	174,004	-0,071	-0,073
-188,402	-165,776	-0,216	0,006
-187,387	-200,000	-0,003	0,022
-186,373	800,000	0,025	-0,065
-185,358	98,951	0,040	0,033
-184,344	-200,000	-0,002	0,036
-183,329	10,799	0,017	0,009
-182,315	-200,000	-0,009	0,050
-181,300	-169,597	-0,069	-0,002
-180,285	310,477	-0,035	0,046
-179,271	745,299	-0,004	-0,008
-178,256	777,908	-0,038	-0,073
-177,242	15,446	0,065	0,036
-176,227	44,708	0,071	0,046
-175,212	-53,744	-0,105	-0,034
-174,198	-200,000	-0,027	0,090
-173,183	243,117	-0,082	-0,097
-172,169	-20,789	-0,200	0,087
-171,154	35,360	-0,052	0,032
-170,139	140,139	-0,077	0,072
-169,125	800,000	0,050	0,101
-168,110	121,131	0,100	0,088
-167,096	-200,000	0,005	-0,081
-166,081	17,235	-0,133	0,074
-165,066	-200,000	0,009	-0,065
-164,052	800,000	0,055	0,116
-163,037	-200,000	0,001	-0,039
-162,023	-200,000	-0,014	0,092
-161,008	36,479	0,110	0,069
-159,993	800,000	0,045	0,129
-158,979	800,000	-0,037	-0,104
-157,964	-122,854	-0,027	-0,003
-156,950	31,286	-0,115	0,070
-155,935	800,000	-0,033	0,079
-154,920	-166,580	0,052	0,001
-153,906	-32,903	0,144	0,057
-152,891	96,934	-0,059	0,048
-151,877	-94,683	-0,070	-0,013
-150,862	40,698	-0,100	0,064
-149,847	240,718	-0,081	-0,096
-148,833	652,141	-0,018	-0,034
-147,818	309,327	0,020	0,026
-146,804	-31,950	0,056	0,022
-145,789	-142,840	0,091	-0,006
-144,775	-200,000	-0,000	-0,064
-143,760	195,981	-0,027	0,029
-142,745	274,940	0,068	0,085
-141,731	-200,000	0,019	-0,140
-140,716	125,284	0,112	-0,100
-139,702	620,345	-0,029	-0,051
-138,687	91,541	0,025	-0,020
-137,672	-101,569	0,125	0,021
-136,658	-200,000	-0,008	-0,070
-135,643	210,124	-0,056	0,063
-134,629	-50,893	0,074	-0,024
-133,614	287,120	0,057	0,073
-132,599	-96,814	-0,094	0,017
-131,585	800,000	0,105	0,242
-130,570	20,022	-0,156	-0,089
-129,556	-200,000	0,024	-0,093
-128,541	339,978	0,098	-0,136
-127,526	800,000	-0,020	0,054
-126,512	800,000	-0,034	-0,069
-125,497	68,914	0,182	0,132
-124,483	233,779	0,046	0,054
-123,468	244,169	0,068	0,080
-122,453	-200,000	-0,033	-0,217
-121,439	164,892	-0,066	0,066
-120,424	-200,000	-0,004	-0,046
-119,410	-5,571	0,121	0,059
-118,395	-200,000	-0,014	0,148
-117,380	-200,000	-0,012	0,052
-116,366	117,102	-0,023	-0,020
-115,351	189,242	-0,026	0,028
-114,337	800,000	-0,011	-0,029
-113,322	134,456	-0,083	-0,076
-112,307	-142,585	0,159	-0,011
-111,293	-33,793	0,107	-0,041
-110,278	800,000	-0,027	0,074
-109,264	67,337	0,042	0,030
-108,249	800,000	0,016	0,034
-107,234	40,444	0,040	-0,025
-106,220	135,362	-0,068	-0,062
-105,205	-200,000	-0,013	0,079
-104,191	-126,849	0,081	-0,008
-103,176	-53,513	0,160	0,051
-102,162	-200,000	-0,017	0,061
-101,147	800,000	-0,038	-0,077
-100,132	169,067	-0,056	-0,057
-99,118	800,000	0,074	-0,177
-98,103	-127,311	0,109	0,011
-97,089	68,264	0,119	0,086
-96,074	-135,195	0,162	0,014
-95,059	-200,000	0,015	-0,070
-94,045	139,178	0,074	0,069
-93,030	-130,110	-0,083	-0,008
-92,016	-9,746	-0,062	-0,029
-91,001	800,000	0,036	-0,109
-89,986	128,253	0,127	0,114
-88,972	750,458	-0,003	0,006
-87,957	-9,953	-0,054	0,025
-86,943	-111,454	0,017	-0,002
-85,928	-200,000	0,002	-0,064
-84,913	-96,334	-0,045	0,008
-83,899	800,000	0,047	0,102
-82,884	344,459	0,021	0,030
-81,870	481,276	-0,012	0,020
-80,855	-200,000	0,010	0,039
-79,840	210,437	0,055	-0,061
-78,826	-53,927	-0,076	-0,024
-77,811	326,854	-0,037	-0,050
-76,797	-200,000	-0,000	-0,024
-75,782	415,991	0,113	-0,172
-74,767	-200,000	-0,011	0,131
-73,753	109,780	-0,119	0,101
-72,738	429,897	0,040	-0,062
-71,724	-200,000	0,013	0,067
-70,709	525,061	-0,018	0,031
-69,694	10,081	-0,066	-0,036
-68,680	800,000	-0,034	-0,071
-67,665	-141,234	-0,079	0,006
-66,651	764,026	0,023	0,044
-65,636	-200,000	0,066	-0,000
-64,622	-107,685	-0,126	0,019
-63,607	-200,000	0,004	-0,118
-62,592	-200,000	0,005	-0,039
-61,578	138,325	0,060	0,056
-60,563	531,822	0,059	0,098
-59,549	-200,000	-0,034	0,114
-58,534	53,977	-1,899	-1,286
-57,519	509,583	-1,169	-1,925
-56,505	-200,000	-0,375	-4,308
-55,490	395,735	1,091	1,612
-54,476	800,000	5,212	11,179
-53,461	-200,000	21,679	343,304
-52,446	800,000	762,849	2333,748
-51,432	543,752	1661,044	2808,987
-50,417	71,108	1657,716	1211,437
-49,403	17,153	1531,464	854,744
-48,388	11,262	1455,132	783,696
-47,373	19,332	1446,883	817,884
-46,359	14,769	1435,833	789,946
-45,344	9,590	1431,832	763,094
-44,330	9,466	1430,123	761,559
-43,315	9,432	1428,283	760,390
-42,300	9,479	1426,382	759,568
-41,286	9,494	1425,150	758,957
-40,271	9,473	1423,923	758,170
-39,257	9,532	1422,498	757,662
-38,242	9,491	1421,762	757,048
-37,227	9,512	1420,461	756,424
-36,213	9,508	1419,348	755,779
-35,198	9,502	1418,052	755,032
-34,184	9,560	1417,024	754,728
-33,169	9,414	1415,877	753,403
-32,154	9,470	1414,859	753,094
-31,140	9,531	1413,496	752,625
-30,125	9,561	1412,249	752,073
-29,111	9,507	1411,327	751,297
-28,096	9,493	1410,047	750,521
-27,082	9,454	1408,918	749,706
-26,067	9,418	1407,846	748,938
-25,052	9,471	1406,807	748,603
-24,038	9,505	1405,697	748,141
-23,023	9,502	1404,676	747,552
-22,009	9,471	1403,737	746,880
-20,994	9,499	1402,701	746,432
-19,979	9,420	1401,987	745,650
-18,965	9,408	1400,983	745,032
-17,950	9,416	1399,863	744,445
-16,936	9,368	1399,163	743,818
-15,921	9,328	1398,313	743,151
-14,906	9,372	1397,457	742,871
-13,892	9,440	1396,149	742,462
-12,877	9,422	1395,365	741,934
-11,863	9,377	1394,868	741,429
-10,848	9,329	1394,003	740,717
-9,833	9,331	1392,616	739,964
-8,819	9,249	1392,078	739,267
-7,804	9,246	1391,091	738,702
-6,790	9,207	1390,225	738,033
-5,775	9,269	1388,903	737,586
-4,760	9,269	1388,063	737,111
-3,746	9,297	1387,083	736,689
-2,731	9,290	1386,287	736,207
-1,717	9,240	1385,455	735,505
-0,702	9,226	1383,728	734,494
0,313	13,418	1295,738	706,873
1,327	29,627	686,695	411,196
2,342	46,523	118,604	77,481
3,356	-2,052	16,644	8,218
4,371	10,411	3,521	1,885
5,386	-6,769	1,248	0,596
6,400	-200,000	0,143	0,617
7,415	-89,899	-0,293	-0,060
8,429	46,684	-0,215	-0,141
9,444	48,122	-0,418	-0,275
10,459	86,163	-0,294	-0,228
11,473	130,851	-0,197	-0,178
12,488	-73,608	-0,265	-0,068
13,502	-33,678	-0,296	-0,115
14,517	48,372	-0,333	-0,219
15,531	-14,928	-0,259	-0,116
16,546	-63,350	-0,474	-0,136
17,561	167,189	-0,315	-0,316
18,575	-34,841	-0,239	-0,091
19,590	686,863	-0,146	-0,270
20,604	-83,880	-0,196	-0,044
21,619	34,959	-0,498	-0,306
22,634	71,469	-0,539	-0,394
23,648	209,022	-0,336	-0,371
24,663	83,096	-0,293	-0,224
25,677	76,222	-0,329	-0,245
26,692	145,736	-0,247	-0,233
27,707	14,613	-0,318	-0,175
28,721	3,464	-0,336	-0,172
29,736	31,642	-0,397	-0,240
30,750	79,131	-0,313	-0,235
31,765	79,712	-0,364	-0,274
32,780	151,908	-0,379	-0,364
33,794	129,885	-0,277	-0,249
34,809	89,008	-0,343	-0,268
35,823	132,400	-0,357	-0,323
36,838	51,684	-0,352	-0,235
37,853	188,636	-0,436	-0,459
38,867	183,584	-0,255	-0,265
39,882	-47,825	-0,494	-0,167
40,896	65,378	-0,331	-0,235
41,911	215,809	-0,251	-0,281
42,926	141,863	-0,463	-0,432
43,940	800,000	-0,109	-0,226
44,955	747,439	-0,162	-0,307
45,969	60,093	-0,344	-0,239
46,984	-1,829	-0,407	-0,201
47,999	251,072	-0,243	-0,290
49,013	344,681	-0,222	-0,307
50,028	57,245	-0,318	-0,218
51,042	2,327	-0,449	-0,227
52,057	72,960	-0,332	-0,243
53,071	62,891	-0,416	-0,292
54,086	141,434	-0,276	-0,257
55,101	-36,106	-0,303	-0,114
56,115	85,059	-0,242	-0,186
57,130	-17,752	-0,423	-0,186
58,144	64,964	-0,418	-0,296
59,159	136,560	-0,403	-0,369
60,174	73,048	-0,318	-0,233
61,188	-83,447	-0,274	-0,061
62,203	-0,509	-0,249	-0,124
63,217	16,137	-0,299	-0,165
64,232	288,006	-0,211	-0,268
65,247	800,000	-0,169	-0,354
66,261	89,950	-0,269	-0,211
67,276	0,852	-0,278	-0,139
68,290	24,378	-0,371	-0,215
69,305	344,551	-0,138	-0,191
70,320	10,583	-0,290	-0,154
71,334	-70,306	-0,253	-0,067
72,349	23,393	-0,431	-0,248
73,363	33,937	-0,336	-0,204
74,378	36,080	-0,400	-0,246
75,393	38,450	-0,396	-0,247
76,407	144,818	-0,350	-0,328
77,422	300,394	-0,102	-0,132
78,436	-4,928	-0,329	-0,158
79,451	108,664	-0,291	-0,243
80,466	27,434	-0,322	-0,189
81,480	107,979	-0,323	-0,269
82,495	162,062	-0,268	-0,263
83,509	276,325	-0,170	-0,212
84,524	75,587	-0,304	-0,224
85,539	-66,055	-0,392	-0,109
86,553	16,573	-0,269	-0,149
87,568	138,404	-0,296	-0,272
88,582	89,949	-0,202	-0,158
89,597	-106,480	-0,315	-0,049
90,611	223,749	-0,263	-0,298
91,626	81,922	-0,184	-0,139
92,641	-24,402	-0,205	-0,085
93,655	257,613	-0,176	-0,212
94,670	20,719	-0,324	-0,183
95,684	354,534	-0,195	-0,272
96,699	-73,084	-0,316	-0,081
97,714	-74,468	-0,382	-0,096
98,728	271,105	-0,162	-0,200
99,743	-129,527	-0,223	-0,021
100,757	180,484	-0,293	-0,300
101,772	44,047	-0,276	-0,176
102,787	87,304	-0,192	-0,149
103,801	104,491	-0,310	-0,255
104,816	263,254	-0,199	-0,242
105,830	162,523	-0,194	-0,191
106,845	-42,857	-0,424	-0,150
107,860	71,808	-0,231	-0,167
108,874	16,751	-0,322	-0,178
109,889	8,451	-0,359	-0,188
110,903	493,469	-0,182	-0,293
111,918	228,067	-0,260	-0,296
112,933	690,078	-0,185	-0,341
113,947	282,965	-0,266	-0,334
114,962	67,940	-0,240	-0,172
115,976	618,893	-0,160	-0,282
116,991	66,725	-0,306	-0,217
118,006	92,508	-0,279	-0,220
119,020	-83,419	-0,297	-0,066
120,035	33,010	-0,152	-0,092
121,049	-52,116	-0,200	-0,064
122,064	86,513	-0,156	-0,120
123,079	115,993	-0,219	-0,187
124,093	232,873	-0,205	-0,235
125,108	187,769	-0,267	-0,278
126,122	208,561	-0,200	-0,218
127,137	-194,013	-0,331	-0,002
128,151	103,934	-0,191	-0,156
129,166	37,447	-0,191	-0,118
130,181	598,764	-0,130	-0,226
131,195	-106,966	-0,204	-0,031
132,210	-74,022	-0,321	-0,081
133,224	79,458	-0,295	-0,221
134,239	30,184	-0,179	-0,106
135,254	117,477	-0,169	-0,145
136,268	176,965	-0,152	-0,154
137,283	-15,629	-0,145	-0,064
138,297	44,922	-0,297	-0,190
139,312	85,774	-0,361	-0,277
140,327	115,940	-0,265	-0,226
141,341	51,765	-0,172	-0,114
142,356	591,299	-0,128	-0,222
143,370	208,184	-0,267	-0,291
144,385	150,508	-0,159	-0,150
145,400	119,840	-0,314	-0,271
146,414	75,012	-0,282	-0,206
147,429	-45,288	-0,235	-0,081
148,443	-135,780	-0,259	0,021
149,458	273,617	-0,130	-0,160
150,473	-43,079	-0,205	-0,072
151,487	15,104	-0,252	-0,137
152,502	-81,775	-0,284	-0,064
153,516	159,625	-0,235	-0,228
154,531	220,998	-0,189	-0,211
155,546	330,894	-0,175	-0,236
156,560	-142,186	-0,269	-0,018
157,575	-1,142	-0,210	-0,103
158,589	112,899	-0,144	-0,121
159,604	615,971	-0,184	-0,322
160,619	190,766	-0,196	-0,205
161,633	80,787	-0,324	-0,243
162,648	-90,670	-0,256	-0,051
163,662	38,585	-0,180	-0,111
164,677	-12,882	-0,291	-0,131
165,692	54,809	-0,296	-0,198
166,706	-43,679	-0,170	-0,059
167,721	522,084	-0,151	-0,248
168,735	50,195	-0,169	-0,111
169,750	7,203	-0,226	-0,117
170,764	140,736	-0,182	-0,168
171,779	145,477	-0,207	-0,192
172,794	379,809	-0,164	-0,234
173,808	62,365	-0,302	-0,209
174,823	225,835	-0,198	-0,223
175,837	518,202	-0,168	-0,274
176,852	19,730	-0,248	-0,138
177,867	541,707	-0,192	-0,319
178,881	-37,921	-0,180	-0,066
179,896	217,223	-0,152	-0,168
180,910	55,240	-0,126	-0,084
181,925	152,444	-0,172	-0,163
182,940	99,636	-0,249	-0,200
183,954	210,006	-0,246	-0,268
184,969	590,789	-0,151	-0,260
185,983	-34,297	-0,289	-0,109
186,998	182,957	-0,201	-0,206
188,013	142,893	-0,247	-0,228
189,027	174,622	-0,210	-0,211
190,042	101,203	-0,173	-0,140
191,056	212,923	-0,207	-0,227
192,071	129,668	-0,198	-0,176
193,086	-101,813	-0,168	0,028
194,100	71,837	-0,152	-0,110
195,115	19,249	-0,073	-0,041
196,129	184,163	-0,157	-0,162
197,144	-43,332	-0,259	-0,090
198,159	-68,045	-0,288	-0,077
199,173	279,765	-0,136	-0,168
200,188	540,788	-0,078	-0,128
201,202	-200,000	-0,039	-0,293
202,217	467,227	-0,119	-0,185
203,232	-200,000	-0,073	-0,231
204,246	172,375	-0,157	-0,156
205,261	800,000	-0,118	-0,299
206,275	-118,316	-0,202	-0,025
207,290	346,793	-0,177	-0,241
208,304	-150,843	-0,280	0,014
209,319	-200,000	-0,026	-0,175
210,334	-62,065	-0,179	-0,052
211,348	-65,340	-0,249	-0,069
212,363	181,291	-0,157	-0,160
213,377	-200,000	-0,056	-0,236
214,392	311,520	-0,164	-0,214
215,407	27,820	-0,187	-0,109
216,421	53,744	-0,263	-0,174
217,436	288,986	-0,124	-0,156
218,450	12,301	-0,295	-0,157
219,465	-89,202	-0,167	-0,034
220,480	179,718	-0,177	-0,180
221,494	113,722	-0,151	-0,127
222,509	-10,447	-0,085	-0,039
223,523	134,231	-0,175	-0,157
224,538	84,280	-0,240	-0,181
225,553	-33,445	-0,255	-0,097
226,567	800,000	-0,109	-0,313
227,582	53,879	-0,229	-0,152
228,596	-200,000	-0,031	-0,113
229,611	96,376	-0,112	-0,089
230,626	14,926	-0,197	-0,106
231,640	-91,914	-0,137	0,027
232,655	485,150	-0,226	-0,358
233,669	34,559	-0,256	-0,154
234,684	139,142	-0,143	-0,130
235,699	-69,076	-0,193	-0,051
236,713	-102,883	-0,102	-0,017
237,728	195,993	-0,123	-0,130
238,742	-200,000	-0,020	-0,181
239,757	359,221	-0,096	-0,133
240,772	478,148	-0,135	-0,212
241,786	292,265	-0,204	-0,257
242,801	51,430	-0,075	-0,049
243,815	182,779	-0,114	-0,116
244,830	800,000	-0,064	-0,140
245,844	0,898	-0,091	-0,045
246,859	132,999	-0,197	-0,175
247,874	180,410	-0,125	-0,127
248,888	125,488	-0,189	-0,165
249,903	63,175	-0,167	-0,115
250,917	-70,863	-0,201	-0,052
251,932	21,455	-0,091	-0,051
252,947	800,000	-0,052	-0,148
253,961	146,113	-0,218	-0,202
254,976	524,281	-0,110	-0,180
255,990	800,000	-0,112	-0,227
257,005	418,968	-0,073	-0,108
258,020	800,000	-0,060	-0,119
259,034	-139,937	-0,228	0,016
260,049	-73,616	-0,092	0,023
261,063	-13,454	-0,176	-0,078
262,078	-87,603	-0,031	0,006
263,093	41,746	-0,186	-0,116
264,107	256,449	-0,166	-0,196
265,122	73,672	-0,119	-0,086
266,136	26,649	-0,079	-0,046
267,151	366,031	-0,113	-0,158
268,166	-83,529	-0,117	-0,026
269,180	57,527	-0,177	-0,119
270,195	459,950	-0,152	-0,233
271,209	-200,000	-0,039	-0,221
272,224	-200,000	-0,010	-0,127
273,239	-200,000	0,010	-0,073
274,253	-8,113	-0,063	-0,029
275,268	170,232	-0,018	-0,018
276,282	551,702	-0,170	-0,283
277,297	274,864	-0,157	-0,192
278,312	-200,000	-0,030	-0,206
279,326	-23,409	-0,234	-0,096
280,341	-200,000	0,011	-0,055
281,355	-101,250	-0,169	-0,028
282,370	49,385	-0,186	-0,120
283,384	12,405	-0,225	-0,119
284,399	66,914	-0,195	-0,137
285,414	-68,401	-0,259	-0,069
286,428	-75,016	-0,134	-0,033
287,443	-40,580	-0,221	-0,078
288,457	-104,882	-0,232	-0,036
289,472	155,759	-0,108	-0,103
290,487	29,798	-0,204	-0,119
291,501	264,479	-0,183	-0,220
292,516	-200,000	-0,016	-0,132
293,530	-10,430	-0,168	-0,076
294,545	-48,197	-0,224	-0,074
295,560	288,858	-0,075	-0,093
296,574	43,987	-0,142	-0,089
297,589	-22,224	-0,212	-0,088
298,603	800,000	-0,092	-0,202
299,618	309,541	-0,150	-0,193
300,633	-95,486	-0,106	0,019
301,647	-200,000	-0,197	-0,000
302,662	97,823	-0,109	-0,086
303,676	-15,626	-0,153	-0,067
304,691	29,943	-0,258	-0,151
305,706	191,913	-0,157	-0,163
306,720	173,099	-0,197	-0,195
307,735	97,405	-0,107	-0,084
308,749	-83,771	-0,158	-0,034
309,764	-125,167	-0,085	-0,009
310,779	170,026	-0,167	-0,164
311,793	800,000	-0,067	-0,131
312,808	-200,000	-0,013	-0,205
313,822	243,267	-0,180	-0,207
314,837	-61,416	-0,177	-0,051
315,852	800,000	-0,119	-0,270
316,866	800,000	-0,043	-0,099
317,881	-200,000	-0,035	-0,165
318,895	-63,539	-0,045	0,013
319,910	-30,320	-0,199	-0,077
320,925	293,318	-0,100	-0,126
321,939	-200,000	-0,034	-0,134
322,954	-200,000	-0,028	-0,119
323,968	259,498	-0,136	-0,162
324,983	-81,212	-0,136	-0,031
325,997	800,000	-0,100	-0,214
327,012	-27,727	-0,172	-0,068
328,027	-200,000	0,002	-0,191
329,041	21,600	-0,163	-0,091
330,056	435,611	-0,137	-0,205
331,070	684,216	-0,067	-0,120
332,085	-107,913	-0,244	-0,036
333,100	-13,697	-0,174	-0,077
334,114	282,040	-0,112	-0,137
335,129	-133,076	-0,231	-0,020
336,143	191,980	-0,195	-0,201
337,158	40,153	-0,234	-0,144
338,173	54,167	-0,050	0,033
339,187	-32,779	-0,090	-0,034
340,202	534,443	-0,085	-0,139
341,216	-128,933	-0,129	-0,012
342,231	389,027	-0,112	-0,159
343,246	0,848	-0,092	-0,045
344,260	-200,000	-0,029	-0,092
345,275	800,000	-0,072	-0,143
346,289	685,831	-0,031	-0,056
347,304	-121,241	-0,235	0,027
348,319	703,307	-0,129	-0,233
349,333	356,705	-0,143	-0,196
350,348	50,741	-0,156	-0,101
351,362	20,824	-0,212	-0,117
352,377	201,198	-0,121	-0,128
353,392	173,041	-0,139	-0,137
354,406	346,295	-0,067	0,090
355,421	205,153	1310,944	1393,504
356,435	157,725	1471,146	1393,958
