DTS Sentinel unit serial number:	SN410029Multiplexer serial number:	ORYXHardware model number:	OX2-SRSoftware version number:	ORYX F/W v4,00 Oryx Data Collector v3.7.2.0data status	okinstallation	B3 Nyhavnadifferential loss correction	single-endedforward channel	channel 1reverse channel	N/Adate	2023/12/02time	08:52:30forward acquisition time	300,00reverse acquisition time	0,00gamma	499,1914k internal	0,3195k external	0,3195temperature offset calibration	1,0000default loss term (dB/km)	0,3820temperature slope calibration	1,0000multiplexer offset coefficient	1,0000multiplexer slope coefficient	1,0000fibre end	0,00T internal ref (°C)	15,28T ext. ref 1 (°C)	0,02T ext. ref 2 (°C)	0,01length (m)	temperature (°C)	Stokes	anti-Stokes-744,400	287,901	-0,227	-0,300
-743,385	-200,000	-0,013	0,312
-742,371	56,029	-0,212	-0,149
-741,356	800,000	0,119	0,299
-740,342	130,275	-0,190	-0,177
-739,327	-200,000	0,068	0,308
-738,312	506,950	-0,206	-0,349
-737,298	-200,000	0,041	0,183
-736,283	238,984	-0,177	-0,215
-735,269	-200,000	-0,020	0,363
-734,254	47,915	-0,190	-0,129
-733,239	-200,000	-0,075	0,258
-732,225	-200,000	0,052	-0,220
-731,210	800,000	0,015	0,032
-730,196	442,491	-0,043	0,068
-729,181	223,755	-0,025	-0,030
-728,167	-99,660	0,082	-0,015
-727,152	800,000	-0,041	0,086
-726,137	428,365	-0,038	-0,061
-725,123	-3,589	0,118	-0,059
-724,108	229,095	-0,065	-0,078
-723,094	-63,001	-0,150	-0,045
-722,079	-200,000	-0,002	-0,048
-721,064	-39,763	0,097	-0,037
-720,050	-200,000	0,009	0,087
-719,035	551,701	-0,025	0,044
-718,021	28,063	-0,048	-0,030
-717,006	61,847	-0,046	-0,033
-715,991	800,000	-0,018	-0,039
-714,977	-64,419	-0,145	-0,043
-713,962	36,092	-0,105	0,067
-712,948	-200,000	0,001	0,045
-711,933	-200,000	-0,003	-0,028
-710,918	282,235	0,069	0,091
-709,904	-11,526	-0,016	0,008
-708,889	-200,000	0,006	-0,189
-707,875	-200,000	-0,021	-0,202
-706,860	595,067	0,056	-0,102
-705,845	26,511	-0,055	-0,034
-704,831	-126,541	0,124	-0,013
-703,816	-10,221	-0,146	0,070
-702,802	-85,484	0,079	-0,018
-701,787	130,229	0,041	0,038
-700,772	35,262	0,132	0,084
-699,758	-173,069	0,123	0,003
-698,743	-111,471	0,112	0,016
-697,729	-62,187	0,098	-0,029
-696,714	800,000	-0,059	0,135
-695,699	-200,000	0,011	0,066
-694,685	-200,000	-0,045	0,193
-693,670	423,902	0,055	-0,086
-692,656	-57,827	-0,071	0,022
-691,641	34,916	-0,042	0,027
-690,627	-200,000	-0,008	-0,038
-689,612	-200,000	0,017	0,091
-688,597	416,991	0,047	0,074
-687,583	-31,641	-0,043	-0,018
-686,568	364,244	0,061	0,090
-685,554	800,000	0,021	0,063
-684,539	-200,000	0,005	-0,023
-683,524	-64,470	0,068	-0,020
-682,510	-192,268	0,065	-0,000
-681,495	-200,000	0,029	-0,108
-680,481	7,440	-0,125	-0,068
-679,466	-200,000	-0,015	-0,083
-678,451	-200,000	0,008	0,077
-677,437	-2,573	-0,082	-0,042
-676,422	-102,416	-0,014	-0,002
-675,408	15,215	0,073	0,041
-674,393	-131,285	-0,141	-0,013
-673,378	16,005	0,047	-0,027
-672,364	-86,142	-0,119	0,026
-671,349	0,185	-0,183	-0,094
-670,335	-73,814	0,018	-0,005
-669,320	-200,000	0,035	0,000
-668,305	-200,000	-0,003	0,131
-667,291	517,208	0,007	-0,012
-666,276	-188,964	-0,050	0,000
-665,262	-200,000	0,012	-0,118
-664,247	411,327	-0,039	-0,061
-663,232	-200,000	0,006	0,048
-662,218	360,732	0,047	0,069
-661,203	589,620	0,030	0,055
-660,189	-31,629	-0,058	-0,023
-659,174	-34,035	0,087	-0,035
-658,159	-200,000	0,007	-0,068
-657,145	82,959	-0,029	-0,023
-656,130	469,728	0,025	-0,040
-655,116	62,725	0,051	-0,037
-654,101	-200,000	-0,043	-0,231
-653,086	131,000	-0,094	0,088
-652,072	528,071	-0,142	-0,244
-651,057	159,768	-0,072	0,073
-650,043	-200,000	0,014	-0,290
-649,028	-200,000	-0,003	-0,045
-648,014	381,984	-0,046	0,068
-646,999	421,548	-0,059	0,092
-645,984	-155,519	-0,124	0,006
-644,970	-200,000	0,011	-0,065
-643,955	-200,000	0,024	-0,139
-642,941	800,000	-0,026	0,060
-641,926	-4,180	-0,070	0,035
-640,911	8,663	-0,007	0,004
-639,897	-200,000	-0,001	0,139
-638,882	101,159	0,037	0,032
-637,868	800,000	-0,046	0,146
-636,853	-19,858	-0,097	0,043
-635,838	112,624	0,097	0,085
-634,824	120,199	0,040	-0,036
-633,809	239,762	-0,018	-0,022
-632,795	54,487	0,108	-0,075
-631,780	-200,000	0,003	0,036
-630,765	218,139	0,039	-0,045
-629,751	-0,542	0,061	-0,031
-628,736	624,639	0,065	-0,119
-627,722	800,000	0,028	-0,070
-626,707	-133,311	0,085	-0,008
-625,692	800,000	-0,073	-0,189
-624,678	800,000	-0,021	-0,061
-623,663	-62,833	-0,031	0,009
-622,649	-200,000	0,001	0,102
-621,634	211,005	0,068	-0,077
-620,619	-74,130	-0,030	-0,008
-619,605	43,980	0,115	0,076
-618,590	-115,126	0,005	-0,001
-617,576	748,474	0,070	0,138
-616,561	189,650	-0,084	0,091
-615,546	800,000	0,013	0,029
-614,532	318,639	-0,034	0,047
-613,517	-103,658	-0,115	-0,019
-612,503	-102,479	0,068	0,012
-611,488	480,233	0,021	-0,035
-610,474	78,046	-0,024	0,018
-609,459	91,017	0,087	-0,070
-608,444	315,246	-0,060	-0,083
-607,430	62,143	-0,095	-0,068
-606,415	-103,340	-0,033	-0,006
-605,401	367,875	-0,056	0,082
-604,386	105,128	0,133	0,113
-603,371	-200,000	-0,028	0,134
-602,357	800,000	-0,033	-0,102
-601,342	-200,000	-0,015	-0,085
-600,328	800,000	-0,064	-0,129
-599,313	800,000	-0,081	-0,178
-598,298	800,000	-0,062	-0,195
-597,284	-200,000	-0,003	0,068
-596,269	-7,791	-0,108	0,053
-595,255	87,082	-0,098	-0,078
-594,240	-196,686	0,092	-0,000
-593,225	800,000	0,026	-0,062
-592,211	-121,086	0,110	0,013
-591,196	-200,000	-0,021	-0,086
-590,182	698,430	0,059	0,113
-589,167	-44,052	-0,076	0,027
-588,152	800,000	0,036	0,096
-587,138	781,979	-0,048	-0,096
-586,123	270,454	-0,119	-0,152
-585,109	-54,118	0,092	0,030
-584,094	300,920	-0,029	-0,040
-583,079	-200,000	-0,004	-0,019
-582,065	-200,000	-0,000	0,093
-581,050	305,982	-0,045	-0,061
-580,036	-85,738	-0,074	-0,016
-579,021	-200,000	-0,062	-0,215
-578,006	800,000	-0,015	0,036
-576,992	346,548	0,031	0,045
-575,977	361,437	0,063	-0,091
-574,963	310,322	0,089	0,121
-573,948	-200,000	-0,004	-0,016
-572,934	800,000	0,050	0,121
-571,919	800,000	-0,013	0,030
-570,904	153,455	-0,024	0,023
-569,890	24,413	-0,088	-0,053
-568,875	558,106	-0,040	-0,070
-567,861	425,206	-0,041	-0,064
-566,846	800,000	0,036	0,097
-565,831	18,383	-0,123	-0,071
-564,817	-200,000	0,040	-0,167
-563,802	-200,000	-0,028	-0,122
-562,788	-200,000	-0,010	-0,170
-561,773	800,000	-0,015	-0,030
-560,758	97,528	-0,044	0,036
-559,744	-200,000	-0,015	0,130
-558,729	121,897	-0,023	-0,021
-557,715	-114,475	-0,068	0,009
-556,700	53,469	-0,075	0,052
-555,685	448,055	-0,014	-0,022
-554,671	319,660	0,105	-0,145
-553,656	800,000	0,018	-0,040
-552,642	-48,183	-0,077	-0,027
-551,627	-200,000	0,038	-0,197
-550,612	42,875	-0,176	0,116
-549,598	78,631	-0,147	-0,114
-548,583	7,353	0,071	-0,038
-547,569	58,971	-0,039	0,028
-546,554	74,666	-0,044	0,034
-545,539	-34,251	0,111	0,044
-544,525	-200,000	0,002	0,167
-543,510	646,400	-0,037	-0,069
-542,496	-17,607	0,047	-0,021
-541,481	-200,000	0,045	-0,156
-540,466	-200,000	-0,022	-0,154
-539,452	-200,000	-0,035	0,144
-538,437	327,800	0,072	0,099
-537,423	19,692	0,097	0,056
-536,408	178,233	-0,126	-0,133
-535,393	800,000	0,032	0,070
-534,379	-20,449	-0,081	-0,036
-533,364	-180,355	-0,044	0,001
-532,350	-200,000	0,003	-0,026
-531,335	-200,000	-0,030	0,104
-530,321	416,778	-0,031	0,049
-529,306	-100,916	-0,047	0,008
-528,291	800,000	0,023	-0,066
-527,277	-200,000	0,000	0,016
-526,262	246,187	-0,057	0,069
-525,248	-190,439	0,070	-0,001
-524,233	143,025	-0,033	0,032
-523,218	-200,000	0,003	-0,036
-522,204	119,820	0,051	0,046
-521,189	-73,180	0,015	-0,004
-520,175	-200,000	-0,014	-0,047
-519,160	217,332	-0,019	-0,022
-518,145	105,343	0,035	-0,030
-517,131	241,079	-0,043	0,051
-516,116	800,000	0,015	0,040
-515,102	72,788	-0,081	-0,061
-514,087	-200,000	0,038	-0,121
-513,072	34,336	0,120	-0,075
-512,058	800,000	0,083	0,167
-511,043	-200,000	-0,009	-0,054
-510,029	54,562	0,127	0,088
-509,014	13,674	0,129	0,072
-507,999	554,040	-0,099	0,173
-506,985	568,332	0,033	-0,058
-505,970	800,000	0,021	-0,058
-504,956	-106,332	-0,024	0,004
-503,941	16,951	0,020	-0,011
-502,926	448,460	0,056	-0,089
-501,912	-148,741	-0,047	-0,003
-500,897	-200,000	0,009	0,157
-499,883	526,233	-0,065	0,111
-498,868	435,031	-0,105	-0,165
-497,853	-27,832	0,075	0,031
-496,839	193,755	0,044	-0,048
-495,824	-46,605	0,101	-0,036
-494,810	800,000	-0,020	-0,059
-493,795	-95,773	0,055	-0,010
-492,781	-200,000	0,032	0,123
-491,766	-200,000	-0,026	-0,132
-490,751	-47,361	0,110	0,038
-489,737	-91,136	-0,057	-0,012
-488,722	-89,869	-0,097	-0,020
-487,708	800,000	0,030	0,092
-486,693	-31,922	0,031	-0,012
-485,678	82,886	-0,121	0,095
-484,664	162,336	-0,097	-0,098
-483,649	800,000	0,052	-0,120
-482,635	159,569	-0,021	0,021
-481,620	89,283	0,005	0,004
-480,605	48,520	0,134	0,090
-479,591	-145,018	-0,077	-0,005
-478,576	11,589	-0,075	0,042
-477,562	231,410	0,012	0,014
-476,547	-200,000	0,011	0,100
-475,532	-200,000	-0,009	-0,071
-474,518	-9,027	0,124	-0,060
-473,503	-200,000	0,004	0,072
-472,489	783,823	0,056	0,110
-471,474	73,508	-0,124	-0,093
-470,459	800,000	-0,015	-0,045
-469,445	-200,000	-0,038	-0,178
-468,430	47,308	-0,096	-0,064
-467,416	-200,000	-0,006	0,063
-466,401	-64,481	-0,068	0,020
-465,386	800,000	0,042	0,096
-464,372	-200,000	0,025	-0,161
-463,357	-76,924	-0,009	0,002
-462,343	-3,575	-0,110	-0,055
-461,328	-143,993	-0,034	-0,002
-460,313	800,000	0,050	-0,133
-459,299	-139,439	0,122	-0,009
-458,284	800,000	-0,066	0,141
-457,270	-151,503	0,080	0,004
-456,255	163,056	0,018	0,018
-455,241	-200,000	-0,009	-0,027
-454,226	-69,736	0,026	0,007
-453,211	-200,000	0,002	0,145
-452,197	-118,072	-0,031	0,004
-451,182	-200,000	-0,003	0,113
-450,168	-200,000	-0,009	0,043
-449,153	-31,867	-0,034	-0,014
-448,138	166,776	-0,048	0,049
-447,124	22,442	0,129	0,076
-446,109	303,372	-0,104	0,139
-445,095	-200,000	0,047	0,149
-444,080	169,639	0,120	0,124
-443,065	-200,000	0,008	0,109
-442,051	-54,578	-0,192	-0,062
-441,036	-146,398	0,051	-0,003
-440,022	16,342	-0,095	-0,054
-439,007	49,997	0,071	-0,048
-437,992	-200,000	0,001	-0,094
-436,978	230,471	0,036	0,042
-435,963	800,000	0,075	0,185
-434,949	761,902	0,104	-0,205
-433,934	132,828	0,067	-0,062
-432,919	163,658	-0,017	0,017
-431,905	-200,000	0,004	-0,023
-430,890	800,000	0,032	0,093
-429,876	267,907	-0,029	-0,037
-428,861	-123,628	0,197	0,022
-427,846	244,626	-0,025	0,030
-426,832	-140,715	-0,174	-0,013
-425,817	-42,637	-0,159	-0,058
-424,803	-79,597	0,188	-0,045
-423,788	-136,169	0,009	-0,001
-422,773	77,204	-0,064	-0,049
-421,759	-23,343	-0,110	0,047
-420,744	800,000	-0,028	-0,075
-419,730	-63,445	-0,025	0,007
-418,715	800,000	-0,025	-0,055
-417,701	-5,592	-0,046	-0,023
-416,686	-200,000	-0,000	0,105
-415,671	135,646	0,075	0,070
-414,657	-200,000	-0,013	0,041
-413,642	149,406	0,105	0,103
-412,628	-77,061	-0,055	0,014
-411,613	188,688	-0,047	-0,051
-410,598	-105,389	0,146	-0,024
-409,584	-99,885	0,100	0,018
-408,569	36,122	0,060	-0,038
-407,555	-122,246	-0,050	0,006
-406,540	100,395	0,060	0,050
-405,525	101,624	-0,014	0,012
-404,511	-200,000	-0,004	-0,110
-403,496	-200,000	-0,039	-0,207
-402,482	-126,754	0,162	-0,017
-401,467	-112,263	0,041	0,006
-400,452	54,805	0,070	-0,049
-399,438	-200,000	-0,008	-0,093
-398,423	-200,000	0,002	0,008
-397,409	322,881	0,019	-0,026
-396,394	506,652	-0,096	-0,160
-395,379	213,161	0,029	0,032
-394,365	-200,000	-0,002	0,041
-393,350	-17,508	0,096	0,043
-392,336	-153,735	0,062	-0,003
-391,321	800,000	0,021	-0,050
-390,306	576,766	-0,048	-0,084
-389,292	-200,000	0,002	0,058
-388,277	418,252	-0,078	0,120
-387,263	580,435	-0,034	-0,059
-386,248	45,373	0,069	-0,046
-385,233	347,910	0,015	-0,021
-384,219	35,314	-0,048	0,030
-383,204	-96,612	-0,114	-0,021
-382,190	800,000	-0,025	0,073
-381,175	-22,006	-0,112	-0,048
-380,160	-0,773	-0,046	-0,024
-379,146	-148,723	0,230	-0,013
-378,131	-11,212	-0,049	-0,023
-377,117	800,000	0,008	-0,016
-376,102	11,173	-0,126	0,069
-375,088	-200,000	-0,009	-0,046
-374,073	800,000	-0,030	-0,092
-373,058	-49,795	-0,066	-0,022
-372,044	200,309	-0,167	0,185
-371,029	-200,000	0,041	0,186
-370,015	431,403	0,049	0,076
-369,000	-84,236	0,121	-0,027
-367,985	129,095	-0,031	-0,028
-366,971	800,000	-0,040	0,101
-365,956	-200,000	-0,024	0,120
-364,942	-77,865	0,074	-0,018
-363,927	-179,009	0,020	0,000
-362,912	-39,072	0,041	-0,015
-361,898	-42,198	0,130	-0,047
-360,883	-147,188	-0,142	0,009
-359,869	684,090	0,045	-0,085
-358,854	20,896	0,067	-0,039
-357,839	-200,000	-0,025	-0,103
-356,825	64,091	-0,010	0,008
-355,810	-200,000	-0,009	0,030
-354,796	451,474	0,118	-0,188
-353,781	-200,000	0,014	-0,090
-352,766	-200,000	0,005	0,069
-351,752	-200,000	0,007	0,121
-350,737	-44,499	0,085	-0,030
-349,723	-200,000	-0,011	0,078
-348,708	-35,648	-0,058	-0,022
-347,693	-200,000	-0,001	-0,011
-346,679	489,619	-0,059	-0,098
-345,664	-200,000	-0,002	-0,024
-344,650	-23,667	-0,053	0,023
-343,635	81,549	0,164	0,127
-342,620	-200,000	-0,037	0,157
-341,606	159,347	0,086	-0,086
-340,591	394,640	-0,033	0,049
-339,577	-200,000	-0,030	-0,181
-338,562	-6,940	-0,105	-0,051
-337,548	800,000	-0,023	-0,070
-336,533	-53,048	-0,105	-0,034
-335,518	-158,698	0,101	0,004
-334,504	-121,938	0,089	-0,010
-333,489	-200,000	-0,014	-0,057
-332,475	727,807	-0,020	-0,038
-331,460	71,134	0,071	-0,053
-330,445	48,873	0,072	-0,048
-329,431	137,001	-0,063	-0,059
-328,416	220,134	-0,059	0,068
-327,402	-200,000	-0,015	0,169
-326,387	-63,512	-0,045	0,013
-325,372	176,798	-0,085	-0,089
-324,358	449,204	0,034	-0,053
-323,343	-57,945	-0,165	0,051
-322,329	418,489	0,022	-0,034
-321,314	-158,141	-0,045	-0,002
-320,299	296,507	-0,118	0,155
-319,285	-16,998	-0,129	0,058
-318,270	388,244	-0,062	-0,092
-317,256	-3,734	-0,118	-0,059
-316,241	-82,393	0,084	0,019
-315,226	331,365	-0,063	0,087
-314,212	-200,000	0,002	0,052
-313,197	-200,000	-0,006	0,111
-312,183	-57,728	0,145	0,045
-311,168	398,450	0,041	0,061
-310,153	437,810	0,017	0,027
-309,139	225,981	0,028	0,032
-308,124	118,759	0,071	0,063
-307,110	-200,000	-0,001	0,120
-306,095	80,470	0,040	0,030
-305,080	224,437	0,026	0,030
-304,066	-104,200	-0,068	-0,011
-303,051	800,000	0,016	0,049
-302,037	-200,000	-0,016	-0,140
-301,022	-120,620	0,033	0,004
-300,008	-104,906	-0,096	-0,016
-298,993	42,553	-0,061	0,040
-297,978	433,393	-0,054	0,084
-296,964	-200,000	-0,005	0,018
-295,949	800,000	-0,030	-0,062
-294,935	-200,000	-0,023	-0,216
-293,920	30,442	-0,049	0,030
-292,905	111,334	0,087	0,075
-291,891	9,062	0,053	-0,028
-290,876	800,000	0,026	0,059
-289,862	214,729	0,028	-0,032
-288,847	-120,407	-0,041	0,005
-287,832	16,326	-0,074	-0,042
-286,818	-73,695	0,098	0,025
-285,803	-81,182	0,149	0,035
-284,789	168,657	0,098	-0,100
-283,774	-105,122	-0,137	0,022
-282,759	-200,000	0,010	-0,040
-281,745	-200,000	-0,003	-0,028
-280,730	-200,000	0,003	-0,118
-279,716	726,217	-0,022	-0,043
-278,701	-164,661	0,122	0,004
-277,686	-172,962	0,100	0,002
-276,672	695,341	-0,029	0,055
-275,657	-200,000	-0,008	0,032
-274,643	58,693	-0,057	-0,040
-273,628	-58,104	-0,062	0,019
-272,613	-69,923	0,026	-0,007
-271,599	-83,848	0,055	0,012
-270,584	83,909	-0,077	0,060
-269,570	90,000	-0,028	-0,022
-268,555	76,781	-0,062	-0,047
-267,540	166,018	0,058	0,059
-266,526	-94,015	-0,092	0,018
-265,511	27,685	-0,073	-0,044
-264,497	-152,978	-0,089	0,004
-263,482	360,842	0,125	0,180
-262,467	-200,000	-0,025	0,079
-261,453	37,199	0,161	-0,102
-260,438	-75,823	-0,044	-0,011
-259,424	41,324	-0,080	0,052
-258,409	20,850	-0,044	0,026
-257,395	800,000	0,012	-0,028
-256,380	-120,641	-0,018	-0,002
-255,365	-200,000	-0,002	0,027
-254,351	316,100	-0,027	0,037
-253,336	-200,000	0,019	-0,094
-252,322	383,654	-0,099	0,146
-251,307	-200,000	0,006	0,060
-250,292	-181,313	0,087	-0,001
-249,278	186,370	-0,040	-0,042
-248,263	-200,000	0,032	0,110
-247,249	-120,445	0,132	0,016
-246,234	541,550	-0,059	-0,101
-245,219	-200,000	-0,006	-0,039
-244,205	800,000	-0,043	-0,098
-243,190	623,034	-0,064	-0,116
-242,176	800,000	-0,044	-0,109
-241,161	-82,348	0,104	0,024
-240,146	-200,000	-0,015	-0,110
-239,132	257,159	-0,039	0,048
-238,117	-200,000	-0,003	-0,014
-237,103	152,794	0,084	0,082
-236,088	-200,000	-0,003	-0,035
-235,073	83,448	0,080	0,062
-234,059	-200,000	0,028	0,099
-233,044	213,283	0,078	0,088
-232,030	-200,000	-0,013	0,047
-231,015	-200,000	0,009	-0,064
-230,000	-200,000	-0,038	-0,122
-228,986	-200,000	-0,015	-0,082
-227,971	-200,000	0,006	0,042
-226,957	-200,000	-0,002	-0,091
-225,942	-131,454	-0,058	0,005
-224,927	30,319	-0,052	-0,032
-223,913	278,284	0,101	-0,129
-222,898	800,000	-0,022	-0,068
-221,884	566,396	-0,063	-0,110
-220,869	800,000	-0,035	0,081
-219,855	-200,000	0,013	0,096
-218,840	-200,000	0,004	0,048
-217,825	430,085	-0,017	0,026
-216,811	88,679	-0,076	0,060
-215,796	650,515	-0,025	0,047
-214,782	800,000	-0,060	-0,164
-213,767	-147,673	0,113	0,007
-212,752	255,696	-0,046	-0,056
-211,738	-32,657	-0,047	-0,019
-210,723	184,773	-0,044	-0,046
-209,709	-115,944	0,166	0,022
-208,694	187,224	-0,058	0,062
-207,679	-78,798	0,200	-0,048
-206,665	-200,000	-0,000	-0,002
-205,650	272,492	0,054	0,068
-204,636	46,372	0,096	0,063
-203,621	-24,076	-0,068	-0,029
-202,606	800,000	0,074	0,153
-201,592	407,041	-0,062	0,093
-200,577	238,988	-0,021	0,025
-199,563	149,191	0,121	0,117
-198,548	800,000	-0,047	0,133
-197,533	327,250	0,053	0,073
-196,519	-200,000	0,011	0,068
-195,504	118,686	-0,054	-0,048
-194,490	-200,000	0,002	-0,013
-193,475	800,000	0,025	0,072
-192,460	-84,599	0,055	0,012
-191,446	582,945	-0,016	0,029
-190,431	800,000	0,022	0,050
-189,417	360,976	0,030	-0,043
-188,402	-77,789	0,092	0,023
-187,387	-200,000	-0,044	-0,167
-186,373	-200,000	0,024	0,173
-185,358	-200,000	0,004	0,041
-184,344	-200,000	0,020	0,111
-183,329	800,000	0,063	0,163
-182,315	-200,000	-0,001	0,116
-181,300	800,000	-0,052	-0,119
-180,285	-96,057	0,041	-0,008
-179,271	359,374	0,066	-0,095
-178,256	800,000	-0,026	0,070
-177,242	-63,021	0,098	0,029
-176,227	32,980	0,052	0,032
-175,212	-200,000	0,014	0,140
-174,198	800,000	0,030	0,086
-173,183	-31,547	-0,114	0,045
-172,169	278,487	0,071	-0,090
-171,154	-200,000	-0,010	-0,176
-170,139	33,090	-0,115	0,071
-169,125	-90,134	0,142	-0,029
-168,110	800,000	-0,063	0,126
-167,096	-200,000	0,021	0,128
-166,081	132,952	0,066	0,061
-165,066	22,428	-0,127	0,074
-164,052	-200,000	-0,011	0,063
-163,037	-200,000	0,002	-0,135
-162,023	-200,000	0,029	0,094
-161,008	22,046	0,028	0,016
-159,993	800,000	-0,017	-0,050
-158,979	93,890	-0,097	-0,078
-157,964	685,268	0,095	-0,178
-156,950	-200,000	-0,004	-0,072
-155,935	112,777	0,051	-0,044
-154,920	-110,200	0,100	-0,015
-153,906	313,400	0,078	-0,105
-152,891	-89,315	0,009	0,002
-151,877	-96,768	0,037	-0,007
-150,862	-200,000	-0,018	-0,103
-149,847	-200,000	-0,010	-0,041
-148,833	-35,954	0,112	0,043
-147,818	-200,000	0,033	0,133
-146,804	-58,083	0,093	0,029
-145,789	-157,393	-0,151	-0,006
-144,775	39,485	0,054	-0,034
-143,760	521,530	-0,062	-0,104
-142,745	217,444	-0,081	0,092
-141,731	-155,114	0,038	-0,002
-140,716	-200,000	0,011	0,134
-139,702	-200,000	-0,000	0,224
-138,687	-200,000	-0,006	0,023
-137,672	59,633	-0,066	-0,046
-136,658	-200,000	0,012	0,060
-135,643	562,026	0,050	-0,086
-134,629	506,178	-0,092	-0,153
-133,614	-200,000	-0,023	0,080
-132,599	4,377	0,092	-0,048
-131,585	6,629	-0,092	-0,049
-130,570	370,986	0,012	-0,017
-129,556	35,508	-0,143	-0,089
-128,541	26,218	-0,043	0,026
-127,526	695,945	0,010	0,019
-126,512	-17,788	-0,154	0,068
-125,497	-127,785	0,196	0,020
-124,483	-78,286	0,119	-0,029
-123,468	643,588	0,029	-0,053
-122,453	-79,351	-0,179	-0,043
-121,439	-200,000	-0,008	0,060
-120,424	800,000	0,019	-0,055
-119,410	40,455	-0,021	-0,014
-118,395	-200,000	0,003	-0,194
-117,380	-200,000	-0,003	0,093
-116,366	294,554	0,061	0,079
-115,351	175,220	-0,094	-0,096
-114,337	-56,156	-0,126	0,040
-113,322	54,342	0,077	-0,053
-112,307	131,948	0,035	0,032
-111,293	-200,000	-0,003	0,053
-110,278	-200,000	-0,010	0,036
-109,264	229,942	-0,048	0,056
-108,249	-65,698	-0,076	0,022
-107,234	-200,000	-0,027	0,125
-106,220	516,076	0,113	-0,189
-105,205	442,941	0,056	-0,088
-104,191	-24,462	-0,102	0,043
-103,176	-200,000	-0,010	0,099
-102,162	800,000	0,011	-0,028
-101,147	17,269	0,037	-0,021
-100,132	193,738	0,056	0,060
-99,118	-38,471	-0,114	-0,042
-98,103	47,228	0,145	-0,096
-97,089	-62,272	0,083	-0,025
-96,074	487,847	0,068	0,110
-95,059	-200,000	0,034	0,172
-94,045	-200,000	0,007	-0,071
-93,030	478,488	-0,058	0,094
-92,016	55,456	0,159	-0,109
-91,001	85,128	-0,130	-0,101
-89,986	-200,000	0,005	-0,049
-88,972	-35,470	0,057	0,022
-87,957	800,000	-0,035	0,091
-86,943	6,351	0,028	-0,014
-85,928	800,000	-0,044	0,112
-84,913	-126,836	0,065	0,007
-83,899	-200,000	-0,038	-0,122
-82,884	277,286	0,046	0,058
-81,870	-200,000	0,003	0,058
-80,855	134,539	-0,008	-0,008
-79,840	-200,000	0,035	-0,179
-78,826	660,130	-0,048	0,087
-77,811	479,214	0,053	0,085
-76,797	-200,000	-0,013	-0,081
-75,782	800,000	0,020	0,041
-74,767	116,080	0,054	-0,047
-73,753	-200,000	-0,022	0,086
-72,738	-111,778	0,105	-0,015
-71,724	-200,000	-0,016	-0,211
-70,709	800,000	-0,068	-0,145
-69,694	113,703	0,101	-0,087
-68,680	-42,857	-0,117	0,042
-67,665	800,000	0,058	0,148
-66,651	-109,004	0,089	0,013
-65,636	800,000	-0,051	-0,102
-64,622	800,000	0,067	-0,140
-63,607	163,459	-0,125	-0,125
-62,592	-121,422	-0,171	-0,020
-61,578	800,000	-0,016	-0,038
-60,563	111,064	0,092	0,078
-59,549	53,771	-0,159	0,108
-58,534	-35,267	-1,390	-0,534
-57,519	335,608	-1,580	-2,179
-56,505	-200,000	-0,493	-4,553
-55,490	108,239	0,954	0,807
-54,476	800,000	4,828	11,233
-53,461	-200,000	18,105	284,431
-52,446	800,000	725,821	2222,739
-51,432	556,868	1641,307	2816,384
-50,417	79,571	1663,188	1264,683
-49,403	23,102	1537,048	892,389
-48,388	17,123	1460,195	818,814
-47,373	17,963	1450,192	817,217
-46,359	17,458	1440,586	809,356
-45,344	15,415	1435,975	796,985
-44,330	15,342	1434,003	795,512
-43,315	15,352	1432,238	794,547
-42,300	15,381	1430,487	793,681
-41,286	15,365	1429,528	793,040
-40,271	15,358	1428,214	792,246
-39,257	15,363	1426,928	791,527
-38,242	15,389	1425,769	790,974
-37,227	15,424	1424,367	790,334
-36,213	15,397	1423,160	789,502
-35,198	15,379	1422,038	788,767
-34,184	15,410	1421,129	788,374
-33,169	15,309	1419,804	787,134
-32,154	15,393	1418,726	786,900
-31,140	15,401	1417,351	786,143
-30,125	15,428	1416,334	785,674
-29,111	15,404	1415,295	784,958
-28,096	15,376	1414,099	784,127
-27,082	15,335	1412,905	783,246
-26,067	15,357	1411,758	782,679
-25,052	15,377	1410,708	782,160
-24,038	15,305	1409,883	781,333
-23,023	15,282	1408,786	780,587
-22,009	15,271	1407,883	780,004
-20,994	15,250	1406,753	779,249
-19,979	15,274	1405,963	778,892
-18,965	15,238	1405,024	778,173
-17,950	15,242	1404,022	777,608
-16,936	15,252	1402,981	777,046
-15,921	15,202	1401,981	776,228
-14,906	15,219	1401,042	775,757
-13,892	15,209	1400,040	775,125
-12,877	15,218	1399,241	774,696
-11,863	15,222	1398,045	774,021
-10,848	15,211	1397,391	773,576
-9,833	15,135	1396,637	772,775
-8,819	15,166	1395,537	772,280
-7,804	15,068	1394,725	771,346
-6,790	15,095	1393,710	770,876
-5,775	15,106	1392,506	770,232
-4,760	15,125	1391,731	769,863
-3,746	15,123	1390,880	769,353
-2,731	15,132	1390,020	768,888
-1,717	15,086	1389,260	768,222
-0,702	15,102	1387,385	767,228
0,313	18,909	1307,186	740,498
1,327	35,332	706,990	438,612
2,342	54,050	124,875	84,979
3,356	0,447	16,696	8,426
4,371	10,385	3,174	1,707
5,386	-59,102	0,625	0,190
6,400	-178,512	0,041	0,001
7,415	26,835	-0,209	-0,124
8,429	-49,944	-0,310	-0,104
9,444	76,773	-0,327	-0,246
10,459	5,454	-0,305	-0,159
11,473	-60,130	-0,293	-0,088
12,488	195,579	-0,257	-0,277
13,502	-9,242	-0,465	-0,219
14,517	109,483	-0,232	-0,196
15,531	115,880	-0,379	-0,328
16,546	251,797	-0,343	-0,414
17,561	13,951	-0,371	-0,203
18,575	8,987	-0,286	-0,152
19,590	42,789	-0,354	-0,228
20,604	55,308	-0,235	-0,160
21,619	45,350	-0,544	-0,354
22,634	101,279	-0,524	-0,432
23,648	225,289	-0,333	-0,382
24,663	105,636	-0,364	-0,304
25,677	20,632	-0,375	-0,214
26,692	19,862	-0,345	-0,196
27,707	311,987	-0,245	-0,325
28,721	21,620	-0,390	-0,224
29,736	5,089	-0,405	-0,210
30,750	95,504	-0,470	-0,379
31,765	88,078	-0,398	-0,312
32,780	50,759	-0,372	-0,249
33,794	258,508	-0,325	-0,397
34,809	29,564	-0,374	-0,224
35,823	111,599	-0,345	-0,294
36,838	159,317	-0,277	-0,273
37,853	90,200	-0,372	-0,293
38,867	190,156	-0,320	-0,340
39,882	75,608	-0,312	-0,232
40,896	-24,517	-0,396	-0,166
41,911	45,553	-0,308	-0,200
42,926	-8,017	-0,288	-0,137
43,940	67,438	-0,412	-0,297
44,955	78,891	-0,339	-0,256
45,969	1,605	-0,377	-0,191
46,984	90,128	-0,329	-0,259
47,999	76,388	-0,254	-0,189
49,013	3,734	-0,368	-0,189
50,028	-31,349	-0,379	-0,150
51,042	-7,483	-0,376	-0,179
52,057	-11,583	-0,322	-0,149
53,071	43,695	-0,484	-0,312
54,086	56,592	-0,244	-0,167
55,101	-29,772	-0,292	-0,117
56,115	77,727	-0,264	-0,198
57,130	-36,837	-0,395	-0,149
58,144	29,093	-0,307	-0,183
59,159	120,434	-0,311	-0,272
60,174	-0,804	-0,464	-0,231
61,188	-43,483	-0,242	-0,086
62,203	517,080	-0,248	-0,411
63,217	-0,435	-0,334	-0,167
64,232	-24,396	-0,340	-0,142
65,247	11,638	-0,380	-0,205
66,261	-134,783	-0,357	-0,030
67,276	70,386	-0,307	-0,224
68,290	126,566	-0,290	-0,258
69,305	-20,855	-0,257	-0,110
70,320	6,172	-0,311	-0,162
71,334	-57,582	-0,317	-0,097
72,349	-78,154	-0,323	-0,078
73,363	421,312	-0,154	-0,234
74,378	24,052	-0,367	-0,213
75,393	-47,775	-0,381	-0,129
76,407	-8,472	-0,354	-0,167
77,422	-26,799	-0,276	-0,113
78,436	126,469	-0,205	-0,183
79,451	98,191	-0,308	-0,250
80,466	17,617	-0,293	-0,163
81,480	2,264	-0,356	-0,181
82,495	92,284	-0,267	-0,212
83,509	78,743	-0,350	-0,263
84,524	-82,002	-0,221	-0,050
85,539	-69,219	-0,287	-0,077
86,553	66,038	-0,278	-0,198
87,568	68,116	-0,384	-0,276
88,582	78,027	-0,254	-0,190
89,597	32,938	-0,295	-0,180
90,611	-27,238	-0,175	-0,072
91,626	-26,966	-0,232	-0,095
92,641	-77,300	-0,326	-0,079
93,655	-46,142	-0,279	-0,096
94,670	-12,507	-0,257	-0,117
95,684	226,990	-0,219	-0,251
96,699	-17,561	-0,337	-0,148
97,714	-59,513	-0,328	-0,098
98,728	-74,555	-0,242	-0,061
99,743	17,078	-0,298	-0,165
100,757	89,827	-0,343	-0,269
101,772	-43,129	-0,306	-0,108
102,787	3,443	-0,352	-0,180
103,801	-60,472	-0,281	-0,083
104,816	-40,815	-0,367	-0,133
105,830	37,201	-0,287	-0,178
106,845	289,114	-0,209	-0,267
107,860	98,494	-0,334	-0,270
108,874	111,564	-0,316	-0,267
109,889	3,049	-0,262	-0,133
110,903	52,800	-0,288	-0,193
111,918	45,196	-0,340	-0,219
112,933	21,767	-0,191	-0,109
113,947	-56,180	-0,312	-0,097
114,962	285,467	-0,165	-0,209
115,976	162,113	-0,197	-0,194
116,991	-0,113	-0,322	-0,161
118,006	124,584	-0,219	-0,193
119,020	119,417	-0,311	-0,270
120,035	7,266	-0,220	-0,115
121,049	258,094	-0,143	-0,173
122,064	131,626	-0,336	-0,303
123,079	132,419	-0,158	-0,143
124,093	73,716	-0,338	-0,248
125,108	305,037	-0,256	-0,334
126,122	160,573	-0,271	-0,265
127,137	96,337	-0,152	-0,122
128,151	92,203	-0,131	-0,103
129,166	-79,682	-0,293	-0,069
130,181	289,414	-0,206	-0,262
131,195	800,000	-0,115	-0,282
132,210	64,972	-0,354	-0,250
133,224	237,320	-0,127	-0,147
134,239	142,290	-0,280	-0,261
135,254	83,296	-0,178	-0,135
136,268	-102,131	-0,252	-0,042
137,283	-126,757	-0,287	-0,029
138,297	101,538	-0,256	-0,209
139,312	116,775	-0,169	-0,145
140,327	64,667	-0,345	-0,243
141,341	473,406	-0,105	-0,166
142,356	33,557	-0,158	-0,096
143,370	-28,822	-0,400	-0,160
144,385	-30,772	-0,280	-0,110
145,400	21,593	-0,269	-0,153
146,414	-44,763	-0,286	-0,099
147,429	119,898	-0,322	-0,280
148,443	270,864	-0,187	-0,230
149,458	477,405	-0,106	-0,168
150,473	46,941	-0,255	-0,166
151,487	27,778	-0,236	-0,139
152,502	461,620	-0,209	-0,327
153,516	8,924	-0,226	-0,119
154,531	297,959	-0,203	-0,262
155,546	345,789	-0,196	-0,271
156,560	106,418	-0,224	-0,186
157,575	-84,175	-0,213	-0,047
158,589	-56,054	-0,213	-0,066
159,604	-112,630	-0,314	-0,043
160,619	-42,767	-0,269	-0,095
161,633	191,998	-0,131	-0,139
162,648	606,310	-0,152	-0,266
163,662	-130,730	-0,216	-0,020
164,677	-10,345	-0,133	-0,061
165,692	359,075	-0,139	-0,194
166,706	13,057	-0,261	-0,141
167,721	347,793	-0,104	-0,144
168,735	800,000	-0,169	-0,399
169,750	26,628	-0,348	-0,203
170,764	-5,517	-0,329	-0,157
171,779	-114,432	-0,264	-0,035
172,794	133,217	-0,296	-0,267
173,808	23,215	-0,157	-0,090
174,823	77,850	-0,279	-0,208
175,837	-14,038	-0,255	-0,114
176,852	298,794	-0,171	-0,220
177,867	221,515	-0,105	-0,118
178,881	-78,960	-0,244	-0,058
179,896	118,480	-0,266	-0,229
180,910	110,420	-0,247	-0,207
181,925	-0,004	-0,186	-0,092
182,940	175,397	-0,128	-0,129
183,954	238,114	-0,231	-0,268
184,969	800,000	-0,031	0,078
185,983	45,097	-0,207	-0,133
186,998	-146,651	-0,232	-0,014
188,013	184,051	-0,163	-0,169
189,027	203,299	-0,209	-0,225
190,042	75,181	-0,301	-0,221
191,056	203,758	-0,216	-0,233
192,071	-19,885	-0,081	-0,035
193,086	162,155	-0,259	-0,253
194,100	192,224	-0,144	-0,151
195,115	28,936	-0,213	-0,125
196,129	-77,567	-0,311	-0,075
197,144	65,266	-0,251	-0,177
198,159	99,638	-0,161	-0,130
199,173	-78,799	-0,326	-0,077
200,188	42,977	-0,117	-0,074
201,202	53,211	-0,204	-0,136
202,217	161,384	-0,207	-0,202
203,232	157,906	-0,283	-0,274
204,246	243,757	-0,160	-0,188
205,261	27,735	-0,147	-0,086
206,275	25,709	-0,325	-0,188
207,290	-162,760	-0,175	-0,006
208,304	-26,128	-0,127	-0,052
209,319	179,781	-0,049	0,050
210,334	-66,805	-0,263	-0,072
211,348	67,965	-0,297	-0,211
212,363	14,222	-0,234	-0,126
213,377	265,178	-0,128	-0,155
214,392	73,211	-0,241	-0,175
215,407	-52,028	-0,192	-0,062
216,421	9,722	-0,227	-0,120
217,436	86,312	-0,314	-0,240
218,450	244,455	-0,268	-0,314
219,465	-5,200	-0,233	-0,111
220,480	-92,632	-0,245	-0,047
221,494	130,156	-0,185	-0,165
222,509	39,272	-0,247	-0,153
223,523	50,893	-0,174	-0,115
224,538	-15,518	-0,196	-0,087
225,553	54,760	-0,208	-0,139
226,567	139,884	-0,245	-0,225
227,582	119,416	-0,148	-0,127
228,596	726,334	-0,094	-0,176
229,611	-91,221	-0,144	-0,028
230,626	-200,000	-0,002	-0,112
231,640	-200,000	0,002	-0,206
232,655	-54,280	-0,228	-0,071
233,669	241,189	-0,189	-0,219
234,684	71,341	-0,234	-0,168
235,699	-70,573	-0,180	-0,047
236,713	55,220	-0,070	-0,047
237,728	26,454	-0,149	-0,086
238,742	317,428	-0,168	-0,221
239,757	-48,382	-0,335	-0,111
240,772	58,512	-0,270	-0,184
241,786	4,829	-0,234	-0,119
242,801	50,317	-0,229	-0,150
243,815	51,044	-0,079	0,052
244,830	-124,757	-0,224	-0,024
245,844	-76,945	-0,270	-0,065
246,859	125,397	-0,165	-0,144
247,874	356,832	-0,229	-0,317
248,888	75,038	-0,216	-0,158
249,903	50,181	-0,145	-0,095
250,917	161,741	-0,036	-0,035
251,932	-200,000	-0,034	-0,142
252,947	322,918	-0,135	-0,178
253,961	106,918	-0,261	-0,215
254,976	-17,082	-0,209	-0,091
255,990	129,528	-0,182	-0,161
257,005	-200,000	-0,059	-0,188
258,020	145,777	-0,121	-0,112
259,034	-74,033	-0,163	-0,041
260,049	451,340	-0,143	-0,220
261,063	-44,431	-0,029	0,010
262,078	-105,248	-0,282	-0,044
263,093	-200,000	-0,018	-0,183
264,107	182,473	-0,177	-0,180
265,122	105,830	-0,209	-0,171
266,136	170,596	-0,092	-0,091
267,151	74,127	-0,186	-0,135
268,166	71,031	-0,165	-0,118
269,180	91,814	-0,199	-0,155
270,195	187,703	-0,151	-0,156
271,209	262,818	-0,187	-0,225
272,224	99,935	-0,061	-0,049
273,239	-152,279	-0,119	-0,006
274,253	103,970	-0,125	-0,101
275,268	287,681	-0,151	-0,189
276,282	-54,797	-0,218	-0,068
277,297	-139,437	-0,064	-0,005
278,312	-65,239	-0,195	-0,054
279,326	22,690	-0,077	-0,044
280,341	-53,669	-0,146	-0,046
281,355	216,907	-0,165	-0,181
282,370	-42,356	-0,268	-0,094
283,384	209,091	-0,117	-0,127
284,399	63,399	-0,192	-0,133
285,414	22,401	-0,267	-0,151
286,428	25,154	-0,090	-0,051
287,443	-200,000	-0,058	-0,218
288,457	-134,081	-0,162	0,014
289,472	682,369	-0,175	-0,317
290,487	28,341	-0,268	-0,156
291,501	432,066	-0,151	-0,227
292,516	-18,382	-0,142	-0,061
293,530	29,243	-0,154	-0,090
294,545	138,631	-0,085	-0,077
295,560	191,201	-0,138	-0,144
296,574	92,356	-0,127	-0,099
297,589	-0,612	-0,245	-0,120
298,603	-112,733	-0,202	-0,027
299,618	343,210	-0,112	-0,152
300,633	-48,075	-0,143	-0,047
301,647	-200,000	-0,014	-0,078
302,662	667,555	0,032	-0,057
303,676	169,538	-0,144	-0,142
304,691	-174,333	-0,188	-0,004
305,706	132,697	-0,171	-0,152
306,720	302,343	-0,116	-0,149
307,735	800,000	-0,092	-0,198
308,749	15,202	-0,045	-0,024
309,764	55,057	-0,016	0,010
310,779	292,203	-0,095	-0,120
311,793	155,079	-0,110	-0,104
312,808	-77,927	-0,206	-0,049
313,822	55,723	-0,124	-0,083
314,837	141,015	-0,178	-0,162
315,852	280,390	-0,123	-0,152
316,866	-97,013	-0,161	-0,029
317,881	-13,990	-0,178	-0,079
318,895	-145,676	-0,068	-0,004
319,910	66,019	-0,243	-0,170
320,925	-60,865	-0,070	-0,020
321,939	136,012	-0,197	-0,177
322,954	199,644	-0,050	-0,053
323,968	-24,201	-0,121	-0,050
324,983	18,321	-0,164	-0,090
325,997	-17,025	-0,334	-0,145
327,012	-48,133	-0,139	-0,046
328,027	-36,199	-0,204	-0,076
329,041	313,709	-0,112	-0,146
330,056	414,351	0,005	-0,007
331,070	-143,009	-0,176	-0,012
332,085	-200,000	-0,135	-0,000
333,100	-61,901	-0,192	-0,055
334,114	156,286	-0,115	-0,109
335,129	30,731	-0,062	-0,036
336,143	43,667	-0,187	-0,118
337,158	94,332	-0,151	-0,118
338,173	-26,254	-0,143	-0,058
339,187	-200,000	-0,036	0,109
340,202	-200,000	-0,064	-0,197
341,216	2,264	-0,157	-0,078
342,231	259,659	-0,199	-0,237
343,246	-74,361	-0,127	-0,031
344,260	-95,844	-0,151	0,028
345,275	85,736	-0,131	0,099
346,289	424,853	-0,056	-0,083
347,304	-95,680	-0,121	0,022
348,319	-6,006	-0,108	-0,051
349,333	692,875	-0,053	-0,097
350,348	299,891	-0,135	-0,171
351,362	541,585	-0,149	-0,244
352,377	-102,858	0,021	-0,003
353,392	-200,000	-0,024	-0,132
354,406	-186,074	-0,155	-0,002
355,421	208,018	1313,367	1411,723
356,435	160,040	1473,959	1412,238
