DTS Sentinel unit serial number:	SN410029Multiplexer serial number:	ORYXHardware model number:	OX2-SRSoftware version number:	ORYX F/W v4,00 Oryx Data Collector v3.7.2.0data status	okinstallation	B3 Nyhavnadifferential loss correction	single-endedforward channel	channel 1reverse channel	N/Adate	2023/12/04time	09:22:30forward acquisition time	300,00reverse acquisition time	0,00gamma	499,1914k internal	0,3203k external	0,3203temperature offset calibration	1,0000default loss term (dB/km)	0,3820temperature slope calibration	1,0000multiplexer offset coefficient	1,0000multiplexer slope coefficient	1,0000fibre end	0,00T internal ref (°C)	13,12T ext. ref 1 (°C)	-1,23T ext. ref 2 (°C)	-1,26length (m)	temperature (°C)	Stokes	anti-Stokes-744,400	149,589	-0,263	-0,259
-743,385	800,000	0,110	0,304
-742,371	163,075	-0,199	-0,203
-741,356	800,000	0,098	0,312
-740,342	111,830	-0,174	-0,153
-739,327	800,000	-0,124	0,357
-738,312	238,288	-0,176	-0,213
-737,298	273,492	-0,229	0,295
-736,283	214,696	-0,259	-0,299
-735,269	-200,000	0,104	0,421
-734,254	253,109	-0,166	-0,206
-733,239	-92,040	-0,278	0,057
-732,225	800,000	-0,089	-0,245
-731,210	120,420	0,151	0,136
-730,196	452,128	-0,025	0,041
-729,181	-46,944	-0,138	-0,049
-728,167	26,975	0,078	-0,048
-727,152	89,838	0,162	-0,131
-726,137	153,402	-0,080	-0,080
-725,123	-147,917	-0,209	-0,012
-724,108	-200,000	-0,026	-0,173
-723,094	248,127	-0,066	0,081
-722,079	420,061	-0,074	0,116
-721,064	80,402	0,089	-0,069
-720,050	-56,567	-0,056	-0,018
-719,035	228,593	-0,064	-0,076
-718,021	-200,000	0,051	-0,172
-717,006	118,537	0,054	-0,048
-715,991	485,969	-0,030	0,049
-714,977	-200,000	-0,055	-0,230
-713,962	-200,000	-0,013	-0,104
-712,948	332,236	0,017	0,024
-711,933	800,000	-0,040	0,107
-710,918	187,433	0,023	0,024
-709,904	-200,000	-0,045	-0,156
-708,889	-118,024	-0,038	-0,005
-707,875	-200,000	0,023	-0,107
-706,860	800,000	0,023	-0,072
-705,845	800,000	0,041	0,123
-704,831	800,000	0,106	0,245
-703,816	-200,000	0,008	0,034
-702,802	800,000	0,079	-0,229
-701,787	283,964	-0,128	-0,167
-700,772	-200,000	0,039	-0,149
-699,758	-64,946	0,087	-0,025
-698,743	-200,000	-0,007	0,061
-697,729	72,393	-0,062	0,047
-696,714	81,103	-0,158	-0,124
-695,699	800,000	-0,053	-0,111
-694,685	-10,805	-0,058	0,028
-693,670	153,107	-0,072	-0,071
-692,656	-95,085	-0,129	0,025
-691,641	86,448	0,129	-0,103
-690,627	-92,237	0,083	0,017
-689,612	-63,510	0,026	0,008
-688,597	132,887	0,076	-0,071
-687,583	-167,216	-0,195	0,006
-686,568	49,741	-0,097	-0,066
-685,554	-200,000	0,011	0,104
-684,539	800,000	-0,032	-0,076
-683,524	-56,219	0,063	0,020
-682,510	-200,000	0,013	-0,093
-681,495	232,694	0,094	-0,112
-680,481	800,000	-0,061	-0,191
-679,466	-89,304	-0,178	-0,038
-678,451	533,548	-0,043	-0,075
-677,437	174,824	-0,054	-0,057
-676,422	798,146	-0,031	0,062
-675,408	576,106	-0,039	0,068
-674,393	282,266	0,018	-0,024
-673,378	-126,776	-0,047	-0,005
-672,364	724,617	-0,077	-0,150
-671,349	-200,000	0,029	-0,100
-670,335	800,000	-0,065	0,188
-669,320	26,475	0,056	-0,034
-668,305	800,000	0,046	-0,104
-667,291	-37,775	-0,074	-0,028
-666,276	-200,000	0,008	-0,077
-665,262	-200,000	0,025	-0,102
-664,247	-41,293	0,092	-0,034
-663,232	800,000	-0,014	-0,035
-662,218	-104,043	-0,061	-0,010
-661,203	-76,985	0,045	0,011
-660,189	800,000	0,040	0,107
-659,174	-200,000	-0,029	0,125
-658,159	800,000	-0,080	-0,186
-657,145	401,588	-0,108	0,164
-656,130	-86,484	0,180	-0,040
-655,116	-200,000	-0,010	0,143
-654,101	-63,847	-0,084	-0,025
-653,086	800,000	-0,017	-0,050
-652,072	800,000	-0,036	-0,077
-651,057	-23,001	-0,105	0,046
-650,043	222,661	-0,079	-0,092
-649,028	755,583	0,057	-0,113
-648,014	-200,000	0,015	-0,050
-646,999	-132,471	0,063	-0,006
-645,984	54,482	-0,046	-0,032
-644,970	-200,000	-0,015	-0,062
-643,955	-99,339	0,049	0,009
-642,941	59,456	-0,155	-0,111
-641,926	-142,730	-0,108	-0,007
-640,911	338,802	0,031	-0,044
-639,897	-153,037	0,102	-0,005
-638,882	-52,606	0,022	-0,007
-637,868	-25,305	-0,045	-0,019
-636,853	-89,219	-0,031	0,006
-635,838	332,036	0,036	0,051
-634,824	-61,546	-0,031	0,010
-633,809	164,178	0,055	-0,056
-632,795	-131,353	0,114	0,011
-631,780	800,000	-0,030	0,067
-630,765	-200,000	0,006	-0,033
-629,751	-200,000	-0,012	-0,083
-628,736	567,224	0,037	-0,064
-627,722	-200,000	-0,007	-0,092
-626,707	-200,000	0,010	0,058
-625,692	-200,000	-0,019	0,094
-624,678	-56,058	-0,174	0,056
-623,663	-200,000	-0,005	0,068
-622,649	172,286	0,087	-0,091
-621,634	-200,000	0,003	-0,083
-620,619	-100,074	-0,056	-0,010
-619,605	268,925	0,069	-0,087
-618,590	3,185	0,065	0,034
-617,576	800,000	-0,066	0,137
-616,561	-51,535	-0,099	0,033
-615,546	717,451	-0,034	0,066
-614,532	-153,338	-0,127	0,006
-613,517	-3,601	0,096	-0,048
-612,503	-200,000	0,010	0,033
-611,488	363,530	0,020	-0,030
-610,474	0,476	0,056	0,029
-609,459	-3,875	-0,101	0,051
-608,444	-83,597	-0,028	0,006
-607,430	-200,000	-0,015	-0,052
-606,415	-142,471	0,012	-0,001
-605,401	234,052	-0,095	-0,114
-604,386	800,000	-0,028	-0,067
-603,371	-87,385	0,094	0,020
-602,357	141,048	-0,026	-0,025
-601,342	-200,000	0,012	-0,117
-600,328	-200,000	0,014	0,066
-599,313	-6,723	-0,070	0,034
-598,298	-200,000	0,030	0,194
-597,284	-181,641	0,067	-0,001
-596,269	-107,455	0,050	0,008
-595,255	-90,156	-0,103	0,022
-594,240	-49,137	-0,121	0,042
-593,225	800,000	0,028	-0,058
-592,211	-84,311	0,141	-0,032
-591,196	800,000	0,025	0,075
-590,182	91,655	0,148	0,120
-589,167	86,356	0,050	0,040
-588,152	11,779	0,044	-0,024
-587,138	-92,646	0,082	0,016
-586,123	-148,211	-0,164	-0,010
-585,109	-142,256	-0,096	-0,007
-584,094	-66,745	0,066	-0,019
-583,079	760,301	0,078	-0,153
-582,065	47,067	-0,040	-0,027
-581,050	-129,819	-0,041	-0,004
-580,036	-46,981	-0,085	-0,030
-579,021	-200,000	-0,003	-0,037
-578,006	50,721	-0,105	-0,072
-576,992	65,268	-0,060	0,044
-575,977	-53,512	-0,047	0,016
-574,963	51,166	-0,102	-0,070
-573,948	428,051	0,049	0,076
-572,934	-200,000	0,019	0,156
-571,919	-200,000	0,002	0,012
-570,904	-94,343	-0,118	-0,023
-569,890	99,327	0,056	-0,047
-568,875	-98,519	0,123	0,023
-567,861	-200,000	-0,010	0,067
-566,846	-200,000	0,001	0,116
-565,831	49,161	0,058	-0,039
-564,817	350,468	-0,003	0,004
-563,802	-48,048	0,042	0,014
-562,788	-200,000	-0,005	-0,017
-561,773	150,876	0,033	-0,032
-560,758	748,208	0,055	0,108
-559,744	151,853	0,079	0,077
-558,729	-134,502	-0,078	0,007
-557,715	-137,128	-0,093	-0,008
-556,700	-200,000	-0,015	0,072
-555,685	-40,440	0,037	0,014
-554,671	301,419	0,049	0,065
-553,656	-166,890	0,030	-0,001
-552,642	-91,218	-0,102	-0,021
-551,627	800,000	-0,047	0,102
-550,612	-125,623	-0,090	0,010
-549,598	191,193	0,042	-0,045
-548,583	103,087	-0,037	0,031
-547,569	-114,581	0,068	0,009
-546,554	20,772	-0,065	0,038
-545,539	791,336	-0,016	0,031
-544,525	800,000	0,059	0,125
-543,510	-200,000	0,001	0,085
-542,496	-51,811	0,056	0,019
-541,481	-67,018	-0,043	-0,012
-540,466	800,000	-0,033	-0,079
-539,452	20,269	0,070	0,041
-538,437	539,853	-0,026	0,045
-537,423	613,104	-0,029	0,053
-536,408	177,153	-0,095	-0,100
-535,393	314,910	-0,041	-0,055
-534,379	-200,000	0,015	-0,067
-533,364	-200,000	-0,001	0,042
-532,350	585,566	0,035	-0,062
-531,335	-200,000	-0,004	0,027
-530,321	26,149	0,126	-0,076
-529,306	-1,141	0,080	0,041
-528,291	134,765	-0,116	-0,108
-527,277	-200,000	-0,011	-0,109
-526,262	165,335	-0,092	-0,094
-525,248	-200,000	0,000	0,022
-524,233	496,966	-0,054	-0,090
-523,218	-200,000	0,024	-0,119
-522,204	800,000	0,031	-0,069
-521,189	800,000	-0,024	0,059
-520,175	224,447	0,031	-0,037
-519,160	-155,679	-0,022	0,001
-518,145	55,383	0,039	0,027
-517,131	-118,576	-0,074	0,009
-516,116	-76,937	-0,051	-0,013
-515,102	109,222	-0,087	0,075
-514,087	-70,539	-0,072	0,020
-513,072	292,385	0,065	-0,085
-512,058	800,000	0,037	-0,088
-511,043	517,736	-0,024	-0,041
-510,029	104,696	-0,063	-0,054
-509,014	-171,592	0,167	0,004
-507,999	800,000	0,035	-0,070
-506,985	-200,000	0,021	0,075
-505,970	-61,251	-0,169	-0,051
-504,956	-71,078	0,058	-0,016
-503,941	247,303	0,035	0,043
-502,926	-200,000	-0,028	0,238
-501,912	14,564	0,084	0,047
-500,897	-23,658	-0,010	-0,004
-499,883	-200,000	0,021	-0,069
-498,868	179,260	-0,046	-0,049
-497,853	-200,000	0,005	0,132
-496,839	-122,076	-0,092	-0,011
-495,824	669,060	0,021	-0,038
-494,810	584,530	0,069	0,123
-493,795	-200,000	0,010	0,039
-492,781	-43,915	-0,061	-0,022
-491,766	-143,482	-0,092	-0,006
-490,751	142,320	0,084	-0,080
-489,737	-200,000	-0,013	-0,052
-488,722	-80,479	0,105	0,025
-487,708	16,574	0,099	0,056
-486,693	-200,000	-0,010	0,037
-485,678	-14,252	0,067	0,031
-484,664	-159,143	-0,116	-0,005
-483,649	170,552	-0,071	0,073
-482,635	-65,028	0,100	-0,029
-481,620	105,675	-0,086	-0,073
-480,605	-67,695	0,150	-0,042
-479,591	800,000	0,067	0,156
-478,576	800,000	-0,025	-0,057
-477,562	-175,679	-0,174	0,003
-476,547	360,423	-0,009	0,014
-475,532	-189,653	0,073	-0,001
-474,518	176,455	0,074	-0,077
-473,503	-200,000	0,009	0,078
-472,489	74,466	0,046	0,034
-471,474	127,214	0,064	0,058
-470,459	234,654	-0,060	0,071
-469,445	38,333	0,063	-0,040
-468,430	-200,000	-0,008	-0,117
-467,416	-80,759	0,054	0,013
-466,401	4,774	-0,064	0,033
-465,386	-68,798	-0,077	0,021
-464,372	-57,877	0,073	-0,023
-463,357	205,793	0,051	-0,057
-462,343	800,000	0,042	0,085
-461,328	405,595	0,102	-0,155
-460,313	-200,000	0,004	-0,116
-459,299	800,000	-0,060	0,121
-458,284	-99,066	-0,026	-0,005
-457,270	-200,000	0,010	0,182
-456,255	199,668	-0,079	-0,087
-455,241	-200,000	0,015	-0,088
-454,226	-200,000	0,011	0,079
-453,211	92,377	0,036	-0,029
-452,197	-200,000	0,012	0,066
-451,182	542,423	-0,067	0,116
-450,168	-24,538	0,040	-0,017
-449,153	-151,077	0,121	0,006
-448,138	-43,217	-0,153	-0,055
-447,124	68,256	-0,064	-0,047
-446,109	90,990	-0,119	-0,095
-445,095	-9,309	0,064	0,031
-444,080	-200,000	0,010	-0,065
-443,065	-113,315	-0,010	0,001
-442,051	-200,000	0,015	-0,064
-441,036	-30,571	-0,128	-0,052
-440,022	327,218	-0,051	-0,071
-439,007	172,193	0,021	0,022
-437,992	-200,000	0,012	0,098
-436,978	547,762	-0,082	0,141
-435,963	260,852	-0,069	0,086
-434,949	-49,579	-0,061	-0,021
-433,934	80,704	0,026	0,020
-432,919	-200,000	0,007	-0,081
-431,905	32,535	0,146	0,090
-430,890	800,000	0,049	0,116
-429,876	-170,747	0,072	0,002
-428,861	-200,000	0,008	-0,040
-427,846	443,627	-0,032	-0,050
-426,832	-45,067	0,056	0,020
-425,817	46,201	-0,093	0,062
-424,803	-173,410	0,160	-0,003
-423,788	800,000	-0,018	-0,041
-422,773	95,439	0,061	-0,050
-421,759	-67,610	0,037	-0,010
-420,744	-200,000	0,003	-0,114
-419,730	131,428	-0,117	-0,108
-418,715	-200,000	-0,014	-0,144
-417,701	-200,000	0,005	-0,115
-416,686	35,144	0,137	-0,086
-415,671	800,000	0,046	-0,115
-414,657	143,176	0,052	0,049
-413,642	441,166	-0,086	-0,135
-412,628	84,411	0,056	-0,044
-411,613	-200,000	0,001	-0,045
-410,598	-200,000	0,023	0,094
-409,584	-16,311	0,097	-0,044
-408,569	-200,000	-0,028	0,129
-407,555	-200,000	0,045	0,158
-406,540	-200,000	0,000	-0,067
-405,525	800,000	0,028	0,079
-404,511	30,240	-0,131	-0,080
-403,496	800,000	0,014	0,038
-402,482	-92,410	0,106	-0,021
-401,467	363,635	0,084	0,121
-400,452	-57,109	0,130	-0,041
-399,438	19,033	-0,037	0,021
-398,423	-200,000	-0,011	-0,058
-397,409	-124,996	-0,106	-0,012
-396,394	-51,246	-0,163	-0,054
-395,379	800,000	0,066	0,133
-394,365	79,078	0,018	0,014
-393,350	-130,905	-0,075	0,007
-392,336	197,046	-0,055	-0,060
-391,321	-200,000	-0,000	-0,094
-390,306	536,209	-0,019	-0,033
-389,292	-99,017	-0,127	-0,023
-388,277	800,000	-0,019	-0,052
-387,263	-200,000	0,011	0,142
-386,248	-38,597	-0,135	-0,051
-385,233	-68,924	0,083	-0,023
-384,219	-200,000	-0,002	-0,023
-383,204	800,000	-0,070	-0,148
-382,190	-170,660	-0,118	0,003
-381,175	136,344	0,022	-0,021
-380,160	-128,496	0,086	0,009
-379,146	-200,000	0,001	-0,073
-378,131	800,000	-0,023	0,066
-377,117	-70,248	0,092	0,025
-376,102	800,000	-0,008	0,025
-375,088	164,442	0,026	0,026
-374,073	73,366	0,123	0,092
-373,058	22,515	0,084	0,049
-372,044	-190,935	0,080	-0,001
-371,029	546,860	-0,016	-0,027
-370,015	-200,000	0,014	0,091
-369,000	-200,000	-0,001	0,008
-367,985	800,000	0,033	-0,088
-366,971	-200,000	0,012	-0,065
-365,956	142,697	-0,087	0,082
-364,942	-200,000	0,006	0,072
-363,927	-200,000	-0,055	0,198
-362,912	-66,307	-0,049	-0,014
-361,898	-110,651	-0,119	-0,017
-360,883	800,000	-0,058	-0,140
-359,869	533,057	-0,081	-0,139
-358,854	752,760	0,004	-0,007
-357,839	283,942	-0,015	0,020
-356,825	-142,803	0,082	0,006
-355,810	96,968	0,065	-0,053
-354,796	-200,000	0,003	0,052
-353,781	-200,000	0,023	0,195
-352,766	211,384	-0,005	0,006
-351,752	-20,150	-0,093	0,041
-350,737	-170,523	0,097	-0,002
-349,723	-50,755	-0,076	-0,025
-348,708	-37,449	0,067	0,025
-347,693	800,000	-0,082	0,189
-346,679	159,621	0,054	-0,054
-345,664	-30,488	0,084	0,034
-344,650	-20,005	0,090	0,040
-343,635	-148,091	0,036	-0,002
-342,620	-200,000	-0,010	0,136
-341,606	800,000	-0,024	-0,069
-340,591	-141,466	-0,174	-0,012
-339,577	-104,691	0,074	-0,012
-338,562	-200,000	0,002	-0,040
-337,548	-12,518	-0,065	0,030
-336,533	118,083	-0,041	-0,036
-335,518	-24,185	0,056	-0,024
-334,504	-90,127	0,176	0,036
-333,489	155,160	-0,081	0,079
-332,475	-200,000	0,018	-0,074
-331,460	-200,000	-0,031	-0,221
-330,445	99,064	-0,045	0,037
-329,431	-200,000	-0,011	0,071
-328,416	456,817	0,059	-0,094
-327,402	-200,000	0,004	-0,031
-326,387	348,147	0,077	-0,108
-325,372	800,000	0,019	-0,046
-324,358	-135,591	-0,175	0,015
-323,343	-200,000	-0,008	-0,034
-322,329	-106,433	-0,076	0,012
-321,314	-106,991	0,093	0,015
-320,299	26,347	-0,028	-0,017
-319,285	168,105	-0,015	0,015
-318,270	72,125	-0,104	-0,077
-317,256	-200,000	0,008	0,026
-316,241	533,982	-0,074	-0,125
-315,226	-1,442	-0,079	-0,040
-314,212	-200,000	0,023	-0,072
-313,197	216,345	0,038	0,043
-312,183	-113,471	0,144	0,020
-311,168	-200,000	0,003	-0,142
-310,153	-200,000	0,005	-0,055
-309,139	800,000	-0,060	-0,131
-308,124	-103,185	0,085	0,014
-307,110	138,690	0,066	0,062
-306,095	800,000	0,028	0,083
-305,080	-154,323	-0,072	0,003
-304,066	-168,462	-0,149	-0,004
-303,051	64,225	-0,125	0,090
-302,037	27,585	-0,050	0,030
-301,022	-123,850	0,143	0,016
-300,008	198,505	-0,043	0,047
-298,993	-42,827	-0,061	0,022
-297,978	-166,775	0,052	-0,002
-296,964	78,583	-0,039	-0,030
-295,949	-200,000	0,006	0,062
-294,935	-19,088	-0,121	-0,054
-293,920	58,769	-0,086	0,061
-292,905	800,000	0,007	-0,022
-291,891	116,610	0,049	-0,043
-290,876	-200,000	0,011	0,085
-289,862	235,960	0,026	0,031
-288,847	-73,150	-0,183	-0,048
-287,832	-18,705	-0,107	-0,048
-286,818	-70,011	-0,174	0,047
-285,803	-200,000	0,024	0,081
-284,789	-79,969	0,092	-0,022
-283,774	800,000	0,036	0,091
-282,759	646,402	0,059	-0,107
-281,745	185,933	0,025	0,027
-280,730	-200,000	-0,007	0,077
-279,716	105,758	-0,061	0,052
-278,701	-145,652	0,046	0,003
-277,686	-1,401	0,093	-0,047
-276,672	-93,320	-0,151	-0,030
-275,657	-76,250	0,058	-0,014
-274,643	76,265	0,066	0,050
-273,628	-200,000	-0,008	0,052
-272,613	167,419	-0,070	0,071
-271,599	800,000	0,068	0,147
-270,584	-2,248	-0,064	-0,032
-269,570	-200,000	0,012	0,067
-268,555	800,000	0,021	0,060
-267,540	-50,064	-0,119	-0,040
-266,526	578,476	0,049	-0,085
-265,511	-200,000	0,013	-0,067
-264,497	800,000	-0,044	0,126
-263,482	31,903	0,132	0,081
-262,467	370,600	0,052	-0,076
-261,453	171,147	-0,038	-0,039
-260,438	66,406	0,083	-0,060
-259,424	-80,267	-0,111	-0,026
-258,409	440,866	-0,071	0,112
-257,395	222,213	0,033	0,038
-256,380	-121,781	0,091	0,011
-255,365	21,855	-0,077	-0,044
-254,351	219,487	0,086	0,098
-253,336	-19,978	0,035	-0,016
-252,322	319,369	0,055	0,074
-251,307	-200,000	-0,020	-0,183
-250,292	463,929	0,064	-0,103
-249,278	10,664	0,081	-0,044
-248,263	645,049	0,022	0,040
-247,249	-200,000	-0,003	-0,153
-246,234	-71,558	0,093	0,025
-245,219	-16,363	-0,102	0,046
-244,205	-75,847	0,070	-0,018
-243,190	141,930	-0,084	-0,080
-242,176	-200,000	0,018	-0,076
-241,161	22,424	0,111	0,064
-240,146	94,019	0,087	0,070
-239,132	-108,534	-0,145	0,022
-238,117	509,339	-0,077	-0,127
-237,103	491,479	0,049	0,079
-236,088	604,312	0,034	-0,060
-235,073	754,445	0,033	0,064
-234,059	53,424	-0,150	0,102
-233,044	701,757	0,076	0,143
-232,030	216,858	0,049	0,056
-231,015	-200,000	0,033	0,130
-230,000	-75,636	-0,103	-0,026
-228,986	-142,635	0,075	-0,005
-227,971	188,234	0,106	0,113
-226,957	-39,382	-0,096	-0,036
-225,942	209,570	0,067	-0,075
-224,927	-200,000	-0,006	-0,111
-223,913	-200,000	-0,007	-0,027
-222,898	47,348	-0,067	0,045
-221,884	-200,000	0,001	-0,058
-220,869	192,633	0,081	-0,087
-219,855	206,317	-0,041	-0,045
-218,840	-16,212	0,067	0,030
-217,825	-200,000	0,013	0,082
-216,811	-67,306	0,031	-0,009
-215,796	29,357	-0,066	-0,040
-214,782	-78,606	0,146	-0,035
-213,767	-200,000	0,012	0,127
-212,752	185,719	-0,037	-0,039
-211,738	-90,378	0,031	0,006
-210,723	139,322	0,031	0,029
-209,709	-200,000	0,001	-0,060
-208,694	-181,566	-0,153	0,002
-207,679	-200,000	0,010	-0,036
-206,665	-200,000	0,001	0,086
-205,650	-200,000	-0,044	0,169
-204,636	308,620	0,016	0,022
-203,621	179,761	0,034	0,035
-202,606	15,596	-0,059	-0,033
-201,592	10,552	-0,050	0,027
-200,577	-105,794	-0,094	0,015
-199,563	375,208	0,055	0,079
-198,548	-70,438	0,036	0,010
-197,533	-200,000	0,019	0,074
-196,519	512,524	0,082	0,136
-195,504	-131,352	0,094	0,009
-194,490	-34,578	-0,119	-0,046
-193,475	-145,522	-0,132	0,008
-192,460	-200,000	-0,012	0,181
-191,446	-200,000	0,005	-0,050
-190,431	-110,020	0,032	-0,005
-189,417	-102,046	0,060	0,010
-188,402	-29,449	-0,169	-0,068
-187,387	-49,653	0,038	-0,013
-186,373	-117,157	-0,244	0,031
-185,358	-200,000	-0,020	-0,072
-184,344	45,790	-0,017	0,011
-183,329	49,441	0,122	0,081
-182,315	800,000	0,029	0,058
-181,300	628,820	0,075	-0,135
-180,285	-107,650	0,004	0,001
-179,271	104,133	-0,091	-0,076
-178,256	-66,266	-0,157	0,044
-177,242	-200,000	0,027	-0,139
-176,227	22,381	0,034	-0,019
-175,212	-59,618	0,118	0,036
-174,198	-57,293	-0,015	0,005
-173,183	340,118	-0,030	-0,042
-172,169	152,829	0,118	-0,115
-171,154	-35,506	-0,057	0,022
-170,139	-97,665	0,186	0,034
-169,125	100,609	0,023	0,019
-168,110	-87,285	0,147	0,032
-167,096	138,687	-0,063	0,058
-166,081	-200,000	-0,010	-0,152
-165,066	-200,000	0,006	-0,035
-164,052	48,993	-0,094	-0,063
-163,037	108,596	0,108	0,092
-162,023	169,631	0,071	-0,072
-161,008	-126,224	0,121	-0,013
-159,993	-78,879	-0,072	0,017
-158,979	-200,000	-0,011	-0,056
-157,964	-200,000	-0,005	0,104
-156,950	98,003	0,023	0,019
-155,935	-200,000	-0,031	-0,123
-154,920	-80,611	0,119	0,028
-153,906	10,798	0,021	-0,011
-152,891	-142,779	0,125	0,008
-151,877	-37,171	-0,232	0,088
-150,862	800,000	0,025	-0,058
-149,847	295,837	-0,045	-0,059
-148,833	-200,000	-0,011	-0,062
-147,818	-200,000	0,012	0,119
-146,804	-200,000	0,008	0,065
-145,789	-49,906	0,120	0,040
-144,775	-56,123	-0,060	-0,019
-143,760	800,000	-0,054	0,132
-142,745	-88,305	0,123	-0,026
-141,731	737,820	0,015	0,028
-140,716	-46,694	0,066	0,023
-139,702	105,530	-0,055	0,046
-138,687	800,000	-0,050	0,118
-137,672	394,735	-0,030	-0,045
-136,658	41,764	-0,073	-0,047
-135,643	-60,033	-0,024	-0,007
-134,629	49,350	0,051	0,034
-133,614	105,323	0,123	-0,103
-132,599	-200,000	-0,008	0,071
-131,585	-56,104	-0,057	0,018
-130,570	-200,000	0,008	-0,043
-129,556	-5,151	-0,014	0,007
-128,541	380,892	0,049	-0,072
-127,526	-180,673	-0,099	-0,001
-126,512	125,534	0,104	0,093
-125,497	260,392	0,132	-0,162
-124,483	465,351	0,022	0,035
-123,468	-200,000	-0,013	0,064
-122,453	-54,273	-0,056	0,018
-121,439	-200,000	0,013	0,074
-120,424	-200,000	0,003	0,020
-119,410	75,043	0,099	0,074
-118,395	-139,234	0,079	-0,006
-117,380	-106,881	0,107	0,017
-116,366	335,607	-0,055	0,076
-115,351	-79,144	-0,052	0,012
-114,337	21,179	-0,053	-0,030
-113,322	800,000	0,009	-0,019
-112,307	612,924	0,007	-0,012
-111,293	-52,028	-0,135	-0,044
-110,278	-147,448	0,125	0,007
-109,264	-200,000	-0,029	0,109
-108,249	129,703	0,024	-0,022
-107,234	-200,000	-0,001	-0,058
-106,220	17,425	-0,029	-0,016
-105,205	800,000	0,043	-0,108
-104,191	627,936	-0,056	0,101
-103,176	212,622	-0,021	-0,024
-102,162	75,925	-0,036	-0,027
-101,147	618,259	0,075	-0,134
-100,132	-200,000	0,040	-0,155
-99,118	-51,010	0,120	-0,040
-98,103	653,410	-0,050	-0,091
-97,089	800,000	0,008	-0,025
-96,074	559,822	-0,039	-0,067
-95,059	-200,000	-0,012	0,101
-94,045	-38,856	-0,113	0,042
-93,030	548,113	0,020	0,033
-92,016	236,450	0,058	-0,069
-91,001	427,894	-0,079	-0,122
-89,986	3,931	0,147	0,076
-88,972	800,000	0,022	0,059
-87,957	-200,000	-0,005	-0,027
-86,943	2,117	0,009	0,005
-85,928	-200,000	0,009	0,055
-84,913	77,740	-0,064	0,049
-83,899	-15,349	0,020	-0,009
-82,884	-200,000	-0,001	0,044
-81,870	613,920	0,028	-0,051
-80,855	-47,791	-0,043	0,015
-79,840	728,412	-0,016	-0,030
-78,826	-31,121	-0,065	-0,026
-77,811	800,000	-0,035	0,107
-76,797	37,861	-0,047	0,029
-75,782	-150,776	0,103	0,005
-74,767	-200,000	0,018	0,062
-73,753	497,711	0,076	0,125
-72,738	-57,819	-0,065	0,020
-71,724	-168,259	0,010	0,000
-70,709	444,965	0,039	0,060
-69,694	-91,956	0,143	-0,028
-68,680	800,000	-0,027	0,058
-67,665	-96,489	-0,102	-0,019
-66,651	-48,477	0,042	-0,014
-65,636	-200,000	0,000	0,140
-64,622	-200,000	-0,013	-0,085
-63,607	7,278	-0,126	-0,066
-62,592	-52,024	0,020	-0,007
-61,578	275,638	-0,103	-0,130
-60,563	-9,495	0,114	0,054
-59,549	-200,000	0,012	-0,068
-58,534	-0,824	-1,513	-0,756
-57,519	526,055	-1,299	-2,173
-56,505	-200,000	-0,481	-4,496
-55,490	273,326	1,035	1,296
-54,476	800,000	4,832	10,991
-53,461	-200,000	19,168	320,639
-52,446	-200,000	742,005	2332,594
-51,432	572,187	1655,589	2865,044
-50,417	77,992	1670,465	1259,091
-49,403	21,154	1543,731	884,171
-48,388	15,018	1466,386	810,048
-47,373	17,925	1456,471	818,579
-46,359	16,601	1446,124	806,388
-45,344	13,240	1441,860	787,887
-44,330	13,158	1439,941	786,414
-43,315	13,185	1438,152	785,533
-42,300	13,174	1436,396	784,492
-41,286	13,213	1435,094	783,934
-40,271	13,153	1433,962	782,998
-39,257	13,158	1432,598	782,248
-38,242	13,195	1431,365	781,719
-37,227	13,212	1430,181	781,125
-36,213	13,218	1428,985	780,467
-35,198	13,209	1427,563	779,615
-34,184	13,230	1426,735	779,232
-33,169	13,132	1425,704	778,176
-32,154	13,277	1424,178	777,998
-31,140	13,241	1423,024	777,165
-30,125	13,260	1422,065	776,703
-29,111	13,224	1420,876	775,852
-28,096	13,222	1419,743	775,193
-27,082	13,156	1418,606	774,228
-26,067	13,177	1417,496	773,693
-25,052	13,143	1416,187	772,784
-24,038	13,133	1415,394	772,277
-23,023	13,094	1414,539	771,594
-22,009	13,114	1413,358	771,012
-20,994	13,123	1412,465	770,537
-19,979	13,141	1411,578	770,108
-18,965	13,099	1410,705	769,405
-17,950	13,082	1409,671	768,730
-16,936	13,121	1408,600	768,297
-15,921	13,070	1407,739	767,561
-14,906	13,056	1406,776	766,939
-13,892	13,030	1406,014	766,374
-12,877	13,067	1405,085	766,007
-11,863	13,097	1404,115	765,591
-10,848	13,036	1403,259	764,810
-9,833	13,053	1402,336	764,352
-8,819	13,004	1401,503	763,639
-7,804	12,960	1400,707	762,971
-6,790	12,992	1399,623	762,500
-5,775	12,972	1398,585	761,812
-4,760	12,958	1397,670	761,217
-3,746	12,929	1396,648	760,497
-2,731	12,950	1395,825	760,117
-1,717	12,961	1394,879	759,623
-0,702	12,911	1393,283	758,492
0,313	16,859	1309,545	731,147
1,327	33,275	702,731	430,211
2,342	51,644	123,031	82,582
3,356	3,952	16,715	8,611
4,371	-2,032	3,216	1,592
5,386	18,234	0,600	0,337
6,400	-200,000	-0,044	0,291
7,415	81,785	-0,290	-0,222
8,429	674,800	-0,150	-0,277
9,444	104,486	-0,284	-0,236
10,459	29,063	-0,389	-0,233
11,473	800,000	-0,028	-0,070
12,488	41,331	-0,246	-0,157
13,502	209,635	-0,229	-0,254
14,517	5,269	-0,199	-0,103
15,531	37,442	-0,421	-0,263
16,546	4,300	-0,327	-0,169
17,561	183,277	-0,292	-0,305
18,575	-50,418	-0,142	-0,047
19,590	15,476	-0,272	-0,150
20,604	112,397	-0,226	-0,193
21,619	-9,339	-0,414	-0,194
22,634	48,714	-0,383	-0,253
23,648	149,732	-0,347	-0,332
24,663	117,575	-0,372	-0,323
25,677	95,201	-0,279	-0,224
26,692	21,933	-0,334	-0,191
27,707	24,336	-0,294	-0,171
28,721	-12,104	-0,352	-0,162
29,736	87,672	-0,528	-0,412
30,750	155,834	-0,384	-0,373
31,765	219,858	-0,356	-0,403
32,780	137,898	-0,333	-0,308
33,794	141,000	-0,439	-0,410
34,809	15,821	-0,312	-0,173
35,823	-7,672	-0,430	-0,204
36,838	-35,224	-0,310	-0,118
37,853	199,395	-0,311	-0,337
38,867	86,760	-0,311	-0,242
39,882	76,604	-0,243	-0,181
40,896	-39,890	-0,395	-0,145
41,911	150,317	-0,326	-0,312
42,926	24,792	-0,369	-0,215
43,940	134,769	-0,371	-0,339
44,955	131,269	-0,338	-0,306
45,969	106,174	-0,339	-0,283
46,984	54,524	-0,285	-0,193
47,999	45,721	-0,261	-0,170
49,013	-64,027	-0,390	-0,111
50,028	-34,828	-0,328	-0,126
51,042	21,255	-0,242	-0,138
52,057	54,163	-0,423	-0,286
53,071	42,909	-0,334	-0,214
54,086	52,495	-0,468	-0,314
55,101	36,691	-0,323	-0,200
56,115	43,202	-0,308	-0,197
57,130	224,180	-0,262	-0,298
58,144	165,085	-0,365	-0,363
59,159	102,563	-0,331	-0,272
60,174	21,465	-0,386	-0,220
61,188	-12,136	-0,362	-0,166
62,203	-7,673	-0,266	-0,126
63,217	43,497	-0,272	-0,175
64,232	149,103	-0,240	-0,229
65,247	37,845	-0,412	-0,257
66,261	-14,806	-0,456	-0,205
67,276	195,440	-0,329	-0,352
68,290	-36,378	-0,333	-0,125
69,305	12,503	-0,345	-0,186
70,320	97,251	-0,331	-0,267
71,334	-70,584	-0,279	-0,074
72,349	28,278	-0,407	-0,241
73,363	17,831	-0,285	-0,159
74,378	-34,420	-0,328	-0,126
75,393	-23,451	-0,297	-0,125
76,407	-48,410	-0,403	-0,136
77,422	-1,473	-0,368	-0,182
78,436	155,390	-0,225	-0,218
79,451	102,992	-0,288	-0,237
80,466	65,605	-0,327	-0,232
81,480	-69,354	-0,495	-0,132
82,495	107,216	-0,313	-0,261
83,509	63,542	-0,296	-0,208
84,524	-114,668	-0,389	-0,052
85,539	-12,010	-0,213	-0,098
86,553	-16,544	-0,334	-0,148
87,568	4,096	-0,347	-0,178
88,582	62,966	-0,297	-0,209
89,597	41,362	-0,290	-0,184
90,611	175,958	-0,195	-0,199
91,626	-23,114	-0,256	-0,108
92,641	84,751	-0,246	-0,189
93,655	-197,789	-0,287	-0,001
94,670	-4,304	-0,326	-0,158
95,684	107,818	-0,237	-0,198
96,699	11,836	-0,169	-0,091
97,714	79,386	-0,299	-0,225
98,728	-31,317	-0,332	-0,131
99,743	290,815	-0,164	-0,209
100,757	7,478	-0,284	-0,148
101,772	-9,102	-0,352	-0,164
102,787	-41,171	-0,346	-0,125
103,801	-6,655	-0,306	-0,145
104,816	76,591	-0,215	-0,159
105,830	-58,014	-0,345	-0,105
106,845	191,338	-0,253	-0,267
107,860	83,685	-0,259	-0,198
108,874	-13,155	-0,408	-0,185
109,889	37,310	-0,372	-0,230
110,903	564,128	-0,226	-0,385
111,918	151,247	-0,234	-0,223
112,933	165,356	-0,276	-0,273
113,947	164,652	-0,217	-0,215
114,962	-123,216	-0,295	-0,033
115,976	800,000	-0,108	-0,253
116,991	-32,873	-0,259	-0,100
118,006	540,565	-0,138	-0,230
119,020	25,190	-0,356	-0,206
120,035	-6,443	-0,211	-0,100
121,049	145,892	-0,189	-0,177
122,064	174,728	-0,175	-0,177
123,079	159,570	-0,144	-0,141
124,093	109,589	-0,264	-0,221
125,108	55,785	-0,296	-0,200
126,122	439,102	-0,163	-0,249
127,137	-200,000	0,028	-0,194
128,151	29,448	-0,240	-0,142
129,166	260,860	-0,194	-0,235
130,181	120,912	-0,240	-0,209
131,195	136,853	-0,255	-0,233
132,210	139,983	-0,255	-0,235
133,224	211,321	-0,117	-0,129
134,239	101,761	-0,250	-0,204
135,254	-47,488	-0,274	-0,093
136,268	595,664	-0,026	-0,045
137,283	13,241	-0,158	-0,085
138,297	41,516	-0,218	-0,138
139,312	69,026	-0,289	-0,207
140,327	283,873	-0,263	-0,330
141,341	324,853	-0,171	-0,229
142,356	52,380	-0,226	-0,151
143,370	-182,576	-0,212	-0,003
144,385	72,960	-0,352	-0,257
145,400	657,564	-0,154	-0,277
146,414	58,712	-0,296	-0,203
147,429	51,065	-0,367	-0,243
148,443	25,224	-0,326	-0,189
149,458	-1,257	-0,208	-0,102
150,473	286,290	-0,112	-0,141
151,487	70,109	-0,174	-0,125
152,502	253,733	-0,182	-0,218
153,516	-92,438	-0,286	-0,056
154,531	-30,249	-0,329	-0,130
155,546	67,339	-0,319	-0,227
156,560	180,264	-0,171	-0,176
157,575	314,119	-0,112	-0,148
158,589	154,548	-0,199	-0,191
159,604	28,243	-0,238	-0,140
160,619	119,771	-0,291	-0,251
161,633	185,775	-0,113	-0,117
162,648	60,124	-0,245	-0,169
163,662	165,863	-0,259	-0,255
164,677	79,432	-0,194	-0,145
165,692	-29,273	-0,337	-0,134
166,706	43,495	-0,120	-0,076
167,721	131,778	-0,182	-0,164
168,735	-7,503	-0,306	-0,144
169,750	101,261	-0,292	-0,237
170,764	83,446	-0,154	-0,117
171,779	193,013	-0,205	-0,216
172,794	72,296	-0,119	-0,087
173,808	-40,131	-0,190	-0,068
174,823	111,846	-0,278	-0,234
175,837	34,436	-0,322	-0,195
176,852	263,194	-0,119	-0,144
177,867	800,000	-0,099	-0,230
178,881	356,956	-0,157	-0,219
179,896	138,801	-0,186	-0,170
180,910	143,416	-0,211	-0,195
181,925	386,098	-0,185	-0,267
182,940	173,232	-0,284	-0,285
183,954	275,950	-0,141	-0,174
184,969	114,484	-0,175	-0,149
185,983	66,602	-0,221	-0,156
186,998	40,478	-0,126	-0,079
188,013	-73,001	-0,244	-0,062
189,027	118,697	-0,234	-0,201
190,042	-109,602	-0,163	-0,024
191,056	151,002	-0,190	-0,180
192,071	89,080	-0,180	-0,139
193,086	-39,693	-0,226	-0,082
194,100	103,882	-0,140	-0,115
195,115	136,611	-0,337	-0,306
196,129	-71,606	-0,272	-0,070
197,144	141,752	-0,205	-0,189
198,159	93,027	-0,309	-0,243
199,173	45,547	-0,231	-0,148
200,188	84,721	-0,068	-0,052
201,202	95,992	-0,251	-0,199
202,217	541,280	-0,170	-0,282
203,232	800,000	-0,099	-0,195
204,246	34,065	-0,135	-0,081
205,261	5,094	-0,231	-0,118
206,275	-32,365	-0,273	-0,105
207,290	205,957	-0,086	-0,093
208,304	-125,698	-0,157	0,016
209,319	800,000	-0,077	-0,163
210,334	576,057	-0,099	-0,168
211,348	74,624	-0,243	-0,177
212,363	164,080	-0,222	-0,217
213,377	6,404	-0,167	-0,086
214,392	92,052	-0,162	-0,127
215,407	-161,823	-0,193	-0,007
216,421	184,501	-0,087	-0,089
217,436	-55,142	-0,207	-0,064
218,450	96,147	-0,282	-0,224
219,465	-14,201	-0,218	-0,097
220,480	-25,730	-0,151	-0,061
221,494	469,388	-0,153	-0,239
222,509	-63,362	-0,148	-0,042
223,523	95,897	-0,146	-0,115
224,538	158,743	-0,299	-0,288
225,553	242,706	-0,102	-0,118
226,567	184,668	-0,231	-0,237
227,582	-2,823	-0,233	-0,112
228,596	-96,380	-0,175	-0,032
229,611	800,000	-0,064	-0,146
230,626	311,711	-0,176	-0,229
231,640	-49,379	-0,309	-0,102
232,655	-103,484	-0,158	-0,025
233,669	15,631	-0,288	-0,156
234,684	36,704	-0,187	-0,114
235,699	74,152	-0,216	-0,157
236,713	167,537	-0,092	-0,091
237,728	117,345	-0,203	-0,173
238,742	23,632	-0,311	-0,177
239,757	-36,008	-0,227	-0,085
240,772	24,148	-0,213	-0,121
241,786	-69,746	-0,141	-0,037
242,801	187,405	-0,126	-0,130
243,815	-68,739	-0,048	-0,013
244,830	144,464	-0,068	-0,063
245,844	-63,759	-0,221	-0,062
246,859	-95,992	-0,204	-0,037
247,874	290,152	-0,165	-0,208
248,888	262,899	-0,197	-0,237
249,903	522,873	-0,141	-0,231
250,917	671,387	-0,124	-0,223
251,932	13,269	-0,102	-0,054
252,947	13,053	-0,164	-0,087
253,961	-4,303	-0,227	-0,108
254,976	369,285	-0,161	-0,226
255,990	53,512	-0,222	-0,147
257,005	-69,107	-0,190	-0,050
258,020	-200,000	0,005	-0,204
259,034	105,126	-0,137	-0,112
260,049	261,065	-0,121	-0,145
261,063	445,908	-0,104	-0,159
262,078	291,719	-0,124	-0,156
263,093	77,241	-0,161	-0,118
264,107	800,000	-0,075	-0,203
265,122	44,078	-0,135	-0,086
266,136	-200,000	0,006	-0,114
267,151	148,927	-0,080	-0,074
268,166	800,000	-0,065	-0,162
269,180	396,216	-0,096	-0,139
270,195	56,884	-0,249	-0,167
271,209	4,815	-0,205	-0,104
272,224	420,738	-0,066	-0,098
273,239	-114,452	-0,279	-0,037
274,253	-32,135	-0,234	-0,090
275,268	162,207	-0,108	-0,104
276,282	-65,156	-0,130	-0,036
277,297	-200,000	-0,033	-0,158
278,312	128,538	-0,152	-0,134
279,326	-66,761	-0,130	-0,035
280,341	-45,786	-0,038	0,013
281,355	-54,501	-0,108	0,033
282,370	-8,207	-0,210	-0,097
283,384	354,735	-0,119	-0,163
284,399	366,533	-0,123	-0,172
285,414	81,369	-0,140	-0,105
286,428	800,000	-0,023	-0,065
287,443	800,000	-0,077	-0,198
288,457	197,193	-0,129	-0,136
289,472	-172,845	-0,198	-0,004
290,487	100,522	-0,164	-0,131
291,501	77,788	-0,235	-0,172
292,516	52,282	-0,286	-0,188
293,530	113,048	-0,067	-0,056
294,545	-39,294	-0,169	-0,061
295,560	-149,653	-0,201	0,011
296,574	-200,000	0,025	-0,102
297,589	43,254	-0,223	-0,140
298,603	800,000	-0,135	-0,280
299,618	80,100	-0,092	-0,068
300,633	-122,116	-0,184	0,021
301,647	-87,474	-0,186	-0,038
302,662	-200,000	-0,013	-0,143
303,676	85,392	-0,246	-0,186
304,691	60,591	-0,168	-0,114
305,706	158,516	-0,189	-0,181
306,720	-180,818	-0,167	0,002
307,735	375,329	-0,073	-0,102
308,749	515,172	-0,054	-0,087
309,764	-200,000	-0,013	-0,114
310,779	269,286	-0,076	-0,092
311,793	424,372	-0,115	-0,171
312,808	290,533	-0,151	-0,190
313,822	-200,000	0,023	-0,260
314,837	-127,752	-0,205	-0,020
315,852	156,777	-0,140	-0,133
316,866	92,928	-0,079	-0,061
317,881	-12,678	-0,195	0,087
318,895	57,773	-0,181	-0,122
319,910	152,410	-0,216	-0,203
320,925	196,348	-0,152	-0,159
321,939	26,587	-0,275	-0,158
322,954	684,244	-0,135	-0,244
323,968	-111,162	-0,110	0,015
324,983	-200,000	-0,001	-0,206
325,997	800,000	0,054	-0,154
327,012	120,796	-0,191	-0,163
328,027	31,337	-0,251	-0,148
329,041	-24,353	-0,095	-0,039
330,056	-104,303	-0,083	-0,013
331,070	-109,430	-0,088	0,013
332,085	6,933	-0,230	-0,117
333,100	-200,000	-0,047	-0,184
334,114	-3,182	-0,154	-0,073
335,129	29,851	-0,194	-0,113
336,143	32,036	-0,170	-0,100
337,158	121,846	-0,074	-0,063
338,173	800,000	-0,080	-0,195
339,187	68,784	-0,172	-0,121
340,202	150,967	-0,142	-0,133
341,216	115,004	-0,168	-0,141
342,231	181,933	-0,096	-0,097
343,246	-77,324	-0,147	-0,035
344,260	-40,944	-0,207	-0,073
345,275	-200,000	-0,130	0,000
346,289	1,232	-0,121	-0,059
347,304	36,587	-0,220	-0,133
348,319	800,000	-0,133	-0,313
349,333	98,931	-0,236	-0,187
350,348	72,521	-0,172	-0,123
351,362	205,455	-0,102	-0,109
352,377	800,000	0,050	-0,097
353,392	36,338	-0,077	0,046
354,406	-5,858	-0,179	-0,084
355,421	208,933	1316,648	1414,592
356,435	160,778	1477,613	1415,068
