DTS Sentinel unit serial number:	SN410029Multiplexer serial number:	ORYXHardware model number:	OX2-SRSoftware version number:	ORYX F/W v4,00 Oryx Data Collector v3.7.2.0data status	okinstallation	B3 Nyhavnadifferential loss correction	single-endedforward channel	channel 1reverse channel	N/Adate	2023/12/04time	03:12:30forward acquisition time	300,00reverse acquisition time	0,00gamma	499,1914k internal	0,3204k external	0,3204temperature offset calibration	1,0000default loss term (dB/km)	0,3820temperature slope calibration	1,0000multiplexer offset coefficient	1,0000multiplexer slope coefficient	1,0000fibre end	0,00T internal ref (°C)	12,15T ext. ref 1 (°C)	-3,07T ext. ref 2 (°C)	-3,11length (m)	temperature (°C)	Stokes	anti-Stokes-744,400	299,428	-0,147	-0,197
-743,385	800,000	-0,116	0,296
-742,371	107,547	-0,132	-0,114
-741,356	788,166	0,160	0,320
-740,342	800,000	-0,064	-0,179
-739,327	-200,000	-0,077	0,254
-738,312	-200,000	-0,030	-0,203
-737,298	-200,000	0,076	0,261
-736,283	136,918	-0,290	-0,275
-735,269	-200,000	0,065	0,349
-734,254	195,594	-0,165	-0,182
-733,239	-76,041	-0,214	0,054
-732,225	461,331	-0,141	-0,229
-731,210	409,332	0,004	-0,007
-730,196	-52,132	-0,137	0,046
-729,181	-98,096	-0,071	-0,013
-728,167	-200,000	0,022	0,074
-727,152	-200,000	-0,024	0,084
-726,137	-200,000	0,009	-0,069
-725,123	-90,444	-0,126	-0,026
-724,108	800,000	-0,047	-0,129
-723,094	601,114	-0,083	-0,151
-722,079	215,738	-0,111	-0,128
-721,064	157,705	0,042	-0,042
-720,050	800,000	-0,085	-0,183
-719,035	353,293	-0,082	0,119
-718,021	-200,000	0,005	0,127
-717,006	-200,000	-0,014	0,073
-715,991	171,190	-0,100	-0,104
-714,977	-86,090	-0,134	-0,030
-713,962	177,656	-0,037	-0,039
-712,948	-143,367	-0,181	0,012
-711,933	-55,773	0,013	0,004
-710,918	42,850	-0,149	0,099
-709,904	-19,632	-0,102	0,045
-708,889	-26,050	-0,113	-0,048
-707,875	361,480	-0,038	0,055
-706,860	-200,000	0,000	0,035
-705,845	-47,824	0,068	-0,024
-704,831	472,923	0,089	0,146
-703,816	800,000	-0,031	0,079
-702,802	-200,000	-0,001	0,042
-701,787	-200,000	0,013	-0,072
-700,772	286,546	-0,002	0,002
-699,758	92,269	0,078	-0,064
-698,743	-200,000	0,009	0,090
-697,729	450,528	-0,083	0,134
-696,714	295,282	0,065	-0,087
-695,699	255,516	-0,081	-0,101
-694,685	438,886	0,044	0,069
-693,670	-109,951	0,067	0,010
-692,656	121,712	0,028	-0,025
-691,641	0,081	0,048	-0,025
-690,627	18,776	0,123	-0,071
-689,612	-117,490	0,113	0,015
-688,597	-200,000	0,020	-0,066
-687,583	273,137	0,016	-0,021
-686,568	201,469	0,025	0,028
-685,554	16,525	-0,125	0,071
-684,539	120,866	-0,028	0,025
-683,524	-115,129	0,067	-0,009
-682,510	-164,030	0,045	-0,001
-681,495	-200,000	0,002	0,033
-680,481	-130,041	-0,101	0,010
-679,466	-200,000	0,004	0,037
-678,451	-61,411	0,043	-0,013
-677,437	800,000	-0,045	-0,140
-676,422	-200,000	-0,001	-0,073
-675,408	-200,000	-0,001	0,015
-674,393	-138,370	-0,049	-0,004
-673,378	44,613	-0,076	0,051
-672,364	800,000	-0,050	-0,125
-671,349	437,428	-0,078	-0,124
-670,335	553,744	0,084	-0,147
-669,320	-200,000	-0,017	0,139
-668,305	37,022	-0,094	-0,060
-667,291	-134,451	-0,058	0,005
-666,276	613,644	-0,062	-0,113
-665,262	-200,000	-0,004	-0,039
-664,247	66,554	-0,054	0,040
-663,232	226,146	-0,047	-0,055
-662,218	241,231	0,061	0,074
-661,203	-22,293	0,136	-0,060
-660,189	160,180	-0,071	-0,072
-659,174	337,302	0,095	-0,134
-658,159	-200,000	-0,037	-0,186
-657,145	-4,395	-0,074	0,037
-656,130	-107,813	0,110	-0,017
-655,116	117,020	0,045	-0,040
-654,101	800,000	-0,035	0,083
-653,086	-60,636	0,106	0,032
-652,072	-19,491	-0,115	-0,051
-651,057	-200,000	-0,027	-0,116
-650,043	-200,000	-0,025	-0,085
-649,028	-72,500	-0,105	0,028
-648,014	74,694	0,118	-0,090
-646,999	75,740	0,079	0,060
-645,984	104,389	0,102	0,087
-644,970	-200,000	-0,013	-0,053
-643,955	-200,000	0,002	-0,087
-642,941	66,021	-0,031	-0,023
-641,926	-103,551	0,066	0,011
-640,911	-10,254	-0,023	-0,011
-639,897	-18,933	0,087	-0,039
-638,882	800,000	-0,036	-0,080
-637,868	-96,606	-0,156	-0,030
-636,853	-200,000	0,001	-0,105
-635,838	-200,000	0,012	-0,055
-634,824	8,065	-0,162	0,087
-633,809	-123,032	0,097	0,011
-632,795	-200,000	0,024	-0,141
-631,780	-26,392	0,049	-0,021
-630,765	263,005	0,073	0,092
-629,751	131,806	0,060	-0,056
-628,736	49,817	-0,145	-0,099
-627,722	-200,000	0,001	-0,114
-626,707	-200,000	0,020	0,098
-625,692	800,000	0,028	-0,063
-624,678	-107,381	0,074	-0,012
-623,663	-61,320	0,019	0,006
-622,649	-200,000	-0,025	-0,093
-621,634	-200,000	-0,019	0,138
-620,619	-22,603	-0,084	-0,037
-619,605	-200,000	0,001	0,071
-618,590	800,000	-0,002	0,006
-617,576	-200,000	0,044	-0,166
-616,561	-200,000	0,024	-0,135
-615,546	-200,000	0,006	0,059
-614,532	-74,837	-0,037	0,010
-613,517	200,246	0,036	-0,040
-612,503	-200,000	-0,003	0,087
-611,488	109,245	-0,062	-0,053
-610,474	-56,329	0,085	-0,027
-609,459	308,371	-0,068	0,092
-608,444	-13,534	-0,130	0,060
-607,430	36,823	-0,069	-0,044
-606,415	800,000	-0,021	0,059
-605,401	-200,000	-0,016	0,085
-604,386	486,844	-0,049	-0,080
-603,371	-50,428	0,129	0,044
-602,357	61,403	0,065	0,047
-601,342	-40,984	-0,142	-0,053
-600,328	-200,000	0,007	-0,086
-599,313	800,000	0,066	-0,147
-598,298	279,015	-0,063	-0,081
-597,284	-118,329	0,161	-0,020
-596,269	-131,045	0,087	0,008
-595,255	800,000	-0,073	0,171
-594,240	330,116	-0,019	-0,026
-593,225	37,763	-0,148	0,095
-592,211	-200,000	0,002	-0,119
-591,196	-65,929	0,069	0,020
-590,182	-200,000	0,010	0,041
-589,167	-113,249	-0,083	-0,012
-588,152	-143,690	-0,040	0,003
-587,138	-2,807	0,053	-0,026
-586,123	-13,921	-0,011	0,005
-585,109	-87,164	-0,014	-0,003
-584,094	311,863	-0,071	0,097
-583,079	-146,448	0,011	0,001
-582,065	-100,016	0,152	0,027
-581,050	-200,000	0,009	0,034
-580,036	-158,709	-0,056	0,002
-579,021	800,000	0,050	0,149
-578,006	-84,738	-0,275	-0,062
-576,992	-138,530	0,186	-0,015
-575,977	-200,000	0,008	-0,051
-574,963	-18,210	-0,064	-0,029
-573,948	165,359	-0,076	0,078
-572,934	-84,848	0,054	0,012
-571,919	283,139	-0,038	-0,050
-570,904	-200,000	0,023	0,180
-569,890	33,382	0,065	-0,041
-568,875	-200,000	-0,004	0,166
-567,861	-200,000	0,018	-0,061
-566,846	800,000	0,014	0,041
-565,831	250,773	0,035	-0,043
-564,817	-200,000	0,009	-0,127
-563,802	43,246	-0,094	0,062
-562,788	-136,906	-0,072	-0,006
-561,773	800,000	-0,029	-0,062
-560,758	155,636	0,034	0,034
-559,744	744,638	-0,009	-0,018
-558,729	551,991	-0,034	0,060
-557,715	-4,630	-0,086	-0,043
-556,700	-200,000	-0,013	-0,064
-555,685	-129,731	-0,117	0,011
-554,671	55,329	-0,040	-0,028
-553,656	-200,000	0,003	0,038
-552,642	-137,099	-0,096	0,008
-551,627	-72,335	0,143	0,038
-550,612	29,540	0,120	-0,073
-549,598	-128,828	-0,177	0,018
-548,583	81,240	0,042	-0,032
-547,569	107,493	-0,056	0,048
-546,554	-200,000	0,001	-0,039
-545,539	502,834	0,115	0,192
-544,525	-200,000	-0,005	0,040
-543,510	-36,911	0,040	-0,015
-542,496	-62,625	-0,135	0,040
-541,481	-200,000	0,056	-0,000
-540,466	74,600	0,109	0,083
-539,452	-200,000	0,005	0,020
-538,437	504,084	0,025	0,041
-537,423	-135,218	0,110	0,009
-536,408	-129,499	-0,100	0,010
-535,393	458,404	-0,092	-0,148
-534,379	-59,343	0,103	-0,032
-533,364	-200,000	-0,004	0,077
-532,350	637,016	0,050	0,092
-531,335	246,319	-0,014	0,017
-530,321	-200,000	-0,006	0,154
-529,306	136,609	0,115	0,108
-528,291	800,000	0,021	0,064
-527,277	800,000	0,026	-0,060
-526,262	-200,000	-0,030	0,112
-525,248	-56,772	0,074	-0,024
-524,233	-26,769	0,090	0,038
-523,218	800,000	-0,060	0,146
-522,204	-64,881	-0,032	-0,009
-521,189	-200,000	-0,003	-0,172
-520,175	800,000	0,011	-0,022
-519,160	-19,270	-0,054	-0,024
-518,145	741,637	-0,039	-0,075
-517,131	57,423	-0,081	-0,057
-516,116	800,000	-0,044	-0,137
-515,102	-200,000	-0,017	-0,064
-514,087	244,478	-0,086	-0,104
-513,072	729,289	-0,005	-0,010
-512,058	-125,501	-0,081	0,009
-511,043	-200,000	-0,015	0,117
-510,029	109,592	-0,089	-0,077
-509,014	-200,000	0,006	-0,054
-507,999	63,485	0,054	-0,039
-506,985	-151,747	0,045	0,002
-505,970	-200,000	0,030	-0,250
-504,956	800,000	-0,047	-0,098
-503,941	-86,134	0,120	0,027
-502,926	13,908	-0,074	0,041
-501,912	-32,828	0,164	0,065
-500,897	214,611	-0,023	0,026
-499,883	-200,000	0,006	-0,100
-498,868	-200,000	-0,021	-0,070
-497,853	227,678	-0,036	0,042
-496,839	52,808	-0,107	0,074
-495,824	110,217	-0,104	0,090
-494,810	-200,000	0,044	0,197
-493,795	-200,000	0,006	0,068
-492,781	-66,883	-0,069	-0,020
-491,766	-200,000	-0,024	-0,121
-490,751	356,465	0,031	-0,045
-489,737	87,295	-0,005	0,004
-488,722	-200,000	0,016	0,142
-487,708	102,660	-0,008	-0,007
-486,693	-128,225	0,088	0,009
-485,678	-84,971	-0,095	0,021
-484,664	800,000	-0,034	-0,106
-483,649	800,000	0,039	-0,114
-482,635	318,191	0,043	-0,059
-481,620	800,000	-0,023	-0,071
-480,605	-178,454	-0,085	0,001
-479,591	-200,000	0,034	0,126
-478,576	-75,267	-0,148	-0,038
-477,562	-2,022	0,090	-0,045
-476,547	73,694	-0,060	0,045
-475,532	148,610	-0,028	0,028
-474,518	-136,916	0,129	-0,010
-473,503	215,895	0,080	-0,091
-472,489	137,232	-0,143	-0,135
-471,474	40,080	-0,133	-0,086
-470,459	-23,013	-0,039	-0,017
-469,445	-200,000	0,019	-0,136
-468,430	-200,000	-0,020	-0,121
-467,416	800,000	0,023	-0,047
-466,401	781,618	-0,003	0,005
-465,386	498,952	0,056	0,094
-464,372	523,375	0,029	-0,050
-463,357	-200,000	0,030	-0,182
-462,343	73,425	-0,070	-0,053
-461,328	87,730	0,111	-0,089
-460,313	194,799	-0,018	-0,019
-459,299	190,189	0,062	0,067
-458,284	-200,000	-0,015	0,055
-457,270	350,909	0,039	-0,056
-456,255	800,000	0,043	-0,110
-455,241	-58,365	-0,079	0,025
-454,226	35,031	0,006	0,004
-453,211	-200,000	-0,009	0,059
-452,197	800,000	-0,020	0,062
-451,182	-200,000	0,032	0,179
-450,168	-188,879	0,151	0,001
-449,153	-200,000	-0,006	-0,038
-448,138	-61,263	-0,075	0,023
-447,124	800,000	-0,028	0,079
-446,109	800,000	-0,011	0,031
-445,095	92,035	-0,050	-0,041
-444,080	185,796	0,098	-0,105
-443,065	-67,127	-0,079	0,022
-442,051	177,697	-0,022	-0,023
-441,036	301,422	-0,102	-0,136
-440,022	-1,394	0,166	-0,084
-439,007	154,160	0,073	0,072
-437,992	800,000	0,031	0,093
-436,978	-71,030	0,059	0,016
-435,963	695,046	-0,068	-0,128
-434,949	800,000	0,029	-0,086
-433,934	-200,000	-0,026	0,130
-432,919	-85,071	-0,142	-0,032
-431,905	-125,061	0,095	0,010
-430,890	451,249	0,103	0,164
-429,876	127,172	0,053	0,048
-428,861	92,592	0,233	0,188
-427,846	-121,441	-0,112	0,013
-426,832	74,027	-0,120	-0,090
-425,817	-200,000	0,025	-0,114
-424,803	800,000	-0,051	0,157
-423,788	-200,000	0,066	0,224
-422,773	800,000	0,020	0,061
-421,759	-180,351	-0,014	0,000
-420,744	-200,000	-0,010	-0,072
-419,730	23,726	0,112	0,066
-418,715	587,917	-0,052	-0,092
-417,701	-200,000	0,009	0,083
-416,686	800,000	-0,025	-0,056
-415,671	-27,125	0,137	0,057
-414,657	800,000	-0,016	0,038
-413,642	67,059	0,055	0,040
-412,628	382,247	0,091	-0,135
-411,613	112,126	-0,152	-0,132
-410,598	-124,870	0,076	0,008
-409,584	67,653	-0,033	0,024
-408,569	-200,000	-0,023	0,130
-407,555	-71,062	0,156	-0,042
-406,540	800,000	-0,015	0,042
-405,525	-131,597	0,078	-0,007
-404,511	58,018	-0,109	-0,076
-403,496	13,665	-0,054	0,030
-402,482	-120,443	-0,148	-0,018
-401,467	72,666	0,069	-0,052
-400,452	107,179	-0,043	0,037
-399,438	800,000	0,064	0,146
-398,423	-113,593	-0,075	0,010
-397,409	35,498	0,047	0,030
-396,394	119,964	0,108	-0,096
-395,379	134,029	0,019	-0,018
-394,365	283,836	0,032	0,042
-393,350	800,000	0,049	0,145
-392,336	-200,000	-0,008	-0,044
-391,321	-103,087	-0,109	-0,018
-390,306	-200,000	0,002	-0,044
-389,292	800,000	-0,037	-0,093
-388,277	156,056	-0,078	-0,077
-387,263	-131,161	0,123	0,012
-386,248	104,116	0,099	0,083
-385,233	-200,000	0,005	0,053
-384,219	58,114	-0,043	0,030
-383,204	180,084	0,038	0,040
-382,190	-21,437	-0,046	-0,020
-381,175	17,633	-0,074	0,042
-380,160	-200,000	0,026	0,094
-379,146	122,863	0,053	0,048
-378,131	-200,000	-0,026	0,091
-377,117	-200,000	-0,012	-0,077
-376,102	179,246	-0,053	-0,055
-375,088	-20,465	-0,087	-0,038
-374,073	-200,000	-0,016	-0,130
-373,058	357,392	0,061	0,088
-372,044	800,000	0,057	-0,124
-371,029	800,000	-0,040	0,094
-370,015	-150,360	-0,084	0,005
-369,000	-200,000	-0,028	-0,124
-367,985	-82,000	0,091	0,021
-366,971	286,425	-0,025	-0,033
-365,956	-200,000	0,018	-0,107
-364,942	86,368	0,096	-0,076
-363,927	-15,271	0,121	0,055
-362,912	-152,710	-0,110	-0,006
-361,898	761,744	-0,015	-0,030
-360,883	6,304	0,013	0,007
-359,869	122,832	-0,154	-0,138
-358,854	-48,824	-0,101	0,034
-357,839	314,710	-0,055	0,075
-356,825	127,527	0,096	0,087
-355,810	-200,000	0,011	-0,105
-354,796	26,149	0,140	0,083
-353,781	82,479	-0,045	0,035
-352,766	111,122	0,060	-0,052
-351,752	-200,000	-0,006	0,072
-350,737	-75,614	-0,048	-0,012
-349,723	-133,666	0,081	0,007
-348,708	-200,000	0,024	-0,134
-347,693	-200,000	0,009	-0,065
-346,679	14,527	-0,073	-0,041
-345,664	151,388	-0,052	-0,050
-344,650	357,832	0,097	0,139
-343,635	-46,798	-0,131	0,046
-342,620	-116,494	0,216	0,028
-341,606	-200,000	0,012	0,123
-340,591	446,829	-0,072	0,113
-339,577	322,615	-0,054	-0,073
-338,562	-200,000	0,007	-0,068
-337,548	800,000	0,036	-0,089
-336,533	-130,025	0,123	0,012
-335,518	390,364	0,004	0,006
-334,504	-99,390	0,066	0,012
-333,489	97,645	0,081	-0,066
-332,475	53,200	0,004	-0,002
-331,460	591,140	-0,076	-0,135
-330,445	800,000	0,039	0,117
-329,431	-79,127	0,097	0,023
-328,416	-200,000	0,029	0,102
-327,402	-200,000	-0,002	0,047
-326,387	545,174	-0,059	0,101
-325,372	-200,000	-0,013	-0,089
-324,358	179,729	-0,027	-0,028
-323,343	-200,000	0,002	-0,127
-322,329	800,000	-0,017	-0,050
-321,314	-200,000	0,007	0,035
-320,299	411,900	0,054	0,082
-319,285	166,470	0,091	-0,092
-318,270	288,228	-0,056	-0,073
-317,256	-78,626	0,052	-0,013
-316,241	381,545	0,090	-0,132
-315,226	439,514	0,033	-0,052
-314,212	-200,000	0,008	0,122
-313,197	-90,817	0,125	-0,025
-312,183	23,741	-0,115	0,068
-311,168	-137,962	0,025	0,002
-310,153	-98,659	-0,199	-0,036
-309,139	800,000	-0,043	-0,107
-308,124	-200,000	-0,002	0,020
-307,110	-200,000	-0,000	0,098
-306,095	435,471	-0,046	0,072
-305,080	62,755	-0,110	0,078
-304,066	446,718	-0,023	0,036
-303,051	207,584	-0,034	-0,038
-302,037	-200,000	0,013	0,063
-301,022	-200,000	-0,002	0,110
-300,008	-162,258	0,078	-0,003
-298,993	-200,000	0,000	0,020
-297,978	-200,000	-0,009	-0,032
-296,964	-200,000	0,011	0,070
-295,949	-21,370	-0,065	-0,028
-294,935	-200,000	-0,000	0,080
-293,920	-200,000	-0,003	0,091
-292,905	44,480	-0,074	-0,049
-291,891	-38,850	0,011	-0,004
-290,876	-200,000	0,009	0,117
-289,862	401,153	-0,037	0,056
-288,847	-47,506	-0,081	-0,028
-287,832	-200,000	0,029	-0,109
-286,818	368,989	-0,080	-0,116
-285,803	-65,161	0,115	0,033
-284,789	352,947	-0,039	0,056
-283,774	85,922	0,109	-0,085
-282,759	-165,143	-0,127	0,004
-281,745	800,000	-0,053	-0,145
-280,730	-200,000	-0,006	0,068
-279,716	67,075	-0,029	0,021
-278,701	297,525	0,090	0,118
-277,686	-57,565	0,105	-0,033
-276,672	-200,000	-0,016	0,114
-275,657	125,682	-0,131	0,118
-274,643	-3,219	-0,133	0,066
-273,628	800,000	-0,031	0,093
-272,613	-51,584	-0,060	-0,020
-271,599	391,800	0,086	0,128
-270,584	664,592	0,082	0,151
-269,570	-106,957	0,128	0,020
-268,555	118,964	0,009	-0,008
-267,540	-200,000	0,016	-0,055
-266,526	69,625	-0,031	0,023
-265,511	432,812	-0,035	-0,054
-264,497	-101,236	0,184	-0,032
-263,482	-61,577	0,093	0,028
-262,467	-132,444	-0,041	-0,004
-261,453	136,823	0,079	0,073
-260,438	-200,000	0,013	-0,085
-259,424	398,076	-0,050	-0,074
-258,409	-104,234	-0,066	-0,011
-257,395	126,110	-0,110	-0,099
-256,380	118,879	0,132	0,116
-255,365	362,791	-0,026	-0,037
-254,351	-102,578	0,096	-0,016
-253,336	196,803	-0,012	0,013
-252,322	-200,000	0,004	0,052
-251,307	83,079	-0,066	-0,051
-250,292	-200,000	0,020	-0,079
-249,278	114,569	0,092	-0,079
-248,263	-38,774	0,057	0,021
-247,249	7,024	-0,145	0,077
-246,234	1,512	-0,103	0,053
-245,219	-99,958	-0,067	-0,012
-244,205	-200,000	0,022	-0,143
-243,190	-94,646	-0,018	-0,003
-242,176	383,790	0,037	-0,054
-241,161	-2,419	0,135	0,067
-240,146	-97,305	0,146	-0,027
-239,132	219,317	-0,112	-0,128
-238,117	9,289	0,062	0,033
-237,103	272,494	-0,101	-0,127
-236,088	-200,000	-0,000	0,023
-235,073	165,725	0,119	0,120
-234,059	-200,000	0,039	0,136
-233,044	5,550	0,138	-0,072
-232,030	372,132	-0,095	0,137
-231,015	178,540	-0,049	-0,052
-230,000	800,000	-0,051	-0,132
-228,986	-96,142	0,185	-0,035
-227,971	68,723	-0,106	0,077
-226,957	800,000	0,023	0,069
-225,942	315,468	-0,031	0,042
-224,927	-20,736	0,079	0,034
-223,913	800,000	0,018	-0,050
-222,898	385,193	-0,030	-0,045
-221,884	-200,000	-0,020	0,092
-220,869	59,461	-0,054	-0,038
-219,855	-200,000	0,004	0,128
-218,840	800,000	0,045	-0,104
-217,825	800,000	-0,015	-0,032
-216,811	-102,438	0,091	0,015
-215,796	-130,252	-0,091	-0,009
-214,782	447,683	0,028	-0,043
-213,767	285,278	-0,058	-0,074
-212,752	800,000	0,002	0,004
-211,738	-106,266	-0,098	0,015
-210,723	239,213	0,107	0,127
-209,709	-16,448	-0,042	-0,019
-208,694	112,448	-0,091	-0,078
-207,679	472,082	-0,081	-0,131
-206,665	-18,215	0,156	0,069
-205,650	80,129	0,041	0,031
-204,636	-176,557	-0,193	0,003
-203,621	-200,000	0,021	0,067
-202,606	369,806	0,055	0,080
-201,592	-150,082	-0,039	0,002
-200,577	-102,955	-0,077	0,013
-199,563	18,389	0,059	0,033
-198,548	-200,000	-0,017	0,067
-197,533	242,011	0,085	-0,101
-196,519	-200,000	0,006	0,055
-195,504	222,001	-0,102	0,117
-194,490	-120,220	0,040	0,005
-193,475	1,475	0,104	-0,053
-192,460	23,049	-0,085	0,050
-191,446	402,145	0,044	0,067
-190,431	194,986	0,027	-0,029
-189,417	111,852	0,072	-0,062
-188,402	-200,000	0,006	-0,034
-187,387	-114,589	-0,125	0,017
-186,373	200,805	-0,088	-0,096
-185,358	-63,943	-0,027	0,008
-184,344	-200,000	0,021	0,094
-183,329	-53,886	-0,035	-0,011
-182,315	580,653	-0,093	0,162
-181,300	16,110	0,135	-0,076
-180,285	573,256	-0,080	-0,139
-179,271	-7,985	-0,070	0,033
-178,256	-200,000	-0,003	-0,042
-177,242	5,051	0,092	0,048
-176,227	-52,588	0,149	0,049
-175,212	357,510	-0,053	0,076
-174,198	-97,626	-0,115	-0,021
-173,183	66,456	-0,061	0,044
-172,169	-200,000	0,007	-0,118
-171,154	485,221	0,076	-0,123
-170,139	-191,629	0,030	0,000
-169,125	800,000	-0,016	0,044
-168,110	800,000	-0,043	0,124
-167,096	125,754	-0,168	0,150
-166,081	-54,272	0,088	0,028
-165,066	-38,786	-0,042	0,015
-164,052	-100,809	0,057	0,010
-163,037	90,192	-0,062	-0,050
-162,023	800,000	-0,021	0,066
-161,008	657,687	0,025	0,047
-159,993	233,257	-0,016	-0,019
-158,979	654,763	-0,028	-0,051
-157,964	670,622	-0,063	-0,117
-156,950	-200,000	0,008	0,027
-155,935	-80,141	0,130	0,031
-154,920	399,353	0,048	0,071
-153,906	-200,000	-0,036	-0,171
-152,891	800,000	0,067	-0,132
-151,877	22,350	0,072	0,042
-150,862	27,544	-0,091	0,054
-149,847	-39,572	0,052	0,019
-148,833	566,183	-0,047	0,082
-147,818	197,907	-0,056	0,061
-146,804	51,133	0,009	-0,006
-145,789	730,308	0,042	0,080
-144,775	-114,186	0,094	0,013
-143,760	-200,000	0,008	0,099
-142,745	33,678	-0,116	-0,071
-141,731	146,500	-0,078	0,074
-140,716	-102,205	0,090	-0,015
-139,702	800,000	0,063	0,156
-138,687	-44,110	-0,014	0,005
-137,672	800,000	0,018	-0,053
-136,658	166,310	-0,084	0,084
-135,643	40,572	0,039	-0,025
-134,629	-200,000	0,000	0,068
-133,614	471,502	0,073	0,116
-132,599	800,000	-0,013	0,026
-131,585	-54,056	-0,111	0,036
-130,570	50,509	-0,071	-0,048
-129,556	-200,000	0,013	-0,059
-128,541	258,635	-0,109	-0,133
-127,526	30,515	0,116	0,070
-126,512	-82,103	-0,039	-0,009
-125,497	439,482	0,099	0,154
-124,483	-200,000	-0,036	0,192
-123,468	-1,854	0,078	0,039
-122,453	-157,534	-0,040	-0,002
-121,439	800,000	-0,027	-0,062
-120,424	2,950	-0,105	0,054
-119,410	-200,000	0,006	0,032
-118,395	151,439	-0,163	0,158
-117,380	178,538	-0,067	0,069
-116,366	240,457	-0,107	-0,126
-115,351	-117,327	-0,029	-0,004
-114,337	-200,000	0,015	-0,119
-113,322	-62,897	-0,118	0,034
-112,307	-200,000	-0,008	-0,042
-111,293	191,390	0,008	0,009
-110,278	-71,796	-0,081	-0,021
-109,264	-200,000	-0,001	0,104
-108,249	-6,138	0,049	-0,024
-107,234	81,260	-0,009	0,007
-106,220	-200,000	-0,017	0,074
-105,205	681,855	-0,016	-0,029
-104,191	800,000	-0,057	0,157
-103,176	-122,562	0,119	0,013
-102,162	-24,790	-0,069	-0,029
-101,147	-63,922	-0,160	0,046
-100,132	800,000	-0,014	-0,042
-99,118	-114,211	0,014	-0,002
-98,103	44,894	-0,026	0,017
-97,089	-42,822	0,064	0,023
-96,074	-29,532	0,090	0,036
-95,059	239,979	-0,031	-0,037
-94,045	113,308	-0,097	0,083
-93,030	-200,000	-0,016	-0,157
-92,016	-200,000	0,031	-0,196
-91,001	20,562	0,070	0,040
-89,986	200,886	0,006	-0,007
-88,972	-200,000	0,008	0,063
-87,957	-25,084	-0,016	-0,007
-86,943	-169,975	0,044	-0,001
-85,928	169,344	-0,042	0,043
-84,913	33,676	-0,037	-0,023
-83,899	482,146	0,049	-0,079
-82,884	-200,000	0,020	-0,194
-81,870	-138,215	0,125	0,010
-80,855	30,949	0,053	0,032
-79,840	-200,000	0,017	-0,057
-78,826	445,866	-0,071	0,111
-77,811	-120,677	0,099	0,012
-76,797	-104,633	-0,095	0,015
-75,782	-44,592	0,037	0,013
-74,767	198,335	-0,027	0,029
-73,753	-200,000	0,009	-0,052
-72,738	800,000	0,047	0,132
-71,724	358,184	-0,041	-0,058
-70,709	88,513	0,050	-0,039
-69,694	-86,009	-0,056	0,012
-68,680	-26,856	0,132	-0,054
-67,665	-200,000	-0,001	0,028
-66,651	-5,325	0,069	0,034
-65,636	29,543	0,117	0,070
-64,622	385,553	-0,082	0,121
-63,607	-193,117	-0,117	-0,001
-62,592	-148,150	-0,120	-0,007
-61,578	-200,000	-0,002	0,042
-60,563	-51,114	0,061	0,020
-59,549	-31,718	0,097	0,038
-58,534	8,896	-1,736	-0,924
-57,519	369,939	-1,384	-1,989
-56,505	-200,000	-0,546	-4,642
-55,490	408,743	0,989	1,485
-54,476	800,000	4,818	11,166
-53,461	-200,000	20,182	324,232
-52,446	800,000	752,833	2312,502
-51,432	548,202	1663,897	2828,935
-50,417	74,941	1672,066	1244,140
-49,403	20,007	1544,939	878,620
-48,388	13,972	1467,432	805,171
-47,373	18,391	1457,459	821,017
-46,359	16,328	1446,856	805,130
-45,344	12,263	1442,477	783,187
-44,330	12,171	1440,785	781,795
-43,315	12,204	1438,808	780,848
-42,300	12,227	1437,177	780,043
-41,286	12,199	1436,049	779,264
-40,271	12,181	1434,642	778,388
-39,257	12,190	1433,448	777,751
-38,242	12,250	1432,102	777,275
-37,227	12,237	1431,052	776,614
-36,213	12,244	1429,639	775,848
-35,198	12,220	1428,403	775,030
-34,184	12,255	1427,525	774,690
-33,169	12,221	1426,090	773,719
-32,154	12,289	1424,915	773,376
-31,140	12,263	1423,767	772,598
-30,125	12,296	1422,671	772,126
-29,111	12,250	1421,839	771,428
-28,096	12,206	1420,525	770,479
-27,082	12,222	1419,315	769,864
-26,067	12,199	1418,242	769,146
-25,052	12,229	1417,111	768,641
-24,038	12,188	1416,017	767,828
-23,023	12,188	1415,356	767,437
-22,009	12,157	1414,273	766,672
-20,994	12,127	1413,274	765,959
-19,979	12,144	1412,352	765,511
-18,965	12,140	1411,318	764,900
-17,950	12,154	1410,426	764,452
-16,936	12,097	1409,724	763,773
-15,921	12,091	1408,599	763,105
-14,906	12,091	1407,693	762,585
-13,892	12,076	1406,881	762,044
-12,877	12,066	1405,877	761,426
-11,863	12,109	1404,909	761,072
-10,848	12,014	1404,231	760,230
-9,833	12,034	1403,243	759,760
-8,819	12,010	1402,381	759,148
-7,804	11,950	1401,448	758,335
-6,790	12,020	1400,377	758,049
-5,775	12,018	1399,553	757,567
-4,760	12,005	1398,490	756,898
-3,746	11,961	1397,571	756,166
-2,731	11,955	1396,832	755,709
-1,717	11,907	1395,986	754,999
-0,702	11,910	1394,178	754,006
0,313	16,115	1308,705	727,129
1,327	32,809	699,703	427,107
2,342	51,120	121,816	81,527
3,356	2,994	16,456	8,421
4,371	6,332	3,361	1,757
5,386	9,783	0,646	0,345
6,400	-200,000	0,055	0,370
7,415	-71,040	-0,215	-0,057
8,429	-36,931	-0,302	-0,114
9,444	-28,201	-0,438	-0,178
10,459	131,580	-0,245	-0,222
11,473	-64,569	-0,428	-0,122
12,488	6,540	-0,258	-0,135
13,502	13,500	-0,346	-0,189
14,517	268,974	-0,239	-0,297
15,531	63,626	-0,372	-0,263
16,546	-18,815	-0,311	-0,136
17,561	77,839	-0,322	-0,242
18,575	105,013	-0,192	-0,160
19,590	409,551	-0,183	-0,274
20,604	0,037	-0,266	-0,133
21,619	192,537	-0,365	-0,389
22,634	191,984	-0,388	-0,413
23,648	160,197	-0,350	-0,345
24,663	84,106	-0,401	-0,309
25,677	124,673	-0,285	-0,253
26,692	190,315	-0,249	-0,264
27,707	99,630	-0,350	-0,286
28,721	47,902	-0,496	-0,326
29,736	111,153	-0,386	-0,328
30,750	138,717	-0,350	-0,324
31,765	77,575	-0,362	-0,272
32,780	-52,202	-0,301	-0,098
33,794	-34,033	-0,461	-0,178
34,809	161,217	-0,375	-0,369
35,823	-41,883	-0,456	-0,164
36,838	57,960	-0,449	-0,309
37,853	77,810	-0,403	-0,302
38,867	107,970	-0,358	-0,301
39,882	72,145	-0,414	-0,303
40,896	199,554	-0,240	-0,260
41,911	-0,393	-0,330	-0,165
42,926	140,236	-0,303	-0,282
43,940	226,029	-0,301	-0,345
44,955	54,490	-0,408	-0,277
45,969	286,475	-0,228	-0,291
46,984	-14,497	-0,405	-0,183
47,999	90,648	-0,270	-0,213
49,013	192,940	-0,340	-0,362
50,028	107,313	-0,180	-0,150
51,042	642,087	-0,223	-0,402
52,057	203,551	-0,376	-0,410
53,071	179,128	-0,260	-0,268
54,086	-7,500	-0,496	-0,235
55,101	96,623	-0,290	-0,233
56,115	-5,693	-0,290	-0,139
57,130	70,402	-0,306	-0,222
58,144	-9,138	-0,423	-0,198
59,159	126,505	-0,361	-0,322
60,174	47,054	-0,453	-0,296
61,188	631,145	-0,136	-0,243
62,203	24,316	-0,278	-0,161
63,217	57,056	-0,368	-0,252
64,232	24,643	-0,326	-0,189
65,247	-47,630	-0,316	-0,107
66,261	92,361	-0,409	-0,324
67,276	195,239	-0,222	-0,237
68,290	4,517	-0,371	-0,190
69,305	85,982	-0,256	-0,198
70,320	180,484	-0,238	-0,245
71,334	3,437	-0,375	-0,191
72,349	84,966	-0,308	-0,237
73,363	-24,817	-0,439	-0,182
74,378	74,350	-0,321	-0,236
75,393	48,766	-0,413	-0,272
76,407	35,307	-0,317	-0,195
77,422	50,835	-0,224	-0,149
78,436	-2,400	-0,297	-0,146
79,451	-64,907	-0,403	-0,114
80,466	-31,140	-0,275	-0,108
81,480	57,470	-0,329	-0,225
82,495	219,465	-0,269	-0,302
83,509	26,158	-0,264	-0,154
84,524	-56,342	-0,367	-0,114
85,539	-43,291	-0,175	-0,062
86,553	15,495	-0,227	-0,125
87,568	155,841	-0,292	-0,283
88,582	186,413	-0,276	-0,289
89,597	59,537	-0,407	-0,281
90,611	-66,747	-0,385	-0,106
91,626	-100,572	-0,218	-0,037
92,641	73,169	-0,355	-0,260
93,655	120,994	-0,279	-0,244
94,670	13,910	-0,298	-0,162
95,684	104,728	-0,315	-0,260
96,699	24,370	-0,285	-0,164
97,714	115,710	-0,310	-0,266
98,728	-64,096	-0,396	-0,112
99,743	63,138	-0,273	-0,191
100,757	-91,032	-0,394	-0,079
101,772	-108,186	-0,262	-0,039
102,787	16,802	-0,286	-0,158
103,801	-64,375	-0,391	-0,111
104,816	-10,824	-0,350	-0,161
105,830	90,057	-0,203	-0,159
106,845	-50,547	-0,323	-0,106
107,860	49,109	-0,280	-0,184
108,874	231,990	-0,250	-0,287
109,889	41,772	-0,271	-0,171
110,903	94,104	-0,251	-0,199
111,918	-31,241	-0,251	-0,099
112,933	73,743	-0,268	-0,197
113,947	-102,393	-0,258	-0,043
114,962	-61,464	-0,277	-0,081
115,976	371,196	-0,178	-0,254
116,991	6,048	-0,318	-0,164
118,006	88,580	-0,223	-0,173
119,020	101,805	-0,351	-0,287
120,035	80,451	-0,250	-0,188
121,049	-12,233	-0,298	-0,136
122,064	244,929	-0,106	-0,124
123,079	-45,019	-0,389	-0,135
124,093	155,261	-0,225	-0,216
125,108	130,494	-0,332	-0,297
126,122	-21,143	-0,228	-0,097
127,137	-117,682	-0,270	-0,034
128,151	93,786	-0,242	-0,192
129,166	84,419	-0,214	-0,163
130,181	184,844	-0,216	-0,224
131,195	-31,884	-0,409	-0,159
132,210	204,518	-0,228	-0,248
133,224	-51,323	-0,279	-0,091
134,239	94,201	-0,232	-0,184
135,254	-53,833	-0,342	-0,108
136,268	161,399	-0,244	-0,239
137,283	38,415	-0,275	-0,171
138,297	131,491	-0,230	-0,206
139,312	83,274	-0,275	-0,209
140,327	231,876	-0,165	-0,189
141,341	-14,315	-0,301	-0,135
142,356	50,253	-0,358	-0,236
143,370	28,937	-0,219	0,129
144,385	436,956	-0,159	-0,243
145,400	314,677	-0,226	-0,298
146,414	77,384	-0,292	-0,217
147,429	7,245	-0,347	-0,180
148,443	-31,148	-0,271	-0,106
149,458	389,730	-0,122	-0,177
150,473	35,386	-0,143	-0,087
151,487	-19,243	-0,152	-0,066
152,502	133,654	-0,204	-0,184
153,516	28,763	-0,343	-0,202
154,531	16,744	-0,266	-0,146
155,546	-64,399	-0,198	-0,056
156,560	474,969	-0,131	-0,207
157,575	-147,239	-0,236	-0,014
158,589	29,798	-0,205	-0,121
159,604	195,296	-0,255	-0,271
160,619	114,063	-0,209	-0,178
161,633	548,023	-0,164	-0,275
162,648	3,450	-0,431	-0,218
163,662	225,182	-0,185	-0,209
164,677	57,917	-0,184	-0,125
165,692	69,787	-0,228	-0,164
166,706	57,761	-0,297	-0,202
167,721	-38,315	-0,283	-0,104
168,735	75,403	-0,325	-0,238
169,750	43,931	-0,331	-0,211
170,764	345,525	-0,173	-0,238
171,779	800,000	-0,093	-0,198
172,794	46,999	-0,332	-0,215
173,808	383,106	-0,149	-0,213
174,823	114,304	-0,309	-0,262
175,837	53,588	-0,322	-0,215
176,852	104,319	-0,167	-0,137
177,867	31,878	-0,248	-0,148
178,881	-100,494	-0,231	-0,039
179,896	572,454	-0,119	-0,203
180,910	274,007	-0,124	-0,152
181,925	548,219	-0,139	-0,233
182,940	19,617	-0,357	-0,199
183,954	-5,561	-0,263	-0,125
184,969	56,355	-0,208	-0,140
185,983	-66,786	-0,231	-0,063
186,998	-60,506	-0,206	-0,061
188,013	160,598	-0,184	-0,179
189,027	138,061	-0,228	-0,208
190,042	213,505	-0,151	-0,166
191,056	97,153	-0,170	-0,136
192,071	800,000	-0,089	-0,175
193,086	2,169	-0,150	-0,075
194,100	182,468	-0,162	-0,166
195,115	-87,482	-0,242	-0,050
196,129	-93,548	-0,371	-0,071
197,144	-23,146	-0,325	-0,136
198,159	316,789	-0,198	-0,261
199,173	362,205	-0,192	-0,269
200,188	-67,053	-0,146	-0,040
201,202	179,501	-0,220	-0,224
202,217	110,182	-0,186	-0,155
203,232	298,693	-0,116	-0,148
204,246	8,415	-0,287	-0,150
205,261	51,858	-0,119	-0,078
206,275	85,002	-0,193	-0,147
207,290	30,310	-0,167	-0,098
208,304	5,450	-0,295	-0,151
209,319	58,777	-0,149	-0,102
210,334	31,952	-0,138	-0,082
211,348	221,758	-0,230	-0,257
212,363	102,827	-0,199	-0,162
213,377	179,454	-0,226	-0,229
214,392	589,883	-0,155	-0,266
215,407	90,506	-0,222	-0,172
216,421	695,486	-0,129	-0,236
217,436	-29,169	-0,236	-0,093
218,450	-39,265	-0,206	-0,075
219,465	20,326	-0,202	-0,113
220,480	34,684	-0,086	0,052
221,494	227,170	-0,132	-0,149
222,509	443,712	-0,092	-0,140
223,523	-28,544	-0,126	-0,050
224,538	108,217	-0,184	-0,152
225,553	99,360	-0,234	-0,187
226,567	7,043	-0,320	-0,165
227,582	73,784	-0,182	-0,132
228,596	198,224	-0,175	-0,186
229,611	443,168	-0,121	-0,184
230,626	318,425	-0,178	-0,235
231,640	357,971	-0,172	-0,239
232,655	86,293	-0,262	-0,200
233,669	135,802	-0,221	-0,199
234,684	-9,309	-0,319	-0,147
235,699	189,611	-0,137	-0,142
236,713	15,160	-0,245	-0,133
237,728	-48,756	-0,170	-0,056
238,742	-71,150	-0,157	-0,041
239,757	60,695	-0,181	-0,124
240,772	-200,000	-0,074	-0,277
241,786	654,707	-0,139	-0,248
242,801	197,467	-0,234	-0,247
243,815	-54,720	-0,107	-0,033
244,830	273,302	-0,086	-0,105
245,844	82,641	-0,171	-0,129
246,859	-78,323	-0,228	-0,054
247,874	98,442	-0,236	-0,188
248,888	-51,354	-0,224	-0,072
249,903	-14,771	-0,180	-0,080
250,917	-49,372	-0,165	-0,054
251,932	45,289	-0,111	-0,071
252,947	800,000	-0,046	-0,090
253,961	800,000	-0,111	-0,310
254,976	574,935	-0,153	-0,259
255,990	800,000	-0,080	-0,202
257,005	224,377	-0,174	-0,195
258,020	732,077	-0,148	-0,275
259,034	-200,000	-0,048	-0,154
260,049	-178,425	-0,130	0,002
261,063	74,952	-0,218	-0,159
262,078	457,598	-0,131	-0,202
263,093	27,291	-0,189	-0,109
264,107	-125,258	-0,256	0,027
265,122	88,458	-0,128	-0,098
266,136	538,989	-0,106	-0,174
267,151	33,533	-0,112	-0,067
268,166	57,588	-0,233	-0,157
269,180	480,777	-0,137	-0,215
270,195	717,080	-0,120	-0,221
271,209	11,604	-0,259	-0,137
272,224	355,596	-0,124	-0,171
273,239	-200,000	-0,008	-0,075
274,253	307,360	-0,093	0,120
275,268	42,773	-0,268	-0,168
276,282	103,786	-0,220	-0,179
277,297	83,789	-0,287	-0,216
278,312	132,640	-0,140	-0,125
279,326	108,131	-0,128	-0,105
280,341	800,000	-0,073	-0,142
281,355	-68,341	-0,206	-0,055
282,370	-200,000	-0,039	-0,241
283,384	67,089	-0,206	-0,145
284,399	99,957	-0,136	-0,109
285,414	766,623	-0,072	-0,135
286,428	55,241	-0,120	-0,080
287,443	284,070	-0,069	-0,085
288,457	160,559	-0,147	-0,142
289,472	23,434	-0,139	-0,079
290,487	-25,398	-0,096	-0,039
291,501	322,413	-0,142	-0,187
292,516	317,891	-0,064	-0,083
293,530	30,434	-0,175	-0,103
294,545	143,697	-0,041	-0,038
295,560	3,092	-0,165	-0,082
296,574	8,435	-0,042	-0,022
297,589	199,751	-0,137	-0,145
298,603	49,683	-0,285	-0,184
299,618	771,063	-0,127	-0,239
300,633	-200,000	-0,010	-0,218
301,647	39,840	-0,181	-0,112
302,662	-191,102	-0,157	-0,001
303,676	-200,000	-0,042	-0,242
304,691	-78,231	-0,161	0,038
305,706	152,245	-0,216	-0,203
306,720	800,000	-0,093	-0,180
307,735	296,777	-0,123	-0,155
308,749	-24,776	0,096	-0,039
309,764	-17,085	-0,186	-0,080
310,779	98,960	-0,133	-0,106
311,793	224,338	-0,122	-0,135
312,808	252,268	-0,117	-0,137
313,822	192,783	-0,227	-0,236
314,837	-68,871	-0,138	-0,036
315,852	-15,485	-0,152	-0,066
316,866	-76,093	-0,160	-0,039
317,881	-17,698	-0,265	-0,114
318,895	423,540	-0,109	-0,162
319,910	263,394	-0,069	-0,083
320,925	-90,020	-0,163	-0,032
321,939	-68,953	-0,155	0,041
322,954	-200,000	-0,005	0,042
323,968	698,571	-0,020	0,036
324,983	-200,000	0,001	-0,048
325,997	-71,191	-0,216	-0,055
327,012	36,720	-0,158	-0,096
328,027	800,000	-0,080	-0,189
329,041	373,965	-0,134	-0,187
330,056	248,371	-0,057	-0,067
331,070	-49,571	-0,188	-0,061
332,085	800,000	-0,126	-0,253
333,100	-73,701	-0,140	-0,035
334,114	-200,000	-0,041	-0,202
335,129	-12,475	-0,159	-0,071
336,143	-20,998	-0,227	-0,095
337,158	138,026	-0,150	-0,135
338,173	800,000	-0,046	-0,113
339,187	601,578	-0,124	-0,212
340,202	800,000	-0,064	-0,124
341,216	423,513	-0,153	-0,227
342,231	326,996	-0,151	-0,199
343,246	-44,535	-0,275	-0,094
344,260	172,079	-0,195	-0,192
345,275	-107,822	-0,112	0,017
346,289	90,282	-0,064	0,049
347,304	210,546	-0,109	-0,118
348,319	800,000	-0,082	-0,188
349,333	580,425	-0,109	-0,183
350,348	84,597	-0,112	-0,084
351,362	-128,688	-0,234	-0,022
352,377	5,743	0,025	-0,013
353,392	-200,000	-0,015	-0,057
354,406	-80,529	-0,152	-0,035
355,421	208,362	1313,161	1408,488
356,435	160,320	1473,679	1408,959
