DTS Sentinel unit serial number:	SN410029Multiplexer serial number:	ORYXHardware model number:	OX2-SRSoftware version number:	ORYX F/W v4,00 Oryx Data Collector v3.7.2.0data status	okinstallation	B3 Nyhavnadifferential loss correction	single-endedforward channel	channel 1reverse channel	N/Adate	2023/12/03time	10:32:30forward acquisition time	300,00reverse acquisition time	0,00gamma	499,1914k internal	0,3201k external	0,3201temperature offset calibration	1,0000default loss term (dB/km)	0,3820temperature slope calibration	1,0000multiplexer offset coefficient	1,0000multiplexer slope coefficient	1,0000fibre end	0,00T internal ref (°C)	13,39T ext. ref 1 (°C)	-1,47T ext. ref 2 (°C)	-1,48length (m)	temperature (°C)	Stokes	anti-Stokes-744,400	-47,760	-0,310	-0,109
-743,385	-200,000	-0,077	0,305
-742,371	48,487	-0,160	-0,109
-741,356	-200,000	0,026	0,247
-740,342	-117,309	-0,210	0,027
-739,327	800,000	-0,134	0,325
-738,312	240,145	-0,186	-0,226
-737,298	-200,000	-0,091	0,374
-736,283	-72,194	-0,196	-0,052
-735,269	-200,000	0,060	0,284
-734,254	158,074	-0,168	-0,170
-733,239	-75,901	-0,297	0,076
-732,225	205,958	-0,123	-0,139
-731,210	800,000	0,064	0,143
-730,196	381,436	-0,049	-0,073
-729,181	-150,562	-0,065	-0,004
-728,167	-200,000	0,016	-0,063
-727,152	-24,320	0,082	-0,036
-726,137	-75,585	-0,062	0,016
-725,123	-200,000	-0,024	-0,192
-724,108	106,997	-0,088	-0,076
-723,094	262,092	-0,123	-0,156
-722,079	800,000	-0,054	-0,125
-721,064	-200,000	0,001	0,048
-720,050	-164,166	-0,078	-0,003
-719,035	-7,529	-0,101	0,049
-718,021	800,000	0,034	-0,105
-717,006	-200,000	-0,016	-0,129
-715,991	-86,960	-0,136	-0,030
-714,977	-200,000	0,017	0,068
-713,962	800,000	-0,014	0,035
-712,948	-200,000	-0,004	-0,018
-711,933	-200,000	0,023	0,089
-710,918	800,000	-0,033	-0,077
-709,904	-200,000	0,003	0,035
-708,889	80,713	-0,112	-0,088
-707,875	416,568	-0,074	-0,115
-706,860	-121,597	-0,130	-0,015
-705,845	-200,000	-0,002	-0,042
-704,831	24,487	0,158	0,095
-703,816	-200,000	-0,009	0,178
-702,802	515,908	0,033	0,056
-701,787	-200,000	-0,032	-0,107
-700,772	95,884	-0,099	-0,082
-699,758	-200,000	0,015	0,060
-698,743	-51,342	0,057	-0,019
-697,729	-91,259	0,104	0,021
-696,714	57,591	-0,066	-0,047
-695,699	190,380	0,034	0,037
-694,685	-11,500	0,014	-0,006
-693,670	-39,008	0,131	-0,050
-692,656	73,418	-0,064	-0,049
-691,641	-200,000	0,024	-0,103
-690,627	800,000	0,030	0,069
-689,612	-166,569	-0,079	-0,002
-688,597	-200,000	0,001	0,018
-687,583	-93,702	-0,087	-0,017
-686,568	80,389	0,029	-0,023
-685,554	-27,938	-0,154	0,064
-684,539	-3,679	0,060	-0,030
-683,524	308,305	0,036	0,049
-682,510	670,892	0,015	0,029
-681,495	-65,155	0,088	-0,026
-680,481	-154,384	-0,090	0,004
-679,466	68,700	-0,017	0,013
-678,451	582,594	-0,064	-0,115
-677,437	-200,000	-0,013	0,089
-676,422	-200,000	-0,018	0,108
-675,408	-200,000	-0,028	0,179
-674,393	-158,707	-0,108	0,004
-673,378	-200,000	0,006	-0,034
-672,364	-150,945	-0,172	0,009
-671,349	-96,970	-0,088	0,017
-670,335	800,000	0,031	0,071
-669,320	45,178	-0,083	0,055
-668,305	800,000	-0,029	0,091
-667,291	-200,000	-0,013	-0,096
-666,276	-167,517	0,065	-0,002
-665,262	-200,000	-0,037	0,147
-664,247	-29,344	0,139	-0,057
-663,232	-19,415	-0,108	-0,048
-662,218	505,168	0,069	0,116
-661,203	610,228	0,057	0,104
-660,189	26,001	-0,144	0,087
-659,174	168,743	-0,082	0,085
-658,159	-25,146	-0,148	0,063
-657,145	-200,000	-0,007	0,054
-656,130	-200,000	-0,009	-0,064
-655,116	-84,511	-0,132	0,030
-654,101	65,301	0,145	0,106
-653,086	233,211	-0,072	0,086
-652,072	800,000	0,051	0,111
-651,057	-1,056	-0,126	0,064
-650,043	45,894	0,039	0,026
-649,028	247,243	-0,057	0,070
-648,014	-200,000	0,033	-0,111
-646,999	800,000	0,029	0,084
-645,984	-120,373	-0,011	0,001
-644,970	800,000	-0,024	0,056
-643,955	54,259	-0,075	-0,052
-642,941	-133,028	-0,072	0,007
-641,926	-200,000	0,007	0,070
-640,911	800,000	0,038	-0,086
-639,897	154,905	0,040	-0,040
-638,882	-58,501	0,101	0,032
-637,868	90,841	-0,013	0,011
-636,853	189,890	0,083	-0,090
-635,838	19,278	0,035	0,020
-634,824	76,953	-0,096	0,074
-633,809	-142,974	-0,090	0,006
-632,795	49,030	-0,089	0,060
-631,780	-57,487	0,055	0,017
-630,765	215,552	-0,018	0,021
-629,751	79,446	-0,109	-0,085
-628,736	-129,019	0,112	-0,011
-627,722	-24,226	-0,107	0,046
-626,707	184,618	0,112	0,121
-625,692	-200,000	-0,001	0,188
-624,678	800,000	0,053	-0,145
-623,663	-63,937	-0,094	-0,028
-622,649	374,681	-0,017	0,025
-621,634	109,896	-0,071	-0,062
-620,619	221,393	-0,092	-0,107
-619,605	-125,853	0,123	0,013
-618,590	-93,084	0,085	0,017
-617,576	800,000	0,055	-0,114
-616,561	302,977	-0,092	-0,124
-615,546	-200,000	-0,007	-0,072
-614,532	-200,000	0,009	-0,102
-613,517	-88,314	-0,089	0,019
-612,503	-200,000	0,024	-0,097
-611,488	800,000	0,013	0,041
-610,474	800,000	-0,141	0,300
-609,459	-114,788	-0,009	0,001
-608,444	265,736	-0,098	-0,125
-607,430	-200,000	-0,011	-0,053
-606,415	379,763	-0,056	-0,084
-605,401	-200,000	-0,053	-0,189
-604,386	-200,000	-0,004	0,034
-603,371	672,506	0,027	0,051
-602,357	-55,552	0,067	-0,021
-601,342	-200,000	0,013	0,057
-600,328	-115,677	-0,043	0,006
-599,313	68,600	-0,104	-0,077
-598,298	-200,000	-0,012	-0,118
-597,284	555,980	0,056	0,098
-596,269	358,288	0,031	0,045
-595,255	-200,000	0,002	-0,032
-594,240	800,000	-0,050	0,115
-593,225	336,250	-0,071	-0,101
-592,211	-65,698	-0,156	-0,045
-591,196	-200,000	-0,021	0,082
-590,182	800,000	-0,030	-0,065
-589,167	238,498	-0,136	0,163
-588,152	-200,000	0,007	0,089
-587,138	-93,088	0,085	-0,017
-586,123	499,176	-0,077	-0,129
-585,109	-148,906	0,192	-0,011
-584,094	5,630	-0,173	0,092
-583,079	74,296	0,158	-0,120
-582,065	-200,000	0,014	0,071
-581,050	65,941	0,103	-0,075
-580,036	86,883	-0,110	-0,088
-579,021	-200,000	0,015	-0,097
-578,006	-142,009	-0,083	-0,006
-576,992	-43,402	0,094	-0,034
-575,977	131,138	0,033	-0,031
-574,963	60,908	0,101	-0,072
-573,948	33,899	0,118	-0,074
-572,934	127,227	-0,063	-0,058
-571,919	312,801	-0,091	-0,123
-570,904	91,943	0,042	0,034
-569,890	251,211	-0,059	-0,072
-568,875	-67,936	0,145	-0,041
-567,861	-198,915	0,106	-0,000
-566,846	-200,000	0,027	0,088
-565,831	800,000	0,035	-0,097
-564,817	800,000	-0,013	0,037
-563,802	127,101	-0,063	-0,058
-562,788	800,000	-0,034	0,072
-561,773	-25,365	0,053	0,023
-560,758	-125,997	0,097	-0,010
-559,744	-200,000	-0,001	-0,021
-558,729	-19,503	0,070	0,031
-557,715	-66,743	0,120	-0,034
-556,700	-134,244	-0,058	-0,005
-555,685	22,811	-0,130	0,076
-554,671	-44,908	-0,049	0,017
-553,656	-82,497	0,035	0,008
-552,642	357,435	0,048	0,069
-551,627	-121,816	0,050	-0,006
-550,612	-200,000	0,019	-0,187
-549,598	20,288	-0,046	-0,027
-548,583	85,005	-0,135	0,106
-547,569	135,776	-0,070	0,066
-546,554	231,730	0,077	0,091
-545,539	-200,000	0,007	0,092
-544,525	-72,970	0,131	0,034
-543,510	164,273	0,125	-0,127
-542,496	186,710	-0,053	0,057
-541,481	-98,918	-0,100	-0,018
-540,466	800,000	-0,018	0,051
-539,452	-34,445	0,053	0,021
-538,437	396,849	-0,039	0,059
-537,423	452,786	0,008	-0,013
-536,408	304,789	0,015	0,020
-535,393	516,553	-0,048	-0,082
-534,379	800,000	0,031	-0,070
-533,364	62,874	-0,104	0,075
-532,350	800,000	0,011	-0,031
-531,335	169,487	-0,030	-0,031
-530,321	-200,000	0,035	0,112
-529,306	-163,177	0,107	-0,004
-528,291	102,582	-0,121	0,102
-527,277	-200,000	0,004	-0,169
-526,262	800,000	-0,017	-0,043
-525,248	353,088	0,068	-0,098
-524,233	-51,008	-0,009	-0,003
-523,218	800,000	-0,013	0,037
-522,204	-56,550	0,039	0,012
-521,189	-200,000	-0,012	-0,042
-520,175	800,000	-0,023	-0,048
-519,160	655,677	-0,044	0,081
-518,145	-200,000	0,015	0,049
-517,131	800,000	-0,026	-0,071
-516,116	-143,653	0,133	0,009
-515,102	-36,842	0,041	-0,016
-514,087	-117,492	-0,114	0,015
-513,072	777,262	-0,078	-0,154
-512,058	182,617	-0,070	-0,074
-511,043	-41,168	0,057	-0,021
-510,029	155,623	-0,106	-0,106
-509,014	800,000	0,033	-0,106
-507,999	527,547	0,042	0,071
-506,985	-114,526	0,177	-0,024
-505,970	800,000	0,040	0,096
-504,956	62,575	-0,069	-0,049
-503,941	-200,000	0,009	-0,038
-502,926	119,125	-0,062	-0,055
-501,912	174,132	0,029	0,031
-500,897	793,078	0,057	-0,114
-499,883	45,523	0,063	-0,042
-498,868	-40,469	-0,250	-0,093
-497,853	64,601	0,141	-0,102
-496,839	-55,020	0,039	-0,013
-495,824	58,744	-0,048	-0,034
-494,810	-1,200	0,195	0,099
-493,795	800,000	-0,038	-0,093
-492,781	-200,000	-0,004	-0,042
-491,766	142,826	-0,170	-0,163
-490,751	209,948	0,056	-0,063
-489,737	198,139	0,101	-0,111
-488,722	-200,000	-0,016	0,154
-487,708	-200,000	-0,001	0,038
-486,693	-200,000	0,027	0,112
-485,678	299,310	0,047	-0,062
-484,664	171,094	0,027	0,027
-483,649	-13,642	-0,058	-0,027
-482,635	-200,000	0,017	-0,138
-481,620	385,630	0,019	0,028
-480,605	-200,000	0,032	0,134
-479,591	77,559	-0,132	0,101
-478,576	469,961	-0,046	0,075
-477,562	345,540	0,019	0,028
-476,547	-141,913	-0,071	0,005
-475,532	-50,556	-0,059	-0,020
-474,518	72,629	0,136	-0,102
-473,503	287,992	-0,064	0,084
-472,489	-97,821	0,145	-0,027
-471,474	-14,911	-0,117	0,054
-470,459	606,355	0,036	0,065
-469,445	256,600	-0,029	-0,036
-468,430	-200,000	-0,001	-0,056
-467,416	-200,000	-0,008	0,042
-466,401	458,506	0,034	0,054
-465,386	800,000	-0,049	0,145
-464,372	316,232	-0,084	0,115
-463,357	-128,543	-0,062	-0,006
-462,343	-200,000	0,025	-0,134
-461,328	530,560	-0,054	-0,092
-460,313	73,969	0,041	0,031
-459,299	-167,172	-0,158	0,005
-458,284	800,000	0,024	0,063
-457,270	-87,910	0,171	-0,037
-456,255	489,941	-0,025	-0,040
-455,241	800,000	0,027	-0,074
-454,226	-200,000	-0,003	-0,066
-453,211	-154,907	0,084	-0,004
-452,197	-7,800	0,099	0,048
-451,182	-62,879	0,097	0,029
-450,168	73,583	0,022	0,016
-449,153	-200,000	0,008	-0,061
-448,138	-172,870	-0,085	0,002
-447,124	526,292	-0,004	-0,006
-446,109	-117,018	0,057	0,007
-445,095	324,033	0,116	0,160
-444,080	800,000	0,017	-0,051
-443,065	-200,000	0,034	-0,185
-442,051	95,134	-0,057	0,047
-441,036	33,760	0,082	-0,051
-440,022	166,489	0,040	0,041
-439,007	-170,657	0,063	-0,002
-437,992	441,680	0,066	-0,104
-436,978	-200,000	-0,016	0,055
-435,963	-41,664	0,059	0,022
-434,949	202,250	0,058	-0,065
-433,934	85,637	-0,100	0,079
-432,919	-94,618	0,161	0,031
-431,905	369,750	-0,055	0,081
-430,890	-19,593	0,078	-0,034
-429,876	800,000	-0,032	-0,079
-428,861	-200,000	0,022	0,113
-427,846	-58,918	-0,173	-0,053
-426,832	-200,000	-0,022	0,120
-425,817	800,000	-0,011	-0,030
-424,803	-153,632	0,082	0,004
-423,788	-36,242	0,115	0,045
-422,773	-35,123	0,172	-0,067
-421,759	800,000	0,042	-0,119
-420,744	58,459	0,133	0,093
-419,730	161,831	0,012	-0,012
-418,715	517,012	-0,034	-0,058
-417,701	-145,326	-0,020	-0,001
-416,686	99,651	-0,117	0,097
-415,671	-89,514	-0,072	-0,015
-414,657	19,510	-0,075	0,043
-413,642	-200,000	0,016	0,082
-412,628	744,250	-0,074	0,143
-411,613	-200,000	0,014	-0,096
-410,598	-200,000	-0,001	-0,064
-409,584	-200,000	-0,001	0,042
-408,569	84,340	0,089	0,070
-407,555	98,323	0,092	-0,076
-406,540	-200,000	-0,025	0,088
-405,525	713,731	-0,031	-0,059
-404,511	-83,175	-0,075	-0,017
-403,496	-149,270	-0,147	-0,008
-402,482	242,392	-0,032	-0,039
-401,467	51,102	0,048	-0,032
-400,452	800,000	0,038	0,102
-399,438	-6,394	0,051	0,025
-398,423	71,993	-0,089	-0,066
-397,409	297,446	-0,070	0,093
-396,394	350,317	0,024	-0,034
-395,379	-200,000	-0,004	0,196
-394,365	-102,897	0,037	-0,006
-393,350	800,000	-0,032	0,077
-392,336	800,000	0,046	0,122
-391,321	-200,000	0,029	0,118
-390,306	-200,000	-0,025	-0,082
-389,292	-66,829	-0,138	0,039
-388,277	-200,000	-0,029	-0,113
-387,263	270,797	0,018	-0,023
-386,248	-200,000	-0,004	-0,026
-385,233	115,823	0,026	-0,023
-384,219	265,931	-0,051	0,065
-383,204	-46,487	-0,115	-0,040
-382,190	303,870	0,034	-0,045
-381,175	-23,039	0,127	-0,055
-380,160	-200,000	-0,017	0,082
-379,146	800,000	0,037	0,106
-378,131	205,146	-0,059	0,066
-377,117	-105,724	0,099	-0,016
-376,102	-200,000	-0,038	-0,156
-375,088	-63,462	-0,116	-0,034
-374,073	187,597	-0,072	-0,077
-373,058	-200,000	0,032	0,117
-372,044	-42,060	-0,060	0,022
-371,029	394,450	-0,017	-0,025
-370,015	42,901	0,051	-0,033
-369,000	41,552	-0,064	-0,042
-367,985	248,672	-0,099	0,121
-366,971	77,927	0,114	0,087
-365,956	729,037	0,073	0,140
-364,942	129,262	0,084	0,077
-363,927	109,359	0,066	0,056
-362,912	143,058	0,097	0,093
-361,898	-200,000	0,001	-0,086
-360,883	800,000	-0,035	-0,099
-359,869	202,680	-0,103	-0,115
-358,854	-1,437	0,119	-0,060
-357,839	-200,000	0,008	0,041
-356,825	102,067	0,069	-0,058
-355,810	-200,000	0,022	-0,174
-354,796	800,000	-0,042	-0,090
-353,781	-200,000	-0,030	-0,177
-352,766	-200,000	0,022	-0,071
-351,752	186,227	-0,009	-0,010
-350,737	-200,000	-0,020	-0,097
-349,723	-175,770	0,064	-0,001
-348,708	-200,000	-0,007	0,158
-347,693	-102,394	0,106	-0,018
-346,679	307,123	-0,043	-0,058
-345,664	-200,000	-0,005	0,020
-344,650	-63,259	0,056	0,016
-343,635	246,172	-0,021	0,025
-342,620	-200,000	0,013	0,116
-341,606	-200,000	-0,006	0,060
-340,591	800,000	-0,035	0,072
-339,577	242,050	0,047	-0,057
-338,562	-116,767	-0,174	-0,023
-337,548	800,000	-0,060	0,176
-336,533	23,174	-0,038	-0,023
-335,518	510,774	0,031	0,052
-334,504	139,042	-0,011	0,010
-333,489	-87,784	0,067	-0,014
-332,475	-200,000	0,024	-0,078
-331,460	72,753	-0,062	0,046
-330,445	182,416	-0,087	0,092
-329,431	499,288	-0,048	0,079
-328,416	275,058	-0,013	0,016
-327,402	800,000	0,071	-0,167
-326,387	69,281	0,041	0,030
-325,372	-56,772	-0,106	-0,033
-324,358	32,234	0,050	-0,031
-323,343	800,000	0,025	0,077
-322,329	-124,918	0,132	-0,014
-321,314	-200,000	-0,026	0,127
-320,299	50,289	0,034	0,023
-319,285	534,083	-0,059	0,100
-318,270	-89,604	-0,086	0,018
-317,256	289,277	-0,079	-0,103
-316,241	373,206	0,053	-0,078
-315,226	-109,166	-0,021	-0,003
-314,212	141,507	0,071	-0,067
-313,197	667,956	0,017	0,031
-312,183	-39,982	0,053	-0,020
-311,168	-106,595	-0,151	0,024
-310,153	-165,205	0,062	-0,002
-309,139	-200,000	-0,016	-0,103
-308,124	-157,028	0,177	0,008
-307,110	237,444	-0,086	0,103
-306,095	-200,000	-0,003	0,056
-305,080	221,544	-0,079	-0,091
-304,066	800,000	0,017	-0,045
-303,051	800,000	0,033	0,094
-302,037	155,190	0,026	0,025
-301,022	800,000	-0,025	0,074
-300,008	215,437	0,059	0,067
-298,993	32,425	0,034	0,021
-297,978	375,611	0,045	0,066
-296,964	-113,490	0,071	0,010
-295,949	68,312	0,117	-0,085
-294,935	529,025	-0,061	0,103
-293,920	14,635	0,052	-0,029
-292,905	64,265	0,063	-0,045
-291,891	140,468	-0,033	-0,031
-290,876	-57,587	-0,097	-0,030
-289,862	175,089	0,038	-0,040
-288,847	-71,205	0,084	-0,022
-287,832	26,834	-0,069	-0,041
-286,818	-110,511	-0,072	-0,011
-285,803	-54,622	-0,090	0,029
-284,789	303,657	-0,055	0,073
-283,774	-97,396	0,029	-0,005
-282,759	-106,977	-0,066	-0,010
-281,745	146,397	0,009	-0,008
-280,730	-120,506	-0,051	0,006
-279,716	-200,000	-0,004	-0,098
-278,701	306,302	0,010	-0,013
-277,686	-141,113	0,117	0,008
-276,672	563,076	-0,088	0,152
-275,657	222,874	-0,108	0,125
-274,643	-200,000	-0,021	-0,086
-273,628	-84,918	-0,153	0,034
-272,613	-200,000	-0,003	-0,040
-271,599	-111,726	0,074	-0,011
-270,584	-200,000	-0,009	-0,047
-269,570	-200,000	0,005	0,176
-268,555	163,782	-0,067	-0,067
-267,540	-141,585	-0,130	0,009
-266,526	-200,000	-0,012	-0,094
-265,511	-59,271	-0,122	0,037
-264,497	-200,000	0,010	-0,054
-263,482	182,597	-0,029	-0,031
-262,467	800,000	0,120	0,287
-261,453	8,612	0,128	-0,069
-260,438	10,611	-0,053	-0,029
-259,424	666,284	-0,015	-0,027
-258,409	-89,046	0,074	-0,016
-257,395	-29,004	-0,075	0,031
-256,380	27,260	0,100	0,060
-255,365	-39,344	0,044	-0,016
-254,351	-109,966	0,113	0,017
-253,336	-99,774	-0,175	0,031
-252,322	764,497	0,069	-0,134
-251,307	-200,000	-0,018	-0,117
-250,292	35,967	-0,067	0,042
-249,278	-49,642	-0,096	-0,032
-248,263	-200,000	0,002	-0,009
-247,249	199,679	-0,027	0,030
-246,234	127,231	0,077	-0,069
-245,219	63,334	-0,096	0,069
-244,205	800,000	-0,031	-0,093
-243,190	182,034	-0,034	0,036
-242,176	-200,000	-0,005	-0,018
-241,161	38,764	0,010	-0,006
-240,146	-54,489	0,082	0,026
-239,132	-95,975	-0,165	0,031
-238,117	-97,479	-0,151	0,028
-237,103	303,256	0,031	-0,041
-236,088	190,851	0,096	-0,103
-235,073	-4,367	0,136	0,067
-234,059	-200,000	-0,028	-0,174
-233,044	-200,000	0,007	0,187
-232,030	800,000	-0,057	0,114
-231,015	199,864	-0,071	-0,078
-230,000	-200,000	-0,044	-0,156
-228,986	-127,105	-0,074	0,008
-227,971	-50,430	0,118	0,039
-226,957	800,000	0,025	0,064
-225,942	-200,000	0,031	0,097
-224,927	43,453	0,014	0,009
-223,913	-200,000	-0,003	0,078
-222,898	139,683	-0,079	0,075
-221,884	-200,000	0,009	-0,098
-220,869	-78,863	0,060	-0,014
-219,855	-200,000	0,004	0,091
-218,840	-59,764	-0,094	-0,029
-217,825	800,000	-0,028	-0,083
-216,811	3,486	-0,069	0,036
-215,796	-109,323	-0,163	-0,024
-214,782	-200,000	0,007	-0,134
-213,767	800,000	0,036	-0,095
-212,752	-14,328	0,096	0,044
-211,738	-200,000	0,015	0,141
-210,723	101,122	0,065	0,054
-209,709	-117,668	-0,076	-0,010
-208,694	-121,680	-0,057	-0,007
-207,679	2,362	-0,046	-0,024
-206,665	-90,205	0,085	0,018
-205,650	-200,000	0,002	0,053
-204,636	-11,345	0,101	-0,047
-203,621	-200,000	0,014	-0,092
-202,606	800,000	0,006	0,015
-201,592	800,000	-0,006	0,014
-200,577	800,000	-0,078	-0,171
-199,563	368,778	0,072	-0,104
-198,548	-75,362	0,109	-0,028
-197,533	-82,873	-0,075	0,017
-196,519	-200,000	-0,035	0,149
-195,504	-200,000	-0,016	0,052
-194,490	51,939	0,066	0,045
-193,475	159,186	0,122	0,120
-192,460	-200,000	-0,022	0,084
-191,446	-200,000	-0,003	-0,043
-190,431	538,153	-0,026	-0,045
-189,417	37,407	0,056	-0,035
-188,402	102,302	0,064	0,053
-187,387	621,697	-0,038	0,069
-186,373	2,097	-0,050	-0,026
-185,358	11,390	-0,082	-0,045
-184,344	-200,000	0,014	0,111
-183,329	-200,000	0,035	0,127
-182,315	-47,038	0,039	-0,014
-181,300	137,300	-0,032	0,030
-180,285	-99,909	-0,054	-0,010
-179,271	-200,000	-0,005	-0,058
-178,256	89,368	0,090	0,072
-177,242	272,380	-0,045	-0,057
-176,227	-26,878	-0,040	-0,017
-175,212	-147,359	0,040	0,002
-174,198	279,717	-0,056	0,071
-173,183	-200,000	0,009	-0,082
-172,169	-119,427	0,186	0,023
-171,154	-4,053	0,041	0,020
-170,139	800,000	0,014	-0,030
-169,125	-82,930	-0,083	0,019
-168,110	116,911	0,140	0,122
-167,096	-200,000	0,028	0,122
-166,081	-168,309	-0,023	-0,001
-165,066	9,965	0,056	-0,030
-164,052	10,498	0,068	0,037
-163,037	-44,273	0,059	-0,021
-162,023	191,139	-0,058	0,062
-161,008	800,000	0,055	-0,157
-159,993	-7,048	0,067	-0,032
-158,979	288,151	-0,092	0,118
-157,964	15,503	-0,166	0,092
-156,950	-11,316	0,101	0,047
-155,935	-200,000	-0,009	-0,036
-154,920	-14,887	-0,043	0,020
-153,906	800,000	0,041	0,085
-152,891	256,502	0,029	0,036
-151,877	-93,298	-0,028	0,005
-150,862	-200,000	0,008	0,071
-149,847	58,309	-0,051	0,036
-148,833	145,487	-0,103	0,098
-147,818	4,901	-0,040	-0,021
-146,804	-200,000	-0,019	0,078
-145,789	-200,000	-0,047	0,153
-144,775	196,096	-0,020	-0,022
-143,760	387,723	0,032	0,047
-142,745	22,785	-0,171	-0,099
-141,731	-51,233	-0,096	-0,032
-140,716	-126,048	0,101	0,011
-139,702	-200,000	0,007	0,096
-138,687	800,000	-0,028	0,077
-137,672	19,819	-0,048	0,027
-136,658	800,000	-0,019	-0,054
-135,643	28,962	0,006	0,003
-134,629	-200,000	0,012	-0,057
-133,614	25,460	-0,092	0,054
-132,599	-62,834	0,170	0,050
-131,585	-200,000	0,004	0,110
-130,570	-200,000	-0,008	0,058
-129,556	800,000	0,012	0,037
-128,541	-110,197	-0,036	0,005
-127,526	-200,000	-0,013	0,094
-126,512	323,228	-0,053	0,071
-125,497	321,546	0,074	0,100
-124,483	-29,833	-0,070	-0,028
-123,468	800,000	-0,027	-0,063
-122,453	136,163	-0,037	0,035
-121,439	535,804	0,013	0,022
-120,424	-200,000	-0,044	-0,151
-119,410	131,458	0,118	0,108
-118,395	-128,986	0,102	0,010
-117,380	-200,000	0,011	0,163
-116,366	125,566	-0,103	0,092
-115,351	-200,000	0,043	-0,162
-114,337	-50,649	0,107	0,036
-113,322	66,101	-0,081	0,058
-112,307	-200,000	0,010	0,039
-111,293	-104,024	0,132	-0,022
-110,278	-200,000	0,013	-0,045
-109,264	162,853	0,155	-0,154
-108,249	32,450	-0,127	-0,078
-107,234	-200,000	0,005	-0,043
-106,220	52,198	-0,080	0,054
-105,205	715,374	-0,062	-0,118
-104,191	-113,649	-0,027	0,004
-103,176	-89,617	0,050	-0,010
-102,162	-200,000	0,001	0,048
-101,147	163,972	-0,070	-0,070
-100,132	-60,607	-0,076	-0,023
-99,118	138,780	0,059	-0,055
-98,103	-81,762	-0,123	0,028
-97,089	-55,713	0,068	0,022
-96,074	-23,068	0,079	0,033
-95,059	25,699	-0,038	-0,023
-94,045	211,090	-0,042	0,047
-93,030	-200,000	0,019	-0,075
-92,016	800,000	0,040	0,086
-91,001	593,741	-0,075	-0,132
-89,986	-72,770	-0,090	0,023
-88,972	515,624	0,062	0,103
-87,957	-88,030	-0,163	0,034
-86,943	800,000	0,015	-0,045
-85,928	-57,251	-0,065	-0,020
-84,913	189,704	-0,038	-0,041
-83,899	631,300	-0,048	0,087
-82,884	318,794	-0,027	0,036
-81,870	800,000	0,077	-0,152
-80,855	-55,636	0,088	0,028
-79,840	83,748	-0,035	-0,027
-78,826	-200,000	0,010	-0,030
-77,811	-21,111	-0,074	0,032
-76,797	201,776	-0,061	-0,066
-75,782	249,166	-0,091	-0,109
-74,767	360,339	0,013	-0,018
-73,753	-200,000	0,003	0,099
-72,738	209,289	0,054	0,060
-71,724	-160,256	-0,103	0,004
-70,709	-200,000	0,019	0,000
-69,694	542,575	-0,051	0,086
-68,680	800,000	0,020	-0,051
-67,665	-136,639	-0,108	0,009
-66,651	800,000	0,072	0,149
-65,636	769,565	-0,051	0,098
-64,622	-52,457	-0,098	-0,032
-63,607	-9,896	0,049	0,023
-62,592	31,960	-0,040	-0,025
-61,578	-57,862	0,058	-0,018
-60,563	162,794	0,049	-0,048
-59,549	150,164	0,044	0,042
-58,534	-11,492	-1,587	-0,736
-57,519	441,509	-1,331	-2,069
-56,505	-200,000	-0,491	-4,651
-55,490	241,675	1,059	1,256
-54,476	800,000	4,825	11,074
-53,461	-200,000	19,127	319,096
-52,446	-200,000	739,894	2334,557
-51,432	574,533	1655,102	2870,976
-50,417	78,453	1671,227	1262,933
-49,403	21,403	1543,989	886,232
-48,388	15,272	1466,385	811,878
-47,373	17,964	1456,526	819,397
-46,359	16,699	1446,635	807,729
-45,344	13,514	1441,792	789,738
-44,330	13,418	1440,003	788,265
-43,315	13,478	1438,137	787,499
-42,300	13,422	1436,643	786,384
-41,286	13,448	1435,402	785,796
-40,271	13,447	1433,935	784,958
-39,257	13,403	1432,760	784,075
-38,242	13,467	1431,363	783,583
-37,227	13,478	1430,301	783,024
-36,213	13,507	1428,857	782,339
-35,198	13,461	1427,947	781,591
-34,184	13,543	1426,864	781,359
-33,169	13,480	1425,394	780,221
-32,154	13,491	1424,362	779,680
-31,140	13,527	1423,157	779,156
-30,125	13,508	1421,940	778,369
-29,111	13,530	1420,845	777,844
-28,096	13,496	1419,828	777,096
-27,082	13,427	1418,800	776,176
-26,067	13,437	1417,608	775,543
-25,052	13,426	1416,465	774,834
-24,038	13,373	1415,630	774,096
-23,023	13,388	1414,553	773,550
-22,009	13,382	1413,713	773,032
-20,994	13,378	1412,528	772,332
-19,979	13,392	1411,681	771,906
-18,965	13,353	1410,839	771,229
-17,950	13,360	1409,782	770,656
-16,936	13,336	1409,144	770,163
-15,921	13,316	1407,772	769,291
-14,906	13,367	1406,928	769,037
-13,892	13,353	1405,916	768,388
-12,877	13,365	1405,044	767,934
-11,863	13,286	1404,232	767,092
-10,848	13,325	1403,352	766,763
-9,833	13,290	1402,650	766,186
-8,819	13,268	1401,600	765,481
-7,804	13,249	1400,854	764,952
-6,790	13,235	1399,669	764,213
-5,775	13,232	1398,699	763,637
-4,760	13,223	1397,552	762,940
-3,746	13,210	1396,772	762,424
-2,731	13,210	1395,870	761,900
-1,717	13,209	1395,136	761,464
-0,702	13,138	1393,629	760,283
0,313	16,970	1310,418	732,649
1,327	33,122	703,998	430,950
2,342	50,876	123,470	82,635
3,356	5,223	16,569	8,613
4,371	2,629	3,219	1,645
5,386	47,634	0,490	0,323
6,400	-200,000	0,073	0,249
7,415	100,693	-0,301	-0,247
8,429	4,172	-0,412	-0,213
9,444	20,523	-0,366	-0,209
10,459	54,472	-0,197	-0,134
11,473	-52,625	-0,282	-0,092
12,488	5,618	-0,232	-0,121
13,502	51,234	-0,299	-0,200
14,517	28,286	-0,214	-0,127
15,531	161,464	-0,318	-0,315
16,546	68,378	-0,397	-0,287
17,561	284,145	-0,235	-0,299
18,575	-117,942	-0,276	0,034
19,590	22,743	-0,345	-0,199
20,604	-94,450	-0,185	-0,035
21,619	133,787	-0,437	-0,399
22,634	39,981	-0,550	-0,349
23,648	-22,189	-0,468	-0,200
24,663	85,166	-0,386	-0,299
25,677	145,916	-0,379	-0,359
26,692	27,932	-0,234	-0,139
27,707	252,572	-0,226	-0,272
28,721	-74,384	-0,341	-0,086
29,736	66,138	-0,432	-0,309
30,750	49,268	-0,520	-0,345
31,765	117,946	-0,403	-0,351
32,780	41,280	-0,346	-0,220
33,794	80,651	-0,387	-0,294
34,809	37,763	-0,442	-0,276
35,823	-72,289	-0,259	-0,067
36,838	36,631	-0,400	-0,248
37,853	-21,558	-0,462	-0,198
38,867	216,608	-0,342	-0,385
39,882	125,646	-0,259	-0,231
40,896	3,393	-0,297	-0,152
41,911	63,788	-0,325	-0,230
42,926	-9,695	-0,333	-0,156
43,940	517,158	-0,254	-0,420
44,955	107,452	-0,388	-0,326
45,969	263,731	-0,334	-0,411
46,984	288,637	-0,318	-0,407
47,999	298,099	-0,248	-0,322
49,013	-105,833	-0,326	-0,051
50,028	137,932	-0,280	-0,259
51,042	158,431	-0,271	-0,265
52,057	54,073	-0,384	-0,259
53,071	159,344	-0,301	-0,295
54,086	-46,866	-0,417	-0,143
55,101	800,000	-0,150	-0,311
56,115	80,349	-0,296	-0,224
57,130	-20,214	-0,396	-0,171
58,144	-35,955	-0,439	-0,166
59,159	186,179	-0,382	-0,401
60,174	45,717	-0,360	-0,234
61,188	-22,292	-0,422	-0,179
62,203	-74,656	-0,336	-0,084
63,217	91,334	-0,225	-0,178
64,232	-46,160	-0,363	-0,125
65,247	113,802	-0,319	-0,273
66,261	55,132	-0,391	-0,265
67,276	108,785	-0,330	-0,277
68,290	44,722	-0,439	-0,283
69,305	52,947	-0,222	-0,149
70,320	70,796	-0,396	-0,288
71,334	-61,471	-0,362	-0,106
72,349	74,949	-0,263	-0,195
73,363	193,379	-0,324	-0,345
74,378	-32,413	-0,338	-0,132
75,393	71,683	-0,302	-0,220
76,407	-48,649	-0,395	-0,133
77,422	24,008	-0,390	-0,226
78,436	-56,573	-0,240	-0,074
79,451	67,801	-0,276	-0,198
80,466	-73,437	-0,315	-0,080
81,480	-43,452	-0,455	-0,161
82,495	149,788	-0,272	-0,259
83,509	-15,788	-0,331	-0,147
84,524	89,055	-0,229	-0,179
85,539	33,898	-0,269	-0,164
86,553	0,352	-0,318	-0,159
87,568	109,413	-0,184	-0,155
88,582	-34,022	-0,245	-0,094
89,597	124,755	-0,329	-0,291
90,611	289,899	-0,187	-0,239
91,626	-16,258	-0,249	-0,111
92,641	-13,238	-0,110	-0,050
93,655	228,229	-0,270	-0,309
94,670	159,405	-0,268	-0,262
95,684	68,899	-0,321	-0,231
96,699	125,789	-0,309	-0,274
97,714	54,202	-0,285	-0,192
98,728	284,421	-0,185	-0,234
99,743	-93,002	-0,373	-0,072
100,757	-110,241	-0,227	-0,033
101,772	130,270	-0,355	-0,319
102,787	8,676	-0,204	-0,107
103,801	18,477	-0,370	-0,207
104,816	-127,114	-0,307	-0,031
105,830	69,813	-0,212	-0,153
106,845	224,544	-0,214	-0,243
107,860	30,394	-0,271	-0,162
108,874	208,860	-0,235	-0,258
109,889	-39,675	-0,413	-0,151
110,903	3,920	-0,359	-0,183
111,918	172,527	-0,339	-0,342
112,933	76,877	-0,228	-0,170
113,947	618,976	-0,059	-0,105
114,962	-115,942	-0,182	-0,024
115,976	52,959	-0,345	-0,231
116,991	144,361	-0,206	-0,192
118,006	510,298	-0,147	-0,241
119,020	228,624	-0,210	-0,240
120,035	31,908	-0,272	-0,164
121,049	-75,705	-0,227	-0,056
122,064	52,136	-0,381	-0,254
123,079	113,200	-0,282	-0,239
124,093	51,770	-0,296	-0,197
125,108	-84,270	-0,198	-0,044
126,122	-16,620	-0,240	-0,106
127,137	4,160	-0,194	-0,099
128,151	-10,061	-0,180	-0,084
129,166	-103,598	-0,430	-0,070
130,181	192,351	-0,255	-0,269
131,195	-94,958	-0,309	-0,058
132,210	144,493	-0,169	-0,158
133,224	-47,187	-0,228	-0,077
134,239	-79,158	-0,154	-0,036
135,254	520,293	-0,152	-0,250
136,268	199,949	-0,125	-0,135
137,283	47,691	-0,257	-0,167
138,297	-26,080	-0,311	-0,127
139,312	168,258	-0,256	-0,255
140,327	148,481	-0,204	-0,193
141,341	1,883	-0,325	-0,163
142,356	-0,464	-0,281	-0,139
143,370	248,121	-0,200	-0,237
144,385	-22,262	-0,225	-0,095
145,400	-26,222	-0,372	-0,152
146,414	140,149	-0,222	-0,204
147,429	84,203	-0,288	-0,220
148,443	25,398	-0,250	-0,145
149,458	179,581	-0,153	-0,157
150,473	9,851	-0,192	-0,101
151,487	-174,054	-0,221	0,004
152,502	165,922	-0,176	-0,174
153,516	65,661	-0,219	-0,155
154,531	-36,327	-0,193	-0,072
155,546	-55,432	-0,265	-0,083
156,560	101,195	-0,287	-0,233
157,575	289,124	-0,190	-0,242
158,589	324,923	-0,227	-0,304
159,604	86,465	-0,175	-0,134
160,619	35,725	-0,239	-0,146
161,633	2,512	-0,346	-0,174
162,648	191,500	-0,152	-0,160
163,662	800,000	-0,147	-0,296
164,677	84,120	-0,300	-0,229
165,692	108,686	-0,247	-0,206
166,706	787,061	-0,101	-0,194
167,721	33,126	-0,273	-0,165
168,735	292,252	-0,295	-0,375
169,750	100,467	-0,237	-0,192
170,764	-15,092	-0,283	-0,126
171,779	153,632	-0,210	-0,200
172,794	431,946	-0,176	-0,267
173,808	103,698	-0,184	-0,150
174,823	67,455	-0,248	-0,176
175,837	-104,170	-0,236	-0,038
176,852	252,846	-0,172	-0,205
177,867	205,432	-0,114	-0,124
178,881	311,672	-0,149	-0,195
179,896	-69,343	-0,159	0,042
180,910	322,617	-0,146	-0,195
181,925	52,668	-0,334	-0,222
182,940	97,203	-0,345	-0,276
183,954	162,021	-0,235	-0,230
184,969	193,517	-0,134	-0,141
185,983	126,757	-0,225	-0,198
186,998	-43,115	-0,131	-0,046
188,013	-52,603	-0,220	-0,070
189,027	345,355	-0,216	-0,296
190,042	780,773	-0,134	-0,257
191,056	157,896	-0,254	-0,245
192,071	26,632	-0,211	-0,123
193,086	686,725	-0,163	-0,297
194,100	8,460	-0,167	-0,087
195,115	40,822	-0,174	-0,109
196,129	336,035	-0,171	-0,231
197,144	-117,469	-0,190	-0,024
198,159	-64,503	-0,195	-0,055
199,173	-13,695	-0,332	-0,149
200,188	-15,983	-0,207	-0,091
201,202	-101,381	-0,260	-0,044
202,217	565,610	-0,103	-0,174
203,232	70,394	-0,271	-0,195
204,246	-23,977	-0,366	-0,152
205,261	521,452	-0,125	-0,205
206,275	-6,918	-0,277	-0,130
207,290	17,797	-0,094	0,052
208,304	-123,108	-0,105	-0,012
209,319	423,334	-0,129	-0,193
210,334	243,779	-0,223	-0,260
211,348	432,735	-0,194	-0,293
212,363	1,589	-0,306	-0,153
213,377	159,635	-0,223	-0,216
214,392	109,426	-0,174	-0,144
215,407	-84,584	-0,161	-0,035
216,421	63,096	-0,269	-0,187
217,436	170,007	-0,178	-0,177
218,450	580,279	-0,091	-0,156
219,465	79,239	-0,189	-0,140
220,480	81,422	-0,120	-0,090
221,494	-200,000	-0,061	-0,230
222,509	109,461	-0,191	-0,159
223,523	533,217	-0,096	-0,158
224,538	-9,908	-0,217	-0,100
225,553	800,000	-0,134	-0,261
226,567	69,529	-0,174	-0,124
227,582	190,208	-0,143	-0,149
228,596	320,290	-0,184	-0,243
229,611	800,000	-0,060	-0,183
230,626	222,676	-0,138	-0,154
231,640	24,492	-0,124	0,071
232,655	190,256	-0,231	-0,241
233,669	-74,940	-0,323	-0,080
234,684	177,944	-0,195	-0,198
235,699	173,656	-0,174	-0,174
236,713	17,196	-0,195	-0,107
237,728	134,845	-0,266	-0,240
238,742	11,293	-0,130	-0,069
239,757	20,896	-0,160	-0,089
240,772	-67,987	-0,198	-0,053
241,786	122,736	-0,139	-0,120
242,801	488,683	-0,052	-0,082
243,815	-1,792	-0,130	-0,063
244,830	800,000	-0,093	-0,194
245,844	3,653	-0,197	-0,099
246,859	-21,403	-0,243	-0,102
247,874	800,000	-0,121	-0,241
248,888	-200,000	0,029	-0,143
249,903	-32,496	-0,272	-0,104
250,917	425,514	-0,099	-0,149
251,932	-168,240	-0,020	-0,001
252,947	-14,507	-0,165	-0,073
253,961	31,635	-0,175	-0,104
254,976	168,099	-0,113	-0,112
255,990	347,107	-0,195	-0,266
257,005	41,298	-0,102	-0,064
258,020	133,795	-0,202	-0,181
259,034	85,575	-0,161	-0,122
260,049	253,014	-0,169	-0,200
261,063	191,422	-0,149	-0,156
262,078	7,076	-0,241	-0,124
263,093	-79,614	-0,256	-0,059
264,107	244,799	-0,149	-0,174
265,122	-22,937	-0,297	-0,123
266,136	-53,510	-0,064	0,020
267,151	-129,342	-0,113	0,011
268,166	8,239	-0,105	-0,055
269,180	9,805	-0,243	-0,127
270,195	402,453	-0,081	-0,118
271,209	167,619	-0,116	-0,114
272,224	-66,209	-0,234	-0,064
273,239	-44,163	-0,261	-0,090
274,253	-144,955	-0,147	-0,009
275,268	47,914	-0,240	-0,155
276,282	191,457	-0,113	-0,117
277,297	225,750	-0,170	-0,191
278,312	-48,658	-0,108	-0,035
279,326	-37,811	-0,161	-0,059
280,341	309,394	-0,136	-0,176
281,355	117,934	-0,184	-0,157
282,370	742,052	-0,072	-0,135
283,384	371,990	-0,107	-0,150
284,399	124,357	-0,175	-0,152
285,414	69,292	-0,199	-0,141
286,428	42,032	-0,133	-0,083
287,443	-200,000	-0,021	-0,134
288,457	70,205	-0,156	-0,111
289,472	-98,652	-0,223	-0,039
290,487	1,891	-0,237	-0,117
291,501	35,579	-0,250	-0,151
292,516	274,798	-0,057	-0,069
293,530	370,242	-0,177	-0,248
294,545	225,808	-0,082	-0,092
295,560	341,287	-0,057	-0,077
296,574	100,361	-0,149	-0,119
297,589	-151,782	-0,349	0,017
298,603	149,685	-0,215	-0,201
299,618	188,777	-0,167	-0,172
300,633	69,307	-0,121	-0,085
301,647	-15,883	-0,052	0,023
302,662	75,639	-0,154	-0,112
303,676	-129,001	-0,105	-0,010
304,691	-200,000	-0,058	-0,189
305,706	152,048	-0,176	-0,165
306,720	60,943	-0,187	-0,128
307,735	-125,283	-0,106	-0,011
308,749	73,624	-0,191	-0,138
309,764	255,252	-0,088	-0,104
310,779	800,000	-0,035	-0,069
311,793	621,396	-0,076	-0,132
312,808	26,525	-0,238	-0,137
313,822	91,266	-0,084	-0,065
314,837	-30,105	-0,199	-0,078
315,852	-198,237	-0,052	0,000
316,866	47,000	-0,138	-0,088
317,881	117,211	-0,129	-0,109
318,895	54,140	-0,132	-0,088
319,910	226,652	-0,172	-0,192
320,925	-121,143	-0,050	-0,006
321,939	67,404	-0,245	-0,172
322,954	469,884	-0,044	0,068
323,968	321,283	-0,046	-0,060
324,983	-192,239	-0,157	0,001
325,997	-200,000	0,004	0,123
327,012	159,095	-0,171	-0,163
328,027	800,000	-0,060	0,131
329,041	800,000	-0,042	-0,106
330,056	-12,314	-0,097	0,044
331,070	308,988	-0,145	-0,187
332,085	800,000	-0,015	-0,043
333,100	296,063	-0,080	-0,101
334,114	-175,566	-0,273	-0,005
335,129	241,588	-0,192	-0,221
336,143	213,091	-0,124	-0,135
337,158	800,000	-0,090	-0,178
338,173	145,607	0,004	-0,003
339,187	-84,682	-0,174	-0,037
340,202	800,000	-0,070	-0,163
341,216	691,027	-0,082	-0,148
342,231	276,189	-0,159	-0,195
343,246	-51,486	-0,141	-0,045
344,260	731,285	-0,093	-0,172
345,275	-27,477	-0,059	0,023
346,289	520,803	-0,044	-0,072
347,304	-77,664	-0,129	-0,030
348,319	200,915	-0,160	-0,170
349,333	72,976	-0,207	-0,148
350,348	26,000	-0,145	-0,083
351,362	-93,203	-0,177	0,033
352,377	299,885	-0,095	-0,121
353,392	291,031	-0,066	-0,082
354,406	-200,000	0,009	-0,119
355,421	208,066	1314,063	1410,209
356,435	160,084	1474,688	1410,694
