DTS Sentinel unit serial number:	SN410029Multiplexer serial number:	ORYXHardware model number:	OX2-SRSoftware version number:	ORYX F/W v4,00 Oryx Data Collector v3.7.2.0data status	okinstallation	B3 Nyhavnadifferential loss correction	single-endedforward channel	channel 1reverse channel	N/Adate	2023/12/01time	23:57:30forward acquisition time	300,00reverse acquisition time	0,00gamma	499,1914k internal	0,3196k external	0,3196temperature offset calibration	1,0000default loss term (dB/km)	0,3820temperature slope calibration	1,0000multiplexer offset coefficient	1,0000multiplexer slope coefficient	1,0000fibre end	0,00T internal ref (°C)	16,05T ext. ref 1 (°C)	1,58T ext. ref 2 (°C)	1,56length (m)	temperature (°C)	Stokes	anti-Stokes-744,400	496,140	-0,202	-0,339
-743,385	800,000	0,150	0,371
-742,371	6,342	-0,258	-0,139
-741,356	800,000	0,161	0,408
-740,342	243,304	-0,195	-0,238
-739,327	-200,000	-0,015	0,190
-738,312	130,453	-0,249	-0,233
-737,298	-200,000	-0,002	0,321
-736,283	444,088	-0,118	-0,188
-735,269	-200,000	0,053	0,425
-734,254	148,273	-0,252	-0,248
-733,239	78,007	-0,140	0,109
-732,225	772,271	-0,128	-0,255
-731,210	795,734	0,079	0,160
-730,196	-154,113	-0,121	-0,006
-729,181	800,000	-0,028	-0,066
-728,167	327,422	0,040	-0,056
-727,152	800,000	-0,068	0,166
-726,137	-57,688	-0,147	-0,047
-725,123	-64,562	-0,158	-0,046
-724,108	800,000	0,040	0,092
-723,094	-19,262	-0,070	-0,032
-722,079	-9,332	-0,033	-0,016
-721,064	179,169	-0,059	0,062
-720,050	-110,547	-0,099	-0,015
-719,035	-200,000	0,005	-0,097
-718,021	-200,000	-0,012	-0,062
-717,006	23,380	-0,059	-0,035
-715,991	-200,000	-0,012	-0,047
-714,977	-200,000	-0,016	-0,067
-713,962	-139,702	-0,114	0,009
-712,948	-97,715	0,105	-0,020
-711,933	-53,649	0,026	-0,009
-710,918	-200,000	0,027	0,194
-709,904	125,195	0,063	-0,058
-708,889	-127,869	0,058	-0,006
-707,875	-200,000	0,043	-0,183
-706,860	-93,848	0,054	-0,011
-705,845	-18,501	0,158	-0,072
-704,831	14,038	-0,092	0,052
-703,816	-128,829	-0,065	-0,007
-702,802	128,675	-0,026	0,024
-701,787	800,000	-0,029	-0,060
-700,772	116,357	0,063	-0,056
-699,758	287,731	-0,121	0,159
-698,743	800,000	0,014	0,034
-697,729	-200,000	-0,021	0,113
-696,714	324,554	0,056	0,078
-695,699	800,000	-0,056	0,180
-694,685	32,177	-0,068	0,043
-693,670	-139,845	-0,120	-0,009
-692,656	82,995	-0,069	0,054
-691,641	253,098	0,077	-0,095
-690,627	-158,753	0,064	0,003
-689,612	31,825	0,079	-0,049
-688,597	-200,000	-0,003	0,022
-687,583	398,877	-0,051	0,077
-686,568	-200,000	0,025	-0,132
-685,554	-200,000	0,013	-0,083
-684,539	-51,138	-0,022	0,007
-683,524	-200,000	-0,010	-0,070
-682,510	-200,000	-0,001	0,063
-681,495	-200,000	0,005	0,022
-680,481	-200,000	0,024	-0,136
-679,466	-200,000	-0,010	-0,083
-678,451	-200,000	0,027	-0,190
-677,437	-60,103	0,048	-0,015
-676,422	267,901	-0,055	0,070
-675,408	28,928	0,098	0,060
-674,393	424,041	-0,054	-0,084
-673,378	628,602	0,048	-0,088
-672,364	800,000	-0,054	-0,134
-671,349	800,000	-0,042	-0,095
-670,335	-58,819	0,117	-0,036
-669,320	-200,000	-0,001	-0,083
-668,305	442,344	-0,056	0,089
-667,291	-86,047	-0,114	0,025
-666,276	-68,902	-0,094	0,026
-665,262	345,630	-0,086	-0,123
-664,247	-85,797	0,133	-0,030
-663,232	-42,049	-0,060	-0,022
-662,218	-200,000	0,004	-0,023
-661,203	-21,302	-0,102	0,045
-660,189	51,415	0,149	0,103
-659,174	-177,886	-0,097	-0,002
-658,159	299,706	-0,085	-0,113
-657,145	237,935	-0,021	0,026
-656,130	-200,000	-0,004	-0,107
-655,116	366,900	0,086	-0,126
-654,101	-12,985	0,052	0,024
-653,086	-71,096	0,079	-0,021
-652,072	-200,000	0,011	0,070
-651,057	100,731	-0,027	-0,023
-650,043	800,000	-0,037	-0,101
-649,028	120,874	-0,071	0,064
-648,014	-200,000	0,044	0,174
-646,999	800,000	0,027	0,060
-645,984	-200,000	0,010	-0,065
-644,970	-200,000	0,002	0,082
-643,955	443,306	0,060	-0,096
-642,941	-200,000	-0,001	0,018
-641,926	86,696	-0,049	-0,039
-640,911	112,538	-0,068	-0,060
-639,897	-200,000	-0,025	0,093
-638,882	-200,000	-0,000	-0,038
-637,868	-200,000	-0,010	0,034
-636,853	-35,840	-0,160	-0,062
-635,838	800,000	0,089	-0,197
-634,824	66,377	-0,096	-0,071
-633,809	-174,772	0,057	-0,001
-632,795	309,532	-0,038	0,052
-631,780	112,430	0,135	-0,119
-630,765	528,802	0,049	-0,084
-629,751	183,428	0,055	0,059
-628,736	-200,000	-0,013	-0,061
-627,722	-2,691	0,099	-0,050
-626,707	-55,571	-0,063	-0,020
-625,692	57,495	0,096	0,068
-624,678	-200,000	-0,007	0,041
-623,663	-98,060	-0,199	-0,037
-622,649	-200,000	0,004	-0,041
-621,634	345,059	0,058	-0,083
-620,619	232,946	-0,080	-0,095
-619,605	166,365	0,029	-0,030
-618,590	-94,613	0,096	-0,019
-617,576	-200,000	-0,005	-0,058
-616,561	-200,000	-0,009	-0,104
-615,546	241,300	0,060	-0,073
-614,532	-200,000	-0,007	-0,064
-613,517	287,005	0,096	-0,126
-612,503	37,664	-0,096	-0,062
-611,488	36,513	0,155	-0,099
-610,474	-200,000	0,019	0,109
-609,459	-123,561	-0,097	-0,011
-608,444	-200,000	0,019	-0,099
-607,430	-116,180	0,103	-0,014
-606,415	800,000	-0,063	-0,143
-605,401	-3,941	0,107	0,053
-604,386	-200,000	-0,000	0,101
-603,371	2,367	-0,061	-0,032
-602,357	-126,830	-0,050	0,005
-601,342	-118,076	0,162	0,021
-600,328	-149,269	-0,120	-0,007
-599,313	-125,897	0,092	-0,010
-598,298	38,943	-0,050	0,033
-597,284	-24,202	0,153	0,066
-596,269	-200,000	0,007	0,085
-595,255	99,311	0,050	0,042
-594,240	-121,352	-0,135	-0,016
-593,225	-35,639	0,038	-0,015
-592,211	800,000	-0,066	-0,143
-591,196	800,000	-0,028	-0,077
-590,182	-0,237	0,035	-0,018
-589,167	45,942	-0,023	-0,016
-588,152	268,501	0,037	-0,047
-587,138	-200,000	0,009	-0,136
-586,123	-132,797	-0,040	0,004
-585,109	298,919	0,038	0,051
-584,094	-161,921	-0,089	0,003
-583,079	265,852	0,035	0,044
-582,065	106,823	0,062	0,053
-581,050	-69,476	-0,109	0,030
-580,036	75,180	-0,078	0,059
-579,021	-200,000	-0,010	-0,154
-578,006	-137,373	-0,118	-0,010
-576,992	377,994	0,039	-0,058
-575,977	19,273	0,105	0,061
-574,963	-72,755	-0,027	0,007
-573,948	369,534	-0,144	-0,211
-572,934	-200,000	0,015	-0,065
-571,919	800,000	0,015	0,032
-570,904	-200,000	-0,010	-0,059
-569,890	-200,000	0,006	-0,089
-568,875	338,804	0,027	-0,038
-567,861	37,642	0,042	-0,027
-566,846	-105,505	0,125	-0,020
-565,831	239,480	0,010	0,013
-564,817	-200,000	0,005	-0,082
-563,802	-0,354	-0,032	0,016
-562,788	137,959	-0,079	-0,075
-561,773	58,087	-0,092	0,065
-560,758	-33,778	0,087	-0,035
-559,744	800,000	-0,012	-0,028
-558,729	-55,864	-0,017	-0,005
-557,715	118,275	0,088	0,078
-556,700	-200,000	-0,003	-0,143
-555,685	198,862	0,019	-0,021
-554,671	-168,909	0,161	-0,004
-553,656	-153,856	-0,082	0,004
-552,642	-98,499	0,058	-0,011
-551,627	161,615	-0,083	0,084
-550,612	800,000	0,017	0,044
-549,598	530,051	0,058	-0,099
-548,583	787,911	-0,068	-0,135
-547,569	800,000	-0,009	0,024
-546,554	-200,000	0,021	-0,089
-545,539	242,897	0,050	0,061
-544,525	800,000	0,042	-0,093
-543,510	394,994	-0,014	0,021
-542,496	-200,000	-0,019	-0,131
-541,481	134,200	-0,064	0,060
-540,466	61,320	0,034	-0,024
-539,452	-103,149	0,074	0,013
-538,437	-118,173	0,145	-0,018
-537,423	-20,345	0,040	0,018
-536,408	-200,000	0,022	-0,105
-535,393	-151,554	-0,199	0,010
-534,379	-200,000	-0,017	-0,056
-533,364	18,758	-0,057	-0,033
-532,350	-200,000	-0,008	0,119
-531,335	-200,000	0,017	0,054
-530,321	84,330	-0,003	0,002
-529,306	-100,232	0,100	-0,018
-528,291	-200,000	-0,010	-0,119
-527,277	-200,000	0,008	-0,041
-526,262	78,884	-0,015	-0,011
-525,248	123,313	-0,083	0,075
-524,233	-200,000	-0,008	0,093
-523,218	-200,000	0,029	0,093
-522,204	-47,052	0,142	0,050
-521,189	240,690	-0,047	0,057
-520,175	-200,000	0,004	0,075
-519,160	-200,000	0,031	0,136
-518,145	490,963	0,049	0,081
-517,131	160,124	-0,016	-0,016
-516,116	-32,471	-0,047	0,019
-515,102	160,563	-0,113	0,114
-514,087	311,970	-0,008	-0,011
-513,072	-151,131	-0,055	-0,003
-512,058	-49,882	-0,113	-0,039
-511,043	48,165	0,058	0,039
-510,029	-33,814	0,106	0,042
-509,014	181,435	0,057	0,060
-507,999	220,606	0,092	0,106
-506,985	66,044	-0,041	-0,030
-505,970	160,352	-0,072	-0,072
-504,956	91,871	0,103	-0,083
-503,941	-118,232	0,101	-0,013
-502,926	88,140	-0,010	0,008
-501,912	-129,869	0,041	0,004
-500,897	8,879	-0,033	0,018
-499,883	-200,000	0,005	-0,034
-498,868	576,802	-0,064	-0,114
-497,853	-92,438	0,109	0,022
-496,839	-77,998	-0,035	-0,009
-495,824	-74,372	-0,056	0,015
-494,810	507,799	-0,062	-0,103
-493,795	-200,000	0,019	-0,066
-492,781	-200,000	0,011	-0,103
-491,766	800,000	-0,075	-0,228
-490,751	-109,987	-0,090	0,013
-489,737	213,489	0,162	-0,185
-488,722	94,847	-0,014	0,012
-487,708	594,897	0,035	0,063
-486,693	-200,000	-0,001	-0,034
-485,678	-27,943	-0,080	0,033
-484,664	-85,600	-0,064	0,014
-483,649	49,965	0,109	0,074
-482,635	-58,359	-0,119	0,037
-481,620	90,935	0,081	0,066
-480,605	28,542	0,053	-0,032
-479,591	232,374	-0,074	0,087
-478,576	-62,519	0,118	-0,035
-477,562	121,832	-0,098	0,088
-476,547	-200,000	-0,009	0,043
-475,532	800,000	-0,012	-0,038
-474,518	-34,538	-0,063	-0,025
-473,503	-43,338	0,069	-0,025
-472,489	-64,149	0,142	0,041
-471,474	-200,000	-0,016	0,062
-470,459	12,385	-0,033	-0,018
-469,445	-46,629	-0,135	-0,047
-468,430	529,187	-0,069	-0,118
-467,416	-200,000	0,009	-0,046
-466,401	-94,369	0,120	0,023
-465,386	-200,000	0,005	0,070
-464,372	19,992	-0,078	0,045
-463,357	800,000	-0,027	0,066
-462,343	93,596	-0,103	-0,084
-461,328	172,205	0,053	0,055
-460,313	218,529	-0,031	0,036
-459,299	488,765	-0,036	0,059
-458,284	-55,848	0,179	0,057
-457,270	-80,546	0,070	0,017
-456,255	408,294	-0,042	0,064
-455,241	-115,184	-0,121	-0,016
-454,226	129,685	-0,128	-0,118
-453,211	97,404	0,081	-0,067
-452,197	563,816	-0,065	-0,113
-451,182	-200,000	0,009	0,048
-450,168	-89,891	-0,074	0,016
-449,153	4,753	-0,055	0,029
-448,138	-8,083	-0,110	-0,053
-447,124	96,442	-0,090	-0,074
-446,109	-200,000	0,011	0,038
-445,095	152,548	0,079	0,078
-444,080	-148,111	-0,124	-0,007
-443,065	-200,000	0,021	0,108
-442,051	-200,000	-0,015	0,056
-441,036	-57,878	0,073	0,023
-440,022	-200,000	0,031	-0,152
-439,007	139,581	-0,036	0,034
-437,992	-112,310	0,075	-0,011
-436,978	-200,000	0,054	0,184
-435,963	-200,000	-0,012	0,108
-434,949	-200,000	0,003	0,065
-433,934	412,714	0,025	0,039
-432,919	295,173	-0,014	0,018
-431,905	126,788	-0,041	0,037
-430,890	800,000	0,005	0,011
-429,876	-65,154	-0,052	-0,015
-428,861	150,245	0,084	0,082
-427,846	139,446	-0,064	0,061
-426,832	-59,721	-0,115	0,035
-425,817	800,000	-0,053	0,161
-424,803	239,254	0,066	0,080
-423,788	800,000	0,044	-0,092
-422,773	570,711	-0,038	0,068
-421,759	-200,000	-0,013	0,139
-420,744	-25,487	0,023	0,010
-419,730	800,000	0,062	-0,180
-418,715	-200,000	0,004	0,024
-417,701	-90,404	0,093	0,019
-416,686	288,314	0,030	0,039
-415,671	800,000	-0,063	0,164
-414,657	-200,000	-0,007	0,164
-413,642	-200,000	-0,001	-0,007
-412,628	-38,757	-0,129	0,049
-411,613	92,781	0,072	0,058
-410,598	-117,493	0,159	-0,020
-409,584	76,108	0,095	-0,072
-408,569	10,073	-0,086	0,047
-407,555	-200,000	0,003	0,081
-406,540	-200,000	0,023	-0,104
-405,525	274,822	0,046	-0,059
-404,511	547,614	0,015	-0,027
-403,496	-200,000	0,013	-0,131
-402,482	-24,507	0,090	0,038
-401,467	474,213	0,043	0,071
-400,452	800,000	0,004	0,010
-399,438	-58,144	-0,026	0,008
-398,423	-200,000	0,030	0,107
-397,409	-37,548	-0,205	-0,078
-396,394	62,110	-0,092	-0,066
-395,379	-49,531	0,069	0,024
-394,365	800,000	-0,036	0,106
-393,350	-200,000	0,014	0,090
-392,336	-14,239	0,100	-0,046
-391,321	-34,363	0,149	-0,058
-390,306	-200,000	0,064	0,000
-389,292	-33,720	0,062	-0,024
-388,277	-133,615	0,018	-0,002
-387,263	800,000	0,063	0,179
-386,248	-89,906	-0,078	0,016
-385,233	32,263	0,035	0,022
-384,219	-33,568	-0,100	-0,039
-383,204	-191,746	0,122	0,001
-382,190	-95,114	-0,112	0,021
-381,175	-200,000	-0,001	0,046
-380,160	337,043	-0,030	-0,042
-379,146	-200,000	-0,002	-0,019
-378,131	800,000	0,035	0,105
-377,117	79,805	0,024	-0,019
-376,102	17,861	0,056	0,032
-375,088	457,979	-0,020	0,032
-374,073	-152,049	-0,153	-0,008
-373,058	217,603	0,061	0,069
-372,044	376,013	0,075	0,110
-371,029	-19,588	0,059	0,026
-370,015	-41,151	-0,066	0,024
-369,000	800,000	-0,016	-0,041
-367,985	-140,613	-0,185	-0,014
-366,971	39,787	-0,094	0,060
-365,956	800,000	-0,085	0,190
-364,942	-33,327	-0,046	-0,018
-363,927	-200,000	0,003	-0,091
-362,912	-171,248	0,177	0,004
-361,898	156,034	-0,059	0,059
-360,883	-5,283	0,052	-0,026
-359,869	33,065	-0,021	-0,013
-358,854	800,000	0,049	-0,109
-357,839	77,576	0,135	0,103
-356,825	78,897	-0,045	0,034
-355,810	238,094	-0,030	-0,035
-354,796	800,000	-0,019	0,048
-353,781	-106,732	-0,058	0,009
-352,766	-200,000	0,049	-0,159
-351,752	-125,000	0,136	-0,015
-350,737	-200,000	-0,010	0,118
-349,723	-200,000	0,014	0,052
-348,708	109,744	0,194	-0,167
-347,693	187,358	-0,035	-0,037
-346,679	-200,000	0,003	0,125
-345,664	-53,161	-0,204	0,067
-344,650	13,987	0,121	0,067
-343,635	-149,723	-0,088	0,005
-342,620	-200,000	0,007	0,035
-341,606	327,365	0,067	-0,092
-340,591	-200,000	-0,009	-0,091
-339,577	44,054	0,080	-0,052
-338,562	784,742	0,061	-0,121
-337,548	273,748	0,110	-0,140
-336,533	800,000	-0,032	-0,064
-335,518	544,902	0,062	-0,107
-334,504	-149,063	0,163	0,009
-333,489	-56,974	-0,060	0,019
-332,475	345,529	-0,089	-0,125
-331,460	135,391	-0,047	0,044
-330,445	-55,522	-0,080	-0,026
-329,431	-47,314	-0,109	0,038
-328,416	-36,527	0,077	0,029
-327,402	515,580	-0,043	0,072
-326,387	-20,478	-0,047	-0,021
-325,372	800,000	-0,004	0,012
-324,358	-158,061	-0,140	0,006
-323,343	-200,000	0,017	-0,066
-322,329	412,272	0,102	-0,156
-321,314	19,631	-0,076	0,043
-320,299	642,495	0,075	-0,137
-319,285	77,440	-0,063	-0,048
-318,270	57,171	-0,053	0,037
-317,256	-123,935	-0,049	0,005
-316,241	220,581	0,098	-0,113
-315,226	-200,000	0,005	0,033
-314,212	279,509	0,142	0,182
-313,197	800,000	-0,008	-0,020
-312,183	-90,169	-0,067	0,014
-311,168	-168,776	-0,140	0,004
-310,153	-200,000	0,021	-0,111
-309,139	800,000	-0,062	0,131
-308,124	800,000	0,023	0,046
-307,110	163,634	-0,021	0,021
-306,095	-200,000	0,007	-0,074
-305,080	800,000	0,053	0,133
-304,066	-55,877	-0,037	0,012
-303,051	-200,000	-0,031	-0,192
-302,037	800,000	0,016	-0,041
-301,022	-200,000	0,005	0,172
-300,008	800,000	0,051	0,108
-298,993	-78,604	0,093	-0,023
-297,978	305,755	-0,063	0,084
-296,964	396,006	-0,028	0,042
-295,949	-117,903	-0,116	-0,015
-294,935	-48,041	-0,082	0,028
-293,920	-200,000	0,014	0,087
-292,905	-200,000	-0,009	0,232
-291,891	764,923	0,038	-0,074
-290,876	70,674	0,082	0,060
-289,862	-200,000	0,012	0,040
-288,847	252,077	-0,024	-0,029
-287,832	-200,000	0,009	-0,041
-286,818	-121,812	0,015	0,002
-285,803	656,743	0,027	0,049
-284,789	-11,489	-0,140	0,066
-283,774	414,735	-0,051	0,078
-282,759	-18,554	-0,214	0,095
-281,745	-200,000	-0,006	-0,113
-280,730	317,217	-0,076	-0,104
-279,716	-200,000	0,009	0,098
-278,701	-102,792	0,094	0,016
-277,686	413,066	0,072	-0,110
-276,672	-200,000	-0,003	0,083
-275,657	733,778	-0,023	-0,044
-274,643	19,669	-0,132	-0,076
-273,628	800,000	-0,044	-0,122
-272,613	-152,482	-0,089	-0,004
-271,599	-155,287	0,120	0,005
-270,584	169,915	-0,037	-0,037
-269,570	-200,000	0,007	-0,025
-268,555	-62,375	-0,109	-0,032
-267,540	-71,951	0,079	0,021
-266,526	35,674	-0,196	-0,123
-265,511	-137,580	-0,102	-0,008
-264,497	508,579	0,030	-0,051
-263,482	170,562	0,094	-0,097
-262,467	578,381	0,050	-0,088
-261,453	49,388	-0,149	-0,100
-260,438	-181,015	0,064	0,001
-259,424	800,000	-0,065	0,136
-258,409	66,165	-0,057	0,042
-257,395	4,880	0,044	0,023
-256,380	-200,000	-0,007	0,104
-255,365	-200,000	0,004	0,022
-254,351	85,568	-0,149	0,117
-253,336	-97,171	-0,054	-0,010
-252,322	-87,538	-0,092	0,020
-251,307	115,399	0,171	-0,149
-250,292	650,730	-0,051	-0,094
-249,278	-200,000	-0,007	0,145
-248,263	800,000	-0,027	0,077
-247,249	-61,123	0,083	-0,025
-246,234	136,592	-0,050	-0,047
-245,219	-200,000	-0,017	0,062
-244,205	792,437	0,078	-0,154
-243,190	-200,000	-0,001	0,068
-242,176	-101,290	0,097	-0,017
-241,161	47,376	0,106	-0,070
-240,146	-200,000	-0,029	0,140
-239,132	29,779	0,139	-0,084
-238,117	-200,000	-0,016	0,065
-237,103	-200,000	-0,007	-0,166
-236,088	-200,000	0,007	0,029
-235,073	567,839	0,042	0,073
-234,059	110,566	-0,023	0,020
-233,044	143,371	0,191	0,182
-232,030	21,423	0,026	-0,015
-231,015	-66,947	0,046	-0,013
-230,000	-103,119	0,111	0,019
-228,986	-200,000	-0,044	-0,144
-227,971	-200,000	-0,010	0,181
-226,957	135,790	-0,006	-0,006
-225,942	-61,469	-0,045	-0,013
-224,927	64,659	-0,097	0,070
-223,913	33,408	-0,053	0,033
-222,898	800,000	-0,037	-0,094
-221,884	-142,284	-0,066	-0,005
-220,869	-61,224	0,073	0,022
-219,855	800,000	0,032	0,066
-218,840	-200,000	-0,009	-0,112
-217,825	-16,157	0,030	-0,014
-216,811	800,000	0,035	-0,090
-215,796	-133,748	-0,126	0,011
-214,782	-10,325	0,078	-0,037
-213,767	-200,000	0,007	-0,079
-212,752	-121,113	0,127	-0,015
-211,738	-200,000	-0,005	-0,102
-210,723	-129,011	0,092	-0,009
-209,709	45,326	-0,127	0,083
-208,694	96,777	-0,067	-0,055
-207,679	-200,000	0,001	-0,243
-206,665	800,000	0,066	-0,141
-205,650	133,739	0,036	-0,033
-204,636	-30,923	0,092	0,037
-203,621	522,968	0,026	0,044
-202,606	552,157	-0,056	0,096
-201,592	-200,000	0,018	-0,108
-200,577	117,769	-0,130	-0,114
-199,563	800,000	-0,009	0,026
-198,548	-200,000	-0,040	0,158
-197,533	-70,725	0,074	0,020
-196,519	74,041	0,130	0,097
-195,504	-200,000	0,010	0,078
-194,490	-14,482	-0,115	-0,053
-193,475	-200,000	-0,013	-0,086
-192,460	62,965	-0,022	-0,016
-191,446	90,432	-0,048	-0,038
-190,431	-200,000	0,023	0,079
-189,417	307,745	-0,047	0,062
-188,402	280,157	0,087	0,112
-187,387	507,923	0,102	-0,169
-186,373	800,000	0,040	-0,104
-185,358	-200,000	-0,020	-0,112
-184,344	414,333	0,125	0,190
-183,329	-104,817	0,087	0,014
-182,315	800,000	0,022	-0,045
-181,300	173,172	0,058	0,060
-180,285	767,212	-0,079	-0,155
-179,271	800,000	-0,075	-0,174
-178,256	-200,000	-0,048	0,160
-177,242	-200,000	0,023	0,126
-176,227	-32,265	0,165	0,065
-175,212	-0,293	-0,085	-0,043
-174,198	126,030	0,025	0,023
-173,183	-11,327	-0,012	-0,006
-172,169	-171,996	0,051	0,001
-171,154	-200,000	0,016	-0,112
-170,139	80,856	-0,050	-0,038
-169,125	-200,000	-0,019	0,091
-168,110	-200,000	0,009	0,269
-167,096	97,658	-0,069	0,056
-166,081	85,239	-0,132	0,103
-165,066	102,502	-0,081	-0,067
-164,052	178,320	-0,071	0,074
-163,037	163,826	0,124	-0,125
-162,023	527,112	-0,049	0,082
-161,008	667,773	-0,048	0,089
-159,993	-200,000	-0,106	0,000
-158,979	717,376	0,032	-0,060
-157,964	-43,380	0,074	0,026
-156,950	-200,000	-0,015	0,056
-155,935	-7,603	-0,036	0,017
-154,920	-200,000	0,035	0,113
-153,906	-200,000	0,065	0,237
-152,891	117,556	-0,043	0,038
-151,877	-44,834	-0,140	0,049
-150,862	-200,000	0,017	-0,088
-149,847	-35,976	-0,093	-0,035
-148,833	-200,000	0,005	0,062
-147,818	-200,000	-0,016	-0,061
-146,804	-41,926	0,092	-0,033
-145,789	79,391	-0,075	-0,057
-144,775	123,141	0,008	0,007
-143,760	800,000	-0,039	-0,117
-142,745	-200,000	-0,012	-0,072
-141,731	164,754	-0,084	0,085
-140,716	209,517	-0,030	-0,034
-139,702	-82,563	0,108	-0,025
-138,687	-16,708	0,100	0,045
-137,672	-27,912	-0,089	-0,036
-136,658	400,930	-0,087	-0,131
-135,643	-200,000	0,004	-0,233
-134,629	54,722	-0,071	0,049
-133,614	-31,649	0,098	0,039
-132,599	143,325	0,157	0,148
-131,585	220,162	-0,033	0,037
-130,570	336,188	-0,053	-0,073
-129,556	114,324	-0,078	0,068
-128,541	208,369	-0,060	-0,067
-127,526	2,267	0,059	0,030
-126,512	-200,000	0,005	-0,036
-125,497	800,000	0,043	-0,087
-124,483	-130,082	0,072	-0,007
-123,468	180,692	-0,013	0,014
-122,453	-200,000	0,005	-0,053
-121,439	639,820	-0,076	0,138
-120,424	-151,974	0,014	-0,001
-119,410	520,748	0,055	0,091
-118,395	-200,000	-0,036	0,148
-117,380	65,398	0,090	0,065
-116,366	800,000	0,041	0,126
-115,351	326,633	-0,052	0,070
-114,337	-73,730	0,062	-0,016
-113,322	-200,000	0,003	-0,078
-112,307	400,916	-0,015	-0,022
-111,293	800,000	0,052	0,140
-110,278	570,754	0,032	0,055
-109,264	800,000	-0,033	-0,070
-108,249	-83,393	0,166	-0,037
-107,234	59,172	0,124	-0,086
-106,220	326,243	-0,048	0,066
-105,205	86,282	0,050	0,039
-104,191	-91,515	0,196	0,039
-103,176	379,026	0,133	0,195
-102,162	189,228	-0,093	0,099
-101,147	99,058	0,056	-0,046
-100,132	-12,409	-0,056	0,026
-99,118	106,004	-0,084	-0,071
-98,103	433,126	-0,050	-0,077
-97,089	-33,640	0,087	0,034
-96,074	-200,000	-0,031	-0,143
-95,059	234,958	0,060	0,071
-94,045	800,000	0,030	0,079
-93,030	86,258	0,031	0,024
-92,016	-97,328	-0,082	-0,015
-91,001	69,677	0,019	0,014
-89,986	4,929	-0,049	0,026
-88,972	566,628	-0,030	0,052
-87,957	-17,315	-0,178	0,079
-86,943	-200,000	-0,000	-0,089
-85,928	294,312	-0,060	-0,078
-84,913	124,252	-0,118	-0,106
-83,899	-83,018	-0,157	-0,036
-82,884	79,826	0,088	0,067
-81,870	2,540	-0,102	-0,052
-80,855	672,912	0,035	-0,064
-79,840	91,924	0,198	-0,158
-78,826	410,611	0,072	-0,108
-77,811	-44,313	-0,064	0,023
-76,797	292,787	0,099	0,128
-75,782	-200,000	0,042	0,141
-74,767	-53,004	0,077	-0,025
-73,753	43,949	0,060	0,039
-72,738	334,632	-0,019	-0,026
-71,724	458,622	-0,107	-0,170
-70,709	-200,000	-0,016	-0,175
-69,694	-200,000	0,048	0,166
-68,680	-40,258	0,015	-0,005
-67,665	-29,704	-0,045	0,018
-66,651	53,459	0,125	0,085
-65,636	585,023	-0,056	0,098
-64,622	-69,132	0,035	-0,009
-63,607	-89,382	-0,087	-0,018
-62,592	-200,000	-0,002	-0,175
-61,578	800,000	0,022	-0,051
-60,563	-200,000	-0,005	-0,047
-59,549	581,884	-0,066	0,115
-58,534	-68,311	-1,413	-0,387
-57,519	307,530	-1,704	-2,258
-56,505	-200,000	-0,466	-4,602
-55,490	39,334	0,817	0,517
-54,476	800,000	4,839	11,189
-53,461	-200,000	17,717	279,314
-52,446	800,000	719,906	2215,389
-51,432	560,193	1633,847	2809,212
-50,417	81,061	1657,417	1267,319
-49,403	23,880	1531,954	893,012
-48,388	17,848	1455,339	819,273
-47,373	18,289	1444,663	815,345
-46,359	17,957	1435,270	808,430
-45,344	16,198	1430,612	797,421
-44,330	16,114	1428,673	795,908
-43,315	16,136	1426,922	795,006
-42,300	16,132	1425,357	794,081
-41,286	16,160	1424,182	793,531
-40,271	16,155	1422,890	792,753
-39,257	16,132	1421,475	791,823
-38,242	16,113	1420,541	791,184
-37,227	16,170	1419,121	790,629
-36,213	16,177	1417,717	789,849
-35,198	16,104	1416,699	788,906
-34,184	16,161	1415,735	788,606
-33,169	16,078	1414,410	787,447
-32,154	16,129	1413,635	787,226
-31,140	16,156	1412,194	786,518
-30,125	16,215	1410,708	785,938
-29,111	16,211	1409,637	785,287
-28,096	16,156	1408,686	784,470
-27,082	16,090	1407,589	783,520
-26,067	16,035	1406,537	782,649
-25,052	16,087	1405,476	782,269
-24,038	16,076	1404,404	781,588
-23,023	16,055	1403,570	780,997
-22,009	16,025	1402,591	780,282
-20,994	16,017	1401,665	779,699
-19,979	16,023	1400,613	779,107
-18,965	15,991	1399,610	778,371
-17,950	16,011	1398,669	777,910
-16,936	16,052	1397,546	777,445
-15,921	15,989	1396,343	776,450
-14,906	15,990	1395,238	775,810
-13,892	16,000	1394,542	775,439
-12,877	15,978	1393,803	774,899
-11,863	15,983	1392,814	774,340
-10,848	16,007	1391,916	773,921
-9,833	15,953	1390,801	773,023
-8,819	15,901	1389,954	772,279
-7,804	15,913	1388,981	771,762
-6,790	15,902	1387,874	771,069
-5,775	15,856	1387,038	770,362
-4,760	15,883	1386,262	770,022
-3,746	15,858	1385,463	769,435
-2,731	15,842	1384,711	768,912
-1,717	15,844	1383,634	768,292
-0,702	15,861	1381,721	767,277
0,313	19,670	1302,713	740,960
1,327	36,057	706,874	440,034
2,342	55,757	125,276	85,895
3,356	2,239	16,578	8,463
4,371	24,474	2,954	1,727
5,386	-29,924	0,582	0,234
6,400	-72,896	-0,106	0,028
7,415	-74,420	-0,279	-0,071
8,429	442,492	-0,180	-0,280
9,444	420,545	-0,160	-0,244
10,459	153,587	-0,264	-0,256
11,473	85,629	-0,286	-0,222
12,488	-85,747	-0,335	-0,073
13,502	114,756	-0,187	-0,161
14,517	154,239	-0,290	-0,282
15,531	70,400	-0,358	-0,261
16,546	107,580	-0,293	-0,246
17,561	148,562	-0,316	-0,302
18,575	14,026	-0,166	-0,091
19,590	229,308	-0,205	-0,237
20,604	-55,328	-0,328	-0,104
21,619	-5,358	-0,489	-0,237
22,634	31,643	-0,617	-0,374
23,648	252,905	-0,198	-0,240
24,663	12,537	-0,332	-0,181
25,677	5,394	-0,330	-0,172
26,692	221,611	-0,303	-0,344
27,707	6,590	-0,313	-0,164
28,721	67,302	-0,371	-0,267
29,736	107,932	-0,350	-0,294
30,750	152,349	-0,288	-0,278
31,765	18,855	-0,556	-0,314
32,780	110,880	-0,347	-0,295
33,794	148,232	-0,254	-0,243
34,809	42,285	-0,484	-0,310
35,823	86,189	-0,307	-0,239
36,838	587,333	-0,241	-0,421
37,853	155,752	-0,432	-0,420
38,867	99,231	-0,446	-0,364
39,882	110,914	-0,287	-0,244
40,896	268,471	-0,272	-0,337
41,911	167,757	-0,276	-0,277
42,926	120,878	-0,310	-0,272
43,940	151,616	-0,372	-0,358
44,955	141,031	-0,476	-0,445
45,969	39,196	-0,394	-0,248
46,984	195,408	-0,222	-0,238
47,999	167,322	-0,275	-0,276
49,013	24,696	-0,317	-0,185
50,028	43,393	-0,417	-0,268
51,042	62,949	-0,379	-0,267
52,057	368,424	-0,181	-0,258
53,071	57,711	-0,385	-0,265
54,086	78,973	-0,351	-0,265
55,101	185,806	-0,310	-0,325
56,115	19,822	-0,304	-0,172
57,130	116,017	-0,231	-0,199
58,144	114,766	-0,296	-0,254
59,159	90,457	-0,341	-0,269
60,174	6,401	-0,352	-0,184
61,188	99,934	-0,401	-0,327
62,203	33,908	-0,335	-0,205
63,217	-18,885	-0,280	-0,122
64,232	-18,078	-0,198	-0,087
65,247	24,465	-0,341	-0,198
66,261	177,754	-0,248	-0,255
67,276	76,207	-0,407	-0,303
68,290	176,590	-0,324	-0,332
69,305	-41,210	-0,379	-0,137
70,320	-26,690	-0,385	-0,158
71,334	93,700	-0,186	-0,149
72,349	-90,869	-0,348	-0,070
73,363	117,976	-0,292	-0,253
74,378	-61,322	-0,319	-0,094
75,393	388,810	-0,197	-0,288
76,407	125,264	-0,252	-0,224
77,422	-34,592	-0,234	-0,090
78,436	-30,806	-0,308	-0,122
79,451	88,005	-0,280	-0,218
80,466	139,520	-0,250	-0,232
81,480	8,048	-0,325	-0,171
82,495	123,352	-0,365	-0,322
83,509	-10,781	-0,335	-0,155
84,524	344,939	-0,141	-0,195
85,539	127,886	-0,234	-0,209
86,553	-24,779	-0,160	-0,067
87,568	6,671	-0,335	-0,175
88,582	175,822	-0,229	-0,233
89,597	27,474	-0,421	-0,248
90,611	114,113	-0,280	-0,239
91,626	57,170	-0,236	-0,161
92,641	64,747	-0,324	-0,230
93,655	165,851	-0,238	-0,237
94,670	282,655	-0,255	-0,323
95,684	51,523	-0,419	-0,279
96,699	80,505	-0,261	-0,198
97,714	39,707	-0,342	-0,215
98,728	23,563	-0,200	-0,115
99,743	-0,287	-0,281	-0,140
100,757	-109,719	-0,205	-0,030
101,772	55,581	-0,256	-0,174
102,787	2,955	-0,286	-0,146
103,801	36,316	-0,222	-0,137
104,816	-162,563	-0,260	-0,009
105,830	-23,294	-0,258	-0,109
106,845	-10,637	-0,297	-0,137
107,860	57,337	-0,271	-0,185
108,874	78,975	-0,305	-0,229
109,889	129,071	-0,311	-0,279
110,903	135,730	-0,278	-0,254
111,918	122,228	-0,236	-0,207
112,933	155,406	-0,167	-0,161
113,947	78,012	-0,232	-0,173
114,962	340,734	-0,162	-0,223
115,976	163,957	-0,308	-0,304
116,991	-43,780	-0,365	-0,128
118,006	91,290	-0,386	-0,304
119,020	124,752	-0,214	-0,189
120,035	-160,854	-0,253	-0,009
121,049	78,568	-0,205	-0,153
122,064	163,516	-0,227	-0,224
123,079	73,294	-0,301	-0,220
124,093	68,303	-0,240	-0,172
125,108	258,806	-0,162	-0,196
126,122	131,148	-0,268	-0,241
127,137	-32,042	-0,264	-0,103
128,151	193,567	-0,102	-0,108
129,166	-11,580	-0,209	-0,096
130,181	-8,280	-0,189	-0,089
131,195	72,838	-0,316	-0,231
132,210	124,536	-0,237	-0,209
133,224	77,599	-0,230	-0,171
134,239	59,247	-0,125	-0,086
135,254	-17,731	-0,170	-0,074
136,268	159,831	-0,242	-0,236
137,283	-124,029	-0,286	-0,031
138,297	-24,842	-0,260	-0,107
139,312	321,047	-0,261	-0,348
140,327	156,159	-0,187	-0,181
141,341	-32,658	-0,161	-0,062
142,356	-140,508	-0,185	0,013
143,370	-62,459	-0,267	-0,077
144,385	-23,739	-0,220	-0,092
145,400	-8,023	-0,341	-0,160
146,414	-6,013	-0,301	-0,143
147,429	105,648	-0,232	-0,192
148,443	-200,000	-0,069	-0,290
149,458	800,000	-0,090	-0,224
150,473	288,198	-0,191	-0,243
151,487	109,225	-0,245	-0,205
152,502	80,597	-0,246	-0,185
153,516	168,770	-0,216	-0,215
154,531	362,630	-0,313	-0,440
155,546	49,861	-0,317	-0,208
156,560	362,320	-0,137	-0,193
157,575	35,254	-0,283	-0,173
158,589	-148,700	-0,256	-0,014
159,604	121,280	-0,250	-0,217
160,619	-59,434	-0,289	-0,086
161,633	364,542	-0,195	-0,275
162,648	1,313	-0,237	-0,119
163,662	18,645	-0,133	0,074
164,677	352,178	-0,105	-0,146
165,692	285,621	-0,095	-0,120
166,706	47,830	-0,273	-0,178
167,721	800,000	-0,140	-0,308
168,735	177,884	-0,161	-0,164
169,750	208,357	-0,147	-0,161
170,764	-118,196	-0,321	-0,039
171,779	70,687	-0,197	-0,142
172,794	-19,496	-0,234	-0,101
173,808	-187,274	-0,266	-0,002
174,823	361,551	-0,170	-0,239
175,837	105,025	-0,241	-0,198
176,852	28,933	-0,246	-0,145
177,867	17,536	-0,342	-0,189
178,881	630,924	-0,114	-0,201
179,896	141,747	-0,192	-0,178
180,910	83,622	-0,240	-0,182
181,925	84,281	-0,237	-0,181
182,940	133,751	-0,275	-0,248
183,954	36,150	-0,150	-0,092
184,969	-17,323	-0,183	-0,080
185,983	-75,181	-0,095	-0,024
186,998	-80,770	-0,249	-0,057
188,013	-74,875	-0,250	-0,062
189,027	154,574	-0,243	-0,233
190,042	282,143	-0,131	-0,164
191,056	172,054	-0,237	-0,237
192,071	2,133	-0,245	-0,123
193,086	110,633	-0,144	-0,120
194,100	12,151	-0,226	-0,121
195,115	-2,776	-0,163	-0,079
196,129	268,226	-0,139	-0,169
197,144	7,196	-0,307	-0,159
198,159	42,792	-0,213	-0,135
199,173	44,410	-0,193	-0,123
200,188	76,298	-0,167	-0,123
201,202	28,505	-0,275	-0,161
202,217	259,550	-0,151	-0,181
203,232	170,418	-0,292	-0,291
204,246	357,603	-0,158	-0,220
205,261	171,388	-0,141	-0,141
206,275	139,040	-0,125	-0,114
207,290	589,975	-0,117	-0,202
208,304	149,386	-0,172	-0,162
209,319	237,175	-0,105	-0,122
210,334	-39,041	-0,217	-0,079
211,348	28,961	-0,172	-0,101
212,363	-73,912	-0,229	-0,057
213,377	-38,042	-0,179	-0,066
214,392	192,461	-0,174	-0,183
215,407	15,469	-0,141	-0,077
216,421	423,067	-0,173	-0,260
217,436	167,637	-0,252	-0,249
218,450	800,000	-0,106	-0,268
219,465	54,265	-0,146	-0,098
220,480	-39,251	-0,188	-0,068
221,494	470,194	-0,050	-0,079
222,509	-67,723	-0,089	-0,024
223,523	-11,683	-0,143	-0,065
224,538	83,497	-0,222	-0,168
225,553	321,861	-0,209	-0,276
226,567	-10,291	-0,257	-0,118
227,582	128,699	-0,281	-0,249
228,596	0,782	-0,155	-0,077
229,611	-6,360	-0,218	-0,103
230,626	218,709	-0,141	-0,156
231,640	75,501	-0,204	-0,150
232,655	-33,882	-0,221	-0,084
233,669	594,861	-0,130	-0,224
234,684	64,834	-0,214	-0,150
235,699	7,813	-0,139	-0,072
236,713	2,096	-0,199	-0,099
237,728	-23,494	-0,225	-0,093
238,742	-149,885	-0,117	-0,006
239,757	-200,000	0,007	-0,239
240,772	62,005	-0,166	-0,114
241,786	148,449	-0,264	-0,248
242,801	148,128	-0,085	-0,080
243,815	-41,678	-0,245	-0,087
244,830	106,014	-0,151	-0,124
245,844	800,000	-0,077	-0,204
246,859	146,543	-0,195	-0,182
247,874	617,936	-0,114	-0,199
248,888	36,687	-0,156	-0,095
249,903	310,566	-0,090	-0,118
250,917	-64,354	-0,245	-0,069
251,932	27,200	-0,256	-0,149
252,947	800,000	-0,103	-0,234
253,961	36,510	-0,248	-0,151
254,976	105,305	-0,212	-0,173
255,990	369,269	-0,131	-0,185
257,005	-15,187	-0,251	-0,111
258,020	-39,906	-0,189	-0,068
259,034	212,768	-0,113	-0,123
260,049	187,528	-0,153	-0,158
261,063	722,113	-0,139	-0,258
262,078	322,151	-0,118	-0,156
263,093	-35,448	-0,102	-0,038
264,107	383,486	-0,191	-0,273
265,122	100,037	-0,209	-0,168
266,136	109,125	-0,177	-0,146
267,151	103,060	-0,163	-0,132
268,166	681,213	-0,129	-0,233
269,180	195,456	-0,161	-0,170
270,195	161,642	-0,218	-0,211
271,209	289,105	-0,138	-0,173
272,224	55,787	-0,139	-0,093
273,239	672,932	-0,109	-0,197
274,253	-4,807	-0,141	-0,067
275,268	-22,410	-0,114	-0,047
276,282	226,084	-0,200	-0,225
277,297	-200,000	-0,025	-0,207
278,312	-162,806	-0,260	0,009
279,326	69,561	-0,209	-0,149
280,341	-139,332	-0,243	0,018
281,355	-16,850	-0,127	-0,055
282,370	105,194	-0,156	-0,127
283,384	-11,810	-0,173	-0,078
284,399	-9,785	-0,179	-0,082
285,414	164,246	-0,184	-0,179
286,428	30,913	-0,112	-0,066
287,443	277,338	-0,158	-0,194
288,457	-27,555	-0,125	-0,050
289,472	103,439	-0,094	-0,076
290,487	251,069	-0,160	-0,188
291,501	-23,836	-0,180	-0,074
292,516	-11,515	-0,170	-0,077
293,530	254,145	-0,113	-0,134
294,545	-200,000	-0,028	-0,113
295,560	-5,232	-0,138	-0,065
296,574	537,848	-0,157	-0,259
297,589	-89,302	-0,142	0,029
298,603	25,421	-0,167	-0,095
299,618	-82,995	-0,179	-0,040
300,633	-128,053	-0,226	-0,022
301,647	142,981	-0,086	-0,079
302,662	800,000	-0,007	-0,018
303,676	-164,010	-0,087	0,003
304,691	105,029	-0,140	-0,114
305,706	-98,235	-0,221	-0,039
306,720	144,115	-0,071	-0,065
307,735	-200,000	-0,022	-0,106
308,749	237,586	-0,052	-0,060
309,764	212,767	-0,117	-0,128
310,779	-200,000	-0,016	-0,187
311,793	-149,145	-0,152	0,008
312,808	78,133	-0,161	-0,118
313,822	-97,608	-0,220	-0,039
314,837	103,255	-0,109	-0,088
315,852	83,186	-0,192	-0,144
316,866	800,000	-0,038	-0,088
317,881	-2,183	-0,163	-0,078
318,895	419,749	-0,161	-0,238
319,910	688,982	-0,075	-0,136
320,925	255,033	-0,140	-0,165
321,939	236,311	-0,198	-0,226
322,954	-200,000	0,026	-0,205
323,968	125,874	-0,139	-0,121
324,983	-54,631	-0,074	0,023
325,997	57,613	-0,154	-0,104
327,012	-33,453	-0,175	-0,066
328,027	62,856	-0,260	-0,179
329,041	292,471	-0,131	-0,165
330,056	485,909	-0,035	0,056
331,070	193,957	-0,087	-0,091
332,085	-65,316	-0,076	0,021
333,100	-45,584	-0,213	-0,072
334,114	146,018	-0,158	-0,146
335,129	220,712	-0,201	-0,222
336,143	460,223	-0,064	-0,099
337,158	274,997	-0,179	-0,218
338,173	80,689	-0,108	-0,080
339,187	143,307	-0,168	-0,154
340,202	-182,513	-0,242	-0,003
341,216	452,039	-0,056	-0,085
342,231	-23,287	-0,167	-0,069
343,246	-39,819	-0,202	-0,072
344,260	-22,171	-0,138	-0,058
345,275	50,378	-0,214	-0,139
346,289	-12,228	-0,153	-0,069
347,304	228,850	-0,068	-0,076
348,319	145,970	-0,189	-0,174
349,333	220,305	-0,197	-0,218
350,348	13,239	-0,260	-0,138
351,362	-17,689	-0,255	-0,110
352,377	-86,403	-0,259	-0,054
353,392	-92,658	-0,096	-0,018
354,406	360,140	-0,116	-0,160
355,421	210,668	1312,748	1418,539
356,435	162,189	1473,280	1419,078
