DTS Sentinel unit serial number:	SN410029Multiplexer serial number:	ORYXHardware model number:	OX2-SRSoftware version number:	ORYX F/W v4,00 Oryx Data Collector v3.7.2.0data status	okinstallation	B3 Nyhavnadifferential loss correction	single-endedforward channel	channel 1reverse channel	N/Adate	2023/12/03time	19:57:30forward acquisition time	300,00reverse acquisition time	0,00gamma	499,1914k internal	0,3199k external	0,3199temperature offset calibration	1,0000default loss term (dB/km)	0,3820temperature slope calibration	1,0000multiplexer offset coefficient	1,0000multiplexer slope coefficient	1,0000fibre end	0,00T internal ref (°C)	14,12T ext. ref 1 (°C)	-1,22T ext. ref 2 (°C)	-1,23length (m)	temperature (°C)	Stokes	anti-Stokes-744,400	191,968	-0,201	-0,221
-743,385	-200,000	0,014	0,320
-742,371	41,916	-0,215	-0,142
-741,356	-200,000	0,018	0,315
-740,342	82,482	-0,236	-0,186
-739,327	800,000	-0,156	0,321
-738,312	-200,000	-0,062	-0,271
-737,298	-200,000	-0,006	0,226
-736,283	800,000	-0,091	-0,248
-735,269	-200,000	-0,012	0,377
-734,254	-28,101	-0,306	-0,128
-733,239	58,846	-0,208	0,148
-732,225	-200,000	-0,016	-0,317
-731,210	-200,000	0,002	0,061
-730,196	-166,104	0,169	0,005
-729,181	-200,000	0,007	0,074
-728,167	74,648	0,043	0,033
-727,152	-200,000	-0,004	0,051
-726,137	103,637	-0,101	0,086
-725,123	418,338	-0,062	-0,096
-724,108	-200,000	0,040	-0,135
-723,094	182,203	-0,141	-0,151
-722,079	21,460	-0,125	-0,073
-721,064	122,189	-0,117	-0,106
-720,050	98,357	-0,058	0,049
-719,035	-124,808	0,024	0,003
-718,021	-200,000	0,017	-0,073
-717,006	182,345	-0,031	-0,033
-715,991	-140,345	-0,032	0,002
-714,977	203,276	-0,045	0,051
-713,962	-113,107	0,122	-0,017
-712,948	-90,032	0,086	0,018
-711,933	-60,261	-0,176	0,054
-710,918	376,693	-0,011	-0,016
-709,904	36,532	-0,083	-0,053
-708,889	1,558	-0,111	-0,058
-707,875	-200,000	-0,011	-0,186
-706,860	-200,000	-0,018	-0,102
-705,845	-200,000	-0,023	-0,080
-704,831	83,584	-0,037	-0,029
-703,816	10,911	-0,080	-0,044
-702,802	789,913	-0,065	-0,131
-701,787	-200,000	-0,008	-0,086
-700,772	546,573	-0,048	-0,083
-699,758	134,413	0,026	0,025
-698,743	-74,909	0,093	0,024
-697,729	187,080	0,058	0,063
-696,714	-40,687	0,098	0,037
-695,699	3,091	0,071	-0,037
-694,685	144,030	0,037	-0,036
-693,670	-15,607	0,119	-0,055
-692,656	-200,000	-0,031	-0,113
-691,641	46,113	-0,024	0,016
-690,627	-116,465	0,142	-0,019
-689,612	-83,859	0,056	-0,013
-688,597	-200,000	0,016	-0,087
-687,583	-113,676	-0,104	0,015
-686,568	-200,000	0,030	-0,206
-685,554	-200,000	-0,002	0,048
-684,539	184,276	0,068	-0,073
-683,524	109,946	-0,054	-0,047
-682,510	-104,180	0,098	-0,016
-681,495	-78,680	-0,039	0,010
-680,481	185,425	-0,054	0,058
-679,466	-83,593	-0,153	0,035
-678,451	289,146	-0,050	0,065
-677,437	-70,746	0,025	-0,007
-676,422	67,555	-0,146	0,108
-675,408	-100,121	0,158	-0,028
-674,393	-28,040	-0,115	-0,048
-673,378	245,198	-0,087	-0,107
-672,364	-173,124	-0,110	-0,002
-671,349	-200,000	-0,016	0,065
-670,335	-200,000	-0,029	0,150
-669,320	76,675	0,104	0,080
-668,305	252,285	0,011	-0,013
-667,291	47,180	-0,187	-0,126
-666,276	88,169	0,071	-0,057
-665,262	188,190	-0,054	-0,059
-664,247	604,605	-0,049	-0,089
-663,232	215,824	-0,076	0,087
-662,218	250,258	0,023	-0,028
-661,203	340,063	-0,154	0,218
-660,189	-86,894	-0,036	0,008
-659,174	800,000	-0,052	-0,148
-658,159	-200,000	-0,046	-0,223
-657,145	-200,000	0,020	-0,097
-656,130	-168,097	-0,051	-0,001
-655,116	74,830	-0,046	0,035
-654,101	800,000	-0,008	0,023
-653,086	-200,000	0,002	0,120
-652,072	-117,632	-0,030	0,004
-651,057	140,318	-0,061	-0,059
-650,043	-200,000	-0,002	0,060
-649,028	-148,433	-0,078	-0,005
-648,014	173,436	0,083	0,087
-646,999	800,000	0,005	0,013
-645,984	800,000	0,027	0,067
-644,970	13,744	0,035	-0,020
-643,955	-200,000	-0,012	0,078
-642,941	-200,000	0,003	-0,106
-641,926	406,367	-0,030	-0,046
-640,911	247,137	-0,109	0,134
-639,897	561,749	0,039	0,069
-638,882	52,919	-0,083	0,057
-637,868	-200,000	-0,025	0,115
-636,853	647,605	0,028	-0,052
-635,838	118,010	-0,109	-0,098
-634,824	-200,000	0,020	0,100
-633,809	-200,000	-0,025	0,169
-632,795	-109,097	0,171	-0,026
-631,780	-53,455	-0,059	0,019
-630,765	270,613	-0,025	0,032
-629,751	-140,226	0,036	0,003
-628,736	2,984	0,172	-0,090
-627,722	-22,662	-0,159	0,069
-626,707	800,000	0,010	-0,027
-625,692	-102,424	-0,086	-0,015
-624,678	-139,591	-0,035	0,003
-623,663	-200,000	-0,015	-0,061
-622,649	-7,759	0,080	0,039
-621,634	70,776	0,085	-0,064
-620,619	502,389	0,013	-0,021
-619,605	433,670	0,071	0,111
-618,590	32,192	0,072	0,045
-617,576	-200,000	-0,009	0,206
-616,561	-200,000	-0,014	-0,050
-615,546	-140,939	-0,162	-0,012
-614,532	42,403	0,082	-0,054
-613,517	-200,000	0,002	0,008
-612,503	4,860	0,104	-0,055
-611,488	-19,061	0,039	0,017
-610,474	84,003	-0,152	0,120
-609,459	-47,102	0,060	0,021
-608,444	-146,029	0,037	-0,002
-607,430	-200,000	-0,010	-0,080
-606,415	73,514	-0,103	-0,078
-605,401	800,000	0,032	-0,101
-604,386	94,333	-0,056	0,046
-603,371	38,398	0,019	-0,012
-602,357	323,013	0,019	-0,027
-601,342	-45,064	0,223	-0,080
-600,328	-136,343	-0,133	0,011
-599,313	-111,648	-0,205	-0,030
-598,298	201,780	-0,055	-0,062
-597,284	-69,691	0,052	0,014
-596,269	-75,591	0,034	-0,009
-595,255	163,905	-0,036	0,037
-594,240	87,955	0,059	0,048
-593,225	-141,505	-0,027	-0,002
-592,211	800,000	0,026	-0,061
-591,196	233,631	0,033	-0,040
-590,182	-77,232	0,147	0,037
-589,167	705,274	0,072	0,138
-588,152	800,000	0,016	0,038
-587,138	121,193	-0,037	0,034
-586,123	-200,000	-0,024	0,141
-585,109	31,423	-0,125	-0,077
-584,094	800,000	-0,011	-0,025
-583,079	-35,346	0,106	0,042
-582,065	-200,000	-0,071	0,255
-581,050	286,510	0,087	0,114
-580,036	231,886	0,057	-0,068
-579,021	-200,000	0,005	-0,110
-578,006	-200,000	-0,054	-0,238
-576,992	-4,699	0,127	-0,063
-575,977	373,777	0,020	-0,030
-574,963	-23,456	0,024	-0,010
-573,948	117,136	-0,074	0,065
-572,934	-82,160	-0,098	-0,023
-571,919	537,159	-0,113	-0,194
-570,904	143,116	-0,080	-0,077
-569,890	-200,000	-0,001	0,071
-568,875	-200,000	0,024	0,139
-567,861	257,437	0,093	-0,116
-566,846	-37,036	0,039	-0,015
-565,831	-200,000	0,045	0,000
-564,817	800,000	-0,047	0,143
-563,802	47,841	-0,107	0,072
-562,788	179,750	0,018	0,019
-561,773	800,000	-0,018	-0,047
-560,758	800,000	0,039	-0,095
-559,744	-200,000	0,029	0,105
-558,729	-37,521	0,149	-0,057
-557,715	800,000	-0,025	0,057
-556,700	-10,654	-0,118	-0,056
-555,685	780,767	-0,054	-0,108
-554,671	-200,000	0,009	0,034
-553,656	37,453	-0,029	0,018
-552,642	-73,283	-0,180	0,047
-551,627	-200,000	0,002	-0,031
-550,612	-10,948	-0,051	0,024
-549,598	412,359	0,107	-0,165
-548,583	-105,806	-0,144	0,023
-547,569	-135,191	-0,009	0,001
-546,554	535,700	-0,031	0,054
-545,539	-145,795	0,108	-0,007
-544,525	81,741	0,039	0,030
-543,510	137,401	-0,130	0,123
-542,496	0,153	-0,123	-0,063
-541,481	-23,070	-0,072	-0,031
-540,466	-200,000	-0,039	-0,134
-539,452	-37,911	0,065	-0,025
-538,437	109,886	0,073	0,063
-537,423	800,000	-0,052	-0,114
-536,408	-7,303	-0,047	-0,023
-535,393	535,725	-0,074	-0,128
-534,379	800,000	0,020	-0,046
-533,364	681,235	0,067	-0,127
-532,350	-100,494	0,051	-0,009
-531,335	800,000	-0,016	-0,048
-530,321	-67,035	-0,111	0,031
-529,306	800,000	-0,022	0,054
-528,291	49,633	-0,123	-0,083
-527,277	800,000	0,067	-0,142
-526,262	211,168	-0,035	0,040
-525,248	-200,000	-0,031	0,132
-524,233	-58,156	0,080	0,025
-523,218	800,000	-0,040	0,090
-522,204	354,283	-0,038	-0,055
-521,189	-39,868	0,114	-0,043
-520,175	-200,000	0,005	0,033
-519,160	-120,981	-0,033	0,004
-518,145	-140,583	-0,051	0,004
-517,131	-200,000	0,001	0,005
-516,116	-120,872	0,080	0,010
-515,102	-73,838	-0,117	0,030
-514,087	-200,000	0,002	-0,008
-513,072	181,432	-0,033	-0,035
-512,058	-62,277	-0,029	-0,009
-511,043	-200,000	-0,026	-0,126
-510,029	94,351	-0,020	-0,016
-509,014	-200,000	-0,004	0,051
-507,999	98,543	0,103	0,086
-506,985	11,452	-0,123	0,068
-505,970	-168,102	-0,129	0,004
-504,956	326,387	0,051	-0,070
-503,941	-86,684	0,105	0,023
-502,926	-122,020	-0,052	0,006
-501,912	800,000	-0,017	-0,038
-500,897	-200,000	-0,016	-0,107
-499,883	-58,050	0,025	0,008
-498,868	-154,225	-0,130	0,006
-497,853	115,177	-0,023	-0,021
-496,839	-200,000	-0,000	0,044
-495,824	-78,254	0,185	0,046
-494,810	372,058	-0,071	0,104
-493,795	-29,708	0,090	-0,037
-492,781	147,374	0,011	0,010
-491,766	-200,000	0,053	-0,175
-490,751	468,066	-0,064	0,104
-489,737	364,992	0,046	0,066
-488,722	-200,000	-0,025	0,095
-487,708	-14,426	-0,109	-0,051
-486,693	800,000	0,029	0,067
-485,678	213,078	-0,089	0,101
-484,664	161,839	-0,043	-0,043
-483,649	226,224	-0,083	-0,097
-482,635	-157,428	0,098	-0,004
-481,620	-87,261	0,127	-0,027
-480,605	314,793	-0,014	-0,019
-479,591	100,105	0,044	-0,037
-478,576	523,760	0,040	-0,067
-477,562	800,000	0,036	-0,080
-476,547	158,241	-0,072	-0,072
-475,532	-66,530	-0,108	0,031
-474,518	570,110	0,042	0,074
-473,503	591,031	0,016	-0,028
-472,489	274,341	0,009	0,012
-471,474	250,963	-0,065	-0,080
-470,459	-200,000	0,005	-0,140
-469,445	-89,698	-0,041	-0,009
-468,430	-200,000	0,007	-0,067
-467,416	59,681	-0,073	-0,052
-466,401	800,000	-0,042	0,084
-465,386	-200,000	-0,014	0,148
-464,372	-33,346	0,184	0,073
-463,357	-131,061	-0,100	0,009
-462,343	704,539	-0,096	0,182
-461,328	253,291	-0,082	-0,101
-460,313	705,136	0,026	-0,050
-459,299	-185,392	0,219	0,002
-458,284	-69,576	0,100	0,027
-457,270	101,773	-0,070	-0,059
-456,255	160,629	-0,017	0,017
-455,241	125,373	0,083	-0,075
-454,226	31,020	-0,073	0,045
-453,211	-75,628	0,054	0,014
-452,197	-48,306	0,198	0,068
-451,182	118,670	0,083	-0,074
-450,168	169,062	-0,078	-0,080
-449,153	-195,042	-0,085	-0,000
-448,138	800,000	0,025	-0,067
-447,124	-142,516	0,071	0,005
-446,109	-16,072	0,033	-0,015
-445,095	230,697	-0,070	0,083
-444,080	31,867	0,137	0,085
-443,065	800,000	-0,009	-0,022
-442,051	-105,303	0,092	-0,015
-441,036	-93,167	-0,043	-0,008
-440,022	30,759	0,108	-0,067
-439,007	475,042	0,039	-0,064
-437,992	-200,000	0,023	0,122
-436,978	-59,332	0,042	-0,013
-435,963	-72,288	-0,110	0,029
-434,949	543,432	0,022	0,038
-433,934	800,000	0,055	-0,146
-432,919	-200,000	-0,009	0,029
-431,905	371,795	0,026	0,038
-430,890	-200,000	-0,013	0,110
-429,876	800,000	0,011	0,026
-428,861	106,606	0,074	-0,063
-427,846	800,000	-0,022	-0,054
-426,832	-93,710	0,112	-0,022
-425,817	-131,672	0,132	-0,012
-424,803	770,362	-0,054	0,107
-423,788	800,000	0,047	-0,105
-422,773	251,944	-0,062	0,076
-421,759	800,000	0,026	-0,056
-420,744	43,662	0,081	-0,053
-419,730	106,899	0,069	0,059
-418,715	-31,578	-0,135	-0,054
-417,701	723,822	-0,088	0,170
-416,686	402,936	0,087	0,132
-415,671	-125,543	0,029	-0,003
-414,657	463,682	0,097	-0,156
-413,642	53,709	0,030	0,021
-412,628	800,000	-0,104	0,223
-411,613	7,570	-0,077	-0,041
-410,598	-32,150	0,058	-0,023
-409,584	16,141	0,098	0,055
-408,569	800,000	0,048	0,105
-407,555	-200,000	-0,013	0,128
-406,540	-52,614	0,064	-0,021
-405,525	-200,000	0,004	-0,122
-404,511	-66,621	-0,121	0,034
-403,496	286,414	-0,031	0,040
-402,482	354,318	0,049	-0,071
-401,467	-200,000	0,016	0,053
-400,452	-153,144	0,122	0,006
-399,438	23,749	0,168	0,099
-398,423	17,030	-0,088	0,050
-397,409	266,994	-0,039	-0,049
-396,394	-47,106	-0,166	0,058
-395,379	12,370	-0,066	-0,036
-394,365	-15,897	0,052	0,024
-393,350	113,266	0,048	-0,042
-392,336	70,989	-0,029	0,021
-391,321	-160,528	0,139	0,005
-390,306	72,262	-0,045	-0,034
-389,292	-114,849	-0,087	-0,012
-388,277	800,000	0,061	-0,148
-387,263	800,000	0,074	-0,172
-386,248	469,062	0,065	0,106
-385,233	214,108	0,053	0,061
-384,219	-133,559	-0,097	0,009
-383,204	286,898	-0,049	-0,064
-382,190	87,278	0,061	-0,048
-381,175	366,212	-0,060	-0,087
-380,160	-200,000	0,011	0,183
-379,146	-200,000	-0,025	0,109
-378,131	-169,133	0,107	0,003
-377,117	276,695	0,064	-0,082
-376,102	51,651	0,109	0,074
-375,088	-50,967	0,137	-0,046
-374,073	-68,589	0,047	0,013
-373,058	652,946	-0,047	0,086
-372,044	-200,000	0,018	-0,150
-371,029	32,987	0,055	0,034
-370,015	72,333	0,119	-0,089
-369,000	-11,237	-0,031	0,015
-367,985	800,000	0,071	-0,144
-366,971	-200,000	-0,015	0,057
-365,956	439,565	-0,079	-0,124
-364,942	-200,000	-0,004	0,026
-363,927	144,065	-0,050	-0,048
-362,912	-46,978	0,176	0,061
-361,898	-80,127	-0,084	0,020
-360,883	49,650	0,065	0,044
-359,869	-200,000	0,023	-0,154
-358,854	-6,593	-0,031	0,015
-357,839	667,994	0,023	-0,043
-356,825	-81,174	0,147	0,035
-355,810	-200,000	0,002	-0,013
-354,796	-200,000	0,010	-0,194
-353,781	-70,377	-0,030	-0,008
-352,766	-200,000	-0,011	-0,085
-351,752	-200,000	0,018	-0,146
-350,737	800,000	0,018	0,039
-349,723	45,131	0,090	-0,059
-348,708	800,000	-0,030	0,072
-347,693	74,135	0,032	0,024
-346,679	-123,345	0,026	0,003
-345,664	-200,000	0,008	-0,089
-344,650	-29,911	-0,045	-0,018
-343,635	195,863	0,060	0,066
-342,620	226,002	0,095	0,111
-341,606	161,753	-0,073	0,074
-340,591	-167,477	-0,071	-0,002
-339,577	-200,000	-0,001	-0,034
-338,562	-200,000	0,045	-0,175
-337,548	33,802	0,169	0,105
-336,533	455,469	0,072	-0,114
-335,518	91,648	0,105	0,084
-334,504	800,000	0,063	0,166
-333,489	-58,308	0,075	-0,023
-332,475	-157,202	-0,148	-0,006
-331,460	-200,000	-0,003	-0,038
-330,445	35,006	-0,095	0,059
-329,431	-200,000	0,007	-0,068
-328,416	411,399	0,048	0,073
-327,402	-68,172	0,151	0,042
-326,387	192,377	-0,107	0,115
-325,372	169,120	0,102	-0,105
-324,358	325,655	-0,116	-0,160
-323,343	-9,850	-0,100	0,047
-322,329	800,000	0,005	0,012
-321,314	578,299	-0,040	0,070
-320,299	-200,000	-0,015	0,142
-319,285	42,214	0,074	-0,048
-318,270	-200,000	-0,026	-0,137
-317,256	-19,464	-0,077	-0,034
-316,241	618,424	-0,019	0,034
-315,226	333,766	0,068	0,094
-314,212	-115,670	-0,109	-0,014
-313,197	-200,000	0,010	0,196
-312,183	800,000	0,024	0,049
-311,168	59,135	-0,086	-0,061
-310,153	-171,954	0,097	0,002
-309,139	32,435	-0,037	-0,023
-308,124	655,122	-0,009	0,016
-307,110	559,188	0,101	0,176
-306,095	-200,000	-0,043	-0,148
-305,080	-200,000	0,001	0,020
-304,066	-182,199	-0,153	0,002
-303,051	-200,000	0,029	-0,108
-302,037	201,259	-0,110	-0,121
-301,022	729,570	-0,026	-0,050
-300,008	159,348	0,048	-0,048
-298,993	384,561	-0,038	0,056
-297,978	-200,000	-0,017	-0,088
-296,964	-3,304	-0,030	-0,015
-295,949	-200,000	0,014	0,258
-294,935	-130,183	-0,084	0,008
-293,920	-200,000	-0,015	0,167
-292,905	-200,000	0,020	0,068
-291,891	-92,071	0,141	0,028
-290,876	189,932	-0,022	-0,023
-289,862	55,030	-0,075	-0,052
-288,847	27,891	-0,122	0,073
-287,832	-200,000	-0,013	-0,124
-286,818	792,852	-0,021	0,041
-285,803	59,653	0,078	0,055
-284,789	79,903	0,149	0,114
-283,774	231,147	0,064	-0,076
-282,759	-200,000	-0,011	-0,116
-281,745	156,072	-0,073	-0,072
-280,730	-200,000	-0,036	-0,211
-279,716	-14,802	0,149	-0,068
-278,701	103,059	-0,004	0,004
-277,686	-200,000	0,000	0,040
-276,672	137,453	-0,008	-0,008
-275,657	-200,000	0,002	0,064
-274,643	28,392	0,055	0,033
-273,628	62,908	-0,109	0,078
-272,613	250,158	0,035	-0,043
-271,599	-99,594	-0,077	-0,014
-270,584	19,243	0,187	0,107
-269,570	-200,000	-0,063	0,205
-268,555	15,493	-0,145	0,081
-267,540	-92,436	-0,056	-0,011
-266,526	9,765	-0,059	-0,032
-265,511	588,915	-0,053	-0,093
-264,497	-200,000	-0,014	-0,130
-263,482	48,731	0,097	0,065
-262,467	-200,000	0,004	0,103
-261,453	800,000	-0,039	-0,110
-260,438	-125,966	-0,055	0,006
-259,424	-200,000	0,003	-0,011
-258,409	800,000	-0,027	0,058
-257,395	-26,728	-0,116	0,048
-256,380	35,890	-0,025	0,016
-255,365	-200,000	-0,011	0,095
-254,351	-200,000	-0,021	-0,079
-253,336	-200,000	-0,016	0,056
-252,322	-3,741	0,151	0,075
-251,307	-200,000	-0,008	-0,146
-250,292	-148,513	-0,079	-0,005
-249,278	800,000	-0,027	0,082
-248,263	-2,118	-0,092	0,046
-247,249	607,967	0,056	0,101
-246,234	-200,000	-0,018	0,069
-245,219	208,287	0,089	-0,100
-244,205	-110,745	0,008	-0,001
-243,190	104,681	0,085	0,071
-242,176	-76,331	0,054	-0,013
-241,161	528,060	0,078	0,133
-240,146	256,083	-0,024	-0,029
-239,132	800,000	-0,041	-0,121
-238,117	153,935	0,055	-0,053
-237,103	322,367	-0,046	0,062
-236,088	-24,271	0,158	0,067
-235,073	91,278	0,035	-0,028
-234,059	-87,676	0,120	0,026
-233,044	-178,078	0,042	0,001
-232,030	-200,000	0,017	-0,074
-231,015	107,836	-0,063	-0,053
-230,000	-137,686	-0,055	-0,004
-228,986	60,380	0,014	-0,010
-227,971	148,513	0,140	-0,135
-226,957	-90,781	-0,088	-0,018
-225,942	-200,000	-0,075	0,318
-224,927	-200,000	-0,018	0,123
-223,913	800,000	0,006	0,014
-222,898	35,438	0,061	0,038
-221,884	-154,287	0,151	0,007
-220,869	244,617	0,085	0,102
-219,855	800,000	0,027	-0,082
-218,840	174,214	0,096	0,100
-217,825	-9,454	-0,090	-0,042
-216,811	101,549	0,019	-0,016
-215,796	170,766	-0,070	0,072
-214,782	496,005	-0,064	-0,105
-213,767	-200,000	-0,005	0,025
-212,752	454,494	-0,063	0,100
-211,738	800,000	-0,021	0,052
-210,723	252,424	0,054	0,065
-209,709	102,896	0,048	0,040
-208,694	-200,000	0,001	0,137
-207,679	72,811	0,089	-0,066
-206,665	800,000	-0,050	0,145
-205,650	-84,533	0,097	0,022
-204,636	-200,000	0,003	-0,109
-203,621	212,668	-0,056	-0,063
-202,606	128,218	-0,084	-0,076
-201,592	381,209	-0,028	-0,042
-200,577	-200,000	-0,016	-0,092
-199,563	672,516	-0,083	0,154
-198,548	26,875	-0,049	0,029
-197,533	-122,782	0,035	-0,004
-196,519	-61,747	0,172	0,051
-195,504	6,768	-0,067	0,035
-194,490	435,740	-0,109	-0,170
-193,475	-200,000	-0,003	-0,142
-192,460	-200,000	0,001	-0,037
-191,446	-116,017	0,121	-0,016
-190,431	-15,144	0,082	-0,037
-189,417	152,116	-0,083	0,081
-188,402	-135,833	-0,083	-0,007
-187,387	19,920	-0,172	-0,099
-186,373	161,000	-0,029	-0,029
-185,358	-170,140	-0,113	0,003
-184,344	298,771	-0,058	-0,076
-183,329	122,554	-0,139	-0,124
-182,315	-49,274	-0,044	0,015
-181,300	57,479	-0,050	0,035
-180,285	800,000	0,025	-0,062
-179,271	-200,000	-0,020	-0,160
-178,256	-61,642	-0,279	0,083
-177,242	800,000	-0,015	-0,041
-176,227	-104,135	-0,017	0,003
-175,212	-187,537	-0,236	-0,002
-174,198	153,868	0,086	-0,084
-173,183	-200,000	0,013	-0,130
-172,169	-102,015	-0,099	0,017
-171,154	69,881	-0,094	-0,069
-170,139	-200,000	0,025	-0,094
-169,125	499,024	-0,034	0,057
-168,110	-35,175	0,046	-0,018
-167,096	276,273	0,025	0,032
-166,081	800,000	-0,029	-0,088
-165,066	-200,000	0,030	-0,179
-164,052	254,839	-0,088	0,108
-163,037	-200,000	0,034	0,140
-162,023	-200,000	0,007	-0,022
-161,008	-54,171	0,206	0,066
-159,993	34,905	-0,052	-0,032
-158,979	47,126	-0,194	-0,128
-157,964	-6,332	0,041	-0,020
-156,950	800,000	-0,057	0,152
-155,935	-75,442	0,049	-0,012
-154,920	133,205	0,068	0,063
-153,906	-200,000	-0,004	0,036
-152,891	467,558	-0,045	-0,073
-151,877	800,000	0,022	-0,061
-150,862	800,000	-0,048	-0,150
-149,847	195,098	-0,129	-0,139
-148,833	-103,014	-0,049	-0,008
-147,818	37,100	0,026	-0,017
-146,804	167,328	0,020	0,021
-145,789	-104,233	0,080	-0,013
-144,775	116,624	-0,025	-0,021
-143,760	36,573	-0,116	-0,073
-142,745	187,394	0,123	-0,131
-141,731	-111,413	-0,060	0,009
-140,716	-34,230	-0,104	-0,040
-139,702	-200,000	0,032	0,135
-138,687	-172,870	-0,079	0,002
-137,672	-200,000	-0,016	-0,092
-136,658	800,000	0,054	-0,141
-135,643	246,077	-0,055	0,066
-134,629	-25,807	0,105	0,044
-133,614	-200,000	0,011	0,062
-132,599	-129,940	0,100	-0,010
-131,585	-16,069	0,047	0,021
-130,570	-200,000	0,003	-0,039
-129,556	800,000	-0,046	0,107
-128,541	800,000	-0,058	-0,149
-127,526	290,017	0,054	0,070
-126,512	-111,918	0,125	0,018
-125,497	110,392	0,033	0,028
-124,483	-200,000	-0,004	0,062
-123,468	-19,085	-0,078	0,035
-122,453	-136,379	0,124	0,010
-121,439	-200,000	-0,019	0,084
-120,424	17,086	-0,066	0,037
-119,410	22,439	0,062	0,036
-118,395	-8,398	0,110	0,052
-117,380	-200,000	0,009	-0,089
-116,366	800,000	-0,040	-0,084
-115,351	-109,947	-0,060	-0,009
-114,337	-28,043	0,132	-0,054
-113,322	800,000	0,031	-0,071
-112,307	64,237	0,091	-0,065
-111,293	-200,000	-0,018	0,169
-110,278	800,000	0,081	0,195
-109,264	319,706	-0,023	-0,031
-108,249	-43,933	0,128	-0,046
-107,234	-200,000	0,006	-0,206
-106,220	-105,468	0,108	-0,017
-105,205	-41,776	0,146	-0,053
-104,191	754,096	0,044	-0,085
-103,176	800,000	0,046	0,131
-102,162	357,997	0,082	0,116
-101,147	64,108	-0,042	0,030
-100,132	-92,498	0,071	0,014
-99,118	97,675	-0,063	-0,051
-98,103	-77,609	0,047	0,011
-97,089	239,526	-0,136	0,161
-96,074	-200,000	0,001	-0,111
-95,059	349,287	-0,056	0,079
-94,045	-23,050	0,089	0,038
-93,030	7,458	-0,074	0,039
-92,016	103,899	-0,074	-0,062
-91,001	368,723	-0,035	-0,050
-89,986	-42,309	0,105	0,038
-88,972	351,154	0,065	0,091
-87,957	-16,693	0,049	0,022
-86,943	-200,000	-0,058	-0,187
-85,928	579,353	0,021	-0,037
-84,913	-200,000	0,062	-0,196
-83,899	800,000	-0,030	-0,092
-82,884	-57,904	-0,076	0,023
-81,870	-147,252	-0,054	0,003
-80,855	202,359	-0,100	-0,110
-79,840	-200,000	0,020	0,078
-78,826	698,748	-0,023	0,043
-77,811	-200,000	0,017	-0,100
-76,797	-50,695	0,181	-0,060
-75,782	-48,625	0,147	0,050
-74,767	117,113	-0,048	-0,042
-73,753	53,024	-0,047	-0,032
-72,738	800,000	0,033	-0,079
-71,724	-78,669	-0,150	-0,036
-70,709	11,568	-0,081	-0,044
-69,694	436,652	-0,027	0,043
-68,680	-149,821	-0,064	-0,004
-67,665	-30,903	0,070	0,028
-66,651	-145,383	0,128	-0,008
-65,636	-176,621	-0,159	-0,003
-64,622	274,226	-0,029	-0,037
-63,607	-200,000	-0,013	-0,220
-62,592	251,221	-0,030	0,036
-61,578	-200,000	-0,008	-0,066
-60,563	-200,000	0,002	0,128
-59,549	47,514	-0,025	0,017
-58,534	-41,818	-1,536	-0,555
-57,519	353,289	-1,440	-2,031
-56,505	-200,000	-0,672	-4,523
-55,490	168,080	1,157	1,167
-54,476	800,000	4,794	11,047
-53,461	-200,000	18,711	304,792
-52,446	800,000	736,423	2295,225
-51,432	568,953	1652,939	2857,873
-50,417	78,998	1669,990	1265,579
-49,403	22,059	1542,685	889,393
-48,388	16,012	1465,594	815,558
-47,373	17,836	1455,589	818,769
-46,359	16,889	1445,611	808,582
-45,344	14,271	1441,115	793,501
-44,330	14,196	1439,211	792,061
-43,315	14,185	1437,480	791,025
-42,300	14,205	1435,718	790,118
-41,286	14,239	1434,516	789,589
-40,271	14,223	1433,281	788,801
-39,257	14,174	1432,013	787,836
-38,242	14,233	1430,739	787,386
-37,227	14,208	1429,582	786,599
-36,213	14,271	1428,202	786,108
-35,198	14,240	1427,121	785,337
-34,184	14,300	1426,153	785,058
-33,169	14,193	1424,811	783,777
-32,154	14,265	1423,701	783,476
-31,140	14,234	1422,536	782,661
-30,125	14,254	1421,267	782,023
-29,111	14,255	1420,092	781,352
-28,096	14,209	1419,180	780,601
-27,082	14,171	1418,283	779,897
-26,067	14,174	1416,965	779,157
-25,052	14,128	1416,123	778,446
-24,038	14,130	1414,866	777,734
-23,023	14,128	1413,827	777,122
-22,009	14,104	1412,989	776,521
-20,994	14,115	1412,107	776,054
-19,979	14,056	1411,136	775,211
-18,965	14,079	1410,380	774,876
-17,950	14,069	1409,313	774,212
-16,936	14,093	1408,378	773,778
-15,921	14,057	1407,060	772,854
-14,906	14,038	1406,360	772,353
-13,892	14,073	1405,555	772,041
-12,877	14,050	1404,474	771,309
-11,863	14,056	1403,552	770,803
-10,848	13,989	1403,016	770,167
-9,833	14,056	1401,855	769,809
-8,819	13,980	1400,949	768,925
-7,804	13,989	1400,054	768,446
-6,790	13,956	1399,142	767,761
-5,775	13,969	1397,740	767,021
-4,760	13,983	1396,996	766,651
-3,746	13,947	1396,138	765,981
-2,731	13,943	1395,528	765,597
-1,717	13,968	1394,432	765,080
-0,702	13,930	1392,642	763,893
0,313	17,739	1310,722	736,630
1,327	33,942	706,264	434,499
2,342	52,060	124,230	83,665
3,356	2,507	16,737	8,553
4,371	17,443	3,072	1,723
5,386	-2,377	0,449	0,222
6,400	-200,000	0,042	0,194
7,415	21,764	-0,293	-0,168
8,429	-46,450	-0,246	-0,085
9,444	-80,368	-0,397	-0,093
10,459	-85,889	-0,283	-0,061
11,473	88,111	-0,254	-0,200
12,488	17,380	-0,322	-0,181
13,502	20,331	-0,332	-0,189
14,517	-53,266	-0,332	-0,107
15,531	-50,248	-0,365	-0,121
16,546	-39,821	-0,419	-0,154
17,561	130,874	-0,303	-0,275
18,575	69,086	-0,192	-0,139
19,590	176,961	-0,223	-0,230
20,604	-64,310	-0,224	-0,064
21,619	172,112	-0,369	-0,375
22,634	56,629	-0,474	-0,325
23,648	9,042	-0,552	-0,294
24,663	-31,837	-0,475	-0,187
25,677	31,570	-0,363	-0,220
26,692	7,898	-0,405	-0,214
27,707	57,928	-0,364	-0,251
28,721	20,774	-0,357	-0,204
29,736	84,645	-0,336	-0,260
30,750	124,752	-0,314	-0,279
31,765	50,223	-0,385	-0,256
32,780	177,620	-0,361	-0,372
33,794	54,189	-0,375	-0,255
34,809	71,488	-0,444	-0,325
35,823	167,829	-0,332	-0,334
36,838	159,852	-0,393	-0,387
37,853	104,763	-0,424	-0,352
38,867	53,459	-0,427	-0,289
39,882	-22,691	-0,309	-0,131
40,896	163,692	-0,322	-0,320
41,911	83,797	-0,394	-0,303
42,926	52,727	-0,355	-0,239
43,940	204,322	-0,304	-0,333
44,955	720,869	-0,190	-0,359
45,969	67,453	-0,314	-0,226
46,984	71,467	-0,415	-0,304
47,999	23,814	-0,387	-0,225
49,013	197,082	-0,298	-0,321
50,028	211,815	-0,248	-0,276
51,042	-38,684	-0,364	-0,135
52,057	191,203	-0,308	-0,328
53,071	-30,172	-0,400	-0,159
54,086	125,941	-0,272	-0,242
55,101	13,381	-0,265	-0,145
56,115	-28,526	-0,290	-0,117
57,130	2,210	-0,245	-0,124
58,144	95,858	-0,391	-0,314
59,159	16,683	-0,424	-0,235
60,174	50,271	-0,398	-0,264
61,188	9,583	-0,424	-0,225
62,203	154,059	-0,305	-0,295
63,217	79,552	-0,351	-0,265
64,232	12,822	-0,340	-0,184
65,247	119,382	-0,295	-0,257
66,261	167,898	-0,305	-0,305
67,276	99,862	-0,385	-0,314
68,290	284,626	-0,215	-0,273
69,305	292,198	-0,209	-0,269
70,320	-47,091	-0,333	-0,114
71,334	-27,475	-0,385	-0,157
72,349	38,802	-0,325	-0,204
73,363	112,856	-0,311	-0,265
74,378	142,802	-0,430	-0,402
75,393	175,538	-0,263	-0,268
76,407	53,558	-0,198	-0,133
77,422	303,697	-0,237	-0,310
78,436	-30,578	-0,361	-0,143
79,451	190,385	-0,186	-0,197
80,466	110,065	-0,409	-0,345
81,480	31,245	-0,364	-0,219
82,495	-34,465	-0,275	-0,105
83,509	81,626	-0,223	-0,169
84,524	25,854	-0,291	-0,170
85,539	24,264	-0,324	-0,188
86,553	479,848	-0,111	-0,178
87,568	-12,799	-0,346	-0,158
88,582	297,117	-0,244	-0,316
89,597	147,784	-0,340	-0,323
90,611	320,190	-0,218	-0,291
91,626	-2,170	-0,268	-0,131
92,641	-17,627	-0,189	-0,083
93,655	107,889	-0,395	-0,331
94,670	567,049	-0,182	-0,312
95,684	137,247	-0,303	-0,279
96,699	-30,136	-0,453	-0,180
97,714	19,465	-0,267	-0,150
98,728	800,000	-0,107	-0,250
99,743	68,035	-0,308	-0,221
100,757	73,290	-0,238	-0,175
101,772	58,681	-0,376	-0,259
102,787	-29,681	-0,347	-0,138
103,801	-0,335	-0,441	-0,219
104,816	115,798	-0,137	-0,117
105,830	229,107	-0,131	-0,151
106,845	662,454	-0,131	-0,237
107,860	800,000	-0,190	-0,433
108,874	26,843	-0,236	-0,139
109,889	-56,918	-0,308	-0,095
110,903	34,425	-0,376	-0,230
111,918	16,214	-0,243	-0,134
112,933	433,525	-0,209	-0,319
113,947	-4,368	-0,221	-0,107
114,962	-12,972	-0,174	-0,079
115,976	161,357	-0,237	-0,232
116,991	169,297	-0,395	-0,395
118,006	47,758	-0,266	-0,174
119,020	69,185	-0,198	-0,143
120,035	-45,313	-0,207	-0,072
121,049	66,696	-0,262	-0,187
122,064	99,200	-0,202	-0,163
123,079	20,955	-0,319	-0,181
124,093	58,853	-0,284	-0,196
125,108	192,261	-0,250	-0,265
126,122	200,038	-0,181	-0,195
127,137	424,570	-0,158	-0,239
128,151	22,606	-0,261	-0,149
129,166	38,900	-0,295	-0,184
130,181	45,966	-0,339	-0,219
131,195	84,265	-0,298	-0,228
132,210	160,438	-0,279	-0,273
133,224	-75,221	-0,278	-0,069
134,239	273,149	-0,202	-0,250
135,254	164,760	-0,220	-0,217
136,268	90,992	-0,220	-0,173
137,283	66,039	-0,116	-0,082
138,297	13,459	-0,303	-0,164
139,312	341,787	-0,209	-0,287
140,327	52,111	-0,160	-0,106
141,341	427,923	-0,160	-0,243
142,356	327,885	-0,177	-0,239
143,370	-16,906	-0,257	-0,113
144,385	800,000	-0,138	-0,309
145,400	197,058	-0,202	-0,215
146,414	447,585	-0,193	-0,297
147,429	41,076	-0,359	-0,226
148,443	800,000	-0,126	-0,279
149,458	90,867	-0,284	-0,223
150,473	111,557	-0,227	-0,191
151,487	-99,449	-0,205	-0,036
152,502	65,952	-0,186	-0,132
153,516	-19,511	-0,325	-0,140
154,531	136,398	-0,275	-0,250
155,546	62,389	-0,249	-0,174
156,560	-26,791	-0,184	-0,075
157,575	94,771	-0,182	-0,145
158,589	77,322	-0,291	-0,216
159,604	32,189	-0,250	-0,151
160,619	582,079	-0,159	-0,273
161,633	26,841	-0,243	-0,142
162,648	-53,940	-0,174	-0,055
163,662	157,808	-0,173	-0,168
164,677	319,950	-0,187	-0,248
165,692	83,956	-0,146	-0,111
166,706	41,971	-0,286	-0,181
167,721	241,913	-0,297	-0,348
168,735	258,523	-0,237	-0,285
169,750	-48,215	-0,299	-0,100
170,764	59,533	-0,296	-0,204
171,779	64,234	-0,150	-0,105
172,794	-56,566	-0,134	-0,041
173,808	-59,181	-0,243	-0,073
174,823	160,174	-0,262	-0,255
175,837	-4,742	-0,303	-0,145
176,852	250,116	-0,166	-0,197
177,867	178,970	-0,216	-0,220
178,881	800,000	-0,076	-0,168
179,896	-5,285	-0,237	-0,113
180,910	196,241	-0,209	-0,222
181,925	800,000	-0,156	-0,339
182,940	185,311	-0,229	-0,237
183,954	-84,594	-0,263	-0,057
184,969	-140,750	-0,269	0,019
185,983	124,956	-0,076	-0,067
186,998	-144,627	-0,107	-0,007
188,013	470,940	-0,141	-0,222
189,027	286,643	-0,249	-0,314
190,042	139,177	-0,165	-0,151
191,056	356,607	-0,205	-0,285
192,071	310,065	-0,098	-0,128
193,086	-7,573	-0,218	-0,102
194,100	-102,581	-0,227	-0,037
195,115	32,124	-0,194	-0,116
196,129	23,194	-0,240	-0,137
197,144	197,229	-0,253	-0,269
198,159	48,409	-0,221	-0,144
199,173	118,818	-0,171	-0,147
200,188	10,748	-0,210	-0,111
201,202	99,411	-0,157	-0,127
202,217	-138,409	-0,153	0,012
203,232	77,611	-0,236	-0,174
204,246	70,360	-0,278	-0,199
205,261	84,106	-0,133	-0,101
206,275	148,211	-0,225	-0,211
207,290	506,249	-0,116	-0,188
208,304	168,512	-0,226	-0,224
209,319	114,713	-0,213	-0,181
210,334	31,441	-0,286	-0,170
211,348	15,325	-0,264	-0,144
212,363	98,862	-0,300	-0,241
213,377	271,867	-0,179	-0,219
214,392	149,721	-0,129	-0,121
215,407	431,266	-0,086	-0,130
216,421	23,762	-0,190	-0,109
217,436	-8,547	-0,220	-0,102
218,450	595,305	-0,203	-0,350
219,465	129,360	-0,153	-0,136
220,480	41,077	-0,133	-0,083
221,494	-20,379	-0,188	-0,080
222,509	-35,905	-0,222	-0,083
223,523	-96,208	-0,162	-0,030
224,538	-46,492	-0,067	-0,023
225,553	274,222	-0,227	-0,280
226,567	191,733	-0,215	-0,225
227,582	-12,617	-0,228	-0,103
228,596	33,834	-0,143	-0,086
229,611	10,082	-0,156	-0,082
230,626	453,671	-0,144	-0,222
231,640	-83,030	-0,082	-0,018
232,655	112,690	-0,126	-0,106
233,669	86,281	-0,192	-0,147
234,684	-200,000	0,031	-0,172
235,699	77,517	-0,191	-0,141
236,713	123,592	-0,203	-0,177
237,728	9,977	-0,094	-0,049
238,742	-97,651	-0,213	-0,038
239,757	30,078	-0,216	-0,127
240,772	-88,548	-0,364	-0,075
241,786	114,256	-0,182	-0,153
242,801	-26,006	-0,136	0,055
243,815	180,841	-0,233	-0,237
244,830	334,477	-0,039	-0,052
245,844	-57,376	-0,258	-0,078
246,859	-153,108	-0,249	-0,012
247,874	-88,126	-0,151	-0,031
248,888	-46,119	-0,058	0,020
249,903	220,435	-0,114	-0,127
250,917	-96,891	-0,158	-0,028
251,932	229,285	-0,133	-0,151
252,947	-33,907	-0,258	-0,098
253,961	-56,938	-0,221	-0,067
254,976	-114,029	-0,239	-0,032
255,990	75,708	-0,256	-0,187
257,005	800,000	-0,068	-0,175
258,020	-27,558	-0,121	-0,049
259,034	-57,351	-0,226	-0,068
260,049	800,000	-0,079	-0,156
261,063	345,896	-0,134	-0,183
262,078	-200,000	-0,036	-0,194
263,093	800,000	-0,071	-0,181
264,107	622,216	-0,090	-0,158
265,122	-145,206	-0,200	-0,012
266,136	6,784	-0,127	-0,065
267,151	577,396	-0,133	-0,226
268,166	105,192	-0,214	-0,175
269,180	-89,982	-0,165	0,033
270,195	-200,000	-0,086	-0,267
271,209	332,260	-0,177	-0,237
272,224	138,198	-0,068	-0,062
273,239	-109,730	-0,095	-0,014
274,253	-154,342	-0,148	0,007
275,268	5,296	-0,113	-0,057
276,282	31,155	-0,210	-0,124
277,297	67,545	-0,265	-0,187
278,312	51,086	-0,222	-0,145
279,326	-200,000	0,006	-0,114
280,341	-37,110	-0,213	-0,078
281,355	-95,510	-0,128	-0,024
282,370	45,925	-0,105	-0,067
283,384	27,078	-0,212	-0,122
284,399	16,503	-0,114	-0,062
285,414	17,790	-0,245	-0,134
286,428	800,000	-0,096	-0,224
287,443	-200,000	-0,087	-0,268
288,457	96,709	-0,104	-0,082
289,472	-131,460	-0,185	0,017
290,487	100,439	-0,178	-0,143
291,501	125,417	-0,187	-0,162
292,516	54,428	-0,177	-0,118
293,530	-56,635	-0,144	-0,044
294,545	200,726	-0,138	-0,146
295,560	256,357	-0,024	0,028
296,574	46,126	-0,173	-0,110
297,589	759,168	-0,132	-0,248
298,603	72,698	-0,133	-0,096
299,618	-44,985	-0,209	-0,071
300,633	197,309	-0,130	-0,137
301,647	-200,000	0,003	-0,121
302,662	350,398	-0,120	-0,164
303,676	-0,510	-0,139	-0,068
304,691	18,257	-0,244	-0,134
305,706	20,838	-0,123	-0,068
306,720	149,006	-0,204	-0,190
307,735	-2,638	-0,143	-0,069
308,749	-200,000	0,021	-0,091
309,764	388,111	-0,063	-0,090
310,779	800,000	-0,056	-0,148
311,793	-99,473	-0,194	-0,033
312,808	242,643	-0,093	-0,108
313,822	353,845	-0,155	-0,213
314,837	-15,032	-0,127	-0,056
315,852	-64,722	-0,302	-0,084
316,866	-23,212	-0,135	-0,056
317,881	-71,881	-0,131	-0,033
318,895	800,000	-0,071	-0,147
319,910	800,000	-0,129	-0,296
320,925	800,000	-0,119	-0,252
321,939	-200,000	-0,018	-0,072
322,954	-200,000	-0,009	-0,081
323,968	-200,000	-0,029	-0,243
324,983	-85,895	-0,119	-0,025
325,997	12,101	-0,092	-0,049
327,012	338,455	-0,152	-0,204
328,027	6,168	-0,129	-0,065
329,041	800,000	-0,017	0,050
330,056	141,596	-0,145	-0,132
331,070	104,127	-0,108	-0,087
332,085	40,989	-0,085	-0,053
333,100	390,851	-0,140	-0,201
334,114	-128,593	-0,177	-0,017
335,129	138,794	-0,211	-0,191
336,143	-112,816	-0,141	-0,019
337,158	383,388	-0,116	-0,165
338,173	-10,238	-0,130	0,059
339,187	169,073	-0,120	-0,118
340,202	444,913	-0,091	-0,137
341,216	190,377	-0,091	-0,094
342,231	130,535	-0,177	-0,156
343,246	-108,289	-0,164	-0,024
344,260	318,573	-0,095	-0,125
345,275	8,047	-0,120	-0,062
346,289	800,000	-0,056	-0,113
347,304	-130,836	-0,070	-0,006
348,319	260,418	-0,176	-0,210
349,333	101,893	-0,160	-0,128
350,348	26,469	-0,153	-0,088
351,362	-24,153	-0,088	-0,036
352,377	800,000	-0,014	0,033
353,392	537,955	0,032	-0,052
354,406	23,095	-0,153	-0,086
355,421	208,700	1314,507	1413,511
356,435	160,591	1475,225	1414,008
