DTS Sentinel unit serial number:	SN410029Multiplexer serial number:	ORYXHardware model number:	OX2-SRSoftware version number:	ORYX F/W v4,00 Oryx Data Collector v3.7.2.0data status	okinstallation	B3 Nyhavnadifferential loss correction	single-endedforward channel	channel 1reverse channel	N/Adate	2023/12/02time	23:32:30forward acquisition time	300,00reverse acquisition time	0,00gamma	499,1914k internal	0,3201k external	0,3201temperature offset calibration	1,0000default loss term (dB/km)	0,3820temperature slope calibration	1,0000multiplexer offset coefficient	1,0000multiplexer slope coefficient	1,0000fibre end	0,00T internal ref (°C)	13,25T ext. ref 1 (°C)	-1,68T ext. ref 2 (°C)	-1,70length (m)	temperature (°C)	Stokes	anti-Stokes-744,400	-200,000	-0,084	-0,332
-743,385	-200,000	0,022	0,158
-742,371	800,000	-0,106	-0,239
-741,356	800,000	0,153	0,329
-740,342	527,463	-0,082	-0,141
-739,327	800,000	-0,096	0,239
-738,312	260,291	-0,302	-0,380
-737,298	800,000	-0,105	0,289
-736,283	147,434	-0,183	-0,179
-735,269	-200,000	-0,018	0,253
-734,254	-29,982	-0,294	-0,121
-733,239	93,366	-0,244	0,200
-732,225	262,385	-0,230	-0,291
-731,210	44,273	0,169	0,113
-730,196	-29,030	-0,099	-0,041
-729,181	216,581	-0,011	0,013
-728,167	99,797	-0,090	-0,075
-727,152	-200,000	-0,001	0,134
-726,137	-127,681	-0,030	0,003
-725,123	-36,746	-0,151	-0,059
-724,108	220,203	0,070	-0,082
-723,094	280,745	-0,067	-0,088
-722,079	676,381	0,021	-0,039
-721,064	-75,049	-0,067	0,017
-720,050	-1,014	-0,054	0,028
-719,035	-200,000	0,004	0,101
-718,021	211,625	-0,045	0,052
-717,006	500,872	0,135	-0,226
-715,991	51,674	-0,119	0,082
-714,977	-59,767	0,011	-0,003
-713,962	616,807	-0,043	0,079
-712,948	341,067	-0,039	0,056
-711,933	-200,000	0,016	-0,139
-710,918	800,000	0,014	0,044
-709,904	337,800	-0,015	0,021
-708,889	238,230	-0,076	-0,091
-707,875	800,000	-0,059	-0,138
-706,860	689,218	-0,073	-0,139
-705,845	-63,203	-0,110	-0,033
-704,831	-92,553	0,046	-0,009
-703,816	-56,506	-0,052	0,017
-702,802	12,051	-0,123	-0,068
-701,787	-200,000	0,019	-0,070
-700,772	330,817	0,051	-0,071
-699,758	317,828	-0,043	0,059
-698,743	64,077	-0,068	0,050
-697,729	-2,210	0,151	0,077
-696,714	800,000	-0,013	0,040
-695,699	800,000	-0,038	-0,108
-694,685	-53,745	-0,098	0,032
-693,670	216,707	-0,126	-0,145
-692,656	-200,000	-0,019	-0,103
-691,641	-60,983	0,098	-0,030
-690,627	174,587	-0,053	-0,055
-689,612	-25,852	-0,080	-0,034
-688,597	-90,644	-0,009	-0,002
-687,583	-32,508	-0,046	0,018
-686,568	-9,597	0,045	-0,022
-685,554	800,000	-0,010	-0,028
-684,539	800,000	-0,028	-0,068
-683,524	-147,186	-0,037	-0,002
-682,510	-87,082	-0,114	-0,025
-681,495	302,760	0,071	-0,096
-680,481	434,532	-0,038	-0,061
-679,466	800,000	-0,036	-0,096
-678,451	32,580	0,097	-0,061
-677,437	218,172	0,077	-0,089
-676,422	-98,897	-0,099	-0,018
-675,408	717,917	0,019	0,036
-674,393	232,273	-0,043	-0,051
-673,378	-154,132	-0,156	-0,008
-672,364	-71,892	0,091	0,024
-671,349	-200,000	0,006	-0,039
-670,335	200,549	0,009	0,010
-669,320	-37,180	0,061	-0,024
-668,305	-120,447	-0,144	0,018
-667,291	-200,000	-0,005	-0,128
-666,276	204,374	-0,076	-0,086
-665,262	98,614	0,034	-0,029
-664,247	-73,837	-0,061	-0,016
-663,232	800,000	-0,011	0,025
-662,218	-105,043	0,183	0,030
-661,203	800,000	0,043	-0,088
-660,189	-90,067	0,111	-0,023
-659,174	-111,920	0,130	-0,019
-658,159	800,000	-0,064	-0,161
-657,145	-200,000	-0,033	-0,184
-656,130	47,075	0,031	0,021
-655,116	81,045	0,132	0,103
-654,101	308,299	-0,035	0,047
-653,086	-92,920	-0,042	-0,008
-652,072	84,556	0,107	-0,085
-651,057	324,636	-0,089	-0,123
-650,043	108,352	-0,105	-0,090
-649,028	-200,000	0,008	0,127
-648,014	79,674	-0,065	0,051
-646,999	-84,322	-0,181	0,041
-645,984	-200,000	-0,022	0,120
-644,970	-167,814	0,144	0,004
-643,955	216,633	-0,039	-0,045
-642,941	343,643	-0,021	-0,030
-641,926	116,721	-0,085	0,075
-640,911	758,630	-0,022	-0,043
-639,897	-62,084	-0,083	-0,025
-638,882	-200,000	-0,007	-0,050
-637,868	-200,000	0,012	0,143
-636,853	-115,019	-0,109	0,015
-635,838	-14,517	-0,149	-0,069
-634,824	142,498	-0,076	0,074
-633,809	-117,371	0,154	-0,020
-632,795	137,025	0,102	0,097
-631,780	76,100	-0,045	0,035
-630,765	107,604	-0,076	-0,066
-629,751	-25,978	-0,151	-0,064
-628,736	-200,000	0,003	-0,142
-627,722	800,000	-0,030	0,072
-626,707	-200,000	-0,020	-0,077
-625,692	-200,000	0,042	-0,148
-624,678	800,000	0,018	0,055
-623,663	-200,000	0,007	-0,041
-622,649	800,000	0,038	-0,078
-621,634	391,700	-0,054	-0,081
-620,619	28,700	0,079	-0,048
-619,605	155,751	-0,051	0,051
-618,590	-156,156	0,158	-0,007
-617,576	-157,037	0,152	-0,007
-616,561	-63,752	-0,046	-0,013
-615,546	424,742	-0,074	-0,115
-614,532	101,080	-0,127	-0,107
-613,517	-28,818	-0,083	-0,034
-612,503	290,544	-0,022	0,030
-611,488	-200,000	-0,014	-0,230
-610,474	-63,855	0,044	-0,013
-609,459	-31,365	-0,074	-0,030
-608,444	-200,000	-0,053	-0,171
-607,430	334,323	-0,027	-0,038
-606,415	580,010	0,019	-0,033
-605,401	528,726	0,035	0,060
-604,386	-151,289	-0,178	-0,009
-603,371	30,224	-0,095	-0,059
-602,357	-43,251	0,033	0,012
-601,342	-200,000	0,009	-0,172
-600,328	9,337	-0,133	-0,073
-599,313	712,797	-0,030	0,058
-598,298	253,057	-0,049	-0,060
-597,284	264,451	-0,049	0,061
-596,269	-200,000	-0,018	0,149
-595,255	192,214	-0,055	0,060
-594,240	80,178	-0,066	0,052
-593,225	668,756	-0,026	-0,049
-592,211	345,456	0,064	-0,091
-591,196	-103,192	-0,050	-0,008
-590,182	-31,829	0,134	-0,054
-589,167	309,906	-0,069	0,093
-588,152	-200,000	0,005	-0,058
-587,138	335,435	-0,030	-0,042
-586,123	43,140	-0,103	-0,068
-585,109	-200,000	-0,009	-0,089
-584,094	287,186	-0,079	-0,104
-583,079	800,000	0,018	0,048
-582,065	-200,000	-0,029	0,100
-581,050	682,554	-0,035	0,067
-580,036	-200,000	0,014	0,077
-579,021	-200,000	0,006	0,174
-578,006	783,753	0,010	-0,019
-576,992	73,896	-0,050	-0,038
-575,977	341,280	0,093	0,131
-574,963	-200,000	0,014	0,103
-573,948	293,188	-0,056	0,073
-572,934	49,709	0,058	0,039
-571,919	-38,648	-0,087	0,033
-570,904	121,748	-0,076	0,069
-569,890	158,583	-0,075	-0,075
-568,875	800,000	-0,027	0,068
-567,861	800,000	-0,021	0,045
-566,846	-83,588	-0,045	-0,010
-565,831	106,025	0,049	0,042
-564,817	-182,845	-0,135	-0,002
-563,802	133,208	-0,031	0,029
-562,788	410,710	0,043	-0,066
-561,773	378,493	-0,067	-0,099
-560,758	161,847	0,057	0,057
-559,744	-40,168	-0,081	-0,030
-558,729	383,885	0,045	0,067
-557,715	-200,000	0,004	-0,041
-556,700	99,030	-0,130	0,108
-555,685	-200,000	-0,020	-0,063
-554,671	-142,281	-0,087	-0,006
-553,656	-200,000	0,012	-0,063
-552,642	137,549	-0,072	-0,068
-551,627	414,220	-0,014	0,022
-550,612	-200,000	0,060	-0,199
-549,598	-64,259	-0,025	-0,007
-548,583	184,466	0,021	-0,023
-547,569	438,414	-0,015	0,024
-546,554	-131,079	0,102	-0,010
-545,539	-85,277	-0,099	0,022
-544,525	-54,227	0,078	-0,025
-543,510	627,395	-0,054	-0,099
-542,496	-200,000	-0,003	-0,021
-541,481	-102,204	0,071	0,012
-540,466	-98,103	-0,033	0,006
-539,452	-200,000	-0,003	-0,143
-538,437	241,557	0,103	0,124
-537,423	-200,000	-0,018	0,109
-536,408	274,462	-0,072	-0,092
-535,393	-40,899	0,085	0,031
-534,379	800,000	-0,006	0,019
-533,364	-200,000	0,012	0,046
-532,350	-200,000	0,047	0,199
-531,335	-200,000	0,015	0,081
-530,321	-200,000	0,002	0,084
-529,306	-200,000	0,005	0,138
-528,291	714,752	0,045	-0,086
-527,277	348,487	0,058	-0,083
-526,262	136,303	0,073	-0,069
-525,248	-32,702	-0,066	-0,026
-524,233	308,915	0,078	0,105
-523,218	-169,366	0,098	-0,003
-522,204	-110,256	0,137	0,020
-521,189	-200,000	0,006	-0,026
-520,175	-125,626	0,046	-0,005
-519,160	292,409	-0,056	-0,074
-518,145	52,672	0,046	0,031
-517,131	800,000	-0,028	-0,065
-516,116	-43,740	-0,053	0,019
-515,102	-9,159	0,010	-0,005
-514,087	-51,501	-0,092	-0,031
-513,072	-200,000	-0,003	-0,112
-512,058	97,800	0,035	0,029
-511,043	-112,275	-0,093	-0,013
-510,029	125,905	0,053	-0,048
-509,014	74,468	0,138	0,105
-507,999	308,361	-0,019	-0,026
-506,985	-58,855	-0,168	0,052
-505,970	-200,000	0,003	-0,136
-504,956	-200,000	-0,006	-0,049
-503,941	-47,577	0,056	-0,020
-502,926	-55,218	0,141	0,046
-501,912	-200,000	-0,032	-0,134
-500,897	-174,926	0,062	0,001
-499,883	-200,000	-0,011	-0,061
-498,868	181,769	0,056	-0,059
-497,853	679,557	0,059	-0,111
-496,839	5,361	0,019	-0,010
-495,824	472,685	0,055	-0,090
-494,810	-64,128	0,100	-0,029
-493,795	135,129	0,037	0,034
-492,781	194,548	-0,016	0,018
-491,766	-125,004	0,047	0,005
-490,751	-7,070	0,077	-0,038
-489,737	181,012	-0,044	0,046
-488,722	418,626	0,058	0,090
-487,708	-200,000	-0,021	0,077
-486,693	19,507	0,016	-0,009
-485,678	-6,930	-0,023	-0,011
-484,664	-169,246	-0,084	0,002
-483,649	-200,000	-0,004	-0,036
-482,635	334,444	0,049	-0,069
-481,620	-188,536	-0,126	0,001
-480,605	102,332	0,129	0,109
-479,591	83,791	-0,043	0,033
-478,576	800,000	0,045	0,139
-477,562	-200,000	-0,008	0,058
-476,547	800,000	-0,079	-0,170
-475,532	102,566	0,129	-0,109
-474,518	800,000	0,018	-0,047
-473,503	6,553	0,135	0,072
-472,489	236,259	-0,063	-0,075
-471,474	800,000	0,002	0,006
-470,459	-200,000	0,019	-0,163
-469,445	-200,000	-0,018	-0,063
-468,430	63,345	0,050	-0,036
-467,416	-174,217	-0,142	-0,003
-466,401	-64,859	0,157	0,045
-465,386	-129,802	0,084	0,008
-464,372	78,322	0,118	-0,090
-463,357	-200,000	0,001	-0,054
-462,343	800,000	-0,032	-0,071
-461,328	32,423	-0,088	0,054
-460,313	124,809	0,063	-0,057
-459,299	-1,972	0,109	-0,055
-458,284	17,831	-0,020	0,011
-457,270	-49,187	0,134	0,046
-456,255	-200,000	-0,064	0,229
-455,241	-48,940	-0,134	-0,046
-454,226	800,000	-0,012	0,030
-453,211	-63,889	-0,042	0,012
-452,197	-44,174	0,147	-0,053
-451,182	333,888	-0,099	0,138
-450,168	-200,000	-0,027	-0,088
-449,153	157,719	-0,132	-0,132
-448,138	-12,142	-0,093	0,043
-447,124	-113,910	-0,075	0,010
-446,109	-200,000	0,008	-0,058
-445,095	445,723	-0,028	0,044
-444,080	-200,000	-0,007	0,036
-443,065	88,143	-0,109	0,087
-442,051	154,249	-0,103	-0,102
-441,036	-200,000	-0,004	-0,026
-440,022	-53,358	0,059	0,019
-439,007	-131,353	-0,210	0,020
-437,992	76,683	0,081	0,062
-436,978	-200,000	-0,027	0,093
-435,963	575,548	-0,014	0,024
-434,949	-200,000	-0,006	0,042
-433,934	8,293	-0,082	-0,044
-432,919	-200,000	0,002	-0,045
-431,905	-131,431	0,053	0,005
-430,890	800,000	0,033	-0,101
-429,876	-126,600	0,174	-0,018
-428,861	-200,000	-0,028	0,115
-427,846	-200,000	0,004	0,073
-426,832	373,710	-0,060	-0,088
-425,817	800,000	-0,029	-0,063
-424,803	-61,005	0,091	0,027
-423,788	-27,646	-0,022	0,009
-422,773	74,776	0,144	0,109
-421,759	656,119	-0,053	0,098
-420,744	483,272	-0,015	0,024
-419,730	-200,000	-0,023	0,155
-418,715	24,230	0,019	-0,011
-417,701	-48,108	-0,095	-0,033
-416,686	-116,741	0,143	0,019
-415,671	-200,000	-0,031	0,118
-414,657	80,313	0,074	0,057
-413,642	-39,326	-0,076	0,029
-412,628	-200,000	-0,025	-0,125
-411,613	-200,000	0,054	-0,176
-410,598	181,592	0,034	-0,036
-409,584	-72,674	0,137	-0,036
-408,569	244,752	0,082	-0,099
-407,555	204,855	-0,086	0,096
-406,540	-200,000	-0,062	0,252
-405,525	-48,619	0,142	0,049
-404,511	-159,362	-0,080	0,003
-403,496	-200,000	0,001	-0,089
-402,482	-200,000	-0,057	-0,201
-401,467	-200,000	0,015	0,086
-400,452	638,032	-0,022	0,040
-399,438	70,856	0,045	-0,033
-398,423	84,323	0,114	0,090
-397,409	61,103	-0,200	-0,143
-396,394	42,910	-0,103	-0,067
-395,379	295,677	-0,084	-0,110
-394,365	-200,000	0,009	-0,074
-393,350	-200,000	-0,077	0,264
-392,336	-67,813	0,073	0,020
-391,321	-200,000	-0,001	-0,058
-390,306	148,495	-0,163	-0,158
-389,292	270,454	-0,054	0,068
-388,277	41,471	0,056	0,037
-387,263	-82,724	-0,075	0,017
-386,248	800,000	-0,061	0,127
-385,233	-34,956	0,079	0,031
-384,219	361,461	0,066	-0,095
-383,204	-62,173	-0,158	0,047
-382,190	-34,976	-0,128	0,050
-381,175	-114,055	-0,170	-0,023
-380,160	-35,990	0,072	-0,028
-379,146	-127,557	-0,021	0,002
-378,131	-121,002	-0,061	0,007
-377,117	-200,000	-0,018	0,105
-376,102	800,000	-0,032	-0,082
-375,088	513,072	-0,040	-0,067
-374,073	-200,000	-0,013	-0,064
-373,058	-200,000	-0,012	0,072
-372,044	331,961	0,163	0,225
-371,029	259,941	-0,064	-0,080
-370,015	410,131	0,092	-0,141
-369,000	307,847	-0,054	-0,073
-367,985	-28,814	-0,197	-0,081
-366,971	72,301	0,051	-0,038
-365,956	-16,482	-0,062	0,028
-364,942	185,172	0,093	0,099
-363,927	800,000	0,013	0,027
-362,912	-170,110	0,158	0,004
-361,898	800,000	0,022	0,068
-360,883	121,649	-0,117	-0,105
-359,869	406,178	-0,028	0,042
-358,854	273,515	0,040	0,051
-357,839	-200,000	-0,019	0,131
-356,825	95,986	0,085	0,069
-355,810	-49,802	-0,066	0,022
-354,796	-200,000	0,001	0,016
-353,781	-26,076	0,031	-0,013
-352,766	-31,181	0,073	0,029
-351,752	78,287	0,127	0,097
-350,737	48,391	0,133	-0,089
-349,723	-200,000	0,020	0,084
-348,708	-86,719	-0,052	0,011
-347,693	137,270	0,043	-0,040
-346,679	526,942	0,028	-0,047
-345,664	800,000	0,043	-0,096
-344,650	116,756	0,030	0,026
-343,635	112,903	0,041	0,036
-342,620	-49,174	0,140	0,048
-341,606	-200,000	-0,001	-0,075
-340,591	-57,319	0,068	-0,021
-339,577	-139,760	-0,102	-0,008
-338,562	-154,471	-0,084	-0,004
-337,548	-31,570	0,081	0,032
-336,533	800,000	0,043	-0,119
-335,518	110,734	0,077	0,066
-334,504	-200,000	-0,023	0,143
-333,489	-200,000	-0,009	0,097
-332,475	-200,000	0,003	-0,124
-331,460	-59,870	0,030	0,009
-330,445	389,078	0,021	-0,031
-329,431	62,998	0,043	0,031
-328,416	-200,000	-0,009	0,069
-327,402	65,404	0,155	0,112
-326,387	-120,237	0,032	0,004
-325,372	-200,000	0,014	-0,094
-324,358	90,302	0,089	0,071
-323,343	800,000	-0,041	-0,089
-322,329	344,703	-0,048	-0,068
-321,314	2,332	0,030	-0,016
-320,299	46,164	0,087	0,057
-319,285	-200,000	-0,042	0,312
-318,270	687,189	0,043	-0,081
-317,256	17,280	-0,136	-0,077
-316,241	25,272	0,132	-0,078
-315,226	-67,466	0,019	-0,005
-314,212	20,409	0,100	0,058
-313,197	25,409	0,149	0,088
-312,183	618,383	0,039	0,071
-311,168	-10,282	-0,038	-0,018
-310,153	-143,099	0,058	0,004
-309,139	122,341	0,018	-0,016
-308,124	82,017	0,078	0,061
-307,110	-26,889	-0,084	0,035
-306,095	-144,760	0,124	0,008
-305,080	98,801	0,051	-0,042
-304,066	-121,337	0,192	-0,023
-303,051	158,521	0,072	0,072
-302,037	276,826	-0,100	-0,128
-301,022	-200,000	0,013	-0,101
-300,008	97,349	0,083	0,068
-298,993	-111,197	0,118	0,017
-297,978	-126,136	-0,079	0,008
-296,964	-46,735	0,039	-0,013
-295,949	-125,415	-0,118	0,013
-294,935	-3,213	-0,204	-0,102
-293,920	106,048	-0,094	-0,079
-292,905	385,801	0,065	0,096
-291,891	428,694	-0,107	0,165
-290,876	800,000	-0,071	0,151
-289,862	41,927	-0,015	0,010
-288,847	-115,343	-0,103	-0,014
-287,832	-0,846	-0,018	0,009
-286,818	29,889	0,087	-0,053
-285,803	-200,000	-0,002	-0,024
-284,789	800,000	0,053	0,128
-283,774	800,000	-0,044	0,108
-282,759	800,000	-0,064	-0,193
-281,745	159,468	-0,011	-0,011
-280,730	195,499	-0,039	-0,043
-279,716	-95,912	0,140	0,026
-278,701	-5,085	-0,015	0,007
-277,686	477,545	-0,054	0,088
-276,672	34,810	0,108	0,068
-275,657	274,444	0,040	0,051
-274,643	-7,070	0,026	-0,012
-273,628	-82,270	0,101	0,023
-272,613	75,696	-0,104	-0,078
-271,599	800,000	0,028	-0,067
-270,584	-89,648	0,042	0,009
-269,570	-5,176	-0,043	0,021
-268,555	-5,604	0,060	0,029
-267,540	457,360	-0,023	-0,037
-266,526	182,694	0,058	-0,061
-265,511	-200,000	0,025	0,107
-264,497	-80,786	0,019	0,004
-263,482	39,874	0,099	-0,063
-262,467	-37,836	0,097	0,037
-261,453	-200,000	-0,026	0,097
-260,438	335,009	-0,038	0,052
-259,424	-177,801	0,088	-0,001
-258,409	245,776	-0,046	-0,055
-257,395	-200,000	-0,022	0,188
-256,380	117,106	0,056	-0,049
-255,365	15,567	-0,096	0,054
-254,351	5,306	0,086	-0,045
-253,336	153,745	-0,077	-0,076
-252,322	-157,309	0,161	0,007
-251,307	124,434	-0,085	-0,076
-250,292	-200,000	-0,019	-0,115
-249,278	-188,482	0,021	-0,000
-248,263	-127,399	0,075	0,008
-247,249	-84,138	0,054	-0,012
-246,234	206,789	0,074	-0,082
-245,219	431,948	-0,020	-0,031
-244,205	-126,668	0,183	0,019
-243,190	-62,789	-0,098	0,029
-242,176	346,532	0,067	-0,094
-241,161	60,156	-0,086	0,061
-240,146	497,181	-0,042	-0,069
-239,132	348,763	-0,027	0,038
-238,117	-30,353	-0,069	-0,028
-237,103	343,200	0,086	0,120
-236,088	-106,302	0,105	-0,017
-235,073	800,000	-0,023	0,060
-234,059	124,751	0,061	-0,055
-233,044	325,833	0,077	0,105
-232,030	155,571	-0,110	0,108
-231,015	25,384	-0,150	-0,089
-230,000	-200,000	-0,001	-0,033
-228,986	-200,000	-0,009	-0,033
-227,971	-200,000	0,006	0,068
-226,957	137,960	0,048	0,045
-225,942	800,000	-0,009	0,026
-224,927	-143,016	-0,012	0,001
-223,913	25,587	-0,080	0,047
-222,898	17,702	-0,063	-0,035
-221,884	-24,838	-0,102	0,043
-220,869	-55,003	-0,054	0,017
-219,855	-200,000	-0,005	0,053
-218,840	325,021	-0,030	0,042
-217,825	156,289	-0,093	0,091
-216,811	33,219	0,026	0,016
-215,796	179,915	-0,047	-0,049
-214,782	-200,000	0,016	-0,128
-213,767	745,969	0,017	0,033
-212,752	-26,121	0,035	-0,015
-211,738	-103,823	-0,024	0,004
-210,723	324,599	0,013	0,017
-209,709	-127,925	-0,094	-0,009
-208,694	-200,000	0,009	-0,051
-207,679	214,681	-0,028	-0,032
-206,665	327,574	0,026	0,035
-205,650	-19,325	-0,022	0,010
-204,636	-200,000	-0,004	0,041
-203,621	-90,567	0,151	-0,031
-202,606	14,092	-0,005	-0,003
-201,592	-200,000	0,018	-0,099
-200,577	-11,989	-0,069	-0,032
-199,563	800,000	0,032	-0,064
-198,548	145,623	-0,094	0,090
-197,533	-67,871	0,031	0,008
-196,519	800,000	0,032	0,078
-195,504	-200,000	0,001	-0,068
-194,490	800,000	-0,058	-0,148
-193,475	210,119	0,080	-0,090
-192,460	-200,000	-0,015	-0,106
-191,446	194,414	0,091	-0,099
-190,431	167,119	0,057	-0,057
-189,417	3,051	-0,061	-0,031
-188,402	-142,098	0,051	-0,004
-187,387	0,230	0,066	0,034
-186,373	285,613	-0,089	0,115
-185,358	98,360	-0,035	0,029
-184,344	609,960	-0,013	0,023
-183,329	800,000	0,093	0,206
-182,315	126,814	0,097	-0,087
-181,300	-97,994	-0,071	0,013
-180,285	-200,000	-0,007	-0,061
-179,271	84,946	-0,075	-0,058
-178,256	-200,000	-0,019	0,065
-177,242	30,397	0,194	0,118
-176,227	-1,208	0,109	0,054
-175,212	-182,134	-0,059	0,001
-174,198	-200,000	-0,013	-0,081
-173,183	507,668	-0,012	0,020
-172,169	-89,382	0,028	0,006
-171,154	-200,000	-0,010	0,033
-170,139	7,076	0,078	-0,041
-169,125	800,000	0,012	0,026
-168,110	-101,482	-0,083	0,014
-167,096	83,268	-0,122	-0,094
-166,081	-200,000	-0,007	-0,027
-165,066	-200,000	0,011	-0,049
-164,052	64,253	0,060	0,043
-163,037	43,929	-0,072	0,047
-162,023	76,631	0,058	0,043
-161,008	-159,253	-0,097	0,004
-159,993	-75,268	0,070	-0,018
-158,979	-127,724	0,129	0,013
-157,964	131,732	-0,092	0,084
-156,950	-94,785	0,131	0,025
-155,935	-52,602	-0,186	0,061
-154,920	-170,117	0,122	-0,003
-153,906	-200,000	0,016	-0,084
-152,891	800,000	-0,018	-0,045
-151,877	558,334	0,013	-0,023
-150,862	-200,000	0,027	0,135
-149,847	-200,000	-0,004	-0,090
-148,833	-200,000	-0,007	-0,108
-147,818	1,391	0,141	0,072
-146,804	-69,982	0,130	0,035
-145,789	-200,000	-0,033	0,157
-144,775	748,638	0,047	0,090
-143,760	-200,000	-0,005	-0,105
-142,745	53,872	0,065	-0,044
-141,731	-74,156	0,188	0,048
-140,716	233,181	0,041	0,048
-139,702	514,977	0,017	0,027
-138,687	252,455	0,095	0,115
-137,672	-51,787	0,055	-0,018
-136,658	360,105	-0,103	-0,148
-135,643	-85,815	-0,114	0,025
-134,629	800,000	-0,056	0,133
-133,614	-16,086	0,041	0,018
-132,599	-79,261	0,151	-0,036
-131,585	86,903	0,044	-0,034
-130,570	168,737	-0,039	-0,040
-129,556	501,380	-0,010	-0,017
-128,541	106,986	-0,058	-0,049
-127,526	-200,000	-0,008	-0,030
-126,512	-200,000	0,003	0,051
-125,497	-200,000	0,015	-0,053
-124,483	-23,280	0,021	0,009
-123,468	-200,000	0,024	0,135
-122,453	-200,000	0,005	0,065
-121,439	160,603	-0,019	-0,019
-120,424	-49,053	-0,099	0,033
-119,410	347,728	0,074	0,104
-118,395	446,763	0,062	0,097
-117,380	-200,000	-0,007	-0,180
-116,366	51,309	0,029	-0,020
-115,351	-200,000	0,021	0,099
-114,337	800,000	-0,081	-0,190
-113,322	-83,497	0,188	0,042
-112,307	450,563	0,109	0,171
-111,293	-54,274	0,115	-0,037
-110,278	22,852	0,160	-0,093
-109,264	-104,159	-0,097	0,016
-108,249	56,613	0,014	0,010
-107,234	-18,952	-0,078	-0,034
-106,220	800,000	0,034	-0,092
-105,205	149,135	0,050	0,048
-104,191	-200,000	0,014	0,175
-103,176	24,495	0,048	0,028
-102,162	33,297	0,021	0,013
-101,147	-68,484	-0,219	0,060
-100,132	101,725	-0,062	-0,051
-99,118	92,624	-0,060	-0,048
-98,103	-21,250	0,055	-0,024
-97,089	53,499	-0,030	-0,021
-96,074	800,000	0,038	-0,076
-95,059	-103,918	0,051	-0,008
-94,045	-7,318	0,133	0,064
-93,030	385,471	-0,105	-0,154
-92,016	24,255	-0,005	0,003
-91,001	-77,476	-0,027	0,007
-89,986	-200,000	0,002	-0,136
-88,972	-200,000	-0,020	0,147
-87,957	257,343	-0,060	0,073
-86,943	-129,935	0,111	0,011
-85,928	25,474	-0,048	-0,028
-84,913	-200,000	0,001	-0,048
-83,899	800,000	0,057	-0,162
-82,884	-102,987	-0,125	-0,021
-81,870	439,829	-0,059	0,092
-80,855	-139,215	-0,059	0,004
-79,840	-41,404	-0,015	-0,005
-78,826	-52,887	0,132	-0,043
-77,811	235,355	0,056	-0,066
-76,797	484,425	-0,047	-0,076
-75,782	14,795	0,089	0,049
-74,767	137,549	0,038	-0,035
-73,753	552,931	-0,036	-0,062
-72,738	107,923	-0,010	0,009
-71,724	21,434	0,098	0,056
-70,709	-200,000	0,003	0,033
-69,694	-108,311	0,220	0,033
-68,680	800,000	0,016	0,043
-67,665	800,000	-0,039	0,116
-66,651	32,072	-0,121	0,074
-65,636	461,905	0,066	0,105
-64,622	800,000	0,053	0,135
-63,607	17,567	0,127	0,071
-62,592	449,892	-0,039	0,061
-61,578	-200,000	-0,008	-0,030
-60,563	-0,580	-0,102	0,051
-59,549	800,000	0,008	-0,022
-58,534	-31,813	-1,801	-0,712
-57,519	436,631	-1,275	-1,973
-56,505	-200,000	-0,426	-4,512
-55,490	174,661	1,037	1,063
-54,476	800,000	4,983	11,474
-53,461	-200,000	19,333	321,277
-52,446	-200,000	741,367	2335,391
-51,432	572,813	1656,287	2869,094
-50,417	78,196	1671,377	1261,514
-49,403	21,294	1544,102	885,588
-48,388	15,156	1466,462	811,211
-47,373	18,028	1456,821	819,726
-46,359	16,690	1446,753	807,612
-45,344	13,355	1442,069	788,990
-44,330	13,292	1440,207	787,638
-43,315	13,311	1438,428	786,723
-42,300	13,311	1436,791	785,795
-41,286	13,334	1435,619	785,235
-40,271	13,252	1434,308	784,093
-39,257	13,257	1432,929	783,335
-38,242	13,341	1431,649	783,005
-37,227	13,324	1430,678	782,359
-36,213	13,338	1429,061	781,513
-35,198	13,346	1427,937	780,902
-34,184	13,378	1427,050	780,538
-33,169	13,343	1425,587	779,544
-32,154	13,348	1424,623	779,009
-31,140	13,393	1423,166	778,392
-30,125	13,419	1422,150	777,928
-29,111	13,365	1420,968	776,997
-28,096	13,340	1420,056	776,347
-27,082	13,292	1418,960	775,491
-26,067	13,295	1417,872	774,883
-25,052	13,288	1416,703	774,181
-24,038	13,259	1415,839	773,541
-23,023	13,263	1414,687	772,900
-22,009	13,240	1413,858	772,305
-20,994	13,214	1412,872	771,615
-19,979	13,262	1411,779	771,215
-18,965	13,197	1411,085	770,497
-17,950	13,256	1409,943	770,123
-16,936	13,285	1409,018	769,723
-15,921	13,163	1408,079	768,605
-14,906	13,169	1407,099	768,069
-13,892	13,184	1406,174	767,603
-12,877	13,199	1405,302	767,168
-11,863	13,200	1404,418	766,659
-10,848	13,184	1403,527	766,067
-9,833	13,151	1402,558	765,356
-8,819	13,135	1401,862	764,872
-7,804	13,105	1400,948	764,200
-6,790	13,074	1399,816	763,410
-5,775	13,043	1398,968	762,772
-4,760	13,107	1397,825	762,417
-3,746	13,069	1397,044	761,781
-2,731	13,060	1396,126	761,212
-1,717	13,031	1395,300	760,594
-0,702	13,091	1393,208	759,703
0,313	17,050	1310,180	732,734
1,327	33,481	703,537	431,415
2,342	51,935	123,259	82,894
3,356	3,026	16,623	8,517
4,371	0,933	3,395	1,715
5,386	107,284	0,600	0,504
6,400	-200,000	0,019	0,244
7,415	48,749	-0,267	-0,177
8,429	136,074	-0,276	-0,254
9,444	310,635	-0,337	-0,448
10,459	357,214	-0,179	-0,254
11,473	102,238	-0,218	-0,180
12,488	279,806	-0,206	-0,261
13,502	-30,578	-0,300	-0,120
14,517	173,215	-0,199	-0,203
15,531	103,382	-0,393	-0,326
16,546	-26,980	-0,502	-0,206
17,561	121,006	-0,396	-0,348
18,575	-39,517	-0,249	-0,092
19,590	276,975	-0,192	-0,241
20,604	-150,526	-0,249	-0,013
21,619	162,452	-0,384	-0,381
22,634	65,024	-0,520	-0,370
23,648	16,572	-0,487	-0,271
24,663	46,018	-0,406	-0,265
25,677	44,496	-0,277	-0,179
26,692	54,846	-0,287	-0,195
27,707	175,448	-0,363	-0,372
28,721	-8,600	-0,437	-0,206
29,736	154,789	-0,376	-0,365
30,750	115,850	-0,393	-0,340
31,765	86,997	-0,382	-0,298
32,780	44,835	-0,417	-0,271
33,794	357,589	-0,237	-0,335
34,809	179,877	-0,379	-0,392
35,823	-31,721	-0,313	-0,123
36,838	15,962	-0,307	-0,170
37,853	105,723	-0,445	-0,371
38,867	39,748	-0,477	-0,301
39,882	169,882	-0,223	-0,225
40,896	27,063	-0,226	-0,133
41,911	7,800	-0,311	-0,164
42,926	95,441	-0,305	-0,245
43,940	43,943	-0,344	-0,222
44,955	73,346	-0,407	-0,300
45,969	-161,763	-0,359	-0,013
46,984	-18,364	-0,416	-0,182
47,999	139,545	-0,352	-0,327
49,013	21,028	-0,411	-0,234
50,028	-51,088	-0,399	-0,131
51,042	99,475	-0,311	-0,253
52,057	70,204	-0,277	-0,202
53,071	118,659	-0,321	-0,279
54,086	46,007	-0,260	-0,169
55,101	-92,384	-0,451	-0,089
56,115	-11,409	-0,480	-0,221
57,130	107,159	-0,275	-0,230
58,144	26,251	-0,380	-0,223
59,159	8,178	-0,455	-0,240
60,174	256,826	-0,290	-0,351
61,188	4,518	-0,376	-0,194
62,203	-31,740	-0,284	-0,112
63,217	-60,341	-0,303	-0,090
64,232	-74,297	-0,276	-0,070
65,247	18,089	-0,404	-0,226
66,261	-14,125	-0,411	-0,186
67,276	93,816	-0,377	-0,301
68,290	96,133	-0,255	-0,205
69,305	296,942	-0,179	-0,231
70,320	1,691	-0,330	-0,167
71,334	52,685	-0,295	-0,198
72,349	22,984	-0,391	-0,225
73,363	150,804	-0,266	-0,254
74,378	73,763	-0,310	-0,228
75,393	15,881	-0,361	-0,199
76,407	39,401	-0,278	-0,175
77,422	69,753	-0,238	-0,172
78,436	127,509	-0,252	-0,225
79,451	80,400	-0,312	-0,236
80,466	100,700	-0,248	-0,202
81,480	184,782	-0,291	-0,304
82,495	237,027	-0,235	-0,274
83,509	76,471	-0,319	-0,237
84,524	-60,059	-0,212	-0,063
85,539	8,593	-0,238	-0,125
86,553	-64,038	-0,298	0,085
87,568	82,129	-0,382	-0,290
88,582	-151,078	-0,162	-0,008
89,597	88,641	-0,336	-0,262
90,611	186,255	-0,194	-0,203
91,626	-95,349	-0,303	0,057
92,641	191,854	-0,150	-0,159
93,655	227,157	-0,234	-0,267
94,670	121,853	-0,225	-0,197
95,684	87,855	-0,297	-0,231
96,699	183,122	-0,288	-0,298
97,714	78,209	-0,287	-0,215
98,728	-106,065	-0,250	-0,039
99,743	-37,241	-0,300	-0,112
100,757	103,797	-0,197	-0,162
101,772	-9,981	-0,296	-0,138
102,787	-93,394	-0,386	-0,074
103,801	52,049	-0,199	-0,133
104,816	80,121	-0,294	-0,221
105,830	-131,221	-0,244	-0,022
106,845	-11,584	-0,354	-0,163
107,860	488,006	-0,170	-0,274
108,874	51,144	-0,286	-0,190
109,889	58,359	-0,305	-0,209
110,903	-21,336	-0,243	-0,103
111,918	122,908	-0,232	-0,204
112,933	166,893	-0,209	-0,208
113,947	-22,564	-0,198	-0,083
114,962	-89,326	-0,238	-0,049
115,976	8,725	-0,297	-0,156
116,991	3,461	-0,317	-0,161
118,006	79,673	-0,313	-0,235
119,020	-95,678	-0,295	-0,055
120,035	46,661	-0,293	-0,190
121,049	35,421	-0,203	-0,125
122,064	-8,780	-0,182	-0,085
123,079	8,748	-0,331	-0,174
124,093	59,378	-0,337	-0,232
125,108	61,954	-0,259	-0,181
126,122	-44,578	-0,310	-0,108
127,137	88,156	-0,282	-0,219
128,151	31,515	-0,190	-0,114
129,166	81,065	-0,120	-0,091
130,181	61,684	-0,244	-0,170
131,195	-26,498	-0,366	-0,149
132,210	21,652	-0,238	-0,135
133,224	91,717	-0,253	-0,199
134,239	20,454	-0,247	-0,139
135,254	-53,046	-0,322	-0,103
136,268	296,885	-0,189	-0,243
137,283	258,741	-0,233	-0,282
138,297	28,843	-0,372	-0,220
139,312	-58,176	-0,360	-0,109
140,327	787,600	-0,132	-0,254
141,341	70,309	-0,161	-0,116
142,356	174,265	-0,309	-0,312
143,370	114,411	-0,238	-0,202
144,385	375,214	-0,204	-0,292
145,400	-52,451	-0,330	-0,106
146,414	-11,739	-0,260	-0,119
147,429	653,062	-0,160	-0,288
148,443	130,352	-0,251	-0,225
149,458	-48,884	-0,209	-0,070
150,473	-8,789	-0,287	-0,134
151,487	57,235	-0,291	-0,198
152,502	-39,726	-0,321	-0,117
153,516	84,040	-0,246	-0,187
154,531	109,530	-0,348	-0,291
155,546	58,001	-0,194	-0,132
156,560	162,759	-0,131	-0,128
157,575	-85,157	-0,341	-0,074
158,589	2,415	-0,290	-0,146
159,604	-108,058	-0,232	-0,035
160,619	86,883	-0,263	-0,202
161,633	215,336	-0,255	-0,283
162,648	93,181	-0,243	-0,192
163,662	-40,627	-0,213	-0,077
164,677	241,458	-0,160	-0,186
165,692	258,322	-0,138	-0,166
166,706	165,557	-0,225	-0,222
167,721	23,405	-0,393	-0,225
168,735	23,069	-0,260	-0,148
169,750	49,171	-0,265	-0,173
170,764	218,658	-0,151	-0,168
171,779	-25,223	-0,240	-0,099
172,794	541,247	-0,079	-0,131
173,808	9,841	-0,249	-0,131
174,823	49,293	-0,257	-0,168
175,837	45,535	-0,245	-0,157
176,852	67,207	-0,207	-0,147
177,867	-108,784	-0,168	-0,025
178,881	114,585	-0,182	-0,155
179,896	23,807	-0,181	-0,104
180,910	19,395	-0,232	-0,129
181,925	138,272	-0,225	-0,206
182,940	-18,406	-0,356	-0,154
183,954	84,118	-0,202	-0,154
184,969	258,142	-0,147	-0,177
185,983	172,377	-0,256	-0,257
186,998	-12,732	-0,220	-0,099
188,013	172,525	-0,137	-0,137
189,027	41,751	-0,306	-0,192
190,042	800,000	-0,078	-0,215
191,056	-200,000	-0,112	-0,344
192,071	151,905	-0,184	-0,175
193,086	-39,181	-0,176	-0,064
194,100	-66,707	-0,229	-0,063
195,115	175,688	-0,163	-0,165
196,129	32,955	-0,164	-0,099
197,144	-10,313	-0,187	-0,086
198,159	96,541	-0,223	-0,178
199,173	800,000	-0,093	-0,189
200,188	195,261	-0,167	-0,176
201,202	61,904	-0,196	-0,135
202,217	135,746	-0,242	-0,219
203,232	-21,805	-0,230	-0,097
204,246	-149,146	-0,055	0,003
205,261	64,461	-0,239	-0,167
206,275	-91,370	-0,245	-0,048
207,290	45,081	-0,210	-0,134
208,304	-2,592	-0,166	-0,081
209,319	248,325	-0,112	-0,132
210,334	463,277	-0,120	-0,187
211,348	710,615	-0,114	-0,211
212,363	344,552	-0,210	-0,287
213,377	800,000	-0,078	-0,151
214,392	-179,275	-0,195	0,003
215,407	-33,127	-0,174	-0,066
216,421	-39,856	-0,084	0,030
217,436	-17,088	-0,335	-0,146
218,450	53,164	-0,251	-0,166
219,465	-30,498	-0,254	-0,099
220,480	800,000	-0,113	-0,262
221,494	-39,428	-0,180	-0,065
222,509	-1,829	-0,070	0,034
223,523	800,000	-0,101	-0,229
224,538	241,162	-0,127	-0,147
225,553	-114,189	-0,318	-0,042
226,567	102,033	-0,074	-0,060
227,582	-13,800	-0,276	-0,124
228,596	2,806	-0,139	-0,070
229,611	399,559	-0,106	-0,154
230,626	3,353	-0,273	-0,137
231,640	204,838	-0,144	-0,155
232,655	-56,453	-0,179	0,055
233,669	-38,302	-0,257	-0,094
234,684	19,774	-0,161	-0,090
235,699	-7,019	-0,139	-0,065
236,713	231,790	-0,224	-0,255
237,728	800,000	-0,080	-0,173
238,742	-200,000	-0,043	-0,155
239,757	85,786	-0,258	-0,196
240,772	-114,232	-0,152	-0,020
241,786	8,715	-0,229	-0,119
242,801	249,382	-0,217	-0,255
243,815	297,412	-0,074	0,095
244,830	58,492	-0,059	-0,040
245,844	319,760	-0,182	-0,240
246,859	800,000	-0,083	-0,242
247,874	-78,282	-0,281	-0,066
248,888	251,218	-0,142	-0,168
249,903	800,000	-0,084	-0,184
250,917	51,489	-0,171	-0,112
251,932	800,000	-0,086	-0,217
252,947	85,538	-0,120	-0,091
253,961	508,427	-0,194	-0,312
254,976	-83,696	-0,263	-0,058
255,990	73,226	-0,107	-0,077
257,005	-171,110	-0,292	-0,007
258,020	29,688	-0,145	-0,085
259,034	-137,958	-0,173	0,013
260,049	-11,905	-0,048	-0,022
261,063	80,531	-0,316	-0,235
262,078	229,537	-0,198	-0,224
263,093	-115,718	-0,229	-0,029
264,107	-82,325	-0,176	-0,039
265,122	93,223	-0,082	-0,064
266,136	800,000	0,037	-0,105
267,151	227,066	-0,180	-0,203
268,166	24,995	-0,270	-0,155
269,180	355,119	-0,120	-0,166
270,195	175,482	-0,234	-0,235
271,209	61,845	-0,241	-0,166
272,224	168,648	-0,077	-0,076
273,239	106,880	-0,161	-0,132
274,253	267,509	-0,088	-0,107
275,268	129,512	-0,177	-0,156
276,282	94,074	-0,240	-0,188
277,297	60,737	-0,226	-0,154
278,312	-7,987	-0,203	-0,094
279,326	-51,565	-0,178	-0,057
280,341	45,439	-0,134	-0,085
281,355	-124,646	-0,169	-0,018
282,370	236,084	-0,110	-0,126
283,384	200,830	-0,172	-0,183
284,399	-200,000	-0,060	-0,234
285,414	18,248	-0,281	-0,154
286,428	63,010	-0,238	-0,164
287,443	627,365	-0,040	-0,070
288,457	-200,000	-0,051	-0,165
289,472	360,030	-0,082	-0,113
290,487	132,864	-0,220	-0,196
291,501	-22,491	-0,228	-0,095
292,516	482,945	-0,111	-0,175
293,530	63,811	-0,078	-0,054
294,545	138,310	-0,139	-0,126
295,560	800,000	-0,012	-0,034
296,574	800,000	-0,048	-0,097
297,589	800,000	-0,065	-0,147
298,603	717,933	-0,099	-0,181
299,618	-16,732	-0,185	-0,080
300,633	-156,118	-0,232	-0,010
301,647	800,000	-0,046	-0,102
302,662	-200,000	-0,030	-0,157
303,676	-114,236	-0,029	0,004
304,691	-43,879	-0,170	-0,059
305,706	554,722	-0,066	-0,109
306,720	118,280	-0,153	-0,130
307,735	34,604	-0,167	-0,100
308,749	-35,416	-0,044	-0,016
309,764	636,452	-0,023	0,040
310,779	-46,209	-0,099	0,034
311,793	71,802	-0,208	-0,149
312,808	-186,493	-0,222	-0,002
313,822	38,713	-0,051	0,031
314,837	-200,000	0,005	-0,182
315,852	-200,000	-0,006	-0,035
316,866	0,964	-0,042	0,020
317,881	37,055	-0,094	-0,057
318,895	184,952	-0,171	-0,175
319,910	257,276	-0,170	-0,201
320,925	618,089	-0,133	-0,231
321,939	650,175	-0,099	-0,175
322,954	32,532	-0,149	-0,088
323,968	619,742	-0,097	-0,169
324,983	26,773	-0,170	-0,098
325,997	-200,000	-0,038	-0,151
327,012	-87,558	-0,201	-0,041
328,027	800,000	-0,076	-0,159
329,041	265,384	-0,163	-0,196
330,056	21,512	-0,046	-0,026
331,070	18,711	-0,044	0,024
332,085	800,000	0,008	0,023
333,100	80,527	-0,132	-0,098
334,114	487,510	-0,072	-0,113
335,129	-70,091	-0,174	-0,045
336,143	-69,066	-0,078	-0,020
337,158	573,019	-0,077	-0,130
338,173	-173,872	-0,039	0,001
339,187	-70,715	0,010	-0,003
340,202	412,395	-0,039	-0,057
341,216	245,778	-0,198	-0,230
342,231	4,381	-0,145	-0,073
343,246	128,185	-0,081	-0,070
344,260	-97,688	-0,159	-0,028
345,275	-137,884	-0,262	0,020
346,289	-141,134	-0,107	0,007
347,304	-128,514	-0,194	-0,019
348,319	-48,136	-0,122	-0,040
349,333	-10,265	-0,138	-0,063
350,348	141,831	-0,162	-0,148
351,362	117,066	-0,102	-0,086
352,377	-39,054	-0,198	-0,071
353,392	7,213	-0,120	-0,061
354,406	225,412	-0,078	-0,086
355,421	210,867	1312,492	1416,756
356,435	162,350	1472,944	1417,253
