DTS Sentinel unit serial number:	SN410029Multiplexer serial number:	ORYXHardware model number:	OX2-SRSoftware version number:	ORYX F/W v4,00 Oryx Data Collector v3.7.2.0data status	okinstallation	B3 Nyhavnadifferential loss correction	single-endedforward channel	channel 1reverse channel	N/Adate	2023/12/04time	05:52:30forward acquisition time	300,00reverse acquisition time	0,00gamma	499,1914k internal	0,3206k external	0,3206temperature offset calibration	1,0000default loss term (dB/km)	0,3820temperature slope calibration	1,0000multiplexer offset coefficient	1,0000multiplexer slope coefficient	1,0000fibre end	0,00T internal ref (°C)	12,02T ext. ref 1 (°C)	-2,93T ext. ref 2 (°C)	-2,95length (m)	temperature (°C)	Stokes	anti-Stokes-744,400	70,587	-0,199	-0,150
-743,385	800,000	-0,089	0,271
-742,371	77,813	-0,237	-0,183
-741,356	-200,000	0,051	0,334
-740,342	63,379	-0,283	-0,206
-739,327	800,000	0,142	0,350
-738,312	230,356	-0,256	-0,304
-737,298	800,000	-0,102	0,251
-736,283	95,421	-0,128	-0,106
-735,269	-200,000	-0,096	0,321
-734,254	72,368	-0,109	-0,083
-733,239	145,155	-0,164	0,160
-732,225	800,000	-0,046	-0,128
-731,210	-200,000	-0,020	0,143
-730,196	125,442	-0,100	-0,091
-729,181	800,000	0,026	0,073
-728,167	-200,000	-0,028	0,101
-727,152	97,719	0,072	-0,060
-726,137	-107,342	-0,123	-0,019
-725,123	143,063	-0,119	-0,115
-724,108	-83,117	-0,142	-0,033
-723,094	-30,364	-0,097	-0,040
-722,079	-200,000	-0,008	-0,139
-721,064	-8,801	-0,164	-0,080
-720,050	-200,000	0,001	-0,034
-719,035	-200,000	0,006	-0,098
-718,021	6,791	-0,078	-0,042
-717,006	107,589	-0,095	0,082
-715,991	53,069	-0,135	-0,093
-714,977	-200,000	0,018	-0,151
-713,962	-98,036	-0,186	0,034
-712,948	450,072	-0,064	-0,102
-711,933	48,814	-0,079	-0,054
-710,918	-65,048	0,216	-0,063
-709,904	497,125	-0,067	-0,112
-708,889	-200,000	0,000	-0,057
-707,875	17,897	0,100	-0,058
-706,860	500,039	-0,085	-0,142
-705,845	39,304	0,132	-0,086
-704,831	83,933	0,047	0,037
-703,816	314,855	0,021	-0,029
-702,802	-184,271	-0,292	-0,003
-701,787	-200,000	-0,003	-0,127
-700,772	800,000	0,043	-0,089
-699,758	-73,019	-0,097	0,026
-698,743	9,779	0,154	0,084
-697,729	724,416	0,051	0,099
-696,714	-82,751	-0,039	-0,009
-695,699	45,324	0,117	0,078
-694,685	800,000	-0,057	-0,153
-693,670	-18,990	-0,095	-0,042
-692,656	82,630	0,176	0,138
-691,641	-84,792	0,053	-0,012
-690,627	268,273	-0,110	0,140
-689,612	-79,520	-0,038	0,009
-688,597	68,314	0,035	-0,026
-687,583	118,849	-0,056	0,051
-686,568	800,000	-0,029	-0,074
-685,554	-119,135	-0,072	0,009
-684,539	147,521	-0,073	0,071
-683,524	-5,463	-0,029	-0,015
-682,510	235,524	-0,035	0,042
-681,495	313,516	-0,065	-0,089
-680,481	623,413	-0,049	0,089
-679,466	-64,395	-0,113	0,033
-678,451	-91,268	-0,113	-0,023
-677,437	463,706	0,068	-0,111
-676,422	800,000	0,054	-0,127
-675,408	-30,920	-0,123	0,050
-674,393	341,752	-0,061	0,087
-673,378	119,718	-0,016	0,015
-672,364	-200,000	0,020	0,118
-671,349	269,719	-0,066	0,084
-670,335	800,000	-0,034	0,100
-669,320	-200,000	0,030	-0,153
-668,305	-200,000	-0,002	-0,058
-667,291	242,804	0,029	0,035
-666,276	-200,000	-0,000	0,076
-665,262	-200,000	0,004	-0,127
-664,247	-200,000	-0,025	-0,128
-663,232	-125,929	0,084	0,009
-662,218	-80,226	0,103	0,025
-661,203	-54,342	-0,122	-0,040
-660,189	374,925	0,013	0,019
-659,174	-53,173	0,045	0,015
-658,159	-200,000	0,002	-0,078
-657,145	800,000	-0,083	-0,182
-656,130	-141,105	0,008	-0,001
-655,116	-200,000	-0,009	-0,062
-654,101	53,517	-0,080	-0,055
-653,086	77,620	-0,053	0,041
-652,072	-28,281	-0,051	-0,021
-651,057	135,621	-0,098	-0,092
-650,043	362,998	-0,018	0,026
-649,028	800,000	-0,022	0,051
-648,014	-56,892	0,055	-0,018
-646,999	800,000	0,012	0,024
-645,984	-40,948	0,032	-0,012
-644,970	-121,282	0,062	0,007
-643,955	285,951	0,096	-0,126
-642,941	-200,000	-0,003	-0,161
-641,926	-200,000	0,017	-0,088
-640,911	282,886	0,113	-0,147
-639,897	-200,000	-0,000	-0,001
-638,882	130,190	0,115	0,107
-637,868	185,009	-0,069	-0,074
-636,853	178,313	-0,115	-0,121
-635,838	-55,958	-0,082	0,026
-634,824	473,449	0,028	0,045
-633,809	118,880	-0,032	-0,029
-632,795	-200,000	0,003	-0,078
-631,780	153,165	-0,074	0,073
-630,765	-200,000	-0,000	0,086
-629,751	-200,000	0,023	0,103
-628,736	579,137	0,058	-0,103
-627,722	-15,306	-0,089	0,041
-626,707	36,919	0,087	0,055
-625,692	-11,683	0,205	-0,097
-624,678	43,083	0,044	0,029
-623,663	12,050	-0,132	0,073
-622,649	-101,760	-0,120	0,021
-621,634	33,882	-0,128	0,080
-620,619	398,558	0,064	-0,096
-619,605	-86,377	0,161	-0,035
-618,590	800,000	0,062	0,131
-617,576	-76,360	0,079	0,020
-616,561	531,536	0,024	-0,042
-615,546	174,067	-0,065	-0,068
-614,532	500,405	-0,051	-0,085
-613,517	-200,000	0,002	-0,013
-612,503	-66,394	-0,053	-0,015
-611,488	-50,860	0,048	0,016
-610,474	280,712	-0,018	0,024
-609,459	-200,000	0,004	0,017
-608,444	14,090	-0,038	0,021
-607,430	25,590	-0,058	-0,035
-606,415	-26,996	0,073	-0,031
-605,401	755,361	-0,068	-0,133
-604,386	500,994	0,021	-0,036
-603,371	580,622	-0,044	0,079
-602,357	567,414	0,036	-0,063
-601,342	-112,212	-0,087	0,012
-600,328	632,461	0,012	0,022
-599,313	63,806	0,130	-0,094
-598,298	-200,000	0,048	-0,168
-597,284	316,298	0,052	0,072
-596,269	-200,000	0,002	0,014
-595,255	26,910	0,085	-0,052
-594,240	146,507	0,067	-0,065
-593,225	196,851	-0,064	-0,070
-592,211	260,441	0,079	-0,098
-591,196	748,285	0,014	0,027
-590,182	217,631	0,093	0,107
-589,167	132,266	0,053	0,049
-588,152	-200,000	-0,033	0,111
-587,138	800,000	0,056	-0,131
-586,123	-39,653	-0,109	-0,041
-585,109	681,201	-0,036	-0,068
-584,094	-82,189	0,044	-0,010
-583,079	-107,759	0,084	-0,013
-582,065	-55,660	-0,064	0,020
-581,050	-200,000	-0,014	-0,148
-580,036	-9,304	0,101	0,048
-579,021	-165,200	-0,050	-0,002
-578,006	83,893	-0,062	-0,048
-576,992	-95,283	0,066	0,013
-575,977	-200,000	0,037	0,147
-574,963	165,782	0,075	-0,076
-573,948	290,528	-0,040	0,052
-572,934	34,685	0,089	0,056
-571,919	-200,000	-0,016	0,056
-570,904	61,497	-0,192	0,138
-569,890	-84,855	0,108	-0,024
-568,875	-200,000	-0,009	0,124
-567,861	-200,000	-0,024	0,094
-566,846	168,456	-0,058	0,059
-565,831	-34,539	-0,116	0,046
-564,817	800,000	-0,034	-0,067
-563,802	-104,935	0,080	0,013
-562,788	-200,000	0,025	-0,126
-561,773	228,924	-0,042	-0,050
-560,758	-55,341	-0,087	-0,028
-559,744	579,709	0,031	-0,055
-558,729	314,223	0,001	0,002
-557,715	566,566	-0,082	-0,144
-556,700	-200,000	-0,006	-0,083
-555,685	153,537	0,103	0,102
-554,671	800,000	0,020	-0,055
-553,656	12,018	0,050	-0,028
-552,642	-1,918	-0,038	-0,019
-551,627	198,614	0,090	-0,100
-550,612	234,277	-0,080	-0,096
-549,598	132,104	-0,040	0,037
-548,583	444,453	0,038	-0,060
-547,569	800,000	0,012	0,037
-546,554	369,030	0,030	-0,044
-545,539	800,000	-0,026	-0,066
-544,525	158,312	-0,041	-0,041
-543,510	296,535	-0,105	0,139
-542,496	178,663	0,046	-0,048
-541,481	-115,366	-0,177	0,024
-540,466	580,984	-0,048	0,085
-539,452	161,309	0,098	0,099
-538,437	86,882	0,017	-0,014
-537,423	35,663	-0,037	0,024
-536,408	190,911	0,071	0,077
-535,393	-10,756	-0,050	-0,024
-534,379	-172,516	0,041	0,001
-533,364	-200,000	0,004	0,071
-532,350	800,000	0,059	0,177
-531,335	546,434	0,103	0,178
-530,321	599,809	-0,046	0,083
-529,306	-38,894	-0,097	-0,037
-528,291	-57,786	0,096	-0,030
-527,277	-200,000	0,000	-0,041
-526,262	800,000	-0,025	-0,053
-525,248	153,536	-0,078	-0,077
-524,233	-200,000	-0,035	0,146
-523,218	-105,217	-0,140	0,023
-522,204	800,000	0,053	0,127
-521,189	-200,000	-0,024	-0,119
-520,175	-87,197	0,134	-0,029
-519,160	431,376	-0,078	-0,122
-518,145	378,806	0,088	-0,130
-517,131	-200,000	-0,019	-0,079
-516,116	-200,000	0,020	0,123
-515,102	-200,000	-0,013	-0,062
-514,087	-6,191	0,056	-0,028
-513,072	-106,056	0,047	0,008
-512,058	-116,876	-0,078	0,010
-511,043	95,667	0,066	-0,054
-510,029	-96,591	0,011	0,002
-509,014	800,000	0,004	-0,012
-507,999	75,560	-0,030	-0,022
-506,985	-79,431	-0,051	-0,012
-505,970	-71,863	-0,077	-0,020
-504,956	-30,925	0,137	0,055
-503,941	164,823	-0,081	-0,083
-502,926	-38,528	0,053	-0,020
-501,912	-49,535	0,102	-0,035
-500,897	-75,403	-0,096	-0,024
-499,883	-129,941	-0,013	-0,001
-498,868	800,000	0,036	0,083
-497,853	-143,308	0,110	0,008
-496,839	201,577	-0,055	-0,061
-495,824	533,860	0,022	-0,038
-494,810	169,026	0,099	-0,102
-493,795	27,559	-0,066	0,040
-492,781	800,000	0,014	-0,028
-491,766	-16,411	0,072	0,033
-490,751	-127,499	-0,123	-0,013
-489,737	-200,000	0,015	0,186
-488,722	-59,531	0,088	-0,027
-487,708	-200,000	0,040	0,214
-486,693	13,189	0,095	0,053
-485,678	800,000	-0,036	0,080
-484,664	-200,000	0,012	0,089
-483,649	-77,912	-0,079	-0,019
-482,635	-200,000	0,026	0,095
-481,620	-76,669	0,056	0,014
-480,605	-124,844	0,135	0,015
-479,591	-200,000	0,036	0,181
-478,576	-200,000	-0,012	0,156
-477,562	-200,000	0,007	0,038
-476,547	529,465	-0,069	-0,117
-475,532	800,000	-0,039	-0,085
-474,518	800,000	0,025	0,069
-473,503	-64,178	0,173	0,050
-472,489	-12,360	-0,080	-0,037
-471,474	-200,000	0,007	0,034
-470,459	173,945	-0,096	0,100
-469,445	195,434	0,033	-0,037
-468,430	16,460	-0,076	0,043
-467,416	-128,600	-0,076	0,008
-466,401	-200,000	-0,002	0,039
-465,386	31,522	-0,104	0,064
-464,372	546,175	0,081	0,140
-463,357	101,274	-0,158	-0,132
-462,343	12,843	0,089	-0,049
-461,328	-200,000	-0,016	0,065
-460,313	131,251	0,117	0,108
-459,299	800,000	0,064	-0,131
-458,284	-200,000	0,052	0,228
-457,270	538,736	-0,010	0,016
-456,255	132,676	0,020	0,018
-455,241	-97,282	0,103	0,019
-454,226	-200,000	-0,010	0,088
-453,211	-200,000	-0,023	0,089
-452,197	710,332	0,038	0,072
-451,182	42,948	0,130	0,085
-450,168	-200,000	0,036	0,116
-449,153	18,803	-0,072	-0,041
-448,138	-200,000	-0,015	0,094
-447,124	22,830	-0,109	-0,064
-446,109	580,265	0,049	0,086
-445,095	-200,000	-0,013	0,150
-444,080	800,000	-0,025	0,074
-443,065	244,768	-0,048	0,058
-442,051	306,369	-0,091	0,121
-441,036	109,648	-0,137	0,118
-440,022	547,071	-0,064	-0,111
-439,007	495,341	-0,053	0,087
-437,992	800,000	-0,036	-0,096
-436,978	226,853	0,056	0,065
-435,963	-200,000	0,014	0,098
-434,949	-116,329	0,075	0,010
-433,934	-134,436	-0,066	0,006
-432,919	146,501	0,085	-0,082
-431,905	16,704	0,102	-0,058
-430,890	800,000	-0,025	0,057
-429,876	42,149	0,049	0,032
-428,861	-185,623	-0,056	0,001
-427,846	-104,713	-0,172	0,028
-426,832	130,884	-0,050	0,046
-425,817	-57,520	0,038	0,012
-424,803	734,597	0,058	0,112
-423,788	-75,027	-0,072	0,018
-422,773	164,670	-0,044	0,045
-421,759	-40,063	0,143	-0,053
-420,744	-55,897	-0,045	-0,014
-419,730	29,898	-0,069	0,042
-418,715	21,789	-0,068	0,040
-417,701	20,359	-0,036	-0,021
-416,686	-111,310	0,037	0,005
-415,671	-6,953	0,116	0,056
-414,657	-200,000	-0,000	0,016
-413,642	-200,000	-0,010	-0,153
-412,628	-131,341	0,156	-0,015
-411,613	800,000	-0,032	-0,101
-410,598	-200,000	0,006	0,120
-409,584	-200,000	-0,024	-0,105
-408,569	-65,461	0,013	-0,004
-407,555	8,739	0,079	-0,043
-406,540	134,405	-0,057	-0,053
-405,525	112,027	-0,092	0,080
-404,511	-200,000	0,001	0,041
-403,496	-200,000	0,005	-0,151
-402,482	190,914	-0,066	0,071
-401,467	232,825	0,039	-0,047
-400,452	-170,175	-0,107	0,003
-399,438	170,099	-0,018	0,019
-398,423	358,554	-0,056	0,080
-397,409	-200,000	0,022	-0,120
-396,394	244,246	-0,062	-0,075
-395,379	9,378	-0,133	-0,072
-394,365	32,218	-0,026	0,016
-393,350	392,072	-0,070	-0,104
-392,336	-73,996	0,073	0,019
-391,321	-125,594	-0,086	-0,009
-390,306	-200,000	0,011	-0,076
-389,292	120,370	-0,076	-0,067
-388,277	-200,000	-0,004	0,031
-387,263	-200,000	0,016	-0,106
-386,248	733,554	-0,045	-0,087
-385,233	225,672	0,077	-0,089
-384,219	-120,626	0,074	-0,009
-383,204	-200,000	0,006	-0,109
-382,190	263,756	0,025	-0,031
-381,175	-200,000	-0,001	0,048
-380,160	552,107	-0,013	-0,023
-379,146	-200,000	-0,017	0,092
-378,131	800,000	-0,044	0,129
-377,117	-200,000	-0,016	-0,074
-376,102	288,569	0,076	-0,099
-375,088	70,150	0,148	-0,110
-374,073	-200,000	0,028	-0,100
-373,058	588,389	0,090	0,160
-372,044	35,535	0,047	0,030
-371,029	440,179	0,019	-0,029
-370,015	-200,000	-0,010	0,113
-369,000	-128,130	-0,121	-0,012
-367,985	-87,277	-0,117	-0,025
-366,971	91,261	0,077	-0,062
-365,956	-5,173	-0,098	-0,048
-364,942	2,485	-0,110	-0,057
-363,927	-76,256	-0,059	-0,015
-362,912	-124,670	0,088	-0,010
-361,898	1,656	-0,118	-0,060
-360,883	-58,603	0,029	-0,009
-359,869	-200,000	0,023	0,076
-358,854	-148,631	-0,043	-0,002
-357,839	223,694	0,170	0,197
-356,825	800,000	0,048	0,130
-355,810	-62,715	-0,108	-0,032
-354,796	387,419	0,059	-0,087
-353,781	800,000	-0,068	-0,173
-352,766	-131,399	-0,128	0,012
-351,752	-200,000	0,002	-0,024
-350,737	18,999	0,067	-0,038
-349,723	-200,000	0,004	0,100
-348,708	21,015	0,116	0,067
-347,693	800,000	-0,071	0,177
-346,679	47,466	-0,055	-0,036
-345,664	294,243	0,105	-0,138
-344,650	-200,000	-0,015	-0,086
-343,635	59,935	-0,074	0,052
-342,620	-200,000	0,015	0,113
-341,606	566,515	-0,044	-0,077
-340,591	69,765	-0,045	0,033
-339,577	-13,751	-0,076	0,035
-338,562	-146,598	-0,030	-0,002
-337,548	77,337	-0,082	-0,062
-336,533	800,000	0,016	0,035
-335,518	27,072	0,087	0,052
-334,504	79,875	0,171	0,131
-333,489	-200,000	0,002	0,046
-332,475	-111,222	-0,114	-0,017
-331,460	69,041	-0,117	-0,086
-330,445	206,229	-0,031	0,034
-329,431	-17,043	0,155	-0,070
-328,416	-120,006	0,119	-0,014
-327,402	131,795	-0,044	-0,041
-326,387	262,125	-0,071	-0,088
-325,372	-46,700	0,061	0,021
-324,358	-121,915	-0,031	-0,004
-323,343	-61,173	-0,047	-0,014
-322,329	398,335	0,030	-0,044
-321,314	-200,000	-0,018	-0,111
-320,299	-130,316	-0,080	-0,008
-319,285	-110,857	-0,099	-0,014
-318,270	-24,671	-0,083	-0,035
-317,256	-151,083	0,066	-0,004
-316,241	110,770	0,052	0,044
-315,226	800,000	0,008	0,019
-314,212	-200,000	-0,033	0,117
-313,197	652,052	0,040	0,073
-312,183	158,052	0,052	0,052
-311,168	-4,830	-0,088	0,043
-310,153	133,408	-0,069	0,063
-309,139	-39,476	0,150	0,056
-308,124	-107,997	0,098	-0,015
-307,110	-200,000	0,012	-0,048
-306,095	-4,051	-0,084	0,042
-305,080	87,972	-0,083	0,065
-304,066	103,713	-0,082	0,069
-303,051	800,000	0,033	0,069
-302,037	-200,000	-0,013	-0,155
-301,022	208,686	-0,073	-0,082
-300,008	104,128	0,102	-0,086
-298,993	215,035	0,061	-0,070
-297,978	-200,000	0,014	-0,080
-296,964	800,000	0,022	-0,061
-295,949	-93,024	-0,091	0,018
-294,935	-200,000	-0,070	-0,239
-293,920	242,377	0,066	-0,079
-292,905	55,176	-0,071	-0,049
-291,891	800,000	-0,017	-0,037
-290,876	222,661	0,063	0,072
-289,862	49,064	0,065	-0,043
-288,847	-56,136	-0,032	-0,010
-287,832	-148,028	-0,059	0,003
-286,818	596,000	-0,034	-0,060
-285,803	-180,172	0,045	-0,001
-284,789	-112,095	0,106	0,015
-283,774	248,845	-0,065	0,079
-282,759	317,818	-0,058	0,079
-281,745	800,000	-0,051	-0,117
-280,730	-130,131	0,100	0,010
-279,716	149,325	0,046	0,045
-278,701	6,494	0,083	0,044
-277,686	258,164	0,120	0,147
-276,672	560,821	-0,060	-0,103
-275,657	-200,000	-0,006	-0,025
-274,643	800,000	-0,043	-0,129
-273,628	-200,000	-0,008	0,037
-272,613	-43,402	0,132	-0,047
-271,599	306,430	0,066	-0,087
-270,584	77,677	0,119	-0,090
-269,570	-200,000	0,020	0,097
-268,555	800,000	0,029	-0,076
-267,540	800,000	0,033	0,098
-266,526	-139,589	-0,168	0,013
-265,511	268,169	-0,103	-0,129
-264,497	-200,000	0,029	-0,126
-263,482	114,880	-0,138	0,120
-262,467	-104,419	0,062	-0,010
-261,453	277,421	-0,071	-0,090
-260,438	161,665	0,010	0,010
-259,424	-155,009	-0,096	0,004
-258,409	2,114	0,022	-0,011
-257,395	-77,286	-0,102	-0,025
-256,380	800,000	-0,046	-0,137
-255,365	399,883	-0,061	0,092
-254,351	-200,000	-0,002	0,053
-253,336	-200,000	-0,001	0,048
-252,322	-200,000	0,006	-0,103
-251,307	82,206	0,060	-0,047
-250,292	344,050	0,074	0,104
-249,278	441,359	0,085	0,133
-248,263	746,046	0,012	-0,022
-247,249	-200,000	0,004	0,055
-246,234	-200,000	0,012	0,097
-245,219	392,001	0,037	0,055
-244,205	465,170	0,077	0,123
-243,190	20,972	-0,071	0,041
-242,176	228,339	0,122	0,142
-241,161	-134,755	0,062	0,005
-240,146	68,928	0,033	-0,024
-239,132	-96,149	-0,058	-0,011
-238,117	663,255	0,055	-0,102
-237,103	800,000	0,053	-0,116
-236,088	-132,751	-0,062	0,006
-235,073	242,383	0,074	0,089
-234,059	-200,000	-0,011	0,102
-233,044	-200,000	-0,016	0,057
-232,030	-174,387	-0,132	-0,003
-231,015	280,403	-0,022	0,028
-230,000	14,966	-0,068	-0,038
-228,986	376,142	0,061	-0,089
-227,971	-200,000	0,008	0,118
-226,957	-48,953	-0,108	0,037
-225,942	613,388	-0,036	0,064
-224,927	152,308	0,041	0,039
-223,913	375,415	0,048	-0,070
-222,898	-83,961	-0,126	0,028
-221,884	153,466	-0,034	0,033
-220,869	-200,000	-0,005	0,066
-219,855	223,326	0,131	0,150
-218,840	304,319	-0,074	0,098
-217,825	-70,220	0,128	0,034
-216,811	-141,437	0,073	-0,005
-215,796	-167,530	-0,010	-0,000
-214,782	-200,000	-0,010	0,053
-213,767	-56,825	0,057	-0,018
-212,752	-53,729	0,114	-0,037
-211,738	-200,000	-0,007	-0,208
-210,723	-200,000	-0,012	-0,076
-209,709	427,005	-0,026	-0,040
-208,694	64,745	0,021	0,015
-207,679	45,859	-0,076	-0,050
-206,665	-118,219	0,015	-0,002
-205,650	9,777	0,092	0,049
-204,636	466,951	0,098	0,156
-203,621	-69,055	-0,176	-0,048
-202,606	-103,282	-0,077	-0,013
-201,592	-200,000	-0,027	-0,119
-200,577	20,561	-0,125	-0,072
-199,563	-42,590	-0,085	0,031
-198,548	-200,000	-0,008	0,072
-197,533	-164,378	0,025	-0,001
-196,519	-85,600	0,091	-0,020
-195,504	-0,499	0,113	0,057
-194,490	800,000	-0,073	-0,151
-193,475	-200,000	-0,007	0,049
-192,460	-17,777	-0,068	-0,030
-191,446	800,000	0,032	-0,069
-190,431	-97,127	0,083	-0,015
-189,417	-200,000	-0,009	-0,130
-188,402	278,230	-0,005	-0,006
-187,387	62,100	-0,065	-0,046
-186,373	458,539	0,052	-0,083
-185,358	-93,542	0,210	-0,041
-184,344	-200,000	0,007	0,089
-183,329	-15,554	-0,025	-0,011
-182,315	224,906	-0,035	-0,040
-181,300	246,861	-0,046	0,056
-180,285	-104,494	0,039	-0,006
-179,271	800,000	0,023	0,063
-178,256	51,174	-0,055	0,037
-177,242	-91,981	0,119	0,024
-176,227	-41,212	0,048	-0,018
-175,212	800,000	-0,013	-0,030
-174,198	-2,913	-0,085	0,042
-173,183	232,206	-0,078	-0,091
-172,169	244,606	-0,030	-0,035
-171,154	-75,100	-0,045	0,011
-170,139	-200,000	-0,002	-0,059
-169,125	-60,484	-0,128	0,038
-168,110	75,505	0,042	0,031
-167,096	326,781	-0,056	0,077
-166,081	300,000	-0,052	0,068
-165,066	334,614	-0,090	-0,125
-164,052	455,742	0,067	-0,106
-163,037	800,000	0,032	0,079
-162,023	-58,993	-0,146	-0,044
-161,008	-200,000	-0,011	-0,045
-159,993	800,000	0,033	-0,097
-158,979	-200,000	-0,053	-0,183
-157,964	-200,000	-0,042	-0,170
-156,950	-50,299	0,108	0,036
-155,935	56,967	-0,048	-0,033
-154,920	-200,000	0,018	0,114
-153,906	-37,268	0,124	0,047
-152,891	800,000	0,012	0,036
-151,877	800,000	-0,031	0,097
-150,862	-200,000	-0,000	-0,008
-149,847	-200,000	0,005	-0,070
-148,833	800,000	0,036	0,104
-147,818	-47,911	0,112	0,038
-146,804	5,993	0,071	0,037
-145,789	-179,596	0,143	0,002
-144,775	-76,023	-0,083	-0,021
-143,760	-120,219	0,120	-0,014
-142,745	-200,000	0,021	-0,126
-141,731	800,000	-0,037	0,073
-140,716	800,000	0,054	0,115
-139,702	800,000	0,031	0,073
-138,687	10,689	0,158	0,085
-137,672	-200,000	-0,017	-0,168
-136,658	27,538	-0,053	-0,031
-135,643	252,357	-0,029	-0,036
-134,629	800,000	-0,021	0,063
-133,614	-62,758	0,039	0,011
-132,599	-200,000	0,017	-0,123
-131,585	-96,683	0,109	-0,020
-130,570	-200,000	0,012	-0,041
-129,556	-200,000	-0,054	-0,229
-128,541	173,853	0,039	-0,040
-127,526	-200,000	-0,004	-0,015
-126,512	84,614	-0,020	-0,016
-125,497	436,632	0,026	0,040
-124,483	-200,000	0,025	0,100
-123,468	-127,906	-0,043	0,004
-122,453	800,000	0,053	-0,150
-121,439	329,576	-0,048	-0,066
-120,424	-29,291	-0,069	-0,028
-119,410	65,361	0,061	0,044
-118,395	37,107	-0,087	0,055
-117,380	-31,337	0,053	0,021
-116,366	160,303	-0,107	0,106
-115,351	800,000	-0,038	-0,110
-114,337	18,120	-0,075	-0,042
-113,322	-200,000	-0,039	-0,126
-112,307	-200,000	-0,004	-0,047
-111,293	-200,000	0,009	0,114
-110,278	81,314	-0,049	-0,037
-109,264	11,244	0,026	0,014
-108,249	242,567	0,055	-0,065
-107,234	-132,714	-0,117	-0,010
-106,220	800,000	0,015	-0,037
-105,205	-200,000	-0,004	-0,046
-104,191	-176,443	0,093	-0,002
-103,176	-16,902	-0,086	-0,038
-102,162	-200,000	0,020	-0,089
-101,147	-81,639	-0,105	-0,024
-100,132	-61,961	-0,175	0,052
-99,118	-135,827	-0,080	-0,007
-98,103	106,316	0,127	0,106
-97,089	-44,862	0,047	0,017
-96,074	175,447	0,055	-0,056
-95,059	-200,000	0,032	0,188
-94,045	110,318	-0,059	0,050
-93,030	194,487	-0,032	-0,035
-92,016	-200,000	-0,010	0,035
-91,001	69,168	0,047	-0,034
-89,986	-200,000	0,004	-0,037
-88,972	146,621	0,041	0,039
-87,957	352,390	-0,031	-0,043
-86,943	-122,658	0,051	-0,006
-85,928	-200,000	0,017	-0,075
-84,913	234,659	0,051	-0,060
-83,899	783,251	0,033	-0,064
-82,884	562,889	-0,007	0,013
-81,870	545,500	-0,058	0,099
-80,855	3,030	0,092	0,047
-79,840	210,483	0,033	-0,037
-78,826	54,253	0,030	-0,021
-77,811	196,954	0,033	-0,036
-76,797	756,694	0,060	0,115
-75,782	-200,000	0,016	0,119
-74,767	-131,063	0,157	0,015
-73,753	800,000	-0,019	0,051
-72,738	123,016	0,009	0,008
-71,724	96,295	-0,085	-0,068
-70,709	7,046	-0,113	0,060
-69,694	52,694	-0,056	-0,038
-68,680	-200,000	-0,009	-0,042
-67,665	-200,000	0,015	0,151
-66,651	-200,000	-0,008	-0,074
-65,636	-81,360	-0,070	0,016
-64,622	-47,318	-0,132	0,045
-63,607	778,077	-0,064	-0,124
-62,592	-10,581	-0,083	-0,039
-61,578	800,000	0,026	0,052
-60,563	-197,064	0,173	-0,001
-59,549	-200,000	0,008	-0,056
-58,534	17,204	-1,778	-0,995
-57,519	569,296	-1,213	-2,094
-56,505	-200,000	-0,597	-4,529
-55,490	477,686	0,935	1,502
-54,476	800,000	4,968	11,272
-53,461	-200,000	20,199	324,451
-52,446	800,000	752,380	2310,952
-51,432	548,714	1662,816	2827,008
-50,417	74,732	1671,623	1242,229
-49,403	19,912	1544,401	877,473
-48,388	13,876	1466,986	804,128
-47,373	18,408	1457,306	820,676
-46,359	16,308	1446,824	804,685
-45,344	12,164	1442,294	782,289
-44,330	12,028	1440,637	780,711
-43,315	12,063	1438,875	779,890
-42,300	12,048	1437,051	778,798
-41,286	12,050	1435,712	778,052
-40,271	12,042	1434,504	777,328
-39,257	12,079	1433,251	776,794
-38,242	12,100	1431,977	776,174
-37,227	12,053	1430,777	775,269
-36,213	12,137	1429,492	774,939
-35,198	12,071	1428,489	774,053
-34,184	12,165	1427,306	773,826
-33,169	12,080	1425,840	772,599
-32,154	12,158	1424,857	772,406
-31,140	12,150	1423,710	771,716
-30,125	12,158	1422,451	771,040
-29,111	12,116	1421,465	770,275
-28,096	12,127	1420,076	769,544
-27,082	12,077	1419,105	768,750
-26,067	12,064	1418,098	768,114
-25,052	12,064	1417,015	767,497
-24,038	12,044	1415,888	766,765
-23,023	12,019	1414,943	766,101
-22,009	12,045	1413,905	765,633
-20,994	12,059	1412,996	765,177
-19,979	12,082	1412,149	764,797
-18,965	12,007	1411,167	763,879
-17,950	12,015	1410,156	763,339
-16,936	12,027	1409,327	762,920
-15,921	11,970	1408,521	762,186
-14,906	11,946	1407,774	761,639
-13,892	11,974	1406,667	761,140
-12,877	11,932	1405,856	760,475
-11,863	11,925	1404,899	759,895
-10,848	11,947	1404,049	759,505
-9,833	11,932	1402,977	758,828
-8,819	11,870	1402,305	758,144
-7,804	11,871	1401,507	757,686
-6,790	11,868	1400,236	756,956
-5,775	11,865	1399,144	756,325
-4,760	11,941	1398,017	756,037
-3,746	11,830	1397,407	755,163
-2,731	11,861	1396,510	754,788
-1,717	11,835	1395,822	754,269
-0,702	11,875	1393,778	753,318
0,313	15,880	1308,595	725,749
1,327	32,258	699,399	425,492
2,342	49,323	121,891	80,847
3,356	1,176	16,690	8,436
4,371	16,373	3,231	1,796
5,386	26,554	0,608	0,359
6,400	800,000	0,152	0,445
7,415	102,318	-0,188	-0,155
8,429	-78,952	-0,220	-0,052
9,444	74,261	-0,325	-0,241
10,459	85,005	-0,315	-0,243
11,473	98,865	-0,187	-0,152
12,488	58,107	-0,343	-0,237
13,502	-14,998	-0,258	-0,116
14,517	-12,478	-0,354	-0,163
15,531	78,245	-0,381	-0,287
16,546	103,223	-0,265	-0,219
17,561	149,741	-0,391	-0,374
18,575	41,681	-0,253	-0,161
19,590	175,091	-0,249	-0,255
20,604	73,475	-0,253	-0,187
21,619	132,611	-0,332	-0,302
22,634	43,203	-0,523	-0,336
23,648	123,366	-0,547	-0,483
24,663	48,346	-0,442	-0,291
25,677	122,257	-0,305	-0,268
26,692	7,530	-0,304	-0,160
27,707	182,431	-0,244	-0,254
28,721	139,102	-0,378	-0,351
29,736	42,261	-0,366	-0,234
30,750	110,336	-0,336	-0,284
31,765	108,437	-0,418	-0,352
32,780	143,249	-0,291	-0,273
33,794	800,000	-0,097	-0,292
34,809	77,269	-0,293	-0,219
35,823	203,071	-0,322	-0,351
36,838	106,153	-0,449	-0,374
37,853	-63,203	-0,438	-0,126
38,867	95,525	-0,330	-0,265
39,882	74,573	-0,369	-0,273
40,896	0,141	-0,368	-0,184
41,911	24,522	-0,376	-0,219
42,926	321,701	-0,259	-0,348
43,940	35,077	-0,436	-0,268
44,955	122,817	-0,312	-0,275
45,969	126,638	-0,289	-0,257
46,984	166,764	-0,304	-0,304
47,999	25,303	-0,234	-0,136
49,013	-67,448	-0,476	-0,130
50,028	-1,151	-0,383	-0,190
51,042	-23,839	-0,360	-0,151
52,057	158,357	-0,390	-0,380
53,071	800,000	-0,120	-0,373
54,086	60,351	-0,378	-0,262
55,101	-54,543	-0,336	-0,106
56,115	124,183	-0,286	-0,253
57,130	37,856	-0,438	-0,273
58,144	129,931	-0,371	-0,334
59,159	94,043	-0,368	-0,293
60,174	111,230	-0,480	-0,406
61,188	152,632	-0,360	-0,346
62,203	231,966	-0,280	-0,323
63,217	33,206	-0,300	-0,183
64,232	102,828	-0,375	-0,309
65,247	-19,023	-0,333	-0,145
66,261	16,672	-0,327	-0,181
67,276	133,729	-0,299	-0,272
68,290	161,456	-0,232	-0,228
69,305	87,824	-0,234	-0,182
70,320	-11,336	-0,330	-0,152
71,334	-49,163	-0,325	-0,109
72,349	57,104	-0,342	-0,234
73,363	507,442	-0,198	-0,324
74,378	60,020	-0,411	-0,285
75,393	-32,949	-0,392	-0,152
76,407	268,262	-0,208	-0,256
77,422	-0,855	-0,302	-0,150
78,436	263,087	-0,235	-0,287
79,451	-0,830	-0,243	-0,120
80,466	109,696	-0,286	-0,240
81,480	456,159	-0,262	-0,410
82,495	41,399	-0,300	-0,190
83,509	165,155	-0,280	-0,277
84,524	87,855	-0,259	-0,201
85,539	140,829	-0,079	-0,073
86,553	159,512	-0,353	-0,344
87,568	24,779	-0,402	-0,233
88,582	46,198	-0,382	-0,248
89,597	118,748	-0,246	-0,213
90,611	800,000	-0,088	-0,230
91,626	94,632	-0,307	-0,244
92,641	-57,817	-0,316	-0,096
93,655	158,974	-0,285	-0,277
94,670	15,146	-0,319	-0,175
95,684	367,619	-0,229	-0,325
96,699	55,102	-0,302	-0,204
97,714	82,386	-0,236	-0,179
98,728	195,008	-0,241	-0,257
99,743	86,653	-0,168	-0,130
100,757	643,837	-0,182	-0,327
101,772	181,427	-0,283	-0,292
102,787	46,101	-0,372	-0,241
103,801	49,805	-0,282	-0,186
104,816	107,435	-0,287	-0,239
105,830	271,807	-0,246	-0,304
106,845	-37,020	-0,211	-0,079
107,860	-95,106	-0,275	-0,052
108,874	293,286	-0,228	-0,291
109,889	162,231	-0,280	-0,275
110,903	-13,382	-0,346	-0,156
111,918	179,436	-0,284	-0,291
112,933	342,540	-0,118	-0,161
113,947	148,632	-0,211	-0,199
114,962	11,870	-0,283	-0,152
115,976	113,488	-0,206	-0,175
116,991	-14,860	-0,336	-0,150
118,006	95,853	-0,328	-0,262
119,020	76,640	-0,397	-0,294
120,035	-200,000	-0,035	-0,130
121,049	250,738	-0,157	-0,187
122,064	795,650	-0,115	-0,222
123,079	127,618	-0,258	-0,229
124,093	29,567	-0,303	-0,180
125,108	548,444	-0,223	-0,375
126,122	-38,875	-0,300	-0,110
127,137	-92,219	-0,267	-0,052
128,151	35,279	-0,115	-0,070
129,166	-78,056	-0,299	-0,071
130,181	-98,973	-0,275	-0,048
131,195	-73,914	-0,306	-0,077
132,210	-58,946	-0,268	-0,080
133,224	15,245	-0,317	-0,173
134,239	8,352	-0,221	-0,116
135,254	6,020	-0,260	-0,134
136,268	239,522	-0,227	-0,264
137,283	72,241	-0,303	-0,220
138,297	15,050	-0,288	-0,157
139,312	107,087	-0,297	-0,246
140,327	114,900	-0,345	-0,293
141,341	-86,792	-0,243	-0,051
142,356	324,739	-0,189	-0,253
143,370	76,778	-0,215	-0,159
144,385	-56,107	-0,290	-0,090
145,400	43,865	-0,287	-0,183
146,414	52,821	-0,318	-0,212
147,429	166,379	-0,181	-0,179
148,443	18,710	-0,228	-0,127
149,458	312,575	-0,099	-0,130
150,473	123,634	-0,206	-0,180
151,487	115,628	-0,298	-0,254
152,502	15,669	-0,488	-0,267
153,516	346,789	-0,284	-0,391
154,531	71,120	-0,204	-0,147
155,546	-46,940	-0,342	-0,116
156,560	458,147	-0,163	-0,253
157,575	109,260	-0,204	-0,170
158,589	2,551	-0,228	-0,115
159,604	141,548	-0,236	-0,218
160,619	181,035	-0,257	-0,264
161,633	110,189	-0,153	-0,128
162,648	118,145	-0,270	-0,232
163,662	7,486	-0,207	-0,107
164,677	90,220	-0,208	-0,162
165,692	195,460	-0,185	-0,196
166,706	-67,344	-0,233	-0,063
167,721	223,314	-0,186	-0,209
168,735	85,455	-0,262	-0,200
169,750	208,035	-0,208	-0,227
170,764	81,931	-0,221	-0,167
171,779	-115,001	-0,254	-0,033
172,794	38,191	-0,237	-0,146
173,808	-18,555	-0,234	-0,101
174,823	241,940	-0,133	-0,155
175,837	173,045	-0,205	-0,206
176,852	89,347	-0,225	-0,174
177,867	-10,580	-0,143	-0,065
178,881	-96,750	-0,217	-0,039
179,896	-89,052	-0,210	-0,043
180,910	546,793	-0,129	-0,216
181,925	800,000	-0,102	-0,238
182,940	201,957	-0,225	-0,241
183,954	0,425	-0,078	-0,038
184,969	181,129	-0,151	-0,154
185,983	-94,882	-0,143	-0,027
186,998	39,463	-0,091	-0,057
188,013	-31,803	-0,228	-0,088
189,027	-69,543	-0,313	-0,083
190,042	238,858	-0,214	-0,248
191,056	-63,697	-0,223	-0,063
192,071	274,625	-0,200	-0,247
193,086	-200,000	-0,026	-0,142
194,100	-37,409	-0,110	-0,041
195,115	26,529	-0,313	-0,181
196,129	5,985	-0,276	-0,141
197,144	136,506	-0,202	-0,183
198,159	168,744	-0,248	-0,245
199,173	-142,121	-0,248	-0,017
200,188	-178,657	-0,274	-0,004
201,202	28,649	-0,181	-0,106
202,217	-200,000	-0,230	0,000
203,232	99,719	-0,258	-0,207
204,246	105,626	-0,222	-0,182
205,261	-95,937	-0,149	-0,027
206,275	435,299	-0,102	-0,154
207,290	227,003	-0,236	-0,267
208,304	102,137	-0,128	-0,104
209,319	-31,970	-0,163	-0,063
210,334	38,761	-0,245	-0,151
211,348	172,427	-0,212	-0,212
212,363	31,473	-0,379	-0,226
213,377	227,871	-0,136	-0,154
214,392	800,000	-0,047	-0,132
215,407	20,913	-0,136	-0,076
216,421	106,173	-0,086	-0,070
217,436	130,166	-0,162	-0,144
218,450	-108,044	-0,081	-0,012
219,465	133,401	-0,197	-0,177
220,480	37,745	-0,098	-0,060
221,494	-6,807	-0,198	-0,093
222,509	38,235	-0,126	-0,078
223,523	132,013	-0,189	-0,169
224,538	192,666	-0,153	-0,160
225,553	800,000	-0,096	-0,287
226,567	182,793	-0,253	-0,259
227,582	707,637	-0,069	-0,127
228,596	-77,115	-0,149	-0,036
229,611	-200,000	-0,030	-0,180
230,626	112,481	-0,137	-0,115
231,640	-134,726	-0,239	-0,020
232,655	199,345	-0,187	-0,199
233,669	334,382	-0,190	-0,256
234,684	13,707	-0,185	-0,099
235,699	-99,502	-0,252	0,043
236,713	94,054	-0,204	-0,160
237,728	147,400	-0,123	-0,114
238,742	800,000	-0,070	-0,205
239,757	800,000	-0,105	-0,241
240,772	85,895	-0,208	-0,158
241,786	-31,418	-0,212	-0,082
242,801	-112,114	-0,335	-0,046
243,815	91,780	-0,120	-0,093
244,830	43,573	-0,074	-0,047
245,844	143,145	-0,186	-0,171
246,859	36,720	-0,169	-0,103
247,874	47,721	-0,195	-0,125
248,888	224,238	-0,220	-0,246
249,903	-106,738	-0,262	-0,040
250,917	149,630	-0,107	-0,100
251,932	204,251	-0,018	0,019
252,947	-92,591	-0,255	-0,049
253,961	118,347	-0,237	-0,202
254,976	36,354	-0,227	-0,138
255,990	25,297	-0,173	-0,099
257,005	-49,103	-0,243	-0,080
258,020	-11,288	-0,191	-0,087
259,034	22,344	-0,198	-0,112
260,049	311,107	-0,084	-0,109
261,063	150,909	-0,198	-0,186
262,078	-135,309	-0,233	-0,019
263,093	68,448	-0,315	-0,223
264,107	307,056	-0,102	-0,132
265,122	164,803	-0,081	-0,079
266,136	-139,220	-0,127	0,009
267,151	-103,769	-0,239	-0,038
268,166	309,111	-0,090	-0,117
269,180	-174,241	-0,334	-0,007
270,195	-142,143	-0,359	-0,024
271,209	-42,366	-0,224	-0,078
272,224	-81,344	-0,139	0,031
273,239	201,014	0,046	-0,049
274,253	-168,994	-0,218	0,005
275,268	-77,281	-0,162	0,039
276,282	554,801	-0,145	-0,242
277,297	185,700	-0,155	-0,159
278,312	-22,116	-0,253	-0,106
279,326	178,384	-0,166	-0,167
280,341	800,000	-0,075	-0,143
281,355	800,000	-0,079	-0,208
282,370	-13,067	-0,238	-0,106
283,384	-121,196	-0,210	-0,024
284,399	-75,978	-0,207	-0,050
285,414	134,835	-0,182	-0,163
286,428	-160,084	-0,211	0,008
287,443	-53,516	-0,209	-0,065
288,457	800,000	-0,058	-0,148
289,472	168,907	-0,096	-0,094
290,487	44,695	-0,194	-0,123
291,501	-106,360	-0,265	-0,040
292,516	154,781	-0,272	-0,258
293,530	-65,954	-0,168	-0,046
294,545	-50,078	-0,216	-0,070
295,560	-97,394	-0,187	0,033
296,574	583,519	-0,136	-0,231
297,589	775,765	-0,123	-0,232
298,603	-5,238	-0,248	-0,117
299,618	27,591	-0,163	-0,094
300,633	176,355	-0,171	-0,171
301,647	169,792	-0,178	-0,175
302,662	-60,051	-0,212	0,062
303,676	168,178	-0,128	-0,126
304,691	273,498	-0,206	-0,251
305,706	-19,113	-0,225	-0,096
306,720	467,623	-0,086	-0,133
307,735	-88,219	-0,209	0,043
308,749	-62,368	-0,114	-0,033
309,764	77,849	-0,201	-0,147
310,779	-36,087	-0,172	-0,063
311,793	260,393	-0,060	-0,072
312,808	62,310	-0,203	-0,139
313,822	94,981	-0,222	-0,174
314,837	17,089	-0,090	-0,049
315,852	155,775	-0,121	-0,115
316,866	16,977	-0,149	-0,081
317,881	-200,000	-0,036	-0,200
318,895	-73,298	-0,192	-0,048
319,910	800,000	-0,083	-0,216
320,925	52,760	-0,212	-0,139
321,939	-200,000	-0,001	-0,037
322,954	-65,429	-0,152	-0,042
323,968	-161,462	-0,179	0,006
324,983	-40,264	-0,186	-0,066
325,997	43,277	-0,062	-0,039
327,012	297,885	-0,101	-0,128
328,027	738,213	-0,045	-0,082
329,041	65,244	-0,201	-0,139
330,056	174,556	-0,101	-0,101
331,070	800,000	-0,074	-0,180
332,085	685,774	-0,080	-0,144
333,100	81,004	-0,097	-0,071
334,114	172,254	-0,156	-0,154
335,129	641,815	-0,063	-0,110
336,143	119,668	-0,177	-0,151
337,158	-85,970	-0,144	-0,030
338,173	565,345	-0,083	-0,139
339,187	-7,979	-0,093	0,043
340,202	-112,988	-0,081	-0,011
341,216	-11,315	-0,209	-0,094
342,231	9,179	-0,215	-0,111
343,246	-200,000	-0,060	-0,260
344,260	-200,000	-0,004	-0,058
345,275	189,119	-0,083	-0,085
346,289	-18,181	-0,126	-0,054
347,304	-81,311	-0,169	-0,038
348,319	441,732	-0,055	-0,082
349,333	-39,200	-0,169	-0,060
350,348	3,990	-0,104	-0,052
351,362	-117,420	-0,100	-0,012
352,377	-200,000	0,011	-0,094
353,392	-133,139	0,075	-0,006
354,406	158,702	-0,074	0,070
355,421	207,997	1315,877	1409,713
356,435	160,023	1476,722	1410,176
