DTS Sentinel unit serial number:	SN410029Multiplexer serial number:	ORYXHardware model number:	OX2-SRSoftware version number:	ORYX F/W v4,00 Oryx Data Collector v3.7.2.0data status	okinstallation	B3 Nyhavnadifferential loss correction	single-endedforward channel	channel 1reverse channel	N/Adate	2023/11/30time	08:52:30forward acquisition time	300,00reverse acquisition time	0,00gamma	499,1914k internal	0,3211k external	0,3211temperature offset calibration	1,0000default loss term (dB/km)	0,3820temperature slope calibration	1,0000multiplexer offset coefficient	1,0000multiplexer slope coefficient	1,0000fibre end	0,00T internal ref (°C)	9,45T ext. ref 1 (°C)	-5,38T ext. ref 2 (°C)	-5,47length (m)	temperature (°C)	Stokes	anti-Stokes-744,400	800,000	-0,103	-0,225
-743,385	800,000	-0,063	0,143
-742,371	800,000	-0,118	-0,352
-741,356	-200,000	-0,062	0,335
-740,342	62,242	-0,135	-0,098
-739,327	-200,000	-0,101	0,351
-738,312	234,860	-0,262	-0,314
-737,298	800,000	-0,093	0,260
-736,283	778,827	-0,119	-0,236
-735,269	800,000	-0,093	0,229
-734,254	800,000	-0,063	-0,177
-733,239	54,233	-0,365	0,254
-732,225	572,907	-0,089	-0,157
-731,210	-200,000	-0,018	0,163
-730,196	-200,000	-0,012	-0,064
-729,181	-200,000	-0,002	0,020
-728,167	-60,448	-0,101	0,031
-727,152	-200,000	0,032	-0,128
-726,137	32,047	-0,199	0,124
-725,123	-173,385	0,017	-0,000
-724,108	45,268	-0,170	-0,113
-723,094	-26,000	0,104	-0,044
-722,079	262,161	-0,104	-0,130
-721,064	202,536	0,127	0,142
-720,050	23,234	0,071	-0,042
-719,035	800,000	-0,083	0,168
-718,021	161,326	0,032	0,032
-717,006	-55,479	-0,097	0,031
-715,991	-200,000	-0,007	0,034
-714,977	-200,000	0,025	-0,098
-713,962	800,000	-0,010	0,020
-712,948	128,164	-0,048	0,044
-711,933	-200,000	-0,017	0,071
-710,918	-200,000	-0,013	0,093
-709,904	-200,000	0,004	0,066
-708,889	800,000	-0,006	0,020
-707,875	-78,182	-0,129	0,032
-706,860	-200,000	-0,007	0,056
-705,845	337,767	0,028	0,039
-704,831	13,340	-0,069	-0,038
-703,816	-200,000	0,014	-0,112
-702,802	-96,641	-0,081	0,015
-701,787	487,517	0,091	-0,152
-700,772	82,307	-0,124	-0,097
-699,758	82,185	-0,173	-0,135
-698,743	232,428	0,045	0,054
-697,729	168,912	0,082	0,085
-696,714	-98,296	-0,050	0,009
-695,699	-147,136	0,097	0,006
-694,685	-200,000	0,003	-0,031
-693,670	-5,654	0,039	0,019
-692,656	-138,211	-0,062	0,005
-691,641	-200,000	0,007	0,105
-690,627	230,323	-0,057	0,068
-689,612	18,969	0,010	0,006
-688,597	-7,653	-0,106	-0,052
-687,583	-200,000	0,004	-0,100
-686,568	17,258	0,095	-0,055
-685,554	-200,000	0,000	-0,035
-684,539	-200,000	-0,017	-0,096
-683,524	-58,091	0,049	0,015
-682,510	-200,000	-0,023	0,106
-681,495	-200,000	-0,014	-0,061
-680,481	66,591	0,054	-0,040
-679,466	64,802	-0,112	-0,082
-678,451	-168,980	0,100	0,003
-677,437	-200,000	-0,006	0,025
-676,422	-200,000	0,005	0,039
-675,408	-200,000	0,012	0,140
-674,393	14,215	-0,122	0,069
-673,378	242,911	-0,090	-0,109
-672,364	-59,728	-0,102	-0,031
-671,349	-200,000	0,004	-0,030
-670,335	800,000	0,032	-0,067
-669,320	-94,970	0,016	-0,003
-668,305	332,607	0,043	-0,060
-667,291	694,876	-0,046	0,087
-666,276	12,400	0,066	0,037
-665,262	800,000	-0,009	0,026
-664,247	-95,035	-0,162	0,031
-663,232	88,480	-0,156	0,125
-662,218	-124,753	0,223	0,025
-661,203	-42,835	-0,092	-0,033
-660,189	-200,000	0,007	-0,053
-659,174	-200,000	-0,023	0,109
-658,159	163,874	-0,063	-0,064
-657,145	635,803	0,021	-0,039
-656,130	-81,718	-0,174	-0,041
-655,116	318,554	0,113	0,156
-654,101	57,528	-0,068	0,048
-653,086	-154,350	-0,122	-0,006
-652,072	800,000	-0,007	-0,017
-651,057	-200,000	-0,007	-0,043
-650,043	-26,590	0,057	-0,024
-649,028	-200,000	-0,004	0,066
-648,014	-8,769	0,124	0,060
-646,999	622,623	0,034	0,061
-645,984	800,000	-0,110	0,295
-644,970	-200,000	-0,001	-0,074
-643,955	597,570	-0,052	-0,094
-642,941	-42,708	-0,183	-0,067
-641,926	260,587	0,025	-0,031
-640,911	-48,265	-0,070	-0,024
-639,897	-102,574	0,091	-0,015
-638,882	-57,938	-0,055	0,017
-637,868	426,724	-0,051	-0,080
-636,853	-200,000	-0,011	0,064
-635,838	164,883	0,058	-0,059
-634,824	48,947	-0,124	-0,084
-633,809	800,000	0,031	0,088
-632,795	313,992	0,122	0,167
-631,780	-66,534	0,147	-0,042
-630,765	675,903	0,059	0,111
-629,751	-75,824	-0,153	0,039
-628,736	113,437	-0,125	-0,110
-627,722	-200,000	0,006	0,078
-626,707	340,823	-0,080	0,113
-625,692	-89,028	0,071	0,015
-624,678	-39,207	-0,026	0,010
-623,663	-142,987	-0,070	0,005
-622,649	144,239	-0,091	-0,088
-621,634	-49,428	0,047	-0,016
-620,619	457,030	-0,017	-0,027
-619,605	-173,920	0,101	0,002
-618,590	800,000	-0,014	-0,036
-617,576	-46,545	0,065	0,023
-616,561	418,088	-0,062	-0,096
-615,546	-200,000	0,036	-0,144
-614,532	199,936	0,043	-0,048
-613,517	676,425	-0,074	-0,139
-612,503	800,000	-0,021	0,055
-611,488	433,787	-0,016	0,025
-610,474	66,535	-0,062	0,046
-609,459	-87,484	-0,074	-0,016
-608,444	-200,000	0,013	-0,141
-607,430	-200,000	-0,028	-0,107
-606,415	106,736	0,068	-0,058
-605,401	61,964	-0,036	-0,026
-604,386	800,000	0,050	0,103
-603,371	44,908	-0,093	0,062
-602,357	188,505	-0,064	0,069
-601,342	-54,471	-0,144	-0,047
-600,328	-139,212	-0,130	0,010
-599,313	89,157	-0,054	-0,044
-598,298	101,184	0,079	-0,066
-597,284	316,650	-0,083	0,113
-596,269	392,792	0,103	-0,155
-595,255	-200,000	0,000	-0,083
-594,240	-52,990	-0,182	-0,060
-593,225	2,457	-0,064	0,034
-592,211	-155,254	-0,105	0,005
-591,196	-96,766	0,127	0,024
-590,182	-23,759	0,127	-0,055
-589,167	82,896	0,026	0,020
-588,152	327,744	-0,053	0,073
-587,138	46,367	0,089	0,059
-586,123	97,877	-0,084	-0,069
-585,109	55,047	0,031	0,022
-584,094	439,282	0,083	-0,132
-583,079	9,384	-0,095	-0,052
-582,065	91,221	0,075	-0,061
-581,050	678,739	0,022	-0,042
-580,036	800,000	-0,065	-0,203
-579,021	-200,000	-0,001	-0,102
-578,006	17,601	-0,128	0,073
-576,992	246,371	0,091	-0,111
-575,977	-200,000	-0,062	0,229
-574,963	800,000	-0,014	0,042
-573,948	800,000	0,063	0,147
-572,934	-52,073	-0,105	-0,035
-571,919	29,332	-0,026	0,016
-570,904	-81,001	0,208	-0,049
-569,890	-200,000	0,009	-0,089
-568,875	0,095	0,066	0,034
-567,861	-200,000	0,003	-0,056
-566,846	-59,017	0,030	-0,009
-565,831	24,658	-0,043	0,025
-564,817	63,403	-0,040	-0,029
-563,802	155,565	-0,188	-0,187
-562,788	-89,113	-0,050	0,011
-561,773	359,847	-0,051	0,073
-560,758	-31,502	0,085	0,034
-559,744	170,432	-0,093	0,096
-558,729	91,086	0,094	0,076
-557,715	-11,560	0,075	-0,035
-556,700	800,000	-0,064	-0,170
-555,685	87,263	0,112	-0,089
-554,671	-39,997	0,017	-0,007
-553,656	174,010	-0,043	-0,045
-552,642	-96,197	0,176	0,033
-551,627	-17,226	-0,147	-0,067
-550,612	-142,136	-0,041	0,003
-549,598	252,078	-0,047	0,058
-548,583	-27,185	-0,064	0,027
-547,569	-75,117	0,027	-0,007
-546,554	744,841	0,083	0,162
-545,539	-200,000	0,048	0,218
-544,525	276,110	-0,044	0,057
-543,510	-83,764	-0,010	-0,002
-542,496	-31,677	-0,134	-0,054
-541,481	739,562	0,066	-0,128
-540,466	69,385	0,013	-0,009
-539,452	800,000	-0,019	0,049
-538,437	800,000	0,029	0,091
-537,423	65,091	0,049	0,036
-536,408	-200,000	0,024	0,082
-535,393	-200,000	-0,000	-0,035
-534,379	-9,252	-0,054	0,026
-533,364	113,496	0,112	0,098
-532,350	14,314	0,074	0,041
-531,335	-200,000	-0,016	0,061
-530,321	-73,147	-0,093	-0,024
-529,306	338,171	0,078	0,110
-528,291	-200,000	-0,032	0,132
-527,277	126,946	-0,015	-0,013
-526,262	39,055	-0,082	0,053
-525,248	-42,409	-0,033	-0,012
-524,233	217,352	0,075	-0,086
-523,218	-200,000	-0,001	0,040
-522,204	-28,812	0,119	0,049
-521,189	-200,000	-0,023	-0,089
-520,175	-118,319	-0,041	-0,005
-519,160	584,203	0,055	-0,097
-518,145	-69,432	0,035	-0,010
-517,131	-181,170	0,086	-0,001
-516,116	-200,000	-0,040	0,218
-515,102	-200,000	0,002	0,047
-514,087	350,258	0,098	-0,139
-513,072	124,613	-0,095	-0,086
-512,058	749,994	-0,042	0,082
-511,043	-12,702	0,024	-0,011
-510,029	-200,000	-0,013	-0,116
-509,014	-127,619	-0,023	-0,002
-507,999	-18,756	0,043	-0,019
-506,985	260,806	-0,138	-0,172
-505,970	8,925	-0,139	-0,075
-504,956	38,806	-0,067	-0,043
-503,941	-200,000	0,005	0,066
-502,926	145,043	0,122	0,117
-501,912	-200,000	0,007	0,075
-500,897	-118,411	-0,033	0,004
-499,883	-200,000	-0,023	0,110
-498,868	450,663	-0,035	-0,055
-497,853	-88,682	-0,023	-0,005
-496,839	-84,368	0,140	0,032
-495,824	-200,000	0,014	0,086
-494,810	10,905	0,226	0,124
-493,795	-65,846	-0,090	-0,026
-492,781	8,837	-0,148	0,080
-491,766	-200,000	-0,022	0,081
-490,751	114,717	0,061	-0,054
-489,737	77,789	-0,040	-0,030
-488,722	800,000	0,027	0,077
-487,708	-200,000	0,010	0,062
-486,693	-200,000	0,013	0,069
-485,678	-62,352	-0,117	0,035
-484,664	209,538	0,067	-0,075
-483,649	45,504	-0,108	-0,071
-482,635	-200,000	-0,007	-0,118
-481,620	-200,000	0,014	0,076
-480,605	-151,304	0,115	-0,006
-479,591	-200,000	-0,036	-0,128
-478,576	739,422	0,056	-0,108
-477,562	-167,612	0,129	0,004
-476,547	302,655	-0,047	-0,063
-475,532	-200,000	0,002	0,053
-474,518	53,668	0,073	-0,050
-473,503	-200,000	0,025	0,079
-472,489	183,434	-0,090	-0,095
-471,474	-68,315	-0,102	0,028
-470,459	328,942	-0,053	0,073
-469,445	23,686	0,132	0,078
-468,430	-142,137	-0,105	-0,007
-467,416	-140,893	0,071	0,005
-466,401	-45,847	0,160	0,056
-465,386	800,000	-0,006	0,011
-464,372	800,000	0,016	-0,033
-463,357	86,905	-0,092	-0,073
-462,343	800,000	-0,021	-0,050
-461,328	-40,079	0,038	-0,014
-460,313	-46,417	0,138	-0,048
-459,299	667,766	0,071	-0,132
-458,284	800,000	0,075	-0,160
-457,270	179,187	0,071	0,074
-456,255	3,875	-0,041	0,021
-455,241	-60,606	-0,114	-0,034
-454,226	800,000	-0,040	-0,098
-453,211	152,727	0,094	0,093
-452,197	800,000	0,050	0,128
-451,182	256,175	0,038	-0,047
-450,168	41,936	0,003	-0,002
-449,153	274,447	-0,076	0,097
-448,138	33,964	-0,088	-0,055
-447,124	-200,000	0,015	-0,171
-446,109	13,031	0,077	-0,042
-445,095	155,763	-0,067	0,066
-444,080	144,478	0,012	-0,012
-443,065	-64,885	-0,031	-0,009
-442,051	-200,000	0,024	-0,149
-441,036	219,540	-0,095	-0,109
-440,022	109,544	0,056	-0,048
-439,007	-45,879	0,050	0,018
-437,992	45,991	-0,047	0,031
-436,978	-200,000	-0,020	0,088
-435,963	8,652	-0,123	-0,066
-434,949	-60,029	0,041	-0,012
-433,934	436,855	-0,042	0,065
-432,919	-51,855	-0,175	-0,058
-431,905	-135,988	-0,100	0,008
-430,890	7,091	-0,040	0,021
-429,876	253,501	0,020	-0,025
-428,861	273,688	-0,048	-0,061
-427,846	173,624	0,019	-0,020
-426,832	70,115	-0,136	-0,100
-425,817	-200,000	0,001	0,030
-424,803	800,000	0,029	0,080
-423,788	800,000	-0,045	0,123
-422,773	800,000	-0,087	0,180
-421,759	20,000	0,091	0,052
-420,744	-200,000	-0,006	-0,044
-419,730	-10,163	-0,158	0,075
-418,715	178,526	-0,094	-0,098
-417,701	-152,258	0,024	-0,001
-416,686	-90,373	-0,163	-0,034
-415,671	-49,481	0,264	0,090
-414,657	-200,000	0,003	0,118
-413,642	-200,000	-0,007	0,030
-412,628	-81,265	0,083	-0,019
-411,613	-39,507	-0,118	-0,044
-410,598	-200,000	-0,013	-0,073
-409,584	-200,000	-0,002	0,039
-408,569	66,500	-0,090	0,065
-407,555	149,931	-0,022	-0,021
-406,540	263,946	0,099	-0,123
-405,525	503,389	0,040	-0,067
-404,511	-148,611	-0,097	0,006
-403,496	336,348	0,006	-0,009
-402,482	-85,955	0,122	0,027
-401,467	45,480	-0,077	-0,051
-400,452	-200,000	-0,010	0,138
-399,438	800,000	-0,029	0,071
-398,423	-12,075	-0,052	-0,024
-397,409	-67,230	0,009	0,002
-396,394	-200,000	-0,019	0,159
-395,379	544,710	-0,018	0,031
-394,365	-200,000	-0,023	0,103
-393,350	-200,000	0,000	0,036
-392,336	-200,000	0,037	0,155
-391,321	302,228	0,041	-0,054
-390,306	140,686	-0,093	-0,088
-389,292	24,261	0,077	0,045
-388,277	-200,000	0,001	0,006
-387,263	57,071	-0,104	-0,072
-386,248	154,175	0,084	0,082
-385,233	142,211	0,072	0,068
-384,219	-200,000	-0,014	0,088
-383,204	-69,713	-0,126	-0,034
-382,190	-200,000	0,016	-0,091
-381,175	-147,070	-0,034	-0,002
-380,160	-200,000	-0,001	-0,080
-379,146	-191,998	0,114	-0,001
-378,131	131,600	0,146	-0,134
-377,117	-35,033	-0,095	-0,037
-376,102	800,000	0,043	-0,090
-375,088	-48,168	0,203	0,070
-374,073	-10,263	0,090	-0,042
-373,058	7,815	-0,040	0,021
-372,044	800,000	-0,060	-0,127
-371,029	241,871	-0,063	0,075
-370,015	62,860	0,113	0,081
-369,000	-200,000	-0,027	-0,108
-367,985	-200,000	-0,002	-0,020
-366,971	-200,000	-0,011	0,113
-365,956	-200,000	0,016	0,056
-364,942	-154,157	0,093	0,004
-363,927	208,525	-0,008	-0,009
-362,912	396,735	0,034	0,050
-361,898	800,000	-0,035	-0,084
-360,883	-200,000	-0,007	-0,112
-359,869	159,108	0,024	0,024
-358,854	-130,812	0,008	-0,001
-357,839	-16,033	-0,041	-0,019
-356,825	-131,989	0,034	0,003
-355,810	-200,000	0,016	-0,091
-354,796	-200,000	-0,015	-0,112
-353,781	101,055	-0,014	-0,012
-352,766	174,801	0,092	-0,095
-351,752	169,577	0,102	-0,104
-350,737	256,189	0,028	-0,034
-349,723	-108,496	0,039	-0,006
-348,708	291,255	0,103	0,134
-347,693	41,665	0,035	0,022
-346,679	338,989	-0,026	-0,036
-345,664	-91,420	0,087	-0,018
-344,650	800,000	0,030	-0,085
-343,635	800,000	0,027	0,081
-342,620	-10,602	0,096	0,045
-341,606	363,608	-0,049	0,071
-340,591	-78,544	0,071	0,017
-339,577	8,993	-0,082	-0,044
-338,562	393,271	-0,057	-0,084
-337,548	-155,356	0,239	-0,011
-336,533	800,000	0,004	0,010
-335,518	-83,278	0,084	-0,019
-334,504	800,000	0,087	0,260
-333,489	91,608	-0,045	-0,036
-332,475	25,657	-0,147	-0,087
-331,460	202,132	0,028	0,031
-330,445	11,878	-0,060	-0,033
-329,431	-200,000	0,006	0,082
-328,416	-200,000	-0,028	0,140
-327,402	722,101	0,029	0,056
-326,387	-200,000	-0,012	0,077
-325,372	-200,000	0,039	-0,192
-324,358	800,000	-0,033	-0,070
-323,343	45,784	0,065	0,043
-322,329	-164,033	0,083	-0,003
-321,314	-76,219	-0,072	-0,018
-320,299	-200,000	0,016	-0,128
-319,285	-10,189	0,093	0,044
-318,270	800,000	-0,016	-0,035
-317,256	261,994	-0,038	-0,047
-316,241	-122,077	-0,051	0,006
-315,226	800,000	-0,013	0,031
-314,212	-59,603	0,167	0,051
-313,197	81,969	0,051	0,040
-312,183	800,000	0,005	-0,013
-311,168	-200,000	-0,006	0,018
-310,153	-169,901	-0,091	-0,002
-309,139	800,000	0,059	-0,165
-308,124	83,023	0,125	0,097
-307,110	25,548	-0,035	0,021
-306,095	433,933	0,018	-0,027
-305,080	11,938	0,047	-0,026
-304,066	-200,000	0,010	0,069
-303,051	73,646	-0,039	0,029
-302,037	-22,424	0,070	-0,030
-301,022	168,755	0,017	0,017
-300,008	-200,000	0,031	-0,111
-298,993	-57,569	0,078	-0,024
-297,978	-200,000	-0,010	0,090
-296,964	577,199	-0,025	0,044
-295,949	800,000	-0,081	0,163
-294,935	-87,450	0,163	0,035
-293,920	169,706	0,086	0,088
-292,905	71,145	0,079	-0,058
-291,891	720,750	0,028	-0,053
-290,876	800,000	0,029	-0,063
-289,862	-200,000	-0,005	0,032
-288,847	-150,019	-0,027	-0,001
-287,832	800,000	0,017	-0,054
-286,818	100,371	0,185	0,153
-285,803	-108,439	0,040	0,006
-284,789	-16,384	0,115	-0,052
-283,774	-100,390	0,192	-0,033
-282,759	151,612	0,042	-0,041
-281,745	-111,116	-0,109	-0,016
-280,730	99,720	-0,051	0,042
-279,716	-20,678	0,123	0,053
-278,701	-98,044	0,042	-0,008
-277,686	-13,109	0,120	0,055
-276,672	-116,258	-0,125	-0,016
-275,657	350,505	-0,040	-0,056
-274,643	800,000	-0,026	-0,073
-273,628	-175,971	-0,140	0,003
-272,613	-91,969	-0,058	0,012
-271,599	255,346	0,039	0,048
-270,584	424,188	0,053	0,082
-269,570	51,671	0,105	-0,071
-268,555	30,115	-0,046	-0,028
-267,540	-200,000	0,029	-0,125
-266,526	-2,648	-0,057	0,028
-265,511	225,678	0,073	0,085
-264,497	-30,134	-0,050	-0,020
-263,482	800,000	-0,032	0,069
-262,467	291,348	-0,052	0,068
-261,453	206,437	-0,048	-0,054
-260,438	800,000	-0,081	-0,186
-259,424	45,985	0,058	0,038
-258,409	800,000	0,029	-0,082
-257,395	800,000	0,065	0,159
-256,380	-71,860	0,091	-0,024
-255,365	-200,000	-0,003	0,063
-254,351	10,802	-0,125	-0,068
-253,336	-38,896	0,031	-0,012
-252,322	473,785	-0,037	0,060
-251,307	321,427	0,047	-0,063
-250,292	723,799	-0,037	-0,071
-249,278	-200,000	0,007	-0,138
-248,263	-48,487	0,132	0,045
-247,249	-115,092	0,035	-0,005
-246,234	-157,763	-0,040	-0,002
-245,219	800,000	0,014	0,036
-244,205	-200,000	-0,004	0,217
-243,190	-200,000	0,022	-0,136
-242,176	34,037	-0,003	-0,002
-241,161	-200,000	-0,011	-0,061
-240,146	800,000	0,015	0,046
-239,132	664,237	0,067	-0,124
-238,117	-200,000	0,023	0,088
-237,103	-175,155	-0,057	-0,001
-236,088	102,149	-0,087	0,072
-235,073	574,181	0,056	0,097
-234,059	800,000	0,026	-0,063
-233,044	-164,509	0,164	-0,005
-232,030	800,000	-0,041	-0,107
-231,015	-200,000	-0,000	0,006
-230,000	-200,000	0,010	-0,099
-228,986	-200,000	-0,010	-0,087
-227,971	580,738	0,024	0,042
-226,957	185,906	-0,073	0,077
-225,942	-200,000	-0,001	-0,086
-224,927	-34,672	-0,084	-0,032
-223,913	-200,000	0,010	0,060
-222,898	281,939	0,078	0,099
-221,884	365,335	0,041	0,059
-220,869	-78,074	-0,101	0,025
-219,855	-200,000	-0,004	0,065
-218,840	-137,288	-0,095	-0,008
-217,825	90,911	0,075	-0,060
-216,811	-47,975	-0,058	-0,020
-215,796	-93,338	-0,044	-0,009
-214,782	-111,829	-0,106	0,015
-213,767	-79,423	0,094	0,023
-212,752	-81,594	-0,036	-0,008
-211,738	-16,820	0,129	0,057
-210,723	-200,000	0,009	0,073
-209,709	39,792	-0,104	0,066
-208,694	800,000	-0,030	0,086
-207,679	-200,000	-0,006	-0,028
-206,665	189,563	0,064	0,068
-205,650	321,661	0,034	0,046
-204,636	-2,756	0,059	-0,029
-203,621	-200,000	-0,015	-0,059
-202,606	800,000	-0,058	0,124
-201,592	75,016	-0,010	0,007
-200,577	-200,000	-0,005	-0,056
-199,563	-200,000	0,014	0,136
-198,548	278,385	0,082	-0,103
-197,533	434,927	-0,011	0,017
-196,519	-200,000	-0,001	-0,029
-195,504	659,420	0,012	0,022
-194,490	-200,000	-0,009	-0,048
-193,475	696,820	-0,087	-0,163
-192,460	-200,000	-0,006	-0,088
-191,446	153,550	0,091	-0,089
-190,431	290,170	0,044	0,057
-189,417	739,236	-0,059	0,113
-188,402	114,009	0,114	-0,098
-187,387	-200,000	-0,006	0,039
-186,373	800,000	-0,035	-0,092
-185,358	377,206	-0,070	-0,102
-184,344	-200,000	0,007	0,105
-183,329	89,477	-0,106	-0,084
-182,315	260,138	-0,077	0,094
-181,300	-200,000	-0,003	-0,104
-180,285	-200,000	0,015	0,048
-179,271	800,000	0,020	-0,040
-178,256	-120,742	-0,040	0,005
-177,242	-167,181	-0,059	0,002
-176,227	145,615	0,117	-0,111
-175,212	48,401	0,079	-0,052
-174,198	383,270	-0,055	0,080
-173,183	800,000	-0,043	-0,096
-172,169	-153,551	-0,007	-0,000
-171,154	417,530	-0,033	0,051
-170,139	52,354	0,071	0,048
-169,125	190,240	0,076	-0,081
-168,110	-34,430	0,001	0,000
-167,096	-108,220	-0,036	0,005
-166,081	121,265	-0,165	0,145
-165,066	-93,753	-0,077	-0,015
-164,052	93,204	-0,159	0,127
-163,037	800,000	-0,067	0,165
-162,023	70,310	-0,111	0,081
-161,008	-148,830	0,053	-0,003
-159,993	-155,747	-0,026	0,001
-158,979	296,869	-0,105	-0,136
-157,964	-14,613	-0,070	0,032
-156,950	541,287	-0,067	-0,114
-155,935	120,835	-0,098	0,086
-154,920	800,000	0,029	0,070
-153,906	104,369	0,047	0,040
-152,891	-7,130	-0,113	0,054
-151,877	-200,000	-0,001	-0,039
-150,862	800,000	-0,089	-0,175
-149,847	173,222	-0,152	-0,155
-148,833	-38,235	0,175	0,065
-147,818	-17,007	-0,058	-0,026
-146,804	-200,000	0,024	0,111
-145,789	-142,609	0,079	0,005
-144,775	-173,791	-0,050	0,001
-143,760	-46,882	-0,061	0,021
-142,745	66,299	0,022	0,016
-141,731	-77,555	0,144	0,035
-140,716	-8,094	-0,103	-0,049
-139,702	-178,125	0,132	0,002
-138,687	640,291	-0,062	-0,112
-137,672	183,823	-0,078	0,082
-136,658	13,534	-0,153	0,084
-135,643	-81,889	-0,082	0,019
-134,629	242,043	0,040	0,048
-133,614	-100,140	0,137	-0,024
-132,599	51,214	-0,104	0,070
-131,585	538,268	0,045	0,076
-130,570	69,331	-0,117	0,085
-129,556	-121,791	-0,121	0,014
-128,541	428,613	-0,063	-0,097
-127,526	800,000	-0,019	0,057
-126,512	139,427	0,134	0,124
-125,497	127,095	0,080	-0,072
-124,483	429,108	-0,042	0,064
-123,468	-200,000	0,005	0,023
-122,453	-29,007	-0,128	0,052
-121,439	-200,000	-0,004	-0,044
-120,424	576,015	0,005	-0,009
-119,410	477,766	0,045	0,072
-118,395	141,167	0,062	0,058
-117,380	-7,707	0,085	0,040
-116,366	651,743	0,079	0,144
-115,351	-99,725	0,082	-0,014
-114,337	253,443	-0,053	-0,064
-113,322	-14,395	-0,078	-0,035
-112,307	261,531	0,026	-0,032
-111,293	60,456	-0,082	-0,057
-110,278	-200,000	-0,003	0,176
-109,264	91,507	0,117	0,093
-108,249	-200,000	-0,017	0,094
-107,234	260,006	-0,043	0,053
-106,220	243,504	-0,070	-0,083
-105,205	62,645	-0,070	-0,049
-104,191	794,938	-0,014	0,027
-103,176	97,621	0,099	0,080
-102,162	-200,000	-0,013	0,125
-101,147	-200,000	0,001	-0,089
-100,132	-119,360	0,026	0,003
-99,118	124,556	0,028	0,025
-98,103	265,155	0,031	0,038
-97,089	18,448	-0,070	-0,039
-96,074	-109,514	-0,027	0,004
-95,059	147,539	0,079	-0,076
-94,045	800,000	-0,051	0,128
-93,030	-147,616	-0,111	0,006
-92,016	148,036	-0,125	-0,119
-91,001	-105,512	0,175	-0,028
-89,986	70,778	0,074	-0,054
-88,972	297,631	0,055	-0,072
-87,957	5,263	0,084	-0,044
-86,943	800,000	0,056	0,123
-85,928	-200,000	-0,004	-0,139
-84,913	-149,133	-0,054	0,003
-83,899	511,845	0,015	0,024
-82,884	800,000	-0,010	0,031
-81,870	-200,000	0,010	0,221
-80,855	800,000	0,095	0,218
-79,840	332,386	-0,068	0,093
-78,826	95,666	-0,097	0,078
-77,811	87,483	-0,092	0,072
-76,797	413,371	0,041	-0,061
-75,782	588,833	0,037	0,065
-74,767	185,945	0,044	0,047
-73,753	-200,000	0,001	-0,076
-72,738	-135,196	-0,028	0,002
-71,724	-140,254	-0,073	-0,005
-70,709	218,740	0,092	-0,104
-69,694	26,956	-0,062	-0,037
-68,680	52,756	-0,026	-0,017
-67,665	36,320	0,042	-0,026
-66,651	800,000	-0,040	0,094
-65,636	253,502	0,064	-0,077
-64,622	-108,290	0,047	-0,007
-63,607	277,183	-0,075	0,094
-62,592	-111,250	-0,070	-0,010
-61,578	800,000	-0,052	-0,121
-60,563	172,402	-0,066	-0,067
-59,549	-200,000	-0,019	0,192
-58,534	47,293	-1,903	-1,249
-57,519	549,578	-1,068	-1,813
-56,505	-200,000	-0,325	-4,349
-55,490	639,283	0,863	1,556
-54,476	800,000	5,049	11,210
-53,461	-200,000	21,681	345,445
-52,446	800,000	763,582	2345,536
-51,432	547,458	1662,851	2819,365
-50,417	71,547	1659,561	1214,831
-49,403	17,282	1532,714	855,962
-48,388	11,303	1456,774	784,651
-47,373	19,363	1448,322	818,718
-46,359	14,830	1437,152	790,838
-45,344	9,569	1432,913	763,448
-44,330	9,517	1431,294	762,306
-43,315	9,473	1429,447	761,084
-42,300	9,501	1427,725	760,266
-41,286	9,565	1426,474	759,875
-40,271	9,524	1425,192	758,967
-39,257	9,543	1423,943	758,365
-38,242	9,512	1423,086	757,731
-37,227	9,480	1422,286	757,122
-36,213	9,538	1420,681	756,511
-35,198	9,546	1419,453	755,864
-34,184	9,572	1418,448	755,421
-33,169	9,474	1416,982	754,149
-32,154	9,540	1416,123	753,973
-31,140	9,535	1414,766	753,198
-30,125	9,612	1413,455	752,830
-29,111	9,551	1412,610	752,064
-28,096	9,549	1411,397	751,380
-27,082	9,487	1410,105	750,375
-26,067	9,488	1409,100	749,812
-25,052	9,478	1408,168	749,240
-24,038	9,506	1407,076	748,763
-23,023	9,489	1406,245	748,207
-22,009	9,495	1405,079	747,589
-20,994	9,477	1404,237	747,023
-19,979	9,465	1403,344	746,464
-18,965	9,468	1402,352	745,920
-17,950	9,403	1401,491	745,129
-16,936	9,449	1400,522	744,799
-15,921	9,432	1399,573	744,187
-14,906	9,402	1398,660	743,533
-13,892	9,386	1397,748	742,945
-12,877	9,353	1397,098	742,414
-11,863	9,395	1395,893	741,942
-10,848	9,344	1395,274	741,343
-9,833	9,298	1394,410	740,645
-8,819	9,288	1393,416	740,043
-7,804	9,263	1392,534	739,428
-6,790	9,286	1391,248	738,820
-5,775	9,333	1390,220	738,463
-4,760	9,326	1389,385	737,959
-3,746	9,327	1388,323	737,371
-2,731	9,300	1387,789	736,932
-1,717	9,329	1386,666	736,440
-0,702	9,283	1384,944	735,284
0,313	13,432	1297,046	707,534
1,327	29,611	687,703	411,700
2,342	46,011	118,933	77,489
3,356	-1,104	16,551	8,224
4,371	-3,632	3,619	1,767
5,386	9,994	1,157	0,618
6,400	-200,000	0,146	0,657
7,415	-64,313	-0,306	-0,087
8,429	240,999	-0,207	-0,244
9,444	-6,729	-0,411	-0,196
10,459	41,520	-0,371	-0,236
11,473	92,595	-0,351	-0,279
12,488	33,743	-0,219	-0,134
13,502	-43,932	-0,341	-0,120
14,517	165,672	-0,345	-0,344
15,531	99,360	-0,353	-0,288
16,546	37,127	-0,396	-0,246
17,561	65,831	-0,371	-0,264
18,575	24,526	-0,195	-0,114
19,590	136,963	-0,256	-0,236
20,604	-4,976	-0,194	-0,094
21,619	383,143	-0,285	-0,414
22,634	57,079	-0,521	-0,357
23,648	180,321	-0,317	-0,328
24,663	136,573	-0,307	-0,282
25,677	39,296	-0,404	-0,254
26,692	151,622	-0,180	-0,173
27,707	103,383	-0,420	-0,346
28,721	-8,366	-0,401	-0,189
29,736	-21,567	-0,382	-0,163
30,750	-20,917	-0,498	-0,214
31,765	13,950	-0,352	-0,192
32,780	-25,710	-0,321	-0,132
33,794	10,053	-0,398	-0,212
34,809	-50,915	-0,409	-0,134
35,823	387,255	-0,256	-0,373
36,838	190,911	-0,297	-0,315
37,853	27,005	-0,375	-0,221
38,867	118,890	-0,383	-0,332
39,882	309,343	-0,218	-0,287
40,896	54,758	-0,338	-0,229
41,911	65,530	-0,410	-0,291
42,926	126,442	-0,184	-0,164
43,940	237,926	-0,288	-0,337
44,955	29,316	-0,381	-0,227
45,969	37,641	-0,287	-0,179
46,984	12,315	-0,417	-0,225
47,999	88,255	-0,330	-0,257
49,013	173,390	-0,355	-0,360
50,028	115,712	-0,353	-0,303
51,042	234,874	-0,356	-0,413
52,057	124,774	-0,384	-0,339
53,071	111,751	-0,209	-0,177
54,086	144,226	-0,255	-0,239
55,101	-28,557	-0,341	-0,137
56,115	22,173	-0,323	-0,185
57,130	-34,406	-0,501	-0,192
58,144	-46,665	-0,204	-0,070
59,159	186,615	-0,289	-0,302
60,174	122,737	-0,410	-0,360
61,188	41,869	-0,320	-0,203
62,203	13,918	-0,351	-0,191
63,217	241,363	-0,179	-0,210
64,232	92,746	-0,372	-0,294
65,247	108,247	-0,221	-0,184
66,261	5,300	-0,375	-0,193
67,276	61,983	-0,270	-0,189
68,290	-36,713	-0,336	-0,126
69,305	46,373	-0,416	-0,270
70,320	287,330	-0,148	-0,188
71,334	87,103	-0,216	-0,167
72,349	-3,099	-0,343	-0,167
73,363	79,650	-0,297	-0,224
74,378	329,228	-0,289	-0,390
75,393	9,521	-0,380	-0,201
76,407	66,964	-0,344	-0,245
77,422	34,145	-0,198	-0,121
78,436	94,628	-0,275	-0,219
79,451	74,033	-0,291	-0,214
80,466	-11,447	-0,400	-0,184
81,480	9,746	-0,342	-0,181
82,495	79,530	-0,289	-0,217
83,509	55,206	-0,308	-0,208
84,524	88,907	-0,226	-0,176
85,539	33,986	-0,288	-0,175
86,553	207,417	-0,252	-0,276
87,568	-2,276	-0,402	-0,197
88,582	165,179	-0,280	-0,277
89,597	242,724	-0,172	-0,201
90,611	301,664	-0,183	-0,237
91,626	249,726	-0,152	-0,181
92,641	284,291	-0,098	-0,124
93,655	74,695	-0,209	-0,154
94,670	120,526	-0,277	-0,241
95,684	-20,969	-0,399	-0,170
96,699	67,485	-0,334	-0,238
97,714	-1,896	-0,351	-0,172
98,728	-16,151	-0,320	-0,142
99,743	90,944	-0,206	-0,162
100,757	2,645	-0,339	-0,171
101,772	131,207	-0,246	-0,221
102,787	295,452	-0,179	-0,230
103,801	25,295	-0,246	-0,142
104,816	-33,345	-0,318	-0,122
105,830	18,934	-0,251	-0,140
106,845	-105,942	-0,221	0,034
107,860	-72,133	-0,388	-0,100
108,874	22,204	-0,273	-0,155
109,889	23,475	-0,379	-0,217
110,903	-26,539	-0,342	-0,139
111,918	-36,211	-0,276	-0,104
112,933	65,927	-0,261	-0,184
113,947	196,707	-0,165	-0,176
114,962	40,936	-0,141	-0,089
115,976	9,713	-0,294	-0,155
116,991	36,735	-0,313	-0,192
118,006	263,854	-0,194	-0,236
119,020	43,210	-0,241	-0,153
120,035	55,171	-0,276	-0,186
121,049	-49,032	-0,191	-0,064
122,064	68,226	-0,200	-0,143
123,079	140,174	-0,214	-0,197
124,093	-8,691	-0,339	-0,158
125,108	37,830	-0,199	-0,123
126,122	87,927	-0,328	-0,253
127,137	61,994	-0,217	-0,151
128,151	55,253	-0,205	-0,138
129,166	127,206	-0,151	-0,134
130,181	-31,464	-0,197	-0,077
131,195	87,622	-0,255	-0,197
132,210	59,737	-0,221	-0,152
133,224	-60,494	-0,167	-0,049
134,239	287,677	-0,174	-0,219
135,254	13,811	-0,236	-0,127
136,268	42,427	-0,314	-0,199
137,283	164,237	-0,210	-0,207
138,297	63,177	-0,198	-0,138
139,312	800,000	-0,140	-0,295
140,327	305,049	-0,249	-0,323
141,341	43,283	-0,208	-0,132
142,356	-41,921	-0,222	-0,079
143,370	216,140	-0,159	-0,176
144,385	8,126	-0,164	-0,085
145,400	-30,075	-0,252	-0,099
146,414	2,246	-0,181	-0,091
147,429	-32,139	-0,296	-0,115
148,443	143,510	-0,232	-0,215
149,458	42,626	-0,227	-0,143
150,473	156,626	-0,267	-0,257
151,487	148,631	-0,230	-0,216
152,502	215,509	-0,206	-0,228
153,516	120,286	-0,197	-0,170
154,531	557,521	-0,144	-0,243
155,546	-24,948	-0,296	-0,122
156,560	151,104	-0,157	-0,149
157,575	80,871	-0,193	-0,145
158,589	192,805	-0,238	-0,251
159,604	11,718	-0,191	-0,101
160,619	26,329	-0,348	-0,201
161,633	425,282	-0,131	-0,197
162,648	43,585	-0,223	-0,141
163,662	-130,501	-0,270	-0,025
164,677	133,437	-0,251	-0,225
165,692	-51,641	-0,311	-0,100
166,706	12,963	-0,327	-0,175
167,721	-61,547	-0,295	-0,086
168,735	68,829	-0,117	-0,084
169,750	152,996	-0,141	-0,134
170,764	-141,080	-0,219	0,015
171,779	159,256	-0,228	-0,220
172,794	62,052	-0,232	-0,160
173,808	169,452	-0,158	-0,157
174,823	-17,856	-0,262	-0,113
175,837	-165,127	-0,267	-0,008
176,852	139,198	-0,256	-0,234
177,867	145,399	-0,128	-0,119
178,881	235,359	-0,175	-0,201
179,896	-29,065	-0,276	-0,109
180,910	-147,691	-0,303	-0,017
181,925	-57,529	-0,246	-0,074
182,940	36,671	-0,249	-0,152
183,954	293,896	-0,109	-0,138
184,969	65,340	-0,233	-0,164
185,983	271,220	-0,070	-0,085
186,998	-109,722	-0,260	0,038
188,013	4,739	-0,330	-0,168
189,027	183,442	-0,137	-0,140
190,042	195,623	-0,197	-0,208
191,056	203,904	-0,240	-0,258
192,071	-104,418	-0,152	0,024
193,086	-100,016	-0,097	0,017
194,100	112,222	-0,158	-0,132
195,115	-200,000	-0,052	-0,162
196,129	58,864	-0,165	-0,112
197,144	42,687	-0,215	-0,135
198,159	171,093	-0,167	-0,166
199,173	126,688	-0,162	-0,143
200,188	-167,071	-0,291	-0,008
201,202	-45,914	-0,285	-0,097
202,217	239,292	-0,191	-0,220
203,232	61,728	-0,136	-0,093
204,246	479,145	-0,152	-0,239
205,261	-24,571	-0,278	-0,114
206,275	303,487	-0,134	-0,172
207,290	354,785	-0,102	-0,141
208,304	-61,324	-0,064	0,018
209,319	159,942	-0,196	-0,189
210,334	-131,020	-0,164	-0,015
211,348	62,662	-0,214	-0,148
212,363	498,072	-0,174	-0,279
213,377	86,388	-0,222	-0,170
214,392	6,652	-0,264	-0,135
215,407	-152,364	-0,190	-0,009
216,421	800,000	-0,050	-0,104
217,436	-17,214	-0,172	-0,075
218,450	182,568	-0,196	-0,201
219,465	-53,693	-0,360	-0,113
220,480	31,506	-0,203	-0,120
221,494	135,633	-0,117	-0,106
222,509	99,333	-0,261	-0,208
223,523	343,135	-0,129	-0,175
224,538	601,309	-0,097	-0,168
225,553	25,846	-0,307	-0,177
226,567	282,982	-0,149	-0,186
227,582	-65,528	-0,237	-0,065
228,596	-72,516	-0,254	-0,065
229,611	-200,000	-0,002	-0,074
230,626	-87,721	-0,097	-0,020
231,640	100,086	-0,248	-0,199
232,655	-3,296	-0,134	-0,064
233,669	400,582	-0,120	-0,175
234,684	24,605	-0,057	-0,033
235,699	336,856	-0,062	-0,083
236,713	54,563	-0,180	-0,119
237,728	800,000	-0,093	-0,180
238,742	-49,179	-0,194	0,064
239,757	35,837	-0,269	-0,163
240,772	356,311	-0,182	-0,251
241,786	129,127	-0,161	-0,142
242,801	-25,373	-0,295	-0,120
243,815	-102,374	-0,162	0,027
244,830	373,997	-0,097	-0,137
245,844	107,299	-0,082	-0,068
246,859	141,638	-0,146	-0,134
247,874	79,491	-0,179	-0,132
248,888	-95,984	-0,229	-0,042
249,903	84,815	-0,068	-0,051
250,917	516,592	-0,136	-0,220
251,932	-149,847	-0,126	0,007
252,947	-89,822	-0,208	-0,042
253,961	34,674	-0,190	-0,114
254,976	35,435	-0,170	-0,103
255,990	-9,700	-0,173	-0,079
257,005	-200,000	-0,045	-0,147
258,020	332,483	-0,098	-0,130
259,034	71,916	-0,229	-0,164
260,049	26,356	-0,157	-0,090
261,063	85,648	-0,231	-0,175
262,078	185,232	-0,160	-0,164
263,093	128,139	-0,204	-0,179
264,107	187,520	-0,181	-0,186
265,122	-82,396	-0,148	0,033
266,136	-6,059	-0,131	-0,061
267,151	213,253	-0,201	-0,219
268,166	-57,488	-0,093	-0,028
269,180	31,727	-0,222	-0,131
270,195	109,560	-0,159	-0,131
271,209	-24,540	-0,223	-0,091
272,224	-43,301	-0,146	-0,051
273,239	-73,028	-0,190	-0,048
274,253	-200,000	-0,004	-0,035
275,268	42,954	-0,212	-0,133
276,282	-19,814	-0,152	-0,064
277,297	93,677	-0,098	-0,076
278,312	-81,661	-0,130	-0,029
279,326	-45,692	-0,114	-0,039
280,341	89,974	-0,148	-0,113
281,355	-200,000	0,029	-0,110
282,370	-27,524	-0,125	-0,050
283,384	168,729	-0,151	-0,148
284,399	-30,952	-0,224	-0,087
285,414	716,742	-0,046	0,084
286,428	35,038	-0,201	-0,121
287,443	51,307	-0,084	-0,055
288,457	244,549	-0,082	-0,095
289,472	144,721	-0,178	-0,163
290,487	167,162	-0,161	-0,157
291,501	29,428	-0,183	-0,107
292,516	280,670	-0,197	-0,242
293,530	-15,232	-0,191	-0,084
294,545	-87,113	-0,115	-0,024
295,560	-71,073	-0,118	-0,030
296,574	-71,082	-0,170	-0,044
297,589	-200,000	-0,054	-0,192
298,603	203,114	-0,161	-0,171
299,618	-35,185	-0,159	-0,059
300,633	226,421	-0,154	-0,172
301,647	30,179	-0,144	-0,084
302,662	-126,384	-0,151	0,015
303,676	73,424	-0,074	-0,053
304,691	258,136	-0,040	-0,047
305,706	-109,872	-0,200	0,029
306,720	114,605	-0,135	-0,113
307,735	232,304	-0,153	-0,172
308,749	-36,944	-0,216	-0,079
309,764	-44,064	-0,149	-0,051
310,779	-97,027	-0,105	0,019
311,793	154,593	-0,143	-0,135
312,808	-200,000	-0,066	-0,395
313,822	37,270	-0,146	-0,089
314,837	66,141	-0,179	-0,125
315,852	-105,214	-0,122	0,019
316,866	180,736	-0,027	-0,027
317,881	85,365	-0,133	-0,100
318,895	-178,001	-0,231	-0,004
319,910	-87,405	-0,121	0,025
320,925	77,759	-0,056	-0,041
321,939	-43,657	-0,103	-0,036
322,954	800,000	-0,072	-0,186
323,968	-200,000	0,041	-0,136
324,983	277,309	-0,086	-0,105
325,997	98,180	-0,151	-0,119
327,012	800,000	-0,057	-0,130
328,027	-147,235	-0,153	0,009
329,041	-200,000	-0,027	-0,110
330,056	-200,000	-0,024	-0,185
331,070	277,984	-0,059	-0,072
332,085	3,265	-0,167	-0,083
333,100	-97,225	-0,134	-0,024
334,114	2,219	-0,175	-0,086
335,129	145,620	-0,187	-0,172
336,143	129,124	-0,133	-0,116
337,158	-156,589	-0,132	-0,006
338,173	-16,163	-0,186	-0,080
339,187	-133,405	-0,051	-0,004
340,202	-107,580	-0,088	-0,013
341,216	-118,249	-0,078	-0,009
342,231	800,000	-0,112	-0,216
343,246	173,412	-0,068	-0,067
344,260	464,426	-0,114	-0,176
345,275	31,068	-0,121	-0,071
346,289	155,119	-0,092	-0,087
347,304	-87,983	-0,143	-0,029
348,319	382,329	-0,123	-0,174
349,333	30,670	-0,241	-0,140
350,348	318,273	-0,095	-0,124
351,362	477,929	-0,053	-0,082
352,377	2,120	-0,171	-0,084
353,392	51,561	-0,080	-0,052
354,406	-140,105	-0,216	-0,015
355,421	206,473	1310,948	1397,295
356,435	158,793	1471,178	1397,763
