DTS Sentinel unit serial number:	SN410029Multiplexer serial number:	ORYXHardware model number:	OX2-SRSoftware version number:	ORYX F/W v4,00 Oryx Data Collector v3.7.2.0data status	okinstallation	B3 Nyhavnadifferential loss correction	single-endedforward channel	channel 1reverse channel	N/Adate	2023/12/04time	10:42:30forward acquisition time	300,00reverse acquisition time	0,00gamma	499,1914k internal	0,3203k external	0,3203temperature offset calibration	1,0000default loss term (dB/km)	0,3820temperature slope calibration	1,0000multiplexer offset coefficient	1,0000multiplexer slope coefficient	1,0000fibre end	0,00T internal ref (°C)	13,65T ext. ref 1 (°C)	-0,69T ext. ref 2 (°C)	-0,72length (m)	temperature (°C)	Stokes	anti-Stokes-744,400	157,252	-0,306	-0,308
-743,385	-200,000	0,022	0,236
-742,371	-200,000	-0,040	-0,196
-741,356	-200,000	-0,061	0,220
-740,342	157,239	-0,158	-0,159
-739,327	-200,000	-0,068	0,342
-738,312	161,122	-0,202	-0,206
-737,298	-200,000	0,043	0,209
-736,283	800,000	-0,067	-0,184
-735,269	-200,000	-0,071	0,319
-734,254	61,209	-0,209	-0,151
-733,239	-72,484	-0,308	0,082
-732,225	-200,000	-0,020	-0,225
-731,210	-200,000	0,011	0,055
-730,196	-102,863	0,047	-0,008
-729,181	-200,000	-0,018	-0,118
-728,167	800,000	0,022	-0,045
-727,152	106,033	-0,098	-0,085
-726,137	-200,000	-0,002	-0,139
-725,123	139,639	-0,092	-0,088
-724,108	517,560	-0,108	-0,184
-723,094	-200,000	0,033	-0,155
-722,079	160,871	-0,121	-0,122
-721,064	-148,974	-0,158	-0,009
-720,050	-9,475	-0,164	-0,079
-719,035	138,983	0,057	-0,054
-718,021	59,827	-0,118	0,084
-717,006	184,625	-0,152	-0,164
-715,991	238,934	-0,062	-0,075
-714,977	14,787	-0,104	-0,059
-713,962	367,783	-0,090	-0,132
-712,948	392,593	-0,023	0,035
-711,933	7,949	-0,154	0,084
-710,918	-200,000	0,003	0,016
-709,904	48,304	-0,037	-0,025
-708,889	800,000	-0,089	-0,234
-707,875	-200,000	0,001	-0,188
-706,860	800,000	-0,029	0,068
-705,845	7,710	0,027	-0,014
-704,831	164,410	0,052	0,054
-703,816	700,182	0,000	-0,001
-702,802	-52,898	-0,033	-0,011
-701,787	-200,000	-0,041	-0,157
-700,772	-82,353	-0,018	-0,004
-699,758	-200,000	-0,023	-0,179
-698,743	364,956	-0,035	0,052
-697,729	-200,000	-0,022	0,148
-696,714	42,357	-0,040	0,026
-695,699	-92,204	0,139	0,028
-694,685	5,800	-0,073	-0,039
-693,670	-200,000	-0,009	-0,103
-692,656	-93,042	0,095	-0,019
-691,641	-200,000	-0,006	-0,025
-690,627	-200,000	-0,001	-0,033
-689,612	101,815	0,065	-0,055
-688,597	800,000	-0,028	-0,083
-687,583	277,459	0,060	-0,078
-686,568	-200,000	0,008	0,048
-685,554	506,183	-0,100	-0,169
-684,539	800,000	0,058	-0,168
-683,524	800,000	-0,046	0,095
-682,510	126,416	-0,075	-0,068
-681,495	-34,988	-0,048	-0,019
-680,481	-97,189	0,077	-0,015
-679,466	407,956	-0,052	-0,081
-678,451	-200,000	0,011	-0,143
-677,437	800,000	0,048	-0,108
-676,422	-116,678	-0,059	-0,008
-675,408	800,000	0,079	0,167
-674,393	-43,119	-0,096	-0,035
-673,378	800,000	-0,029	-0,062
-672,364	107,294	0,018	-0,016
-671,349	35,659	-0,141	-0,090
-670,335	162,138	0,126	-0,128
-669,320	279,684	-0,037	-0,048
-668,305	139,889	-0,045	-0,043
-667,291	599,977	0,034	0,062
-666,276	800,000	-0,034	-0,083
-665,262	45,539	-0,050	-0,033
-664,247	322,879	0,068	-0,094
-663,232	800,000	0,062	-0,163
-662,218	12,204	-0,029	0,016
-661,203	-200,000	-0,004	0,056
-660,189	-200,000	-0,002	0,037
-659,174	-200,000	-0,008	-0,079
-658,159	31,717	-0,199	-0,124
-657,145	-12,690	-0,140	-0,066
-656,130	164,536	-0,099	0,102
-655,116	-160,717	0,003	0,000
-654,101	52,277	-0,039	0,027
-653,086	78,899	-0,078	0,060
-652,072	-200,000	0,025	-0,093
-651,057	-200,000	0,005	-0,035
-650,043	669,591	-0,062	-0,116
-649,028	-114,992	-0,017	0,002
-648,014	768,409	0,020	-0,039
-646,999	-200,000	0,007	-0,055
-645,984	184,219	0,041	0,044
-644,970	800,000	-0,040	-0,104
-643,955	-66,105	-0,221	-0,064
-642,941	95,617	-0,087	0,072
-641,926	696,193	-0,059	-0,112
-640,911	299,578	0,017	0,023
-639,897	-200,000	-0,006	0,117
-638,882	-103,914	0,061	-0,010
-637,868	-161,944	-0,070	-0,003
-636,853	-200,000	-0,014	-0,076
-635,838	556,167	-0,050	-0,087
-634,824	-130,518	-0,081	0,008
-633,809	-200,000	-0,007	0,050
-632,795	-56,355	0,047	0,015
-631,780	59,971	0,162	0,116
-630,765	539,122	-0,031	0,053
-629,751	-67,320	-0,169	-0,048
-628,736	416,428	-0,066	-0,102
-627,722	4,451	0,084	0,045
-626,707	800,000	0,009	-0,025
-625,692	-104,403	0,043	-0,007
-624,678	-200,000	0,030	-0,114
-623,663	370,129	-0,007	0,010
-622,649	-17,550	-0,132	-0,060
-621,634	-200,000	-0,009	-0,039
-620,619	-200,000	0,022	-0,078
-619,605	-144,421	0,278	-0,018
-618,590	-55,881	0,023	0,007
-617,576	666,273	0,057	0,108
-616,561	-90,143	-0,061	0,013
-615,546	67,204	-0,076	0,056
-614,532	251,620	0,108	-0,133
-613,517	42,805	-0,016	-0,011
-612,503	-116,860	-0,134	0,018
-611,488	-27,743	-0,036	0,015
-610,474	800,000	0,042	0,109
-609,459	-200,000	-0,034	0,112
-608,444	380,761	-0,022	-0,032
-607,430	-107,182	-0,048	0,008
-606,415	-86,686	-0,161	-0,035
-605,401	64,879	-0,025	-0,019
-604,386	3,104	-0,007	0,004
-603,371	314,588	-0,147	-0,200
-602,357	-34,523	0,089	-0,035
-601,342	800,000	0,009	0,019
-600,328	800,000	-0,083	-0,197
-599,313	52,614	-0,095	-0,065
-598,298	-169,596	-0,240	0,006
-597,284	239,940	0,061	0,073
-596,269	-11,427	0,029	0,014
-595,255	-73,968	0,148	0,039
-594,240	100,971	0,041	0,035
-593,225	800,000	0,012	-0,027
-592,211	800,000	-0,055	-0,152
-591,196	-200,000	-0,008	0,042
-590,182	-35,511	0,038	0,015
-589,167	248,551	0,051	-0,062
-588,152	800,000	-0,028	-0,070
-587,138	-14,539	-0,113	-0,052
-586,123	192,443	0,052	-0,056
-585,109	676,861	0,065	-0,123
-584,094	800,000	-0,039	-0,092
-583,079	3,068	0,088	0,046
-582,065	-52,615	0,072	-0,024
-581,050	151,764	-0,077	-0,076
-580,036	87,093	-0,096	0,077
-579,021	-200,000	-0,013	-0,046
-578,006	-47,166	-0,020	0,007
-576,992	312,544	-0,005	0,007
-575,977	728,622	0,032	-0,061
-574,963	16,830	0,120	0,068
-573,948	105,710	-0,030	0,026
-572,934	-49,932	0,074	-0,025
-571,919	-62,399	-0,033	0,010
-570,904	-200,000	0,001	0,134
-569,890	8,394	-0,089	-0,048
-568,875	306,998	0,060	0,081
-567,861	79,796	0,086	0,067
-566,846	-200,000	-0,013	0,076
-565,831	-200,000	0,010	0,070
-564,817	-41,925	-0,072	-0,026
-563,802	-118,097	-0,117	0,015
-562,788	-200,000	0,033	0,111
-561,773	-43,125	0,091	-0,033
-560,758	177,763	0,043	-0,046
-559,744	-178,787	0,068	0,001
-558,729	420,548	0,081	0,126
-557,715	25,820	-0,141	-0,085
-556,700	435,143	0,023	0,037
-555,685	335,689	-0,118	-0,166
-554,671	-90,573	-0,004	0,001
-553,656	184,181	0,115	-0,123
-552,642	800,000	0,045	-0,097
-551,627	-127,681	0,075	-0,008
-550,612	800,000	0,023	0,048
-549,598	17,896	-0,206	-0,118
-548,583	800,000	0,003	0,008
-547,569	3,435	0,031	-0,016
-546,554	121,728	-0,050	0,045
-545,539	800,000	0,041	0,103
-544,525	800,000	0,033	0,067
-543,510	-76,800	-0,120	0,030
-542,496	-9,214	-0,213	-0,103
-541,481	-79,362	0,100	0,024
-540,466	-146,873	0,027	-0,002
-539,452	-28,629	-0,091	0,038
-538,437	-60,658	0,216	0,066
-537,423	-111,644	0,127	0,018
-536,408	105,765	0,009	-0,007
-535,393	800,000	0,025	-0,076
-534,379	800,000	0,034	-0,109
-533,364	-200,000	-0,001	-0,067
-532,350	800,000	0,028	0,069
-531,335	378,704	0,038	0,057
-530,321	-191,010	0,109	-0,001
-529,306	107,525	0,052	-0,045
-528,291	-91,209	0,113	-0,023
-527,277	-134,493	0,099	-0,009
-526,262	-79,760	-0,167	-0,040
-525,248	-112,788	-0,029	-0,004
-524,233	-200,000	0,026	0,123
-523,218	-200,000	0,036	0,127
-522,204	6,107	0,098	0,052
-521,189	-158,809	-0,086	0,003
-520,175	722,789	-0,077	-0,148
-519,160	-70,077	-0,038	0,010
-518,145	-200,000	-0,005	-0,040
-517,131	408,218	0,062	-0,095
-516,116	207,131	0,088	0,099
-515,102	185,525	-0,047	0,051
-514,087	33,532	0,044	-0,028
-513,072	1,755	-0,140	0,072
-512,058	-200,000	-0,002	0,007
-511,043	59,851	-0,073	0,052
-510,029	439,161	0,036	-0,058
-509,014	754,944	-0,027	0,052
-507,999	206,802	0,013	-0,015
-506,985	-200,000	0,009	0,068
-505,970	-11,201	-0,108	-0,051
-504,956	-107,235	-0,047	0,007
-503,941	-72,568	0,018	-0,005
-502,926	3,083	0,026	-0,014
-501,912	235,570	0,121	0,145
-500,897	145,184	0,081	0,078
-499,883	555,084	-0,021	-0,037
-498,868	-191,062	0,103	-0,001
-497,853	150,516	-0,059	-0,057
-496,839	800,000	-0,034	0,083
-495,824	607,866	-0,030	0,054
-494,810	-200,000	0,011	0,174
-493,795	157,229	0,071	0,071
-492,781	163,798	-0,116	-0,118
-491,766	-200,000	0,004	0,028
-490,751	217,855	-0,023	-0,027
-489,737	-16,871	0,035	-0,016
-488,722	-14,135	0,134	0,062
-487,708	267,546	-0,031	-0,040
-486,693	-55,823	0,044	0,014
-485,678	47,243	-0,094	-0,063
-484,664	458,536	0,081	-0,130
-483,649	50,192	0,092	-0,062
-482,635	53,100	0,023	-0,016
-481,620	330,823	0,058	0,080
-480,605	30,639	0,114	0,070
-479,591	73,932	0,080	0,061
-478,576	166,000	-0,130	0,133
-477,562	277,505	-0,026	0,033
-476,547	-92,523	-0,042	0,008
-475,532	-92,123	-0,124	-0,025
-474,518	-138,094	0,066	0,005
-473,503	-124,713	0,052	-0,006
-472,489	-200,000	-0,002	0,207
-471,474	-47,344	0,049	-0,017
-470,459	662,464	-0,029	-0,054
-469,445	32,116	0,157	-0,097
-468,430	-120,685	-0,087	0,010
-467,416	-72,026	0,087	-0,023
-466,401	-200,000	-0,027	0,140
-465,386	-132,645	0,109	0,010
-464,372	403,812	0,022	-0,033
-463,357	-60,270	-0,107	-0,032
-462,343	476,953	0,068	-0,111
-461,328	-200,000	0,005	-0,070
-460,313	-44,694	0,125	0,045
-459,299	351,310	-0,026	0,038
-458,284	-200,000	-0,005	0,031
-457,270	-188,962	0,056	-0,000
-456,255	800,000	-0,042	0,101
-455,241	172,102	-0,070	-0,073
-454,226	-81,838	0,075	0,018
-453,211	113,960	-0,173	0,151
-452,197	-200,000	-0,002	-0,011
-451,182	-21,812	0,060	-0,026
-450,168	-77,032	0,019	0,005
-449,153	800,000	0,054	0,122
-448,138	-200,000	0,050	-0,162
-447,124	-35,775	-0,059	0,023
-446,109	-200,000	-0,005	-0,094
-445,095	271,569	-0,022	0,028
-444,080	286,251	0,013	-0,016
-443,065	123,097	0,068	-0,061
-442,051	-200,000	0,005	0,052
-441,036	29,389	-0,037	-0,022
-440,022	800,000	0,035	-0,090
-439,007	-52,682	-0,181	0,060
-437,992	123,696	0,109	0,098
-436,978	120,900	0,035	0,031
-435,963	272,474	-0,032	-0,041
-434,949	579,615	-0,055	0,097
-433,934	-84,955	-0,078	0,017
-432,919	800,000	0,003	0,007
-431,905	800,000	0,043	-0,089
-430,890	19,428	-0,017	0,010
-429,876	30,869	-0,056	0,034
-428,861	523,366	0,079	0,134
-427,846	2,089	-0,086	-0,044
-426,832	0,843	-0,157	-0,080
-425,817	314,436	-0,077	-0,104
-424,803	-125,992	0,010	-0,001
-423,788	133,878	-0,092	-0,086
-422,773	564,363	0,038	0,067
-421,759	800,000	0,052	0,130
-420,744	-167,070	0,112	0,003
-419,730	-73,209	-0,098	-0,025
-418,715	634,237	-0,029	0,052
-417,701	-10,028	-0,080	0,038
-416,686	-85,866	-0,062	0,014
-415,671	-200,000	-0,007	0,156
-414,657	125,231	-0,067	0,061
-413,642	-200,000	-0,015	0,080
-412,628	-193,510	-0,084	0,001
-411,613	357,167	-0,021	-0,030
-410,598	-188,935	-0,085	0,001
-409,584	699,313	0,052	0,099
-408,569	-139,852	0,054	0,004
-407,555	-200,000	-0,004	-0,051
-406,540	800,000	-0,047	-0,115
-405,525	800,000	0,006	0,017
-404,511	771,317	-0,008	-0,016
-403,496	-200,000	-0,020	-0,153
-402,482	282,348	0,070	-0,091
-401,467	800,000	0,020	0,050
-400,452	334,043	0,062	0,086
-399,438	17,872	0,097	0,055
-398,423	591,892	-0,057	0,102
-397,409	581,338	-0,065	0,115
-396,394	206,732	-0,038	-0,043
-395,379	2,079	0,033	0,017
-394,365	45,775	0,126	0,083
-393,350	-186,291	-0,063	-0,001
-392,336	-80,246	0,143	0,034
-391,321	682,859	0,029	-0,055
-390,306	55,534	-0,068	-0,047
-389,292	102,553	0,109	-0,091
-388,277	-72,898	0,102	-0,027
-387,263	-33,675	-0,174	-0,068
-386,248	800,000	-0,062	0,177
-385,233	-16,917	0,053	0,024
-384,219	800,000	-0,038	-0,106
-383,204	70,162	-0,077	0,057
-382,190	175,272	-0,047	-0,049
-381,175	420,101	-0,046	-0,071
-380,160	-200,000	0,006	-0,059
-379,146	37,266	-0,065	-0,041
-378,131	682,638	-0,069	0,129
-377,117	-54,071	0,093	0,030
-376,102	-200,000	-0,013	-0,277
-375,088	11,133	-0,074	-0,041
-374,073	-200,000	0,032	0,112
-373,058	576,163	0,060	0,105
-372,044	800,000	-0,023	-0,055
-371,029	-120,892	0,083	-0,010
-370,015	224,114	-0,105	0,122
-369,000	232,474	0,045	-0,053
-367,985	-64,848	-0,030	-0,009
-366,971	-200,000	-0,012	0,098
-365,956	-27,017	-0,132	-0,055
-364,942	-70,000	0,073	0,020
-363,927	-200,000	0,013	-0,047
-362,912	40,684	-0,061	0,039
-361,898	-135,368	-0,116	-0,010
-360,883	219,277	-0,074	-0,085
-359,869	58,752	-0,087	-0,061
-358,854	800,000	-0,033	-0,067
-357,839	31,372	-0,048	0,029
-356,825	-22,757	0,056	0,024
-355,810	-27,802	0,074	0,031
-354,796	-200,000	-0,021	-0,164
-353,781	-200,000	-0,056	-0,220
-352,766	206,458	0,078	0,087
-351,752	-200,000	-0,023	-0,137
-350,737	-200,000	0,019	0,067
-349,723	-200,000	-0,020	-0,151
-348,708	760,818	0,022	-0,044
-347,693	431,564	-0,028	0,044
-346,679	-97,248	0,125	0,023
-345,664	125,228	-0,081	0,073
-344,650	-117,190	-0,040	0,005
-343,635	381,412	-0,038	-0,056
-342,620	-200,000	-0,012	0,076
-341,606	-161,553	0,040	-0,001
-340,591	-200,000	-0,034	-0,209
-339,577	800,000	-0,042	-0,092
-338,562	-200,000	0,009	0,039
-337,548	40,864	-0,102	0,066
-336,533	-35,838	0,193	0,074
-335,518	800,000	-0,007	0,019
-334,504	-159,368	-0,171	0,007
-333,489	-200,000	0,012	0,073
-332,475	22,233	-0,099	0,058
-331,460	-53,875	0,153	-0,049
-330,445	103,116	0,046	0,039
-329,431	499,285	-0,019	0,031
-328,416	409,342	-0,035	0,052
-327,402	403,076	0,014	0,021
-326,387	-106,177	0,068	0,011
-325,372	204,121	0,062	-0,068
-324,358	-94,473	-0,058	-0,011
-323,343	490,285	-0,032	0,053
-322,329	155,774	0,025	-0,024
-321,314	-200,000	0,031	-0,139
-320,299	-29,935	0,093	0,038
-319,285	364,644	-0,021	-0,031
-318,270	-200,000	0,011	-0,035
-317,256	99,406	-0,109	-0,090
-316,241	-84,116	-0,099	-0,022
-315,226	-16,383	0,043	0,020
-314,212	-78,799	0,032	-0,008
-313,197	-54,575	0,107	0,034
-312,183	-200,000	-0,014	0,110
-311,168	-99,354	0,026	0,005
-310,153	-41,866	-0,173	-0,063
-309,139	28,107	0,083	-0,050
-308,124	0,287	0,056	-0,028
-307,110	800,000	0,030	0,086
-306,095	800,000	-0,048	0,122
-305,080	-164,572	-0,011	-0,000
-304,066	34,094	-0,030	-0,019
-303,051	800,000	-0,014	-0,033
-302,037	293,823	0,083	-0,109
-301,022	-200,000	-0,013	-0,045
-300,008	-200,000	-0,033	0,144
-298,993	360,636	0,041	0,059
-297,978	-139,808	0,036	0,003
-296,964	800,000	-0,025	0,067
-295,949	-200,000	-0,041	-0,150
-294,935	-0,448	-0,045	-0,023
-293,920	275,677	-0,096	0,122
-292,905	-200,000	0,020	-0,141
-291,891	-72,198	-0,066	-0,017
-290,876	-200,000	-0,021	0,094
-289,862	-21,727	-0,007	0,003
-288,847	800,000	-0,037	-0,082
-287,832	-200,000	-0,020	-0,073
-286,818	271,068	-0,064	-0,080
-285,803	30,836	0,112	0,068
-284,789	800,000	0,087	0,180
-283,774	-200,000	0,017	0,083
-282,759	36,226	-0,010	0,006
-281,745	-123,569	-0,098	-0,011
-280,730	43,182	-0,085	-0,055
-279,716	432,112	-0,033	-0,051
-278,701	157,726	0,119	-0,118
-277,686	-200,000	-0,044	0,186
-276,672	-200,000	0,020	0,127
-275,657	315,915	-0,022	-0,029
-274,643	800,000	0,019	0,057
-273,628	-200,000	0,003	0,033
-272,613	-200,000	-0,124	-0,000
-271,599	1,643	0,096	-0,049
-270,584	-95,720	0,100	0,019
-269,570	-94,198	0,131	0,025
-268,555	800,000	0,052	-0,103
-267,540	442,191	-0,052	-0,081
-266,526	15,036	0,057	0,032
-265,511	258,264	-0,035	0,043
-264,497	8,835	0,165	0,089
-263,482	377,778	0,064	0,094
-262,467	-200,000	0,019	-0,132
-261,453	0,852	-0,082	0,042
-260,438	-200,000	0,033	-0,157
-259,424	112,749	0,075	-0,065
-258,409	173,101	0,042	-0,044
-257,395	436,882	0,026	-0,041
-256,380	-200,000	-0,009	-0,036
-255,365	-20,118	0,010	0,005
-254,351	-104,112	0,015	-0,002
-253,336	-200,000	-0,000	0,010
-252,322	254,767	0,051	-0,062
-251,307	-135,036	-0,032	0,003
-250,292	-18,940	0,049	-0,022
-249,278	-121,790	0,183	0,021
-248,263	560,463	-0,037	0,063
-247,249	582,810	0,031	-0,054
-246,234	-83,929	-0,162	-0,036
-245,219	-200,000	-0,021	-0,112
-244,205	38,847	-0,027	-0,017
-243,190	-200,000	0,004	0,058
-242,176	800,000	-0,003	0,007
-241,161	461,504	0,078	0,125
-240,146	295,372	-0,068	0,089
-239,132	800,000	0,033	-0,068
-238,117	-200,000	-0,002	0,017
-237,103	191,955	-0,046	-0,049
-236,088	340,362	0,017	-0,023
-235,073	-74,274	0,229	0,059
-234,059	342,586	-0,074	0,104
-233,044	25,171	0,164	0,097
-232,030	800,000	0,022	-0,068
-231,015	800,000	0,012	0,030
-230,000	-200,000	0,005	-0,098
-228,986	800,000	0,028	0,086
-227,971	85,802	-0,044	0,034
-226,957	-144,040	-0,040	0,003
-225,942	629,719	0,006	0,011
-224,927	39,384	-0,103	0,065
-223,913	-200,000	-0,009	-0,077
-222,898	486,172	-0,126	-0,205
-221,884	-24,566	-0,117	-0,049
-220,869	-200,000	-0,023	0,096
-219,855	-37,619	0,024	-0,009
-218,840	-7,828	0,094	-0,045
-217,825	-200,000	-0,007	-0,149
-216,811	-200,000	0,002	0,137
-215,796	40,398	-0,084	-0,054
-214,782	-200,000	0,004	-0,048
-213,767	23,125	-0,038	0,022
-212,752	216,134	0,079	0,090
-211,738	-61,600	-0,064	0,019
-210,723	-200,000	-0,010	-0,039
-209,709	-55,919	0,078	0,025
-208,694	-108,862	-0,105	0,016
-207,679	143,471	-0,035	-0,033
-206,665	517,852	0,014	-0,024
-205,650	-72,180	0,036	-0,010
-204,636	-67,773	0,062	-0,017
-203,621	-200,000	-0,010	0,089
-202,606	-104,255	-0,060	-0,010
-201,592	-80,319	0,082	0,019
-200,577	325,076	-0,077	-0,104
-199,563	95,876	-0,090	0,073
-198,548	87,044	0,140	0,110
-197,533	572,372	0,045	0,078
-196,519	-71,387	0,088	-0,023
-195,504	159,308	-0,083	0,082
-194,490	168,250	-0,063	-0,064
-193,475	-200,000	-0,033	-0,109
-192,460	800,000	-0,012	-0,035
-191,446	4,676	0,089	0,046
-190,431	-100,786	-0,060	0,010
-189,417	-164,403	0,059	-0,002
-188,402	65,748	-0,118	0,085
-187,387	-47,524	-0,125	-0,043
-186,373	30,982	0,021	0,013
-185,358	133,578	0,102	0,094
-184,344	-71,422	0,022	-0,006
-183,329	156,026	0,100	0,098
-182,315	89,120	0,069	0,055
-181,300	214,022	0,025	0,028
-180,285	-200,000	0,000	-0,126
-179,271	372,003	-0,054	0,078
-178,256	179,313	0,010	-0,010
-177,242	800,000	0,063	0,127
-176,227	20,126	0,060	0,034
-175,212	-200,000	0,000	-0,026
-174,198	800,000	0,053	0,147
-173,183	-43,291	-0,186	-0,066
-172,169	-200,000	-0,009	-0,177
-171,154	-84,188	-0,088	0,020
-170,139	-90,501	0,125	-0,025
-169,125	-60,224	-0,051	0,015
-168,110	140,647	0,156	0,147
-167,096	600,868	-0,070	-0,123
-166,081	-200,000	0,001	-0,067
-165,066	143,583	-0,038	-0,036
-164,052	125,801	-0,068	-0,061
-163,037	-108,362	0,299	-0,045
-162,023	-200,000	0,022	-0,140
-161,008	260,039	-0,059	0,073
-159,993	-200,000	-0,007	-0,024
-158,979	34,411	0,122	-0,076
-157,964	-200,000	-0,012	0,072
-156,950	216,437	-0,037	0,042
-155,935	-145,038	0,108	-0,007
-154,920	-112,494	0,093	-0,013
-153,906	-200,000	0,041	0,189
-152,891	800,000	-0,055	0,165
-151,877	-138,270	-0,098	0,008
-150,862	-200,000	-0,014	0,068
-149,847	65,116	-0,073	0,052
-148,833	453,183	0,048	-0,076
-147,818	-200,000	0,067	0,326
-146,804	277,050	-0,072	0,091
-145,789	522,459	-0,048	0,080
-144,775	-28,024	-0,088	0,036
-143,760	-74,242	-0,065	-0,017
-142,745	-200,000	-0,017	-0,112
-141,731	351,760	0,023	-0,032
-140,716	185,145	-0,091	-0,096
-139,702	-200,000	-0,016	0,076
-138,687	-200,000	0,007	0,062
-137,672	-200,000	0,019	0,079
-136,658	800,000	-0,029	-0,067
-135,643	-200,000	0,003	-0,193
-134,629	-200,000	0,005	0,123
-133,614	800,000	-0,043	-0,117
-132,599	-18,678	0,076	-0,033
-131,585	-200,000	0,038	0,171
-130,570	-200,000	0,033	0,118
-129,556	-200,000	-0,029	-0,103
-128,541	214,869	-0,065	-0,073
-127,526	-163,767	0,093	0,003
-126,512	-0,547	-0,063	0,032
-125,497	52,200	0,043	-0,029
-124,483	800,000	-0,078	-0,153
-123,468	-200,000	0,012	0,061
-122,453	91,301	-0,065	-0,052
-121,439	261,397	-0,027	0,033
-120,424	-200,000	-0,041	0,149
-119,410	-44,994	0,118	-0,041
-118,395	-75,317	-0,077	-0,019
-117,380	-36,605	0,119	0,045
-116,366	29,876	0,081	0,049
-115,351	-200,000	0,002	0,061
-114,337	-200,000	0,022	-0,076
-113,322	800,000	-0,017	0,041
-112,307	800,000	-0,001	0,003
-111,293	-31,239	0,007	0,003
-110,278	424,885	0,044	0,067
-109,264	2,545	-0,116	-0,060
-108,249	-200,000	0,010	-0,116
-107,234	-200,000	0,025	-0,110
-106,220	-200,000	0,037	-0,295
-105,205	-95,161	-0,126	-0,024
-104,191	328,369	0,089	-0,121
-103,176	66,451	-0,099	-0,071
-102,162	-200,000	0,013	0,046
-101,147	800,000	0,085	-0,223
-100,132	-43,101	-0,108	0,039
-99,118	83,876	-0,024	0,019
-98,103	-89,529	0,055	0,011
-97,089	800,000	0,042	0,085
-96,074	740,039	0,027	0,052
-95,059	583,482	0,031	-0,054
-94,045	46,212	0,051	-0,034
-93,030	-200,000	-0,030	-0,100
-92,016	800,000	-0,030	0,079
-91,001	12,960	-0,135	-0,074
-89,986	-105,547	0,048	0,008
-88,972	624,175	-0,048	-0,086
-87,957	276,364	-0,078	-0,098
-86,943	-200,000	0,021	0,082
-85,928	-84,583	-0,115	-0,025
-84,913	55,526	-0,074	0,051
-83,899	800,000	-0,012	-0,027
-82,884	-79,302	0,176	-0,042
-81,870	-200,000	0,025	-0,107
-80,855	-105,187	0,065	0,010
-79,840	-182,084	-0,088	0,001
-78,826	-200,000	-0,023	-0,146
-77,811	800,000	-0,077	-0,200
-76,797	-200,000	0,001	-0,068
-75,782	30,922	0,080	0,048
-74,767	-74,678	0,080	0,020
-73,753	-61,797	-0,032	-0,009
-72,738	337,122	-0,073	-0,101
-71,724	800,000	-0,025	-0,062
-70,709	800,000	0,014	0,042
-69,694	-200,000	0,014	-0,116
-68,680	-200,000	0,003	-0,071
-67,665	-200,000	-0,053	-0,207
-66,651	-128,993	0,081	0,008
-65,636	662,220	-0,097	-0,179
-64,622	800,000	-0,051	-0,106
-63,607	-31,297	-0,084	0,033
-62,592	30,308	-0,073	0,044
-61,578	-86,362	0,147	0,032
-60,563	371,076	0,017	-0,024
-59,549	-200,000	0,024	0,079
-58,534	-45,135	-1,651	-0,578
-57,519	395,262	-1,398	-2,070
-56,505	-200,000	-0,472	-4,611
-55,490	269,694	1,018	1,268
-54,476	800,000	4,813	10,991
-53,461	-200,000	18,928	314,026
-52,446	-200,000	738,925	2326,433
-51,432	576,194	1654,482	2871,366
-50,417	79,006	1670,515	1264,404
-49,403	21,631	1543,538	886,570
-48,388	15,558	1465,569	812,297
-47,373	17,781	1456,003	817,693
-46,359	16,772	1445,856	807,128
-45,344	13,735	1441,418	790,085
-44,330	13,704	1439,450	788,828
-43,315	13,702	1437,783	787,875
-42,300	13,725	1436,319	787,152
-41,286	13,784	1434,675	786,501
-40,271	13,709	1433,566	785,502
-39,257	13,699	1432,372	784,768
-38,242	13,761	1430,963	784,259
-37,227	13,775	1429,787	783,651
-36,213	13,755	1428,358	782,741
-35,198	13,732	1427,449	782,102
-34,184	13,784	1426,360	781,724
-33,169	13,723	1425,210	780,774
-32,154	13,725	1424,014	780,095
-31,140	13,776	1422,566	779,514
-30,125	13,755	1421,770	778,949
-29,111	13,757	1420,498	778,231
-28,096	13,742	1419,560	777,612
-27,082	13,699	1418,321	776,701
-26,067	13,638	1417,242	775,790
-25,052	13,685	1416,127	775,372
-24,038	13,696	1415,091	774,823
-23,023	13,643	1414,303	774,116
-22,009	13,648	1413,201	773,503
-20,994	13,643	1412,254	772,930
-19,979	13,660	1411,264	772,437
-18,965	13,607	1410,406	771,692
-17,950	13,636	1409,520	771,308
-16,936	13,645	1408,628	770,833
-15,921	13,570	1407,488	769,831
-14,906	13,578	1406,646	769,373
-13,892	13,622	1405,854	769,116
-12,877	13,585	1404,799	768,337
-11,863	13,586	1403,908	767,822
-10,848	13,578	1402,924	767,215
-9,833	13,563	1401,948	766,584
-8,819	13,517	1401,252	765,960
-7,804	13,481	1400,490	765,344
-6,790	13,503	1399,351	764,793
-5,775	13,480	1398,300	764,083
-4,760	13,500	1397,149	763,514
-3,746	13,464	1396,532	762,982
-2,731	13,497	1395,703	762,653
-1,717	13,454	1394,805	761,931
-0,702	13,457	1393,045	760,954
0,313	17,304	1310,318	733,573
1,327	33,477	704,729	431,936
2,342	51,536	123,696	82,992
3,356	0,174	16,581	8,332
4,371	-2,092	3,206	1,587
5,386	59,056	0,537	0,373
6,400	800,000	0,116	0,273
7,415	-184,749	-0,281	0,003
8,429	76,962	-0,287	-0,215
9,444	127,934	-0,310	-0,279
10,459	114,615	-0,264	-0,227
11,473	34,252	-0,232	-0,142
12,488	200,960	-0,253	-0,275
13,502	3,283	-0,389	-0,200
14,517	-66,500	-0,509	-0,142
15,531	155,595	-0,266	-0,258
16,546	169,213	-0,250	-0,253
17,561	196,547	-0,372	-0,401
18,575	389,287	-0,141	-0,207
19,590	109,303	-0,213	-0,180
20,604	15,852	-0,336	-0,186
21,619	103,053	-0,499	-0,413
22,634	256,199	-0,296	-0,360
23,648	421,355	-0,226	-0,343
24,663	31,345	-0,431	-0,260
25,677	102,016	-0,285	-0,235
26,692	107,423	-0,257	-0,216
27,707	32,369	-0,497	-0,302
28,721	389,415	-0,248	-0,364
29,736	-23,511	-0,362	-0,153
30,750	199,086	-0,427	-0,462
31,765	124,469	-0,347	-0,308
32,780	112,576	-0,355	-0,303
33,794	132,979	-0,310	-0,283
34,809	88,474	-0,368	-0,288
35,823	53,326	-0,377	-0,254
36,838	46,626	-0,336	-0,219
37,853	10,683	-0,362	-0,194
38,867	125,671	-0,400	-0,356
39,882	74,785	-0,288	-0,213
40,896	67,783	-0,354	-0,255
41,911	11,011	-0,392	-0,210
42,926	63,815	-0,263	-0,186
43,940	147,067	-0,301	-0,286
44,955	338,243	-0,282	-0,388
45,969	94,243	-0,379	-0,303
46,984	86,525	-0,289	-0,224
47,999	123,062	-0,215	-0,190
49,013	157,388	-0,285	-0,278
50,028	21,030	-0,391	-0,223
51,042	89,004	-0,429	-0,336
52,057	51,291	-0,433	-0,289
53,071	70,058	-0,330	-0,239
54,086	204,431	-0,320	-0,350
55,101	166,364	-0,313	-0,312
56,115	161,417	-0,273	-0,268
57,130	110,328	-0,297	-0,251
58,144	-19,113	-0,369	-0,161
59,159	147,158	-0,373	-0,353
60,174	-35,552	-0,459	-0,174
61,188	54,768	-0,353	-0,239
62,203	10,555	-0,302	-0,161
63,217	-113,604	-0,388	-0,053
64,232	65,375	-0,259	-0,184
65,247	71,021	-0,332	-0,241
66,261	216,693	-0,276	-0,309
67,276	158,684	-0,344	-0,336
68,290	43,513	-0,421	-0,270
69,305	82,739	-0,273	-0,209
70,320	28,874	-0,373	-0,222
71,334	68,411	-0,326	-0,235
72,349	50,366	-0,336	-0,223
73,363	17,810	-0,307	-0,171
74,378	-10,892	-0,369	-0,171
75,393	55,567	-0,231	-0,157
76,407	-25,050	-0,366	-0,152
77,422	-66,832	-0,355	-0,098
78,436	121,168	-0,265	-0,232
79,451	407,597	-0,084	-0,124
80,466	69,502	-0,340	-0,245
81,480	-0,849	-0,428	-0,212
82,495	176,158	-0,228	-0,233
83,509	311,499	-0,202	-0,266
84,524	-60,020	-0,128	-0,038
85,539	31,795	-0,331	-0,200
86,553	-44,369	-0,368	-0,129
87,568	52,647	-0,295	-0,197
88,582	-11,078	-0,394	-0,182
89,597	59,947	-0,253	-0,175
90,611	469,397	-0,143	-0,226
91,626	14,220	-0,209	-0,114
92,641	298,433	-0,208	-0,269
93,655	152,328	-0,309	-0,296
94,670	203,739	-0,264	-0,287
95,684	17,220	-0,316	-0,176
96,699	143,827	-0,295	-0,275
97,714	209,662	-0,202	-0,222
98,728	-117,417	-0,455	-0,057
99,743	-40,003	-0,248	-0,090
100,757	96,744	-0,207	-0,166
101,772	-98,570	-0,395	-0,070
102,787	5,479	-0,425	-0,219
103,801	84,758	-0,260	-0,199
104,816	800,000	-0,108	-0,327
105,830	-135,061	-0,193	-0,016
106,845	225,096	-0,137	-0,156
107,860	84,076	-0,350	-0,268
108,874	-140,700	-0,250	-0,018
109,889	-2,607	-0,312	-0,153
110,903	-26,177	-0,362	-0,148
111,918	16,138	-0,302	-0,166
112,933	-96,152	-0,353	-0,065
113,947	-49,287	-0,295	-0,098
114,962	-1,908	-0,323	-0,159
115,976	-80,536	-0,365	-0,085
116,991	108,657	-0,186	-0,156
118,006	103,641	-0,300	-0,246
119,020	52,528	-0,279	-0,186
120,035	178,082	-0,176	-0,180
121,049	27,169	-0,137	-0,080
122,064	213,929	-0,223	-0,247
123,079	13,611	-0,279	-0,151
124,093	1,422	-0,242	-0,121
125,108	18,132	-0,318	-0,177
126,122	-36,755	-0,268	-0,100
127,137	87,171	-0,242	-0,187
128,151	-117,429	-0,223	-0,028
129,166	53,646	-0,218	-0,146
130,181	202,756	-0,135	-0,146
131,195	161,771	-0,265	-0,260
132,210	166,464	-0,246	-0,244
133,224	-43,080	-0,306	-0,108
134,239	104,243	-0,163	-0,134
135,254	247,669	-0,184	-0,218
136,268	-17,882	-0,019	0,008
137,283	227,638	-0,207	-0,236
138,297	-48,793	-0,345	-0,115
139,312	71,850	-0,275	-0,200
140,327	86,347	-0,174	-0,134
141,341	182,227	-0,202	-0,208
142,356	1,492	-0,271	-0,136
143,370	161,513	-0,259	-0,253
144,385	-107,863	-0,274	-0,041
145,400	-33,757	-0,348	-0,134
146,414	64,699	-0,337	-0,237
147,429	46,524	-0,263	-0,170
148,443	531,207	-0,196	-0,325
149,458	80,047	-0,282	-0,211
150,473	180,997	-0,221	-0,227
151,487	-84,841	-0,238	-0,052
152,502	363,671	-0,109	-0,153
153,516	98,333	-0,339	-0,272
154,531	-92,574	-0,315	-0,061
155,546	46,009	-0,274	-0,177
156,560	50,525	-0,233	-0,154
157,575	-63,476	-0,095	-0,027
158,589	6,336	-0,331	-0,171
159,604	509,022	-0,102	-0,165
160,619	204,370	-0,208	-0,225
161,633	161,215	-0,277	-0,270
162,648	296,988	-0,104	-0,133
163,662	201,696	-0,244	-0,263
164,677	138,778	-0,191	-0,175
165,692	52,190	-0,185	-0,123
166,706	41,849	-0,315	-0,199
167,721	55,892	-0,195	-0,132
168,735	19,092	-0,275	-0,154
169,750	225,433	-0,277	-0,313
170,764	-70,280	-0,272	-0,071
171,779	800,000	-0,121	-0,263
172,794	-29,034	-0,241	-0,096
173,808	30,462	-0,211	-0,126
174,823	-46,173	-0,207	-0,071
175,837	35,493	-0,190	-0,116
176,852	70,314	-0,273	-0,196
177,867	215,569	-0,184	-0,204
178,881	-200,000	-0,116	0,000
179,896	156,942	-0,106	-0,102
180,910	285,404	-0,177	-0,222
181,925	96,632	-0,189	-0,151
182,940	47,107	-0,197	-0,128
183,954	298,264	-0,282	-0,361
184,969	-38,491	-0,184	-0,067
185,983	59,118	-0,176	-0,120
186,998	100,108	-0,175	-0,141
188,013	-50,664	-0,291	-0,095
189,027	225,863	-0,227	-0,257
190,042	164,550	-0,221	-0,217
191,056	153,234	-0,192	-0,183
192,071	-80,746	-0,263	-0,060
193,086	96,279	-0,181	-0,144
194,100	23,223	-0,221	-0,126
195,115	331,551	-0,160	-0,214
196,129	29,173	-0,212	-0,125
197,144	2,547	-0,281	-0,141
198,159	-200,000	-0,039	-0,262
199,173	161,283	-0,261	-0,253
200,188	8,437	-0,227	-0,118
201,202	496,089	-0,184	-0,294
202,217	71,150	-0,109	-0,078
203,232	551,641	-0,151	-0,253
204,246	270,020	-0,194	-0,237
205,261	800,000	-0,078	-0,239
206,275	120,082	-0,211	-0,182
207,290	-44,162	-0,293	-0,102
208,304	-16,421	-0,118	-0,052
209,319	50,990	-0,236	-0,155
210,334	44,079	-0,187	-0,119
211,348	800,000	-0,152	-0,309
212,363	92,924	-0,205	-0,161
213,377	31,626	-0,162	-0,097
214,392	-47,941	-0,085	-0,028
215,407	-20,438	-0,248	-0,105
216,421	386,001	-0,187	-0,268
217,436	193,159	-0,192	-0,202
218,450	176,026	-0,138	-0,139
219,465	163,601	-0,263	-0,257
220,480	-6,887	-0,111	-0,052
221,494	24,628	-0,162	-0,093
222,509	-64,579	-0,197	-0,055
223,523	-160,749	-0,173	-0,006
224,538	-117,643	-0,110	-0,014
225,553	306,979	-0,275	-0,356
226,567	456,436	-0,224	-0,346
227,582	135,890	-0,221	-0,200
228,596	449,024	-0,201	-0,308
229,611	-111,071	-0,213	-0,030
230,626	86,754	-0,276	-0,211
231,640	32,361	-0,183	-0,109
232,655	116,037	-0,209	-0,177
233,669	212,162	-0,216	-0,236
234,684	11,778	-0,168	-0,089
235,699	-10,791	-0,149	-0,068
236,713	95,395	-0,222	-0,175
237,728	201,240	-0,081	-0,086
238,742	-54,050	-0,271	-0,085
239,757	-119,989	-0,232	-0,027
240,772	118,084	-0,171	-0,146
241,786	-121,707	-0,247	-0,028
242,801	563,144	-0,076	-0,128
243,815	800,000	-0,081	-0,201
244,830	-66,968	-0,171	0,046
245,844	-7,898	-0,163	-0,076
246,859	120,791	-0,190	-0,164
247,874	134,828	-0,184	-0,165
248,888	-82,609	-0,239	-0,053
249,903	-51,320	-0,287	-0,092
250,917	-3,863	-0,161	-0,077
251,932	-110,048	-0,247	-0,035
252,947	-109,727	-0,214	0,031
253,961	33,779	-0,248	-0,149
254,976	71,719	-0,224	-0,161
255,990	-22,377	-0,228	-0,095
257,005	333,402	-0,132	-0,177
258,020	250,205	-0,143	-0,168
259,034	71,406	-0,190	-0,136
260,049	-0,478	-0,185	-0,091
261,063	800,000	0,044	-0,101
262,078	136,170	-0,182	-0,164
263,093	305,066	-0,152	-0,195
264,107	141,426	-0,130	-0,119
265,122	223,158	-0,090	-0,100
266,136	-200,000	-0,077	-0,244
267,151	-53,829	-0,166	-0,052
268,166	82,317	-0,244	-0,182
269,180	137,985	-0,110	-0,100
270,195	32,739	-0,228	-0,136
271,209	24,465	-0,193	-0,110
272,224	-200,000	-0,025	-0,128
273,239	-43,426	-0,116	-0,040
274,253	39,055	-0,250	-0,154
275,268	99,395	-0,186	-0,149
276,282	-200,000	-0,060	-0,209
277,297	364,113	-0,160	-0,223
278,312	305,201	-0,096	-0,123
279,326	767,424	-0,076	-0,143
280,341	-200,000	0,018	-0,116
281,355	58,611	-0,104	-0,070
282,370	19,107	-0,237	-0,131
283,384	38,281	-0,095	-0,058
284,399	158,131	-0,152	-0,146
285,414	137,926	-0,179	-0,162
286,428	29,871	-0,221	-0,129
287,443	42,566	-0,129	-0,081
288,457	-117,282	-0,239	-0,030
289,472	-23,832	-0,072	0,030
290,487	298,789	-0,141	-0,179
291,501	35,408	-0,251	-0,152
292,516	289,755	-0,182	-0,228
293,530	-67,303	-0,141	-0,038
294,545	-190,845	-0,200	0,001
295,560	-97,011	-0,156	-0,028
296,574	574,291	-0,115	-0,194
297,589	-157,801	-0,157	-0,006
298,603	224,790	-0,198	-0,221
299,618	-14,368	-0,187	-0,082
300,633	-14,496	-0,162	-0,071
301,647	419,402	-0,064	-0,095
302,662	143,421	-0,135	-0,123
303,676	-49,897	-0,148	-0,048
304,691	392,492	-0,091	-0,131
305,706	331,434	-0,134	-0,178
306,720	-200,000	-0,081	-0,259
307,735	261,140	-0,124	-0,148
308,749	78,878	-0,097	-0,071
309,764	122,498	-0,138	-0,119
310,779	35,982	-0,161	-0,097
311,793	75,062	-0,142	-0,103
312,808	230,877	-0,122	-0,137
313,822	115,511	-0,199	-0,168
314,837	-66,178	-0,052	-0,014
315,852	-178,246	-0,214	-0,003
316,866	-48,269	-0,148	-0,049
317,881	356,623	-0,045	-0,061
318,895	-200,000	-0,253	0,001
319,910	-121,055	-0,150	-0,017
320,925	800,000	-0,047	-0,116
321,939	-1,198	-0,014	0,007
322,954	287,033	-0,054	0,068
323,968	216,333	0,054	-0,059
324,983	-132,308	-0,072	0,006
325,997	-90,045	-0,161	-0,032
327,012	-17,996	-0,257	-0,110
328,027	-75,567	-0,131	-0,032
329,041	78,178	-0,215	-0,158
330,056	62,589	-0,126	-0,086
331,070	-200,000	0,001	-0,106
332,085	-34,767	-0,121	-0,045
333,100	-87,729	-0,238	-0,049
334,114	263,770	-0,140	-0,168
335,129	60,490	-0,215	-0,146
336,143	-82,972	-0,145	-0,032
337,158	58,598	-0,102	-0,069
338,173	-200,000	-0,027	-0,207
339,187	-3,794	-0,156	-0,074
340,202	800,000	-0,074	-0,178
341,216	-71,148	-0,185	-0,047
342,231	-23,540	-0,131	-0,054
343,246	35,721	-0,243	-0,146
344,260	800,000	-0,080	-0,153
345,275	119,216	-0,188	-0,159
346,289	-24,800	-0,153	-0,062
347,304	-133,286	-0,233	0,020
348,319	-89,243	-0,262	-0,053
349,333	-59,629	-0,278	-0,081
350,348	230,452	-0,069	0,077
351,362	-78,565	-0,078	-0,018
352,377	220,796	-0,075	-0,082
353,392	42,302	-0,166	-0,103
354,406	-2,851	-0,226	-0,108
355,421	207,987	1317,790	1413,064
356,435	160,013	1478,899	1413,550
