DTS Sentinel unit serial number:	SN410029Multiplexer serial number:	ORYXHardware model number:	OX2-SRSoftware version number:	ORYX F/W v4,00 Oryx Data Collector v3.7.2.0data status	okinstallation	B3 Nyhavnadifferential loss correction	single-endedforward channel	channel 1reverse channel	N/Adate	2023/11/29time	15:37:30forward acquisition time	300,00reverse acquisition time	0,00gamma	499,1914k internal	0,3210k external	0,3210temperature offset calibration	1,0000default loss term (dB/km)	0,3820temperature slope calibration	1,0000multiplexer offset coefficient	1,0000multiplexer slope coefficient	1,0000fibre end	0,00T internal ref (°C)	11,31T ext. ref 1 (°C)	-3,19T ext. ref 2 (°C)	-3,34length (m)	temperature (°C)	Stokes	anti-Stokes-744,400	90,251	-0,265	-0,215
-743,385	800,000	0,095	0,217
-742,371	458,997	-0,109	-0,176
-741,356	-200,000	0,037	0,273
-740,342	13,071	-0,074	-0,042
-739,327	-200,000	-0,043	0,171
-738,312	157,376	-0,252	-0,253
-737,298	-200,000	-0,040	0,270
-736,283	800,000	-0,166	-0,336
-735,269	-200,000	-0,088	0,291
-734,254	-40,385	-0,288	-0,108
-733,239	521,969	-0,118	0,202
-732,225	121,736	-0,142	-0,129
-731,210	-30,457	0,137	0,056
-730,196	-70,506	-0,175	-0,048
-729,181	-174,697	0,109	-0,002
-728,167	113,083	0,061	0,054
-727,152	624,889	-0,048	0,089
-726,137	-138,268	0,080	-0,006
-725,123	126,162	-0,069	-0,063
-724,108	59,445	-0,168	-0,120
-723,094	-83,085	-0,037	-0,009
-722,079	800,000	0,042	-0,102
-721,064	-68,152	0,022	-0,006
-720,050	800,000	-0,050	-0,142
-719,035	-200,000	-0,033	-0,168
-718,021	699,566	-0,024	0,046
-717,006	-200,000	0,017	-0,121
-715,991	92,620	-0,032	0,026
-714,977	67,209	-0,129	-0,095
-713,962	287,341	0,030	0,040
-712,948	-113,634	-0,061	0,008
-711,933	640,997	0,029	-0,053
-710,918	391,967	0,050	0,075
-709,904	377,144	-0,070	-0,103
-708,889	-57,883	0,049	0,015
-707,875	-200,000	-0,040	-0,275
-706,860	-200,000	0,006	-0,059
-705,845	38,554	-0,026	0,017
-704,831	465,680	0,026	-0,042
-703,816	800,000	-0,016	0,037
-702,802	800,000	-0,025	-0,067
-701,787	-200,000	-0,003	-0,140
-700,772	356,582	-0,025	-0,036
-699,758	83,485	0,072	-0,057
-698,743	-87,049	0,028	-0,006
-697,729	336,564	0,042	-0,060
-696,714	-200,000	0,009	0,063
-695,699	-200,000	-0,012	-0,044
-694,685	664,024	-0,081	-0,152
-693,670	-96,049	-0,012	-0,002
-692,656	800,000	0,023	-0,066
-691,641	-112,557	0,106	-0,015
-690,627	-200,000	0,021	-0,106
-689,612	-22,442	-0,064	-0,028
-688,597	-200,000	0,001	0,016
-687,583	-41,246	-0,051	-0,019
-686,568	-167,717	-0,070	-0,002
-685,554	133,441	-0,216	-0,203
-684,539	-108,474	-0,125	-0,019
-683,524	-22,070	0,129	0,056
-682,510	299,083	0,026	0,035
-681,495	-200,000	-0,006	-0,022
-680,481	800,000	0,059	-0,189
-679,466	-48,527	0,085	-0,030
-678,451	-200,000	0,014	0,123
-677,437	-154,457	0,076	0,004
-676,422	-147,604	-0,149	0,009
-675,408	800,000	0,036	0,110
-674,393	800,000	-0,047	-0,113
-673,378	311,027	-0,105	-0,143
-672,364	692,714	0,035	0,067
-671,349	-200,000	0,039	-0,262
-670,335	-186,874	-0,069	-0,001
-669,320	37,706	0,063	-0,040
-668,305	-200,000	-0,006	-0,047
-667,291	-194,906	-0,070	0,000
-666,276	164,612	-0,126	0,128
-665,262	-200,000	-0,045	-0,186
-664,247	156,115	-0,094	0,094
-663,232	-200,000	0,039	0,135
-662,218	-32,583	0,045	-0,018
-661,203	-200,000	0,003	-0,034
-660,189	637,052	-0,016	0,030
-659,174	-36,433	-0,043	0,017
-658,159	-200,000	0,004	-0,027
-657,145	800,000	0,072	-0,173
-656,130	800,000	-0,040	-0,088
-655,116	-124,971	0,056	0,006
-654,101	92,420	0,093	-0,076
-653,086	-19,927	-0,138	-0,061
-652,072	298,533	0,085	-0,114
-651,057	72,167	0,036	-0,027
-650,043	-200,000	0,013	-0,163
-649,028	-149,623	0,034	-0,002
-648,014	-51,800	-0,109	0,036
-646,999	800,000	0,033	-0,068
-645,984	-50,123	-0,123	0,042
-644,970	-49,364	0,073	0,025
-643,955	362,916	-0,045	-0,065
-642,941	-200,000	-0,030	-0,110
-641,926	-200,000	-0,005	0,059
-640,911	-36,070	0,091	-0,035
-639,897	-38,979	-0,076	0,029
-638,882	-72,837	-0,174	-0,046
-637,868	-175,034	-0,075	0,001
-636,853	259,881	-0,132	-0,166
-635,838	-81,283	0,068	-0,016
-634,824	-200,000	-0,001	-0,010
-633,809	-45,760	0,143	0,051
-632,795	-200,000	-0,003	0,015
-631,780	-143,082	-0,111	-0,008
-630,765	-105,685	0,197	-0,032
-629,751	17,970	-0,080	0,046
-628,736	12,909	0,035	-0,019
-627,722	-200,000	-0,001	-0,051
-626,707	-79,108	-0,129	0,031
-625,692	-85,020	-0,056	0,012
-624,678	800,000	-0,020	0,057
-623,663	61,712	0,122	0,088
-622,649	-167,884	-0,134	-0,004
-621,634	266,896	0,048	-0,061
-620,619	800,000	0,043	-0,127
-619,605	38,510	-0,070	-0,045
-618,590	158,996	0,035	0,035
-617,576	-63,705	-0,060	-0,018
-616,561	-200,000	-0,002	0,034
-615,546	800,000	-0,031	0,091
-614,532	-200,000	-0,011	0,038
-613,517	88,773	-0,124	-0,099
-612,503	-139,858	0,080	-0,006
-611,488	-78,234	0,097	-0,024
-610,474	-200,000	0,041	0,157
-609,459	117,300	-0,104	0,092
-608,444	-17,201	-0,016	0,007
-607,430	481,357	0,009	0,016
-606,415	-200,000	-0,006	-0,122
-605,401	83,438	0,127	-0,100
-604,386	-200,000	-0,013	0,110
-603,371	1,414	0,159	0,082
-602,357	-12,517	0,077	-0,036
-601,342	-200,000	0,001	0,020
-600,328	800,000	-0,099	-0,203
-599,313	-87,674	-0,046	-0,010
-598,298	37,483	-0,093	0,059
-597,284	325,177	-0,009	-0,013
-596,269	125,334	0,094	0,086
-595,255	-12,129	-0,162	0,076
-594,240	-200,000	-0,056	0,177
-593,225	206,069	-0,096	-0,108
-592,211	93,060	-0,020	0,016
-591,196	-200,000	-0,010	0,050
-590,182	-11,057	0,122	-0,058
-589,167	800,000	-0,035	0,110
-588,152	-131,873	0,074	-0,007
-587,138	-200,000	-0,017	-0,067
-586,123	4,892	-0,080	-0,042
-585,109	17,501	-0,031	-0,018
-584,094	-200,000	-0,010	-0,078
-583,079	-200,000	0,007	0,078
-582,065	-200,000	0,029	0,102
-581,050	236,819	0,005	0,006
-580,036	174,289	-0,009	-0,010
-579,021	-200,000	0,007	-0,036
-578,006	27,752	-0,160	0,097
-576,992	-200,000	-0,009	0,092
-575,977	-65,282	-0,088	-0,025
-574,963	169,951	0,076	-0,078
-573,948	141,050	0,045	-0,043
-572,934	-13,847	0,009	0,004
-571,919	-200,000	0,016	-0,137
-570,904	462,234	0,011	0,019
-569,890	-200,000	-0,034	0,131
-568,875	115,027	-0,117	0,103
-567,861	-93,166	0,088	0,018
-566,846	155,224	0,113	0,112
-565,831	-200,000	-0,032	0,153
-564,817	111,100	-0,072	0,062
-563,802	800,000	0,049	0,120
-562,788	-200,000	-0,020	0,114
-561,773	800,000	0,035	-0,090
-560,758	-41,981	0,157	0,058
-559,744	-200,000	-0,036	0,115
-558,729	-27,885	0,059	-0,024
-557,715	14,902	0,027	0,015
-556,700	7,729	-0,044	0,024
-555,685	-200,000	0,015	0,083
-554,671	487,386	0,010	0,017
-553,656	800,000	-0,049	0,120
-552,642	351,782	0,031	0,044
-551,627	800,000	0,039	0,098
-550,612	87,778	-0,103	-0,082
-549,598	-87,957	-0,077	0,016
-548,583	-39,758	-0,122	0,046
-547,569	-70,597	-0,091	-0,025
-546,554	521,947	0,092	0,156
-545,539	800,000	0,009	0,021
-544,525	-61,349	0,030	-0,009
-543,510	-47,225	-0,131	-0,046
-542,496	371,051	-0,033	0,049
-541,481	26,374	-0,056	-0,033
-540,466	-200,000	-0,015	-0,114
-539,452	-81,856	-0,038	-0,009
-538,437	-152,747	0,220	-0,011
-537,423	-200,000	0,001	0,028
-536,408	169,615	0,071	-0,073
-535,393	90,153	-0,103	-0,083
-534,379	255,209	-0,083	0,103
-533,364	-20,878	-0,033	0,014
-532,350	-200,000	0,010	0,124
-531,335	-200,000	0,006	0,058
-530,321	-19,899	-0,098	0,043
-529,306	800,000	0,041	-0,127
-528,291	-200,000	-0,020	-0,114
-527,277	13,770	0,073	-0,041
-526,262	194,104	-0,020	0,022
-525,248	5,950	-0,116	0,061
-524,233	800,000	-0,012	-0,024
-523,218	477,156	-0,000	-0,000
-522,204	-88,191	-0,052	0,011
-521,189	451,296	-0,078	-0,125
-520,175	777,317	-0,040	-0,080
-519,160	-53,225	-0,103	0,034
-518,145	-200,000	0,011	0,034
-517,131	-200,000	-0,019	0,074
-516,116	42,753	0,052	0,034
-515,102	199,792	0,018	-0,020
-514,087	60,194	-0,136	-0,097
-513,072	-200,000	-0,002	-0,125
-512,058	-8,473	0,115	-0,055
-511,043	-13,018	-0,176	-0,082
-510,029	75,083	-0,189	0,143
-509,014	59,026	0,037	-0,026
-507,999	-200,000	-0,006	0,184
-506,985	800,000	0,023	0,068
-505,970	781,580	-0,020	0,040
-504,956	-116,949	-0,209	-0,027
-503,941	800,000	0,061	-0,124
-502,926	800,000	0,070	0,206
-501,912	-129,472	0,090	0,009
-500,897	800,000	0,035	-0,103
-499,883	525,848	0,019	0,033
-498,868	185,205	0,029	-0,031
-497,853	-200,000	0,004	-0,031
-496,839	800,000	-0,068	-0,168
-495,824	100,122	-0,092	0,076
-494,810	-21,377	0,129	0,056
-493,795	800,000	0,012	0,030
-492,781	-21,592	0,113	0,049
-491,766	800,000	-0,033	-0,065
-490,751	800,000	0,053	-0,109
-489,737	31,681	0,119	-0,073
-488,722	128,465	0,047	0,043
-487,708	-54,694	0,109	0,035
-486,693	-200,000	0,001	0,107
-485,678	-13,222	0,070	-0,032
-484,664	-200,000	-0,003	0,016
-483,649	-200,000	0,002	-0,018
-482,635	-130,914	0,073	0,007
-481,620	-200,000	0,035	0,187
-480,605	210,382	-0,028	0,032
-479,591	-200,000	0,005	0,169
-478,576	61,558	0,083	-0,060
-477,562	-102,028	-0,079	0,013
-476,547	284,762	-0,040	-0,052
-475,532	800,000	-0,013	-0,031
-474,518	30,858	-0,142	-0,087
-473,503	-113,710	0,029	-0,004
-472,489	607,237	-0,050	0,090
-471,474	68,190	-0,099	0,073
-470,459	-80,226	0,173	0,041
-469,445	572,174	-0,022	-0,038
-468,430	363,338	0,073	-0,105
-467,416	163,316	-0,036	0,036
-466,401	800,000	0,035	0,077
-465,386	-152,353	0,075	-0,004
-464,372	-200,000	0,005	0,043
-463,357	-62,482	-0,088	-0,026
-462,343	-70,530	-0,072	0,019
-461,328	-200,000	-0,013	0,077
-460,313	800,000	0,005	0,014
-459,299	800,000	-0,028	0,069
-458,284	-4,789	-0,097	-0,048
-457,270	50,808	0,063	0,043
-456,255	-200,000	0,008	0,079
-455,241	-189,439	-0,129	0,001
-454,226	180,903	-0,063	-0,066
-453,211	-26,655	0,041	-0,017
-452,197	61,051	0,030	-0,021
-451,182	526,773	0,049	0,083
-450,168	32,036	0,113	0,070
-449,153	-200,000	0,020	-0,072
-448,138	2,397	0,065	-0,034
-447,124	800,000	0,038	-0,095
-446,109	-97,357	-0,127	-0,023
-445,095	-103,753	0,043	0,007
-444,080	-163,437	0,047	0,002
-443,065	-26,217	0,091	0,038
-442,051	-116,012	0,084	0,011
-441,036	612,460	-0,070	-0,126
-440,022	335,863	-0,078	0,108
-439,007	-29,105	-0,022	0,009
-437,992	35,437	0,085	0,053
-436,978	400,033	-0,043	-0,065
-435,963	800,000	-0,019	0,040
-434,949	573,500	0,055	-0,096
-433,934	-200,000	0,002	-0,091
-432,919	218,127	-0,101	-0,116
-431,905	800,000	0,021	-0,050
-430,890	36,692	0,057	-0,036
-429,876	-111,375	0,056	0,008
-428,861	-116,493	0,020	0,003
-427,846	-129,237	-0,021	0,002
-426,832	-81,902	-0,024	-0,006
-425,817	-35,420	-0,205	-0,079
-424,803	41,110	-0,058	-0,037
-423,788	229,504	0,061	0,072
-422,773	800,000	0,011	-0,035
-421,759	-116,439	-0,026	0,003
-420,744	-200,000	-0,018	-0,077
-419,730	23,689	-0,057	0,034
-418,715	-54,083	-0,108	0,035
-417,701	800,000	-0,006	-0,015
-416,686	-74,644	0,169	-0,043
-415,671	26,099	0,053	-0,031
-414,657	-88,435	0,165	0,035
-413,642	-200,000	0,024	-0,122
-412,628	15,348	-0,168	-0,094
-411,613	-92,602	0,135	-0,027
-410,598	109,968	0,075	-0,064
-409,584	437,517	0,019	-0,030
-408,569	84,064	-0,095	0,074
-407,555	-185,133	0,094	0,001
-406,540	-200,000	-0,022	0,076
-405,525	20,837	-0,025	0,014
-404,511	800,000	-0,039	-0,102
-403,496	368,954	-0,047	0,068
-402,482	-200,000	0,014	0,046
-401,467	133,726	-0,040	0,037
-400,452	122,560	-0,114	0,102
-399,438	533,583	-0,026	-0,045
-398,423	-113,874	-0,153	0,021
-397,409	-77,684	-0,156	-0,038
-396,394	58,727	-0,104	-0,073
-395,379	800,000	0,028	-0,076
-394,365	216,620	0,065	-0,075
-393,350	302,584	0,020	-0,027
-392,336	-122,770	0,123	-0,014
-391,321	-50,396	-0,066	0,022
-390,306	-66,622	0,076	-0,021
-389,292	-200,000	0,005	-0,113
-388,277	-61,548	0,092	0,028
-387,263	-200,000	0,022	0,092
-386,248	800,000	0,012	0,029
-385,233	-152,032	0,151	-0,008
-384,219	800,000	0,015	-0,045
-383,204	800,000	-0,024	-0,065
-382,190	-166,000	-0,010	0,000
-381,175	-21,264	-0,078	0,034
-380,160	140,701	0,020	-0,019
-379,146	271,196	-0,032	-0,041
-378,131	48,312	0,075	-0,050
-377,117	-75,148	-0,177	-0,045
-376,102	800,000	0,047	-0,118
-375,088	257,777	-0,117	-0,144
-374,073	-46,877	0,120	0,042
-373,058	800,000	0,033	-0,096
-372,044	-200,000	0,001	-0,095
-371,029	-200,000	-0,017	0,113
-370,015	107,127	-0,057	0,049
-369,000	141,064	0,053	-0,050
-367,985	92,689	0,071	-0,058
-366,971	-157,913	-0,139	0,006
-365,956	800,000	-0,033	-0,087
-364,942	-101,899	0,118	0,020
-363,927	-200,000	-0,009	0,052
-362,912	34,363	0,045	-0,028
-361,898	-85,478	0,027	0,006
-360,883	-14,112	-0,065	-0,030
-359,869	-155,592	-0,100	0,005
-358,854	-200,000	0,005	0,071
-357,839	243,878	0,113	0,136
-356,825	-200,000	-0,046	0,157
-355,810	517,562	0,061	-0,103
-354,796	72,008	0,061	-0,045
-353,781	800,000	-0,038	-0,091
-352,766	659,174	-0,033	-0,061
-351,752	800,000	0,058	-0,142
-350,737	-46,295	0,077	0,027
-349,723	154,510	0,076	-0,075
-348,708	-200,000	0,014	-0,106
-347,693	-200,000	-0,023	-0,139
-346,679	591,949	-0,038	-0,067
-345,664	-57,936	-0,060	-0,018
-344,650	-200,000	0,017	-0,057
-343,635	-73,543	0,103	-0,027
-342,620	800,000	-0,008	-0,023
-341,606	162,949	0,058	-0,058
-340,591	-200,000	-0,016	0,051
-339,577	800,000	-0,065	-0,163
-338,562	540,885	-0,040	-0,068
-337,548	-71,093	0,013	-0,003
-336,533	800,000	-0,040	0,089
-335,518	92,852	0,120	0,097
-334,504	149,945	-0,070	0,067
-333,489	204,282	0,087	0,096
-332,475	800,000	0,007	0,018
-331,460	800,000	-0,028	-0,061
-330,445	-200,000	0,009	0,091
-329,431	-200,000	0,021	0,074
-328,416	800,000	0,084	0,176
-327,402	800,000	0,038	0,084
-326,387	800,000	0,045	0,097
-325,372	113,721	-0,161	0,139
-324,358	36,318	0,058	-0,037
-323,343	-102,001	-0,077	-0,013
-322,329	537,997	-0,029	-0,049
-321,314	-74,119	0,123	0,031
-320,299	-200,000	0,013	0,130
-319,285	205,028	0,036	-0,039
-318,270	-178,776	-0,139	0,002
-317,256	411,206	-0,090	-0,137
-316,241	800,000	-0,012	-0,026
-315,226	-200,000	-0,004	-0,106
-314,212	-37,628	0,133	0,050
-313,197	-200,000	0,002	0,058
-312,183	64,204	0,082	0,059
-311,168	-200,000	-0,006	-0,057
-310,153	-68,386	-0,079	-0,022
-309,139	-200,000	-0,014	-0,084
-308,124	-120,687	0,030	-0,004
-307,110	98,555	-0,125	0,103
-306,095	323,098	-0,058	0,079
-305,080	-63,742	0,066	-0,019
-304,066	-200,000	0,014	-0,126
-303,051	-107,400	0,075	0,012
-302,037	-200,000	0,041	-0,139
-301,022	46,678	-0,039	-0,026
-300,008	56,215	0,120	0,083
-298,993	-39,736	0,069	0,026
-297,978	451,704	-0,059	0,094
-296,964	-200,000	0,008	-0,175
-295,949	-99,967	0,120	-0,021
-294,935	364,034	0,052	-0,074
-293,920	51,151	0,155	0,105
-292,905	-200,000	-0,006	-0,027
-291,891	111,407	-0,087	0,075
-290,876	41,169	0,061	0,039
-289,862	782,409	-0,038	-0,075
-288,847	246,705	0,128	0,154
-287,832	-69,463	-0,151	0,041
-286,818	-200,000	-0,008	0,125
-285,803	83,934	-0,017	-0,013
-284,789	123,509	0,046	0,041
-283,774	109,657	0,081	0,069
-282,759	-200,000	-0,005	-0,052
-281,745	-171,771	0,078	0,002
-280,730	-178,126	-0,133	-0,002
-279,716	230,216	0,064	-0,075
-278,701	-100,609	0,121	0,021
-277,686	-200,000	-0,005	-0,117
-276,672	-200,000	0,018	-0,058
-275,657	-200,000	0,015	0,074
-274,643	-56,783	0,131	0,041
-273,628	103,309	-0,088	-0,073
-272,613	130,393	0,065	0,059
-271,599	496,998	0,092	0,152
-270,584	-200,000	0,003	-0,015
-269,570	-23,071	-0,079	-0,034
-268,555	41,588	0,091	0,059
-267,540	-103,606	0,108	0,018
-266,526	-200,000	0,025	-0,132
-265,511	800,000	-0,031	-0,090
-264,497	-200,000	0,149	-0,000
-263,482	786,658	0,094	0,185
-262,467	-200,000	0,012	-0,086
-261,453	13,168	-0,070	0,038
-260,438	800,000	-0,024	-0,057
-259,424	-123,643	-0,028	-0,003
-258,409	-139,838	-0,101	-0,007
-257,395	149,746	0,052	0,050
-256,380	800,000	0,044	-0,129
-255,365	800,000	0,088	0,183
-254,351	666,363	-0,057	0,105
-253,336	-200,000	-0,023	-0,206
-252,322	86,250	-0,063	-0,049
-251,307	6,027	-0,073	-0,038
-250,292	-200,000	-0,014	0,198
-249,278	263,352	-0,083	-0,103
-248,263	-200,000	0,037	0,177
-247,249	-200,000	-0,020	-0,098
-246,234	45,046	-0,092	0,060
-245,219	-107,089	0,091	-0,014
-244,205	57,409	-0,161	-0,112
-243,190	-126,962	0,052	0,005
-242,176	-200,000	0,013	0,060
-241,161	165,522	0,056	0,056
-240,146	739,658	-0,050	-0,096
-239,132	800,000	-0,049	-0,143
-238,117	216,810	-0,055	-0,062
-237,103	-200,000	-0,026	-0,124
-236,088	101,980	0,051	-0,043
-235,073	-15,500	-0,100	0,045
-234,059	800,000	0,019	0,042
-233,044	-96,769	0,134	-0,025
-232,030	-168,850	-0,059	-0,002
-231,015	57,351	-0,123	0,085
-230,000	-200,000	0,052	-0,195
-228,986	-138,816	-0,119	-0,009
-227,971	-129,610	-0,114	-0,011
-226,957	614,967	-0,051	0,092
-225,942	699,739	-0,067	-0,127
-224,927	5,118	-0,136	-0,071
-223,913	-130,523	0,094	-0,009
-222,898	484,063	0,092	-0,149
-221,884	800,000	-0,028	-0,078
-220,869	385,621	0,082	-0,121
-219,855	-200,000	-0,033	0,144
-218,840	10,208	0,062	0,034
-217,825	-27,528	0,105	0,043
-216,811	213,126	-0,042	-0,047
-215,796	800,000	-0,030	-0,064
-214,782	-200,000	0,009	0,132
-213,767	131,520	0,012	0,011
-212,752	456,777	0,062	0,098
-211,738	800,000	0,049	0,131
-210,723	-96,441	-0,014	-0,003
-209,709	515,998	0,015	-0,025
-208,694	58,257	0,031	-0,022
-207,679	-200,000	-0,014	-0,077
-206,665	274,967	0,040	0,051
-205,650	-200,000	0,003	-0,043
-204,636	-160,725	-0,066	-0,002
-203,621	-126,008	0,061	0,006
-202,606	404,276	0,029	0,043
-201,592	-16,025	-0,084	0,038
-200,577	322,919	-0,063	0,086
-199,563	-200,000	-0,001	0,080
-198,548	-66,025	0,184	0,052
-197,533	490,344	0,067	-0,110
-196,519	-1,486	-0,042	-0,021
-195,504	314,070	-0,040	0,053
-194,490	800,000	0,075	-0,156
-193,475	-200,000	0,003	-0,061
-192,460	-30,439	-0,056	0,022
-191,446	216,318	0,098	0,111
-190,431	7,363	-0,076	0,040
-189,417	-124,362	-0,078	0,008
-188,402	250,653	-0,029	-0,035
-187,387	9,574	-0,090	-0,048
-186,373	-200,000	0,062	-0,239
-185,358	-200,000	-0,035	-0,147
-184,344	800,000	-0,061	0,124
-183,329	800,000	0,064	0,127
-182,315	-200,000	-0,008	0,181
-181,300	-200,000	-0,035	0,159
-180,285	249,058	0,081	-0,098
-179,271	-54,876	-0,123	-0,039
-178,256	-200,000	-0,002	0,016
-177,242	-35,354	0,106	0,041
-176,227	223,956	0,087	0,100
-175,212	-200,000	-0,005	0,095
-174,198	315,687	-0,028	-0,038
-173,183	-200,000	-0,009	-0,114
-172,169	-112,589	0,034	0,005
-171,154	168,224	-0,022	0,022
-170,139	-161,051	0,099	-0,004
-169,125	-35,531	0,061	0,023
-168,110	-200,000	0,008	-0,049
-167,096	100,640	0,039	-0,032
-166,081	82,831	0,075	-0,058
-165,066	-89,367	-0,095	-0,020
-164,052	16,471	0,113	0,063
-163,037	-132,087	0,152	0,014
-162,023	-85,189	-0,081	-0,018
-161,008	-101,297	-0,050	-0,009
-159,993	118,701	0,060	-0,052
-158,979	-14,296	-0,132	0,060
-157,964	-200,000	0,000	0,023
-156,950	264,331	0,030	-0,037
-155,935	218,596	0,037	0,042
-154,920	800,000	-0,029	0,061
-153,906	-116,369	0,120	-0,015
-152,891	106,728	-0,012	-0,010
-151,877	489,695	0,051	-0,082
-150,862	-115,708	-0,176	-0,023
-149,847	113,253	0,050	0,043
-148,833	440,029	-0,081	0,126
-147,818	99,312	0,104	-0,085
-146,804	-200,000	0,001	-0,020
-145,789	-200,000	-0,016	0,072
-144,775	-111,089	-0,079	-0,011
-143,760	30,651	-0,135	-0,081
-142,745	-200,000	0,013	-0,079
-141,731	709,522	0,065	-0,122
-140,716	800,000	-0,014	0,044
-139,702	-55,873	0,113	-0,036
-138,687	-4,152	-0,039	-0,019
-137,672	-170,917	-0,112	0,003
-136,658	-200,000	0,003	-0,019
-135,643	120,267	0,069	-0,061
-134,629	-94,863	-0,035	-0,007
-133,614	-198,563	0,069	0,000
-132,599	-79,036	0,057	-0,014
-131,585	-200,000	0,000	-0,028
-130,570	800,000	-0,023	0,053
-129,556	298,596	0,032	0,042
-128,541	-200,000	-0,008	-0,171
-127,526	-42,991	-0,136	0,049
-126,512	537,214	-0,044	0,074
-125,497	34,288	0,034	-0,021
-124,483	-24,568	-0,042	0,018
-123,468	194,579	0,100	0,107
-122,453	800,000	-0,024	0,066
-121,439	52,575	0,009	-0,006
-120,424	800,000	0,026	0,069
-119,410	-14,985	0,090	0,041
-118,395	-16,734	-0,140	-0,062
-117,380	217,235	0,145	0,164
-116,366	-200,000	0,039	-0,133
-115,351	7,827	-0,102	0,054
-114,337	800,000	0,038	-0,076
-113,322	29,695	-0,027	-0,016
-112,307	-10,364	-0,076	-0,036
-111,293	-200,000	0,010	-0,050
-110,278	-200,000	0,010	-0,085
-109,264	-106,208	0,068	-0,011
-108,249	701,714	-0,066	-0,123
-107,234	109,141	0,044	-0,037
-106,220	800,000	0,052	-0,106
-105,205	-200,000	0,032	-0,103
-104,191	309,451	0,070	0,092
-103,176	116,254	-0,070	-0,061
-102,162	50,256	0,079	-0,053
-101,147	45,462	-0,213	-0,139
-100,132	73,874	0,064	0,047
-99,118	-80,047	0,161	-0,038
-98,103	-200,000	0,012	-0,133
-97,089	74,308	0,061	0,046
-96,074	-200,000	-0,007	0,097
-95,059	179,290	-0,093	0,096
-94,045	75,647	-0,032	-0,024
-93,030	-147,750	-0,088	0,005
-92,016	-200,000	-0,033	-0,133
-91,001	-16,913	0,040	-0,018
-89,986	-200,000	0,000	-0,014
-88,972	228,566	0,044	-0,050
-87,957	800,000	0,049	-0,107
-86,943	800,000	0,014	0,039
-85,928	-2,177	-0,109	-0,054
-84,913	-200,000	-0,009	-0,065
-83,899	354,188	0,062	-0,087
-82,884	126,509	-0,057	-0,051
-81,870	-200,000	0,024	0,128
-80,855	459,112	0,032	0,050
-79,840	800,000	0,096	-0,213
-78,826	-200,000	0,036	-0,146
-77,811	-200,000	-0,027	-0,095
-76,797	-109,790	-0,110	-0,016
-75,782	800,000	-0,022	-0,055
-74,767	-60,876	0,112	0,033
-73,753	-122,865	0,145	0,016
-72,738	117,223	-0,082	0,071
-71,724	-200,000	-0,019	-0,086
-70,709	251,314	0,017	-0,020
-69,694	95,479	-0,080	-0,064
-68,680	22,759	0,044	0,025
-67,665	123,755	-0,076	0,067
-66,651	742,613	-0,005	0,009
-65,636	10,672	-0,058	-0,031
-64,622	800,000	0,046	-0,100
-63,607	800,000	-0,016	0,037
-62,592	90,487	-0,089	-0,070
-61,578	74,573	0,139	-0,103
-60,563	-200,000	-0,014	0,064
-59,549	-200,000	0,011	0,040
-58,534	-0,301	-2,027	-1,014
-57,519	374,331	-1,422	-2,050
-56,505	-200,000	-0,257	-4,390
-55,490	403,916	0,862	1,286
-54,476	800,000	5,076	11,622
-53,461	-200,000	20,537	327,116
-52,446	800,000	752,520	2312,109
-51,432	551,268	1657,852	2820,160
-50,417	73,967	1663,493	1230,661
-49,403	19,167	1536,499	868,056
-48,388	13,105	1459,584	795,283
-47,373	18,784	1449,934	817,253
-46,359	16,082	1439,301	798,372
-45,344	11,445	1435,034	773,901
-44,330	11,326	1432,986	772,198
-43,315	11,333	1431,248	771,265
-42,300	11,359	1429,416	770,370
-41,286	11,353	1428,131	769,618
-40,271	11,283	1426,924	768,608
-39,257	11,356	1425,635	768,225
-38,242	11,363	1424,350	767,536
-37,227	11,366	1423,247	766,925
-36,213	11,387	1422,224	766,443
-35,198	11,381	1421,051	765,751
-34,184	11,417	1420,237	765,455
-33,169	11,314	1418,702	764,112
-32,154	11,429	1417,682	764,073
-31,140	11,429	1416,454	763,380
-30,125	11,446	1415,429	762,878
-29,111	11,419	1414,396	762,165
-28,096	11,400	1413,044	761,315
-27,082	11,357	1411,788	760,408
-26,067	11,366	1410,853	759,915
-25,052	11,330	1409,918	759,211
-24,038	11,347	1408,793	758,656
-23,023	11,331	1407,881	758,061
-22,009	11,317	1406,813	757,389
-20,994	11,321	1405,889	756,883
-19,979	11,348	1404,922	756,458
-18,965	11,292	1404,063	755,703
-17,950	11,249	1403,145	754,980
-16,936	11,298	1402,214	754,675
-15,921	11,241	1401,282	753,878
-14,906	11,238	1400,315	753,314
-13,892	11,252	1399,460	752,891
-12,877	11,245	1398,515	752,320
-11,863	11,306	1397,538	752,049
-10,848	11,190	1396,837	751,102
-9,833	11,183	1395,958	750,568
-8,819	11,195	1395,108	750,136
-7,804	11,120	1394,223	749,283
-6,790	11,178	1393,018	748,876
-5,775	11,135	1392,275	748,244
-4,760	11,219	1391,034	747,935
-3,746	11,166	1390,169	747,196
-2,731	11,162	1389,423	746,748
-1,717	11,124	1388,644	746,125
-0,702	11,131	1386,768	745,118
0,313	15,190	1301,465	717,871
1,327	31,560	694,313	420,265
2,342	48,960	120,652	79,781
3,356	1,669	16,475	8,343
4,371	10,532	3,272	1,754
5,386	-28,899	0,831	0,335
6,400	-200,000	0,079	0,372
7,415	-4,931	-0,184	-0,089
8,429	-13,630	-0,413	-0,188
9,444	79,505	-0,329	-0,249
10,459	-12,983	-0,288	-0,132
11,473	340,672	-0,173	-0,239
12,488	145,481	-0,207	-0,195
13,502	6,465	-0,330	-0,172
14,517	181,963	-0,259	-0,269
15,531	130,148	-0,301	-0,271
16,546	239,794	-0,194	-0,228
17,561	10,194	-0,458	-0,244
18,575	153,723	-0,214	-0,207
19,590	471,851	-0,204	-0,324
20,604	-122,047	-0,267	-0,031
21,619	64,418	-0,355	-0,251
22,634	144,770	-0,455	-0,428
23,648	216,736	-0,396	-0,444
24,663	161,519	-0,411	-0,406
25,677	800,000	-0,176	-0,361
26,692	-21,436	-0,408	-0,175
27,707	29,472	-0,332	-0,198
28,721	120,413	-0,223	-0,195
29,736	26,925	-0,472	-0,278
30,750	74,394	-0,417	-0,308
31,765	155,971	-0,371	-0,360
32,780	237,689	-0,229	-0,268
33,794	-8,651	-0,373	-0,176
34,809	-3,628	-0,401	-0,195
35,823	59,161	-0,378	-0,262
36,838	140,867	-0,228	-0,212
37,853	14,007	-0,372	-0,203
38,867	137,592	-0,390	-0,359
39,882	363,844	-0,195	-0,276
40,896	136,263	-0,247	-0,227
41,911	7,310	-0,468	-0,245
42,926	7,502	-0,381	-0,200
43,940	16,224	-0,309	-0,171
44,955	138,140	-0,403	-0,372
45,969	-16,808	-0,414	-0,183
46,984	-74,092	-0,421	-0,106
47,999	197,410	-0,220	-0,236
49,013	132,803	-0,263	-0,239
50,028	800,000	-0,147	-0,295
51,042	42,035	-0,338	-0,215
52,057	-88,011	-0,524	-0,110
53,071	145,680	-0,382	-0,360
54,086	165,554	-0,345	-0,343
55,101	-20,905	-0,377	-0,161
56,115	45,482	-0,380	-0,246
57,130	91,836	-0,260	-0,205
58,144	19,789	-0,340	-0,192
59,159	-7,542	-0,441	-0,208
60,174	-48,295	-0,349	-0,117
61,188	389,813	-0,192	-0,280
62,203	111,256	-0,387	-0,327
63,217	91,336	-0,292	-0,230
64,232	-8,760	-0,281	-0,132
65,247	18,804	-0,400	-0,224
66,261	-13,868	-0,399	-0,180
67,276	110,673	-0,279	-0,236
68,290	85,341	-0,321	-0,247
69,305	12,257	-0,287	-0,155
70,320	73,936	-0,369	-0,271
71,334	63,548	-0,350	-0,246
72,349	-56,401	-0,352	-0,109
73,363	-12,399	-0,399	-0,182
74,378	391,823	-0,234	-0,342
75,393	49,740	-0,293	-0,193
76,407	5,412	-0,401	-0,207
77,422	-130,613	-0,134	-0,012
78,436	100,997	-0,301	-0,246
79,451	142,013	-0,321	-0,299
80,466	4,625	-0,393	-0,202
81,480	171,583	-0,321	-0,323
82,495	80,518	-0,292	-0,220
83,509	167,221	-0,209	-0,208
84,524	-24,158	-0,375	-0,156
85,539	70,332	-0,288	-0,208
86,553	-20,238	-0,332	-0,143
87,568	89,539	-0,276	-0,215
88,582	19,555	-0,391	-0,220
89,597	182,555	-0,328	-0,339
90,611	12,254	-0,223	-0,120
91,626	-31,722	-0,342	-0,134
92,641	-24,246	-0,287	-0,120
93,655	-100,378	-0,167	-0,029
94,670	-22,993	-0,367	-0,154
95,684	31,347	-0,333	-0,199
96,699	200,073	-0,182	-0,196
97,714	46,418	-0,308	-0,200
98,728	36,429	-0,162	-0,100
99,743	1,795	-0,290	-0,146
100,757	-126,640	-0,344	-0,035
101,772	-26,295	-0,222	-0,091
102,787	275,998	-0,286	-0,355
103,801	450,464	-0,162	-0,251
104,816	50,085	-0,218	-0,144
105,830	-17,130	-0,178	-0,078
106,845	55,022	-0,229	-0,154
107,860	-16,765	-0,239	-0,105
108,874	25,224	-0,259	-0,150
109,889	59,471	-0,336	-0,231
110,903	161,951	-0,312	-0,305
111,918	200,852	-0,214	-0,230
112,933	-60,139	-0,210	-0,062
113,947	-106,120	-0,213	-0,033
114,962	159,444	-0,225	-0,219
115,976	201,531	-0,212	-0,228
116,991	-9,674	-0,259	-0,120
118,006	99,899	-0,286	-0,231
119,020	-43,392	-0,310	-0,109
120,035	-39,645	-0,253	-0,092
121,049	-51,607	-0,315	-0,102
122,064	800,000	-0,080	-0,189
123,079	11,998	-0,229	-0,123
124,093	196,027	-0,281	-0,299
125,108	99,506	-0,307	-0,248
126,122	495,942	-0,206	-0,331
127,137	142,637	-0,183	-0,170
128,151	241,633	-0,156	-0,182
129,166	242,076	-0,207	-0,242
130,181	96,155	-0,193	-0,154
131,195	17,810	-0,257	-0,142
132,210	80,582	-0,295	-0,221
133,224	98,823	-0,237	-0,191
134,239	-100,115	-0,206	-0,035
135,254	77,520	-0,188	-0,140
136,268	164,973	-0,263	-0,259
137,283	16,614	-0,351	-0,193
138,297	302,013	-0,172	-0,222
139,312	-12,213	-0,310	-0,141
140,327	455,136	-0,194	-0,301
141,341	-0,128	-0,219	-0,108
142,356	134,205	-0,308	-0,279
143,370	38,001	-0,271	-0,167
144,385	241,736	-0,224	-0,262
145,400	62,635	-0,292	-0,203
146,414	135,577	-0,262	-0,237
147,429	105,719	-0,309	-0,255
148,443	39,765	-0,164	-0,102
149,458	329,346	-0,114	-0,153
150,473	-113,703	-0,216	-0,029
151,487	226,452	-0,159	-0,180
152,502	115,153	-0,211	-0,179
153,516	48,022	-0,310	-0,201
154,531	53,985	-0,257	-0,172
155,546	-34,999	-0,282	-0,106
156,560	413,523	-0,147	-0,219
157,575	113,454	-0,174	-0,147
158,589	42,571	-0,288	-0,182
159,604	70,172	-0,212	-0,152
160,619	-92,893	-0,230	-0,044
161,633	-90,483	-0,244	-0,049
162,648	-83,951	-0,232	-0,051
163,662	113,520	-0,139	-0,118
164,677	169,761	-0,203	-0,202
165,692	-126,975	-0,284	0,029
166,706	-10,824	-0,285	-0,130
167,721	653,096	-0,164	-0,294
168,735	23,019	-0,307	-0,174
169,750	98,215	-0,199	-0,159
170,764	-42,115	-0,259	-0,092
171,779	47,049	-0,204	-0,132
172,794	-21,319	-0,209	-0,088
173,808	91,005	-0,247	-0,192
174,823	155,706	-0,235	-0,225
175,837	-3,018	-0,251	-0,122
176,852	235,803	-0,153	-0,176
177,867	-66,371	-0,149	-0,041
178,881	-10,785	-0,107	-0,049
179,896	-46,221	-0,207	0,070
180,910	-40,378	-0,220	-0,079
181,925	-108,343	-0,270	-0,040
182,940	74,460	-0,170	-0,124
183,954	246,019	-0,183	-0,214
184,969	800,000	-0,085	-0,198
185,983	-152,928	-0,213	-0,010
186,998	609,980	-0,138	-0,240
188,013	174,595	-0,187	-0,188
189,027	204,989	-0,202	-0,218
190,042	39,993	-0,395	-0,245
191,056	333,598	-0,181	-0,243
192,071	439,742	-0,114	-0,173
193,086	-68,708	-0,221	-0,059
194,100	-114,993	-0,198	-0,026
195,115	-166,664	-0,228	-0,006
196,129	-200,000	0,017	-0,159
197,144	439,305	-0,161	-0,244
198,159	326,546	-0,168	-0,223
199,173	71,732	-0,205	-0,148
200,188	75,546	-0,157	-0,115
201,202	79,768	-0,236	-0,176
202,217	29,292	-0,279	-0,164
203,232	-134,633	-0,235	-0,020
204,246	41,165	-0,210	-0,131
205,261	-200,000	-0,063	-0,211
206,275	-35,860	-0,243	-0,091
207,290	16,627	-0,289	-0,158
208,304	104,560	-0,105	-0,085
209,319	115,040	-0,155	-0,131
210,334	351,120	-0,206	-0,284
211,348	300,637	-0,213	-0,273
212,363	59,457	-0,243	-0,166
213,377	-15,952	-0,198	-0,087
214,392	-45,968	-0,216	-0,073
215,407	800,000	-0,100	-0,298
216,421	-200,000	-0,010	-0,173
217,436	188,217	-0,207	-0,214
218,450	191,768	-0,276	-0,288
219,465	800,000	-0,156	-0,312
220,480	274,813	-0,133	-0,163
221,494	119,004	-0,236	-0,202
222,509	58,026	-0,042	-0,028
223,523	-76,843	-0,234	-0,056
224,538	49,429	-0,270	-0,175
225,553	-8,810	-0,312	-0,144
226,567	130,987	-0,215	-0,191
227,582	-200,000	-0,046	-0,157
228,596	103,087	-0,156	-0,126
229,611	26,935	-0,131	-0,076
230,626	-48,201	-0,236	-0,078
231,640	177,037	-0,198	-0,199
232,655	62,808	-0,217	-0,150
233,669	800,000	-0,109	-0,290
234,684	660,043	-0,114	-0,204
235,699	101,014	-0,184	-0,148
236,713	-11,615	-0,210	-0,095
237,728	188,118	-0,139	-0,144
238,742	20,680	-0,151	-0,084
239,757	800,000	-0,140	-0,285
240,772	86,775	-0,247	-0,188
241,786	800,000	-0,082	-0,206
242,801	71,746	-0,134	-0,096
243,815	64,506	-0,230	-0,160
244,830	800,000	-0,051	-0,132
245,844	130,823	-0,137	-0,122
246,859	-80,888	-0,272	-0,062
247,874	39,588	-0,278	-0,172
248,888	105,586	-0,277	-0,226
249,903	722,393	-0,029	-0,054
250,917	496,266	-0,148	-0,236
251,932	-89,751	-0,158	0,032
252,947	-33,293	-0,244	-0,093
253,961	-3,422	-0,305	-0,146
254,976	214,428	-0,072	-0,079
255,990	0,345	-0,194	-0,095
257,005	-142,855	-0,100	-0,007
258,020	-93,417	-0,146	0,028
259,034	164,837	-0,176	-0,171
260,049	127,247	-0,126	-0,111
261,063	84,846	-0,218	-0,164
262,078	177,556	-0,179	-0,180
263,093	-2,515	-0,195	-0,094
264,107	-7,949	-0,233	-0,108
265,122	800,000	-0,081	-0,240
266,136	-200,000	-0,024	-0,122
267,151	163,156	-0,191	-0,185
268,166	60,424	-0,172	-0,117
269,180	800,000	-0,062	-0,165
270,195	281,101	-0,235	-0,291
271,209	71,230	-0,169	-0,121
272,224	16,626	-0,142	-0,077
273,239	-200,000	-0,001	0,029
274,253	-139,677	-0,220	-0,016
275,268	-32,129	-0,174	-0,067
276,282	14,239	-0,269	-0,144
277,297	-130,155	-0,269	0,025
278,312	-102,466	-0,143	0,023
279,326	-65,756	-0,105	0,029
280,341	149,890	-0,141	-0,132
281,355	-40,882	-0,185	-0,066
282,370	-101,589	-0,103	-0,017
283,384	-200,000	-0,044	-0,230
284,399	122,155	-0,167	-0,143
285,414	106,093	-0,099	-0,080
286,428	134,357	-0,129	-0,115
287,443	94,277	-0,098	-0,076
288,457	190,319	-0,175	-0,181
289,472	-114,019	-0,148	0,020
290,487	115,280	-0,123	-0,103
291,501	295,979	-0,124	-0,157
292,516	-99,307	-0,070	-0,012
293,530	220,339	-0,183	-0,202
294,545	-29,118	-0,219	-0,086
295,560	555,985	-0,091	-0,151
296,574	199,369	-0,200	-0,211
297,589	239,600	-0,165	-0,189
298,603	142,971	-0,106	-0,097
299,618	70,401	-0,143	-0,101
300,633	76,857	-0,142	-0,104
301,647	31,085	-0,045	-0,027
302,662	-102,217	-0,157	-0,026
303,676	331,997	-0,043	-0,057
304,691	110,484	-0,147	-0,121
305,706	-136,845	-0,121	-0,009
306,720	240,868	-0,130	-0,149
307,735	703,835	-0,130	-0,237
308,749	-200,000	-0,017	0,055
309,764	357,208	-0,147	-0,202
310,779	800,000	-0,075	-0,202
311,793	134,729	-0,195	-0,174
312,808	41,115	-0,199	-0,123
313,822	-24,585	-0,233	-0,095
314,837	2,756	-0,301	-0,150
315,852	-1,320	-0,107	-0,052
316,866	560,467	-0,087	-0,144
317,881	-16,500	-0,127	-0,055
318,895	165,721	-0,161	-0,156
319,910	800,000	-0,087	-0,182
320,925	309,394	-0,164	-0,211
321,939	281,431	-0,114	-0,140
322,954	800,000	-0,100	-0,240
323,968	743,880	-0,053	-0,098
324,983	143,280	-0,106	-0,097
325,997	-5,318	-0,100	-0,047
327,012	-8,570	-0,190	-0,087
328,027	36,330	-0,138	-0,083
329,041	126,075	-0,113	-0,098
330,056	-11,302	-0,174	-0,078
331,070	800,000	-0,022	-0,062
332,085	-74,057	-0,186	-0,046
333,100	261,932	-0,123	-0,146
334,114	89,658	-0,128	-0,098
335,129	800,000	-0,112	-0,249
336,143	338,300	-0,120	-0,160
337,158	-75,062	-0,138	-0,034
338,173	-51,562	-0,225	-0,072
339,187	501,973	-0,077	-0,122
340,202	97,588	-0,199	-0,157
341,216	-35,697	-0,210	-0,078
342,231	136,226	-0,149	-0,133
343,246	3,572	-0,085	-0,042
344,260	25,976	-0,137	-0,078
345,275	4,561	0,034	-0,017
346,289	-200,000	0,011	-0,054
347,304	453,018	-0,098	-0,149
348,319	76,422	-0,239	-0,173
349,333	102,826	-0,212	-0,170
350,348	207,321	-0,205	-0,219
351,362	-200,000	-0,003	-0,062
352,377	70,597	-0,185	-0,131
353,392	-119,079	-0,147	-0,017
354,406	307,589	-0,079	-0,101
355,421	207,688	1308,134	1398,641
356,435	159,784	1468,027	1399,137
