DTS Sentinel unit serial number:	SN410029Multiplexer serial number:	ORYXHardware model number:	OX2-SRSoftware version number:	ORYX F/W v4,00 Oryx Data Collector v3.7.2.0data status	okinstallation	B3 Nyhavnadifferential loss correction	single-endedforward channel	channel 1reverse channel	N/Adate	2023/12/02time	05:17:30forward acquisition time	300,00reverse acquisition time	0,00gamma	499,1914k internal	0,3194k external	0,3194temperature offset calibration	1,0000default loss term (dB/km)	0,3820temperature slope calibration	1,0000multiplexer offset coefficient	1,0000multiplexer slope coefficient	1,0000fibre end	0,00T internal ref (°C)	16,30T ext. ref 1 (°C)	1,04T ext. ref 2 (°C)	1,03length (m)	temperature (°C)	Stokes	anti-Stokes-744,400	111,941	-0,228	-0,201
-743,385	-200,000	-0,018	0,322
-742,371	800,000	-0,073	-0,229
-741,356	800,000	0,113	0,321
-740,342	121,801	-0,210	-0,191
-739,327	800,000	-0,096	0,309
-738,312	92,260	-0,242	-0,198
-737,298	-200,000	0,030	0,314
-736,283	90,680	-0,250	-0,204
-735,269	528,471	0,178	0,307
-734,254	102,458	-0,350	-0,298
-733,239	-139,606	-0,170	0,013
-732,225	651,432	-0,105	-0,197
-731,210	-47,277	0,148	0,052
-730,196	310,326	-0,073	0,099
-729,181	-200,000	0,009	0,091
-728,167	-200,000	-0,006	-0,185
-727,152	22,051	-0,094	0,055
-726,137	-1,544	-0,127	-0,065
-725,123	-75,357	0,087	-0,023
-724,108	800,000	-0,050	-0,136
-723,094	248,715	-0,163	-0,201
-722,079	-87,778	-0,107	-0,023
-721,064	-200,000	-0,009	-0,052
-720,050	31,340	-0,064	0,040
-719,035	307,249	0,031	-0,043
-718,021	-200,000	-0,011	-0,068
-717,006	34,229	-0,059	-0,038
-715,991	235,050	-0,039	-0,047
-714,977	-200,000	-0,012	-0,060
-713,962	800,000	-0,047	0,113
-712,948	-200,000	-0,017	-0,114
-711,933	-200,000	-0,003	0,017
-710,918	82,161	-0,052	-0,041
-709,904	182,567	-0,084	-0,090
-708,889	-153,373	-0,049	-0,002
-707,875	-200,000	-0,008	-0,056
-706,860	800,000	0,037	0,088
-705,845	328,228	0,062	0,086
-704,831	-60,724	0,047	-0,015
-703,816	742,683	0,009	-0,017
-702,802	-8,073	-0,067	-0,033
-701,787	-200,000	-0,026	-0,118
-700,772	-115,431	0,073	-0,010
-699,758	151,798	-0,037	0,036
-698,743	254,091	0,139	-0,173
-697,729	-200,000	0,008	0,125
-696,714	-133,812	-0,007	0,001
-695,699	19,964	0,052	-0,030
-694,685	-200,000	0,012	-0,093
-693,670	-200,000	0,001	-0,014
-692,656	33,077	-0,166	-0,104
-691,641	800,000	-0,021	-0,046
-690,627	-116,844	0,133	0,018
-689,612	321,920	0,053	0,074
-688,597	495,364	0,048	0,081
-687,583	-200,000	-0,033	-0,144
-686,568	800,000	0,035	-0,085
-685,554	-200,000	0,025	-0,124
-684,539	29,987	-0,127	0,079
-683,524	-84,366	0,070	0,016
-682,510	608,795	-0,104	0,190
-681,495	-200,000	0,011	0,068
-680,481	8,245	-0,128	-0,070
-679,466	244,998	-0,045	0,056
-678,451	800,000	0,026	-0,067
-677,437	-200,000	-0,011	0,101
-676,422	-98,807	-0,131	0,024
-675,408	121,271	-0,025	0,022
-674,393	-200,000	-0,011	-0,036
-673,378	-11,887	-0,093	-0,044
-672,364	-200,000	-0,014	-0,051
-671,349	-43,816	-0,151	-0,055
-670,335	125,260	-0,031	0,028
-669,320	57,669	-0,102	-0,073
-668,305	-200,000	0,027	-0,090
-667,291	156,760	0,012	-0,012
-666,276	-91,852	-0,101	-0,021
-665,262	-200,000	-0,047	-0,197
-664,247	-200,000	-0,026	-0,140
-663,232	-123,207	-0,100	-0,012
-662,218	251,211	0,088	0,109
-661,203	-200,000	0,003	-0,046
-660,189	-50,292	-0,086	-0,029
-659,174	128,366	0,106	-0,098
-658,159	130,711	0,025	-0,023
-657,145	19,663	-0,057	0,033
-656,130	72,324	-0,110	-0,083
-655,116	-200,000	-0,007	0,037
-654,101	-200,000	0,050	0,164
-653,086	597,875	0,036	-0,065
-652,072	124,750	-0,074	0,068
-651,057	101,454	-0,024	-0,020
-650,043	-128,321	-0,048	0,005
-649,028	-98,682	-0,032	0,006
-648,014	12,787	0,045	0,025
-646,999	-200,000	-0,017	0,086
-645,984	-200,000	0,041	-0,161
-644,970	-99,548	-0,083	0,015
-643,955	-200,000	0,014	-0,164
-642,941	158,411	-0,084	0,085
-641,926	202,532	0,045	-0,051
-640,911	-200,000	-0,009	0,113
-639,897	-32,601	0,016	-0,006
-638,882	426,261	-0,028	0,044
-637,868	214,013	-0,055	-0,063
-636,853	187,575	-0,061	0,066
-635,838	251,326	0,059	-0,073
-634,824	800,000	-0,020	0,053
-633,809	-200,000	-0,015	0,171
-632,795	-200,000	-0,008	0,076
-631,780	800,000	-0,077	0,176
-630,765	40,585	0,155	-0,101
-629,751	-78,122	0,083	-0,021
-628,736	1,651	-0,121	-0,063
-627,722	57,900	-0,157	0,111
-626,707	80,412	-0,089	-0,070
-625,692	800,000	0,013	-0,038
-624,678	179,281	0,028	-0,030
-623,663	650,310	-0,090	0,167
-622,649	-63,523	-0,029	-0,009
-621,634	800,000	0,023	-0,069
-620,619	-25,080	-0,081	0,035
-619,605	440,558	-0,046	-0,073
-618,590	-14,908	0,087	-0,040
-617,576	800,000	-0,027	0,063
-616,561	-61,752	0,025	-0,008
-615,546	-31,345	-0,050	-0,020
-614,532	-200,000	-0,018	-0,092
-613,517	-36,566	-0,065	-0,025
-612,503	-200,000	-0,010	-0,151
-611,488	800,000	0,027	-0,083
-610,474	-85,343	-0,033	0,007
-609,459	-97,007	-0,071	0,013
-608,444	-200,000	0,000	-0,030
-607,430	239,527	-0,080	-0,096
-606,415	800,000	-0,033	-0,076
-605,401	210,253	-0,020	0,022
-604,386	-200,000	0,017	0,078
-603,371	-200,000	-0,003	0,096
-602,357	800,000	0,022	-0,051
-601,342	-78,007	-0,100	-0,025
-600,328	381,988	-0,091	-0,136
-599,313	1,654	0,103	0,054
-598,298	-80,620	-0,103	-0,025
-597,284	-154,793	0,201	-0,009
-596,269	-159,369	0,084	-0,003
-595,255	-200,000	-0,012	-0,055
-594,240	484,707	0,003	-0,006
-593,225	-200,000	0,016	-0,221
-592,211	-147,707	-0,043	-0,003
-591,196	-200,000	0,006	-0,148
-590,182	375,376	-0,025	-0,037
-589,167	118,575	0,119	0,107
-588,152	228,771	0,029	-0,035
-587,138	185,505	-0,027	-0,029
-586,123	800,000	-0,021	0,062
-585,109	800,000	-0,057	-0,168
-584,094	-200,000	0,022	0,084
-583,079	262,097	-0,044	-0,056
-582,065	-24,138	0,138	-0,059
-581,050	-200,000	0,022	-0,124
-580,036	131,713	0,016	0,015
-579,021	503,449	0,015	0,026
-578,006	-57,312	0,087	-0,028
-576,992	211,762	0,066	0,076
-575,977	70,004	0,072	0,054
-574,963	-115,026	0,084	0,011
-573,948	-112,118	-0,121	-0,017
-572,934	130,132	-0,078	0,072
-571,919	665,949	-0,030	-0,056
-570,904	-90,088	-0,101	-0,021
-569,890	800,000	0,024	-0,062
-568,875	-138,879	0,091	0,007
-567,861	-200,000	0,015	0,069
-566,846	-133,037	-0,115	0,010
-565,831	-200,000	-0,013	-0,058
-564,817	-58,516	0,087	0,027
-563,802	-34,437	-0,113	-0,045
-562,788	-200,000	-0,003	-0,024
-561,773	-159,724	-0,104	-0,004
-560,758	-200,000	-0,009	-0,047
-559,744	-103,925	-0,042	-0,007
-558,729	-163,733	0,082	0,003
-557,715	1,157	-0,076	-0,039
-556,700	218,105	-0,024	0,027
-555,685	241,646	-0,070	-0,084
-554,671	-200,000	0,005	-0,068
-553,656	-200,000	0,042	0,160
-552,642	144,288	0,117	0,113
-551,627	-200,000	0,009	0,116
-550,612	269,328	-0,007	-0,009
-549,598	45,203	-0,166	-0,111
-548,583	800,000	-0,030	-0,080
-547,569	-200,000	0,026	0,124
-546,554	-149,264	0,029	0,002
-545,539	-200,000	0,006	-0,167
-544,525	-200,000	-0,016	0,087
-543,510	800,000	-0,009	-0,027
-542,496	769,248	0,022	0,044
-541,481	-62,577	-0,189	-0,056
-540,466	210,897	0,070	0,079
-539,452	671,293	-0,062	-0,116
-538,437	-16,355	0,079	0,036
-537,423	7,975	-0,059	0,032
-536,408	-61,110	-0,059	0,018
-535,393	529,956	0,054	-0,093
-534,379	-30,785	-0,012	-0,005
-533,364	800,000	0,037	-0,090
-532,350	204,101	-0,103	0,115
-531,335	800,000	0,048	0,123
-530,321	45,795	0,140	0,093
-529,306	55,120	-0,059	0,041
-528,291	-109,958	-0,055	-0,008
-527,277	-200,000	-0,013	-0,046
-526,262	-128,954	-0,144	0,014
-525,248	649,183	-0,080	0,149
-524,233	-26,744	0,207	-0,087
-523,218	83,212	-0,064	-0,050
-522,204	82,227	0,080	0,063
-521,189	-85,365	-0,146	-0,033
-520,175	367,122	-0,043	0,062
-519,160	800,000	0,074	-0,174
-518,145	22,628	0,059	-0,035
-517,131	-95,962	0,097	-0,019
-516,116	297,633	-0,053	-0,070
-515,102	800,000	0,004	-0,009
-514,087	-62,180	0,055	-0,017
-513,072	800,000	-0,054	0,122
-512,058	8,901	-0,145	-0,079
-511,043	32,278	0,158	0,098
-510,029	56,257	-0,097	-0,068
-509,014	61,911	-0,046	-0,033
-507,999	636,707	0,035	0,065
-506,985	232,677	-0,070	-0,083
-505,970	-106,697	-0,125	-0,020
-504,956	800,000	0,060	-0,129
-503,941	101,143	0,096	-0,080
-502,926	-200,000	-0,005	0,030
-501,912	332,223	0,055	0,077
-500,897	3,144	-0,077	0,041
-499,883	437,941	-0,084	0,132
-498,868	-200,000	-0,001	-0,136
-497,853	-200,000	0,009	-0,048
-496,839	221,487	-0,014	-0,016
-495,824	52,357	-0,062	0,043
-494,810	800,000	0,043	0,090
-493,795	-200,000	0,048	0,177
-492,781	131,931	-0,036	-0,034
-491,766	-200,000	0,013	-0,095
-490,751	-36,614	0,181	-0,070
-489,737	-120,409	-0,049	0,006
-488,722	494,201	0,099	-0,164
-487,708	-26,033	0,079	-0,033
-486,693	-200,000	0,016	0,055
-485,678	-99,370	0,061	0,011
-484,664	79,279	-0,087	0,067
-483,649	108,482	-0,015	0,013
-482,635	104,833	0,099	-0,084
-481,620	70,774	0,090	-0,067
-480,605	-71,196	0,082	0,022
-479,591	-68,881	0,071	-0,020
-478,576	-200,000	-0,004	0,020
-477,562	196,494	0,019	-0,021
-476,547	-164,155	0,063	0,002
-475,532	89,432	0,055	-0,044
-474,518	332,207	-0,020	-0,029
-473,503	800,000	-0,023	0,062
-472,489	-173,494	0,065	-0,001
-471,474	-200,000	-0,007	-0,045
-470,459	-200,000	-0,044	-0,191
-469,445	-13,477	-0,047	0,022
-468,430	104,389	-0,077	0,065
-467,416	-87,826	-0,100	-0,021
-466,401	-200,000	0,011	0,048
-465,386	-59,557	0,138	0,042
-464,372	172,995	-0,057	-0,060
-463,357	-200,000	0,005	-0,022
-462,343	-45,355	0,026	-0,009
-461,328	-200,000	-0,031	-0,104
-460,313	22,108	0,032	0,019
-459,299	-114,542	0,162	-0,022
-458,284	800,000	-0,028	0,059
-457,270	800,000	0,058	0,162
-456,255	-200,000	0,001	0,008
-455,241	31,848	-0,023	0,014
-454,226	-200,000	0,013	-0,151
-453,211	-17,856	0,051	0,023
-452,197	-148,776	-0,043	0,003
-451,182	8,146	0,120	0,065
-450,168	-24,320	0,051	-0,022
-449,153	99,023	-0,106	-0,089
-448,138	194,644	-0,142	-0,155
-447,124	430,133	0,015	0,023
-446,109	51,501	0,106	-0,072
-445,095	-132,369	0,081	0,007
-444,080	800,000	-0,061	0,148
-443,065	144,495	-0,062	-0,060
-442,051	27,063	0,054	0,033
-441,036	800,000	-0,024	-0,055
-440,022	-200,000	0,007	0,027
-439,007	-49,064	-0,147	-0,050
-437,992	-27,030	0,173	-0,072
-436,978	800,000	-0,008	-0,018
-435,963	-200,000	0,006	0,085
-434,949	122,026	-0,054	0,049
-433,934	-200,000	0,007	0,081
-432,919	20,250	-0,054	0,031
-431,905	-200,000	0,028	-0,137
-430,890	-76,203	0,029	-0,007
-429,876	-70,955	0,144	0,039
-428,861	238,608	-0,105	0,126
-427,846	-27,873	0,125	-0,052
-426,832	-71,328	-0,109	0,029
-425,817	800,000	-0,053	-0,156
-424,803	-200,000	-0,023	-0,134
-423,788	230,633	0,042	-0,049
-422,773	376,222	0,041	0,060
-421,759	-200,000	-0,006	0,043
-420,744	-136,331	0,065	-0,005
-419,730	-200,000	0,017	-0,065
-418,715	183,609	-0,103	-0,110
-417,701	-200,000	-0,004	-0,107
-416,686	-1,671	0,052	-0,026
-415,671	-10,152	0,186	0,088
-414,657	-106,099	0,017	0,003
-413,642	-53,892	-0,135	0,044
-412,628	-200,000	-0,014	-0,153
-411,613	-200,000	-0,004	0,185
-410,598	-200,000	-0,020	-0,104
-409,584	-117,494	0,098	0,013
-408,569	-200,000	-0,012	0,175
-407,555	-200,000	-0,003	0,045
-406,540	83,530	-0,029	0,023
-405,525	800,000	0,034	-0,082
-404,511	-200,000	-0,006	0,066
-403,496	-63,169	-0,083	-0,024
-402,482	-133,274	0,114	0,010
-401,467	-121,710	0,082	0,010
-400,452	-48,604	0,030	-0,010
-399,438	800,000	-0,052	0,154
-398,423	613,571	-0,035	-0,064
-397,409	-200,000	0,021	-0,112
-396,394	188,853	-0,106	-0,115
-395,379	426,674	0,116	-0,180
-394,365	-50,657	0,122	-0,041
-393,350	-79,178	0,201	0,049
-392,336	447,149	0,027	0,043
-391,321	-200,000	-0,049	0,222
-390,306	329,110	0,118	0,163
-389,292	-132,148	0,094	-0,009
-388,277	-200,000	-0,010	-0,098
-387,263	279,789	0,128	0,165
-386,248	-41,199	0,030	0,011
-385,233	800,000	-0,057	0,131
-384,219	-148,728	-0,084	0,005
-383,204	-95,740	-0,096	0,018
-382,190	-67,624	-0,053	0,015
-381,175	-79,884	0,052	0,012
-380,160	-74,487	-0,042	-0,011
-379,146	-45,960	0,053	0,019
-378,131	-106,098	0,072	0,011
-377,117	698,165	-0,031	-0,059
-376,102	89,888	0,013	0,010
-375,088	-134,924	0,045	-0,004
-374,073	407,353	0,069	0,105
-373,058	-80,985	0,076	-0,018
-372,044	-72,917	0,115	0,030
-371,029	146,636	-0,043	0,041
-370,015	-200,000	-0,009	0,119
-369,000	800,000	-0,054	-0,111
-367,985	-200,000	0,026	-0,149
-366,971	97,964	0,027	0,022
-365,956	-200,000	0,055	0,212
-364,942	-50,814	0,145	0,049
-363,927	800,000	-0,012	0,025
-362,912	43,284	0,079	-0,051
-361,898	88,403	0,006	0,004
-360,883	-200,000	-0,009	-0,098
-359,869	1,150	-0,059	-0,030
-358,854	-200,000	0,009	-0,122
-357,839	-150,726	0,085	0,005
-356,825	267,348	0,085	0,108
-355,810	390,063	0,015	-0,023
-354,796	326,827	-0,052	-0,072
-353,781	-112,383	-0,082	-0,012
-352,766	-38,722	-0,083	-0,031
-351,752	-4,158	0,121	0,060
-350,737	-200,000	-0,001	0,049
-349,723	108,165	0,047	0,040
-348,708	800,000	0,074	0,182
-347,693	800,000	0,043	-0,105
-346,679	20,196	-0,091	-0,052
-345,664	-19,703	-0,025	0,011
-344,650	118,716	0,078	0,069
-343,635	-54,897	-0,064	0,021
-342,620	-200,000	0,002	0,072
-341,606	-95,717	0,252	0,048
-340,591	800,000	-0,032	0,094
-339,577	-200,000	-0,006	-0,151
-338,562	-73,766	0,098	-0,025
-337,548	-165,810	-0,088	-0,003
-336,533	800,000	0,028	-0,058
-335,518	-5,352	0,049	0,024
-334,504	716,503	0,027	-0,051
-333,489	-200,000	0,010	-0,068
-332,475	-58,333	-0,088	-0,027
-331,460	-200,000	0,031	-0,116
-330,445	-200,000	0,011	-0,096
-329,431	-100,345	-0,084	0,015
-328,416	800,000	0,056	0,124
-327,402	-200,000	0,000	0,044
-326,387	800,000	-0,056	0,138
-325,372	-119,259	-0,160	0,020
-324,358	-200,000	0,022	-0,089
-323,343	-140,207	-0,027	0,002
-322,329	169,762	-0,124	0,127
-321,314	-21,498	0,031	-0,013
-320,299	509,004	0,039	-0,065
-319,285	482,391	-0,021	-0,034
-318,270	-87,109	-0,101	-0,022
-317,256	-94,589	-0,030	-0,006
-316,241	115,198	-0,099	-0,087
-315,226	800,000	-0,013	0,034
-314,212	-200,000	-0,027	0,099
-313,197	-200,000	0,012	-0,077
-312,183	800,000	0,061	0,121
-311,168	101,673	0,032	0,027
-310,153	53,184	-0,029	-0,020
-309,139	800,000	-0,018	-0,043
-308,124	556,445	-0,053	0,091
-307,110	-70,927	-0,105	0,028
-306,095	-52,114	-0,071	0,023
-305,080	-114,169	0,204	-0,028
-304,066	-185,966	-0,103	-0,001
-303,051	261,664	-0,142	-0,177
-302,037	-93,816	-0,026	-0,005
-301,022	-8,113	0,059	-0,029
-300,008	95,044	-0,093	0,076
-298,993	67,635	0,071	-0,052
-297,978	-83,690	-0,064	0,015
-296,964	-175,084	-0,075	-0,001
-295,949	-200,000	-0,018	-0,212
-294,935	800,000	-0,033	-0,077
-293,920	-35,748	0,055	0,021
-292,905	-200,000	-0,010	0,109
-291,891	200,433	-0,052	0,058
-290,876	33,935	-0,052	0,032
-289,862	-200,000	-0,016	-0,060
-288,847	454,389	0,060	-0,095
-287,832	-62,391	-0,174	-0,051
-286,818	-200,000	-0,020	0,138
-285,803	-200,000	0,006	0,081
-284,789	288,671	-0,046	0,060
-283,774	712,801	0,059	0,112
-282,759	466,749	-0,017	-0,027
-281,745	-149,166	0,057	-0,003
-280,730	314,559	-0,015	-0,020
-279,716	800,000	-0,011	-0,024
-278,701	135,088	0,111	0,103
-277,686	-123,140	0,122	0,014
-276,672	-112,028	-0,075	-0,011
-275,657	-87,714	0,031	0,007
-274,643	478,201	0,055	-0,090
-273,628	253,693	0,025	0,030
-272,613	73,499	-0,054	-0,040
-271,599	-15,687	0,106	0,048
-270,584	-200,000	0,014	0,129
-269,570	129,307	0,073	-0,067
-268,555	-200,000	0,028	-0,234
-267,540	99,230	0,075	-0,062
-266,526	222,009	-0,072	-0,083
-265,511	182,509	-0,043	0,046
-264,497	58,384	0,021	-0,015
-263,482	126,274	-0,061	-0,055
-262,467	-43,062	-0,076	-0,027
-261,453	-52,594	0,080	-0,026
-260,438	800,000	-0,014	0,030
-259,424	651,461	-0,071	-0,130
-258,409	92,321	0,072	0,058
-257,395	8,703	0,080	0,043
-256,380	800,000	0,024	0,071
-255,365	142,026	-0,078	-0,074
-254,351	-200,000	0,021	0,171
-253,336	-91,001	0,017	-0,003
-252,322	-34,714	-0,110	-0,043
-251,307	442,976	-0,040	0,064
-250,292	226,439	0,092	0,107
-249,278	-200,000	-0,008	0,033
-248,263	-76,761	0,094	0,023
-247,249	-115,789	0,075	-0,010
-246,234	327,633	0,044	-0,060
-245,219	755,061	0,043	-0,083
-244,205	664,767	-0,058	-0,107
-243,190	64,329	0,082	-0,059
-242,176	-200,000	0,002	-0,044
-241,161	-55,938	0,173	-0,055
-240,146	108,860	-0,117	0,100
-239,132	-200,000	-0,012	0,109
-238,117	-4,689	-0,031	-0,015
-237,103	42,357	-0,079	0,051
-236,088	-137,218	-0,061	-0,005
-235,073	800,000	0,035	0,085
-234,059	337,851	0,088	0,123
-233,044	60,152	-0,110	0,078
-232,030	12,044	-0,057	0,031
-231,015	185,719	-0,047	0,050
-230,000	274,627	0,059	0,075
-228,986	265,751	0,030	0,038
-227,971	155,596	0,074	0,073
-226,957	-114,024	-0,126	0,017
-225,942	-143,059	0,207	0,014
-224,927	610,340	-0,033	0,059
-223,913	-77,183	-0,094	-0,023
-222,898	-200,000	0,021	0,104
-221,884	800,000	-0,029	0,059
-220,869	681,795	0,032	-0,060
-219,855	-89,696	0,106	-0,022
-218,840	800,000	-0,078	0,179
-217,825	-200,000	0,002	0,066
-216,811	586,188	0,098	0,172
-215,796	243,900	-0,045	0,055
-214,782	122,977	0,053	-0,048
-213,767	-80,210	-0,191	0,045
-212,752	800,000	-0,003	-0,007
-211,738	125,367	-0,078	-0,070
-210,723	623,064	-0,039	0,070
-209,709	-200,000	-0,037	0,127
-208,694	80,354	0,019	0,015
-207,679	-200,000	-0,025	-0,080
-206,665	800,000	-0,065	0,153
-205,650	-200,000	-0,004	-0,040
-204,636	-200,000	0,031	0,119
-203,621	141,481	0,070	0,066
-202,606	4,807	-0,087	-0,045
-201,592	345,947	-0,063	0,089
-200,577	-200,000	-0,002	-0,044
-199,563	-200,000	-0,027	-0,087
-198,548	64,278	0,109	0,078
-197,533	-200,000	-0,009	-0,045
-196,519	37,978	-0,079	-0,050
-195,504	-44,682	-0,042	-0,015
-194,490	134,177	0,075	-0,070
-193,475	-200,000	-0,012	-0,168
-192,460	800,000	0,032	0,084
-191,446	-200,000	0,009	-0,063
-190,431	-16,582	-0,076	0,034
-189,417	-76,359	-0,042	0,010
-188,402	94,709	0,066	-0,054
-187,387	-118,311	-0,098	-0,012
-186,373	297,525	-0,081	0,106
-185,358	233,425	-0,023	-0,027
-184,344	591,209	-0,049	-0,087
-183,329	-41,924	0,084	-0,031
-182,315	-200,000	0,020	-0,101
-181,300	-28,417	-0,013	-0,005
-180,285	58,329	-0,054	0,037
-179,271	-111,456	-0,056	-0,008
-178,256	133,836	0,040	0,037
-177,242	-200,000	-0,007	0,040
-176,227	800,000	0,022	0,050
-175,212	403,531	0,050	0,076
-174,198	-78,632	0,091	0,022
-173,183	47,432	-0,078	-0,052
-172,169	161,495	-0,085	0,085
-171,154	262,314	0,052	0,064
-170,139	109,319	0,071	-0,061
-169,125	-124,822	-0,075	0,008
-168,110	18,444	-0,036	-0,020
-167,096	594,639	-0,014	0,025
-166,081	-200,000	-0,004	-0,143
-165,066	778,187	-0,042	0,082
-164,052	-200,000	-0,001	-0,068
-163,037	800,000	0,074	0,203
-162,023	-200,000	-0,015	-0,071
-161,008	-200,000	-0,010	-0,059
-159,993	100,303	-0,030	0,025
-158,979	36,922	-0,072	-0,045
-157,964	-89,855	-0,138	-0,028
-156,950	194,778	0,052	0,056
-155,935	144,643	-0,045	-0,043
-154,920	800,000	-0,018	-0,047
-153,906	-26,066	0,182	0,076
-152,891	-200,000	-0,008	0,034
-151,877	436,361	-0,085	-0,133
-150,862	381,971	-0,060	-0,088
-149,847	0,490	0,047	-0,024
-148,833	-200,000	0,051	-0,185
-147,818	-77,558	0,020	0,005
-146,804	23,979	0,094	0,055
-145,789	-24,832	0,037	-0,016
-144,775	-200,000	-0,007	-0,040
-143,760	459,857	-0,055	0,088
-142,745	61,439	0,058	-0,041
-141,731	-19,308	0,031	0,014
-140,716	-76,255	0,082	-0,020
-139,702	85,489	-0,136	0,106
-138,687	-54,206	-0,081	0,026
-137,672	-102,773	0,070	0,012
-136,658	36,567	0,098	-0,061
-135,643	519,736	-0,037	-0,062
-134,629	78,672	0,060	-0,045
-133,614	-200,000	0,027	0,111
-132,599	800,000	0,038	-0,081
-131,585	800,000	0,021	0,045
-130,570	498,902	-0,041	-0,067
-129,556	279,941	-0,102	-0,131
-128,541	-115,298	-0,067	0,009
-127,526	246,108	0,078	0,093
-126,512	-24,294	0,107	-0,045
-125,497	-5,574	0,126	0,061
-124,483	-200,000	0,004	-0,040
-123,468	339,644	-0,025	-0,035
-122,453	159,367	-0,017	-0,016
-121,439	800,000	-0,053	0,127
-120,424	-200,000	0,029	0,152
-119,410	310,013	0,077	-0,103
-118,395	298,702	0,026	-0,034
-117,380	-200,000	0,007	-0,032
-116,366	-200,000	-0,003	-0,018
-115,351	-57,907	-0,115	0,036
-114,337	228,835	0,020	-0,024
-113,322	-57,466	-0,052	-0,016
-112,307	800,000	0,036	0,087
-111,293	-200,000	0,003	0,091
-110,278	-42,184	-0,106	-0,039
-109,264	-200,000	0,026	-0,096
-108,249	28,034	-0,067	0,040
-107,234	83,873	-0,072	0,056
-106,220	-140,343	-0,085	0,006
-105,205	95,215	-0,099	0,080
-104,191	-86,127	0,098	-0,021
-103,176	800,000	0,040	0,091
-102,162	-200,000	0,022	-0,085
-101,147	35,331	0,031	0,019
-100,132	375,691	-0,065	-0,094
-99,118	684,674	0,031	-0,057
-98,103	-200,000	-0,004	0,064
-97,089	-94,601	0,089	0,017
-96,074	480,198	-0,078	0,125
-95,059	-200,000	0,009	-0,030
-94,045	-200,000	0,013	0,078
-93,030	95,708	0,042	-0,034
-92,016	-108,400	-0,166	0,025
-91,001	800,000	-0,047	-0,115
-89,986	-200,000	-0,050	-0,240
-88,972	-200,000	0,002	0,110
-87,957	-1,606	0,117	0,058
-86,943	-200,000	-0,020	0,064
-85,928	-200,000	-0,009	-0,082
-84,913	-200,000	0,010	-0,129
-83,899	251,154	0,032	0,038
-82,884	496,990	0,015	0,025
-81,870	-200,000	-0,014	0,079
-80,855	-200,000	-0,010	0,037
-79,840	800,000	-0,015	0,037
-78,826	-49,183	-0,160	-0,054
-77,811	-108,014	0,071	-0,011
-76,797	-113,999	-0,064	-0,009
-75,782	-161,811	-0,020	-0,001
-74,767	58,291	0,064	0,044
-73,753	-93,264	0,056	0,011
-72,738	-200,000	0,020	-0,111
-71,724	81,020	0,084	-0,064
-70,709	212,044	-0,037	-0,041
-69,694	55,750	-0,117	-0,081
-68,680	800,000	0,029	-0,077
-67,665	100,794	-0,039	0,032
-66,651	45,736	0,134	-0,088
-65,636	211,242	-0,068	-0,076
-64,622	-200,000	-0,014	-0,074
-63,607	-200,000	0,002	-0,016
-62,592	800,000	0,032	-0,067
-61,578	-125,939	-0,097	0,010
-60,563	689,029	-0,025	0,047
-59,549	-200,000	0,005	0,036
-58,534	-96,706	-1,513	-0,280
-57,519	323,246	-1,494	-2,026
-56,505	-200,000	-0,544	-4,498
-55,490	76,821	0,969	0,729
-54,476	800,000	4,735	11,399
-53,461	-200,000	17,542	276,580
-52,446	800,000	719,101	2208,392
-51,432	558,922	1632,945	2807,457
-50,417	81,230	1657,005	1268,925
-49,403	24,122	1531,288	894,600
-48,388	18,138	1454,467	820,873
-47,373	18,415	1443,964	816,241
-46,359	18,128	1434,733	809,624
-45,344	16,457	1430,176	799,078
-44,330	16,393	1427,991	797,523
-43,315	16,347	1426,398	796,385
-42,300	16,375	1424,773	795,577
-41,286	16,455	1423,634	795,289
-40,271	16,405	1422,456	794,364
-39,257	16,359	1421,112	793,366
-38,242	16,461	1419,595	792,966
-37,227	16,399	1418,527	792,044
-36,213	16,421	1417,350	791,462
-35,198	16,386	1416,044	790,534
-34,184	16,448	1414,962	790,191
-33,169	16,318	1414,049	789,038
-32,154	16,427	1412,713	788,777
-31,140	16,423	1411,453	788,019
-30,125	16,422	1410,399	787,396
-29,111	16,406	1409,191	786,616
-28,096	16,371	1408,096	785,812
-27,082	16,295	1407,107	784,872
-26,067	16,340	1405,790	784,317
-25,052	16,361	1404,836	783,852
-24,038	16,319	1403,999	783,158
-23,023	16,264	1402,920	782,267
-22,009	16,335	1401,495	781,770
-20,994	16,266	1401,057	781,174
-19,979	16,272	1400,077	780,624
-18,965	16,255	1399,062	779,950
-17,950	16,233	1398,164	779,317
-16,936	16,285	1396,928	778,835
-15,921	16,237	1395,732	777,916
-14,906	16,238	1394,730	777,330
-13,892	16,265	1393,922	776,977
-12,877	16,237	1393,112	776,364
-11,863	16,302	1391,966	775,998
-10,848	16,236	1391,271	775,272
-9,833	16,223	1390,455	774,729
-8,819	16,171	1389,333	773,829
-7,804	16,151	1388,385	773,178
-6,790	16,113	1387,402	772,428
-5,775	16,101	1386,565	771,876
-4,760	16,095	1385,632	771,295
-3,746	16,134	1384,810	770,988
-2,731	16,130	1384,097	770,544
-1,717	16,056	1383,151	769,645
-0,702	16,116	1381,005	768,694
0,313	20,016	1302,575	742,999
1,327	36,582	707,312	441,887
2,342	56,511	125,475	86,404
3,356	5,558	16,470	8,598
4,371	5,792	3,084	1,613
5,386	-29,356	0,512	0,207
6,400	254,789	0,070	0,085
7,415	33,538	-0,293	-0,180
8,429	542,341	-0,161	-0,274
9,444	17,056	-0,366	-0,205
10,459	194,322	-0,285	-0,307
11,473	-4,770	-0,423	-0,206
12,488	6,032	-0,306	-0,160
13,502	105,242	-0,288	-0,241
14,517	45,296	-0,351	-0,229
15,531	82,714	-0,405	-0,312
16,546	36,444	-0,302	-0,188
17,561	184,543	-0,429	-0,451
18,575	-96,506	-0,308	-0,057
19,590	-19,598	-0,267	-0,117
20,604	-82,194	-0,323	-0,074
21,619	27,804	-0,528	-0,314
22,634	147,639	-0,302	-0,288
23,648	117,367	-0,436	-0,379
24,663	35,864	-0,375	-0,233
25,677	24,677	-0,407	-0,238
26,692	72,419	-0,362	-0,267
27,707	89,785	-0,312	-0,246
28,721	307,240	-0,333	-0,441
29,736	82,883	-0,421	-0,324
30,750	112,131	-0,354	-0,303
31,765	65,379	-0,447	-0,320
32,780	128,061	-0,371	-0,334
33,794	140,676	-0,331	-0,309
34,809	67,804	-0,240	-0,173
35,823	48,261	-0,304	-0,201
36,838	63,107	-0,363	-0,257
37,853	66,811	-0,260	-0,187
38,867	75,062	-0,406	-0,302
39,882	137,469	-0,325	-0,301
40,896	69,938	-0,260	-0,189
41,911	-94,980	-0,301	-0,057
42,926	103,695	-0,351	-0,291
43,940	-26,609	-0,448	-0,185
44,955	15,244	-0,482	-0,266
45,969	120,869	-0,298	-0,262
46,984	137,570	-0,415	-0,384
47,999	-21,179	-0,320	-0,138
49,013	-51,075	-0,308	-0,101
50,028	105,574	-0,330	-0,275
51,042	95,159	-0,323	-0,260
52,057	-12,681	-0,335	-0,153
53,071	-10,968	-0,410	-0,190
54,086	208,732	-0,246	-0,273
55,101	22,639	-0,243	-0,140
56,115	62,863	-0,359	-0,253
57,130	23,665	-0,460	-0,267
58,144	155,565	-0,310	-0,301
59,159	178,892	-0,341	-0,352
60,174	50,303	-0,433	-0,288
61,188	-7,871	-0,425	-0,202
62,203	-57,297	-0,294	-0,091
63,217	147,704	-0,330	-0,314
64,232	182,000	-0,255	-0,265
65,247	-24,650	-0,443	-0,185
66,261	38,550	-0,398	-0,250
67,276	36,723	-0,340	-0,211
68,290	53,894	-0,395	-0,267
69,305	106,573	-0,317	-0,265
70,320	63,952	-0,265	-0,187
71,334	84,508	-0,376	-0,290
72,349	36,092	-0,290	-0,180
73,363	53,731	-0,373	-0,252
74,378	92,580	-0,259	-0,206
75,393	11,870	-0,452	-0,244
76,407	35,011	-0,338	-0,208
77,422	134,917	-0,331	-0,302
78,436	124,340	-0,229	-0,203
79,451	65,998	-0,171	-0,122
80,466	34,655	-0,223	-0,137
81,480	107,934	-0,294	-0,247
82,495	-10,463	-0,303	-0,141
83,509	459,285	-0,166	-0,261
84,524	200,764	-0,350	-0,379
85,539	17,806	-0,359	-0,201
86,553	-13,929	-0,196	-0,089
87,568	29,114	-0,244	-0,146
88,582	43,881	-0,308	-0,198
89,597	103,154	-0,287	-0,236
90,611	103,716	-0,298	-0,246
91,626	-155,015	-0,340	-0,015
92,641	-150,163	-0,430	-0,023
93,655	-113,702	-0,370	-0,050
94,670	67,934	-0,268	-0,192
95,684	76,751	-0,303	-0,226
96,699	-22,722	-0,395	-0,167
97,714	67,842	-0,232	-0,167
98,728	800,000	-0,152	-0,303
99,743	-22,419	-0,246	-0,104
100,757	303,599	-0,182	-0,237
101,772	800,000	-0,138	-0,346
102,787	48,109	-0,385	-0,252
103,801	-7,354	-0,369	-0,175
104,816	800,000	-0,126	-0,249
105,830	74,351	-0,361	-0,266
106,845	85,601	-0,246	-0,190
107,860	378,196	-0,217	-0,313
108,874	-29,376	-0,383	-0,153
109,889	197,816	-0,265	-0,285
110,903	18,597	-0,296	-0,166
111,918	180,657	-0,152	-0,157
112,933	25,760	-0,263	-0,154
113,947	-93,560	-0,248	-0,048
114,962	-0,230	-0,199	-0,099
115,976	-69,852	-0,280	-0,074
116,991	267,535	-0,269	-0,331
118,006	60,686	-0,196	-0,136
119,020	102,398	-0,200	-0,164
120,035	-11,793	-0,200	-0,092
121,049	682,974	-0,085	-0,156
122,064	117,559	-0,204	-0,176
123,079	-85,498	-0,264	-0,057
124,093	300,474	-0,188	-0,244
125,108	89,110	-0,209	-0,163
126,122	230,852	-0,327	-0,376
127,137	132,858	-0,164	-0,149
128,151	40,379	-0,277	-0,174
129,166	22,763	-0,221	-0,127
130,181	-5,090	-0,257	-0,124
131,195	-49,636	-0,178	-0,059
132,210	82,195	-0,340	-0,259
133,224	106,913	-0,291	-0,242
134,239	89,870	-0,200	-0,157
135,254	41,250	-0,214	-0,135
136,268	-64,439	-0,200	-0,057
137,283	112,033	-0,133	-0,113
138,297	-0,762	-0,444	-0,220
139,312	144,058	-0,270	-0,252
140,327	87,962	-0,232	-0,180
141,341	9,210	-0,239	-0,126
142,356	145,213	-0,288	-0,270
143,370	-40,231	-0,149	-0,054
144,385	-67,051	-0,361	-0,099
145,400	26,767	-0,223	-0,130
146,414	785,271	-0,119	-0,229
147,429	303,732	-0,229	-0,298
148,443	-13,627	-0,384	-0,173
149,458	139,607	-0,210	-0,194
150,473	15,727	-0,230	-0,126
151,487	142,084	-0,232	-0,215
152,502	107,244	-0,198	-0,165
153,516	87,165	-0,311	-0,240
154,531	66,869	-0,249	-0,177
155,546	-12,973	-0,244	-0,111
156,560	8,858	-0,324	-0,171
157,575	-75,993	-0,283	-0,069
158,589	-121,795	-0,214	-0,024
159,604	-65,562	-0,168	-0,047
160,619	87,335	-0,259	-0,201
161,633	72,877	-0,274	-0,200
162,648	303,315	-0,216	-0,281
163,662	102,059	-0,240	-0,195
164,677	30,543	-0,024	-0,015
165,692	-71,953	-0,292	-0,075
166,706	31,996	-0,185	-0,111
167,721	74,078	-0,258	-0,189
168,735	26,472	-0,250	-0,146
169,750	27,329	-0,220	-0,129
170,764	-9,116	-0,312	-0,145
171,779	44,772	-0,245	-0,157
172,794	65,247	-0,243	-0,171
173,808	139,870	-0,221	-0,203
174,823	-70,869	-0,257	-0,067
175,837	-200,000	-0,071	-0,236
176,852	158,823	-0,180	-0,175
177,867	18,638	-0,242	-0,135
178,881	-67,232	-0,204	-0,056
179,896	526,944	-0,098	-0,162
180,910	-129,659	-0,215	-0,020
181,925	90,169	-0,218	-0,170
182,940	446,307	-0,107	-0,164
183,954	-200,000	-0,044	-0,238
184,969	60,402	-0,257	-0,177
185,983	82,629	-0,170	-0,129
186,998	-46,168	-0,325	-0,111
188,013	329,846	-0,194	-0,261
189,027	13,317	-0,284	-0,153
190,042	800,000	-0,161	-0,396
191,056	232,669	-0,191	-0,219
192,071	189,406	-0,275	-0,288
193,086	-200,000	-0,004	-0,158
194,100	-121,667	-0,181	0,021
195,115	87,144	-0,233	-0,180
196,129	365,555	-0,204	-0,287
197,144	110,548	-0,220	-0,184
198,159	-154,400	-0,208	0,010
199,173	102,761	-0,227	-0,185
200,188	-1,290	-0,256	-0,126
201,202	45,708	-0,330	-0,212
202,217	-74,075	-0,227	-0,057
203,232	-33,139	-0,201	-0,077
204,246	314,299	-0,130	-0,172
205,261	289,210	-0,238	-0,302
206,275	730,169	-0,093	-0,174
207,290	87,417	-0,120	-0,093
208,304	83,867	-0,128	-0,097
209,319	-25,137	-0,331	-0,136
210,334	104,454	-0,203	-0,166
211,348	79,725	-0,262	-0,195
212,363	236,004	-0,119	-0,137
213,377	391,316	-0,126	-0,183
214,392	800,000	-0,076	-0,147
215,407	-72,429	-0,116	-0,030
216,421	-200,000	-0,026	-0,198
217,436	18,880	-0,248	-0,138
218,450	38,753	-0,265	-0,164
219,465	-18,758	-0,311	-0,134
220,480	19,740	-0,174	-0,097
221,494	184,381	-0,085	-0,088
222,509	-163,087	-0,100	0,003
223,523	209,242	-0,062	-0,067
224,538	-120,533	-0,184	-0,021
225,553	33,134	-0,244	-0,147
226,567	-105,710	-0,170	-0,027
227,582	121,178	-0,158	-0,136
228,596	540,561	-0,076	-0,126
229,611	800,000	-0,060	-0,128
230,626	59,284	-0,150	-0,102
231,640	-200,000	-0,010	0,061
232,655	276,949	-0,079	-0,098
233,669	222,770	-0,102	-0,114
234,684	58,683	-0,267	-0,182
235,699	210,013	-0,130	-0,142
236,713	196,433	-0,205	-0,217
237,728	-90,812	-0,154	0,031
238,742	20,439	-0,175	-0,098
239,757	58,979	-0,176	-0,120
240,772	198,256	-0,184	-0,196
241,786	-27,380	-0,221	-0,089
242,801	-112,272	-0,199	0,027
243,815	-56,204	-0,165	-0,051
244,830	363,526	-0,185	-0,259
245,844	-64,151	-0,203	0,057
246,859	-29,221	-0,256	-0,101
247,874	33,210	-0,315	-0,189
248,888	490,091	-0,109	-0,174
249,903	645,637	-0,104	-0,185
250,917	214,640	-0,134	-0,148
251,932	643,445	-0,109	-0,193
252,947	81,641	-0,186	-0,139
253,961	143,349	-0,240	-0,221
254,976	-72,599	-0,196	-0,050
255,990	24,876	-0,247	-0,142
257,005	173,373	-0,213	-0,213
258,020	419,029	-0,151	-0,225
259,034	606,644	-0,081	-0,141
260,049	-71,325	-0,157	-0,040
261,063	166,813	-0,172	-0,170
262,078	90,755	-0,218	-0,169
263,093	347,369	-0,158	-0,216
264,107	102,443	-0,208	-0,168
265,122	224,902	-0,119	-0,133
266,136	154,897	-0,105	-0,100
267,151	-11,152	-0,168	-0,076
268,166	87,461	-0,194	-0,149
269,180	800,000	-0,155	-0,341
270,195	91,928	-0,232	-0,181
271,209	57,656	-0,099	-0,067
272,224	54,436	-0,098	-0,065
273,239	117,159	-0,087	-0,074
274,253	-45,427	-0,123	-0,042
275,268	-73,802	-0,024	-0,006
276,282	121,666	-0,149	-0,129
277,297	336,284	-0,093	-0,125
278,312	36,988	-0,152	-0,093
279,326	412,703	-0,078	-0,115
280,341	39,541	-0,170	-0,105
281,355	14,996	-0,051	-0,027
282,370	24,085	-0,206	-0,117
283,384	229,885	-0,131	-0,148
284,399	51,175	-0,208	-0,136
285,414	92,213	-0,161	-0,125
286,428	163,094	-0,165	-0,161
287,443	-42,194	-0,082	-0,029
288,457	-200,000	-0,012	0,075
289,472	242,217	-0,119	-0,138
290,487	-200,000	-0,001	-0,218
291,501	-19,367	-0,174	-0,074
292,516	26,212	-0,263	-0,151
293,530	800,000	-0,047	-0,091
294,545	41,041	-0,118	-0,074
295,560	-15,962	-0,086	-0,038
296,574	347,741	-0,113	-0,155
297,589	-200,000	-0,075	-0,285
298,603	150,742	-0,136	-0,127
299,618	106,911	-0,141	-0,116
300,633	-64,159	-0,207	-0,058
301,647	302,817	-0,088	-0,112
302,662	250,701	-0,146	-0,171
303,676	800,000	-0,061	-0,165
304,691	64,302	-0,243	-0,169
305,706	442,836	-0,117	-0,177
306,720	156,038	-0,146	-0,139
307,735	-98,396	-0,177	-0,031
308,749	-74,067	-0,121	-0,030
309,764	-84,053	-0,103	0,022
310,779	393,732	-0,096	-0,138
311,793	52,788	-0,166	-0,109
312,808	355,527	-0,112	-0,154
313,822	92,669	-0,151	-0,118
314,837	-200,000	-0,046	-0,214
315,852	669,252	-0,096	-0,173
316,866	-200,000	0,036	-0,165
317,881	346,684	-0,106	-0,145
318,895	403,520	-0,092	-0,134
319,910	226,607	-0,211	-0,237
320,925	307,864	-0,125	-0,161
321,939	122,880	-0,135	-0,116
322,954	-85,375	-0,149	-0,032
323,968	800,000	-0,064	-0,126
324,983	-122,347	-0,106	0,012
325,997	-166,564	-0,121	0,003
327,012	800,000	-0,081	-0,183
328,027	-84,056	-0,220	-0,048
329,041	-77,592	-0,067	-0,016
330,056	800,000	-0,065	-0,182
331,070	22,765	-0,154	-0,086
332,085	800,000	-0,104	-0,200
333,100	385,912	-0,104	-0,148
334,114	-110,565	-0,206	-0,029
335,129	72,765	-0,132	-0,095
336,143	705,582	-0,123	-0,225
337,158	-120,460	-0,106	-0,012
338,173	60,103	-0,087	-0,059
339,187	-62,455	-0,106	0,030
340,202	81,581	-0,077	-0,057
341,216	575,171	-0,049	-0,082
342,231	200,026	-0,091	-0,096
343,246	-169,658	-0,260	-0,006
344,260	17,482	-0,130	0,071
345,275	-80,918	-0,210	-0,048
346,289	-42,332	-0,137	-0,048
347,304	-200,000	-0,061	0,000
348,319	-12,758	-0,161	-0,072
349,333	303,804	-0,121	-0,155
350,348	57,569	-0,146	-0,098
351,362	-52,534	-0,139	0,044
352,377	-78,711	-0,066	-0,015
353,392	-4,210	-0,125	0,059
354,406	270,147	-0,045	0,054
355,421	210,218	1312,912	1418,548
356,435	161,824	1473,448	1419,073
