DTS Sentinel unit serial number:	SN410029Multiplexer serial number:	ORYXHardware model number:	OX2-SRSoftware version number:	ORYX F/W v4,00 Oryx Data Collector v3.7.2.0data status	okinstallation	B3 Nyhavnadifferential loss correction	single-endedforward channel	channel 1reverse channel	N/Adate	2023/11/30time	14:32:30forward acquisition time	300,00reverse acquisition time	0,00gamma	499,1914k internal	0,3209k external	0,3209temperature offset calibration	1,0000default loss term (dB/km)	0,3820temperature slope calibration	1,0000multiplexer offset coefficient	1,0000multiplexer slope coefficient	1,0000fibre end	0,00T internal ref (°C)	11,85T ext. ref 1 (°C)	-1,90T ext. ref 2 (°C)	-2,02length (m)	temperature (°C)	Stokes	anti-Stokes-744,400	15,886	-0,292	-0,166
-743,385	-200,000	0,014	0,184
-742,371	373,280	-0,217	-0,322
-741,356	800,000	0,153	0,381
-740,342	47,136	-0,218	-0,147
-739,327	-200,000	0,083	0,300
-738,312	325,823	-0,229	-0,319
-737,298	800,000	0,083	0,229
-736,283	251,601	-0,208	-0,257
-735,269	658,192	0,181	0,338
-734,254	-200,000	-0,050	-0,270
-733,239	57,241	-0,202	0,143
-732,225	800,000	-0,134	-0,313
-731,210	617,206	-0,066	0,121
-730,196	60,300	0,035	0,025
-729,181	-63,552	-0,063	0,019
-728,167	51,043	-0,066	0,046
-727,152	-200,000	0,031	-0,147
-726,137	747,235	0,071	-0,139
-725,123	800,000	-0,032	-0,070
-724,108	-172,648	-0,087	-0,002
-723,094	172,507	-0,085	-0,089
-722,079	-200,000	-0,036	-0,181
-721,064	-200,000	0,063	0,226
-720,050	-124,232	0,115	0,013
-719,035	-60,903	-0,118	-0,036
-718,021	-62,752	0,052	-0,015
-717,006	88,797	-0,080	-0,064
-715,991	620,054	-0,065	-0,119
-714,977	27,782	-0,070	-0,043
-713,962	150,514	0,059	-0,058
-712,948	800,000	-0,039	-0,088
-711,933	25,992	-0,018	-0,011
-710,918	353,756	-0,008	0,011
-709,904	278,607	-0,132	0,170
-708,889	532,320	-0,072	-0,124
-707,875	-137,796	-0,100	0,008
-706,860	1,057	-0,058	-0,030
-705,845	-12,228	0,123	-0,058
-704,831	32,403	0,014	0,009
-703,816	-192,735	0,117	-0,001
-702,802	12,251	-0,083	0,046
-701,787	198,395	-0,035	0,039
-700,772	-54,588	-0,104	0,034
-699,758	800,000	-0,034	0,070
-698,743	-19,722	-0,033	0,015
-697,729	-105,638	0,170	0,028
-696,714	-155,797	-0,058	0,003
-695,699	77,079	0,072	-0,056
-694,685	-200,000	0,008	0,039
-693,670	419,097	-0,086	-0,134
-692,656	-47,785	0,059	-0,021
-691,641	-200,000	-0,020	-0,099
-690,627	-48,390	0,047	-0,016
-689,612	182,909	0,007	-0,008
-688,597	-74,137	-0,084	0,022
-687,583	200,821	0,078	-0,087
-686,568	85,034	-0,190	-0,150
-685,554	-200,000	0,014	-0,047
-684,539	-200,000	0,003	-0,013
-683,524	-92,018	0,173	-0,035
-682,510	800,000	0,064	-0,193
-681,495	127,709	-0,009	-0,008
-680,481	21,063	-0,028	-0,016
-679,466	323,930	-0,116	-0,161
-678,451	-200,000	-0,006	-0,028
-677,437	-124,724	0,156	-0,017
-676,422	73,863	0,057	-0,043
-675,408	-100,106	-0,146	-0,026
-674,393	396,484	-0,053	0,081
-673,378	-200,000	0,023	-0,148
-672,364	135,667	0,002	0,002
-671,349	-53,403	-0,155	0,051
-670,335	-200,000	0,000	0,050
-669,320	431,783	0,040	0,063
-668,305	800,000	-0,052	-0,147
-667,291	97,972	-0,069	-0,057
-666,276	800,000	-0,043	-0,132
-665,262	-200,000	-0,003	-0,128
-664,247	-200,000	-0,018	-0,115
-663,232	-143,482	-0,041	0,003
-662,218	772,925	-0,031	0,062
-661,203	-200,000	0,004	0,121
-660,189	-48,038	-0,070	-0,024
-659,174	-91,371	0,119	0,024
-658,159	634,971	-0,068	-0,126
-657,145	-200,000	-0,026	-0,151
-656,130	57,841	-0,094	0,066
-655,116	-200,000	0,006	-0,077
-654,101	737,582	-0,019	0,038
-653,086	-200,000	0,010	-0,080
-652,072	418,800	0,112	-0,173
-651,057	150,378	-0,047	-0,046
-650,043	800,000	0,020	-0,061
-649,028	-57,310	-0,097	-0,031
-648,014	35,986	-0,129	0,082
-646,999	387,345	0,029	-0,044
-645,984	-160,353	-0,094	-0,004
-644,970	800,000	-0,032	-0,073
-643,955	-200,000	0,011	0,079
-642,941	431,891	0,064	-0,101
-641,926	373,843	-0,077	-0,114
-640,911	689,279	-0,025	0,048
-639,897	-97,062	0,098	-0,018
-638,882	-12,776	-0,010	-0,005
-637,868	50,724	0,089	-0,061
-636,853	304,048	-0,064	-0,086
-635,838	722,142	-0,047	-0,090
-634,824	-200,000	-0,015	-0,089
-633,809	-200,000	0,002	-0,051
-632,795	800,000	-0,037	0,087
-631,780	-160,409	-0,123	-0,005
-630,765	211,741	-0,126	-0,143
-629,751	-200,000	-0,044	-0,248
-628,736	-200,000	-0,004	-0,105
-627,722	447,858	0,130	0,207
-626,707	-35,103	0,009	-0,004
-625,692	-66,818	0,171	-0,049
-624,678	-135,333	-0,036	0,003
-623,663	-200,000	-0,011	-0,105
-622,649	133,455	0,054	0,051
-621,634	-63,250	-0,082	0,024
-620,619	-117,978	0,121	-0,015
-619,605	-103,015	-0,095	0,016
-618,590	147,861	0,059	-0,057
-617,576	-200,000	0,013	-0,057
-616,561	-79,279	-0,040	-0,010
-615,546	800,000	-0,032	-0,065
-614,532	-89,871	-0,099	-0,021
-613,517	387,644	-0,085	0,127
-612,503	800,000	-0,058	-0,126
-611,488	51,060	-0,157	0,107
-610,474	-200,000	-0,012	-0,041
-609,459	-200,000	-0,019	-0,131
-608,444	187,134	-0,039	0,043
-607,430	-62,231	0,079	-0,023
-606,415	47,532	0,039	-0,026
-605,401	-106,854	0,052	0,008
-604,386	-120,414	-0,058	-0,007
-603,371	800,000	-0,045	0,090
-602,357	261,543	-0,093	0,116
-601,342	43,740	0,048	-0,031
-600,328	-151,291	-0,130	-0,007
-599,313	109,837	-0,110	-0,095
-598,298	-36,830	-0,070	0,027
-597,284	33,505	-0,097	-0,060
-596,269	-200,000	0,003	0,031
-595,255	497,018	0,025	0,041
-594,240	-200,000	-0,034	-0,116
-593,225	-28,303	-0,059	-0,025
-592,211	352,107	0,039	-0,056
-591,196	800,000	-0,010	-0,030
-590,182	275,062	0,038	0,049
-589,167	-37,671	-0,095	-0,036
-588,152	-183,291	0,035	0,000
-587,138	800,000	-0,010	-0,022
-586,123	800,000	-0,048	-0,105
-585,109	800,000	-0,067	0,153
-584,094	-200,000	-0,007	-0,161
-583,079	-200,000	-0,007	0,135
-582,065	800,000	0,068	0,215
-581,050	51,008	-0,053	-0,036
-580,036	-200,000	-0,006	-0,024
-579,021	118,065	0,041	-0,036
-578,006	4,111	-0,038	-0,020
-576,992	-133,144	0,122	-0,011
-575,977	800,000	-0,058	0,162
-574,963	-200,000	0,041	-0,154
-573,948	482,828	-0,065	-0,108
-572,934	800,000	0,018	0,052
-571,919	38,772	0,042	0,027
-570,904	404,599	0,038	-0,057
-569,890	-104,445	-0,087	-0,014
-568,875	800,000	-0,026	0,063
-567,861	282,125	-0,074	0,095
-566,846	-200,000	0,000	0,011
-565,831	343,033	-0,044	-0,062
-564,817	-22,640	-0,087	0,038
-563,802	-200,000	-0,008	0,049
-562,788	-200,000	0,020	-0,073
-561,773	-200,000	0,004	0,016
-560,758	800,000	0,057	0,156
-559,744	-200,000	-0,037	0,126
-558,729	-99,111	0,085	0,015
-557,715	-43,925	0,082	-0,030
-556,700	-200,000	0,007	-0,028
-555,685	-45,464	-0,083	-0,030
-554,671	-10,602	0,144	-0,068
-553,656	-28,743	-0,119	-0,049
-552,642	-200,000	0,012	0,048
-551,627	64,048	0,091	0,066
-550,612	23,104	0,119	-0,070
-549,598	-200,000	-0,026	0,106
-548,583	-86,146	0,176	0,039
-547,569	-42,915	0,023	-0,009
-546,554	-96,039	0,108	0,021
-545,539	-200,000	-0,011	0,091
-544,525	75,651	0,128	-0,097
-543,510	-200,000	-0,061	-0,219
-542,496	115,967	0,050	-0,044
-541,481	181,784	0,058	-0,062
-540,466	-200,000	0,016	-0,068
-539,452	184,146	-0,054	-0,057
-538,437	-200,000	-0,022	0,085
-537,423	52,099	-0,033	0,022
-536,408	-200,000	0,005	-0,100
-535,393	21,434	-0,091	0,053
-534,379	434,140	-0,048	-0,076
-533,364	800,000	-0,046	0,094
-532,350	298,861	0,035	-0,047
-531,335	122,043	0,032	-0,029
-530,321	-20,299	0,067	0,030
-529,306	147,177	-0,027	0,026
-528,291	800,000	-0,023	0,064
-527,277	776,016	0,010	0,020
-526,262	-31,234	-0,108	-0,043
-525,248	-3,933	-0,055	0,027
-524,233	257,405	0,065	0,080
-523,218	-200,000	0,029	0,111
-522,204	800,000	-0,050	-0,139
-521,189	6,483	-0,050	0,027
-520,175	-177,389	-0,091	0,002
-519,160	-143,966	0,143	0,010
-518,145	-200,000	-0,026	0,139
-517,131	5,190	-0,046	-0,024
-516,116	-200,000	-0,010	0,043
-515,102	438,206	-0,082	0,129
-514,087	78,718	-0,075	-0,058
-513,072	-104,019	-0,040	0,007
-512,058	139,272	0,042	-0,040
-511,043	-126,352	0,132	-0,014
-510,029	800,000	-0,022	-0,053
-509,014	331,834	0,069	0,096
-507,999	-100,278	-0,126	0,022
-506,985	-200,000	-0,010	-0,098
-505,970	-111,693	-0,021	0,003
-504,956	800,000	-0,020	-0,061
-503,941	754,286	0,021	0,041
-502,926	-142,754	0,174	-0,012
-501,912	465,337	0,091	-0,146
-500,897	-200,000	0,020	-0,080
-499,883	-93,817	-0,070	0,014
-498,868	-68,911	0,137	-0,038
-497,853	82,808	0,062	-0,048
-496,839	-48,365	-0,066	0,023
-495,824	699,642	0,038	0,072
-494,810	-71,383	0,069	0,018
-493,795	195,285	-0,038	-0,042
-492,781	358,266	-0,013	0,018
-491,766	-200,000	0,017	-0,061
-490,751	-160,569	-0,138	0,005
-489,737	-200,000	0,006	-0,093
-488,722	-164,994	-0,162	-0,005
-487,708	800,000	0,018	-0,043
-486,693	251,343	-0,079	0,096
-485,678	73,816	0,001	-0,001
-484,664	-123,584	-0,103	-0,012
-483,649	-28,044	0,132	-0,055
-482,635	183,932	-0,044	-0,047
-481,620	27,057	0,103	0,062
-480,605	227,860	0,099	0,115
-479,591	800,000	-0,027	0,068
-478,576	108,709	0,021	0,018
-477,562	-200,000	-0,005	0,018
-476,547	14,101	0,156	-0,087
-475,532	-54,343	-0,122	-0,039
-474,518	-37,602	-0,096	0,036
-473,503	-200,000	-0,012	0,080
-472,489	800,000	-0,084	0,177
-471,474	-39,450	-0,100	0,038
-470,459	800,000	-0,006	0,014
-469,445	82,816	-0,116	-0,090
-468,430	-142,576	0,179	0,012
-467,416	394,563	-0,037	-0,055
-466,401	23,749	0,058	0,034
-465,386	-200,000	0,010	-0,064
-464,372	445,230	0,090	-0,142
-463,357	-119,442	0,075	-0,009
-462,343	-200,000	-0,021	-0,126
-461,328	395,603	0,038	-0,057
-460,313	304,312	0,059	-0,078
-459,299	-200,000	0,120	-0,000
-458,284	-139,022	0,041	-0,003
-457,270	-58,071	0,115	0,036
-456,255	-146,245	-0,068	-0,004
-455,241	-19,768	-0,079	-0,035
-454,226	-71,095	-0,101	0,027
-453,211	449,586	-0,057	0,090
-452,197	466,142	-0,046	0,074
-451,182	-15,652	0,015	-0,007
-450,168	800,000	0,038	0,118
-449,153	-128,864	0,059	0,006
-448,138	605,499	0,106	-0,189
-447,124	293,238	0,078	0,102
-446,109	-112,578	0,056	-0,008
-445,095	800,000	0,039	0,087
-444,080	334,572	-0,052	0,073
-443,065	-71,799	0,097	-0,026
-442,051	-200,000	-0,006	-0,085
-441,036	800,000	-0,013	-0,028
-440,022	-200,000	0,003	0,025
-439,007	618,575	0,058	0,104
-437,992	244,132	-0,053	0,064
-436,978	800,000	0,008	0,025
-435,963	79,520	0,056	0,043
-434,949	-51,382	-0,133	-0,044
-433,934	-32,866	-0,093	-0,037
-432,919	-200,000	0,026	-0,116
-431,905	612,698	-0,037	0,066
-430,890	10,449	-0,031	-0,017
-429,876	46,952	-0,090	0,060
-428,861	-55,576	0,057	0,018
-427,846	12,669	-0,090	0,050
-426,832	510,239	-0,033	-0,055
-425,817	-12,862	0,083	0,039
-424,803	800,000	0,052	-0,136
-423,788	450,816	0,051	-0,082
-422,773	683,156	0,080	0,150
-421,759	91,731	-0,093	-0,075
-420,744	73,389	-0,082	-0,061
-419,730	-200,000	0,025	0,206
-418,715	223,061	-0,105	0,121
-417,701	9,563	-0,012	0,007
-416,686	232,734	0,069	-0,081
-415,671	-200,000	0,011	-0,074
-414,657	-200,000	-0,009	-0,036
-413,642	453,253	-0,033	-0,052
-412,628	-200,000	-0,032	0,143
-411,613	60,868	-0,101	0,071
-410,598	72,184	-0,053	-0,040
-409,584	-28,120	0,051	0,021
-408,569	125,226	0,077	0,069
-407,555	-200,000	0,036	0,138
-406,540	800,000	0,031	0,072
-405,525	207,032	0,023	-0,025
-404,511	-47,441	-0,187	-0,065
-403,496	-103,728	0,032	0,005
-402,482	-82,862	-0,031	-0,007
-401,467	230,760	0,181	0,212
-400,452	417,345	0,033	0,051
-399,438	-200,000	-0,014	-0,103
-398,423	-131,312	-0,149	-0,014
-397,409	477,596	0,043	-0,070
-396,394	800,000	-0,022	0,051
-395,379	320,371	-0,070	0,095
-394,365	-200,000	0,057	0,201
-393,350	-189,148	0,052	0,000
-392,336	157,481	-0,026	-0,026
-391,321	-200,000	0,003	0,012
-390,306	800,000	-0,053	-0,140
-389,292	8,402	0,109	-0,059
-388,277	143,062	-0,117	-0,112
-387,263	232,582	0,019	-0,023
-386,248	800,000	-0,110	0,236
-385,233	-38,558	0,038	-0,014
-384,219	-23,743	-0,108	0,046
-383,204	800,000	0,051	-0,136
-382,190	97,893	-0,125	-0,103
-381,175	415,123	0,060	0,092
-380,160	388,785	0,006	-0,010
-379,146	-200,000	0,033	0,107
-378,131	-121,129	-0,097	0,012
-377,117	-200,000	-0,006	0,121
-376,102	121,318	0,113	-0,100
-375,088	498,377	0,041	-0,067
-374,073	-200,000	0,008	-0,090
-373,058	129,257	-0,010	-0,009
-372,044	-139,280	0,149	0,011
-371,029	-200,000	0,019	-0,066
-370,015	-55,631	-0,112	-0,036
-369,000	-152,964	0,157	0,008
-367,985	-31,025	0,106	-0,042
-366,971	-200,000	-0,017	-0,120
-365,956	-17,558	0,050	0,022
-364,942	-66,904	0,055	-0,016
-363,927	85,666	0,093	-0,073
-362,912	-200,000	0,006	-0,130
-361,898	800,000	0,049	-0,103
-360,883	562,010	0,081	-0,141
-359,869	353,947	-0,037	-0,053
-358,854	-169,089	-0,075	0,002
-357,839	708,281	-0,010	-0,019
-356,825	-200,000	0,013	0,102
-355,810	800,000	-0,034	0,092
-354,796	-200,000	0,006	-0,066
-353,781	-200,000	0,007	-0,248
-352,766	-146,881	0,046	-0,003
-351,752	-35,221	0,142	0,055
-350,737	800,000	0,036	0,076
-349,723	-200,000	0,027	0,085
-348,708	492,558	-0,097	0,160
-347,693	800,000	-0,037	0,096
-346,679	800,000	-0,081	-0,209
-345,664	4,454	-0,103	-0,054
-344,650	219,815	0,068	-0,078
-343,635	178,393	0,049	0,052
-342,620	-200,000	0,026	0,111
-341,606	800,000	-0,025	-0,064
-340,591	35,043	-0,082	-0,051
-339,577	-200,000	0,006	-0,037
-338,562	56,504	0,046	-0,032
-337,548	755,337	-0,050	-0,097
-336,533	-53,385	0,045	0,015
-335,518	-84,480	-0,021	-0,005
-334,504	34,974	0,047	-0,030
-333,489	-119,191	-0,091	-0,011
-332,475	-122,188	0,033	0,004
-331,460	-76,787	-0,153	0,038
-330,445	145,820	0,097	0,093
-329,431	-200,000	0,009	0,070
-328,416	-112,666	0,204	-0,029
-327,402	-142,118	0,024	-0,002
-326,387	369,014	-0,017	-0,025
-325,372	-200,000	0,028	-0,105
-324,358	800,000	-0,055	-0,138
-323,343	147,704	0,123	0,118
-322,329	218,594	0,053	-0,061
-321,314	-200,000	0,006	0,096
-320,299	-200,000	0,005	0,021
-319,285	-200,000	0,003	-0,039
-318,270	-200,000	0,022	0,105
-317,256	72,686	-0,092	-0,068
-316,241	-200,000	-0,026	-0,085
-315,226	76,694	-0,148	0,112
-314,212	-74,919	0,096	0,024
-313,197	203,456	-0,035	-0,038
-312,183	214,489	0,024	-0,028
-311,168	393,046	0,025	0,038
-310,153	-12,392	-0,039	-0,018
-309,139	103,637	0,033	0,028
-308,124	26,782	0,088	0,052
-307,110	65,545	0,083	-0,060
-306,095	800,000	-0,080	0,182
-305,080	8,308	0,160	0,085
-304,066	219,706	-0,038	-0,043
-303,051	-200,000	-0,000	-0,151
-302,037	-200,000	0,005	-0,264
-301,022	800,000	0,014	0,037
-300,008	111,892	0,071	0,061
-298,993	800,000	0,007	0,014
-297,978	-200,000	-0,005	0,119
-296,964	393,373	-0,055	-0,082
-295,949	-200,000	0,008	0,060
-294,935	760,398	0,075	0,146
-293,920	351,153	0,009	-0,013
-292,905	-200,000	-0,029	0,121
-291,891	800,000	0,042	0,115
-290,876	213,438	0,053	0,060
-289,862	800,000	0,045	-0,098
-288,847	763,688	0,026	-0,051
-287,832	-40,578	-0,048	-0,018
-286,818	-200,000	-0,005	0,079
-285,803	196,817	-0,088	-0,095
-284,789	216,454	0,062	0,071
-283,774	-74,180	0,117	0,030
-282,759	6,965	0,070	-0,037
-281,745	-37,663	-0,139	-0,052
-280,730	-200,000	0,019	-0,106
-279,716	-200,000	0,001	-0,068
-278,701	133,726	0,054	0,050
-277,686	-4,062	0,083	0,041
-276,672	183,274	-0,051	0,053
-275,657	-13,213	-0,077	-0,036
-274,643	-200,000	-0,031	-0,115
-273,628	352,058	-0,014	0,019
-272,613	-137,973	0,082	-0,006
-271,599	-200,000	0,012	-0,039
-270,584	800,000	0,023	0,071
-269,570	-75,366	0,105	0,027
-268,555	-135,002	-0,171	-0,015
-267,540	800,000	0,047	-0,121
-266,526	186,989	-0,112	0,119
-265,511	118,889	0,063	-0,056
-264,497	265,616	0,041	0,051
-263,482	21,696	0,067	-0,039
-262,467	-200,000	-0,000	0,031
-261,453	376,430	-0,078	0,114
-260,438	491,740	0,050	-0,081
-259,424	-7,278	-0,095	-0,046
-258,409	577,355	0,033	-0,058
-257,395	-200,000	0,022	-0,085
-256,380	652,282	0,026	-0,047
-255,365	-116,130	0,218	-0,029
-254,351	-103,113	-0,094	-0,016
-253,336	-200,000	0,007	-0,067
-252,322	-2,017	-0,153	0,076
-251,307	-39,813	-0,003	0,001
-250,292	800,000	-0,043	-0,119
-249,278	-118,935	-0,091	0,011
-248,263	92,018	0,030	0,024
-247,249	-200,000	0,008	-0,039
-246,234	160,085	-0,045	-0,044
-245,219	99,164	-0,121	0,100
-244,205	348,860	-0,045	0,064
-243,190	-165,424	0,050	0,002
-242,176	-147,333	0,166	0,010
-241,161	-200,000	-0,021	-0,085
-240,146	-200,000	0,007	0,039
-239,132	-28,475	0,014	-0,006
-238,117	800,000	-0,041	-0,121
-237,103	-131,714	-0,129	0,012
-236,088	153,937	-0,013	0,013
-235,073	800,000	0,049	0,115
-234,059	-200,000	-0,009	0,134
-233,044	-200,000	-0,007	0,154
-232,030	17,537	-0,037	-0,021
-231,015	493,567	0,052	-0,085
-230,000	426,978	-0,059	-0,090
-228,986	400,735	-0,071	0,106
-227,971	625,990	0,065	0,116
-226,957	340,360	0,021	0,029
-225,942	-47,181	0,100	0,034
-224,927	-78,571	0,069	-0,017
-223,913	458,247	-0,039	-0,062
-222,898	-146,358	-0,074	-0,005
-221,884	-103,711	-0,093	-0,015
-220,869	-200,000	-0,021	0,078
-219,855	-55,471	0,130	0,041
-218,840	-200,000	-0,022	0,141
-217,825	-3,329	0,092	0,045
-216,811	675,652	-0,058	-0,108
-215,796	-117,642	-0,080	-0,010
-214,782	40,169	0,064	-0,041
-213,767	-123,836	0,087	0,010
-212,752	-5,945	0,108	-0,052
-211,738	461,644	-0,052	0,082
-210,723	-200,000	0,012	-0,064
-209,709	-36,881	-0,147	0,056
-208,694	-48,021	-0,149	0,051
-207,679	125,535	0,060	-0,054
-206,665	255,806	0,050	0,061
-205,650	-84,512	0,033	-0,007
-204,636	-111,539	-0,082	-0,012
-203,621	46,959	0,029	-0,019
-202,606	149,768	-0,023	0,022
-201,592	-113,727	-0,076	0,010
-200,577	35,089	0,077	-0,048
-199,563	355,974	0,038	0,055
-198,548	-90,193	-0,069	0,014
-197,533	-35,684	-0,077	0,029
-196,519	-200,000	0,012	-0,055
-195,504	447,609	0,020	-0,031
-194,490	5,436	-0,092	-0,048
-193,475	209,786	-0,055	-0,062
-192,460	-103,964	-0,100	-0,016
-191,446	188,607	0,124	0,132
-190,431	-200,000	-0,041	0,145
-189,417	-200,000	-0,011	0,073
-188,402	-200,000	0,013	0,057
-187,387	67,785	-0,005	0,004
-186,373	159,513	0,050	0,049
-185,358	-142,375	0,037	0,003
-184,344	800,000	0,026	0,079
-183,329	181,259	0,099	-0,103
-182,315	469,912	0,044	0,071
-181,300	282,670	-0,068	0,087
-180,285	-66,625	-0,124	0,035
-179,271	58,808	-0,066	0,046
-178,256	-126,729	0,120	0,012
-177,242	449,623	0,027	-0,042
-176,227	106,651	-0,117	0,099
-175,212	800,000	-0,063	0,134
-174,198	220,104	0,022	-0,025
-173,183	-83,890	-0,049	-0,011
-172,169	176,431	-0,065	-0,067
-171,154	-106,279	-0,075	0,012
-170,139	473,058	0,064	-0,103
-169,125	-200,000	0,001	0,090
-168,110	-200,000	0,014	0,117
-167,096	70,290	0,105	-0,077
-166,081	800,000	0,048	-0,109
-165,066	541,193	0,050	-0,085
-164,052	-151,019	-0,084	-0,004
-163,037	-200,000	-0,008	-0,033
-162,023	800,000	0,056	0,149
-161,008	306,423	0,143	0,189
-159,993	9,469	0,033	-0,018
-158,979	-200,000	0,006	0,045
-157,964	-7,990	-0,071	-0,034
-156,950	138,022	-0,040	-0,037
-155,935	274,358	0,058	-0,073
-154,920	141,731	0,106	0,099
-153,906	557,109	0,068	0,117
-152,891	64,172	0,123	0,088
-151,877	-103,953	-0,173	-0,028
-150,862	-200,000	-0,021	-0,159
-149,847	-200,000	-0,024	-0,115
-148,833	32,611	-0,034	-0,021
-147,818	-126,072	0,106	-0,011
-146,804	286,381	0,080	-0,103
-145,789	-85,133	-0,105	-0,023
-144,775	-118,096	-0,101	-0,013
-143,760	70,615	-0,122	-0,089
-142,745	-46,580	0,120	-0,041
-141,731	37,213	-0,109	0,069
-140,716	329,057	-0,038	-0,052
-139,702	-103,634	0,064	-0,010
-138,687	-200,000	-0,007	-0,077
-137,672	-200,000	-0,013	0,129
-136,658	-200,000	-0,016	-0,093
-135,643	186,226	-0,049	-0,052
-134,629	112,500	-0,056	0,048
-133,614	-200,000	0,016	0,067
-132,599	-136,283	0,189	0,015
-131,585	598,059	-0,029	0,052
-130,570	-200,000	-0,001	-0,055
-129,556	298,621	-0,110	-0,144
-128,541	348,297	0,063	-0,088
-127,526	-200,000	0,014	-0,103
-126,512	303,361	0,030	-0,039
-125,497	336,918	0,086	0,118
-124,483	-200,000	-0,003	0,062
-123,468	800,000	-0,032	-0,084
-122,453	121,183	-0,124	0,109
-121,439	-200,000	-0,003	0,100
-120,424	-200,000	0,030	0,169
-119,410	-159,841	0,065	-0,002
-118,395	328,914	0,053	0,073
-117,380	-200,000	0,005	0,063
-116,366	262,667	0,042	-0,051
-115,351	-200,000	0,027	-0,187
-114,337	-16,456	-0,053	0,024
-113,322	21,263	-0,038	0,022
-112,307	51,645	-0,100	0,067
-111,293	-1,901	0,087	-0,043
-110,278	-66,795	0,024	0,007
-109,264	30,860	0,111	-0,067
-108,249	-89,787	-0,099	-0,020
-107,234	122,841	-0,051	-0,045
-106,220	-200,000	-0,037	0,135
-105,205	-33,467	0,134	-0,052
-104,191	49,161	0,153	-0,102
-103,176	421,656	0,076	0,116
-102,162	-25,411	0,109	0,045
-101,147	232,469	-0,132	-0,154
-100,132	-200,000	-0,033	-0,173
-99,118	114,659	-0,159	-0,137
-98,103	800,000	0,048	0,144
-97,089	-200,000	0,003	-0,050
-96,074	-50,341	0,097	0,032
-95,059	-85,512	-0,017	0,004
-94,045	-200,000	-0,019	0,127
-93,030	-200,000	-0,028	0,115
-92,016	211,507	0,031	-0,034
-91,001	158,864	0,098	-0,097
-89,986	67,366	0,128	-0,093
-88,972	-131,074	0,194	-0,018
-87,957	424,669	-0,063	-0,096
-86,943	-104,616	0,008	-0,001
-85,928	-94,703	-0,095	-0,018
-84,913	106,779	0,085	-0,071
-83,899	142,901	-0,065	-0,061
-82,884	-200,000	-0,012	0,055
-81,870	748,970	0,022	0,043
-80,855	-200,000	0,003	-0,042
-79,840	800,000	-0,033	-0,074
-78,826	148,797	-0,019	0,018
-77,811	800,000	-0,032	0,092
-76,797	-200,000	0,014	0,076
-75,782	281,502	0,119	0,151
-74,767	-200,000	0,049	0,219
-73,753	273,570	0,075	-0,094
-72,738	-123,239	-0,104	-0,012
-71,724	-18,720	0,077	-0,034
-70,709	104,806	-0,107	-0,089
-69,694	66,181	0,029	-0,021
-68,680	-200,000	0,209	-0,001
-67,665	-62,926	0,033	-0,010
-66,651	-39,776	-0,065	-0,024
-65,636	487,227	0,058	-0,094
-64,622	12,228	0,037	0,020
-63,607	800,000	-0,033	0,075
-62,592	-200,000	-0,039	-0,135
-61,578	-105,142	0,071	-0,011
-60,563	-200,000	-0,022	0,140
-59,549	-200,000	0,004	-0,067
-58,534	7,883	-1,909	-1,008
-57,519	501,464	-1,324	-2,168
-56,505	-200,000	-0,385	-4,404
-55,490	344,359	0,866	1,204
-54,476	800,000	4,962	11,302
-53,461	-200,000	20,220	327,930
-52,446	800,000	750,734	2312,569
-51,432	549,501	1658,833	2819,030
-50,417	74,711	1666,029	1236,716
-49,403	19,692	1538,831	872,308
-48,388	13,703	1460,897	799,142
-47,373	18,724	1451,410	818,047
-46,359	16,433	1440,849	801,150
-45,344	11,964	1436,264	777,279
-44,330	11,910	1434,391	775,980
-43,315	11,872	1432,744	774,875
-42,300	11,927	1430,871	774,091
-41,286	11,920	1429,704	773,397
-40,271	11,844	1428,708	772,467
-39,257	11,891	1427,317	771,907
-38,242	11,928	1425,972	771,323
-37,227	11,901	1424,691	770,476
-36,213	11,923	1423,604	769,959
-35,198	11,929	1422,438	769,328
-34,184	11,974	1421,456	768,976
-33,169	11,887	1420,085	767,796
-32,154	11,939	1419,041	767,444
-31,140	11,998	1417,730	766,984
-30,125	11,922	1416,745	766,064
-29,111	11,948	1415,431	765,445
-28,096	11,928	1414,404	764,763
-27,082	11,930	1413,292	764,143
-26,067	11,885	1412,245	763,332
-25,052	11,879	1411,315	762,773
-24,038	11,879	1410,147	762,113
-23,023	11,883	1409,238	761,610
-22,009	11,852	1408,010	760,770
-20,994	11,809	1407,358	760,185
-19,979	11,833	1406,427	759,767
-18,965	11,802	1405,607	759,145
-17,950	11,858	1404,669	758,874
-16,936	11,842	1403,794	758,295
-15,921	11,831	1402,533	757,532
-14,906	11,827	1401,637	756,998
-13,892	11,809	1400,919	756,499
-12,877	11,802	1399,836	755,850
-11,863	11,818	1398,901	755,390
-10,848	11,765	1398,270	754,772
-9,833	11,720	1397,391	754,060
-8,819	11,747	1396,346	753,593
-7,804	11,663	1395,595	752,767
-6,790	11,723	1394,453	752,399
-5,775	11,719	1393,444	751,805
-4,760	11,719	1392,590	751,315
-3,746	11,695	1391,555	750,618
-2,731	11,705	1390,792	750,220
-1,717	11,655	1390,070	749,573
-0,702	11,665	1388,154	748,554
0,313	15,797	1303,504	721,837
1,327	32,373	697,107	423,931
2,342	50,222	121,470	80,834
3,356	1,143	16,455	8,307
4,371	2,969	3,365	1,719
5,386	11,828	0,704	0,381
6,400	800,000	0,138	0,426
7,415	-163,295	-0,159	0,005
8,429	-24,411	-0,337	-0,141
9,444	5,088	-0,274	-0,142
10,459	22,530	-0,281	-0,162
11,473	38,391	-0,298	-0,187
12,488	-97,037	-0,243	-0,044
13,502	149,677	-0,277	-0,265
14,517	36,299	-0,342	-0,212
15,531	312,850	-0,325	-0,431
16,546	800,000	-0,127	-0,282
17,561	9,904	-0,426	-0,227
18,575	656,983	-0,111	-0,201
19,590	-200,000	-0,025	-0,191
20,604	0,538	-0,233	-0,117
21,619	-23,599	-0,471	-0,198
22,634	110,776	-0,414	-0,351
23,648	658,792	-0,175	-0,318
24,663	58,158	-0,332	-0,228
25,677	186,665	-0,282	-0,296
26,692	42,560	-0,360	-0,230
27,707	158,682	-0,222	-0,217
28,721	-14,199	-0,390	-0,177
29,736	207,650	-0,353	-0,388
30,750	57,489	-0,429	-0,295
31,765	130,197	-0,352	-0,318
32,780	101,943	-0,298	-0,245
33,794	557,446	-0,179	-0,305
34,809	65,655	-0,355	-0,253
35,823	103,912	-0,433	-0,358
36,838	65,361	-0,429	-0,305
37,853	174,874	-0,302	-0,308
38,867	26,015	-0,522	-0,305
39,882	503,488	-0,198	-0,324
40,896	-18,507	-0,318	-0,139
41,911	142,119	-0,225	-0,210
42,926	143,696	-0,360	-0,337
43,940	17,674	-0,371	-0,207
44,955	227,835	-0,389	-0,446
45,969	104,158	-0,362	-0,299
46,984	1,918	-0,330	-0,167
47,999	-29,198	-0,417	-0,167
49,013	380,385	-0,247	-0,357
50,028	97,057	-0,270	-0,217
51,042	-16,405	-0,415	-0,184
52,057	531,297	-0,250	-0,418
53,071	89,789	-0,392	-0,307
54,086	9,476	-0,349	-0,185
55,101	419,575	-0,241	-0,364
56,115	84,577	-0,322	-0,248
57,130	6,492	-0,289	-0,150
58,144	119,540	-0,312	-0,272
59,159	1,360	-0,522	-0,263
60,174	37,004	-0,316	-0,196
61,188	51,536	-0,309	-0,206
62,203	32,998	-0,305	-0,185
63,217	114,206	-0,346	-0,296
64,232	104,316	-0,288	-0,238
65,247	188,883	-0,376	-0,395
66,261	-29,644	-0,307	-0,122
67,276	136,024	-0,292	-0,267
68,290	138,574	-0,264	-0,244
69,305	373,338	-0,296	-0,423
70,320	-95,526	-0,259	-0,048
71,334	72,616	-0,264	-0,193
72,349	132,340	-0,317	-0,287
73,363	38,611	-0,361	-0,225
74,378	-41,959	-0,407	-0,145
75,393	13,188	-0,298	-0,161
76,407	800,000	-0,143	-0,341
77,422	269,482	-0,150	-0,186
78,436	-187,667	-0,307	0,003
79,451	12,392	-0,231	-0,124
80,466	80,814	-0,245	-0,185
81,480	253,824	-0,230	-0,276
82,495	98,598	-0,312	-0,252
83,509	178,954	-0,226	-0,232
84,524	113,946	-0,319	-0,271
85,539	256,659	-0,205	-0,247
86,553	-151,235	-0,175	0,009
87,568	-35,397	-0,385	-0,146
88,582	48,841	-0,444	-0,291
89,597	272,911	-0,281	-0,348
90,611	-47,936	-0,353	-0,119
91,626	-53,227	-0,146	-0,047
92,641	57,705	-0,232	-0,158
93,655	319,956	-0,159	-0,212
94,670	227,527	-0,275	-0,313
95,684	146,493	-0,320	-0,301
96,699	86,453	-0,240	-0,185
97,714	134,220	-0,199	-0,181
98,728	74,851	-0,345	-0,254
99,743	160,498	-0,303	-0,296
100,757	180,924	-0,102	-0,105
101,772	39,517	-0,316	-0,198
102,787	244,154	-0,174	-0,205
103,801	108,314	-0,267	-0,223
104,816	-28,421	-0,293	-0,118
105,830	76,524	-0,269	-0,199
106,845	-2,950	-0,263	-0,128
107,860	-99,166	-0,335	-0,059
108,874	17,345	-0,327	-0,181
109,889	36,331	-0,326	-0,201
110,903	376,470	-0,154	-0,220
111,918	53,519	-0,220	-0,148
112,933	213,192	-0,233	-0,258
113,947	-200,000	-0,036	-0,228
114,962	55,797	-0,180	-0,122
115,976	30,445	-0,177	-0,105
116,991	95,561	-0,308	-0,245
118,006	99,662	-0,202	-0,164
119,020	-58,257	-0,342	-0,103
120,035	684,453	-0,076	-0,140
121,049	-48,089	-0,175	-0,059
122,064	84,881	-0,264	-0,202
123,079	153,433	-0,213	-0,203
124,093	291,928	-0,111	-0,141
125,108	188,444	-0,189	-0,198
126,122	244,105	-0,266	-0,312
127,137	87,256	-0,275	-0,212
128,151	6,907	-0,333	-0,173
129,166	95,422	-0,271	-0,215
130,181	44,881	-0,274	-0,176
131,195	-28,865	-0,408	-0,163
132,210	800,000	-0,150	-0,294
133,224	145,593	-0,276	-0,258
134,239	236,815	-0,184	-0,213
135,254	58,964	-0,227	-0,155
136,268	-183,234	-0,280	0,003
137,283	-157,008	-0,269	-0,011
138,297	-24,393	-0,296	-0,123
139,312	-23,429	-0,411	-0,172
140,327	767,158	-0,146	-0,278
141,341	160,470	-0,147	-0,143
142,356	245,870	-0,191	-0,224
143,370	152,870	-0,263	-0,251
144,385	-19,064	-0,259	-0,112
145,400	484,832	-0,209	-0,333
146,414	13,677	-0,313	-0,169
147,429	7,837	-0,265	-0,138
148,443	98,529	-0,150	-0,121
149,458	226,675	-0,118	-0,134
150,473	5,784	-0,276	-0,142
151,487	136,053	-0,244	-0,222
152,502	115,234	-0,311	-0,265
153,516	15,436	-0,256	-0,140
154,531	73,685	-0,224	-0,163
155,546	123,547	-0,131	-0,114
156,560	1,918	-0,275	-0,138
157,575	95,104	-0,157	-0,124
158,589	-45,161	-0,266	-0,091
159,604	-111,604	-0,270	-0,038
160,619	63,141	-0,218	-0,152
161,633	7,134	-0,291	-0,151
162,648	273,588	-0,150	-0,185
163,662	43,359	-0,224	-0,142
164,677	514,593	-0,074	-0,121
165,692	180,931	-0,157	-0,160
166,706	800,000	-0,085	-0,182
167,721	-93,582	-0,282	-0,054
168,735	-7,700	-0,220	-0,103
169,750	141,938	-0,280	-0,258
170,764	148,402	-0,052	-0,048
171,779	450,180	-0,123	-0,190
172,794	196,305	-0,158	-0,168
173,808	-59,459	-0,112	-0,033
174,823	-59,219	-0,295	-0,088
175,837	32,370	-0,253	-0,151
176,852	-25,286	-0,305	-0,125
177,867	-95,301	-0,193	-0,036
178,881	-60,867	-0,262	-0,077
179,896	-45,020	-0,220	-0,076
180,910	-200,000	-0,073	-0,269
181,925	-69,273	-0,367	-0,097
182,940	60,668	-0,294	-0,202
183,954	172,919	-0,196	-0,196
184,969	-36,688	-0,162	-0,060
185,983	45,585	-0,185	-0,118
186,998	328,841	-0,201	-0,269
188,013	181,778	-0,158	-0,161
189,027	800,000	-0,073	-0,140
190,042	29,500	-0,197	-0,116
191,056	318,670	-0,171	-0,226
192,071	-79,789	-0,135	-0,031
193,086	5,655	-0,168	-0,086
194,100	-200,000	-0,066	-0,231
195,115	205,846	-0,154	-0,166
196,129	31,401	-0,230	-0,137
197,144	135,491	-0,248	-0,224
198,159	182,609	-0,223	-0,229
199,173	303,421	-0,065	-0,083
200,188	125,664	-0,158	-0,138
201,202	218,481	-0,151	-0,168
202,217	129,769	-0,113	-0,100
203,232	9,152	-0,300	-0,157
204,246	97,490	-0,168	-0,134
205,261	231,300	-0,170	-0,193
206,275	278,422	-0,198	-0,245
207,290	7,267	-0,209	-0,108
208,304	-200,000	-0,009	-0,086
209,319	723,582	-0,083	-0,154
210,334	-80,581	-0,245	-0,056
211,348	18,594	-0,171	-0,094
212,363	518,290	-0,145	-0,236
213,377	-56,438	-0,180	-0,055
214,392	-121,561	-0,202	-0,023
215,407	12,117	-0,174	-0,092
216,421	23,596	-0,089	-0,051
217,436	608,596	-0,058	-0,101
218,450	520,371	-0,160	-0,261
219,465	800,000	-0,116	-0,279
220,480	-86,880	-0,225	-0,047
221,494	153,206	-0,184	-0,174
222,509	173,619	-0,089	-0,089
223,523	158,512	-0,071	-0,068
224,538	111,384	-0,173	-0,145
225,553	800,000	-0,041	-0,098
226,567	300,484	-0,125	-0,160
227,582	-200,000	-0,063	-0,226
228,596	152,310	-0,208	-0,197
229,611	85,103	-0,192	-0,145
230,626	-59,312	-0,063	-0,019
231,640	-30,357	-0,329	-0,128
232,655	242,644	-0,138	-0,160
233,669	51,784	-0,275	-0,181
234,684	376,673	-0,119	-0,169
235,699	-72,538	-0,206	-0,052
236,713	-12,212	-0,159	-0,072
237,728	343,835	-0,130	-0,177
238,742	50,089	-0,195	-0,127
239,757	257,049	-0,202	-0,240
240,772	158,633	-0,195	-0,188
241,786	31,942	-0,216	-0,128
242,801	209,312	-0,153	-0,166
243,815	-118,707	-0,197	-0,024
244,830	-20,547	-0,152	-0,064
245,844	79,006	-0,236	-0,174
246,859	-102,946	-0,198	-0,032
247,874	330,447	-0,177	-0,236
248,888	248,289	-0,195	-0,228
249,903	-2,463	-0,261	-0,126
250,917	661,827	-0,065	-0,116
251,932	-200,000	0,006	-0,074
252,947	800,000	-0,095	-0,199
253,961	-95,859	-0,236	-0,043
254,976	304,034	-0,159	-0,205
255,990	107,036	-0,167	-0,137
257,005	542,734	-0,128	-0,211
258,020	127,479	-0,076	-0,067
259,034	-28,280	-0,195	-0,077
260,049	31,212	-0,099	-0,059
261,063	-200,000	-0,024	-0,080
262,078	-17,320	-0,264	-0,114
263,093	477,167	-0,125	-0,196
264,107	33,941	-0,165	-0,099
265,122	-33,777	-0,223	-0,084
266,136	-44,118	-0,217	-0,075
267,151	4,612	-0,103	0,052
268,166	-200,000	-0,010	-0,100
269,180	12,497	-0,271	-0,144
270,195	75,357	-0,205	-0,149
271,209	800,000	-0,046	-0,093
272,224	-41,111	-0,121	-0,043
273,239	-57,379	-0,125	-0,038
274,253	349,563	-0,095	-0,130
275,268	-77,849	-0,173	-0,041
276,282	353,157	-0,170	-0,233
277,297	-28,835	-0,109	-0,043
278,312	189,396	-0,179	-0,185
279,326	347,973	-0,053	-0,072
280,341	75,091	-0,204	-0,148
281,355	-28,048	-0,221	-0,088
282,370	272,083	-0,090	-0,109
283,384	-43,282	-0,281	-0,097
284,399	51,425	-0,180	-0,118
285,414	93,057	-0,158	-0,123
286,428	456,592	-0,057	-0,087
287,443	463,874	-0,139	-0,215
288,457	138,993	-0,015	0,014
289,472	10,630	-0,116	0,061
290,487	-20,361	-0,216	-0,091
291,501	-56,136	-0,165	-0,050
292,516	44,106	-0,179	-0,113
293,530	-39,787	-0,213	-0,076
294,545	556,828	-0,135	-0,224
295,560	-44,309	-0,137	-0,047
296,574	800,000	-0,029	-0,065
297,589	-14,332	-0,245	0,108
298,603	96,611	-0,304	-0,239
299,618	12,050	-0,162	-0,085
300,633	800,000	-0,048	-0,095
301,647	424,580	-0,024	-0,035
302,662	208,475	-0,069	-0,075
303,676	90,497	-0,159	-0,123
304,691	-78,400	-0,146	-0,034
305,706	-33,650	-0,127	-0,048
306,720	50,590	-0,180	-0,117
307,735	21,396	-0,127	-0,071
308,749	-200,000	-0,025	-0,136
309,764	21,227	-0,073	-0,041
310,779	-0,557	-0,180	-0,088
311,793	-9,288	-0,157	-0,072
312,808	66,126	-0,164	-0,114
313,822	-47,201	-0,118	0,039
314,837	529,428	-0,147	-0,240
315,852	205,226	-0,186	-0,199
316,866	-61,483	-0,182	0,052
317,881	52,629	-0,098	-0,064
318,895	135,630	-0,232	-0,207
319,910	243,511	-0,105	-0,121
320,925	-200,000	-0,056	-0,236
321,939	-37,410	-0,137	-0,050
322,954	800,000	-0,108	-0,219
323,968	-147,230	-0,086	0,005
324,983	-200,000	-0,003	-0,101
325,997	323,694	-0,102	-0,134
327,012	-137,929	-0,225	-0,017
328,027	70,162	-0,084	-0,059
329,041	124,031	-0,080	-0,069
330,056	-111,289	-0,083	0,012
331,070	226,440	-0,069	-0,076
332,085	123,353	-0,215	-0,184
333,100	400,072	-0,132	-0,191
334,114	162,725	-0,152	-0,146
335,129	724,834	-0,104	-0,191
336,143	-38,851	-0,167	-0,060
337,158	-10,203	-0,138	-0,062
338,173	480,066	-0,134	-0,209
339,187	555,285	-0,019	-0,031
340,202	40,002	-0,089	-0,055
341,216	-200,000	0,027	-0,246
342,231	800,000	-0,075	-0,176
343,246	281,001	-0,102	-0,125
344,260	197,332	-0,092	-0,096
345,275	-50,289	-0,095	-0,031
346,289	420,055	-0,060	-0,088
347,304	446,842	-0,143	-0,217
348,319	800,000	-0,050	-0,131
349,333	800,000	-0,094	-0,208
350,348	-62,023	-0,200	-0,057
351,362	-18,424	-0,086	0,036
352,377	36,841	-0,122	-0,073
353,392	31,345	-0,197	-0,115
354,406	351,840	-0,048	-0,065
355,421	206,471	1311,343	1398,814
356,435	158,798	1471,627	1399,313
