DTS Sentinel unit serial number:	SN410029Multiplexer serial number:	ORYXHardware model number:	OX2-SRSoftware version number:	ORYX F/W v4,00 Oryx Data Collector v3.7.2.0data status	okinstallation	B3 Nyhavnadifferential loss correction	single-endedforward channel	channel 1reverse channel	N/Adate	2023/12/02time	17:02:30forward acquisition time	300,00reverse acquisition time	0,00gamma	499,1914k internal	0,3198k external	0,3198temperature offset calibration	1,0000default loss term (dB/km)	0,3820temperature slope calibration	1,0000multiplexer offset coefficient	1,0000multiplexer slope coefficient	1,0000fibre end	0,00T internal ref (°C)	14,00T ext. ref 1 (°C)	-1,48T ext. ref 2 (°C)	-1,51length (m)	temperature (°C)	Stokes	anti-Stokes-744,400	250,958	-0,211	-0,261
-743,385	-200,000	0,007	0,393
-742,371	527,504	-0,110	-0,189
-741,356	-200,000	0,084	0,460
-740,342	437,647	-0,115	-0,183
-739,327	-200,000	-0,047	0,293
-738,312	279,512	-0,217	-0,283
-737,298	-200,000	-0,024	0,285
-736,283	104,864	-0,301	-0,259
-735,269	-200,000	0,008	0,334
-734,254	246,360	-0,141	-0,173
-733,239	8,043	-0,211	0,115
-732,225	800,000	-0,114	-0,282
-731,210	-200,000	-0,016	0,064
-730,196	428,824	0,017	-0,027
-729,181	-200,000	-0,004	-0,044
-728,167	215,822	-0,048	0,055
-727,152	-200,000	-0,037	-0,146
-726,137	499,921	-0,069	-0,117
-725,123	190,188	-0,070	-0,076
-724,108	-200,000	-0,029	-0,093
-723,094	796,641	-0,116	-0,233
-722,079	-23,561	0,117	-0,051
-721,064	242,988	-0,052	-0,063
-720,050	525,734	0,068	-0,118
-719,035	800,000	0,011	0,034
-718,021	-200,000	0,005	-0,181
-717,006	-104,173	-0,157	-0,026
-715,991	-200,000	-0,011	-0,163
-714,977	800,000	-0,039	-0,119
-713,962	-15,456	0,192	-0,089
-712,948	2,552	-0,121	0,064
-711,933	-112,032	-0,066	-0,010
-710,918	628,163	0,036	0,066
-709,904	-179,144	0,123	-0,002
-708,889	27,168	-0,153	-0,093
-707,875	-72,628	-0,157	-0,042
-706,860	20,883	-0,036	0,021
-705,845	112,460	-0,034	0,030
-704,831	203,045	0,017	0,019
-703,816	196,699	-0,055	-0,061
-702,802	-200,000	0,000	-0,071
-701,787	-125,723	0,083	-0,009
-700,772	800,000	-0,048	-0,143
-699,758	-200,000	0,009	0,056
-698,743	-80,007	-0,096	-0,023
-697,729	800,000	-0,048	0,108
-696,714	-35,861	0,091	0,035
-695,699	-69,884	0,066	-0,018
-694,685	800,000	0,006	-0,016
-693,670	-200,000	0,015	-0,094
-692,656	300,943	-0,115	-0,155
-691,641	-200,000	0,011	-0,037
-690,627	12,462	0,121	0,068
-689,612	-194,265	-0,038	-0,000
-688,597	30,484	-0,079	0,049
-687,583	-69,830	-0,069	0,019
-686,568	-200,000	-0,008	-0,120
-685,554	159,073	-0,098	0,099
-684,539	-200,000	-0,023	0,094
-683,524	443,511	-0,052	-0,083
-682,510	-200,000	-0,008	0,054
-681,495	-200,000	-0,005	-0,020
-680,481	-95,505	-0,040	0,008
-679,466	-104,982	-0,050	-0,008
-678,451	2,768	0,045	0,024
-677,437	435,109	0,005	0,009
-676,422	800,000	0,036	-0,085
-675,408	676,613	-0,056	-0,106
-674,393	-85,031	0,025	0,006
-673,378	-200,000	0,015	-0,062
-672,364	459,417	0,056	-0,091
-671,349	48,194	-0,051	-0,035
-670,335	22,463	0,151	0,089
-669,320	-148,293	-0,061	-0,004
-668,305	-37,441	0,044	-0,017
-667,291	-200,000	-0,016	-0,087
-666,276	-200,000	0,039	-0,141
-665,262	-3,655	-0,071	-0,036
-664,247	-200,000	0,018	-0,171
-663,232	407,824	-0,087	-0,134
-662,218	-200,000	-0,020	-0,102
-661,203	-50,520	-0,074	0,025
-660,189	800,000	-0,028	-0,070
-659,174	57,100	-0,114	-0,080
-658,159	-96,612	-0,178	-0,034
-657,145	112,606	-0,119	-0,105
-656,130	-55,571	-0,196	-0,063
-655,116	-200,000	0,025	-0,093
-654,101	800,000	0,015	0,030
-653,086	800,000	0,031	0,070
-652,072	-10,624	-0,089	-0,043
-651,057	9,986	-0,072	-0,039
-650,043	-71,074	-0,014	0,004
-649,028	-200,000	0,027	-0,113
-648,014	583,998	0,051	0,092
-646,999	527,153	-0,008	-0,013
-645,984	-110,047	0,071	0,011
-644,970	800,000	0,008	-0,024
-643,955	-51,069	-0,146	-0,050
-642,941	17,291	-0,022	0,013
-641,926	800,000	0,015	0,032
-640,911	9,273	0,111	-0,060
-639,897	-200,000	-0,015	-0,057
-638,882	170,678	0,081	0,084
-637,868	-55,329	0,035	-0,011
-636,853	800,000	-0,039	-0,103
-635,838	-200,000	-0,001	-0,132
-634,824	-132,494	-0,116	0,011
-633,809	-200,000	-0,015	-0,054
-632,795	-200,000	0,005	-0,038
-631,780	175,763	0,038	0,040
-630,765	-112,633	-0,093	0,013
-629,751	-200,000	0,001	-0,068
-628,736	-94,663	-0,025	0,005
-627,722	-200,000	-0,006	-0,026
-626,707	603,959	-0,030	0,054
-625,692	203,587	-0,104	0,116
-624,678	-200,000	-0,005	-0,047
-623,663	800,000	-0,027	-0,082
-622,649	360,879	0,021	-0,031
-621,634	130,103	0,026	0,024
-620,619	656,997	-0,077	-0,143
-619,605	522,082	0,060	-0,102
-618,590	800,000	0,053	0,122
-617,576	-200,000	-0,019	0,148
-616,561	596,455	0,012	-0,022
-615,546	18,928	-0,038	0,022
-614,532	378,107	0,048	0,071
-613,517	10,330	0,049	0,027
-612,503	-200,000	0,005	-0,026
-611,488	-7,650	0,058	0,028
-610,474	18,949	-0,043	0,025
-609,459	-74,780	0,113	-0,029
-608,444	-200,000	0,014	-0,206
-607,430	541,548	0,085	-0,147
-606,415	-1,026	0,013	-0,007
-605,401	11,435	-0,084	-0,047
-604,386	42,529	0,064	0,042
-603,371	-9,942	0,096	0,046
-602,357	-161,808	0,206	0,007
-601,342	117,638	-0,084	-0,075
-600,328	-200,000	0,008	-0,078
-599,313	-200,000	0,004	-0,074
-598,298	23,924	-0,074	0,044
-597,284	121,691	0,169	0,153
-596,269	417,936	-0,068	0,106
-595,255	210,209	-0,049	0,056
-594,240	189,987	-0,036	0,040
-593,225	-112,695	-0,040	0,006
-592,211	-200,000	0,005	0,078
-591,196	5,270	-0,098	-0,052
-590,182	-105,758	-0,104	-0,017
-589,167	60,781	-0,100	0,072
-588,152	328,880	0,050	0,070
-587,138	707,580	-0,056	0,107
-586,123	82,974	-0,045	0,035
-585,109	-200,000	0,006	-0,049
-584,094	-200,000	0,017	-0,128
-583,079	-200,000	-0,029	-0,154
-582,065	-113,177	0,054	0,008
-581,050	-140,969	0,078	-0,006
-580,036	363,623	-0,067	0,097
-579,021	-162,002	0,066	-0,002
-578,006	-200,000	0,042	-0,182
-576,992	108,401	-0,115	-0,099
-575,977	-52,435	0,082	0,027
-574,963	107,672	-0,042	-0,036
-573,948	282,699	-0,023	-0,030
-572,934	290,773	-0,041	-0,054
-571,919	-200,000	-0,005	-0,119
-570,904	3,815	0,085	-0,045
-569,890	103,706	0,047	0,040
-568,875	788,684	-0,019	-0,038
-567,861	-200,000	0,015	0,100
-566,846	646,356	0,047	0,087
-565,831	-47,870	0,060	0,021
-564,817	-147,345	-0,094	-0,006
-563,802	88,876	-0,118	-0,095
-562,788	-54,061	-0,076	0,025
-561,773	-200,000	0,006	0,300
-560,758	-47,022	0,105	-0,037
-559,744	262,654	0,064	0,080
-558,729	23,294	0,093	0,055
-557,715	297,932	-0,040	0,053
-556,700	-200,000	0,032	0,122
-555,685	82,712	-0,118	-0,093
-554,671	800,000	0,012	0,030
-553,656	-200,000	0,001	0,025
-552,642	-92,824	-0,022	-0,005
-551,627	25,065	0,102	0,061
-550,612	-200,000	0,013	0,062
-549,598	35,484	0,020	-0,013
-548,583	107,170	0,021	0,018
-547,569	-200,000	0,012	0,059
-546,554	157,683	-0,037	-0,037
-545,539	-161,242	0,082	-0,003
-544,525	116,080	0,118	0,105
-543,510	123,269	-0,072	-0,066
-542,496	-200,000	0,015	-0,054
-541,481	-8,330	-0,083	-0,040
-540,466	-23,435	0,054	0,023
-539,452	-15,605	0,120	-0,055
-538,437	548,352	-0,072	0,126
-537,423	800,000	-0,062	0,178
-536,408	760,031	-0,051	-0,101
-535,393	336,292	-0,061	-0,086
-534,379	-75,377	0,080	-0,020
-533,364	148,368	-0,165	-0,161
-532,350	304,868	-0,012	0,016
-531,335	324,197	0,016	0,022
-530,321	-200,000	-0,035	0,188
-529,306	-115,399	0,048	0,006
-528,291	-200,000	-0,023	-0,114
-527,277	800,000	-0,040	-0,097
-526,262	390,796	0,047	-0,071
-525,248	-200,000	0,028	-0,100
-524,233	-200,000	0,011	0,048
-523,218	800,000	-0,025	0,053
-522,204	132,787	0,120	-0,112
-521,189	99,447	-0,068	-0,056
-520,175	-200,000	-0,001	-0,057
-519,160	-145,697	0,036	-0,002
-518,145	397,834	0,086	-0,130
-517,131	404,759	-0,073	-0,111
-516,116	205,582	-0,033	-0,037
-515,102	67,182	0,034	-0,025
-514,087	-53,075	-0,044	0,014
-513,072	800,000	0,042	-0,126
-512,058	-51,145	-0,136	-0,046
-511,043	-73,610	-0,079	0,021
-510,029	48,521	-0,092	-0,062
-509,014	-58,382	-0,104	-0,032
-507,999	101,441	0,063	-0,053
-506,985	107,733	0,013	-0,011
-505,970	-57,821	-0,122	-0,038
-504,956	529,198	-0,038	-0,064
-503,941	-155,135	-0,050	0,002
-502,926	314,796	0,052	0,071
-501,912	89,933	0,066	0,053
-500,897	532,947	0,048	0,082
-499,883	0,170	0,106	-0,055
-498,868	230,679	0,053	-0,062
-497,853	232,402	-0,067	0,079
-496,839	-95,371	0,126	-0,024
-495,824	240,852	-0,109	0,131
-494,810	-200,000	-0,007	-0,067
-493,795	133,933	-0,100	0,093
-492,781	-90,142	-0,103	0,021
-491,766	31,349	-0,052	-0,032
-490,751	25,085	0,086	0,051
-489,737	1,566	-0,108	0,056
-488,722	-200,000	-0,002	0,068
-487,708	800,000	-0,040	-0,093
-486,693	301,631	-0,036	0,048
-485,678	4,652	0,074	-0,039
-484,664	247,718	-0,034	-0,042
-483,649	-185,002	-0,056	-0,001
-482,635	37,510	0,089	0,057
-481,620	-200,000	-0,014	-0,047
-480,605	-21,848	0,107	-0,047
-479,591	-200,000	0,009	-0,117
-478,576	317,280	0,050	-0,068
-477,562	-123,122	-0,130	-0,015
-476,547	325,952	0,045	-0,062
-475,532	11,520	0,072	0,040
-474,518	-77,280	0,116	0,029
-473,503	172,830	0,037	-0,038
-472,489	-200,000	0,011	0,063
-471,474	-127,176	0,089	-0,009
-470,459	-142,682	-0,084	-0,006
-469,445	375,720	-0,015	-0,022
-468,430	94,107	-0,120	-0,098
-467,416	800,000	-0,009	-0,025
-466,401	27,497	-0,097	0,058
-465,386	-152,061	-0,050	-0,003
-464,372	304,210	0,026	-0,034
-463,357	15,380	-0,063	0,036
-462,343	207,296	-0,085	-0,096
-461,328	-200,000	0,001	-0,120
-460,313	-200,000	0,024	-0,106
-459,299	-200,000	-0,007	0,107
-458,284	-44,697	0,051	0,018
-457,270	252,482	0,039	0,048
-456,255	800,000	-0,033	-0,083
-455,241	-200,000	-0,026	-0,124
-454,226	313,421	-0,023	-0,031
-453,211	311,226	-0,035	0,047
-452,197	-5,843	-0,105	-0,052
-451,182	-200,000	0,016	0,052
-450,168	163,346	0,133	0,135
-449,153	334,197	0,010	0,014
-448,138	-200,000	-0,048	-0,225
-447,124	-122,029	0,092	-0,011
-446,109	-200,000	-0,029	-0,105
-445,095	800,000	0,078	0,200
-444,080	-104,950	0,100	0,016
-443,065	399,623	0,028	0,042
-442,051	236,593	-0,094	0,112
-441,036	718,794	-0,057	0,110
-440,022	121,242	-0,081	-0,073
-439,007	-200,000	0,041	-0,196
-437,992	-200,000	-0,013	0,048
-436,978	-200,000	0,005	0,172
-435,963	535,838	0,034	0,059
-434,949	-200,000	-0,014	-0,077
-433,934	-200,000	-0,005	-0,027
-432,919	-148,597	-0,041	-0,002
-431,905	96,917	0,121	0,100
-430,890	33,772	-0,024	0,015
-429,876	-85,795	0,196	0,043
-428,861	101,309	-0,054	0,045
-427,846	14,487	-0,069	0,039
-426,832	75,454	-0,121	-0,092
-425,817	-105,296	0,107	-0,017
-424,803	16,243	0,124	0,070
-423,788	-9,095	0,184	0,088
-422,773	-45,556	0,084	0,030
-421,759	300,498	0,036	-0,048
-420,744	-48,650	-0,105	0,036
-419,730	101,150	-0,070	-0,058
-418,715	-96,794	-0,049	0,009
-417,701	123,418	-0,085	0,076
-416,686	731,537	0,045	0,088
-415,671	247,908	0,047	-0,058
-414,657	-25,939	0,059	0,025
-413,642	-114,215	0,098	0,013
-412,628	-200,000	-0,000	-0,031
-411,613	57,429	-0,020	-0,014
-410,598	-123,591	0,044	-0,005
-409,584	-200,000	0,006	-0,028
-408,569	691,380	-0,076	-0,144
-407,555	247,123	-0,053	0,065
-406,540	-200,000	0,009	0,051
-405,525	140,350	-0,106	0,101
-404,511	-200,000	0,032	-0,158
-403,496	-59,084	0,093	-0,029
-402,482	215,709	-0,141	0,161
-401,467	96,558	-0,160	0,131
-400,452	-117,367	0,325	-0,042
-399,438	780,255	-0,085	0,167
-398,423	-65,494	0,030	-0,009
-397,409	566,500	0,040	-0,070
-396,394	80,310	-0,121	0,093
-395,379	800,000	0,061	-0,154
-394,365	66,485	0,059	-0,043
-393,350	3,443	0,066	0,035
-392,336	-179,373	-0,110	-0,002
-391,321	-56,578	0,102	0,032
-390,306	67,215	-0,064	-0,047
-389,292	77,359	-0,134	-0,102
-388,277	800,000	0,084	0,186
-387,263	502,771	0,059	0,099
-386,248	-125,527	0,075	0,008
-385,233	116,927	0,026	0,023
-384,219	106,121	0,073	-0,062
-383,204	-200,000	-0,002	-0,048
-382,190	-200,000	-0,008	0,069
-381,175	-200,000	0,000	-0,101
-380,160	546,937	0,041	-0,070
-379,146	800,000	-0,051	0,153
-378,131	144,021	0,061	-0,059
-377,117	-200,000	-0,010	0,113
-376,102	-200,000	0,008	-0,118
-375,088	-200,000	-0,017	-0,146
-374,073	-118,679	-0,161	-0,020
-373,058	180,036	0,038	0,040
-372,044	255,554	0,090	0,111
-371,029	98,171	0,145	0,120
-370,015	-38,867	-0,168	0,063
-369,000	247,275	0,022	0,027
-367,985	-200,000	-0,027	-0,235
-366,971	-44,695	0,100	-0,036
-365,956	-200,000	0,012	0,047
-364,942	263,781	0,076	-0,095
-363,927	-19,237	-0,102	-0,045
-362,912	326,902	-0,059	0,082
-361,898	102,107	0,068	-0,057
-360,883	-200,000	-0,006	0,066
-359,869	-116,346	-0,059	0,008
-358,854	438,389	0,049	-0,077
-357,839	153,791	0,065	-0,064
-356,825	800,000	0,039	0,086
-355,810	-200,000	0,025	-0,143
-354,796	-106,527	-0,189	-0,030
-353,781	-200,000	0,015	-0,160
-352,766	-200,000	0,014	0,063
-351,752	-27,258	-0,055	0,023
-350,737	-75,709	0,131	0,033
-349,723	-82,485	0,162	0,037
-348,708	45,805	-0,052	0,034
-347,693	466,613	0,009	0,014
-346,679	98,897	-0,023	0,019
-345,664	-200,000	-0,019	-0,075
-344,650	-82,170	0,163	0,038
-343,635	800,000	-0,057	0,140
-342,620	800,000	0,035	-0,076
-341,606	369,695	0,029	-0,042
-340,591	-200,000	-0,044	0,143
-339,577	-200,000	-0,002	-0,022
-338,562	-200,000	-0,040	-0,139
-337,548	-46,092	-0,013	0,005
-336,533	-44,912	0,041	-0,014
-335,518	800,000	0,062	0,136
-334,504	800,000	-0,027	0,074
-333,489	800,000	-0,028	-0,068
-332,475	-200,000	0,008	0,048
-331,460	800,000	0,008	-0,019
-330,445	382,298	0,066	-0,097
-329,431	394,198	-0,040	0,060
-328,416	193,583	0,026	0,028
-327,402	561,640	0,056	0,097
-326,387	37,956	-0,093	0,059
-325,372	-200,000	-0,009	-0,098
-324,358	-71,176	-0,064	-0,017
-323,343	-60,397	0,147	-0,045
-322,329	-200,000	0,018	-0,060
-321,314	17,635	-0,055	-0,031
-320,299	-44,426	0,032	0,011
-319,285	130,211	-0,053	-0,048
-318,270	427,947	0,065	-0,101
-317,256	-142,072	-0,020	-0,001
-316,241	129,874	-0,107	0,098
-315,226	-28,341	0,170	-0,070
-314,212	-200,000	0,004	-0,017
-313,197	438,042	0,068	0,106
-312,183	-77,517	0,078	0,019
-311,168	8,291	-0,029	0,015
-310,153	-200,000	-0,019	-0,149
-309,139	-88,669	-0,080	-0,017
-308,124	-200,000	-0,004	0,016
-307,110	-39,220	0,075	-0,028
-306,095	113,519	-0,077	0,067
-305,080	-77,296	0,089	-0,022
-304,066	-200,000	0,010	-0,096
-303,051	301,771	-0,073	-0,096
-302,037	17,380	-0,062	-0,035
-301,022	-200,000	-0,009	0,044
-300,008	-143,568	-0,069	-0,005
-298,993	553,605	0,043	0,075
-297,978	-200,000	0,005	0,038
-296,964	800,000	-0,043	-0,121
-295,949	-47,020	-0,083	0,029
-294,935	-200,000	-0,004	-0,087
-293,920	7,484	0,098	-0,052
-292,905	43,719	0,040	0,026
-291,891	-200,000	0,009	0,071
-290,876	-200,000	-0,010	-0,090
-289,862	-104,221	-0,102	0,017
-288,847	312,197	0,044	-0,060
-287,832	800,000	0,042	-0,094
-286,818	76,256	-0,013	0,010
-285,803	171,231	0,111	0,114
-284,789	-200,000	-0,017	0,207
-283,774	102,815	-0,012	0,010
-282,759	24,451	0,138	0,081
-281,745	-200,000	0,013	0,161
-280,730	117,299	-0,098	-0,086
-279,716	-148,304	-0,077	-0,004
-278,701	176,610	0,122	0,127
-277,686	320,489	-0,032	-0,044
-276,672	-200,000	0,009	0,049
-275,657	341,219	0,030	0,041
-274,643	180,732	-0,024	-0,026
-273,628	106,468	0,124	-0,105
-272,613	574,024	-0,038	-0,067
-271,599	-37,469	-0,044	-0,017
-270,584	-121,556	0,079	0,009
-269,570	-200,000	-0,008	0,057
-268,555	302,917	0,062	0,082
-267,540	-200,000	-0,002	0,043
-266,526	-200,000	0,002	-0,117
-265,511	-102,770	-0,053	0,009
-264,497	-200,000	-0,000	0,052
-263,482	-52,857	-0,062	0,020
-262,467	311,867	0,066	0,088
-261,453	-142,630	-0,102	-0,007
-260,438	-106,584	-0,066	0,010
-259,424	453,499	0,039	0,062
-258,409	38,026	-0,116	-0,074
-257,395	34,702	0,198	-0,124
-256,380	94,418	0,015	0,012
-255,365	-13,240	0,100	0,046
-254,351	-18,188	-0,133	-0,059
-253,336	-10,222	-0,050	-0,023
-252,322	-70,315	0,068	-0,018
-251,307	800,000	-0,052	-0,136
-250,292	-200,000	-0,007	-0,084
-249,278	7,435	0,073	0,039
-248,263	-200,000	-0,022	0,174
-247,249	800,000	-0,070	0,162
-246,234	-200,000	0,015	-0,063
-245,219	-10,405	-0,079	0,037
-244,205	-70,881	-0,118	0,031
-243,190	-200,000	0,009	-0,089
-242,176	-200,000	-0,005	0,020
-241,161	705,142	0,046	-0,087
-240,146	83,636	-0,100	0,078
-239,132	-123,013	-0,099	-0,011
-238,117	-92,540	-0,128	0,025
-237,103	180,283	-0,015	0,015
-236,088	-200,000	0,002	0,068
-235,073	-136,937	-0,177	0,014
-234,059	-16,842	0,120	0,054
-233,044	-90,874	0,095	0,019
-232,030	-200,000	-0,015	0,070
-231,015	167,559	-0,011	-0,011
-230,000	24,897	-0,152	0,090
-228,986	435,468	-0,016	0,025
-227,971	-45,162	-0,025	0,009
-226,957	188,161	0,028	0,030
-225,942	259,794	-0,066	-0,081
-224,927	264,126	-0,046	-0,057
-223,913	-155,069	-0,044	-0,002
-222,898	10,644	-0,105	-0,057
-221,884	308,617	-0,012	0,016
-220,869	107,458	-0,074	0,063
-219,855	530,811	0,110	-0,186
-218,840	99,568	0,073	-0,060
-217,825	-33,172	0,045	-0,018
-216,811	-200,000	-0,040	-0,221
-215,796	340,256	-0,063	-0,087
-214,782	-27,376	0,129	-0,053
-213,767	-10,231	0,118	0,056
-212,752	522,833	-0,013	0,022
-211,738	49,819	-0,037	-0,025
-210,723	-89,607	0,063	-0,013
-209,709	318,794	-0,014	-0,018
-208,694	142,427	0,040	-0,037
-207,679	-200,000	-0,021	0,089
-206,665	-3,035	-0,058	-0,029
-205,650	-29,947	0,121	0,049
-204,636	47,791	-0,081	0,054
-203,621	-200,000	0,038	0,130
-202,606	387,555	0,066	0,097
-201,592	-151,965	-0,165	0,008
-200,577	238,534	0,061	-0,072
-199,563	-20,790	0,025	0,011
-198,548	-34,820	0,084	0,033
-197,533	-200,000	0,009	0,079
-196,519	122,683	-0,107	0,095
-195,504	-10,035	-0,088	0,041
-194,490	9,450	-0,161	-0,087
-193,475	-22,854	0,072	0,031
-192,460	77,047	0,099	-0,075
-191,446	-174,054	0,094	-0,002
-190,431	800,000	0,018	0,049
-189,417	-169,734	0,066	0,002
-188,402	-105,492	-0,035	0,006
-187,387	290,495	-0,064	-0,083
-186,373	29,228	0,078	0,047
-185,358	800,000	-0,021	-0,054
-184,344	-200,000	-0,025	0,102
-183,329	23,487	0,038	0,022
-182,315	-200,000	-0,019	0,066
-181,300	19,785	-0,118	-0,067
-180,285	632,524	-0,028	0,050
-179,271	206,543	-0,121	-0,134
-178,256	41,648	0,031	-0,020
-177,242	-200,000	0,007	0,088
-176,227	-27,230	-0,126	-0,052
-175,212	-200,000	0,017	-0,162
-174,198	-200,000	-0,001	0,226
-173,183	300,120	-0,073	0,096
-172,169	-200,000	0,007	0,064
-171,154	-181,737	0,111	-0,001
-170,139	-200,000	-0,020	-0,077
-169,125	-200,000	0,058	0,209
-168,110	78,320	0,011	-0,008
-167,096	354,315	-0,084	0,119
-166,081	800,000	-0,046	0,108
-165,066	-200,000	0,010	0,044
-164,052	-42,617	0,054	-0,019
-163,037	60,163	0,067	0,047
-162,023	327,200	-0,013	0,018
-161,008	90,557	0,055	0,044
-159,993	-65,226	-0,052	0,015
-158,979	-200,000	-0,003	0,050
-157,964	-67,730	0,038	-0,011
-156,950	35,331	0,104	0,065
-155,935	115,026	-0,063	0,054
-154,920	34,690	0,095	-0,059
-153,906	201,343	-0,017	0,019
-152,891	-131,525	-0,088	-0,008
-151,877	11,686	0,132	-0,072
-150,862	-200,000	-0,016	0,120
-149,847	-46,648	-0,091	-0,032
-148,833	-54,666	0,044	0,014
-147,818	666,709	0,027	0,051
-146,804	800,000	0,030	0,077
-145,789	500,664	0,008	0,014
-144,775	800,000	-0,026	0,068
-143,760	117,676	-0,047	0,041
-142,745	-136,358	-0,063	-0,005
-141,731	-60,848	-0,069	-0,021
-140,716	198,091	0,067	0,073
-139,702	800,000	0,042	-0,116
-138,687	800,000	-0,080	-0,176
-137,672	-103,883	-0,108	-0,018
-136,658	605,195	-0,076	-0,135
-135,643	800,000	-0,024	-0,048
-134,629	-200,000	0,012	-0,063
-133,614	-127,121	0,192	0,020
-132,599	-82,048	-0,137	0,032
-131,585	348,119	0,019	0,027
-130,570	-200,000	0,031	-0,124
-129,556	-200,000	-0,012	-0,237
-128,541	49,515	-0,129	-0,086
-127,526	147,654	-0,048	-0,046
-126,512	246,678	-0,080	0,096
-125,497	-73,744	-0,042	0,011
-124,483	268,247	0,016	0,020
-123,468	137,084	-0,112	0,104
-122,453	79,733	-0,013	-0,010
-121,439	146,045	-0,045	-0,043
-120,424	-200,000	-0,015	0,063
-119,410	6,303	-0,064	0,034
-118,395	41,536	-0,086	0,055
-117,380	-200,000	-0,016	0,094
-116,366	-114,002	-0,049	0,007
-115,351	-103,805	-0,087	-0,014
-114,337	-200,000	-0,019	0,082
-113,322	114,267	0,070	-0,060
-112,307	-104,096	-0,126	-0,021
-111,293	-102,244	0,096	0,016
-110,278	-136,454	0,137	0,011
-109,264	273,534	0,049	-0,061
-108,249	-200,000	-0,059	-0,000
-107,234	-200,000	-0,004	-0,160
-106,220	-16,571	-0,038	0,017
-105,205	-200,000	-0,006	-0,101
-104,191	49,209	0,129	-0,086
-103,176	-18,702	0,042	0,019
-102,162	-200,000	-0,018	-0,099
-101,147	96,269	-0,112	0,091
-100,132	-45,555	0,078	-0,027
-99,118	-49,901	0,097	0,032
-98,103	-128,026	0,150	0,015
-97,089	82,894	-0,159	0,123
-96,074	512,483	-0,009	0,015
-95,059	43,430	0,086	-0,056
-94,045	-25,132	-0,158	-0,066
-93,030	-200,000	-0,018	-0,082
-92,016	254,581	-0,022	-0,026
-91,001	-200,000	-0,004	0,105
-89,986	580,163	-0,041	0,072
-88,972	274,993	-0,040	0,051
-87,957	485,161	0,073	-0,118
-86,943	122,320	-0,041	-0,037
-85,928	47,844	-0,135	-0,089
-84,913	139,373	0,127	-0,118
-83,899	313,894	-0,048	0,064
-82,884	-200,000	0,039	0,184
-81,870	-200,000	0,019	-0,067
-80,855	115,905	-0,003	-0,002
-79,840	-46,442	0,172	0,060
-78,826	62,344	-0,102	-0,072
-77,811	-36,199	-0,050	-0,019
-76,797	-51,497	-0,158	-0,052
-75,782	800,000	-0,045	0,111
-74,767	54,376	-0,068	0,046
-73,753	42,340	0,086	0,055
-72,738	-200,000	-0,011	0,066
-71,724	-114,103	0,204	0,028
-70,709	-200,000	-0,007	-0,114
-69,694	800,000	0,047	0,097
-68,680	-125,667	-0,079	-0,008
-67,665	-200,000	0,019	-0,096
-66,651	-200,000	0,030	-0,115
-65,636	133,545	0,058	0,053
-64,622	800,000	-0,006	0,016
-63,607	-42,977	0,089	0,032
-62,592	434,360	0,123	-0,190
-61,578	421,615	-0,058	-0,089
-60,563	-39,675	0,109	-0,040
-59,549	128,862	0,063	0,057
-58,534	-36,304	-1,470	-0,559
-57,519	332,599	-1,518	-2,084
-56,505	-200,000	-0,448	-4,567
-55,490	203,861	1,051	1,154
-54,476	800,000	4,861	11,215
-53,461	-200,000	18,887	307,730
-52,446	800,000	738,573	2306,980
-51,432	570,244	1654,448	2863,618
-50,417	78,909	1670,086	1265,437
-49,403	21,952	1542,990	889,189
-48,388	15,859	1465,644	814,995
-47,373	17,812	1455,791	818,922
-46,359	16,862	1445,967	808,805
-45,344	14,154	1441,242	793,160
-44,330	14,052	1439,236	791,535
-43,315	14,080	1437,538	790,700
-42,300	14,098	1435,946	789,881
-41,286	14,090	1434,736	789,147
-40,271	14,104	1433,252	788,364
-39,257	14,088	1432,116	787,635
-38,242	14,098	1430,898	786,981
-37,227	14,141	1429,730	786,510
-36,213	14,098	1428,408	785,546
-35,198	14,120	1427,173	784,940
-34,184	14,136	1426,413	784,570
-33,169	14,083	1424,962	783,486
-32,154	14,115	1423,891	783,022
-31,140	14,137	1422,381	782,262
-30,125	14,154	1421,447	781,796
-29,111	14,116	1420,247	780,929
-28,096	14,067	1419,337	780,166
-27,082	14,023	1418,238	779,321
-26,067	14,038	1416,885	778,619
-25,052	14,021	1415,985	778,011
-24,038	14,031	1415,027	777,501
-23,023	14,006	1414,091	776,842
-22,009	14,001	1413,083	776,232
-20,994	13,975	1412,479	775,745
-19,979	13,979	1411,300	775,088
-18,965	14,012	1410,105	774,555
-17,950	13,935	1409,259	773,700
-16,936	13,997	1408,494	773,538
-15,921	13,888	1407,491	772,446
-14,906	13,942	1406,401	772,072
-13,892	13,952	1405,460	771,572
-12,877	13,920	1404,665	770,953
-11,863	13,951	1403,681	770,528
-10,848	13,940	1402,837	769,983
-9,833	13,890	1401,874	769,191
-8,819	13,861	1400,898	768,491
-7,804	13,779	1400,415	767,810
-6,790	13,876	1399,022	767,470
-5,775	13,884	1397,839	766,829
-4,760	13,845	1397,052	766,185
-3,746	13,816	1396,390	765,653
-2,731	13,820	1395,644	765,235
-1,717	13,813	1394,443	764,513
-0,702	13,821	1392,828	763,635
0,313	17,592	1310,890	736,221
1,327	33,920	705,387	433,991
2,342	51,899	123,880	83,381
3,356	2,285	16,669	8,507
4,371	8,495	3,206	1,703
5,386	46,279	0,466	0,305
6,400	-200,000	0,034	0,281
7,415	-1,359	-0,349	-0,174
8,429	-23,817	-0,303	-0,128
9,444	30,217	-0,362	-0,218
10,459	220,267	-0,186	-0,212
11,473	-73,628	-0,275	-0,070
12,488	38,785	-0,281	-0,177
13,502	60,992	-0,284	-0,199
14,517	68,990	-0,381	-0,277
15,531	136,123	-0,247	-0,228
16,546	79,538	-0,345	-0,261
17,561	264,319	-0,276	-0,340
18,575	-75,733	-0,286	-0,071
19,590	58,677	-0,295	-0,205
20,604	-26,267	-0,329	-0,136
21,619	18,010	-0,416	-0,234
22,634	-28,526	-0,423	-0,172
23,648	27,121	-0,555	-0,329
24,663	59,114	-0,353	-0,245
25,677	69,777	-0,378	-0,275
26,692	226,304	-0,267	-0,306
27,707	130,469	-0,370	-0,335
28,721	35,385	-0,345	-0,213
29,736	146,178	-0,384	-0,364
30,750	41,741	-0,367	-0,234
31,765	158,037	-0,284	-0,278
32,780	198,334	-0,307	-0,332
33,794	-42,809	-0,414	-0,148
34,809	160,479	-0,289	-0,285
35,823	39,363	-0,353	-0,223
36,838	271,341	-0,315	-0,393
37,853	220,205	-0,340	-0,386
38,867	72,860	-0,437	-0,322
39,882	64,517	-0,315	-0,224
40,896	-12,729	-0,411	-0,188
41,911	-57,339	-0,412	-0,127
42,926	99,111	-0,318	-0,259
43,940	56,021	-0,391	-0,267
44,955	163,732	-0,308	-0,306
45,969	43,410	-0,385	-0,248
46,984	66,404	-0,305	-0,218
47,999	188,610	-0,279	-0,295
49,013	17,253	-0,308	-0,172
50,028	58,751	-0,301	-0,208
51,042	185,784	-0,285	-0,299
52,057	16,050	-0,434	-0,240
53,071	150,099	-0,394	-0,377
54,086	175,214	-0,337	-0,344
55,101	-5,566	-0,347	-0,167
56,115	128,415	-0,388	-0,348
57,130	250,147	-0,250	-0,300
58,144	325,809	-0,200	-0,270
59,159	181,125	-0,347	-0,360
60,174	46,811	-0,409	-0,267
61,188	68,304	-0,276	-0,199
62,203	275,528	-0,237	-0,297
63,217	157,586	-0,295	-0,288
64,232	16,835	-0,209	-0,116
65,247	176,925	-0,273	-0,280
66,261	88,320	-0,345	-0,270
67,276	104,368	-0,235	-0,195
68,290	34,218	-0,308	-0,189
69,305	218,110	-0,218	-0,246
70,320	55,177	-0,273	-0,185
71,334	-120,138	-0,322	-0,038
72,349	148,808	-0,299	-0,285
73,363	105,342	-0,282	-0,234
74,378	-52,822	-0,363	-0,117
75,393	23,687	-0,329	-0,190
76,407	26,945	-0,281	-0,165
77,422	279,654	-0,248	-0,313
78,436	35,081	-0,254	-0,156
79,451	83,574	-0,264	-0,203
80,466	184,439	-0,250	-0,260
81,480	133,031	-0,357	-0,324
82,495	79,390	-0,255	-0,192
83,509	96,711	-0,285	-0,230
84,524	45,110	-0,203	-0,131
85,539	86,500	-0,193	-0,149
86,553	-23,929	-0,240	-0,101
87,568	59,374	-0,283	-0,195
88,582	102,477	-0,213	-0,175
89,597	149,565	-0,367	-0,349
90,611	-11,477	-0,345	-0,159
91,626	90,425	-0,214	-0,168
92,641	-27,945	-0,268	-0,108
93,655	85,729	-0,327	-0,253
94,670	-32,667	-0,416	-0,162
95,684	5,215	-0,356	-0,184
96,699	202,118	-0,212	-0,230
97,714	-124,352	-0,305	-0,033
98,728	-26,220	-0,380	-0,156
99,743	102,702	-0,234	-0,192
100,757	200,552	-0,215	-0,233
101,772	60,349	-0,355	-0,246
102,787	59,239	-0,262	-0,181
103,801	15,602	-0,350	-0,192
104,816	174,297	-0,250	-0,254
105,830	76,074	-0,254	-0,188
106,845	36,065	-0,238	-0,147
107,860	69,299	-0,312	-0,225
108,874	362,937	-0,101	-0,143
109,889	103,664	-0,293	-0,241
110,903	241,864	-0,243	-0,285
111,918	-139,980	-0,182	-0,013
112,933	-20,931	-0,198	-0,085
113,947	18,362	-0,213	-0,119
114,962	127,422	-0,137	-0,122
115,976	119,088	-0,319	-0,276
116,991	84,776	-0,285	-0,219
118,006	149,498	-0,218	-0,207
119,020	60,465	-0,284	-0,197
120,035	127,851	-0,202	-0,180
121,049	198,107	-0,258	-0,276
122,064	-20,445	-0,295	-0,126
123,079	192,935	-0,236	-0,250
124,093	145,707	-0,312	-0,293
125,108	125,420	-0,181	-0,160
126,122	365,343	-0,248	-0,350
127,137	11,847	-0,277	-0,148
128,151	42,308	-0,324	-0,206
129,166	198,234	-0,278	-0,298
130,181	7,876	-0,320	-0,168
131,195	-5,662	-0,288	-0,138
132,210	93,585	-0,297	-0,235
133,224	46,324	-0,273	-0,177
134,239	53,581	-0,239	-0,160
135,254	0,554	-0,150	-0,075
136,268	51,752	-0,191	-0,127
137,283	8,358	-0,282	-0,148
138,297	157,388	-0,225	-0,218
139,312	299,256	-0,258	-0,333
140,327	32,222	-0,327	-0,197
141,341	44,187	-0,255	-0,163
142,356	80,943	-0,193	-0,146
143,370	24,037	-0,379	-0,218
144,385	2,453	-0,183	-0,092
145,400	-27,356	-0,205	-0,083
146,414	173,676	-0,344	-0,348
147,429	129,057	-0,165	-0,147
148,443	375,758	-0,209	-0,299
149,458	89,942	-0,254	-0,199
150,473	26,663	-0,196	-0,114
151,487	180,186	-0,236	-0,242
152,502	289,546	-0,135	-0,172
153,516	9,217	-0,228	-0,120
154,531	200,536	-0,171	-0,184
155,546	197,370	-0,185	-0,198
156,560	132,522	-0,258	-0,233
157,575	145,961	-0,188	-0,176
158,589	-112,314	-0,186	0,026
159,604	-84,130	-0,279	-0,061
160,619	55,042	-0,343	-0,231
161,633	209,741	-0,250	-0,275
162,648	64,127	-0,255	-0,179
163,662	176,000	-0,222	-0,226
164,677	90,351	-0,279	-0,218
165,692	381,593	-0,082	-0,117
166,706	289,184	-0,177	-0,224
167,721	65,802	-0,254	-0,180
168,735	425,507	-0,154	-0,232
169,750	312,046	-0,170	-0,223
170,764	-116,179	-0,237	-0,030
171,779	199,942	-0,192	-0,206
172,794	115,144	-0,175	-0,149
173,808	-60,937	-0,178	-0,052
174,823	357,738	-0,217	-0,303
175,837	79,232	-0,220	-0,164
176,852	-111,557	-0,176	-0,025
177,867	-52,208	-0,236	-0,076
178,881	-1,356	-0,264	-0,130
179,896	-66,089	-0,173	0,048
180,910	194,342	-0,231	-0,244
181,925	489,902	-0,112	-0,179
182,940	224,097	-0,234	-0,264
183,954	45,560	-0,190	-0,122
184,969	-77,531	-0,249	-0,060
185,983	-110,006	-0,233	0,034
186,998	53,172	-0,192	-0,128
188,013	180,015	-0,272	-0,278
189,027	129,601	-0,230	-0,205
190,042	17,302	-0,260	-0,143
191,056	-61,745	-0,323	-0,094
192,071	8,412	-0,188	-0,098
193,086	61,915	-0,346	-0,240
194,100	44,069	-0,206	-0,131
195,115	-106,162	-0,207	-0,032
196,129	200,370	-0,230	-0,246
197,144	138,287	-0,303	-0,276
198,159	227,495	-0,277	-0,314
199,173	800,000	-0,109	-0,326
200,188	266,658	-0,183	-0,223
201,202	406,479	-0,113	-0,166
202,217	23,398	-0,269	-0,153
203,232	72,438	-0,267	-0,193
204,246	-24,860	-0,230	-0,094
205,261	-94,886	-0,187	-0,035
206,275	67,231	-0,131	-0,093
207,290	800,000	-0,079	-0,163
208,304	17,448	-0,242	-0,134
209,319	-138,731	-0,185	0,014
210,334	-70,513	-0,207	-0,054
211,348	146,172	-0,096	-0,089
212,363	800,000	-0,089	-0,204
213,377	206,800	-0,265	-0,287
214,392	11,843	-0,219	-0,117
215,407	-200,000	-0,005	0,036
216,421	-10,748	-0,263	-0,120
217,436	-178,095	-0,242	-0,004
218,450	409,658	-0,154	-0,228
219,465	178,348	-0,206	-0,210
220,480	68,763	-0,214	-0,152
221,494	7,656	-0,159	-0,082
222,509	-115,170	-0,192	0,025
223,523	55,457	-0,247	-0,165
224,538	38,771	-0,308	-0,190
225,553	115,895	-0,301	-0,256
226,567	307,129	-0,214	-0,277
227,582	144,996	-0,292	-0,271
228,596	638,758	-0,168	-0,298
229,611	144,732	-0,194	-0,180
230,626	42,263	-0,149	-0,093
231,640	69,737	-0,213	-0,152
232,655	-6,381	-0,181	-0,086
233,669	349,271	-0,168	-0,230
234,684	216,708	-0,139	-0,154
235,699	16,168	-0,137	-0,075
236,713	-49,490	-0,197	-0,065
237,728	147,786	-0,170	-0,159
238,742	-55,219	-0,097	0,030
239,757	339,248	-0,123	-0,167
240,772	52,456	-0,201	-0,133
241,786	19,481	-0,131	-0,073
242,801	23,022	-0,110	-0,062
243,815	10,775	-0,216	-0,114
244,830	585,671	-0,035	-0,060
245,844	127,574	-0,294	-0,259
246,859	161,502	-0,170	-0,165
247,874	60,641	-0,173	-0,119
248,888	-200,000	-0,053	-0,163
249,903	266,979	-0,125	-0,152
250,917	64,797	-0,199	-0,139
251,932	465,659	-0,050	-0,078
252,947	111,021	-0,148	-0,123
253,961	70,957	-0,199	-0,143
254,976	389,693	-0,098	-0,141
255,990	535,102	-0,134	-0,220
257,005	22,852	-0,196	-0,111
258,020	326,136	-0,104	-0,138
259,034	-91,662	-0,101	0,020
260,049	4,317	-0,118	-0,060
261,063	64,244	-0,193	-0,134
262,078	-92,826	-0,240	-0,046
263,093	800,000	-0,131	-0,381
264,107	2,667	-0,240	-0,120
265,122	-4,262	-0,148	-0,071
266,136	-200,000	-0,037	-0,127
267,151	277,255	-0,126	-0,155
268,166	195,235	-0,176	-0,185
269,180	204,652	-0,197	-0,211
270,195	-22,259	-0,253	-0,106
271,209	101,799	-0,151	-0,122
272,224	83,709	-0,112	-0,085
273,239	165,657	-0,152	-0,149
274,253	-200,000	-0,068	-0,227
275,268	800,000	-0,094	-0,182
276,282	309,907	-0,207	-0,269
277,297	79,413	-0,250	-0,186
278,312	279,010	-0,212	-0,262
279,326	-63,949	-0,185	-0,052
280,341	800,000	-0,063	-0,131
281,355	-74,139	-0,282	-0,070
282,370	159,584	-0,143	-0,137
283,384	738,010	-0,147	-0,273
284,399	696,746	-0,149	-0,271
285,414	109,542	-0,179	-0,148
286,428	92,154	-0,192	-0,149
287,443	-28,316	-0,152	-0,060
288,457	27,024	-0,074	-0,043
289,472	-140,076	-0,143	-0,010
290,487	-96,653	-0,229	-0,041
291,501	17,084	-0,211	-0,115
292,516	88,467	-0,181	-0,139
293,530	161,727	-0,138	-0,134
294,545	-67,304	-0,183	-0,049
295,560	48,525	-0,084	-0,054
296,574	62,617	-0,124	-0,086
297,589	76,158	-0,133	-0,097
298,603	-14,936	-0,169	-0,074
299,618	-37,857	-0,231	-0,084
300,633	800,000	-0,073	-0,163
301,647	-42,867	-0,060	0,021
302,662	618,651	-0,129	-0,224
303,676	54,955	-0,112	-0,074
304,691	5,324	-0,131	-0,067
305,706	-103,328	-0,172	-0,028
306,720	142,957	-0,139	-0,127
307,735	369,314	-0,111	-0,156
308,749	269,862	-0,164	-0,199
309,764	447,907	-0,116	-0,176
310,779	54,190	-0,089	-0,059
311,793	78,791	-0,152	-0,112
312,808	-122,478	-0,267	0,030
313,822	-45,136	-0,184	-0,063
314,837	75,421	-0,189	-0,137
315,852	-200,000	-0,028	-0,129
316,866	44,801	-0,090	-0,057
317,881	-61,649	-0,152	0,044
318,895	-139,917	-0,086	-0,006
319,910	59,114	-0,121	-0,082
320,925	62,364	-0,277	-0,190
321,939	-30,817	-0,302	-0,117
322,954	-200,000	-0,023	-0,104
323,968	306,727	-0,118	-0,152
324,983	-64,253	-0,111	-0,031
325,997	-154,101	-0,096	-0,004
327,012	212,951	-0,162	-0,176
328,027	-2,019	-0,144	-0,069
329,041	43,649	-0,208	-0,130
330,056	20,235	-0,104	-0,058
331,070	-41,963	-0,163	-0,057
332,085	-36,027	-0,096	0,035
333,100	800,000	-0,065	-0,190
334,114	287,978	-0,154	-0,192
335,129	-79,299	-0,136	-0,032
336,143	800,000	-0,142	-0,300
337,158	-130,053	-0,143	0,013
338,173	683,464	0,017	-0,030
339,187	89,585	-0,122	-0,093
340,202	800,000	-0,049	-0,095
341,216	84,245	-0,056	-0,042
342,231	-92,198	-0,173	0,033
343,246	244,696	-0,101	-0,117
344,260	-200,000	-0,183	0,000
345,275	-5,628	-0,045	-0,021
346,289	69,264	-0,143	-0,101
347,304	-75,768	-0,065	-0,016
348,319	-82,826	-0,219	-0,048
349,333	21,639	-0,281	-0,157
350,348	85,091	-0,152	-0,115
351,362	654,014	-0,144	-0,255
352,377	0,308	-0,060	-0,029
353,392	-26,235	-0,114	-0,046
354,406	-200,000	-0,002	-0,109
355,421	207,799	1314,209	1410,714
356,435	159,872	1474,857	1411,220
