DTS Sentinel unit serial number:	SN410029Multiplexer serial number:	ORYXHardware model number:	OX2-SRSoftware version number:	ORYX F/W v4,00 Oryx Data Collector v3.7.2.0data status	okinstallation	B3 Nyhavnadifferential loss correction	single-endedforward channel	channel 1reverse channel	N/Adate	2023/12/03time	10:12:30forward acquisition time	300,00reverse acquisition time	0,00gamma	499,1914k internal	0,3201k external	0,3201temperature offset calibration	1,0000default loss term (dB/km)	0,3820temperature slope calibration	1,0000multiplexer offset coefficient	1,0000multiplexer slope coefficient	1,0000fibre end	0,00T internal ref (°C)	13,37T ext. ref 1 (°C)	-1,56T ext. ref 2 (°C)	-1,57length (m)	temperature (°C)	Stokes	anti-Stokes-744,400	-13,562	-0,337	-0,158
-743,385	-200,000	-0,071	0,273
-742,371	111,096	-0,209	-0,183
-741,356	800,000	0,104	0,329
-740,342	233,462	-0,091	-0,109
-739,327	-200,000	-0,003	0,524
-738,312	80,205	-0,188	-0,147
-737,298	724,545	-0,124	0,240
-736,283	800,000	-0,105	-0,271
-735,269	-200,000	0,066	0,262
-734,254	203,156	-0,160	-0,180
-733,239	304,167	-0,175	0,236
-732,225	-200,000	-0,040	-0,169
-731,210	446,901	0,063	0,101
-730,196	-1,599	-0,122	0,062
-729,181	224,833	-0,026	-0,030
-728,167	-200,000	-0,013	-0,083
-727,152	-121,313	-0,154	-0,018
-726,137	-32,282	-0,010	-0,004
-725,123	800,000	0,034	-0,071
-724,108	516,175	-0,063	-0,107
-723,094	71,922	0,111	-0,084
-722,079	-31,710	0,019	0,008
-721,064	800,000	0,046	0,119
-720,050	389,946	0,056	0,085
-719,035	-200,000	0,047	0,164
-718,021	-26,910	-0,009	0,004
-717,006	-96,193	-0,147	-0,028
-715,991	-200,000	-0,010	0,051
-714,977	-4,720	0,034	-0,017
-713,962	-200,000	0,006	-0,051
-712,948	-200,000	-0,023	0,117
-711,933	157,038	0,118	0,119
-710,918	530,106	-0,037	0,065
-709,904	428,015	-0,065	-0,102
-708,889	122,569	-0,165	-0,150
-707,875	622,961	0,059	0,108
-706,860	-52,422	0,037	0,012
-705,845	82,063	0,044	0,034
-704,831	515,524	0,023	0,040
-703,816	-200,000	-0,019	0,100
-702,802	-200,000	-0,014	-0,151
-701,787	-87,632	-0,157	-0,034
-700,772	252,196	0,038	-0,048
-699,758	-124,935	-0,050	0,005
-698,743	800,000	0,045	0,111
-697,729	-200,000	-0,025	0,087
-696,714	800,000	0,022	0,054
-695,699	-200,000	0,019	0,102
-694,685	239,466	-0,108	-0,130
-693,670	-200,000	0,008	-0,091
-692,656	415,658	-0,101	0,157
-691,641	401,415	0,046	-0,070
-690,627	-200,000	0,028	0,095
-689,612	291,650	-0,102	0,135
-688,597	11,394	-0,052	-0,029
-687,583	269,818	-0,043	-0,055
-686,568	5,389	0,017	-0,009
-685,554	170,594	0,050	0,052
-684,539	208,765	0,091	-0,103
-683,524	-200,000	-0,005	0,065
-682,510	18,423	0,048	0,028
-681,495	-200,000	-0,020	0,084
-680,481	-119,925	-0,052	-0,006
-679,466	-200,000	0,013	-0,063
-678,451	600,713	-0,066	-0,119
-677,437	-144,913	0,046	0,003
-676,422	-113,754	0,054	0,008
-675,408	203,036	0,023	-0,026
-674,393	121,059	0,073	-0,066
-673,378	693,907	0,043	-0,082
-672,364	800,000	-0,045	-0,110
-671,349	-144,115	-0,057	-0,004
-670,335	99,247	0,086	0,072
-669,320	-9,113	0,103	0,050
-668,305	-91,351	-0,040	0,008
-667,291	184,716	0,027	-0,029
-666,276	800,000	-0,010	0,021
-665,262	-135,473	-0,097	0,008
-664,247	38,687	-0,028	0,018
-663,232	800,000	0,035	0,113
-662,218	-169,044	0,063	-0,002
-661,203	800,000	-0,021	0,046
-660,189	8,780	0,092	0,050
-659,174	800,000	0,036	-0,112
-658,159	-200,000	-0,009	0,057
-657,145	85,420	-0,129	-0,103
-656,130	-200,000	0,006	0,085
-655,116	-71,339	-0,116	0,031
-654,101	-97,017	-0,076	0,014
-653,086	-138,033	0,059	0,005
-652,072	0,831	-0,086	-0,045
-651,057	-200,000	-0,019	-0,096
-650,043	2,710	-0,152	-0,079
-649,028	46,130	-0,088	0,059
-648,014	800,000	0,013	-0,038
-646,999	-200,000	-0,013	0,063
-645,984	-200,000	-0,007	-0,074
-644,970	355,367	-0,022	-0,032
-643,955	657,985	-0,064	0,120
-642,941	-83,713	0,095	-0,022
-641,926	800,000	-0,011	-0,030
-640,911	-71,022	-0,151	-0,041
-639,897	-191,728	0,084	-0,001
-638,882	122,477	-0,026	-0,023
-637,868	-200,000	0,012	0,071
-636,853	304,642	-0,079	0,106
-635,838	0,451	0,098	-0,051
-634,824	73,217	-0,065	0,049
-633,809	800,000	0,050	-0,136
-632,795	-89,678	-0,104	-0,022
-631,780	70,107	0,098	0,073
-630,765	689,213	-0,008	-0,015
-629,751	-79,267	-0,177	-0,043
-628,736	360,851	-0,065	0,094
-627,722	97,227	-0,008	-0,007
-626,707	168,817	0,057	0,059
-625,692	-77,082	-0,026	0,007
-624,678	-200,000	-0,022	-0,120
-623,663	41,275	0,097	-0,063
-622,649	18,606	-0,045	0,026
-621,634	34,386	-0,105	0,066
-620,619	-59,648	-0,073	0,022
-619,605	-44,263	-0,117	0,042
-618,590	-200,000	0,000	-0,030
-617,576	121,672	0,050	0,045
-616,561	-200,000	-0,026	0,117
-615,546	-170,462	-0,106	-0,003
-614,532	-52,750	0,060	-0,020
-613,517	-200,000	-0,003	-0,065
-612,503	800,000	-0,050	-0,157
-611,488	197,959	0,087	0,097
-610,474	288,773	0,091	0,120
-609,459	-11,633	-0,094	-0,045
-608,444	-163,173	0,082	0,003
-607,430	-62,794	-0,129	-0,038
-606,415	316,017	-0,074	-0,101
-605,401	-200,000	0,020	-0,091
-604,386	174,507	-0,097	-0,102
-603,371	-70,552	0,158	0,043
-602,357	800,000	-0,054	-0,146
-601,342	800,000	0,015	-0,041
-600,328	-200,000	-0,009	-0,096
-599,313	-200,000	-0,008	-0,111
-598,298	-200,000	-0,001	0,051
-597,284	138,710	-0,053	-0,050
-596,269	68,050	0,102	0,075
-595,255	598,573	-0,060	0,108
-594,240	-200,000	0,004	0,217
-593,225	5,832	0,032	-0,017
-592,211	125,014	-0,108	-0,098
-591,196	133,211	-0,083	-0,078
-590,182	-49,136	0,048	0,017
-589,167	216,777	0,077	0,089
-588,152	-29,441	-0,097	-0,040
-587,138	197,687	0,118	-0,130
-586,123	335,036	-0,025	0,035
-585,109	-200,000	-0,008	-0,089
-584,094	552,492	0,013	0,022
-583,079	176,920	0,085	-0,089
-582,065	138,553	-0,090	-0,086
-581,050	184,147	-0,042	0,045
-580,036	535,027	-0,026	-0,045
-579,021	-200,000	-0,001	0,128
-578,006	-17,660	0,124	-0,056
-576,992	-200,000	0,010	-0,075
-575,977	429,175	-0,065	-0,103
-574,963	197,764	-0,065	0,072
-573,948	-200,000	-0,027	0,092
-572,934	114,143	0,028	0,025
-571,919	38,856	0,089	-0,057
-570,904	-200,000	-0,012	0,090
-569,890	-141,091	-0,122	-0,009
-568,875	-200,000	-0,001	0,135
-567,861	-39,166	-0,142	0,054
-566,846	-200,000	-0,027	0,170
-565,831	93,366	-0,012	-0,010
-564,817	105,646	0,037	0,031
-563,802	-13,853	-0,177	-0,082
-562,788	-103,873	-0,064	-0,011
-561,773	-155,278	-0,078	-0,004
-560,758	-49,978	-0,077	-0,026
-559,744	-200,000	-0,016	-0,126
-558,729	-200,000	0,056	-0,225
-557,715	702,859	-0,066	-0,126
-556,700	114,159	-0,092	-0,081
-555,685	135,801	0,064	-0,060
-554,671	-200,000	-0,003	-0,080
-553,656	684,428	0,026	-0,048
-552,642	800,000	0,016	0,048
-551,627	427,770	0,058	0,091
-550,612	542,315	0,032	0,055
-549,598	360,071	0,042	-0,060
-548,583	277,507	-0,044	0,056
-547,569	-29,591	0,061	0,025
-546,554	800,000	0,007	0,016
-545,539	800,000	0,047	-0,096
-544,525	-200,000	0,019	0,066
-543,510	800,000	0,049	0,105
-542,496	309,660	0,046	-0,062
-541,481	-108,591	0,028	0,004
-540,466	-109,225	0,096	-0,015
-539,452	-159,460	-0,084	0,003
-538,437	531,709	0,097	0,166
-537,423	-200,000	0,004	0,114
-536,408	140,298	0,055	0,053
-535,393	776,727	-0,083	0,165
-534,379	-160,561	0,064	-0,002
-533,364	19,217	-0,088	-0,051
-532,350	800,000	0,039	0,101
-531,335	215,501	-0,134	0,154
-530,321	-200,000	-0,036	0,141
-529,306	51,931	-0,037	-0,025
-528,291	733,678	-0,056	-0,109
-527,277	-121,952	-0,171	-0,020
-526,262	-58,713	0,048	0,015
-525,248	395,953	-0,085	0,128
-524,233	-200,000	-0,020	0,078
-523,218	-138,539	-0,106	0,008
-522,204	800,000	-0,031	0,091
-521,189	-15,209	-0,052	-0,024
-520,175	399,433	0,016	-0,024
-519,160	313,561	0,069	0,094
-518,145	-23,318	0,098	0,042
-517,131	-60,005	-0,018	0,005
-516,116	16,353	0,045	-0,026
-515,102	-16,005	-0,094	0,043
-514,087	-200,000	0,002	-0,089
-513,072	422,811	-0,069	-0,108
-512,058	-181,386	0,066	-0,001
-511,043	647,262	0,034	0,062
-510,029	556,144	-0,015	0,026
-509,014	-79,051	-0,092	0,022
-507,999	-200,000	0,001	0,021
-506,985	483,467	0,020	-0,032
-505,970	-200,000	-0,020	-0,145
-504,956	-200,000	-0,015	-0,086
-503,941	4,008	0,060	0,032
-502,926	-88,118	0,132	-0,028
-501,912	33,733	0,062	0,039
-500,897	-200,000	0,011	0,072
-499,883	-99,855	-0,067	0,012
-498,868	-34,535	-0,132	-0,052
-497,853	218,923	-0,072	-0,083
-496,839	-101,388	0,083	0,014
-495,824	187,410	0,024	0,025
-494,810	-61,985	0,118	0,035
-493,795	330,894	0,017	-0,024
-492,781	-35,462	-0,132	0,051
-491,766	178,935	-0,047	-0,050
-490,751	375,359	0,023	-0,033
-489,737	-200,000	0,015	-0,199
-488,722	338,137	0,081	0,114
-487,708	198,273	0,124	0,136
-486,693	800,000	0,019	-0,054
-485,678	-200,000	-0,015	0,061
-484,664	203,567	-0,063	0,070
-483,649	113,634	-0,035	0,030
-482,635	-78,405	0,150	-0,037
-481,620	800,000	0,036	0,092
-480,605	-200,000	-0,013	0,053
-479,591	-88,143	-0,075	0,016
-478,576	-200,000	0,007	0,062
-477,562	-78,286	0,077	-0,019
-476,547	-163,630	0,101	-0,003
-475,532	446,336	-0,090	-0,144
-474,518	-200,000	-0,007	-0,041
-473,503	-13,883	-0,054	0,025
-472,489	85,779	0,071	0,056
-471,474	-70,219	0,120	0,033
-470,459	-169,927	-0,200	0,005
-469,445	527,164	0,060	-0,102
-468,430	137,327	-0,005	0,005
-467,416	-200,000	0,014	0,048
-466,401	184,323	0,045	-0,048
-465,386	40,516	0,035	0,023
-464,372	-107,379	-0,124	-0,019
-463,357	91,309	-0,024	-0,020
-462,343	-200,000	-0,003	-0,077
-461,328	235,890	-0,040	-0,048
-460,313	114,671	0,106	0,093
-459,299	-25,028	-0,069	0,029
-458,284	-200,000	-0,003	-0,017
-457,270	240,170	0,070	-0,084
-456,255	-200,000	0,006	-0,067
-455,241	204,047	-0,048	-0,054
-454,226	289,807	0,014	0,019
-453,211	-17,356	0,035	0,016
-452,197	-32,110	0,131	0,052
-451,182	800,000	-0,013	0,037
-450,168	50,611	-0,126	-0,086
-449,153	716,577	-0,058	-0,111
-448,138	-200,000	0,005	-0,120
-447,124	-107,485	0,075	0,012
-446,109	800,000	0,041	-0,084
-445,095	185,828	0,112	-0,120
-444,080	482,929	0,049	0,080
-443,065	218,133	-0,031	0,036
-442,051	-200,000	-0,009	-0,068
-441,036	121,061	-0,037	0,033
-440,022	517,948	0,083	-0,141
-439,007	-13,953	0,150	-0,069
-437,992	201,555	0,190	0,211
-436,978	43,979	-0,069	-0,045
-435,963	-200,000	-0,002	0,081
-434,949	71,814	-0,113	0,085
-433,934	123,542	0,027	-0,025
-432,919	-97,813	-0,081	-0,015
-431,905	406,862	0,078	-0,119
-430,890	800,000	0,038	0,111
-429,876	286,233	-0,101	0,132
-428,861	-129,522	0,058	0,006
-427,846	800,000	0,014	-0,037
-426,832	-200,000	-0,039	-0,179
-425,817	-200,000	0,017	0,097
-424,803	177,056	-0,009	0,009
-423,788	60,624	0,061	0,043
-422,773	-200,000	0,020	0,093
-421,759	2,064	0,093	-0,048
-420,744	800,000	-0,031	-0,095
-419,730	-200,000	0,016	-0,069
-418,715	272,149	-0,064	-0,082
-417,701	-200,000	0,019	-0,068
-416,686	-142,737	-0,080	-0,006
-415,671	800,000	-0,050	-0,115
-414,657	-95,257	0,049	-0,009
-413,642	-141,073	0,112	-0,008
-412,628	800,000	-0,023	0,057
-411,613	-79,313	0,038	0,009
-410,598	48,819	-0,175	0,118
-409,584	-6,253	0,054	0,027
-408,569	-200,000	0,024	0,171
-407,555	28,350	0,066	0,040
-406,540	-45,417	-0,106	0,038
-405,525	297,655	0,033	-0,043
-404,511	21,936	-0,094	0,055
-403,496	26,676	-0,098	0,059
-402,482	800,000	-0,005	-0,016
-401,467	701,885	-0,021	0,040
-400,452	170,984	0,089	0,092
-399,438	324,368	0,022	-0,031
-398,423	-200,000	0,010	0,107
-397,409	-133,591	0,025	-0,002
-396,394	-200,000	0,003	-0,092
-395,379	800,000	-0,014	-0,040
-394,365	241,785	-0,037	-0,044
-393,350	184,429	0,081	-0,086
-392,336	156,567	-0,093	-0,092
-391,321	71,215	0,119	0,088
-390,306	-2,137	-0,077	-0,039
-389,292	252,942	-0,130	-0,159
-388,277	-200,000	-0,048	-0,207
-387,263	-200,000	-0,003	0,096
-386,248	523,140	-0,028	0,047
-385,233	135,886	-0,105	0,098
-384,219	252,709	0,063	0,077
-383,204	-200,000	0,037	-0,120
-382,190	391,235	-0,021	0,031
-381,175	-200,000	-0,006	0,030
-380,160	-200,000	-0,008	0,091
-379,146	-62,871	0,085	0,025
-378,131	399,186	-0,062	0,093
-377,117	396,952	-0,087	0,131
-376,102	-12,666	0,003	0,001
-375,088	763,692	-0,020	-0,039
-374,073	-109,640	-0,030	-0,004
-373,058	-55,392	-0,013	-0,004
-372,044	74,893	-0,045	-0,034
-371,029	-40,470	0,121	0,045
-370,015	231,106	-0,065	0,076
-369,000	278,071	0,010	-0,013
-367,985	-67,267	0,049	0,014
-366,971	-200,000	0,001	0,041
-365,956	392,753	0,056	0,083
-364,942	63,129	-0,011	0,008
-363,927	79,374	-0,012	-0,009
-362,912	13,635	-0,026	-0,015
-361,898	-33,948	0,115	0,045
-360,883	195,540	-0,093	0,102
-359,869	-200,000	-0,024	-0,106
-358,854	-200,000	0,022	-0,076
-357,839	-200,000	0,005	-0,178
-356,825	800,000	0,052	-0,123
-355,810	31,613	0,063	0,039
-354,796	-72,898	0,048	-0,013
-353,781	-30,113	-0,153	-0,062
-352,766	-54,374	0,086	0,028
-351,752	62,584	0,045	0,032
-350,737	459,463	0,063	0,100
-349,723	100,679	0,025	-0,021
-348,708	-200,000	0,010	-0,058
-347,693	222,696	-0,092	-0,106
-346,679	-200,000	0,031	0,101
-345,664	-200,000	0,004	-0,085
-344,650	-41,970	-0,080	-0,029
-343,635	800,000	0,037	0,089
-342,620	-200,000	0,014	-0,069
-341,606	145,018	0,043	-0,041
-340,591	800,000	0,017	0,037
-339,577	800,000	-0,041	0,128
-338,562	614,601	0,022	-0,041
-337,548	274,147	-0,015	0,019
-336,533	-200,000	0,007	-0,042
-335,518	-92,845	0,079	-0,016
-334,504	-200,000	-0,004	0,033
-333,489	-112,112	-0,051	0,007
-332,475	-200,000	-0,003	-0,082
-331,460	474,168	-0,038	-0,062
-330,445	-200,000	-0,021	0,156
-329,431	-51,525	-0,193	0,064
-328,416	-41,311	0,096	0,035
-327,402	61,875	0,012	-0,008
-326,387	800,000	-0,032	0,083
-325,372	800,000	-0,049	0,108
-324,358	-200,000	-0,003	-0,076
-323,343	-200,000	-0,003	-0,015
-322,329	-199,539	-0,037	-0,000
-321,314	188,135	0,027	-0,028
-320,299	63,556	0,103	-0,074
-319,285	-200,000	-0,019	0,083
-318,270	107,866	-0,100	-0,085
-317,256	-18,024	-0,095	0,043
-316,241	-200,000	0,026	-0,237
-315,226	-167,526	-0,137	0,004
-314,212	-200,000	0,019	-0,075
-313,197	-200,000	0,028	0,128
-312,183	-33,550	0,158	-0,062
-311,168	219,505	0,023	-0,027
-310,153	-111,607	-0,097	-0,014
-309,139	-200,000	-0,001	0,096
-308,124	301,788	0,042	0,056
-307,110	522,024	-0,052	-0,088
-306,095	457,322	0,138	0,220
-305,080	538,041	0,069	0,118
-304,066	-111,942	0,078	0,011
-303,051	531,396	0,073	-0,124
-302,037	-200,000	0,019	-0,114
-301,022	-200,000	0,010	0,048
-300,008	76,644	-0,029	0,022
-298,993	537,733	0,063	0,108
-297,978	800,000	-0,051	0,129
-296,964	-99,003	0,069	-0,012
-295,949	199,232	0,092	0,101
-294,935	-158,068	-0,104	0,004
-293,920	139,084	0,137	-0,129
-292,905	-61,483	0,140	0,042
-291,891	-200,000	-0,024	0,179
-290,876	-118,067	0,168	0,021
-289,862	-200,000	0,043	-0,174
-288,847	-95,058	-0,088	0,017
-287,832	155,775	-0,115	0,113
-286,818	747,835	-0,022	-0,043
-285,803	-124,978	0,025	-0,003
-284,789	-200,000	0,014	-0,078
-283,774	-200,000	-0,006	0,024
-282,759	114,867	0,143	0,124
-281,745	-155,335	-0,098	-0,004
-280,730	554,886	0,016	-0,027
-279,716	381,699	0,016	-0,024
-278,701	800,000	0,072	0,178
-277,686	17,553	0,094	0,053
-276,672	-13,572	0,191	0,088
-275,657	187,822	-0,098	-0,105
-274,643	-40,428	-0,129	-0,048
-273,628	-200,000	-0,001	0,064
-272,613	-22,678	-0,101	-0,043
-271,599	230,311	0,021	0,025
-270,584	-200,000	0,029	0,108
-269,570	296,904	0,055	0,072
-268,555	-154,272	-0,047	-0,002
-267,540	-91,321	0,023	0,005
-266,526	335,025	0,036	-0,050
-265,511	-200,000	0,001	-0,045
-264,497	20,838	-0,057	-0,033
-263,482	-200,000	0,005	0,032
-262,467	-200,000	0,034	0,118
-261,453	-145,711	-0,091	0,006
-260,438	-99,225	-0,046	0,008
-259,424	-200,000	-0,021	0,073
-258,409	-43,654	0,105	0,038
-257,395	-200,000	0,015	-0,094
-256,380	-200,000	0,011	-0,107
-255,365	-177,968	0,109	0,002
-254,351	-200,000	-0,002	-0,139
-253,336	-53,476	-0,022	0,007
-252,322	-200,000	0,015	-0,141
-251,307	-148,672	-0,017	0,001
-250,292	-57,264	0,042	0,013
-249,278	196,819	0,091	0,099
-248,263	-200,000	0,008	0,069
-247,249	92,785	-0,115	-0,092
-246,234	23,828	0,147	-0,086
-245,219	67,421	-0,073	-0,053
-244,205	-94,726	-0,048	0,009
-243,190	-13,132	-0,092	0,042
-242,176	-32,354	0,057	-0,023
-241,161	430,516	0,012	-0,018
-240,146	800,000	0,064	-0,166
-239,132	-179,918	-0,107	0,002
-238,117	106,032	-0,053	0,045
-237,103	82,795	0,069	0,053
-236,088	26,422	0,067	0,040
-235,073	800,000	0,037	0,089
-234,059	185,606	0,039	0,041
-233,044	-185,359	0,164	-0,002
-232,030	398,456	0,059	-0,088
-231,015	800,000	0,006	0,015
-230,000	-200,000	-0,001	-0,057
-228,986	-169,922	0,079	-0,002
-227,971	33,806	-0,059	-0,036
-226,957	800,000	0,051	-0,140
-225,942	55,230	0,057	-0,039
-224,927	337,253	0,043	-0,060
-223,913	-200,000	0,003	-0,201
-222,898	194,968	0,112	-0,121
-221,884	38,752	0,064	-0,040
-220,869	-200,000	-0,027	0,092
-219,855	-119,051	0,141	-0,017
-218,840	384,729	0,075	0,110
-217,825	345,072	-0,013	0,018
-216,811	-200,000	-0,003	0,055
-215,796	800,000	0,032	0,095
-214,782	-200,000	0,014	0,078
-213,767	305,897	-0,061	0,081
-212,752	-200,000	0,010	0,104
-211,738	-36,473	0,065	0,025
-210,723	800,000	0,058	-0,135
-209,709	145,811	-0,148	0,141
-208,694	12,627	-0,030	0,016
-207,679	193,959	0,064	0,069
-206,665	688,818	0,047	0,088
-205,650	-11,188	0,070	0,033
-204,636	-200,000	-0,012	-0,057
-203,621	-200,000	0,023	0,201
-202,606	-160,135	-0,036	0,001
-201,592	187,674	0,051	0,055
-200,577	-29,572	-0,046	0,019
-199,563	-200,000	0,010	-0,154
-198,548	311,754	-0,101	0,136
-197,533	196,561	-0,046	0,050
-196,519	800,000	-0,035	0,092
-195,504	131,755	-0,078	-0,071
-194,490	-200,000	-0,004	-0,147
-193,475	99,687	-0,017	-0,014
-192,460	6,351	0,067	0,035
-191,446	800,000	-0,004	0,010
-190,431	-30,295	0,061	-0,024
-189,417	800,000	-0,053	-0,111
-188,402	-200,000	-0,067	-0,240
-187,387	-200,000	0,007	-0,117
-186,373	51,764	-0,094	-0,063
-185,358	-13,242	0,071	0,032
-184,344	-22,747	0,080	-0,034
-183,329	-200,000	0,008	-0,037
-182,315	-200,000	-0,002	0,015
-181,300	-200,000	-0,006	-0,049
-180,285	-68,605	-0,144	0,040
-179,271	-133,418	-0,128	0,011
-178,256	800,000	0,037	0,078
-177,242	-72,146	0,079	0,021
-176,227	-200,000	0,030	0,102
-175,212	18,412	-0,083	-0,047
-174,198	92,706	-0,108	0,087
-173,183	-16,592	-0,130	-0,058
-172,169	-81,410	-0,096	0,022
-171,154	800,000	-0,048	-0,137
-170,139	-55,173	0,179	-0,057
-169,125	107,587	0,138	-0,117
-168,110	-33,133	-0,071	-0,028
-167,096	-96,956	-0,110	0,020
-166,081	-18,607	-0,139	0,061
-165,066	656,115	-0,056	0,102
-164,052	117,559	0,035	-0,031
-163,037	800,000	-0,032	0,069
-162,023	-107,800	-0,056	-0,009
-161,008	-69,973	0,095	-0,025
-159,993	304,795	0,046	0,061
-158,979	133,113	-0,105	-0,097
-157,964	-200,000	0,051	-0,173
-156,950	-38,103	-0,063	0,024
-155,935	-200,000	-0,007	-0,140
-154,920	-2,743	0,010	0,005
-153,906	-141,615	0,265	0,019
-152,891	-200,000	0,006	0,030
-151,877	152,179	0,084	-0,081
-150,862	543,477	-0,032	0,055
-149,847	84,512	-0,073	0,057
-148,833	-130,087	-0,081	0,008
-147,818	393,357	0,063	0,094
-146,804	-200,000	0,002	-0,064
-145,789	-11,730	0,165	0,077
-144,775	563,860	0,012	-0,021
-143,760	39,478	0,036	-0,023
-142,745	272,214	0,037	0,047
-141,731	196,793	0,119	0,129
-140,716	-200,000	-0,012	-0,039
-139,702	-46,126	0,115	-0,040
-138,687	-200,000	0,033	0,114
-137,672	-200,000	0,004	0,078
-136,658	217,706	0,068	0,077
-135,643	800,000	-0,024	-0,050
-134,629	370,377	-0,029	0,042
-133,614	-119,652	-0,117	-0,014
-132,599	-200,000	0,023	0,155
-131,585	-90,225	0,109	0,022
-130,570	31,722	0,039	-0,024
-129,556	800,000	-0,040	0,084
-128,541	14,054	-0,053	0,029
-127,526	-8,035	0,053	-0,026
-126,512	212,435	-0,055	0,062
-125,497	281,635	0,042	0,054
-124,483	91,700	0,073	0,059
-123,468	-29,040	-0,170	0,069
-122,453	800,000	-0,036	-0,074
-121,439	800,000	-0,033	-0,091
-120,424	509,657	0,046	-0,076
-119,410	-200,000	0,004	0,056
-118,395	339,700	0,078	0,108
-117,380	617,874	0,061	0,109
-116,366	-132,024	-0,073	0,007
-115,351	194,261	-0,068	-0,073
-114,337	800,000	-0,098	-0,197
-113,322	-200,000	0,024	0,135
-112,307	265,172	-0,094	0,117
-111,293	800,000	0,079	0,172
-110,278	423,436	-0,075	0,115
-109,264	-4,903	-0,043	-0,021
-108,249	290,007	-0,076	-0,098
-107,234	-200,000	-0,004	-0,020
-106,220	216,127	0,113	-0,128
-105,205	415,251	0,021	-0,032
-104,191	800,000	0,026	0,074
-103,176	-19,615	-0,097	0,043
-102,162	-6,539	-0,097	-0,047
-101,147	15,290	-0,068	-0,038
-100,132	124,277	0,012	-0,010
-99,118	479,804	0,057	-0,092
-98,103	95,299	0,068	-0,055
-97,089	-73,616	-0,150	-0,038
-96,074	-77,508	0,021	0,005
-95,059	-51,689	0,043	-0,014
-94,045	512,321	0,043	-0,072
-93,030	356,985	-0,069	-0,098
-92,016	-200,000	0,014	-0,155
-91,001	276,936	-0,026	-0,032
-89,986	-200,000	0,022	0,102
-88,972	800,000	-0,004	0,011
-87,957	-200,000	0,011	0,089
-86,943	-200,000	0,005	0,065
-85,928	-200,000	0,008	-0,028
-84,913	54,468	0,070	0,048
-83,899	114,624	-0,094	0,081
-82,884	-61,919	-0,063	0,019
-81,870	-200,000	-0,011	0,193
-80,855	134,919	0,038	0,035
-79,840	142,659	0,129	-0,122
-78,826	-147,590	-0,105	-0,006
-77,811	106,904	0,045	-0,038
-76,797	1,791	0,108	-0,055
-75,782	800,000	0,014	0,032
-74,767	800,000	-0,030	-0,065
-73,753	121,972	0,086	0,076
-72,738	-123,131	-0,185	-0,021
-71,724	210,594	0,030	-0,034
-70,709	0,782	-0,065	-0,033
-69,694	-200,000	-0,017	-0,062
-68,680	531,357	-0,055	0,093
-67,665	-200,000	0,008	-0,077
-66,651	324,578	0,101	0,137
-65,636	-200,000	-0,004	-0,048
-64,622	-200,000	0,026	-0,095
-63,607	-200,000	0,002	-0,045
-62,592	800,000	0,010	-0,021
-61,578	-33,968	0,205	-0,079
-60,563	89,902	0,075	-0,060
-59,549	190,508	0,148	0,158
-58,534	-24,963	-1,786	-0,747
-57,519	447,966	-1,349	-2,110
-56,505	-200,000	-0,476	-4,531
-55,490	278,528	0,963	1,218
-54,476	800,000	4,944	11,181
-53,461	-200,000	19,094	319,559
-52,446	-200,000	740,436	2334,738
-51,432	574,312	1655,437	2870,682
-50,417	78,387	1671,389	1262,528
-49,403	21,343	1544,471	886,071
-48,388	15,248	1466,673	811,794
-47,373	17,966	1456,742	819,404
-46,359	16,721	1446,520	807,649
-45,344	13,516	1442,088	789,789
-44,330	13,416	1440,114	788,199
-43,315	13,404	1438,457	787,201
-42,300	13,393	1436,824	786,224
-41,286	13,426	1435,512	785,635
-40,271	13,396	1433,928	784,594
-39,257	13,418	1432,733	784,011
-38,242	13,427	1431,683	783,451
-37,227	13,446	1430,418	782,818
-36,213	13,473	1428,931	782,101
-35,198	13,454	1428,035	781,490
-34,184	13,511	1426,901	781,107
-33,169	13,441	1425,631	780,051
-32,154	13,519	1424,545	779,794
-31,140	13,486	1423,290	778,918
-30,125	13,501	1422,158	778,340
-29,111	13,463	1421,047	777,523
-28,096	13,511	1419,915	777,099
-27,082	13,425	1418,738	776,020
-26,067	13,424	1417,747	775,440
-25,052	13,416	1416,679	774,787
-24,038	13,361	1415,903	774,072
-23,023	13,418	1414,535	773,561
-22,009	13,346	1413,769	772,776
-20,994	13,370	1412,759	772,306
-19,979	13,365	1411,998	771,835
-18,965	13,348	1411,084	771,223
-17,950	13,358	1409,918	770,606
-16,936	13,355	1408,934	770,019
-15,921	13,325	1407,829	769,245
-14,906	13,327	1406,881	768,709
-13,892	13,330	1406,053	768,238
-12,877	13,318	1405,334	767,759
-11,863	13,275	1404,516	767,082
-10,848	13,284	1403,662	766,624
-9,833	13,300	1402,567	766,072
-8,819	13,224	1401,812	765,277
-7,804	13,196	1401,035	764,690
-6,790	13,236	1399,786	764,163
-5,775	13,251	1398,617	763,564
-4,760	13,223	1397,837	762,977
-3,746	13,175	1397,078	762,314
-2,731	13,162	1396,135	761,707
-1,717	13,150	1395,285	761,159
-0,702	13,179	1393,500	760,287
0,313	17,014	1310,251	732,635
1,327	33,291	704,068	431,315
2,342	51,307	123,344	82,708
3,356	3,242	16,534	8,483
4,371	23,536	3,158	1,833
5,386	4,390	0,656	0,339
6,400	-200,000	0,048	0,225
7,415	-14,231	-0,221	-0,100
8,429	184,218	-0,292	-0,306
9,444	31,813	-0,250	-0,152
10,459	12,732	-0,327	-0,178
11,473	24,406	-0,476	-0,277
12,488	-20,691	-0,287	-0,124
13,502	97,963	-0,331	-0,269
14,517	271,554	-0,158	-0,197
15,531	-29,599	-0,367	-0,147
16,546	-17,941	-0,403	-0,178
17,561	146,567	-0,260	-0,247
18,575	-38,531	-0,335	-0,124
19,590	257,647	-0,281	-0,342
20,604	-67,386	-0,178	-0,049
21,619	94,232	-0,461	-0,369
22,634	11,635	-0,573	-0,310
23,648	48,316	-0,439	-0,290
24,663	91,504	-0,356	-0,282
25,677	41,177	-0,348	-0,221
26,692	61,297	-0,408	-0,286
27,707	33,294	-0,412	-0,252
28,721	-17,898	-0,437	-0,193
29,736	104,416	-0,366	-0,304
30,750	100,010	-0,436	-0,357
31,765	38,239	-0,437	-0,274
32,780	127,815	-0,264	-0,237
33,794	36,925	-0,458	-0,285
34,809	238,735	-0,357	-0,420
35,823	87,357	-0,372	-0,290
36,838	-0,016	-0,480	-0,240
37,853	-65,154	-0,396	-0,112
38,867	142,128	-0,313	-0,293
39,882	38,328	-0,365	-0,229
40,896	47,988	-0,249	-0,164
41,911	173,547	-0,228	-0,232
42,926	52,619	-0,341	-0,230
43,940	117,533	-0,307	-0,266
44,955	114,132	-0,340	-0,292
45,969	62,387	-0,292	-0,205
46,984	2,806	-0,361	-0,184
47,999	21,330	-0,314	-0,179
49,013	203,011	-0,239	-0,260
50,028	151,958	-0,254	-0,244
51,042	483,467	-0,266	-0,428
52,057	85,136	-0,304	-0,235
53,071	-75,196	-0,423	-0,106
54,086	179,565	-0,216	-0,223
55,101	275,817	-0,190	-0,238
56,115	24,960	-0,417	-0,243
57,130	122,504	-0,374	-0,329
58,144	42,666	-0,388	-0,249
59,159	58,494	-0,391	-0,270
60,174	580,104	-0,261	-0,452
61,188	162,794	-0,352	-0,348
62,203	-17,304	-0,418	-0,185
63,217	74,065	-0,306	-0,226
64,232	53,757	-0,336	-0,227
65,247	129,542	-0,332	-0,299
66,261	17,663	-0,402	-0,224
67,276	8,244	-0,341	-0,179
68,290	-92,157	-0,329	-0,065
69,305	-15,203	-0,324	-0,145
70,320	10,884	-0,252	-0,135
71,334	-60,136	-0,333	-0,099
72,349	28,062	-0,304	-0,180
73,363	203,591	-0,254	-0,276
74,378	238,713	-0,165	-0,193
75,393	21,762	-0,373	-0,213
76,407	231,644	-0,280	-0,324
77,422	230,366	-0,263	-0,302
78,436	39,481	-0,283	-0,178
79,451	46,085	-0,271	-0,176
80,466	-6,767	-0,312	-0,149
81,480	157,374	-0,336	-0,327
82,495	-54,872	-0,309	-0,097
83,509	-19,987	-0,426	-0,184
84,524	-102,433	-0,251	-0,042
85,539	-35,947	-0,286	-0,108
86,553	-81,228	-0,248	-0,057
87,568	92,246	-0,313	-0,248
88,582	33,206	-0,306	-0,186
89,597	159,606	-0,321	-0,314
90,611	108,496	-0,228	-0,191
91,626	-185,306	-0,279	-0,003
92,641	77,955	-0,257	-0,192
93,655	88,673	-0,310	-0,242
94,670	204,136	-0,204	-0,222
95,684	-12,908	-0,306	-0,139
96,699	290,029	-0,255	-0,326
97,714	126,016	-0,234	-0,208
98,728	-10,634	-0,312	-0,144
99,743	83,006	-0,238	-0,181
100,757	159,562	-0,294	-0,287
101,772	719,354	-0,154	-0,289
102,787	627,819	-0,129	-0,230
103,801	108,822	-0,267	-0,224
104,816	-11,107	-0,234	-0,108
105,830	-118,397	-0,244	-0,030
106,845	-88,434	-0,346	-0,072
107,860	-9,408	-0,244	-0,114
108,874	63,781	-0,297	-0,209
109,889	-82,229	-0,360	-0,081
110,903	42,768	-0,215	-0,137
111,918	360,174	-0,216	-0,304
112,933	113,832	-0,227	-0,194
113,947	206,035	-0,245	-0,267
114,962	68,684	-0,223	-0,160
115,976	111,861	-0,268	-0,227
116,991	60,262	-0,307	-0,213
118,006	99,904	-0,278	-0,225
119,020	-88,327	-0,264	-0,055
120,035	800,000	-0,095	-0,187
121,049	82,621	-0,228	-0,173
122,064	-32,408	-0,261	-0,102
123,079	472,470	-0,229	-0,362
124,093	358,670	-0,181	-0,254
125,108	53,672	-0,287	-0,192
126,122	-48,222	-0,281	-0,094
127,137	48,073	-0,246	-0,161
128,151	360,410	-0,175	-0,246
129,166	136,711	-0,346	-0,316
130,181	624,891	-0,096	-0,170
131,195	145,724	-0,187	-0,176
132,210	82,825	-0,292	-0,222
133,224	323,996	-0,161	-0,215
134,239	-76,830	-0,316	-0,077
135,254	-74,089	-0,335	-0,084
136,268	205,074	-0,133	-0,145
137,283	397,800	-0,097	-0,143
138,297	35,565	-0,327	-0,201
139,312	49,339	-0,232	-0,152
140,327	83,604	-0,216	-0,164
141,341	-51,964	-0,331	-0,107
142,356	164,418	-0,183	-0,180
143,370	-7,857	-0,337	-0,158
144,385	151,874	-0,227	-0,216
145,400	44,745	-0,361	-0,232
146,414	55,172	-0,206	-0,139
147,429	178,423	-0,232	-0,237
148,443	-44,864	-0,282	-0,098
149,458	66,493	-0,241	-0,171
150,473	177,245	-0,235	-0,239
151,487	32,660	-0,211	-0,127
152,502	81,279	-0,253	-0,191
153,516	270,180	-0,201	-0,248
154,531	29,431	-0,298	-0,176
155,546	-90,064	-0,414	-0,084
156,560	204,176	-0,098	-0,106
157,575	26,887	-0,083	0,048
158,589	363,717	-0,183	-0,258
159,604	800,000	-0,100	-0,237
160,619	800,000	-0,106	-0,264
161,633	-48,849	-0,353	-0,117
162,648	473,425	-0,118	-0,187
163,662	31,661	-0,268	-0,161
164,677	-62,603	-0,254	-0,073
165,692	-40,345	-0,175	-0,063
166,706	-50,318	-0,297	-0,097
167,721	197,427	-0,213	-0,227
168,735	138,099	-0,248	-0,227
169,750	72,566	-0,184	-0,134
170,764	689,951	-0,133	-0,244
171,779	349,623	-0,146	-0,201
172,794	1,321	-0,229	-0,114
173,808	30,294	-0,227	-0,134
174,823	-43,294	-0,273	-0,096
175,837	43,217	-0,257	-0,163
176,852	5,353	-0,294	-0,151
177,867	302,182	-0,217	-0,280
178,881	800,000	-0,114	-0,239
179,896	26,609	-0,215	-0,125
180,910	42,928	-0,207	-0,131
181,925	60,655	-0,215	-0,148
182,940	167,805	-0,265	-0,262
183,954	154,640	-0,216	-0,206
184,969	-98,357	-0,198	-0,035
185,983	144,765	-0,178	-0,165
186,998	-100,079	-0,271	-0,047
188,013	-140,406	-0,152	-0,011
189,027	-66,071	-0,328	-0,091
190,042	51,267	-0,181	-0,119
191,056	602,452	-0,168	-0,291
192,071	88,813	-0,260	-0,201
193,086	394,644	-0,069	-0,100
194,100	43,851	-0,182	-0,116
195,115	-27,704	-0,172	-0,069
196,129	-135,115	-0,227	-0,019
197,144	134,894	-0,198	-0,179
198,159	-27,690	-0,246	-0,099
199,173	49,465	-0,253	-0,165
200,188	800,000	-0,123	-0,249
201,202	55,686	-0,254	-0,171
202,217	291,019	-0,174	-0,220
203,232	81,924	-0,275	-0,207
204,246	282,163	-0,147	-0,183
205,261	29,775	-0,198	-0,117
206,275	-31,710	-0,294	-0,114
207,290	111,431	-0,155	-0,130
208,304	713,582	-0,122	-0,226
209,319	-72,904	-0,306	-0,078
210,334	-46,610	-0,265	-0,090
211,348	10,668	-0,316	-0,167
212,363	99,210	-0,201	-0,161
213,377	438,240	-0,139	-0,211
214,392	450,964	-0,129	-0,199
215,407	-105,821	-0,129	0,020
216,421	164,957	-0,091	0,089
217,436	158,042	-0,210	-0,202
218,450	116,465	-0,290	-0,247
219,465	567,830	-0,122	-0,207
220,480	31,927	-0,239	-0,143
221,494	-53,431	-0,189	-0,060
222,509	800,000	-0,071	-0,141
223,523	21,733	-0,178	-0,100
224,538	98,677	-0,165	-0,132
225,553	207,258	-0,078	-0,085
226,567	-82,373	-0,235	-0,053
227,582	56,331	-0,260	-0,175
228,596	800,000	-0,101	-0,231
229,611	-93,222	-0,173	0,033
230,626	-122,741	-0,065	0,007
231,640	-98,873	-0,200	-0,035
232,655	-56,470	-0,205	-0,063
233,669	381,648	-0,078	-0,111
234,684	-173,785	-0,223	0,004
235,699	-51,668	-0,276	-0,089
236,713	234,437	-0,197	-0,225
237,728	477,532	-0,114	-0,179
238,742	800,000	-0,079	-0,171
239,757	95,496	-0,207	-0,163
240,772	169,648	-0,246	-0,244
241,786	36,059	-0,247	-0,150
242,801	-83,333	-0,096	0,021
243,815	-75,376	-0,190	-0,046
244,830	125,146	-0,157	-0,137
245,844	-19,903	-0,193	-0,082
246,859	122,189	-0,223	-0,193
247,874	800,000	-0,110	-0,223
248,888	86,884	-0,192	-0,147
249,903	38,461	-0,199	-0,123
250,917	-105,501	-0,102	0,016
251,932	213,323	-0,157	-0,172
252,947	17,439	-0,280	-0,154
253,961	57,374	-0,222	-0,149
254,976	-200,000	-0,024	-0,180
255,990	57,994	-0,184	-0,124
257,005	189,079	-0,174	-0,180
258,020	-30,345	-0,201	-0,079
259,034	-11,184	-0,161	-0,073
260,049	93,532	-0,141	-0,110
261,063	-76,917	-0,208	-0,050
262,078	132,202	-0,153	-0,136
263,093	81,938	-0,186	-0,139
264,107	63,802	-0,206	-0,143
265,122	16,642	-0,160	-0,087
266,136	26,930	-0,094	0,054
267,151	63,973	-0,123	-0,086
268,166	72,169	-0,208	-0,150
269,180	800,000	-0,103	-0,227
270,195	40,215	-0,223	-0,138
271,209	250,621	-0,221	-0,260
272,224	106,815	-0,116	-0,095
273,239	-200,000	-0,064	-0,231
274,253	101,069	-0,241	-0,194
275,268	60,981	-0,183	-0,126
276,282	-13,230	-0,190	-0,085
277,297	-98,783	-0,147	-0,026
278,312	-134,836	-0,181	-0,015
279,326	177,913	-0,189	-0,191
280,341	40,933	-0,163	-0,102
281,355	-34,578	-0,073	-0,028
282,370	65,687	-0,170	-0,119
283,384	334,784	-0,162	-0,217
284,399	38,450	-0,187	-0,115
285,414	36,870	-0,172	-0,105
286,428	-66,388	-0,326	-0,089
287,443	-113,822	-0,077	0,010
288,457	154,291	-0,095	-0,090
289,472	-200,000	-0,032	-0,130
290,487	131,835	-0,179	-0,159
291,501	99,313	-0,161	-0,128
292,516	-87,847	-0,091	-0,019
293,530	800,000	-0,048	-0,101
294,545	-7,747	-0,045	-0,021
295,560	642,022	-0,052	-0,092
296,574	232,425	-0,130	-0,147
297,589	-44,019	-0,157	-0,054
298,603	84,592	-0,125	-0,094
299,618	-172,418	-0,249	-0,005
300,633	-154,645	-0,184	0,008
301,647	800,000	-0,075	-0,164
302,662	195,915	-0,154	-0,161
303,676	2,591	-0,161	-0,080
304,691	16,838	-0,135	-0,074
305,706	-3,446	-0,134	-0,064
306,720	684,879	-0,119	-0,215
307,735	65,933	-0,207	-0,145
308,749	420,661	-0,084	-0,125
309,764	-25,849	-0,053	-0,021
310,779	16,973	-0,170	-0,093
311,793	800,000	-0,137	-0,268
312,808	251,950	-0,172	-0,202
313,822	10,676	-0,256	-0,134
314,837	-69,788	-0,207	0,054
315,852	-183,369	-0,281	-0,003
316,866	68,033	-0,076	0,054
317,881	-33,232	-0,224	-0,085
318,895	-105,336	-0,209	-0,032
319,910	116,284	-0,169	-0,143
320,925	374,471	-0,151	-0,212
321,939	-137,785	-0,171	-0,013
322,954	-35,826	-0,070	-0,026
323,968	131,243	-0,050	-0,044
324,983	-182,604	-0,205	-0,003
325,997	77,470	-0,181	-0,133
327,012	-115,671	-0,170	-0,022
328,027	75,640	-0,169	-0,123
329,041	37,657	-0,126	-0,077
330,056	21,816	-0,113	0,063
331,070	-87,057	-0,104	-0,022
332,085	9,571	0,026	0,013
333,100	424,236	-0,134	-0,199
334,114	1,093	-0,125	0,061
335,129	62,267	-0,182	-0,124
336,143	-200,000	0,010	-0,116
337,158	-198,214	-0,049	0,000
338,173	-189,577	-0,103	-0,001
339,187	-137,528	-0,195	-0,015
340,202	-200,000	0,016	-0,128
341,216	-105,636	-0,058	-0,009
342,231	-200,000	-0,009	-0,207
343,246	738,622	-0,110	-0,204
344,260	-84,655	-0,052	0,011
345,275	413,819	-0,057	-0,084
346,289	-27,155	-0,124	-0,050
347,304	-61,563	-0,198	-0,057
348,319	529,255	-0,088	-0,143
349,333	215,753	-0,133	-0,145
350,348	201,714	-0,091	-0,096
351,362	-200,000	-0,004	-0,129
352,377	-56,587	-0,166	-0,050
353,392	33,033	-0,135	-0,080
354,406	58,507	-0,210	-0,141
355,421	209,100	1313,486	1412,517
356,435	160,913	1474,074	1413,001
