DTS Sentinel unit serial number:	SN410029Multiplexer serial number:	ORYXHardware model number:	OX2-SRSoftware version number:	ORYX F/W v4,00 Oryx Data Collector v3.7.2.0data status	okinstallation	B3 Nyhavnadifferential loss correction	single-endedforward channel	channel 1reverse channel	N/Adate	2023/11/29time	18:07:30forward acquisition time	300,00reverse acquisition time	0,00gamma	499,1914k internal	0,3209k external	0,3209temperature offset calibration	1,0000default loss term (dB/km)	0,3820temperature slope calibration	1,0000multiplexer offset coefficient	1,0000multiplexer slope coefficient	1,0000fibre end	0,00T internal ref (°C)	11,19T ext. ref 1 (°C)	-3,97T ext. ref 2 (°C)	-4,07length (m)	temperature (°C)	Stokes	anti-Stokes-744,400	350,414	-0,167	-0,240
-743,385	612,447	-0,119	0,216
-742,371	800,000	-0,090	-0,199
-741,356	-200,000	-0,009	0,260
-740,342	448,704	-0,090	-0,144
-739,327	-200,000	0,059	0,447
-738,312	246,738	-0,165	-0,202
-737,298	-200,000	-0,050	0,260
-736,283	450,205	-0,138	-0,222
-735,269	-200,000	-0,043	0,342
-734,254	-193,209	-0,168	-0,001
-733,239	47,553	-0,227	0,153
-732,225	800,000	-0,098	-0,235
-731,210	57,694	0,056	0,040
-730,196	-42,086	-0,047	0,017
-729,181	112,306	-0,115	-0,101
-728,167	70,318	-0,097	-0,073
-727,152	-6,381	-0,055	0,027
-726,137	-29,252	-0,128	0,053
-725,123	-43,438	0,101	0,037
-724,108	-107,645	-0,156	-0,024
-723,094	-53,288	0,046	-0,015
-722,079	800,000	-0,013	0,035
-721,064	-200,000	0,006	0,042
-720,050	224,679	-0,026	-0,030
-719,035	-68,060	-0,174	0,049
-718,021	59,779	-0,117	-0,083
-717,006	-8,762	-0,148	-0,072
-715,991	-26,213	-0,100	-0,042
-714,977	-200,000	0,023	-0,148
-713,962	22,964	-0,077	0,046
-712,948	800,000	0,049	-0,120
-711,933	164,107	0,091	-0,093
-710,918	-200,000	-0,023	-0,107
-709,904	-200,000	-0,019	-0,172
-708,889	-200,000	0,005	-0,091
-707,875	25,087	0,042	-0,025
-706,860	800,000	0,019	-0,058
-705,845	535,408	-0,018	-0,031
-704,831	-200,000	0,013	0,053
-703,816	179,654	0,107	-0,113
-702,802	74,354	-0,023	-0,017
-701,787	-3,484	-0,163	-0,082
-700,772	253,308	0,121	-0,150
-699,758	-200,000	0,004	0,053
-698,743	-181,382	0,077	0,001
-697,729	64,028	-0,046	0,033
-696,714	125,151	-0,092	-0,084
-695,699	-128,178	-0,124	-0,013
-694,685	-89,472	-0,067	-0,014
-693,670	236,470	-0,105	0,126
-692,656	177,794	-0,032	0,034
-691,641	-68,955	-0,023	-0,006
-690,627	-93,594	0,106	-0,021
-689,612	-77,434	-0,146	0,036
-688,597	-200,000	0,013	-0,113
-687,583	-200,000	0,017	-0,181
-686,568	58,313	-0,064	-0,045
-685,554	-25,486	0,090	-0,038
-684,539	-200,000	-0,041	0,142
-683,524	-200,000	0,008	-0,028
-682,510	630,645	-0,025	0,046
-681,495	800,000	-0,099	0,198
-680,481	-72,014	-0,108	-0,029
-679,466	158,609	-0,162	-0,163
-678,451	-63,374	0,082	0,024
-677,437	134,039	-0,060	-0,057
-676,422	160,966	0,066	0,067
-675,408	-6,341	-0,108	-0,053
-674,393	123,023	-0,079	-0,072
-673,378	-38,815	-0,052	0,020
-672,364	-111,363	0,151	0,022
-671,349	-21,283	-0,089	-0,039
-670,335	162,461	0,065	-0,066
-669,320	123,123	0,078	-0,071
-668,305	800,000	0,037	0,084
-667,291	7,197	-0,134	0,072
-666,276	490,447	-0,080	-0,133
-665,262	-200,000	0,027	-0,100
-664,247	-13,120	-0,034	-0,016
-663,232	-32,739	-0,049	0,020
-662,218	370,294	0,056	-0,082
-661,203	14,661	-0,079	-0,044
-660,189	1,095	-0,060	-0,031
-659,174	200,471	-0,053	0,060
-658,159	49,596	-0,144	-0,098
-657,145	800,000	-0,011	-0,024
-656,130	-200,000	-0,008	-0,045
-655,116	-57,843	0,125	-0,039
-654,101	533,446	0,069	0,118
-653,086	-16,747	-0,075	0,034
-652,072	142,732	-0,034	-0,032
-651,057	-200,000	-0,007	-0,072
-650,043	456,604	-0,065	0,105
-649,028	-15,981	-0,110	-0,050
-648,014	-106,115	-0,204	0,033
-646,999	-200,000	-0,016	0,064
-645,984	118,014	-0,077	-0,069
-644,970	132,475	0,142	0,132
-643,955	8,218	-0,010	-0,006
-642,941	-200,000	-0,012	-0,048
-641,926	-53,119	-0,037	0,012
-640,911	-200,000	-0,019	-0,111
-639,897	800,000	-0,041	0,085
-638,882	-200,000	0,037	-0,138
-637,868	-183,065	-0,094	0,001
-636,853	123,396	-0,084	-0,076
-635,838	141,142	-0,025	0,024
-634,824	-77,992	-0,121	0,030
-633,809	-200,000	0,011	-0,040
-632,795	76,572	0,080	-0,061
-631,780	485,907	0,024	-0,040
-630,765	-134,855	-0,057	0,005
-629,751	800,000	-0,031	-0,086
-628,736	-200,000	-0,019	-0,097
-627,722	418,586	0,079	0,122
-626,707	203,853	-0,090	0,101
-625,692	-59,758	0,072	0,022
-624,678	217,281	0,006	0,006
-623,663	-200,000	0,008	-0,114
-622,649	359,126	-0,029	-0,042
-621,634	-74,424	-0,093	0,024
-620,619	42,407	-0,064	-0,042
-619,605	450,802	0,088	0,140
-618,590	498,702	-0,060	0,100
-617,576	-200,000	0,001	-0,065
-616,561	-123,165	-0,088	-0,010
-615,546	-42,913	0,048	-0,017
-614,532	-200,000	-0,007	-0,026
-613,517	-200,000	0,017	-0,200
-612,503	72,225	-0,113	-0,085
-611,488	70,373	-0,005	0,004
-610,474	800,000	0,022	-0,047
-609,459	228,386	0,116	-0,136
-608,444	147,750	-0,060	-0,058
-607,430	438,338	-0,087	-0,138
-606,415	-200,000	-0,003	0,097
-605,401	-54,921	-0,118	0,038
-604,386	-200,000	-0,004	0,024
-603,371	-30,380	0,069	0,028
-602,357	-69,028	-0,080	0,022
-601,342	-89,751	-0,099	0,021
-600,328	613,641	-0,030	-0,055
-599,313	800,000	-0,027	-0,065
-598,298	-200,000	0,024	-0,113
-597,284	800,000	0,035	0,076
-596,269	-200,000	-0,019	0,067
-595,255	75,056	-0,028	-0,021
-594,240	800,000	0,019	0,052
-593,225	-200,000	0,010	-0,055
-592,211	-200,000	-0,037	-0,122
-591,196	244,313	0,025	-0,030
-590,182	340,545	-0,088	0,125
-589,167	-137,880	0,166	-0,013
-588,152	-200,000	-0,023	-0,082
-587,138	-200,000	-0,013	0,061
-586,123	59,598	-0,052	-0,037
-585,109	141,344	-0,067	0,064
-584,094	-200,000	0,016	-0,084
-583,079	-200,000	0,005	0,129
-582,065	-37,624	0,088	0,034
-581,050	73,280	-0,081	0,061
-580,036	-200,000	0,026	0,094
-579,021	751,998	-0,081	-0,159
-578,006	51,641	-0,098	-0,067
-576,992	-200,000	0,005	-0,089
-575,977	10,555	0,082	-0,045
-574,963	139,777	0,097	0,092
-573,948	-200,000	-0,029	0,133
-572,934	-200,000	-0,008	-0,070
-571,919	140,096	0,073	0,069
-570,904	73,934	-0,188	-0,142
-569,890	800,000	-0,010	0,029
-568,875	-200,000	-0,001	0,019
-567,861	-126,472	0,065	-0,007
-566,846	-64,600	0,062	0,018
-565,831	235,753	0,086	-0,102
-564,817	94,920	-0,184	-0,151
-563,802	-50,614	-0,184	-0,062
-562,788	397,735	0,032	-0,049
-561,773	39,020	-0,067	0,043
-560,758	61,665	0,082	0,059
-559,744	-200,000	0,010	0,058
-558,729	464,662	0,086	0,140
-557,715	-200,000	-0,020	-0,080
-556,700	310,802	-0,051	-0,070
-555,685	546,733	0,031	-0,053
-554,671	63,136	0,222	0,160
-553,656	-200,000	0,006	0,082
-552,642	-200,000	0,001	0,084
-551,627	228,685	-0,057	0,067
-550,612	-200,000	0,032	-0,171
-549,598	-200,000	0,054	0,000
-548,583	535,371	-0,112	-0,193
-547,569	-0,594	0,054	0,028
-546,554	800,000	0,029	0,073
-545,539	20,937	0,051	-0,030
-544,525	257,702	0,072	-0,089
-543,510	408,747	0,034	0,053
-542,496	-42,224	-0,194	0,071
-541,481	101,092	-0,082	0,068
-540,466	-200,000	0,039	0,195
-539,452	-109,322	-0,107	-0,016
-538,437	-58,372	0,135	0,042
-537,423	-200,000	-0,015	0,076
-536,408	-200,000	0,001	-0,117
-535,393	77,924	-0,144	-0,111
-534,379	-92,868	0,034	0,007
-533,364	-200,000	-0,004	0,105
-532,350	-164,960	0,144	0,005
-531,335	360,485	0,066	-0,095
-530,321	-200,000	0,015	0,106
-529,306	484,622	0,072	-0,118
-528,291	-200,000	-0,014	-0,063
-527,277	111,220	0,012	-0,010
-526,262	-200,000	-0,029	-0,134
-525,248	-65,342	0,056	0,016
-524,233	-97,862	0,076	0,014
-523,218	66,221	0,045	-0,033
-522,204	800,000	0,044	-0,100
-521,189	-63,924	-0,037	0,011
-520,175	-200,000	-0,036	0,184
-519,160	88,491	-0,075	0,060
-518,145	363,073	-0,070	-0,101
-517,131	-200,000	0,054	0,180
-516,116	-200,000	-0,001	0,015
-515,102	-200,000	0,014	-0,046
-514,087	-200,000	-0,005	-0,028
-513,072	-81,502	-0,049	-0,012
-512,058	800,000	-0,014	0,041
-511,043	-119,124	-0,045	0,006
-510,029	-200,000	-0,004	0,052
-509,014	-200,000	-0,018	0,224
-507,999	-200,000	0,005	-0,031
-506,985	800,000	-0,071	-0,147
-505,970	87,120	-0,057	0,045
-504,956	-200,000	-0,018	0,178
-503,941	138,838	0,068	-0,064
-502,926	87,789	0,111	0,088
-501,912	800,000	-0,049	-0,117
-500,897	104,848	-0,030	0,025
-499,883	7,863	-0,040	0,022
-498,868	-81,185	-0,132	-0,031
-497,853	134,310	-0,051	0,048
-496,839	-134,412	0,047	-0,004
-495,824	-200,000	-0,006	-0,067
-494,810	800,000	-0,017	-0,039
-493,795	-194,423	0,057	0,000
-492,781	145,724	-0,026	-0,025
-491,766	-200,000	0,000	-0,261
-490,751	-146,591	-0,050	-0,003
-489,737	10,467	0,069	-0,038
-488,722	5,671	-0,072	-0,038
-487,708	800,000	-0,025	0,060
-486,693	-10,966	-0,101	0,048
-485,678	-68,597	0,088	0,024
-484,664	84,459	-0,083	0,065
-483,649	-85,971	0,122	-0,027
-482,635	-74,185	0,146	0,038
-481,620	503,863	-0,065	0,109
-480,605	-200,000	-0,041	-0,170
-479,591	-200,000	0,009	0,162
-478,576	78,728	-0,031	0,024
-477,562	-200,000	-0,046	-0,182
-476,547	800,000	0,066	-0,181
-475,532	-71,464	-0,109	0,029
-474,518	94,267	0,109	0,089
-473,503	-106,969	-0,047	0,007
-472,489	167,411	-0,083	0,085
-471,474	800,000	0,036	-0,096
-470,459	-30,391	-0,089	-0,036
-469,445	266,931	-0,070	-0,087
-468,430	-200,000	0,003	-0,069
-467,416	-200,000	0,010	-0,069
-466,401	161,871	-0,091	0,091
-465,386	-200,000	-0,009	-0,059
-464,372	-168,273	0,337	-0,009
-463,357	-1,728	-0,086	0,043
-462,343	203,349	-0,024	0,027
-461,328	251,668	0,044	0,054
-460,313	-29,756	-0,100	-0,041
-459,299	800,000	-0,046	-0,097
-458,284	800,000	-0,089	0,215
-457,270	-85,790	0,103	-0,023
-456,255	70,140	-0,104	-0,077
-455,241	524,357	-0,070	-0,118
-454,226	145,523	-0,105	-0,101
-453,211	-24,607	-0,108	-0,046
-452,197	-200,000	0,007	-0,102
-451,182	-120,926	-0,051	-0,006
-450,168	275,487	0,061	0,078
-449,153	-40,453	-0,031	-0,011
-448,138	-93,273	0,076	-0,015
-447,124	197,321	-0,063	-0,069
-446,109	555,290	-0,043	0,075
-445,095	-198,786	0,058	-0,000
-444,080	2,448	0,072	0,037
-443,065	-36,846	-0,043	-0,016
-442,051	62,769	0,031	-0,022
-441,036	48,813	0,108	-0,072
-440,022	355,198	0,042	0,060
-439,007	379,466	-0,077	-0,113
-437,992	-200,000	0,046	0,150
-436,978	-56,011	0,128	0,041
-435,963	719,054	0,048	0,092
-434,949	-3,624	-0,083	0,041
-433,934	-200,000	-0,029	-0,113
-432,919	-3,910	-0,122	-0,060
-431,905	369,280	-0,047	-0,068
-430,890	-17,074	0,073	-0,033
-429,876	49,355	0,090	-0,061
-428,861	8,637	0,063	-0,034
-427,846	800,000	0,024	-0,067
-426,832	266,218	0,044	-0,055
-425,817	-200,000	0,007	-0,070
-424,803	-47,375	-0,102	-0,036
-423,788	391,693	0,045	0,067
-422,773	80,642	-0,088	0,068
-421,759	-200,000	0,019	0,128
-420,744	22,081	-0,068	-0,040
-419,730	-78,123	0,104	-0,026
-418,715	30,569	0,171	0,104
-417,701	800,000	-0,052	0,156
-416,686	-92,360	0,129	-0,026
-415,671	-141,643	0,066	-0,005
-414,657	800,000	0,015	-0,043
-413,642	-200,000	-0,001	0,019
-412,628	-30,250	-0,030	-0,012
-411,613	-33,963	-0,090	0,035
-410,598	-40,035	-0,149	-0,055
-409,584	138,479	0,060	0,056
-408,569	-200,000	-0,018	0,146
-407,555	-200,000	-0,005	-0,058
-406,540	-200,000	-0,004	-0,025
-405,525	2,073	0,055	-0,029
-404,511	34,266	-0,040	-0,025
-403,496	800,000	-0,008	-0,020
-402,482	-109,700	-0,110	0,016
-401,467	-30,086	-0,066	-0,027
-400,452	263,016	0,082	0,102
-399,438	585,117	-0,008	-0,015
-398,423	170,728	0,030	-0,031
-397,409	427,639	-0,045	-0,070
-396,394	-200,000	-0,001	-0,034
-395,379	-200,000	0,030	-0,105
-394,365	800,000	0,030	0,079
-393,350	222,409	0,086	0,099
-392,336	490,764	0,066	0,108
-391,321	800,000	-0,049	-0,124
-390,306	169,651	0,024	-0,025
-389,292	-200,000	-0,013	-0,067
-388,277	62,606	0,155	-0,111
-387,263	94,327	-0,023	0,019
-386,248	619,245	-0,108	0,196
-385,233	69,585	0,052	-0,039
-384,219	-101,150	-0,039	0,007
-383,204	-67,967	-0,101	0,028
-382,190	184,733	-0,033	0,035
-381,175	-127,885	0,086	0,009
-380,160	-14,631	-0,030	0,014
-379,146	237,760	0,076	-0,090
-378,131	3,782	0,079	-0,041
-377,117	40,672	0,019	-0,012
-376,102	800,000	0,020	-0,057
-375,088	703,375	-0,069	-0,131
-374,073	-1,705	0,087	0,044
-373,058	800,000	-0,038	0,091
-372,044	14,976	-0,154	0,086
-371,029	-103,618	0,088	-0,015
-370,015	-89,757	0,031	0,006
-369,000	-200,000	0,010	-0,101
-367,985	425,436	0,053	-0,082
-366,971	32,949	-0,022	0,014
-365,956	-200,000	-0,014	0,044
-364,942	800,000	-0,025	0,052
-363,927	800,000	0,041	-0,124
-362,912	-200,000	-0,002	-0,053
-361,898	-200,000	-0,003	-0,089
-360,883	-23,234	-0,073	0,031
-359,869	199,121	-0,045	-0,049
-358,854	-200,000	0,000	0,085
-357,839	-200,000	0,020	-0,105
-356,825	-200,000	0,037	-0,157
-355,810	-163,159	0,029	-0,001
-354,796	-200,000	0,006	0,105
-353,781	674,963	0,083	-0,154
-352,766	-200,000	-0,013	-0,176
-351,752	437,993	-0,032	-0,050
-350,737	-91,763	0,163	0,033
-349,723	103,650	-0,099	0,083
-348,708	28,226	0,152	0,092
-347,693	-168,658	0,081	0,002
-346,679	-200,000	0,000	0,030
-345,664	-165,756	-0,104	-0,003
-344,650	39,962	-0,093	0,059
-343,635	182,028	0,120	0,127
-342,620	-200,000	0,004	0,029
-341,606	-200,000	0,009	0,129
-340,591	5,743	-0,135	0,071
-339,577	-200,000	-0,047	-0,201
-338,562	144,462	0,051	-0,049
-337,548	61,531	0,116	0,082
-336,533	-118,030	-0,031	-0,004
-335,518	59,214	-0,037	0,026
-334,504	-81,434	0,117	-0,027
-333,489	-183,076	-0,104	0,001
-332,475	-19,991	0,026	-0,011
-331,460	132,862	-0,069	0,064
-330,445	-200,000	0,011	-0,091
-329,431	-130,988	-0,093	0,009
-328,416	-98,641	0,061	-0,011
-327,402	-42,306	-0,067	0,024
-326,387	-116,006	0,069	0,009
-325,372	20,021	-0,039	0,022
-324,358	21,884	-0,036	0,021
-323,343	706,488	-0,051	0,096
-322,329	234,163	-0,006	0,007
-321,314	66,934	0,182	0,132
-320,299	-133,003	0,070	0,006
-319,285	-200,000	-0,018	-0,091
-318,270	-16,609	-0,055	-0,025
-317,256	387,509	-0,074	0,109
-316,241	-200,000	0,024	0,163
-315,226	-121,321	-0,063	0,007
-314,212	15,298	0,044	-0,025
-313,197	800,000	-0,044	0,095
-312,183	163,120	-0,077	-0,078
-311,168	410,034	0,054	-0,082
-310,153	-200,000	-0,025	0,090
-309,139	-81,711	-0,148	-0,034
-308,124	-200,000	0,000	0,150
-307,110	90,262	-0,056	0,045
-306,095	800,000	0,070	-0,157
-305,080	122,315	0,100	-0,089
-304,066	-200,000	-0,002	-0,062
-303,051	22,427	0,087	-0,051
-302,037	-60,006	0,159	-0,048
-301,022	84,653	0,145	0,113
-300,008	108,866	0,058	0,049
-298,993	334,871	-0,073	0,101
-297,978	-200,000	0,040	0,147
-296,964	-200,000	0,030	0,146
-295,949	800,000	-0,010	-0,030
-294,935	-121,788	-0,079	0,009
-293,920	23,753	-0,036	0,021
-292,905	-200,000	0,006	0,078
-291,891	226,932	0,080	0,092
-290,876	221,552	-0,042	0,049
-289,862	-200,000	-0,016	-0,182
-288,847	-165,664	-0,103	0,003
-287,832	305,116	0,076	-0,101
-286,818	800,000	0,037	0,074
-285,803	-200,000	0,005	0,036
-284,789	-121,065	0,087	0,010
-283,774	-200,000	-0,020	0,067
-282,759	800,000	-0,029	-0,089
-281,745	238,192	0,076	0,090
-280,730	735,142	0,033	-0,064
-279,716	30,899	-0,082	0,050
-278,701	-200,000	0,011	0,110
-277,686	539,069	0,027	0,045
-276,672	18,968	0,053	0,030
-275,657	-151,566	-0,078	-0,004
-274,643	-0,585	-0,053	0,027
-273,628	-66,526	-0,061	-0,017
-272,613	337,581	-0,044	-0,061
-271,599	-200,000	0,005	0,038
-270,584	694,706	-0,061	0,115
-269,570	800,000	-0,026	-0,082
-268,555	-154,706	-0,011	0,001
-267,540	192,796	0,052	-0,056
-266,526	-25,354	-0,142	0,060
-265,511	800,000	0,039	0,094
-264,497	-200,000	-0,000	0,114
-263,482	-100,580	0,044	0,008
-262,467	71,534	0,085	0,063
-261,453	-200,000	0,000	-0,021
-260,438	0,663	0,155	0,079
-259,424	515,121	0,048	-0,080
-258,409	516,434	-0,043	-0,072
-257,395	800,000	0,044	-0,107
-256,380	-93,023	0,048	-0,010
-255,365	-83,344	-0,132	0,030
-254,351	800,000	-0,003	0,010
-253,336	-164,310	0,153	0,005
-252,322	-200,000	0,021	-0,069
-251,307	800,000	-0,016	0,050
-250,292	800,000	-0,028	0,070
-249,278	-200,000	-0,005	-0,018
-248,263	-200,000	0,031	0,102
-247,249	204,909	-0,027	-0,030
-246,234	800,000	-0,044	0,091
-245,219	-114,168	-0,134	0,018
-244,205	474,439	-0,045	0,073
-243,190	-90,868	-0,075	-0,015
-242,176	-89,981	0,078	0,016
-241,161	-200,000	0,012	0,097
-240,146	444,903	-0,056	-0,088
-239,132	-35,833	0,109	0,042
-238,117	800,000	0,059	-0,141
-237,103	403,370	0,028	-0,043
-236,088	-117,564	0,061	-0,008
-235,073	800,000	0,020	0,062
-234,059	-200,000	0,010	0,077
-233,044	193,129	0,065	0,070
-232,030	96,856	0,056	-0,046
-231,015	-130,344	0,138	-0,013
-230,000	95,694	-0,056	-0,045
-228,986	56,142	0,068	0,047
-227,971	-200,000	0,021	0,071
-226,957	42,464	0,092	0,059
-225,942	238,633	-0,022	0,026
-224,927	-200,000	0,023	-0,128
-223,913	59,767	0,031	-0,022
-222,898	586,667	-0,009	0,015
-221,884	-165,481	0,113	0,003
-220,869	-2,641	0,104	-0,052
-219,855	800,000	0,108	0,267
-218,840	5,000	-0,066	0,034
-217,825	-44,398	0,170	0,060
-216,811	800,000	-0,042	-0,096
-215,796	45,199	0,047	-0,031
-214,782	115,170	0,054	0,047
-213,767	-200,000	0,009	0,169
-212,752	70,913	-0,022	0,016
-211,738	-59,258	0,098	0,030
-210,723	800,000	-0,011	0,031
-209,709	-200,000	0,005	0,028
-208,694	800,000	-0,028	0,068
-207,679	192,449	-0,114	-0,123
-206,665	-32,408	0,080	-0,031
-205,650	-146,461	0,110	-0,007
-204,636	800,000	-0,010	-0,031
-203,621	800,000	-0,010	-0,025
-202,606	-200,000	0,018	-0,108
-201,592	-200,000	-0,013	0,062
-200,577	-200,000	0,030	-0,131
-199,563	-200,000	0,001	-0,060
-198,548	99,222	-0,081	0,066
-197,533	224,366	-0,041	-0,047
-196,519	-76,296	0,126	-0,031
-195,504	-200,000	-0,005	-0,092
-194,490	595,581	-0,051	0,090
-193,475	459,081	-0,073	-0,116
-192,460	800,000	-0,043	-0,091
-191,446	-200,000	-0,009	0,073
-190,431	-200,000	-0,021	-0,100
-189,417	-200,000	0,183	0,000
-188,402	-161,957	-0,019	0,001
-187,387	-89,845	-0,084	0,017
-186,373	54,230	-0,086	-0,059
-185,358	-117,606	0,119	0,015
-184,344	377,834	0,074	-0,108
-183,329	-94,712	0,060	0,012
-182,315	298,093	-0,080	0,105
-181,300	800,000	-0,017	-0,035
-180,285	221,859	0,048	0,055
-179,271	14,025	-0,040	0,022
-178,256	-79,044	0,129	-0,031
-177,242	105,740	-0,046	0,039
-176,227	-183,894	-0,022	0,000
-175,212	-65,083	0,085	-0,024
-174,198	-200,000	0,015	-0,085
-173,183	544,080	-0,024	-0,040
-172,169	800,000	-0,067	-0,137
-171,154	-141,449	0,076	0,005
-170,139	-200,000	0,013	0,159
-169,125	-200,000	0,000	0,003
-168,110	27,061	-0,032	-0,019
-167,096	-158,954	-0,068	0,003
-166,081	-3,847	-0,114	0,056
-165,066	184,120	-0,099	0,104
-164,052	71,417	-0,093	0,068
-163,037	-119,917	-0,062	0,007
-162,023	-118,148	0,126	0,016
-161,008	56,023	0,055	-0,038
-159,993	585,384	0,056	0,098
-158,979	-114,773	-0,173	0,023
-157,964	-94,178	-0,091	0,017
-156,950	-104,290	0,043	0,007
-155,935	261,124	-0,034	-0,042
-154,920	1,113	0,107	0,054
-153,906	-200,000	0,025	0,107
-152,891	56,942	0,072	-0,050
-151,877	-55,438	0,086	0,027
-150,862	93,837	-0,166	-0,133
-149,847	-180,113	-0,076	0,001
-148,833	281,661	-0,060	0,077
-147,818	-200,000	-0,003	0,029
-146,804	800,000	0,021	-0,045
-145,789	431,941	0,064	0,099
-144,775	-5,044	-0,044	0,021
-143,760	496,544	-0,045	0,073
-142,745	-138,641	0,057	-0,004
-141,731	-179,458	-0,130	0,002
-140,716	17,362	0,021	-0,012
-139,702	-144,175	0,173	-0,011
-138,687	380,518	-0,044	-0,064
-137,672	8,040	-0,093	-0,049
-136,658	-142,453	-0,025	0,002
-135,643	134,794	0,051	-0,047
-134,629	-200,000	-0,010	0,073
-133,614	-200,000	-0,014	-0,058
-132,599	42,518	0,013	-0,008
-131,585	497,703	-0,060	0,099
-130,570	-128,336	-0,112	-0,011
-129,556	800,000	-0,054	0,131
-128,541	-134,920	-0,083	-0,007
-127,526	147,487	0,142	0,136
-126,512	800,000	0,037	-0,080
-125,497	113,937	0,062	-0,053
-124,483	176,657	-0,017	-0,018
-123,468	800,000	0,037	0,076
-122,453	64,636	-0,034	0,025
-121,439	-31,267	-0,111	-0,044
-120,424	166,700	0,028	-0,028
-119,410	289,709	0,031	0,040
-118,395	-200,000	0,004	0,096
-117,380	546,126	-0,094	0,160
-116,366	-200,000	-0,037	0,153
-115,351	-38,162	0,116	0,043
-114,337	-174,812	-0,128	-0,002
-113,322	-45,908	0,101	-0,035
-112,307	118,983	0,028	0,024
-111,293	500,635	0,066	0,109
-110,278	-200,000	0,020	0,179
-109,264	284,634	-0,041	0,053
-108,249	-87,963	-0,127	-0,027
-107,234	800,000	0,050	-0,114
-106,220	304,263	0,046	-0,060
-105,205	-200,000	0,007	0,084
-104,191	43,469	0,119	0,077
-103,176	549,979	-0,068	0,116
-102,162	59,024	0,087	-0,060
-101,147	800,000	0,039	0,091
-100,132	318,716	0,067	0,090
-99,118	-4,347	0,088	-0,043
-98,103	433,784	-0,038	-0,059
-97,089	800,000	0,032	0,086
-96,074	93,081	-0,011	-0,009
-95,059	50,190	-0,013	0,008
-94,045	-70,915	-0,136	0,036
-93,030	-24,019	-0,043	0,018
-92,016	366,929	0,044	-0,063
-91,001	-200,000	0,005	0,061
-89,986	-200,000	0,005	0,083
-88,972	800,000	0,047	0,102
-87,957	471,662	0,059	0,094
-86,943	-200,000	-0,022	-0,094
-85,928	7,723	0,099	-0,052
-84,913	146,784	0,039	-0,037
-83,899	-200,000	-0,019	-0,076
-82,884	27,670	0,206	0,122
-81,870	25,234	0,044	-0,026
-80,855	-28,715	0,054	-0,022
-79,840	86,520	0,088	0,068
-78,826	800,000	0,047	0,146
-77,811	-115,947	-0,149	0,019
-76,797	-75,356	0,017	-0,004
-75,782	-16,069	0,042	0,019
-74,767	161,791	0,068	0,068
-73,753	32,846	0,086	-0,053
-72,738	122,396	0,024	-0,021
-71,724	288,756	-0,085	0,109
-70,709	167,819	0,053	0,053
-69,694	-54,793	-0,071	-0,023
-68,680	-200,000	-0,011	0,049
-67,665	-200,000	0,009	0,103
-66,651	721,246	0,033	-0,063
-65,636	-47,326	-0,112	-0,038
-64,622	800,000	0,030	0,079
-63,607	-200,000	0,016	0,084
-62,592	58,526	-0,017	0,012
-61,578	33,563	0,081	-0,049
-60,563	-200,000	0,006	0,019
-59,549	347,854	0,031	0,043
-58,534	33,440	-1,903	-1,165
-57,519	469,635	-1,327	-2,112
-56,505	-200,000	-0,273	-4,346
-55,490	463,828	0,859	1,361
-54,476	800,000	5,098	11,161
-53,461	-200,000	20,615	326,798
-52,446	800,000	753,890	2315,493
-51,432	551,675	1659,685	2824,842
-50,417	73,873	1663,993	1230,864
-49,403	19,051	1537,055	868,000
-48,388	13,016	1460,011	795,286
-47,373	18,862	1450,451	818,123
-46,359	15,983	1440,100	798,547
-45,344	11,321	1435,811	773,925
-44,330	11,248	1433,743	772,432
-43,315	11,183	1432,026	771,166
-42,300	11,263	1430,054	770,452
-41,286	11,252	1428,883	769,740
-40,271	11,221	1427,518	768,825
-39,257	11,219	1426,249	768,102
-38,242	11,215	1425,341	767,564
-37,227	11,206	1424,262	766,909
-36,213	11,288	1422,801	766,480
-35,198	11,275	1421,590	765,740
-34,184	11,312	1420,886	765,501
-33,169	11,247	1419,474	764,406
-32,154	11,301	1418,404	764,053
-31,140	11,295	1417,384	763,447
-30,125	11,331	1416,070	762,876
-29,111	11,308	1415,148	762,241
-28,096	11,265	1413,865	761,318
-27,082	11,222	1412,694	760,456
-26,067	11,207	1411,901	759,929
-25,052	11,246	1410,525	759,338
-24,038	11,235	1409,656	758,792
-23,023	11,235	1408,519	758,146
-22,009	11,199	1407,597	757,455
-20,994	11,234	1406,715	757,113
-19,979	11,206	1405,849	756,486
-18,965	11,208	1404,756	755,879
-17,950	11,190	1403,893	755,299
-16,936	11,179	1403,171	754,826
-15,921	11,131	1402,106	754,001
-14,906	11,153	1401,105	753,535
-13,892	11,142	1400,054	752,891
-12,877	11,106	1399,340	752,311
-11,863	11,108	1398,511	751,845
-10,848	11,104	1397,563	751,286
-9,833	11,083	1396,698	750,692
-8,819	11,015	1395,952	749,948
-7,804	11,060	1394,817	749,516
-6,790	11,034	1394,027	748,942
-5,775	11,055	1392,764	748,329
-4,760	11,083	1391,983	748,011
-3,746	11,028	1391,089	747,247
-2,731	11,036	1390,240	746,794
-1,717	11,057	1389,374	746,401
-0,702	11,011	1387,366	745,078
0,313	14,935	1302,193	717,356
1,327	31,141	694,395	419,475
2,342	48,323	120,506	79,460
3,356	-0,508	16,632	8,304
4,371	3,589	3,367	1,727
5,386	50,913	0,675	0,451
6,400	-200,000	0,139	0,468
7,415	-46,028	-0,270	-0,093
8,429	49,788	-0,274	-0,182
9,444	75,544	-0,273	-0,203
10,459	-122,130	-0,253	-0,029
11,473	35,807	-0,221	-0,137
12,488	117,436	-0,165	-0,143
13,502	-9,793	-0,322	-0,150
14,517	20,806	-0,252	-0,143
15,531	20,855	-0,352	-0,201
16,546	-124,520	-0,346	-0,037
17,561	74,480	-0,398	-0,295
18,575	-21,744	-0,232	-0,099
19,590	-6,686	-0,269	-0,129
20,604	-148,881	-0,174	0,010
21,619	113,884	-0,385	-0,330
22,634	64,731	-0,451	-0,320
23,648	42,449	-0,449	-0,287
24,663	57,150	-0,397	-0,272
25,677	11,572	-0,387	-0,209
26,692	186,018	-0,251	-0,263
27,707	-16,450	-0,519	-0,231
28,721	352,681	-0,310	-0,434
29,736	47,102	-0,404	-0,264
30,750	148,517	-0,259	-0,246
31,765	11,826	-0,391	-0,211
32,780	163,111	-0,309	-0,306
33,794	404,585	-0,228	-0,340
34,809	5,986	-0,381	-0,198
35,823	174,523	-0,312	-0,318
36,838	141,935	-0,409	-0,382
37,853	161,856	-0,350	-0,346
38,867	149,097	-0,348	-0,331
39,882	800,000	-0,188	-0,432
40,896	187,350	-0,274	-0,288
41,911	-5,583	-0,373	-0,179
42,926	268,150	-0,337	-0,416
43,940	275,202	-0,233	-0,291
44,955	21,963	-0,389	-0,222
45,969	88,230	-0,356	-0,278
46,984	102,223	-0,279	-0,229
47,999	-2,020	-0,383	-0,189
49,013	4,728	-0,298	-0,153
50,028	26,127	-0,341	-0,199
51,042	-43,685	-0,359	-0,127
52,057	74,401	-0,339	-0,250
53,071	82,573	-0,361	-0,275
54,086	5,098	-0,348	-0,180
55,101	693,977	-0,151	-0,280
56,115	25,707	-0,411	-0,240
57,130	147,242	-0,342	-0,323
58,144	39,145	-0,424	-0,266
59,159	21,765	-0,332	-0,190
60,174	103,003	-0,287	-0,236
61,188	148,722	-0,305	-0,290
62,203	59,764	-0,286	-0,198
63,217	-72,071	-0,398	-0,103
64,232	-1,821	-0,331	-0,163
65,247	-1,216	-0,402	-0,199
66,261	362,473	-0,267	-0,378
67,276	9,082	-0,413	-0,218
68,290	59,702	-0,364	-0,252
69,305	-14,920	-0,374	-0,168
70,320	667,692	-0,149	-0,271
71,334	-50,058	-0,266	-0,088
72,349	-114,641	-0,359	-0,048
73,363	-16,693	-0,424	-0,187
74,378	164,782	-0,208	-0,206
75,393	90,154	-0,430	-0,337
76,407	225,715	-0,205	-0,234
77,422	-23,400	-0,238	-0,100
78,436	78,890	-0,327	-0,245
79,451	21,408	-0,245	-0,139
80,466	145,386	-0,310	-0,291
81,480	150,771	-0,326	-0,311
82,495	5,368	-0,276	-0,142
83,509	203,548	-0,252	-0,273
84,524	-74,692	-0,363	-0,091
85,539	216,823	-0,186	-0,208
86,553	-43,129	-0,336	-0,119
87,568	2,177	-0,366	-0,185
88,582	236,786	-0,218	-0,254
89,597	-9,268	-0,306	-0,143
90,611	170,765	-0,139	-0,140
91,626	72,481	-0,222	-0,162
92,641	22,486	-0,276	-0,158
93,655	-31,843	-0,368	-0,144
94,670	181,286	-0,211	-0,217
95,684	511,799	-0,193	-0,316
96,699	-9,622	-0,348	-0,162
97,714	259,309	-0,207	-0,251
98,728	10,610	-0,281	-0,149
99,743	28,939	-0,202	-0,120
100,757	-94,841	-0,338	-0,064
101,772	-24,857	-0,403	-0,167
102,787	637,830	-0,206	-0,368
103,801	251,690	-0,188	-0,224
104,816	61,254	-0,242	-0,168
105,830	-94,889	-0,268	-0,050
106,845	-41,429	-0,095	-0,034
107,860	-76,952	-0,259	-0,063
108,874	-56,692	-0,356	-0,110
109,889	220,374	-0,266	-0,299
110,903	153,480	-0,261	-0,250
111,918	-32,158	-0,355	-0,138
112,933	166,015	-0,127	-0,125
113,947	152,946	-0,201	-0,192
114,962	118,934	-0,249	-0,215
115,976	-46,750	-0,355	-0,121
116,991	140,260	-0,288	-0,265
118,006	-83,350	-0,307	-0,068
119,020	525,582	-0,193	-0,318
120,035	86,080	-0,287	-0,221
121,049	525,659	-0,158	-0,261
122,064	-97,209	-0,241	-0,044
123,079	56,074	-0,214	-0,145
124,093	79,988	-0,178	-0,134
125,108	4,737	-0,324	-0,166
126,122	113,074	-0,209	-0,177
127,137	290,485	-0,177	-0,225
128,151	-93,543	-0,164	-0,031
129,166	198,879	-0,119	-0,127
130,181	85,733	-0,226	-0,173
131,195	-3,084	-0,330	-0,160
132,210	92,932	-0,156	-0,123
133,224	401,328	-0,288	-0,423
134,239	624,048	-0,174	-0,307
135,254	60,456	-0,177	-0,122
136,268	-12,648	-0,225	-0,102
137,283	-40,773	-0,210	-0,075
138,297	14,426	-0,192	-0,104
139,312	44,298	-0,249	-0,159
140,327	-81,925	-0,297	-0,067
141,341	-67,210	-0,241	-0,066
142,356	-153,472	-0,237	0,011
143,370	32,895	-0,255	-0,154
144,385	800,000	-0,088	-0,210
145,400	126,708	-0,189	-0,166
146,414	800,000	-0,149	-0,305
147,429	76,840	-0,277	-0,205
148,443	594,530	-0,158	-0,273
149,458	-15,646	-0,273	-0,121
150,473	45,263	-0,200	-0,128
151,487	-11,623	-0,267	-0,122
152,502	24,375	-0,296	-0,170
153,516	748,882	-0,133	-0,251
154,531	425,488	-0,129	-0,195
155,546	0,756	-0,265	-0,131
156,560	12,002	-0,214	-0,114
157,575	29,454	-0,327	-0,193
158,589	45,963	-0,223	-0,143
159,604	-5,942	-0,256	-0,121
160,619	247,611	-0,266	-0,313
161,633	-71,989	-0,311	-0,080
162,648	-25,530	-0,337	-0,138
163,662	-40,158	-0,267	-0,096
164,677	-112,338	-0,302	0,042
165,692	171,774	-0,172	-0,172
166,706	-1,506	-0,319	-0,156
167,721	162,275	-0,248	-0,242
168,735	141,312	-0,273	-0,252
169,750	-33,120	-0,209	-0,080
170,764	-87,524	-0,305	-0,064
171,779	218,213	-0,109	-0,121
172,794	72,180	-0,270	-0,196
173,808	42,275	-0,174	-0,109
174,823	-130,707	-0,223	-0,021
175,837	44,335	-0,230	-0,147
176,852	154,098	-0,206	-0,197
177,867	-15,709	-0,213	-0,094
178,881	-40,063	-0,133	-0,048
179,896	-100,001	-0,247	0,042
180,910	-71,248	-0,402	-0,104
181,925	32,389	-0,219	-0,131
182,940	238,608	-0,241	-0,279
183,954	228,296	-0,264	-0,300
184,969	130,259	-0,270	-0,240
185,983	-149,044	-0,252	0,014
186,998	36,786	-0,225	-0,138
188,013	42,180	-0,229	-0,144
189,027	191,952	-0,204	-0,214
190,042	52,425	-0,262	-0,173
191,056	-200,000	-0,046	-0,196
192,071	109,725	-0,266	-0,221
193,086	-1,515	-0,168	-0,082
194,100	-82,473	-0,258	-0,058
195,115	78,761	-0,231	-0,171
196,129	229,806	-0,196	-0,223
197,144	-102,267	-0,255	-0,042
198,159	-8,160	-0,254	-0,118
199,173	309,814	-0,085	-0,111
200,188	17,386	-0,292	-0,160
201,202	-93,795	-0,172	-0,033
202,217	8,177	-0,270	-0,140
203,232	213,740	-0,139	-0,153
204,246	800,000	-0,134	-0,325
205,261	-22,671	-0,202	-0,084
206,275	800,000	-0,087	-0,224
207,290	733,047	-0,063	-0,118
208,304	30,789	-0,234	-0,139
209,319	85,309	-0,211	-0,160
210,334	-8,764	-0,216	-0,100
211,348	202,294	-0,205	-0,219
212,363	204,875	-0,126	-0,135
213,377	373,912	-0,179	-0,253
214,392	-181,508	-0,188	0,002
215,407	93,953	-0,125	-0,098
216,421	330,484	-0,165	-0,221
217,436	103,758	-0,219	-0,178
218,450	128,414	-0,361	-0,318
219,465	374,048	-0,088	-0,124
220,480	450,149	-0,099	-0,152
221,494	28,896	-0,193	-0,113
222,509	454,770	-0,073	-0,113
223,523	-10,513	-0,249	-0,114
224,538	182,632	-0,187	-0,191
225,553	-8,641	-0,166	-0,077
226,567	305,301	-0,128	-0,165
227,582	-11,777	-0,175	-0,079
228,596	800,000	-0,058	-0,138
229,611	2,434	-0,111	-0,055
230,626	36,675	-0,171	-0,104
231,640	-122,557	-0,149	0,017
232,655	351,804	-0,153	-0,210
233,669	-36,750	-0,260	-0,096
234,684	120,920	-0,070	-0,060
235,699	386,917	-0,199	-0,285
236,713	165,036	-0,168	-0,164
237,728	-63,857	-0,281	-0,079
238,742	-5,288	-0,091	-0,043
239,757	40,059	-0,204	-0,126
240,772	260,436	-0,184	-0,220
241,786	306,287	-0,133	-0,172
242,801	306,537	-0,126	-0,162
243,815	-179,709	-0,136	0,002
244,830	166,573	-0,147	-0,144
245,844	150,348	-0,130	-0,122
246,859	-65,677	-0,212	-0,058
247,874	-171,233	-0,263	0,006
248,888	-12,747	-0,179	-0,080
249,903	26,577	-0,139	-0,080
250,917	54,760	-0,068	-0,045
251,932	-200,000	0,002	0,049
252,947	32,528	-0,116	0,069
253,961	-71,098	-0,204	-0,053
254,976	414,391	-0,105	-0,155
255,990	342,426	-0,162	-0,220
257,005	-26,173	-0,256	-0,103
258,020	110,778	-0,202	-0,168
259,034	249,041	-0,162	-0,190
260,049	86,005	-0,150	-0,114
261,063	195,479	-0,156	-0,164
262,078	163,021	-0,136	-0,132
263,093	602,658	-0,144	-0,248
264,107	538,751	-0,095	-0,156
265,122	25,586	-0,220	-0,126
266,136	-137,102	-0,223	-0,017
267,151	-43,907	-0,152	-0,052
268,166	177,847	-0,222	-0,223
269,180	404,179	-0,174	-0,254
270,195	-36,187	-0,230	-0,085
271,209	-18,748	-0,163	-0,070
272,224	194,990	-0,075	-0,079
273,239	-114,364	-0,175	0,023
274,253	303,409	-0,097	-0,125
275,268	800,000	-0,086	-0,239
276,282	146,946	-0,134	-0,124
277,297	-100,122	-0,247	0,042
278,312	663,522	-0,101	-0,180
279,326	35,348	-0,235	-0,142
280,341	42,245	-0,091	-0,057
281,355	-200,000	0,004	-0,227
282,370	9,407	-0,136	-0,070
283,384	335,193	-0,119	-0,159
284,399	72,154	-0,173	-0,124
285,414	123,782	-0,178	-0,154
286,428	549,197	-0,119	-0,197
287,443	-18,635	-0,249	-0,106
288,457	83,444	-0,178	-0,134
289,472	90,447	-0,245	-0,188
290,487	-190,846	-0,117	-0,001
291,501	54,829	-0,151	-0,100
292,516	10,711	-0,198	-0,104
293,530	-27,796	-0,068	-0,027
294,545	419,697	-0,049	-0,072
295,560	800,000	-0,040	-0,095
296,574	-6,034	-0,211	-0,099
297,589	-110,678	-0,177	-0,025
298,603	210,645	-0,128	-0,138
299,618	800,000	-0,161	-0,341
300,633	106,763	-0,163	-0,133
301,647	171,992	-0,158	-0,156
302,662	72,399	-0,041	-0,029
303,676	172,893	-0,037	-0,037
304,691	8,928	-0,115	0,059
305,706	71,455	-0,205	-0,146
306,720	-53,066	-0,172	-0,054
307,735	-200,000	0,016	-0,122
308,749	-79,786	-0,032	-0,007
309,764	206,399	-0,140	-0,149
310,779	349,601	-0,114	-0,155
311,793	89,922	-0,193	-0,148
312,808	-32,957	-0,208	-0,079
313,822	800,000	-0,057	-0,163
314,837	800,000	-0,079	-0,200
315,852	49,903	-0,055	0,035
316,866	-70,618	-0,214	-0,055
317,881	89,337	-0,104	-0,079
318,895	-200,000	-0,050	-0,165
319,910	300,333	-0,159	-0,201
320,925	481,791	-0,072	-0,113
321,939	-102,232	-0,200	0,033
322,954	-46,377	-0,156	-0,052
323,968	130,289	-0,073	-0,064
324,983	-174,952	-0,263	-0,005
325,997	792,970	-0,093	-0,175
327,012	573,183	-0,088	-0,147
328,027	-200,000	-0,009	-0,045
329,041	326,124	-0,108	-0,142
330,056	-66,428	-0,137	-0,037
331,070	-52,878	-0,089	-0,028
332,085	-200,000	-0,002	-0,103
333,100	-26,902	-0,130	-0,052
334,114	267,661	-0,135	-0,162
335,129	105,926	-0,084	-0,068
336,143	-94,124	-0,088	-0,016
337,158	800,000	-0,057	-0,124
338,173	114,700	-0,151	-0,126
339,187	-200,000	-0,060	-0,224
340,202	779,913	-0,082	-0,154
341,216	44,957	-0,133	-0,084
342,231	260,257	-0,074	-0,088
343,246	800,000	-0,131	-0,283
344,260	-87,201	-0,162	0,033
345,275	800,000	-0,047	-0,138
346,289	187,348	-0,070	-0,072
347,304	800,000	-0,121	-0,300
348,319	299,946	-0,131	-0,165
349,333	-79,576	-0,264	-0,061
350,348	299,566	-0,149	-0,188
351,362	39,173	-0,122	-0,074
352,377	792,136	-0,039	-0,075
353,392	-200,000	-0,029	0,101
354,406	45,851	-0,097	-0,061
355,421	207,146	1308,727	1397,993
356,435	159,342	1468,692	1398,481
