DTS Sentinel unit serial number:	SN410029Multiplexer serial number:	ORYXHardware model number:	OX2-SRSoftware version number:	ORYX F/W v4,00 Oryx Data Collector v3.7.2.0data status	okinstallation	B3 Nyhavnadifferential loss correction	single-endedforward channel	channel 1reverse channel	N/Adate	2023/12/01time	06:12:30forward acquisition time	300,00reverse acquisition time	0,00gamma	499,1914k internal	0,3213k external	0,3213temperature offset calibration	1,0000default loss term (dB/km)	0,3820temperature slope calibration	1,0000multiplexer offset coefficient	1,0000multiplexer slope coefficient	1,0000fibre end	0,00T internal ref (°C)	7,81T ext. ref 1 (°C)	-6,81T ext. ref 2 (°C)	-6,95length (m)	temperature (°C)	Stokes	anti-Stokes-744,400	376,519	-0,121	-0,180
-743,385	-200,000	-0,010	0,168
-742,371	800,000	-0,076	-0,228
-741,356	-200,000	0,001	0,231
-740,342	800,000	-0,043	-0,095
-739,327	-200,000	-0,021	0,168
-738,312	100,475	-0,263	-0,222
-737,298	150,224	-0,221	0,218
-736,283	193,474	-0,139	-0,153
-735,269	800,000	0,126	0,290
-734,254	-10,649	-0,276	-0,132
-733,239	-182,026	-0,145	0,002
-732,225	800,000	-0,075	-0,225
-731,210	111,160	0,094	0,082
-730,196	91,785	0,026	-0,022
-729,181	-200,000	0,003	-0,027
-728,167	-21,424	-0,102	-0,045
-727,152	-200,000	-0,009	-0,085
-726,137	-22,943	-0,063	-0,028
-725,123	163,297	-0,056	0,057
-724,108	132,122	-0,111	-0,104
-723,094	800,000	-0,037	-0,086
-722,079	10,946	0,058	-0,032
-721,064	177,226	0,075	-0,079
-720,050	-117,204	-0,045	0,006
-719,035	800,000	-0,025	0,066
-718,021	-84,707	-0,075	-0,017
-717,006	-200,000	-0,000	0,035
-715,991	800,000	-0,044	-0,096
-714,977	49,636	-0,056	-0,038
-713,962	329,776	-0,030	0,042
-712,948	76,913	-0,030	-0,023
-711,933	800,000	-0,028	-0,083
-710,918	58,918	0,120	-0,085
-709,904	-111,464	-0,047	0,007
-708,889	800,000	-0,069	-0,157
-707,875	425,080	-0,041	-0,064
-706,860	-84,442	-0,062	0,014
-705,845	-200,000	-0,005	0,148
-704,831	158,672	0,080	0,081
-703,816	-145,872	-0,156	0,010
-702,802	-76,564	0,086	0,022
-701,787	-200,000	0,027	-0,104
-700,772	641,576	0,023	0,043
-699,758	-200,000	0,034	0,113
-698,743	48,723	0,097	-0,066
-697,729	448,191	0,065	0,104
-696,714	60,345	0,103	-0,074
-695,699	16,336	-0,115	0,066
-694,685	53,361	-0,153	-0,106
-693,670	800,000	0,091	-0,205
-692,656	-200,000	0,014	-0,129
-691,641	-200,000	0,000	0,087
-690,627	-130,072	0,064	0,006
-689,612	-125,606	0,098	0,011
-688,597	-8,161	-0,079	0,038
-687,583	441,196	-0,072	-0,115
-686,568	667,697	0,012	0,023
-685,554	-134,086	0,067	0,006
-684,539	800,000	-0,007	-0,018
-683,524	140,108	-0,055	0,052
-682,510	800,000	-0,009	0,026
-681,495	-30,237	0,085	0,035
-680,481	-21,484	0,102	-0,045
-679,466	-200,000	0,008	-0,077
-678,451	-157,432	0,033	0,001
-677,437	187,473	-0,045	0,049
-676,422	718,157	-0,028	0,054
-675,408	800,000	0,011	0,024
-674,393	248,653	0,117	-0,143
-673,378	180,357	-0,075	0,080
-672,364	27,688	-0,150	0,091
-671,349	728,991	-0,023	-0,045
-670,335	800,000	-0,032	0,075
-669,320	-200,000	0,040	0,165
-668,305	114,747	0,044	-0,039
-667,291	-200,000	0,028	-0,140
-666,276	800,000	-0,064	-0,172
-665,262	158,782	0,089	-0,090
-664,247	68,266	0,107	-0,079
-663,232	-95,585	0,058	0,011
-662,218	231,124	-0,130	-0,154
-661,203	-200,000	0,011	0,061
-660,189	-200,000	0,040	0,129
-659,174	300,844	-0,040	-0,053
-658,159	-47,766	-0,069	-0,024
-657,145	800,000	-0,018	-0,044
-656,130	316,911	0,021	-0,028
-655,116	-96,811	0,079	0,015
-654,101	180,959	-0,089	-0,094
-653,086	319,984	-0,021	0,029
-652,072	-75,672	-0,104	-0,026
-651,057	481,159	-0,091	-0,150
-650,043	-200,000	-0,020	-0,088
-649,028	-200,000	0,017	-0,094
-648,014	1,870	-0,057	-0,030
-646,999	108,590	0,082	0,071
-645,984	-55,033	0,210	0,068
-644,970	-111,777	-0,115	-0,017
-643,955	259,459	-0,120	-0,150
-642,941	-131,550	-0,082	0,008
-641,926	-200,000	0,011	-0,065
-640,911	-48,282	-0,096	-0,033
-639,897	-165,641	0,119	0,004
-638,882	356,390	-0,012	-0,018
-637,868	479,673	0,004	-0,007
-636,853	-26,650	0,056	-0,023
-635,838	-27,298	-0,186	-0,078
-634,824	666,484	0,007	-0,014
-633,809	-200,000	0,002	0,045
-632,795	-23,302	0,092	0,040
-631,780	104,396	-0,076	0,065
-630,765	-128,159	0,029	-0,003
-629,751	-37,068	-0,060	0,023
-628,736	800,000	-0,066	-0,193
-627,722	-200,000	0,000	-0,174
-626,707	-200,000	-0,000	0,084
-625,692	105,651	-0,038	-0,033
-624,678	-75,387	-0,050	-0,013
-623,663	-42,330	0,013	0,005
-622,649	325,645	-0,153	-0,211
-621,634	11,282	-0,059	0,033
-620,619	-109,601	0,057	-0,009
-619,605	135,242	-0,039	0,036
-618,590	74,928	0,080	0,061
-617,576	184,609	-0,029	-0,031
-616,561	709,929	-0,065	0,124
-615,546	94,669	-0,088	-0,072
-614,532	-164,720	0,028	0,001
-613,517	586,530	-0,052	-0,093
-612,503	-115,971	-0,195	-0,026
-611,488	-24,947	0,131	0,056
-610,474	-98,858	0,102	0,019
-609,459	119,131	-0,044	-0,039
-608,444	800,000	0,023	-0,052
-607,430	-88,876	-0,159	-0,034
-606,415	-200,000	0,054	-0,186
-605,401	-48,190	0,033	-0,011
-604,386	173,528	-0,039	-0,041
-603,371	-4,035	0,026	0,013
-602,357	-65,259	0,086	0,025
-601,342	-200,000	0,030	-0,124
-600,328	-200,000	-0,008	-0,103
-599,313	-200,000	-0,003	-0,014
-598,298	27,300	0,085	-0,051
-597,284	-84,748	-0,099	0,022
-596,269	-200,000	0,026	0,097
-595,255	-170,457	-0,158	-0,004
-594,240	-200,000	-0,017	-0,069
-593,225	460,425	0,024	-0,039
-592,211	-156,213	0,009	-0,000
-591,196	113,161	-0,019	0,017
-590,182	-200,000	-0,002	0,016
-589,167	-115,364	0,164	0,022
-588,152	-44,176	-0,091	0,033
-587,138	16,512	-0,068	0,039
-586,123	479,348	-0,046	-0,075
-585,109	-129,636	0,039	-0,004
-584,094	127,534	-0,055	0,050
-583,079	-34,691	0,070	-0,027
-582,065	800,000	0,058	0,148
-581,050	102,707	0,098	0,082
-580,036	-200,000	-0,007	0,086
-579,021	-93,192	-0,091	0,018
-578,006	360,142	0,027	0,039
-576,992	-200,000	0,020	-0,107
-575,977	422,435	-0,021	0,033
-574,963	-200,000	-0,001	-0,008
-573,948	-18,685	-0,117	0,052
-572,934	800,000	-0,063	0,149
-571,919	-200,000	0,022	0,070
-570,904	-200,000	0,006	0,175
-569,890	-200,000	-0,009	-0,039
-568,875	-136,025	-0,087	0,007
-567,861	-0,998	0,176	0,089
-566,846	-4,384	-0,039	-0,019
-565,831	-39,037	-0,028	0,010
-564,817	-200,000	-0,015	-0,166
-563,802	800,000	-0,064	-0,188
-562,788	-200,000	0,001	-0,052
-561,773	-78,942	0,065	-0,016
-560,758	-200,000	0,026	0,113
-559,744	133,545	-0,079	0,073
-558,729	800,000	0,050	-0,113
-557,715	-200,000	-0,005	-0,023
-556,700	146,091	-0,138	-0,133
-555,685	-200,000	-0,023	-0,147
-554,671	-98,071	-0,035	-0,006
-553,656	-38,730	0,050	0,019
-552,642	-200,000	0,011	0,053
-551,627	-15,282	-0,033	-0,015
-550,612	-131,831	-0,151	0,014
-549,598	-200,000	-0,004	-0,022
-548,583	95,481	-0,090	-0,074
-547,569	292,993	-0,088	-0,115
-546,554	-200,000	0,002	-0,030
-545,539	-152,265	-0,164	0,008
-544,525	-65,618	0,200	0,057
-543,510	-37,321	-0,164	0,063
-542,496	38,333	-0,087	-0,055
-541,481	-200,000	-0,019	-0,074
-540,466	79,861	0,050	-0,038
-539,452	240,442	-0,098	0,117
-538,437	-200,000	0,004	-0,029
-537,423	119,218	-0,051	-0,045
-536,408	51,319	-0,137	-0,093
-535,393	79,514	-0,155	-0,119
-534,379	107,312	-0,042	-0,036
-533,364	-132,252	-0,131	-0,012
-532,350	160,674	-0,046	0,046
-531,335	253,708	0,104	0,128
-530,321	-22,666	0,098	0,043
-529,306	-200,000	-0,029	0,132
-528,291	-25,558	0,070	-0,030
-527,277	66,105	0,050	-0,036
-526,262	-34,257	0,096	-0,038
-525,248	306,315	0,047	-0,064
-524,233	39,662	0,090	0,058
-523,218	650,136	0,053	0,098
-522,204	-200,000	-0,036	0,124
-521,189	169,258	0,051	-0,053
-520,175	-79,792	-0,114	-0,027
-519,160	-200,000	0,029	0,140
-518,145	184,856	-0,129	-0,137
-517,131	-200,000	0,002	-0,038
-516,116	34,219	0,089	0,056
-515,102	800,000	-0,018	0,039
-514,087	-9,599	0,085	0,040
-513,072	-60,882	0,096	-0,029
-512,058	800,000	0,050	-0,129
-511,043	117,494	0,095	-0,084
-510,029	60,051	0,108	-0,077
-509,014	201,926	-0,024	-0,026
-507,999	141,436	-0,018	-0,017
-506,985	-200,000	0,012	0,078
-505,970	-60,496	0,156	-0,047
-504,956	129,207	-0,044	-0,041
-503,941	800,000	0,036	-0,077
-502,926	113,291	0,105	0,092
-501,912	-140,729	0,115	0,008
-500,897	-200,000	-0,007	-0,065
-499,883	-7,163	-0,123	-0,060
-498,868	47,975	-0,043	0,029
-497,853	216,562	0,003	-0,004
-496,839	-196,066	0,097	0,000
-495,824	-200,000	-0,028	0,115
-494,810	-74,642	0,074	-0,019
-493,795	228,909	0,061	-0,071
-492,781	800,000	0,037	-0,104
-491,766	177,783	-0,062	-0,065
-490,751	-8,226	-0,148	0,071
-489,737	640,301	0,077	0,141
-488,722	-200,000	0,028	0,113
-487,708	726,462	0,087	0,168
-486,693	-185,220	0,036	-0,000
-485,678	91,980	0,134	-0,108
-484,664	-200,000	-0,026	0,096
-483,649	-127,385	0,145	0,015
-482,635	416,871	-0,049	-0,075
-481,620	-200,000	0,001	0,054
-480,605	283,048	-0,064	-0,082
-479,591	-200,000	0,001	-0,024
-478,576	-160,859	0,123	0,005
-477,562	-86,110	-0,077	0,017
-476,547	17,797	-0,103	0,058
-475,532	-97,147	-0,084	-0,016
-474,518	196,955	-0,088	0,097
-473,503	443,320	0,043	0,068
-472,489	800,000	-0,019	0,049
-471,474	326,139	-0,100	-0,137
-470,459	-200,000	-0,008	0,044
-469,445	64,735	-0,121	-0,088
-468,430	113,773	0,109	-0,095
-467,416	-110,448	0,183	0,027
-466,401	322,742	0,105	0,144
-465,386	25,700	-0,131	0,078
-464,372	624,887	-0,028	-0,050
-463,357	-142,307	-0,288	-0,020
-462,343	-200,000	0,047	-0,189
-461,328	168,709	0,021	-0,021
-460,313	64,854	-0,094	0,068
-459,299	-102,841	0,219	0,037
-458,284	208,800	0,043	-0,049
-457,270	-124,438	0,137	0,015
-456,255	-34,716	-0,115	-0,045
-455,241	800,000	0,041	0,112
-454,226	-53,848	-0,139	-0,045
-453,211	519,546	0,073	0,123
-452,197	606,784	-0,060	-0,108
-451,182	800,000	-0,095	0,194
-450,168	7,796	0,032	0,017
-449,153	-44,345	-0,041	-0,015
-448,138	600,780	-0,055	0,099
-447,124	-188,910	0,024	0,000
-446,109	800,000	0,020	0,045
-445,095	-200,000	-0,008	0,064
-444,080	-200,000	0,000	0,113
-443,065	160,906	0,026	-0,026
-442,051	800,000	-0,050	-0,117
-441,036	-79,515	0,093	0,022
-440,022	91,392	-0,009	-0,007
-439,007	-81,844	0,094	-0,022
-437,992	100,890	-0,034	0,028
-436,978	-200,000	-0,022	-0,095
-435,963	800,000	0,073	0,148
-434,949	800,000	-0,011	-0,023
-433,934	423,960	-0,067	-0,104
-432,919	95,075	-0,048	0,039
-431,905	330,174	-0,075	-0,103
-430,890	20,650	-0,112	-0,065
-429,876	733,626	0,044	0,085
-428,861	365,463	-0,045	-0,066
-427,846	-200,000	0,021	0,078
-426,832	191,183	0,038	-0,041
-425,817	-76,659	-0,070	-0,018
-424,803	-200,000	0,006	-0,029
-423,788	548,236	0,009	-0,015
-422,773	-200,000	-0,026	0,099
-421,759	-36,620	0,060	0,023
-420,744	-15,761	0,097	-0,044
-419,730	275,747	-0,044	0,056
-418,715	112,498	-0,136	-0,118
-417,701	-200,000	-0,021	-0,098
-416,686	-92,471	0,076	-0,015
-415,671	-200,000	0,019	0,119
-414,657	-200,000	0,006	0,032
-413,642	-143,242	-0,086	-0,006
-412,628	115,499	0,034	-0,030
-411,613	418,692	0,066	-0,102
-410,598	-2,844	0,148	0,074
-409,584	-200,000	0,117	0,000
-408,569	-36,579	0,039	0,015
-407,555	-200,000	-0,002	-0,044
-406,540	-200,000	-0,008	-0,029
-405,525	800,000	-0,044	-0,118
-404,511	-200,000	0,012	0,109
-403,496	-168,337	-0,130	0,003
-402,482	-32,282	-0,073	0,029
-401,467	800,000	0,008	-0,024
-400,452	38,436	0,108	0,069
-399,438	1,899	-0,055	-0,028
-398,423	-200,000	0,041	0,220
-397,409	-200,000	-0,007	0,069
-396,394	-200,000	-0,008	-0,100
-395,379	800,000	0,049	0,100
-394,365	135,837	0,113	-0,105
-393,350	140,819	0,042	-0,040
-392,336	-63,091	0,090	-0,026
-391,321	-1,525	0,015	0,008
-390,306	285,130	-0,058	0,075
-389,292	795,339	-0,020	-0,039
-388,277	-200,000	0,022	-0,146
-387,263	514,342	0,027	0,046
-386,248	10,333	0,075	0,041
-385,233	643,845	-0,038	0,070
-384,219	252,890	0,110	0,134
-383,204	-4,639	0,130	0,064
-382,190	133,576	-0,156	-0,144
-381,175	141,550	-0,102	0,096
-380,160	129,500	0,104	0,095
-379,146	163,867	0,058	-0,058
-378,131	65,880	-0,039	-0,028
-377,117	-36,061	0,074	0,028
-376,102	90,922	0,142	0,113
-375,088	7,742	-0,084	0,045
-374,073	-200,000	-0,003	0,052
-373,058	277,715	0,061	-0,078
-372,044	158,526	0,081	0,080
-371,029	-67,198	-0,042	-0,012
-370,015	800,000	0,026	0,056
-369,000	693,206	-0,056	0,105
-367,985	-200,000	-0,004	-0,130
-366,971	6,942	0,080	-0,042
-365,956	-200,000	-0,048	0,192
-364,942	-86,921	0,147	0,032
-363,927	452,977	0,033	-0,053
-362,912	-135,535	-0,166	-0,014
-361,898	222,876	0,040	-0,046
-360,883	263,691	-0,016	0,020
-359,869	-81,579	-0,042	-0,010
-358,854	800,000	0,012	0,032
-357,839	200,726	-0,033	0,037
-356,825	-75,786	0,188	0,047
-355,810	112,903	0,058	-0,050
-354,796	-197,961	-0,089	0,000
-353,781	800,000	-0,006	0,019
-352,766	-5,567	-0,040	0,020
-351,752	793,464	-0,034	0,067
-350,737	-17,864	0,052	-0,023
-349,723	-200,000	0,005	0,096
-348,708	-12,443	0,082	0,038
-347,693	-13,298	0,200	0,092
-346,679	-200,000	-0,013	-0,116
-345,664	-200,000	-0,004	0,091
-344,650	-33,930	-0,051	0,020
-343,635	800,000	-0,044	0,112
-342,620	464,838	0,061	0,098
-341,606	800,000	0,026	0,053
-340,591	-121,063	-0,170	-0,020
-339,577	800,000	-0,021	-0,065
-338,562	-200,000	0,030	0,139
-337,548	208,567	0,053	-0,059
-336,533	-103,795	0,084	0,014
-335,518	-200,000	0,007	-0,063
-334,504	-88,304	0,024	-0,005
-333,489	158,312	0,140	0,138
-332,475	8,113	-0,080	0,043
-331,460	45,923	-0,120	-0,079
-330,445	-200,000	-0,028	-0,098
-329,431	-35,235	0,055	0,021
-328,416	-140,756	-0,011	0,001
-327,402	439,163	-0,062	0,097
-326,387	150,882	0,071	0,069
-325,372	-32,675	-0,095	-0,038
-324,358	209,060	0,096	0,107
-323,343	-200,000	0,004	0,043
-322,329	-200,000	0,020	-0,089
-321,314	-200,000	0,016	0,120
-320,299	-65,194	-0,125	0,036
-319,285	-4,236	0,085	0,042
-318,270	800,000	-0,032	0,065
-317,256	-200,000	0,002	-0,109
-316,241	-7,264	0,081	-0,039
-315,226	24,883	-0,059	-0,035
-314,212	-38,949	-0,046	-0,017
-313,197	-200,000	-0,002	0,098
-312,183	-100,246	0,068	-0,012
-311,168	-200,000	0,005	-0,045
-310,153	-200,000	-0,019	-0,119
-309,139	-35,940	-0,031	0,012
-308,124	800,000	0,015	-0,033
-307,110	-200,000	0,017	0,154
-306,095	-8,288	0,111	-0,053
-305,080	277,561	0,051	0,064
-304,066	143,124	-0,092	0,088
-303,051	269,784	-0,018	-0,022
-302,037	392,331	0,030	-0,044
-301,022	168,558	-0,067	0,068
-300,008	-179,441	0,045	0,001
-298,993	188,355	0,085	0,091
-297,978	600,535	0,015	0,027
-296,964	800,000	-0,038	0,116
-295,949	-19,380	-0,040	0,018
-294,935	271,017	-0,196	-0,246
-293,920	-61,415	0,014	-0,004
-292,905	-45,488	-0,085	0,030
-291,891	172,166	0,124	0,127
-290,876	13,597	0,067	-0,037
-289,862	-200,000	-0,033	0,140
-288,847	800,000	0,024	-0,067
-287,832	138,235	-0,092	-0,086
-286,818	416,104	-0,037	-0,056
-285,803	-108,749	0,143	-0,022
-284,789	-141,975	0,022	-0,002
-283,774	48,719	-0,099	-0,066
-282,759	-200,000	0,007	-0,099
-281,745	-200,000	0,003	-0,193
-280,730	161,560	-0,071	0,070
-279,716	488,013	0,029	-0,047
-278,701	193,793	-0,073	-0,078
-277,686	-200,000	0,025	-0,093
-276,672	161,773	-0,037	-0,037
-275,657	-200,000	0,028	-0,148
-274,643	-78,488	-0,048	-0,012
-273,628	800,000	0,057	-0,115
-272,613	-200,000	0,044	-0,193
-271,599	800,000	0,003	-0,009
-270,584	-200,000	-0,022	0,152
-269,570	-58,424	0,118	0,036
-268,555	-57,378	0,068	0,021
-267,540	179,220	0,092	-0,096
-266,526	329,803	-0,114	-0,156
-265,511	800,000	-0,035	0,091
-264,497	213,797	0,090	0,101
-263,482	9,485	-0,165	0,089
-262,467	31,576	0,121	0,074
-261,453	800,000	-0,018	0,035
-260,438	701,383	0,028	-0,052
-259,424	800,000	-0,029	-0,081
-258,409	15,209	-0,110	-0,061
-257,395	308,778	0,058	0,078
-256,380	-57,621	0,097	-0,030
-255,365	303,479	-0,172	0,227
-254,351	800,000	-0,054	0,115
-253,336	800,000	0,033	-0,077
-252,322	-200,000	-0,023	-0,074
-251,307	-5,064	0,093	0,045
-250,292	290,411	-0,043	0,056
-249,278	-200,000	0,004	0,086
-248,263	-161,706	-0,094	-0,003
-247,249	66,269	-0,076	-0,055
-246,234	-200,000	0,012	-0,129
-245,219	411,886	-0,045	-0,068
-244,205	162,561	-0,003	-0,003
-243,190	-109,037	0,019	0,003
-242,176	-134,332	0,138	0,012
-241,161	-200,000	-0,008	0,087
-240,146	765,989	-0,050	0,096
-239,132	83,441	0,111	0,086
-238,117	301,312	-0,021	-0,027
-237,103	-16,862	-0,047	0,021
-236,088	-200,000	0,023	-0,102
-235,073	32,338	0,057	-0,035
-234,059	-96,958	0,166	0,031
-233,044	142,430	0,057	0,054
-232,030	-200,000	-0,010	-0,069
-231,015	136,252	0,087	-0,081
-230,000	800,000	-0,063	-0,129
-228,986	800,000	-0,020	-0,044
-227,971	800,000	-0,012	-0,033
-226,957	-200,000	0,011	0,159
-225,942	492,349	-0,039	0,064
-224,927	571,075	-0,033	0,057
-223,913	10,526	0,132	-0,071
-222,898	295,426	-0,062	-0,081
-221,884	-76,660	-0,154	0,038
-220,869	649,713	0,048	0,088
-219,855	-200,000	-0,018	0,065
-218,840	-29,301	0,092	-0,037
-217,825	-19,901	-0,103	0,045
-216,811	158,665	-0,129	-0,127
-215,796	81,758	-0,100	-0,077
-214,782	-200,000	-0,024	-0,105
-213,767	134,811	-0,069	0,064
-212,752	-53,939	0,028	-0,009
-211,738	278,685	0,081	0,103
-210,723	-200,000	0,025	-0,078
-209,709	-31,873	-0,158	0,063
-208,694	-200,000	-0,034	-0,136
-207,679	-95,777	-0,106	0,020
-206,665	-89,211	0,022	0,005
-205,650	18,820	0,084	-0,048
-204,636	-51,453	0,097	0,032
-203,621	302,060	0,067	0,088
-202,606	800,000	0,024	0,056
-201,592	800,000	-0,065	-0,139
-200,577	-95,833	-0,017	-0,003
-199,563	88,827	-0,090	0,071
-198,548	502,528	-0,036	0,059
-197,533	82,703	0,152	0,117
-196,519	454,961	-0,043	0,067
-195,504	81,970	0,082	0,063
-194,490	-200,000	0,000	0,005
-193,475	92,361	0,112	-0,089
-192,460	-90,559	0,119	0,024
-191,446	800,000	0,016	-0,049
-190,431	-200,000	-0,011	-0,120
-189,417	384,401	-0,100	-0,147
-188,402	-200,000	0,019	0,120
-187,387	800,000	0,053	-0,156
-186,373	227,357	-0,032	-0,037
-185,358	351,236	-0,031	0,043
-184,344	-171,890	0,050	0,001
-183,329	-62,518	-0,050	-0,015
-182,315	-29,240	-0,056	0,023
-181,300	204,816	0,031	-0,034
-180,285	42,916	-0,031	-0,020
-179,271	299,570	-0,086	-0,113
-178,256	22,075	0,068	0,039
-177,242	-31,521	-0,035	-0,014
-176,227	27,693	0,119	0,071
-175,212	800,000	0,054	0,108
-174,198	296,216	0,065	-0,085
-173,183	205,948	-0,024	-0,026
-172,169	307,299	-0,025	-0,033
-171,154	-75,172	0,072	-0,018
-170,139	-33,319	0,078	-0,031
-169,125	137,081	-0,131	0,121
-168,110	10,399	-0,030	0,016
-167,096	16,649	0,118	0,066
-166,081	398,758	-0,024	-0,036
-165,066	-143,837	-0,098	0,006
-164,052	-105,054	0,066	-0,011
-163,037	117,642	-0,103	0,090
-162,023	-141,382	0,115	0,008
-161,008	590,209	-0,029	0,050
-159,993	-56,918	0,138	-0,043
-158,979	159,659	-0,060	0,059
-157,964	76,642	-0,056	0,042
-156,950	152,439	0,136	-0,131
-155,935	-64,469	-0,089	0,025
-154,920	49,765	-0,072	0,048
-153,906	211,802	-0,014	0,016
-152,891	360,899	0,051	-0,073
-151,877	697,540	-0,032	0,061
-150,862	172,985	-0,034	0,035
-149,847	-183,871	-0,070	-0,001
-148,833	713,663	0,050	0,095
-147,818	203,720	0,049	-0,054
-146,804	-200,000	-0,003	0,047
-145,789	266,770	-0,045	-0,056
-144,775	-200,000	0,002	-0,099
-143,760	58,488	0,065	-0,045
-142,745	187,534	-0,060	0,063
-141,731	12,320	-0,141	-0,077
-140,716	800,000	-0,031	0,082
-139,702	140,945	-0,071	-0,067
-138,687	-152,748	-0,142	0,007
-137,672	-200,000	0,052	0,250
-136,658	273,038	-0,058	0,073
-135,643	800,000	0,072	0,208
-134,629	-200,000	0,007	-0,045
-133,614	189,285	0,076	0,081
-132,599	-89,404	0,156	-0,032
-131,585	-200,000	-0,008	-0,161
-130,570	219,988	0,043	-0,049
-129,556	800,000	-0,037	-0,082
-128,541	331,118	-0,106	-0,145
-127,526	-200,000	-0,007	0,110
-126,512	-34,707	-0,076	0,029
-125,497	9,519	0,113	0,061
-124,483	-200,000	-0,006	0,112
-123,468	-123,980	-0,035	0,004
-122,453	267,610	0,016	-0,020
-121,439	-112,238	0,003	0,000
-120,424	-95,187	-0,056	0,011
-119,410	97,683	0,085	0,069
-118,395	0,377	0,136	-0,069
-117,380	189,715	0,138	0,147
-116,366	129,270	0,052	0,047
-115,351	-200,000	0,022	-0,089
-114,337	75,991	-0,087	-0,065
-113,322	555,492	-0,022	0,038
-112,307	144,425	-0,140	0,133
-111,293	111,384	-0,020	0,017
-110,278	323,150	-0,070	0,095
-109,264	-173,689	-0,118	-0,002
-108,249	-62,414	0,038	0,011
-107,234	-136,901	-0,079	0,006
-106,220	592,526	0,032	-0,056
-105,205	-81,927	0,189	-0,043
-104,191	800,000	-0,029	0,090
-103,176	-3,750	0,156	0,076
-102,162	-1,606	-0,044	-0,022
-101,147	-75,003	-0,080	-0,020
-100,132	112,742	-0,153	-0,131
-99,118	-200,000	0,003	0,157
-98,103	-200,000	-0,010	-0,101
-97,089	183,470	-0,063	0,066
-96,074	-200,000	0,036	0,124
-95,059	-114,038	0,122	0,017
-94,045	1,593	-0,036	0,018
-93,030	69,361	-0,101	-0,073
-92,016	534,760	-0,046	0,078
-91,001	44,315	0,034	0,022
-89,986	292,104	-0,099	-0,127
-88,972	800,000	-0,014	-0,039
-87,957	-90,818	-0,088	0,018
-86,943	122,003	0,106	-0,094
-85,928	-200,000	-0,041	-0,141
-84,913	-200,000	0,005	-0,061
-83,899	-200,000	0,016	-0,082
-82,884	800,000	-0,036	-0,087
-81,870	333,743	0,068	0,093
-80,855	-200,000	-0,016	-0,100
-79,840	-200,000	0,011	-0,072
-78,826	-123,190	0,028	-0,003
-77,811	-109,244	-0,073	-0,011
-76,797	482,705	0,023	-0,037
-75,782	-48,808	0,082	0,028
-74,767	800,000	-0,032	0,069
-73,753	612,333	0,029	0,052
-72,738	-28,540	-0,089	0,036
-71,724	240,820	-0,048	0,056
-70,709	-200,000	-0,002	-0,079
-69,694	7,557	0,059	0,031
-68,680	47,138	0,099	0,065
-67,665	292,568	-0,053	-0,068
-66,651	708,262	0,073	0,137
-65,636	42,887	-0,085	-0,054
-64,622	-76,180	0,061	0,015
-63,607	-200,000	0,002	-0,017
-62,592	431,985	-0,072	-0,111
-61,578	-24,973	0,178	0,074
-60,563	-9,864	0,053	-0,025
-59,549	-176,938	0,037	0,001
-58,534	40,207	-2,175	-1,378
-57,519	518,300	-1,052	-1,745
-56,505	-200,000	-0,301	-4,536
-55,490	800,000	0,885	1,749
-54,476	800,000	5,187	11,525
-53,461	-200,000	22,509	347,435
-52,446	800,000	757,366	2285,011
-51,432	529,998	1641,745	2745,853
-50,417	67,363	1639,981	1178,829
-49,403	15,438	1517,984	838,119
-48,388	9,641	1444,416	769,687
-47,373	19,274	1437,422	811,788
-46,359	13,223	1425,517	776,516
-45,344	7,981	1421,620	749,596
-44,330	7,899	1419,838	748,238
-43,315	7,869	1417,911	747,052
-42,300	7,877	1416,235	746,179
-41,286	7,951	1414,638	745,655
-40,271	7,882	1413,727	744,823
-39,257	7,932	1412,239	744,241
-38,242	7,972	1411,127	743,814
-37,227	7,884	1410,337	742,956
-36,213	7,917	1408,958	742,353
-35,198	7,918	1407,647	741,638
-34,184	7,942	1406,930	741,343
-33,169	7,820	1405,678	740,085
-32,154	7,915	1404,424	739,839
-31,140	7,907	1403,308	739,184
-30,125	7,960	1402,128	738,783
-29,111	7,917	1400,897	737,902
-28,096	7,848	1399,999	737,077
-27,082	7,863	1398,605	736,383
-26,067	7,803	1397,681	735,591
-25,052	7,833	1396,630	735,147
-24,038	7,865	1395,444	734,641
-23,023	7,820	1394,633	733,979
-22,009	7,782	1393,824	733,346
-20,994	7,847	1392,526	732,937
-19,979	7,790	1391,824	732,274
-18,965	7,796	1390,956	731,816
-17,950	7,749	1389,888	731,008
-16,936	7,762	1389,122	730,633
-15,921	7,725	1388,024	729,858
-14,906	7,739	1386,909	729,306
-13,892	7,788	1386,016	729,035
-12,877	7,750	1385,232	728,420
-11,863	7,708	1384,708	727,920
-10,848	7,719	1383,521	727,316
-9,833	7,702	1382,602	726,728
-8,819	7,672	1381,801	726,141
-7,804	7,654	1380,968	725,589
-6,790	7,630	1380,209	725,054
-5,775	7,611	1378,937	724,270
-4,760	7,665	1377,983	723,988
-3,746	7,708	1376,809	723,540
-2,731	7,661	1375,994	722,866
-1,717	7,659	1375,220	722,421
-0,702	7,695	1373,371	721,584
0,313	11,586	1283,542	692,015
1,327	27,090	675,849	398,872
2,342	42,196	115,944	74,094
3,356	-0,741	16,598	8,264
4,371	2,724	3,901	1,987
5,386	-20,572	1,504	0,648
6,400	800,000	0,341	0,795
7,415	-105,674	-0,148	0,023
8,429	-3,150	-0,348	-0,171
9,444	26,326	-0,263	-0,155
10,459	-147,299	-0,250	-0,015
11,473	-66,818	-0,308	-0,085
12,488	127,280	-0,183	-0,163
13,502	-140,828	-0,375	-0,027
14,517	-43,796	-0,357	-0,126
15,531	-65,096	-0,419	-0,118
16,546	-1,126	-0,334	-0,166
17,561	117,123	-0,367	-0,317
18,575	-27,279	-0,235	-0,096
19,590	215,635	-0,187	-0,209
20,604	-129,425	-0,263	-0,025
21,619	67,710	-0,387	-0,278
22,634	57,222	-0,409	-0,280
23,648	228,819	-0,351	-0,403
24,663	70,478	-0,404	-0,294
25,677	-59,617	-0,488	-0,146
26,692	154,627	-0,280	-0,270
27,707	58,071	-0,209	-0,144
28,721	58,997	-0,360	-0,249
29,736	115,082	-0,402	-0,345
30,750	98,444	-0,363	-0,294
31,765	301,392	-0,347	-0,451
32,780	134,659	-0,336	-0,307
33,794	164,047	-0,205	-0,203
34,809	68,736	-0,381	-0,274
35,823	136,065	-0,278	-0,255
36,838	788,313	-0,242	-0,470
37,853	145,911	-0,417	-0,393
38,867	400,847	-0,225	-0,333
39,882	172,092	-0,236	-0,239
40,896	98,842	-0,326	-0,265
41,911	219,192	-0,218	-0,245
42,926	242,697	-0,304	-0,358
43,940	84,917	-0,357	-0,275
44,955	4,814	-0,468	-0,241
45,969	71,251	-0,340	-0,247
46,984	-1,172	-0,366	-0,181
47,999	37,099	-0,305	-0,189
49,013	-153,372	-0,366	-0,018
50,028	3,622	-0,230	-0,117
51,042	198,105	-0,286	-0,307
52,057	148,325	-0,296	-0,280
53,071	68,973	-0,255	-0,184
54,086	-14,335	-0,412	-0,186
55,101	346,137	-0,235	-0,325
56,115	-91,176	-0,271	-0,054
57,130	56,204	-0,448	-0,305
58,144	45,082	-0,268	-0,173
59,159	92,509	-0,322	-0,255
60,174	135,784	-0,296	-0,270
61,188	12,578	-0,348	-0,188
62,203	48,278	-0,260	-0,170
63,217	56,976	-0,417	-0,285
64,232	-31,442	-0,288	-0,113
65,247	-39,236	-0,312	-0,114
66,261	90,331	-0,321	-0,252
67,276	-12,309	-0,415	-0,190
68,290	0,967	-0,461	-0,231
69,305	545,985	-0,165	-0,277
70,320	106,151	-0,226	-0,188
71,334	10,209	-0,347	-0,184
72,349	-20,131	-0,339	-0,146
73,363	77,320	-0,293	-0,218
74,378	61,048	-0,334	-0,232
75,393	58,574	-0,218	-0,150
76,407	-40,394	-0,326	-0,118
77,422	-18,317	-0,281	-0,123
78,436	-104,652	-0,351	-0,056
79,451	66,699	-0,238	-0,169
80,466	65,791	-0,262	-0,186
81,480	85,948	-0,337	-0,259
82,495	19,254	-0,341	-0,191
83,509	351,645	-0,222	-0,309
84,524	53,177	-0,246	-0,165
85,539	19,038	-0,251	-0,140
86,553	-63,210	-0,333	-0,095
87,568	-96,531	-0,373	-0,068
88,582	73,646	-0,353	-0,258
89,597	230,874	-0,230	-0,264
90,611	232,644	-0,332	-0,382
91,626	29,981	-0,300	-0,178
92,641	51,428	-0,198	-0,131
93,655	-42,842	-0,212	-0,075
94,670	242,091	-0,246	-0,288
95,684	44,406	-0,311	-0,199
96,699	-73,160	-0,363	-0,092
97,714	223,210	-0,152	-0,172
98,728	154,332	-0,165	-0,159
99,743	85,262	-0,266	-0,204
100,757	33,085	-0,175	-0,106
101,772	280,885	-0,276	-0,346
102,787	38,634	-0,329	-0,205
103,801	-29,022	-0,332	-0,132
104,816	65,945	-0,243	-0,172
105,830	-12,435	-0,301	-0,137
106,845	670,115	-0,116	-0,211
107,860	72,516	-0,211	-0,154
108,874	169,151	-0,240	-0,239
109,889	-200,000	-0,065	-0,225
110,903	-23,931	-0,313	-0,130
111,918	146,525	-0,291	-0,273
112,933	-44,132	-0,212	-0,074
113,947	44,210	-0,223	-0,143
114,962	141,624	-0,245	-0,227
115,976	-31,475	-0,306	-0,119
116,991	15,064	-0,244	-0,133
118,006	-7,889	-0,169	-0,079
119,020	314,601	-0,128	-0,169
120,035	144,538	-0,184	-0,172
121,049	-30,078	-0,306	-0,121
122,064	-45,691	-0,207	-0,071
123,079	59,438	-0,361	-0,248
124,093	-200,000	-0,248	-0,000
125,108	216,129	-0,227	-0,252
126,122	709,614	-0,170	-0,315
127,137	-10,330	-0,099	-0,046
128,151	193,610	-0,150	-0,158
129,166	-30,746	-0,264	-0,104
130,181	127,266	-0,254	-0,225
131,195	51,675	-0,293	-0,194
132,210	180,094	-0,251	-0,257
133,224	800,000	-0,182	-0,358
134,239	-0,862	-0,183	-0,090
135,254	253,045	-0,130	-0,155
136,268	365,454	-0,131	-0,184
137,283	-1,519	-0,193	-0,094
138,297	70,731	-0,194	-0,140
139,312	87,909	-0,201	-0,155
140,327	28,472	-0,291	-0,171
141,341	296,622	-0,175	-0,223
142,356	-81,940	-0,181	-0,041
143,370	441,718	-0,145	-0,222
144,385	-142,933	-0,306	-0,020
145,400	714,249	-0,135	-0,250
146,414	-0,412	-0,293	-0,144
147,429	86,791	-0,319	-0,245
148,443	-63,824	-0,294	-0,083
149,458	251,518	-0,148	-0,176
150,473	-92,071	-0,187	-0,036
151,487	-110,634	-0,168	-0,024
152,502	238,654	-0,227	-0,262
153,516	226,953	-0,203	-0,229
154,531	-107,794	-0,249	-0,037
155,546	-89,378	-0,345	-0,070
156,560	278,094	-0,140	-0,174
157,575	-95,198	-0,097	-0,018
158,589	-35,336	-0,328	-0,123
159,604	84,526	-0,182	-0,138
160,619	27,947	-0,302	-0,176
161,633	309,702	-0,217	-0,282
162,648	-33,679	-0,303	-0,115
163,662	65,695	-0,170	-0,120
164,677	-54,124	-0,351	-0,110
165,692	-57,252	-0,241	-0,073
166,706	96,543	-0,275	-0,219
167,721	94,616	-0,207	-0,164
168,735	-24,679	-0,326	-0,134
169,750	193,600	-0,161	-0,170
170,764	77,540	-0,232	-0,171
171,779	438,256	-0,093	-0,141
172,794	116,802	-0,179	-0,152
173,808	-121,876	-0,156	0,018
174,823	-7,766	-0,177	-0,083
175,837	25,876	-0,311	-0,180
176,852	-3,299	-0,249	-0,120
177,867	86,919	-0,068	-0,052
178,881	-87,184	-0,213	-0,045
179,896	110,106	-0,262	-0,218
180,910	-4,798	-0,274	-0,131
181,925	800,000	-0,098	-0,289
182,940	330,854	-0,191	-0,256
183,954	-11,300	-0,165	-0,075
184,969	-104,858	-0,245	-0,039
185,983	171,681	-0,270	-0,269
186,998	-67,501	-0,307	-0,083
188,013	-200,000	-0,055	-0,177
189,027	-92,804	-0,304	-0,058
190,042	475,183	-0,122	-0,192
191,056	39,501	-0,178	-0,110
192,071	228,851	-0,220	-0,249
193,086	-190,412	-0,153	0,001
194,100	31,172	-0,103	0,061
195,115	6,500	-0,160	-0,082
196,129	-122,253	-0,249	-0,028
197,144	201,429	-0,179	-0,192
198,159	124,639	-0,214	-0,187
199,173	-16,615	-0,270	-0,118
200,188	-200,000	-0,027	-0,201
201,202	-67,085	-0,224	-0,061
202,217	93,894	-0,125	-0,098
203,232	219,266	-0,130	-0,144
204,246	35,276	-0,313	-0,190
205,261	800,000	-0,119	-0,303
206,275	127,011	-0,272	-0,238
207,290	88,803	-0,043	-0,033
208,304	-106,666	-0,183	-0,028
209,319	-86,853	-0,124	-0,026
210,334	669,258	-0,099	-0,178
211,348	157,167	-0,179	-0,171
212,363	800,000	-0,100	-0,213
213,377	43,570	-0,198	-0,125
214,392	-10,815	-0,235	-0,107
215,407	-43,931	-0,152	-0,053
216,421	-55,789	-0,202	0,062
217,436	37,020	-0,194	-0,118
218,450	800,000	-0,099	-0,201
219,465	-85,056	-0,190	-0,041
220,480	194,919	-0,158	-0,166
221,494	-200,000	-0,043	-0,134
222,509	-15,276	-0,255	-0,112
223,523	255,924	-0,106	-0,126
224,538	15,749	-0,231	-0,125
225,553	-200,000	-0,046	-0,299
226,567	48,265	-0,207	-0,134
227,582	80,512	-0,257	-0,192
228,596	48,907	-0,194	-0,125
229,611	142,318	-0,147	-0,135
230,626	-18,158	-0,198	-0,085
231,640	-9,918	-0,221	-0,101
232,655	182,514	-0,123	-0,126
233,669	-101,508	-0,196	-0,033
234,684	108,075	-0,322	-0,265
235,699	-175,730	-0,164	-0,003
236,713	525,918	-0,091	-0,149
237,728	10,029	-0,135	-0,071
238,742	-36,343	-0,079	-0,029
239,757	27,196	-0,232	-0,134
240,772	800,000	-0,129	-0,258
241,786	80,212	-0,162	-0,120
242,801	-200,000	-0,056	-0,228
243,815	-200,000	-0,056	-0,270
244,830	49,094	-0,124	-0,080
245,844	-28,189	-0,120	0,048
246,859	61,580	-0,155	-0,106
247,874	362,095	-0,206	-0,286
248,888	-9,718	-0,153	-0,070
249,903	-48,981	-0,183	-0,060
250,917	-200,000	-0,032	-0,113
251,932	620,521	-0,090	-0,157
252,947	204,454	-0,060	-0,065
253,961	42,550	-0,117	-0,073
254,976	800,000	-0,064	-0,165
255,990	-25,288	-0,244	-0,099
257,005	-130,404	-0,138	0,013
258,020	14,717	-0,210	-0,113
259,034	-100,821	-0,094	0,016
260,049	-13,113	-0,162	-0,072
261,063	107,982	-0,135	-0,110
262,078	40,383	-0,274	-0,169
263,093	224,085	-0,094	-0,105
264,107	-138,935	-0,238	-0,018
265,122	148,571	-0,032	-0,030
266,136	49,678	-0,171	0,111
267,151	-200,000	-0,042	-0,133
268,166	800,000	-0,074	-0,150
269,180	389,028	-0,116	-0,166
270,195	235,806	-0,177	-0,201
271,209	3,081	-0,132	-0,066
272,224	-36,716	-0,187	-0,069
273,239	89,541	-0,144	-0,110
274,253	-87,828	-0,134	-0,028
275,268	116,581	-0,144	-0,121
276,282	115,102	-0,154	-0,129
277,297	-200,000	-0,041	-0,249
278,312	45,239	-0,165	-0,104
279,326	104,052	-0,139	-0,112
280,341	800,000	-0,106	-0,208
281,355	202,360	-0,135	-0,144
282,370	800,000	-0,072	-0,152
283,384	271,622	-0,091	-0,111
284,399	-48,926	-0,265	0,087
285,414	800,000	-0,062	-0,147
286,428	-74,279	-0,156	0,038
287,443	-200,000	-0,027	-0,111
288,457	-120,409	-0,161	-0,019
289,472	-0,218	-0,202	-0,098
290,487	149,256	-0,245	-0,228
291,501	-36,225	-0,049	-0,018
292,516	183,023	-0,121	-0,123
293,530	60,703	-0,185	-0,126
294,545	25,621	-0,138	0,079
295,560	13,935	-0,121	-0,064
296,574	-32,327	-0,191	-0,073
297,589	19,867	-0,167	-0,092
298,603	-138,694	-0,136	0,010
299,618	339,918	-0,143	-0,192
300,633	800,000	-0,037	-0,089
301,647	43,165	-0,115	-0,072
302,662	113,507	-0,063	-0,052
303,676	79,184	-0,229	-0,168
304,691	-42,848	-0,190	-0,066
305,706	144,259	-0,197	-0,181
306,720	713,044	-0,087	-0,158
307,735	60,084	-0,109	-0,074
308,749	124,523	-0,138	-0,119
309,764	589,497	-0,090	-0,153
310,779	418,483	-0,149	-0,220
311,793	-45,886	-0,085	-0,029
312,808	398,961	-0,150	-0,217
313,822	800,000	-0,056	-0,149
314,837	94,962	-0,099	-0,077
315,852	268,695	-0,098	-0,119
316,866	-61,065	-0,222	-0,064
317,881	-200,000	-0,004	-0,019
318,895	40,912	-0,245	-0,151
319,910	542,322	-0,090	-0,147
320,925	-103,937	-0,190	-0,030
321,939	125,469	-0,175	-0,151
322,954	-52,441	-0,129	-0,041
323,968	-200,000	-0,021	-0,094
324,983	-158,605	-0,177	-0,007
325,997	447,421	-0,105	-0,158
327,012	18,086	-0,117	-0,064
328,027	-0,427	-0,149	-0,072
329,041	-200,000	0,037	-0,159
330,056	-140,471	-0,159	-0,011
331,070	-200,000	-0,010	-0,117
332,085	28,072	-0,141	-0,081
333,100	-59,743	-0,154	-0,045
334,114	101,204	-0,144	-0,115
335,129	124,296	-0,172	-0,148
336,143	367,893	-0,139	-0,193
337,158	118,419	-0,183	-0,155
338,173	179,226	-0,127	-0,127
339,187	-200,000	-0,028	0,099
340,202	800,000	-0,060	-0,158
341,216	200,390	-0,135	-0,142
342,231	-133,757	-0,150	-0,013
343,246	87,299	-0,090	-0,068
344,260	-73,028	-0,183	-0,046
345,275	156,249	-0,097	-0,092
346,289	-93,971	-0,110	0,020
347,304	58,460	-0,085	-0,057
348,319	20,270	-0,105	-0,058
349,333	6,949	-0,196	-0,099
350,348	-150,744	-0,241	-0,012
351,362	-25,904	-0,204	-0,082
352,377	-200,000	0,001	0,051
353,392	294,295	-0,035	0,043
354,406	-200,000	-0,029	-0,110
355,421	207,846	1307,714	1397,404
356,435	159,905	1467,511	1397,835
