DTS Sentinel unit serial number:	SN410029Multiplexer serial number:	ORYXHardware model number:	OX2-SRSoftware version number:	ORYX F/W v4,00 Oryx Data Collector v3.7.2.0data status	okinstallation	B3 Nyhavnadifferential loss correction	single-endedforward channel	channel 1reverse channel	N/Adate	2023/12/02time	23:22:30forward acquisition time	300,00reverse acquisition time	0,00gamma	499,1914k internal	0,3201k external	0,3201temperature offset calibration	1,0000default loss term (dB/km)	0,3820temperature slope calibration	1,0000multiplexer offset coefficient	1,0000multiplexer slope coefficient	1,0000fibre end	0,00T internal ref (°C)	13,25T ext. ref 1 (°C)	-1,74T ext. ref 2 (°C)	-1,75length (m)	temperature (°C)	Stokes	anti-Stokes-744,400	201,332	-0,230	-0,258
-743,385	800,000	0,078	0,227
-742,371	135,369	-0,140	-0,133
-741,356	679,019	0,080	0,153
-740,342	126,241	-0,138	-0,127
-739,327	-200,000	-0,044	0,330
-738,312	118,630	-0,241	-0,216
-737,298	-200,000	0,030	0,260
-736,283	300,968	-0,241	-0,325
-735,269	-200,000	-0,011	0,330
-734,254	162,178	-0,165	-0,168
-733,239	-83,732	-0,212	0,049
-732,225	800,000	-0,072	-0,193
-731,210	19,176	0,136	-0,079
-730,196	166,759	-0,007	-0,007
-729,181	-50,799	-0,080	0,027
-728,167	24,064	0,033	-0,020
-727,152	-200,000	0,003	-0,027
-726,137	67,646	-0,099	-0,074
-725,123	345,670	0,052	-0,075
-724,108	800,000	0,026	0,067
-723,094	72,205	-0,143	-0,108
-722,079	117,243	-0,005	0,005
-721,064	800,000	0,058	0,123
-720,050	238,857	-0,032	0,039
-719,035	392,248	-0,049	0,074
-718,021	-52,646	-0,126	-0,042
-717,006	348,530	0,088	-0,126
-715,991	74,598	-0,063	-0,048
-714,977	-3,594	0,113	-0,057
-713,962	-60,604	0,111	0,034
-712,948	48,141	-0,067	0,045
-711,933	109,185	0,033	-0,028
-710,918	-200,000	0,006	0,023
-709,904	-80,036	-0,059	0,014
-708,889	217,554	0,034	0,040
-707,875	366,124	-0,074	-0,109
-706,860	213,318	-0,092	0,106
-705,845	225,391	-0,036	-0,043
-704,831	800,000	0,050	0,118
-703,816	435,597	-0,039	-0,061
-702,802	-56,503	-0,115	0,037
-701,787	800,000	-0,034	-0,106
-700,772	-200,000	0,018	-0,113
-699,758	682,493	-0,031	-0,059
-698,743	800,000	0,012	-0,034
-697,729	-200,000	-0,002	0,072
-696,714	99,586	-0,147	0,124
-695,699	-200,000	-0,025	-0,128
-694,685	-94,050	-0,118	0,023
-693,670	-200,000	0,013	0,077
-692,656	-200,000	0,004	0,076
-691,641	-122,938	-0,077	0,009
-690,627	800,000	0,037	0,088
-689,612	122,848	-0,103	0,094
-688,597	-200,000	0,026	-0,114
-687,583	-200,000	0,018	-0,072
-686,568	753,424	-0,018	0,035
-685,554	753,638	0,042	-0,082
-684,539	800,000	0,046	-0,135
-683,524	-200,000	-0,007	0,053
-682,510	706,667	-0,023	0,044
-681,495	-200,000	0,005	0,103
-680,481	-1,926	-0,083	0,042
-679,466	-21,649	0,076	-0,034
-678,451	-200,000	0,005	0,027
-677,437	800,000	-0,082	-0,186
-676,422	-200,000	-0,007	-0,110
-675,408	-87,147	-0,034	0,008
-674,393	488,815	-0,055	0,092
-673,378	-33,456	-0,247	-0,099
-672,364	68,868	-0,112	-0,083
-671,349	-73,199	0,162	0,043
-670,335	327,711	0,102	0,142
-669,320	12,723	-0,020	-0,011
-668,305	71,265	-0,051	0,038
-667,291	-106,152	-0,085	-0,014
-666,276	773,005	-0,040	-0,080
-665,262	194,518	0,046	-0,051
-664,247	90,542	-0,042	0,034
-663,232	-40,277	-0,056	0,021
-662,218	-124,816	0,079	0,009
-661,203	-61,197	-0,037	0,011
-660,189	-200,000	-0,025	0,108
-659,174	101,032	-0,069	-0,059
-658,159	89,843	-0,041	-0,033
-657,145	-37,569	0,058	-0,022
-656,130	-200,000	0,026	-0,152
-655,116	800,000	0,070	0,153
-654,101	381,875	-0,076	0,114
-653,086	-144,627	-0,087	-0,006
-652,072	-200,000	-0,014	0,056
-651,057	171,041	-0,095	-0,099
-650,043	-200,000	-0,041	-0,162
-649,028	161,447	0,033	-0,033
-648,014	-200,000	-0,011	0,041
-646,999	-200,000	0,036	-0,185
-645,984	-15,786	-0,032	0,015
-644,970	-200,000	0,025	0,094
-643,955	-200,000	-0,041	-0,151
-642,941	-67,193	0,061	-0,017
-641,926	-5,247	-0,115	0,057
-640,911	-66,188	0,033	0,010
-639,897	-200,000	-0,002	0,102
-638,882	-200,000	-0,022	0,101
-637,868	54,232	-0,051	0,035
-636,853	-159,672	-0,060	0,002
-635,838	-200,000	-0,013	-0,057
-634,824	40,667	0,100	-0,065
-633,809	-200,000	0,008	-0,107
-632,795	-79,566	0,182	-0,044
-631,780	19,665	-0,062	0,036
-630,765	421,715	0,059	0,092
-629,751	4,142	-0,107	0,056
-628,736	-152,905	-0,053	0,003
-627,722	-159,572	-0,087	0,003
-626,707	800,000	-0,025	0,079
-625,692	120,437	0,109	0,098
-624,678	-108,764	0,073	0,011
-623,663	-200,000	0,016	-0,146
-622,649	-43,706	-0,229	-0,083
-621,634	-78,016	-0,135	-0,034
-620,619	479,554	-0,025	-0,042
-619,605	-125,941	0,104	0,011
-618,590	-200,000	-0,034	0,172
-617,576	-200,000	-0,030	0,220
-616,561	203,075	-0,052	-0,058
-615,546	658,521	-0,071	-0,133
-614,532	-200,000	-0,031	0,112
-613,517	20,088	0,077	0,045
-612,503	-75,524	-0,015	0,004
-611,488	200,170	0,038	-0,042
-610,474	314,237	0,019	-0,026
-609,459	36,028	0,023	0,015
-608,444	15,603	-0,058	0,033
-607,430	-200,000	0,002	-0,041
-606,415	800,000	-0,013	-0,028
-605,401	-129,620	0,113	0,011
-604,386	-200,000	0,018	0,085
-603,371	-200,000	0,022	0,158
-602,357	1,213	0,154	-0,080
-601,342	27,818	0,021	0,013
-600,328	353,812	0,023	-0,033
-599,313	168,659	-0,124	-0,128
-598,298	-71,538	0,042	-0,011
-597,284	800,000	-0,050	0,136
-596,269	176,589	-0,049	0,051
-595,255	537,401	-0,013	0,022
-594,240	-200,000	0,019	0,073
-593,225	-100,644	-0,058	0,010
-592,211	-200,000	-0,037	0,135
-591,196	136,388	-0,106	0,100
-590,182	-200,000	-0,004	0,033
-589,167	75,719	0,171	0,131
-588,152	73,566	0,057	-0,043
-587,138	800,000	-0,050	-0,150
-586,123	-98,484	-0,080	0,015
-585,109	303,405	-0,080	-0,107
-584,094	303,982	-0,013	0,018
-583,079	-200,000	-0,004	-0,125
-582,065	495,666	-0,095	0,158
-581,050	-200,000	0,056	0,231
-580,036	-200,000	0,007	-0,146
-579,021	-187,622	0,030	0,000
-578,006	-5,158	0,037	0,018
-576,992	-142,729	-0,104	0,007
-575,977	353,097	0,029	-0,042
-574,963	-2,864	0,087	-0,044
-573,948	-155,638	-0,101	0,005
-572,934	84,481	-0,047	0,037
-571,919	-174,352	-0,128	-0,003
-570,904	800,000	-0,025	0,075
-569,890	-200,000	0,032	-0,107
-568,875	10,501	-0,027	-0,015
-567,861	-200,000	0,015	0,074
-566,846	-200,000	0,062	0,198
-565,831	253,781	-0,017	0,021
-564,817	128,304	0,054	-0,050
-563,802	800,000	0,053	-0,126
-562,788	782,049	0,025	-0,050
-561,773	-76,728	-0,077	0,019
-560,758	198,826	0,049	0,054
-559,744	800,000	-0,070	0,169
-558,729	417,118	0,040	-0,062
-557,715	-200,000	-0,010	0,040
-556,700	10,776	-0,186	-0,102
-555,685	-45,756	0,056	0,020
-554,671	36,420	0,112	0,071
-553,656	-200,000	-0,034	0,115
-552,642	347,754	0,025	0,036
-551,627	-108,135	0,047	0,007
-550,612	800,000	0,014	-0,039
-549,598	-21,893	-0,087	-0,038
-548,583	237,626	0,068	-0,082
-547,569	289,008	-0,044	-0,058
-546,554	-68,916	0,060	0,016
-545,539	368,831	-0,072	0,106
-544,525	-75,192	-0,098	-0,025
-543,510	40,906	-0,106	-0,069
-542,496	721,120	0,045	0,087
-541,481	176,962	-0,055	-0,058
-540,466	47,970	0,043	-0,029
-539,452	174,003	0,090	0,094
-538,437	217,076	-0,083	0,095
-537,423	372,844	-0,022	0,032
-536,408	-200,000	-0,010	0,135
-535,393	337,831	-0,046	-0,065
-534,379	800,000	-0,023	-0,059
-533,364	-121,668	0,022	0,003
-532,350	286,315	-0,063	0,082
-531,335	-81,880	0,020	0,005
-530,321	-200,000	-0,012	-0,042
-529,306	800,000	-0,039	0,090
-528,291	-119,674	-0,076	0,009
-527,277	-200,000	-0,011	-0,101
-526,262	46,570	-0,117	-0,078
-525,248	-145,222	-0,134	0,009
-524,233	260,757	0,082	0,102
-523,218	658,833	-0,015	-0,028
-522,204	163,634	0,090	-0,091
-521,189	188,478	-0,158	-0,170
-520,175	-200,000	0,009	-0,143
-519,160	-200,000	0,002	0,031
-518,145	-164,615	-0,109	-0,003
-517,131	465,097	0,030	0,048
-516,116	-40,144	-0,092	0,034
-515,102	-90,110	0,078	0,016
-514,087	-115,230	0,021	-0,003
-513,072	4,515	0,049	0,026
-512,058	800,000	-0,015	0,031
-511,043	-137,010	-0,027	-0,002
-510,029	180,417	0,040	-0,042
-509,014	415,116	0,058	0,089
-507,999	328,385	0,037	0,051
-506,985	184,924	-0,021	0,023
-505,970	800,000	0,031	-0,062
-504,956	547,583	0,047	-0,081
-503,941	-132,543	0,040	0,004
-502,926	52,263	0,082	0,056
-501,912	765,387	0,052	0,102
-500,897	165,724	0,082	0,083
-499,883	555,383	0,067	0,117
-498,868	-85,560	-0,135	0,030
-497,853	-7,320	-0,069	-0,033
-496,839	108,564	0,075	0,064
-495,824	666,571	0,003	-0,006
-494,810	366,711	0,057	0,083
-493,795	-19,124	-0,139	0,062
-492,781	18,787	0,123	0,071
-491,766	-81,187	0,159	-0,038
-490,751	800,000	-0,028	-0,069
-489,737	-200,000	-0,008	0,070
-488,722	-200,000	-0,022	-0,081
-487,708	800,000	0,049	-0,148
-486,693	800,000	-0,022	0,055
-485,678	-40,437	0,075	-0,028
-484,664	215,544	0,063	-0,072
-483,649	324,088	-0,034	0,047
-482,635	-8,549	0,066	0,032
-481,620	-51,157	0,138	0,046
-480,605	142,711	0,057	-0,054
-479,591	-200,000	0,011	-0,041
-478,576	64,558	-0,055	-0,040
-477,562	-80,116	-0,088	0,021
-476,547	-142,442	-0,035	0,002
-475,532	800,000	-0,051	-0,109
-474,518	-120,842	0,056	-0,007
-473,503	-67,386	0,118	0,033
-472,489	-16,018	0,098	0,045
-471,474	-20,152	-0,158	0,070
-470,459	-200,000	-0,009	-0,165
-469,445	800,000	0,062	-0,130
-468,430	-200,000	0,090	-0,000
-467,416	-28,946	-0,181	-0,074
-466,401	82,156	-0,092	-0,072
-465,386	800,000	0,066	0,166
-464,372	237,787	-0,039	0,047
-463,357	198,500	0,075	-0,082
-462,343	49,298	-0,063	-0,043
-461,328	-200,000	0,024	0,082
-460,313	800,000	-0,028	0,060
-459,299	-29,702	0,134	0,055
-458,284	43,106	-0,099	-0,065
-457,270	800,000	0,023	-0,064
-456,255	5,280	0,033	-0,018
-455,241	-200,000	-0,006	-0,039
-454,226	67,591	0,055	0,040
-453,211	-200,000	-0,001	0,121
-452,197	800,000	-0,049	0,111
-451,182	-33,542	0,066	0,026
-450,168	282,913	0,021	-0,028
-449,153	79,591	0,031	-0,024
-448,138	-149,178	-0,138	-0,008
-447,124	146,917	-0,104	0,101
-446,109	26,054	-0,104	-0,062
-445,095	-167,434	0,181	-0,005
-444,080	257,209	-0,052	0,064
-443,065	753,857	0,020	0,039
-442,051	-117,729	0,051	-0,007
-441,036	-200,000	0,010	0,056
-440,022	9,572	0,127	-0,069
-439,007	643,011	-0,107	-0,198
-437,992	40,747	-0,054	0,035
-436,978	800,000	0,028	-0,074
-435,963	-26,652	0,053	-0,022
-434,949	-71,418	0,172	-0,046
-433,934	-52,961	0,025	-0,008
-432,919	-13,675	0,137	-0,063
-431,905	-200,000	-0,001	0,050
-430,890	-40,536	-0,040	0,015
-429,876	-200,000	0,028	0,097
-428,861	-91,850	0,075	0,015
-427,846	-7,302	0,062	0,030
-426,832	-133,347	0,019	0,002
-425,817	686,201	-0,036	-0,067
-424,803	61,058	0,152	0,109
-423,788	800,000	0,023	-0,062
-422,773	-128,719	0,086	-0,009
-421,759	800,000	0,040	0,085
-420,744	283,292	-0,089	-0,115
-419,730	-3,106	-0,058	-0,029
-418,715	-200,000	-0,039	-0,208
-417,701	58,516	0,014	-0,010
-416,686	334,301	0,053	0,074
-415,671	-200,000	-0,003	0,098
-414,657	-200,000	-0,024	0,117
-413,642	7,904	-0,067	-0,036
-412,628	800,000	-0,043	-0,099
-411,613	-9,606	0,094	0,045
-410,598	800,000	-0,041	-0,096
-409,584	-76,285	-0,081	0,020
-408,569	79,746	0,055	-0,042
-407,555	800,000	-0,065	-0,137
-406,540	-104,594	-0,145	-0,024
-405,525	800,000	0,019	0,048
-404,511	800,000	0,038	-0,100
-403,496	438,428	-0,065	-0,103
-402,482	-200,000	-0,004	-0,058
-401,467	-79,015	0,055	-0,013
-400,452	-75,356	0,127	0,032
-399,438	45,631	0,075	0,050
-398,423	50,647	-0,071	0,048
-397,409	75,502	0,145	-0,110
-396,394	109,291	-0,121	-0,104
-395,379	131,814	-0,102	0,094
-394,365	-111,042	0,156	0,023
-393,350	87,547	-0,084	0,067
-392,336	79,359	0,041	-0,032
-391,321	241,508	-0,070	0,084
-390,306	800,000	-0,031	-0,075
-389,292	54,317	0,049	-0,034
-388,277	800,000	0,042	0,099
-387,263	11,226	0,085	0,047
-386,248	-200,000	-0,011	-0,046
-385,233	800,000	0,023	0,052
-384,219	-136,603	-0,089	0,007
-383,204	141,499	0,060	0,057
-382,190	-200,000	-0,025	-0,110
-381,175	-200,000	0,002	-0,006
-380,160	-200,000	0,000	0,049
-379,146	-200,000	0,038	0,150
-378,131	800,000	-0,074	0,173
-377,117	-200,000	-0,016	0,105
-376,102	-95,780	-0,091	0,017
-375,088	-12,324	0,113	-0,053
-374,073	104,898	0,064	-0,054
-373,058	-12,970	0,077	-0,036
-372,044	-200,000	-0,033	0,107
-371,029	-200,000	-0,030	0,144
-370,015	800,000	-0,030	0,083
-369,000	82,186	0,023	0,018
-367,985	-200,000	0,005	-0,210
-366,971	180,886	-0,064	-0,068
-365,956	-69,843	0,057	0,016
-364,942	140,629	0,114	0,108
-363,927	456,309	0,027	0,043
-362,912	-98,094	0,060	0,011
-361,898	-56,270	-0,055	0,017
-360,883	-200,000	-0,000	-0,141
-359,869	-64,630	-0,163	-0,047
-358,854	44,480	0,108	-0,071
-357,839	646,826	0,083	0,152
-356,825	-200,000	-0,021	0,070
-355,810	-12,170	-0,126	0,059
-354,796	-84,400	-0,105	0,024
-353,781	-200,000	0,003	0,012
-352,766	800,000	-0,051	0,157
-351,752	-94,275	0,032	-0,006
-350,737	-133,486	0,112	-0,010
-349,723	-200,000	0,010	-0,067
-348,708	17,076	-0,018	0,010
-347,693	-9,915	-0,048	-0,023
-346,679	-200,000	-0,004	0,021
-345,664	-59,039	-0,032	0,010
-344,650	-111,235	0,050	-0,007
-343,635	114,776	0,063	0,055
-342,620	-41,804	0,147	0,054
-341,606	155,411	-0,137	0,135
-340,591	331,690	-0,052	0,073
-339,577	179,899	-0,056	-0,059
-338,562	60,541	-0,131	0,093
-337,548	71,252	0,006	0,005
-336,533	328,486	0,026	0,035
-335,518	28,675	0,113	0,068
-334,504	198,186	0,059	0,064
-333,489	317,590	0,127	0,173
-332,475	32,630	-0,012	-0,007
-331,460	188,995	-0,046	-0,050
-330,445	364,655	-0,053	0,077
-329,431	800,000	-0,023	-0,052
-328,416	800,000	-0,060	-0,130
-327,402	31,680	0,063	0,039
-326,387	781,784	-0,011	-0,021
-325,372	-174,901	-0,129	-0,003
-324,358	590,371	-0,081	-0,143
-323,343	800,000	0,011	-0,023
-322,329	753,464	-0,032	-0,062
-321,314	-7,597	-0,022	-0,011
-320,299	-200,000	0,102	-0,000
-319,285	689,481	0,026	0,049
-318,270	407,685	0,028	-0,043
-317,256	-46,594	-0,015	0,005
-316,241	167,186	-0,066	-0,067
-315,226	-119,831	-0,062	-0,007
-314,212	-52,319	-0,068	-0,022
-313,197	-200,000	0,001	0,059
-312,183	-200,000	0,015	0,054
-311,168	21,338	0,092	-0,054
-310,153	800,000	-0,047	-0,146
-309,139	800,000	-0,031	-0,069
-308,124	800,000	-0,029	0,059
-307,110	-96,880	0,072	-0,013
-306,095	46,819	0,188	-0,125
-305,080	-200,000	0,015	0,115
-304,066	-42,833	-0,159	0,057
-303,051	-200,000	-0,019	-0,160
-302,037	258,614	-0,085	-0,105
-301,022	46,040	0,061	-0,040
-300,008	562,069	-0,033	0,056
-298,993	64,184	-0,062	-0,044
-297,978	800,000	0,069	0,144
-296,964	-138,280	-0,063	0,005
-295,949	-200,000	0,015	-0,109
-294,935	800,000	0,059	-0,116
-293,920	800,000	-0,035	0,075
-292,905	56,283	0,078	0,054
-291,891	53,324	0,105	0,072
-290,876	322,040	0,076	0,103
-289,862	196,199	0,025	-0,027
-288,847	-200,000	0,012	-0,058
-287,832	-99,057	0,046	0,008
-286,818	-200,000	-0,011	-0,149
-285,803	-93,352	0,082	0,016
-284,789	353,869	-0,016	0,022
-283,774	-200,000	-0,031	-0,103
-282,759	130,707	-0,083	0,076
-281,745	-200,000	-0,001	0,031
-280,730	43,391	0,112	-0,073
-279,716	93,163	-0,095	-0,077
-278,701	-127,913	0,071	0,007
-277,686	108,369	0,095	0,081
-276,672	245,510	-0,024	-0,029
-275,657	800,000	-0,026	-0,080
-274,643	297,808	0,042	0,055
-273,628	193,991	-0,079	0,086
-272,613	-200,000	0,026	-0,114
-271,599	-200,000	0,013	-0,052
-270,584	-105,886	0,036	-0,006
-269,570	225,203	-0,082	-0,094
-268,555	800,000	0,017	0,049
-267,540	383,690	-0,012	0,018
-266,526	800,000	-0,045	0,096
-265,511	28,729	0,123	-0,074
-264,497	-200,000	-0,003	-0,079
-263,482	310,650	0,060	0,080
-262,467	800,000	0,041	-0,086
-261,453	34,046	0,091	-0,057
-260,438	110,885	-0,041	-0,035
-259,424	-200,000	0,000	-0,020
-258,409	428,898	0,059	-0,091
-257,395	109,504	-0,021	0,018
-256,380	662,062	-0,085	-0,157
-255,365	355,824	0,085	0,121
-254,351	-98,380	-0,078	0,014
-253,336	169,360	0,055	0,056
-252,322	13,029	-0,051	0,028
-251,307	166,725	-0,074	0,075
-250,292	-94,633	0,074	-0,014
-249,278	32,545	0,056	0,035
-248,263	-200,000	-0,017	0,123
-247,249	-111,588	-0,168	-0,024
-246,234	-200,000	-0,005	0,033
-245,219	514,931	0,042	-0,069
-244,205	-200,000	0,009	-0,108
-243,190	279,626	0,021	0,026
-242,176	800,000	-0,065	0,131
-241,161	-81,332	0,158	-0,037
-240,146	-200,000	-0,036	-0,145
-239,132	131,496	-0,065	-0,060
-238,117	-15,391	-0,102	-0,046
-237,103	-200,000	-0,017	-0,171
-236,088	-120,737	-0,151	-0,018
-235,073	62,567	-0,055	-0,039
-234,059	253,314	0,030	-0,037
-233,044	-67,241	0,017	0,005
-232,030	113,611	-0,087	0,076
-231,015	-200,000	-0,001	-0,107
-230,000	12,844	-0,063	-0,035
-228,986	233,568	0,072	-0,084
-227,971	800,000	-0,028	-0,064
-226,957	-200,000	0,036	-0,199
-225,942	21,780	0,097	0,056
-224,927	418,020	0,027	0,042
-223,913	500,488	-0,026	-0,043
-222,898	-52,902	-0,144	-0,047
-221,884	1,480	-0,013	-0,007
-220,869	19,485	0,135	0,077
-219,855	-200,000	0,008	0,125
-218,840	85,870	0,139	0,109
-217,825	-200,000	-0,014	-0,090
-216,811	252,701	-0,080	0,097
-215,796	-200,000	-0,008	-0,094
-214,782	-15,916	-0,110	0,050
-213,767	-200,000	0,007	-0,079
-212,752	800,000	-0,019	0,043
-211,738	-108,721	0,081	-0,012
-210,723	-79,059	-0,092	-0,022
-209,709	460,268	0,033	0,053
-208,694	-200,000	0,004	-0,083
-207,679	-200,000	-0,003	0,086
-206,665	53,523	0,058	0,039
-205,650	-115,882	0,102	0,013
-204,636	-200,000	-0,017	0,059
-203,621	25,017	0,106	0,062
-202,606	-59,529	0,119	0,036
-201,592	800,000	0,024	-0,065
-200,577	-69,891	-0,078	0,021
-199,563	191,548	-0,059	0,064
-198,548	-40,137	0,083	-0,030
-197,533	42,246	0,174	0,112
-196,519	-73,531	-0,028	0,007
-195,504	-200,000	0,048	0,162
-194,490	-124,763	0,057	0,006
-193,475	149,614	-0,033	-0,032
-192,460	800,000	0,046	-0,119
-191,446	537,939	0,040	-0,069
-190,431	203,156	-0,045	0,050
-189,417	800,000	-0,042	0,099
-188,402	-48,418	-0,190	-0,065
-187,387	-200,000	-0,001	-0,042
-186,373	800,000	-0,030	0,063
-185,358	88,446	-0,101	-0,080
-184,344	365,609	0,052	0,075
-183,329	-12,381	-0,139	0,065
-182,315	-200,000	-0,017	-0,075
-181,300	-7,018	0,067	-0,032
-180,285	-25,272	-0,131	-0,055
-179,271	800,000	-0,065	-0,166
-178,256	-172,305	-0,117	-0,003
-177,242	800,000	-0,014	-0,037
-176,227	-200,000	0,005	0,031
-175,212	-200,000	-0,005	0,088
-174,198	-200,000	-0,001	-0,227
-173,183	7,315	-0,092	-0,049
-172,169	645,287	0,058	-0,105
-171,154	-49,003	0,041	0,014
-170,139	-44,896	0,099	-0,035
-169,125	285,649	-0,062	0,080
-168,110	-200,000	0,018	-0,123
-167,096	800,000	-0,063	0,155
-166,081	800,000	-0,021	0,066
-165,066	-200,000	-0,005	0,123
-164,052	-200,000	-0,000	-0,128
-163,037	-27,564	0,088	-0,036
-162,023	76,189	0,032	-0,024
-161,008	40,391	0,110	-0,070
-159,993	14,595	-0,080	-0,044
-158,979	-38,424	0,035	-0,013
-157,964	-200,000	-0,001	-0,036
-156,950	585,857	-0,016	-0,029
-155,935	-80,617	0,017	0,004
-154,920	505,976	0,053	-0,088
-153,906	800,000	-0,049	-0,099
-152,891	266,774	-0,039	0,049
-151,877	665,451	-0,067	-0,123
-150,862	329,107	-0,032	0,043
-149,847	14,036	-0,044	0,024
-148,833	-200,000	0,002	-0,113
-147,818	11,661	0,108	-0,059
-146,804	-149,946	0,090	0,005
-145,789	119,032	-0,089	0,078
-144,775	-119,808	0,102	-0,012
-143,760	800,000	-0,007	-0,021
-142,745	-171,366	0,119	0,003
-141,731	56,157	-0,150	-0,103
-140,716	49,890	0,107	0,071
-139,702	-200,000	-0,021	0,116
-138,687	-67,557	-0,017	0,005
-137,672	-42,761	0,080	-0,029
-136,658	-53,591	-0,147	-0,047
-135,643	190,161	-0,008	-0,009
-134,629	-84,517	0,096	0,021
-133,614	800,000	0,016	0,033
-132,599	800,000	0,019	-0,049
-131,585	-18,818	0,087	-0,038
-130,570	800,000	0,036	0,083
-129,556	-16,536	-0,059	-0,026
-128,541	-200,000	0,001	-0,122
-127,526	513,210	0,032	0,053
-126,512	-200,000	0,027	0,130
-125,497	-200,000	-0,019	0,121
-124,483	124,038	0,029	0,026
-123,468	800,000	-0,105	0,216
-122,453	258,281	-0,034	0,042
-121,439	-131,099	-0,085	0,008
-120,424	64,206	-0,047	-0,033
-119,410	204,882	0,049	-0,054
-118,395	185,039	0,020	0,021
-117,380	-200,000	-0,013	0,055
-116,366	-71,958	-0,039	-0,010
-115,351	-200,000	-0,006	0,041
-114,337	800,000	0,019	-0,055
-113,322	800,000	-0,081	-0,165
-112,307	800,000	0,031	-0,069
-111,293	-155,275	-0,064	0,003
-110,278	-68,170	0,094	-0,026
-109,264	-53,900	-0,099	0,032
-108,249	-200,000	-0,005	-0,066
-107,234	-200,000	-0,015	-0,054
-106,220	-30,741	-0,176	0,070
-105,205	0,540	0,068	0,034
-104,191	-200,000	-0,002	-0,061
-103,176	423,781	0,043	-0,066
-102,162	-72,051	0,050	0,013
-101,147	269,376	0,092	0,115
-100,132	-200,000	-0,024	-0,182
-99,118	-200,000	-0,022	-0,105
-98,103	-200,000	0,002	-0,141
-97,089	227,384	0,085	-0,098
-96,074	-90,681	0,045	-0,009
-95,059	247,437	0,016	-0,020
-94,045	556,584	-0,071	-0,121
-93,030	168,956	-0,125	-0,127
-92,016	43,428	0,037	-0,024
-91,001	276,702	-0,058	-0,073
-89,986	-200,000	0,020	-0,107
-88,972	20,393	0,090	-0,052
-87,957	304,786	-0,011	0,014
-86,943	61,349	-0,154	0,108
-85,928	164,300	0,132	-0,132
-84,913	39,579	-0,139	-0,088
-83,899	518,060	-0,042	-0,069
-82,884	84,716	0,120	0,093
-81,870	16,809	-0,051	0,028
-80,855	456,007	0,070	0,110
-79,840	-12,683	0,039	0,018
-78,826	-115,328	0,071	-0,009
-77,811	82,521	-0,068	-0,052
-76,797	800,000	0,083	0,167
-75,782	189,092	-0,014	0,015
-74,767	535,354	0,061	0,102
-73,753	-80,748	0,034	0,008
-72,738	82,524	0,061	0,047
-71,724	-31,154	-0,082	-0,033
-70,709	-44,785	0,077	0,027
-69,694	3,964	0,134	0,069
-68,680	69,720	-0,023	-0,017
-67,665	157,745	0,007	0,007
-66,651	161,296	-0,061	-0,060
-65,636	-130,006	0,039	0,004
-64,622	125,306	0,038	-0,034
-63,607	-20,942	-0,086	-0,037
-62,592	-100,548	-0,106	0,018
-61,578	-93,492	0,085	0,017
-60,563	-200,000	-0,021	0,079
-59,549	-200,000	-0,010	-0,059
-58,534	-26,083	-1,744	-0,723
-57,519	441,533	-1,340	-2,084
-56,505	-200,000	-0,497	-4,510
-55,490	204,793	0,976	1,074
-54,476	800,000	4,950	11,490
-53,461	-200,000	19,233	320,918
-52,446	-200,000	741,694	2334,675
-51,432	572,660	1655,988	2868,212
-50,417	78,088	1671,043	1260,687
-49,403	21,241	1544,016	885,251
-48,388	15,121	1466,557	811,076
-47,373	18,025	1456,484	819,507
-46,359	16,670	1446,376	807,292
-45,344	13,360	1442,005	788,960
-44,330	13,294	1439,933	787,480
-43,315	13,303	1438,267	786,583
-42,300	13,291	1436,520	785,537
-41,286	13,350	1435,144	785,035
-40,271	13,260	1434,172	784,042
-39,257	13,289	1432,781	783,388
-38,242	13,343	1431,398	782,859
-37,227	13,359	1430,147	782,220
-36,213	13,343	1428,854	781,405
-35,198	13,304	1427,720	780,569
-34,184	13,359	1427,088	780,453
-33,169	13,330	1425,466	779,397
-32,154	13,358	1424,427	778,934
-31,140	13,358	1423,131	778,195
-30,125	13,406	1421,854	777,691
-29,111	13,366	1420,804	776,897
-28,096	13,333	1419,811	776,168
-27,082	13,294	1418,716	775,353
-26,067	13,286	1417,501	774,620
-25,052	13,259	1416,493	773,913
-24,038	13,264	1415,461	773,342
-23,023	13,271	1414,573	772,860
-22,009	13,234	1413,413	772,022
-20,994	13,255	1412,580	771,635
-19,979	13,218	1411,755	770,980
-18,965	13,219	1410,693	770,371
-17,950	13,218	1409,874	769,889
-16,936	13,246	1408,872	769,442
-15,921	13,218	1407,680	768,629
-14,906	13,160	1406,766	767,829
-13,892	13,177	1406,012	767,466
-12,877	13,174	1405,153	766,956
-11,863	13,195	1404,199	766,500
-10,848	13,187	1403,363	765,976
-9,833	13,152	1402,462	765,293
-8,819	13,126	1401,628	764,685
-7,804	13,116	1400,751	764,129
-6,790	13,094	1399,701	763,423
-5,775	13,142	1398,595	763,014
-4,760	13,088	1397,508	762,141
-3,746	13,079	1396,629	761,590
-2,731	13,071	1396,169	761,272
-1,717	13,070	1394,934	760,563
-0,702	13,069	1393,270	759,619
0,313	17,037	1309,755	732,427
1,327	33,528	703,348	431,400
2,342	51,721	123,190	82,762
3,356	4,043	16,663	8,594
4,371	5,554	3,163	1,647
5,386	12,481	0,530	0,288
6,400	-200,000	0,053	0,191
7,415	-65,057	-0,169	-0,048
8,429	-67,334	-0,181	-0,050
9,444	182,773	-0,322	-0,337
10,459	-42,580	-0,334	-0,120
11,473	-23,981	-0,343	-0,144
12,488	9,387	-0,333	-0,177
13,502	50,226	-0,279	-0,186
14,517	173,200	-0,325	-0,331
15,531	17,657	-0,389	-0,218
16,546	14,119	-0,484	-0,265
17,561	268,170	-0,277	-0,344
18,575	-35,895	-0,184	-0,070
19,590	242,841	-0,254	-0,301
20,604	-11,709	-0,218	0,101
21,619	58,628	-0,342	-0,237
22,634	82,096	-0,519	-0,397
23,648	157,125	-0,443	-0,433
24,663	164,905	-0,295	-0,295
25,677	12,723	-0,433	-0,236
26,692	100,037	-0,331	-0,270
27,707	24,246	-0,354	-0,206
28,721	138,194	-0,350	-0,324
29,736	28,538	-0,346	-0,206
30,750	28,040	-0,390	-0,232
31,765	78,997	-0,388	-0,293
32,780	122,151	-0,301	-0,265
33,794	15,300	-0,285	-0,157
34,809	-68,738	-0,349	-0,095
35,823	19,526	-0,476	-0,269
36,838	49,438	-0,433	-0,287
37,853	146,046	-0,288	-0,272
38,867	39,130	-0,420	-0,265
39,882	6,322	-0,408	-0,213
40,896	24,504	-0,327	-0,190
41,911	369,723	-0,200	-0,286
42,926	-71,520	-0,313	-0,082
43,940	162,507	-0,295	-0,292
44,955	29,317	-0,323	-0,193
45,969	126,372	-0,360	-0,321
46,984	103,438	-0,350	-0,289
47,999	66,209	-0,357	-0,255
49,013	74,740	-0,354	-0,262
50,028	50,749	-0,314	-0,209
51,042	-70,025	-0,422	-0,112
52,057	68,035	-0,421	-0,303
53,071	86,107	-0,487	-0,377
54,086	82,533	-0,251	-0,192
55,101	61,107	-0,269	-0,188
56,115	22,982	-0,310	-0,179
57,130	103,473	-0,242	-0,200
58,144	-50,244	-0,413	-0,137
59,159	-3,269	-0,564	-0,276
60,174	281,643	-0,256	-0,323
61,188	-23,866	-0,471	-0,198
62,203	34,061	-0,375	-0,229
63,217	44,215	-0,203	-0,131
64,232	173,723	-0,280	-0,285
65,247	18,407	-0,467	-0,262
66,261	73,362	-0,438	-0,322
67,276	41,121	-0,470	-0,298
68,290	42,881	-0,427	-0,273
69,305	-68,448	-0,312	-0,084
70,320	-0,509	-0,443	-0,220
71,334	46,332	-0,249	-0,162
72,349	-17,517	-0,352	-0,155
73,363	-81,049	-0,405	-0,094
74,378	-26,879	-0,350	-0,143
75,393	-25,832	-0,440	-0,181
76,407	101,411	-0,183	-0,150
77,422	-77,231	-0,222	-0,054
78,436	-81,166	-0,338	0,078
79,451	21,533	-0,347	-0,198
80,466	132,153	-0,308	-0,279
81,480	46,953	-0,390	-0,254
82,495	91,142	-0,259	-0,204
83,509	-57,454	-0,294	-0,090
84,524	81,365	-0,152	-0,115
85,539	-63,371	-0,385	-0,110
86,553	147,646	-0,343	-0,325
87,568	328,667	-0,229	-0,309
88,582	800,000	-0,167	-0,400
89,597	40,448	-0,347	-0,219
90,611	56,519	-0,167	-0,114
91,626	50,558	-0,255	-0,169
92,641	-168,597	-0,271	0,007
93,655	-57,086	-0,284	-0,087
94,670	113,814	-0,304	-0,259
95,684	185,239	-0,313	-0,327
96,699	-109,918	-0,370	-0,054
97,714	-34,472	-0,226	-0,087
98,728	87,622	-0,321	-0,249
99,743	125,786	-0,131	-0,116
100,757	-26,822	-0,248	-0,101
101,772	61,580	-0,235	-0,163
102,787	16,181	-0,327	-0,180
103,801	154,002	-0,301	-0,290
104,816	-162,403	-0,318	0,011
105,830	36,636	-0,269	-0,166
106,845	90,995	-0,169	-0,133
107,860	150,504	-0,151	-0,144
108,874	136,734	-0,186	-0,170
109,889	194,182	-0,214	-0,227
110,903	159,701	-0,353	-0,345
111,918	-49,207	-0,255	-0,085
112,933	-71,116	-0,267	-0,070
113,947	20,466	-0,259	-0,147
114,962	-4,036	-0,208	-0,101
115,976	222,608	-0,253	-0,285
116,991	162,319	-0,286	-0,281
118,006	-90,912	-0,297	-0,059
119,020	-91,026	-0,300	-0,060
120,035	267,407	-0,186	-0,229
121,049	47,545	-0,332	-0,216
122,064	582,448	-0,200	-0,345
123,079	120,056	-0,261	-0,226
124,093	144,468	-0,230	-0,215
125,108	-50,265	-0,252	-0,083
126,122	134,097	-0,218	-0,198
127,137	63,874	-0,255	-0,179
128,151	29,322	-0,196	-0,116
129,166	112,014	-0,132	-0,112
130,181	45,238	-0,202	-0,130
131,195	800,000	-0,136	-0,278
132,210	262,382	-0,200	-0,243
133,224	364,071	-0,228	-0,322
134,239	489,760	-0,128	-0,206
135,254	7,360	-0,323	-0,168
136,268	69,102	-0,166	-0,119
137,283	-96,252	-0,339	-0,062
138,297	-24,875	-0,202	-0,083
139,312	347,508	-0,271	-0,374
140,327	205,654	-0,303	-0,330
141,341	412,614	-0,146	-0,218
142,356	-12,440	-0,180	-0,082
143,370	-69,610	-0,317	-0,084
144,385	39,686	-0,305	-0,191
145,400	24,166	-0,248	-0,143
146,414	153,732	-0,233	-0,223
147,429	34,659	-0,368	-0,224
148,443	-126,107	-0,296	-0,031
149,458	15,855	-0,229	-0,126
150,473	80,557	-0,275	-0,207
151,487	-87,412	-0,213	-0,045
152,502	211,702	-0,175	-0,193
153,516	-19,826	-0,395	-0,170
154,531	35,960	-0,334	-0,205
155,546	17,071	-0,290	-0,160
156,560	-48,859	-0,108	0,036
157,575	-7,372	-0,214	-0,101
158,589	-80,594	-0,228	-0,053
159,604	-58,608	-0,314	-0,094
160,619	-1,624	-0,194	-0,095
161,633	120,012	-0,201	-0,174
162,648	35,306	-0,330	-0,201
163,662	20,993	-0,153	-0,087
164,677	-46,870	-0,204	-0,069
165,692	-27,950	-0,242	-0,097
166,706	333,540	-0,179	-0,242
167,721	221,953	-0,214	-0,240
168,735	361,153	-0,218	-0,306
169,750	-48,015	-0,406	-0,136
170,764	-53,585	-0,224	-0,071
171,779	378,755	-0,222	-0,317
172,794	-107,270	-0,333	0,051
173,808	-122,119	-0,230	0,026
174,823	67,594	-0,208	-0,148
175,837	45,172	-0,239	-0,153
176,852	-2,638	-0,247	-0,120
177,867	800,000	-0,056	-0,126
178,881	-84,936	-0,175	-0,038
179,896	442,072	-0,159	-0,243
180,910	3,529	-0,124	-0,063
181,925	48,894	-0,346	-0,226
182,940	318,722	-0,179	-0,237
183,954	384,372	-0,165	-0,237
184,969	246,116	-0,129	-0,152
185,983	-47,167	-0,243	-0,082
186,998	-68,609	-0,227	-0,061
188,013	-35,870	-0,228	-0,085
189,027	668,040	-0,091	-0,164
190,042	30,588	-0,345	-0,205
191,056	260,668	-0,095	-0,114
192,071	380,101	-0,190	-0,271
193,086	222,003	-0,123	-0,138
194,100	233,822	-0,162	-0,186
195,115	-90,958	-0,094	0,019
196,129	-95,184	-0,261	-0,049
197,144	-60,580	-0,358	-0,105
198,159	153,649	-0,169	-0,161
199,173	38,233	-0,225	-0,139
200,188	213,080	-0,179	-0,197
201,202	92,956	-0,186	-0,146
202,217	-75,274	-0,192	-0,047
203,232	800,000	-0,080	-0,216
204,246	315,039	-0,231	-0,303
205,261	34,229	-0,293	-0,177
206,275	146,467	-0,180	-0,168
207,290	792,172	-0,108	-0,207
208,304	800,000	-0,081	-0,168
209,319	19,446	-0,288	-0,161
210,334	72,371	-0,252	-0,182
211,348	401,826	-0,128	-0,187
212,363	-6,313	-0,251	-0,119
213,377	52,329	-0,269	-0,178
214,392	800,000	-0,090	-0,177
215,407	800,000	-0,112	-0,270
216,421	130,983	-0,190	-0,169
217,436	-200,000	-0,075	-0,242
218,450	-146,894	-0,196	0,012
219,465	-45,376	-0,198	-0,068
220,480	365,838	-0,197	-0,276
221,494	95,919	-0,194	-0,154
222,509	800,000	-0,120	-0,245
223,523	138,033	-0,217	-0,198
224,538	265,396	-0,160	-0,193
225,553	-0,328	-0,226	-0,111
226,567	353,069	-0,198	-0,273
227,582	42,730	-0,208	-0,131
228,596	47,396	-0,203	-0,131
229,611	42,532	-0,193	-0,122
230,626	800,000	-0,106	-0,234
231,640	102,830	-0,173	-0,141
232,655	169,285	-0,171	-0,169
233,669	86,884	-0,189	-0,145
234,684	142,513	-0,191	-0,176
235,699	45,921	-0,239	-0,153
236,713	-93,758	-0,151	-0,029
237,728	88,561	-0,147	-0,113
238,742	30,401	-0,191	-0,113
239,757	-106,391	-0,182	0,028
240,772	-158,360	-0,253	0,010
241,786	341,430	-0,188	-0,256
242,801	48,704	-0,306	-0,198
243,815	107,193	-0,160	-0,132
244,830	490,288	-0,113	-0,180
245,844	25,303	-0,135	-0,077
246,859	136,393	-0,132	-0,119
247,874	308,291	-0,203	-0,263
248,888	483,512	-0,128	-0,203
249,903	800,000	-0,038	-0,074
250,917	800,000	-0,053	-0,114
251,932	-118,462	-0,189	0,023
252,947	-46,698	-0,292	-0,098
253,961	573,919	-0,184	-0,311
254,976	3,141	-0,322	-0,162
255,990	112,102	-0,201	-0,168
257,005	261,000	-0,181	-0,218
258,020	-44,363	0,097	-0,034
259,034	90,636	-0,197	-0,152
260,049	-53,168	-0,171	-0,054
261,063	-10,036	-0,201	-0,092
262,078	70,396	-0,199	-0,142
263,093	800,000	-0,072	-0,162
264,107	-30,655	-0,214	-0,083
265,122	318,451	-0,109	-0,143
266,136	-36,676	-0,144	-0,053
267,151	88,026	-0,099	-0,076
268,166	542,498	-0,068	-0,112
269,180	-134,166	-0,148	-0,012
270,195	13,566	-0,220	-0,118
271,209	27,884	-0,085	-0,049
272,224	-139,817	-0,152	0,011
273,239	443,336	-0,107	-0,163
274,253	113,520	-0,118	-0,099
275,268	150,234	-0,137	-0,129
276,282	193,847	-0,149	-0,156
277,297	272,072	-0,129	-0,157
278,312	800,000	-0,127	-0,263
279,326	-13,001	-0,143	-0,064
280,341	-200,000	-0,050	-0,176
281,355	-99,375	-0,178	-0,031
282,370	103,663	-0,082	-0,067
283,384	-114,697	-0,239	-0,031
284,399	21,317	-0,181	-0,101
285,414	800,000	-0,105	-0,228
286,428	-84,740	-0,143	-0,031
287,443	-76,734	-0,141	0,034
288,457	38,632	-0,177	-0,109
289,472	-155,156	-0,072	-0,003
290,487	-71,294	-0,216	-0,055
291,501	-32,201	-0,243	-0,093
292,516	-69,289	-0,083	-0,022
293,530	62,998	-0,107	-0,074
294,545	188,592	-0,087	-0,090
295,560	-110,122	-0,189	-0,027
296,574	-65,571	-0,101	-0,028
297,589	35,268	-0,235	-0,142
298,603	127,866	-0,185	-0,162
299,618	128,760	-0,179	-0,157
300,633	-35,998	-0,257	-0,095
301,647	-178,738	-0,201	0,003
302,662	-73,226	-0,246	0,062
303,676	-200,000	-0,032	-0,195
304,691	54,708	-0,245	-0,162
305,706	800,000	-0,117	-0,257
306,720	1,424	-0,160	-0,079
307,735	5,568	-0,194	-0,098
308,749	800,000	-0,104	-0,216
309,764	-200,000	0,010	-0,112
310,779	-6,291	-0,143	-0,067
311,793	-80,516	-0,186	-0,042
312,808	579,877	-0,042	-0,071
313,822	-67,201	-0,132	-0,036
314,837	521,188	-0,149	-0,242
315,852	4,582	-0,063	-0,032
316,866	13,760	-0,223	0,119
317,881	108,027	-0,125	-0,103
318,895	-49,195	-0,166	-0,054
319,910	455,449	-0,102	-0,157
320,925	278,615	-0,108	-0,133
321,939	70,989	-0,141	-0,101
322,954	76,267	-0,188	-0,137
323,968	-34,705	-0,045	-0,017
324,983	-200,000	0,005	-0,036
325,997	15,589	-0,157	-0,085
327,012	243,641	-0,188	-0,217
328,027	158,873	-0,143	-0,136
329,041	-23,199	-0,204	-0,084
330,056	517,852	-0,089	-0,144
331,070	-200,000	-0,028	-0,091
332,085	-142,735	-0,271	-0,018
333,100	375,105	-0,060	-0,084
334,114	58,158	-0,117	-0,079
335,129	-121,737	-0,213	0,024
336,143	22,940	-0,085	-0,048
337,158	800,000	-0,120	-0,254
338,173	2,070	-0,178	0,088
339,187	387,011	-0,064	-0,091
340,202	-200,000	-0,045	-0,158
341,216	33,263	-0,141	-0,084
342,231	-15,513	-0,121	-0,053
343,246	-200,000	0,011	-0,065
344,260	-128,902	-0,170	-0,016
345,275	30,505	-0,201	-0,118
346,289	58,018	-0,073	0,049
347,304	193,257	-0,164	-0,171
348,319	131,117	-0,103	-0,091
349,333	103,899	-0,278	-0,224
350,348	582,803	-0,084	-0,142
351,362	283,505	-0,176	-0,218
352,377	344,338	-0,060	-0,081
353,392	-5,531	-0,115	-0,054
354,406	348,491	-0,101	-0,137
355,421	211,132	1312,494	1417,532
356,435	162,562	1472,950	1418,021
