DTS Sentinel unit serial number:	SN410029Multiplexer serial number:	ORYXHardware model number:	OX2-SRSoftware version number:	ORYX F/W v4,00 Oryx Data Collector v3.7.2.0data status	okinstallation	B3 Nyhavnadifferential loss correction	single-endedforward channel	channel 1reverse channel	N/Adate	2023/12/01time	11:37:30forward acquisition time	300,00reverse acquisition time	0,00gamma	499,1914k internal	0,3213k external	0,3213temperature offset calibration	1,0000default loss term (dB/km)	0,3820temperature slope calibration	1,0000multiplexer offset coefficient	1,0000multiplexer slope coefficient	1,0000fibre end	0,00T internal ref (°C)	8,50T ext. ref 1 (°C)	-5,43T ext. ref 2 (°C)	-5,54length (m)	temperature (°C)	Stokes	anti-Stokes-744,400	800,000	-0,188	-0,383
-743,385	-200,000	0,043	0,372
-742,371	-200,000	-0,030	-0,216
-741,356	111,122	-0,104	0,090
-740,342	197,735	-0,014	-0,016
-739,327	-200,000	0,003	0,358
-738,312	150,203	-0,183	-0,180
-737,298	329,309	-0,084	0,117
-736,283	314,666	-0,113	-0,154
-735,269	-200,000	0,024	0,270
-734,254	31,654	-0,203	-0,126
-733,239	62,707	-0,175	0,126
-732,225	633,314	-0,064	-0,117
-731,210	-2,446	0,067	0,034
-730,196	-27,653	-0,074	-0,031
-729,181	-200,000	0,052	-0,177
-728,167	100,685	-0,104	-0,087
-727,152	-200,000	-0,001	0,046
-726,137	258,120	0,094	-0,117
-725,123	428,365	-0,007	-0,011
-724,108	208,093	-0,188	-0,213
-723,094	143,086	0,079	-0,076
-722,079	800,000	0,054	-0,125
-721,064	-200,000	0,009	0,052
-720,050	-27,568	-0,094	0,039
-719,035	-115,818	-0,065	0,009
-718,021	-200,000	-0,022	-0,078
-717,006	361,417	0,059	-0,085
-715,991	800,000	-0,078	-0,160
-714,977	32,402	-0,009	0,005
-713,962	-2,650	-0,076	-0,038
-712,948	-2,551	-0,042	-0,021
-711,933	-118,860	-0,044	-0,006
-710,918	-200,000	0,028	-0,127
-709,904	-21,617	-0,123	-0,054
-708,889	16,510	-0,152	-0,086
-707,875	693,598	0,037	-0,070
-706,860	207,749	-0,041	0,046
-705,845	-43,177	-0,069	-0,025
-704,831	139,909	0,066	0,063
-703,816	-200,000	-0,010	-0,055
-702,802	-10,593	-0,064	-0,030
-701,787	800,000	-0,029	0,058
-700,772	-113,475	-0,044	0,006
-699,758	464,641	-0,040	0,066
-698,743	78,351	0,057	0,044
-697,729	22,563	0,022	-0,013
-696,714	139,903	-0,031	0,030
-695,699	672,430	-0,020	0,038
-694,685	-146,871	-0,104	-0,006
-693,670	800,000	0,068	-0,158
-692,656	383,465	0,035	0,052
-691,641	-200,000	0,008	-0,089
-690,627	417,975	-0,046	-0,071
-689,612	76,894	0,041	-0,031
-688,597	457,845	0,055	0,089
-687,583	-200,000	-0,001	-0,090
-686,568	-94,804	-0,113	-0,022
-685,554	-85,377	0,022	-0,005
-684,539	43,027	-0,128	0,084
-683,524	-124,180	0,133	-0,015
-682,510	237,055	0,097	-0,116
-681,495	682,011	0,064	-0,121
-680,481	-106,742	-0,116	-0,018
-679,466	-200,000	0,020	-0,126
-678,451	800,000	-0,081	-0,240
-677,437	249,449	0,043	-0,053
-676,422	661,925	-0,061	-0,115
-675,408	-35,507	0,247	-0,096
-674,393	134,038	0,029	0,027
-673,378	-54,203	-0,102	-0,033
-672,364	-69,898	-0,171	-0,047
-671,349	463,136	-0,028	-0,046
-670,335	800,000	-0,007	-0,023
-669,320	-200,000	0,029	-0,099
-668,305	-148,737	-0,050	-0,003
-667,291	-200,000	-0,004	-0,113
-666,276	167,914	-0,025	0,026
-665,262	335,944	0,067	-0,095
-664,247	-106,498	-0,085	0,014
-663,232	177,422	0,085	0,090
-662,218	800,000	0,030	-0,080
-661,203	800,000	0,041	-0,104
-660,189	-131,345	-0,103	0,010
-659,174	-147,080	-0,097	0,006
-658,159	113,592	0,014	-0,012
-657,145	771,885	-0,043	-0,085
-656,130	716,619	0,048	-0,092
-655,116	61,220	-0,147	0,105
-654,101	-140,253	-0,113	-0,008
-653,086	-66,352	0,067	-0,019
-652,072	800,000	0,030	-0,084
-651,057	-122,371	-0,062	0,007
-650,043	800,000	-0,052	-0,120
-649,028	-69,924	0,030	-0,008
-648,014	323,255	0,036	0,050
-646,999	-200,000	0,041	0,146
-645,984	800,000	-0,030	-0,073
-644,970	-43,098	-0,089	0,032
-643,955	33,272	0,122	-0,076
-642,941	63,952	-0,028	-0,020
-641,926	-10,159	-0,058	-0,028
-640,911	-200,000	-0,003	-0,118
-639,897	-200,000	-0,021	-0,080
-638,882	633,783	0,026	-0,048
-637,868	202,676	0,076	-0,085
-636,853	-146,898	-0,155	-0,009
-635,838	498,282	-0,030	0,050
-634,824	800,000	0,008	0,023
-633,809	773,232	-0,032	0,063
-632,795	328,927	-0,027	-0,038
-631,780	-113,528	0,150	0,021
-630,765	200,924	-0,119	0,132
-629,751	230,112	-0,061	0,072
-628,736	135,660	0,050	-0,047
-627,722	800,000	-0,033	-0,079
-626,707	34,929	-0,107	-0,067
-625,692	-200,000	-0,001	-0,066
-624,678	-200,000	0,010	0,037
-623,663	-200,000	-0,014	-0,106
-622,649	-162,893	-0,108	0,004
-621,634	65,925	-0,013	0,010
-620,619	521,297	-0,039	-0,066
-619,605	-200,000	0,005	0,081
-618,590	38,109	0,075	-0,048
-617,576	800,000	0,054	0,151
-616,561	18,115	0,077	-0,044
-615,546	17,321	-0,140	-0,080
-614,532	-76,372	-0,187	-0,047
-613,517	0,067	-0,036	-0,018
-612,503	800,000	-0,046	-0,139
-611,488	-200,000	0,001	0,104
-610,474	30,906	-0,021	0,013
-609,459	-200,000	0,015	-0,053
-608,444	800,000	-0,054	-0,115
-607,430	-200,000	0,019	-0,147
-606,415	800,000	-0,035	-0,096
-605,401	800,000	0,032	0,087
-604,386	-114,352	0,041	0,006
-603,371	-200,000	-0,006	0,231
-602,357	218,968	-0,042	-0,048
-601,342	38,606	0,085	-0,055
-600,328	222,188	-0,043	-0,050
-599,313	84,013	-0,064	-0,050
-598,298	-73,803	-0,059	0,015
-597,284	649,717	0,031	0,057
-596,269	-38,473	-0,096	-0,036
-595,255	-53,777	-0,043	0,014
-594,240	-112,734	-0,110	-0,016
-593,225	-200,000	-0,026	0,108
-592,211	800,000	-0,026	-0,057
-591,196	800,000	0,014	-0,042
-590,182	289,578	-0,038	0,050
-589,167	-25,047	0,066	0,028
-588,152	334,882	0,047	0,066
-587,138	-200,000	-0,017	0,080
-586,123	-29,534	-0,199	-0,081
-585,109	137,309	-0,142	-0,133
-584,094	-200,000	0,002	-0,055
-583,079	-200,000	0,002	0,038
-582,065	-86,676	0,137	0,030
-581,050	0,413	-0,047	0,024
-580,036	27,436	-0,047	-0,028
-579,021	-200,000	0,015	-0,282
-578,006	26,781	-0,116	0,070
-576,992	-200,000	-0,009	-0,043
-575,977	124,781	0,038	-0,035
-574,963	531,853	-0,074	0,127
-573,948	118,961	-0,126	0,112
-572,934	800,000	-0,059	-0,134
-571,919	118,717	-0,068	-0,060
-570,904	800,000	-0,020	-0,053
-569,890	-123,931	0,058	0,007
-568,875	14,568	0,175	0,098
-567,861	800,000	-0,018	-0,052
-566,846	-63,679	-0,060	0,018
-565,831	-200,000	-0,012	0,054
-564,817	755,676	-0,076	-0,149
-563,802	486,434	-0,044	-0,073
-562,788	-2,395	-0,145	-0,073
-561,773	-61,129	0,065	0,019
-560,758	103,830	0,022	0,019
-559,744	-200,000	-0,023	0,109
-558,729	746,045	-0,030	0,058
-557,715	42,320	-0,071	0,046
-556,700	98,889	-0,056	-0,047
-555,685	800,000	0,043	0,103
-554,671	18,248	-0,077	0,044
-553,656	800,000	0,064	0,143
-552,642	-200,000	0,016	0,130
-551,627	-146,665	0,098	0,006
-550,612	800,000	0,011	-0,030
-549,598	236,259	-0,118	-0,141
-548,583	800,000	-0,013	0,032
-547,569	-200,000	0,010	-0,073
-546,554	603,973	0,014	-0,025
-545,539	287,452	-0,041	-0,054
-544,525	-163,979	-0,093	0,003
-543,510	758,744	0,037	-0,073
-542,496	-200,000	0,018	-0,113
-541,481	97,635	-0,050	0,041
-540,466	67,679	-0,042	0,031
-539,452	37,361	0,143	0,091
-538,437	278,616	0,053	-0,068
-537,423	583,609	0,032	0,057
-536,408	-200,000	-0,002	0,111
-535,393	-125,051	0,155	-0,017
-534,379	230,936	-0,079	-0,093
-533,364	229,014	0,045	-0,053
-532,350	-74,248	-0,094	0,024
-531,335	-20,202	0,154	0,068
-530,321	84,378	0,065	0,051
-529,306	-180,660	-0,049	0,001
-528,291	706,696	-0,044	-0,084
-527,277	-200,000	0,001	-0,067
-526,262	26,194	0,065	-0,039
-525,248	800,000	-0,015	0,041
-524,233	135,133	-0,098	0,092
-523,218	-200,000	-0,032	0,190
-522,204	-75,188	-0,082	0,021
-521,189	-200,000	-0,000	0,010
-520,175	-157,257	0,059	0,003
-519,160	-200,000	-0,025	-0,084
-518,145	58,030	0,067	-0,047
-517,131	800,000	-0,026	0,081
-516,116	-200,000	0,095	-0,000
-515,102	800,000	0,009	0,025
-514,087	-200,000	-0,007	-0,141
-513,072	292,865	0,056	-0,073
-512,058	-200,000	-0,002	-0,027
-511,043	-200,000	-0,132	0,000
-510,029	-200,000	-0,005	-0,016
-509,014	-200,000	0,007	0,058
-507,999	-200,000	0,020	0,084
-506,985	-200,000	0,007	-0,022
-505,970	800,000	-0,038	-0,103
-504,956	16,875	0,026	-0,015
-503,941	10,044	-0,060	0,033
-502,926	800,000	0,026	0,065
-501,912	100,750	0,171	0,143
-500,897	16,674	0,100	0,057
-499,883	-56,425	-0,061	-0,019
-498,868	-4,354	-0,084	-0,042
-497,853	254,692	-0,050	-0,061
-496,839	385,267	0,059	0,087
-495,824	383,029	-0,025	-0,038
-494,810	52,718	0,114	0,078
-493,795	-63,241	0,061	0,018
-492,781	-24,622	-0,177	-0,075
-491,766	110,876	0,059	-0,051
-490,751	800,000	0,024	0,055
-489,737	-200,000	-0,017	-0,166
-488,722	260,206	0,008	0,010
-487,708	-107,821	0,150	0,023
-486,693	-133,179	-0,036	0,003
-485,678	384,031	-0,050	0,075
-484,664	-200,000	-0,019	-0,098
-483,649	241,638	0,005	-0,006
-482,635	72,134	0,079	0,059
-481,620	-42,305	-0,111	-0,041
-480,605	-72,187	-0,038	0,010
-479,591	-86,372	0,129	-0,028
-478,576	-118,847	-0,027	0,003
-477,562	-200,000	-0,028	-0,123
-476,547	366,133	-0,037	-0,053
-475,532	-200,000	-0,003	-0,084
-474,518	-112,147	0,039	0,006
-473,503	-200,000	0,028	0,151
-472,489	-11,448	0,055	-0,026
-471,474	-200,000	-0,002	-0,021
-470,459	174,805	-0,110	-0,114
-469,445	109,714	0,066	-0,056
-468,430	353,846	0,042	-0,060
-467,416	42,701	-0,060	0,039
-466,401	83,050	-0,111	0,087
-465,386	230,711	-0,087	-0,102
-464,372	-200,000	-0,009	-0,109
-463,357	-105,278	-0,153	-0,025
-462,343	-200,000	-0,012	-0,114
-461,328	-5,216	-0,090	-0,044
-460,313	-200,000	0,009	0,126
-459,299	-200,000	0,029	0,107
-458,284	774,889	-0,052	0,102
-457,270	-200,000	0,017	0,111
-456,255	-200,000	-0,012	0,096
-455,241	800,000	-0,043	0,092
-454,226	60,510	-0,070	-0,049
-453,211	-43,154	-0,103	-0,037
-452,197	-200,000	0,001	-0,090
-451,182	-45,183	0,125	-0,044
-450,168	-51,256	-0,032	-0,011
-449,153	-73,831	-0,207	0,053
-448,138	-200,000	-0,001	0,106
-447,124	118,577	0,055	-0,048
-446,109	-118,184	0,102	-0,013
-445,095	800,000	0,043	-0,096
-444,080	800,000	0,026	-0,063
-443,065	800,000	0,028	-0,084
-442,051	-200,000	-0,020	-0,128
-441,036	173,999	0,058	0,060
-440,022	-103,375	-0,095	0,016
-439,007	53,393	-0,103	0,071
-437,992	-65,408	0,120	0,034
-436,978	-113,527	0,124	0,017
-435,963	130,142	0,101	0,093
-434,949	412,131	0,039	-0,059
-433,934	800,000	-0,041	-0,108
-432,919	-200,000	0,015	-0,111
-431,905	20,362	-0,029	-0,016
-430,890	-5,239	0,100	0,049
-429,876	122,511	0,106	0,095
-428,861	102,358	-0,112	0,093
-427,846	150,488	-0,007	-0,007
-426,832	800,000	0,029	0,070
-425,817	-200,000	-0,011	-0,093
-424,803	278,815	0,034	0,043
-423,788	-200,000	0,024	-0,089
-422,773	-14,156	-0,062	-0,028
-421,759	202,989	0,037	0,041
-420,744	-200,000	0,035	-0,187
-419,730	800,000	-0,013	-0,033
-418,715	-52,197	-0,075	-0,025
-417,701	-129,194	0,009	-0,001
-416,686	-4,372	0,115	-0,057
-415,671	-110,363	0,030	-0,004
-414,657	800,000	-0,058	0,142
-413,642	226,438	0,046	-0,054
-412,628	19,077	-0,088	-0,050
-411,613	312,006	0,073	-0,098
-410,598	347,283	-0,036	0,051
-409,584	182,509	0,060	0,063
-408,569	671,240	0,066	0,122
-407,555	-131,444	0,018	-0,002
-406,540	145,919	0,108	-0,103
-405,525	-47,701	-0,083	0,028
-404,511	150,484	-0,032	0,031
-403,496	93,367	0,020	0,016
-402,482	-135,833	0,043	0,004
-401,467	-128,817	-0,046	-0,005
-400,452	430,580	0,039	-0,061
-399,438	800,000	0,033	-0,079
-398,423	5,869	-0,144	0,076
-397,409	133,751	0,009	0,008
-396,394	-85,070	-0,178	0,040
-395,379	-200,000	0,003	-0,070
-394,365	-50,833	0,155	0,052
-393,350	498,792	-0,018	-0,030
-392,336	21,655	-0,088	0,051
-391,321	128,161	0,048	0,044
-390,306	-200,000	0,003	-0,020
-389,292	-200,000	0,008	0,046
-388,277	-114,413	0,070	0,010
-387,263	-162,350	0,253	0,009
-386,248	-200,000	-0,007	0,078
-385,233	800,000	0,045	0,127
-384,219	149,513	0,108	-0,104
-383,204	41,453	-0,091	-0,059
-382,190	15,483	0,098	-0,055
-381,175	-116,589	0,120	-0,016
-380,160	175,958	0,035	-0,037
-379,146	800,000	0,009	0,023
-378,131	105,990	0,107	-0,090
-377,117	125,153	-0,027	0,024
-376,102	-200,000	0,008	0,072
-375,088	-44,578	-0,135	-0,048
-374,073	-200,000	-0,014	-0,050
-373,058	251,646	0,008	-0,010
-372,044	8,473	-0,030	-0,016
-371,029	-200,000	0,032	0,150
-370,015	33,602	0,045	-0,028
-369,000	-169,662	-0,045	-0,001
-367,985	144,027	0,092	0,087
-366,971	-125,363	0,013	0,001
-365,956	209,679	0,144	0,161
-364,942	-200,000	0,051	0,177
-363,927	-45,518	0,061	0,022
-362,912	800,000	-0,042	-0,094
-361,898	-200,000	-0,005	-0,035
-360,883	52,889	0,055	-0,038
-359,869	-98,717	-0,008	0,001
-358,854	-67,007	-0,066	-0,018
-357,839	800,000	0,021	0,054
-356,825	-200,000	0,004	-0,073
-355,810	135,609	0,085	-0,079
-354,796	-23,043	-0,127	-0,054
-353,781	7,421	0,050	-0,026
-352,766	800,000	0,050	0,141
-351,752	800,000	0,054	0,109
-350,737	3,428	-0,053	0,027
-349,723	53,397	-0,138	0,095
-348,708	30,014	0,086	0,052
-347,693	-70,721	0,084	-0,023
-346,679	114,989	-0,051	0,044
-345,664	232,729	0,075	-0,088
-344,650	1,785	-0,024	-0,012
-343,635	325,669	-0,082	0,112
-342,620	-75,988	0,035	0,009
-341,606	50,833	-0,030	0,020
-340,591	-59,341	0,098	0,030
-339,577	279,490	0,037	-0,048
-338,562	-115,913	0,030	0,004
-337,548	800,000	-0,031	0,073
-336,533	-92,689	0,159	-0,031
-335,518	1,105	0,087	0,044
-334,504	-87,958	-0,133	-0,028
-333,489	300,753	-0,085	0,111
-332,475	800,000	-0,023	-0,053
-331,460	-183,427	-0,204	-0,002
-330,445	800,000	-0,043	0,088
-329,431	-200,000	0,041	0,159
-328,416	-148,705	0,060	-0,003
-327,402	-16,338	0,071	-0,032
-326,387	49,970	-0,075	-0,050
-325,372	-200,000	0,045	-0,159
-324,358	-200,000	-0,011	-0,039
-323,343	-200,000	-0,033	-0,144
-322,329	382,159	0,056	-0,082
-321,314	-94,537	0,061	-0,012
-320,299	-25,938	0,078	-0,033
-319,285	800,000	-0,028	-0,074
-318,270	800,000	-0,036	-0,078
-317,256	-200,000	-0,004	0,043
-316,241	-96,807	-0,086	-0,016
-315,226	261,287	-0,021	-0,026
-314,212	354,017	0,062	-0,088
-313,197	-146,155	0,049	-0,003
-312,183	-124,381	0,156	-0,017
-311,168	11,487	-0,127	0,069
-310,153	-14,817	-0,062	-0,028
-309,139	268,940	0,071	-0,089
-308,124	-109,911	-0,030	0,004
-307,110	217,850	0,098	0,111
-306,095	800,000	-0,025	0,069
-305,080	33,233	0,088	0,054
-304,066	87,544	0,077	0,061
-303,051	600,592	-0,067	-0,119
-302,037	-94,477	-0,086	0,017
-301,022	-155,432	0,129	0,006
-300,008	-98,957	0,061	0,011
-298,993	800,000	-0,025	0,070
-297,978	-200,000	0,012	0,143
-296,964	29,167	-0,044	-0,027
-295,949	0,343	-0,129	0,065
-294,935	-200,000	-0,012	0,161
-293,920	-200,000	0,011	0,083
-292,905	50,685	0,053	0,035
-291,891	142,314	-0,090	-0,085
-290,876	75,568	0,079	0,059
-289,862	-172,628	-0,116	0,003
-288,847	-9,101	-0,072	-0,034
-287,832	-200,000	0,001	-0,140
-286,818	355,371	-0,073	-0,104
-285,803	99,806	0,087	0,072
-284,789	36,372	0,030	0,019
-283,774	-193,150	0,096	-0,001
-282,759	52,080	-0,060	-0,040
-281,745	469,240	-0,010	0,015
-280,730	-53,324	-0,120	-0,039
-279,716	-44,006	0,081	0,029
-278,701	597,671	-0,054	0,095
-277,686	9,178	0,093	-0,050
-276,672	800,000	0,005	-0,010
-275,657	11,891	-0,019	-0,010
-274,643	-164,781	-0,009	-0,000
-273,628	-73,780	0,137	0,035
-272,613	-41,455	-0,123	0,045
-271,599	60,597	-0,084	0,059
-270,584	742,627	-0,039	0,076
-269,570	-200,000	0,013	0,162
-268,555	322,240	0,094	-0,128
-267,540	-0,021	-0,174	-0,088
-266,526	727,584	0,035	0,067
-265,511	-200,000	-0,003	-0,100
-264,497	800,000	0,046	-0,117
-263,482	-61,692	0,036	0,011
-262,467	-200,000	-0,004	-0,120
-261,453	-81,656	0,164	-0,038
-260,438	482,909	-0,085	0,138
-259,424	38,488	0,157	0,099
-258,409	21,845	0,040	-0,023
-257,395	47,081	0,044	0,029
-256,380	-200,000	-0,003	0,105
-255,365	-32,648	-0,090	0,035
-254,351	434,500	0,019	0,029
-253,336	190,569	-0,100	0,107
-252,322	-16,425	-0,046	0,020
-251,307	-121,246	0,103	0,012
-250,292	-124,930	-0,048	-0,005
-249,278	-1,234	-0,089	-0,045
-248,263	494,936	0,015	-0,024
-247,249	187,060	-0,018	0,019
-246,234	-200,000	0,000	-0,036
-245,219	-20,404	-0,190	-0,083
-244,205	-200,000	0,080	-0,265
-243,190	28,064	-0,051	-0,031
-242,176	-200,000	0,000	0,104
-241,161	237,802	0,058	0,068
-240,146	-200,000	0,033	0,119
-239,132	-200,000	-0,012	0,059
-238,117	612,007	-0,016	-0,028
-237,103	-200,000	-0,000	-0,080
-236,088	-57,527	-0,067	0,021
-235,073	-200,000	-0,010	0,157
-234,059	281,855	0,047	0,060
-233,044	32,482	-0,035	0,021
-232,030	248,509	0,034	0,041
-231,015	-23,935	0,045	0,019
-230,000	19,972	0,131	-0,075
-228,986	-154,463	-0,015	0,001
-227,971	308,165	-0,068	0,090
-226,957	-28,215	0,124	0,051
-225,942	-200,000	0,015	-0,079
-224,927	-200,000	0,009	-0,074
-223,913	-114,527	0,038	-0,005
-222,898	800,000	-0,031	-0,091
-221,884	123,989	-0,075	0,067
-220,869	24,147	0,140	-0,082
-219,855	-104,095	0,075	-0,012
-218,840	-79,391	0,066	0,016
-217,825	247,613	0,010	0,011
-216,811	244,447	-0,025	-0,030
-215,796	-200,000	-0,043	-0,135
-214,782	-200,000	0,019	-0,064
-213,767	90,262	0,080	-0,064
-212,752	800,000	0,033	-0,075
-211,738	360,783	-0,075	0,107
-210,723	63,393	-0,113	0,080
-209,709	9,299	-0,100	0,054
-208,694	-87,967	-0,102	-0,022
-207,679	-200,000	0,013	0,126
-206,665	167,184	-0,042	-0,042
-205,650	800,000	0,019	0,057
-204,636	121,683	0,092	0,081
-203,621	203,211	0,038	0,042
-202,606	-66,700	0,073	-0,020
-201,592	-200,000	-0,007	-0,032
-200,577	-200,000	0,016	0,105
-199,563	800,000	0,019	-0,045
-198,548	-103,462	0,240	-0,040
-197,533	-143,573	0,238	0,016
-196,519	239,173	0,062	0,074
-195,504	73,495	-0,065	0,048
-194,490	-139,686	0,110	-0,008
-193,475	-34,341	-0,082	0,032
-192,460	-142,262	-0,057	0,004
-191,446	196,620	0,026	-0,028
-190,431	131,407	-0,069	-0,063
-189,417	321,786	-0,063	-0,086
-188,402	-165,896	0,052	-0,002
-187,387	-200,000	-0,016	-0,097
-186,373	97,438	-0,113	-0,092
-185,358	-141,090	-0,085	0,006
-184,344	509,893	0,035	0,058
-183,329	-25,698	0,067	0,028
-182,315	800,000	0,016	0,048
-181,300	-200,000	0,028	-0,130
-180,285	-200,000	0,045	-0,145
-179,271	800,000	-0,021	0,047
-178,256	286,334	-0,044	0,056
-177,242	-124,346	0,102	-0,011
-176,227	223,904	0,020	0,023
-175,212	-200,000	-0,006	0,070
-174,198	123,935	-0,105	-0,093
-173,183	127,153	-0,115	0,103
-172,169	-21,848	0,103	0,044
-171,154	499,515	-0,026	-0,042
-170,139	141,289	-0,040	-0,037
-169,125	800,000	0,032	-0,071
-168,110	-200,000	0,002	0,108
-167,096	-200,000	0,003	0,049
-166,081	754,035	0,024	-0,046
-165,066	-60,713	-0,077	0,023
-164,052	414,575	0,094	0,142
-163,037	-200,000	-0,001	0,069
-162,023	-200,000	-0,008	0,081
-161,008	371,657	-0,035	0,051
-159,993	-200,000	0,017	0,075
-158,979	-34,830	-0,051	-0,020
-157,964	800,000	-0,021	0,062
-156,950	-103,015	0,084	-0,014
-155,935	-200,000	0,004	-0,084
-154,920	427,134	0,040	-0,062
-153,906	297,426	-0,044	-0,057
-152,891	386,213	0,055	0,081
-151,877	626,648	-0,025	-0,045
-150,862	7,874	-0,102	-0,054
-149,847	5,978	-0,200	0,104
-148,833	-200,000	0,005	-0,025
-147,818	264,378	-0,051	0,063
-146,804	-200,000	-0,013	0,076
-145,789	800,000	0,025	0,052
-144,775	-123,844	0,081	0,009
-143,760	533,284	-0,054	-0,092
-142,745	303,483	-0,085	-0,112
-141,731	-200,000	-0,004	0,088
-140,716	277,857	-0,045	0,057
-139,702	-200,000	-0,012	0,166
-138,687	-141,665	0,011	0,001
-137,672	398,202	0,056	-0,083
-136,658	-200,000	0,001	-0,189
-135,643	612,717	-0,097	-0,173
-134,629	28,764	0,173	-0,104
-133,614	-122,836	0,193	0,022
-132,599	509,314	0,080	0,131
-131,585	317,074	-0,021	-0,029
-130,570	147,247	0,062	0,059
-129,556	-116,609	-0,142	0,018
-128,541	-95,079	0,095	0,018
-127,526	800,000	0,030	0,082
-126,512	-36,097	0,120	-0,046
-125,497	-42,437	0,103	-0,037
-124,483	-88,906	0,030	0,006
-123,468	-28,061	0,093	0,038
-122,453	-200,000	0,004	-0,046
-121,439	800,000	0,051	-0,128
-120,424	-23,612	0,017	-0,007
-119,410	93,662	-0,076	0,061
-118,395	255,881	0,026	0,031
-117,380	472,522	-0,022	-0,035
-116,366	-158,436	-0,002	0,000
-115,351	-200,000	0,000	-0,124
-114,337	-200,000	0,013	-0,203
-113,322	92,599	0,073	-0,058
-112,307	496,010	-0,069	-0,112
-111,293	53,062	0,133	-0,090
-110,278	-14,426	-0,186	-0,084
-109,264	-19,208	-0,065	-0,028
-108,249	-56,818	0,021	-0,006
-107,234	312,843	-0,125	-0,166
-106,220	-200,000	-0,029	-0,244
-105,205	61,403	-0,076	0,054
-104,191	424,867	0,067	0,102
-103,176	94,767	-0,067	-0,054
-102,162	60,871	0,059	-0,041
-101,147	-136,508	0,039	0,003
-100,132	-24,112	-0,153	-0,064
-99,118	214,662	0,054	-0,061
-98,103	-200,000	0,002	0,065
-97,089	521,633	-0,010	0,017
-96,074	-16,648	0,037	-0,016
-95,059	-200,000	-0,001	0,031
-94,045	83,749	0,052	0,040
-93,030	11,964	-0,082	0,044
-92,016	-102,203	-0,193	-0,032
-91,001	800,000	-0,057	0,121
-89,986	-200,000	0,012	0,062
-88,972	144,294	0,006	0,006
-87,957	800,000	0,014	-0,037
-86,943	528,482	0,035	-0,058
-85,928	314,261	-0,003	-0,004
-84,913	800,000	-0,044	-0,110
-83,899	-200,000	-0,028	-0,129
-82,884	-200,000	0,007	-0,040
-81,870	-6,356	-0,049	-0,023
-80,855	329,902	0,067	-0,091
-79,840	90,755	-0,114	-0,090
-78,826	614,304	0,053	0,095
-77,811	67,757	-0,065	0,047
-76,797	293,787	0,156	-0,202
-75,782	-200,000	0,007	0,090
-74,767	554,319	0,028	0,049
-73,753	-200,000	0,004	-0,085
-72,738	-200,000	-0,003	0,048
-71,724	800,000	-0,051	-0,115
-70,709	-147,717	-0,192	0,011
-69,694	800,000	0,008	0,019
-68,680	-69,640	0,009	-0,002
-67,665	-200,000	-0,016	-0,095
-66,651	398,021	0,043	-0,063
-65,636	-129,035	0,096	-0,009
-64,622	551,025	-0,067	-0,114
-63,607	-200,000	0,010	0,047
-62,592	-200,000	0,003	-0,027
-61,578	373,947	0,054	-0,078
-60,563	-36,849	0,102	-0,038
-59,549	151,521	0,090	0,086
-58,534	66,122	-2,129	-1,522
-57,519	471,263	-1,193	-1,901
-56,505	-200,000	-0,420	-4,661
-55,490	748,268	0,904	1,726
-54,476	800,000	5,195	11,322
-53,461	-200,000	22,351	342,781
-52,446	800,000	758,992	2296,903
-51,432	532,607	1651,612	2767,411
-50,417	68,698	1649,986	1192,612
-49,403	16,179	1525,606	845,914
-48,388	10,357	1450,738	776,369
-47,373	19,234	1443,096	814,654
-46,359	13,798	1431,597	782,413
-45,344	8,691	1427,662	756,016
-44,330	8,641	1425,785	754,759
-43,315	8,599	1423,831	753,492
-42,300	8,594	1422,024	752,483
-41,286	8,633	1421,091	752,146
-40,271	8,603	1419,633	751,203
-39,257	8,588	1418,447	750,473
-38,242	8,572	1417,509	749,874
-37,227	8,570	1416,316	749,204
-36,213	8,619	1414,858	748,631
-35,198	8,620	1413,439	747,856
-34,184	8,641	1412,566	747,461
-33,169	8,515	1411,580	746,318
-32,154	8,587	1410,405	746,005
-31,140	8,569	1409,281	745,297
-30,125	8,622	1408,083	744,885
-29,111	8,630	1406,640	744,126
-28,096	8,577	1405,541	743,267
-27,082	8,503	1404,437	742,310
-26,067	8,486	1403,339	741,621
-25,052	8,563	1402,229	741,362
-24,038	8,580	1401,283	740,915
-23,023	8,505	1400,461	740,100
-22,009	8,486	1399,461	739,453
-20,994	8,478	1398,368	738,810
-19,979	8,508	1397,386	738,401
-18,965	8,491	1396,538	737,846
-17,950	8,483	1395,515	737,238
-16,936	8,466	1394,743	736,724
-15,921	8,397	1393,752	735,848
-14,906	8,451	1392,744	735,539
-13,892	8,509	1391,501	735,122
-12,877	8,457	1391,082	734,631
-11,863	8,455	1390,250	734,153
-10,848	8,449	1389,155	733,517
-9,833	8,400	1388,316	732,821
-8,819	8,406	1387,399	732,331
-7,804	8,358	1386,329	731,520
-6,790	8,343	1385,598	731,032
-5,775	8,368	1384,557	730,574
-4,760	8,365	1383,486	729,963
-3,746	8,404	1382,613	729,654
-2,731	8,396	1381,606	729,057
-1,717	8,413	1380,816	728,687
-0,702	8,379	1379,149	727,625
0,313	12,365	1290,255	698,839
1,327	28,255	681,538	404,749
2,342	43,777	117,448	75,636
3,356	-2,089	16,499	8,139
4,371	-4,684	3,834	1,858
5,386	2,934	1,268	0,646
6,400	800,000	0,272	0,587
7,415	-22,860	-0,219	-0,093
8,429	-51,492	-0,403	-0,132
9,444	83,917	-0,334	-0,256
10,459	104,288	-0,250	-0,207
11,473	80,201	-0,282	-0,214
12,488	-105,146	-0,282	-0,045
13,502	-131,554	-0,361	-0,033
14,517	-15,206	-0,286	-0,128
15,531	143,016	-0,289	-0,271
16,546	-146,721	-0,338	-0,020
17,561	23,234	-0,312	-0,180
18,575	-7,496	-0,187	-0,089
19,590	57,537	-0,247	-0,170
20,604	-24,237	-0,222	-0,093
21,619	-28,852	-0,503	-0,202
22,634	161,032	-0,446	-0,439
23,648	101,330	-0,503	-0,412
24,663	256,458	-0,307	-0,371
25,677	-34,075	-0,300	-0,116
26,692	77,853	-0,259	-0,194
27,707	90,204	-0,358	-0,281
28,721	11,601	-0,317	-0,171
29,736	73,753	-0,374	-0,275
30,750	96,169	-0,401	-0,322
31,765	46,310	-0,433	-0,282
32,780	96,136	-0,370	-0,297
33,794	111,596	-0,324	-0,274
34,809	155,438	-0,404	-0,391
35,823	120,193	-0,360	-0,313
36,838	28,222	-0,462	-0,274
37,853	119,162	-0,425	-0,369
38,867	272,333	-0,364	-0,453
39,882	157,455	-0,304	-0,296
40,896	142,049	-0,299	-0,278
41,911	6,031	-0,361	-0,187
42,926	124,930	-0,333	-0,294
43,940	183,076	-0,264	-0,274
44,955	-63,653	-0,458	-0,131
45,969	36,780	-0,330	-0,205
46,984	449,013	-0,194	-0,301
47,999	31,806	-0,241	-0,145
49,013	-15,721	-0,358	-0,160
50,028	-48,529	-0,331	-0,111
51,042	559,615	-0,209	-0,355
52,057	26,000	-0,359	-0,210
53,071	-38,215	-0,333	-0,123
54,086	1,752	-0,301	-0,152
55,101	41,176	-0,262	-0,166
56,115	29,196	-0,366	-0,217
57,130	282,418	-0,156	-0,197
58,144	55,957	-0,336	-0,228
59,159	31,648	-0,296	-0,178
60,174	-2,852	-0,430	-0,210
61,188	72,727	-0,318	-0,232
62,203	95,287	-0,347	-0,277
63,217	231,130	-0,231	-0,265
64,232	189,130	-0,192	-0,202
65,247	4,592	-0,236	-0,121
66,261	-0,164	-0,365	-0,181
67,276	49,947	-0,293	-0,194
68,290	55,945	-0,379	-0,257
69,305	83,537	-0,205	-0,157
70,320	73,045	-0,152	-0,111
71,334	-45,749	-0,397	-0,137
72,349	-21,336	-0,386	-0,165
73,363	26,428	-0,329	-0,192
74,378	23,222	-0,312	-0,179
75,393	65,926	-0,343	-0,243
76,407	-29,830	-0,431	-0,171
77,422	55,013	-0,220	-0,148
78,436	251,291	-0,268	-0,320
79,451	118,103	-0,306	-0,264
80,466	6,097	-0,371	-0,192
81,480	-2,003	-0,426	-0,209
82,495	-156,386	-0,242	0,010
83,509	221,134	-0,240	-0,270
84,524	-31,733	-0,224	-0,087
85,539	-176,444	-0,216	-0,004
86,553	104,796	-0,353	-0,291
87,568	240,927	-0,176	-0,205
88,582	69,886	-0,303	-0,218
89,597	90,434	-0,278	-0,218
90,611	-54,998	-0,336	-0,105
91,626	81,895	-0,241	-0,183
92,641	155,164	-0,171	-0,165
93,655	-26,995	-0,298	-0,121
94,670	48,993	-0,294	-0,193
95,684	330,690	-0,209	-0,282
96,699	42,666	-0,293	-0,186
97,714	-121,533	-0,261	-0,030
98,728	61,068	-0,229	-0,159
99,743	67,984	-0,224	-0,160
100,757	-6,560	-0,206	-0,098
101,772	-9,842	-0,362	-0,168
102,787	310,255	-0,253	-0,332
103,801	48,878	-0,299	-0,196
104,816	-7,536	-0,316	-0,149
105,830	127,530	-0,169	-0,150
106,845	270,442	-0,159	-0,195
107,860	-141,849	-0,222	-0,015
108,874	-18,336	-0,336	-0,146
109,889	-89,788	-0,305	-0,062
110,903	160,573	-0,269	-0,262
111,918	782,567	-0,112	-0,214
112,933	95,823	-0,200	-0,159
113,947	26,416	-0,186	-0,108
114,962	-99,135	-0,312	-0,055
115,976	344,682	-0,193	-0,265
116,991	-8,712	-0,468	-0,218
118,006	336,970	-0,227	-0,309
119,020	29,352	-0,259	-0,153
120,035	27,954	-0,438	-0,257
121,049	49,512	-0,161	-0,106
122,064	104,823	-0,215	-0,177
123,079	-57,601	-0,310	-0,094
124,093	-26,441	-0,280	-0,114
125,108	444,608	-0,204	-0,313
126,122	353,174	-0,224	-0,311
127,137	105,725	-0,258	-0,213
128,151	73,215	-0,225	-0,164
129,166	-81,923	-0,376	-0,085
130,181	196,407	-0,239	-0,254
131,195	-3,548	-0,342	-0,165
132,210	-13,267	-0,339	-0,153
133,224	47,259	-0,365	-0,237
134,239	386,117	-0,117	-0,169
135,254	-67,618	-0,386	-0,105
136,268	270,736	-0,107	-0,131
137,283	-171,844	-0,113	0,003
138,297	230,085	-0,301	-0,343
139,312	4,540	-0,340	-0,173
140,327	-130,235	-0,370	-0,035
141,341	69,730	-0,241	-0,173
142,356	260,542	-0,155	-0,186
143,370	-94,446	-0,277	-0,052
144,385	171,469	-0,222	-0,222
145,400	-51,038	-0,289	-0,094
146,414	-36,399	-0,216	-0,081
147,429	146,999	-0,247	-0,231
148,443	800,000	-0,118	-0,233
149,458	80,613	-0,203	-0,152
150,473	-45,086	-0,257	-0,088
151,487	16,975	-0,233	-0,128
152,502	6,194	-0,295	-0,152
153,516	-90,146	-0,209	-0,042
154,531	106,924	-0,267	-0,220
155,546	-111,413	-0,304	-0,043
156,560	236,073	-0,162	-0,186
157,575	-81,464	-0,115	-0,026
158,589	-33,265	-0,257	-0,098
159,604	110,564	-0,311	-0,260
160,619	-20,968	-0,280	-0,119
161,633	359,452	-0,183	-0,255
162,648	800,000	-0,057	-0,155
163,662	39,070	-0,199	-0,124
164,677	283,969	-0,232	-0,291
165,692	214,445	-0,150	-0,165
166,706	-191,111	-0,316	-0,002
167,721	800,000	-0,118	-0,250
168,735	800,000	-0,124	-0,289
169,750	68,513	-0,218	-0,155
170,764	66,210	-0,243	-0,171
171,779	225,264	-0,023	-0,026
172,794	-43,255	-0,195	-0,068
173,808	52,933	-0,191	-0,126
174,823	-74,994	-0,281	-0,069
175,837	64,424	-0,259	-0,181
176,852	101,364	-0,301	-0,243
177,867	62,665	-0,177	-0,123
178,881	-38,634	-0,272	-0,099
179,896	502,834	-0,193	-0,311
180,910	-141,850	-0,061	-0,004
181,925	-38,506	-0,168	-0,061
182,940	440,675	-0,233	-0,355
183,954	48,810	-0,332	-0,216
184,969	260,201	-0,099	-0,119
185,983	210,126	-0,070	-0,076
186,998	61,133	-0,073	-0,050
188,013	103,422	-0,185	-0,151
189,027	401,850	-0,172	-0,251
190,042	421,453	-0,142	-0,212
191,056	119,329	-0,097	-0,083
192,071	353,273	-0,236	-0,326
193,086	-52,803	-0,257	-0,082
194,100	-5,855	-0,119	-0,056
195,115	595,672	-0,069	-0,119
196,129	800,000	-0,117	-0,230
197,144	75,325	-0,379	-0,277
198,159	105,104	-0,240	-0,196
199,173	1,237	-0,233	-0,116
200,188	272,555	-0,131	-0,160
201,202	-36,128	-0,193	-0,072
202,217	482,516	-0,189	-0,299
203,232	800,000	-0,114	-0,239
204,246	119,702	-0,264	-0,227
205,261	38,368	-0,227	-0,140
206,275	136,737	-0,211	-0,191
207,290	-93,465	-0,283	-0,054
208,304	153,587	-0,115	-0,109
209,319	49,759	-0,227	-0,148
210,334	125,363	-0,215	-0,188
211,348	335,130	-0,203	-0,272
212,363	31,165	-0,306	-0,182
213,377	800,000	-0,098	-0,193
214,392	345,718	-0,141	-0,192
215,407	-8,813	-0,217	-0,100
216,421	36,762	-0,157	-0,096
217,436	-17,447	-0,276	-0,120
218,450	-48,707	-0,267	-0,088
219,465	178,302	-0,179	-0,181
220,480	194,675	-0,196	-0,206
221,494	166,563	-0,213	-0,209
222,509	167,542	-0,119	-0,117
223,523	102,901	-0,198	-0,160
224,538	26,864	-0,189	-0,109
225,553	250,683	-0,229	-0,269
226,567	384,420	-0,129	-0,184
227,582	171,271	-0,179	-0,177
228,596	-182,659	-0,183	-0,002
229,611	-187,851	-0,204	0,002
230,626	-30,561	-0,200	-0,078
231,640	126,488	-0,243	-0,213
232,655	218,769	-0,209	-0,231
233,669	33,076	-0,253	-0,151
234,684	-60,646	-0,204	-0,059
235,699	27,417	-0,144	-0,084
236,713	-65,311	-0,246	-0,068
237,728	211,771	-0,170	-0,186
238,742	166,245	-0,168	-0,164
239,757	108,331	-0,216	-0,178
240,772	-24,311	-0,241	-0,099
241,786	733,370	-0,163	-0,303
242,801	697,326	-0,129	-0,236
243,815	113,908	-0,247	-0,207
244,830	241,023	-0,254	-0,293
245,844	77,224	-0,152	-0,111
246,859	344,072	-0,190	-0,258
247,874	-200,000	-0,081	-0,390
248,888	234,253	-0,210	-0,239
249,903	393,257	-0,183	-0,263
250,917	50,426	-0,226	-0,147
251,932	-200,000	-0,078	-0,243
252,947	-82,365	-0,187	0,042
253,961	449,717	-0,114	-0,174
254,976	98,232	-0,201	-0,160
255,990	325,220	-0,203	-0,268
257,005	143,256	-0,205	-0,188
258,020	-143,611	-0,080	0,005
259,034	-177,112	-0,249	-0,004
260,049	167,693	-0,145	-0,143
261,063	-139,271	-0,112	-0,008
262,078	106,301	-0,205	-0,167
263,093	212,490	-0,167	-0,182
264,107	374,490	-0,131	-0,185
265,122	202,911	-0,182	-0,194
266,136	-200,000	-0,039	-0,164
267,151	-15,217	-0,259	-0,114
268,166	-200,000	-0,094	-0,299
269,180	-112,545	-0,149	-0,020
270,195	-87,436	-0,145	-0,030
271,209	297,242	-0,082	-0,104
272,224	-200,000	-0,044	-0,182
273,239	51,023	-0,189	-0,123
274,253	263,645	-0,162	-0,194
275,268	-128,143	-0,140	-0,014
276,282	231,251	-0,152	-0,172
277,297	-17,966	-0,136	-0,059
278,312	6,651	-0,221	-0,113
279,326	77,663	-0,128	-0,093
280,341	67,508	-0,125	-0,087
281,355	380,792	-0,086	-0,122
282,370	800,000	-0,123	-0,288
283,384	-5,976	-0,139	-0,065
284,399	800,000	-0,108	-0,279
285,414	448,208	-0,098	-0,149
286,428	195,084	-0,100	-0,104
287,443	340,463	-0,158	-0,212
288,457	-200,000	-0,019	-0,138
289,472	-24,937	-0,144	-0,058
290,487	-86,105	-0,240	-0,050
291,501	-64,195	-0,234	-0,065
292,516	523,064	-0,137	-0,223
293,530	67,273	-0,093	-0,065
294,545	-200,000	0,018	-0,087
295,560	-175,251	-0,241	0,004
296,574	-200,000	-0,070	-0,230
297,589	122,751	-0,161	-0,139
298,603	800,000	-0,102	-0,209
299,618	460,449	-0,082	-0,126
300,633	92,374	-0,195	-0,151
301,647	-34,609	-0,176	-0,066
302,662	-6,012	-0,154	-0,072
303,676	-200,000	-0,002	0,026
304,691	61,709	-0,193	-0,132
305,706	144,316	-0,187	-0,171
306,720	-200,000	-0,065	-0,265
307,735	-44,984	-0,188	-0,064
308,749	800,000	-0,045	-0,111
309,764	-12,316	-0,087	-0,039
310,779	-161,422	-0,129	0,004
311,793	144,012	-0,172	-0,157
312,808	22,098	-0,213	-0,119
313,822	800,000	-0,100	-0,291
314,837	252,207	-0,126	-0,148
315,852	38,489	-0,062	-0,038
316,866	-88,655	-0,094	0,019
317,881	-200,000	-0,011	0,046
318,895	-200,000	-0,053	-0,160
319,910	59,520	-0,164	-0,111
320,925	277,455	-0,149	-0,181
321,939	653,897	-0,075	-0,133
322,954	-44,820	-0,138	-0,047
323,968	-200,000	0,026	-0,083
324,983	13,490	-0,034	0,018
325,997	146,486	-0,151	-0,139
327,012	78,820	-0,167	-0,122
328,027	-30,710	-0,090	-0,035
329,041	20,113	-0,294	-0,162
330,056	3,371	-0,148	-0,074
331,070	180,104	-0,116	-0,117
332,085	-195,137	-0,177	0,001
333,100	-75,144	-0,078	0,019
334,114	628,563	-0,103	-0,178
335,129	-124,803	-0,170	0,018
336,143	148,686	-0,188	-0,174
337,158	54,893	-0,121	-0,080
338,173	677,165	-0,038	-0,067
339,187	-200,000	-0,003	-0,046
340,202	350,219	-0,109	-0,148
341,216	356,795	-0,171	-0,234
342,231	76,995	-0,214	-0,155
343,246	283,555	-0,203	-0,250
344,260	-37,510	-0,150	-0,055
345,275	-128,533	-0,132	0,013
346,289	-77,175	-0,070	-0,017
347,304	-200,000	0,021	-0,116
348,319	133,464	-0,194	-0,172
349,333	188,046	-0,159	-0,163
350,348	447,465	-0,051	-0,078
351,362	98,953	-0,124	-0,097
352,377	530,511	-0,076	-0,123
353,392	-0,329	-0,077	-0,037
354,406	800,000	-0,070	-0,184
355,421	208,214	1309,691	1400,370
356,435	160,207	1469,735	1400,821
