DTS Sentinel unit serial number:	SN410029Multiplexer serial number:	ORYXHardware model number:	OX2-SRSoftware version number:	ORYX F/W v4,00 Oryx Data Collector v3.7.2.0data status	okinstallation	B3 Nyhavnadifferential loss correction	single-endedforward channel	channel 1reverse channel	N/Adate	2023/11/30time	16:07:30forward acquisition time	300,00reverse acquisition time	0,00gamma	499,1914k internal	0,3206k external	0,3206temperature offset calibration	1,0000default loss term (dB/km)	0,3820temperature slope calibration	1,0000multiplexer offset coefficient	1,0000multiplexer slope coefficient	1,0000fibre end	0,00T internal ref (°C)	12,73T ext. ref 1 (°C)	-1,73T ext. ref 2 (°C)	-1,75length (m)	temperature (°C)	Stokes	anti-Stokes-744,400	2,887	-0,236	-0,124
-743,385	-200,000	-0,103	0,362
-742,371	-200,000	-0,040	-0,249
-741,356	-200,000	-0,007	0,348
-740,342	-54,298	-0,314	-0,103
-739,327	-200,000	0,029	0,310
-738,312	400,246	-0,127	-0,194
-737,298	800,000	-0,089	0,245
-736,283	188,676	-0,214	-0,233
-735,269	-200,000	-0,017	0,277
-734,254	671,523	-0,133	-0,252
-733,239	118,557	-0,192	0,172
-732,225	-200,000	0,025	-0,229
-731,210	62,483	0,041	0,030
-730,196	-37,812	0,043	-0,016
-729,181	-32,280	-0,146	-0,059
-728,167	36,906	-0,137	0,088
-727,152	137,140	0,028	-0,027
-726,137	72,856	-0,185	-0,140
-725,123	-200,000	-0,019	0,063
-724,108	-106,782	-0,198	-0,032
-723,094	320,449	-0,047	-0,065
-722,079	-40,197	-0,073	0,028
-721,064	90,921	0,028	-0,023
-720,050	322,866	-0,066	-0,091
-719,035	-9,262	-0,138	-0,067
-718,021	50,603	-0,129	0,089
-717,006	126,082	-0,144	-0,132
-715,991	-200,000	-0,022	-0,084
-714,977	-200,000	0,006	-0,087
-713,962	165,208	0,017	0,017
-712,948	800,000	-0,018	0,043
-711,933	-197,295	0,070	0,000
-710,918	148,367	-0,085	-0,084
-709,904	634,767	-0,073	-0,135
-708,889	271,103	-0,052	-0,067
-707,875	510,355	0,032	-0,055
-706,860	-90,860	-0,055	-0,011
-705,845	-69,849	0,112	-0,031
-704,831	-200,000	0,010	0,210
-703,816	8,682	-0,129	-0,071
-702,802	-11,458	-0,141	0,067
-701,787	54,220	-0,103	-0,072
-700,772	800,000	0,007	0,017
-699,758	-200,000	0,014	0,066
-698,743	-131,359	-0,108	-0,010
-697,729	53,170	-0,108	-0,075
-696,714	-39,661	0,120	0,045
-695,699	636,017	-0,034	0,062
-694,685	247,433	-0,020	0,025
-693,670	190,235	-0,059	0,064
-692,656	590,460	-0,028	-0,051
-691,641	-200,000	-0,034	0,000
-690,627	421,144	0,045	0,071
-689,612	-112,190	-0,108	-0,016
-688,597	171,519	-0,058	-0,060
-687,583	79,656	0,142	0,110
-686,568	-200,000	-0,026	0,179
-685,554	-200,000	-0,001	-0,100
-684,539	-177,413	-0,050	0,001
-683,524	-10,902	-0,053	-0,025
-682,510	-200,000	-0,012	0,049
-681,495	65,219	-0,033	0,024
-680,481	30,699	-0,054	0,033
-679,466	-200,000	-0,008	-0,122
-678,451	-200,000	0,014	-0,046
-677,437	83,907	0,033	0,026
-676,422	-200,000	-0,009	-0,030
-675,408	-166,712	-0,111	-0,003
-674,393	360,921	-0,094	-0,137
-673,378	-200,000	0,000	-0,039
-672,364	-60,493	-0,099	0,030
-671,349	-63,878	0,095	0,028
-670,335	-93,645	0,082	0,016
-669,320	800,000	0,065	0,190
-668,305	-91,318	-0,159	0,033
-667,291	110,959	-0,043	0,038
-666,276	155,164	-0,030	-0,030
-665,262	266,637	-0,118	0,149
-664,247	-200,000	-0,006	0,027
-663,232	-92,442	0,053	0,011
-662,218	-112,470	-0,077	-0,011
-661,203	16,585	-0,074	-0,042
-660,189	800,000	0,034	-0,096
-659,174	-117,330	-0,064	-0,008
-658,159	-200,000	-0,035	-0,238
-657,145	785,415	0,050	-0,099
-656,130	800,000	0,015	-0,044
-655,116	86,568	0,057	-0,045
-654,101	-200,000	0,001	-0,052
-653,086	800,000	0,020	0,056
-652,072	-8,782	-0,262	-0,127
-651,057	-200,000	-0,009	0,036
-650,043	-96,253	0,072	0,014
-649,028	559,917	0,053	-0,093
-648,014	351,226	0,062	-0,089
-646,999	22,420	-0,030	0,018
-645,984	-131,312	0,142	0,013
-644,970	800,000	-0,054	-0,149
-643,955	-172,792	-0,098	-0,002
-642,941	-200,000	0,012	-0,105
-641,926	-40,938	0,085	0,032
-640,911	-200,000	-0,030	-0,137
-639,897	38,887	0,091	0,059
-638,882	345,457	0,076	0,109
-637,868	128,685	-0,016	0,015
-636,853	800,000	-0,070	-0,159
-635,838	-45,282	0,021	0,008
-634,824	-108,245	-0,013	-0,002
-633,809	800,000	-0,034	-0,097
-632,795	-91,132	-0,074	0,015
-631,780	127,455	-0,049	0,045
-630,765	-200,000	0,021	-0,091
-629,751	69,035	-0,054	0,040
-628,736	-94,704	-0,155	0,030
-627,722	-200,000	-0,041	-0,143
-626,707	192,855	-0,113	0,123
-625,692	-58,808	0,146	0,045
-624,678	33,441	-0,087	0,054
-623,663	-25,524	-0,147	-0,063
-622,649	-200,000	-0,000	0,025
-621,634	190,001	0,016	-0,017
-620,619	340,557	0,003	-0,005
-619,605	-128,472	-0,049	-0,005
-618,590	284,871	0,042	0,055
-617,576	48,879	-0,035	-0,024
-616,561	13,379	-0,020	0,011
-615,546	30,138	-0,033	-0,020
-614,532	373,605	-0,076	-0,113
-613,517	-66,317	-0,045	0,013
-612,503	-200,000	-0,018	0,121
-611,488	755,337	0,024	0,048
-610,474	-200,000	0,020	0,136
-609,459	25,570	0,020	0,012
-608,444	40,920	-0,077	-0,050
-607,430	-200,000	-0,019	-0,093
-606,415	305,559	-0,060	0,080
-605,401	-200,000	0,006	-0,060
-604,386	-200,000	0,017	-0,073
-603,371	-73,582	0,147	0,038
-602,357	-200,000	0,008	0,114
-601,342	248,781	0,132	-0,162
-600,328	800,000	0,014	-0,029
-599,313	-200,000	-0,021	0,075
-598,298	14,361	0,061	0,034
-597,284	-67,772	0,010	-0,003
-596,269	576,787	0,036	-0,064
-595,255	139,022	0,082	-0,078
-594,240	-96,941	0,110	-0,021
-593,225	61,139	-0,071	-0,051
-592,211	-200,000	-0,014	-0,090
-591,196	300,393	0,009	-0,012
-590,182	559,105	0,056	-0,099
-589,167	-200,000	0,026	0,089
-588,152	800,000	-0,015	0,043
-587,138	294,422	-0,079	-0,105
-586,123	-23,833	0,097	-0,042
-585,109	-175,581	0,040	0,001
-584,094	787,937	0,057	0,114
-583,079	459,189	0,002	0,004
-582,065	-83,689	0,080	-0,018
-581,050	-61,458	-0,097	0,029
-580,036	-200,000	-0,004	-0,066
-579,021	298,169	-0,035	0,046
-578,006	157,145	-0,018	0,018
-576,992	-112,540	0,058	0,008
-575,977	484,923	0,073	0,120
-574,963	800,000	-0,028	0,063
-573,948	-200,000	-0,028	-0,094
-572,934	-200,000	0,003	0,085
-571,919	-134,086	0,103	0,009
-570,904	248,251	-0,076	-0,093
-569,890	800,000	-0,008	0,017
-568,875	-17,179	0,053	0,024
-567,861	-200,000	-0,014	-0,051
-566,846	247,111	0,072	-0,087
-565,831	390,711	0,024	-0,036
-564,817	-96,400	-0,067	-0,013
-563,802	384,561	-0,032	0,048
-562,788	-200,000	-0,017	-0,082
-561,773	-69,632	-0,165	-0,045
-560,758	113,110	0,082	-0,071
-559,744	347,588	0,073	-0,103
-558,729	764,938	-0,067	0,132
-557,715	800,000	0,017	-0,044
-556,700	800,000	-0,029	0,081
-555,685	38,387	0,115	-0,074
-554,671	434,499	0,069	0,109
-553,656	-135,045	-0,134	-0,011
-552,642	800,000	0,021	0,064
-551,627	-62,684	0,028	0,008
-550,612	-200,000	-0,003	-0,105
-549,598	201,629	-0,089	-0,099
-548,583	-200,000	0,011	-0,110
-547,569	119,966	0,083	-0,074
-546,554	-49,841	-0,156	0,053
-545,539	465,400	0,077	0,125
-544,525	-3,330	-0,043	0,021
-543,510	-200,000	0,003	-0,124
-542,496	34,926	-0,033	0,021
-541,481	59,089	-0,048	0,034
-540,466	-200,000	0,033	-0,221
-539,452	114,046	0,182	0,159
-538,437	192,401	0,030	0,033
-537,423	-200,000	0,018	0,062
-536,408	14,953	0,037	-0,021
-535,393	800,000	-0,023	0,068
-534,379	163,543	-0,078	0,079
-533,364	505,166	-0,071	-0,119
-532,350	800,000	0,008	-0,017
-531,335	38,621	0,088	0,057
-530,321	-200,000	0,028	0,098
-529,306	5,592	-0,061	0,033
-528,291	-200,000	-0,002	0,059
-527,277	800,000	0,044	-0,088
-526,262	-186,540	0,108	-0,001
-525,248	-200,000	-0,001	0,044
-524,233	-17,583	0,040	-0,018
-523,218	-200,000	-0,008	0,084
-522,204	78,998	-0,124	0,096
-521,189	18,560	0,042	0,024
-520,175	0,394	-0,165	0,084
-519,160	-60,469	-0,104	0,032
-518,145	-200,000	-0,002	0,086
-517,131	-200,000	0,035	0,146
-516,116	89,275	-0,112	0,089
-515,102	-53,087	-0,076	0,025
-514,087	-45,127	-0,045	-0,016
-513,072	180,352	-0,070	-0,074
-512,058	14,486	-0,025	0,014
-511,043	417,173	0,068	-0,105
-510,029	-200,000	0,002	0,012
-509,014	-43,846	0,067	-0,024
-507,999	-200,000	0,014	0,051
-506,985	62,983	-0,084	0,060
-505,970	52,706	-0,076	-0,052
-504,956	117,696	0,168	-0,149
-503,941	-55,300	-0,133	0,043
-502,926	800,000	0,062	0,171
-501,912	-47,265	-0,209	-0,073
-500,897	196,614	0,033	-0,037
-499,883	-200,000	-0,001	-0,045
-498,868	18,538	-0,121	-0,069
-497,853	496,901	0,048	-0,079
-496,839	-200,000	-0,002	-0,047
-495,824	-103,852	-0,008	-0,001
-494,810	-200,000	0,040	0,139
-493,795	-56,310	-0,060	-0,019
-492,781	-117,341	-0,027	-0,003
-491,766	800,000	-0,042	-0,087
-490,751	60,657	0,013	0,010
-489,737	628,957	-0,022	0,040
-488,722	183,098	-0,077	-0,082
-487,708	-48,138	0,114	0,039
-486,693	-200,000	0,002	0,025
-485,678	800,000	0,043	-0,124
-484,664	304,045	0,043	0,058
-483,649	-200,000	0,001	-0,128
-482,635	192,331	0,019	-0,021
-481,620	-70,886	0,105	0,028
-480,605	66,032	-0,106	0,077
-479,591	800,000	0,041	-0,091
-478,576	230,337	-0,018	0,021
-477,562	346,627	0,044	0,063
-476,547	-2,996	-0,123	-0,062
-475,532	314,189	0,037	0,050
-474,518	164,589	-0,051	0,051
-473,503	12,890	0,110	-0,061
-472,489	-200,000	-0,027	0,249
-471,474	-11,237	-0,114	-0,054
-470,459	793,237	-0,009	-0,018
-469,445	637,504	-0,028	0,051
-468,430	-85,332	0,023	-0,005
-467,416	356,484	-0,073	0,105
-466,401	-200,000	-0,039	0,140
-465,386	460,212	-0,078	0,126
-464,372	206,933	0,044	0,049
-463,357	157,033	-0,050	0,050
-462,343	172,682	0,080	0,083
-461,328	220,906	0,072	-0,083
-460,313	-19,996	0,125	0,055
-459,299	155,131	0,076	0,076
-458,284	767,031	-0,053	0,103
-457,270	-200,000	-0,010	0,037
-456,255	171,270	-0,034	0,035
-455,241	456,624	0,017	-0,026
-454,226	800,000	-0,014	-0,043
-453,211	137,387	0,099	-0,093
-452,197	800,000	0,008	-0,016
-451,182	374,431	-0,056	0,082
-450,168	-180,800	-0,062	-0,001
-449,153	800,000	-0,021	-0,042
-448,138	91,915	0,022	0,018
-447,124	-200,000	-0,007	-0,052
-446,109	-57,934	0,177	-0,055
-445,095	445,780	-0,054	0,085
-444,080	-200,000	0,043	0,145
-443,065	-3,178	0,090	0,045
-442,051	184,630	-0,028	0,030
-441,036	-39,798	0,080	0,030
-440,022	-56,217	-0,147	0,047
-439,007	-92,323	-0,047	-0,009
-437,992	-200,000	0,005	0,119
-436,978	-200,000	-0,014	0,125
-435,963	-200,000	-0,009	0,059
-434,949	292,330	0,095	-0,125
-433,934	-200,000	-0,010	-0,225
-432,919	40,712	0,107	-0,069
-431,905	800,000	0,035	-0,091
-430,890	-200,000	-0,003	0,074
-429,876	-113,860	-0,037	0,005
-428,861	800,000	-0,001	0,003
-427,846	-107,295	0,107	0,017
-426,832	-200,000	0,011	-0,088
-425,817	-200,000	-0,019	-0,067
-424,803	26,969	-0,077	0,046
-423,788	499,791	0,028	-0,046
-422,773	-70,054	0,084	0,023
-421,759	-15,106	0,122	0,056
-420,744	282,780	0,031	-0,040
-419,730	-95,272	-0,098	-0,019
-418,715	19,904	-0,069	-0,040
-417,701	800,000	-0,030	0,064
-416,686	540,448	0,046	-0,078
-415,671	101,951	0,060	0,050
-414,657	-19,538	0,156	0,069
-413,642	-200,000	-0,017	0,121
-412,628	-143,335	-0,034	0,002
-411,613	-200,000	0,036	-0,225
-410,598	800,000	-0,029	-0,073
-409,584	361,389	-0,060	-0,086
-408,569	713,407	0,031	0,059
-407,555	-188,642	0,049	0,000
-406,540	-133,974	0,068	0,006
-405,525	-200,000	-0,040	-0,144
-404,511	-200,000	-0,042	-0,208
-403,496	-200,000	0,002	-0,013
-402,482	800,000	0,032	-0,098
-401,467	-117,268	0,037	-0,005
-400,452	-200,000	-0,013	-0,187
-399,438	-136,961	-0,097	0,008
-398,423	-144,688	0,161	0,010
-397,409	-200,000	-0,003	0,082
-396,394	-40,538	0,096	0,036
-395,379	108,148	-0,015	-0,013
-394,365	5,014	0,126	-0,066
-393,350	-132,531	-0,081	0,007
-392,336	123,571	-0,103	0,093
-391,321	-200,000	0,011	-0,058
-390,306	-200,000	0,018	-0,068
-389,292	120,991	-0,099	-0,088
-388,277	602,009	0,034	-0,060
-387,263	603,663	-0,063	-0,112
-386,248	547,286	-0,104	0,178
-385,233	800,000	0,042	0,083
-384,219	-200,000	-0,017	0,076
-383,204	190,287	-0,053	-0,058
-382,190	84,586	0,021	0,016
-381,175	281,847	0,096	0,123
-380,160	-200,000	-0,001	-0,083
-379,146	348,839	-0,060	0,085
-378,131	-200,000	0,001	0,044
-377,117	-119,589	-0,059	0,007
-376,102	-132,102	-0,129	0,012
-375,088	-17,128	0,039	-0,018
-374,073	196,723	-0,113	-0,124
-373,058	-200,000	-0,005	-0,078
-372,044	166,014	0,038	0,038
-371,029	35,536	-0,108	0,068
-370,015	202,381	0,117	0,129
-369,000	487,523	0,024	-0,039
-367,985	9,551	-0,173	-0,094
-366,971	-200,000	0,011	-0,036
-365,956	320,969	-0,021	0,028
-364,942	-184,553	0,154	-0,002
-363,927	-86,782	0,056	-0,012
-362,912	569,801	-0,075	0,131
-361,898	84,193	0,028	0,022
-360,883	800,000	-0,028	-0,068
-359,869	522,513	0,051	0,086
-358,854	-200,000	0,027	-0,103
-357,839	-200,000	0,013	0,064
-356,825	-200,000	-0,015	0,079
-355,810	800,000	0,022	0,046
-354,796	414,093	0,110	0,168
-353,781	44,507	0,062	-0,041
-352,766	-200,000	0,028	-0,094
-351,752	-200,000	0,002	0,112
-350,737	500,114	-0,037	-0,061
-349,723	51,568	0,124	-0,084
-348,708	-155,013	0,117	-0,005
-347,693	-86,854	0,044	0,010
-346,679	-191,780	-0,128	-0,001
-345,664	-87,394	-0,169	0,036
-344,650	-100,714	0,137	0,024
-343,635	274,662	0,033	0,042
-342,620	800,000	0,019	0,047
-341,606	-123,592	-0,114	0,013
-340,591	-63,514	-0,102	0,030
-339,577	13,750	-0,100	-0,055
-338,562	15,096	-0,160	-0,089
-337,548	1,571	0,084	0,043
-336,533	543,992	-0,032	0,054
-335,518	-200,000	0,003	-0,027
-334,504	800,000	0,044	-0,100
-333,489	-75,929	-0,074	-0,019
-332,475	800,000	-0,019	-0,048
-331,460	76,950	-0,158	-0,120
-330,445	-158,284	0,058	-0,002
-329,431	-9,305	0,052	-0,025
-328,416	-200,000	-0,023	-0,074
-327,402	-61,605	-0,038	0,011
-326,387	4,982	0,147	0,077
-325,372	33,997	-0,104	-0,065
-324,358	159,723	-0,098	-0,098
-323,343	290,825	-0,034	-0,044
-322,329	139,589	-0,048	-0,045
-321,314	-131,790	0,046	-0,004
-320,299	-200,000	-0,002	0,093
-319,285	-48,562	0,087	0,030
-318,270	800,000	0,058	0,120
-317,256	-116,906	0,050	-0,006
-316,241	146,920	-0,100	0,096
-315,226	87,179	0,081	0,064
-314,212	-109,178	0,155	0,023
-313,197	-200,000	-0,008	-0,093
-312,183	136,776	0,066	-0,061
-311,168	-200,000	0,019	-0,103
-310,153	800,000	-0,069	-0,154
-309,139	800,000	0,009	-0,024
-308,124	-40,549	0,161	-0,059
-307,110	335,590	0,059	-0,082
-306,095	568,549	0,056	-0,098
-305,080	-200,000	-0,011	-0,116
-304,066	310,899	-0,078	0,104
-303,051	-118,180	0,038	0,005
-302,037	-200,000	-0,060	-0,222
-301,022	77,156	0,049	-0,037
-300,008	-46,294	0,103	0,036
-298,993	22,337	-0,106	0,062
-297,978	281,608	0,145	0,186
-296,964	-200,000	-0,001	0,071
-295,949	47,808	-0,122	-0,081
-294,935	-58,966	-0,100	0,031
-293,920	504,273	0,064	0,107
-292,905	550,886	-0,038	0,065
-291,891	9,851	0,059	0,032
-290,876	165,249	-0,087	0,088
-289,862	637,451	-0,019	-0,035
-288,847	-114,621	0,089	-0,012
-287,832	800,000	-0,047	-0,134
-286,818	80,908	0,086	-0,066
-285,803	176,395	-0,037	0,038
-284,789	-200,000	-0,021	0,094
-283,774	111,667	0,115	-0,099
-282,759	-103,853	-0,131	0,022
-281,745	800,000	0,023	0,054
-280,730	-79,864	-0,121	0,029
-279,716	-200,000	-0,026	-0,106
-278,701	-122,090	0,086	0,010
-277,686	-69,705	-0,057	0,015
-276,672	-200,000	-0,011	0,167
-275,657	-71,321	0,080	-0,021
-274,643	10,858	-0,053	-0,029
-273,628	350,935	-0,011	-0,016
-272,613	295,369	-0,103	-0,135
-271,599	134,792	-0,085	-0,078
-270,584	-200,000	0,016	0,115
-269,570	-200,000	0,049	0,180
-268,555	800,000	0,035	-0,101
-267,540	-94,404	-0,073	-0,014
-266,526	800,000	-0,030	-0,065
-265,511	-136,082	-0,038	-0,003
-264,497	186,230	-0,158	0,168
-263,482	-163,352	0,051	0,002
-262,467	-200,000	-0,044	0,188
-261,453	17,994	-0,061	0,034
-260,438	260,053	0,029	0,036
-259,424	109,843	-0,169	-0,144
-258,409	267,480	0,060	-0,075
-257,395	62,387	0,050	-0,035
-256,380	-200,000	-0,032	0,145
-255,365	800,000	0,021	0,056
-254,351	-107,018	-0,130	-0,020
-253,336	-156,688	0,105	0,005
-252,322	-65,548	-0,033	0,009
-251,307	-200,000	-0,010	0,112
-250,292	11,099	0,097	0,053
-249,278	-200,000	0,018	0,120
-248,263	32,480	-0,018	0,011
-247,249	-162,840	0,047	0,002
-246,234	800,000	-0,041	0,085
-245,219	-200,000	-0,009	-0,046
-244,205	86,942	0,057	-0,045
-243,190	141,642	-0,044	-0,042
-242,176	-5,208	0,045	0,022
-241,161	-5,490	-0,008	-0,004
-240,146	48,152	0,128	-0,085
-239,132	-143,390	-0,177	-0,012
-238,117	372,982	-0,071	-0,104
-237,103	800,000	-0,031	-0,063
-236,088	24,588	-0,020	0,012
-235,073	-200,000	0,020	-0,083
-234,059	800,000	0,024	0,069
-233,044	217,485	0,097	0,110
-232,030	-9,877	0,092	0,044
-231,015	-56,723	0,020	0,006
-230,000	-29,673	0,051	-0,021
-228,986	-17,548	0,067	-0,030
-227,971	166,601	0,085	-0,086
-226,957	800,000	-0,024	0,064
-225,942	-2,140	0,033	-0,017
-224,927	-20,381	0,141	0,062
-223,913	54,364	-0,056	0,038
-222,898	166,124	-0,023	0,023
-221,884	274,793	-0,033	-0,042
-220,869	342,594	0,069	0,096
-219,855	-108,120	-0,060	-0,009
-218,840	-116,584	0,021	-0,003
-217,825	128,254	0,046	-0,042
-216,811	-156,802	-0,171	-0,007
-215,796	-200,000	0,033	0,121
-214,782	-200,000	-0,030	-0,100
-213,767	0,210	0,149	0,075
-212,752	368,470	-0,029	0,041
-211,738	82,093	0,037	0,028
-210,723	-120,296	0,141	0,017
-209,709	-120,215	-0,031	-0,004
-208,694	-70,799	-0,078	-0,021
-207,679	129,269	-0,049	-0,045
-206,665	-142,799	-0,090	0,006
-205,650	-40,975	-0,127	0,046
-204,636	-200,000	0,025	0,140
-203,621	-200,000	0,009	0,119
-202,606	-200,000	-0,015	0,054
-201,592	264,986	0,054	-0,067
-200,577	-30,053	-0,019	-0,008
-199,563	-200,000	0,008	-0,076
-198,548	-38,378	0,063	-0,023
-197,533	-200,000	0,000	0,026
-196,519	-200,000	0,016	0,091
-195,504	337,340	-0,079	0,109
-194,490	800,000	0,030	-0,063
-193,475	228,081	0,081	0,094
-192,460	800,000	-0,025	-0,068
-191,446	174,667	0,147	0,151
-190,431	-79,491	0,091	0,022
-189,417	623,374	0,014	-0,025
-188,402	7,314	-0,089	-0,047
-187,387	117,791	-0,100	-0,088
-186,373	-200,000	0,050	-0,204
-185,358	-200,000	0,027	-0,137
-184,344	380,956	0,022	-0,033
-183,329	-200,000	0,010	0,060
-182,315	-88,719	0,061	0,013
-181,300	-42,360	0,083	-0,030
-180,285	13,444	-0,117	0,064
-179,271	-120,400	-0,091	0,011
-178,256	800,000	-0,037	-0,087
-177,242	-45,110	0,040	0,014
-176,227	73,665	-0,070	-0,052
-175,212	-97,363	0,062	0,011
-174,198	800,000	-0,033	0,065
-173,183	305,716	-0,058	0,077
-172,169	-14,472	0,026	-0,012
-171,154	204,450	0,113	-0,124
-170,139	157,927	-0,036	-0,035
-169,125	-200,000	0,007	0,042
-168,110	-200,000	0,020	0,095
-167,096	-140,093	-0,109	-0,008
-166,081	-48,463	0,108	0,037
-165,066	800,000	-0,051	-0,106
-164,052	800,000	-0,031	0,094
-163,037	-136,587	0,104	-0,008
-162,023	58,164	0,098	-0,068
-161,008	-200,000	-0,003	-0,061
-159,993	320,705	-0,090	0,121
-158,979	616,119	0,032	0,057
-157,964	-200,000	-0,048	-0,225
-156,950	191,823	-0,147	-0,158
-155,935	-200,000	-0,032	0,106
-154,920	-152,052	0,049	-0,002
-153,906	-59,234	0,058	0,017
-152,891	386,813	0,069	0,101
-151,877	447,217	-0,056	-0,087
-150,862	185,864	-0,035	-0,037
-149,847	-200,000	-0,006	-0,120
-148,833	-137,184	-0,053	-0,004
-147,818	-132,151	0,108	-0,010
-146,804	-120,030	0,155	0,019
-145,789	-83,958	0,104	0,023
-144,775	49,117	-0,174	0,116
-143,760	-200,000	0,000	0,061
-142,745	-200,000	0,008	-0,025
-141,731	-200,000	0,011	0,072
-140,716	27,740	-0,128	0,076
-139,702	800,000	0,026	-0,056
-138,687	137,741	0,055	0,051
-137,672	64,379	-0,030	0,022
-136,658	-200,000	-0,040	-0,189
-135,643	385,380	-0,060	0,088
-134,629	800,000	0,014	-0,034
-133,614	2,297	-0,082	-0,042
-132,599	-101,231	0,080	0,014
-131,585	232,892	0,025	0,029
-130,570	-78,184	0,037	0,009
-129,556	-200,000	-0,046	-0,184
-128,541	-90,875	-0,081	-0,016
-127,526	-200,000	-0,020	-0,087
-126,512	-200,000	-0,032	-0,103
-125,497	46,079	-0,100	0,065
-124,483	800,000	-0,052	-0,104
-123,468	25,222	-0,037	0,022
-122,453	-9,102	-0,053	-0,025
-121,439	286,638	-0,066	-0,085
-120,424	-46,393	-0,192	-0,067
-119,410	200,518	0,081	0,088
-118,395	258,295	-0,051	-0,062
-117,380	95,704	0,102	-0,083
-116,366	-200,000	0,013	0,066
-115,351	-71,057	-0,034	-0,009
-114,337	58,867	-0,101	0,070
-113,322	-7,360	-0,095	0,046
-112,307	-77,354	-0,037	0,009
-111,293	-130,997	0,111	0,010
-110,278	-200,000	-0,007	0,053
-109,264	-200,000	0,047	0,147
-108,249	800,000	0,017	-0,044
-107,234	-200,000	-0,007	-0,083
-106,220	593,297	0,027	-0,048
-105,205	136,985	0,045	0,042
-104,191	481,742	-0,039	0,064
-103,176	-109,874	-0,125	-0,018
-102,162	-200,000	0,023	0,080
-101,147	168,536	0,054	0,055
-100,132	-135,342	-0,155	-0,013
-99,118	246,926	0,155	-0,186
-98,103	-200,000	-0,018	0,084
-97,089	48,792	0,078	-0,051
-96,074	44,174	0,144	0,093
-95,059	800,000	-0,034	-0,098
-94,045	-72,038	-0,073	0,019
-93,030	-124,306	-0,162	-0,018
-92,016	-128,464	0,089	-0,009
-91,001	-27,682	-0,134	0,055
-89,986	-200,000	0,031	0,114
-88,972	800,000	-0,022	0,068
-87,957	39,913	0,037	-0,024
-86,943	-200,000	0,002	0,041
-85,928	-51,254	-0,122	-0,040
-84,913	-15,978	-0,166	0,075
-83,899	800,000	-0,006	0,016
-82,884	-43,966	0,045	-0,016
-81,870	670,041	0,060	0,110
-80,855	800,000	-0,085	0,184
-79,840	-160,981	-0,056	-0,002
-78,826	455,838	-0,119	-0,187
-77,811	-83,395	0,048	0,011
-76,797	-20,590	-0,072	0,031
-75,782	617,655	0,060	0,106
-74,767	445,881	0,038	0,059
-73,753	37,411	-0,092	0,057
-72,738	21,997	0,094	-0,054
-71,724	60,792	0,078	-0,055
-70,709	-36,896	-0,147	0,055
-69,694	52,276	-0,012	0,008
-68,680	-26,624	-0,119	-0,049
-67,665	-97,684	0,181	0,033
-66,651	-200,000	0,036	0,174
-65,636	285,416	-0,020	0,026
-64,622	284,599	-0,105	-0,134
-63,607	-73,905	-0,082	-0,021
-62,592	99,918	-0,096	-0,079
-61,578	-95,349	-0,007	0,001
-60,563	-200,000	0,020	0,109
-59,549	800,000	-0,054	0,140
-58,534	-22,508	-1,915	-0,816
-57,519	478,008	-1,436	-2,306
-56,505	-200,000	-0,325	-4,438
-55,490	342,144	0,848	1,177
-54,476	800,000	5,104	11,351
-53,461	-200,000	19,427	327,101
-52,446	-200,000	741,478	2335,150
-51,432	570,440	1651,615	2852,320
-50,417	77,292	1665,635	1250,856
-49,403	20,677	1539,228	878,445
-48,388	14,597	1461,518	804,655
-47,373	18,427	1451,700	817,636
-46,359	16,738	1441,462	803,778
-45,344	12,866	1436,758	782,667
-44,330	12,759	1435,067	781,203
-43,315	12,781	1433,268	780,297
-42,300	12,781	1431,750	779,438
-41,286	12,789	1430,524	778,781
-40,271	12,768	1428,910	777,768
-39,257	12,763	1427,729	777,075
-38,242	12,767	1426,497	776,391
-37,227	12,819	1425,303	775,954
-36,213	12,827	1423,858	775,178
-35,198	12,761	1422,947	774,335
-34,184	12,832	1421,871	774,058
-33,169	12,808	1420,458	773,142
-32,154	12,856	1419,437	772,784
-31,140	12,818	1418,261	771,934
-30,125	12,879	1417,138	771,579
-29,111	12,874	1415,977	770,893
-28,096	12,828	1414,918	770,071
-27,082	12,740	1414,302	769,292
-26,067	12,784	1412,783	768,638
-25,052	12,758	1411,940	768,028
-24,038	12,765	1410,785	767,401
-23,023	12,731	1409,941	766,756
-22,009	12,738	1408,655	766,057
-20,994	12,685	1408,091	765,474
-19,979	12,708	1407,119	765,019
-18,965	12,743	1405,989	764,539
-17,950	12,671	1405,150	763,718
-16,936	12,737	1404,229	763,494
-15,921	12,716	1403,039	762,718
-14,906	12,654	1402,221	761,954
-13,892	12,700	1401,318	761,646
-12,877	12,710	1400,342	761,133
-11,863	12,708	1399,317	760,538
-10,848	12,623	1398,884	759,877
-9,833	12,615	1397,907	759,279
-8,819	12,570	1397,014	758,557
-7,804	12,596	1396,067	758,130
-6,790	12,574	1395,112	757,480
-5,775	12,544	1394,201	756,817
-4,760	12,558	1393,189	756,302
-3,746	12,543	1392,240	755,686
-2,731	12,541	1391,452	755,222
-1,717	12,568	1390,374	754,733
-0,702	12,523	1388,847	753,665
0,313	16,422	1305,132	726,192
1,327	32,756	699,305	426,582
2,342	50,763	122,171	81,595
3,356	4,298	16,488	8,506
4,371	-0,444	3,332	1,666
5,386	11,796	0,517	0,279
6,400	-200,000	-0,020	0,433
7,415	229,798	-0,171	-0,198
8,429	252,880	-0,221	-0,267
9,444	26,652	-0,337	-0,198
10,459	-75,484	-0,251	-0,063
11,473	107,617	-0,346	-0,291
12,488	-10,483	-0,324	-0,151
13,502	-29,504	-0,353	-0,142
14,517	-47,369	-0,451	-0,154
15,531	112,966	-0,275	-0,235
16,546	16,713	-0,397	-0,221
17,561	-37,327	-0,475	-0,178
18,575	-56,414	-0,336	-0,104
19,590	119,378	-0,221	-0,193
20,604	30,965	-0,166	-0,100
21,619	80,854	-0,390	-0,296
22,634	70,710	-0,448	-0,327
23,648	100,995	-0,305	-0,250
24,663	236,549	-0,315	-0,369
25,677	-2,572	-0,464	-0,228
26,692	277,754	-0,234	-0,294
27,707	52,777	-0,330	-0,222
28,721	21,164	-0,503	-0,287
29,736	194,082	-0,357	-0,382
30,750	118,215	-0,398	-0,346
31,765	113,138	-0,300	-0,257
32,780	77,205	-0,331	-0,248
33,794	43,753	-0,326	-0,210
34,809	77,549	-0,378	-0,283
35,823	277,736	-0,291	-0,366
36,838	-0,272	-0,484	-0,241
37,853	61,330	-0,462	-0,323
38,867	6,836	-0,376	-0,197
39,882	78,834	-0,373	-0,281
40,896	147,700	-0,250	-0,237
41,911	68,644	-0,321	-0,232
42,926	189,090	-0,176	-0,186
43,940	37,228	-0,238	-0,148
44,955	120,336	-0,391	-0,342
45,969	160,423	-0,290	-0,285
46,984	-51,386	-0,422	-0,138
47,999	58,132	-0,248	-0,171
49,013	79,367	-0,347	-0,261
50,028	44,117	-0,356	-0,229
51,042	106,660	-0,329	-0,274
52,057	-22,080	-0,366	-0,156
53,071	93,507	-0,348	-0,277
54,086	-4,095	-0,394	-0,191
55,101	0,353	-0,395	-0,198
56,115	71,502	-0,346	-0,252
57,130	-32,340	-0,325	-0,127
58,144	142,471	-0,332	-0,310
59,159	-4,403	-0,410	-0,198
60,174	86,983	-0,474	-0,368
61,188	78,065	-0,349	-0,262
62,203	-59,836	-0,308	-0,092
63,217	284,484	-0,265	-0,336
64,232	182,055	-0,263	-0,273
65,247	52,595	-0,338	-0,227
66,261	13,333	-0,435	-0,236
67,276	184,824	-0,258	-0,269
68,290	108,401	-0,397	-0,333
69,305	53,931	-0,326	-0,220
70,320	108,142	-0,270	-0,226
71,334	44,634	-0,307	-0,198
72,349	1,670	-0,272	-0,137
73,363	67,061	-0,266	-0,190
74,378	194,785	-0,257	-0,274
75,393	73,424	-0,438	-0,322
76,407	-74,455	-0,340	-0,085
77,422	20,909	-0,326	-0,185
78,436	-165,779	-0,291	-0,009
79,451	17,759	-0,267	-0,148
80,466	-16,565	-0,470	-0,208
81,480	31,673	-0,291	-0,175
82,495	-70,765	-0,380	-0,100
83,509	-162,546	-0,350	0,012
84,524	175,349	-0,185	-0,188
85,539	112,845	-0,282	-0,239
86,553	70,595	-0,204	-0,147
87,568	44,556	-0,295	-0,190
88,582	39,427	-0,323	-0,203
89,597	800,000	-0,116	-0,335
90,611	31,784	-0,291	-0,175
91,626	62,150	-0,308	-0,215
92,641	42,986	-0,319	-0,203
93,655	32,527	-0,352	-0,213
94,670	17,517	-0,309	-0,172
95,684	-6,377	-0,322	-0,153
96,699	8,065	-0,410	-0,215
97,714	210,740	-0,253	-0,279
98,728	-34,824	-0,235	-0,089
99,743	69,084	-0,284	-0,204
100,757	-8,336	-0,242	-0,114
101,772	-19,860	-0,339	-0,146
102,787	153,901	-0,281	-0,270
103,801	193,947	-0,231	-0,245
104,816	1,584	-0,347	-0,174
105,830	140,555	-0,256	-0,236
106,845	123,976	-0,214	-0,188
107,860	99,974	-0,253	-0,205
108,874	-18,168	-0,334	-0,146
109,889	128,157	-0,301	-0,268
110,903	73,629	-0,275	-0,201
111,918	-123,921	-0,209	-0,023
112,933	-136,604	-0,221	0,018
113,947	326,672	-0,192	-0,259
114,962	-100,716	-0,141	-0,024
115,976	336,095	-0,160	-0,218
116,991	-39,351	-0,349	-0,127
118,006	169,862	-0,261	-0,261
119,020	461,207	-0,153	-0,240
120,035	799,098	-0,086	-0,167
121,049	-54,634	-0,252	-0,079
122,064	59,619	-0,233	-0,160
123,079	48,543	-0,346	-0,226
124,093	-126,267	-0,143	-0,015
125,108	-87,825	-0,290	-0,061
126,122	57,807	-0,260	-0,177
127,137	90,578	-0,206	-0,161
128,151	191,309	-0,258	-0,272
129,166	187,619	-0,214	-0,224
130,181	124,941	-0,207	-0,182
131,195	-4,913	-0,183	-0,088
132,210	229,585	-0,249	-0,285
133,224	9,054	-0,320	-0,168
134,239	580,226	-0,195	-0,335
135,254	1,849	-0,178	-0,089
136,268	207,441	-0,211	-0,230
137,283	51,663	-0,260	-0,172
138,297	-46,421	-0,440	-0,150
139,312	-42,517	-0,251	-0,089
140,327	6,981	-0,306	-0,159
141,341	-61,044	-0,332	0,097
142,356	68,661	-0,191	-0,137
143,370	112,783	-0,169	-0,143
144,385	-5,205	-0,237	-0,113
145,400	71,081	-0,319	-0,231
146,414	108,725	-0,344	-0,287
147,429	-82,119	-0,348	-0,078
148,443	227,183	-0,231	-0,263
149,458	-137,957	-0,245	-0,019
150,473	-57,080	-0,288	-0,088
151,487	193,428	-0,133	-0,141
152,502	83,479	-0,184	-0,140
153,516	107,847	-0,204	-0,170
154,531	18,019	-0,319	-0,177
155,546	19,666	-0,163	-0,091
156,560	-7,861	-0,131	-0,062
157,575	-113,117	-0,353	-0,048
158,589	155,589	-0,271	-0,260
159,604	-3,181	-0,176	-0,085
160,619	228,944	-0,252	-0,287
161,633	130,308	-0,151	-0,135
162,648	157,304	-0,149	-0,144
163,662	800,000	-0,098	-0,256
164,677	225,884	-0,170	-0,192
165,692	-69,114	-0,211	-0,056
166,706	-113,756	-0,374	-0,050
167,721	243,809	-0,210	-0,246
168,735	104,861	-0,294	-0,241
169,750	24,033	-0,377	-0,216
170,764	293,476	-0,211	-0,268
171,779	-4,507	-0,196	-0,094
172,794	-8,591	-0,176	-0,082
173,808	206,528	-0,186	-0,201
174,823	251,201	-0,226	-0,268
175,837	108,310	-0,218	-0,181
176,852	84,131	-0,164	-0,124
177,867	273,819	-0,101	-0,124
178,881	108,866	-0,224	-0,186
179,896	8,507	-0,270	-0,141
180,910	-15,332	-0,253	-0,112
181,925	4,009	-0,333	-0,169
182,940	173,916	-0,251	-0,252
183,954	94,501	-0,164	-0,129
184,969	103,821	-0,268	-0,219
185,983	768,780	-0,097	-0,185
186,998	615,323	-0,124	-0,217
188,013	139,821	-0,227	-0,208
189,027	115,802	-0,225	-0,192
190,042	29,046	-0,289	-0,170
191,056	22,281	-0,236	-0,134
192,071	-200,000	-0,042	-0,179
193,086	132,257	-0,253	-0,226
194,100	45,369	-0,223	-0,143
195,115	129,351	-0,168	-0,149
196,129	392,682	-0,111	-0,161
197,144	800,000	-0,101	-0,197
198,159	-70,462	-0,336	-0,088
199,173	-29,684	-0,288	-0,114
200,188	273,894	-0,191	-0,235
201,202	58,636	-0,215	-0,146
202,217	800,000	-0,067	-0,134
203,232	-20,806	-0,242	-0,102
204,246	21,614	-0,317	-0,178
205,261	151,687	-0,181	-0,171
206,275	64,185	-0,193	-0,135
207,290	32,268	-0,118	-0,071
208,304	-42,094	-0,228	-0,080
209,319	94,382	-0,206	-0,162
210,334	155,155	-0,212	-0,203
211,348	108,659	-0,231	-0,191
212,363	416,966	-0,136	-0,202
213,377	-75,131	-0,295	-0,073
214,392	183,741	-0,135	-0,139
215,407	-200,000	-0,081	-0,266
216,421	665,339	-0,132	-0,238
217,436	468,057	-0,079	-0,123
218,450	-30,957	-0,239	-0,093
219,465	160,536	-0,183	-0,177
220,480	395,570	-0,113	-0,163
221,494	116,582	-0,223	-0,189
222,509	169,679	-0,199	-0,197
223,523	58,924	-0,179	-0,122
224,538	82,658	-0,136	-0,102
225,553	337,372	-0,143	-0,194
226,567	-42,632	-0,128	-0,045
227,582	109,119	-0,145	-0,120
228,596	698,582	-0,057	-0,104
229,611	-19,356	-0,154	-0,066
230,626	94,778	-0,116	-0,091
231,640	-30,441	-0,214	-0,084
232,655	-45,392	-0,213	-0,073
233,669	182,188	-0,173	-0,176
234,684	-35,826	-0,289	-0,108
235,699	-36,823	-0,189	-0,070
236,713	-83,624	-0,142	-0,031
237,728	152,787	-0,109	-0,103
238,742	162,576	-0,199	-0,193
239,757	60,648	-0,156	-0,106
240,772	-120,934	-0,188	-0,022
241,786	-100,523	-0,222	-0,038
242,801	-101,864	-0,143	-0,024
243,815	-130,201	-0,088	0,008
244,830	-49,166	-0,262	-0,086
245,844	5,595	-0,275	-0,140
246,859	-65,335	-0,221	0,061
247,874	251,681	-0,115	-0,136
248,888	34,275	-0,245	-0,148
249,903	152,010	-0,144	-0,136
250,917	97,632	-0,128	-0,102
251,932	8,819	-0,150	-0,078
252,947	800,000	-0,066	-0,132
253,961	-57,734	-0,085	-0,025
254,976	-181,217	-0,169	-0,002
255,990	33,537	-0,182	-0,109
257,005	-200,000	-0,074	-0,247
258,020	233,769	-0,148	-0,169
259,034	-92,346	-0,168	-0,032
260,049	4,881	-0,148	-0,075
261,063	-200,000	0,015	-0,078
262,078	329,819	-0,074	-0,098
263,093	135,610	-0,095	-0,085
264,107	800,000	-0,067	-0,165
265,122	11,148	-0,234	-0,123
266,136	-89,438	-0,167	-0,034
267,151	40,384	-0,227	-0,141
268,166	111,180	-0,150	-0,125
269,180	6,247	-0,174	-0,089
270,195	355,529	-0,084	-0,115
271,209	362,063	-0,140	-0,194
272,224	-79,553	-0,109	0,025
273,239	39,574	-0,086	0,053
274,253	800,000	-0,042	-0,126
275,268	800,000	-0,048	-0,122
276,282	364,649	-0,132	-0,184
277,297	355,646	-0,134	-0,184
278,312	800,000	-0,112	-0,260
279,326	-200,000	-0,030	-0,103
280,341	27,039	-0,204	-0,118
281,355	25,372	-0,219	-0,125
282,370	794,856	-0,112	-0,213
283,384	440,860	-0,101	-0,153
284,399	80,778	-0,186	-0,138
285,414	200,078	-0,199	-0,211
286,428	-68,523	-0,159	0,042
287,443	-121,681	-0,123	0,014
288,457	-36,846	-0,208	-0,076
289,472	326,321	-0,082	-0,108
290,487	800,000	-0,110	-0,303
291,501	243,068	-0,124	-0,143
292,516	-200,000	-0,057	-0,256
293,530	120,145	-0,086	-0,074
294,545	107,142	-0,185	-0,152
295,560	52,478	-0,153	-0,100
296,574	-200,000	0,025	-0,199
297,589	164,950	-0,085	-0,082
298,603	99,009	-0,207	-0,165
299,618	440,640	-0,065	-0,098
300,633	417,211	-0,178	-0,263
301,647	-3,613	-0,140	-0,067
302,662	-35,786	-0,183	-0,068
303,676	245,888	-0,087	-0,101
304,691	122,914	-0,254	-0,219
305,706	800,000	-0,101	-0,229
306,720	-200,000	-0,013	-0,084
307,735	-90,092	-0,073	-0,015
308,749	741,153	-0,138	-0,256
309,764	257,868	-0,045	-0,054
310,779	174,390	-0,176	-0,175
311,793	138,693	-0,145	-0,131
312,808	26,660	-0,183	-0,105
313,822	267,213	-0,104	-0,125
314,837	800,000	-0,035	-0,095
315,852	-200,000	-0,013	-0,104
316,866	-125,053	-0,122	-0,013
317,881	8,927	-0,062	-0,032
318,895	-157,565	-0,112	0,005
319,910	-111,955	-0,330	-0,045
320,925	-43,607	-0,211	-0,073
321,939	-119,976	-0,157	-0,018
322,954	-112,340	-0,118	-0,016
323,968	115,284	-0,175	-0,146
324,983	-38,535	-0,229	-0,083
325,997	45,095	-0,181	0,115
327,012	800,000	-0,086	-0,178
328,027	-7,814	-0,231	-0,107
329,041	800,000	-0,149	-0,295
330,056	108,052	-0,172	-0,140
331,070	281,078	-0,111	-0,137
332,085	-48,284	-0,065	0,021
333,100	779,301	-0,094	-0,177
334,114	237,450	-0,067	-0,077
335,129	-3,861	-0,108	-0,051
336,143	-162,979	-0,179	-0,006
337,158	-6,006	-0,198	-0,092
338,173	-200,000	0,032	-0,200
339,187	-55,793	-0,125	-0,038
340,202	-200,000	-0,022	-0,124
341,216	310,995	-0,044	-0,057
342,231	-200,000	-0,023	-0,082
343,246	122,759	-0,153	-0,131
344,260	-99,011	-0,077	0,013
345,275	-48,768	-0,038	-0,012
346,289	148,403	-0,083	0,077
347,304	-95,095	-0,101	0,019
348,319	-200,000	-0,017	-0,200
349,333	215,120	-0,141	-0,153
350,348	-200,000	-0,017	-0,154
351,362	139,254	-0,141	-0,127
352,377	-200,000	-0,030	-0,117
353,392	239,050	-0,155	-0,177
354,406	326,050	-0,116	-0,153
355,421	205,583	1313,165	1399,510
356,435	158,075	1473,695	1400,020
