DTS Sentinel unit serial number:	SN410029Multiplexer serial number:	ORYXHardware model number:	OX2-SRSoftware version number:	ORYX F/W v4,00 Oryx Data Collector v3.7.2.0data status	okinstallation	B3 Nyhavnadifferential loss correction	single-endedforward channel	channel 1reverse channel	N/Adate	2023/12/05time	02:57:30forward acquisition time	300,00reverse acquisition time	0,00gamma	499,1914k internal	0,3201k external	0,3201temperature offset calibration	1,0000default loss term (dB/km)	0,3820temperature slope calibration	1,0000multiplexer offset coefficient	1,0000multiplexer slope coefficient	1,0000fibre end	0,00T internal ref (°C)	14,04T ext. ref 1 (°C)	-0,68T ext. ref 2 (°C)	-0,69length (m)	temperature (°C)	Stokes	anti-Stokes-744,400	225,046	-0,169	-0,200
-743,385	-200,000	-0,063	0,300
-742,371	171,257	-0,128	-0,134
-741,356	-200,000	0,000	0,300
-740,342	55,995	-0,238	-0,167
-739,327	-200,000	0,057	0,309
-738,312	118,317	-0,323	-0,290
-737,298	800,000	-0,075	0,186
-736,283	407,683	-0,254	-0,391
-735,269	210,103	0,147	0,168
-734,254	230,043	-0,162	-0,193
-733,239	-23,713	-0,155	0,067
-732,225	240,769	-0,097	-0,118
-731,210	800,000	0,041	0,083
-730,196	222,112	-0,029	0,034
-729,181	800,000	0,027	-0,073
-728,167	-51,949	-0,081	-0,027
-727,152	-127,311	-0,085	-0,009
-726,137	-200,000	-0,012	0,044
-725,123	800,000	-0,040	0,106
-724,108	-200,000	-0,056	-0,206
-723,094	-200,000	-0,002	-0,106
-722,079	49,028	-0,094	-0,064
-721,064	-28,838	-0,047	0,020
-720,050	-36,034	0,072	0,028
-719,035	800,000	-0,067	0,158
-718,021	800,000	-0,017	-0,043
-717,006	-152,782	-0,135	-0,007
-715,991	-200,000	-0,024	-0,085
-714,977	374,962	0,090	-0,134
-713,962	-25,890	0,083	0,035
-712,948	48,506	0,105	0,072
-711,933	326,673	-0,065	0,091
-710,918	310,431	0,113	0,153
-709,904	10,965	-0,086	-0,047
-708,889	-105,335	-0,145	0,024
-707,875	16,623	-0,072	-0,041
-706,860	352,383	0,051	-0,074
-705,845	43,526	0,101	-0,067
-704,831	133,431	-0,193	0,181
-703,816	-89,118	-0,139	0,030
-702,802	-200,000	-0,001	-0,073
-701,787	691,498	-0,049	-0,093
-700,772	50,171	-0,060	-0,041
-699,758	-130,437	-0,108	0,010
-698,743	608,261	-0,050	-0,090
-697,729	-57,040	-0,072	0,023
-696,714	-200,000	-0,001	-0,027
-695,699	-137,063	-0,048	-0,004
-694,685	-75,053	-0,166	-0,043
-693,670	69,997	-0,035	-0,026
-692,656	705,883	0,016	0,030
-691,641	-13,260	-0,105	-0,049
-690,627	-200,000	-0,031	0,123
-689,612	-87,631	0,018	-0,004
-688,597	-59,846	-0,042	-0,013
-687,583	-22,167	0,036	0,016
-686,568	-7,246	0,126	-0,062
-685,554	800,000	-0,038	-0,106
-684,539	133,465	-0,094	-0,089
-683,524	341,203	-0,028	-0,040
-682,510	404,111	0,057	0,088
-681,495	59,967	0,056	0,040
-680,481	-130,131	-0,033	0,003
-679,466	735,639	-0,067	-0,130
-678,451	-200,000	-0,018	-0,132
-677,437	-200,000	0,011	0,065
-676,422	-65,785	-0,088	-0,025
-675,408	543,664	0,024	0,041
-674,393	-101,941	-0,120	-0,021
-673,378	-200,000	-0,030	-0,152
-672,364	95,405	-0,118	-0,098
-671,349	800,000	-0,023	0,053
-670,335	256,872	0,041	-0,051
-669,320	76,333	0,106	0,081
-668,305	-21,793	-0,174	0,076
-667,291	-54,618	0,133	0,043
-666,276	109,055	0,068	-0,059
-665,262	800,000	-0,032	-0,073
-664,247	-95,665	-0,078	-0,015
-663,232	511,491	-0,020	0,035
-662,218	-32,507	0,014	-0,006
-661,203	-76,503	0,105	0,027
-660,189	-200,000	-0,005	-0,026
-659,174	382,638	-0,051	-0,076
-658,159	370,732	-0,053	-0,079
-657,145	800,000	0,035	0,076
-656,130	-120,501	-0,087	-0,011
-655,116	-145,543	0,123	0,008
-654,101	-86,288	-0,186	-0,041
-653,086	-200,000	-0,013	-0,097
-652,072	29,618	-0,029	0,018
-651,057	800,000	0,046	-0,112
-650,043	-6,357	-0,017	-0,009
-649,028	16,934	-0,092	0,052
-648,014	323,942	-0,012	-0,016
-646,999	108,944	0,103	0,089
-645,984	261,500	0,038	-0,048
-644,970	-52,437	-0,102	0,034
-643,955	255,761	-0,052	-0,065
-642,941	798,143	0,027	-0,054
-641,926	89,550	-0,052	-0,042
-640,911	-66,585	0,121	0,034
-639,897	-57,049	-0,137	0,043
-638,882	-200,000	-0,003	0,046
-637,868	342,300	-0,070	0,099
-636,853	143,835	-0,125	-0,121
-635,838	-188,399	-0,129	0,001
-634,824	92,043	-0,101	-0,083
-633,809	767,761	-0,030	0,059
-632,795	189,822	0,072	0,078
-631,780	29,500	-0,050	-0,031
-630,765	800,000	-0,033	-0,098
-629,751	-95,075	-0,132	0,026
-628,736	-138,293	-0,118	-0,009
-627,722	-200,000	0,005	-0,128
-626,707	432,767	0,082	0,130
-625,692	-200,000	0,029	0,102
-624,678	-200,000	-0,016	0,153
-623,663	124,401	-0,056	0,051
-622,649	178,606	-0,124	0,131
-621,634	196,472	0,079	-0,087
-620,619	-142,010	-0,071	0,005
-619,605	-1,205	0,058	0,030
-618,590	-200,000	-0,009	0,055
-617,576	171,614	0,051	0,053
-616,561	20,168	0,037	-0,021
-615,546	99,794	-0,030	-0,025
-614,532	-27,383	-0,140	0,058
-613,517	-20,069	-0,102	0,045
-612,503	-200,000	-0,001	-0,018
-611,488	800,000	-0,044	-0,113
-610,474	-98,392	0,152	0,028
-609,459	207,205	0,064	-0,072
-608,444	24,106	-0,116	-0,069
-607,430	-143,388	-0,070	-0,005
-606,415	-200,000	0,006	0,067
-605,401	787,914	-0,061	0,121
-604,386	16,360	0,057	0,032
-603,371	712,010	0,038	0,074
-602,357	-136,146	-0,124	0,010
-601,342	17,816	-0,030	0,017
-600,328	-200,000	0,077	-0,256
-599,313	61,981	0,014	0,010
-598,298	-57,010	-0,084	-0,027
-597,284	-186,959	0,051	0,000
-596,269	658,108	0,032	0,061
-595,255	-200,000	-0,031	-0,147
-594,240	-46,136	-0,085	-0,030
-593,225	-69,357	0,066	0,018
-592,211	253,864	-0,053	-0,066
-591,196	45,443	-0,103	0,069
-590,182	-17,826	0,112	0,050
-589,167	251,958	0,019	-0,023
-588,152	269,773	0,090	0,114
-587,138	-200,000	-0,025	0,097
-586,123	-61,461	-0,074	-0,022
-585,109	632,636	-0,061	-0,112
-584,094	-200,000	-0,050	-0,173
-583,079	245,377	-0,030	0,037
-582,065	-106,434	-0,048	-0,008
-581,050	-54,501	0,022	0,007
-580,036	800,000	-0,029	0,082
-579,021	-200,000	-0,026	-0,183
-578,006	181,043	-0,116	-0,123
-576,992	-200,000	-0,000	0,053
-575,977	241,654	-0,039	-0,048
-574,963	638,050	0,047	0,087
-573,948	-200,000	0,045	0,158
-572,934	-200,000	0,010	-0,053
-571,919	-200,000	-0,024	-0,087
-570,904	410,187	0,040	0,062
-569,890	57,345	-0,071	0,050
-568,875	-7,413	0,173	0,084
-567,861	800,000	-0,037	0,093
-566,846	-200,000	0,008	0,043
-565,831	-200,000	0,041	0,131
-564,817	-101,976	0,184	0,032
-563,802	94,376	-0,165	-0,135
-562,788	48,927	-0,078	-0,053
-561,773	-131,765	0,162	0,015
-560,758	636,825	0,026	-0,048
-559,744	582,816	-0,033	-0,059
-558,729	150,169	-0,063	0,062
-557,715	800,000	-0,031	-0,091
-556,700	-200,000	-0,045	-0,175
-555,685	42,337	-0,038	0,025
-554,671	-187,636	0,054	0,000
-553,656	-87,193	-0,037	0,008
-552,642	329,983	0,029	0,041
-551,627	59,346	0,069	0,049
-550,612	423,710	-0,103	-0,160
-549,598	800,000	-0,031	0,075
-548,583	-200,000	0,009	-0,086
-547,569	800,000	0,092	-0,221
-546,554	-28,279	0,067	-0,028
-545,539	-113,129	-0,053	-0,007
-544,525	800,000	-0,040	0,080
-543,510	32,536	0,048	-0,030
-542,496	168,919	-0,020	0,020
-541,481	536,334	0,069	-0,118
-540,466	-200,000	0,004	0,033
-539,452	173,897	-0,035	0,037
-538,437	-117,414	0,215	0,028
-537,423	-200,000	0,022	-0,083
-536,408	304,136	-0,020	-0,026
-535,393	-200,000	0,002	-0,026
-534,379	-200,000	0,009	-0,197
-533,364	-200,000	-0,007	0,052
-532,350	-200,000	-0,007	0,036
-531,335	-200,000	0,008	0,043
-530,321	-7,546	0,051	-0,025
-529,306	386,947	0,053	0,078
-528,291	-200,000	-0,003	-0,011
-527,277	33,107	-0,126	-0,079
-526,262	-19,246	0,067	0,030
-525,248	-145,215	0,049	-0,003
-524,233	-165,631	0,076	0,002
-523,218	-176,636	0,193	-0,003
-522,204	374,143	-0,049	0,072
-521,189	-154,973	-0,127	0,006
-520,175	108,661	-0,036	0,031
-519,160	201,803	-0,074	-0,083
-518,145	-65,291	0,101	0,029
-517,131	-112,257	0,027	0,004
-516,116	512,236	-0,020	-0,033
-515,102	254,875	-0,028	-0,034
-514,087	81,640	0,081	-0,063
-513,072	59,311	-0,203	-0,144
-512,058	29,055	0,047	0,029
-511,043	70,600	-0,026	0,020
-510,029	246,896	0,026	0,032
-509,014	9,925	0,070	0,038
-507,999	280,222	0,052	0,067
-506,985	-160,012	-0,099	-0,004
-505,970	800,000	0,055	-0,118
-504,956	-200,000	-0,028	-0,109
-503,941	-200,000	-0,020	0,130
-502,926	-200,000	0,015	-0,066
-501,912	774,212	-0,038	0,074
-500,897	-200,000	-0,004	0,060
-499,883	187,898	0,028	0,030
-498,868	92,758	-0,015	-0,012
-497,853	433,635	-0,076	-0,119
-496,839	144,101	0,117	-0,113
-495,824	-123,440	-0,056	0,006
-494,810	67,204	0,073	0,054
-493,795	-200,000	0,002	0,093
-492,781	800,000	-0,048	0,148
-491,766	-56,135	-0,099	0,032
-490,751	55,383	-0,063	-0,044
-489,737	243,169	-0,069	0,084
-488,722	162,869	0,042	0,042
-487,708	-85,566	-0,088	0,020
-486,693	3,533	0,056	0,030
-485,678	109,026	0,085	-0,073
-484,664	338,727	0,028	-0,039
-483,649	800,000	-0,035	-0,092
-482,635	-148,096	0,092	0,005
-481,620	800,000	-0,066	-0,171
-480,605	278,635	0,063	-0,081
-479,591	192,872	-0,014	-0,015
-478,576	800,000	-0,053	-0,113
-477,562	8,361	0,052	-0,028
-476,547	800,000	-0,068	-0,150
-475,532	124,129	-0,064	-0,058
-474,518	800,000	0,032	0,092
-473,503	-200,000	0,015	0,177
-472,489	11,728	-0,060	-0,033
-471,474	35,097	0,056	0,035
-470,459	-27,287	-0,041	-0,017
-469,445	800,000	-0,050	-0,140
-468,430	438,500	-0,022	0,034
-467,416	800,000	0,044	-0,110
-466,401	-200,000	0,028	0,135
-465,386	88,263	0,092	-0,074
-464,372	154,053	0,063	0,062
-463,357	27,169	-0,183	-0,110
-462,343	800,000	-0,048	-0,098
-461,328	-200,000	0,022	-0,158
-460,313	258,666	0,049	-0,061
-459,299	375,166	0,010	-0,015
-458,284	183,610	0,063	0,067
-457,270	-64,890	-0,081	0,023
-456,255	800,000	0,025	0,067
-455,241	238,149	0,133	-0,159
-454,226	-200,000	-0,010	-0,078
-453,211	-97,148	-0,075	0,014
-452,197	-200,000	-0,016	0,175
-451,182	379,189	0,059	0,087
-450,168	735,124	0,066	0,127
-449,153	-200,000	-0,030	0,140
-448,138	252,179	0,056	-0,069
-447,124	-9,301	0,069	0,033
-446,109	-96,959	-0,105	0,020
-445,095	-200,000	0,005	-0,048
-444,080	41,090	0,142	0,092
-443,065	-108,836	-0,068	-0,010
-442,051	-153,175	0,083	-0,004
-441,036	-200,000	0,035	-0,142
-440,022	230,004	-0,072	0,085
-439,007	-200,000	-0,018	-0,254
-437,992	-44,249	0,062	-0,022
-436,978	-139,497	0,084	0,006
-435,963	800,000	-0,025	-0,060
-434,949	764,690	-0,033	0,064
-433,934	-36,363	0,024	0,009
-432,919	84,507	-0,088	-0,069
-431,905	800,000	0,050	-0,101
-430,890	-56,787	0,110	0,035
-429,876	800,000	-0,022	0,064
-428,861	192,660	-0,088	0,096
-427,846	-93,212	0,054	0,011
-426,832	800,000	-0,023	-0,048
-425,817	32,572	-0,105	-0,065
-424,803	-200,000	0,028	-0,137
-423,788	-200,000	0,030	-0,101
-422,773	215,674	-0,032	-0,037
-421,759	680,409	0,022	0,041
-420,744	155,632	-0,029	-0,029
-419,730	-72,691	-0,155	0,041
-418,715	-120,035	0,077	0,009
-417,701	155,333	0,068	-0,067
-416,686	800,000	-0,041	0,083
-415,671	-169,898	0,110	0,003
-414,657	274,232	0,028	-0,036
-413,642	-87,207	-0,086	-0,019
-412,628	-200,000	0,035	-0,150
-411,613	592,184	-0,020	0,036
-410,598	-35,042	0,149	0,058
-409,584	309,831	-0,057	0,077
-408,569	313,914	-0,028	0,038
-407,555	-200,000	0,005	0,074
-406,540	37,688	-0,051	-0,032
-405,525	-41,819	-0,067	-0,024
-404,511	182,306	-0,083	-0,088
-403,496	-136,148	-0,081	-0,007
-402,482	800,000	-0,044	0,105
-401,467	800,000	0,027	-0,085
-400,452	-89,621	0,068	0,014
-399,438	108,362	0,058	0,050
-398,423	-200,000	-0,007	-0,052
-397,409	-60,716	0,159	-0,048
-396,394	315,481	-0,049	-0,066
-395,379	-122,187	0,031	-0,004
-394,365	-200,000	0,000	-0,078
-393,350	-54,284	0,059	0,019
-392,336	-58,229	-0,059	0,018
-391,321	14,749	0,074	0,041
-390,306	495,597	-0,035	0,058
-389,292	17,905	-0,082	0,047
-388,277	490,724	0,028	-0,045
-387,263	-200,000	0,008	0,073
-386,248	800,000	-0,034	0,077
-385,233	452,966	0,003	0,005
-384,219	266,090	0,074	0,093
-383,204	28,320	0,079	-0,048
-382,190	270,741	-0,083	0,106
-381,175	-152,830	0,079	0,004
-380,160	-200,000	-0,036	0,141
-379,146	-54,887	-0,022	-0,007
-378,131	-140,886	-0,184	0,013
-377,117	-200,000	0,034	-0,110
-376,102	7,510	-0,034	-0,018
-375,088	327,524	-0,047	-0,064
-374,073	710,775	-0,040	-0,076
-373,058	14,888	0,159	-0,089
-372,044	-200,000	0,023	0,098
-371,029	800,000	0,046	0,118
-370,015	-52,906	0,041	0,013
-369,000	-200,000	0,020	-0,123
-367,985	483,020	-0,046	-0,076
-366,971	128,733	-0,073	-0,067
-365,956	800,000	0,041	0,104
-364,942	800,000	-0,018	0,041
-363,927	-200,000	0,001	0,033
-362,912	800,000	-0,027	0,056
-361,898	-45,806	-0,050	-0,018
-360,883	-63,978	-0,138	-0,040
-359,869	87,012	-0,136	0,107
-358,854	-200,000	-0,027	0,191
-357,839	80,676	0,050	0,039
-356,825	-40,611	-0,099	-0,037
-355,810	101,876	-0,122	0,102
-354,796	542,400	-0,055	-0,095
-353,781	68,254	-0,080	0,059
-352,766	424,703	-0,048	-0,074
-351,752	-175,125	0,147	-0,003
-350,737	324,926	0,113	0,155
-349,723	137,521	0,038	0,036
-348,708	144,175	0,034	-0,033
-347,693	-14,399	0,188	0,086
-346,679	20,686	-0,061	-0,035
-345,664	610,945	0,060	-0,108
-344,650	90,871	-0,087	0,070
-343,635	577,518	-0,028	0,049
-342,620	-32,006	0,172	-0,068
-341,606	-200,000	0,007	0,094
-340,591	-200,000	-0,014	0,105
-339,577	108,062	-0,086	0,073
-338,562	152,151	0,045	0,044
-337,548	-200,000	0,005	0,017
-336,533	800,000	-0,005	-0,014
-335,518	-91,211	-0,104	-0,021
-334,504	-200,000	-0,024	0,115
-333,489	800,000	-0,059	0,176
-332,475	-200,000	0,006	-0,070
-331,460	333,183	-0,080	-0,111
-330,445	800,000	-0,017	-0,044
-329,431	143,281	0,085	-0,081
-328,416	24,889	-0,011	-0,007
-327,402	42,152	0,039	0,026
-326,387	66,758	-0,079	-0,057
-325,372	-200,000	-0,017	-0,130
-324,358	273,102	0,022	-0,028
-323,343	-200,000	-0,011	-0,103
-322,329	138,959	-0,079	-0,074
-321,314	-200,000	-0,005	0,023
-320,299	505,164	0,047	0,079
-319,285	-200,000	0,007	-0,148
-318,270	-51,251	0,086	0,029
-317,256	-178,166	0,089	0,001
-316,241	93,154	0,029	-0,024
-315,226	-200,000	0,020	-0,101
-314,212	58,361	0,054	0,038
-313,197	55,334	0,145	0,100
-312,183	617,240	0,017	0,030
-311,168	-200,000	-0,001	-0,048
-310,153	-200,000	-0,007	-0,056
-309,139	82,563	0,044	-0,034
-308,124	-112,095	0,126	0,018
-307,110	88,456	0,108	-0,085
-306,095	-14,130	-0,050	-0,023
-305,080	-106,053	0,079	0,013
-304,066	-66,629	-0,105	-0,029
-303,051	703,992	0,007	0,013
-302,037	-77,581	0,148	0,036
-301,022	-200,000	0,023	0,100
-300,008	214,821	0,106	-0,120
-298,993	-200,000	0,009	-0,064
-297,978	48,684	0,106	0,071
-296,964	800,000	0,005	-0,012
-295,949	661,642	0,061	-0,113
-294,935	266,147	-0,064	-0,080
-293,920	57,351	-0,047	0,032
-292,905	-200,000	-0,012	0,217
-291,891	-200,000	0,004	0,131
-290,876	63,361	0,060	0,043
-289,862	127,286	0,073	-0,066
-288,847	-35,992	-0,070	0,027
-287,832	-200,000	0,008	-0,234
-286,818	800,000	-0,025	-0,056
-285,803	-55,633	0,089	-0,028
-284,789	69,717	-0,185	0,136
-283,774	800,000	0,053	0,124
-282,759	122,141	-0,102	0,091
-281,745	92,883	0,017	0,014
-280,730	332,180	0,070	-0,097
-279,716	-200,000	-0,015	-0,069
-278,701	-100,547	-0,220	-0,038
-277,686	143,986	0,120	0,114
-276,672	596,483	0,093	0,165
-275,657	4,720	-0,197	0,103
-274,643	-200,000	0,002	0,078
-273,628	87,823	0,037	-0,029
-272,613	-13,126	0,074	-0,034
-271,599	217,313	-0,027	0,031
-270,584	800,000	0,029	0,074
-269,570	-200,000	-0,005	0,100
-268,555	722,000	-0,091	0,173
-267,540	-68,136	0,075	0,021
-266,526	214,357	-0,051	0,058
-265,511	800,000	-0,015	-0,037
-264,497	800,000	0,013	-0,027
-263,482	800,000	-0,046	0,132
-262,467	10,850	0,094	0,051
-261,453	-200,000	-0,026	0,091
-260,438	-73,719	0,054	0,014
-259,424	449,197	0,034	-0,054
-258,409	-200,000	-0,022	-0,138
-257,395	800,000	-0,007	0,013
-256,380	-53,658	-0,129	0,042
-255,365	-200,000	-0,020	0,151
-254,351	-13,802	0,016	-0,007
-253,336	23,241	0,049	0,028
-252,322	-77,318	-0,089	-0,022
-251,307	-200,000	0,007	-0,073
-250,292	-47,346	0,085	0,029
-249,278	-64,097	0,164	-0,048
-248,263	28,014	0,125	-0,075
-247,249	99,876	0,074	-0,061
-246,234	-117,453	0,112	-0,014
-245,219	-200,000	0,001	0,113
-244,205	32,149	-0,040	0,024
-243,190	-14,051	-0,102	-0,047
-242,176	717,053	0,083	-0,157
-241,161	-200,000	0,026	-0,119
-240,146	-68,732	0,081	0,022
-239,132	385,179	-0,040	-0,060
-238,117	51,020	-0,032	0,022
-237,103	1,441	0,069	-0,035
-236,088	-35,591	-0,099	0,038
-235,073	-200,000	-0,006	0,033
-234,059	-200,000	0,008	-0,042
-233,044	800,000	0,049	-0,099
-232,030	-94,714	0,145	0,028
-231,015	800,000	0,029	-0,059
-230,000	61,981	-0,074	0,053
-228,986	456,497	0,063	-0,099
-227,971	-200,000	0,001	0,025
-226,957	773,832	0,057	0,112
-225,942	209,230	0,036	-0,041
-224,927	-154,041	-0,078	-0,004
-223,913	53,308	0,114	0,078
-222,898	-41,153	-0,047	0,017
-221,884	7,228	-0,099	-0,053
-220,869	-200,000	0,004	-0,053
-219,855	39,466	0,161	-0,103
-218,840	418,268	-0,026	0,039
-217,825	44,757	-0,080	0,052
-216,811	148,364	-0,039	-0,037
-215,796	79,383	-0,124	-0,095
-214,782	-71,591	-0,216	0,057
-213,767	-200,000	-0,010	0,101
-212,752	-200,000	0,000	0,071
-211,738	204,574	0,077	0,085
-210,723	-200,000	-0,001	-0,059
-209,709	-200,000	0,007	0,024
-208,694	-33,066	0,092	-0,036
-207,679	295,152	-0,008	0,010
-206,665	-200,000	-0,005	0,042
-205,650	-130,525	-0,088	-0,008
-204,636	14,384	0,076	0,042
-203,621	165,250	0,061	0,061
-202,606	307,475	-0,035	0,047
-201,592	-200,000	0,003	0,050
-200,577	420,327	-0,034	0,053
-199,563	16,054	0,039	0,022
-198,548	564,585	-0,071	-0,124
-197,533	23,294	0,109	0,064
-196,519	-200,000	-0,053	0,256
-195,504	800,000	0,026	0,066
-194,490	-200,000	-0,004	0,101
-193,475	508,329	-0,070	-0,116
-192,460	38,124	0,070	-0,044
-191,446	39,471	-0,044	0,028
-190,431	800,000	0,015	0,031
-189,417	-200,000	0,006	-0,044
-188,402	-200,000	0,006	0,085
-187,387	-21,217	0,112	-0,049
-186,373	70,946	-0,167	-0,123
-185,358	-200,000	0,012	-0,089
-184,344	453,604	0,101	0,160
-183,329	800,000	-0,051	0,102
-182,315	-84,649	0,057	-0,013
-181,300	-200,000	0,031	0,110
-180,285	800,000	-0,091	-0,196
-179,271	-25,306	0,095	-0,040
-178,256	314,217	-0,034	-0,045
-177,242	243,281	-0,028	-0,034
-176,227	574,218	0,027	0,047
-175,212	77,475	-0,064	0,049
-174,198	188,685	0,036	0,038
-173,183	317,009	0,078	-0,105
-172,169	46,900	-0,065	0,043
-171,154	176,022	-0,056	-0,058
-170,139	-27,567	-0,108	0,045
-169,125	81,854	0,075	0,058
-168,110	418,541	-0,083	0,127
-167,096	58,157	-0,041	0,029
-166,081	-200,000	0,019	-0,062
-165,066	470,992	0,068	-0,109
-164,052	-200,000	0,010	-0,246
-163,037	-54,671	0,138	0,044
-162,023	645,070	-0,044	0,079
-161,008	800,000	0,010	-0,030
-159,993	-133,288	0,030	0,003
-158,979	-200,000	-0,003	-0,087
-157,964	197,208	-0,060	0,066
-156,950	44,514	-0,118	0,077
-155,935	-11,477	0,088	-0,041
-154,920	800,000	-0,017	0,036
-153,906	210,483	0,090	-0,100
-152,891	294,322	0,058	0,075
-151,877	-200,000	-0,020	-0,079
-150,862	-200,000	-0,037	-0,159
-149,847	555,582	-0,053	0,090
-148,833	-87,137	0,050	0,011
-147,818	74,743	-0,067	-0,050
-146,804	184,137	-0,056	-0,058
-145,789	-142,134	0,036	-0,003
-144,775	33,251	-0,037	0,023
-143,760	-93,232	0,195	0,038
-142,745	-200,000	-0,013	-0,070
-141,731	-22,742	-0,109	0,047
-140,716	5,343	-0,065	0,034
-139,702	77,518	0,062	-0,047
-138,687	335,136	-0,038	0,053
-137,672	-35,040	-0,151	-0,058
-136,658	-200,000	0,023	0,103
-135,643	-164,232	-0,085	-0,003
-134,629	-200,000	0,006	-0,056
-133,614	268,299	-0,032	0,040
-132,599	17,769	0,144	-0,081
-131,585	113,476	-0,096	0,083
-130,570	-200,000	-0,036	0,143
-129,556	-200,000	0,013	-0,066
-128,541	-200,000	-0,008	0,110
-127,526	-200,000	0,008	-0,068
-126,512	233,018	0,081	-0,095
-125,497	800,000	0,033	0,087
-124,483	-99,857	-0,139	0,024
-123,468	40,707	-0,058	-0,037
-122,453	-200,000	-0,013	-0,042
-121,439	8,829	0,036	-0,019
-120,424	-6,594	0,055	0,026
-119,410	65,840	0,051	0,037
-118,395	-200,000	-0,002	0,123
-117,380	342,492	0,058	0,081
-116,366	-98,212	-0,080	-0,015
-115,351	800,000	-0,015	0,041
-114,337	-200,000	-0,013	0,086
-113,322	-200,000	0,010	-0,174
-112,307	-144,760	-0,136	0,009
-111,293	800,000	0,031	0,090
-110,278	-19,611	0,131	0,057
-109,264	248,919	0,081	0,097
-108,249	291,917	0,068	-0,088
-107,234	7,501	-0,106	0,056
-106,220	-36,571	0,059	0,022
-105,205	110,547	0,017	-0,014
-104,191	-200,000	0,024	0,099
-103,176	87,684	0,058	0,046
-102,162	229,202	0,082	0,095
-101,147	-200,000	-0,016	0,057
-100,132	23,318	-0,075	-0,043
-99,118	192,395	0,051	-0,055
-98,103	701,082	0,046	0,086
-97,089	225,645	-0,159	-0,182
-96,074	-200,000	-0,003	-0,070
-95,059	-79,598	-0,047	-0,011
-94,045	-200,000	-0,006	0,056
-93,030	391,182	-0,020	-0,030
-92,016	800,000	0,043	0,112
-91,001	800,000	0,006	0,016
-89,986	-78,785	-0,026	-0,006
-88,972	278,804	0,051	0,065
-87,957	331,034	0,085	0,117
-86,943	150,489	-0,062	0,059
-85,928	-35,589	-0,073	-0,028
-84,913	210,269	0,068	-0,076
-83,899	-200,000	0,012	0,090
-82,884	-108,159	-0,030	0,005
-81,870	-200,000	0,008	0,123
-80,855	-93,667	0,130	-0,025
-79,840	-111,861	0,026	-0,004
-78,826	-200,000	0,013	0,054
-77,811	-200,000	-0,041	-0,136
-76,797	800,000	-0,040	-0,114
-75,782	90,301	0,055	0,044
-74,767	11,664	0,032	-0,018
-73,753	-7,657	0,105	0,050
-72,738	91,640	0,053	-0,043
-71,724	-46,875	-0,097	-0,034
-70,709	81,301	0,104	-0,080
-69,694	-167,060	-0,105	-0,003
-68,680	-82,976	0,101	0,023
-67,665	-164,865	-0,043	-0,001
-66,651	-119,554	0,100	0,012
-65,636	57,987	-0,074	-0,051
-64,622	-154,873	0,051	0,002
-63,607	-200,000	-0,022	-0,118
-62,592	-79,246	0,048	0,012
-61,578	469,561	0,003	-0,005
-60,563	800,000	-0,077	0,165
-59,549	-89,264	0,043	-0,009
-58,534	-40,609	-1,620	-0,592
-57,519	365,798	-1,423	-2,036
-56,505	-200,000	-0,540	-4,670
-55,490	119,658	0,981	0,860
-54,476	800,000	5,022	11,428
-53,461	-200,000	18,977	306,795
-52,446	800,000	737,064	2300,143
-51,432	569,361	1653,465	2857,133
-50,417	79,029	1670,355	1264,919
-49,403	22,036	1543,248	888,831
-48,388	15,925	1466,065	814,690
-47,373	17,780	1456,137	818,100
-46,359	16,862	1446,173	808,068
-45,344	14,191	1441,642	792,721
-44,330	14,094	1439,821	791,222
-43,315	14,157	1437,724	790,342
-42,300	14,144	1436,237	789,432
-41,286	14,097	1435,135	788,567
-40,271	14,104	1433,779	787,827
-39,257	14,095	1432,501	787,051
-38,242	14,123	1431,514	786,608
-37,227	14,168	1430,070	785,997
-36,213	14,122	1428,854	785,078
-35,198	14,147	1427,674	784,519
-34,184	14,169	1426,813	784,119
-33,169	14,118	1425,433	783,089
-32,154	14,170	1424,269	782,665
-31,140	14,163	1422,753	781,766
-30,125	14,152	1421,869	781,199
-29,111	14,172	1420,779	780,662
-28,096	14,159	1419,675	779,963
-27,082	14,090	1418,627	779,032
-26,067	14,082	1417,469	778,326
-25,052	14,117	1416,337	777,841
-24,038	14,090	1415,570	777,260
-23,023	14,064	1414,486	776,510
-22,009	14,026	1413,676	775,858
-20,994	14,015	1412,777	775,281
-19,979	14,019	1411,584	774,617
-18,965	14,018	1410,693	774,090
-17,950	13,953	1409,857	773,299
-16,936	13,967	1408,995	772,862
-15,921	13,936	1407,874	772,069
-14,906	13,968	1406,821	771,612
-13,892	14,020	1405,780	771,249
-12,877	13,968	1405,097	770,601
-11,863	13,966	1404,161	770,050
-10,848	13,958	1403,259	769,488
-9,833	13,910	1402,625	768,885
-8,819	13,915	1401,442	768,231
-7,804	13,884	1400,644	767,617
-6,790	13,897	1399,417	766,974
-5,775	13,902	1398,456	766,442
-4,760	13,881	1397,592	765,840
-3,746	13,882	1396,704	765,326
-2,731	13,895	1395,744	764,831
-1,717	13,881	1395,087	764,376
-0,702	13,872	1393,361	763,361
0,313	17,684	1311,179	736,012
1,327	33,993	705,701	433,895
2,342	52,067	123,990	83,433
3,356	3,114	16,655	8,538
4,371	7,998	3,185	1,685
5,386	-45,083	0,661	0,231
6,400	132,038	0,085	0,077
7,415	75,028	-0,265	-0,197
8,429	98,774	-0,223	-0,182
9,444	262,437	-0,241	-0,296
10,459	-79,695	-0,290	-0,068
11,473	113,760	-0,224	-0,192
12,488	-39,286	-0,264	-0,098
13,502	63,180	-0,390	-0,276
14,517	15,233	-0,293	-0,162
15,531	158,274	-0,388	-0,381
16,546	3,144	-0,334	-0,171
17,561	125,774	-0,373	-0,333
18,575	-57,770	-0,294	-0,090
19,590	684,911	-0,166	-0,308
20,604	-20,107	-0,219	-0,095
21,619	-34,663	-0,551	-0,212
22,634	178,333	-0,340	-0,351
23,648	49,459	-0,450	-0,298
24,663	52,606	-0,375	-0,252
25,677	29,453	-0,349	-0,209
26,692	45,153	-0,315	-0,205
27,707	301,294	-0,259	-0,339
28,721	64,066	-0,509	-0,361
29,736	153,835	-0,373	-0,361
30,750	285,024	-0,348	-0,443
31,765	6,735	-0,487	-0,255
32,780	245,557	-0,294	-0,349
33,794	70,764	-0,423	-0,308
34,809	96,652	-0,257	-0,207
35,823	52,071	-0,366	-0,246
36,838	195,656	-0,413	-0,444
37,853	39,649	-0,423	-0,267
38,867	31,585	-0,384	-0,233
39,882	652,534	-0,220	-0,399
40,896	240,322	-0,293	-0,346
41,911	31,424	-0,337	-0,204
42,926	169,692	-0,306	-0,309
43,940	-30,943	-0,338	-0,134
44,955	-89,380	-0,395	-0,081
45,969	20,092	-0,351	-0,199
46,984	-4,208	-0,465	-0,226
47,999	31,599	-0,368	-0,222
49,013	9,031	-0,451	-0,239
50,028	260,163	-0,203	-0,248
51,042	31,067	-0,431	-0,260
52,057	47,315	-0,474	-0,310
53,071	138,020	-0,227	-0,209
54,086	-34,955	-0,344	-0,132
55,101	339,837	-0,190	-0,261
56,115	177,317	-0,238	-0,245
57,130	130,411	-0,292	-0,264
58,144	-83,983	-0,359	-0,080
59,159	-21,747	-0,400	-0,171
60,174	64,602	-0,375	-0,266
61,188	44,721	-0,275	-0,178
62,203	37,583	-0,301	-0,187
63,217	151,147	-0,287	-0,275
64,232	313,549	-0,148	-0,196
65,247	115,280	-0,296	-0,254
66,261	-30,017	-0,400	-0,159
67,276	477,604	-0,224	-0,358
68,290	-93,155	-0,389	-0,075
69,305	30,148	-0,279	-0,167
70,320	-146,315	-0,322	0,020
71,334	90,888	-0,255	-0,201
72,349	32,978	-0,358	-0,217
73,363	-6,048	-0,347	-0,166
74,378	4,187	-0,464	-0,238
75,393	44,889	-0,339	-0,219
76,407	241,466	-0,135	-0,159
77,422	12,008	-0,308	-0,166
78,436	-43,122	-0,389	-0,138
79,451	0,433	-0,323	-0,161
80,466	127,765	-0,273	-0,244
81,480	44,995	-0,386	-0,249
82,495	118,150	-0,322	-0,279
83,509	332,388	-0,142	-0,194
84,524	-9,601	-0,185	-0,086
85,539	-5,138	-0,297	-0,143
86,553	78,919	-0,286	-0,215
87,568	97,088	-0,435	-0,350
88,582	24,999	-0,316	-0,183
89,597	-24,578	-0,365	-0,152
90,611	45,086	-0,372	-0,240
91,626	-135,977	-0,151	0,012
92,641	-101,515	-0,261	-0,044
93,655	20,848	-0,364	-0,206
94,670	111,266	-0,205	-0,173
95,684	14,641	-0,363	-0,198
96,699	-37,044	-0,302	-0,113
97,714	-50,814	-0,336	-0,110
98,728	77,818	-0,237	-0,177
99,743	-58,274	-0,191	-0,058
100,757	285,208	-0,256	-0,324
101,772	380,493	-0,163	-0,235
102,787	90,940	-0,310	-0,243
103,801	97,083	-0,390	-0,313
104,816	53,625	-0,187	-0,126
105,830	-1,237	-0,258	-0,127
106,845	-43,918	-0,154	-0,054
107,860	139,095	-0,155	-0,143
108,874	160,426	-0,208	-0,204
109,889	136,036	-0,211	-0,193
110,903	46,442	-0,314	-0,204
111,918	21,815	-0,199	-0,113
112,933	-13,865	-0,268	-0,121
113,947	-158,269	-0,146	-0,006
114,962	118,837	-0,268	-0,232
115,976	332,681	-0,258	-0,350
116,991	89,062	-0,296	-0,231
118,006	136,332	-0,268	-0,245
119,020	127,830	-0,270	-0,240
120,035	45,698	-0,160	-0,103
121,049	102,427	-0,236	-0,193
122,064	133,449	-0,208	-0,189
123,079	-139,995	-0,295	0,021
124,093	62,072	-0,292	-0,204
125,108	-139,196	-0,359	-0,027
126,122	-102,885	-0,234	-0,038
127,137	119,680	-0,238	-0,206
128,151	-1,002	-0,303	-0,149
129,166	-18,593	-0,228	-0,099
130,181	53,743	-0,219	-0,147
131,195	436,900	-0,155	-0,237
132,210	16,921	-0,330	-0,182
133,224	-49,691	-0,250	-0,083
134,239	317,937	-0,169	-0,224
135,254	-29,730	-0,201	-0,080
136,268	195,663	-0,144	-0,154
137,283	15,117	-0,326	-0,178
138,297	-12,803	-0,268	-0,122
139,312	13,476	-0,268	-0,145
140,327	-43,954	-0,260	-0,091
141,341	55,736	-0,258	-0,174
142,356	35,817	-0,242	-0,148
143,370	-146,316	-0,287	-0,017
144,385	32,135	-0,306	-0,184
145,400	98,560	-0,293	-0,236
146,414	37,833	-0,355	-0,220
147,429	115,897	-0,233	-0,199
148,443	234,937	-0,191	-0,221
149,458	-134,030	-0,260	-0,022
150,473	24,682	-0,150	-0,086
151,487	190,439	-0,249	-0,261
152,502	231,797	-0,126	-0,145
153,516	-21,624	-0,293	-0,124
154,531	278,721	-0,259	-0,323
155,546	234,273	-0,151	-0,174
156,560	59,976	-0,238	-0,164
157,575	-145,984	-0,145	0,009
158,589	231,984	-0,216	-0,247
159,604	24,064	-0,290	-0,167
160,619	149,661	-0,246	-0,233
161,633	-11,337	-0,333	-0,152
162,648	87,869	-0,263	-0,203
163,662	26,659	-0,143	-0,083
164,677	-170,351	-0,197	0,005
165,692	215,139	-0,154	-0,170
166,706	7,934	-0,220	-0,115
167,721	91,866	-0,261	-0,204
168,735	241,914	-0,205	-0,240
169,750	188,835	-0,196	-0,205
170,764	-41,623	-0,280	-0,100
171,779	267,036	-0,194	-0,237
172,794	592,951	-0,219	-0,379
173,808	-53,904	-0,282	-0,089
174,823	26,200	-0,223	-0,129
175,837	151,813	-0,211	-0,200
176,852	207,830	-0,275	-0,299
177,867	85,097	-0,167	-0,127
178,881	334,939	-0,174	-0,236
179,896	58,983	-0,262	-0,179
180,910	-51,285	-0,215	-0,070
181,925	409,258	-0,222	-0,328
182,940	381,214	-0,209	-0,299
183,954	59,835	-0,265	-0,182
184,969	800,000	-0,190	-0,418
185,983	531,809	-0,080	-0,133
186,998	318,904	-0,117	-0,154
188,013	58,683	-0,227	-0,155
189,027	69,442	-0,233	-0,166
190,042	-102,780	-0,269	-0,044
191,056	-4,578	-0,175	-0,084
192,071	229,618	-0,133	-0,151
193,086	213,387	-0,232	-0,256
194,100	-35,113	-0,212	-0,080
195,115	436,151	-0,140	-0,212
196,129	207,392	-0,116	-0,126
197,144	350,320	-0,172	-0,237
198,159	169,097	-0,205	-0,203
199,173	7,293	-0,200	-0,104
200,188	690,555	-0,106	-0,194
201,202	78,785	-0,220	-0,164
202,217	96,961	-0,194	-0,154
203,232	88,128	-0,220	-0,169
204,246	238,863	-0,213	-0,246
205,261	155,567	-0,241	-0,231
206,275	259,148	-0,160	-0,193
207,290	-200,000	-0,049	-0,172
208,304	-11,765	-0,141	-0,064
209,319	31,116	-0,221	-0,131
210,334	130,895	-0,250	-0,223
211,348	8,171	-0,352	-0,183
212,363	90,433	-0,174	-0,135
213,377	204,986	-0,143	-0,155
214,392	59,956	-0,270	-0,185
215,407	381,503	-0,126	-0,179
216,421	391,242	-0,127	-0,183
217,436	-166,826	-0,151	-0,004
218,450	115,498	-0,233	-0,197
219,465	56,951	-0,096	-0,065
220,480	21,596	-0,220	-0,124
221,494	191,437	-0,132	-0,138
222,509	-5,579	-0,183	-0,087
223,523	104,516	-0,219	-0,179
224,538	129,930	-0,235	-0,208
225,553	466,729	-0,135	-0,211
226,567	323,261	-0,162	-0,215
227,582	-153,198	-0,234	-0,011
228,596	-44,234	-0,198	0,069
229,611	60,943	-0,200	-0,138
230,626	-96,736	-0,232	-0,042
231,640	307,025	-0,124	-0,161
232,655	185,986	-0,129	-0,133
233,669	517,969	-0,178	-0,290
234,684	625,950	-0,137	-0,240
235,699	50,838	-0,178	-0,116
236,713	-76,518	-0,156	0,038
237,728	-104,566	-0,160	0,025
238,742	44,989	-0,263	-0,167
239,757	104,907	-0,349	-0,285
240,772	176,631	-0,141	-0,143
241,786	-108,444	-0,259	0,038
242,801	-100,987	-0,329	-0,055
243,815	103,323	-0,190	-0,155
244,830	12,313	-0,124	-0,066
245,844	-68,993	-0,248	-0,066
246,859	-43,767	-0,192	-0,067
247,874	-70,872	-0,191	0,050
248,888	-70,338	-0,269	-0,070
249,903	91,367	-0,120	-0,093
250,917	200,013	-0,046	-0,049
251,932	-115,273	-0,176	-0,023
252,947	-153,123	-0,277	-0,013
253,961	254,952	-0,178	-0,212
254,976	800,000	-0,117	-0,245
255,990	6,048	-0,169	-0,087
257,005	11,315	-0,121	-0,064
258,020	-34,761	-0,124	-0,047
259,034	-116,614	-0,154	0,019
260,049	-64,044	-0,167	-0,047
261,063	-92,830	-0,228	-0,044
262,078	-46,271	-0,264	-0,089
263,093	-42,636	-0,232	-0,081
264,107	6,503	-0,094	-0,048
265,122	-12,414	-0,305	-0,137
266,136	-120,610	-0,186	-0,022
267,151	-16,800	-0,193	-0,084
268,166	104,312	-0,189	-0,154
269,180	186,699	-0,152	-0,157
270,195	27,601	-0,129	-0,075
271,209	256,590	-0,190	-0,226
272,224	53,404	-0,121	-0,080
273,239	183,210	-0,150	-0,154
274,253	-70,519	-0,174	-0,045
275,268	800,000	-0,091	-0,176
276,282	-19,935	-0,125	-0,053
277,297	-200,000	-0,079	-0,244
278,312	-53,284	-0,291	-0,091
279,326	75,228	-0,206	-0,150
280,341	122,247	-0,200	-0,172
281,355	800,000	-0,054	-0,109
282,370	162,011	-0,139	-0,135
283,384	-75,286	-0,198	-0,048
284,399	269,341	-0,162	-0,197
285,414	-56,245	-0,211	-0,064
286,428	-113,805	-0,117	-0,016
287,443	-200,000	-0,259	0,001
288,457	646,062	-0,114	-0,202
289,472	-144,691	-0,142	-0,009
290,487	90,343	-0,176	-0,136
291,501	156,126	-0,142	-0,136
292,516	70,490	-0,140	-0,099
293,530	86,298	-0,178	-0,135
294,545	800,000	-0,040	-0,077
295,560	90,315	-0,178	-0,137
296,574	153,002	-0,132	-0,125
297,589	63,607	-0,194	-0,134
298,603	6,223	-0,290	-0,148
299,618	-78,751	-0,218	-0,051
300,633	130,710	-0,141	-0,124
301,647	-67,910	-0,089	-0,024
302,662	89,571	-0,131	-0,101
303,676	800,000	-0,029	-0,083
304,691	273,193	-0,128	-0,156
305,706	-64,986	-0,292	-0,081
306,720	315,217	-0,051	-0,067
307,735	-2,938	-0,143	-0,069
308,749	199,510	-0,089	-0,094
309,764	-29,085	-0,213	-0,084
310,779	800,000	-0,066	-0,171
311,793	-15,566	-0,189	-0,083
312,808	291,446	-0,165	-0,207
313,822	21,078	-0,223	-0,124
314,837	258,252	-0,157	-0,186
315,852	-200,000	0,018	-0,082
316,866	428,309	-0,166	-0,247
317,881	99,783	-0,059	-0,047
318,895	756,393	-0,076	-0,143
319,910	-97,152	-0,213	-0,038
320,925	800,000	-0,073	-0,139
321,939	89,888	-0,137	-0,106
322,954	-200,000	-0,007	-0,095
323,968	-34,875	-0,092	-0,034
324,983	-85,063	-0,225	-0,048
325,997	-185,336	-0,172	-0,002
327,012	72,875	-0,132	-0,095
328,027	57,331	-0,142	-0,095
329,041	-104,355	-0,165	-0,026
330,056	800,000	-0,059	-0,170
331,070	800,000	-0,082	0,185
332,085	191,312	-0,083	-0,086
333,100	124,663	-0,149	-0,129
334,114	-168,546	-0,158	0,004
335,129	18,564	-0,179	-0,098
336,143	-65,443	-0,265	-0,073
337,158	181,359	-0,105	-0,106
338,173	319,326	-0,091	-0,119
339,187	800,000	-0,051	-0,150
340,202	-96,953	-0,116	0,021
341,216	92,122	-0,241	-0,186
342,231	390,262	-0,089	-0,126
343,246	-58,426	-0,086	-0,025
344,260	538,481	-0,057	-0,093
345,275	-200,000	-0,126	-0,000
346,289	-53,734	-0,036	-0,011
347,304	128,313	-0,082	-0,072
348,319	-200,000	-0,102	-0,317
349,333	-200,000	-0,043	-0,144
350,348	-63,233	-0,112	-0,031
351,362	-54,402	-0,188	0,058
352,377	163,217	-0,082	-0,079
353,392	-200,000	0,000	0,064
354,406	-200,000	-0,004	-0,074
355,421	207,619	1316,176	1410,792
356,435	159,722	1477,060	1411,277
