DTS Sentinel unit serial number:	SN410029Multiplexer serial number:	ORYXHardware model number:	OX2-SRSoftware version number:	ORYX F/W v4,00 Oryx Data Collector v3.7.2.0data status	okinstallation	B3 Nyhavnadifferential loss correction	single-endedforward channel	channel 1reverse channel	N/Adate	2023/12/03time	16:17:30forward acquisition time	300,00reverse acquisition time	0,00gamma	499,1914k internal	0,3197k external	0,3197temperature offset calibration	1,0000default loss term (dB/km)	0,3820temperature slope calibration	1,0000multiplexer offset coefficient	1,0000multiplexer slope coefficient	1,0000fibre end	0,00T internal ref (°C)	15,42T ext. ref 1 (°C)	-0,09T ext. ref 2 (°C)	-0,10length (m)	temperature (°C)	Stokes	anti-Stokes-744,400	330,814	-0,238	-0,335
-743,385	361,864	0,261	0,383
-742,371	180,743	-0,149	-0,160
-741,356	-200,000	0,008	0,305
-740,342	306,705	-0,125	-0,170
-739,327	-200,000	-0,039	0,220
-738,312	241,093	-0,226	-0,276
-737,298	-200,000	-0,017	0,177
-736,283	255,565	-0,221	-0,276
-735,269	-200,000	-0,016	0,257
-734,254	140,712	-0,287	-0,276
-733,239	157,787	-0,168	0,170
-732,225	91,017	-0,118	-0,097
-731,210	800,000	0,059	0,121
-730,196	64,432	0,038	0,028
-729,181	-179,429	0,041	0,001
-728,167	-200,000	0,013	-0,049
-727,152	800,000	-0,024	0,073
-726,137	-68,618	-0,188	-0,053
-725,123	166,408	-0,092	-0,095
-724,108	165,026	0,075	-0,077
-723,094	412,524	-0,090	-0,140
-722,079	-117,364	-0,141	0,018
-721,064	174,460	0,022	-0,023
-720,050	41,540	0,075	0,049
-719,035	800,000	-0,016	-0,044
-718,021	95,962	-0,090	0,074
-717,006	420,357	-0,082	-0,128
-715,991	58,067	-0,075	-0,054
-714,977	-200,000	0,016	-0,125
-713,962	-25,899	-0,128	0,054
-712,948	-200,000	-0,009	-0,042
-711,933	-200,000	0,040	0,165
-710,918	0,712	-0,098	-0,051
-709,904	-200,000	-0,005	0,046
-708,889	526,481	-0,173	-0,298
-707,875	-200,000	0,003	-0,125
-706,860	-99,047	-0,059	0,011
-705,845	352,917	0,087	0,126
-704,831	-200,000	0,078	-0,000
-703,816	94,857	-0,017	0,014
-702,802	-62,911	-0,106	-0,032
-701,787	-200,000	-0,018	-0,089
-700,772	-63,844	-0,066	-0,020
-699,758	64,932	-0,023	-0,017
-698,743	-67,530	-0,047	0,013
-697,729	-43,287	0,028	-0,010
-696,714	-200,000	0,003	-0,029
-695,699	-200,000	-0,008	0,062
-694,685	800,000	-0,059	-0,154
-693,670	67,999	0,124	-0,092
-692,656	800,000	-0,020	-0,061
-691,641	-10,994	0,093	-0,044
-690,627	166,614	0,093	0,095
-689,612	644,823	0,087	0,163
-688,597	689,811	-0,102	-0,195
-687,583	94,415	-0,127	-0,105
-686,568	244,337	-0,054	-0,066
-685,554	109,097	0,047	-0,041
-684,539	104,612	0,060	0,051
-683,524	188,744	-0,082	0,090
-682,510	-200,000	-0,009	0,055
-681,495	-200,000	-0,014	0,094
-680,481	-67,257	-0,115	-0,033
-679,466	800,000	-0,056	-0,156
-678,451	-40,877	0,023	0,009
-677,437	447,412	-0,026	0,042
-676,422	124,574	0,115	0,105
-675,408	40,041	0,052	0,034
-674,393	60,571	0,043	-0,031
-673,378	-22,327	0,074	-0,033
-672,364	-200,000	0,010	-0,078
-671,349	800,000	-0,032	-0,097
-670,335	800,000	0,029	-0,088
-669,320	609,140	-0,055	0,100
-668,305	-23,755	-0,083	0,036
-667,291	-126,142	-0,193	0,021
-666,276	166,885	0,083	-0,086
-665,262	-52,381	-0,151	-0,051
-664,247	506,077	0,022	-0,037
-663,232	1,393	-0,093	-0,048
-662,218	800,000	0,060	-0,122
-661,203	208,230	-0,080	-0,091
-660,189	-200,000	-0,010	0,054
-659,174	168,943	0,026	0,027
-658,159	-65,074	-0,142	-0,041
-657,145	281,248	-0,024	-0,032
-656,130	72,436	-0,055	0,041
-655,116	197,628	-0,145	0,161
-654,101	223,662	0,085	0,099
-653,086	-200,000	-0,011	0,069
-652,072	800,000	-0,052	-0,132
-651,057	155,156	-0,059	-0,058
-650,043	81,399	0,087	-0,069
-649,028	-200,000	0,003	-0,035
-648,014	42,860	0,171	0,113
-646,999	-43,067	-0,052	0,019
-645,984	800,000	0,062	0,130
-644,970	-200,000	0,010	-0,155
-643,955	714,109	-0,020	0,038
-642,941	116,147	-0,096	0,086
-641,926	-200,000	0,000	-0,016
-640,911	17,601	0,107	0,062
-639,897	-200,000	0,006	-0,147
-638,882	-15,653	0,113	0,052
-637,868	-200,000	-0,028	0,102
-636,853	-30,503	-0,082	-0,034
-635,838	17,590	-0,022	-0,013
-634,824	36,886	-0,140	-0,089
-633,809	74,926	0,155	-0,118
-632,795	-200,000	0,003	0,097
-631,780	-8,468	0,038	-0,019
-630,765	-200,000	0,021	-0,082
-629,751	55,487	-0,080	-0,056
-628,736	-200,000	0,017	-0,175
-627,722	-200,000	-0,030	-0,125
-626,707	-150,587	-0,114	-0,006
-625,692	800,000	0,020	-0,048
-624,678	-200,000	0,018	-0,068
-623,663	-52,538	-0,197	-0,066
-622,649	93,485	-0,135	-0,111
-621,634	54,435	0,117	-0,082
-620,619	-126,135	-0,128	-0,014
-619,605	28,063	-0,036	0,022
-618,590	-200,000	-0,007	0,035
-617,576	86,201	-0,017	-0,013
-616,561	289,786	0,085	0,112
-615,546	-2,982	-0,107	-0,054
-614,532	241,091	0,039	0,047
-613,517	186,282	0,026	0,028
-612,503	-71,182	-0,091	0,025
-611,488	437,748	0,057	-0,091
-610,474	-47,120	0,045	-0,016
-609,459	-20,498	0,048	-0,021
-608,444	-29,863	0,086	-0,035
-607,430	-60,174	-0,103	0,032
-606,415	111,229	-0,136	-0,119
-605,401	350,069	0,063	-0,091
-604,386	-200,000	0,001	0,053
-603,371	-86,223	0,062	0,014
-602,357	-115,625	0,064	-0,009
-601,342	-111,978	-0,199	-0,029
-600,328	394,886	-0,081	-0,122
-599,313	-200,000	-0,016	-0,089
-598,298	-26,347	-0,119	-0,050
-597,284	327,643	0,068	0,095
-596,269	-200,000	0,005	0,220
-595,255	-200,000	-0,025	0,133
-594,240	101,976	-0,042	0,036
-593,225	-113,535	0,013	0,002
-592,211	6,304	-0,128	-0,069
-591,196	800,000	0,021	0,052
-590,182	265,592	0,055	-0,070
-589,167	-53,494	0,110	0,036
-588,152	-57,020	0,082	-0,026
-587,138	-106,529	-0,155	0,025
-586,123	-76,142	-0,149	-0,038
-585,109	-200,000	0,015	-0,132
-584,094	-74,940	-0,071	-0,018
-583,079	800,000	-0,042	-0,117
-582,065	-200,000	0,010	0,080
-581,050	-108,623	0,049	0,008
-580,036	-90,234	-0,147	-0,031
-579,021	800,000	-0,042	-0,103
-578,006	-95,343	-0,016	0,003
-576,992	-121,508	0,055	-0,006
-575,977	14,016	-0,094	-0,053
-574,963	-99,152	-0,119	-0,021
-573,948	14,522	-0,019	-0,011
-572,934	-200,000	-0,004	-0,032
-571,919	128,169	-0,017	0,016
-570,904	74,764	0,047	-0,035
-569,890	-200,000	-0,024	-0,179
-568,875	800,000	-0,045	0,124
-567,861	14,918	0,034	-0,019
-566,846	139,480	0,080	-0,076
-565,831	-40,110	-0,102	0,038
-564,817	800,000	-0,034	0,087
-563,802	-86,887	-0,094	0,021
-562,788	8,701	0,042	0,023
-561,773	-8,139	0,128	0,062
-560,758	800,000	-0,043	0,133
-559,744	292,630	-0,040	0,053
-558,729	418,281	0,063	-0,098
-557,715	-200,000	0,009	0,080
-556,700	217,464	-0,061	-0,070
-555,685	-200,000	0,019	0,111
-554,671	443,004	-0,089	0,142
-553,656	-105,460	0,072	-0,012
-552,642	800,000	0,012	-0,038
-551,627	514,800	0,086	0,145
-550,612	33,166	0,055	-0,035
-549,598	-4,194	-0,042	0,021
-548,583	-161,530	-0,077	-0,003
-547,569	-147,219	-0,113	0,007
-546,554	203,721	0,023	0,026
-545,539	721,371	0,010	0,019
-544,525	-200,000	-0,004	-0,080
-543,510	199,745	-0,037	-0,041
-542,496	-46,973	-0,147	0,052
-541,481	-5,771	-0,080	-0,040
-540,466	30,608	-0,077	0,048
-539,452	800,000	0,040	0,088
-538,437	145,574	-0,016	-0,016
-537,423	0,964	0,044	0,023
-536,408	-200,000	-0,004	-0,051
-535,393	50,658	0,049	0,034
-534,379	221,816	0,129	-0,150
-533,364	16,777	0,040	0,023
-532,350	546,717	0,017	0,030
-531,335	-49,183	0,173	0,059
-530,321	-200,000	0,030	-0,108
-529,306	-200,000	0,010	0,057
-528,291	-200,000	0,012	-0,149
-527,277	-119,994	-0,078	0,010
-526,262	-200,000	0,008	-0,035
-525,248	27,480	-0,162	-0,098
-524,233	799,484	0,032	0,064
-523,218	800,000	-0,046	0,132
-522,204	-200,000	-0,004	0,110
-521,189	301,244	0,041	-0,055
-520,175	-200,000	-0,016	0,094
-519,160	-200,000	0,019	-0,065
-518,145	-35,667	-0,161	-0,063
-517,131	-200,000	0,031	-0,111
-516,116	-58,571	-0,074	-0,023
-515,102	-200,000	-0,006	-0,117
-514,087	4,938	0,040	0,021
-513,072	35,654	-0,106	-0,067
-512,058	-200,000	0,009	0,068
-511,043	122,380	-0,026	-0,023
-510,029	65,113	0,064	-0,047
-509,014	-70,830	-0,098	-0,027
-507,999	483,094	-0,067	0,110
-506,985	-200,000	-0,001	-0,017
-505,970	800,000	-0,020	-0,059
-504,956	-100,040	0,037	0,007
-503,941	174,046	0,074	-0,078
-502,926	-200,000	-0,006	0,041
-501,912	56,145	0,094	0,066
-500,897	747,549	-0,031	0,061
-499,883	-51,741	0,035	-0,012
-498,868	-200,000	-0,009	-0,090
-497,853	-200,000	-0,001	-0,079
-496,839	15,462	-0,061	-0,034
-495,824	116,747	0,073	0,064
-494,810	261,196	0,060	-0,076
-493,795	-200,000	-0,030	-0,150
-492,781	244,276	-0,089	-0,108
-491,766	26,650	-0,111	0,067
-490,751	0,921	-0,104	0,053
-489,737	800,000	0,047	-0,108
-488,722	800,000	0,033	-0,071
-487,708	633,771	0,037	0,068
-486,693	-77,376	-0,112	0,028
-485,678	-54,655	0,017	0,005
-484,664	800,000	-0,017	-0,044
-483,649	-200,000	-0,027	-0,107
-482,635	-112,689	0,026	-0,004
-481,620	800,000	0,059	0,125
-480,605	193,173	0,100	0,110
-479,591	-89,610	0,042	0,009
-478,576	-10,055	0,070	0,034
-477,562	-200,000	0,006	0,027
-476,547	-200,000	-0,203	0,000
-475,532	52,591	-0,078	-0,054
-474,518	332,097	0,030	0,042
-473,503	800,000	0,055	0,141
-472,489	24,128	0,124	0,073
-471,474	48,781	0,020	0,013
-470,459	397,715	-0,059	-0,089
-469,445	-66,590	-0,093	0,026
-468,430	-200,000	-0,019	-0,135
-467,416	103,326	-0,032	-0,027
-466,401	-117,464	0,062	-0,008
-465,386	8,421	-0,090	0,049
-464,372	118,164	0,091	-0,081
-463,357	-200,000	0,014	0,194
-462,343	60,619	-0,064	0,045
-461,328	503,800	0,017	-0,028
-460,313	-86,456	0,033	-0,007
-459,299	-82,023	0,051	0,012
-458,284	-200,000	-0,014	0,079
-457,270	191,837	-0,058	-0,063
-456,255	623,355	-0,088	-0,161
-455,241	-200,000	-0,028	-0,091
-454,226	418,277	-0,017	-0,026
-453,211	86,517	0,026	-0,021
-452,197	74,375	0,053	0,040
-451,182	257,701	0,093	0,116
-450,168	-200,000	-0,035	0,170
-449,153	-41,334	-0,112	-0,041
-448,138	-76,343	-0,168	-0,042
-447,124	198,151	0,146	0,161
-446,109	134,460	-0,132	0,123
-445,095	-37,352	0,182	0,070
-444,080	-145,415	0,072	0,005
-443,065	-20,785	0,055	0,024
-442,051	-200,000	-0,011	0,060
-441,036	448,823	0,093	-0,149
-440,022	-200,000	0,003	0,038
-439,007	-160,014	-0,118	0,005
-437,992	-200,000	0,012	-0,056
-436,978	-69,040	-0,127	0,035
-435,963	-105,950	0,062	-0,010
-434,949	265,100	-0,022	0,027
-433,934	255,280	0,038	0,047
-432,919	-52,827	-0,102	-0,034
-431,905	-57,069	0,098	-0,031
-430,890	-10,289	0,139	0,066
-429,876	18,850	-0,087	0,050
-428,861	-70,393	-0,057	0,016
-427,846	-95,111	-0,168	0,032
-426,832	-113,048	-0,044	-0,006
-425,817	-14,239	0,111	0,051
-424,803	-24,885	-0,100	-0,043
-423,788	-140,636	-0,109	-0,008
-422,773	-200,000	-0,033	0,139
-421,759	180,338	0,097	-0,103
-420,744	173,604	0,066	0,069
-419,730	-69,994	0,038	-0,010
-418,715	-34,740	-0,077	-0,030
-417,701	154,681	0,070	-0,069
-416,686	-85,863	-0,047	-0,010
-415,671	-106,778	0,069	0,011
-414,657	24,807	0,075	0,045
-413,642	-88,026	-0,069	-0,015
-412,628	800,000	-0,011	-0,030
-411,613	-200,000	-0,005	0,125
-410,598	-155,986	0,041	0,002
-409,584	-200,000	-0,034	-0,125
-408,569	-36,785	0,173	-0,067
-407,555	-49,279	0,139	0,048
-406,540	-200,000	-0,030	0,107
-405,525	800,000	0,031	-0,077
-404,511	61,795	0,052	-0,037
-403,496	-200,000	0,005	-0,085
-402,482	800,000	0,039	-0,102
-401,467	228,069	0,028	0,033
-400,452	-200,000	0,040	0,133
-399,438	-63,247	-0,092	-0,027
-398,423	-130,892	-0,127	0,012
-397,409	-200,000	0,060	-0,265
-396,394	243,198	0,029	-0,035
-395,379	-43,772	0,067	-0,024
-394,365	222,059	0,060	0,070
-393,350	33,254	0,151	-0,094
-392,336	85,932	-0,034	0,027
-391,321	-200,000	-0,005	0,092
-390,306	-200,000	-0,013	-0,048
-389,292	-200,000	-0,014	-0,138
-388,277	-144,435	0,061	-0,004
-387,263	800,000	0,023	-0,067
-386,248	-200,000	-0,004	0,075
-385,233	800,000	0,047	0,141
-384,219	389,595	-0,039	0,058
-383,204	-25,958	0,120	-0,050
-382,190	520,455	-0,034	0,058
-381,175	373,320	0,055	-0,080
-380,160	13,863	-0,073	-0,040
-379,146	663,744	0,020	0,036
-378,131	293,183	0,053	0,069
-377,117	-68,115	-0,066	-0,018
-376,102	784,597	-0,082	-0,162
-375,088	799,577	-0,041	-0,081
-374,073	112,938	-0,011	-0,009
-373,058	232,877	0,105	-0,124
-372,044	-84,240	-0,056	-0,013
-371,029	143,198	0,115	0,109
-370,015	-58,792	-0,135	0,042
-369,000	-200,000	-0,030	-0,122
-367,985	302,095	-0,036	0,048
-366,971	212,190	-0,095	-0,108
-365,956	251,985	-0,020	0,024
-364,942	-200,000	0,016	-0,095
-363,927	-200,000	-0,018	-0,071
-362,912	158,130	0,057	0,057
-361,898	-200,000	0,012	-0,082
-360,883	800,000	0,060	-0,171
-359,869	-200,000	-0,045	-0,159
-358,854	32,659	0,135	0,083
-357,839	62,891	0,118	0,084
-356,825	800,000	-0,043	0,122
-355,810	334,830	0,067	0,094
-354,796	378,903	-0,050	-0,074
-353,781	-46,308	-0,079	0,028
-352,766	455,848	0,050	-0,080
-351,752	-48,757	0,059	0,020
-350,737	800,000	-0,017	0,042
-349,723	-105,967	0,011	0,002
-348,708	142,386	0,159	0,152
-347,693	-32,989	-0,052	-0,021
-346,679	800,000	-0,027	-0,056
-345,664	159,047	-0,110	-0,110
-344,650	-37,362	0,129	0,049
-343,635	29,522	0,097	-0,059
-342,620	-200,000	0,024	0,106
-341,606	47,419	0,055	0,036
-340,591	141,444	0,110	0,104
-339,577	-147,370	0,090	-0,005
-338,562	-200,000	-0,010	-0,151
-337,548	800,000	0,021	-0,048
-336,533	136,950	-0,016	0,015
-335,518	406,378	0,064	0,097
-334,504	120,359	-0,014	-0,013
-333,489	800,000	-0,058	0,169
-332,475	800,000	-0,042	-0,103
-331,460	534,030	-0,041	-0,070
-330,445	-20,200	0,087	-0,038
-329,431	563,260	-0,072	-0,126
-328,416	-74,831	-0,047	0,012
-327,402	-56,132	0,056	-0,018
-326,387	-200,000	0,044	-0,140
-325,372	-122,212	-0,039	-0,005
-324,358	3,711	-0,061	0,032
-323,343	145,162	0,095	0,092
-322,329	-200,000	-0,027	0,125
-321,314	65,508	0,035	-0,026
-320,299	322,979	-0,041	0,056
-319,285	302,119	0,020	-0,026
-318,270	-144,212	0,117	-0,008
-317,256	472,740	-0,091	0,147
-316,241	29,929	0,037	-0,023
-315,226	58,389	-0,135	0,095
-314,212	-112,697	0,085	0,012
-313,197	111,941	-0,073	0,063
-312,183	484,460	0,001	0,002
-311,168	531,297	0,088	0,149
-310,153	-200,000	-0,013	0,060
-309,139	-15,103	0,118	0,054
-308,124	800,000	0,053	0,131
-307,110	-200,000	-0,003	0,055
-306,095	-200,000	0,001	0,003
-305,080	46,806	0,076	0,050
-304,066	173,469	0,031	0,032
-303,051	-45,924	0,062	-0,022
-302,037	-200,000	0,022	-0,117
-301,022	35,424	0,057	0,036
-300,008	-99,208	0,107	0,019
-298,993	-200,000	0,001	0,019
-297,978	800,000	0,055	0,134
-296,964	-200,000	0,003	0,032
-295,949	-42,818	-0,023	-0,008
-294,935	-200,000	-0,010	-0,038
-293,920	-200,000	0,010	-0,054
-292,905	21,942	0,128	-0,074
-291,891	99,728	0,147	0,122
-290,876	226,276	-0,059	0,068
-289,862	-200,000	-0,017	-0,116
-288,847	-200,000	-0,024	-0,101
-287,832	-54,723	0,088	0,028
-286,818	-141,743	0,072	0,005
-285,803	-200,000	-0,015	0,156
-284,789	-200,000	0,004	0,095
-283,774	800,000	0,009	0,020
-282,759	51,401	-0,095	-0,064
-281,745	169,968	-0,038	-0,039
-280,730	800,000	0,036	0,075
-279,716	458,183	-0,041	-0,065
-278,701	-200,000	-0,012	0,064
-277,686	95,636	0,121	0,099
-276,672	-26,153	0,084	-0,035
-275,657	330,709	-0,066	0,092
-274,643	-78,291	0,027	0,006
-273,628	604,883	0,047	-0,085
-272,613	-162,451	-0,028	0,001
-271,599	176,723	0,124	0,129
-270,584	56,042	0,098	-0,068
-269,570	-200,000	-0,006	0,058
-268,555	-65,733	-0,063	-0,018
-267,540	38,243	-0,073	0,046
-266,526	-38,416	-0,103	-0,039
-265,511	654,403	-0,029	0,053
-264,497	25,926	0,138	0,082
-263,482	-200,000	0,005	-0,072
-262,467	-42,662	0,149	0,054
-261,453	-23,928	0,156	0,066
-260,438	-40,127	0,084	0,031
-259,424	94,647	-0,044	0,036
-258,409	-100,377	-0,038	-0,007
-257,395	711,901	-0,033	-0,063
-256,380	-200,000	0,006	0,051
-255,365	117,114	0,116	-0,102
-254,351	-101,910	-0,089	0,015
-253,336	-105,282	0,061	0,010
-252,322	-83,092	-0,066	-0,015
-251,307	36,642	-0,095	-0,060
-250,292	-146,014	0,071	0,004
-249,278	800,000	0,057	0,135
-248,263	111,039	0,072	0,062
-247,249	-27,188	0,050	0,021
-246,234	76,137	-0,056	-0,042
-245,219	515,343	-0,105	-0,176
-244,205	-200,000	0,006	-0,088
-243,190	210,978	-0,093	0,105
-242,176	-191,365	-0,153	0,001
-241,161	287,532	0,097	0,126
-240,146	29,742	-0,137	-0,083
-239,132	3,614	0,015	0,008
-238,117	-20,707	-0,129	-0,056
-237,103	8,448	-0,077	-0,041
-236,088	800,000	-0,046	0,095
-235,073	-200,000	-0,005	0,114
-234,059	-163,733	0,115	-0,004
-233,044	800,000	0,032	0,084
-232,030	99,359	-0,039	-0,032
-231,015	-17,617	-0,101	-0,045
-230,000	-79,993	0,023	0,005
-228,986	-200,000	-0,020	0,078
-227,971	-26,896	0,061	-0,025
-226,957	129,195	0,043	0,039
-225,942	-200,000	-0,000	0,041
-224,927	149,341	-0,034	0,033
-223,913	800,000	-0,016	0,045
-222,898	452,861	-0,047	-0,074
-221,884	-19,403	-0,046	0,020
-220,869	-102,472	0,129	0,022
-219,855	297,206	0,111	0,145
-218,840	-0,017	-0,100	0,051
-217,825	94,758	0,130	-0,105
-216,811	-200,000	-0,002	0,073
-215,796	146,155	-0,081	0,078
-214,782	112,561	0,132	-0,114
-213,767	-157,818	-0,016	-0,001
-212,752	729,295	0,049	0,094
-211,738	-65,276	0,056	0,016
-210,723	800,000	0,050	0,119
-209,709	-162,295	0,080	0,003
-208,694	36,373	-0,170	-0,106
-207,679	-200,000	0,021	-0,130
-206,665	487,063	0,033	-0,054
-205,650	-94,379	-0,100	-0,019
-204,636	800,000	-0,048	-0,140
-203,621	-139,678	-0,165	-0,012
-202,606	-200,000	-0,017	-0,083
-201,592	-141,564	0,061	0,004
-200,577	190,471	-0,063	0,068
-199,563	311,478	0,080	-0,107
-198,548	-200,000	0,001	0,194
-197,533	-173,668	-0,207	0,004
-196,519	54,744	-0,056	-0,038
-195,504	-200,000	0,014	-0,050
-194,490	198,737	-0,039	-0,042
-193,475	705,636	-0,077	-0,145
-192,460	129,914	-0,047	-0,043
-191,446	-118,744	-0,057	0,007
-190,431	-77,156	0,224	0,055
-189,417	800,000	-0,030	0,085
-188,402	51,146	-0,088	-0,059
-187,387	91,740	-0,047	-0,037
-186,373	-191,304	-0,160	-0,001
-185,358	-200,000	-0,014	-0,134
-184,344	371,653	0,041	0,059
-183,329	70,043	0,076	-0,056
-182,315	493,864	0,007	0,011
-181,300	-200,000	0,006	-0,102
-180,285	-43,133	-0,114	-0,041
-179,271	546,372	-0,039	0,067
-178,256	-200,000	0,004	-0,117
-177,242	-8,307	0,159	-0,076
-176,227	-200,000	-0,028	0,241
-175,212	120,723	0,127	0,113
-174,198	50,330	0,106	-0,071
-173,183	800,000	-0,007	0,014
-172,169	-70,333	0,017	0,004
-171,154	-200,000	0,008	0,084
-170,139	800,000	0,034	-0,098
-169,125	62,649	0,057	0,041
-168,110	800,000	0,047	0,113
-167,096	236,775	-0,094	-0,111
-166,081	-47,306	-0,097	0,033
-165,066	-172,762	-0,059	0,001
-164,052	49,928	-0,169	0,113
-163,037	-200,000	0,003	-0,010
-162,023	-145,210	0,055	-0,004
-161,008	-150,090	0,109	-0,006
-159,993	71,463	-0,021	0,015
-158,979	-200,000	-0,097	-0,000
-157,964	477,498	0,030	0,049
-156,950	-72,793	0,082	0,021
-155,935	42,405	-0,010	0,006
-154,920	240,655	-0,063	-0,075
-153,906	143,066	0,125	0,118
-152,891	-200,000	0,009	-0,041
-151,877	72,816	0,102	0,076
-150,862	-56,179	-0,098	-0,031
-149,847	-200,000	-0,026	-0,085
-148,833	-200,000	0,016	-0,136
-147,818	-31,414	0,078	0,031
-146,804	-200,000	-0,017	0,128
-145,789	214,927	-0,038	0,043
-144,775	800,000	0,059	-0,125
-143,760	-167,944	-0,097	0,003
-142,745	-14,931	0,026	0,012
-141,731	-32,155	0,059	-0,023
-140,716	-103,272	-0,036	0,006
-139,702	215,206	-0,135	0,153
-138,687	-200,000	-0,011	0,140
-137,672	-200,000	-0,005	-0,018
-136,658	-200,000	-0,002	-0,012
-135,643	202,107	-0,017	-0,019
-134,629	682,905	0,004	0,008
-133,614	61,719	0,026	-0,019
-132,599	-105,935	0,088	0,014
-131,585	-200,000	0,028	0,142
-130,570	391,090	-0,070	0,104
-129,556	800,000	-0,048	-0,132
-128,541	-200,000	-0,001	-0,095
-127,526	-18,163	-0,022	0,010
-126,512	211,287	-0,047	-0,053
-125,497	69,189	0,060	-0,044
-124,483	258,001	-0,018	0,022
-123,468	800,000	0,021	0,059
-122,453	800,000	-0,009	0,024
-121,439	528,926	-0,021	0,035
-120,424	472,768	0,075	-0,121
-119,410	269,630	0,058	0,073
-118,395	-22,240	-0,115	-0,049
-117,380	58,263	0,054	0,038
-116,366	-25,048	-0,065	-0,027
-115,351	-124,218	-0,078	-0,009
-114,337	800,000	0,041	0,086
-113,322	165,313	-0,033	0,033
-112,307	-200,000	0,014	-0,067
-111,293	-200,000	-0,001	-0,140
-110,278	-81,318	-0,063	0,015
-109,264	800,000	-0,036	0,108
-108,249	551,259	0,031	-0,053
-107,234	-200,000	0,013	-0,101
-106,220	-200,000	-0,008	-0,143
-105,205	-132,695	0,066	-0,006
-104,191	800,000	0,009	-0,021
-103,176	800,000	-0,074	0,217
-102,162	-151,298	-0,097	-0,005
-101,147	-5,721	-0,100	0,048
-100,132	-200,000	-0,018	-0,198
-99,118	327,749	-0,066	-0,090
-98,103	-58,912	-0,068	0,021
-97,089	-200,000	-0,002	0,008
-96,074	-200,000	0,030	-0,098
-95,059	-21,881	-0,132	0,057
-94,045	593,361	-0,045	-0,079
-93,030	-200,000	-0,011	-0,175
-92,016	-178,208	0,119	0,002
-91,001	28,472	-0,060	-0,036
-89,986	565,745	-0,048	-0,083
-88,972	165,986	0,069	-0,069
-87,957	-136,148	-0,090	-0,007
-86,943	-200,000	-0,003	0,030
-85,928	288,022	-0,013	-0,017
-84,913	258,282	-0,078	-0,095
-83,899	453,655	-0,072	-0,113
-82,884	1,655	-0,027	-0,014
-81,870	116,777	0,030	0,026
-80,855	-200,000	0,005	-0,073
-79,840	-200,000	-0,000	0,098
-78,826	437,720	-0,051	-0,080
-77,811	177,231	0,069	0,071
-76,797	322,535	-0,044	0,059
-75,782	723,395	-0,029	0,055
-74,767	-200,000	0,021	0,104
-73,753	48,737	0,170	0,113
-72,738	230,305	-0,120	0,140
-71,724	-143,116	-0,021	0,001
-70,709	-96,677	-0,103	0,019
-69,694	-38,048	0,034	0,013
-68,680	156,953	0,003	-0,003
-67,665	65,598	-0,061	0,044
-66,651	800,000	0,052	-0,124
-65,636	102,785	0,007	0,006
-64,622	800,000	0,071	0,147
-63,607	-200,000	0,014	-0,112
-62,592	583,328	-0,038	-0,066
-61,578	-100,984	0,155	-0,027
-60,563	428,395	0,040	0,062
-59,549	-200,000	0,026	0,122
-58,534	-71,095	-1,492	-0,395
-57,519	332,331	-1,585	-2,176
-56,505	-200,000	-0,538	-4,400
-55,490	165,701	1,045	1,048
-54,476	800,000	4,615	10,883
-53,461	-200,000	18,035	285,545
-52,446	800,000	725,407	2226,456
-51,432	557,285	1640,794	2814,757
-50,417	79,939	1663,344	1265,950
-49,403	23,258	1537,028	892,661
-48,388	17,222	1460,672	819,099
-47,373	18,039	1450,424	817,252
-46,359	17,528	1440,960	809,442
-45,344	15,531	1436,269	797,247
-44,330	15,477	1434,142	795,781
-43,315	15,495	1432,455	794,895
-42,300	15,456	1430,824	793,775
-41,286	15,520	1429,684	793,414
-40,271	15,505	1428,487	792,648
-39,257	15,426	1427,396	791,634
-38,242	15,538	1425,831	791,270
-37,227	15,528	1424,623	790,517
-36,213	15,534	1423,153	789,699
-35,198	15,515	1422,276	789,093
-34,184	15,555	1421,236	788,674
-33,169	15,476	1419,900	787,525
-32,154	15,553	1418,954	787,335
-31,140	15,557	1417,664	786,607
-30,125	15,562	1416,596	786,006
-29,111	15,517	1415,472	785,138
-28,096	15,520	1414,292	784,466
-27,082	15,457	1413,328	783,606
-26,067	15,416	1412,129	782,717
-25,052	15,454	1411,107	782,301
-24,038	15,443	1409,901	781,548
-23,023	15,438	1409,006	780,997
-22,009	15,438	1408,000	780,407
-20,994	15,388	1407,165	779,682
-19,979	15,414	1406,043	779,149
-18,965	15,380	1405,193	778,488
-17,950	15,376	1404,287	777,936
-16,936	15,413	1403,184	777,470
-15,921	15,335	1402,322	776,596
-14,906	15,332	1401,154	775,903
-13,892	15,371	1400,298	775,581
-12,877	15,386	1399,359	775,098
-11,863	15,345	1398,493	774,399
-10,848	15,329	1397,388	773,681
-9,833	15,313	1396,794	773,247
-8,819	15,283	1395,707	772,475
-7,804	15,264	1394,855	771,888
-6,790	15,263	1393,760	771,247
-5,775	15,265	1392,604	770,583
-4,760	15,252	1391,865	770,087
-3,746	15,224	1391,306	769,618
-2,731	15,230	1390,428	769,127
-1,717	15,256	1389,188	768,532
-0,702	15,242	1387,374	767,433
0,313	19,067	1307,476	740,927
1,327	35,491	707,719	439,183
2,342	54,882	125,113	85,422
3,356	3,029	16,660	8,547
4,371	6,498	3,163	1,660
5,386	-2,850	0,547	0,270
6,400	159,106	0,093	0,091
7,415	-13,338	-0,294	-0,135
8,429	143,792	-0,291	-0,275
9,444	64,316	-0,332	-0,237
10,459	80,461	-0,201	-0,153
11,473	96,936	-0,279	-0,226
12,488	209,933	-0,190	-0,211
13,502	-137,692	-0,292	-0,023
14,517	59,807	-0,326	-0,228
15,531	100,596	-0,320	-0,263
16,546	-17,650	-0,340	-0,150
17,561	121,180	-0,289	-0,255
18,575	-113,165	-0,303	-0,042
19,590	357,870	-0,150	-0,212
20,604	170,611	-0,258	-0,261
21,619	90,685	-0,453	-0,359
22,634	79,526	-0,483	-0,366
23,648	145,244	-0,490	-0,464
24,663	97,024	-0,359	-0,291
25,677	24,847	-0,332	-0,194
26,692	679,116	-0,231	-0,427
27,707	0,538	-0,515	-0,259
28,721	119,404	-0,417	-0,364
29,736	72,312	-0,335	-0,247
30,750	142,366	-0,465	-0,436
31,765	194,939	-0,355	-0,381
32,780	205,380	-0,325	-0,357
33,794	-3,518	-0,324	-0,159
34,809	-26,975	-0,307	-0,126
35,823	32,975	-0,379	-0,231
36,838	-19,832	-0,316	-0,137
37,853	186,622	-0,333	-0,351
38,867	44,552	-0,407	-0,263
39,882	-115,343	-0,299	-0,039
40,896	0,087	-0,351	-0,176
41,911	87,541	-0,331	-0,258
42,926	37,670	-0,289	-0,181
43,940	43,663	-0,410	-0,264
44,955	70,919	-0,339	-0,248
45,969	96,343	-0,394	-0,318
46,984	158,217	-0,394	-0,386
47,999	42,353	-0,316	-0,203
49,013	-10,882	-0,350	-0,163
50,028	4,281	-0,348	-0,179
51,042	-27,898	-0,402	-0,164
52,057	41,390	-0,285	-0,182
53,071	163,807	-0,210	-0,208
54,086	37,271	-0,382	-0,238
55,101	254,648	-0,283	-0,342
56,115	14,061	-0,341	-0,187
57,130	39,051	-0,365	-0,230
58,144	173,878	-0,276	-0,281
59,159	43,267	-0,428	-0,275
60,174	54,188	-0,460	-0,312
61,188	91,650	-0,296	-0,235
62,203	126,340	-0,378	-0,337
63,217	-33,573	-0,232	-0,090
64,232	38,615	-0,329	-0,206
65,247	110,845	-0,314	-0,267
66,261	104,758	-0,427	-0,354
67,276	119,555	-0,422	-0,368
68,290	78,031	-0,287	-0,216
69,305	32,312	-0,313	-0,190
70,320	161,301	-0,236	-0,233
71,334	291,609	-0,218	-0,280
72,349	-21,450	-0,275	-0,118
73,363	67,955	-0,242	-0,174
74,378	-59,585	-0,332	-0,100
75,393	180,824	-0,217	-0,225
76,407	108,690	-0,184	-0,155
77,422	-13,023	-0,295	-0,134
78,436	252,894	-0,255	-0,307
79,451	45,395	-0,274	-0,178
80,466	50,243	-0,384	-0,255
81,480	44,103	-0,350	-0,225
82,495	160,076	-0,313	-0,307
83,509	800,000	-0,160	-0,358
84,524	31,170	-0,284	-0,171
85,539	229,132	-0,175	-0,201
86,553	133,527	-0,164	-0,149
87,568	91,693	-0,314	-0,248
88,582	87,045	-0,307	-0,238
89,597	3,182	-0,291	-0,148
90,611	127,898	-0,236	-0,211
91,626	119,458	-0,155	-0,135
92,641	-44,197	-0,314	-0,110
93,655	-48,927	-0,261	-0,087
94,670	157,169	-0,303	-0,295
95,684	79,433	-0,297	-0,223
96,699	-29,878	-0,335	-0,133
97,714	-43,833	-0,409	-0,144
98,728	228,099	-0,156	-0,178
99,743	133,401	-0,090	-0,081
100,757	-1,875	-0,415	-0,205
101,772	-36,187	-0,319	-0,120
102,787	50,099	-0,277	-0,183
103,801	-13,658	-0,246	-0,111
104,816	149,282	-0,258	-0,246
105,830	79,930	-0,375	-0,283
106,845	32,602	-0,195	-0,118
107,860	800,000	-0,070	-0,179
108,874	10,857	-0,226	-0,121
109,889	-20,069	-0,303	-0,130
110,903	38,874	-0,342	-0,214
111,918	-28,015	-0,180	-0,073
112,933	-137,068	-0,272	-0,021
113,947	-52,418	-0,137	0,044
114,962	-21,677	-0,249	-0,106
115,976	12,828	-0,274	-0,148
116,991	-46,723	-0,354	-0,121
118,006	176,969	-0,238	-0,243
119,020	-4,580	-0,282	-0,136
120,035	378,521	-0,149	-0,214
121,049	68,797	-0,204	-0,147
122,064	158,779	-0,241	-0,235
123,079	-26,135	-0,335	-0,137
124,093	193,027	-0,246	-0,261
125,108	60,513	-0,257	-0,178
126,122	30,245	-0,172	-0,103
127,137	134,464	-0,191	-0,174
128,151	-84,440	-0,261	-0,057
129,166	34,635	-0,242	-0,148
130,181	170,978	-0,175	-0,176
131,195	24,033	-0,123	-0,071
132,210	151,978	-0,220	-0,210
133,224	4,327	-0,191	-0,098
134,239	144,733	-0,271	-0,253
135,254	373,495	-0,131	-0,187
136,268	51,496	-0,229	-0,152
137,283	348,809	-0,171	-0,237
138,297	-21,831	-0,207	-0,088
139,312	20,618	-0,382	-0,216
140,327	34,061	-0,411	-0,250
141,341	35,423	-0,149	-0,091
142,356	86,025	-0,156	-0,120
143,370	-18,582	-0,204	-0,089
144,385	16,722	-0,259	-0,143
145,400	75,712	-0,202	-0,149
146,414	144,998	-0,281	-0,263
147,429	112,388	-0,283	-0,239
148,443	-101,352	-0,452	-0,076
149,458	64,408	-0,252	-0,178
150,473	-1,603	-0,222	-0,109
151,487	-37,405	-0,244	-0,091
152,502	70,526	-0,229	-0,166
153,516	9,502	-0,226	-0,119
154,531	459,410	-0,190	-0,296
155,546	208,554	-0,175	-0,192
156,560	80,559	-0,158	-0,119
157,575	-55,457	-0,179	-0,056
158,589	-47,341	-0,364	-0,123
159,604	108,393	-0,248	-0,207
160,619	41,668	-0,323	-0,204
161,633	-47,204	-0,340	-0,115
162,648	381,237	-0,191	-0,274
163,662	-2,270	-0,238	-0,116
164,677	31,153	-0,249	-0,149
165,692	115,576	-0,246	-0,210
166,706	142,836	-0,251	-0,233
167,721	31,677	-0,297	-0,178
168,735	228,170	-0,188	-0,214
169,750	216,454	-0,172	-0,192
170,764	-13,927	-0,247	-0,111
171,779	241,409	-0,203	-0,237
172,794	108,754	-0,197	-0,164
173,808	84,844	-0,205	-0,157
174,823	-135,732	-0,170	0,014
175,837	-95,191	-0,157	-0,029
176,852	69,662	-0,089	-0,064
177,867	218,448	-0,121	-0,134
178,881	96,478	-0,265	-0,212
179,896	210,446	-0,106	-0,117
180,910	251,710	-0,176	-0,209
181,925	195,208	-0,243	-0,258
182,940	18,064	-0,234	-0,130
183,954	50,484	-0,173	-0,114
184,969	800,000	-0,155	-0,307
185,983	463,034	-0,130	-0,204
186,998	5,430	-0,198	-0,102
188,013	-38,372	-0,208	-0,076
189,027	295,238	-0,218	-0,279
190,042	557,248	-0,091	-0,154
191,056	212,757	-0,104	-0,114
192,071	279,526	-0,148	-0,184
193,086	800,000	-0,040	-0,095
194,100	187,173	-0,193	-0,201
195,115	113,836	-0,211	-0,178
196,129	-51,819	-0,258	-0,083
197,144	494,826	-0,190	-0,305
198,159	800,000	-0,091	-0,229
199,173	56,820	-0,233	-0,158
200,188	295,040	-0,119	-0,152
201,202	37,812	-0,177	-0,109
202,217	135,022	-0,167	-0,151
203,232	171,554	-0,152	-0,152
204,246	332,854	-0,139	-0,187
205,261	77,238	-0,188	-0,139
206,275	0,314	-0,160	-0,079
207,290	391,258	-0,085	-0,123
208,304	50,759	-0,114	-0,075
209,319	16,631	-0,226	-0,124
210,334	21,928	-0,214	-0,121
211,348	47,559	-0,253	-0,164
212,363	410,317	-0,093	-0,138
213,377	-22,254	-0,204	-0,085
214,392	466,706	-0,123	-0,192
215,407	800,000	-0,086	-0,240
216,421	157,669	-0,101	-0,097
217,436	-15,372	-0,326	-0,144
218,450	-66,963	-0,148	-0,040
219,465	95,052	-0,253	-0,200
220,480	490,358	-0,097	-0,154
221,494	-22,311	-0,206	-0,086
222,509	800,000	-0,077	-0,152
223,523	-200,000	-0,014	-0,248
224,538	42,551	-0,218	-0,137
225,553	-1,690	-0,305	-0,149
226,567	494,957	-0,185	-0,295
227,582	664,545	-0,087	-0,156
228,596	725,122	-0,084	-0,157
229,611	58,938	-0,160	-0,109
230,626	123,293	-0,161	-0,140
231,640	-31,214	-0,242	-0,094
232,655	-58,182	-0,198	-0,059
233,669	170,841	-0,216	-0,215
234,684	217,688	-0,198	-0,220
235,699	-18,172	-0,169	-0,073
236,713	2,973	-0,268	-0,135
237,728	-33,438	-0,066	-0,025
238,742	-184,100	-0,173	-0,002
239,757	182,939	-0,102	-0,104
240,772	307,478	-0,167	-0,216
241,786	-83,580	-0,144	-0,032
242,801	58,153	-0,173	-0,117
243,815	-44,600	-0,176	-0,061
244,830	451,092	-0,038	-0,059
245,844	41,518	-0,122	-0,076
246,859	-42,393	-0,218	-0,077
247,874	47,390	-0,191	-0,123
248,888	-23,945	-0,233	-0,096
249,903	-53,241	-0,220	-0,070
250,917	-20,107	-0,196	-0,083
251,932	-118,869	-0,139	-0,017
252,947	115,726	-0,177	-0,150
253,961	-6,002	-0,292	-0,138
254,976	289,564	-0,141	-0,178
255,990	34,672	-0,203	-0,123
257,005	652,358	-0,058	-0,104
258,020	-17,932	-0,164	-0,071
259,034	-123,729	-0,140	-0,015
260,049	230,082	-0,132	-0,150
261,063	29,811	-0,202	-0,119
262,078	-20,948	-0,246	-0,104
263,093	-200,000	-0,018	-0,187
264,107	255,367	-0,099	-0,118
265,122	-200,000	-0,005	-0,164
266,136	179,505	-0,165	-0,167
267,151	-174,239	-0,093	0,002
268,166	26,950	-0,186	-0,108
269,180	246,248	-0,096	-0,112
270,195	25,755	-0,363	-0,209
271,209	-45,446	-0,281	-0,096
272,224	91,302	-0,274	-0,213
273,239	475,535	-0,150	-0,235
274,253	133,444	-0,093	-0,083
275,268	38,514	-0,221	-0,136
276,282	345,325	-0,240	-0,327
277,297	201,975	-0,189	-0,201
278,312	119,138	-0,224	-0,191
279,326	-54,724	-0,162	0,050
280,341	510,145	-0,038	-0,061
281,355	-48,999	-0,123	-0,040
282,370	386,811	-0,183	-0,263
283,384	43,428	-0,136	-0,086
284,399	800,000	-0,137	-0,335
285,414	-14,818	-0,215	-0,095
286,428	-200,000	-0,015	-0,196
287,443	800,000	-0,117	-0,227
288,457	325,796	-0,098	-0,130
289,472	71,967	-0,104	-0,075
290,487	31,056	-0,159	-0,094
291,501	171,418	-0,199	-0,197
292,516	288,474	-0,091	-0,114
293,530	13,611	-0,138	-0,074
294,545	152,359	-0,126	-0,119
295,560	158,126	-0,055	-0,052
296,574	226,579	-0,121	-0,136
297,589	-200,000	-0,022	-0,239
298,603	154,574	-0,218	-0,207
299,618	228,201	-0,148	-0,167
300,633	-4,532	-0,291	-0,138
301,647	-11,995	-0,159	0,072
302,662	-51,442	-0,174	-0,056
303,676	-23,824	-0,269	-0,110
304,691	765,566	-0,111	-0,210
305,706	82,183	-0,121	-0,091
306,720	-44,379	-0,234	-0,080
307,735	-30,180	-0,072	-0,028
308,749	-52,726	-0,057	0,018
309,764	-200,000	-0,003	0,048
310,779	131,335	-0,165	-0,146
311,793	-40,896	-0,061	-0,022
312,808	24,128	-0,127	-0,072
313,822	192,782	-0,144	-0,150
314,837	-11,601	-0,164	-0,074
315,852	65,219	-0,248	-0,173
316,866	494,077	-0,098	-0,156
317,881	-111,673	-0,151	-0,021
318,895	-5,742	-0,225	-0,106
319,910	363,650	-0,169	-0,235
320,925	22,810	-0,180	-0,101
321,939	122,867	0,035	0,030
322,954	756,307	-0,066	-0,124
323,968	799,263	-0,110	-0,209
324,983	52,172	-0,099	0,065
325,997	-200,000	0,002	-0,163
327,012	-67,835	-0,157	-0,042
328,027	5,700	-0,132	-0,067
329,041	-57,570	-0,253	-0,076
330,056	800,000	-0,123	-0,243
331,070	-200,000	-0,028	0,103
332,085	195,882	-0,051	0,053
333,100	299,383	-0,144	-0,183
334,114	-15,296	-0,264	-0,116
335,129	296,345	-0,045	-0,057
336,143	66,953	-0,118	-0,083
337,158	-124,702	-0,207	-0,022
338,173	-59,434	-0,079	-0,023
339,187	270,397	-0,120	-0,146
340,202	28,033	-0,207	-0,120
341,216	15,561	-0,186	-0,100
342,231	662,928	-0,108	-0,193
343,246	425,180	-0,088	-0,131
344,260	800,000	-0,056	-0,145
345,275	-71,623	-0,206	0,053
346,289	-200,000	-0,026	-0,157
347,304	800,000	-0,065	-0,146
348,319	413,758	-0,140	-0,205
349,333	169,625	-0,140	-0,138
350,348	-129,915	-0,153	-0,014
351,362	53,523	-0,220	-0,145
352,377	-200,000	0,013	-0,102
353,392	79,148	-0,100	0,074
354,406	83,426	-0,103	-0,077
355,421	210,423	1311,825	1416,553
356,435	161,989	1472,221	1417,068
