DTS Sentinel unit serial number:	SN410029Multiplexer serial number:	ORYXHardware model number:	OX2-SRSoftware version number:	ORYX F/W v4,00 Oryx Data Collector v3.7.2.0data status	okinstallation	B3 Nyhavnadifferential loss correction	single-endedforward channel	channel 1reverse channel	N/Adate	2023/12/03time	15:32:30forward acquisition time	300,00reverse acquisition time	0,00gamma	499,1914k internal	0,3196k external	0,3196temperature offset calibration	1,0000default loss term (dB/km)	0,3820temperature slope calibration	1,0000multiplexer offset coefficient	1,0000multiplexer slope coefficient	1,0000fibre end	0,00T internal ref (°C)	15,75T ext. ref 1 (°C)	0,33T ext. ref 2 (°C)	0,33length (m)	temperature (°C)	Stokes	anti-Stokes-744,400	29,248	-0,281	-0,174
-743,385	-200,000	0,032	0,381
-742,371	415,951	-0,072	-0,112
-741,356	-200,000	0,022	0,253
-740,342	568,587	-0,131	-0,234
-739,327	-200,000	0,089	0,287
-738,312	146,225	-0,234	-0,229
-737,298	-200,000	0,060	0,443
-736,283	133,189	-0,248	-0,233
-735,269	-200,000	0,005	0,272
-734,254	759,732	-0,146	-0,290
-733,239	55,152	-0,162	0,114
-732,225	-200,000	-0,002	-0,303
-731,210	-200,000	0,026	0,137
-730,196	-141,992	-0,020	-0,001
-729,181	43,090	-0,099	0,066
-728,167	-200,000	-0,006	0,047
-727,152	272,574	-0,081	0,105
-726,137	-200,000	-0,003	0,035
-725,123	92,755	-0,078	-0,064
-724,108	435,246	0,039	0,062
-723,094	-200,000	-0,036	-0,248
-722,079	187,845	-0,067	-0,073
-721,064	-116,826	-0,102	0,013
-720,050	110,755	0,053	-0,046
-719,035	-200,000	0,004	-0,055
-718,021	800,000	0,030	-0,078
-717,006	27,893	-0,172	-0,106
-715,991	-200,000	0,018	-0,124
-714,977	47,709	-0,109	-0,074
-713,962	-83,787	0,116	0,027
-712,948	228,267	0,039	-0,047
-711,933	800,000	0,059	-0,160
-710,918	408,295	0,081	-0,124
-709,904	-200,000	0,001	-0,019
-708,889	-77,271	-0,083	0,021
-707,875	651,878	-0,040	-0,075
-706,860	-200,000	0,006	-0,105
-705,845	-126,563	-0,063	0,007
-704,831	-193,799	0,215	0,001
-703,816	-37,246	-0,051	-0,020
-702,802	151,426	-0,035	0,034
-701,787	-56,708	-0,107	-0,034
-700,772	-91,019	0,072	0,015
-699,758	-200,000	-0,032	-0,109
-698,743	-153,403	0,148	-0,007
-697,729	800,000	0,067	0,178
-696,714	-73,740	-0,085	0,022
-695,699	304,600	0,029	-0,039
-694,685	78,596	0,041	-0,032
-693,670	-92,390	-0,150	0,031
-692,656	-23,180	-0,099	-0,043
-691,641	-122,185	0,189	-0,022
-690,627	614,801	0,030	0,054
-689,612	279,661	0,116	-0,151
-688,597	184,669	-0,053	-0,057
-687,583	-143,835	-0,082	-0,006
-686,568	800,000	0,021	-0,061
-685,554	141,820	0,059	0,057
-684,539	800,000	0,006	0,016
-683,524	-122,730	0,088	-0,010
-682,510	32,984	0,105	-0,066
-681,495	389,569	-0,072	0,109
-680,481	467,462	-0,078	0,127
-679,466	800,000	-0,046	-0,094
-678,451	800,000	0,009	-0,021
-677,437	353,368	0,055	0,079
-676,422	-200,000	-0,001	0,038
-675,408	-200,000	0,015	0,130
-674,393	800,000	0,060	0,145
-673,378	256,484	-0,020	-0,025
-672,364	-200,000	-0,002	-0,098
-671,349	-200,000	-0,004	-0,086
-670,335	-11,204	-0,049	0,024
-669,320	29,381	-0,094	0,058
-668,305	800,000	0,017	-0,053
-667,291	-200,000	-0,003	0,029
-666,276	312,385	-0,034	-0,046
-665,262	148,500	-0,075	-0,074
-664,247	38,262	0,052	-0,034
-663,232	-200,000	-0,005	0,051
-662,218	-200,000	-0,018	-0,123
-661,203	-48,765	0,124	-0,043
-660,189	183,287	-0,042	-0,045
-659,174	-200,000	-0,004	-0,025
-658,159	-200,000	0,005	-0,136
-657,145	49,044	0,069	-0,047
-656,130	-131,004	0,139	0,013
-655,116	-53,406	0,101	0,033
-654,101	-96,045	0,053	-0,010
-653,086	-75,767	0,131	0,033
-652,072	800,000	-0,007	0,021
-651,057	-166,971	0,062	0,002
-650,043	-200,000	0,029	0,146
-649,028	3,136	-0,142	-0,075
-648,014	-3,389	-0,044	0,022
-646,999	9,322	-0,019	0,011
-645,984	-82,633	0,045	0,010
-644,970	658,257	0,021	0,040
-643,955	-200,000	0,033	0,168
-642,941	-134,357	-0,137	-0,012
-641,926	-200,000	0,018	0,066
-640,911	-200,000	-0,010	-0,051
-639,897	-200,000	0,015	0,064
-638,882	784,322	-0,053	0,105
-637,868	-200,000	-0,006	-0,039
-636,853	37,230	-0,114	-0,073
-635,838	213,200	-0,041	-0,047
-634,824	118,501	0,029	-0,026
-633,809	48,091	-0,084	0,057
-632,795	-85,565	0,105	0,023
-631,780	-51,753	0,102	-0,034
-630,765	87,763	-0,018	-0,015
-629,751	315,368	-0,066	-0,091
-628,736	-200,000	-0,009	-0,059
-627,722	-107,159	0,054	0,009
-626,707	-200,000	0,015	-0,116
-625,692	-200,000	0,039	-0,137
-624,678	-200,000	-0,002	-0,102
-623,663	341,090	0,010	-0,014
-622,649	212,673	0,074	0,085
-621,634	29,052	-0,065	0,040
-620,619	630,202	-0,043	-0,080
-619,605	800,000	-0,062	0,128
-618,590	-176,628	0,111	0,002
-617,576	-186,972	-0,109	0,001
-616,561	159,798	-0,055	0,056
-615,546	69,254	0,062	-0,046
-614,532	102,659	-0,096	-0,081
-613,517	800,000	0,016	-0,046
-612,503	-200,000	-0,003	0,047
-611,488	-200,000	-0,030	0,123
-610,474	800,000	0,042	0,096
-609,459	266,986	0,007	0,009
-608,444	-200,000	0,000	-0,015
-607,430	88,441	0,060	0,049
-606,415	-200,000	-0,017	0,079
-605,401	-200,000	-0,012	0,106
-604,386	800,000	-0,023	0,057
-603,371	415,333	0,051	-0,079
-602,357	0,534	0,059	0,030
-601,342	-129,911	-0,063	0,006
-600,328	-200,000	0,007	-0,114
-599,313	749,570	-0,036	-0,071
-598,298	-80,878	-0,100	0,024
-597,284	148,389	0,062	0,061
-596,269	-200,000	0,023	0,115
-595,255	-200,000	-0,030	-0,110
-594,240	193,362	-0,065	-0,071
-593,225	426,665	-0,066	-0,103
-592,211	219,438	-0,155	-0,180
-591,196	24,326	-0,043	0,026
-590,182	-200,000	-0,008	0,091
-589,167	-103,784	0,163	0,027
-588,152	-200,000	-0,005	0,019
-587,138	-73,861	-0,043	-0,011
-586,123	239,525	-0,131	-0,159
-585,109	-200,000	0,030	-0,124
-584,094	-121,026	-0,036	-0,004
-583,079	-200,000	0,000	-0,022
-582,065	-173,315	0,108	0,002
-581,050	-98,145	-0,052	0,010
-580,036	800,000	0,045	-0,120
-579,021	-200,000	-0,012	-0,061
-578,006	-126,925	-0,141	-0,015
-576,992	-54,169	-0,063	-0,021
-575,977	542,668	-0,053	0,092
-574,963	800,000	0,014	-0,029
-573,948	-127,938	0,138	-0,014
-572,934	-200,000	-0,012	-0,087
-571,919	14,721	-0,162	-0,091
-570,904	590,898	-0,012	-0,021
-569,890	-110,536	-0,052	-0,008
-568,875	109,424	0,100	-0,087
-567,861	-160,694	-0,090	-0,003
-566,846	-200,000	-0,010	-0,142
-565,831	230,986	-0,024	-0,029
-564,817	29,957	0,048	-0,030
-563,802	-70,410	-0,154	-0,042
-562,788	-200,000	-0,004	0,052
-561,773	800,000	-0,034	-0,081
-560,758	-28,119	0,146	-0,061
-559,744	269,483	0,039	-0,049
-558,729	-200,000	-0,011	-0,065
-557,715	452,321	-0,044	-0,070
-556,700	-83,658	0,024	0,006
-555,685	799,698	-0,020	0,041
-554,671	272,051	0,033	-0,043
-553,656	-200,000	0,009	0,175
-552,642	172,246	0,082	-0,085
-551,627	-200,000	0,012	0,049
-550,612	-80,539	0,034	0,008
-549,598	66,683	0,048	-0,035
-548,583	690,367	-0,012	-0,024
-547,569	3,613	-0,123	-0,065
-546,554	-20,617	0,028	0,012
-545,539	800,000	0,048	0,118
-544,525	-56,481	0,036	0,012
-543,510	-62,762	0,098	0,029
-542,496	-75,147	-0,062	-0,016
-541,481	-200,000	-0,012	-0,083
-540,466	49,657	-0,105	-0,072
-539,452	-21,385	0,044	-0,019
-538,437	800,000	0,044	0,130
-537,423	800,000	0,024	-0,061
-536,408	233,021	0,039	0,046
-535,393	206,912	0,032	-0,036
-534,379	-13,491	0,011	-0,005
-533,364	-143,887	-0,101	0,007
-532,350	455,917	0,024	0,038
-531,335	-173,722	0,053	-0,001
-530,321	246,466	0,033	-0,041
-529,306	-200,000	-0,025	0,109
-528,291	800,000	-0,030	0,078
-527,277	-41,193	-0,048	0,018
-526,262	-112,663	-0,102	-0,014
-525,248	478,895	-0,030	-0,049
-524,233	800,000	0,041	-0,109
-523,218	102,355	0,011	0,009
-522,204	213,967	0,067	0,077
-521,189	171,683	-0,114	-0,118
-520,175	-15,504	-0,097	-0,045
-519,160	-151,178	0,115	0,006
-518,145	774,945	-0,057	0,114
-517,131	-59,793	0,088	0,027
-516,116	184,881	-0,070	-0,075
-515,102	71,708	0,144	0,108
-514,087	-135,178	-0,161	-0,014
-513,072	2,944	-0,046	-0,024
-512,058	-200,000	-0,002	-0,094
-511,043	-70,962	0,132	-0,036
-510,029	24,532	0,071	-0,042
-509,014	-165,464	0,062	0,002
-507,999	311,735	-0,026	0,036
-506,985	-97,493	-0,054	0,010
-505,970	-106,226	-0,204	0,033
-504,956	800,000	0,036	0,077
-503,941	461,497	0,019	-0,030
-502,926	133,965	0,156	-0,146
-501,912	-200,000	0,008	-0,078
-500,897	2,078	0,191	0,099
-499,883	-97,681	-0,132	0,024
-498,868	800,000	0,019	-0,049
-497,853	-157,275	-0,101	-0,004
-496,839	-98,287	0,070	-0,013
-495,824	-200,000	-0,006	0,093
-494,810	-42,819	0,040	0,015
-493,795	-76,649	-0,098	-0,025
-492,781	-200,000	-0,002	-0,023
-491,766	62,200	-0,053	-0,038
-490,751	237,185	0,007	0,008
-489,737	-200,000	-0,003	-0,029
-488,722	383,651	0,043	0,064
-487,708	-95,553	0,108	-0,021
-486,693	32,200	-0,032	0,020
-485,678	-200,000	0,001	0,102
-484,664	63,756	-0,133	0,096
-483,649	800,000	0,030	-0,093
-482,635	-101,869	-0,120	-0,021
-481,620	431,098	0,060	0,095
-480,605	558,383	0,038	0,066
-479,591	-41,830	0,073	0,027
-478,576	800,000	-0,019	-0,046
-477,562	141,747	-0,096	-0,092
-476,547	167,707	-0,235	-0,241
-475,532	800,000	0,045	-0,097
-474,518	800,000	-0,026	0,081
-473,503	-200,000	-0,010	0,075
-472,489	800,000	0,098	0,222
-471,474	271,522	-0,042	-0,053
-470,459	117,067	-0,109	-0,097
-469,445	13,524	0,024	0,013
-468,430	210,178	-0,035	-0,040
-467,416	800,000	0,023	-0,048
-466,401	-28,860	0,063	0,026
-465,386	74,330	0,144	0,109
-464,372	393,050	0,042	-0,063
-463,357	608,570	-0,038	0,069
-462,343	671,404	-0,093	-0,174
-461,328	43,390	-0,064	-0,042
-460,313	112,867	0,052	0,045
-459,299	-92,014	0,152	0,031
-458,284	442,549	-0,039	-0,061
-457,270	-200,000	0,006	-0,116
-456,255	800,000	0,048	-0,143
-455,241	262,274	-0,151	-0,189
-454,226	-200,000	0,032	-0,210
-453,211	-200,000	-0,009	-0,083
-452,197	-168,569	-0,114	-0,003
-451,182	800,000	-0,065	0,156
-450,168	-200,000	0,003	0,121
-449,153	572,165	-0,024	0,042
-448,138	90,122	-0,094	0,076
-447,124	126,651	0,091	0,083
-446,109	87,298	0,106	0,084
-445,095	-169,495	0,055	-0,001
-444,080	-200,000	-0,026	-0,089
-443,065	-200,000	0,014	0,046
-442,051	173,475	-0,049	-0,051
-441,036	493,646	-0,092	-0,152
-440,022	800,000	0,046	-0,114
-439,007	80,411	-0,092	0,071
-437,992	144,710	0,032	0,030
-436,978	-200,000	0,009	0,109
-435,963	-71,388	0,125	-0,034
-434,949	-85,034	-0,066	0,015
-433,934	-121,146	0,036	0,004
-432,919	-200,000	0,017	-0,090
-431,905	214,231	-0,091	-0,104
-430,890	15,351	0,050	0,028
-429,876	45,617	0,071	-0,047
-428,861	149,813	-0,106	-0,103
-427,846	120,333	0,088	0,079
-426,832	-197,813	-0,021	0,000
-425,817	4,102	-0,049	-0,026
-424,803	196,388	0,090	0,098
-423,788	689,221	-0,016	-0,030
-422,773	-128,976	-0,054	-0,005
-421,759	-2,214	0,096	0,048
-420,744	77,199	0,063	0,048
-419,730	-181,921	-0,118	0,002
-418,715	658,097	-0,046	0,086
-417,701	144,355	-0,090	0,086
-416,686	144,933	-0,024	-0,024
-415,671	37,429	0,129	0,082
-414,657	255,528	-0,035	0,043
-413,642	-200,000	0,019	0,088
-412,628	-200,000	0,005	-0,024
-411,613	-15,151	-0,076	0,035
-410,598	800,000	0,060	-0,158
-409,584	64,226	-0,049	0,036
-408,569	-200,000	-0,016	0,056
-407,555	800,000	-0,019	0,056
-406,540	217,019	-0,079	0,091
-405,525	-200,000	0,001	0,142
-404,511	-200,000	0,000	0,017
-403,496	75,210	-0,009	-0,007
-402,482	800,000	-0,053	-0,156
-401,467	-123,448	0,073	-0,008
-400,452	-154,890	-0,017	-0,001
-399,438	22,825	0,153	0,090
-398,423	-143,192	0,021	-0,001
-397,409	-160,650	-0,074	0,003
-396,394	268,903	0,027	-0,035
-395,379	-200,000	-0,022	-0,093
-394,365	-106,403	0,098	0,016
-393,350	-95,489	0,095	0,018
-392,336	-33,411	0,138	0,055
-391,321	295,992	0,126	-0,167
-390,306	-119,219	-0,112	-0,014
-389,292	-1,132	-0,073	-0,037
-388,277	800,000	-0,031	-0,086
-387,263	-50,049	0,032	-0,011
-386,248	-200,000	-0,002	-0,106
-385,233	-200,000	0,005	0,223
-384,219	800,000	0,051	0,132
-383,204	-200,000	0,027	-0,137
-382,190	285,060	-0,115	-0,149
-381,175	-200,000	0,003	0,022
-380,160	172,459	0,082	-0,084
-379,146	72,379	0,029	0,021
-378,131	0,249	-0,060	0,031
-377,117	68,928	-0,134	0,099
-376,102	84,817	-0,068	-0,054
-375,088	-200,000	0,003	-0,032
-374,073	46,291	0,061	0,040
-373,058	-23,844	0,097	0,042
-372,044	190,699	0,045	0,049
-371,029	-200,000	-0,003	0,103
-370,015	-70,451	0,174	0,047
-369,000	121,617	-0,101	-0,090
-367,985	-152,121	-0,069	0,004
-366,971	-79,593	0,107	-0,026
-365,956	-99,283	0,078	-0,014
-364,942	-200,000	-0,002	0,046
-363,927	800,000	-0,028	-0,071
-362,912	24,253	0,070	-0,042
-361,898	-92,125	0,062	0,013
-360,883	800,000	0,053	-0,157
-359,869	41,304	-0,025	-0,016
-358,854	634,651	0,052	0,095
-357,839	800,000	-0,029	-0,062
-356,825	800,000	-0,032	-0,074
-355,810	-8,002	-0,054	0,026
-354,796	-152,974	0,073	0,004
-353,781	-200,000	-0,002	-0,015
-352,766	-68,904	-0,059	-0,016
-351,752	800,000	0,056	-0,115
-350,737	-34,174	0,094	0,037
-349,723	800,000	0,047	0,130
-348,708	532,433	0,048	0,081
-347,693	672,124	0,087	-0,162
-346,679	-114,204	-0,100	0,014
-345,664	-150,488	0,264	-0,014
-344,650	-200,000	-0,005	-0,118
-343,635	-200,000	-0,047	-0,168
-342,620	274,012	0,089	-0,113
-341,606	73,528	-0,074	-0,056
-340,591	-200,000	0,016	-0,103
-339,577	-200,000	0,001	0,054
-338,562	-200,000	0,006	0,080
-337,548	268,133	0,110	0,138
-336,533	155,868	0,087	0,086
-335,518	36,354	0,030	-0,019
-334,504	800,000	0,020	0,040
-333,489	-200,000	-0,002	0,059
-332,475	-105,524	-0,124	0,020
-331,460	-200,000	-0,001	0,094
-330,445	19,323	-0,035	-0,020
-329,431	20,230	-0,043	-0,025
-328,416	-200,000	0,013	0,074
-327,402	800,000	0,004	0,009
-326,387	312,870	0,046	0,062
-325,372	-200,000	0,020	-0,078
-324,358	800,000	0,036	-0,090
-323,343	-200,000	0,026	0,100
-322,329	-46,140	-0,082	-0,029
-321,314	-40,969	-0,059	0,022
-320,299	800,000	0,030	0,083
-319,285	-200,000	-0,006	0,126
-318,270	241,480	-0,049	-0,059
-317,256	-31,785	-0,041	0,016
-316,241	-120,720	0,065	0,008
-315,226	-200,000	0,032	0,130
-314,212	569,027	0,047	0,083
-313,197	65,241	0,025	-0,018
-312,183	-67,348	0,061	0,017
-311,168	-200,000	0,023	-0,074
-310,153	800,000	-0,041	0,121
-309,139	-200,000	0,000	-0,054
-308,124	657,371	-0,030	-0,056
-307,110	78,305	0,024	0,019
-306,095	55,813	0,158	0,110
-305,080	245,573	-0,075	0,091
-304,066	-200,000	0,004	0,033
-303,051	800,000	-0,017	0,041
-302,037	-200,000	-0,022	0,097
-301,022	800,000	-0,023	0,067
-300,008	800,000	-0,028	0,061
-298,993	800,000	0,096	0,210
-297,978	153,857	-0,076	0,074
-296,964	800,000	0,009	0,022
-295,949	299,276	-0,075	-0,099
-294,935	-159,121	-0,024	0,001
-293,920	800,000	-0,028	0,072
-292,905	433,694	0,025	-0,039
-291,891	179,741	-0,042	0,044
-290,876	-200,000	-0,011	-0,050
-289,862	27,188	0,123	-0,074
-288,847	483,442	-0,056	-0,092
-287,832	87,516	0,065	0,052
-286,818	375,771	-0,043	0,062
-285,803	582,677	0,021	0,037
-284,789	-45,192	-0,081	-0,029
-283,774	18,904	0,059	-0,034
-282,759	-99,063	0,085	-0,015
-281,745	800,000	-0,062	0,125
-280,730	359,557	0,036	-0,052
-279,716	-200,000	-0,011	-0,079
-278,701	62,362	-0,107	0,076
-277,686	-200,000	-0,030	0,123
-276,672	800,000	0,051	0,101
-275,657	800,000	-0,021	0,053
-274,643	98,721	-0,042	0,035
-273,628	72,726	0,102	-0,076
-272,613	163,343	0,016	-0,016
-271,599	207,586	0,083	0,093
-270,584	568,022	0,042	0,074
-269,570	800,000	-0,034	-0,074
-268,555	-200,000	-0,093	0,000
-267,540	122,745	-0,067	-0,060
-266,526	-98,957	-0,055	-0,010
-265,511	-200,000	0,025	-0,114
-264,497	-200,000	-0,015	-0,064
-263,482	73,353	0,114	-0,085
-262,467	534,000	0,082	0,140
-261,453	-25,195	0,069	0,029
-260,438	-200,000	-0,003	-0,106
-259,424	246,220	0,038	0,046
-258,409	505,645	-0,035	-0,059
-257,395	800,000	-0,015	-0,037
-256,380	-200,000	0,007	0,064
-255,365	800,000	0,009	-0,025
-254,351	524,861	0,067	0,112
-253,336	11,291	0,067	-0,036
-252,322	463,870	-0,048	-0,077
-251,307	100,174	-0,095	0,079
-250,292	406,909	-0,028	0,043
-249,278	174,821	0,077	0,080
-248,263	38,361	0,080	-0,051
-247,249	-43,812	-0,161	0,058
-246,234	800,000	0,061	0,140
-245,219	-200,000	-0,001	-0,009
-244,205	125,614	-0,083	-0,075
-243,190	-200,000	-0,019	-0,153
-242,176	69,016	0,101	-0,074
-241,161	350,273	0,127	0,180
-240,146	-70,191	-0,049	0,013
-239,132	-120,222	-0,022	-0,003
-238,117	652,432	-0,026	0,048
-237,103	-200,000	-0,032	-0,106
-236,088	131,740	0,026	0,024
-235,073	194,668	0,107	0,116
-234,059	387,440	0,039	0,058
-233,044	635,904	-0,064	0,117
-232,030	800,000	-0,042	0,124
-231,015	-200,000	-0,018	-0,084
-230,000	540,998	-0,084	-0,143
-228,986	-200,000	-0,009	0,054
-227,971	118,079	0,088	0,078
-226,957	118,462	0,042	0,037
-225,942	511,267	0,040	0,066
-224,927	-78,123	-0,137	-0,033
-223,913	800,000	0,045	-0,127
-222,898	534,817	0,028	-0,047
-221,884	800,000	-0,081	0,196
-220,869	238,528	-0,020	0,023
-219,855	-29,733	0,243	0,098
-218,840	34,311	0,150	0,093
-217,825	17,034	0,059	0,033
-216,811	-192,059	-0,042	0,000
-215,796	-123,590	-0,119	0,013
-214,782	45,073	-0,012	-0,008
-213,767	33,295	-0,098	0,061
-212,752	800,000	0,003	0,007
-211,738	256,523	0,069	0,085
-210,723	218,524	-0,073	-0,083
-209,709	-166,667	0,059	0,002
-208,694	620,396	-0,072	-0,131
-207,679	-0,287	-0,134	-0,068
-206,665	800,000	0,053	-0,120
-205,650	547,761	0,084	-0,144
-204,636	800,000	-0,030	0,088
-203,621	-200,000	-0,010	-0,035
-202,606	621,948	-0,046	0,083
-201,592	34,884	0,045	0,028
-200,577	666,053	-0,059	-0,110
-199,563	467,290	-0,059	-0,095
-198,548	249,773	-0,025	-0,030
-197,533	13,795	-0,065	-0,036
-196,519	-41,488	0,070	0,025
-195,504	-88,153	-0,129	-0,027
-194,490	-169,251	0,078	0,002
-193,475	-200,000	0,009	-0,034
-192,460	321,474	-0,032	0,044
-191,446	6,372	-0,053	0,028
-190,431	185,785	0,102	0,108
-189,417	-25,953	-0,045	0,019
-188,402	781,410	0,048	0,094
-187,387	199,394	-0,092	-0,101
-186,373	-85,546	-0,064	0,014
-185,358	95,658	0,042	0,034
-184,344	-200,000	0,015	-0,061
-183,329	-13,084	0,125	-0,058
-182,315	149,653	-0,053	0,052
-181,300	26,810	-0,035	0,021
-180,285	509,804	0,048	-0,079
-179,271	76,807	-0,134	-0,101
-178,256	800,000	0,060	-0,186
-177,242	-109,537	0,039	-0,006
-176,227	143,685	0,041	-0,039
-175,212	800,000	-0,017	-0,034
-174,198	94,593	-0,096	-0,078
-173,183	15,101	-0,043	-0,024
-172,169	-18,014	-0,015	-0,007
-171,154	53,412	0,099	0,068
-170,139	581,860	-0,007	-0,013
-169,125	173,899	0,051	-0,052
-168,110	-200,000	-0,016	0,052
-167,096	-200,000	0,006	0,062
-166,081	-106,680	-0,106	0,017
-165,066	114,844	0,071	-0,061
-164,052	11,641	0,082	-0,045
-163,037	-45,865	0,102	0,036
-162,023	-47,109	-0,165	0,057
-161,008	-200,000	0,048	0,161
-159,993	-200,000	0,021	0,072
-158,979	-133,823	0,060	-0,005
-157,964	-200,000	0,018	0,093
-156,950	800,000	0,030	0,083
-155,935	-53,729	-0,023	0,007
-154,920	-117,904	0,100	0,013
-153,906	800,000	0,022	0,069
-152,891	122,090	-0,189	0,168
-151,877	-200,000	-0,010	0,076
-150,862	26,523	0,049	0,029
-149,847	200,725	0,062	0,068
-148,833	534,340	-0,010	0,018
-147,818	18,754	-0,077	0,044
-146,804	800,000	0,052	-0,140
-145,789	12,554	-0,110	0,060
-144,775	-200,000	0,001	-0,123
-143,760	19,458	-0,059	-0,033
-142,745	-200,000	-0,022	0,078
-141,731	-196,115	-0,058	0,000
-140,716	-200,000	-0,003	0,055
-139,702	433,687	0,104	0,161
-138,687	800,000	0,015	-0,034
-137,672	-200,000	0,030	0,144
-136,658	62,219	-0,060	0,042
-135,643	14,430	0,033	-0,019
-134,629	-121,140	0,033	-0,004
-133,614	-200,000	0,014	0,124
-132,599	-200,000	0,096	0,000
-131,585	-160,502	0,060	0,002
-130,570	-200,000	-0,011	0,074
-129,556	-49,372	0,073	0,025
-128,541	302,263	-0,070	-0,092
-127,526	-200,000	0,006	-0,047
-126,512	-27,705	0,114	0,047
-125,497	112,383	0,040	0,035
-124,483	800,000	0,053	0,107
-123,468	-32,017	0,105	-0,042
-122,453	546,073	-0,060	-0,103
-121,439	-200,000	-0,014	-0,054
-120,424	197,546	-0,094	-0,102
-119,410	-179,826	0,075	-0,001
-118,395	190,059	0,131	0,140
-117,380	143,817	0,068	0,065
-116,366	129,893	-0,019	0,017
-115,351	-79,957	0,097	0,023
-114,337	25,195	-0,047	-0,028
-113,322	-26,231	-0,020	0,008
-112,307	361,125	0,026	0,038
-111,293	535,485	-0,042	0,071
-110,278	-110,988	-0,040	0,006
-109,264	176,460	-0,065	0,067
-108,249	174,506	-0,057	0,059
-107,234	-154,590	0,036	-0,002
-106,220	226,974	-0,083	-0,095
-105,205	-172,134	0,128	0,003
-104,191	21,308	0,151	0,087
-103,176	-200,000	-0,029	0,152
-102,162	8,541	-0,015	0,008
-101,147	104,898	0,102	-0,085
-100,132	104,065	0,042	0,035
-99,118	663,924	-0,105	0,192
-98,103	-200,000	0,001	-0,024
-97,089	-108,302	0,170	-0,026
-96,074	541,389	-0,014	0,024
-95,059	259,405	-0,061	0,075
-94,045	74,833	-0,052	0,039
-93,030	-200,000	-0,035	-0,118
-92,016	-200,000	0,006	-0,031
-91,001	800,000	-0,034	0,089
-89,986	-200,000	-0,008	-0,030
-88,972	-13,411	0,129	0,059
-87,957	182,490	-0,036	0,038
-86,943	2,744	0,092	0,047
-85,928	564,851	0,076	0,132
-84,913	-73,768	-0,172	-0,044
-83,899	192,823	0,042	0,045
-82,884	-200,000	0,027	0,174
-81,870	529,809	0,051	0,086
-80,855	-98,450	-0,080	-0,014
-79,840	-44,012	-0,084	0,030
-78,826	190,772	0,071	-0,076
-77,811	-73,321	-0,048	0,012
-76,797	800,000	-0,105	-0,214
-75,782	-158,894	0,068	-0,003
-74,767	77,073	-0,086	0,065
-73,753	6,061	0,052	-0,027
-72,738	32,020	0,063	-0,039
-71,724	210,302	-0,043	-0,048
-70,709	-200,000	0,006	-0,046
-69,694	-200,000	0,009	0,061
-68,680	51,763	-0,144	0,097
-67,665	800,000	0,067	0,177
-66,651	-200,000	-0,008	0,145
-65,636	-46,184	-0,147	0,051
-64,622	91,900	-0,144	-0,115
-63,607	190,277	0,058	0,062
-62,592	800,000	0,018	-0,054
-61,578	-200,000	-0,021	-0,136
-60,563	29,505	0,088	-0,053
-59,549	-165,538	0,100	-0,003
-58,534	-64,803	-1,349	-0,385
-57,519	316,180	-1,530	-2,054
-56,505	-200,000	-0,574	-4,504
-55,490	187,972	1,021	1,083
-54,476	800,000	4,644	10,846
-53,461	-200,000	17,778	285,368
-52,446	800,000	722,809	2234,708
-51,432	562,984	1637,864	2822,000
-50,417	80,828	1660,872	1268,893
-49,403	23,636	1534,743	893,480
-48,388	17,550	1458,216	819,521
-47,373	18,186	1447,842	816,718
-46,359	17,755	1438,511	809,363
-45,344	15,911	1433,718	797,851
-44,330	15,817	1431,676	796,236
-43,315	15,815	1430,248	795,401
-42,300	15,808	1428,456	794,339
-41,286	15,866	1427,226	793,899
-40,271	15,844	1425,971	793,066
-39,257	15,836	1424,719	792,298
-38,242	15,864	1423,406	791,669
-37,227	15,888	1422,150	791,054
-36,213	15,870	1421,020	790,308
-35,198	15,863	1419,742	789,533
-34,184	15,876	1418,671	788,968
-33,169	15,793	1417,591	787,946
-32,154	15,857	1416,581	787,654
-31,140	15,817	1415,310	786,729
-30,125	15,903	1413,902	786,318
-29,111	15,829	1412,896	785,382
-28,096	15,802	1412,010	784,731
-27,082	15,776	1410,831	783,922
-26,067	15,819	1409,426	783,312
-25,052	15,830	1408,636	782,894
-24,038	15,768	1407,799	782,104
-23,023	15,765	1406,557	781,369
-22,009	15,760	1405,451	780,700
-20,994	15,757	1404,490	780,123
-19,979	15,751	1403,748	779,652
-18,965	15,728	1402,601	778,879
-17,950	15,752	1401,578	778,388
-16,936	15,739	1400,831	777,884
-15,921	15,648	1399,657	776,777
-14,906	15,661	1398,444	776,135
-13,892	15,688	1397,847	775,899
-12,877	15,666	1396,954	775,269
-11,863	15,688	1395,951	774,784
-10,848	15,691	1394,898	774,185
-9,833	15,647	1394,045	773,475
-8,819	15,617	1392,948	772,696
-7,804	15,619	1392,058	772,182
-6,790	15,606	1391,161	771,594
-5,775	15,583	1390,126	770,881
-4,760	15,549	1389,453	770,323
-3,746	15,601	1388,528	770,019
-2,731	15,594	1387,612	769,446
-1,717	15,576	1386,735	768,848
-0,702	15,563	1384,899	767,740
0,313	19,368	1305,231	741,152
1,327	35,736	706,995	439,410
2,342	54,623	125,117	85,344
3,356	4,769	16,609	8,620
4,371	8,956	3,071	1,637
5,386	-39,419	0,577	0,213
6,400	409,377	0,075	0,113
7,415	171,620	-0,181	-0,184
8,429	-47,119	-0,369	-0,127
9,444	108,723	-0,315	-0,267
10,459	30,615	-0,344	-0,208
11,473	173,284	-0,250	-0,256
12,488	43,928	-0,308	-0,199
13,502	-32,326	-0,330	-0,130
14,517	-6,519	-0,292	-0,140
15,531	153,040	-0,351	-0,340
16,546	70,748	-0,413	-0,302
17,561	42,514	-0,387	-0,249
18,575	-160,622	-0,267	0,010
19,590	232,163	-0,268	-0,312
20,604	-8,818	-0,265	-0,125
21,619	228,585	-0,336	-0,388
22,634	127,810	-0,499	-0,449
23,648	94,384	-0,404	-0,324
24,663	122,809	-0,317	-0,280
25,677	39,988	-0,384	-0,243
26,692	114,276	-0,353	-0,303
27,707	18,120	-0,227	-0,128
28,721	77,461	-0,307	-0,231
29,736	2,924	-0,455	-0,233
30,750	188,905	-0,502	-0,531
31,765	232,456	-0,274	-0,319
32,780	21,715	-0,372	-0,214
33,794	25,624	-0,392	-0,230
34,809	-102,306	-0,379	-0,064
35,823	101,577	-0,354	-0,291
36,838	-15,051	-0,412	-0,186
37,853	75,537	-0,355	-0,265
38,867	74,234	-0,333	-0,246
39,882	93,036	-0,299	-0,238
40,896	-31,394	-0,335	-0,132
41,911	40,220	-0,309	-0,196
42,926	108,561	-0,448	-0,378
43,940	46,591	-0,353	-0,231
44,955	800,000	-0,167	-0,330
45,969	-16,178	-0,509	-0,227
46,984	106,629	-0,374	-0,313
47,999	103,492	-0,313	-0,259
49,013	49,004	-0,390	-0,258
50,028	207,430	-0,304	-0,335
51,042	97,516	-0,343	-0,278
52,057	282,966	-0,256	-0,325
53,071	147,397	-0,296	-0,282
54,086	54,679	-0,280	-0,190
55,101	118,832	-0,245	-0,214
56,115	45,468	-0,441	-0,287
57,130	8,467	-0,323	-0,171
58,144	19,161	-0,429	-0,242
59,159	170,649	-0,349	-0,353
60,174	46,826	-0,442	-0,289
61,188	100,303	-0,364	-0,297
62,203	279,067	-0,233	-0,294
63,217	-64,623	-0,394	-0,112
64,232	-13,116	-0,450	-0,205
65,247	91,817	-0,271	-0,215
66,261	14,676	-0,482	-0,265
67,276	76,910	-0,323	-0,241
68,290	104,469	-0,261	-0,217
69,305	-61,806	-0,282	-0,083
70,320	340,798	-0,223	-0,308
71,334	25,727	-0,391	-0,229
72,349	101,903	-0,341	-0,280
73,363	17,226	-0,387	-0,216
74,378	101,255	-0,353	-0,289
75,393	256,128	-0,253	-0,306
76,407	36,889	-0,236	-0,146
77,422	120,314	-0,267	-0,233
78,436	67,163	-0,318	-0,228
79,451	115,462	-0,285	-0,245
80,466	116,509	-0,200	-0,173
81,480	-98,826	-0,498	-0,088
82,495	-23,724	-0,123	-0,052
83,509	532,234	-0,170	-0,285
84,524	-0,946	-0,359	-0,178
85,539	-66,758	-0,297	-0,082
86,553	395,149	-0,288	-0,423
87,568	86,671	-0,378	-0,293
88,582	47,490	-0,404	-0,265
89,597	81,614	-0,272	-0,206
90,611	-63,926	-0,387	-0,111
91,626	330,607	-0,189	-0,256
92,641	77,235	-0,290	-0,216
93,655	55,413	-0,288	-0,195
94,670	-74,036	-0,313	-0,079
95,684	320,750	-0,215	-0,288
96,699	137,719	-0,192	-0,177
97,714	250,333	-0,188	-0,224
98,728	7,643	-0,246	-0,129
99,743	57,015	-0,180	-0,123
100,757	445,139	-0,214	-0,331
101,772	106,837	-0,317	-0,264
102,787	607,879	-0,157	-0,277
103,801	24,692	-0,369	-0,214
104,816	-66,401	-0,351	-0,097
105,830	102,696	-0,214	-0,176
106,845	41,598	-0,206	-0,130
107,860	-17,495	-0,269	-0,118
108,874	-5,731	-0,258	-0,124
109,889	-3,202	-0,361	-0,176
110,903	131,216	-0,172	-0,155
111,918	69,624	-0,232	-0,168
112,933	-63,968	-0,191	0,054
113,947	-14,559	-0,263	-0,118
114,962	-42,977	-0,288	-0,102
115,976	137,357	-0,139	-0,127
116,991	7,639	-0,210	-0,110
118,006	71,741	-0,244	-0,177
119,020	118,507	-0,243	-0,210
120,035	-161,556	-0,286	0,010
121,049	-81,471	-0,209	-0,048
122,064	-43,481	-0,208	-0,073
123,079	-49,540	-0,207	-0,069
124,093	18,770	-0,329	-0,184
125,108	144,175	-0,307	-0,287
126,122	-141,591	-0,216	-0,015
127,137	54,067	-0,216	-0,145
128,151	161,659	-0,172	-0,169
129,166	14,505	-0,255	-0,139
130,181	23,643	-0,368	-0,212
131,195	98,635	-0,274	-0,221
132,210	296,055	-0,159	-0,204
133,224	169,175	-0,203	-0,203
134,239	172,595	-0,191	-0,193
135,254	219,534	-0,252	-0,282
136,268	-52,019	-0,241	-0,078
137,283	213,395	-0,217	-0,241
138,297	-46,421	-0,396	-0,135
139,312	263,644	-0,167	-0,204
140,327	-73,996	-0,272	-0,069
141,341	57,011	-0,286	-0,195
142,356	-16,477	-0,221	-0,098
143,370	235,511	-0,153	-0,177
144,385	56,489	-0,261	-0,177
145,400	-1,165	-0,309	-0,152
146,414	87,049	-0,290	-0,224
147,429	352,360	-0,222	-0,309
148,443	20,693	-0,320	-0,180
149,458	-200,000	0,005	-0,131
150,473	394,882	-0,159	-0,232
151,487	-74,708	-0,195	-0,049
152,502	88,411	-0,277	-0,215
153,516	-16,811	-0,212	-0,093
154,531	146,747	-0,145	-0,137
155,546	257,796	-0,181	-0,218
156,560	231,097	-0,206	-0,236
157,575	193,512	-0,069	-0,074
158,589	-6,680	-0,143	-0,068
159,604	111,989	-0,196	-0,165
160,619	48,437	-0,139	-0,091
161,633	112,569	-0,306	-0,259
162,648	211,182	-0,264	-0,290
163,662	112,465	-0,208	-0,176
164,677	20,616	-0,218	-0,123
165,692	325,068	-0,137	-0,184
166,706	94,234	-0,308	-0,244
167,721	17,514	-0,321	-0,178
168,735	538,734	-0,180	-0,301
169,750	123,543	-0,263	-0,230
170,764	277,297	-0,125	-0,156
171,779	383,429	-0,127	-0,183
172,794	-42,947	-0,362	-0,127
173,808	-43,345	-0,120	-0,042
174,823	25,992	-0,187	-0,109
175,837	800,000	-0,056	-0,159
176,852	564,367	-0,150	-0,255
177,867	150,140	-0,243	-0,231
178,881	72,369	-0,197	-0,143
179,896	-143,152	-0,176	-0,012
180,910	-15,852	-0,298	-0,132
181,925	255,923	-0,121	-0,145
182,940	428,404	-0,150	-0,226
183,954	417,218	-0,118	-0,177
184,969	48,832	-0,212	-0,138
185,983	-29,116	-0,156	-0,062
186,998	-105,912	-0,195	-0,030
188,013	262,525	-0,185	-0,224
189,027	-46,296	-0,384	-0,131
190,042	160,925	-0,178	-0,173
191,056	115,817	-0,254	-0,216
192,071	92,819	-0,160	-0,126
193,086	0,437	-0,183	0,091
194,100	690,238	-0,052	-0,096
195,115	26,559	-0,173	-0,101
196,129	110,990	-0,240	-0,201
197,144	53,846	-0,289	-0,193
198,159	420,679	-0,173	-0,259
199,173	242,799	-0,172	-0,201
200,188	800,000	-0,066	-0,166
201,202	94,468	-0,193	-0,153
202,217	-12,964	-0,213	-0,096
203,232	61,441	-0,226	-0,156
204,246	-19,788	-0,232	-0,099
205,261	37,090	-0,273	-0,168
206,275	113,967	-0,150	-0,127
207,290	800,000	-0,107	-0,226
208,304	-15,793	-0,235	-0,104
209,319	69,795	-0,220	-0,158
210,334	-22,705	-0,165	-0,069
211,348	396,559	-0,157	-0,228
212,363	199,603	-0,107	-0,114
213,377	210,577	-0,207	-0,227
214,392	-76,209	-0,108	0,026
215,407	501,804	-0,113	-0,182
216,421	86,312	-0,175	-0,134
217,436	81,072	-0,147	-0,110
218,450	-46,637	-0,288	-0,098
219,465	72,429	-0,234	-0,169
220,480	20,066	-0,063	-0,035
221,494	-200,000	-0,051	-0,207
222,509	-71,837	-0,245	-0,063
223,523	-104,728	-0,120	0,019
224,538	10,970	-0,088	-0,047
225,553	800,000	-0,128	-0,271
226,567	309,245	-0,183	-0,238
227,582	35,811	-0,187	-0,114
228,596	-200,000	-0,061	-0,217
229,611	84,009	-0,146	-0,111
230,626	-49,219	-0,206	-0,068
231,640	-200,000	-0,054	-0,178
232,655	291,781	-0,134	-0,169
233,669	-175,876	-0,283	-0,005
234,684	800,000	-0,116	-0,230
235,699	218,581	-0,133	-0,147
236,713	800,000	-0,061	-0,169
237,728	219,306	-0,220	-0,244
238,742	196,029	-0,127	-0,134
239,757	182,391	-0,236	-0,242
240,772	112,219	-0,211	-0,177
241,786	225,054	-0,198	-0,223
242,801	135,300	-0,239	-0,215
243,815	162,769	-0,198	-0,193
244,830	360,782	-0,176	-0,245
245,844	14,731	-0,129	-0,070
246,859	332,153	-0,116	-0,156
247,874	158,790	-0,242	-0,233
248,888	-16,864	-0,221	-0,096
249,903	-2,988	-0,122	-0,059
250,917	172,967	-0,189	-0,189
251,932	171,265	-0,152	-0,152
252,947	-105,879	-0,089	-0,014
253,961	-78,967	-0,268	-0,063
254,976	354,613	-0,172	-0,238
255,990	-60,907	-0,091	-0,027
257,005	353,776	-0,153	-0,211
258,020	277,756	-0,086	-0,107
259,034	245,435	-0,122	-0,143
260,049	-61,409	-0,257	-0,074
261,063	-44,322	-0,231	-0,080
262,078	-140,423	-0,221	0,016
263,093	149,380	-0,139	-0,131
264,107	62,282	-0,202	-0,140
265,122	52,220	-0,247	-0,163
266,136	301,429	-0,079	-0,102
267,151	432,194	-0,132	-0,198
268,166	-200,000	-0,065	-0,234
269,180	622,625	-0,133	-0,232
270,195	45,197	-0,145	-0,092
271,209	101,616	-0,143	-0,115
272,224	-178,215	-0,132	-0,002
273,239	124,807	-0,102	-0,089
274,253	-37,733	-0,339	-0,124
275,268	800,000	-0,081	-0,173
276,282	-200,000	-0,035	-0,149
277,297	-106,690	-0,157	-0,024
278,312	144,808	-0,172	-0,159
279,326	800,000	-0,104	-0,242
280,341	-85,155	-0,244	-0,052
281,355	-50,231	-0,114	-0,037
282,370	-63,411	-0,171	-0,048
283,384	-136,592	-0,170	-0,013
284,399	4,659	-0,279	-0,141
285,414	-117,082	-0,196	-0,024
286,428	127,802	-0,148	-0,130
287,443	18,367	-0,037	-0,021
288,457	163,103	-0,058	-0,056
289,472	-49,760	-0,112	-0,037
290,487	800,000	-0,061	-0,129
291,501	131,359	-0,166	-0,148
292,516	11,401	-0,155	-0,082
293,530	247,449	-0,151	-0,177
294,545	-200,000	0,003	-0,072
295,560	53,176	-0,065	-0,043
296,574	258,194	-0,123	-0,147
297,589	800,000	-0,075	-0,176
298,603	244,840	-0,166	-0,193
299,618	322,135	-0,200	-0,264
300,633	541,174	-0,069	-0,114
301,647	62,389	-0,095	0,065
302,662	34,536	-0,133	-0,080
303,676	59,501	0,063	-0,043
304,691	-71,724	-0,216	-0,055
305,706	-200,000	-0,060	-0,197
306,720	-118,571	-0,096	-0,012
307,735	800,000	-0,102	-0,199
308,749	-128,880	-0,066	0,006
309,764	-119,201	-0,154	-0,018
310,779	-119,924	-0,124	0,015
311,793	800,000	-0,059	-0,137
312,808	-9,309	-0,188	0,086
313,822	116,652	-0,205	-0,174
314,837	-200,000	-0,015	-0,195
315,852	85,827	-0,121	-0,091
316,866	-59,977	-0,096	-0,028
317,881	-49,437	-0,248	0,081
318,895	254,370	-0,180	-0,213
319,910	78,051	-0,225	-0,165
320,925	-53,838	-0,136	-0,043
321,939	-167,842	-0,194	0,005
322,954	-47,331	-0,055	-0,018
323,968	-94,104	-0,053	-0,010
324,983	-145,634	-0,056	0,003
325,997	507,958	-0,107	-0,171
327,012	84,200	-0,222	-0,167
328,027	187,722	-0,063	-0,065
329,041	-59,811	-0,129	-0,038
330,056	163,503	-0,095	-0,092
331,070	66,267	-0,092	-0,064
332,085	-69,177	-0,268	-0,070
333,100	28,538	-0,160	-0,093
334,114	73,160	-0,136	-0,098
335,129	358,155	-0,139	-0,191
336,143	546,092	-0,061	-0,100
337,158	154,552	-0,096	-0,091
338,173	233,383	-0,098	-0,111
339,187	54,809	-0,121	-0,080
340,202	119,458	-0,054	-0,046
341,216	66,527	-0,117	-0,082
342,231	-91,536	-0,188	0,036
343,246	-200,000	-0,048	-0,210
344,260	30,630	-0,039	-0,023
345,275	800,000	-0,045	-0,098
346,289	800,000	-0,064	0,164
347,304	-110,159	-0,120	0,017
348,319	800,000	-0,061	-0,133
349,333	355,728	-0,116	-0,160
350,348	-140,290	-0,161	0,011
351,362	-93,266	-0,228	-0,043
352,377	81,353	-0,035	-0,026
353,392	775,785	-0,029	-0,055
354,406	37,846	-0,159	-0,097
355,421	209,670	1315,348	1418,442
356,435	161,374	1476,187	1418,947
