DTS Sentinel unit serial number:	SN410029Multiplexer serial number:	ORYXHardware model number:	OX2-SRSoftware version number:	ORYX F/W v4,00 Oryx Data Collector v3.7.2.0data status	okinstallation	B3 Nyhavnadifferential loss correction	single-endedforward channel	channel 1reverse channel	N/Adate	2023/12/04time	16:57:30forward acquisition time	300,00reverse acquisition time	0,00gamma	499,1914k internal	0,3200k external	0,3200temperature offset calibration	1,0000default loss term (dB/km)	0,3820temperature slope calibration	1,0000multiplexer offset coefficient	1,0000multiplexer slope coefficient	1,0000fibre end	0,00T internal ref (°C)	15,18T ext. ref 1 (°C)	0,09T ext. ref 2 (°C)	0,08length (m)	temperature (°C)	Stokes	anti-Stokes-744,400	209,660	-0,225	-0,257
-743,385	-200,000	-0,001	0,274
-742,371	535,416	-0,158	-0,274
-741,356	-200,000	0,009	0,392
-740,342	148,829	-0,260	-0,256
-739,327	-200,000	0,018	0,264
-738,312	205,263	-0,207	-0,234
-737,298	-200,000	-0,040	0,224
-736,283	245,779	-0,262	-0,321
-735,269	494,509	0,188	0,316
-734,254	358,342	-0,185	-0,270
-733,239	403,420	-0,100	0,154
-732,225	128,459	-0,196	-0,181
-731,210	17,953	0,118	-0,068
-730,196	66,801	-0,003	0,002
-729,181	-200,000	-0,005	0,108
-728,167	800,000	0,037	0,084
-727,152	-200,000	0,009	0,044
-726,137	-118,901	-0,141	-0,018
-725,123	-40,924	-0,098	-0,037
-724,108	183,203	-0,008	-0,009
-723,094	296,891	-0,139	-0,186
-722,079	800,000	-0,077	-0,200
-721,064	-32,737	0,048	-0,019
-720,050	-200,000	-0,004	-0,156
-719,035	40,316	-0,043	-0,028
-718,021	-89,561	-0,077	-0,016
-717,006	-200,000	0,006	-0,095
-715,991	-200,000	-0,011	-0,069
-714,977	-200,000	-0,034	-0,157
-713,962	-134,429	-0,150	0,013
-712,948	-200,000	-0,040	-0,164
-711,933	245,541	0,022	0,027
-710,918	48,610	0,088	-0,060
-709,904	-200,000	0,021	-0,167
-708,889	-52,833	-0,138	-0,046
-707,875	800,000	-0,047	0,096
-706,860	-200,000	0,001	-0,075
-705,845	265,251	0,071	0,090
-704,831	-200,000	0,003	0,059
-703,816	800,000	-0,035	-0,096
-702,802	-74,231	-0,241	-0,063
-701,787	-200,000	-0,028	0,110
-700,772	62,790	0,039	0,029
-699,758	131,334	0,043	0,040
-698,743	-178,994	0,095	0,002
-697,729	-90,327	-0,084	0,018
-696,714	-82,511	0,044	-0,010
-695,699	-200,000	-0,007	0,034
-694,685	743,764	-0,031	-0,060
-693,670	-200,000	0,012	-0,107
-692,656	-176,599	-0,071	-0,001
-691,641	104,982	-0,084	0,072
-690,627	-200,000	0,008	-0,093
-689,612	-122,229	-0,072	0,008
-688,597	800,000	-0,035	-0,092
-687,583	-200,000	-0,017	-0,097
-686,568	-27,025	-0,042	-0,018
-685,554	-93,048	0,122	-0,025
-684,539	644,622	0,054	0,101
-683,524	-200,000	0,027	0,123
-682,510	-125,888	0,078	0,008
-681,495	-38,764	-0,109	-0,042
-680,481	-200,000	-0,011	-0,078
-679,466	-19,429	0,094	-0,042
-678,451	-28,869	-0,015	-0,006
-677,437	-200,000	-0,002	-0,036
-676,422	-145,934	0,068	-0,004
-675,408	-200,000	0,021	0,179
-674,393	-149,803	0,118	0,007
-673,378	4,242	0,125	0,066
-672,364	67,871	-0,160	-0,119
-671,349	187,582	0,134	-0,145
-670,335	-200,000	0,001	0,042
-669,320	190,196	0,074	0,081
-668,305	310,425	0,047	0,065
-667,291	112,954	-0,035	-0,031
-666,276	-129,455	-0,051	0,005
-665,262	-54,988	-0,156	-0,051
-664,247	271,201	-0,022	0,028
-663,232	-200,000	0,001	0,101
-662,218	-124,240	0,117	-0,013
-661,203	165,739	-0,079	-0,081
-660,189	56,729	-0,047	-0,033
-659,174	-200,000	0,025	-0,117
-658,159	-101,749	-0,172	-0,030
-657,145	-11,446	0,079	0,037
-656,130	126,641	-0,111	0,102
-655,116	258,097	0,100	-0,126
-654,101	800,000	-0,011	-0,026
-653,086	-200,000	0,021	0,081
-652,072	-79,842	-0,158	-0,038
-651,057	552,982	-0,006	0,011
-650,043	-200,000	0,006	0,044
-649,028	-122,152	0,137	-0,016
-648,014	140,703	0,052	0,050
-646,999	244,808	-0,095	0,116
-645,984	35,117	0,029	-0,018
-644,970	129,522	0,076	-0,070
-643,955	223,786	-0,035	-0,041
-642,941	800,000	0,040	0,101
-641,926	-200,000	0,015	-0,051
-640,911	-200,000	0,006	-0,071
-639,897	-200,000	-0,010	0,075
-638,882	669,906	-0,046	0,086
-637,868	-200,000	0,019	-0,102
-636,853	800,000	0,036	0,084
-635,838	279,190	0,032	-0,042
-634,824	1,769	0,063	0,033
-633,809	-73,039	0,111	-0,029
-632,795	374,985	0,032	0,047
-631,780	-200,000	0,000	0,073
-630,765	-200,000	0,019	-0,063
-629,751	416,744	-0,040	-0,061
-628,736	-75,497	-0,104	0,027
-627,722	800,000	-0,013	-0,037
-626,707	538,409	0,031	-0,054
-625,692	-94,704	0,034	0,007
-624,678	306,360	-0,048	0,064
-623,663	-200,000	-0,014	-0,106
-622,649	-200,000	0,001	-0,124
-621,634	-41,030	-0,085	-0,032
-620,619	800,000	-0,056	-0,130
-619,605	12,370	0,097	0,054
-618,590	-3,535	-0,040	0,020
-617,576	800,000	0,037	0,082
-616,561	-40,087	-0,118	0,044
-615,546	-200,000	-0,012	-0,105
-614,532	114,696	-0,116	-0,102
-613,517	658,994	0,029	0,054
-612,503	800,000	0,041	-0,108
-611,488	592,428	-0,061	-0,109
-610,474	-200,000	-0,007	0,070
-609,459	800,000	-0,054	0,123
-608,444	-200,000	0,005	0,023
-607,430	724,230	-0,042	-0,082
-606,415	-56,681	-0,134	-0,043
-605,401	228,378	-0,074	-0,087
-604,386	-200,000	0,032	0,139
-603,371	119,336	0,079	0,071
-602,357	-173,413	-0,153	-0,003
-601,342	-200,000	0,006	0,044
-600,328	-129,977	0,025	-0,002
-599,313	-200,000	0,003	-0,154
-598,298	800,000	0,033	0,072
-597,284	64,180	0,052	0,037
-596,269	-135,378	-0,100	0,008
-595,255	-110,879	0,093	0,014
-594,240	-200,000	0,025	0,124
-593,225	747,081	0,022	-0,042
-592,211	-140,112	-0,030	0,002
-591,196	-200,000	-0,005	-0,106
-590,182	-53,803	0,043	0,014
-589,167	-6,542	-0,166	-0,082
-588,152	-106,332	-0,064	0,010
-587,138	638,338	0,086	-0,159
-586,123	159,368	-0,029	0,029
-585,109	-101,660	-0,185	-0,032
-584,094	-191,587	-0,083	-0,001
-583,079	-148,207	-0,107	-0,006
-582,065	484,141	-0,116	-0,192
-581,050	-200,000	0,015	0,061
-580,036	378,205	-0,028	-0,041
-579,021	743,532	-0,041	-0,080
-578,006	-200,000	-0,000	0,037
-576,992	800,000	-0,039	-0,120
-575,977	-200,000	-0,002	0,091
-574,963	14,481	0,075	0,042
-573,948	-200,000	0,013	-0,127
-572,934	112,687	0,127	0,111
-571,919	800,000	-0,033	-0,083
-570,904	-200,000	-0,004	-0,124
-569,890	196,353	0,080	-0,088
-568,875	-200,000	0,011	0,103
-567,861	-199,187	0,133	0,000
-566,846	-58,519	-0,021	-0,007
-565,831	38,908	0,056	0,036
-564,817	-200,000	-0,012	-0,100
-563,802	-200,000	0,003	-0,015
-562,788	-175,955	-0,190	0,004
-561,773	40,146	-0,080	0,052
-560,758	-124,541	0,104	0,012
-559,744	800,000	0,027	-0,072
-558,729	60,229	-0,035	0,025
-557,715	328,352	-0,043	-0,060
-556,700	203,643	-0,094	-0,106
-555,685	6,821	0,011	-0,006
-554,671	-35,265	-0,043	-0,017
-553,656	64,194	0,104	0,075
-552,642	800,000	0,045	0,092
-551,627	800,000	-0,050	0,127
-550,612	-200,000	-0,000	0,029
-549,598	-200,000	-0,001	-0,150
-548,583	-68,796	-0,137	0,038
-547,569	-95,166	-0,082	-0,016
-546,554	-200,000	-0,006	0,056
-545,539	123,423	0,090	-0,081
-544,525	46,841	-0,052	0,035
-543,510	-27,958	-0,122	-0,051
-542,496	-2,926	-0,068	-0,034
-541,481	17,815	-0,084	-0,048
-540,466	800,000	0,011	-0,032
-539,452	100,877	0,110	0,093
-538,437	616,834	0,032	-0,059
-537,423	-200,000	-0,009	0,040
-536,408	513,889	0,051	-0,086
-535,393	86,023	-0,185	-0,146
-534,379	800,000	0,048	-0,105
-533,364	191,969	-0,081	-0,088
-532,350	-200,000	-0,000	0,062
-531,335	12,784	0,071	0,040
-530,321	800,000	-0,024	-0,068
-529,306	-81,686	-0,099	0,023
-528,291	8,502	0,158	-0,085
-527,277	800,000	0,050	-0,115
-526,262	675,353	0,011	-0,021
-525,248	3,001	-0,012	-0,006
-524,233	-52,357	-0,133	0,044
-523,218	800,000	0,029	0,086
-522,204	-200,000	-0,012	0,072
-521,189	-35,261	0,075	0,029
-520,175	800,000	-0,031	0,097
-519,160	695,424	0,061	0,117
-518,145	171,542	0,053	0,055
-517,131	26,820	0,070	-0,042
-516,116	275,834	-0,051	-0,065
-515,102	236,060	-0,046	-0,055
-514,087	373,564	0,030	-0,043
-513,072	-200,000	0,013	-0,136
-512,058	800,000	-0,029	-0,075
-511,043	-134,781	0,096	-0,008
-510,029	49,943	0,028	0,019
-509,014	200,639	0,052	-0,058
-507,999	287,174	-0,057	-0,074
-506,985	-200,000	0,025	0,171
-505,970	-200,000	0,018	-0,088
-504,956	-1,688	-0,108	-0,055
-503,941	225,937	0,041	0,048
-502,926	-5,871	0,039	0,019
-501,912	-63,477	0,138	-0,040
-500,897	28,503	-0,057	0,035
-499,883	571,011	0,105	0,185
-498,868	-7,349	-0,124	-0,060
-497,853	-34,404	-0,036	0,014
-496,839	-49,727	-0,037	-0,012
-495,824	218,187	0,056	0,065
-494,810	-200,000	-0,001	0,051
-493,795	62,530	0,111	0,080
-492,781	615,567	0,020	0,037
-491,766	-113,505	-0,099	0,014
-490,751	379,260	-0,030	0,045
-489,737	-176,744	0,072	-0,001
-488,722	439,272	-0,032	0,051
-487,708	-200,000	-0,021	-0,067
-486,693	131,699	-0,063	-0,058
-485,678	-102,222	-0,126	0,022
-484,664	449,379	-0,039	0,061
-483,649	-72,557	-0,135	0,036
-482,635	556,336	0,010	0,018
-481,620	-35,131	0,098	0,038
-480,605	83,024	0,140	-0,109
-479,591	-2,515	0,118	0,060
-478,576	800,000	-0,022	-0,051
-477,562	-200,000	0,002	-0,109
-476,547	54,332	0,096	0,066
-475,532	563,727	0,026	0,045
-474,518	-98,501	-0,106	-0,019
-473,503	347,213	0,033	0,047
-472,489	800,000	-0,020	0,049
-471,474	127,492	-0,082	0,075
-470,459	-200,000	0,033	0,135
-469,445	-200,000	0,018	0,074
-468,430	237,600	-0,025	0,030
-467,416	-74,405	0,123	-0,032
-466,401	471,883	0,045	-0,073
-465,386	800,000	0,046	0,142
-464,372	-134,973	-0,080	0,007
-463,357	-152,482	-0,119	-0,006
-462,343	-37,316	-0,108	-0,041
-461,328	53,020	0,102	0,070
-460,313	210,811	0,025	0,028
-459,299	236,735	0,086	0,103
-458,284	-200,000	-0,016	-0,083
-457,270	-29,589	-0,010	-0,004
-456,255	-40,774	-0,040	0,015
-455,241	-200,000	0,028	-0,093
-454,226	800,000	-0,050	-0,113
-453,211	-200,000	-0,005	0,020
-452,197	-200,000	-0,014	0,111
-451,182	33,858	-0,041	0,025
-450,168	-200,000	0,011	0,102
-449,153	74,115	0,054	0,040
-448,138	-200,000	0,009	0,120
-447,124	800,000	-0,017	0,040
-446,109	800,000	-0,037	-0,082
-445,095	280,904	-0,110	0,141
-444,080	80,827	0,099	0,077
-443,065	-85,373	-0,099	0,022
-442,051	800,000	0,039	0,083
-441,036	-77,625	-0,063	0,015
-440,022	250,139	0,025	-0,031
-439,007	800,000	-0,066	-0,157
-437,992	-200,000	-0,012	-0,048
-436,978	-200,000	0,003	0,095
-435,963	120,088	0,089	-0,079
-434,949	35,550	0,185	-0,116
-433,934	-12,664	-0,076	0,036
-432,919	800,000	-0,041	0,082
-431,905	-200,000	0,010	0,059
-430,890	-32,419	-0,122	-0,049
-429,876	185,663	-0,089	0,095
-428,861	-90,139	0,081	0,017
-427,846	42,419	-0,074	-0,048
-426,832	293,669	-0,050	-0,066
-425,817	70,796	-0,150	-0,112
-424,803	800,000	0,014	0,040
-423,788	30,695	0,067	-0,041
-422,773	9,776	0,167	0,090
-421,759	-16,169	0,083	0,038
-420,744	153,343	0,015	-0,015
-419,730	242,791	-0,045	-0,054
-418,715	536,684	-0,040	-0,069
-417,701	0,273	-0,046	0,024
-416,686	501,134	-0,032	0,053
-415,671	800,000	0,031	0,072
-414,657	-10,010	0,121	-0,057
-413,642	233,100	-0,010	-0,012
-412,628	-85,419	0,100	-0,022
-411,613	252,531	-0,094	-0,115
-410,598	-200,000	-0,023	-0,093
-409,584	259,341	-0,047	-0,058
-408,569	69,082	0,101	0,075
-407,555	-200,000	0,006	0,101
-406,540	800,000	0,023	-0,066
-405,525	175,854	0,073	-0,077
-404,511	800,000	0,011	-0,023
-403,496	639,176	-0,065	0,119
-402,482	-63,511	-0,084	0,025
-401,467	-57,344	0,132	0,042
-400,452	-69,645	-0,018	0,005
-399,438	150,314	0,076	0,074
-398,423	11,254	0,058	-0,032
-397,409	125,532	-0,083	-0,075
-396,394	222,949	0,064	-0,074
-395,379	193,722	0,092	-0,101
-394,365	330,837	-0,025	-0,035
-393,350	68,925	0,126	0,093
-392,336	603,132	0,009	-0,015
-391,321	-200,000	-0,025	0,103
-390,306	131,240	-0,054	-0,050
-389,292	-169,552	-0,052	-0,001
-388,277	-200,000	-0,024	0,082
-387,263	-112,281	-0,044	0,006
-386,248	-200,000	-0,014	0,094
-385,233	800,000	-0,018	-0,045
-384,219	251,376	0,018	0,022
-383,204	-200,000	0,000	0,018
-382,190	687,844	0,052	-0,097
-381,175	-200,000	-0,046	-0,200
-380,160	-167,302	0,046	-0,001
-379,146	127,146	-0,048	0,044
-378,131	292,978	0,089	0,117
-377,117	800,000	-0,073	0,151
-376,102	70,715	0,030	0,022
-375,088	800,000	0,028	-0,058
-374,073	68,674	0,080	0,059
-373,058	800,000	0,071	0,146
-372,044	800,000	0,028	0,061
-371,029	-200,000	0,017	0,162
-370,015	767,103	-0,049	-0,097
-369,000	68,186	-0,058	-0,043
-367,985	-72,812	-0,077	-0,020
-366,971	800,000	-0,041	-0,089
-365,956	800,000	0,028	-0,084
-364,942	-172,086	0,079	0,002
-363,927	-6,784	0,150	-0,073
-362,912	-141,819	-0,178	-0,013
-361,898	189,529	0,095	0,102
-360,883	800,000	-0,007	-0,021
-359,869	800,000	0,012	0,034
-358,854	-84,009	0,061	-0,014
-357,839	-200,000	-0,030	-0,136
-356,825	198,884	0,077	0,084
-355,810	100,847	-0,069	0,057
-354,796	89,666	-0,036	0,028
-353,781	-200,000	-0,008	0,080
-352,766	-200,000	0,006	-0,202
-351,752	-98,846	0,087	0,016
-350,737	-200,000	-0,017	-0,080
-349,723	-93,752	-0,089	0,017
-348,708	107,011	0,055	-0,047
-347,693	86,310	-0,078	-0,062
-346,679	-96,110	-0,056	-0,011
-345,664	800,000	0,055	0,136
-344,650	-200,000	-0,021	0,105
-343,635	800,000	0,047	0,109
-342,620	800,000	0,057	0,116
-341,606	249,105	0,058	0,071
-340,591	-117,345	-0,091	0,012
-339,577	-200,000	-0,031	-0,111
-338,562	217,753	-0,067	0,076
-337,548	-132,914	-0,094	-0,008
-336,533	800,000	0,044	-0,089
-335,518	467,734	0,069	0,112
-334,504	-200,000	0,010	0,107
-333,489	-200,000	-0,030	-0,112
-332,475	40,630	0,041	0,026
-331,460	167,494	-0,037	-0,037
-330,445	405,312	-0,083	-0,126
-329,431	-102,410	0,170	0,029
-328,416	149,428	-0,055	0,053
-327,402	513,398	0,070	0,117
-326,387	541,135	-0,063	0,108
-325,372	114,911	0,101	0,088
-324,358	182,172	-0,069	0,073
-323,343	30,940	0,089	0,055
-322,329	315,464	0,053	-0,072
-321,314	800,000	0,047	0,113
-320,299	303,437	-0,058	0,077
-319,285	-116,513	-0,033	0,004
-318,270	-200,000	-0,009	-0,049
-317,256	-200,000	0,001	0,031
-316,241	8,919	-0,033	0,018
-315,226	800,000	0,036	-0,103
-314,212	5,808	0,121	0,064
-313,197	-200,000	0,030	0,139
-312,183	277,652	0,056	0,072
-311,168	-12,617	-0,078	0,036
-310,153	-35,577	0,057	0,022
-309,139	-73,359	-0,124	0,032
-308,124	800,000	-0,036	0,075
-307,110	-200,000	-0,017	0,116
-306,095	334,667	0,074	-0,103
-305,080	42,796	-0,061	-0,040
-304,066	118,457	-0,133	-0,117
-303,051	324,025	-0,050	-0,068
-302,037	394,917	0,022	-0,033
-301,022	168,532	-0,061	-0,062
-300,008	75,190	0,048	0,036
-298,993	-200,000	0,017	0,083
-297,978	399,766	0,087	0,131
-296,964	-118,138	-0,142	0,018
-295,949	177,261	0,099	0,103
-294,935	693,185	-0,035	-0,065
-293,920	785,279	-0,022	-0,043
-292,905	800,000	-0,013	0,031
-291,891	14,489	-0,134	0,075
-290,876	800,000	-0,057	0,162
-289,862	-200,000	0,006	-0,102
-288,847	182,686	-0,020	-0,021
-287,832	800,000	0,048	-0,096
-286,818	800,000	-0,027	0,078
-285,803	800,000	0,071	0,205
-284,789	82,639	0,076	0,059
-283,774	-66,718	0,018	0,005
-282,759	28,778	-0,168	-0,102
-281,745	-148,556	-0,067	-0,004
-280,730	800,000	0,024	-0,070
-279,716	211,961	0,115	0,129
-278,701	-139,949	-0,147	-0,011
-277,686	-141,775	0,196	-0,014
-276,672	80,970	-0,034	-0,026
-275,657	91,566	-0,059	-0,047
-274,643	-176,798	-0,152	-0,003
-273,628	-5,832	-0,077	-0,037
-272,613	391,675	-0,040	-0,059
-271,599	-47,646	0,143	-0,049
-270,584	-200,000	-0,001	-0,049
-269,570	125,511	0,072	0,065
-268,555	-54,945	-0,067	-0,022
-267,540	800,000	0,041	-0,103
-266,526	-92,659	-0,136	-0,027
-265,511	138,649	-0,041	-0,038
-264,497	584,615	-0,049	-0,086
-263,482	239,881	0,120	0,143
-262,467	211,147	-0,070	0,079
-261,453	-200,000	0,017	-0,156
-260,438	152,913	0,024	-0,024
-259,424	-200,000	-0,018	-0,181
-258,409	-109,183	-0,049	-0,007
-257,395	728,419	0,056	0,106
-256,380	523,971	0,039	-0,066
-255,365	-115,965	0,210	-0,028
-254,351	621,553	0,057	0,104
-253,336	103,705	-0,080	-0,067
-252,322	235,211	-0,122	-0,144
-251,307	782,673	-0,051	-0,101
-250,292	510,682	0,047	0,079
-249,278	-200,000	0,005	0,101
-248,263	-200,000	-0,030	0,120
-247,249	342,354	-0,059	0,082
-246,234	182,892	0,022	0,023
-245,219	35,214	-0,103	0,064
-244,205	800,000	-0,018	-0,045
-243,190	-85,432	0,110	-0,024
-242,176	800,000	-0,035	-0,082
-241,161	800,000	-0,042	0,110
-240,146	-200,000	0,042	-0,169
-239,132	800,000	0,035	-0,094
-238,117	-29,570	-0,051	0,021
-237,103	-69,928	-0,062	-0,017
-236,088	-27,748	0,163	0,067
-235,073	475,958	-0,031	0,050
-234,059	-181,860	0,171	0,002
-233,044	92,609	-0,049	-0,040
-232,030	534,477	0,023	0,038
-231,015	-137,516	-0,118	0,009
-230,000	56,352	0,087	0,060
-228,986	273,970	0,045	-0,056
-227,971	-177,409	0,164	-0,003
-226,957	10,349	0,174	-0,094
-225,942	298,556	-0,088	-0,115
-224,927	246,819	0,044	-0,053
-223,913	800,000	0,049	-0,131
-222,898	572,928	0,051	-0,089
-221,884	-107,257	0,122	-0,019
-220,869	-20,017	0,026	-0,012
-219,855	-200,000	-0,009	0,040
-218,840	-149,039	0,256	-0,014
-217,825	800,000	0,015	-0,036
-216,811	-200,000	0,000	-0,081
-215,796	-200,000	0,035	-0,115
-214,782	320,065	-0,045	-0,061
-213,767	-67,725	-0,103	0,029
-212,752	328,121	0,071	0,098
-211,738	458,831	-0,069	0,109
-210,723	-200,000	0,010	-0,105
-209,709	-200,000	0,019	-0,067
-208,694	-17,047	0,044	-0,020
-207,679	11,771	-0,094	-0,051
-206,665	-54,281	0,093	0,030
-205,650	800,000	0,080	0,193
-204,636	18,084	-0,035	0,020
-203,621	-145,767	-0,109	-0,007
-202,606	60,135	0,053	0,038
-201,592	-200,000	-0,035	-0,146
-200,577	426,985	-0,020	-0,031
-199,563	-34,384	-0,066	-0,026
-198,548	-200,000	-0,012	-0,115
-197,533	97,998	0,050	0,041
-196,519	601,012	0,023	-0,040
-195,504	-33,559	-0,125	0,049
-194,490	554,592	-0,037	-0,064
-193,475	88,620	-0,100	-0,079
-192,460	772,185	-0,037	-0,073
-191,446	1,495	0,085	-0,044
-190,431	-15,627	0,059	0,027
-189,417	136,319	0,046	0,043
-188,402	118,990	-0,079	0,070
-187,387	800,000	0,023	-0,064
-186,373	138,443	0,027	0,026
-185,358	800,000	-0,040	-0,125
-184,344	152,973	0,049	-0,048
-183,329	222,289	-0,089	-0,102
-182,315	-88,918	-0,057	-0,012
-181,300	-200,000	0,004	0,066
-180,285	-37,645	-0,058	-0,022
-179,271	28,473	-0,068	-0,041
-178,256	800,000	-0,032	-0,088
-177,242	58,869	0,095	0,067
-176,227	-138,303	0,020	0,002
-175,212	-72,799	0,053	-0,014
-174,198	800,000	-0,005	0,010
-173,183	-22,845	0,013	-0,006
-172,169	149,821	-0,106	0,102
-171,154	800,000	-0,047	-0,123
-170,139	11,131	0,051	0,027
-169,125	-200,000	0,022	0,152
-168,110	737,919	0,054	0,104
-167,096	414,331	-0,085	0,129
-166,081	-91,790	0,065	-0,013
-165,066	197,154	0,118	0,129
-164,052	800,000	0,024	-0,071
-163,037	800,000	-0,026	0,066
-162,023	-100,868	0,210	-0,036
-161,008	135,226	0,033	0,031
-159,993	701,057	-0,043	0,080
-158,979	146,510	0,069	0,066
-157,964	-7,198	-0,101	0,049
-156,950	141,550	-0,054	-0,051
-155,935	-94,087	0,148	-0,029
-154,920	800,000	-0,008	-0,022
-153,906	-200,000	-0,024	0,093
-152,891	-38,378	0,031	0,012
-151,877	-30,803	-0,070	-0,028
-150,862	800,000	-0,018	-0,056
-149,847	109,228	0,090	-0,076
-148,833	800,000	-0,021	0,056
-147,818	800,000	0,024	0,053
-146,804	88,745	0,067	-0,053
-145,789	-143,209	0,072	0,005
-144,775	629,698	0,055	0,099
-143,760	163,001	-0,042	-0,042
-142,745	-200,000	-0,004	-0,059
-141,731	-200,000	0,021	0,095
-140,716	219,403	-0,076	0,087
-139,702	-144,433	0,127	-0,008
-138,687	419,321	0,053	-0,081
-137,672	800,000	0,056	0,114
-136,658	-160,120	-0,137	0,005
-135,643	182,069	-0,124	-0,129
-134,629	800,000	-0,013	0,032
-133,614	107,142	-0,044	0,038
-132,599	-79,765	-0,025	-0,006
-131,585	196,610	0,073	0,079
-130,570	76,626	-0,058	0,044
-129,556	-200,000	0,004	0,039
-128,541	-44,259	-0,131	-0,047
-127,526	252,304	-0,060	-0,072
-126,512	-200,000	0,007	0,041
-125,497	6,647	-0,043	0,023
-124,483	259,921	0,046	-0,056
-123,468	69,287	-0,024	0,018
-122,453	511,422	0,075	-0,124
-121,439	350,931	-0,089	-0,125
-120,424	200,480	-0,060	-0,065
-119,410	534,795	0,093	-0,157
-118,395	800,000	0,045	0,090
-117,380	-200,000	0,021	0,090
-116,366	222,571	0,084	-0,096
-115,351	-115,324	-0,024	-0,003
-114,337	-200,000	0,016	-0,085
-113,322	102,566	-0,079	0,066
-112,307	800,000	-0,028	0,056
-111,293	116,174	0,091	0,080
-110,278	150,937	-0,040	0,039
-109,264	-200,000	-0,005	0,040
-108,249	350,399	-0,050	0,070
-107,234	377,831	-0,076	-0,110
-106,220	-200,000	0,021	0,069
-105,205	444,267	0,054	-0,084
-104,191	-87,476	-0,047	-0,010
-103,176	800,000	0,052	0,157
-102,162	127,859	0,078	-0,070
-101,147	55,423	-0,037	-0,026
-100,132	-25,975	-0,109	-0,045
-99,118	-135,756	-0,110	0,009
-98,103	86,873	0,073	0,057
-97,089	136,043	-0,055	0,051
-96,074	411,908	-0,069	-0,104
-95,059	-158,020	0,141	0,006
-94,045	-200,000	-0,035	-0,154
-93,030	-200,000	-0,003	-0,069
-92,016	190,011	-0,036	-0,039
-91,001	-152,287	0,061	-0,003
-89,986	153,892	-0,031	-0,030
-88,972	-200,000	0,001	0,006
-87,957	-119,722	-0,029	0,003
-86,943	131,878	0,050	0,046
-85,928	-64,294	-0,207	-0,059
-84,913	-95,560	-0,051	-0,010
-83,899	312,293	0,041	0,054
-82,884	-59,709	0,149	-0,045
-81,870	-26,382	0,067	0,028
-80,855	338,940	-0,070	0,097
-79,840	800,000	-0,090	-0,202
-78,826	800,000	0,020	-0,053
-77,811	64,640	-0,072	-0,052
-76,797	-200,000	-0,002	0,045
-75,782	-48,741	0,092	0,031
-74,767	-200,000	-0,030	0,100
-73,753	379,812	0,031	-0,045
-72,738	-200,000	0,004	0,190
-71,724	800,000	-0,057	-0,137
-70,709	22,385	-0,100	-0,058
-69,694	277,117	0,147	-0,186
-68,680	476,129	-0,039	0,062
-67,665	-47,725	0,094	-0,032
-66,651	-90,986	0,087	-0,018
-65,636	-200,000	0,006	0,066
-64,622	6,010	0,015	-0,008
-63,607	72,182	-0,034	-0,025
-62,592	1,053	-0,094	0,048
-61,578	17,263	0,061	0,034
-60,563	-39,549	0,157	-0,058
-59,549	95,833	-0,087	0,070
-58,534	-38,033	-1,470	-0,550
-57,519	291,868	-1,609	-2,080
-56,505	-200,000	-0,579	-4,446
-55,490	139,030	0,943	0,878
-54,476	800,000	4,786	11,440
-53,461	-200,000	18,088	286,246
-52,446	800,000	726,983	2222,801
-51,432	553,204	1642,388	2806,697
-50,417	79,393	1664,373	1262,865
-49,403	22,987	1538,469	891,346
-48,388	17,017	1461,761	818,003
-47,373	17,872	1451,690	816,451
-46,359	17,317	1442,129	808,387
-45,344	15,352	1437,084	796,155
-44,330	15,207	1435,541	794,577
-43,315	15,231	1433,579	793,571
-42,300	15,252	1432,089	792,814
-41,286	15,313	1430,875	792,400
-40,271	15,239	1429,727	791,383
-39,257	15,241	1428,488	790,676
-38,242	15,360	1426,874	790,315
-37,227	15,283	1425,788	789,319
-36,213	15,290	1424,662	788,697
-35,198	15,308	1423,485	788,099
-34,184	15,305	1422,562	787,542
-33,169	15,235	1421,303	786,484
-32,154	15,272	1420,401	786,127
-31,140	15,286	1418,887	785,326
-30,125	15,307	1417,755	784,764
-29,111	15,308	1416,599	784,101
-28,096	15,273	1415,570	783,332
-27,082	15,234	1414,506	782,531
-26,067	15,208	1413,279	781,699
-25,052	15,187	1412,385	781,076
-24,038	15,179	1411,431	780,476
-23,023	15,189	1410,188	779,807
-22,009	15,163	1409,450	779,245
-20,994	15,151	1408,478	778,623
-19,979	15,157	1407,651	778,161
-18,965	15,110	1406,504	777,276
-17,950	15,138	1405,669	776,918
-16,936	15,153	1404,563	776,344
-15,921	15,146	1403,305	775,584
-14,906	15,087	1402,620	774,899
-13,892	15,133	1401,634	774,538
-12,877	15,100	1400,890	773,945
-11,863	15,111	1399,982	773,462
-10,848	15,088	1399,139	772,859
-9,833	15,069	1398,273	772,262
-8,819	15,030	1397,139	771,423
-7,804	15,005	1396,263	770,793
-6,790	15,037	1395,114	770,279
-5,775	15,051	1394,035	769,717
-4,760	15,026	1393,206	769,111
-3,746	14,961	1392,626	768,462
-2,731	15,046	1391,644	768,284
-1,717	14,967	1390,755	767,395
-0,702	15,016	1388,956	766,596
0,313	18,827	1308,283	739,704
1,327	35,188	707,228	437,799
2,342	53,804	125,050	84,878
3,356	5,992	16,561	8,653
4,371	-7,064	3,134	1,500
5,386	-0,434	0,351	0,176
6,400	404,928	0,143	0,214
7,415	269,270	-0,283	-0,352
8,429	338,353	-0,236	-0,326
9,444	110,649	-0,396	-0,337
10,459	189,466	-0,243	-0,258
11,473	-65,022	-0,422	-0,120
12,488	52,216	-0,212	-0,143
13,502	-44,412	-0,370	-0,130
14,517	-56,706	-0,309	-0,096
15,531	81,867	-0,311	-0,238
16,546	42,909	-0,358	-0,230
17,561	105,268	-0,325	-0,271
18,575	36,447	-0,266	-0,166
19,590	800,000	-0,131	-0,298
20,604	79,581	-0,141	-0,107
21,619	196,874	-0,366	-0,395
22,634	86,593	-0,498	-0,388
23,648	30,229	-0,443	-0,267
24,663	162,758	-0,372	-0,370
25,677	448,098	-0,265	-0,414
26,692	120,651	-0,377	-0,331
27,707	-73,681	-0,465	-0,119
28,721	1,105	-0,336	-0,170
29,736	68,899	-0,481	-0,349
30,750	24,349	-0,436	-0,254
31,765	196,895	-0,363	-0,391
32,780	233,514	-0,296	-0,345
33,794	65,486	-0,306	-0,218
34,809	48,861	-0,268	-0,177
35,823	-33,874	-0,431	-0,167
36,838	36,776	-0,457	-0,284
37,853	133,508	-0,405	-0,370
38,867	62,093	-0,399	-0,280
39,882	82,350	-0,350	-0,268
40,896	174,942	-0,310	-0,316
41,911	31,336	-0,307	-0,186
42,926	177,021	-0,331	-0,340
43,940	146,234	-0,384	-0,363
44,955	244,016	-0,285	-0,338
45,969	128,774	-0,313	-0,282
46,984	159,373	-0,275	-0,270
47,999	335,049	-0,185	-0,254
49,013	104,017	-0,343	-0,284
50,028	39,018	-0,445	-0,280
51,042	86,991	-0,326	-0,254
52,057	136,479	-0,330	-0,304
53,071	107,666	-0,263	-0,221
54,086	32,110	-0,420	-0,255
55,101	15,224	-0,340	-0,187
56,115	71,488	-0,283	-0,206
57,130	26,974	-0,376	-0,222
58,144	89,767	-0,382	-0,300
59,159	389,281	-0,217	-0,318
60,174	134,938	-0,358	-0,327
61,188	-86,656	-0,323	-0,069
62,203	-38,638	-0,461	-0,170
63,217	93,205	-0,278	-0,221
64,232	85,579	-0,328	-0,254
65,247	12,236	-0,404	-0,218
66,261	104,915	-0,268	-0,222
67,276	174,755	-0,337	-0,344
68,290	-5,921	-0,343	-0,165
69,305	6,761	-0,260	-0,136
70,320	-53,977	-0,346	-0,110
71,334	-53,632	-0,359	-0,115
72,349	71,075	-0,369	-0,269
73,363	128,633	-0,357	-0,320
74,378	158,561	-0,287	-0,280
75,393	124,495	-0,320	-0,283
76,407	64,648	-0,280	-0,198
77,422	-26,721	-0,291	-0,119
78,436	-41,587	-0,296	-0,106
79,451	-49,488	-0,375	-0,125
80,466	-3,650	-0,391	-0,190
81,480	44,401	-0,395	-0,254
82,495	498,822	-0,137	-0,223
83,509	134,336	-0,256	-0,234
84,524	-21,361	-0,375	-0,160
85,539	66,005	-0,355	-0,252
86,553	-16,484	-0,336	-0,149
87,568	38,611	-0,304	-0,190
88,582	-106,552	-0,264	-0,041
89,597	203,913	-0,163	-0,177
90,611	279,555	-0,226	-0,285
91,626	-43,095	-0,287	-0,102
92,641	-46,994	-0,354	-0,121
93,655	-66,509	-0,376	-0,104
94,670	-68,130	-0,407	-0,110
95,684	195,517	-0,196	-0,210
96,699	74,834	-0,277	-0,205
97,714	-5,877	-0,216	-0,103
98,728	67,680	-0,174	-0,124
99,743	-101,900	-0,145	-0,024
100,757	-3,567	-0,206	-0,100
101,772	80,008	-0,306	-0,231
102,787	-160,777	-0,296	-0,011
103,801	89,080	-0,365	-0,285
104,816	118,393	-0,252	-0,218
105,830	216,969	-0,243	-0,272
106,845	149,433	-0,181	-0,172
107,860	90,916	-0,175	-0,138
108,874	177,430	-0,260	-0,266
109,889	104,190	-0,399	-0,329
110,903	33,414	-0,294	-0,178
111,918	95,774	-0,308	-0,247
112,933	14,009	-0,224	-0,122
113,947	108,039	-0,223	-0,187
114,962	95,291	-0,287	-0,229
115,976	75,978	-0,297	-0,220
116,991	82,169	-0,346	-0,263
118,006	61,486	-0,388	-0,270
119,020	34,426	-0,270	-0,165
120,035	-170,282	-0,302	-0,007
121,049	17,901	-0,164	-0,091
122,064	-108,529	-0,312	-0,046
123,079	208,604	-0,246	-0,270
124,093	16,301	-0,273	-0,151
125,108	75,943	-0,363	-0,268
126,122	14,912	-0,240	-0,131
127,137	12,914	-0,293	-0,158
128,151	156,486	-0,220	-0,212
129,166	188,524	-0,168	-0,176
130,181	96,934	-0,242	-0,194
131,195	-28,197	-0,384	-0,155
132,210	77,948	-0,274	-0,205
133,224	37,153	-0,276	-0,171
134,239	359,194	-0,166	-0,233
135,254	153,861	-0,157	-0,151
136,268	65,422	-0,149	-0,105
137,283	100,643	-0,221	-0,179
138,297	138,844	-0,274	-0,252
139,312	0,261	-0,382	-0,190
140,327	-130,860	-0,293	-0,027
141,341	800,000	-0,133	-0,262
142,356	-107,320	-0,298	-0,045
143,370	151,495	-0,264	-0,251
144,385	115,527	-0,277	-0,237
145,400	167,489	-0,315	-0,313
146,414	155,372	-0,170	-0,164
147,429	-85,502	-0,229	-0,049
148,443	-1,826	-0,279	-0,137
149,458	304,208	-0,150	-0,194
150,473	47,748	-0,316	-0,206
151,487	27,603	-0,223	-0,131
152,502	283,098	-0,162	-0,204
153,516	-41,520	-0,347	-0,124
154,531	57,673	-0,231	-0,158
155,546	-17,853	-0,226	-0,099
156,560	463,308	-0,095	-0,149
157,575	389,039	-0,096	-0,140
158,589	39,617	-0,213	-0,133
159,604	194,282	-0,155	-0,164
160,619	59,424	-0,244	-0,168
161,633	182,301	-0,328	-0,338
162,648	75,873	-0,280	-0,206
163,662	-82,626	-0,285	-0,064
164,677	223,556	-0,156	-0,176
165,692	568,493	-0,119	-0,202
166,706	231,263	-0,157	-0,180
167,721	-62,520	-0,374	-0,108
168,735	-43,377	-0,331	-0,116
169,750	191,542	-0,258	-0,271
170,764	-14,530	-0,152	-0,068
171,779	34,005	-0,226	-0,137
172,794	17,931	-0,165	-0,091
173,808	41,707	-0,219	-0,138
174,823	-22,084	-0,300	-0,127
175,837	82,002	-0,228	-0,172
176,852	336,159	-0,168	-0,227
177,867	129,178	-0,165	-0,147
178,881	800,000	-0,181	-0,355
179,896	67,565	-0,306	-0,218
180,910	46,531	-0,222	-0,143
181,925	800,000	-0,071	-0,191
182,940	35,245	-0,346	-0,211
183,954	119,930	-0,300	-0,259
184,969	119,303	-0,199	-0,172
185,983	-85,047	-0,323	-0,070
186,998	282,806	-0,191	-0,239
188,013	145,995	-0,256	-0,239
189,027	187,158	-0,209	-0,218
190,042	163,175	-0,214	-0,209
191,056	50,410	-0,144	-0,095
192,071	384,653	-0,114	-0,164
193,086	800,000	-0,119	-0,274
194,100	-99,720	-0,219	-0,038
195,115	81,294	-0,272	-0,204
196,129	-1,935	-0,223	-0,109
197,144	231,312	-0,199	-0,227
198,159	164,765	-0,156	-0,153
199,173	-21,274	-0,178	-0,075
200,188	-145,782	-0,255	0,016
201,202	212,405	-0,124	-0,136
202,217	-8,968	-0,203	-0,094
203,232	0,319	-0,272	-0,135
204,246	152,374	-0,206	-0,196
205,261	91,386	-0,242	-0,189
206,275	171,840	-0,149	-0,149
207,290	800,000	-0,079	-0,221
208,304	183,685	-0,300	-0,308
209,319	79,885	-0,191	-0,142
210,334	153,021	-0,216	-0,205
211,348	156,737	-0,267	-0,257
212,363	-125,230	-0,204	0,021
213,377	-51,240	-0,219	-0,071
214,392	38,344	-0,306	-0,189
215,407	484,885	-0,122	-0,194
216,421	-15,682	-0,212	-0,094
217,436	-35,513	-0,335	-0,126
218,450	130,055	-0,198	-0,176
219,465	3,548	-0,345	-0,174
220,480	-107,735	-0,237	-0,036
221,494	8,259	-0,195	-0,101
222,509	500,164	-0,133	-0,214
223,523	552,871	-0,114	-0,190
224,538	183,315	-0,144	-0,147
225,553	137,031	-0,198	-0,180
226,567	24,959	-0,124	-0,071
227,582	156,830	-0,188	-0,180
228,596	-131,468	-0,207	0,019
229,611	152,720	-0,248	-0,235
230,626	371,891	-0,153	-0,215
231,640	25,912	-0,217	-0,125
232,655	152,146	-0,181	-0,171
233,669	-60,219	-0,166	-0,049
234,684	44,012	-0,233	-0,148
235,699	296,784	-0,066	-0,084
236,713	-153,880	-0,097	-0,005
237,728	-200,000	0,011	-0,049
238,742	-15,979	-0,244	-0,107
239,757	-21,571	-0,255	-0,107
240,772	214,717	-0,208	-0,229
241,786	106,812	-0,248	-0,204
242,801	-43,750	-0,113	-0,039
243,815	800,000	-0,062	-0,123
244,830	111,602	-0,140	-0,117
245,844	-120,274	-0,103	0,012
246,859	306,327	-0,145	-0,188
247,874	185,654	-0,255	-0,263
248,888	62,091	-0,162	-0,111
249,903	-10,983	-0,228	-0,104
250,917	-59,295	-0,091	-0,027
251,932	57,139	-0,194	-0,131
252,947	800,000	-0,131	-0,334
253,961	36,105	-0,151	-0,092
254,976	244,195	-0,123	-0,144
255,990	172,849	-0,152	-0,152
257,005	-98,851	-0,210	-0,037
258,020	104,434	-0,132	-0,107
259,034	114,868	-0,182	-0,153
260,049	269,251	-0,111	-0,135
261,063	-36,371	-0,257	-0,095
262,078	248,738	-0,192	-0,225
263,093	89,876	-0,220	-0,170
264,107	-121,339	-0,128	-0,015
265,122	-47,223	-0,135	0,045
266,136	99,369	-0,250	-0,200
267,151	800,000	-0,128	-0,291
268,166	-95,232	-0,205	-0,038
269,180	40,644	-0,147	-0,091
270,195	83,099	-0,097	-0,073
271,209	85,944	-0,190	-0,145
272,224	-52,934	-0,094	0,030
273,239	456,584	-0,086	-0,132
274,253	-49,383	-0,205	0,067
275,268	192,294	-0,153	-0,159
276,282	-41,371	-0,234	-0,083
277,297	-76,401	-0,191	-0,046
278,312	-36,035	-0,168	-0,062
279,326	-154,539	-0,086	-0,004
280,341	-70,180	-0,115	-0,030
281,355	-9,131	-0,154	0,071
282,370	630,143	-0,118	-0,207
283,384	15,589	-0,243	-0,131
284,399	18,453	-0,168	-0,093
285,414	126,799	-0,079	-0,069
286,428	58,285	-0,164	-0,111
287,443	-200,000	-0,006	-0,027
288,457	-130,182	-0,221	0,020
289,472	-34,738	-0,232	-0,087
290,487	137,175	-0,103	-0,093
291,501	800,000	-0,119	-0,241
292,516	97,172	-0,140	-0,111
293,530	-200,000	-0,035	-0,139
294,545	-200,000	-0,003	-0,097
295,560	-86,842	-0,075	0,016
296,574	-65,063	-0,147	0,041
297,589	744,512	-0,078	-0,146
298,603	-57,310	-0,166	-0,050
299,618	-79,281	-0,282	0,065
300,633	88,509	-0,139	-0,106
301,647	-199,993	-0,132	0,000
302,662	169,985	-0,180	-0,177
303,676	-22,357	-0,108	0,045
304,691	74,445	-0,172	-0,125
305,706	-200,000	-0,053	-0,195
306,720	55,298	-0,131	-0,087
307,735	-105,809	-0,269	-0,041
308,749	6,102	-0,184	-0,093
309,764	-159,402	-0,186	-0,007
310,779	0,316	-0,208	-0,102
311,793	26,923	-0,070	-0,040
312,808	321,632	-0,149	-0,196
313,822	477,512	-0,151	-0,237
314,837	-60,694	-0,223	0,065
315,852	61,273	-0,148	-0,101
316,866	227,897	-0,135	-0,152
317,881	203,280	-0,142	-0,151
318,895	318,759	-0,087	-0,113
319,910	139,265	-0,032	-0,029
320,925	-10,110	-0,169	-0,077
321,939	800,000	-0,024	-0,059
322,954	206,327	-0,037	-0,040
323,968	317,098	-0,127	-0,165
324,983	161,506	-0,148	-0,142
325,997	130,772	-0,120	-0,106
327,012	-15,788	-0,146	-0,064
328,027	-110,885	-0,163	0,023
329,041	-91,161	-0,270	0,053
330,056	-132,409	-0,143	-0,013
331,070	249,617	-0,160	-0,186
332,085	329,058	-0,070	-0,093
333,100	9,481	-0,119	-0,062
334,114	508,788	-0,071	-0,114
335,129	87,973	-0,116	-0,089
336,143	-60,772	-0,147	-0,043
337,158	800,000	-0,066	-0,184
338,173	62,402	-0,234	-0,160
339,187	131,338	-0,116	-0,102
340,202	-163,226	-0,184	-0,006
341,216	407,657	-0,103	-0,150
342,231	800,000	-0,131	-0,260
343,246	105,553	-0,141	-0,114
344,260	167,413	-0,116	-0,113
345,275	-112,019	-0,155	0,021
346,289	70,835	-0,150	0,107
347,304	646,564	-0,089	-0,157
348,319	39,016	-0,170	-0,104
349,333	800,000	-0,048	-0,115
350,348	-179,531	-0,287	-0,004
351,362	30,619	-0,202	-0,119
352,377	-28,393	-0,119	-0,047
353,392	-172,077	-0,281	-0,006
354,406	-5,779	-0,119	-0,056
355,421	207,227	1319,897	1414,284
356,435	159,401	1481,262	1414,785
