DTS Sentinel unit serial number:	SN410029Multiplexer serial number:	ORYXHardware model number:	OX2-SRSoftware version number:	ORYX F/W v4,00 Oryx Data Collector v3.7.2.0data status	okinstallation	B3 Nyhavnadifferential loss correction	single-endedforward channel	channel 1reverse channel	N/Adate	2023/12/02time	04:07:30forward acquisition time	300,00reverse acquisition time	0,00gamma	499,1914k internal	0,3194k external	0,3194temperature offset calibration	1,0000default loss term (dB/km)	0,3820temperature slope calibration	1,0000multiplexer offset coefficient	1,0000multiplexer slope coefficient	1,0000fibre end	0,00T internal ref (°C)	16,56T ext. ref 1 (°C)	1,48T ext. ref 2 (°C)	1,47length (m)	temperature (°C)	Stokes	anti-Stokes-744,400	382,416	-0,193	-0,290
-743,385	-200,000	-0,022	0,362
-742,371	-33,979	-0,200	-0,080
-741,356	-200,000	0,003	0,390
-740,342	316,077	-0,091	-0,126
-739,327	-200,000	0,111	0,522
-738,312	80,729	-0,263	-0,207
-737,298	-200,000	0,000	0,130
-736,283	-200,000	-0,056	-0,267
-735,269	-200,000	0,022	0,278
-734,254	240,209	-0,158	-0,193
-733,239	800,000	-0,098	0,206
-732,225	-200,000	-0,053	-0,338
-731,210	800,000	0,066	0,142
-730,196	92,897	-0,056	-0,046
-729,181	-66,287	-0,074	-0,021
-728,167	-200,000	-0,002	-0,013
-727,152	32,545	0,031	0,020
-726,137	-200,000	-0,047	-0,156
-725,123	-143,730	0,102	0,007
-724,108	800,000	-0,097	-0,206
-723,094	-110,249	-0,089	0,013
-722,079	186,071	-0,116	-0,126
-721,064	-65,446	0,053	0,015
-720,050	65,811	0,010	0,007
-719,035	-64,329	-0,044	0,013
-718,021	181,371	0,076	-0,082
-717,006	415,900	-0,084	-0,130
-715,991	-4,542	-0,162	-0,081
-714,977	192,382	-0,131	0,144
-713,962	-200,000	0,009	0,089
-712,948	250,431	-0,035	0,043
-711,933	-200,000	-0,020	-0,109
-710,918	-78,094	-0,025	-0,006
-709,904	800,000	0,055	-0,116
-708,889	800,000	0,041	-0,091
-707,875	-200,000	-0,027	-0,112
-706,860	-89,383	0,032	0,007
-705,845	-138,817	0,106	0,008
-704,831	-200,000	-0,014	-0,095
-703,816	-200,000	0,022	-0,177
-702,802	-131,139	0,073	-0,007
-701,787	48,641	-0,028	0,019
-700,772	-72,395	-0,127	-0,034
-699,758	-93,817	-0,163	-0,032
-698,743	111,155	0,046	0,041
-697,729	-200,000	-0,031	0,176
-696,714	-200,000	-0,022	0,116
-695,699	-200,000	0,004	0,132
-694,685	109,811	0,087	0,076
-693,670	-200,000	-0,008	0,048
-692,656	-148,979	-0,185	-0,011
-691,641	18,319	0,082	-0,048
-690,627	-16,883	-0,068	0,031
-689,612	-37,183	0,048	0,019
-688,597	800,000	-0,059	0,137
-687,583	-120,083	-0,103	0,013
-686,568	-58,088	-0,186	0,059
-685,554	33,951	-0,135	-0,086
-684,539	800,000	0,032	0,078
-683,524	236,303	-0,023	-0,027
-682,510	40,930	0,001	0,001
-681,495	-53,655	-0,051	-0,017
-680,481	800,000	0,067	-0,136
-679,466	194,617	-0,035	-0,039
-678,451	-200,000	-0,008	-0,032
-677,437	800,000	-0,025	-0,061
-676,422	800,000	0,052	0,107
-675,408	27,096	-0,083	-0,050
-674,393	-27,585	-0,050	0,021
-673,378	-137,494	-0,119	-0,010
-672,364	20,428	-0,046	0,027
-671,349	7,853	0,051	-0,028
-670,335	-200,000	-0,028	0,102
-669,320	65,668	-0,019	-0,014
-668,305	-23,668	-0,059	0,026
-667,291	123,701	-0,067	0,062
-666,276	8,346	-0,034	0,018
-665,262	-69,603	0,102	-0,028
-664,247	-120,799	-0,055	-0,007
-663,232	53,727	-0,125	0,087
-662,218	800,000	-0,049	0,108
-661,203	44,541	-0,097	-0,065
-660,189	-23,882	-0,088	0,038
-659,174	-200,000	0,003	-0,055
-658,159	-171,092	-0,052	-0,001
-657,145	113,315	-0,019	-0,017
-656,130	215,029	0,145	-0,167
-655,116	-200,000	0,008	0,046
-654,101	20,151	-0,052	0,030
-653,086	-7,174	0,029	0,014
-652,072	-161,476	0,089	0,003
-651,057	-38,403	-0,136	0,052
-650,043	-200,000	0,016	-0,091
-649,028	-136,197	0,124	-0,010
-648,014	-29,829	0,035	-0,014
-646,999	309,027	0,075	0,102
-645,984	52,519	-0,084	0,058
-644,970	-200,000	-0,022	-0,105
-643,955	-200,000	0,016	-0,177
-642,941	-200,000	0,009	0,082
-641,926	-37,732	-0,057	0,022
-640,911	459,570	0,027	0,044
-639,897	231,805	0,064	0,077
-638,882	800,000	0,013	0,038
-637,868	-200,000	-0,080	0,000
-636,853	642,476	-0,071	-0,132
-635,838	-167,218	-0,114	0,003
-634,824	420,055	0,058	-0,090
-633,809	-40,371	0,045	0,017
-632,795	729,034	0,024	0,048
-631,780	95,070	0,069	0,057
-630,765	-123,879	-0,109	0,012
-629,751	-161,303	-0,101	-0,004
-628,736	237,746	-0,084	-0,102
-627,722	70,843	0,073	-0,054
-626,707	-200,000	-0,022	0,133
-625,692	796,915	-0,056	0,113
-624,678	-177,269	0,073	-0,001
-623,663	-54,969	0,070	0,023
-622,649	-114,725	-0,050	-0,007
-621,634	523,756	-0,011	0,018
-620,619	-200,000	-0,020	-0,100
-619,605	24,381	0,082	-0,049
-618,590	241,093	0,024	-0,029
-617,576	-200,000	0,023	-0,154
-616,561	-141,460	0,185	0,013
-615,546	800,000	0,018	-0,052
-614,532	312,424	0,094	-0,129
-613,517	-200,000	-0,045	-0,150
-612,503	137,791	-0,089	-0,085
-611,488	-48,899	0,049	-0,017
-610,474	202,096	0,069	-0,078
-609,459	143,800	0,022	0,022
-608,444	-121,668	0,049	0,006
-607,430	-200,000	0,001	-0,054
-606,415	-13,798	-0,043	-0,020
-605,401	87,785	0,091	-0,073
-604,386	-200,000	-0,014	-0,127
-603,371	-200,000	0,041	-0,186
-602,357	-59,149	0,087	0,027
-601,342	778,199	-0,025	0,050
-600,328	181,824	0,019	0,020
-599,313	94,667	0,088	0,073
-598,298	-200,000	0,007	0,028
-597,284	-33,217	0,067	-0,027
-596,269	330,654	0,109	0,152
-595,255	-200,000	-0,029	0,174
-594,240	122,361	0,029	0,026
-593,225	-200,000	-0,012	-0,047
-592,211	64,079	0,070	-0,051
-591,196	-200,000	0,007	-0,211
-590,182	-18,593	0,058	0,026
-589,167	268,259	-0,085	0,109
-588,152	-200,000	-0,011	-0,186
-587,138	-110,787	0,097	-0,014
-586,123	-200,000	0,032	0,113
-585,109	-59,078	-0,025	0,008
-584,094	64,333	0,021	0,015
-583,079	-200,000	-0,010	0,051
-582,065	-200,000	0,027	0,146
-581,050	99,849	0,008	-0,007
-580,036	37,887	0,055	0,035
-579,021	-200,000	-0,003	-0,162
-578,006	-79,726	-0,012	-0,003
-576,992	3,796	0,139	-0,073
-575,977	130,679	-0,086	0,080
-574,963	8,641	0,074	-0,040
-573,948	29,283	0,107	-0,066
-572,934	69,127	-0,101	0,075
-571,919	-27,231	-0,044	-0,018
-570,904	527,752	-0,043	-0,074
-569,890	-133,447	-0,033	0,003
-568,875	-135,096	0,042	-0,004
-567,861	-200,000	-0,017	-0,172
-566,846	549,042	-0,015	-0,027
-565,831	76,327	-0,116	0,089
-564,817	-127,392	0,030	0,003
-563,802	-200,000	0,025	-0,110
-562,788	800,000	0,078	-0,174
-561,773	15,847	-0,121	0,069
-560,758	800,000	0,040	0,087
-559,744	680,406	0,014	0,027
-558,729	401,605	0,030	0,046
-557,715	60,947	0,122	-0,087
-556,700	-166,711	-0,124	-0,004
-555,685	23,599	0,105	0,062
-554,671	-9,970	-0,072	-0,035
-553,656	-24,142	-0,077	0,033
-552,642	-200,000	-0,002	0,112
-551,627	580,588	0,011	-0,020
-550,612	-200,000	0,019	-0,240
-549,598	135,353	-0,077	-0,073
-548,583	150,299	-0,032	-0,031
-547,569	38,794	-0,126	-0,082
-546,554	800,000	0,033	0,089
-545,539	800,000	-0,056	0,115
-544,525	172,594	0,085	0,089
-543,510	151,424	0,075	-0,074
-542,496	384,458	-0,072	-0,107
-541,481	175,228	0,073	-0,076
-540,466	289,261	0,081	0,107
-539,452	122,534	-0,069	0,062
-538,437	-200,000	0,014	-0,080
-537,423	71,842	-0,078	0,058
-536,408	483,912	-0,048	0,079
-535,393	202,761	-0,077	-0,086
-534,379	-200,000	-0,001	0,036
-533,364	47,696	-0,059	0,040
-532,350	-44,263	0,184	-0,066
-531,335	-200,000	0,003	0,072
-530,321	-200,000	-0,004	0,100
-529,306	95,372	0,123	0,101
-528,291	-26,599	0,069	0,029
-527,277	5,040	-0,044	-0,023
-526,262	800,000	0,070	-0,143
-525,248	778,112	-0,022	-0,044
-524,233	-200,000	-0,013	0,062
-523,218	-133,604	0,046	-0,004
-522,204	57,921	0,070	-0,050
-521,189	800,000	-0,009	-0,020
-520,175	-131,667	-0,111	-0,010
-519,160	83,111	-0,028	0,022
-518,145	-186,995	0,093	0,001
-517,131	269,891	0,061	0,078
-516,116	-200,000	0,017	-0,099
-515,102	598,960	0,024	-0,044
-514,087	281,826	0,064	-0,084
-513,072	361,995	-0,019	-0,027
-512,058	8,941	-0,122	0,066
-511,043	800,000	0,011	-0,033
-510,029	67,140	0,079	0,058
-509,014	704,241	0,011	0,021
-507,999	153,855	-0,051	0,050
-506,985	-59,543	0,036	-0,011
-505,970	-30,244	0,001	0,000
-504,956	204,803	-0,024	0,027
-503,941	-109,057	0,047	-0,007
-502,926	429,230	0,053	0,083
-501,912	-32,792	-0,065	-0,026
-500,897	422,971	-0,078	0,121
-499,883	722,225	0,020	0,039
-498,868	87,037	-0,067	0,053
-497,853	21,071	-0,069	-0,040
-496,839	611,611	-0,049	-0,088
-495,824	147,255	0,046	0,045
-494,810	-111,185	0,094	-0,014
-493,795	188,596	0,028	0,030
-492,781	792,721	0,025	-0,049
-491,766	265,108	-0,030	-0,038
-490,751	-16,475	0,074	0,034
-489,737	-200,000	-0,011	0,065
-488,722	-30,270	0,103	0,042
-487,708	-200,000	0,037	0,152
-486,693	-200,000	0,005	0,054
-485,678	800,000	0,035	0,109
-484,664	-200,000	0,006	-0,137
-483,649	12,557	-0,065	-0,036
-482,635	672,673	-0,016	-0,030
-481,620	100,393	-0,039	0,033
-480,605	446,346	-0,048	0,077
-479,591	-106,033	0,025	-0,004
-478,576	478,208	-0,046	-0,076
-477,562	-200,000	0,016	-0,052
-476,547	193,774	-0,084	0,092
-475,532	-110,144	-0,150	-0,022
-474,518	-29,389	-0,047	-0,019
-473,503	170,016	0,070	0,073
-472,489	23,295	-0,036	0,021
-471,474	-200,000	-0,021	-0,137
-470,459	159,992	-0,092	-0,093
-469,445	800,000	-0,022	0,060
-468,430	-200,000	0,004	0,021
-467,416	800,000	0,021	0,066
-466,401	11,976	0,053	0,029
-465,386	83,702	0,046	0,036
-464,372	-200,000	0,012	0,055
-463,357	-33,164	-0,062	0,025
-462,343	448,509	0,055	-0,087
-461,328	79,630	0,093	-0,072
-460,313	-84,712	-0,038	-0,009
-459,299	-96,619	0,137	0,026
-458,284	-200,000	0,006	0,023
-457,270	25,083	-0,091	0,055
-456,255	-31,565	-0,032	-0,013
-455,241	-55,207	-0,121	0,039
-454,226	-132,875	-0,137	-0,012
-453,211	800,000	-0,059	0,127
-452,197	152,190	0,040	0,039
-451,182	-200,000	-0,035	0,138
-450,168	245,684	0,111	-0,135
-449,153	372,610	0,011	-0,016
-448,138	52,275	0,079	-0,054
-447,124	-108,261	0,088	-0,014
-446,109	437,370	0,035	0,055
-445,095	-200,000	-0,005	0,045
-444,080	666,381	-0,026	-0,048
-443,065	-136,736	0,123	-0,010
-442,051	8,502	-0,113	-0,061
-441,036	10,170	0,021	-0,012
-440,022	351,491	-0,048	-0,069
-439,007	288,614	-0,054	0,070
-437,992	800,000	-0,071	0,146
-436,978	194,654	0,048	0,053
-435,963	800,000	0,063	0,142
-434,949	-200,000	0,004	-0,075
-433,934	-21,844	-0,103	-0,045
-432,919	93,127	0,053	0,043
-431,905	2,000	0,024	0,013
-430,890	-200,000	0,003	0,022
-429,876	-200,000	0,034	0,122
-428,861	800,000	0,027	-0,063
-427,846	69,542	0,115	0,085
-426,832	592,479	0,007	0,012
-425,817	-200,000	0,006	-0,121
-424,803	524,325	-0,046	0,078
-423,788	9,635	0,033	-0,018
-422,773	442,130	-0,037	0,058
-421,759	-117,893	-0,119	0,015
-420,744	18,340	0,173	-0,099
-419,730	-141,854	-0,021	-0,002
-418,715	-120,160	0,053	-0,006
-417,701	418,425	-0,078	-0,121
-416,686	356,595	0,049	-0,071
-415,671	92,690	0,130	0,106
-414,657	94,376	0,212	0,173
-413,642	546,546	-0,061	-0,105
-412,628	6,074	0,014	0,008
-411,613	398,206	-0,103	-0,156
-410,598	21,584	0,103	-0,060
-409,584	800,000	0,039	-0,095
-408,569	-200,000	0,001	0,112
-407,555	-200,000	0,003	0,051
-406,540	800,000	-0,036	0,073
-405,525	80,352	-0,028	0,021
-404,511	157,773	-0,044	-0,043
-403,496	35,257	0,105	-0,066
-402,482	659,559	0,027	-0,050
-401,467	102,199	-0,034	-0,028
-400,452	800,000	0,064	0,151
-399,438	-200,000	0,009	0,079
-398,423	-200,000	-0,008	0,048
-397,409	23,042	-0,024	-0,014
-396,394	-200,000	0,000	-0,077
-395,379	588,922	0,031	0,055
-394,365	390,676	0,073	-0,109
-393,350	-108,905	-0,116	-0,018
-392,336	-8,599	-0,046	0,022
-391,321	-200,000	0,006	0,142
-390,306	-39,090	-0,123	-0,046
-389,292	800,000	-0,045	-0,121
-388,277	800,000	-0,031	0,069
-387,263	-92,420	0,072	-0,014
-386,248	-2,412	0,038	0,019
-385,233	567,985	0,098	0,172
-384,219	-83,060	-0,011	0,003
-383,204	-43,825	-0,123	-0,044
-382,190	92,689	-0,034	-0,028
-381,175	-68,091	0,056	-0,016
-380,160	734,974	-0,008	0,016
-379,146	-200,000	0,006	0,066
-378,131	-200,000	-0,003	0,124
-377,117	800,000	0,044	-0,128
-376,102	-200,000	-0,024	-0,201
-375,088	339,011	-0,033	-0,047
-374,073	319,837	0,074	-0,101
-373,058	800,000	0,037	0,094
-372,044	51,609	0,159	0,108
-371,029	800,000	-0,032	0,067
-370,015	-150,148	-0,082	-0,004
-369,000	800,000	0,029	-0,059
-367,985	-48,867	-0,060	0,021
-366,971	-81,264	-0,172	-0,040
-365,956	101,847	0,088	-0,074
-364,942	800,000	-0,040	-0,108
-363,927	-200,000	-0,042	0,136
-362,912	295,501	0,110	0,145
-361,898	314,525	-0,084	-0,114
-360,883	15,394	0,105	-0,059
-359,869	477,405	-0,020	0,033
-358,854	800,000	-0,044	-0,088
-357,839	190,399	0,045	0,048
-356,825	-200,000	-0,046	0,172
-355,810	360,763	-0,059	0,086
-354,796	16,260	-0,093	0,052
-353,781	12,164	-0,165	-0,091
-352,766	223,925	-0,018	-0,021
-351,752	-200,000	0,012	-0,200
-350,737	-108,567	0,117	0,018
-349,723	-32,176	-0,051	0,020
-348,708	-200,000	0,007	0,073
-347,693	408,840	-0,050	0,076
-346,679	-200,000	0,004	0,020
-345,664	-200,000	-0,013	-0,076
-344,650	-58,562	-0,127	-0,039
-343,635	103,455	0,151	0,127
-342,620	-33,114	-0,078	0,031
-341,606	378,645	-0,068	-0,100
-340,591	800,000	0,006	-0,017
-339,577	138,843	-0,116	-0,109
-338,562	252,495	-0,043	0,052
-337,548	800,000	0,031	-0,062
-336,533	800,000	-0,028	0,076
-335,518	-200,000	0,001	0,042
-334,504	-200,000	0,002	0,016
-333,489	-128,993	-0,094	-0,009
-332,475	800,000	-0,034	0,084
-331,460	117,887	-0,082	-0,072
-330,445	-139,628	0,126	-0,009
-329,431	137,099	0,069	0,065
-328,416	-1,867	0,034	-0,017
-327,402	800,000	0,024	0,069
-326,387	13,088	0,017	-0,009
-325,372	-96,612	-0,098	-0,018
-324,358	-200,000	-0,037	-0,134
-323,343	-200,000	-0,063	-0,206
-322,329	800,000	-0,011	-0,024
-321,314	-41,157	0,068	0,025
-320,299	-83,883	-0,080	-0,018
-319,285	199,439	0,051	-0,056
-318,270	417,110	0,027	0,042
-317,256	-200,000	0,027	0,092
-316,241	-81,239	-0,166	-0,039
-315,226	-132,323	0,075	-0,007
-314,212	160,387	-0,015	0,015
-313,197	-200,000	0,011	0,059
-312,183	800,000	0,047	0,142
-311,168	800,000	0,038	0,084
-310,153	-200,000	0,002	-0,048
-309,139	-122,099	-0,050	-0,006
-308,124	97,325	-0,068	0,056
-307,110	-14,516	0,116	0,053
-306,095	-117,592	0,134	0,017
-305,080	-200,000	0,002	-0,039
-304,066	-61,303	-0,055	0,017
-303,051	369,220	0,098	-0,142
-302,037	613,643	0,046	-0,083
-301,022	-108,077	-0,139	0,021
-300,008	800,000	-0,057	0,116
-298,993	-13,452	0,192	-0,089
-297,978	219,764	0,081	-0,093
-296,964	-200,000	0,020	-0,149
-295,949	-200,000	0,035	0,129
-294,935	424,827	0,075	-0,115
-293,920	-123,786	-0,081	0,009
-292,905	-21,249	0,040	-0,017
-291,891	-200,000	0,018	0,194
-290,876	275,639	-0,009	0,011
-289,862	-200,000	0,002	0,069
-288,847	-101,117	0,126	0,022
-287,832	429,940	-0,043	0,067
-286,818	108,610	-0,081	0,070
-285,803	113,926	0,014	-0,012
-284,789	-200,000	-0,038	0,144
-283,774	800,000	-0,007	-0,015
-282,759	-57,482	-0,104	0,032
-281,745	47,952	-0,119	-0,080
-280,730	-106,172	-0,014	-0,002
-279,716	-200,000	-0,061	-0,209
-278,701	-153,009	-0,005	0,000
-277,686	105,036	-0,045	-0,038
-276,672	-81,043	-0,107	0,025
-275,657	800,000	0,015	0,038
-274,643	-73,977	0,081	-0,021
-273,628	281,290	0,027	-0,035
-272,613	800,000	-0,013	-0,034
-271,599	342,295	-0,072	0,102
-270,584	800,000	-0,068	0,178
-269,570	-30,231	0,122	0,049
-268,555	-95,044	-0,143	0,027
-267,540	-200,000	0,008	-0,073
-266,526	279,201	0,027	-0,034
-265,511	93,573	0,114	-0,092
-264,497	-200,000	0,013	0,203
-263,482	-200,000	0,010	0,083
-262,467	-200,000	0,013	0,083
-261,453	-39,655	0,083	0,031
-260,438	-200,000	-0,029	0,179
-259,424	-140,961	-0,020	0,001
-258,409	285,505	-0,137	-0,177
-257,395	-39,105	0,029	-0,011
-256,380	-200,000	-0,010	0,128
-255,365	-200,000	-0,002	0,024
-254,351	-28,499	0,060	-0,024
-253,336	800,000	-0,033	-0,078
-252,322	205,183	-0,017	-0,019
-251,307	-156,558	-0,065	0,003
-250,292	-127,257	0,101	-0,010
-249,278	-200,000	-0,001	0,061
-248,263	41,421	0,064	0,042
-247,249	-195,664	0,084	-0,000
-246,234	-200,000	-0,014	-0,143
-245,219	440,470	0,040	-0,063
-244,205	608,672	-0,074	-0,132
-243,190	-200,000	0,018	-0,083
-242,176	-200,000	0,008	0,040
-241,161	215,997	0,021	0,023
-240,146	-200,000	-0,014	-0,084
-239,132	-200,000	0,002	-0,042
-238,117	466,732	-0,028	-0,045
-237,103	407,788	-0,058	0,089
-236,088	-92,748	-0,037	0,007
-235,073	-89,565	0,147	-0,031
-234,059	65,122	-0,033	0,024
-233,044	96,732	0,071	-0,058
-232,030	-16,137	-0,104	0,047
-231,015	-200,000	-0,002	0,055
-230,000	-74,846	-0,082	0,021
-228,986	800,000	0,065	0,151
-227,971	244,319	0,025	0,030
-226,957	800,000	-0,051	0,115
-225,942	-66,428	0,041	-0,012
-224,927	75,420	-0,080	0,061
-223,913	800,000	-0,038	-0,084
-222,898	273,713	0,062	0,079
-221,884	21,279	-0,054	0,031
-220,869	800,000	0,029	0,059
-219,855	-116,155	-0,187	-0,024
-218,840	128,943	-0,049	-0,044
-217,825	4,749	0,112	-0,059
-216,811	40,475	-0,052	0,033
-215,796	214,514	-0,119	0,135
-214,782	-200,000	0,001	-0,199
-213,767	200,807	0,078	0,086
-212,752	-200,000	0,030	0,105
-211,738	47,365	0,047	0,031
-210,723	-200,000	0,018	0,065
-209,709	445,316	-0,081	-0,127
-208,694	800,000	-0,008	-0,022
-207,679	800,000	-0,017	-0,036
-206,665	800,000	-0,035	-0,102
-205,650	-200,000	-0,010	-0,036
-204,636	231,813	-0,056	-0,065
-203,621	77,489	0,057	0,043
-202,606	-180,740	-0,046	0,001
-201,592	800,000	-0,023	-0,047
-200,577	418,086	-0,023	-0,035
-199,563	-21,063	-0,108	0,047
-198,548	235,793	0,155	0,184
-197,533	-59,718	-0,077	-0,023
-196,519	-23,073	0,115	0,049
-195,504	-200,000	-0,004	0,067
-194,490	6,464	-0,087	-0,046
-193,475	-64,580	-0,103	-0,030
-192,460	-200,000	-0,001	0,006
-191,446	-200,000	0,005	-0,126
-190,431	-18,120	-0,072	-0,032
-189,417	106,898	0,089	0,076
-188,402	146,023	-0,078	-0,075
-187,387	315,190	-0,063	-0,085
-186,373	800,000	0,035	-0,089
-185,358	800,000	0,019	-0,049
-184,344	-85,204	-0,185	-0,041
-183,329	-36,454	-0,073	0,028
-182,315	632,468	0,028	0,051
-181,300	-132,590	0,102	-0,009
-180,285	-200,000	0,025	0,167
-179,271	-73,771	-0,089	0,023
-178,256	66,266	-0,086	-0,062
-177,242	532,967	0,044	0,074
-176,227	-200,000	0,019	-0,074
-175,212	532,694	0,019	0,033
-174,198	-48,504	-0,080	0,027
-173,183	81,415	-0,058	-0,045
-172,169	800,000	0,070	-0,177
-171,154	-200,000	0,001	0,004
-170,139	-123,606	0,061	-0,007
-169,125	130,245	0,045	0,041
-168,110	-57,352	0,050	-0,015
-167,096	136,069	-0,043	-0,040
-166,081	-76,280	0,120	-0,030
-165,066	-200,000	-0,012	0,095
-164,052	-200,000	-0,004	-0,055
-163,037	319,739	0,096	0,130
-162,023	190,857	-0,058	-0,062
-161,008	-131,667	-0,104	-0,010
-159,993	328,461	0,054	-0,074
-158,979	50,405	-0,046	-0,031
-157,964	117,030	-0,026	-0,023
-156,950	107,650	-0,102	-0,087
-155,935	210,454	-0,073	-0,081
-154,920	-138,995	-0,010	0,001
-153,906	797,967	0,097	0,192
-152,891	800,000	-0,019	0,043
-151,877	-90,886	0,049	-0,010
-150,862	-37,562	-0,177	0,067
-149,847	800,000	0,044	-0,100
-148,833	-52,056	0,115	-0,038
-147,818	-116,341	-0,082	-0,011
-146,804	-200,000	-0,016	0,160
-145,789	212,049	-0,041	-0,046
-144,775	-72,636	-0,107	0,028
-143,760	-200,000	0,000	0,017
-142,745	-200,000	0,012	0,050
-141,731	153,480	0,075	0,073
-140,716	37,470	-0,053	0,033
-139,702	-7,332	0,086	0,041
-138,687	-92,732	-0,106	0,021
-137,672	-75,467	0,024	0,006
-136,658	-25,490	-0,089	0,037
-135,643	-200,000	0,004	0,044
-134,629	-200,000	-0,024	-0,112
-133,614	-78,681	0,078	-0,019
-132,599	40,224	0,089	-0,057
-131,585	-58,619	0,097	0,030
-130,570	528,072	-0,051	0,086
-129,556	-59,819	0,073	-0,022
-128,541	-200,000	-0,036	0,156
-127,526	800,000	-0,025	0,068
-126,512	56,988	0,088	-0,061
-125,497	800,000	-0,008	0,022
-124,483	-47,351	0,071	-0,024
-123,468	81,912	-0,112	0,086
-122,453	19,916	-0,110	0,063
-121,439	41,457	0,084	-0,054
-120,424	228,872	0,042	-0,049
-119,410	-92,934	-0,160	0,031
-118,395	-200,000	0,003	0,022
-117,380	303,110	0,042	0,055
-116,366	-200,000	-0,029	0,113
-115,351	640,871	-0,032	0,057
-114,337	53,987	-0,095	-0,065
-113,322	-200,000	-0,007	0,059
-112,307	-200,000	-0,109	0,000
-111,293	-86,734	0,163	-0,035
-110,278	-80,941	0,103	-0,024
-109,264	800,000	-0,013	-0,031
-108,249	12,744	-0,195	0,107
-107,234	-200,000	-0,028	-0,125
-106,220	-200,000	-0,012	-0,062
-105,205	-37,754	0,090	-0,034
-104,191	-200,000	-0,003	0,145
-103,176	-200,000	0,004	-0,064
-102,162	777,131	0,011	0,022
-101,147	-140,291	-0,122	0,009
-100,132	-53,452	-0,080	0,026
-99,118	-10,028	-0,166	-0,078
-98,103	800,000	0,039	-0,082
-97,089	146,226	-0,109	-0,104
-96,074	-125,741	0,080	0,008
-95,059	800,000	0,030	0,076
-94,045	54,271	-0,095	-0,065
-93,030	800,000	-0,036	-0,079
-92,016	-99,999	0,043	-0,008
-91,001	800,000	0,025	-0,066
-89,986	256,286	0,045	-0,055
-88,972	-95,946	-0,081	-0,015
-87,957	-29,260	0,140	0,057
-86,943	-74,798	-0,106	-0,027
-85,928	-4,685	-0,016	-0,008
-84,913	-9,976	0,067	-0,031
-83,899	-200,000	0,023	0,117
-82,884	116,488	0,129	0,112
-81,870	-200,000	0,008	-0,026
-80,855	458,186	0,026	-0,041
-79,840	410,801	-0,080	-0,121
-78,826	-185,379	0,162	-0,002
-77,811	334,637	-0,085	-0,118
-76,797	-200,000	-0,003	0,089
-75,782	-37,006	0,056	0,021
-74,767	680,268	0,030	-0,055
-73,753	-103,062	0,109	-0,018
-72,738	144,428	-0,088	0,083
-71,724	345,467	0,055	0,077
-70,709	800,000	0,019	-0,047
-69,694	-168,469	0,120	-0,003
-68,680	101,720	0,018	-0,015
-67,665	-159,378	0,077	-0,003
-66,651	188,871	-0,130	0,139
-65,636	208,841	0,072	0,080
-64,622	136,855	-0,064	-0,060
-63,607	375,348	0,056	-0,081
-62,592	-73,061	0,055	0,014
-61,578	-200,000	0,031	0,131
-60,563	-200,000	0,007	-0,066
-59,549	-200,000	-0,008	0,096
-58,534	-96,495	-1,526	-0,283
-57,519	361,756	-1,566	-2,236
-56,505	-200,000	-0,612	-4,464
-55,490	82,371	0,911	0,701
-54,476	800,000	4,604	11,321
-53,461	-200,000	17,163	269,984
-52,446	800,000	715,299	2184,455
-51,432	553,357	1629,814	2790,738
-50,417	81,470	1655,542	1268,995
-49,403	24,399	1530,080	895,280
-48,388	18,396	1453,382	821,492
-47,373	18,563	1442,575	816,155
-46,359	18,270	1433,690	809,699
-45,344	16,702	1428,782	799,455
-44,330	16,626	1427,007	798,068
-43,315	16,678	1425,135	797,238
-42,300	16,662	1423,675	796,309
-41,286	16,712	1422,359	795,782
-40,271	16,682	1421,146	794,927
-39,257	16,619	1419,952	793,933
-38,242	16,654	1418,625	793,324
-37,227	16,687	1417,430	792,778
-36,213	16,657	1416,112	791,867
-35,198	16,649	1415,019	791,191
-34,184	16,704	1413,911	790,796
-33,169	16,624	1412,623	789,670
-32,154	16,671	1411,820	789,409
-31,140	16,699	1410,398	788,716
-30,125	16,729	1409,206	788,159
-29,111	16,730	1408,092	787,509
-28,096	16,655	1407,118	786,579
-27,082	16,596	1405,683	785,470
-26,067	16,578	1404,813	784,868
-25,052	16,624	1403,628	784,394
-24,038	16,570	1402,778	783,634
-23,023	16,585	1401,728	783,088
-22,009	16,522	1400,906	782,302
-20,994	16,514	1399,790	781,610
-19,979	16,536	1398,906	781,190
-18,965	16,518	1397,979	780,557
-17,950	16,486	1397,042	779,856
-16,936	16,547	1395,989	779,520
-15,921	16,488	1394,745	778,521
-14,906	16,494	1393,903	778,047
-13,892	16,474	1393,062	777,453
-12,877	16,493	1392,167	777,013
-11,863	16,508	1391,039	776,420
-10,848	16,526	1390,350	776,086
-9,833	16,460	1389,344	775,188
-8,819	16,465	1388,425	774,670
-7,804	16,389	1387,499	773,772
-6,790	16,415	1386,349	773,222
-5,775	16,395	1385,437	772,589
-4,760	16,332	1384,763	771,893
-3,746	16,371	1383,833	771,523
-2,731	16,360	1383,032	770,997
-1,717	16,331	1382,028	770,270
-0,702	16,409	1379,983	769,457
0,313	20,170	1301,835	743,233
1,327	36,619	707,895	442,329
2,342	56,412	125,876	86,639
3,356	5,789	16,525	8,639
4,371	7,760	3,048	1,613
5,386	-46,424	0,597	0,207
6,400	-57,506	0,043	-0,013
7,415	36,813	-0,299	-0,187
8,429	-106,247	-0,233	-0,037
9,444	80,311	-0,380	-0,289
10,459	104,737	-0,251	-0,209
11,473	-22,312	-0,362	-0,155
12,488	105,838	-0,265	-0,222
13,502	-129,768	-0,488	0,047
14,517	14,379	-0,302	-0,166
15,531	44,112	-0,404	-0,262
16,546	115,469	-0,366	-0,317
17,561	108,761	-0,377	-0,319
18,575	-3,261	-0,239	-0,118
19,590	6,599	-0,233	-0,122
20,604	12,158	-0,316	-0,171
21,619	17,473	-0,532	-0,299
22,634	38,198	-0,506	-0,318
23,648	-3,041	-0,463	-0,228
24,663	69,806	-0,321	-0,234
25,677	33,632	-0,365	-0,224
26,692	-6,409	-0,353	-0,170
27,707	-46,173	-0,434	-0,150
28,721	28,071	-0,340	-0,202
29,736	118,571	-0,361	-0,315
30,750	117,041	-0,317	-0,275
31,765	529,601	-0,220	-0,370
32,780	67,875	-0,242	-0,175
33,794	36,043	-0,319	-0,198
34,809	84,163	-0,323	-0,250
35,823	44,581	-0,490	-0,318
36,838	-8,966	-0,482	-0,227
37,853	45,702	-0,484	-0,315
38,867	20,787	-0,376	-0,215
39,882	27,611	-0,307	-0,182
40,896	77,605	-0,427	-0,321
41,911	19,192	-0,362	-0,205
42,926	253,631	-0,329	-0,398
43,940	62,182	-0,510	-0,359
44,955	39,611	-0,387	-0,245
45,969	7,979	-0,422	-0,223
46,984	75,832	-0,281	-0,209
47,999	144,047	-0,319	-0,301
49,013	25,853	-0,249	-0,146
50,028	32,679	-0,342	-0,208
51,042	608,601	-0,239	-0,422
52,057	45,709	-0,443	-0,289
53,071	11,966	-0,382	-0,207
54,086	-39,619	-0,276	-0,101
55,101	1,927	-0,252	-0,128
56,115	25,530	-0,255	-0,149
57,130	-13,300	-0,356	-0,163
58,144	24,796	-0,474	-0,276
59,159	59,423	-0,427	-0,296
60,174	161,212	-0,336	-0,332
61,188	179,836	-0,339	-0,351
62,203	-96,885	-0,450	-0,083
63,217	206,312	-0,226	-0,248
64,232	81,242	-0,441	-0,336
65,247	103,505	-0,339	-0,280
66,261	144,313	-0,249	-0,235
67,276	166,626	-0,250	-0,250
68,290	42,878	-0,466	-0,299
69,305	61,045	-0,264	-0,185
70,320	51,973	-0,342	-0,229
71,334	53,394	-0,231	-0,156
72,349	-27,165	-0,473	-0,193
73,363	243,549	-0,320	-0,379
74,378	98,285	-0,347	-0,282
75,393	7,021	-0,389	-0,204
76,407	107,869	-0,231	-0,194
77,422	109,936	-0,253	-0,214
78,436	12,060	-0,279	-0,151
79,451	102,542	-0,265	-0,218
80,466	60,906	-0,358	-0,250
81,480	153,815	-0,223	-0,215
82,495	38,033	-0,272	-0,170
83,509	38,969	-0,261	-0,164
84,524	164,186	-0,187	-0,185
85,539	4,652	-0,425	-0,219
86,553	98,034	-0,238	-0,193
87,568	55,390	-0,328	-0,223
88,582	409,025	-0,221	-0,330
89,597	338,269	-0,139	-0,191
90,611	245,633	-0,300	-0,356
91,626	105,211	-0,150	-0,124
92,641	65,080	-0,168	-0,119
93,655	294,009	-0,158	-0,203
94,670	204,009	-0,247	-0,270
95,684	-6,137	-0,304	-0,146
96,699	558,600	-0,210	-0,358
97,714	46,679	-0,196	-0,128
98,728	29,632	-0,343	-0,205
99,743	113,896	-0,221	-0,189
100,757	-80,798	-0,419	-0,097
101,772	30,800	-0,322	-0,193
102,787	5,664	-0,295	-0,153
103,801	117,091	-0,396	-0,342
104,816	-9,797	-0,216	-0,100
105,830	53,527	-0,307	-0,207
106,845	-55,443	-0,383	-0,120
107,860	800,000	-0,125	-0,264
108,874	11,979	-0,278	-0,150
109,889	368,258	-0,237	-0,337
110,903	115,761	-0,284	-0,244
111,918	170,814	-0,273	-0,275
112,933	59,691	-0,248	-0,172
113,947	88,284	-0,183	-0,143
114,962	37,538	-0,222	-0,138
115,976	378,076	-0,160	-0,230
116,991	32,307	-0,316	-0,191
118,006	131,579	-0,150	-0,136
119,020	-17,210	-0,302	-0,133
120,035	132,156	-0,164	-0,148
121,049	14,198	-0,214	-0,117
122,064	-26,822	-0,244	-0,099
123,079	229,512	-0,262	-0,301
124,093	427,307	-0,200	-0,303
125,108	13,011	-0,269	-0,145
126,122	60,886	-0,169	-0,118
127,137	59,402	-0,170	-0,117
128,151	-53,820	-0,411	-0,131
129,166	-19,730	-0,257	-0,111
130,181	216,571	-0,235	-0,262
131,195	-59,996	-0,338	-0,100
132,210	-32,723	-0,305	-0,119
133,224	78,644	-0,274	-0,205
134,239	68,517	-0,151	-0,109
135,254	40,988	-0,252	-0,159
136,268	9,842	-0,212	-0,112
137,283	3,408	-0,133	-0,068
138,297	-20,410	-0,180	-0,077
139,312	61,777	-0,227	-0,158
140,327	201,816	-0,204	-0,220
141,341	156,703	-0,182	-0,176
142,356	-62,488	-0,285	-0,082
143,370	233,215	-0,212	-0,244
144,385	247,967	-0,202	-0,239
145,400	222,317	-0,191	-0,215
146,414	128,942	-0,214	-0,191
147,429	10,882	-0,256	-0,136
148,443	8,122	-0,250	-0,131
149,458	-62,860	-0,195	-0,056
150,473	-57,596	-0,317	-0,097
151,487	85,308	-0,215	-0,165
152,502	-126,660	-0,229	-0,023
153,516	6,663	-0,387	-0,201
154,531	155,129	-0,190	-0,183
155,546	-8,045	-0,325	-0,153
156,560	-134,267	-0,182	-0,015
157,575	274,997	-0,156	0,193
158,589	15,316	-0,304	-0,166
159,604	-46,956	-0,184	0,062
160,619	326,227	-0,338	-0,453
161,633	-167,965	-0,345	-0,009
162,648	348,976	-0,175	-0,242
163,662	-40,395	-0,270	-0,098
164,677	95,490	-0,310	-0,247
165,692	-109,812	-0,258	-0,038
166,706	-14,425	-0,316	-0,141
167,721	-44,960	-0,226	-0,078
168,735	-109,750	-0,344	-0,050
169,750	-33,300	-0,298	-0,115
170,764	24,772	-0,175	-0,101
171,779	-45,312	-0,182	-0,063
172,794	19,978	-0,255	-0,143
173,808	735,136	-0,102	-0,192
174,823	284,257	-0,105	-0,133
175,837	578,605	-0,147	-0,253
176,852	25,577	-0,195	-0,113
177,867	800,000	-0,117	-0,261
178,881	-35,265	-0,262	-0,099
179,896	-39,908	-0,180	-0,065
180,910	46,894	-0,281	-0,182
181,925	85,256	-0,273	-0,209
182,940	156,672	-0,217	-0,209
183,954	4,054	-0,255	-0,130
184,969	13,374	-0,183	-0,098
185,983	-90,822	-0,220	-0,044
186,998	270,665	-0,094	-0,116
188,013	6,727	-0,173	-0,089
189,027	-59,744	-0,304	-0,090
190,042	94,013	-0,111	-0,088
191,056	35,269	-0,290	-0,177
192,071	13,869	-0,178	-0,096
193,086	128,463	-0,217	-0,193
194,100	-40,504	-0,310	-0,112
195,115	-15,873	-0,199	-0,088
196,129	-123,544	-0,327	-0,036
197,144	122,289	-0,182	-0,159
198,159	204,400	-0,257	-0,278
199,173	157,728	-0,198	-0,191
200,188	141,681	-0,245	-0,226
201,202	-161,913	-0,206	-0,007
202,217	-174,156	-0,160	0,003
203,232	126,755	-0,234	-0,206
204,246	25,314	-0,188	-0,108
205,261	293,150	-0,168	-0,213
206,275	117,961	-0,166	-0,142
207,290	211,319	-0,097	-0,106
208,304	123,497	-0,124	0,109
209,319	676,690	-0,169	-0,307
210,334	-167,422	-0,242	0,007
211,348	197,009	-0,208	-0,221
212,363	96,229	-0,171	-0,136
213,377	254,660	-0,202	-0,241
214,392	37,745	-0,147	-0,091
215,407	61,477	-0,188	-0,130
216,421	286,438	-0,118	-0,149
217,436	69,454	-0,160	-0,114
218,450	111,012	-0,164	-0,138
219,465	160,504	-0,139	-0,135
220,480	157,491	-0,086	-0,083
221,494	423,713	-0,131	-0,196
222,509	73,873	-0,050	-0,036
223,523	-69,122	-0,194	-0,051
224,538	-100,804	-0,233	0,040
225,553	57,840	-0,200	-0,136
226,567	49,268	-0,062	-0,040
227,582	133,150	-0,309	-0,277
228,596	-31,889	-0,229	-0,089
229,611	225,771	-0,044	-0,050
230,626	40,908	-0,221	0,138
231,640	19,842	-0,187	-0,104
232,655	509,452	-0,095	-0,155
233,669	435,032	-0,134	-0,203
234,684	174,735	-0,212	-0,213
235,699	5,702	-0,214	-0,109
236,713	159,738	-0,198	-0,192
237,728	-97,199	-0,211	-0,038
238,742	146,156	-0,160	-0,149
239,757	67,046	-0,209	-0,147
240,772	-49,067	-0,223	-0,074
241,786	-43,845	-0,222	-0,077
242,801	-137,436	-0,055	0,004
243,815	-127,082	-0,119	-0,012
244,830	133,736	-0,194	-0,174
245,844	341,226	-0,081	-0,111
246,859	-29,608	-0,195	-0,077
247,874	596,880	-0,172	-0,297
248,888	-22,400	-0,254	-0,106
249,903	-22,365	-0,208	-0,087
250,917	60,337	-0,152	-0,104
251,932	-200,000	0,018	-0,119
252,947	-11,740	-0,155	-0,070
253,961	-28,630	-0,208	-0,083
254,976	263,539	-0,156	-0,188
255,990	104,097	-0,261	-0,212
257,005	50,677	-0,114	0,075
258,020	117,616	-0,148	-0,126
259,034	469,306	-0,019	-0,030
260,049	3,168	-0,213	-0,107
261,063	-18,901	-0,199	-0,085
262,078	181,017	-0,157	-0,160
263,093	-5,948	-0,160	-0,076
264,107	123,345	-0,149	-0,129
265,122	-30,728	-0,222	-0,087
266,136	154,331	-0,166	-0,158
267,151	800,000	-0,090	-0,243
268,166	27,490	-0,187	-0,109
269,180	-132,955	-0,189	0,016
270,195	72,221	-0,227	-0,164
271,209	-155,290	-0,177	-0,008
272,224	-79,396	-0,072	-0,017
273,239	479,854	-0,157	-0,247
274,253	-49,646	-0,119	-0,039
275,268	106,997	-0,076	-0,062
276,282	222,356	-0,085	-0,095
277,297	18,507	-0,168	-0,093
278,312	246,067	-0,037	-0,043
279,326	8,374	-0,168	-0,087
280,341	-109,080	-0,243	-0,035
281,355	169,480	-0,146	-0,145
282,370	72,632	-0,116	-0,084
283,384	800,000	-0,058	-0,133
284,399	-36,686	-0,134	-0,050
285,414	-76,354	-0,147	-0,036
286,428	800,000	-0,069	-0,190
287,443	-200,000	0,011	-0,043
288,457	401,446	-0,077	-0,112
289,472	9,766	-0,175	-0,092
290,487	55,426	-0,252	-0,169
291,501	-64,947	-0,276	-0,077
292,516	-85,599	-0,225	0,048
293,530	0,224	-0,013	0,006
294,545	-95,040	-0,074	0,014
295,560	510,822	-0,106	-0,171
296,574	47,694	-0,089	-0,057
297,589	342,146	-0,133	-0,181
298,603	800,000	-0,084	-0,226
299,618	339,455	-0,123	-0,167
300,633	-142,440	-0,192	-0,013
301,647	-111,979	-0,069	0,010
302,662	800,000	-0,043	-0,117
303,676	-106,935	-0,123	-0,019
304,691	737,574	-0,066	-0,122
305,706	202,541	-0,106	-0,113
306,720	-10,903	-0,207	-0,094
307,735	800,000	-0,086	-0,222
308,749	800,000	-0,062	-0,165
309,764	86,693	-0,086	0,066
310,779	-49,593	-0,182	-0,059
311,793	-97,189	-0,221	-0,039
312,808	109,538	-0,211	-0,174
313,822	800,000	-0,129	-0,276
314,837	229,115	-0,083	-0,094
315,852	-54,625	-0,180	0,056
316,866	207,250	-0,091	-0,098
317,881	-93,617	-0,103	-0,019
318,895	108,962	-0,171	-0,141
319,910	-49,056	-0,226	-0,074
320,925	-20,509	-0,158	-0,067
321,939	390,085	-0,119	-0,170
322,954	246,507	-0,073	-0,085
323,968	19,398	-0,086	0,048
324,983	-46,702	-0,132	-0,044
325,997	-85,958	-0,099	0,021
327,012	305,994	-0,120	-0,154
328,027	-19,383	-0,116	-0,049
329,041	-111,231	-0,216	-0,030
330,056	108,389	-0,145	-0,119
331,070	86,110	-0,186	-0,141
332,085	-125,893	-0,225	0,023
333,100	-200,000	-0,018	-0,177
334,114	-10,782	-0,343	-0,156
335,129	233,235	-0,202	-0,230
336,143	-142,326	-0,220	-0,015
337,158	321,338	-0,112	-0,147
338,173	132,279	-0,067	-0,059
339,187	15,553	-0,106	-0,057
340,202	268,895	-0,059	-0,071
341,216	-200,000	-0,026	-0,093
342,231	13,093	-0,174	-0,092
343,246	229,197	-0,143	-0,161
344,260	-147,698	-0,066	-0,004
345,275	365,828	-0,093	0,129
346,289	177,742	-0,086	-0,087
347,304	9,586	-0,155	-0,081
348,319	140,998	-0,100	-0,091
349,333	173,531	-0,157	-0,156
350,348	-43,813	-0,183	-0,063
351,362	38,079	-0,087	-0,053
352,377	-153,823	-0,160	-0,007
353,392	800,000	-0,063	-0,138
354,406	-16,592	-0,199	-0,086
355,421	210,146	1313,869	1419,344
356,435	161,764	1474,550	1419,888
