DTS Sentinel unit serial number:	SN410029Multiplexer serial number:	ORYXHardware model number:	OX2-SRSoftware version number:	ORYX F/W v4,00 Oryx Data Collector v3.7.2.0data status	okinstallation	B3 Nyhavnadifferential loss correction	single-endedforward channel	channel 1reverse channel	N/Adate	2023/11/29time	11:12:30forward acquisition time	300,00reverse acquisition time	0,00gamma	499,1914k internal	0,3211k external	0,3211temperature offset calibration	1,0000default loss term (dB/km)	0,3820temperature slope calibration	1,0000multiplexer offset coefficient	1,0000multiplexer slope coefficient	1,0000fibre end	0,00T internal ref (°C)	9,51T ext. ref 1 (°C)	-5,54T ext. ref 2 (°C)	-5,67length (m)	temperature (°C)	Stokes	anti-Stokes-744,400	58,170	-0,212	-0,151
-743,385	-200,000	0,005	0,160
-742,371	173,941	-0,226	-0,237
-741,356	-200,000	-0,042	0,292
-740,342	800,000	-0,072	-0,220
-739,327	-200,000	0,026	0,337
-738,312	175,519	-0,222	-0,233
-737,298	9,975	-0,084	0,046
-736,283	165,853	-0,203	-0,208
-735,269	-200,000	-0,005	0,216
-734,254	297,687	-0,159	-0,213
-733,239	-79,954	-0,143	0,035
-732,225	-11,700	-0,145	-0,069
-731,210	-43,754	0,180	0,065
-730,196	295,126	-0,048	-0,064
-729,181	355,682	-0,044	0,064
-728,167	514,968	-0,030	-0,051
-727,152	-200,000	0,014	0,108
-726,137	46,008	-0,035	-0,024
-725,123	321,128	0,030	-0,042
-724,108	-142,588	-0,066	-0,005
-723,094	800,000	-0,079	-0,160
-722,079	68,503	-0,136	-0,101
-721,064	-200,000	0,002	0,015
-720,050	-200,000	0,001	-0,010
-719,035	120,089	-0,084	0,076
-718,021	314,040	0,092	-0,126
-717,006	800,000	-0,023	-0,061
-715,991	800,000	-0,037	-0,084
-714,977	218,157	-0,099	-0,115
-713,962	-200,000	-0,018	-0,168
-712,948	-67,118	0,104	-0,030
-711,933	-51,976	-0,216	0,072
-710,918	367,473	-0,017	-0,025
-709,904	50,262	-0,183	-0,125
-708,889	63,086	-0,081	-0,059
-707,875	-80,133	-0,042	-0,010
-706,860	141,981	0,078	0,075
-705,845	77,312	-0,142	-0,110
-704,831	-99,426	-0,071	-0,013
-703,816	-88,928	0,061	0,013
-702,802	197,003	-0,053	-0,058
-701,787	145,699	-0,058	0,057
-700,772	-75,327	-0,063	-0,016
-699,758	-15,831	-0,099	0,045
-698,743	-200,000	0,014	0,049
-697,729	-200,000	0,010	0,119
-696,714	-200,000	-0,023	-0,076
-695,699	-10,629	0,090	-0,043
-694,685	678,643	-0,059	-0,111
-693,670	-200,000	0,019	-0,165
-692,656	-193,537	0,119	0,001
-691,641	-50,144	0,065	0,022
-690,627	-200,000	-0,029	-0,129
-689,612	800,000	0,008	0,016
-688,597	-200,000	0,055	-0,198
-687,583	683,719	-0,046	0,087
-686,568	-13,167	0,035	-0,016
-685,554	800,000	0,047	-0,099
-684,539	-200,000	0,008	0,036
-683,524	10,254	0,047	-0,026
-682,510	-200,000	-0,002	0,048
-681,495	-16,102	-0,089	0,041
-680,481	-200,000	-0,013	-0,053
-679,466	-200,000	-0,010	0,123
-678,451	-192,483	-0,187	-0,001
-677,437	-92,277	0,069	0,014
-676,422	97,979	0,046	-0,038
-675,408	800,000	-0,046	0,109
-674,393	-200,000	0,030	0,108
-673,378	-27,309	-0,056	-0,023
-672,364	-200,000	-0,005	-0,175
-671,349	606,880	0,044	0,080
-670,335	-150,145	-0,087	-0,005
-669,320	-200,000	-0,001	0,068
-668,305	301,775	0,084	0,113
-667,291	559,082	-0,066	-0,116
-666,276	188,414	0,057	-0,061
-665,262	-200,000	-0,038	-0,160
-664,247	1,282	0,028	0,015
-663,232	349,060	0,052	-0,074
-662,218	-200,000	-0,020	-0,094
-661,203	231,992	-0,047	0,056
-660,189	-151,919	0,078	0,004
-659,174	-164,734	-0,133	0,004
-658,159	-60,343	-0,204	-0,062
-657,145	-200,000	-0,011	-0,165
-656,130	560,351	0,018	-0,032
-655,116	-200,000	0,018	-0,095
-654,101	-43,527	0,025	-0,009
-653,086	492,520	0,050	-0,083
-652,072	417,291	-0,068	-0,105
-651,057	328,059	-0,049	0,068
-650,043	800,000	0,007	0,017
-649,028	205,166	-0,037	-0,042
-648,014	-34,352	0,071	-0,028
-646,999	-42,841	0,122	0,044
-645,984	550,197	0,012	0,021
-644,970	-200,000	0,003	0,021
-643,955	-93,843	-0,088	-0,017
-642,941	139,837	-0,111	-0,106
-641,926	31,417	0,103	-0,064
-640,911	16,804	0,043	0,025
-639,897	-26,370	0,100	-0,042
-638,882	-151,343	-0,126	-0,007
-637,868	-118,372	0,136	0,017
-636,853	-104,202	-0,046	0,008
-635,838	-200,000	-0,013	0,096
-634,824	19,964	-0,055	0,032
-633,809	157,140	0,167	0,167
-632,795	-21,561	-0,105	-0,046
-631,780	-2,362	-0,208	-0,105
-630,765	-200,000	0,041	-0,139
-629,751	65,736	-0,074	0,054
-628,736	176,210	-0,091	-0,096
-627,722	-44,828	-0,085	0,031
-626,707	-27,974	0,152	-0,063
-625,692	-139,740	-0,058	-0,004
-624,678	758,861	-0,025	0,048
-623,663	52,528	-0,063	0,044
-622,649	-111,671	0,099	0,014
-621,634	-118,917	-0,276	-0,035
-620,619	800,000	-0,075	0,159
-619,605	241,582	-0,027	0,033
-618,590	302,395	0,031	-0,042
-617,576	-116,049	0,060	-0,008
-616,561	-9,986	0,025	0,012
-615,546	-148,299	-0,022	0,001
-614,532	326,831	-0,078	-0,108
-613,517	-200,000	-0,003	-0,049
-612,503	531,679	0,070	0,119
-611,488	-200,000	-0,008	0,028
-610,474	-200,000	0,002	-0,078
-609,459	-122,410	-0,090	0,010
-608,444	-172,434	-0,119	-0,003
-607,430	9,425	0,029	-0,016
-606,415	69,183	0,120	-0,089
-605,401	-100,160	0,128	-0,023
-604,386	800,000	-0,042	-0,089
-603,371	-200,000	-0,004	-0,028
-602,357	0,654	-0,089	0,046
-601,342	97,597	0,118	-0,098
-600,328	601,676	0,027	-0,049
-599,313	-156,060	-0,052	0,002
-598,298	800,000	-0,032	-0,100
-597,284	-19,573	0,053	-0,024
-596,269	103,271	0,069	-0,058
-595,255	116,732	-0,145	0,128
-594,240	-166,472	-0,032	-0,001
-593,225	-124,044	-0,083	0,009
-592,211	800,000	0,029	-0,060
-591,196	270,308	-0,011	-0,015
-590,182	164,202	0,080	-0,081
-589,167	311,420	0,022	-0,030
-588,152	-32,028	-0,063	0,025
-587,138	-126,055	-0,106	-0,011
-586,123	-87,713	-0,097	-0,021
-585,109	6,603	-0,016	-0,008
-584,094	-67,173	0,082	0,023
-583,079	10,877	-0,096	0,053
-582,065	-109,638	0,173	0,026
-581,050	-200,000	0,043	-0,195
-580,036	64,664	0,044	-0,032
-579,021	256,779	0,057	0,071
-578,006	-128,944	-0,023	0,002
-576,992	-126,894	-0,081	-0,008
-575,977	579,827	-0,044	-0,078
-574,963	-200,000	-0,042	-0,134
-573,948	-200,000	0,000	-0,034
-572,934	9,607	0,147	0,080
-571,919	-200,000	-0,002	-0,120
-570,904	641,313	0,037	-0,068
-569,890	-151,418	-0,168	-0,009
-568,875	-147,487	0,064	-0,004
-567,861	312,669	0,062	-0,085
-566,846	650,204	-0,036	-0,068
-565,831	-86,140	0,074	-0,016
-564,817	-200,000	0,015	-0,112
-563,802	-82,043	-0,070	-0,016
-562,788	24,008	-0,062	-0,037
-561,773	-200,000	0,014	0,047
-560,758	-38,018	0,126	0,048
-559,744	85,664	-0,118	0,093
-558,729	76,370	0,027	0,021
-557,715	-200,000	-0,039	-0,292
-556,700	-200,000	-0,024	-0,139
-555,685	-200,000	0,000	0,008
-554,671	-105,734	0,078	0,013
-553,656	-200,000	0,003	0,032
-552,642	-51,960	-0,036	0,012
-551,627	-45,576	0,089	0,032
-550,612	-87,828	0,118	0,025
-549,598	-200,000	0,017	-0,249
-548,583	284,426	-0,098	-0,127
-547,569	-200,000	-0,003	0,085
-546,554	800,000	0,043	0,131
-545,539	-200,000	-0,009	0,069
-544,525	28,705	0,095	0,058
-543,510	257,786	-0,076	-0,094
-542,496	-133,339	-0,105	0,009
-541,481	-200,000	-0,021	-0,068
-540,466	-72,909	-0,114	0,030
-539,452	150,393	0,019	-0,019
-538,437	800,000	0,026	-0,073
-537,423	800,000	-0,053	0,119
-536,408	-200,000	-0,009	0,128
-535,393	800,000	-0,055	-0,135
-534,379	-0,462	-0,070	0,035
-533,364	52,284	-0,095	-0,065
-532,350	800,000	0,039	-0,085
-531,335	254,211	0,055	0,067
-530,321	47,075	0,114	-0,076
-529,306	34,792	-0,038	0,024
-528,291	-55,103	0,062	-0,020
-527,277	-200,000	-0,001	-0,019
-526,262	-164,250	0,128	-0,004
-525,248	159,494	0,097	-0,097
-524,233	800,000	-0,018	-0,041
-523,218	-92,263	0,109	0,022
-522,204	17,272	-0,015	0,008
-521,189	800,000	-0,049	0,100
-520,175	2,989	0,051	-0,027
-519,160	-69,180	0,092	0,025
-518,145	-27,945	0,136	0,056
-517,131	229,153	0,056	-0,065
-516,116	-104,714	0,102	-0,017
-515,102	89,860	0,071	-0,057
-514,087	-200,000	0,022	-0,143
-513,072	-200,000	-0,005	0,091
-512,058	-163,972	-0,160	0,005
-511,043	-65,982	0,077	0,022
-510,029	552,058	0,035	-0,061
-509,014	184,678	0,034	0,036
-507,999	53,612	0,112	-0,077
-506,985	-200,000	0,021	-0,125
-505,970	-200,000	0,001	-0,055
-504,956	800,000	-0,032	-0,098
-503,941	-30,533	0,026	-0,011
-502,926	231,668	0,088	-0,104
-501,912	-200,000	-0,001	-0,102
-500,897	43,513	-0,055	-0,036
-499,883	-107,206	-0,103	-0,016
-498,868	800,000	-0,025	-0,057
-497,853	-63,652	0,089	-0,026
-496,839	800,000	-0,067	-0,137
-495,824	101,217	-0,042	-0,035
-494,810	-65,059	-0,025	0,007
-493,795	575,103	0,055	-0,097
-492,781	118,081	-0,117	-0,103
-491,766	129,381	0,055	-0,050
-490,751	-200,000	0,003	0,028
-489,737	81,893	-0,057	0,044
-488,722	-110,367	0,101	-0,015
-487,708	-200,000	-0,032	0,147
-486,693	280,230	-0,067	0,086
-485,678	-144,103	-0,167	0,011
-484,664	-80,292	0,060	0,014
-483,649	-157,427	0,064	-0,003
-482,635	21,623	0,050	0,029
-481,620	-200,000	0,000	-0,040
-480,605	-27,509	0,061	-0,025
-479,591	-200,000	-0,012	0,072
-478,576	-160,465	0,038	0,001
-477,562	711,299	0,009	0,017
-476,547	-200,000	-0,006	-0,156
-475,532	88,535	-0,109	-0,087
-474,518	-145,905	0,030	0,002
-473,503	136,547	0,066	0,061
-472,489	-148,254	-0,050	-0,003
-471,474	28,386	-0,040	0,024
-470,459	-131,873	-0,173	0,016
-469,445	-168,237	-0,065	-0,002
-468,430	-54,353	0,143	-0,046
-467,416	99,145	0,041	-0,034
-466,401	45,373	0,061	-0,041
-465,386	800,000	-0,024	-0,057
-464,372	0,532	-0,026	-0,013
-463,357	-171,634	0,124	0,003
-462,343	800,000	0,063	-0,170
-461,328	-200,000	0,017	-0,123
-460,313	741,006	0,072	0,139
-459,299	28,001	0,037	0,022
-458,284	-200,000	0,024	0,138
-457,270	136,057	0,100	0,093
-456,255	800,000	0,023	0,045
-455,241	-90,405	0,022	0,005
-454,226	92,677	-0,087	-0,070
-453,211	-26,336	-0,052	-0,022
-452,197	632,692	-0,067	-0,122
-451,182	488,046	0,104	0,171
-450,168	111,694	-0,059	0,051
-449,153	367,327	0,064	-0,093
-448,138	538,954	-0,043	-0,073
-447,124	-36,219	0,058	-0,022
-446,109	104,702	0,051	0,043
-445,095	50,816	0,035	0,024
-444,080	-29,754	0,091	0,037
-443,065	800,000	0,033	-0,087
-442,051	-67,638	0,043	0,012
-441,036	-200,000	-0,002	-0,012
-440,022	422,143	-0,025	0,039
-439,007	-81,886	-0,079	0,018
-437,992	-200,000	-0,009	-0,034
-436,978	-55,411	0,161	0,051
-435,963	463,566	0,051	0,081
-434,949	541,314	-0,043	0,073
-433,934	-200,000	-0,009	-0,092
-432,919	-200,000	-0,024	-0,141
-431,905	-200,000	0,019	0,080
-430,890	800,000	-0,037	0,074
-429,876	139,632	-0,049	-0,046
-428,861	30,811	-0,080	0,049
-427,846	-37,232	0,045	0,017
-426,832	-200,000	-0,013	-0,159
-425,817	-200,000	0,002	-0,080
-424,803	125,076	0,021	0,019
-423,788	-200,000	-0,007	0,092
-422,773	-2,899	0,065	0,032
-421,759	-200,000	0,009	-0,045
-420,744	800,000	0,004	-0,009
-419,730	-200,000	-0,033	0,105
-418,715	-141,005	-0,120	0,009
-417,701	-122,547	-0,020	0,002
-416,686	108,838	0,129	0,110
-415,671	-70,087	0,053	-0,014
-414,657	800,000	-0,035	0,109
-413,642	800,000	0,045	-0,121
-412,628	-200,000	-0,052	-0,186
-411,613	-200,000	-0,004	-0,121
-410,598	-54,848	-0,017	-0,005
-409,584	107,779	0,035	-0,030
-408,569	1,406	-0,049	0,025
-407,555	777,613	-0,034	0,067
-406,540	-154,996	0,037	0,002
-405,525	-200,000	-0,009	0,050
-404,511	-78,582	-0,068	0,016
-403,496	-98,570	0,115	-0,021
-402,482	-200,000	-0,035	-0,130
-401,467	-200,000	0,006	0,051
-400,452	800,000	-0,012	0,030
-399,438	-200,000	-0,012	0,094
-398,423	-200,000	0,040	0,133
-397,409	800,000	-0,014	0,038
-396,394	645,999	-0,088	-0,162
-395,379	800,000	0,055	-0,133
-394,365	106,304	-0,040	0,034
-393,350	434,370	0,022	0,034
-392,336	96,959	-0,071	0,058
-391,321	38,716	0,025	-0,016
-390,306	-200,000	-0,002	-0,115
-389,292	-200,000	0,024	-0,113
-388,277	269,393	-0,115	-0,144
-387,263	-17,808	0,087	0,039
-386,248	231,664	-0,059	0,069
-385,233	231,649	0,043	-0,051
-384,219	8,974	-0,011	0,006
-383,204	-200,000	-0,004	-0,018
-382,190	-12,086	-0,098	-0,046
-381,175	-200,000	-0,033	-0,108
-380,160	-120,262	-0,062	0,007
-379,146	-149,581	-0,106	0,006
-378,131	450,421	-0,087	0,137
-377,117	-89,789	0,102	-0,021
-376,102	367,335	-0,146	-0,211
-375,088	-200,000	-0,000	-0,065
-374,073	-38,918	0,033	0,012
-373,058	-200,000	-0,002	0,016
-372,044	800,000	0,049	0,108
-371,029	-150,270	0,131	-0,007
-370,015	421,348	0,047	0,073
-369,000	-160,466	-0,068	-0,003
-367,985	800,000	0,049	-0,099
-366,971	773,211	-0,038	0,075
-365,956	119,301	0,099	-0,088
-364,942	34,905	0,019	0,012
-363,927	-114,327	-0,090	-0,012
-362,912	184,175	-0,062	-0,065
-361,898	443,608	-0,031	0,049
-360,883	800,000	-0,017	0,047
-359,869	55,879	-0,067	-0,046
-358,854	-96,744	-0,084	0,016
-357,839	295,101	-0,100	-0,130
-356,825	-200,000	-0,020	0,180
-355,810	7,875	0,185	0,099
-354,796	31,701	-0,066	-0,040
-353,781	-200,000	-0,002	-0,072
-352,766	723,538	-0,041	-0,078
-351,752	339,106	0,076	0,105
-350,737	603,856	-0,038	-0,068
-349,723	800,000	-0,011	0,026
-348,708	384,101	-0,022	0,032
-347,693	82,829	-0,052	0,041
-346,679	800,000	0,023	-0,055
-345,664	9,371	-0,109	-0,059
-344,650	722,419	-0,039	0,075
-343,635	-98,880	0,191	0,034
-342,620	800,000	0,057	0,154
-341,606	25,718	0,047	0,028
-340,591	-200,000	-0,011	0,047
-339,577	-178,521	-0,116	-0,002
-338,562	-2,629	0,126	-0,063
-337,548	133,900	-0,036	-0,034
-336,533	172,785	-0,072	0,074
-335,518	-76,620	0,147	0,037
-334,504	15,386	0,108	0,060
-333,489	800,000	0,022	0,047
-332,475	-32,900	-0,092	0,036
-331,460	554,636	-0,066	0,113
-330,445	14,100	-0,059	0,033
-329,431	-164,319	0,079	-0,003
-328,416	800,000	0,048	0,114
-327,402	-200,000	0,011	0,039
-326,387	-200,000	-0,040	0,156
-325,372	22,986	0,141	-0,082
-324,358	-200,000	-0,052	-0,217
-323,343	-77,181	0,074	0,018
-322,329	58,734	-0,087	0,061
-321,314	5,462	0,042	0,022
-320,299	-200,000	0,065	0,224
-319,285	305,662	-0,058	0,077
-318,270	620,995	-0,040	0,072
-317,256	288,516	0,021	0,027
-316,241	-137,828	0,087	-0,007
-315,226	78,193	0,093	0,070
-314,212	800,000	-0,049	0,101
-313,197	-164,113	-0,061	-0,002
-312,183	343,675	-0,095	0,133
-311,168	-83,755	0,064	0,014
-310,153	205,970	-0,106	-0,118
-309,139	800,000	0,076	-0,160
-308,124	-72,038	0,032	-0,008
-307,110	-46,114	-0,012	0,004
-306,095	800,000	0,015	0,046
-305,080	-107,900	0,072	0,011
-304,066	156,128	0,020	-0,020
-303,051	-200,000	-0,014	-0,105
-302,037	417,033	-0,030	-0,046
-301,022	335,440	0,120	0,166
-300,008	-39,647	-0,038	0,014
-298,993	800,000	0,031	0,089
-297,978	-200,000	-0,017	-0,080
-296,964	577,106	0,096	0,168
-295,949	-200,000	0,007	0,023
-294,935	800,000	-0,045	-0,092
-293,920	-79,414	0,076	0,018
-292,905	800,000	0,014	0,042
-291,891	800,000	-0,007	-0,019
-290,876	-200,000	0,015	0,089
-289,862	204,968	0,067	-0,074
-288,847	-103,588	-0,028	0,005
-287,832	92,235	0,091	-0,073
-286,818	50,402	0,050	0,034
-285,803	-200,000	-0,029	-0,100
-284,789	-200,000	-0,012	-0,093
-283,774	-200,000	-0,034	0,114
-282,759	147,811	0,095	-0,091
-281,745	57,129	0,025	-0,017
-280,730	-23,865	-0,156	0,066
-279,716	-200,000	0,003	-0,085
-278,701	-200,000	-0,012	-0,054
-277,686	187,733	0,094	0,100
-276,672	118,856	-0,088	-0,078
-275,657	92,056	0,030	-0,024
-274,643	74,119	-0,051	0,038
-273,628	-200,000	0,023	-0,208
-272,613	800,000	0,018	0,036
-271,599	33,546	0,107	0,066
-270,584	-124,764	0,150	0,016
-269,570	-200,000	-0,028	0,100
-268,555	605,293	0,048	0,085
-267,540	6,655	-0,067	0,035
-266,526	-162,287	-0,148	0,005
-265,511	743,181	-0,035	0,067
-264,497	199,800	-0,013	-0,015
-263,482	219,347	0,022	-0,025
-262,467	800,000	0,044	-0,087
-261,453	265,899	0,106	0,132
-260,438	648,737	-0,014	0,026
-259,424	-200,000	-0,010	0,159
-258,409	376,296	0,030	0,044
-257,395	-200,000	-0,012	0,134
-256,380	311,517	0,095	0,127
-255,365	-200,000	-0,028	0,136
-254,351	-200,000	-0,012	0,076
-253,336	465,407	-0,010	-0,016
-252,322	-48,105	0,081	0,028
-251,307	-152,936	-0,187	-0,009
-250,292	25,611	-0,074	-0,044
-249,278	800,000	0,046	0,111
-248,263	-200,000	-0,005	-0,042
-247,249	-51,650	0,055	-0,018
-246,234	-47,522	-0,107	-0,037
-245,219	94,712	-0,057	0,046
-244,205	-80,026	-0,033	-0,008
-243,190	-40,265	0,083	0,031
-242,176	31,472	0,073	0,045
-241,161	34,439	-0,143	-0,089
-240,146	-118,143	0,095	-0,012
-239,132	-112,016	-0,120	0,017
-238,117	-92,967	0,029	-0,006
-237,103	58,223	0,116	-0,081
-236,088	-200,000	-0,022	0,085
-235,073	-84,759	0,101	0,022
-234,059	231,962	-0,096	0,113
-233,044	33,987	-0,046	-0,029
-232,030	-200,000	-0,007	-0,040
-231,015	-200,000	-0,018	0,068
-230,000	-139,363	-0,026	-0,002
-228,986	-200,000	-0,007	-0,052
-227,971	-115,184	0,042	-0,006
-226,957	283,326	0,079	0,101
-225,942	800,000	0,031	-0,071
-224,927	356,224	0,035	0,050
-223,913	-151,165	-0,115	0,006
-222,898	194,363	-0,101	0,109
-221,884	348,080	-0,063	-0,088
-220,869	-48,617	0,078	-0,027
-219,855	-107,268	0,083	0,013
-218,840	-58,508	-0,061	0,019
-217,825	31,636	-0,142	0,087
-216,811	60,501	-0,181	0,127
-215,796	477,506	-0,015	-0,023
-214,782	-200,000	0,005	-0,045
-213,767	-43,481	0,118	0,042
-212,752	-78,738	0,091	-0,022
-211,738	91,153	-0,094	0,075
-210,723	-200,000	0,018	0,078
-209,709	161,393	-0,123	0,123
-208,694	-200,000	-0,011	0,056
-207,679	230,639	-0,069	-0,080
-206,665	44,926	0,126	0,082
-205,650	-134,689	0,101	-0,009
-204,636	149,001	0,147	0,141
-203,621	390,599	0,034	0,050
-202,606	-200,000	-0,007	-0,088
-201,592	-200,000	-0,016	0,085
-200,577	715,548	0,022	-0,041
-199,563	267,417	0,076	-0,095
-198,548	345,984	0,047	0,066
-197,533	-37,157	0,056	-0,021
-196,519	66,004	0,017	-0,012
-195,504	-200,000	-0,013	0,053
-194,490	-200,000	-0,000	-0,004
-193,475	228,489	-0,060	-0,069
-192,460	18,674	-0,039	0,022
-191,446	143,138	-0,041	0,039
-190,431	95,434	0,052	0,042
-189,417	-7,915	-0,144	0,069
-188,402	132,015	0,064	-0,058
-187,387	47,063	-0,099	-0,065
-186,373	321,843	-0,027	-0,037
-185,358	-200,000	0,013	0,142
-184,344	800,000	0,023	0,061
-183,329	-200,000	-0,013	-0,071
-182,315	81,998	0,033	-0,025
-181,300	207,113	0,110	0,122
-180,285	800,000	-0,055	0,149
-179,271	-35,271	-0,061	-0,023
-178,256	13,848	-0,048	-0,026
-177,242	-200,000	0,004	-0,018
-176,227	-200,000	0,011	0,074
-175,212	220,870	0,055	-0,063
-174,198	600,405	0,013	-0,023
-173,183	172,325	-0,083	0,085
-172,169	97,158	-0,120	0,098
-171,154	800,000	0,009	0,020
-170,139	237,855	0,059	0,070
-169,125	569,402	-0,038	-0,065
-168,110	800,000	-0,034	-0,080
-167,096	800,000	0,027	-0,056
-166,081	22,950	-0,151	0,088
-165,066	800,000	0,014	0,030
-164,052	-104,787	-0,084	-0,014
-163,037	-200,000	0,014	0,083
-162,023	327,135	-0,062	0,085
-161,008	468,236	0,032	0,051
-159,993	-45,322	-0,091	0,032
-158,979	192,475	-0,030	0,032
-157,964	288,137	-0,008	0,010
-156,950	41,167	-0,058	-0,037
-155,935	250,664	0,010	0,012
-154,920	38,783	-0,035	0,022
-153,906	-130,026	0,009	-0,001
-152,891	-69,548	-0,024	0,006
-151,877	113,058	-0,122	-0,105
-150,862	-135,693	-0,081	-0,007
-149,847	800,000	0,036	-0,079
-148,833	800,000	-0,020	0,060
-147,818	-200,000	0,007	0,091
-146,804	50,072	-0,022	0,015
-145,789	-9,784	-0,042	0,020
-144,775	199,574	0,063	-0,068
-143,760	60,669	-0,133	-0,093
-142,745	747,511	-0,020	-0,038
-141,731	-200,000	0,013	0,210
-140,716	-200,000	0,006	0,147
-139,702	-9,837	0,041	-0,019
-138,687	-200,000	-0,017	0,101
-137,672	181,292	-0,062	0,064
-136,658	800,000	-0,055	-0,119
-135,643	766,134	-0,013	-0,024
-134,629	126,021	0,064	-0,057
-133,614	-200,000	0,002	0,150
-132,599	246,068	0,055	0,066
-131,585	-3,079	0,134	-0,066
-130,570	800,000	0,023	0,055
-129,556	-200,000	0,006	0,089
-128,541	-200,000	0,012	0,138
-127,526	-141,766	-0,048	0,003
-126,512	-108,773	0,159	-0,024
-125,497	172,565	-0,072	0,074
-124,483	-78,818	0,038	-0,009
-123,468	398,138	0,036	0,053
-122,453	-200,000	-0,030	-0,098
-121,439	-99,124	-0,039	-0,007
-120,424	-200,000	0,005	0,154
-119,410	-20,695	-0,101	0,044
-118,395	-138,917	0,029	-0,002
-117,380	53,762	0,016	0,011
-116,366	-200,000	-0,005	0,018
-115,351	35,709	-0,139	-0,086
-114,337	653,789	0,069	-0,127
-113,322	-200,000	0,007	0,031
-112,307	401,401	0,032	-0,048
-111,293	140,329	0,083	-0,078
-110,278	14,084	0,095	0,052
-109,264	84,773	0,032	-0,025
-108,249	800,000	-0,042	-0,107
-107,234	187,460	0,044	-0,047
-106,220	-123,548	0,114	0,013
-105,205	262,403	0,102	0,125
-104,191	217,976	0,081	0,092
-103,176	-200,000	-0,008	0,070
-102,162	7,837	-0,061	-0,032
-101,147	46,835	-0,034	-0,023
-100,132	800,000	-0,014	0,031
-99,118	-155,166	-0,191	0,009
-98,103	-2,803	0,028	0,014
-97,089	-145,756	0,017	-0,001
-96,074	-200,000	-0,007	0,123
-95,059	29,285	0,020	0,012
-94,045	-91,529	0,085	0,017
-93,030	-120,299	-0,149	-0,018
-92,016	90,243	0,029	0,023
-91,001	-70,081	-0,101	0,027
-89,986	-200,000	-0,000	0,087
-88,972	-200,000	0,030	0,166
-87,957	-146,285	0,063	-0,004
-86,943	800,000	0,037	-0,098
-85,928	692,458	-0,075	-0,140
-84,913	800,000	0,076	0,202
-83,899	135,215	-0,082	0,076
-82,884	800,000	0,063	0,178
-81,870	538,630	-0,029	-0,049
-80,855	-200,000	0,007	0,097
-79,840	-33,803	-0,069	-0,027
-78,826	-200,000	-0,013	0,094
-77,811	-151,638	0,095	-0,005
-76,797	-13,365	-0,121	-0,055
-75,782	17,664	0,159	0,089
-74,767	800,000	-0,054	0,166
-73,753	-200,000	-0,101	-0,000
-72,738	-65,252	0,114	-0,032
-71,724	-200,000	-0,051	-0,158
-70,709	-53,355	-0,196	0,063
-69,694	67,478	0,025	-0,018
-68,680	237,503	0,055	-0,064
-67,665	-0,226	0,044	-0,022
-66,651	-200,000	0,030	0,114
-65,636	33,084	0,084	0,052
-64,622	800,000	0,047	0,102
-63,607	-159,288	0,063	0,002
-62,592	-2,247	-0,066	-0,033
-61,578	541,590	0,037	-0,063
-60,563	475,808	-0,061	-0,098
-59,549	206,499	-0,134	0,147
-58,534	48,076	-2,034	-1,340
-57,519	607,464	-1,161	-2,052
-56,505	-200,000	-0,272	-4,215
-55,490	557,537	0,890	1,521
-54,476	800,000	5,163	11,456
-53,461	-200,000	21,728	344,318
-52,446	800,000	763,625	2349,546
-51,432	549,225	1662,545	2822,636
-50,417	71,685	1658,402	1214,732
-49,403	17,344	1531,745	855,766
-48,388	11,295	1455,903	784,175
-47,373	19,446	1447,426	818,637
-46,359	14,847	1436,262	790,458
-45,344	9,608	1432,234	763,298
-44,330	9,568	1430,427	762,113
-43,315	9,562	1428,494	761,025
-42,300	9,549	1426,585	759,917
-41,286	9,592	1425,535	759,532
-40,271	9,517	1424,585	758,640
-39,257	9,552	1422,980	757,923
-38,242	9,584	1422,094	757,570
-37,227	9,564	1421,029	756,877
-36,213	9,570	1419,761	756,199
-35,198	9,594	1418,378	755,548
-34,184	9,611	1417,542	755,151
-33,169	9,548	1415,934	753,969
-32,154	9,599	1415,196	753,788
-31,140	9,653	1413,769	753,250
-30,125	9,609	1412,789	752,490
-29,111	9,588	1411,697	751,783
-28,096	9,603	1410,483	751,177
-27,082	9,530	1409,074	750,052
-26,067	9,554	1408,097	749,615
-25,052	9,561	1407,183	749,133
-24,038	9,519	1406,430	748,507
-23,023	9,537	1405,297	747,958
-22,009	9,565	1403,981	747,357
-20,994	9,539	1403,152	746,767
-19,979	9,572	1402,274	746,423
-18,965	9,493	1401,465	745,593
-17,950	9,511	1400,428	745,094
-16,936	9,512	1399,553	744,607
-15,921	9,426	1398,669	743,705
-14,906	9,440	1397,846	743,304
-13,892	9,509	1396,756	743,017
-12,877	9,427	1396,059	742,236
-11,863	9,449	1394,980	741,735
-10,848	9,393	1394,426	741,151
-9,833	9,396	1393,050	740,404
-8,819	9,347	1392,327	739,763
-7,804	9,364	1391,420	739,330
-6,790	9,352	1390,399	738,700
-5,775	9,391	1389,318	738,281
-4,760	9,359	1388,516	737,675
-3,746	9,378	1387,329	737,105
-2,731	9,377	1386,811	736,793
-1,717	9,388	1385,725	736,237
-0,702	9,374	1383,972	735,212
0,313	13,402	1296,418	707,090
1,327	29,535	686,993	411,119
2,342	45,858	118,565	77,193
3,356	-0,359	16,582	8,281
4,371	3,588	3,664	1,878
5,386	-9,792	1,026	0,480
6,400	-200,000	0,103	0,637
7,415	265,859	-0,053	-0,066
8,429	161,414	-0,303	-0,298
9,444	39,329	-0,287	-0,181
10,459	-51,720	-0,334	-0,109
11,473	18,358	-0,292	-0,164
12,488	34,234	-0,268	-0,164
13,502	372,285	-0,194	-0,278
14,517	-7,430	-0,268	-0,127
15,531	80,012	-0,375	-0,283
16,546	37,866	-0,331	-0,207
17,561	137,344	-0,404	-0,372
18,575	-65,210	-0,099	-0,028
19,590	167,875	-0,326	-0,327
20,604	-48,995	-0,236	-0,079
21,619	17,580	-0,401	-0,224
22,634	33,658	-0,531	-0,324
23,648	32,141	-0,309	-0,187
24,663	27,119	-0,444	-0,262
25,677	715,659	-0,146	-0,274
26,692	-27,648	-0,378	-0,154
27,707	104,548	-0,347	-0,288
28,721	89,343	-0,278	-0,218
29,736	80,206	-0,406	-0,307
30,750	160,577	-0,323	-0,317
31,765	43,912	-0,405	-0,261
32,780	22,833	-0,388	-0,223
33,794	-92,466	-0,450	-0,088
34,809	-73,358	-0,356	-0,091
35,823	-29,356	-0,335	-0,134
36,838	17,991	-0,443	-0,248
37,853	107,758	-0,429	-0,359
38,867	218,332	-0,258	-0,290
39,882	139,862	-0,220	-0,204
40,896	242,562	-0,274	-0,322
41,911	114,225	-0,354	-0,303
42,926	28,584	-0,390	-0,231
43,940	40,869	-0,332	-0,210
44,955	-15,169	-0,355	-0,159
45,969	78,154	-0,433	-0,325
46,984	47,133	-0,286	-0,186
47,999	-11,072	-0,221	-0,102
49,013	103,384	-0,349	-0,288
50,028	61,570	-0,287	-0,201
51,042	12,508	-0,393	-0,212
52,057	45,564	-0,451	-0,292
53,071	205,305	-0,098	-0,107
54,086	12,163	-0,307	-0,165
55,101	-81,777	-0,389	-0,089
56,115	-59,395	-0,500	-0,150
57,130	46,102	-0,298	-0,193
58,144	173,296	-0,291	-0,294
59,159	75,456	-0,370	-0,274
60,174	80,297	-0,373	-0,282
61,188	142,154	-0,327	-0,304
62,203	46,854	-0,251	-0,163
63,217	-34,864	-0,380	-0,145
64,232	112,797	-0,337	-0,286
65,247	5,541	-0,310	-0,160
66,261	119,050	-0,373	-0,323
67,276	39,183	-0,280	-0,175
68,290	146,573	-0,291	-0,274
69,305	35,416	-0,284	-0,174
70,320	-14,086	-0,305	-0,138
71,334	184,481	-0,235	-0,244
72,349	97,746	-0,347	-0,280
73,363	19,789	-0,369	-0,208
74,378	62,443	-0,417	-0,291
75,393	124,559	-0,253	-0,223
76,407	-21,253	-0,304	-0,130
77,422	-89,310	-0,245	-0,050
78,436	15,149	-0,261	-0,143
79,451	502,556	-0,153	-0,248
80,466	-41,651	-0,376	-0,135
81,480	-24,526	-0,330	-0,137
82,495	80,789	-0,399	-0,301
83,509	-177,048	-0,304	0,005
84,524	27,744	-0,414	-0,244
85,539	17,956	-0,311	-0,173
86,553	-48,646	-0,151	-0,051
87,568	-50,247	-0,385	-0,127
88,582	130,088	-0,182	-0,163
89,597	5,035	-0,377	-0,194
90,611	45,677	-0,272	-0,175
91,626	-67,650	-0,245	-0,067
92,641	-33,751	-0,150	-0,058
93,655	194,019	-0,125	-0,132
94,670	49,596	-0,270	-0,178
95,684	-22,420	-0,400	-0,169
96,699	-14,583	-0,348	-0,156
97,714	-21,358	-0,234	-0,100
98,728	155,474	-0,186	-0,179
99,743	-125,345	-0,239	0,025
100,757	57,698	-0,275	-0,188
101,772	25,897	-0,284	-0,165
102,787	61,528	-0,275	-0,191
103,801	137,787	-0,120	-0,110
104,816	175,866	-0,223	-0,227
105,830	6,436	-0,210	-0,108
106,845	-113,108	-0,194	-0,026
107,860	-59,517	-0,337	-0,100
108,874	93,259	-0,294	-0,232
109,889	23,442	-0,456	-0,261
110,903	109,107	-0,307	-0,256
111,918	291,687	-0,228	-0,291
112,933	-13,671	-0,077	-0,034
113,947	1,729	-0,238	-0,119
114,962	-39,784	-0,395	-0,144
115,976	-23,893	-0,297	-0,124
116,991	160,769	-0,225	-0,219
118,006	439,016	-0,230	-0,352
119,020	-15,147	-0,158	-0,070
120,035	197,139	-0,229	-0,244
121,049	72,212	-0,240	-0,175
122,064	110,828	-0,235	-0,197
123,079	-74,796	-0,225	-0,056
124,093	72,523	-0,168	-0,122
125,108	-200,000	-0,066	-0,228
126,122	83,791	-0,174	-0,133
127,137	-135,729	-0,186	-0,015
128,151	185,175	-0,162	-0,168
129,166	17,486	-0,294	-0,162
130,181	187,005	-0,190	-0,198
131,195	117,839	-0,204	-0,175
132,210	246,722	-0,190	-0,224
133,224	249,023	-0,192	-0,228
134,239	22,339	-0,230	-0,131
135,254	-200,000	-0,047	-0,207
136,268	20,355	-0,156	-0,088
137,283	47,023	-0,256	-0,166
138,297	-31,151	-0,376	-0,147
139,312	64,686	-0,250	-0,176
140,327	-10,891	-0,274	-0,125
141,341	129,624	-0,158	-0,140
142,356	223,468	-0,152	-0,172
143,370	-26,064	-0,234	-0,095
144,385	4,644	-0,319	-0,163
145,400	127,147	-0,293	-0,259
146,414	86,371	-0,208	-0,160
147,429	96,798	-0,255	-0,203
148,443	61,184	-0,270	-0,186
149,458	800,000	-0,107	-0,260
150,473	-105,110	-0,161	0,025
151,487	35,681	-0,167	-0,102
152,502	242,612	-0,153	-0,179
153,516	94,638	-0,192	-0,152
154,531	147,201	-0,311	-0,292
155,546	30,804	-0,323	-0,192
156,560	-68,257	-0,349	-0,094
157,575	-76,900	-0,233	-0,056
158,589	8,179	-0,243	-0,127
159,604	-11,749	-0,207	-0,094
160,619	12,495	-0,262	-0,140
161,633	8,818	-0,229	-0,120
162,648	184,255	-0,235	-0,242
163,662	192,589	-0,185	-0,195
164,677	-32,551	-0,225	-0,087
165,692	71,162	-0,230	-0,165
166,706	-85,470	-0,260	-0,056
167,721	-85,800	-0,224	-0,048
168,735	546,599	-0,161	-0,268
169,750	180,198	-0,166	-0,169
170,764	-192,008	-0,286	0,002
171,779	95,152	-0,155	-0,123
172,794	188,771	-0,211	-0,220
173,808	56,230	-0,181	-0,122
174,823	52,517	-0,225	-0,149
175,837	-11,328	-0,103	-0,047
176,852	104,087	-0,158	-0,129
177,867	66,348	-0,226	-0,160
178,881	391,427	-0,110	-0,159
179,896	9,839	-0,225	-0,118
180,910	87,480	-0,165	-0,127
181,925	-139,333	-0,067	-0,005
182,940	41,452	-0,192	-0,121
183,954	543,996	-0,107	-0,177
184,969	656,521	-0,121	-0,216
185,983	-28,153	-0,258	-0,103
186,998	22,370	-0,182	-0,103
188,013	-36,278	-0,380	-0,142
189,027	40,911	-0,269	-0,168
190,042	43,474	-0,234	-0,148
191,056	443,224	-0,195	-0,297
192,071	607,730	-0,075	-0,131
193,086	-59,147	-0,162	-0,048
194,100	-55,867	-0,192	-0,059
195,115	-119,821	-0,155	-0,018
196,129	294,683	-0,188	-0,239
197,144	52,651	-0,157	-0,104
198,159	-91,764	-0,303	-0,059
199,173	376,334	-0,139	-0,198
200,188	122,375	-0,245	-0,212
201,202	58,876	-0,161	-0,109
202,217	20,217	-0,161	-0,090
203,232	-16,061	-0,258	-0,113
204,246	-96,446	-0,258	-0,047
205,261	-72,223	-0,285	-0,073
206,275	-59,484	-0,179	-0,053
207,290	-71,570	-0,095	-0,024
208,304	-91,591	-0,269	-0,053
209,319	723,219	-0,122	-0,226
210,334	1,792	-0,206	-0,103
211,348	-27,056	-0,274	-0,110
212,363	140,121	-0,174	-0,159
213,377	-38,336	-0,296	-0,108
214,392	-120,009	-0,240	-0,028
215,407	-127,821	-0,188	-0,019
216,421	214,385	-0,029	-0,032
217,436	29,306	-0,145	-0,085
218,450	-74,676	-0,318	-0,079
219,465	144,091	-0,230	-0,213
220,480	117,497	-0,280	-0,238
221,494	-158,689	-0,131	0,005
222,509	-105,890	-0,153	-0,024
223,523	21,430	-0,149	-0,084
224,538	114,980	-0,125	-0,105
225,553	-178,564	-0,244	0,004
226,567	86,652	-0,250	-0,191
227,582	17,186	-0,260	-0,142
228,596	-18,988	-0,147	-0,063
229,611	-139,941	-0,155	0,011
230,626	256,038	-0,104	-0,123
231,640	-102,538	-0,255	-0,042
232,655	145,447	-0,165	-0,153
233,669	800,000	-0,114	-0,278
234,684	-41,399	-0,249	-0,088
235,699	26,134	-0,100	-0,058
236,713	-3,939	-0,129	-0,061
237,728	-73,975	-0,159	-0,040
238,742	8,951	-0,151	-0,079
239,757	237,279	-0,161	-0,185
240,772	-119,336	-0,243	-0,029
241,786	81,865	-0,200	-0,149
242,801	-39,912	-0,146	-0,052
243,815	140,506	-0,194	-0,177
244,830	16,722	-0,150	-0,082
245,844	-130,523	-0,146	0,013
246,859	-88,012	-0,145	0,030
247,874	-7,136	-0,170	-0,079
248,888	-18,533	-0,281	-0,121
249,903	-68,156	-0,123	-0,033
250,917	46,226	-0,158	-0,101
251,932	321,143	-0,133	-0,175
252,947	133,050	-0,101	-0,090
253,961	78,063	-0,246	-0,181
254,976	-200,000	0,028	-0,242
255,990	4,713	-0,191	-0,097
257,005	800,000	-0,029	-0,075
258,020	-200,000	-0,044	-0,238
259,034	-200,000	0,036	-0,208
260,049	-26,729	-0,184	-0,074
261,063	22,662	-0,304	-0,171
262,078	111,137	-0,094	-0,078
263,093	-13,616	-0,234	-0,104
264,107	-200,000	-0,035	-0,148
265,122	-44,703	-0,176	0,060
266,136	33,818	-0,241	-0,144
267,151	22,144	-0,088	-0,049
268,166	800,000	-0,108	-0,294
269,180	109,943	-0,137	-0,113
270,195	-68,209	-0,277	-0,074
271,209	165,026	-0,209	-0,203
272,224	-56,504	-0,134	-0,041
273,239	396,727	-0,075	-0,108
274,253	-51,724	-0,273	-0,087
275,268	-183,738	-0,044	0,001
276,282	26,690	-0,190	-0,109
277,297	38,571	-0,054	0,033
278,312	632,440	-0,181	-0,316
279,326	-88,675	-0,105	-0,021
280,341	53,639	-0,180	-0,118
281,355	90,422	-0,150	-0,116
282,370	281,961	-0,203	-0,251
283,384	-119,272	-0,162	-0,019
284,399	-59,426	-0,219	-0,064
285,414	396,962	-0,081	-0,116
286,428	100,708	-0,124	-0,099
287,443	-200,000	-0,049	-0,209
288,457	-109,492	-0,274	0,039
289,472	-91,874	-0,299	0,058
290,487	-160,497	-0,176	-0,006
291,501	174,112	-0,036	-0,036
292,516	-64,154	-0,090	-0,025
293,530	14,935	-0,113	-0,061
294,545	655,283	-0,109	-0,194
295,560	-71,235	-0,212	-0,054
296,574	-38,484	-0,179	-0,065
297,589	-95,053	-0,054	0,010
298,603	179,745	-0,190	-0,191
299,618	48,475	-0,129	-0,083
300,633	5,685	-0,093	-0,047
301,647	-78,116	-0,170	-0,040
302,662	-69,294	-0,093	0,024
303,676	-200,000	-0,162	-0,000
304,691	18,871	-0,297	-0,163
305,706	-91,019	-0,128	0,025
306,720	50,889	-0,260	-0,169
307,735	-31,058	-0,161	-0,062
308,749	51,996	-0,180	-0,117
309,764	105,649	-0,032	0,026
310,779	-188,129	-0,206	0,002
311,793	-174,701	-0,132	-0,003
312,808	65,210	-0,231	-0,160
313,822	-41,286	-0,141	-0,050
314,837	-150,405	-0,190	0,010
315,852	-117,393	-0,191	0,024
316,866	94,441	-0,220	-0,172
317,881	187,381	-0,120	-0,122
318,895	-153,285	-0,127	0,006
319,910	36,307	-0,232	-0,140
320,925	-117,208	-0,207	-0,026
321,939	-101,844	-0,094	-0,015
322,954	800,000	-0,052	-0,128
323,968	-9,392	-0,054	-0,025
324,983	800,000	-0,052	-0,122
325,997	-7,966	-0,192	-0,088
327,012	496,144	-0,095	-0,150
328,027	-89,023	-0,086	-0,017
329,041	329,018	-0,132	-0,174
330,056	-200,000	-0,022	-0,103
331,070	800,000	-0,034	-0,073
332,085	142,422	-0,130	-0,119
333,100	-29,954	-0,122	0,048
334,114	554,384	-0,088	-0,146
335,129	-110,372	-0,241	-0,034
336,143	800,000	-0,063	-0,149
337,158	656,884	-0,086	-0,153
338,173	-5,557	-0,089	-0,042
339,187	-11,244	-0,170	-0,077
340,202	-20,333	-0,093	-0,039
341,216	-131,062	-0,109	0,010
342,231	86,232	-0,114	-0,086
343,246	138,062	-0,112	-0,101
344,260	800,000	-0,022	0,046
345,275	14,102	0,019	-0,010
346,289	-53,237	-0,062	-0,019
347,304	387,076	-0,121	-0,172
348,319	230,683	-0,199	-0,223
349,333	70,124	-0,208	-0,147
350,348	53,429	-0,163	-0,107
351,362	57,223	-0,076	0,050
352,377	683,788	-0,043	-0,076
353,392	-200,000	-0,002	-0,072
354,406	-150,240	-0,067	-0,003
355,421	208,286	1305,354	1396,848
356,435	160,266	1464,894	1397,321
