DTS Sentinel unit serial number:	SN410029Multiplexer serial number:	ORYXHardware model number:	OX2-SRSoftware version number:	ORYX F/W v4,00 Oryx Data Collector v3.7.2.0data status	okinstallation	B3 Nyhavnadifferential loss correction	single-endedforward channel	channel 1reverse channel	N/Adate	2023/12/03time	20:32:30forward acquisition time	300,00reverse acquisition time	0,00gamma	499,1914k internal	0,3198k external	0,3198temperature offset calibration	1,0000default loss term (dB/km)	0,3820temperature slope calibration	1,0000multiplexer offset coefficient	1,0000multiplexer slope coefficient	1,0000fibre end	0,00T internal ref (°C)	13,93T ext. ref 1 (°C)	-1,45T ext. ref 2 (°C)	-1,48length (m)	temperature (°C)	Stokes	anti-Stokes-744,400	133,462	-0,202	-0,190
-743,385	-200,000	-0,049	0,224
-742,371	-200,000	-0,066	-0,233
-741,356	800,000	0,126	0,365
-740,342	608,839	-0,078	-0,143
-739,327	-200,000	-0,009	0,102
-738,312	265,422	-0,223	-0,284
-737,298	800,000	-0,066	0,190
-736,283	129,997	-0,238	-0,222
-735,269	800,000	0,143	0,372
-734,254	36,909	-0,302	-0,194
-733,239	37,982	-0,116	0,075
-732,225	648,573	-0,146	-0,274
-731,210	-43,201	0,057	-0,021
-730,196	231,898	-0,057	-0,069
-729,181	-175,000	-0,118	-0,002
-728,167	275,427	-0,040	-0,051
-727,152	-76,700	-0,080	0,020
-726,137	-169,865	-0,203	0,005
-725,123	39,516	0,058	-0,037
-724,108	49,072	-0,108	-0,074
-723,094	-200,000	0,000	-0,154
-722,079	800,000	-0,016	-0,033
-721,064	800,000	0,044	0,109
-720,050	-76,306	-0,068	0,017
-719,035	-200,000	-0,011	-0,054
-718,021	691,073	-0,030	-0,058
-717,006	320,261	0,044	-0,060
-715,991	75,671	-0,106	-0,081
-714,977	-200,000	-0,006	0,041
-713,962	248,360	-0,043	-0,053
-712,948	-77,364	-0,136	-0,034
-711,933	-55,806	0,040	-0,013
-710,918	-25,488	-0,077	-0,033
-709,904	-200,000	-0,018	-0,161
-708,889	-200,000	0,019	-0,074
-707,875	-41,501	-0,114	-0,043
-706,860	310,215	0,031	-0,043
-705,845	357,021	0,090	0,131
-704,831	53,636	-0,174	0,121
-703,816	800,000	0,017	0,038
-702,802	800,000	0,026	-0,076
-701,787	195,231	-0,009	-0,010
-700,772	618,051	0,050	-0,092
-699,758	-200,000	-0,026	-0,122
-698,743	-62,524	-0,065	0,019
-697,729	25,332	-0,073	0,044
-696,714	56,920	0,143	0,101
-695,699	-7,508	0,074	0,036
-694,685	-54,874	-0,115	-0,038
-693,670	-200,000	-0,011	-0,178
-692,656	-200,000	-0,005	0,042
-691,641	-200,000	0,005	0,108
-690,627	507,257	-0,039	0,066
-689,612	-174,276	0,131	-0,003
-688,597	-200,000	-0,002	0,034
-687,583	-200,000	0,013	-0,082
-686,568	-200,000	-0,026	-0,141
-685,554	800,000	-0,025	-0,059
-684,539	-200,000	0,001	-0,032
-683,524	171,038	0,039	-0,041
-682,510	491,258	-0,037	0,061
-681,495	-40,423	-0,049	0,019
-680,481	-200,000	-0,006	0,020
-679,466	-173,046	-0,089	0,002
-678,451	-3,633	0,155	-0,078
-677,437	-75,074	0,073	-0,019
-676,422	-30,832	-0,041	-0,017
-675,408	81,679	-0,087	-0,069
-674,393	-69,945	0,025	-0,007
-673,378	-66,642	-0,113	0,032
-672,364	-65,265	-0,095	0,028
-671,349	310,157	-0,056	0,076
-670,335	260,393	0,018	0,022
-669,320	195,818	0,118	0,130
-668,305	-200,000	-0,022	0,157
-667,291	-143,635	0,022	0,002
-666,276	-200,000	-0,014	-0,089
-665,262	92,224	-0,131	-0,107
-664,247	39,646	0,035	-0,023
-663,232	-200,000	-0,002	0,138
-662,218	89,580	0,007	-0,006
-661,203	800,000	0,022	-0,057
-660,189	7,129	-0,088	0,047
-659,174	504,517	-0,034	-0,058
-658,159	394,582	-0,061	-0,093
-657,145	-15,527	-0,066	0,030
-656,130	-54,935	-0,211	-0,069
-655,116	-56,505	0,103	0,033
-654,101	-200,000	-0,003	0,100
-653,086	480,302	-0,060	-0,098
-652,072	800,000	-0,036	-0,100
-651,057	800,000	-0,018	-0,055
-650,043	675,027	-0,086	-0,163
-649,028	-81,631	-0,170	-0,040
-648,014	118,438	0,027	0,024
-646,999	167,114	-0,049	0,051
-645,984	86,443	-0,040	-0,032
-644,970	-57,358	-0,116	0,037
-643,955	-200,000	-0,006	-0,062
-642,941	-43,404	-0,114	0,042
-641,926	-32,561	0,127	0,051
-640,911	-67,942	0,015	-0,004
-639,897	-141,698	0,091	0,007
-638,882	60,953	-0,225	-0,162
-637,868	-200,000	-0,010	-0,043
-636,853	-200,000	0,021	-0,181
-635,838	-200,000	-0,003	-0,150
-634,824	-200,000	-0,024	-0,126
-633,809	649,894	0,081	-0,150
-632,795	6,042	-0,120	-0,064
-631,780	-200,000	0,021	0,138
-630,765	-17,486	0,078	0,035
-629,751	203,677	0,074	-0,084
-628,736	-200,000	-0,014	-0,106
-627,722	-35,259	-0,059	-0,023
-626,707	33,516	0,145	0,091
-625,692	96,872	-0,087	-0,072
-624,678	-81,907	-0,062	0,015
-623,663	95,048	-0,134	-0,110
-622,649	-200,000	-0,023	0,110
-621,634	178,297	-0,018	-0,019
-620,619	-139,044	-0,105	-0,008
-619,605	347,754	0,066	-0,095
-618,590	64,549	0,099	0,072
-617,576	-60,714	-0,031	0,009
-616,561	-128,461	-0,076	0,008
-615,546	97,737	-0,067	-0,056
-614,532	-105,480	-0,200	-0,033
-613,517	-100,563	-0,114	-0,020
-612,503	-123,259	0,038	-0,004
-611,488	217,409	-0,079	-0,091
-610,474	800,000	0,018	0,049
-609,459	40,570	0,032	-0,021
-608,444	-110,668	0,036	-0,005
-607,430	-126,885	-0,020	-0,002
-606,415	398,682	-0,106	-0,161
-605,401	-116,199	0,092	-0,012
-604,386	441,916	0,071	-0,113
-603,371	800,000	-0,028	0,084
-602,357	-200,000	-0,017	0,064
-601,342	-200,000	-0,048	0,156
-600,328	-29,471	-0,077	-0,032
-599,313	375,036	0,024	0,035
-598,298	22,122	-0,104	-0,061
-597,284	-27,193	-0,061	0,026
-596,269	-117,931	0,154	-0,020
-595,255	280,911	-0,077	0,100
-594,240	145,565	-0,130	-0,126
-593,225	800,000	0,032	0,077
-592,211	121,110	-0,034	0,031
-591,196	219,044	0,018	-0,020
-590,182	-7,943	-0,025	0,012
-589,167	332,469	0,072	0,101
-588,152	-200,000	-0,015	0,050
-587,138	-177,382	-0,184	-0,003
-586,123	458,767	0,047	-0,075
-585,109	-200,000	-0,008	-0,116
-584,094	30,189	0,048	0,029
-583,079	800,000	0,038	0,093
-582,065	274,475	0,063	0,080
-581,050	274,452	0,060	0,076
-580,036	40,063	-0,047	0,031
-579,021	95,526	-0,019	-0,016
-578,006	325,655	0,052	-0,073
-576,992	800,000	0,007	0,015
-575,977	403,358	-0,050	0,076
-574,963	20,756	0,165	0,097
-573,948	-200,000	0,000	0,175
-572,934	-200,000	0,003	-0,036
-571,919	463,262	-0,058	-0,094
-570,904	800,000	0,019	-0,049
-569,890	-48,631	-0,135	0,047
-568,875	137,912	0,068	-0,065
-567,861	-200,000	0,008	0,040
-566,846	-200,000	-0,011	0,114
-565,831	800,000	0,009	-0,024
-564,817	512,926	-0,064	-0,107
-563,802	582,140	0,029	0,052
-562,788	20,896	-0,099	0,058
-561,773	-151,983	0,104	-0,005
-560,758	800,000	0,042	0,128
-559,744	21,696	0,071	0,042
-558,729	-200,000	0,005	-0,038
-557,715	-32,872	-0,129	0,052
-556,700	-200,000	-0,024	-0,122
-555,685	-89,517	-0,028	0,006
-554,671	91,207	0,126	-0,102
-553,656	-132,582	-0,050	-0,005
-552,642	-200,000	0,006	0,029
-551,627	-200,000	0,010	0,059
-550,612	800,000	0,054	-0,138
-549,598	4,109	-0,072	-0,038
-548,583	-200,000	-0,001	-0,118
-547,569	85,548	0,098	-0,077
-546,554	800,000	0,017	-0,036
-545,539	114,413	0,058	0,051
-544,525	80,191	0,030	0,023
-543,510	307,749	-0,018	-0,024
-542,496	-53,447	-0,096	0,032
-541,481	134,525	-0,109	-0,102
-540,466	-137,497	-0,055	-0,004
-539,452	371,893	0,074	0,109
-538,437	33,234	0,156	-0,097
-537,423	125,540	0,084	-0,077
-536,408	-200,000	-0,008	0,082
-535,393	130,809	0,028	-0,026
-534,379	176,304	-0,077	-0,081
-533,364	-200,000	0,006	0,066
-532,350	-41,048	0,071	-0,026
-531,335	800,000	-0,053	-0,169
-530,321	290,367	-0,043	0,057
-529,306	417,161	0,042	0,065
-528,291	-18,085	-0,110	0,050
-527,277	-67,320	-0,087	0,025
-526,262	-200,000	0,026	0,163
-525,248	800,000	-0,077	0,217
-524,233	-200,000	-0,018	0,065
-523,218	167,679	0,081	0,083
-522,204	26,723	-0,158	0,095
-521,189	-200,000	-0,010	0,045
-520,175	-5,863	-0,109	-0,054
-519,160	119,298	0,046	-0,041
-518,145	-200,000	-0,003	0,058
-517,131	-165,620	0,028	0,001
-516,116	-200,000	0,004	0,079
-515,102	90,762	-0,135	0,109
-514,087	3,237	-0,119	-0,062
-513,072	-200,000	-0,006	0,086
-512,058	-200,000	-0,016	-0,089
-511,043	-200,000	-0,031	-0,149
-510,029	46,136	0,059	-0,039
-509,014	493,915	-0,038	-0,063
-507,999	-126,138	-0,150	0,016
-506,985	568,318	0,060	-0,106
-505,970	-109,844	-0,189	0,028
-504,956	800,000	-0,021	0,043
-503,941	219,251	-0,058	-0,067
-502,926	-24,969	-0,038	-0,016
-501,912	-4,676	0,123	0,061
-500,897	-200,000	0,003	0,056
-499,883	115,588	-0,183	-0,161
-498,868	303,400	-0,069	-0,093
-497,853	23,467	-0,028	0,017
-496,839	412,918	0,075	-0,116
-495,824	-200,000	0,011	-0,143
-494,810	-125,387	-0,128	0,014
-493,795	759,142	0,037	-0,073
-492,781	-179,539	-0,161	0,002
-491,766	-37,124	0,132	-0,051
-490,751	-110,239	-0,088	0,013
-489,737	-200,000	-0,014	-0,055
-488,722	800,000	0,027	0,083
-487,708	157,841	-0,064	-0,064
-486,693	21,533	0,071	-0,042
-485,678	554,457	0,057	0,100
-484,664	72,533	-0,058	-0,044
-483,649	49,156	-0,103	-0,070
-482,635	-116,770	0,107	-0,014
-481,620	800,000	-0,028	-0,087
-480,605	53,079	0,098	0,068
-479,591	-200,000	0,001	-0,063
-478,576	403,801	0,049	0,074
-477,562	21,648	-0,086	0,050
-476,547	-200,000	0,040	-0,133
-475,532	10,274	-0,143	-0,078
-474,518	800,000	0,011	-0,025
-473,503	572,630	-0,015	0,027
-472,489	180,607	0,106	-0,112
-471,474	-200,000	0,020	-0,159
-470,459	-200,000	-0,045	-0,144
-469,445	-35,050	-0,088	-0,034
-468,430	345,925	0,049	-0,069
-467,416	351,931	-0,117	0,168
-466,401	67,775	0,132	-0,097
-465,386	-152,402	0,137	-0,007
-464,372	6,981	-0,064	0,034
-463,357	800,000	0,042	-0,100
-462,343	-200,000	-0,002	-0,107
-461,328	-84,364	-0,093	0,021
-460,313	113,487	0,036	-0,031
-459,299	107,243	0,165	0,141
-458,284	3,285	-0,053	-0,028
-457,270	-200,000	0,020	-0,096
-456,255	-78,221	0,016	-0,004
-455,241	59,473	-0,139	-0,099
-454,226	719,809	0,068	0,130
-453,211	-200,000	0,003	0,165
-452,197	-175,696	0,102	0,002
-451,182	112,579	-0,060	0,052
-450,168	-200,000	0,012	0,154
-449,153	148,780	0,089	-0,087
-448,138	266,603	-0,017	-0,021
-447,124	55,734	-0,118	0,082
-446,109	-200,000	-0,004	-0,012
-445,095	127,148	-0,178	0,163
-444,080	-7,121	0,159	0,077
-443,065	800,000	0,061	0,127
-442,051	-200,000	-0,006	0,084
-441,036	-200,000	-0,005	-0,037
-440,022	-200,000	0,002	-0,078
-439,007	-52,202	-0,112	0,037
-437,992	249,392	0,010	0,012
-436,978	-200,000	0,043	0,144
-435,963	-200,000	-0,015	-0,088
-434,949	-51,830	-0,020	0,007
-433,934	71,388	-0,133	-0,099
-432,919	137,641	0,097	-0,091
-431,905	53,938	-0,053	0,037
-430,890	198,907	0,069	0,076
-429,876	-62,300	0,075	-0,022
-428,861	169,574	-0,047	0,048
-427,846	800,000	0,026	-0,065
-426,832	-149,763	0,034	-0,002
-425,817	-200,000	0,017	-0,099
-424,803	-200,000	0,017	-0,111
-423,788	250,258	-0,040	-0,048
-422,773	367,549	-0,021	-0,031
-421,759	635,242	-0,012	0,023
-420,744	-35,960	-0,136	-0,053
-419,730	324,511	0,060	-0,082
-418,715	214,503	0,011	-0,012
-417,701	-1,816	0,120	0,061
-416,686	-178,390	0,071	-0,001
-415,671	800,000	-0,017	0,041
-414,657	0,545	0,074	-0,038
-413,642	68,274	-0,058	0,043
-412,628	-66,386	0,091	0,026
-411,613	-41,267	-0,076	0,028
-410,598	-87,611	0,174	0,037
-409,584	-149,640	0,025	0,001
-408,569	-94,419	-0,055	-0,011
-407,555	-184,913	0,068	0,001
-406,540	-30,289	-0,085	0,035
-405,525	258,678	-0,048	-0,060
-404,511	800,000	-0,009	-0,023
-403,496	-200,000	-0,014	-0,111
-402,482	-33,642	0,080	-0,031
-401,467	54,011	0,099	0,069
-400,452	-200,000	-0,015	0,077
-399,438	-53,546	-0,075	-0,025
-398,423	-200,000	-0,018	0,117
-397,409	800,000	0,014	0,035
-396,394	800,000	-0,033	-0,067
-395,379	800,000	-0,025	-0,078
-394,365	70,481	0,063	0,047
-393,350	645,898	0,045	0,083
-392,336	800,000	-0,015	0,044
-391,321	566,133	-0,024	-0,042
-390,306	-200,000	0,020	-0,079
-389,292	-82,735	-0,026	-0,006
-388,277	108,010	0,058	0,050
-387,263	-46,486	-0,078	-0,027
-386,248	-52,932	0,007	0,002
-385,233	-200,000	-0,045	0,241
-384,219	284,274	0,109	0,141
-383,204	279,183	-0,033	0,042
-382,190	-200,000	0,005	-0,048
-381,175	102,249	-0,062	0,052
-380,160	597,541	0,076	0,136
-379,146	-25,832	0,178	0,075
-378,131	-200,000	-0,068	0,225
-377,117	286,766	-0,117	0,152
-376,102	20,255	-0,105	-0,061
-375,088	-200,000	-0,035	0,112
-374,073	-163,581	0,035	-0,001
-373,058	219,470	-0,015	-0,017
-372,044	76,716	0,088	-0,067
-371,029	-175,971	0,081	0,002
-370,015	-3,095	0,064	-0,032
-369,000	593,240	-0,029	-0,051
-367,985	-45,412	-0,041	-0,014
-366,971	-111,608	-0,088	-0,013
-365,956	-65,618	0,132	0,038
-364,942	-98,404	0,073	0,013
-363,927	18,063	-0,050	0,029
-362,912	-19,136	-0,056	-0,025
-361,898	-200,000	0,001	-0,080
-360,883	107,951	-0,039	-0,033
-359,869	380,938	-0,031	0,046
-358,854	-81,962	0,074	0,017
-357,839	800,000	0,008	-0,019
-356,825	70,931	-0,029	0,021
-355,810	800,000	0,033	-0,099
-354,796	-200,000	-0,001	0,107
-353,781	-200,000	-0,024	-0,219
-352,766	-200,000	0,016	-0,087
-351,752	-14,241	0,013	-0,006
-350,737	-132,562	0,088	-0,008
-349,723	32,925	0,113	0,070
-348,708	-200,000	0,011	0,087
-347,693	-69,067	-0,111	-0,031
-346,679	-104,338	0,136	-0,022
-345,664	68,324	-0,089	-0,066
-344,650	-168,766	-0,086	-0,002
-343,635	249,898	0,089	0,108
-342,620	-200,000	0,066	0,000
-341,606	-50,896	0,050	0,017
-340,591	7,549	0,066	-0,035
-339,577	-200,000	-0,021	-0,106
-338,562	-200,000	-0,031	-0,105
-337,548	-57,497	-0,123	0,038
-336,533	-0,254	0,084	-0,043
-335,518	256,006	0,013	0,016
-334,504	800,000	-0,006	-0,017
-333,489	-200,000	0,003	-0,027
-332,475	452,950	-0,043	-0,068
-331,460	170,824	-0,076	0,078
-330,445	20,786	0,091	-0,052
-329,431	-200,000	0,001	0,129
-328,416	800,000	0,068	0,212
-327,402	-3,143	0,035	-0,017
-326,387	-67,575	0,058	0,016
-325,372	-27,353	-0,037	0,015
-324,358	-90,041	0,149	-0,031
-323,343	-152,461	0,074	-0,004
-322,329	765,283	0,071	0,139
-321,314	-200,000	0,031	-0,135
-320,299	293,283	-0,054	0,071
-319,285	108,484	0,098	0,084
-318,270	-9,510	-0,086	0,041
-317,256	-69,240	-0,096	-0,026
-316,241	-13,232	0,149	-0,069
-315,226	82,645	0,071	0,055
-314,212	176,103	-0,064	0,066
-313,197	-200,000	-0,000	-0,007
-312,183	-200,000	0,008	-0,104
-311,168	-127,644	0,105	0,011
-310,153	11,141	-0,017	0,010
-309,139	-200,000	-0,018	0,099
-308,124	7,480	0,049	0,026
-307,110	-81,565	-0,081	0,019
-306,095	-121,358	0,087	0,010
-305,080	-200,000	0,005	-0,048
-304,066	800,000	0,018	-0,053
-303,051	-200,000	-0,010	-0,035
-302,037	-200,000	0,002	-0,084
-301,022	-200,000	0,003	0,053
-300,008	108,529	-0,051	0,044
-298,993	74,979	-0,062	0,047
-297,978	603,467	0,034	-0,061
-296,964	-200,000	-0,004	-0,110
-295,949	175,133	-0,061	-0,063
-294,935	56,001	-0,121	-0,084
-293,920	153,832	0,067	0,066
-292,905	236,254	0,046	0,055
-291,891	23,935	0,077	0,045
-290,876	-128,645	0,141	-0,014
-289,862	-112,447	0,051	0,007
-288,847	-52,945	-0,035	-0,012
-287,832	-200,000	0,025	-0,101
-286,818	-2,135	0,197	-0,098
-285,803	99,716	0,111	0,092
-284,789	-39,378	0,060	0,022
-283,774	-200,000	-0,049	0,158
-282,759	-104,678	0,156	0,025
-281,745	533,809	-0,030	0,051
-280,730	-8,666	0,089	0,043
-279,716	-23,385	0,031	0,013
-278,701	776,753	0,028	-0,055
-277,686	31,036	-0,025	0,015
-276,672	130,637	-0,053	0,049
-275,657	-200,000	0,024	0,097
-274,643	800,000	-0,020	0,042
-273,628	-52,374	-0,058	-0,019
-272,613	6,261	0,094	0,050
-271,599	-200,000	-0,041	0,142
-270,584	-200,000	-0,001	0,059
-269,570	-53,823	0,088	-0,028
-268,555	800,000	0,049	0,118
-267,540	-77,031	-0,033	-0,008
-266,526	141,030	-0,062	-0,059
-265,511	800,000	0,066	-0,168
-264,497	-200,000	-0,001	-0,164
-263,482	276,669	0,021	0,027
-262,467	170,261	-0,071	0,072
-261,453	27,773	-0,038	-0,023
-260,438	-190,219	-0,095	-0,001
-259,424	-83,997	-0,069	0,016
-258,409	-60,733	-0,110	0,033
-257,395	-147,947	-0,153	0,009
-256,380	204,458	0,027	-0,030
-255,365	-200,000	0,021	-0,094
-254,351	-178,035	0,083	-0,001
-253,336	-200,000	0,020	-0,074
-252,322	-29,385	-0,096	0,039
-251,307	-128,133	-0,051	-0,005
-250,292	-33,288	0,135	0,053
-249,278	217,337	0,069	0,079
-248,263	172,029	0,035	-0,036
-247,249	800,000	0,044	0,126
-246,234	-200,000	0,023	-0,082
-245,219	-5,145	0,090	-0,044
-244,205	800,000	0,024	0,072
-243,190	-124,874	0,171	-0,019
-242,176	721,316	0,072	0,137
-241,161	-200,000	-0,038	0,132
-240,146	226,500	0,052	0,061
-239,132	-108,810	0,083	-0,013
-238,117	608,237	0,027	-0,047
-237,103	-29,247	-0,067	-0,027
-236,088	-200,000	-0,003	-0,123
-235,073	-90,200	-0,164	-0,034
-234,059	800,000	-0,063	0,174
-233,044	553,899	0,058	0,099
-232,030	717,394	0,113	0,215
-231,015	-200,000	-0,017	-0,116
-230,000	278,754	-0,084	0,107
-228,986	172,994	-0,130	0,134
-227,971	-106,696	0,106	0,017
-226,957	-200,000	-0,028	0,099
-225,942	271,262	-0,042	-0,053
-224,927	-200,000	0,009	-0,052
-223,913	4,912	0,023	0,012
-222,898	-200,000	-0,046	-0,159
-221,884	-200,000	0,047	-0,153
-220,869	800,000	0,022	0,045
-219,855	-108,799	0,065	0,010
-218,840	-8,007	0,176	0,084
-217,825	-49,135	-0,075	-0,025
-216,811	800,000	-0,015	0,031
-215,796	-200,000	-0,031	-0,144
-214,782	-200,000	-0,029	-0,159
-213,767	292,783	0,080	0,105
-212,752	-200,000	0,011	-0,066
-211,738	-64,560	0,114	0,033
-210,723	277,564	0,090	0,114
-209,709	-159,760	0,172	0,007
-208,694	-200,000	0,010	0,085
-207,679	21,394	0,063	0,036
-206,665	-200,000	0,021	-0,173
-205,650	-200,000	-0,016	0,103
-204,636	-200,000	-0,004	0,074
-203,621	47,136	-0,019	0,013
-202,606	-200,000	-0,015	-0,101
-201,592	-27,662	-0,114	-0,047
-200,577	47,125	-0,057	-0,038
-199,563	426,461	0,065	-0,100
-198,548	-200,000	-0,008	-0,064
-197,533	-114,237	0,188	0,026
-196,519	-88,122	0,077	-0,016
-195,504	-17,319	-0,089	0,040
-194,490	800,000	-0,044	0,088
-193,475	-62,037	-0,150	0,044
-192,460	156,026	-0,077	-0,076
-191,446	-200,000	-0,079	0,291
-190,431	94,023	0,055	0,045
-189,417	800,000	0,021	-0,049
-188,402	-200,000	-0,026	-0,148
-187,387	1,826	0,084	-0,043
-186,373	499,810	0,060	-0,099
-185,358	426,236	0,048	-0,074
-184,344	313,185	0,056	0,075
-183,329	161,152	0,016	0,016
-182,315	800,000	-0,046	0,092
-181,300	-28,144	-0,163	-0,067
-180,285	800,000	0,039	0,109
-179,271	-200,000	-0,040	-0,172
-178,256	-54,259	0,084	0,027
-177,242	135,844	0,087	-0,080
-176,227	383,136	-0,060	-0,089
-175,212	-113,465	0,025	-0,003
-174,198	-46,898	-0,104	0,036
-173,183	100,395	-0,121	-0,100
-172,169	-200,000	-0,021	-0,068
-171,154	-149,212	-0,148	-0,008
-170,139	6,350	0,037	-0,019
-169,125	800,000	-0,035	0,101
-168,110	223,718	0,070	0,080
-167,096	-149,606	0,075	0,004
-166,081	-145,075	0,041	-0,003
-165,066	-32,019	0,043	-0,017
-164,052	-200,000	-0,033	0,110
-163,037	-50,799	0,065	0,022
-162,023	-200,000	0,002	-0,026
-161,008	-116,767	0,052	-0,007
-159,993	-200,000	-0,020	0,135
-158,979	-138,937	-0,093	0,007
-157,964	275,111	-0,089	-0,112
-156,950	324,507	-0,080	-0,109
-155,935	-200,000	-0,014	0,057
-154,920	800,000	-0,023	0,053
-153,906	-105,435	0,057	-0,009
-152,891	177,343	0,046	-0,048
-151,877	212,995	-0,059	-0,066
-150,862	800,000	-0,005	-0,014
-149,847	192,287	0,116	-0,125
-148,833	-200,000	-0,053	-0,172
-147,818	800,000	-0,023	-0,061
-146,804	275,902	0,043	-0,054
-145,789	95,485	-0,079	-0,064
-144,775	-55,203	-0,107	-0,034
-143,760	233,773	-0,030	-0,035
-142,745	-7,256	-0,161	-0,077
-141,731	350,142	0,017	-0,024
-140,716	40,093	0,140	-0,090
-139,702	52,101	0,049	-0,033
-138,687	800,000	-0,069	0,177
-137,672	-38,773	-0,133	-0,050
-136,658	677,647	-0,052	-0,097
-135,643	257,494	-0,116	-0,142
-134,629	280,163	0,041	-0,053
-133,614	-200,000	0,003	-0,036
-132,599	800,000	-0,018	0,037
-131,585	800,000	-0,041	0,093
-130,570	-186,885	-0,064	-0,001
-129,556	61,644	-0,031	0,022
-128,541	800,000	-0,072	-0,146
-127,526	130,800	-0,063	0,057
-126,512	338,555	-0,053	-0,074
-125,497	-200,000	0,032	0,112
-124,483	-200,000	-0,009	0,076
-123,468	272,268	0,025	0,032
-122,453	800,000	-0,047	-0,114
-121,439	-66,724	0,060	-0,017
-120,424	119,670	0,025	-0,022
-119,410	-200,000	-0,005	0,131
-118,395	-60,008	-0,061	0,018
-117,380	800,000	0,040	0,093
-116,366	800,000	0,052	0,137
-115,351	-200,000	-0,003	-0,074
-114,337	-200,000	-0,003	-0,072
-113,322	-200,000	-0,028	-0,111
-112,307	255,552	0,086	0,105
-111,293	14,217	-0,078	-0,043
-110,278	-200,000	-0,021	0,096
-109,264	-29,079	-0,041	0,017
-108,249	-200,000	-0,002	-0,028
-107,234	-38,969	0,118	0,044
-106,220	-200,000	-0,013	-0,077
-105,205	-145,259	0,034	0,002
-104,191	322,746	0,040	0,054
-103,176	-132,242	-0,088	-0,008
-102,162	-200,000	-0,005	0,100
-101,147	333,823	0,079	-0,109
-100,132	181,781	-0,114	-0,119
-99,118	-200,000	0,028	0,124
-98,103	286,101	0,063	0,080
-97,089	301,517	-0,042	0,055
-96,074	141,221	0,092	0,086
-95,059	97,043	0,067	-0,054
-94,045	800,000	-0,076	-0,191
-93,030	503,214	0,048	-0,079
-92,016	62,879	-0,067	-0,047
-91,001	-165,315	-0,124	-0,004
-89,986	-38,573	0,132	0,049
-88,972	13,749	-0,013	0,007
-87,957	202,195	0,094	0,103
-86,943	-109,261	-0,114	-0,017
-85,928	16,143	-0,084	-0,047
-84,913	-200,000	0,017	0,119
-83,899	140,540	0,024	-0,023
-82,884	106,335	-0,018	0,015
-81,870	1,514	-0,071	0,036
-80,855	303,760	0,108	0,143
-79,840	382,912	-0,039	0,058
-78,826	627,797	-0,078	-0,141
-77,811	262,024	-0,083	-0,102
-76,797	496,188	0,014	-0,024
-75,782	-200,000	0,032	-0,191
-74,767	433,211	-0,047	0,072
-73,753	669,808	-0,014	0,026
-72,738	-111,364	-0,043	0,006
-71,724	-56,534	-0,059	-0,018
-70,709	-116,620	-0,049	0,006
-69,694	261,313	0,040	0,049
-68,680	-200,000	0,005	0,063
-67,665	182,223	0,081	0,085
-66,651	-139,060	0,053	0,004
-65,636	323,439	-0,074	-0,100
-64,622	-126,392	-0,076	-0,008
-63,607	333,184	-0,104	-0,142
-62,592	-58,628	0,123	-0,038
-61,578	8,426	0,137	0,073
-60,563	-148,602	0,127	-0,007
-59,549	-200,000	-0,046	0,272
-58,534	-30,188	-1,461	-0,586
-57,519	356,248	-1,403	-1,987
-56,505	-200,000	-0,538	-4,470
-55,490	194,087	0,999	1,074
-54,476	800,000	4,815	11,108
-53,461	-200,000	18,829	310,180
-52,446	-200,000	738,702	2315,768
-51,432	573,311	1654,803	2870,169
-50,417	79,033	1670,790	1266,512
-49,403	21,936	1543,514	889,343
-48,388	15,839	1466,236	815,165
-47,373	17,845	1456,391	819,361
-46,359	16,836	1446,527	808,933
-45,344	14,056	1441,688	792,874
-44,330	14,019	1439,737	791,594
-43,315	13,985	1437,976	790,429
-42,300	13,964	1436,664	789,579
-41,286	14,051	1435,249	789,182
-40,271	13,999	1433,990	788,210
-39,257	13,981	1432,521	787,287
-38,242	14,012	1431,389	786,781
-37,227	14,059	1430,108	786,272
-36,213	14,052	1428,928	785,555
-35,198	14,071	1427,547	784,856
-34,184	14,071	1426,701	784,361
-33,169	14,029	1425,313	783,367
-32,154	14,067	1424,279	782,946
-31,140	13,993	1423,233	781,991
-30,125	14,066	1421,962	781,609
-29,111	14,076	1420,725	780,942
-28,096	14,046	1419,725	780,223
-27,082	14,009	1418,383	779,277
-26,067	13,916	1417,570	778,364
-25,052	13,962	1416,434	777,923
-24,038	13,907	1415,693	777,228
-23,023	13,953	1414,633	776,831
-22,009	13,911	1413,469	775,963
-20,994	13,885	1412,887	775,490
-19,979	13,884	1411,767	774,843
-18,965	13,877	1410,811	774,254
-17,950	13,845	1409,924	773,583
-16,936	13,878	1409,083	773,246
-15,921	13,864	1407,836	772,466
-14,906	13,859	1406,829	771,860
-13,892	13,921	1405,923	771,624
-12,877	13,893	1405,171	771,049
-11,863	13,833	1404,547	770,397
-10,848	13,876	1403,288	769,872
-9,833	13,793	1402,599	769,078
-8,819	13,782	1401,498	768,395
-7,804	13,790	1400,611	767,914
-6,790	13,769	1399,734	767,304
-5,775	13,762	1398,562	766,601
-4,760	13,790	1397,498	766,114
-3,746	13,755	1396,636	765,449
-2,731	13,736	1396,056	765,014
-1,717	13,759	1395,044	764,535
-0,702	13,762	1393,302	763,566
0,313	17,560	1310,985	736,082
1,327	33,854	705,557	433,911
2,342	51,863	124,013	83,450
3,356	3,908	16,689	8,608
4,371	4,108	3,188	1,646
5,386	-38,283	0,646	0,241
6,400	-200,000	0,037	0,213
7,415	55,382	-0,241	-0,165
8,429	-46,132	-0,346	-0,120
9,444	360,364	-0,216	-0,307
10,459	105,161	-0,250	-0,208
11,473	103,924	-0,285	-0,237
12,488	-16,735	-0,313	-0,140
13,502	-30,374	-0,406	-0,162
14,517	-27,789	-0,316	-0,129
15,531	34,574	-0,342	-0,211
16,546	137,578	-0,318	-0,294
17,561	122,578	-0,386	-0,341
18,575	-107,374	-0,313	-0,048
19,590	93,408	-0,299	-0,239
20,604	-117,784	-0,310	-0,039
21,619	-33,955	-0,346	-0,134
22,634	185,290	-0,348	-0,365
23,648	89,719	-0,463	-0,365
24,663	90,777	-0,426	-0,337
25,677	86,205	-0,428	-0,333
26,692	75,446	-0,267	-0,199
27,707	77,692	-0,419	-0,315
28,721	-12,825	-0,491	-0,225
29,736	35,434	-0,350	-0,217
30,750	117,891	-0,459	-0,399
31,765	93,391	-0,361	-0,288
32,780	126,656	-0,492	-0,440
33,794	228,356	-0,253	-0,292
34,809	419,509	-0,231	-0,350
35,823	109,798	-0,421	-0,356
36,838	227,808	-0,340	-0,391
37,853	81,172	-0,360	-0,274
38,867	55,048	-0,434	-0,295
39,882	71,592	-0,353	-0,258
40,896	108,233	-0,270	-0,227
41,911	106,048	-0,330	-0,276
42,926	29,781	-0,262	-0,157
43,940	6,568	-0,402	-0,210
44,955	67,779	-0,414	-0,298
45,969	41,934	-0,427	-0,273
46,984	99,268	-0,335	-0,273
47,999	128,361	-0,253	-0,227
49,013	137,504	-0,264	-0,244
50,028	19,196	-0,447	-0,252
51,042	140,420	-0,316	-0,294
52,057	72,015	-0,445	-0,326
53,071	30,888	-0,343	-0,207
54,086	139,077	-0,325	-0,301
55,101	293,072	-0,256	-0,330
56,115	128,718	-0,252	-0,226
57,130	-4,317	-0,392	-0,191
58,144	12,199	-0,485	-0,262
59,159	6,043	-0,411	-0,214
60,174	314,603	-0,237	-0,316
61,188	70,908	-0,348	-0,254
62,203	-110,858	-0,451	-0,065
63,217	-107,189	-0,337	-0,052
64,232	115,017	-0,314	-0,270
65,247	146,820	-0,266	-0,252
66,261	42,881	-0,228	-0,146
67,276	94,983	-0,381	-0,305
68,290	33,148	-0,363	-0,221
69,305	-21,994	-0,311	-0,132
70,320	192,641	-0,317	-0,337
71,334	-81,647	-0,349	-0,080
72,349	32,645	-0,369	-0,224
73,363	-49,410	-0,426	-0,142
74,378	-51,944	-0,373	-0,121
75,393	83,927	-0,193	-0,148
76,407	155,151	-0,336	-0,326
77,422	55,816	-0,255	-0,174
78,436	10,528	-0,357	-0,191
79,451	-63,694	-0,416	-0,119
80,466	81,473	-0,322	-0,245
81,480	18,841	-0,373	-0,210
82,495	315,100	-0,206	-0,274
83,509	67,729	-0,216	-0,155
84,524	74,166	-0,220	-0,163
85,539	-46,559	-0,343	-0,118
86,553	800,000	-0,055	-0,119
87,568	65,487	-0,433	-0,308
88,582	185,165	-0,252	-0,263
89,597	-15,137	-0,266	-0,119
90,611	-95,866	-0,305	-0,057
91,626	-45,101	-0,235	-0,082
92,641	-106,095	-0,310	-0,048
93,655	-100,788	-0,468	-0,080
94,670	-29,918	-0,293	-0,117
95,684	-31,479	-0,267	-0,105
96,699	48,328	-0,289	-0,190
97,714	0,190	-0,311	-0,155
98,728	64,061	-0,260	-0,183
99,743	-59,274	-0,151	-0,045
100,757	309,053	-0,223	-0,293
101,772	50,815	-0,175	-0,116
102,787	198,830	-0,282	-0,303
103,801	137,148	-0,231	-0,212
104,816	87,114	-0,284	-0,220
105,830	-1,209	-0,321	-0,159
106,845	-66,344	-0,285	-0,079
107,860	18,228	-0,196	-0,109
108,874	19,448	-0,135	-0,076
109,889	16,275	-0,356	-0,196
110,903	297,590	-0,195	-0,252
111,918	61,629	-0,368	-0,257
112,933	283,986	-0,083	-0,105
113,947	-10,332	-0,321	-0,148
114,962	241,697	-0,205	-0,240
115,976	289,082	-0,207	-0,264
116,991	52,996	-0,114	-0,076
118,006	8,528	-0,276	-0,145
119,020	86,914	-0,337	-0,261
120,035	107,892	-0,206	-0,172
121,049	-15,482	-0,201	-0,090
122,064	167,896	-0,151	-0,151
123,079	188,494	-0,140	-0,146
124,093	-44,857	-0,327	-0,114
125,108	92,021	-0,341	-0,269
126,122	-34,344	-0,292	-0,112
127,137	89,765	-0,204	-0,159
128,151	-52,188	-0,284	-0,092
129,166	-23,912	-0,308	-0,128
130,181	-132,931	-0,120	0,011
131,195	128,447	-0,240	-0,214
132,210	72,537	-0,290	-0,211
133,224	211,251	-0,198	-0,218
134,239	129,252	-0,292	-0,261
135,254	0,828	-0,276	-0,138
136,268	2,341	-0,234	-0,118
137,283	86,963	-0,181	-0,140
138,297	157,948	-0,232	-0,225
139,312	-8,039	-0,309	-0,145
140,327	199,458	-0,200	-0,214
141,341	104,869	-0,290	-0,239
142,356	21,284	-0,146	-0,083
143,370	117,569	-0,202	-0,174
144,385	73,887	-0,345	-0,252
145,400	176,382	-0,206	-0,210
146,414	87,604	-0,336	-0,260
147,429	620,829	-0,155	-0,273
148,443	171,547	-0,154	-0,155
149,458	225,120	-0,144	-0,164
150,473	-6,985	-0,304	-0,144
151,487	123,455	-0,202	-0,177
152,502	-32,991	-0,321	-0,124
153,516	-141,846	-0,235	-0,016
154,531	-18,446	-0,478	-0,208
155,546	149,236	-0,251	-0,238
156,560	0,990	-0,176	-0,088
157,575	-24,954	-0,222	-0,092
158,589	106,436	-0,107	-0,088
159,604	295,005	-0,228	-0,292
160,619	93,276	-0,309	-0,244
161,633	275,866	-0,213	-0,264
162,648	31,575	-0,251	-0,150
163,662	-87,308	-0,256	-0,054
164,677	48,080	-0,283	-0,184
165,692	133,734	-0,187	-0,169
166,706	-52,110	-0,137	-0,044
167,721	79,996	-0,184	-0,138
168,735	277,163	-0,241	-0,300
169,750	-12,192	-0,223	-0,101
170,764	269,615	-0,142	-0,174
171,779	72,170	-0,139	-0,101
172,794	-45,445	-0,328	-0,113
173,808	-15,088	-0,280	-0,125
174,823	-17,933	-0,232	-0,101
175,837	-12,536	-0,338	-0,153
176,852	212,598	-0,161	-0,178
177,867	-81,058	-0,255	-0,058
178,881	-139,508	-0,191	0,014
179,896	-93,907	-0,198	-0,038
180,910	64,088	-0,195	-0,136
181,925	138,530	-0,193	-0,177
182,940	4,396	-0,356	-0,182
183,954	76,961	-0,270	-0,200
184,969	-5,556	-0,199	-0,095
185,983	-200,000	-0,017	-0,243
186,998	117,983	-0,196	-0,168
188,013	111,671	-0,240	-0,201
189,027	257,674	-0,176	-0,211
190,042	131,994	-0,245	-0,220
191,056	74,323	-0,317	-0,232
192,071	36,933	-0,232	-0,143
193,086	-150,032	-0,233	-0,012
194,100	-200,000	-0,026	-0,110
195,115	60,805	-0,204	-0,141
196,129	178,119	-0,262	-0,266
197,144	454,930	-0,163	-0,252
198,159	26,122	-0,230	-0,133
199,173	149,816	-0,207	-0,196
200,188	800,000	-0,048	-0,136
201,202	499,479	-0,082	-0,132
202,217	120,884	-0,172	-0,148
203,232	-43,999	-0,164	-0,057
204,246	283,840	-0,125	-0,157
205,261	128,247	-0,135	-0,120
206,275	800,000	-0,106	-0,239
207,290	24,694	-0,160	-0,092
208,304	246,867	-0,126	-0,149
209,319	-107,165	-0,350	-0,053
210,334	16,539	-0,211	-0,116
211,348	285,799	-0,159	-0,200
212,363	203,954	-0,143	-0,154
213,377	-24,278	-0,182	-0,075
214,392	-116,273	-0,199	-0,025
215,407	251,679	-0,140	-0,166
216,421	119,345	-0,153	-0,132
217,436	-108,431	-0,271	-0,040
218,450	129,538	-0,173	-0,154
219,465	800,000	-0,128	-0,289
220,480	194,690	-0,168	-0,177
221,494	43,278	-0,170	-0,108
222,509	96,956	-0,122	-0,097
223,523	799,604	-0,088	-0,169
224,538	-67,884	-0,212	-0,057
225,553	-100,976	-0,209	-0,035
226,567	157,942	-0,182	-0,175
227,582	255,948	-0,136	-0,162
228,596	-64,248	-0,148	-0,042
229,611	111,748	-0,144	-0,120
230,626	800,000	-0,024	-0,066
231,640	-72,185	-0,082	0,021
232,655	111,044	-0,170	-0,142
233,669	-58,137	-0,210	-0,063
234,684	32,907	-0,146	-0,087
235,699	22,910	-0,208	-0,118
236,713	0,589	-0,163	-0,080
237,728	199,952	-0,189	-0,201
238,742	253,635	-0,152	-0,180
239,757	-35,616	-0,212	-0,079
240,772	523,883	-0,087	-0,142
241,786	41,895	-0,209	-0,131
242,801	-200,000	-0,060	-0,220
243,815	444,570	-0,108	-0,165
244,830	127,877	-0,220	-0,194
245,844	78,692	-0,198	-0,147
246,859	176,884	-0,153	-0,154
247,874	265,251	-0,141	-0,170
248,888	-34,811	-0,235	-0,088
249,903	73,079	-0,166	-0,120
250,917	-36,943	-0,159	-0,059
251,932	-200,000	-0,007	-0,102
252,947	13,339	-0,251	-0,134
253,961	92,685	-0,231	-0,180
254,976	305,157	-0,081	-0,104
255,990	800,000	-0,065	-0,145
257,005	193,764	-0,171	-0,179
258,020	800,000	-0,108	-0,237
259,034	-19,942	0,046	-0,020
260,049	643,046	-0,196	-0,347
261,063	800,000	-0,058	-0,140
262,078	24,691	-0,243	-0,139
263,093	139,592	-0,252	-0,230
264,107	-101,174	-0,145	-0,024
265,122	800,000	-0,086	-0,175
266,136	-89,860	-0,160	-0,032
267,151	220,266	-0,139	-0,154
268,166	-187,244	-0,248	-0,002
269,180	71,044	-0,229	-0,164
270,195	14,405	-0,254	-0,137
271,209	102,174	-0,185	-0,149
272,224	17,273	-0,121	-0,066
273,239	99,876	-0,253	-0,202
274,253	-89,255	-0,182	0,037
275,268	567,231	-0,099	-0,168
276,282	180,280	-0,240	-0,243
277,297	578,755	-0,098	-0,166
278,312	-200,000	-0,231	0,000
279,326	-70,154	-0,130	-0,034
280,341	230,514	-0,100	-0,114
281,355	-200,000	0,025	-0,155
282,370	56,811	-0,211	-0,142
283,384	124,142	-0,221	-0,192
284,399	800,000	-0,107	-0,208
285,414	-165,460	-0,185	-0,005
286,428	-18,121	-0,246	-0,106
287,443	-19,971	-0,123	0,052
288,457	7,736	-0,161	-0,083
289,472	4,540	-0,236	-0,119
290,487	-108,736	-0,184	0,027
291,501	194,279	-0,239	-0,251
292,516	101,115	-0,228	-0,183
293,530	707,003	-0,069	-0,127
294,545	-124,831	-0,114	-0,012
295,560	171,817	-0,097	-0,097
296,574	-48,009	-0,169	-0,056
297,589	326,984	-0,121	-0,161
298,603	372,705	-0,133	-0,187
299,618	117,756	-0,228	-0,194
300,633	-26,984	-0,238	-0,096
301,647	-6,129	-0,143	-0,067
302,662	800,000	-0,072	-0,141
303,676	-17,465	-0,173	-0,075
304,691	33,464	-0,254	-0,152
305,706	218,218	-0,217	-0,239
306,720	81,025	-0,203	-0,151
307,735	96,737	-0,167	-0,132
308,749	-48,436	-0,202	-0,067
309,764	-200,000	-0,009	0,131
310,779	348,888	-0,050	-0,069
311,793	164,861	-0,079	-0,077
312,808	800,000	-0,129	-0,296
313,822	53,313	-0,203	-0,134
314,837	118,181	-0,130	-0,110
315,852	31,509	-0,096	-0,056
316,866	800,000	-0,071	-0,163
317,881	800,000	-0,105	-0,216
318,895	275,146	-0,121	-0,148
319,910	37,775	-0,152	-0,093
320,925	41,589	-0,207	-0,129
321,939	8,383	-0,218	-0,112
322,954	193,502	-0,151	-0,157
323,968	800,000	-0,072	-0,169
324,983	369,893	-0,131	-0,184
325,997	41,775	-0,170	-0,106
327,012	800,000	-0,101	-0,228
328,027	399,206	-0,114	-0,165
329,041	165,156	-0,200	-0,195
330,056	-200,000	-0,024	-0,124
331,070	157,211	-0,208	-0,198
332,085	63,062	-0,140	-0,096
333,100	-59,547	-0,154	0,045
334,114	1,329	-0,197	-0,097
335,129	339,530	-0,166	-0,223
336,143	800,000	-0,071	-0,146
337,158	-53,613	-0,057	0,018
338,173	557,813	-0,139	-0,232
339,187	188,375	-0,074	-0,076
340,202	353,156	-0,108	-0,148
341,216	76,673	-0,153	-0,111
342,231	548,772	-0,132	-0,217
343,246	-32,720	-0,249	-0,095
344,260	-155,541	-0,287	-0,012
345,275	222,187	-0,122	-0,135
346,289	265,108	-0,146	-0,175
347,304	14,560	-0,146	-0,078
348,319	190,141	-0,185	-0,191
349,333	-111,853	-0,157	0,022
350,348	-84,907	-0,176	0,038
351,362	376,790	-0,102	-0,144
352,377	12,866	-0,029	0,015
353,392	-200,000	-0,059	-0,190
354,406	89,425	-0,145	-0,111
355,421	209,124	1314,248	1414,681
356,435	160,931	1474,933	1415,166
