DTS Sentinel unit serial number:	SN410029Multiplexer serial number:	ORYXHardware model number:	OX2-SRSoftware version number:	ORYX F/W v4,00 Oryx Data Collector v3.7.2.0data status	okinstallation	B3 Nyhavnadifferential loss correction	single-endedforward channel	channel 1reverse channel	N/Adate	2023/12/03time	03:27:30forward acquisition time	300,00reverse acquisition time	0,00gamma	499,1914k internal	0,3201k external	0,3201temperature offset calibration	1,0000default loss term (dB/km)	0,3820temperature slope calibration	1,0000multiplexer offset coefficient	1,0000multiplexer slope coefficient	1,0000fibre end	0,00T internal ref (°C)	13,32T ext. ref 1 (°C)	-1,74T ext. ref 2 (°C)	-1,75length (m)	temperature (°C)	Stokes	anti-Stokes-744,400	490,151	-0,171	-0,285
-743,385	-200,000	0,004	0,423
-742,371	-120,345	-0,135	0,016
-741,356	800,000	0,169	0,448
-740,342	800,000	-0,105	-0,274
-739,327	-200,000	-0,031	0,320
-738,312	87,476	-0,206	-0,166
-737,298	-200,000	0,015	0,260
-736,283	285,523	-0,087	-0,114
-735,269	-200,000	0,003	0,271
-734,254	387,023	-0,194	-0,293
-733,239	218,995	-0,124	0,144
-732,225	800,000	-0,104	-0,253
-731,210	219,960	0,079	0,092
-730,196	800,000	0,055	-0,126
-729,181	126,887	-0,092	-0,085
-728,167	-200,000	-0,005	-0,109
-727,152	800,000	-0,064	0,136
-726,137	-69,991	-0,146	-0,040
-725,123	-101,836	-0,103	-0,018
-724,108	-200,000	0,006	-0,093
-723,094	597,476	-0,041	-0,075
-722,079	544,258	-0,055	0,096
-721,064	70,295	0,017	-0,013
-720,050	-105,594	-0,029	0,005
-719,035	-200,000	0,010	-0,179
-718,021	-26,264	-0,101	0,043
-717,006	55,192	-0,094	-0,066
-715,991	791,176	-0,028	-0,056
-714,977	108,127	-0,169	-0,146
-713,962	-119,616	0,094	-0,012
-712,948	-104,267	0,086	0,014
-711,933	644,626	0,045	0,084
-710,918	-34,875	-0,142	-0,056
-709,904	104,875	-0,077	-0,066
-708,889	-200,000	-0,018	-0,182
-707,875	-15,996	-0,099	-0,045
-706,860	-111,042	0,158	-0,023
-705,845	-153,686	0,153	-0,007
-704,831	-38,224	-0,176	-0,068
-703,816	800,000	0,058	-0,117
-702,802	756,734	-0,040	0,080
-701,787	-21,580	-0,048	-0,021
-700,772	53,858	0,083	-0,057
-699,758	705,502	-0,036	-0,070
-698,743	-183,873	-0,056	-0,001
-697,729	-86,650	0,000	0,000
-696,714	341,397	-0,030	-0,043
-695,699	705,795	-0,030	0,058
-694,685	575,463	-0,018	-0,032
-693,670	28,126	-0,092	0,056
-692,656	-50,692	0,059	0,020
-691,641	800,000	0,006	-0,015
-690,627	324,422	0,024	0,033
-689,612	207,689	0,015	-0,017
-688,597	800,000	0,006	-0,015
-687,583	-95,418	-0,090	0,017
-686,568	-75,101	-0,046	0,012
-685,554	88,596	-0,038	0,030
-684,539	-200,000	0,002	-0,094
-683,524	358,657	0,048	0,070
-682,510	-85,761	0,080	-0,018
-681,495	-50,944	-0,068	0,023
-680,481	-143,541	-0,141	0,010
-679,466	-200,000	-0,013	-0,073
-678,451	341,739	0,047	0,067
-677,437	-200,000	0,011	0,117
-676,422	376,312	0,036	0,054
-675,408	93,578	-0,073	0,060
-674,393	-85,000	-0,105	0,024
-673,378	167,050	-0,064	-0,066
-672,364	-167,158	-0,150	-0,004
-671,349	147,983	0,042	-0,041
-670,335	144,361	0,065	-0,063
-669,320	584,527	-0,030	0,053
-668,305	14,480	0,104	-0,059
-667,291	-36,366	-0,108	-0,042
-666,276	-64,327	-0,160	-0,047
-665,262	-99,877	-0,044	0,008
-664,247	-73,208	-0,036	0,009
-663,232	-200,000	0,007	-0,021
-662,218	-109,414	0,028	0,004
-661,203	409,352	0,057	-0,088
-660,189	20,608	0,048	-0,028
-659,174	-40,057	-0,092	0,034
-658,159	-200,000	0,007	-0,081
-657,145	41,269	-0,110	0,072
-656,130	-200,000	-0,012	-0,071
-655,116	213,454	0,057	0,066
-654,101	-64,729	0,039	-0,011
-653,086	800,000	-0,065	-0,134
-652,072	752,721	0,058	-0,114
-651,057	10,047	-0,070	-0,038
-650,043	227,582	-0,038	-0,045
-649,028	463,656	0,017	-0,027
-648,014	186,295	-0,042	0,045
-646,999	-200,000	-0,023	0,092
-645,984	341,379	0,091	0,129
-644,970	-42,501	-0,075	0,027
-643,955	800,000	-0,025	0,054
-642,941	168,025	-0,048	-0,049
-641,926	-200,000	-0,018	0,061
-640,911	144,023	0,120	0,116
-639,897	-142,529	0,102	-0,007
-638,882	750,307	-0,057	-0,113
-637,868	626,432	0,040	-0,073
-636,853	-200,000	-0,003	-0,105
-635,838	800,000	-0,081	-0,227
-634,824	90,551	-0,012	-0,010
-633,809	-17,279	0,074	0,034
-632,795	-200,000	-0,007	-0,084
-631,780	98,726	0,042	-0,035
-630,765	116,985	0,039	0,035
-629,751	-200,000	0,004	0,055
-628,736	-17,893	-0,110	0,050
-627,722	-131,839	-0,037	-0,003
-626,707	89,578	-0,032	0,026
-625,692	800,000	-0,039	0,098
-624,678	-72,816	0,057	-0,015
-623,663	-152,199	0,042	0,002
-622,649	67,626	-0,142	0,105
-621,634	-155,042	-0,086	-0,004
-620,619	487,652	0,083	-0,138
-619,605	-200,000	0,010	-0,077
-618,590	-200,000	0,003	-0,087
-617,576	45,087	-0,033	-0,022
-616,561	-48,195	-0,056	-0,019
-615,546	800,000	-0,080	-0,162
-614,532	-200,000	-0,017	-0,082
-613,517	800,000	-0,016	-0,040
-612,503	-61,759	0,060	-0,018
-611,488	69,848	0,037	0,028
-610,474	-200,000	0,016	0,102
-609,459	208,939	-0,060	0,068
-608,444	310,879	-0,078	0,106
-607,430	-101,823	-0,115	-0,020
-606,415	-22,400	0,065	-0,028
-605,401	-138,930	-0,120	-0,009
-604,386	151,523	0,025	-0,025
-603,371	-147,186	0,066	0,004
-602,357	245,930	0,100	0,122
-601,342	29,104	0,080	-0,049
-600,328	-96,711	-0,095	0,018
-599,313	33,083	-0,097	-0,061
-598,298	-200,000	0,030	0,144
-597,284	-74,995	0,098	-0,025
-596,269	-62,744	0,015	0,004
-595,255	800,000	-0,058	-0,160
-594,240	-63,867	-0,103	-0,030
-593,225	309,625	0,019	0,026
-592,211	433,025	-0,043	-0,067
-591,196	-200,000	-0,000	-0,080
-590,182	-92,522	0,037	0,008
-589,167	800,000	0,062	0,142
-588,152	178,287	0,071	0,075
-587,138	-165,151	0,032	-0,001
-586,123	-32,102	0,033	-0,013
-585,109	-200,000	0,045	-0,147
-584,094	-200,000	-0,012	-0,043
-583,079	171,930	0,073	0,076
-582,065	-143,684	0,044	0,003
-581,050	236,684	0,059	-0,071
-580,036	76,352	0,049	0,038
-579,021	647,650	-0,076	-0,140
-578,006	-47,951	-0,045	-0,016
-576,992	-200,000	-0,021	-0,075
-575,977	-200,000	-0,009	0,032
-574,963	800,000	0,009	0,025
-573,948	-200,000	-0,040	0,146
-572,934	256,941	-0,027	-0,034
-571,919	496,334	-0,032	-0,053
-570,904	229,717	-0,078	0,092
-569,890	800,000	0,051	-0,133
-568,875	608,299	-0,119	0,216
-567,861	-200,000	0,016	-0,093
-566,846	324,049	0,023	-0,031
-565,831	49,366	0,016	0,011
-564,817	317,932	0,102	-0,139
-563,802	-113,923	-0,084	-0,012
-562,788	-111,852	0,160	0,023
-561,773	357,802	0,094	-0,135
-560,758	-200,000	0,013	0,055
-559,744	-200,000	-0,011	-0,089
-558,729	563,610	0,030	-0,053
-557,715	-200,000	0,041	0,141
-556,700	-200,000	0,016	-0,072
-555,685	461,362	-0,035	0,057
-554,671	-51,251	0,086	0,029
-553,656	800,000	0,010	-0,025
-552,642	-17,392	-0,144	-0,065
-551,627	282,287	-0,036	0,046
-550,612	436,679	-0,045	0,072
-549,598	800,000	-0,083	-0,167
-548,583	308,707	-0,008	0,011
-547,569	3,457	0,103	0,054
-546,554	698,504	0,066	0,125
-545,539	728,748	0,062	0,121
-544,525	44,877	-0,060	0,040
-543,510	56,990	0,031	0,021
-542,496	-118,662	-0,078	-0,010
-541,481	246,335	0,048	0,058
-540,466	-25,533	0,112	-0,047
-539,452	800,000	-0,053	-0,139
-538,437	-64,732	0,112	0,032
-537,423	339,697	0,098	-0,139
-536,408	800,000	0,040	-0,084
-535,393	105,230	-0,072	-0,061
-534,379	211,501	0,051	-0,058
-533,364	611,864	0,032	0,057
-532,350	-200,000	-0,027	0,086
-531,335	800,000	0,054	0,117
-530,321	112,528	0,051	-0,044
-529,306	-152,258	0,079	-0,004
-528,291	72,326	-0,131	0,098
-527,277	50,412	-0,098	-0,067
-526,262	-68,014	-0,117	-0,033
-525,248	344,990	0,020	0,028
-524,233	-130,469	0,047	-0,005
-523,218	-200,000	-0,010	0,100
-522,204	-200,000	0,004	-0,104
-521,189	800,000	0,010	0,023
-520,175	-140,636	-0,141	0,010
-519,160	-200,000	0,003	-0,043
-518,145	-200,000	0,024	0,110
-517,131	-84,500	0,041	-0,009
-516,116	-100,573	-0,038	0,007
-515,102	733,927	-0,020	-0,038
-514,087	322,012	-0,088	0,121
-513,072	-130,662	-0,008	-0,001
-512,058	417,452	-0,015	0,023
-511,043	564,221	0,044	0,077
-510,029	427,669	0,100	-0,156
-509,014	-200,000	0,003	0,030
-507,999	-33,178	-0,077	0,031
-506,985	-165,168	0,120	0,004
-505,970	119,937	-0,110	-0,098
-504,956	-13,842	-0,092	-0,043
-503,941	-200,000	0,009	-0,114
-502,926	-48,137	0,078	-0,027
-501,912	-37,142	0,095	-0,037
-500,897	287,250	-0,026	0,034
-499,883	-200,000	-0,012	0,040
-498,868	-59,457	-0,068	0,021
-497,853	-200,000	0,005	-0,043
-496,839	-81,669	-0,094	-0,022
-495,824	-106,587	0,149	-0,024
-494,810	-91,064	-0,080	0,016
-493,795	-200,000	0,015	-0,092
-492,781	401,790	-0,088	0,134
-491,766	592,405	-0,034	-0,061
-490,751	800,000	-0,041	-0,124
-489,737	795,267	0,009	-0,017
-488,722	-200,000	0,040	0,155
-487,708	514,702	-0,045	0,076
-486,693	-35,113	0,037	0,015
-485,678	-200,000	-0,028	-0,157
-484,664	224,353	-0,026	0,030
-483,649	366,324	0,082	0,119
-482,635	-120,473	-0,066	-0,008
-481,620	-200,000	0,009	0,084
-480,605	-122,100	0,056	-0,007
-479,591	36,457	0,078	0,050
-478,576	50,350	0,048	-0,033
-477,562	222,503	-0,056	-0,065
-476,547	209,805	-0,042	0,047
-475,532	473,390	0,071	-0,116
-474,518	800,000	0,050	-0,143
-473,503	-115,618	0,063	-0,008
-472,489	-200,000	0,005	-0,019
-471,474	-26,323	-0,114	0,048
-470,459	-200,000	0,002	0,096
-469,445	229,875	-0,071	-0,084
-468,430	-114,988	0,060	0,008
-467,416	-116,040	-0,039	0,005
-466,401	-200,000	0,016	0,151
-465,386	-121,732	0,158	0,019
-464,372	-200,000	0,014	0,069
-463,357	144,166	-0,134	0,129
-462,343	-103,779	-0,072	-0,012
-461,328	22,927	-0,078	-0,046
-460,313	567,275	-0,033	-0,059
-459,299	374,765	0,057	0,084
-458,284	-14,008	0,124	-0,058
-457,270	-55,145	-0,021	-0,007
-456,255	235,253	-0,079	-0,094
-455,241	-14,424	-0,118	0,054
-454,226	647,180	-0,027	0,051
-453,211	-200,000	-0,010	0,057
-452,197	-200,000	-0,003	0,030
-451,182	-22,757	0,077	0,033
-450,168	120,238	-0,085	0,076
-449,153	-31,799	0,075	0,030
-448,138	5,251	-0,121	-0,064
-447,124	478,755	0,051	0,083
-446,109	-156,907	-0,104	0,004
-445,095	88,440	0,038	0,030
-444,080	-200,000	0,014	-0,069
-443,065	800,000	0,042	0,119
-442,051	24,016	-0,090	0,053
-441,036	-200,000	0,015	-0,067
-440,022	193,084	-0,022	0,024
-439,007	-200,000	0,012	0,044
-437,992	-23,191	-0,131	0,056
-436,978	-6,537	-0,080	-0,039
-435,963	-108,769	-0,081	-0,012
-434,949	-0,785	-0,025	0,013
-433,934	473,653	-0,063	-0,103
-432,919	800,000	-0,061	-0,178
-431,905	229,829	-0,049	0,058
-430,890	-48,189	-0,098	0,034
-429,876	-122,775	0,099	-0,011
-428,861	9,632	-0,067	0,037
-427,846	37,779	0,077	-0,049
-426,832	-200,000	-0,008	-0,070
-425,817	800,000	0,047	0,136
-424,803	800,000	0,078	0,157
-423,788	202,536	0,111	-0,123
-422,773	800,000	0,032	-0,098
-421,759	241,106	0,060	-0,072
-420,744	800,000	0,057	-0,125
-419,730	87,277	-0,060	0,048
-418,715	-155,479	-0,052	0,002
-417,701	-86,663	-0,105	-0,023
-416,686	800,000	0,032	0,085
-415,671	-103,921	0,113	-0,019
-414,657	274,614	-0,029	0,037
-413,642	-103,730	0,159	-0,027
-412,628	-200,000	0,008	-0,084
-411,613	318,301	-0,056	-0,076
-410,598	35,892	0,051	-0,032
-409,584	211,763	0,076	-0,086
-408,569	47,131	0,078	-0,052
-407,555	-19,814	0,115	-0,051
-406,540	106,385	-0,012	0,010
-405,525	76,151	-0,117	-0,089
-404,511	721,114	-0,044	-0,084
-403,496	-200,000	-0,002	-0,130
-402,482	-200,000	0,020	0,074
-401,467	-177,936	0,023	0,000
-400,452	-200,000	0,003	-0,018
-399,438	-200,000	-0,026	0,117
-398,423	237,202	0,073	0,087
-397,409	-152,656	0,057	0,003
-396,394	-200,000	0,018	0,092
-395,379	800,000	0,005	0,014
-394,365	-75,248	0,062	-0,016
-393,350	739,893	0,048	0,093
-392,336	-110,636	0,059	0,009
-391,321	-107,466	-0,324	-0,050
-390,306	-100,694	-0,103	0,018
-389,292	-200,000	-0,043	-0,199
-388,277	800,000	0,034	-0,076
-387,263	234,789	-0,032	-0,038
-386,248	13,197	0,054	-0,030
-385,233	-200,000	-0,012	-0,065
-384,219	-71,223	0,037	0,010
-383,204	-77,304	-0,182	-0,045
-382,190	100,053	0,068	0,056
-381,175	-200,000	0,035	-0,117
-380,160	-33,657	0,031	-0,012
-379,146	774,303	-0,025	0,050
-378,131	-200,000	-0,006	-0,053
-377,117	-158,884	0,058	-0,002
-376,102	-26,893	-0,036	-0,015
-375,088	800,000	-0,018	0,049
-374,073	-78,830	-0,034	-0,008
-373,058	800,000	0,043	0,093
-372,044	39,695	0,151	0,097
-371,029	38,331	-0,074	-0,047
-370,015	-200,000	-0,003	0,150
-369,000	73,335	0,095	-0,071
-367,985	800,000	0,008	0,017
-366,971	-200,000	0,007	-0,032
-365,956	-2,930	0,027	-0,013
-364,942	-29,333	0,091	-0,037
-363,927	-23,174	-0,072	0,031
-362,912	-119,551	-0,082	-0,010
-361,898	149,051	0,014	0,014
-360,883	246,181	-0,011	-0,014
-359,869	62,624	-0,087	0,063
-358,854	-11,688	0,023	0,011
-357,839	239,001	0,003	0,004
-356,825	636,152	-0,056	0,101
-355,810	-128,612	-0,106	-0,011
-354,796	279,098	0,060	-0,077
-353,781	1,133	-0,105	-0,054
-352,766	46,835	0,073	-0,048
-351,752	800,000	0,046	-0,110
-350,737	-135,222	0,128	0,011
-349,723	-200,000	0,004	0,014
-348,708	-22,382	0,095	0,041
-347,693	421,658	-0,046	0,071
-346,679	-200,000	0,026	-0,179
-345,664	-200,000	-0,008	-0,089
-344,650	55,313	0,061	0,042
-343,635	-162,181	0,110	0,004
-342,620	800,000	0,061	0,123
-341,606	-55,306	0,064	-0,021
-340,591	-200,000	0,009	-0,102
-339,577	-25,530	-0,099	-0,042
-338,562	357,118	-0,029	-0,041
-337,548	-200,000	0,022	0,124
-336,533	350,305	0,114	0,162
-335,518	295,986	-0,066	0,087
-334,504	603,522	-0,054	0,096
-333,489	-200,000	-0,023	0,090
-332,475	-32,420	-0,078	0,031
-331,460	-200,000	0,012	-0,149
-330,445	-110,431	0,094	0,014
-329,431	178,012	0,099	-0,103
-328,416	-200,000	-0,009	-0,208
-327,402	-134,973	0,067	0,006
-326,387	291,644	-0,091	-0,118
-325,372	717,516	-0,024	0,046
-324,358	-37,333	0,039	0,015
-323,343	31,389	-0,101	-0,062
-322,329	108,867	0,055	0,047
-321,314	5,504	0,038	0,020
-320,299	-200,000	-0,020	-0,094
-319,285	-111,942	0,167	-0,024
-318,270	248,838	-0,060	-0,072
-317,256	-41,675	-0,093	0,034
-316,241	77,786	-0,102	-0,078
-315,226	-69,442	0,068	0,019
-314,212	-200,000	0,026	-0,086
-313,197	115,582	0,039	-0,034
-312,183	-70,476	0,119	-0,032
-311,168	159,538	-0,140	-0,139
-310,153	-200,000	0,024	-0,107
-309,139	345,053	-0,076	-0,108
-308,124	-128,324	0,064	0,006
-307,110	44,571	0,160	0,105
-306,095	-95,810	0,121	0,023
-305,080	-200,000	0,029	0,118
-304,066	800,000	0,003	-0,006
-303,051	-103,897	0,118	0,020
-302,037	156,490	-0,076	0,075
-301,022	-86,057	-0,177	0,039
-300,008	-50,590	0,087	0,029
-298,993	95,843	-0,143	-0,117
-297,978	-21,331	-0,070	-0,030
-296,964	-44,484	0,112	0,040
-295,949	158,680	-0,063	-0,062
-294,935	-200,000	0,000	-0,072
-293,920	-162,829	0,172	0,006
-292,905	-106,900	0,012	0,002
-291,891	133,416	0,057	0,053
-290,876	161,270	0,054	0,054
-289,862	383,445	0,087	-0,129
-288,847	-200,000	0,031	-0,117
-287,832	-200,000	-0,004	-0,123
-286,818	227,650	0,084	-0,097
-285,803	65,728	0,087	0,063
-284,789	-155,263	-0,128	-0,006
-283,774	251,387	0,047	-0,057
-282,759	41,459	-0,062	-0,040
-281,745	-34,826	-0,186	0,072
-280,730	173,765	-0,067	-0,069
-279,716	165,189	0,096	-0,096
-278,701	800,000	0,051	-0,107
-277,686	-200,000	0,009	0,161
-276,672	103,301	-0,146	0,122
-275,657	-146,088	0,060	-0,004
-274,643	-47,602	-0,089	0,031
-273,628	800,000	-0,033	0,079
-272,613	-135,349	-0,110	0,009
-271,599	800,000	-0,046	0,115
-270,584	-144,208	0,131	0,009
-269,570	96,008	-0,029	0,024
-268,555	-2,521	0,073	0,036
-267,540	53,675	0,057	-0,039
-266,526	-13,595	-0,045	0,021
-265,511	-93,657	0,151	-0,030
-264,497	697,121	0,029	0,054
-263,482	-200,000	0,011	0,095
-262,467	17,954	0,087	-0,049
-261,453	29,742	-0,071	0,043
-260,438	232,593	0,025	0,030
-259,424	50,141	-0,109	-0,073
-258,409	800,000	-0,036	-0,102
-257,395	12,859	0,066	-0,036
-256,380	-36,527	0,105	-0,040
-255,365	-144,679	0,058	0,004
-254,351	289,401	-0,088	0,114
-253,336	-9,999	0,102	-0,048
-252,322	-200,000	-0,004	-0,084
-251,307	800,000	-0,008	0,019
-250,292	82,081	-0,044	-0,034
-249,278	-12,134	-0,090	0,042
-248,263	-200,000	0,011	0,075
-247,249	-200,000	-0,006	0,082
-246,234	-200,000	0,037	-0,215
-245,219	143,146	-0,115	-0,109
-244,205	146,483	0,122	-0,117
-243,190	315,466	-0,077	0,103
-242,176	134,823	-0,053	0,049
-241,161	26,237	0,054	0,032
-240,146	87,793	0,100	0,079
-239,132	-21,084	0,087	-0,038
-238,117	800,000	-0,014	0,043
-237,103	174,591	0,072	-0,074
-236,088	63,450	0,051	-0,036
-235,073	800,000	0,021	0,043
-234,059	173,943	0,074	0,076
-233,044	-97,169	-0,021	0,004
-232,030	800,000	0,032	0,094
-231,015	287,072	-0,031	-0,040
-230,000	-200,000	-0,018	-0,072
-228,986	20,791	-0,063	-0,036
-227,971	-31,696	-0,077	-0,031
-226,957	-200,000	-0,020	0,159
-225,942	222,909	0,065	0,074
-224,927	339,109	-0,012	0,017
-223,913	-148,289	-0,112	0,006
-222,898	-200,000	-0,021	-0,077
-221,884	-52,732	-0,114	0,037
-220,869	220,335	0,036	-0,041
-219,855	-122,997	0,168	0,019
-218,840	-10,488	-0,119	-0,056
-217,825	-200,000	-0,037	0,169
-216,811	-15,173	0,101	0,046
-215,796	17,668	-0,107	-0,060
-214,782	-62,635	-0,099	-0,029
-213,767	-112,620	-0,117	-0,016
-212,752	203,708	0,074	0,082
-211,738	478,520	-0,086	0,140
-210,723	-91,373	-0,067	-0,014
-209,709	800,000	0,017	-0,052
-208,694	-64,780	-0,085	0,024
-207,679	-75,620	0,039	-0,010
-206,665	4,510	-0,214	0,111
-205,650	33,851	0,086	0,053
-204,636	-200,000	0,036	0,208
-203,621	-117,153	0,136	0,017
-202,606	-59,136	0,063	0,019
-201,592	-130,972	0,098	-0,009
-200,577	-8,648	0,097	0,046
-199,563	800,000	-0,061	0,126
-198,548	-200,000	-0,006	0,045
-197,533	800,000	0,048	0,123
-196,519	28,252	0,063	-0,038
-195,504	-138,304	-0,075	0,006
-194,490	530,110	-0,059	-0,100
-193,475	-200,000	0,011	-0,092
-192,460	12,703	0,098	0,054
-191,446	800,000	0,011	0,031
-190,431	-102,833	-0,078	0,013
-189,417	696,416	0,097	0,183
-188,402	-55,844	-0,098	-0,031
-187,387	-104,157	-0,096	-0,016
-186,373	710,594	-0,047	0,089
-185,358	-39,668	0,162	0,060
-184,344	203,949	-0,044	0,049
-183,329	354,407	0,090	0,128
-182,315	-200,000	-0,004	0,040
-181,300	-20,471	-0,080	-0,035
-180,285	302,116	-0,034	0,045
-179,271	-92,856	-0,144	-0,028
-178,256	800,000	0,039	0,111
-177,242	46,003	-0,142	0,094
-176,227	169,083	-0,056	0,057
-175,212	-200,000	0,010	0,055
-174,198	3,887	-0,074	0,038
-173,183	379,274	-0,051	0,075
-172,169	-200,000	-0,028	0,092
-171,154	-200,000	-0,022	-0,088
-170,139	-52,637	0,107	-0,035
-169,125	-115,020	-0,164	-0,022
-168,110	288,271	0,047	0,061
-167,096	-106,458	-0,127	0,020
-166,081	-200,000	-0,012	-0,097
-165,066	-2,026	-0,078	-0,039
-164,052	800,000	-0,025	-0,068
-163,037	407,170	0,045	0,068
-162,023	180,283	0,024	0,025
-161,008	124,126	0,051	0,045
-159,993	-129,708	0,029	0,003
-158,979	247,239	-0,070	-0,085
-157,964	-52,704	0,029	0,010
-156,950	-74,137	0,091	0,023
-155,935	-200,000	-0,005	0,104
-154,920	-93,997	0,093	-0,018
-153,906	-200,000	-0,019	0,075
-152,891	800,000	0,044	-0,133
-151,877	253,863	0,042	-0,051
-150,862	289,583	0,063	-0,082
-149,847	-200,000	-0,012	-0,058
-148,833	-65,920	0,024	-0,007
-147,818	165,915	-0,071	0,072
-146,804	208,139	0,088	0,098
-145,789	-200,000	0,001	0,030
-144,775	-194,916	-0,024	-0,000
-143,760	800,000	0,033	-0,087
-142,745	114,269	-0,055	0,047
-141,731	-47,266	-0,078	0,027
-140,716	800,000	-0,039	0,086
-139,702	-89,566	-0,056	0,012
-138,687	-52,620	0,062	0,020
-137,672	228,485	-0,026	-0,031
-136,658	616,577	-0,048	-0,086
-135,643	800,000	-0,013	0,038
-134,629	376,989	0,023	0,033
-133,614	-200,000	-0,004	0,079
-132,599	33,884	0,091	0,056
-131,585	-39,533	-0,102	0,038
-130,570	-39,170	-0,035	0,013
-129,556	11,842	0,091	-0,050
-128,541	-160,715	-0,152	-0,006
-127,526	72,571	0,061	0,045
-126,512	139,544	0,013	0,013
-125,497	-200,000	0,001	0,090
-124,483	-145,724	0,106	-0,007
-123,468	791,201	0,072	-0,141
-122,453	-200,000	0,009	-0,121
-121,439	-200,000	0,005	0,046
-120,424	173,547	-0,060	-0,062
-119,410	-45,366	-0,143	-0,050
-118,395	447,963	0,064	0,100
-117,380	-70,007	0,061	0,016
-116,366	-200,000	0,008	-0,181
-115,351	104,389	-0,010	0,009
-114,337	375,466	0,059	-0,086
-113,322	800,000	0,063	-0,153
-112,307	38,517	-0,057	-0,036
-111,293	-32,952	0,135	-0,053
-110,278	186,283	0,056	-0,059
-109,264	-107,882	-0,119	0,018
-108,249	-111,845	-0,158	-0,022
-107,234	9,039	-0,116	-0,062
-106,220	-200,000	0,039	-0,146
-105,205	-200,000	-0,006	-0,049
-104,191	137,757	0,104	0,097
-103,176	34,059	0,154	0,095
-102,162	444,377	0,027	-0,042
-101,147	-51,128	0,039	0,013
-100,132	258,585	-0,084	0,103
-99,118	-80,962	-0,085	0,020
-98,103	800,000	0,074	0,153
-97,089	652,624	0,029	-0,052
-96,074	11,114	0,080	0,044
-95,059	234,108	0,066	-0,078
-94,045	-48,772	-0,073	0,025
-93,030	138,440	0,066	-0,062
-92,016	-36,900	0,042	-0,016
-91,001	336,377	0,062	0,086
-89,986	73,840	0,190	0,141
-88,972	423,178	0,106	0,163
-87,957	-151,237	0,118	0,006
-86,943	-78,429	-0,063	0,015
-85,928	-200,000	0,025	-0,130
-84,913	-3,087	-0,049	-0,024
-83,899	34,513	0,048	0,030
-82,884	-200,000	-0,005	0,076
-81,870	-21,062	0,037	0,016
-80,855	-7,723	-0,166	0,079
-79,840	-1,064	0,027	0,013
-78,826	-114,725	-0,038	0,005
-77,811	-200,000	-0,001	-0,131
-76,797	-200,000	-0,016	-0,056
-75,782	-200,000	0,021	0,134
-74,767	144,026	0,082	0,077
-73,753	800,000	0,025	0,069
-72,738	-200,000	0,016	0,115
-71,724	-63,789	0,013	0,004
-70,709	-131,132	-0,033	0,003
-69,694	58,779	-0,119	0,083
-68,680	352,480	0,075	0,105
-67,665	-60,882	0,068	-0,020
-66,651	200,232	-0,079	0,086
-65,636	-22,322	-0,048	0,021
-64,622	668,261	-0,045	0,082
-63,607	160,662	-0,020	-0,020
-62,592	-158,474	0,058	0,002
-61,578	-71,585	0,149	0,039
-60,563	56,161	-0,024	0,016
-59,549	800,000	-0,068	0,179
-58,534	-4,562	-1,591	-0,775
-57,519	354,325	-1,442	-2,035
-56,505	-200,000	-0,412	-4,505
-55,490	194,013	0,960	1,031
-54,476	800,000	4,977	11,496
-53,461	-200,000	19,080	319,818
-52,446	-200,000	740,563	2334,512
-51,432	573,404	1655,471	2869,353
-50,417	78,245	1671,116	1261,788
-49,403	21,269	1544,143	885,637
-48,388	15,205	1466,395	811,552
-47,373	17,963	1456,681	819,475
-46,359	16,699	1446,601	807,711
-45,344	13,444	1441,967	789,497
-44,330	13,371	1439,739	787,893
-43,315	13,387	1438,135	787,063
-42,300	13,401	1436,660	786,290
-41,286	13,421	1435,370	785,650
-40,271	13,327	1434,243	784,551
-39,257	13,334	1432,978	783,862
-38,242	13,421	1431,418	783,391
-37,227	13,379	1430,343	782,571
-36,213	13,401	1428,969	781,893
-35,198	13,424	1427,711	781,284
-34,184	13,441	1426,926	780,905
-33,169	13,374	1425,705	779,886
-32,154	13,479	1424,214	779,541
-31,140	13,472	1423,165	778,901
-30,125	13,444	1422,022	778,113
-29,111	13,426	1421,059	777,467
-28,096	13,437	1419,799	776,799
-27,082	13,306	1419,029	775,730
-26,067	13,369	1417,659	775,245
-25,052	13,314	1416,496	774,323
-24,038	13,346	1415,395	773,837
-23,023	13,366	1414,274	773,291
-22,009	13,350	1413,331	772,668
-20,994	13,346	1412,524	772,179
-19,979	13,303	1411,535	771,403
-18,965	13,277	1410,846	770,877
-17,950	13,255	1409,838	770,191
-16,936	13,267	1409,120	769,824
-15,921	13,218	1407,863	768,878
-14,906	13,250	1407,054	768,557
-13,892	13,298	1405,901	768,121
-12,877	13,238	1405,031	767,333
-11,863	13,286	1404,059	766,996
-10,848	13,235	1403,449	766,394
-9,833	13,223	1402,506	765,795
-8,819	13,171	1401,727	765,095
-7,804	13,135	1400,755	764,366
-6,790	13,141	1399,665	763,772
-5,775	13,141	1398,733	763,232
-4,760	13,174	1397,430	762,643
-3,746	13,157	1396,867	762,226
-2,731	13,159	1396,036	761,752
-1,717	13,082	1395,245	760,932
-0,702	13,138	1393,277	760,089
0,313	16,921	1310,187	732,306
1,327	33,181	703,906	431,029
2,342	51,357	123,272	82,691
3,356	2,366	16,679	8,510
4,371	-4,853	3,219	1,564
5,386	53,115	0,471	0,319
6,400	-200,000	0,008	0,214
7,415	40,815	-0,247	-0,157
8,429	265,697	-0,255	-0,315
9,444	56,360	-0,310	-0,212
10,459	70,355	-0,325	-0,237
11,473	-120,357	-0,362	-0,043
12,488	160,975	-0,207	-0,204
13,502	5,881	-0,388	-0,202
14,517	-66,011	-0,433	-0,121
15,531	-68,494	-0,448	-0,122
16,546	187,501	-0,218	-0,230
17,561	66,112	-0,359	-0,257
18,575	37,617	-0,258	-0,162
19,590	664,528	-0,150	-0,274
20,604	34,698	-0,304	-0,187
21,619	47,836	-0,357	-0,235
22,634	183,829	-0,375	-0,393
23,648	48,810	-0,484	-0,320
24,663	59,526	-0,463	-0,322
25,677	118,980	-0,299	-0,261
26,692	230,644	-0,374	-0,433
27,707	222,012	-0,248	-0,282
28,721	-54,564	-0,276	-0,088
29,736	318,943	-0,249	-0,334
30,750	131,694	-0,437	-0,397
31,765	137,058	-0,362	-0,334
32,780	68,544	-0,466	-0,337
33,794	86,936	-0,361	-0,281
34,809	-4,922	-0,346	-0,168
35,823	5,375	-0,470	-0,244
36,838	64,470	-0,384	-0,272
37,853	300,778	-0,243	-0,317
38,867	-32,806	-0,373	-0,146
39,882	265,743	-0,288	-0,355
40,896	126,504	-0,289	-0,258
41,911	100,845	-0,226	-0,185
42,926	-42,333	-0,313	-0,112
43,940	104,563	-0,349	-0,290
44,955	27,287	-0,455	-0,269
45,969	-19,090	-0,384	-0,167
46,984	-0,259	-0,393	-0,196
47,999	-15,758	-0,346	-0,155
49,013	7,555	-0,321	-0,169
50,028	212,658	-0,219	-0,244
51,042	-2,292	-0,399	-0,197
52,057	198,956	-0,315	-0,340
53,071	87,724	-0,449	-0,350
54,086	13,848	-0,397	-0,217
55,101	43,011	-0,348	-0,223
56,115	116,803	-0,335	-0,289
57,130	-15,888	-0,360	-0,161
58,144	4,651	-0,456	-0,235
59,159	213,829	-0,355	-0,396
60,174	32,979	-0,386	-0,235
61,188	-38,150	-0,265	-0,099
62,203	0,808	-0,299	-0,150
63,217	2,440	-0,445	-0,226
64,232	9,519	-0,341	-0,181
65,247	7,163	-0,360	-0,189
66,261	164,747	-0,394	-0,392
67,276	180,974	-0,349	-0,361
68,290	-59,495	-0,295	-0,089
69,305	154,628	-0,299	-0,289
70,320	-114,592	-0,274	-0,037
71,334	35,521	-0,313	-0,193
72,349	17,109	-0,468	-0,260
73,363	0,679	-0,396	-0,198
74,378	482,368	-0,226	-0,362
75,393	125,526	-0,298	-0,264
76,407	197,020	-0,177	-0,190
77,422	-43,706	-0,310	-0,109
78,436	118,237	-0,225	-0,195
79,451	-3,896	-0,397	-0,193
80,466	58,174	-0,306	-0,210
81,480	-54,495	-0,356	-0,112
82,495	142,494	-0,315	-0,294
83,509	205,935	-0,162	-0,178
84,524	-77,704	-0,197	-0,047
85,539	-35,859	-0,258	-0,097
86,553	92,140	-0,240	-0,190
87,568	-118,726	-0,253	-0,031
88,582	62,707	-0,278	-0,195
89,597	142,250	-0,230	-0,214
90,611	125,237	-0,232	-0,206
91,626	162,599	-0,227	-0,223
92,641	-131,253	-0,308	0,028
93,655	-65,185	-0,416	-0,117
94,670	15,524	-0,404	-0,222
95,684	85,588	-0,306	-0,236
96,699	274,167	-0,195	-0,242
97,714	89,901	-0,355	-0,278
98,728	346,600	-0,219	-0,302
99,743	63,251	-0,225	-0,158
100,757	-71,732	-0,317	-0,082
101,772	26,498	-0,342	-0,200
102,787	186,981	-0,238	-0,249
103,801	-62,517	-0,305	-0,088
104,816	108,264	-0,261	-0,218
105,830	20,529	-0,314	-0,177
106,845	53,649	-0,241	-0,162
107,860	59,714	-0,313	-0,216
108,874	75,838	-0,316	-0,234
109,889	211,048	-0,307	-0,339
110,903	-6,929	-0,411	-0,195
111,918	-48,876	-0,249	-0,083
112,933	96,262	-0,210	-0,168
113,947	146,779	-0,242	-0,228
114,962	41,235	-0,219	-0,139
115,976	-60,686	-0,166	-0,049
116,991	-49,350	-0,274	-0,091
118,006	53,416	-0,375	-0,252
119,020	46,310	-0,289	-0,187
120,035	35,504	-0,201	-0,123
121,049	80,659	-0,176	-0,133
122,064	-74,995	-0,126	-0,031
123,079	-48,930	-0,334	-0,111
124,093	217,019	-0,215	-0,240
125,108	249,055	-0,190	-0,226
126,122	447,393	-0,138	-0,213
127,137	47,144	-0,218	-0,142
128,151	249,052	-0,176	-0,209
129,166	-75,306	-0,228	-0,056
130,181	-15,672	-0,222	-0,099
131,195	74,462	-0,297	-0,219
132,210	201,104	-0,180	-0,194
133,224	152,115	-0,163	-0,156
134,239	150,519	-0,276	-0,262
135,254	-77,728	-0,239	-0,057
136,268	-3,217	-0,340	-0,165
137,283	340,048	-0,139	-0,191
138,297	130,812	-0,191	-0,171
139,312	126,625	-0,261	-0,231
140,327	70,795	-0,275	-0,199
141,341	-82,968	-0,253	-0,057
142,356	131,991	-0,160	-0,144
143,370	-200,000	-0,355	-0,000
144,385	7,056	-0,315	-0,164
145,400	3,264	-0,226	-0,115
146,414	13,726	-0,291	-0,158
147,429	72,581	-0,278	-0,202
148,443	-5,973	-0,303	-0,144
149,458	85,000	-0,180	-0,138
150,473	32,465	-0,209	-0,126
151,487	110,626	-0,204	-0,172
152,502	32,298	-0,297	-0,179
153,516	10,558	-0,293	-0,155
154,531	111,895	-0,244	-0,205
155,546	-69,395	-0,287	-0,076
156,560	103,643	-0,124	-0,101
157,575	114,646	-0,129	-0,109
158,589	22,981	-0,217	-0,124
159,604	120,118	-0,193	-0,167
160,619	-75,398	-0,319	-0,079
161,633	-16,444	-0,262	-0,115
162,648	658,754	-0,087	-0,156
163,662	113,399	-0,177	-0,150
164,677	15,727	-0,243	-0,133
165,692	195,935	-0,208	-0,221
166,706	124,230	-0,263	-0,231
167,721	297,630	-0,215	-0,276
168,735	113,886	-0,379	-0,322
169,750	800,000	-0,077	-0,230
170,764	331,605	-0,188	-0,253
171,779	-200,000	0,020	-0,107
172,794	47,845	-0,164	-0,107
173,808	59,415	-0,275	-0,189
174,823	-42,893	-0,386	-0,136
175,837	-90,120	-0,347	-0,070
176,852	27,307	-0,226	-0,132
177,867	-153,228	-0,269	-0,013
178,881	149,841	-0,120	-0,114
179,896	-26,978	-0,285	-0,115
180,910	-75,117	-0,327	-0,081
181,925	268,174	-0,164	-0,200
182,940	-15,582	-0,315	-0,139
183,954	64,132	-0,268	-0,187
184,969	-9,024	-0,238	-0,110
185,983	-200,000	-0,026	-0,136
186,998	95,101	-0,164	-0,130
188,013	183,351	-0,144	-0,148
189,027	63,489	-0,202	-0,141
190,042	76,791	-0,190	-0,140
191,056	-7,735	-0,194	-0,091
192,071	1,261	-0,167	-0,083
193,086	36,659	-0,221	-0,135
194,100	125,245	-0,096	-0,084
195,115	-47,549	-0,250	-0,084
196,129	312,379	-0,145	-0,190
197,144	-40,680	-0,302	-0,108
198,159	575,967	-0,120	-0,205
199,173	152,130	-0,059	0,056
200,188	-78,250	-0,204	-0,048
201,202	-7,763	-0,130	-0,061
202,217	800,000	-0,103	-0,207
203,232	160,144	-0,217	-0,211
204,246	96,350	-0,222	-0,176
205,261	393,747	-0,177	-0,257
206,275	60,808	-0,111	-0,076
207,290	-120,257	-0,230	-0,027
208,304	75,427	-0,113	-0,082
209,319	111,297	-0,171	-0,143
210,334	230,046	-0,189	-0,214
211,348	120,689	-0,278	-0,240
212,363	97,239	-0,156	-0,124
213,377	260,287	-0,115	-0,138
214,392	74,488	-0,128	-0,093
215,407	-200,000	-0,027	-0,173
216,421	244,280	-0,113	-0,132
217,436	60,463	-0,197	-0,135
218,450	685,360	-0,159	-0,290
219,465	-50,024	-0,224	-0,073
220,480	98,887	-0,203	-0,163
221,494	214,664	-0,137	-0,151
222,509	-91,477	-0,241	-0,047
223,523	428,148	-0,145	-0,218
224,538	88,238	-0,183	-0,141
225,553	129,684	-0,185	-0,164
226,567	639,585	-0,139	-0,247
227,582	-34,970	-0,151	-0,057
228,596	173,097	-0,150	-0,150
229,611	438,807	-0,154	-0,233
230,626	32,139	-0,163	-0,097
231,640	96,743	-0,157	-0,125
232,655	-11,915	-0,213	-0,096
233,669	77,473	-0,253	-0,186
234,684	-86,173	-0,123	0,026
235,699	41,871	-0,295	-0,185
236,713	-68,784	-0,095	-0,025
237,728	800,000	-0,038	-0,076
238,742	-86,679	-0,159	-0,033
239,757	-92,366	-0,201	-0,039
240,772	247,476	-0,137	-0,161
241,786	52,584	-0,210	-0,139
242,801	-24,386	-0,186	-0,076
243,815	-107,250	-0,198	-0,030
244,830	93,630	-0,176	-0,138
245,844	-72,843	-0,241	-0,061
246,859	30,454	-0,316	-0,186
247,874	800,000	-0,114	-0,263
248,888	-154,368	-0,185	-0,008
249,903	-146,183	-0,224	-0,013
250,917	-159,767	-0,133	-0,005
251,932	59,027	-0,127	-0,086
252,947	787,438	-0,080	-0,153
253,961	230,947	-0,177	-0,201
254,976	-8,779	-0,284	-0,131
255,990	-71,444	-0,238	-0,061
257,005	712,457	-0,106	-0,196
258,020	-200,000	0,009	-0,148
259,034	-60,316	-0,171	0,050
260,049	116,636	-0,202	-0,172
261,063	-28,933	-0,204	0,081
262,078	-16,028	-0,160	-0,070
263,093	800,000	-0,096	-0,274
264,107	800,000	-0,117	-0,249
265,122	-77,563	-0,154	-0,037
266,136	-36,848	-0,173	-0,064
267,151	-94,470	-0,226	-0,042
268,166	-26,914	-0,096	-0,038
269,180	38,706	-0,241	-0,148
270,195	96,563	-0,273	-0,216
271,209	30,897	-0,242	-0,143
272,224	-14,051	-0,181	-0,081
273,239	33,237	-0,141	-0,084
274,253	30,936	-0,060	0,035
275,268	-120,839	-0,233	0,027
276,282	308,697	-0,133	-0,172
277,297	-200,000	-0,038	-0,178
278,312	800,000	-0,138	-0,295
279,326	33,803	-0,188	-0,113
280,341	23,541	-0,121	-0,069
281,355	800,000	-0,054	-0,129
282,370	155,296	-0,207	-0,197
283,384	104,128	-0,187	-0,152
284,399	174,856	-0,247	-0,247
285,414	-18,814	-0,247	-0,106
286,428	-83,305	-0,212	-0,047
287,443	51,893	-0,156	-0,102
288,457	102,946	-0,149	-0,120
289,472	-145,942	-0,109	0,007
290,487	-9,735	-0,168	-0,077
291,501	152,245	-0,215	-0,202
292,516	-148,910	-0,214	-0,012
293,530	20,039	-0,130	-0,072
294,545	-174,651	-0,178	0,003
295,560	-52,452	-0,156	-0,050
296,574	-86,743	-0,078	-0,016
297,589	92,629	-0,179	-0,139
298,603	392,060	-0,175	-0,251
299,618	-97,802	-0,189	-0,033
300,633	43,316	-0,200	-0,126
301,647	660,605	-0,088	-0,157
302,662	109,795	-0,035	-0,029
303,676	376,186	-0,044	0,062
304,691	49,767	-0,200	-0,130
305,706	56,462	-0,174	-0,116
306,720	-47,193	-0,195	-0,065
307,735	-62,969	-0,178	-0,050
308,749	-169,358	-0,132	-0,003
309,764	-77,936	-0,261	-0,062
310,779	-200,000	-0,001	-0,162
311,793	-51,532	-0,123	-0,039
312,808	-129,949	-0,141	-0,013
313,822	-78,585	-0,234	-0,055
314,837	-33,043	-0,147	-0,056
315,852	800,000	-0,041	-0,122
316,866	205,387	-0,085	-0,091
317,881	766,248	-0,092	-0,172
318,895	464,645	-0,089	-0,138
319,910	-62,213	-0,181	-0,052
320,925	-126,855	-0,242	-0,024
321,939	-169,172	-0,200	-0,005
322,954	-61,832	-0,173	-0,050
323,968	800,000	0,038	0,091
324,983	800,000	-0,061	-0,159
325,997	204,028	-0,173	-0,184
327,012	-10,714	-0,184	-0,083
328,027	191,780	-0,157	-0,162
329,041	447,432	-0,087	-0,132
330,056	224,823	-0,107	-0,120
331,070	-19,129	-0,065	0,027
332,085	245,680	-0,072	-0,084
333,100	135,533	-0,158	-0,141
334,114	85,231	-0,214	-0,161
335,129	-53,900	-0,181	-0,056
336,143	-200,000	-0,100	-0,320
337,158	253,357	-0,103	-0,121
338,173	98,928	-0,122	-0,096
339,187	78,790	-0,090	0,066
340,202	800,000	-0,105	-0,242
341,216	-65,434	-0,113	-0,031
342,231	337,158	-0,064	-0,086
343,246	-200,000	0,024	-0,075
344,260	-200,000	-0,038	-0,213
345,275	800,000	-0,056	-0,107
346,289	800,000	-0,009	-0,022
347,304	800,000	-0,066	-0,145
348,319	800,000	-0,053	-0,126
349,333	170,221	-0,177	-0,174
350,348	67,244	-0,209	-0,146
351,362	229,395	-0,063	-0,071
352,377	-75,916	-0,116	0,028
353,392	-200,000	-0,001	-0,103
354,406	-86,292	-0,209	-0,044
355,421	208,966	1313,575	1412,415
356,435	160,804	1474,184	1412,906
