DTS Sentinel unit serial number:	SN410029Multiplexer serial number:	ORYXHardware model number:	OX2-SRSoftware version number:	ORYX F/W v4,00 Oryx Data Collector v3.7.2.0data status	okinstallation	B3 Nyhavnadifferential loss correction	single-endedforward channel	channel 1reverse channel	N/Adate	2023/12/04time	16:07:30forward acquisition time	300,00reverse acquisition time	0,00gamma	499,1914k internal	0,3200k external	0,3200temperature offset calibration	1,0000default loss term (dB/km)	0,3820temperature slope calibration	1,0000multiplexer offset coefficient	1,0000multiplexer slope coefficient	1,0000fibre end	0,00T internal ref (°C)	15,19T ext. ref 1 (°C)	0,35T ext. ref 2 (°C)	0,34length (m)	temperature (°C)	Stokes	anti-Stokes-744,400	591,596	-0,139	-0,251
-743,385	-200,000	-0,062	0,374
-742,371	311,346	-0,131	-0,179
-741,356	-200,000	0,018	0,237
-740,342	-183,923	-0,199	0,002
-739,327	800,000	0,110	0,340
-738,312	78,332	-0,290	-0,225
-737,298	61,135	-0,049	0,036
-736,283	171,139	-0,178	-0,186
-735,269	-200,000	0,008	0,285
-734,254	6,976	-0,277	-0,150
-733,239	60,847	-0,124	0,089
-732,225	-200,000	0,016	-0,163
-731,210	337,727	0,125	0,177
-730,196	-200,000	-0,007	-0,089
-729,181	142,410	-0,106	0,102
-728,167	800,000	-0,060	-0,165
-727,152	238,572	0,015	0,018
-726,137	201,438	-0,079	0,088
-725,123	-200,000	-0,005	-0,084
-724,108	366,576	-0,034	-0,050
-723,094	800,000	-0,061	0,134
-722,079	-198,256	-0,080	0,000
-721,064	-69,095	-0,090	-0,025
-720,050	-14,442	0,026	-0,012
-719,035	174,177	-0,117	0,123
-718,021	491,392	-0,064	-0,107
-717,006	-132,537	-0,087	-0,008
-715,991	800,000	-0,041	-0,120
-714,977	-200,000	0,012	-0,058
-713,962	-149,176	-0,051	0,003
-712,948	151,907	-0,056	0,056
-711,933	-171,549	-0,087	0,002
-710,918	-200,000	-0,005	0,048
-709,904	406,177	-0,036	-0,055
-708,889	12,450	0,012	-0,007
-707,875	40,293	-0,050	0,033
-706,860	97,946	-0,075	-0,062
-705,845	520,132	0,045	-0,076
-704,831	-17,517	-0,039	-0,018
-703,816	252,815	0,078	0,097
-702,802	-63,543	0,065	-0,019
-701,787	60,326	-0,139	-0,100
-700,772	-90,411	-0,055	-0,011
-699,758	330,086	0,054	0,075
-698,743	-90,988	0,181	-0,037
-697,729	-76,572	-0,077	0,020
-696,714	701,478	0,040	-0,076
-695,699	-200,000	0,033	-0,152
-694,685	173,075	-0,090	-0,094
-693,670	-200,000	0,014	-0,095
-692,656	-200,000	-0,000	0,031
-691,641	-39,799	0,042	0,016
-690,627	-115,018	0,115	-0,016
-689,612	-200,000	-0,004	0,021
-688,597	-4,568	-0,072	0,036
-687,583	-68,495	-0,057	0,016
-686,568	760,442	-0,015	-0,029
-685,554	155,733	-0,070	-0,070
-684,539	173,482	0,082	0,086
-683,524	137,862	0,014	0,014
-682,510	-81,415	-0,130	-0,031
-681,495	210,345	-0,055	-0,063
-680,481	800,000	-0,035	-0,090
-679,466	-200,000	0,023	-0,112
-678,451	-200,000	-0,022	0,115
-677,437	-200,000	0,036	0,122
-676,422	800,000	0,036	0,098
-675,408	266,632	0,060	-0,077
-674,393	-97,151	0,055	-0,010
-673,378	66,166	-0,144	-0,106
-672,364	-200,000	0,002	-0,119
-671,349	800,000	-0,092	-0,184
-670,335	57,730	0,155	-0,110
-669,320	97,414	0,027	-0,023
-668,305	184,740	-0,099	0,107
-667,291	-73,650	-0,040	-0,011
-666,276	33,727	0,088	0,056
-665,262	-107,815	0,057	0,009
-664,247	-200,000	0,000	-0,004
-663,232	-200,000	0,012	-0,064
-662,218	80,030	0,084	-0,065
-661,203	800,000	-0,024	0,075
-660,189	126,643	-0,070	0,064
-659,174	87,014	0,056	-0,044
-658,159	245,666	-0,060	0,073
-657,145	-131,381	-0,142	0,013
-656,130	31,283	-0,081	0,051
-655,116	-200,000	-0,013	-0,085
-654,101	108,785	-0,135	0,117
-653,086	359,332	0,027	-0,039
-652,072	-200,000	0,000	0,009
-651,057	-101,879	-0,087	-0,015
-650,043	800,000	0,016	-0,036
-649,028	-200,000	-0,006	0,042
-648,014	45,502	0,054	0,036
-646,999	129,101	0,064	-0,059
-645,984	-13,869	-0,074	0,034
-644,970	363,008	-0,081	0,119
-643,955	272,869	-0,030	0,039
-642,941	-200,000	-0,019	-0,106
-641,926	-200,000	-0,016	0,177
-640,911	-125,575	0,137	0,015
-639,897	190,459	0,059	0,065
-638,882	-91,734	-0,172	-0,035
-637,868	-102,591	-0,133	0,023
-636,853	136,737	-0,051	0,048
-635,838	-61,751	0,148	-0,045
-634,824	54,695	-0,117	-0,082
-633,809	800,000	0,049	0,100
-632,795	193,219	0,034	0,037
-631,780	43,599	0,116	0,076
-630,765	71,990	0,042	0,031
-629,751	78,901	-0,052	-0,040
-628,736	-75,392	-0,112	0,029
-627,722	-200,000	0,004	-0,102
-626,707	117,369	-0,077	-0,069
-625,692	160,917	0,048	-0,048
-624,678	152,236	-0,073	-0,072
-623,663	-67,647	0,134	0,038
-622,649	458,549	-0,081	-0,130
-621,634	-92,015	-0,141	0,029
-620,619	153,374	-0,058	0,058
-619,605	240,969	0,055	0,067
-618,590	-200,000	-0,039	0,145
-617,576	-87,777	-0,008	0,002
-616,561	-29,836	0,114	0,047
-615,546	-88,138	-0,084	-0,018
-614,532	800,000	-0,047	-0,129
-613,517	494,503	-0,094	-0,156
-612,503	290,034	0,045	-0,059
-611,488	-200,000	-0,024	0,104
-610,474	-41,124	0,077	-0,029
-609,459	-200,000	-0,000	-0,068
-608,444	40,274	0,062	-0,041
-607,430	88,565	-0,102	-0,082
-606,415	-200,000	-0,036	-0,140
-605,401	3,524	0,133	0,070
-604,386	75,198	0,040	-0,031
-603,371	800,000	-0,063	0,132
-602,357	-24,666	-0,117	-0,050
-601,342	-200,000	0,002	-0,070
-600,328	174,887	-0,095	-0,100
-599,313	-93,004	-0,126	0,025
-598,298	212,420	0,095	0,109
-597,284	-200,000	-0,019	0,156
-596,269	266,296	0,058	0,074
-595,255	-200,000	-0,013	-0,097
-594,240	800,000	-0,019	0,049
-593,225	230,177	-0,052	-0,061
-592,211	-200,000	-0,026	-0,178
-591,196	91,232	0,158	-0,129
-590,182	47,062	0,165	0,111
-589,167	629,839	0,058	0,107
-588,152	-200,000	-0,002	0,056
-587,138	12,353	-0,099	0,055
-586,123	627,197	0,054	0,099
-585,109	800,000	-0,071	-0,158
-584,094	264,783	-0,062	-0,078
-583,079	800,000	0,023	-0,070
-582,065	135,358	0,019	0,018
-581,050	500,675	0,016	-0,026
-580,036	800,000	-0,060	0,126
-579,021	-109,773	0,053	0,008
-578,006	-200,000	0,030	-0,144
-576,992	-200,000	-0,007	0,053
-575,977	-200,000	-0,032	-0,193
-574,963	-69,901	0,109	0,030
-573,948	-200,000	-0,038	0,121
-572,934	392,927	-0,043	-0,065
-571,919	800,000	0,047	-0,098
-570,904	619,507	-0,059	-0,107
-569,890	8,215	0,085	0,046
-568,875	42,507	0,038	-0,025
-567,861	-200,000	0,019	0,063
-566,846	204,190	-0,076	0,086
-565,831	102,907	0,012	0,010
-564,817	-38,376	-0,200	-0,076
-563,802	-200,000	-0,004	-0,071
-562,788	800,000	0,010	0,028
-561,773	21,661	0,175	0,103
-560,758	174,376	0,077	-0,081
-559,744	545,085	0,019	-0,032
-558,729	6,348	0,056	0,030
-557,715	-200,000	-0,031	0,133
-556,700	208,082	0,061	-0,069
-555,685	-200,000	0,007	0,051
-554,671	74,716	-0,094	-0,072
-553,656	-200,000	-0,014	-0,053
-552,642	800,000	0,076	0,165
-551,627	255,712	-0,044	-0,055
-550,612	800,000	-0,010	0,026
-549,598	800,000	-0,031	-0,065
-548,583	-200,000	-0,003	-0,009
-547,569	-55,251	-0,185	-0,060
-546,554	209,217	0,082	-0,093
-545,539	-200,000	-0,042	-0,187
-544,525	800,000	0,048	-0,101
-543,510	760,695	-0,090	0,177
-542,496	499,329	-0,056	-0,094
-541,481	56,229	0,071	-0,050
-540,466	800,000	-0,037	-0,110
-539,452	-200,000	-0,013	0,078
-538,437	-39,761	0,113	0,042
-537,423	38,532	-0,037	-0,024
-536,408	-200,000	-0,093	-0,000
-535,393	-108,121	-0,145	0,022
-534,379	375,116	-0,079	-0,117
-533,364	-48,324	-0,018	-0,006
-532,350	-200,000	-0,110	0,000
-531,335	800,000	0,069	0,172
-530,321	800,000	0,040	0,120
-529,306	-67,439	0,136	-0,038
-528,291	11,306	0,058	-0,032
-527,277	48,141	-0,084	-0,056
-526,262	236,423	-0,022	-0,026
-525,248	483,895	0,045	0,075
-524,233	-200,000	-0,001	-0,008
-523,218	800,000	-0,020	-0,045
-522,204	204,872	-0,044	-0,050
-521,189	-200,000	0,006	-0,029
-520,175	-80,389	-0,025	0,006
-519,160	89,382	0,037	0,030
-518,145	185,653	0,077	0,082
-517,131	465,320	0,026	0,043
-516,116	2,039	-0,027	-0,014
-515,102	-200,000	0,005	0,091
-514,087	321,353	0,013	0,018
-513,072	-200,000	-0,033	-0,150
-512,058	-187,010	0,055	-0,001
-511,043	-161,670	0,048	-0,002
-510,029	-90,638	0,094	-0,019
-509,014	-139,676	0,101	0,008
-507,999	630,579	-0,057	0,104
-506,985	665,419	-0,040	-0,074
-505,970	-58,951	0,076	0,024
-504,956	-88,017	-0,088	0,019
-503,941	-200,000	-0,009	0,044
-502,926	-200,000	-0,004	-0,093
-501,912	322,588	0,077	0,106
-500,897	184,989	0,081	0,086
-499,883	63,483	-0,047	-0,034
-498,868	-71,008	-0,158	0,043
-497,853	-200,000	-0,026	-0,088
-496,839	120,959	-0,038	-0,034
-495,824	29,030	0,035	0,021
-494,810	-200,000	0,040	0,131
-493,795	186,333	-0,036	0,039
-492,781	-200,000	-0,022	0,145
-491,766	33,379	-0,120	-0,075
-490,751	-200,000	-0,002	0,008
-489,737	38,740	-0,087	-0,056
-488,722	14,244	0,150	0,084
-487,708	127,938	-0,047	-0,043
-486,693	-200,000	-0,012	-0,068
-485,678	-200,000	-0,008	0,044
-484,664	-200,000	-0,030	-0,133
-483,649	-200,000	-0,000	-0,017
-482,635	8,443	0,069	-0,037
-481,620	279,378	-0,048	0,062
-480,605	581,524	-0,066	-0,116
-479,591	115,578	-0,111	-0,097
-478,576	-99,181	0,139	0,025
-477,562	562,932	0,047	0,082
-476,547	135,209	0,050	0,047
-475,532	598,148	0,010	-0,019
-474,518	-62,647	0,092	-0,027
-473,503	-101,659	0,163	-0,028
-472,489	101,104	0,140	0,117
-471,474	-100,826	-0,068	-0,012
-470,459	348,647	-0,145	-0,206
-469,445	-63,453	-0,079	0,023
-468,430	-39,918	0,109	-0,041
-467,416	126,083	0,073	0,066
-466,401	-54,783	-0,061	0,020
-465,386	800,000	0,027	0,062
-464,372	-69,406	0,101	0,028
-463,357	-200,000	0,031	-0,123
-462,343	3,688	0,143	-0,075
-461,328	800,000	-0,021	0,051
-460,313	67,382	-0,036	0,027
-459,299	26,738	-0,023	-0,014
-458,284	-26,788	0,029	0,012
-457,270	74,863	0,033	-0,025
-456,255	162,466	0,060	-0,060
-455,241	122,940	-0,050	-0,045
-454,226	82,368	-0,038	0,030
-453,211	-200,000	0,015	-0,072
-452,197	247,117	0,110	-0,134
-451,182	78,603	-0,031	0,023
-450,168	-35,620	-0,071	0,028
-449,153	800,000	-0,039	-0,095
-448,138	653,457	-0,043	-0,080
-447,124	20,171	-0,029	0,017
-446,109	63,900	0,119	0,086
-445,095	-77,216	0,041	0,010
-444,080	421,797	0,071	0,111
-443,065	108,007	0,101	0,086
-442,051	-26,909	-0,052	-0,022
-441,036	-200,000	0,026	0,130
-440,022	800,000	0,014	-0,041
-439,007	90,801	0,117	-0,094
-437,992	654,481	-0,043	-0,080
-436,978	-200,000	-0,015	0,058
-435,963	301,576	0,165	0,220
-434,949	-200,000	0,009	-0,144
-433,934	-125,659	-0,126	0,014
-432,919	44,075	-0,101	0,067
-431,905	-100,250	0,114	0,020
-430,890	199,323	0,092	0,101
-429,876	372,059	-0,029	-0,042
-428,861	800,000	0,036	0,113
-427,846	542,496	-0,048	-0,082
-426,832	-200,000	0,063	-0,267
-425,817	-17,923	-0,074	0,033
-424,803	-50,878	-0,139	-0,047
-423,788	51,530	0,060	0,041
-422,773	800,000	0,038	0,094
-421,759	543,060	0,113	0,195
-420,744	800,000	-0,009	0,020
-419,730	-31,035	-0,097	-0,039
-418,715	800,000	0,033	0,093
-417,701	800,000	-0,071	-0,151
-416,686	-143,422	0,150	-0,010
-415,671	800,000	0,043	0,090
-414,657	310,491	0,031	-0,042
-413,642	-81,711	0,044	-0,010
-412,628	-83,650	0,052	0,012
-411,613	124,700	0,043	-0,039
-410,598	208,027	-0,130	-0,146
-409,584	176,941	0,088	-0,092
-408,569	94,517	-0,042	0,034
-407,555	-146,476	0,144	0,009
-406,540	800,000	-0,034	0,072
-405,525	34,448	-0,049	0,031
-404,511	89,285	-0,124	-0,099
-403,496	195,807	-0,074	0,080
-402,482	-200,000	0,011	0,067
-401,467	-103,514	0,051	-0,009
-400,452	399,319	0,015	-0,023
-399,438	-200,000	0,015	0,100
-398,423	-191,383	0,245	0,002
-397,409	-200,000	0,009	0,089
-396,394	-49,100	0,028	-0,010
-395,379	101,788	-0,025	0,021
-394,365	23,964	0,019	0,011
-393,350	-91,242	-0,060	-0,012
-392,336	-200,000	0,005	0,093
-391,321	-200,000	0,009	-0,080
-390,306	-200,000	-0,012	-0,107
-389,292	127,727	-0,007	-0,006
-388,277	119,804	-0,063	0,056
-387,263	800,000	-0,025	0,055
-386,248	-200,000	-0,020	0,166
-385,233	225,584	0,033	0,039
-384,219	-200,000	0,014	-0,086
-383,204	88,533	-0,169	-0,134
-382,190	284,768	-0,062	-0,080
-381,175	-130,999	-0,142	-0,013
-380,160	40,021	0,081	0,052
-379,146	-200,000	0,001	0,100
-378,131	-200,000	0,006	0,029
-377,117	296,318	0,043	-0,056
-376,102	-171,937	-0,066	-0,002
-375,088	800,000	0,058	-0,147
-374,073	70,425	-0,121	-0,090
-373,058	-200,000	-0,008	0,042
-372,044	236,926	0,121	-0,144
-371,029	-84,441	0,147	-0,033
-370,015	42,230	-0,164	0,106
-369,000	494,784	0,043	-0,070
-367,985	-15,583	-0,024	0,011
-366,971	-13,857	-0,057	0,026
-365,956	68,737	-0,044	0,032
-364,942	-200,000	-0,004	-0,032
-363,927	168,874	0,124	0,127
-362,912	-200,000	-0,005	0,068
-361,898	800,000	0,049	0,121
-360,883	243,636	-0,073	-0,087
-359,869	-44,404	-0,121	-0,043
-358,854	-164,261	0,167	-0,005
-357,839	84,012	0,089	-0,070
-356,825	312,078	-0,034	0,046
-355,810	-200,000	0,010	0,049
-354,796	-22,938	0,073	-0,032
-353,781	-200,000	-0,028	0,100
-352,766	-74,969	-0,082	0,021
-351,752	21,285	0,104	0,060
-350,737	-200,000	-0,004	-0,028
-349,723	800,000	-0,004	-0,009
-348,708	-200,000	-0,010	0,048
-347,693	-200,000	0,001	0,161
-346,679	800,000	-0,061	-0,135
-345,664	800,000	0,079	0,158
-344,650	-200,000	0,007	0,122
-343,635	194,782	0,092	0,101
-342,620	-200,000	0,009	0,120
-341,606	288,839	-0,105	0,137
-340,591	171,387	-0,059	0,060
-339,577	120,829	-0,069	-0,061
-338,562	800,000	-0,016	0,035
-337,548	-106,384	0,120	-0,019
-336,533	215,836	-0,104	-0,119
-335,518	52,062	-0,032	-0,022
-334,504	491,248	-0,038	-0,062
-333,489	-126,163	0,042	0,004
-332,475	101,231	-0,067	-0,056
-331,460	-131,997	-0,185	-0,017
-330,445	-60,113	0,053	-0,016
-329,431	-136,488	0,090	0,007
-328,416	-114,410	0,149	-0,020
-327,402	800,000	0,034	0,073
-326,387	306,402	0,082	0,110
-325,372	249,619	-0,082	0,099
-324,358	-200,000	-0,010	0,037
-323,343	-146,363	-0,031	-0,002
-322,329	270,089	0,078	0,098
-321,314	-200,000	0,014	-0,082
-320,299	-160,418	0,097	-0,004
-319,285	-200,000	0,019	-0,166
-318,270	-200,000	-0,021	-0,123
-317,256	-132,270	-0,043	0,004
-316,241	-97,578	-0,057	0,010
-315,226	-200,000	0,005	-0,025
-314,212	411,353	0,047	0,072
-313,197	91,699	0,022	0,018
-312,183	800,000	-0,011	-0,035
-311,168	28,053	-0,044	-0,026
-310,153	-71,034	-0,065	0,017
-309,139	-200,000	-0,006	-0,076
-308,124	387,249	-0,020	-0,030
-307,110	300,824	0,003	0,004
-306,095	-128,277	0,146	-0,015
-305,080	384,488	-0,051	-0,075
-304,066	292,118	0,058	0,076
-303,051	-155,282	-0,102	0,005
-302,037	656,919	-0,018	-0,034
-301,022	800,000	0,069	-0,166
-300,008	-58,334	0,014	-0,004
-298,993	-200,000	0,004	-0,115
-297,978	-134,991	-0,051	-0,004
-296,964	311,318	0,049	0,066
-295,949	800,000	0,014	0,028
-294,935	18,633	-0,056	0,032
-293,920	190,930	0,099	-0,107
-292,905	367,477	0,049	-0,071
-291,891	-9,321	0,095	0,045
-290,876	559,372	-0,017	-0,029
-289,862	7,534	0,016	0,008
-288,847	70,678	-0,073	0,054
-287,832	-21,305	-0,053	-0,023
-286,818	-60,751	0,027	-0,008
-285,803	-54,988	0,107	0,034
-284,789	800,000	0,016	-0,034
-283,774	-70,916	-0,088	0,024
-282,759	-200,000	-0,003	-0,048
-281,745	-66,379	0,099	0,028
-280,730	-200,000	-0,003	-0,071
-279,716	281,530	0,052	0,066
-278,701	-200,000	-0,010	0,060
-277,686	-81,659	-0,105	-0,025
-276,672	-200,000	0,004	0,046
-275,657	-113,940	0,048	-0,007
-274,643	-200,000	-0,026	0,151
-273,628	800,000	0,030	-0,089
-272,613	143,142	-0,038	-0,036
-271,599	677,258	0,072	-0,134
-270,584	-200,000	0,008	0,032
-269,570	-200,000	-0,012	-0,141
-268,555	631,204	-0,077	-0,139
-267,540	0,226	0,094	0,048
-266,526	259,578	-0,092	0,114
-265,511	-200,000	-0,013	-0,107
-264,497	-67,840	-0,124	0,034
-263,482	167,403	-0,018	0,019
-262,467	800,000	0,038	0,084
-261,453	800,000	-0,088	0,213
-260,438	366,240	-0,082	-0,119
-259,424	302,226	-0,108	-0,143
-258,409	55,770	-0,123	-0,085
-257,395	-200,000	-0,000	-0,096
-256,380	-200,000	0,018	-0,071
-255,365	310,997	-0,034	-0,045
-254,351	84,032	0,041	-0,032
-253,336	-25,228	-0,075	0,032
-252,322	-171,986	0,047	-0,001
-251,307	140,208	-0,079	-0,074
-250,292	302,545	0,064	0,085
-249,278	186,939	-0,053	0,056
-248,263	800,000	0,019	0,042
-247,249	464,088	0,027	0,043
-246,234	-91,278	0,143	-0,029
-245,219	4,471	-0,078	-0,041
-244,205	-120,495	-0,173	-0,021
-243,190	586,070	0,064	-0,112
-242,176	501,097	0,033	0,054
-241,161	-51,768	0,054	0,018
-240,146	-200,000	-0,003	0,032
-239,132	122,269	-0,031	-0,028
-238,117	300,790	-0,024	-0,032
-237,103	-121,177	0,093	-0,011
-236,088	-89,788	0,079	-0,016
-235,073	-18,455	-0,099	-0,044
-234,059	-18,180	0,076	0,034
-233,044	-57,840	0,058	0,018
-232,030	-200,000	-0,022	-0,215
-231,015	-200,000	-0,010	-0,057
-230,000	184,136	0,045	0,047
-228,986	669,101	-0,057	0,106
-227,971	-82,492	-0,071	0,016
-226,957	800,000	0,071	0,157
-225,942	800,000	0,020	0,048
-224,927	-43,031	-0,117	0,042
-223,913	114,015	0,064	-0,055
-222,898	-156,420	0,101	0,004
-221,884	614,019	-0,094	-0,169
-220,869	-200,000	0,002	-0,047
-219,855	-146,211	0,032	0,002
-218,840	800,000	0,052	0,111
-217,825	201,062	0,061	-0,067
-216,811	-83,637	-0,241	-0,055
-215,796	-143,908	0,147	0,010
-214,782	318,993	-0,019	0,026
-213,767	-63,754	0,070	-0,020
-212,752	-103,666	-0,062	0,010
-211,738	-200,000	0,048	0,155
-210,723	25,949	0,077	0,045
-209,709	-200,000	0,031	-0,110
-208,694	40,504	-0,107	0,069
-207,679	-47,991	0,106	-0,036
-206,665	125,793	-0,072	0,065
-205,650	52,186	0,069	-0,047
-204,636	-200,000	-0,032	0,265
-203,621	800,000	-0,027	0,071
-202,606	106,038	-0,053	0,045
-201,592	490,082	0,074	-0,121
-200,577	-4,649	-0,083	0,041
-199,563	67,278	-0,095	0,069
-198,548	800,000	-0,060	0,121
-197,533	87,296	0,054	0,042
-196,519	-200,000	0,001	-0,121
-195,504	627,413	-0,067	-0,122
-194,490	195,514	-0,039	0,043
-193,475	-200,000	0,013	-0,064
-192,460	-51,989	0,063	-0,021
-191,446	-95,803	0,172	-0,032
-190,431	-34,473	0,122	-0,047
-189,417	5,233	0,106	0,056
-188,402	231,424	-0,057	-0,067
-187,387	89,523	-0,132	-0,104
-186,373	-38,924	0,154	0,057
-185,358	-141,409	-0,065	-0,005
-184,344	208,341	-0,057	0,064
-183,329	-200,000	0,007	0,156
-182,315	40,461	-0,139	0,089
-181,300	141,247	0,128	-0,120
-180,285	123,325	-0,104	-0,092
-179,271	87,544	-0,014	-0,011
-178,256	87,255	0,048	-0,038
-177,242	800,000	0,032	0,086
-176,227	-200,000	0,022	0,089
-175,212	-130,414	-0,056	0,005
-174,198	487,399	-0,039	0,064
-173,183	-54,914	-0,269	-0,086
-172,169	-200,000	-0,006	-0,108
-171,154	515,286	0,050	-0,083
-170,139	-200,000	-0,000	-0,056
-169,125	-22,462	0,054	0,023
-168,110	370,120	0,031	-0,045
-167,096	659,290	-0,076	0,140
-166,081	-200,000	-0,011	0,080
-165,066	335,102	0,055	-0,076
-164,052	-4,154	-0,080	0,039
-163,037	-200,000	0,006	0,087
-162,023	792,755	0,032	-0,063
-161,008	800,000	0,052	0,136
-159,993	-200,000	0,018	0,074
-158,979	553,693	-0,074	0,127
-157,964	-26,114	0,038	-0,016
-156,950	20,214	0,037	-0,021
-155,935	4,056	-0,086	-0,045
-154,920	800,000	0,057	0,142
-153,906	229,553	-0,019	0,022
-152,891	36,418	-0,128	0,080
-151,877	48,786	-0,116	0,077
-150,862	-90,202	-0,185	0,038
-149,847	800,000	-0,042	-0,126
-148,833	-94,273	0,072	-0,014
-147,818	-68,076	-0,099	-0,027
-146,804	-200,000	0,001	0,059
-145,789	800,000	0,025	0,070
-144,775	367,479	-0,046	-0,066
-143,760	800,000	-0,076	-0,167
-142,745	800,000	0,035	-0,081
-141,731	223,393	0,038	0,044
-140,716	49,544	0,111	-0,074
-139,702	455,410	0,078	0,124
-138,687	120,808	0,090	-0,080
-137,672	-200,000	-0,004	-0,103
-136,658	-32,431	-0,030	0,012
-135,643	800,000	0,037	-0,093
-134,629	-16,961	-0,037	-0,017
-133,614	46,902	0,064	-0,042
-132,599	770,671	0,037	0,071
-131,585	408,337	-0,069	0,104
-130,570	-200,000	-0,026	-0,092
-129,556	800,000	-0,055	-0,171
-128,541	342,129	0,045	0,063
-127,526	-44,785	0,076	-0,027
-126,512	7,324	-0,035	0,018
-125,497	-86,750	0,124	0,027
-124,483	-200,000	-0,009	0,032
-123,468	141,670	-0,080	0,075
-122,453	763,902	0,040	-0,077
-121,439	-8,246	0,106	0,050
-120,424	800,000	-0,009	-0,023
-119,410	36,969	0,120	-0,075
-118,395	193,561	0,094	0,101
-117,380	-200,000	-0,000	-0,017
-116,366	-47,099	-0,073	0,025
-115,351	222,644	0,070	-0,080
-114,337	-200,000	-0,007	-0,086
-113,322	-200,000	-0,000	-0,121
-112,307	800,000	0,022	0,050
-111,293	790,350	0,075	0,148
-110,278	-66,608	0,048	-0,013
-109,264	-135,891	0,122	-0,010
-108,249	-61,640	-0,183	-0,054
-107,234	-200,000	-0,005	-0,078
-106,220	342,890	-0,043	0,060
-105,205	800,000	0,020	0,061
-104,191	-17,672	-0,084	-0,037
-103,176	-5,439	0,076	-0,037
-102,162	800,000	-0,030	-0,060
-101,147	-93,525	0,064	0,013
-100,132	81,563	-0,135	-0,104
-99,118	800,000	-0,057	-0,131
-98,103	-200,000	0,008	-0,047
-97,089	-37,372	0,188	0,071
-96,074	-172,500	0,059	-0,001
-95,059	-200,000	0,019	-0,122
-94,045	800,000	-0,045	-0,134
-93,030	-200,000	0,018	-0,101
-92,016	649,710	-0,019	-0,035
-91,001	-32,305	0,109	0,043
-89,986	800,000	0,047	0,121
-88,972	318,330	-0,044	-0,060
-87,957	-72,230	0,006	-0,002
-86,943	77,527	-0,064	0,048
-85,928	734,238	-0,044	-0,085
-84,913	-200,000	0,033	0,112
-83,899	-44,453	0,043	0,015
-82,884	20,622	0,056	0,032
-81,870	-200,000	0,003	0,048
-80,855	-200,000	0,005	0,030
-79,840	225,974	0,035	0,041
-78,826	249,529	-0,037	0,045
-77,811	-200,000	-0,004	0,016
-76,797	194,836	0,081	0,087
-75,782	800,000	0,015	-0,047
-74,767	800,000	-0,028	0,064
-73,753	-200,000	0,024	0,086
-72,738	239,011	-0,054	0,064
-71,724	-34,515	-0,035	-0,013
-70,709	78,680	-0,028	-0,021
-69,694	800,000	0,024	0,055
-68,680	8,165	0,063	0,033
-67,665	96,435	-0,095	0,077
-66,651	-74,863	0,039	-0,010
-65,636	109,771	-0,031	-0,026
-64,622	144,757	0,067	-0,063
-63,607	-174,033	-0,069	0,001
-62,592	-200,000	0,027	-0,116
-61,578	800,000	0,029	-0,072
-60,563	458,657	-0,109	0,172
-59,549	-200,000	-0,002	0,115
-58,534	-42,823	-1,521	-0,545
-57,519	373,464	-1,472	-2,128
-56,505	-200,000	-0,565	-4,571
-55,490	203,727	0,888	0,975
-54,476	800,000	4,882	11,288
-53,461	-200,000	18,257	285,331
-52,446	800,000	726,649	2221,850
-51,432	553,579	1642,236	2807,034
-50,417	79,424	1664,277	1262,872
-49,403	23,079	1538,108	891,548
-48,388	17,062	1461,644	818,104
-47,373	17,881	1451,460	816,315
-46,359	17,339	1442,111	808,434
-45,344	15,327	1437,266	796,084
-44,330	15,224	1435,152	794,391
-43,315	15,234	1433,648	793,577
-42,300	15,224	1432,102	792,643
-41,286	15,322	1430,889	792,402
-40,271	15,296	1429,413	791,431
-39,257	15,251	1428,309	790,574
-38,242	15,265	1427,305	790,055
-37,227	15,338	1425,739	789,501
-36,213	15,298	1424,598	788,651
-35,198	15,254	1423,404	787,749
-34,184	15,306	1422,478	787,449
-33,169	15,245	1421,234	786,442
-32,154	15,316	1420,107	786,123
-31,140	15,300	1418,945	785,374
-30,125	15,389	1417,631	785,034
-29,111	15,305	1416,532	783,998
-28,096	15,271	1415,535	783,257
-27,082	15,248	1414,601	782,600
-26,067	15,212	1413,365	781,720
-25,052	15,208	1412,238	781,045
-24,038	15,201	1411,203	780,408
-23,023	15,254	1410,059	779,990
-22,009	15,197	1409,119	779,177
-20,994	15,186	1408,346	778,665
-19,979	15,193	1407,244	778,058
-18,965	15,125	1406,497	777,298
-17,950	15,157	1405,580	776,906
-16,936	15,151	1404,657	776,340
-15,921	15,095	1403,480	775,396
-14,906	15,058	1402,682	774,753
-13,892	15,157	1401,521	774,542
-12,877	15,107	1400,683	773,817
-11,863	15,126	1399,556	773,251
-10,848	15,089	1399,031	772,756
-9,833	15,093	1397,945	772,144
-8,819	15,031	1397,005	771,309
-7,804	15,040	1396,172	770,858
-6,790	15,038	1394,855	770,090
-5,775	15,007	1394,163	769,537
-4,760	15,007	1393,242	768,996
-3,746	15,000	1392,397	768,466
-2,731	14,996	1391,593	767,977
-1,717	15,014	1390,592	767,476
-0,702	15,012	1388,907	766,504
0,313	18,865	1308,388	739,882
1,327	35,311	707,220	438,050
2,342	54,312	124,885	84,961
3,356	5,285	16,512	8,588
4,371	-4,373	3,179	1,550
5,386	71,249	0,467	0,342
6,400	800,000	0,054	0,154
7,415	40,751	-0,216	-0,137
8,429	42,089	-0,342	-0,219
9,444	69,465	-0,263	-0,191
10,459	-24,434	-0,258	-0,108
11,473	35,571	-0,304	-0,189
12,488	-73,190	-0,302	-0,078
13,502	-48,772	-0,462	-0,156
14,517	34,997	-0,364	-0,225
15,531	62,138	-0,452	-0,318
16,546	87,200	-0,327	-0,256
17,561	10,376	-0,415	-0,223
18,575	-6,386	-0,231	-0,111
19,590	242,425	-0,269	-0,319
20,604	-83,916	-0,317	-0,071
21,619	-41,977	-0,366	-0,132
22,634	132,040	-0,415	-0,377
23,648	47,008	-0,359	-0,235
24,663	0,526	-0,534	-0,268
25,677	51,914	-0,347	-0,233
26,692	77,627	-0,295	-0,222
27,707	42,527	-0,414	-0,266
28,721	26,743	-0,374	-0,220
29,736	-17,127	-0,452	-0,201
30,750	303,847	-0,262	-0,343
31,765	61,454	-0,362	-0,254
32,780	179,236	-0,311	-0,322
33,794	207,847	-0,335	-0,370
34,809	40,322	-0,348	-0,221
35,823	80,641	-0,327	-0,248
36,838	120,979	-0,410	-0,360
37,853	36,169	-0,422	-0,262
38,867	102,883	-0,360	-0,297
39,882	167,191	-0,237	-0,237
40,896	336,207	-0,219	-0,300
41,911	-48,170	-0,412	-0,140
42,926	32,189	-0,287	-0,174
43,940	101,298	-0,309	-0,254
44,955	143,593	-0,306	-0,288
45,969	28,879	-0,478	-0,285
46,984	130,259	-0,405	-0,366
47,999	146,001	-0,239	-0,226
49,013	107,553	-0,293	-0,246
50,028	101,073	-0,455	-0,373
51,042	102,763	-0,265	-0,219
52,057	-80,961	-0,372	-0,086
53,071	-57,470	-0,421	-0,129
54,086	99,311	-0,312	-0,254
55,101	49,863	-0,385	-0,256
56,115	116,361	-0,267	-0,231
57,130	16,208	-0,354	-0,196
58,144	57,594	-0,377	-0,259
59,159	122,948	-0,409	-0,361
60,174	33,660	-0,331	-0,202
61,188	16,920	-0,318	-0,177
62,203	51,384	-0,217	-0,145
63,217	-63,253	-0,367	-0,106
64,232	69,616	-0,410	-0,297
65,247	-33,787	-0,427	-0,165
66,261	206,161	-0,296	-0,325
67,276	119,855	-0,369	-0,322
68,290	8,734	-0,378	-0,200
69,305	-54,585	-0,401	-0,127
70,320	37,323	-0,332	-0,207
71,334	-30,274	-0,290	-0,115
72,349	47,572	-0,280	-0,184
73,363	-47,507	-0,302	-0,103
74,378	25,273	-0,417	-0,243
75,393	-35,773	-0,328	-0,124
76,407	-29,878	-0,321	-0,128
77,422	-40,923	-0,259	-0,094
78,436	-129,585	-0,303	-0,029
79,451	4,780	-0,386	-0,199
80,466	54,256	-0,269	-0,182
81,480	152,534	-0,309	-0,297
82,495	103,556	-0,276	-0,228
83,509	54,474	-0,261	-0,177
84,524	-147,925	-0,326	-0,019
85,539	-23,690	-0,308	-0,129
86,553	-106,135	-0,273	-0,043
87,568	-54,051	-0,366	-0,116
88,582	-61,006	-0,347	-0,102
89,597	97,637	-0,338	-0,273
90,611	26,469	-0,294	-0,172
91,626	-78,728	-0,254	-0,060
92,641	-179,540	-0,267	-0,004
93,655	13,222	-0,400	-0,217
94,670	-47,466	-0,288	-0,098
95,684	329,111	-0,148	-0,201
96,699	182,466	-0,301	-0,312
97,714	-16,051	-0,318	-0,141
98,728	109,324	-0,288	-0,242
99,743	222,481	-0,194	-0,219
100,757	424,409	-0,124	-0,187
101,772	91,167	-0,270	-0,213
102,787	104,573	-0,319	-0,263
103,801	308,052	-0,130	-0,171
104,816	-37,994	-0,278	-0,103
105,830	110,166	-0,294	-0,248
106,845	108,343	-0,288	-0,241
107,860	46,108	-0,319	-0,207
108,874	51,595	-0,368	-0,245
109,889	76,183	-0,285	-0,211
110,903	56,945	-0,290	-0,198
111,918	169,443	-0,235	-0,235
112,933	81,733	-0,131	-0,099
113,947	-88,059	-0,319	-0,067
114,962	33,728	-0,184	-0,112
115,976	-93,879	-0,278	-0,053
116,991	51,117	-0,326	-0,216
118,006	-12,635	-0,312	-0,142
119,020	199,521	-0,137	-0,147
120,035	140,346	-0,190	-0,175
121,049	73,009	-0,215	-0,157
122,064	-9,593	-0,273	-0,127
123,079	14,318	-0,346	-0,188
124,093	174,872	-0,202	-0,205
125,108	225,204	-0,210	-0,238
126,122	165,830	-0,312	-0,309
127,137	374,807	-0,129	-0,184
128,151	-13,603	-0,233	-0,105
129,166	260,060	-0,149	-0,181
130,181	180,546	-0,206	-0,212
131,195	121,222	-0,194	-0,169
132,210	310,953	-0,172	-0,226
133,224	16,153	-0,311	-0,171
134,239	401,425	-0,124	-0,183
135,254	-12,190	-0,112	-0,051
136,268	115,014	-0,144	-0,123
137,283	5,189	-0,272	-0,140
138,297	-122,538	-0,266	-0,030
139,312	212,776	-0,304	-0,336
140,327	204,732	-0,238	-0,258
141,341	754,231	-0,174	-0,331
142,356	96,366	-0,254	-0,203
143,370	-107,430	-0,235	0,036
144,385	87,119	-0,326	-0,252
145,400	107,347	-0,150	-0,125
146,414	57,857	-0,279	-0,190
147,429	119,566	-0,256	-0,222
148,443	226,774	-0,230	-0,262
149,458	-83,569	-0,306	-0,068
150,473	71,011	-0,256	-0,185
151,487	201,644	-0,210	-0,226
152,502	-13,982	-0,362	-0,163
153,516	93,212	-0,303	-0,240
154,531	4,779	-0,293	-0,150
155,546	43,474	-0,371	-0,236
156,560	-70,847	-0,173	-0,045
157,575	-6,667	-0,179	-0,085
158,589	308,610	-0,203	-0,265
159,604	-44,298	-0,345	-0,120
160,619	619,385	-0,131	-0,230
161,633	260,376	-0,160	-0,194
162,648	35,069	-0,310	-0,189
163,662	65,331	-0,238	-0,168
164,677	189,031	-0,174	-0,182
165,692	-79,147	-0,144	-0,034
166,706	74,015	-0,233	-0,170
167,721	4,078	-0,205	-0,104
168,735	33,078	-0,189	-0,114
169,750	57,970	-0,294	-0,201
170,764	279,796	-0,135	-0,169
171,779	170,524	-0,109	-0,109
172,794	-31,081	-0,206	-0,081
173,808	142,949	-0,147	-0,136
174,823	98,428	-0,260	-0,209
175,837	36,049	-0,213	-0,131
176,852	116,402	-0,221	-0,189
177,867	-10,955	-0,210	-0,096
178,881	473,857	-0,093	-0,147
179,896	-127,992	-0,246	0,024
180,910	181,810	-0,248	-0,255
181,925	-22,170	-0,292	-0,123
182,940	800,000	-0,087	-0,208
183,954	139,927	-0,214	-0,196
184,969	143,293	-0,208	-0,193
185,983	148,320	-0,140	-0,131
186,998	74,819	-0,256	-0,188
188,013	124,272	-0,194	-0,170
189,027	58,633	-0,228	-0,156
190,042	-46,816	-0,255	-0,086
191,056	188,127	-0,235	-0,245
192,071	248,168	-0,197	-0,233
193,086	-24,103	-0,221	0,091
194,100	-113,886	-0,149	-0,020
195,115	-29,584	-0,106	-0,042
196,129	98,052	-0,195	-0,156
197,144	175,220	-0,177	-0,178
198,159	11,660	-0,220	-0,117
199,173	237,734	-0,186	-0,214
200,188	66,966	-0,258	-0,182
201,202	-33,623	-0,114	-0,044
202,217	48,921	-0,246	-0,161
203,232	105,583	-0,157	-0,129
204,246	800,000	-0,100	-0,284
205,261	207,964	-0,310	-0,337
206,275	594,066	-0,094	-0,162
207,290	800,000	-0,094	-0,209
208,304	351,047	-0,151	-0,209
209,319	371,208	-0,111	-0,157
210,334	-21,273	-0,214	-0,090
211,348	165,127	-0,138	-0,136
212,363	-44,149	-0,164	-0,057
213,377	13,170	-0,265	-0,142
214,392	488,118	-0,087	-0,139
215,407	18,606	-0,133	-0,074
216,421	201,166	-0,170	-0,182
217,436	50,292	-0,262	-0,171
218,450	510,051	-0,181	-0,293
219,465	210,113	-0,214	-0,234
220,480	800,000	-0,098	-0,248
221,494	775,662	-0,083	-0,159
222,509	107,349	-0,126	-0,104
223,523	-200,000	-0,013	-0,118
224,538	258,615	-0,168	-0,201
225,553	213,159	-0,279	-0,307
226,567	160,487	-0,160	-0,155
227,582	800,000	-0,065	-0,176
228,596	101,041	-0,106	-0,086
229,611	158,388	-0,158	-0,152
230,626	424,351	-0,091	-0,136
231,640	-7,636	-0,268	-0,125
232,655	195,791	-0,213	-0,225
233,669	157,288	-0,225	-0,216
234,684	-23,716	-0,260	-0,107
235,699	142,886	-0,144	-0,133
236,713	-105,398	-0,122	-0,019
237,728	-12,556	-0,189	-0,085
238,742	91,774	-0,175	-0,136
239,757	305,911	-0,132	-0,170
240,772	40,836	-0,273	-0,171
241,786	601,094	-0,112	-0,194
242,801	23,653	-0,210	-0,120
243,815	206,072	-0,107	-0,116
244,830	-40,680	-0,180	-0,064
245,844	61,513	-0,195	-0,134
246,859	367,102	-0,092	-0,129
247,874	-89,318	-0,288	-0,058
248,888	112,355	-0,236	-0,198
249,903	7,247	-0,223	-0,115
250,917	646,005	-0,145	-0,258
251,932	-61,594	-0,292	-0,084
252,947	-32,527	-0,219	-0,084
253,961	-77,366	-0,211	-0,050
254,976	260,625	-0,139	-0,167
255,990	35,291	-0,139	-0,084
257,005	80,703	-0,176	-0,131
258,020	-55,107	-0,237	-0,073
259,034	800,000	-0,081	-0,170
260,049	120,403	-0,082	-0,071
261,063	-80,556	-0,275	-0,063
262,078	205,496	-0,129	-0,139
263,093	597,974	-0,108	-0,185
264,107	675,094	-0,070	-0,126
265,122	513,452	-0,057	0,093
266,136	-200,000	0,013	-0,180
267,151	102,818	-0,233	-0,188
268,166	303,366	-0,184	-0,236
269,180	176,283	-0,127	-0,128
270,195	66,695	-0,248	-0,175
271,209	56,721	-0,182	-0,122
272,224	-121,839	-0,066	0,007
273,239	63,235	-0,069	-0,048
274,253	800,000	-0,105	-0,212
275,268	45,393	-0,185	-0,118
276,282	65,787	-0,204	-0,143
277,297	152,921	-0,142	-0,134
278,312	800,000	-0,081	-0,196
279,326	52,462	-0,200	-0,132
280,341	-62,392	-0,222	-0,063
281,355	262,708	-0,139	-0,167
282,370	-10,639	-0,141	-0,064
283,384	60,327	-0,161	-0,109
284,399	273,926	-0,217	-0,265
285,414	118,621	-0,241	-0,206
286,428	800,000	-0,055	-0,129
287,443	245,053	-0,179	-0,209
288,457	-200,000	-0,094	-0,354
289,472	-200,000	-0,034	-0,252
290,487	246,401	-0,106	-0,124
291,501	-6,236	-0,197	-0,092
292,516	78,277	-0,238	-0,175
293,530	204,142	-0,131	-0,140
294,545	-53,916	-0,194	-0,061
295,560	19,935	-0,183	-0,102
296,574	-102,801	-0,158	-0,026
297,589	-13,808	-0,180	-0,080
298,603	14,788	-0,198	-0,106
299,618	232,283	-0,136	-0,155
300,633	-173,725	-0,091	-0,002
301,647	-170,655	-0,171	-0,004
302,662	182,993	-0,174	-0,177
303,676	-1,451	-0,106	-0,051
304,691	565,971	-0,140	-0,235
305,706	-168,350	-0,237	-0,006
306,720	-26,171	-0,248	-0,100
307,735	103,679	-0,180	-0,145
308,749	-11,589	-0,186	-0,084
309,764	-200,000	-0,015	-0,068
310,779	-89,656	-0,259	-0,052
311,793	-59,770	-0,245	-0,072
312,808	641,557	-0,138	-0,243
313,822	800,000	-0,076	-0,216
314,837	760,332	-0,060	-0,112
315,852	800,000	-0,049	-0,138
316,866	-38,314	-0,165	-0,060
317,881	-63,011	-0,182	-0,051
318,895	-7,200	-0,185	-0,086
319,910	178,582	-0,235	-0,237
320,925	142,547	-0,107	-0,098
321,939	54,111	-0,189	-0,125
322,954	156,020	-0,137	-0,130
323,968	-7,841	-0,033	0,015
324,983	-28,026	-0,146	0,058
325,997	353,876	-0,145	-0,198
327,012	340,769	-0,119	-0,161
328,027	-89,066	-0,186	-0,038
329,041	461,372	-0,081	-0,125
330,056	-129,671	-0,083	0,008
331,070	-121,462	-0,174	0,020
332,085	800,000	-0,092	-0,209
333,100	59,375	-0,200	-0,136
334,114	-200,000	-0,043	-0,206
335,129	148,618	-0,165	-0,154
336,143	89,372	-0,239	-0,183
337,158	-200,000	-0,074	-0,229
338,173	-52,738	-0,146	-0,046
339,187	-200,000	-0,032	-0,131
340,202	-27,462	-0,133	0,053
341,216	289,032	-0,246	-0,307
342,231	-164,843	-0,171	-0,005
343,246	357,476	-0,127	-0,174
344,260	116,727	-0,155	-0,131
345,275	-200,000	0,013	-0,274
346,289	398,537	-0,055	-0,079
347,304	800,000	-0,029	-0,059
348,319	-114,966	-0,185	-0,024
349,333	171,448	-0,150	-0,148
350,348	800,000	-0,105	-0,258
351,362	66,571	-0,117	-0,082
352,377	-118,316	-0,214	-0,026
353,392	-0,500	-0,107	0,052
354,406	15,959	-0,230	-0,124
355,421	207,520	1319,488	1414,656
356,435	159,636	1480,829	1415,173
