DTS Sentinel unit serial number:	SN410029Multiplexer serial number:	ORYXHardware model number:	OX2-SRSoftware version number:	ORYX F/W v4,00 Oryx Data Collector v3.7.2.0data status	okinstallation	B3 Nyhavnadifferential loss correction	single-endedforward channel	channel 1reverse channel	N/Adate	2023/12/03time	17:07:30forward acquisition time	300,00reverse acquisition time	0,00gamma	499,1914k internal	0,3197k external	0,3197temperature offset calibration	1,0000default loss term (dB/km)	0,3820temperature slope calibration	1,0000multiplexer offset coefficient	1,0000multiplexer slope coefficient	1,0000fibre end	0,00T internal ref (°C)	15,06T ext. ref 1 (°C)	-0,35T ext. ref 2 (°C)	-0,37length (m)	temperature (°C)	Stokes	anti-Stokes-744,400	430,197	-0,203	-0,320
-743,385	-200,000	0,018	0,313
-742,371	40,376	-0,097	-0,064
-741,356	-200,000	-0,073	0,314
-740,342	60,167	-0,197	-0,142
-739,327	-200,000	-0,003	0,361
-738,312	-28,208	-0,211	-0,088
-737,298	-200,000	-0,019	0,252
-736,283	89,942	-0,217	-0,177
-735,269	800,000	-0,112	0,348
-734,254	2,505	-0,331	-0,174
-733,239	505,651	-0,105	0,177
-732,225	442,884	-0,128	-0,205
-731,210	15,703	0,222	0,127
-730,196	800,000	0,026	-0,060
-729,181	-39,528	-0,174	0,066
-728,167	-40,414	0,131	-0,049
-727,152	-9,900	-0,195	-0,094
-726,137	559,212	-0,024	0,042
-725,123	-200,000	0,009	0,039
-724,108	-117,459	-0,177	-0,023
-723,094	-200,000	-0,010	-0,157
-722,079	87,225	-0,067	-0,054
-721,064	-200,000	0,003	-0,048
-720,050	-132,229	-0,028	-0,003
-719,035	101,975	-0,081	0,069
-718,021	220,883	-0,081	-0,095
-717,006	-200,000	0,004	-0,089
-715,991	-72,453	0,049	-0,013
-714,977	-11,294	-0,092	-0,044
-713,962	-2,946	-0,106	-0,053
-712,948	-200,000	0,034	-0,109
-711,933	-200,000	-0,004	-0,032
-710,918	76,874	0,084	-0,065
-709,904	-85,558	-0,136	-0,031
-708,889	195,195	-0,036	0,039
-707,875	-200,000	-0,026	-0,100
-706,860	21,769	0,043	-0,025
-705,845	-200,000	0,002	0,044
-704,831	186,591	-0,102	-0,110
-703,816	22,417	-0,078	0,046
-702,802	72,022	0,072	-0,054
-701,787	-200,000	0,001	-0,060
-700,772	58,406	-0,120	0,086
-699,758	-200,000	0,013	0,048
-698,743	800,000	0,062	0,154
-697,729	150,633	0,046	0,046
-696,714	-136,415	0,105	-0,009
-695,699	379,948	-0,125	-0,186
-694,685	14,534	-0,160	-0,090
-693,670	-2,590	0,072	-0,037
-692,656	-200,000	-0,000	-0,112
-691,641	-200,000	-0,016	-0,054
-690,627	49,791	0,055	-0,038
-689,612	265,590	-0,134	0,170
-688,597	-200,000	-0,009	-0,069
-687,583	26,148	-0,072	-0,044
-686,568	4,775	-0,087	-0,047
-685,554	-200,000	-0,018	-0,129
-684,539	-78,874	0,169	-0,041
-683,524	-113,740	0,117	-0,016
-682,510	-200,000	0,015	-0,091
-681,495	-200,000	0,025	-0,185
-680,481	-200,000	-0,049	-0,232
-679,466	141,378	-0,130	-0,125
-678,451	800,000	-0,006	-0,015
-677,437	-200,000	-0,007	0,076
-676,422	346,075	0,057	-0,082
-675,408	-200,000	0,023	0,130
-674,393	9,466	-0,112	0,061
-673,378	-41,087	-0,070	0,026
-672,364	123,881	0,023	-0,021
-671,349	-81,583	-0,125	-0,030
-670,335	800,000	0,071	0,227
-669,320	-121,306	-0,107	-0,013
-668,305	182,425	0,065	-0,070
-667,291	36,351	-0,011	0,007
-666,276	-141,689	-0,072	0,005
-665,262	569,169	-0,072	-0,127
-664,247	-154,332	-0,052	-0,003
-663,232	209,636	-0,033	-0,038
-662,218	-200,000	-0,019	0,117
-661,203	800,000	-0,032	0,076
-660,189	-200,000	0,016	-0,068
-659,174	374,062	-0,027	-0,040
-658,159	84,221	-0,065	0,051
-657,145	-200,000	-0,000	-0,103
-656,130	-200,000	-0,002	-0,033
-655,116	126,496	0,096	0,088
-654,101	800,000	-0,053	-0,140
-653,086	29,466	-0,063	-0,039
-652,072	800,000	0,031	-0,075
-651,057	-58,990	-0,085	0,026
-650,043	53,620	-0,063	0,044
-649,028	800,000	-0,047	-0,111
-648,014	-129,847	0,092	-0,009
-646,999	329,355	0,020	-0,028
-645,984	-180,442	0,060	-0,001
-644,970	-200,000	-0,013	-0,073
-643,955	800,000	-0,023	0,048
-642,941	669,264	-0,017	-0,032
-641,926	127,130	0,083	0,076
-640,911	800,000	0,032	0,071
-639,897	266,865	0,101	0,129
-638,882	32,641	0,082	0,051
-637,868	84,066	-0,072	0,057
-636,853	183,075	-0,098	-0,105
-635,838	-111,905	-0,006	0,001
-634,824	800,000	0,021	-0,065
-633,809	55,533	-0,031	-0,022
-632,795	-106,395	-0,127	-0,020
-631,780	11,680	-0,025	0,014
-630,765	800,000	-0,042	-0,085
-629,751	800,000	-0,010	-0,030
-628,736	-130,431	-0,115	-0,011
-627,722	74,099	-0,050	-0,038
-626,707	800,000	0,037	-0,081
-625,692	96,034	-0,063	0,052
-624,678	766,772	-0,019	0,037
-623,663	800,000	0,013	-0,031
-622,649	353,058	-0,039	-0,056
-621,634	162,558	-0,103	0,105
-620,619	37,474	-0,060	-0,038
-619,605	-200,000	-0,020	-0,102
-618,590	12,703	0,082	0,046
-617,576	724,407	-0,027	0,053
-616,561	-200,000	0,003	-0,011
-615,546	-12,638	-0,032	0,015
-614,532	418,440	-0,081	-0,127
-613,517	38,017	0,008	-0,005
-612,503	-200,000	-0,016	0,053
-611,488	-46,155	0,088	-0,031
-610,474	-193,514	0,057	-0,000
-609,459	-78,952	0,098	-0,024
-608,444	98,457	-0,073	-0,061
-607,430	-200,000	0,005	0,023
-606,415	-122,396	-0,059	0,007
-605,401	103,007	0,095	-0,081
-604,386	243,228	-0,044	0,054
-603,371	-200,000	0,019	0,069
-602,357	51,811	0,027	-0,018
-601,342	-31,715	-0,092	-0,037
-600,328	135,537	-0,009	-0,009
-599,313	63,577	-0,105	0,076
-598,298	-35,365	-0,032	-0,013
-597,284	-200,000	-0,025	0,083
-596,269	174,770	0,055	0,058
-595,255	516,915	-0,040	0,068
-594,240	605,553	-0,060	0,108
-593,225	-112,120	-0,113	-0,016
-592,211	800,000	0,028	-0,073
-591,196	222,803	-0,077	-0,090
-590,182	139,973	0,041	0,039
-589,167	-82,352	0,080	0,019
-588,152	-200,000	-0,004	0,084
-587,138	800,000	-0,031	0,082
-586,123	138,744	-0,068	-0,065
-585,109	-22,211	0,073	-0,032
-584,094	-200,000	-0,026	0,100
-583,079	800,000	-0,036	0,076
-582,065	121,797	0,036	-0,033
-581,050	17,831	0,032	0,018
-580,036	104,253	-0,100	0,085
-579,021	-200,000	0,010	-0,039
-578,006	7,750	-0,030	-0,016
-576,992	-200,000	-0,001	0,042
-575,977	-200,000	0,001	-0,038
-574,963	13,155	0,091	-0,051
-573,948	51,411	-0,115	0,079
-572,934	-78,442	-0,199	0,049
-571,919	95,624	-0,142	-0,117
-570,904	-200,000	0,012	0,040
-569,890	529,518	0,014	0,023
-568,875	-39,863	0,110	-0,041
-567,861	-200,000	-0,015	-0,148
-566,846	-200,000	0,004	-0,100
-565,831	672,872	-0,047	0,088
-564,817	-200,000	-0,002	-0,021
-563,802	371,238	0,029	-0,042
-562,788	-200,000	-0,001	-0,028
-561,773	9,911	-0,048	0,027
-560,758	-200,000	0,012	0,149
-559,744	-19,843	-0,090	-0,040
-558,729	800,000	-0,045	0,108
-557,715	-15,764	-0,126	-0,058
-556,700	167,183	-0,044	-0,046
-555,685	-200,000	-0,002	-0,079
-554,671	253,366	0,085	0,105
-553,656	120,868	0,051	0,046
-552,642	-102,798	0,087	0,015
-551,627	-63,503	0,062	-0,018
-550,612	0,305	0,036	0,019
-549,598	248,953	-0,051	-0,062
-548,583	33,249	-0,074	-0,046
-547,569	23,188	-0,136	-0,080
-546,554	-20,736	0,148	0,065
-545,539	-77,453	0,065	0,016
-544,525	-200,000	0,023	-0,131
-543,510	180,363	-0,006	0,007
-542,496	8,012	0,057	0,031
-541,481	-43,393	-0,086	-0,031
-540,466	-200,000	0,022	-0,119
-539,452	37,488	0,122	-0,078
-538,437	34,725	-0,050	0,032
-537,423	-16,695	-0,077	-0,035
-536,408	-200,000	-0,010	0,146
-535,393	-166,471	-0,052	-0,002
-534,379	64,753	-0,147	-0,107
-533,364	117,959	0,053	0,047
-532,350	800,000	0,052	0,114
-531,335	800,000	-0,053	-0,119
-530,321	800,000	-0,026	-0,052
-529,306	103,956	-0,142	0,121
-528,291	-12,122	-0,129	0,061
-527,277	112,998	0,030	-0,026
-526,262	800,000	0,027	0,085
-525,248	-200,000	-0,000	0,015
-524,233	-200,000	0,022	0,080
-523,218	589,134	-0,047	0,085
-522,204	5,464	0,049	0,026
-521,189	-7,295	-0,042	-0,021
-520,175	667,697	-0,014	-0,027
-519,160	-200,000	0,006	0,114
-518,145	88,710	0,127	-0,102
-517,131	800,000	0,052	0,163
-516,116	-37,143	-0,076	0,029
-515,102	-200,000	-0,016	0,075
-514,087	-173,395	0,029	0,001
-513,072	-97,550	-0,071	0,013
-512,058	800,000	-0,017	0,049
-511,043	-200,000	0,141	0,000
-510,029	-200,000	-0,008	0,085
-509,014	-200,000	0,050	0,163
-507,999	140,722	0,091	0,087
-506,985	-200,000	-0,013	-0,096
-505,970	-200,000	-0,001	-0,101
-504,956	112,348	-0,068	0,059
-503,941	-154,200	-0,171	0,008
-502,926	-47,465	0,202	0,070
-501,912	-71,584	0,064	-0,017
-500,897	692,981	-0,071	-0,135
-499,883	505,957	0,026	-0,044
-498,868	-149,149	-0,114	0,006
-497,853	-6,886	0,036	-0,018
-496,839	-145,513	0,082	-0,005
-495,824	242,605	-0,050	0,060
-494,810	-93,458	0,071	0,014
-493,795	-47,042	0,113	-0,040
-492,781	800,000	-0,045	0,123
-491,766	-99,073	0,079	0,014
-490,751	-200,000	0,024	0,110
-489,737	-49,110	0,132	0,045
-488,722	101,941	0,072	0,061
-487,708	-52,302	0,098	-0,033
-486,693	676,705	0,046	0,086
-485,678	250,049	-0,015	0,019
-484,664	120,998	-0,036	0,032
-483,649	31,744	-0,049	-0,030
-482,635	766,462	-0,075	0,147
-481,620	34,237	0,066	-0,042
-480,605	489,336	-0,041	-0,069
-479,591	-139,647	-0,185	0,014
-478,576	800,000	0,021	-0,055
-477,562	-200,000	-0,028	-0,193
-476,547	-190,486	0,026	0,000
-475,532	603,777	-0,043	0,078
-474,518	800,000	-0,047	0,141
-473,503	-34,760	0,056	0,022
-472,489	163,531	0,151	0,153
-471,474	415,469	-0,069	-0,107
-470,459	-200,000	-0,014	-0,043
-469,445	-200,000	-0,017	-0,079
-468,430	-200,000	-0,028	-0,155
-467,416	116,000	-0,062	-0,055
-466,401	525,130	-0,044	-0,075
-465,386	393,641	0,056	0,084
-464,372	-200,000	0,002	-0,017
-463,357	66,248	-0,042	-0,031
-462,343	-100,505	0,110	0,019
-461,328	-74,908	0,065	0,017
-460,313	-133,256	-0,033	0,003
-459,299	-5,860	0,220	-0,108
-458,284	-24,364	-0,001	-0,001
-457,270	-32,130	-0,063	0,025
-456,255	514,014	-0,009	0,015
-455,241	-200,000	0,028	-0,119
-454,226	800,000	-0,005	-0,011
-453,211	-112,940	0,079	-0,011
-452,197	-12,200	0,036	0,017
-451,182	-200,000	-0,003	0,161
-450,168	-136,404	0,167	0,014
-449,153	125,676	-0,086	-0,079
-448,138	-51,631	-0,096	0,032
-447,124	338,714	-0,048	0,067
-446,109	-41,964	0,123	0,045
-445,095	44,018	0,109	-0,072
-444,080	800,000	-0,047	-0,103
-443,065	800,000	0,030	-0,094
-442,051	455,922	-0,037	-0,059
-441,036	-125,026	-0,082	0,009
-440,022	-114,036	-0,102	-0,014
-439,007	-81,457	-0,128	-0,030
-437,992	-92,448	0,082	0,016
-436,978	-91,085	0,213	0,044
-435,963	800,000	-0,028	0,059
-434,949	-59,852	0,072	0,022
-433,934	800,000	-0,003	-0,010
-432,919	49,182	0,131	-0,088
-431,905	454,423	-0,039	-0,062
-430,890	166,476	-0,132	0,134
-429,876	-35,568	-0,023	-0,009
-428,861	152,454	0,058	0,057
-427,846	75,121	-0,059	-0,045
-426,832	-200,000	0,008	-0,099
-425,817	800,000	-0,025	-0,066
-424,803	182,710	0,016	-0,017
-423,788	800,000	-0,034	0,070
-422,773	-0,337	-0,038	0,019
-421,759	50,102	0,093	0,063
-420,744	128,307	-0,058	0,053
-419,730	-58,915	-0,064	0,020
-418,715	-101,370	0,056	0,010
-417,701	-13,361	-0,052	-0,024
-416,686	747,898	0,008	-0,015
-415,671	629,107	0,081	0,148
-414,657	125,435	-0,046	0,041
-413,642	-200,000	0,018	0,058
-412,628	-21,635	-0,083	0,036
-411,613	800,000	-0,019	0,056
-410,598	800,000	-0,114	-0,241
-409,584	-200,000	-0,007	0,145
-408,569	-200,000	0,004	0,194
-407,555	-200,000	-0,013	0,070
-406,540	499,649	0,049	0,082
-405,525	-200,000	0,002	0,011
-404,511	-200,000	0,016	-0,158
-403,496	22,796	0,102	-0,060
-402,482	-200,000	-0,013	0,117
-401,467	137,092	-0,074	0,069
-400,452	-164,084	-0,054	-0,002
-399,438	217,270	0,100	-0,114
-398,423	-190,105	0,058	-0,000
-397,409	-94,320	-0,108	-0,021
-396,394	-1,664	0,217	0,109
-395,379	614,144	0,065	0,118
-394,365	216,580	0,072	0,083
-393,350	211,893	0,122	0,138
-392,336	544,617	-0,071	-0,123
-391,321	800,000	0,062	-0,138
-390,306	-200,000	-0,001	-0,053
-389,292	266,010	-0,137	-0,173
-388,277	91,007	0,122	-0,098
-387,263	-200,000	0,026	0,136
-386,248	-166,543	0,037	-0,001
-385,233	11,856	0,059	-0,032
-384,219	800,000	0,037	-0,080
-383,204	-23,723	-0,104	0,044
-382,190	-139,222	0,097	-0,007
-381,175	-200,000	-0,005	0,042
-380,160	800,000	-0,039	0,094
-379,146	276,874	0,103	0,132
-378,131	-200,000	-0,012	0,095
-377,117	-200,000	-0,036	-0,133
-376,102	-200,000	-0,004	0,022
-375,088	81,691	-0,025	-0,019
-374,073	-8,749	0,058	-0,028
-373,058	-200,000	0,004	0,039
-372,044	22,627	-0,040	0,023
-371,029	-200,000	-0,026	0,095
-370,015	-103,652	-0,120	0,020
-369,000	-0,243	0,103	-0,052
-367,985	-93,724	-0,101	-0,020
-366,971	-200,000	0,005	0,130
-365,956	-162,508	0,016	-0,001
-364,942	40,314	-0,037	-0,024
-363,927	105,487	0,040	-0,034
-362,912	-126,073	-0,148	0,016
-361,898	-200,000	-0,011	-0,042
-360,883	-200,000	0,023	-0,080
-359,869	144,354	0,031	-0,029
-358,854	492,879	0,049	-0,081
-357,839	249,147	-0,031	0,037
-356,825	-28,409	0,144	0,059
-355,810	-163,329	-0,173	0,006
-354,796	-55,501	-0,145	-0,046
-353,781	800,000	-0,054	-0,139
-352,766	290,533	0,094	-0,122
-351,752	7,863	0,080	-0,043
-350,737	800,000	0,022	0,044
-349,723	-200,000	-0,020	-0,108
-348,708	97,828	-0,092	0,076
-347,693	-118,528	-0,018	0,002
-346,679	269,451	0,124	-0,157
-345,664	-135,081	-0,102	0,009
-344,650	-200,000	-0,004	0,144
-343,635	280,785	0,082	0,105
-342,620	-200,000	-0,001	0,129
-341,606	82,551	0,021	0,016
-340,591	-68,007	0,064	-0,018
-339,577	-91,803	-0,159	0,032
-338,562	-30,517	0,006	-0,002
-337,548	54,386	-0,087	-0,060
-336,533	800,000	0,025	0,055
-335,518	233,937	0,102	0,120
-334,504	800,000	0,058	0,119
-333,489	161,153	-0,081	0,082
-332,475	13,902	0,088	-0,049
-331,460	-200,000	0,032	-0,107
-330,445	192,646	0,147	-0,159
-329,431	-107,834	-0,093	0,014
-328,416	800,000	-0,037	0,073
-327,402	-200,000	0,001	0,020
-326,387	-73,395	0,223	-0,058
-325,372	-40,617	-0,213	-0,079
-324,358	492,515	0,011	0,019
-323,343	-200,000	-0,003	-0,009
-322,329	126,346	0,132	-0,120
-321,314	800,000	-0,024	-0,050
-320,299	196,081	-0,062	0,068
-319,285	204,536	0,016	-0,017
-318,270	-86,985	0,084	-0,018
-317,256	-200,000	0,002	0,044
-316,241	96,296	0,039	0,032
-315,226	-36,377	0,023	-0,009
-314,212	43,329	0,069	0,045
-313,197	-109,892	0,064	0,009
-312,183	376,997	-0,027	0,040
-311,168	800,000	0,005	-0,010
-310,153	800,000	-0,059	-0,129
-309,139	378,287	0,073	-0,107
-308,124	316,252	-0,071	0,096
-307,110	800,000	0,006	-0,015
-306,095	800,000	-0,025	0,080
-305,080	-52,896	-0,054	0,018
-304,066	-7,969	-0,104	0,050
-303,051	228,862	0,035	-0,041
-302,037	-61,431	-0,051	-0,015
-301,022	409,161	-0,009	-0,014
-300,008	209,582	0,129	-0,145
-298,993	-200,000	0,023	0,100
-297,978	800,000	-0,031	0,062
-296,964	68,200	-0,059	-0,043
-295,949	-200,000	0,017	0,083
-294,935	800,000	0,056	-0,114
-293,920	292,661	-0,085	-0,111
-292,905	-200,000	0,012	-0,066
-291,891	-200,000	0,044	0,153
-290,876	800,000	-0,045	0,128
-289,862	-200,000	-0,018	-0,092
-288,847	800,000	0,040	0,092
-287,832	800,000	-0,018	-0,041
-286,818	-200,000	0,006	-0,070
-285,803	81,732	0,098	0,076
-284,789	162,858	0,081	0,081
-283,774	-21,573	0,093	-0,040
-282,759	315,352	0,035	0,048
-281,745	13,856	-0,141	-0,078
-280,730	12,543	0,029	0,016
-279,716	-21,287	0,097	0,042
-278,701	-200,000	0,015	0,125
-277,686	-62,466	0,114	0,034
-276,672	-200,000	0,000	-0,160
-275,657	-200,000	0,014	0,224
-274,643	-31,880	0,051	0,020
-273,628	-154,609	-0,064	0,003
-272,613	800,000	-0,034	-0,082
-271,599	59,912	0,082	0,058
-270,584	-200,000	0,011	0,094
-269,570	-133,193	0,100	-0,009
-268,555	-200,000	-0,000	0,017
-267,540	26,956	-0,103	0,061
-266,526	-200,000	-0,031	-0,206
-265,511	-61,221	0,121	-0,036
-264,497	-200,000	0,008	0,115
-263,482	-200,000	0,004	-0,076
-262,467	800,000	0,035	0,105
-261,453	800,000	0,025	-0,053
-260,438	800,000	-0,054	-0,124
-259,424	-115,389	-0,066	-0,009
-258,409	-162,601	0,106	0,004
-257,395	195,790	-0,087	-0,095
-256,380	19,130	0,131	0,075
-255,365	-200,000	-0,064	0,212
-254,351	-200,000	-0,021	0,173
-253,336	37,203	0,078	-0,049
-252,322	-180,049	-0,111	-0,002
-251,307	800,000	-0,034	-0,105
-250,292	-200,000	0,017	-0,108
-249,278	-200,000	-0,018	-0,095
-248,263	-7,810	0,023	0,011
-247,249	-7,088	0,099	0,048
-246,234	-113,828	0,056	-0,008
-245,219	175,290	0,112	-0,116
-244,205	-29,013	-0,027	0,011
-243,190	21,537	-0,021	0,012
-242,176	-27,475	-0,173	0,071
-241,161	-3,776	-0,014	0,007
-240,146	346,768	-0,041	-0,057
-239,132	132,311	-0,028	0,025
-238,117	-94,489	-0,039	-0,008
-237,103	166,781	0,139	-0,141
-236,088	15,584	-0,089	-0,050
-235,073	108,622	0,073	-0,062
-234,059	-50,105	0,108	-0,036
-233,044	21,339	0,108	0,063
-232,030	-108,453	0,124	-0,019
-231,015	800,000	0,025	-0,068
-230,000	-200,000	-0,018	-0,075
-228,986	48,293	0,173	-0,115
-227,971	-200,000	-0,002	0,137
-226,957	-72,524	0,050	-0,013
-225,942	182,633	-0,136	0,143
-224,927	-200,000	-0,018	0,061
-223,913	-52,132	0,048	-0,016
-222,898	7,729	0,026	-0,014
-221,884	10,054	-0,138	-0,074
-220,869	-174,346	-0,049	-0,001
-219,855	514,939	0,063	0,106
-218,840	800,000	-0,041	0,091
-217,825	-77,876	-0,071	0,017
-216,811	39,940	-0,114	0,073
-215,796	-200,000	0,022	-0,126
-214,782	711,128	-0,008	-0,016
-213,767	-99,818	0,096	0,017
-212,752	16,862	0,081	-0,045
-211,738	52,129	-0,013	0,009
-210,723	256,423	-0,123	-0,151
-209,709	-200,000	-0,007	0,032
-208,694	-200,000	0,014	-0,054
-207,679	800,000	-0,112	-0,274
-206,665	-66,811	0,096	-0,027
-205,650	95,918	-0,076	0,062
-204,636	-200,000	-0,004	0,039
-203,621	800,000	-0,049	-0,114
-202,606	-9,436	0,019	0,009
-201,592	-113,815	-0,093	0,013
-200,577	-200,000	0,003	-0,089
-199,563	-200,000	-0,012	-0,041
-198,548	187,928	-0,090	-0,096
-197,533	384,120	-0,008	0,012
-196,519	-106,624	-0,039	-0,006
-195,504	-87,751	-0,099	0,021
-194,490	0,588	-0,042	-0,021
-193,475	81,142	-0,102	-0,078
-192,460	312,020	-0,072	0,096
-191,446	800,000	0,049	0,115
-190,431	27,116	-0,089	0,053
-189,417	-200,000	-0,036	0,116
-188,402	-64,519	0,109	-0,031
-187,387	-39,081	-0,066	-0,025
-186,373	800,000	-0,083	-0,186
-185,358	-200,000	0,015	0,067
-184,344	-40,952	-0,016	-0,006
-183,329	-170,594	0,184	-0,004
-182,315	-79,014	0,033	0,008
-181,300	800,000	-0,030	0,093
-180,285	-114,363	-0,063	0,009
-179,271	8,469	0,062	-0,033
-178,256	-70,564	-0,018	-0,005
-177,242	-200,000	-0,003	-0,027
-176,227	-200,000	0,035	0,220
-175,212	243,732	-0,065	0,077
-174,198	466,825	0,067	-0,107
-173,183	441,492	0,084	-0,132
-172,169	-74,065	-0,143	-0,037
-171,154	467,594	-0,069	-0,111
-170,139	800,000	-0,025	0,052
-169,125	69,121	0,029	-0,021
-168,110	-115,733	0,080	-0,010
-167,096	-65,841	0,101	0,029
-166,081	246,205	-0,011	-0,014
-165,066	800,000	-0,055	-0,169
-164,052	-84,175	-0,038	-0,008
-163,037	-158,834	0,064	0,003
-162,023	87,011	-0,039	-0,031
-161,008	800,000	-0,045	0,123
-159,993	117,980	0,023	0,020
-158,979	-159,643	0,025	0,001
-157,964	188,293	-0,027	-0,028
-156,950	-200,000	-0,038	-0,129
-155,935	-200,000	-0,043	-0,178
-154,920	696,887	0,057	0,107
-153,906	-108,800	0,064	-0,010
-152,891	800,000	0,069	-0,153
-151,877	628,442	0,037	-0,067
-150,862	-87,485	-0,116	-0,025
-149,847	-200,000	0,000	-0,068
-148,833	-200,000	-0,005	-0,070
-147,818	-103,792	0,085	-0,014
-146,804	-2,293	0,110	0,055
-145,789	-86,776	0,116	-0,025
-144,775	-200,000	0,039	-0,132
-143,760	800,000	-0,034	-0,071
-142,745	-104,028	0,042	-0,007
-141,731	800,000	0,035	0,074
-140,716	-50,008	0,120	-0,040
-139,702	-45,795	-0,097	0,034
-138,687	58,256	0,112	0,078
-137,672	106,245	-0,057	-0,048
-136,658	-200,000	-0,014	-0,095
-135,643	-200,000	0,005	-0,157
-134,629	-56,819	-0,063	-0,020
-133,614	34,528	0,113	0,070
-132,599	800,000	-0,026	0,062
-131,585	210,942	-0,030	0,034
-130,570	-200,000	0,003	-0,079
-129,556	591,276	0,063	-0,111
-128,541	150,206	-0,034	-0,032
-127,526	271,487	-0,045	0,057
-126,512	-200,000	-0,024	0,196
-125,497	-58,119	0,094	0,029
-124,483	371,407	-0,012	-0,017
-123,468	800,000	0,046	0,108
-122,453	-103,869	-0,137	0,023
-121,439	49,752	-0,108	0,072
-120,424	800,000	0,024	0,063
-119,410	-200,000	-0,011	0,170
-118,395	-186,008	0,076	-0,001
-117,380	154,038	0,064	-0,062
-116,366	-200,000	0,003	0,057
-115,351	-133,238	0,077	-0,007
-114,337	288,250	-0,067	-0,087
-113,322	-131,273	0,043	0,004
-112,307	21,582	-0,057	-0,033
-111,293	-76,343	0,110	-0,027
-110,278	-200,000	0,008	0,057
-109,264	21,343	0,121	0,070
-108,249	-200,000	-0,027	-0,136
-107,234	800,000	-0,008	0,025
-106,220	-97,027	-0,113	-0,021
-105,205	-85,679	0,053	0,012
-104,191	-153,477	0,105	-0,005
-103,176	84,189	0,035	-0,027
-102,162	281,122	0,080	0,102
-101,147	-132,713	0,038	-0,003
-100,132	-19,401	-0,103	0,045
-99,118	128,352	0,056	0,051
-98,103	7,083	0,086	0,045
-97,089	206,634	0,102	0,113
-96,074	-190,680	0,047	-0,000
-95,059	-200,000	0,015	0,062
-94,045	-8,835	0,024	-0,012
-93,030	-36,981	0,063	0,024
-92,016	307,987	-0,059	-0,078
-91,001	363,007	-0,004	0,005
-89,986	-63,199	-0,050	-0,015
-88,972	-83,457	0,100	0,023
-87,957	62,131	0,057	-0,041
-86,943	-200,000	-0,227	-0,001
-85,928	800,000	0,035	-0,085
-84,913	759,681	-0,057	0,110
-83,899	800,000	0,021	0,050
-82,884	-151,783	-0,052	0,003
-81,870	290,300	0,040	-0,052
-80,855	800,000	0,012	0,026
-79,840	-200,000	-0,018	-0,075
-78,826	800,000	0,024	-0,060
-77,811	-24,274	-0,060	-0,025
-76,797	-15,483	0,129	-0,058
-75,782	729,563	-0,037	-0,070
-74,767	-119,972	0,013	-0,002
-73,753	800,000	0,064	0,163
-72,738	-57,795	-0,069	-0,021
-71,724	-200,000	0,001	-0,057
-70,709	694,752	-0,074	-0,138
-69,694	800,000	0,029	-0,080
-68,680	-84,561	-0,137	-0,030
-67,665	-200,000	0,016	0,089
-66,651	144,146	-0,022	-0,021
-65,636	28,313	-0,068	-0,041
-64,622	16,377	-0,083	-0,046
-63,607	-200,000	-0,003	-0,014
-62,592	47,871	-0,097	0,064
-61,578	179,122	0,032	-0,033
-60,563	-200,000	0,006	0,083
-59,549	-200,000	-0,004	0,178
-58,534	-55,943	-1,589	-0,500
-57,519	320,025	-1,555	-2,098
-56,505	-200,000	-0,331	-4,416
-55,490	352,207	0,826	1,163
-54,476	800,000	4,777	11,047
-53,461	-200,000	18,292	287,291
-52,446	800,000	727,546	2228,137
-51,432	555,222	1643,214	2814,692
-50,417	79,185	1664,791	1263,222
-49,403	22,892	1538,471	891,643
-48,388	16,868	1461,903	818,072
-47,373	17,892	1451,688	817,255
-46,359	17,298	1442,237	809,062
-45,344	15,190	1437,529	796,319
-44,330	15,104	1435,511	794,760
-43,315	15,075	1433,877	793,686
-42,300	15,123	1432,102	792,900
-41,286	15,175	1430,949	792,475
-40,271	15,121	1429,912	791,613
-39,257	15,125	1428,639	790,898
-38,242	15,153	1427,198	790,199
-37,227	15,178	1426,081	789,671
-36,213	15,161	1424,753	788,822
-35,198	15,156	1423,379	788,008
-34,184	15,185	1422,697	787,735
-33,169	15,150	1421,278	786,753
-32,154	15,182	1420,400	786,385
-31,140	15,188	1419,045	785,635
-30,125	15,199	1417,911	785,028
-29,111	15,161	1416,874	784,241
-28,096	15,149	1415,656	783,479
-27,082	15,093	1414,734	782,677
-26,067	15,106	1413,437	781,988
-25,052	15,108	1412,458	781,426
-24,038	15,085	1411,432	780,720
-23,023	15,055	1410,423	779,989
-22,009	15,072	1409,267	779,397
-20,994	15,012	1408,564	778,699
-19,979	15,020	1407,741	778,250
-18,965	15,017	1406,630	777,589
-17,950	15,034	1405,492	777,007
-16,936	15,068	1404,602	776,643
-15,921	15,015	1403,560	775,791
-14,906	14,978	1402,575	775,045
-13,892	15,017	1401,826	774,779
-12,877	14,971	1400,831	773,986
-11,863	15,016	1399,935	773,671
-10,848	15,001	1399,071	773,090
-9,833	14,944	1398,352	772,399
-8,819	14,912	1397,309	771,642
-7,804	14,915	1396,331	771,087
-6,790	14,910	1395,245	770,434
-5,775	14,922	1394,311	769,940
-4,760	14,857	1393,530	769,178
-3,746	14,876	1392,609	768,727
-2,731	14,868	1391,996	768,320
-1,717	14,883	1390,839	767,721
-0,702	14,832	1389,165	766,534
0,313	18,660	1308,089	739,512
1,327	34,856	706,770	437,134
2,342	53,494	124,604	84,526
3,356	4,195	16,720	8,643
4,371	4,174	3,252	1,681
5,386	-75,116	0,573	0,144
6,400	273,012	0,136	0,170
7,415	152,513	-0,191	-0,185
8,429	189,824	-0,334	-0,356
9,444	153,359	-0,266	-0,258
10,459	55,130	-0,378	-0,258
11,473	207,324	-0,257	-0,284
12,488	-41,709	-0,351	-0,127
13,502	161,634	-0,222	-0,220
14,517	50,476	-0,264	-0,176
15,531	50,069	-0,410	-0,273
16,546	187,788	-0,257	-0,272
17,561	69,910	-0,353	-0,257
18,575	-154,583	-0,330	0,015
19,590	318,110	-0,192	-0,258
20,604	2,456	-0,323	-0,165
21,619	26,297	-0,506	-0,298
22,634	32,658	-0,434	-0,265
23,648	-52,070	-0,388	-0,127
24,663	402,772	-0,285	-0,425
25,677	97,226	-0,307	-0,249
26,692	117,399	-0,211	-0,183
27,707	91,325	-0,286	-0,227
28,721	202,074	-0,354	-0,387
29,736	63,163	-0,434	-0,307
30,750	194,014	-0,390	-0,418
31,765	208,398	-0,391	-0,433
32,780	110,985	-0,382	-0,325
33,794	114,965	-0,342	-0,295
34,809	-10,525	-0,346	-0,161
35,823	39,645	-0,431	-0,272
36,838	57,334	-0,405	-0,278
37,853	60,676	-0,442	-0,309
38,867	95,482	-0,437	-0,352
39,882	-5,481	-0,266	-0,128
40,896	46,881	-0,351	-0,230
41,911	35,296	-0,393	-0,243
42,926	90,688	-0,381	-0,301
43,940	72,454	-0,293	-0,216
44,955	55,398	-0,433	-0,295
45,969	98,953	-0,358	-0,291
46,984	-26,677	-0,384	-0,158
47,999	-16,138	-0,383	-0,171
49,013	193,778	-0,249	-0,266
50,028	266,745	-0,262	-0,324
51,042	46,920	-0,407	-0,267
52,057	15,735	-0,421	-0,233
53,071	108,971	-0,261	-0,220
54,086	127,522	-0,361	-0,324
55,101	-45,446	-0,317	-0,110
56,115	351,218	-0,174	-0,243
57,130	-82,984	-0,422	-0,095
58,144	26,032	-0,434	-0,255
59,159	-30,299	-0,388	-0,155
60,174	94,823	-0,312	-0,250
61,188	65,375	-0,416	-0,296
62,203	129,664	-0,214	-0,193
63,217	169,688	-0,272	-0,274
64,232	55,983	-0,360	-0,246
65,247	-27,111	-0,358	-0,146
66,261	41,658	-0,347	-0,221
67,276	73,708	-0,336	-0,248
68,290	18,621	-0,306	-0,172
69,305	122,171	-0,285	-0,251
70,320	47,520	-0,306	-0,200
71,334	37,696	-0,279	-0,174
72,349	-39,050	-0,351	-0,129
73,363	203,161	-0,223	-0,243
74,378	-33,776	-0,430	-0,166
75,393	541,387	-0,189	-0,318
76,407	79,452	-0,194	-0,146
77,422	21,648	-0,303	-0,173
78,436	85,966	-0,240	-0,186
79,451	-92,248	-0,382	-0,075
80,466	75,765	-0,266	-0,197
81,480	89,181	-0,385	-0,301
82,495	224,381	-0,196	-0,223
83,509	-107,351	-0,268	-0,041
84,524	52,295	-0,258	-0,173
85,539	104,255	-0,236	-0,195
86,553	114,118	-0,232	-0,198
87,568	-1,778	-0,290	-0,143
88,582	223,010	-0,273	-0,310
89,597	-25,636	-0,454	-0,187
90,611	78,740	-0,229	-0,172
91,626	-38,149	-0,363	-0,134
92,641	1,018	-0,360	-0,181
93,655	376,903	-0,161	-0,231
94,670	255,324	-0,311	-0,375
95,684	213,885	-0,224	-0,249
96,699	49,287	-0,431	-0,285
97,714	152,562	-0,238	-0,228
98,728	36,901	-0,203	-0,126
99,743	54,589	-0,226	-0,152
100,757	-137,230	-0,343	-0,027
101,772	702,966	-0,153	-0,285
102,787	218,953	-0,289	-0,325
103,801	-13,656	-0,339	-0,154
104,816	-12,893	-0,235	-0,107
105,830	6,258	-0,257	-0,134
106,845	180,900	-0,123	-0,127
107,860	-152,129	-0,291	-0,015
108,874	-29,816	-0,280	-0,112
109,889	-53,184	-0,389	-0,125
110,903	139,823	-0,306	-0,283
111,918	800,000	-0,099	-0,241
112,933	98,449	-0,269	-0,218
113,947	-124,876	-0,101	0,011
114,962	17,781	-0,333	-0,186
115,976	14,343	-0,377	-0,206
116,991	49,456	-0,242	-0,159
118,006	-8,898	-0,382	-0,179
119,020	-200,000	-0,253	0,001
120,035	69,426	-0,264	-0,190
121,049	27,053	-0,289	-0,169
122,064	-10,102	-0,311	-0,144
123,079	-40,525	-0,258	-0,093
124,093	-95,062	-0,443	-0,083
125,108	374,982	-0,221	-0,317
126,122	118,939	-0,290	-0,251
127,137	541,567	-0,116	-0,195
128,151	4,998	-0,114	-0,059
129,166	51,749	-0,176	-0,117
130,181	-72,423	-0,237	-0,061
131,195	67,294	-0,314	-0,224
132,210	32,389	-0,291	-0,175
133,224	52,465	-0,212	-0,141
134,239	-22,648	-0,349	-0,147
135,254	157,672	-0,239	-0,232
136,268	511,961	-0,130	-0,213
137,283	27,385	-0,168	-0,099
138,297	145,167	-0,252	-0,236
139,312	439,658	-0,225	-0,345
140,327	39,068	-0,363	-0,226
141,341	217,824	-0,192	-0,215
142,356	-1,027	-0,096	-0,047
143,370	1,265	-0,340	-0,170
144,385	227,011	-0,244	-0,278
145,400	112,996	-0,288	-0,244
146,414	377,007	-0,226	-0,323
147,429	77,460	-0,246	-0,183
148,443	17,467	-0,320	-0,177
149,458	31,792	-0,187	-0,112
150,473	-54,475	-0,135	0,042
151,487	99,175	-0,132	-0,106
152,502	98,981	-0,303	-0,245
153,516	77,223	-0,189	-0,140
154,531	-5,214	-0,255	-0,122
155,546	-1,396	-0,241	-0,118
156,560	546,883	-0,128	-0,214
157,575	174,909	-0,224	-0,227
158,589	380,283	-0,184	-0,264
159,604	266,544	-0,202	-0,247
160,619	169,521	-0,195	-0,195
161,633	392,097	-0,212	-0,309
162,648	253,675	-0,171	-0,204
163,662	216,705	-0,152	-0,170
164,677	533,732	-0,089	-0,147
165,692	-200,000	-0,020	-0,164
166,706	170,983	-0,178	-0,178
167,721	12,458	-0,417	-0,224
168,735	35,838	-0,201	-0,123
169,750	100,905	-0,180	-0,146
170,764	36,245	-0,181	0,111
171,779	800,000	-0,045	-0,123
172,794	39,527	-0,153	-0,096
173,808	-91,239	-0,173	-0,034
174,823	57,892	-0,222	-0,152
175,837	182,431	-0,145	-0,149
176,852	-55,496	-0,122	-0,038
177,867	80,851	-0,150	-0,113
178,881	265,115	-0,183	-0,222
179,896	251,779	-0,249	-0,296
180,910	214,436	-0,234	-0,259
181,925	259,077	-0,213	-0,256
182,940	-3,136	-0,289	-0,140
183,954	97,311	-0,156	-0,124
184,969	-11,115	-0,232	-0,106
185,983	-200,000	-0,014	-0,208
186,998	-98,370	-0,160	-0,028
188,013	412,640	-0,182	-0,270
189,027	-55,706	-0,287	-0,089
190,042	167,106	-0,210	-0,208
191,056	356,506	-0,095	-0,132
192,071	34,837	-0,203	-0,123
193,086	383,379	-0,140	-0,201
194,100	151,599	-0,087	-0,083
195,115	101,181	-0,202	-0,164
196,129	132,900	-0,280	-0,252
197,144	19,032	-0,313	-0,174
198,159	800,000	-0,178	-0,362
199,173	329,199	-0,156	-0,209
200,188	78,722	-0,221	-0,164
201,202	56,124	-0,136	-0,092
202,217	695,138	-0,131	-0,240
203,232	2,669	-0,159	-0,080
204,246	683,312	-0,103	-0,188
205,261	289,510	-0,097	-0,123
206,275	90,752	-0,236	-0,184
207,290	-19,900	-0,238	-0,102
208,304	372,944	-0,148	-0,209
209,319	14,733	-0,279	-0,151
210,334	-98,581	-0,212	-0,037
211,348	-19,468	-0,266	-0,114
212,363	257,577	-0,198	-0,238
213,377	-70,052	-0,304	-0,080
214,392	-10,564	-0,177	-0,081
215,407	18,741	-0,226	-0,126
216,421	2,102	-0,223	-0,112
217,436	-44,981	-0,234	-0,080
218,450	5,536	-0,190	-0,097
219,465	407,281	-0,113	-0,166
220,480	239,606	-0,187	-0,217
221,494	80,142	-0,114	-0,085
222,509	5,691	-0,170	-0,087
223,523	147,579	-0,233	-0,218
224,538	433,478	-0,142	-0,215
225,553	49,041	-0,174	-0,114
226,567	-10,177	-0,223	-0,102
227,582	411,112	-0,092	-0,136
228,596	55,277	-0,241	-0,161
229,611	36,019	-0,185	-0,113
230,626	71,041	-0,160	-0,115
231,640	81,950	-0,255	-0,191
232,655	-141,909	-0,254	0,017
233,669	0,188	-0,302	-0,149
234,684	131,743	-0,157	-0,140
235,699	175,841	-0,114	-0,115
236,713	126,458	-0,228	-0,200
237,728	-12,328	-0,141	-0,064
238,742	-63,779	-0,262	-0,074
239,757	19,488	-0,271	-0,151
240,772	-9,656	-0,178	-0,082
241,786	-49,736	-0,170	-0,056
242,801	269,275	-0,205	-0,250
243,815	183,561	-0,140	-0,143
244,830	-64,390	-0,166	-0,047
245,844	408,734	-0,162	-0,239
246,859	702,626	-0,150	-0,274
247,874	10,369	-0,169	-0,089
248,888	299,837	-0,138	-0,177
249,903	-121,281	-0,352	-0,040
250,917	0,672	-0,133	-0,066
251,932	-101,486	-0,166	0,028
252,947	74,292	-0,133	-0,097
253,961	-97,104	-0,179	-0,032
254,976	268,632	-0,159	-0,194
255,990	114,632	-0,170	-0,144
257,005	242,941	-0,182	-0,212
258,020	38,210	-0,266	-0,164
259,034	-0,428	-0,246	-0,121
260,049	12,954	-0,181	-0,097
261,063	45,729	-0,136	-0,087
262,078	77,708	-0,139	-0,103
263,093	31,013	-0,158	-0,094
264,107	50,426	-0,247	-0,161
265,122	87,054	-0,234	-0,178
266,136	72,904	-0,130	0,094
267,151	220,443	-0,181	-0,201
268,166	235,123	-0,137	-0,156
269,180	41,784	-0,203	-0,127
270,195	-132,998	-0,132	0,011
271,209	59,042	-0,173	-0,117
272,224	141,614	-0,180	-0,165
273,239	63,604	-0,133	-0,092
274,253	192,540	-0,137	-0,143
275,268	800,000	-0,086	-0,234
276,282	-22,808	-0,149	-0,062
277,297	428,297	-0,165	-0,247
278,312	217,200	-0,138	-0,152
279,326	-3,118	-0,226	-0,109
280,341	359,111	-0,119	-0,164
281,355	-39,583	-0,083	-0,030
282,370	-130,531	-0,191	-0,018
283,384	0,323	-0,247	-0,121
284,399	40,217	-0,204	-0,126
285,414	221,852	-0,201	-0,224
286,428	755,976	-0,094	-0,177
287,443	-98,571	-0,148	0,026
288,457	-125,860	-0,152	-0,016
289,472	-12,427	-0,088	-0,040
290,487	186,394	-0,153	-0,157
291,501	-75,055	-0,233	0,057
292,516	25,224	-0,256	-0,147
293,530	-94,326	-0,119	0,022
294,545	116,957	-0,093	-0,079
295,560	-107,195	-0,163	0,025
296,574	-26,156	-0,063	-0,025
297,589	33,019	-0,184	-0,110
298,603	526,837	-0,191	-0,312
299,618	-15,930	-0,208	-0,091
300,633	45,834	-0,110	-0,070
301,647	261,115	-0,169	-0,202
302,662	475,613	-0,083	-0,129
303,676	397,582	-0,093	-0,134
304,691	182,813	-0,210	-0,213
305,706	186,729	-0,074	-0,076
306,720	-200,000	-0,015	-0,187
307,735	283,736	-0,147	-0,183
308,749	-136,520	-0,128	-0,010
309,764	-78,878	-0,089	-0,021
310,779	-72,544	-0,129	0,032
311,793	-89,159	-0,180	-0,036
312,808	58,285	-0,086	-0,058
313,822	71,606	-0,154	-0,110
314,837	394,454	-0,110	-0,159
315,852	-98,779	-0,123	0,021
316,866	-124,399	-0,113	0,012
317,881	100,342	-0,137	-0,110
318,895	-15,562	-0,155	-0,068
319,910	474,252	-0,081	-0,126
320,925	230,786	-0,133	-0,150
321,939	323,409	-0,099	-0,130
322,954	-106,300	-0,078	-0,012
323,968	-175,449	-0,148	-0,003
324,983	178,878	-0,074	0,074
325,997	299,703	-0,194	-0,247
327,012	24,531	-0,240	-0,136
328,027	72,237	-0,171	-0,122
329,041	-200,000	0,018	-0,201
330,056	233,685	-0,165	-0,187
331,070	-52,480	-0,156	-0,049
332,085	-127,353	-0,152	-0,015
333,100	12,713	-0,147	-0,078
334,114	-104,980	-0,138	-0,022
335,129	267,068	-0,168	-0,202
336,143	14,890	-0,230	-0,124
337,158	-80,153	-0,132	-0,030
338,173	550,294	-0,050	-0,084
339,187	-200,000	-0,005	-0,192
340,202	204,486	-0,137	-0,147
341,216	352,378	-0,107	-0,147
342,231	482,890	-0,117	-0,183
343,246	427,440	-0,110	-0,164
344,260	-200,000	-0,012	-0,241
345,275	46,593	-0,179	-0,114
346,289	-89,952	-0,081	-0,016
347,304	-80,135	-0,165	-0,038
348,319	166,472	-0,131	-0,127
349,333	280,077	-0,175	-0,215
350,348	137,427	-0,104	-0,094
351,362	-200,000	-0,010	-0,149
352,377	-26,509	-0,128	-0,051
353,392	-92,606	-0,104	0,020
354,406	-63,059	-0,197	-0,055
355,421	209,454	1316,140	1418,271
356,435	161,197	1477,071	1418,767
