DTS Sentinel unit serial number:	SN410029Multiplexer serial number:	ORYXHardware model number:	OX2-SRSoftware version number:	ORYX F/W v4,00 Oryx Data Collector v3.7.2.0data status	okinstallation	B3 Nyhavnadifferential loss correction	single-endedforward channel	channel 1reverse channel	N/Adate	2023/12/01time	00:57:30forward acquisition time	300,00reverse acquisition time	0,00gamma	499,1914k internal	0,3211k external	0,3211temperature offset calibration	1,0000default loss term (dB/km)	0,3820temperature slope calibration	1,0000multiplexer offset coefficient	1,0000multiplexer slope coefficient	1,0000fibre end	0,00T internal ref (°C)	9,05T ext. ref 1 (°C)	-6,07T ext. ref 2 (°C)	-6,20length (m)	temperature (°C)	Stokes	anti-Stokes-744,400	256,519	-0,152	-0,190
-743,385	500,171	0,154	0,258
-742,371	554,595	-0,162	-0,283
-741,356	800,000	0,149	0,362
-740,342	170,432	-0,134	-0,139
-739,327	-200,000	-0,051	0,273
-738,312	-200,000	-0,056	-0,195
-737,298	-200,000	-0,040	0,195
-736,283	800,000	-0,107	-0,319
-735,269	-200,000	0,083	0,288
-734,254	40,880	-0,235	-0,153
-733,239	-8,624	-0,293	0,142
-732,225	87,982	-0,151	-0,122
-731,210	800,000	0,043	0,113
-730,196	153,676	-0,113	-0,112
-729,181	184,134	-0,090	-0,097
-728,167	-60,835	-0,010	0,003
-727,152	800,000	-0,046	-0,107
-726,137	3,087	-0,098	-0,052
-725,123	236,088	-0,104	-0,125
-724,108	-142,342	-0,117	-0,008
-723,094	111,544	-0,151	-0,132
-722,079	-42,326	-0,159	-0,059
-721,064	160,135	-0,029	-0,029
-720,050	-70,558	0,089	-0,024
-719,035	622,313	-0,043	0,078
-718,021	273,747	-0,066	-0,085
-717,006	-19,164	-0,182	0,082
-715,991	-148,293	-0,111	-0,007
-714,977	-109,778	-0,054	0,008
-713,962	800,000	0,040	-0,102
-712,948	-183,747	-0,138	-0,002
-711,933	-200,000	0,028	-0,152
-710,918	800,000	0,036	-0,082
-709,904	-200,000	0,004	0,082
-708,889	-50,908	-0,143	-0,048
-707,875	-200,000	0,006	-0,036
-706,860	-6,170	-0,044	-0,022
-705,845	-200,000	-0,019	0,153
-704,831	-200,000	-0,004	0,038
-703,816	-31,386	0,019	-0,008
-702,802	-200,000	0,005	-0,063
-701,787	1,059	-0,106	-0,055
-700,772	-57,079	0,085	-0,027
-699,758	800,000	-0,051	-0,158
-698,743	-182,097	0,070	0,001
-697,729	-73,097	-0,121	0,032
-696,714	563,390	-0,036	0,064
-695,699	-149,850	-0,123	0,007
-694,685	-200,000	-0,029	0,103
-693,670	-200,000	-0,032	-0,244
-692,656	-94,718	-0,134	-0,026
-691,641	800,000	0,065	-0,185
-690,627	25,920	-0,013	-0,008
-689,612	-200,000	0,007	0,066
-688,597	696,081	-0,012	-0,022
-687,583	-88,668	-0,085	-0,018
-686,568	90,260	0,048	0,039
-685,554	97,631	0,109	0,091
-684,539	479,181	-0,033	0,054
-683,524	-19,920	0,041	0,018
-682,510	-200,000	-0,009	0,101
-681,495	-200,000	0,000	0,118
-680,481	800,000	-0,009	-0,018
-679,466	-200,000	0,012	-0,157
-678,451	306,464	-0,053	0,071
-677,437	52,252	0,128	-0,088
-676,422	-7,886	-0,041	0,020
-675,408	-200,000	-0,016	0,154
-674,393	643,699	0,065	0,120
-673,378	-99,354	-0,150	-0,027
-672,364	197,638	-0,060	-0,066
-671,349	70,436	-0,158	0,118
-670,335	800,000	0,006	0,014
-669,320	-58,903	0,063	0,020
-668,305	320,155	0,061	-0,084
-667,291	155,008	0,053	-0,053
-666,276	-200,000	0,008	-0,250
-665,262	-93,000	-0,255	-0,051
-664,247	215,209	0,101	0,116
-663,232	-166,891	-0,087	-0,003
-662,218	-115,374	0,102	-0,014
-661,203	92,898	-0,053	-0,043
-660,189	6,612	-0,135	0,073
-659,174	-200,000	-0,012	-0,064
-658,159	800,000	-0,010	-0,023
-657,145	-90,260	0,020	0,004
-656,130	-14,043	0,089	0,041
-655,116	118,316	0,042	-0,038
-654,101	795,463	0,069	0,137
-653,086	-186,054	-0,066	-0,001
-652,072	11,979	-0,088	0,049
-651,057	-200,000	-0,009	-0,114
-650,043	778,713	0,080	-0,159
-649,028	-200,000	-0,020	-0,111
-648,014	-131,152	0,071	0,007
-646,999	-200,000	-0,015	-0,125
-645,984	314,655	0,045	0,061
-644,970	8,056	0,046	-0,025
-643,955	-18,809	-0,095	-0,043
-642,941	54,780	-0,102	-0,071
-641,926	-200,000	0,009	0,061
-640,911	-200,000	0,009	0,071
-639,897	800,000	-0,050	-0,134
-638,882	-200,000	0,019	0,085
-637,868	14,700	-0,163	0,092
-636,853	-35,935	0,102	0,040
-635,838	-200,000	0,003	-0,024
-634,824	-69,675	-0,119	-0,033
-633,809	278,279	0,090	0,117
-632,795	-200,000	-0,002	0,024
-631,780	-9,468	-0,125	0,060
-630,765	800,000	-0,054	0,124
-629,751	20,483	-0,066	0,039
-628,736	-200,000	-0,018	0,107
-627,722	800,000	-0,057	0,153
-626,707	-200,000	-0,030	0,145
-625,692	197,811	-0,085	0,094
-624,678	-197,374	-0,057	-0,000
-623,663	-200,000	-0,002	-0,100
-622,649	190,296	-0,055	-0,060
-621,634	-125,411	-0,066	0,007
-620,619	-17,268	-0,093	-0,042
-619,605	430,955	0,011	0,017
-618,590	-55,376	-0,022	-0,007
-617,576	-60,434	0,203	0,062
-616,561	538,517	-0,013	0,023
-615,546	-19,203	-0,115	-0,051
-614,532	2,493	-0,025	-0,013
-613,517	800,000	-0,012	0,028
-612,503	-200,000	0,008	0,115
-611,488	615,899	0,024	0,043
-610,474	630,944	0,082	-0,150
-609,459	121,765	-0,055	0,049
-608,444	-9,814	-0,033	-0,016
-607,430	-39,522	-0,050	-0,019
-606,415	-144,344	-0,118	-0,008
-605,401	363,387	-0,017	0,024
-604,386	-76,279	0,082	0,021
-603,371	-113,859	0,110	0,015
-602,357	223,621	-0,055	0,064
-601,342	-200,000	-0,028	-0,103
-600,328	-145,238	0,108	-0,007
-599,313	136,237	-0,147	-0,138
-598,298	197,596	-0,016	-0,018
-597,284	-200,000	0,003	0,050
-596,269	-113,145	0,083	0,012
-595,255	-45,923	0,073	-0,026
-594,240	-60,484	-0,094	-0,029
-593,225	523,125	-0,092	-0,157
-592,211	116,519	0,006	0,005
-591,196	800,000	0,015	0,040
-590,182	800,000	-0,021	0,056
-589,167	-140,653	-0,133	0,010
-588,152	670,966	-0,064	0,119
-587,138	-200,000	0,013	-0,115
-586,123	-200,000	-0,015	-0,249
-585,109	86,455	-0,051	-0,040
-584,094	20,729	-0,084	0,049
-583,079	800,000	0,034	0,080
-582,065	159,131	-0,070	0,070
-581,050	105,962	-0,094	0,080
-580,036	203,020	-0,057	0,063
-579,021	175,894	-0,081	-0,085
-578,006	-200,000	0,017	-0,104
-576,992	-54,546	-0,042	0,014
-575,977	-200,000	-0,005	-0,030
-574,963	-21,499	0,054	0,024
-573,948	-45,401	0,063	0,022
-572,934	-200,000	0,020	-0,112
-571,919	-83,360	-0,095	0,022
-570,904	800,000	0,028	-0,080
-569,890	-83,894	0,090	0,020
-568,875	379,113	0,013	0,019
-567,861	-200,000	0,010	0,110
-566,846	-68,872	0,066	-0,018
-565,831	327,088	-0,020	0,028
-564,817	141,905	0,022	-0,021
-563,802	-167,546	0,075	0,002
-562,788	800,000	-0,058	-0,128
-561,773	172,911	-0,086	-0,089
-560,758	-200,000	0,018	0,123
-559,744	113,653	-0,099	0,087
-558,729	-200,000	-0,018	0,085
-557,715	104,832	-0,060	-0,051
-556,700	2,683	-0,097	-0,050
-555,685	74,340	-0,022	0,016
-554,671	-200,000	-0,009	0,090
-553,656	410,237	0,049	-0,075
-552,642	-122,965	-0,136	-0,016
-551,627	29,362	0,044	-0,027
-550,612	-137,789	-0,047	0,004
-549,598	-200,000	0,015	0,091
-548,583	-200,000	-0,039	0,158
-547,569	386,246	-0,047	-0,070
-546,554	673,017	0,079	0,149
-545,539	561,782	-0,048	-0,083
-544,525	143,708	0,005	0,005
-543,510	800,000	0,025	-0,063
-542,496	580,331	-0,043	0,077
-541,481	-82,021	-0,028	-0,007
-540,466	106,307	-0,068	-0,058
-539,452	800,000	-0,040	0,125
-538,437	-135,891	0,059	-0,005
-537,423	-154,714	-0,038	-0,002
-536,408	-42,315	-0,029	-0,011
-535,393	-39,984	0,079	-0,029
-534,379	800,000	-0,014	-0,036
-533,364	-131,194	-0,123	-0,012
-532,350	51,734	-0,136	0,093
-531,335	54,001	0,111	0,077
-530,321	-85,469	0,068	-0,015
-529,306	-77,828	-0,018	0,004
-528,291	-52,720	-0,057	0,019
-527,277	-200,000	0,000	-0,010
-526,262	99,136	0,056	-0,047
-525,248	-105,004	0,119	-0,019
-524,233	150,382	0,129	0,126
-523,218	-200,000	-0,002	0,026
-522,204	800,000	0,033	0,098
-521,189	-200,000	-0,005	0,044
-520,175	407,562	-0,025	-0,038
-519,160	-200,000	0,044	-0,152
-518,145	800,000	0,048	0,121
-517,131	800,000	-0,030	0,062
-516,116	-61,806	0,159	-0,047
-515,102	-54,800	0,140	-0,045
-514,087	378,943	-0,102	-0,150
-513,072	-144,694	0,121	0,008
-512,058	400,471	-0,036	-0,055
-511,043	-200,000	0,017	0,066
-510,029	-103,834	0,189	0,031
-509,014	272,373	-0,022	-0,029
-507,999	-82,222	0,108	-0,025
-506,985	170,160	-0,035	-0,036
-505,970	136,214	0,081	-0,076
-504,956	-138,820	0,134	0,010
-503,941	-102,355	0,126	0,021
-502,926	538,874	0,055	0,094
-501,912	523,551	0,054	-0,091
-500,897	-200,000	0,044	0,140
-499,883	-200,000	-0,010	-0,096
-498,868	183,459	-0,113	-0,120
-497,853	-39,873	-0,046	0,017
-496,839	-118,882	0,185	-0,023
-495,824	-15,949	0,026	-0,012
-494,810	-48,399	-0,125	0,043
-493,795	115,656	-0,050	0,044
-492,781	-70,740	0,114	0,031
-491,766	-200,000	-0,006	0,090
-490,751	-17,415	0,120	0,054
-489,737	605,643	0,021	0,038
-488,722	-89,854	0,047	0,010
-487,708	390,058	0,111	0,165
-486,693	-200,000	-0,001	0,100
-485,678	-50,942	-0,145	-0,049
-484,664	136,434	0,029	0,028
-483,649	800,000	-0,065	-0,183
-482,635	295,172	-0,080	-0,105
-481,620	641,788	0,061	0,112
-480,605	-200,000	-0,004	-0,027
-479,591	-200,000	0,011	0,154
-478,576	800,000	0,030	0,070
-477,562	-4,501	-0,140	0,069
-476,547	47,592	-0,093	-0,062
-475,532	800,000	0,007	-0,017
-474,518	800,000	0,003	0,007
-473,503	800,000	0,037	0,078
-472,489	-98,624	0,053	0,010
-471,474	388,365	0,049	-0,072
-470,459	-200,000	-0,011	-0,089
-469,445	-54,991	-0,074	0,024
-468,430	64,342	-0,064	0,046
-467,416	-200,000	-0,010	0,056
-466,401	-200,000	0,044	0,145
-465,386	21,766	0,104	0,061
-464,372	-200,000	-0,039	-0,166
-463,357	-105,044	-0,112	0,018
-462,343	-200,000	0,051	-0,183
-461,328	105,969	0,081	-0,069
-460,313	-200,000	0,009	0,098
-459,299	800,000	-0,036	0,112
-458,284	-200,000	0,009	-0,038
-457,270	-95,276	0,103	-0,020
-456,255	-82,362	0,113	0,026
-455,241	-18,979	0,052	-0,023
-454,226	-151,265	0,077	0,004
-453,211	-200,000	0,009	0,036
-452,197	-20,937	0,111	0,048
-451,182	-200,000	0,010	-0,043
-450,168	-77,526	0,108	0,027
-449,153	525,923	0,023	-0,039
-448,138	166,952	-0,020	-0,020
-447,124	800,000	0,013	-0,037
-446,109	-127,780	0,066	0,007
-445,095	276,164	-0,110	0,140
-444,080	4,995	0,054	-0,028
-443,065	-200,000	-0,008	0,057
-442,051	-101,587	0,044	-0,008
-441,036	447,827	0,069	-0,108
-440,022	800,000	-0,031	-0,090
-439,007	-200,000	-0,001	-0,076
-437,992	-9,477	0,053	-0,025
-436,978	184,493	-0,067	0,072
-435,963	800,000	0,011	0,033
-434,949	158,307	-0,077	0,077
-433,934	-104,552	-0,075	-0,012
-432,919	3,820	-0,029	0,015
-431,905	249,610	0,089	0,109
-430,890	-141,517	0,131	-0,009
-429,876	-167,101	0,101	0,003
-428,861	-18,345	0,157	0,070
-427,846	-57,650	-0,074	-0,023
-426,832	249,857	-0,012	-0,014
-425,817	-200,000	0,010	-0,051
-424,803	230,809	0,115	-0,135
-423,788	497,687	-0,010	0,016
-422,773	-200,000	0,009	-0,031
-421,759	-200,000	0,047	-0,178
-420,744	500,907	-0,039	-0,065
-419,730	69,496	-0,141	-0,104
-418,715	307,200	-0,017	-0,023
-417,701	-156,928	-0,129	-0,006
-416,686	399,426	0,016	-0,024
-415,671	-200,000	-0,007	0,182
-414,657	24,853	0,070	0,041
-413,642	167,317	-0,072	0,073
-412,628	58,397	-0,035	-0,025
-411,613	-200,000	0,003	0,021
-410,598	300,479	0,066	0,087
-409,584	353,932	0,049	-0,069
-408,569	225,952	0,049	0,057
-407,555	-110,367	-0,026	-0,004
-406,540	-171,835	-0,139	-0,003
-405,525	800,000	0,083	-0,196
-404,511	-200,000	0,009	-0,107
-403,496	520,718	-0,052	0,087
-402,482	800,000	0,038	-0,093
-401,467	138,816	-0,050	0,047
-400,452	-132,390	-0,027	0,002
-399,438	-200,000	0,008	0,039
-398,423	-200,000	0,035	-0,193
-397,409	-187,282	-0,175	-0,002
-396,394	582,078	0,056	-0,099
-395,379	-200,000	0,015	0,051
-394,365	-200,000	0,023	-0,127
-393,350	-158,314	-0,057	0,002
-392,336	87,025	-0,049	-0,039
-391,321	-53,761	-0,061	0,020
-390,306	-200,000	-0,006	-0,133
-389,292	191,708	-0,085	-0,092
-388,277	-112,811	-0,068	0,010
-387,263	-200,000	-0,013	0,070
-386,248	-98,698	0,060	0,011
-385,233	3,022	-0,025	0,013
-384,219	-200,000	0,015	0,097
-383,204	800,000	0,017	-0,042
-382,190	223,961	-0,037	0,042
-381,175	18,838	0,045	0,026
-380,160	-70,826	0,266	-0,071
-379,146	-0,357	-0,039	-0,020
-378,131	-200,000	0,004	0,042
-377,117	124,020	0,088	0,079
-376,102	-48,197	-0,009	0,003
-375,088	-200,000	0,016	-0,105
-374,073	-46,654	0,146	0,051
-373,058	380,418	-0,027	0,039
-372,044	71,000	-0,119	0,088
-371,029	697,742	-0,040	-0,075
-370,015	800,000	0,033	-0,075
-369,000	-115,109	0,250	0,034
-367,985	-200,000	0,001	0,085
-366,971	319,735	0,041	0,055
-365,956	344,135	-0,030	-0,042
-364,942	91,773	-0,028	0,022
-363,927	-200,000	0,007	-0,046
-362,912	229,288	-0,023	-0,027
-361,898	-105,535	0,146	-0,023
-360,883	-114,551	-0,083	-0,011
-359,869	172,958	0,057	-0,059
-358,854	-200,000	-0,008	0,056
-357,839	-200,000	-0,004	0,019
-356,825	-200,000	0,017	0,083
-355,810	99,766	-0,041	0,034
-354,796	241,893	-0,057	0,068
-353,781	-200,000	-0,005	-0,075
-352,766	-66,237	-0,079	-0,022
-351,752	-110,880	0,066	0,010
-350,737	-28,531	0,125	-0,051
-349,723	-25,826	-0,076	-0,032
-348,708	-108,157	0,079	0,012
-347,693	-46,143	-0,160	-0,056
-346,679	9,777	0,016	-0,009
-345,664	-200,000	0,007	-0,058
-344,650	199,041	0,034	0,037
-343,635	-200,000	-0,012	0,073
-342,620	181,457	-0,026	-0,027
-341,606	-29,673	0,062	-0,025
-340,591	-26,966	-0,133	-0,055
-339,577	-68,925	0,127	0,035
-338,562	-68,607	0,060	-0,016
-337,548	4,168	-0,011	-0,006
-336,533	-200,000	0,018	-0,140
-335,518	494,019	0,074	0,122
-334,504	800,000	0,048	0,113
-333,489	95,387	-0,089	0,073
-332,475	-10,794	-0,130	0,061
-331,460	194,888	0,057	0,061
-330,445	122,289	-0,122	0,108
-329,431	674,922	0,040	0,074
-328,416	-144,816	0,054	-0,003
-327,402	-65,036	0,020	0,006
-326,387	-136,928	0,098	-0,008
-325,372	800,000	-0,037	-0,082
-324,358	-13,589	-0,144	0,066
-323,343	71,937	0,163	0,121
-322,329	-3,281	0,128	-0,064
-321,314	-125,280	0,131	0,014
-320,299	168,731	0,027	-0,028
-319,285	-1,242	0,097	0,049
-318,270	-50,554	-0,180	0,060
-317,256	-137,450	-0,071	-0,006
-316,241	12,362	0,066	0,036
-315,226	-96,681	-0,040	-0,007
-314,212	-102,314	-0,071	-0,012
-313,197	-200,000	0,001	0,157
-312,183	-131,577	0,158	0,015
-311,168	-200,000	-0,016	0,073
-310,153	166,385	-0,121	-0,122
-309,139	-200,000	0,008	-0,027
-308,124	-112,275	-0,014	0,002
-307,110	-200,000	0,019	0,101
-306,095	629,659	0,065	-0,118
-305,080	800,000	-0,020	-0,049
-304,066	14,462	0,097	-0,054
-303,051	-112,323	-0,057	0,008
-302,037	-112,327	-0,035	-0,005
-301,022	-200,000	0,004	-0,029
-300,008	-200,000	-0,042	0,174
-298,993	800,000	0,057	0,119
-297,978	85,727	0,144	0,113
-296,964	9,394	-0,015	0,008
-295,949	800,000	-0,063	-0,145
-294,935	800,000	-0,012	-0,029
-293,920	800,000	-0,036	-0,080
-292,905	-200,000	-0,031	-0,115
-291,891	-125,489	0,108	-0,012
-290,876	-120,255	-0,096	0,012
-289,862	-200,000	-0,015	0,099
-288,847	-55,634	0,058	0,018
-287,832	-69,398	-0,091	-0,025
-286,818	-200,000	0,006	-0,047
-285,803	609,639	0,048	0,085
-284,789	-200,000	0,017	0,111
-283,774	3,593	-0,032	-0,017
-282,759	800,000	0,034	0,082
-281,745	-45,533	-0,064	-0,022
-280,730	800,000	0,088	-0,184
-279,716	68,210	0,053	0,038
-278,701	375,838	-0,045	0,066
-277,686	-200,000	-0,014	-0,068
-276,672	2,773	0,087	0,045
-275,657	-200,000	-0,004	0,050
-274,643	218,164	0,025	-0,028
-273,628	241,678	0,067	0,080
-272,613	-20,936	0,028	-0,012
-271,599	-181,683	0,019	-0,000
-270,584	-200,000	0,029	-0,125
-269,570	35,941	0,053	-0,033
-268,555	-6,623	-0,073	0,035
-267,540	324,862	0,121	-0,165
-266,526	-49,685	-0,151	-0,051
-265,511	-200,000	-0,003	0,037
-264,497	-115,106	0,120	0,016
-263,482	-200,000	0,013	-0,075
-262,467	-200,000	0,013	0,068
-261,453	-110,682	-0,087	0,013
-260,438	191,795	-0,067	-0,072
-259,424	800,000	-0,027	0,065
-258,409	133,148	-0,018	-0,016
-257,395	-200,000	-0,003	0,053
-256,380	800,000	-0,011	0,027
-255,365	-26,167	0,082	0,034
-254,351	-200,000	0,008	0,086
-253,336	800,000	0,011	0,024
-252,322	50,364	-0,063	-0,043
-251,307	800,000	0,076	-0,162
-250,292	-200,000	-0,000	0,073
-249,278	-200,000	-0,020	0,078
-248,263	5,794	0,106	0,055
-247,249	137,197	-0,041	-0,038
-246,234	800,000	0,018	-0,035
-245,219	-93,507	-0,157	-0,031
-244,205	-75,410	-0,110	0,028
-243,190	-27,685	0,171	0,070
-242,176	282,465	-0,036	-0,046
-241,161	276,082	0,119	0,151
-240,146	71,268	0,146	0,108
-239,132	120,735	0,072	0,063
-238,117	410,707	-0,077	-0,117
-237,103	-59,405	-0,176	0,054
-236,088	-73,316	0,117	0,030
-235,073	-118,628	-0,156	0,019
-234,059	-29,542	0,126	0,051
-233,044	293,522	0,095	0,123
-232,030	538,280	-0,020	0,033
-231,015	432,214	-0,083	-0,129
-230,000	108,775	0,012	0,010
-228,986	-200,000	-0,004	0,164
-227,971	-200,000	-0,000	0,096
-226,957	611,356	-0,011	-0,019
-225,942	71,401	-0,112	-0,083
-224,927	-87,318	-0,112	0,024
-223,913	112,226	-0,064	-0,055
-222,898	11,776	0,040	-0,022
-221,884	-200,000	0,002	-0,020
-220,869	-77,743	0,016	-0,004
-219,855	-123,575	0,046	0,005
-218,840	576,270	0,014	0,024
-217,825	-5,709	-0,073	0,035
-216,811	-88,506	-0,044	-0,009
-215,796	-200,000	-0,012	-0,125
-214,782	-33,286	0,044	0,017
-213,767	-200,000	0,008	-0,072
-212,752	-24,993	0,124	0,052
-211,738	800,000	0,011	-0,026
-210,723	-118,571	-0,052	-0,006
-209,709	-200,000	-0,006	-0,033
-208,694	170,275	0,117	-0,119
-207,679	-200,000	0,036	-0,168
-206,665	578,031	-0,045	-0,078
-205,650	226,461	0,041	0,047
-204,636	152,505	0,096	-0,093
-203,621	-32,025	-0,053	-0,021
-202,606	550,256	-0,046	-0,079
-201,592	634,419	-0,053	0,096
-200,577	-200,000	-0,011	0,043
-199,563	-200,000	0,002	-0,012
-198,548	-200,000	0,049	0,163
-197,533	10,724	-0,047	0,025
-196,519	800,000	-0,023	-0,066
-195,504	-93,130	-0,129	0,025
-194,490	-141,506	-0,195	-0,014
-193,475	-200,000	0,003	-0,044
-192,460	426,595	0,038	-0,059
-191,446	194,820	0,030	-0,033
-190,431	70,686	0,031	0,023
-189,417	-104,972	-0,050	0,008
-188,402	54,479	-0,040	0,028
-187,387	-65,882	-0,199	0,056
-186,373	703,055	0,055	-0,103
-185,358	50,496	-0,099	0,066
-184,344	-200,000	-0,012	-0,076
-183,329	-200,000	-0,007	-0,056
-182,315	9,626	0,070	-0,038
-181,300	441,427	-0,071	-0,110
-180,285	-200,000	0,010	-0,052
-179,271	-200,000	0,008	-0,125
-178,256	-34,612	-0,083	0,032
-177,242	20,299	0,066	-0,038
-176,227	136,830	0,034	0,032
-175,212	800,000	-0,031	0,077
-174,198	-200,000	-0,029	-0,160
-173,183	518,847	0,139	-0,232
-172,169	145,498	-0,062	-0,059
-171,154	800,000	0,044	-0,105
-170,139	-165,740	-0,164	0,005
-169,125	800,000	-0,052	-0,154
-168,110	153,505	-0,022	-0,021
-167,096	-115,813	0,043	0,006
-166,081	275,153	-0,081	-0,102
-165,066	-200,000	-0,007	-0,098
-164,052	-200,000	0,006	0,044
-163,037	37,465	0,085	0,053
-162,023	284,246	0,067	0,085
-161,008	-200,000	0,019	0,064
-159,993	-36,568	0,105	-0,040
-158,979	524,609	-0,042	0,071
-157,964	-0,019	-0,116	-0,058
-156,950	-23,984	-0,140	-0,059
-155,935	558,277	-0,027	-0,046
-154,920	-122,685	-0,054	0,006
-153,906	-6,188	0,117	0,056
-152,891	-97,381	-0,082	0,015
-151,877	-200,000	-0,021	-0,141
-150,862	6,775	-0,126	-0,066
-149,847	-200,000	-0,009	-0,206
-148,833	-9,310	0,123	-0,058
-147,818	-200,000	0,004	-0,048
-146,804	800,000	0,029	0,083
-145,789	64,900	-0,028	-0,020
-144,775	-200,000	-0,027	0,132
-143,760	-200,000	-0,008	0,099
-142,745	-122,217	-0,061	0,007
-141,731	130,729	0,109	-0,099
-140,716	755,042	-0,035	0,067
-139,702	-132,022	-0,091	-0,008
-138,687	170,572	-0,101	0,103
-137,672	-200,000	0,008	-0,054
-136,658	800,000	0,059	0,162
-135,643	-140,475	0,062	0,004
-134,629	-111,201	-0,129	0,018
-133,614	-55,387	0,127	0,040
-132,599	-27,430	0,081	-0,033
-131,585	223,871	-0,061	-0,069
-130,570	800,000	0,030	-0,064
-129,556	295,751	-0,134	-0,174
-128,541	-53,956	-0,164	-0,053
-127,526	-134,854	0,066	0,006
-126,512	800,000	-0,035	-0,107
-125,497	-93,469	0,107	0,021
-124,483	-200,000	-0,010	0,117
-123,468	-118,529	-0,131	0,016
-122,453	-90,543	-0,012	0,002
-121,439	9,145	0,040	-0,022
-120,424	800,000	0,027	-0,080
-119,410	170,632	-0,032	-0,032
-118,395	53,905	0,162	-0,110
-117,380	-10,598	0,074	0,034
-116,366	-96,278	-0,107	0,020
-115,351	101,402	-0,095	-0,079
-114,337	71,890	-0,069	0,051
-113,322	371,122	0,023	-0,033
-112,307	77,123	-0,048	0,036
-111,293	-136,000	0,176	0,014
-110,278	546,612	-0,073	0,124
-109,264	-81,007	0,025	0,006
-108,249	118,958	-0,087	0,076
-107,234	-5,652	0,085	0,041
-106,220	-200,000	-0,028	0,114
-105,205	554,533	0,071	-0,122
-104,191	-126,953	0,060	0,006
-103,176	800,000	-0,052	0,150
-102,162	-89,870	0,153	0,031
-101,147	-140,374	-0,068	0,005
-100,132	800,000	-0,053	-0,105
-99,118	-200,000	0,003	-0,021
-98,103	-116,797	0,203	0,026
-97,089	-118,229	-0,089	0,011
-96,074	-25,054	0,085	0,035
-95,059	227,151	-0,071	0,081
-94,045	349,180	-0,024	0,033
-93,030	-200,000	0,007	-0,130
-92,016	-200,000	-0,003	-0,053
-91,001	231,855	0,045	0,053
-89,986	40,132	0,117	0,074
-88,972	13,328	0,092	-0,050
-87,957	232,965	0,038	0,045
-86,943	277,639	-0,131	0,165
-85,928	135,940	-0,094	-0,087
-84,913	315,946	-0,047	-0,062
-83,899	147,018	-0,121	-0,115
-82,884	255,217	-0,034	-0,041
-81,870	15,959	-0,092	0,051
-80,855	-137,864	0,096	-0,007
-79,840	136,673	-0,135	0,125
-78,826	122,600	-0,143	-0,126
-77,811	-200,000	0,001	-0,047
-76,797	-28,230	-0,049	0,020
-75,782	-200,000	-0,026	0,144
-74,767	800,000	0,023	0,051
-73,753	-200,000	-0,017	0,096
-72,738	219,669	-0,018	0,020
-71,724	800,000	-0,042	-0,087
-70,709	-25,354	0,020	-0,008
-69,694	800,000	0,031	-0,063
-68,680	-200,000	0,023	0,072
-67,665	617,161	-0,075	0,134
-66,651	-200,000	0,020	-0,100
-65,636	356,341	-0,047	0,067
-64,622	21,048	0,065	-0,037
-63,607	330,189	-0,066	-0,090
-62,592	597,882	-0,051	-0,089
-61,578	-5,008	0,080	0,039
-60,563	-200,000	0,038	0,132
-59,549	-200,000	0,030	0,193
-58,534	52,913	-2,030	-1,368
-57,519	521,653	-1,183	-1,967
-56,505	-200,000	-0,456	-4,545
-55,490	714,408	0,741	1,392
-54,476	800,000	5,459	12,070
-53,461	-200,000	22,001	340,141
-52,446	800,000	760,350	2299,997
-51,432	532,654	1655,584	2776,374
-50,417	69,416	1653,340	1199,654
-49,403	16,690	1528,359	850,699
-48,388	10,888	1452,519	780,504
-47,373	19,097	1444,586	815,494
-46,359	14,277	1433,342	786,267
-45,344	9,204	1429,065	759,804
-44,330	9,126	1427,463	758,552
-43,315	9,095	1425,667	757,423
-42,300	9,108	1423,936	756,532
-41,286	9,145	1422,703	756,022
-40,271	9,115	1421,336	755,124
-39,257	9,110	1420,136	754,434
-38,242	9,151	1419,098	754,045
-37,227	9,142	1417,855	753,311
-36,213	9,125	1416,651	752,562
-35,198	9,149	1415,459	752,011
-34,184	9,178	1414,397	751,557
-33,169	9,103	1413,236	750,556
-32,154	9,128	1412,102	750,042
-31,140	9,127	1410,999	749,420
-30,125	9,178	1409,696	748,939
-29,111	9,129	1408,767	748,184
-28,096	9,111	1407,456	747,377
-27,082	9,078	1406,165	746,507
-26,067	9,047	1405,391	745,922
-25,052	9,138	1404,142	745,653
-24,038	9,075	1403,342	744,903
-23,023	9,105	1402,325	744,474
-22,009	9,076	1401,163	743,694
-20,994	9,089	1400,232	743,229
-19,979	9,091	1399,289	742,708
-18,965	9,046	1398,317	741,952
-17,950	9,066	1397,252	741,454
-16,936	9,000	1396,621	740,780
-15,921	8,954	1395,620	740,009
-14,906	8,944	1394,730	739,462
-13,892	9,058	1393,529	739,325
-12,877	9,011	1393,062	738,831
-11,863	8,993	1392,036	738,173
-10,848	9,012	1391,155	737,763
-9,833	8,879	1390,532	736,790
-8,819	8,931	1389,298	736,344
-7,804	8,929	1388,276	735,763
-6,790	8,891	1387,441	735,119
-5,775	8,894	1386,424	734,565
-4,760	8,912	1385,420	734,086
-3,746	8,897	1384,590	733,548
-2,731	8,908	1383,908	733,209
-1,717	8,914	1382,863	732,653
-0,702	8,906	1381,096	731,649
0,313	12,898	1292,430	702,863
1,327	28,734	683,755	407,458
2,342	45,080	117,915	76,489
3,356	1,424	16,549	8,365
4,371	7,708	3,733	1,965
5,386	-11,966	1,182	0,544
6,400	800,000	0,335	0,783
7,415	-28,934	-0,147	-0,059
8,429	210,440	-0,284	-0,314
9,444	77,432	-0,246	-0,184
10,459	160,714	-0,115	-0,113
11,473	-113,032	-0,297	-0,041
12,488	-25,852	-0,307	-0,127
13,502	150,293	-0,220	-0,210
14,517	62,524	-0,229	-0,161
15,531	141,592	-0,270	-0,252
16,546	31,054	-0,378	-0,228
17,561	39,929	-0,357	-0,226
18,575	306,064	-0,122	-0,161
19,590	326,509	-0,166	-0,224
20,604	43,025	-0,188	-0,120
21,619	84,354	-0,384	-0,296
22,634	186,058	-0,386	-0,404
23,648	292,030	-0,274	-0,352
24,663	29,320	-0,498	-0,297
25,677	42,247	-0,220	-0,140
26,692	93,191	-0,300	-0,238
27,707	-76,748	-0,431	-0,105
28,721	-17,934	-0,351	-0,154
29,736	-50,591	-0,448	-0,148
30,750	-67,329	-0,367	-0,101
31,765	-39,969	-0,424	-0,155
32,780	59,441	-0,280	-0,194
33,794	11,669	-0,347	-0,187
34,809	13,208	-0,462	-0,251
35,823	10,045	-0,438	-0,234
36,838	-20,310	-0,440	-0,190
37,853	10,602	-0,341	-0,182
38,867	485,814	-0,251	-0,404
39,882	53,719	-0,283	-0,191
40,896	16,745	-0,303	-0,168
41,911	-11,015	-0,362	-0,167
42,926	-32,434	-0,381	-0,149
43,940	4,514	-0,360	-0,185
44,955	43,099	-0,342	-0,219
45,969	187,579	-0,235	-0,246
46,984	91,056	-0,321	-0,253
47,999	32,830	-0,238	-0,144
49,013	-34,673	-0,370	-0,142
50,028	132,125	-0,319	-0,289
51,042	142,860	-0,280	-0,262
52,057	61,169	-0,325	-0,226
53,071	24,093	-0,424	-0,245
54,086	-22,286	-0,327	-0,138
55,101	50,567	-0,418	-0,277
56,115	34,548	-0,280	-0,171
57,130	66,420	-0,326	-0,232
58,144	94,471	-0,387	-0,308
59,159	39,594	-0,461	-0,289
60,174	49,233	-0,265	-0,175
61,188	7,262	-0,419	-0,219
62,203	46,168	-0,223	-0,144
63,217	139,751	-0,296	-0,274
64,232	130,498	-0,253	-0,227
65,247	85,501	-0,309	-0,238
66,261	162,710	-0,338	-0,333
67,276	76,782	-0,368	-0,273
68,290	-91,562	-0,278	-0,055
69,305	338,757	-0,154	-0,211
70,320	5,436	-0,377	-0,195
71,334	-87,815	-0,332	-0,069
72,349	-43,227	-0,294	-0,104
73,363	31,612	-0,442	-0,266
74,378	213,794	-0,373	-0,414
75,393	82,180	-0,264	-0,201
76,407	152,236	-0,319	-0,306
77,422	800,000	-0,136	-0,283
78,436	77,330	-0,381	-0,284
79,451	-50,492	-0,411	-0,135
80,466	10,492	-0,299	-0,159
81,480	207,547	-0,171	-0,187
82,495	376,435	-0,261	-0,374
83,509	357,066	-0,311	-0,435
84,524	164,946	-0,124	-0,123
85,539	20,249	-0,182	-0,103
86,553	16,663	-0,232	-0,128
87,568	-10,344	-0,424	-0,196
88,582	-22,812	-0,267	-0,112
89,597	-27,721	-0,415	-0,168
90,611	800,000	-0,083	-0,180
91,626	21,924	-0,179	-0,102
92,641	55,832	-0,225	-0,153
93,655	104,564	-0,425	-0,350
94,670	94,653	-0,314	-0,250
95,684	100,244	-0,258	-0,209
96,699	63,685	-0,292	-0,205
97,714	-4,972	-0,347	-0,167
98,728	5,289	-0,278	-0,143
99,743	141,891	-0,197	-0,182
100,757	-87,542	-0,345	-0,072
101,772	9,914	-0,315	-0,167
102,787	43,165	-0,376	-0,239
103,801	280,273	-0,287	-0,359
104,816	236,339	-0,061	-0,070
105,830	-32,722	-0,248	-0,096
106,845	-63,804	-0,312	-0,089
107,860	79,143	-0,231	-0,173
108,874	-74,690	-0,295	-0,074
109,889	138,455	-0,215	-0,197
110,903	66,703	-0,321	-0,228
111,918	35,101	-0,285	-0,174
112,933	63,342	-0,269	-0,188
113,947	148,668	-0,271	-0,256
114,962	-66,350	-0,309	-0,085
115,976	134,505	-0,096	-0,087
116,991	30,013	-0,293	-0,174
118,006	-185,197	-0,300	-0,003
119,020	23,505	-0,134	-0,077
120,035	27,355	-0,228	-0,134
121,049	85,704	-0,185	-0,142
122,064	145,335	-0,211	-0,198
123,079	-28,968	-0,195	-0,078
124,093	-24,075	-0,392	-0,163
125,108	8,669	-0,361	-0,189
126,122	-0,282	-0,252	-0,124
127,137	88,409	-0,264	-0,204
128,151	-21,242	-0,362	-0,154
129,166	-200,000	-0,079	-0,263
130,181	541,438	-0,161	-0,268
131,195	373,928	-0,135	-0,192
132,210	301,080	-0,250	-0,323
133,224	184,475	-0,209	-0,216
134,239	-11,492	-0,373	-0,170
135,254	-145,836	-0,280	-0,017
136,268	118,817	-0,213	-0,183
137,283	6,741	-0,322	-0,167
138,297	169,350	-0,210	-0,209
139,312	-129,792	-0,298	0,028
140,327	-117,949	-0,230	-0,028
141,341	254,789	-0,225	-0,268
142,356	272,990	-0,110	-0,136
143,370	-26,219	-0,249	-0,101
144,385	-67,249	-0,198	-0,054
145,400	-126,391	-0,290	-0,030
146,414	157,091	-0,248	-0,239
147,429	1,125	-0,296	-0,147
148,443	158,999	-0,179	-0,173
149,458	84,609	-0,258	-0,197
150,473	-123,441	-0,232	-0,025
151,487	78,170	-0,247	-0,183
152,502	332,270	-0,162	-0,219
153,516	92,618	-0,292	-0,230
154,531	96,560	-0,214	-0,170
155,546	173,836	-0,256	-0,257
156,560	338,270	-0,081	-0,110
157,575	175,062	-0,182	-0,184
158,589	9,778	-0,315	-0,166
159,604	9,165	-0,317	-0,166
160,619	266,759	-0,216	-0,264
161,633	314,482	-0,210	-0,276
162,648	208,922	-0,110	-0,120
163,662	731,004	-0,139	-0,259
164,677	25,876	-0,380	-0,220
165,692	181,328	-0,127	-0,130
166,706	697,402	-0,122	-0,224
167,721	800,000	-0,128	-0,268
168,735	-72,334	-0,217	-0,055
169,750	392,765	-0,144	-0,209
170,764	10,718	-0,197	-0,104
171,779	-145,202	-0,245	0,015
172,794	145,132	-0,193	-0,180
173,808	52,687	-0,285	-0,189
174,823	163,314	-0,301	-0,294
175,837	213,466	-0,192	-0,211
176,852	363,007	-0,215	-0,301
177,867	13,084	-0,177	-0,095
178,881	1,097	-0,206	-0,102
179,896	800,000	-0,103	-0,264
180,910	-147,111	-0,170	0,010
181,925	174,597	-0,163	-0,164
182,940	210,511	-0,190	-0,207
183,954	45,967	-0,187	-0,120
184,969	-80,659	-0,194	-0,044
185,983	108,140	-0,222	-0,184
186,998	-109,100	-0,324	-0,047
188,013	-124,755	-0,297	-0,031
189,027	259,675	-0,222	-0,267
190,042	238,857	-0,091	-0,105
191,056	290,067	-0,095	-0,120
192,071	23,317	-0,283	-0,161
193,086	344,840	-0,203	-0,277
194,100	347,662	-0,171	-0,235
195,115	289,940	-0,093	-0,117
196,129	296,169	-0,146	-0,186
197,144	769,768	-0,143	-0,271
198,159	93,357	-0,215	-0,168
199,173	8,374	-0,240	-0,125
200,188	-22,881	-0,096	-0,040
201,202	-87,608	-0,288	-0,060
202,217	-6,784	-0,347	-0,163
203,232	594,390	-0,124	-0,214
204,246	64,667	-0,222	-0,155
205,261	509,409	-0,154	-0,250
206,275	-66,069	-0,139	-0,038
207,290	-96,060	-0,194	-0,035
208,304	82,419	-0,107	-0,081
209,319	-2,558	-0,247	-0,119
210,334	33,109	-0,195	-0,117
211,348	50,373	-0,136	-0,089
212,363	285,366	-0,173	-0,217
213,377	-70,705	-0,224	-0,058
214,392	-200,000	-0,030	-0,222
215,407	-51,718	-0,223	-0,072
216,421	-88,017	-0,229	-0,047
217,436	-159,463	-0,202	0,008
218,450	-164,618	-0,146	0,004
219,465	284,762	-0,137	-0,171
220,480	-87,909	-0,201	-0,042
221,494	-200,000	-0,071	-0,238
222,509	21,860	-0,202	-0,113
223,523	-19,865	-0,263	-0,112
224,538	-24,855	-0,138	-0,056
225,553	-16,983	-0,241	-0,105
226,567	148,897	-0,167	-0,156
227,582	-40,339	-0,196	-0,070
228,596	352,440	-0,105	-0,145
229,611	318,573	-0,080	-0,104
230,626	-64,702	-0,147	-0,041
231,640	-2,411	-0,262	-0,126
232,655	-31,292	-0,184	-0,071
233,669	55,740	-0,209	-0,140
234,684	625,552	-0,098	-0,171
235,699	244,649	-0,138	-0,160
236,713	-132,945	-0,037	0,003
237,728	-200,000	-0,008	-0,098
238,742	-63,730	-0,287	-0,081
239,757	800,000	-0,079	-0,223
240,772	190,452	-0,245	-0,255
241,786	115,433	-0,253	-0,213
242,801	373,914	-0,082	-0,116
243,815	-189,924	-0,252	0,002
244,830	128,447	-0,115	-0,101
245,844	-200,000	-0,027	-0,179
246,859	-12,971	-0,201	-0,090
247,874	118,482	-0,225	-0,191
248,888	243,266	-0,123	-0,142
249,903	-200,000	0,020	-0,110
250,917	101,929	-0,149	-0,120
251,932	-173,188	-0,218	0,004
252,947	-69,292	-0,174	-0,046
253,961	312,030	-0,130	-0,169
254,976	374,940	-0,077	-0,108
255,990	-13,009	-0,206	-0,092
257,005	5,798	-0,159	-0,081
258,020	362,123	-0,106	-0,147
259,034	-59,105	-0,146	-0,043
260,049	365,363	-0,172	-0,239
261,063	745,479	-0,115	-0,215
262,078	783,312	-0,083	-0,157
263,093	-36,957	-0,216	-0,080
264,107	90,297	-0,167	-0,128
265,122	-200,000	-0,019	-0,099
266,136	-29,649	-0,104	0,041
267,151	-30,620	-0,179	-0,069
268,166	526,299	-0,128	-0,209
269,180	-34,472	-0,228	-0,086
270,195	85,979	-0,174	-0,132
271,209	172,644	-0,103	-0,102
272,224	-154,162	-0,156	-0,007
273,239	96,640	-0,139	-0,110
274,253	133,318	-0,198	-0,176
275,268	63,820	-0,169	-0,117
276,282	119,912	-0,174	-0,148
277,297	211,655	-0,147	-0,159
278,312	48,066	-0,187	-0,120
279,326	118,544	-0,081	-0,069
280,341	18,189	-0,135	-0,074
281,355	42,609	-0,177	-0,111
282,370	500,275	-0,102	-0,162
283,384	227,960	-0,093	-0,104
284,399	50,807	-0,166	-0,108
285,414	315,079	-0,079	-0,103
286,428	-52,838	-0,161	-0,051
287,443	224,313	-0,098	-0,109
288,457	-200,000	-0,008	-0,138
289,472	-115,686	-0,249	0,032
290,487	36,266	-0,221	-0,134
291,501	-200,000	-0,215	-0,000
292,516	146,168	-0,212	-0,196
293,530	30,913	-0,152	-0,089
294,545	-42,664	-0,109	-0,038
295,560	51,468	-0,129	-0,084
296,574	431,300	-0,055	-0,082
297,589	197,278	-0,208	-0,218
298,603	800,000	-0,171	-0,376
299,618	505,054	-0,139	-0,222
300,633	115,737	-0,100	-0,084
301,647	-200,000	-0,009	-0,086
302,662	-70,798	-0,142	0,037
303,676	-63,470	-0,086	0,024
304,691	459,179	-0,084	-0,129
305,706	-136,864	-0,119	-0,009
306,720	151,342	-0,202	-0,188
307,735	800,000	-0,099	-0,256
308,749	731,209	-0,067	-0,124
309,764	51,653	-0,113	0,074
310,779	-200,000	-0,015	-0,201
311,793	151,246	-0,196	-0,183
312,808	-53,689	-0,177	-0,055
313,822	55,457	-0,146	-0,097
314,837	691,344	-0,092	-0,166
315,852	67,432	-0,056	-0,039
316,866	53,379	-0,110	-0,072
317,881	189,109	-0,021	-0,022
318,895	-37,950	-0,171	-0,062
319,910	800,000	-0,090	-0,187
320,925	-80,240	-0,174	-0,040
321,939	226,994	-0,143	-0,160
322,954	800,000	-0,037	-0,093
323,968	48,940	-0,041	-0,026
324,983	605,994	-0,100	-0,172
325,997	61,432	-0,094	-0,064
327,012	-1,199	-0,210	-0,101
328,027	244,442	-0,129	-0,148
329,041	678,729	-0,097	-0,173
330,056	73,149	-0,169	-0,121
331,070	-200,000	-0,038	-0,164
332,085	-187,886	-0,154	-0,001
333,100	664,954	-0,064	-0,114
334,114	167,786	-0,095	-0,092
335,129	21,571	-0,175	-0,097
336,143	337,859	-0,126	-0,169
337,158	-0,723	-0,170	-0,082
338,173	-15,057	-0,173	0,076
339,187	-3,548	-0,130	-0,062
340,202	704,642	-0,132	-0,239
341,216	41,929	-0,180	-0,111
342,231	-59,946	-0,307	-0,089
343,246	800,000	-0,098	-0,215
344,260	-62,906	-0,119	-0,033
345,275	-200,000	-0,013	-0,116
346,289	17,947	-0,160	-0,087
347,304	10,334	-0,158	-0,082
348,319	-37,103	-0,050	-0,018
349,333	800,000	-0,052	-0,106
350,348	511,132	-0,146	-0,233
351,362	-200,000	0,037	-0,156
352,377	523,428	-0,072	-0,117
353,392	42,115	-0,105	-0,065
354,406	-78,958	-0,027	0,006
355,421	205,994	1312,339	1397,588
356,435	158,409	1472,713	1398,049
