DTS Sentinel unit serial number:	SN410029Multiplexer serial number:	ORYXHardware model number:	OX2-SRSoftware version number:	ORYX F/W v4,00 Oryx Data Collector v3.7.2.0data status	okinstallation	B3 Nyhavnadifferential loss correction	single-endedforward channel	channel 1reverse channel	N/Adate	2023/12/01time	22:37:30forward acquisition time	300,00reverse acquisition time	0,00gamma	499,1914k internal	0,3196k external	0,3196temperature offset calibration	1,0000default loss term (dB/km)	0,3820temperature slope calibration	1,0000multiplexer offset coefficient	1,0000multiplexer slope coefficient	1,0000fibre end	0,00T internal ref (°C)	15,86T ext. ref 1 (°C)	0,92T ext. ref 2 (°C)	0,90length (m)	temperature (°C)	Stokes	anti-Stokes-744,400	308,165	-0,213	-0,290
-743,385	800,000	0,103	0,261
-742,371	-200,000	-0,047	-0,183
-741,356	727,261	0,122	0,238
-740,342	515,164	-0,113	-0,193
-739,327	-200,000	0,040	0,359
-738,312	60,930	-0,195	-0,141
-737,298	-200,000	-0,041	0,265
-736,283	76,952	-0,238	-0,184
-735,269	-200,000	-0,002	0,391
-734,254	29,556	-0,304	-0,188
-733,239	800,000	-0,126	0,263
-732,225	205,947	-0,130	-0,147
-731,210	72,929	0,103	0,079
-730,196	249,692	-0,064	-0,080
-729,181	166,504	-0,063	-0,065
-728,167	-146,650	-0,190	0,012
-727,152	696,792	0,027	-0,053
-726,137	-70,214	-0,122	-0,033
-725,123	34,970	-0,171	-0,109
-724,108	800,000	-0,010	-0,024
-723,094	305,767	-0,053	-0,072
-722,079	-200,000	0,018	-0,071
-721,064	800,000	0,043	-0,132
-720,050	-200,000	0,010	-0,082
-719,035	448,429	-0,058	0,093
-718,021	324,577	0,052	0,072
-717,006	-200,000	0,012	-0,114
-715,991	255,370	0,058	-0,072
-714,977	150,851	-0,114	-0,113
-713,962	489,325	-0,027	-0,046
-712,948	800,000	0,052	-0,108
-711,933	34,893	0,118	-0,075
-710,918	565,408	0,069	-0,122
-709,904	110,398	-0,044	0,038
-708,889	174,980	-0,062	-0,065
-707,875	-95,231	-0,105	-0,020
-706,860	-136,353	0,112	0,009
-705,845	192,963	0,014	0,015
-704,831	-200,000	0,015	0,193
-703,816	-172,761	-0,060	0,001
-702,802	-200,000	-0,000	-0,061
-701,787	484,320	-0,027	-0,045
-700,772	-65,287	-0,090	0,026
-699,758	-200,000	-0,018	0,216
-698,743	-96,048	0,020	-0,004
-697,729	231,287	-0,017	-0,021
-696,714	-55,751	0,010	0,003
-695,699	134,412	-0,132	-0,125
-694,685	169,714	0,054	0,056
-693,670	800,000	-0,008	0,025
-692,656	23,331	0,070	0,042
-691,641	800,000	-0,026	-0,053
-690,627	788,673	-0,021	0,042
-689,612	-69,941	-0,170	0,047
-688,597	-98,816	-0,191	-0,035
-687,583	800,000	-0,070	-0,166
-686,568	-49,744	-0,042	-0,015
-685,554	-200,000	-0,023	-0,153
-684,539	570,482	0,079	-0,140
-683,524	-77,119	-0,154	-0,039
-682,510	-108,035	-0,250	0,039
-681,495	562,832	-0,041	-0,072
-680,481	7,478	-0,149	-0,081
-679,466	55,430	-0,087	-0,061
-678,451	5,526	-0,103	-0,055
-677,437	309,790	0,115	-0,156
-676,422	24,047	0,131	-0,078
-675,408	-119,377	-0,055	-0,007
-674,393	-200,000	0,032	-0,106
-673,378	-55,412	-0,079	-0,026
-672,364	-200,000	-0,017	-0,063
-671,349	26,290	-0,099	0,060
-670,335	-200,000	0,051	0,171
-669,320	-67,095	-0,136	-0,039
-668,305	-200,000	-0,020	0,067
-667,291	44,347	-0,096	-0,064
-666,276	800,000	-0,039	-0,107
-665,262	392,406	0,015	0,023
-664,247	-19,754	-0,015	0,007
-663,232	-56,510	-0,130	0,042
-662,218	-153,807	0,167	-0,008
-661,203	-200,000	-0,009	0,060
-660,189	-200,000	0,031	0,184
-659,174	420,350	-0,061	-0,095
-658,159	800,000	-0,039	-0,112
-657,145	159,117	-0,089	-0,090
-656,130	-43,846	0,086	0,031
-655,116	284,181	0,077	-0,100
-654,101	-200,000	-0,008	-0,062
-653,086	-27,305	0,025	-0,010
-652,072	-191,791	-0,103	0,001
-651,057	34,493	-0,048	-0,031
-650,043	581,272	-0,058	-0,103
-649,028	-40,834	0,056	0,021
-648,014	800,000	-0,064	0,147
-646,999	-200,000	-0,007	-0,087
-645,984	601,644	-0,081	-0,147
-644,970	800,000	-0,044	0,123
-643,955	-200,000	0,012	-0,051
-642,941	-200,000	0,014	-0,160
-641,926	709,786	-0,066	-0,127
-640,911	-200,000	0,019	0,124
-639,897	-200,000	-0,001	0,029
-638,882	800,000	-0,016	0,048
-637,868	-81,339	0,056	0,013
-636,853	-200,000	-0,007	-0,105
-635,838	215,786	-0,030	-0,034
-634,824	-119,266	-0,010	0,001
-633,809	-2,999	0,088	0,044
-632,795	-88,213	-0,160	-0,034
-631,780	-30,226	0,090	0,037
-630,765	-128,472	-0,133	0,014
-629,751	-53,834	-0,322	-0,106
-628,736	-200,000	-0,011	-0,265
-627,722	-151,541	-0,044	-0,002
-626,707	110,615	0,083	0,072
-625,692	-70,100	0,012	0,003
-624,678	-101,167	0,070	0,012
-623,663	-79,004	0,042	0,010
-622,649	17,571	-0,121	-0,070
-621,634	-139,069	0,091	-0,007
-620,619	800,000	-0,020	0,061
-619,605	-85,731	-0,029	-0,006
-618,590	-200,000	-0,041	0,133
-617,576	80,506	0,095	0,074
-616,561	-200,000	0,014	0,125
-615,546	-200,000	0,003	-0,170
-614,532	-20,224	-0,061	-0,027
-613,517	-3,199	-0,070	-0,035
-612,503	-45,993	-0,064	-0,023
-611,488	364,897	0,042	0,062
-610,474	-195,966	0,074	0,000
-609,459	167,892	-0,028	-0,029
-608,444	-70,569	-0,062	0,017
-607,430	-59,218	-0,184	0,057
-606,415	231,017	0,037	-0,044
-605,401	-200,000	0,004	0,038
-604,386	788,485	-0,028	0,056
-603,371	28,136	0,170	-0,104
-602,357	-54,803	0,054	0,018
-601,342	690,014	-0,007	-0,013
-600,328	-42,748	-0,093	-0,034
-599,313	-200,000	-0,009	0,043
-598,298	-43,220	-0,055	0,020
-597,284	28,243	0,036	0,022
-596,269	-81,708	0,183	0,043
-595,255	-10,346	0,069	0,033
-594,240	664,000	-0,013	-0,025
-593,225	-105,260	0,040	0,007
-592,211	701,571	-0,076	-0,145
-591,196	-55,590	-0,104	-0,034
-590,182	-93,004	-0,116	-0,023
-589,167	-200,000	0,012	0,040
-588,152	800,000	-0,054	0,152
-587,138	98,840	-0,076	0,064
-586,123	-3,685	-0,075	-0,038
-585,109	-180,263	-0,025	-0,000
-584,094	-124,350	-0,184	0,021
-583,079	488,575	-0,077	0,128
-582,065	-200,000	-0,012	0,073
-581,050	-47,387	0,065	-0,023
-580,036	-118,527	0,074	0,009
-579,021	-200,000	0,012	-0,042
-578,006	800,000	-0,063	-0,186
-576,992	-102,573	-0,092	-0,016
-575,977	139,330	-0,022	-0,021
-574,963	361,137	0,044	-0,064
-573,948	53,292	0,063	0,044
-572,934	-5,322	-0,117	0,058
-571,919	800,000	-0,026	0,079
-570,904	206,061	-0,083	-0,093
-569,890	-200,000	-0,009	0,096
-568,875	-6,453	0,056	-0,028
-567,861	231,541	-0,042	-0,049
-566,846	92,405	0,113	0,092
-565,831	800,000	-0,035	0,097
-564,817	3,778	-0,121	-0,064
-563,802	800,000	-0,018	0,040
-562,788	-90,064	-0,057	-0,012
-561,773	800,000	-0,027	-0,055
-560,758	227,449	0,090	0,106
-559,744	31,570	-0,032	0,020
-558,729	800,000	0,052	0,147
-557,715	-200,000	0,006	-0,046
-556,700	-130,617	-0,091	-0,009
-555,685	-37,317	-0,109	-0,042
-554,671	100,880	-0,077	-0,065
-553,656	120,686	0,059	0,053
-552,642	281,238	0,109	0,141
-551,627	-200,000	0,010	0,109
-550,612	11,541	-0,046	0,025
-549,598	400,783	0,038	-0,058
-548,583	-105,652	-0,088	0,014
-547,569	24,201	0,086	-0,051
-546,554	800,000	0,047	-0,107
-545,539	-200,000	-0,020	0,074
-544,525	-200,000	-0,037	-0,171
-543,510	-5,881	0,117	-0,058
-542,496	800,000	-0,049	-0,135
-541,481	-200,000	-0,003	-0,059
-540,466	800,000	-0,026	0,075
-539,452	800,000	-0,010	0,021
-538,437	-164,776	-0,049	0,002
-537,423	-12,653	0,070	-0,033
-536,408	800,000	-0,074	-0,163
-535,393	369,260	-0,127	-0,187
-534,379	-200,000	-0,011	-0,060
-533,364	361,022	0,052	-0,076
-532,350	800,000	0,058	0,148
-531,335	67,283	0,070	0,051
-530,321	-60,575	0,102	0,031
-529,306	800,000	-0,017	0,044
-528,291	280,407	-0,094	-0,121
-527,277	800,000	0,032	0,095
-526,262	800,000	-0,041	0,091
-525,248	-95,238	0,208	0,040
-524,233	-200,000	-0,015	0,193
-523,218	56,365	-0,069	0,048
-522,204	300,434	0,072	0,097
-521,189	-200,000	0,000	-0,018
-520,175	172,397	-0,030	-0,031
-519,160	52,794	0,018	-0,013
-518,145	115,439	0,085	-0,075
-517,131	139,549	0,071	0,067
-516,116	-167,051	0,103	-0,003
-515,102	-115,202	0,077	-0,010
-514,087	207,765	0,042	-0,047
-513,072	-47,656	-0,134	0,047
-512,058	-36,070	-0,059	0,023
-511,043	-113,330	0,080	0,011
-510,029	644,898	-0,070	0,129
-509,014	609,162	0,066	0,120
-507,999	-200,000	-0,033	0,170
-506,985	-200,000	0,005	-0,031
-505,970	105,962	0,051	-0,043
-504,956	33,464	-0,150	-0,094
-503,941	241,368	0,074	0,090
-502,926	76,802	0,139	-0,106
-501,912	-200,000	-0,001	-0,027
-500,897	749,807	-0,013	0,025
-499,883	800,000	-0,032	0,085
-498,868	-117,249	0,030	-0,004
-497,853	40,392	-0,136	0,088
-496,839	-106,522	0,061	-0,010
-495,824	-166,941	0,087	-0,003
-494,810	-200,000	-0,011	-0,050
-493,795	118,668	0,044	-0,039
-492,781	355,569	0,028	-0,041
-491,766	800,000	-0,080	-0,203
-490,751	118,858	-0,053	-0,048
-489,737	520,594	-0,044	-0,075
-488,722	257,172	0,071	-0,088
-487,708	-200,000	0,048	0,164
-486,693	283,032	0,084	0,109
-485,678	173,396	-0,085	-0,088
-484,664	-200,000	-0,019	-0,102
-483,649	183,264	0,055	-0,058
-482,635	-4,283	-0,088	0,044
-481,620	109,543	0,075	0,065
-480,605	-13,722	0,007	0,003
-479,591	151,000	-0,032	0,032
-478,576	800,000	-0,057	-0,155
-477,562	392,775	-0,028	-0,042
-476,547	137,918	0,063	-0,059
-475,532	-200,000	-0,005	-0,028
-474,518	800,000	0,065	0,142
-473,503	242,680	0,141	-0,170
-472,489	44,362	-0,153	-0,101
-471,474	-28,492	-0,063	-0,026
-470,459	-5,754	0,052	0,026
-469,445	104,503	-0,080	-0,068
-468,430	11,016	0,201	0,111
-467,416	-87,037	0,042	0,009
-466,401	-200,000	-0,008	0,030
-465,386	-105,281	-0,127	0,021
-464,372	52,506	0,077	0,053
-463,357	41,519	-0,074	-0,048
-462,343	-200,000	0,022	-0,099
-461,328	-51,585	0,142	-0,047
-460,313	-200,000	0,010	0,088
-459,299	-111,860	0,123	-0,018
-458,284	-61,987	0,089	0,027
-457,270	337,861	0,022	-0,031
-456,255	254,728	0,036	-0,044
-455,241	-32,512	0,058	0,023
-454,226	800,000	-0,088	0,194
-453,211	154,592	0,109	-0,108
-452,197	79,172	-0,066	0,051
-451,182	100,134	0,051	0,043
-450,168	-200,000	0,014	-0,071
-449,153	107,641	-0,069	-0,059
-448,138	-200,000	-0,014	-0,117
-447,124	-36,527	-0,035	-0,014
-446,109	-158,296	-0,059	0,002
-445,095	-200,000	0,012	0,074
-444,080	800,000	-0,012	0,026
-443,065	748,565	0,019	0,037
-442,051	725,936	-0,022	0,042
-441,036	282,360	-0,003	-0,003
-440,022	800,000	0,034	0,104
-439,007	-200,000	-0,026	-0,110
-437,992	-200,000	-0,001	-0,133
-436,978	618,314	-0,053	0,095
-435,963	218,283	0,078	0,090
-434,949	800,000	0,069	-0,161
-433,934	116,132	-0,054	-0,047
-432,919	-5,839	-0,056	-0,028
-431,905	453,018	-0,053	0,085
-430,890	475,145	0,027	-0,044
-429,876	-84,868	-0,056	0,013
-428,861	307,561	0,125	-0,168
-427,846	191,161	-0,043	-0,046
-426,832	-200,000	-0,000	0,133
-425,817	-6,953	-0,088	-0,043
-424,803	-200,000	-0,076	0,000
-423,788	107,287	0,028	0,024
-422,773	-10,462	0,211	0,100
-421,759	527,074	0,015	-0,026
-420,744	8,880	-0,011	-0,006
-419,730	-94,397	0,030	-0,006
-418,715	11,797	-0,037	-0,020
-417,701	800,000	-0,011	0,030
-416,686	25,650	0,137	0,082
-415,671	-200,000	0,007	-0,058
-414,657	800,000	0,070	0,153
-413,642	-200,000	-0,015	-0,106
-412,628	41,148	0,104	0,068
-411,613	800,000	0,028	-0,078
-410,598	217,189	-0,069	-0,079
-409,584	-200,000	-0,014	0,134
-408,569	800,000	0,022	0,044
-407,555	-60,681	0,165	0,050
-406,540	81,992	-0,169	0,131
-405,525	137,292	0,078	0,074
-404,511	-200,000	-0,042	-0,136
-403,496	-200,000	-0,001	-0,037
-402,482	620,680	-0,043	0,078
-401,467	-187,414	-0,064	-0,001
-400,452	320,379	0,044	-0,061
-399,438	-55,538	0,074	0,024
-398,423	-200,000	0,008	-0,098
-397,409	-32,085	-0,125	-0,050
-396,394	194,583	-0,045	-0,049
-395,379	-38,242	0,097	-0,037
-394,365	-200,000	0,021	0,127
-393,350	-200,000	0,001	0,025
-392,336	185,475	-0,064	0,068
-391,321	227,908	-0,063	-0,073
-390,306	-200,000	0,038	-0,132
-389,292	117,503	0,078	-0,069
-388,277	-19,260	-0,115	-0,051
-387,263	620,674	-0,043	-0,078
-386,248	-200,000	0,017	0,131
-385,233	-141,984	0,135	0,010
-384,219	-28,594	0,017	0,007
-383,204	800,000	-0,038	-0,091
-382,190	108,022	-0,057	-0,049
-381,175	16,046	-0,087	-0,049
-380,160	-200,000	0,017	-0,108
-379,146	-200,000	-0,015	-0,110
-378,131	-134,777	0,036	0,003
-377,117	-200,000	-0,002	-0,126
-376,102	-200,000	0,028	0,106
-375,088	523,260	0,051	0,086
-374,073	-122,449	0,005	-0,001
-373,058	-164,370	0,129	0,004
-372,044	38,168	0,002	-0,001
-371,029	-43,928	0,180	0,065
-370,015	-19,765	-0,122	0,054
-369,000	800,000	-0,027	-0,058
-367,985	800,000	0,042	-0,131
-366,971	800,000	-0,045	-0,112
-365,956	-19,584	0,173	-0,076
-364,942	-200,000	-0,000	-0,138
-363,927	-60,501	0,106	-0,032
-362,912	150,465	0,017	-0,017
-361,898	731,634	0,057	-0,110
-360,883	129,252	-0,152	-0,139
-359,869	397,719	0,057	-0,086
-358,854	-127,105	0,060	-0,006
-357,839	800,000	0,054	0,161
-356,825	5,388	0,058	-0,030
-355,810	-73,882	0,077	-0,020
-354,796	558,413	-0,021	-0,036
-353,781	-43,513	-0,123	0,044
-352,766	-200,000	-0,020	-0,086
-351,752	-200,000	0,025	0,140
-350,737	-108,327	-0,068	-0,010
-349,723	-200,000	0,001	0,091
-348,708	800,000	-0,112	0,265
-347,693	48,421	-0,022	0,014
-346,679	-167,637	-0,164	0,005
-345,664	-200,000	-0,053	0,000
-344,650	-200,000	-0,004	-0,021
-343,635	-200,000	0,004	0,032
-342,620	49,441	-0,020	-0,014
-341,606	526,660	0,041	0,069
-340,591	-200,000	0,001	0,014
-339,577	110,510	-0,062	-0,053
-338,562	-185,718	0,066	0,001
-337,548	95,629	-0,032	-0,026
-336,533	110,982	0,070	0,060
-335,518	248,144	0,036	-0,044
-334,504	800,000	0,052	-0,131
-333,489	330,755	-0,045	0,062
-332,475	539,629	-0,035	-0,061
-331,460	308,518	-0,080	-0,108
-330,445	396,662	-0,050	0,076
-329,431	30,210	0,041	-0,025
-328,416	-200,000	-0,007	0,161
-327,402	63,493	0,201	0,144
-326,387	-200,000	0,020	0,158
-325,372	-144,536	-0,118	-0,008
-324,358	88,048	0,043	0,034
-323,343	-143,807	0,090	-0,006
-322,329	613,879	-0,050	-0,091
-321,314	-200,000	-0,005	0,030
-320,299	175,440	0,095	0,099
-319,285	-200,000	0,008	0,036
-318,270	-78,919	0,044	0,011
-317,256	455,932	-0,087	0,139
-316,241	-200,000	0,002	-0,066
-315,226	800,000	0,005	-0,010
-314,212	-22,716	-0,025	0,011
-313,197	-200,000	-0,006	0,051
-312,183	14,874	0,115	-0,064
-311,168	-0,135	-0,148	0,075
-310,153	800,000	0,010	-0,023
-309,139	123,680	-0,107	-0,097
-308,124	-200,000	0,025	-0,085
-307,110	194,577	0,031	0,033
-306,095	-117,111	0,030	0,004
-305,080	-200,000	-0,000	0,008
-304,066	-65,688	-0,061	0,017
-303,051	800,000	0,085	-0,194
-302,037	201,037	0,135	-0,149
-301,022	-99,847	0,033	-0,006
-300,008	-200,000	0,016	-0,061
-298,993	279,870	0,115	0,147
-297,978	-200,000	-0,003	0,106
-296,964	-107,669	0,081	-0,012
-295,949	592,820	-0,065	-0,116
-294,935	800,000	-0,030	-0,089
-293,920	-200,000	-0,050	0,173
-292,905	800,000	0,023	0,063
-291,891	-200,000	-0,011	0,092
-290,876	113,774	-0,051	-0,045
-289,862	95,825	0,031	0,025
-288,847	113,851	0,042	0,036
-287,832	613,483	0,008	0,015
-286,818	22,051	0,110	0,064
-285,803	282,152	0,070	0,089
-284,789	103,641	0,064	-0,054
-283,774	-14,143	0,014	0,007
-282,759	-200,000	-0,009	0,134
-281,745	-96,226	-0,060	-0,011
-280,730	-200,000	-0,008	-0,027
-279,716	243,298	0,025	0,030
-278,701	214,814	-0,086	-0,098
-277,686	328,204	-0,061	0,084
-276,672	-77,071	-0,141	-0,035
-275,657	-80,403	-0,014	0,003
-274,643	-90,032	-0,070	0,014
-273,628	-200,000	0,055	-0,180
-272,613	49,526	0,065	-0,043
-271,599	-43,137	0,047	0,017
-270,584	202,688	0,100	0,111
-269,570	-200,000	-0,015	0,099
-268,555	3,771	-0,061	0,032
-267,540	-19,827	-0,123	-0,054
-266,526	115,521	-0,110	0,096
-265,511	301,507	-0,061	-0,081
-264,497	761,373	0,020	0,040
-263,482	84,254	0,085	0,066
-262,467	800,000	0,063	0,144
-261,453	-114,589	0,118	0,016
-260,438	-16,413	0,030	-0,014
-259,424	-94,438	-0,033	0,006
-258,409	-200,000	0,008	0,135
-257,395	37,715	-0,059	0,037
-256,380	51,136	0,102	-0,069
-255,365	55,020	-0,071	0,049
-254,351	81,519	-0,091	0,070
-253,336	237,377	-0,031	-0,037
-252,322	185,539	-0,018	-0,019
-251,307	800,000	-0,048	-0,124
-250,292	-200,000	-0,041	-0,191
-249,278	800,000	-0,043	0,108
-248,263	800,000	-0,035	0,074
-247,249	83,953	-0,074	0,058
-246,234	4,474	-0,101	0,053
-245,219	-119,659	0,040	-0,005
-244,205	800,000	0,051	-0,150
-243,190	-136,834	-0,082	0,007
-242,176	387,771	0,106	0,157
-241,161	-82,408	0,022	0,005
-240,146	-79,791	-0,004	0,001
-239,132	-71,345	-0,133	0,035
-238,117	-200,000	0,026	0,092
-237,103	-51,645	0,062	-0,020
-236,088	231,215	-0,101	-0,119
-235,073	175,033	-0,047	-0,049
-234,059	338,128	-0,046	0,064
-233,044	800,000	-0,034	0,085
-232,030	39,035	0,108	-0,069
-231,015	-200,000	0,016	-0,119
-230,000	800,000	0,048	-0,101
-228,986	124,515	0,088	-0,079
-227,971	-153,246	-0,034	0,002
-226,957	-200,000	-0,016	0,109
-225,942	-106,304	0,068	0,011
-224,927	268,722	0,029	0,037
-223,913	-4,312	-0,201	-0,099
-222,898	800,000	0,017	0,040
-221,884	-18,511	-0,175	0,078
-220,869	-200,000	-0,018	0,061
-219,855	-200,000	0,028	0,097
-218,840	52,701	0,174	-0,118
-217,825	362,253	0,048	-0,070
-216,811	-22,905	-0,073	-0,031
-215,796	-200,000	0,014	-0,118
-214,782	604,864	0,108	0,193
-213,767	481,217	-0,029	0,047
-212,752	-142,817	0,176	0,012
-211,738	40,833	-0,045	-0,029
-210,723	510,556	-0,067	0,111
-209,709	-90,034	-0,086	0,018
-208,694	-200,000	0,020	-0,161
-207,679	482,162	-0,016	0,027
-206,665	-200,000	-0,018	0,081
-205,650	-53,524	0,131	-0,042
-204,636	-200,000	0,005	0,046
-203,621	-139,842	0,207	-0,015
-202,606	402,126	-0,016	-0,024
-201,592	167,732	-0,054	0,055
-200,577	41,621	0,055	-0,035
-199,563	327,462	0,028	-0,038
-198,548	-58,587	-0,099	0,030
-197,533	-74,917	0,012	0,003
-196,519	-76,150	-0,079	0,020
-195,504	-147,536	0,092	-0,005
-194,490	199,528	-0,038	-0,041
-193,475	800,000	-0,037	-0,082
-192,460	-198,835	-0,154	0,001
-191,446	-200,000	0,010	-0,033
-190,431	284,069	0,107	0,137
-189,417	800,000	-0,030	0,095
-188,402	70,888	-0,006	-0,004
-187,387	371,956	-0,017	0,025
-186,373	800,000	0,040	-0,117
-185,358	800,000	0,031	-0,081
-184,344	800,000	-0,031	-0,082
-183,329	71,786	0,181	0,134
-182,315	56,649	-0,154	0,107
-181,300	800,000	-0,007	0,017
-180,285	-98,791	-0,091	-0,016
-179,271	-25,891	0,038	0,016
-178,256	303,947	0,031	-0,041
-177,242	-140,079	0,116	-0,009
-176,227	-200,000	-0,024	0,151
-175,212	-107,100	-0,045	-0,007
-174,198	800,000	0,014	-0,029
-173,183	92,372	-0,100	-0,080
-172,169	74,595	0,077	-0,058
-171,154	-60,314	0,049	-0,015
-170,139	800,000	0,049	0,119
-169,125	58,289	-0,027	0,019
-168,110	27,485	0,078	0,046
-167,096	43,557	-0,105	-0,068
-166,081	-200,000	0,025	-0,083
-165,066	800,000	-0,044	-0,092
-164,052	-108,256	-0,066	0,010
-163,037	-122,617	-0,050	-0,006
-162,023	-200,000	-0,014	0,101
-161,008	99,710	-0,081	0,067
-159,993	-56,223	0,103	0,033
-158,979	388,572	0,068	-0,100
-157,964	-148,454	-0,050	0,003
-156,950	-110,628	0,058	0,008
-155,935	19,080	0,072	-0,041
-154,920	-200,000	-0,001	0,012
-153,906	154,516	0,021	0,020
-152,891	181,833	-0,040	-0,042
-151,877	44,810	0,134	0,087
-150,862	-200,000	0,004	-0,019
-149,847	-74,707	-0,068	-0,017
-148,833	800,000	0,015	-0,038
-147,818	-200,000	0,005	0,167
-146,804	-200,000	-0,009	-0,045
-145,789	-60,287	-0,102	0,031
-144,775	-103,911	-0,090	-0,015
-143,760	316,877	0,028	-0,038
-142,745	55,493	-0,044	-0,030
-141,731	-200,000	0,005	0,127
-140,716	-200,000	-0,053	0,178
-139,702	136,940	-0,069	0,064
-138,687	369,706	0,044	0,063
-137,672	798,441	0,073	-0,144
-136,658	-200,000	-0,010	-0,127
-135,643	-200,000	0,003	-0,128
-134,629	-200,000	-0,000	0,002
-133,614	361,444	0,069	0,099
-132,599	175,196	-0,073	-0,075
-131,585	800,000	-0,038	0,085
-130,570	-59,093	0,037	-0,011
-129,556	-114,118	-0,152	-0,021
-128,541	-200,000	0,030	-0,151
-127,526	-59,860	0,202	0,061
-126,512	335,985	0,129	0,178
-125,497	288,532	0,058	0,074
-124,483	800,000	0,023	0,068
-123,468	359,658	0,064	0,092
-122,453	-179,721	0,075	-0,001
-121,439	-200,000	0,029	-0,141
-120,424	-127,074	0,071	-0,007
-119,410	80,582	0,047	-0,036
-118,395	-200,000	-0,001	-0,028
-117,380	239,524	0,037	0,044
-116,366	129,155	0,011	-0,010
-115,351	95,524	0,035	0,029
-114,337	-18,791	-0,098	-0,043
-113,322	383,104	0,054	-0,079
-112,307	215,448	0,060	-0,068
-111,293	-200,000	-0,019	0,146
-110,278	95,546	0,064	-0,052
-109,264	-200,000	0,071	-0,000
-108,249	-21,903	0,133	-0,057
-107,234	-84,182	-0,125	0,028
-106,220	-200,000	0,016	-0,079
-105,205	44,398	-0,105	-0,068
-104,191	-55,320	-0,079	0,025
-103,176	74,055	-0,066	-0,049
-102,162	5,566	-0,084	0,044
-101,147	101,626	0,070	-0,058
-100,132	-200,000	-0,004	-0,068
-99,118	-49,945	0,057	0,019
-98,103	-200,000	0,003	-0,041
-97,089	800,000	0,023	0,068
-96,074	705,779	-0,056	0,106
-95,059	212,870	-0,043	-0,049
-94,045	-200,000	0,013	-0,055
-93,030	-200,000	0,015	-0,102
-92,016	553,198	0,037	-0,063
-91,001	90,928	0,067	0,053
-89,986	-36,002	-0,086	0,033
-88,972	800,000	0,050	0,137
-87,957	5,525	-0,040	0,021
-86,943	-200,000	0,013	-0,047
-85,928	-58,053	-0,127	-0,039
-84,913	162,595	-0,059	-0,059
-83,899	678,197	-0,015	-0,028
-82,884	-200,000	0,028	-0,135
-81,870	-23,076	0,062	-0,026
-80,855	0,245	-0,066	-0,033
-79,840	-200,000	-0,013	0,091
-78,826	-200,000	0,008	-0,073
-77,811	641,708	-0,037	-0,067
-76,797	-63,453	0,124	-0,036
-75,782	800,000	-0,038	0,085
-74,767	56,028	0,074	0,051
-73,753	-4,348	0,087	0,042
-72,738	14,730	0,036	0,020
-71,724	-20,873	-0,040	0,017
-70,709	15,046	-0,060	0,033
-69,694	250,491	-0,063	0,076
-68,680	-32,788	0,139	0,055
-67,665	-110,533	0,006	-0,001
-66,651	800,000	-0,030	0,093
-65,636	-57,405	0,089	-0,028
-64,622	-105,813	0,078	0,012
-63,607	800,000	-0,049	0,125
-62,592	405,144	0,016	0,024
-61,578	-164,665	-0,078	0,002
-60,563	-200,000	0,005	0,089
-59,549	-200,000	-0,001	0,055
-58,534	-40,510	-1,468	-0,538
-57,519	360,082	-1,568	-2,231
-56,505	-200,000	-0,403	-4,501
-55,490	115,429	0,940	0,814
-54,476	800,000	4,893	11,450
-53,461	-200,000	17,661	282,725
-52,446	800,000	720,753	2228,014
-51,432	563,873	1635,207	2818,990
-50,417	80,992	1658,841	1268,073
-49,403	23,694	1533,200	892,806
-48,388	17,715	1456,436	819,254
-47,373	18,281	1445,799	815,953
-46,359	17,816	1436,605	808,519
-45,344	15,986	1431,836	797,101
-44,330	15,925	1429,974	795,739
-43,315	15,907	1428,327	794,710
-42,300	15,911	1426,795	793,842
-41,286	15,980	1425,594	793,468
-40,271	15,958	1424,085	792,495
-39,257	15,936	1423,044	791,781
-38,242	16,002	1421,697	791,309
-37,227	16,022	1420,186	790,533
-36,213	16,019	1418,860	789,748
-35,198	15,951	1417,989	788,914
-34,184	15,993	1417,066	788,567
-33,169	15,893	1416,022	787,484
-32,154	15,953	1414,720	787,012
-31,140	15,960	1413,456	786,307
-30,125	16,035	1412,093	785,869
-29,111	15,961	1411,139	784,963
-28,096	15,912	1409,987	784,058
-27,082	15,889	1408,854	783,291
-26,067	15,887	1407,750	782,638
-25,052	15,891	1406,727	782,058
-24,038	15,884	1405,648	781,390
-23,023	15,892	1404,644	780,842
-22,009	15,888	1403,657	780,243
-20,994	15,805	1402,976	779,447
-19,979	15,841	1402,000	779,039
-18,965	15,806	1401,038	778,310
-17,950	15,773	1399,851	777,466
-16,936	15,853	1398,880	777,271
-15,921	15,797	1397,608	776,270
-14,906	15,809	1396,739	775,812
-13,892	15,830	1395,955	775,445
-12,877	15,791	1395,009	774,709
-11,863	15,782	1394,106	774,134
-10,848	15,831	1393,066	773,752
-9,833	15,759	1392,337	772,986
-8,819	15,734	1391,387	772,312
-7,804	15,694	1390,344	771,518
-6,790	15,702	1389,433	771,015
-5,775	15,698	1388,305	770,344
-4,760	15,732	1387,382	769,958
-3,746	15,690	1386,631	769,315
-2,731	15,675	1385,910	768,816
-1,717	15,664	1384,747	768,089
-0,702	15,704	1382,903	767,221
0,313	19,451	1303,693	740,577
1,327	35,553	706,761	438,809
2,342	54,644	125,279	85,457
3,356	1,062	16,668	8,442
4,371	8,756	3,032	1,614
5,386	3,640	0,422	0,217
6,400	210,781	0,132	0,147
7,415	-153,647	-0,273	-0,013
8,429	63,699	-0,367	-0,261
9,444	667,903	-0,143	-0,263
10,459	158,045	-0,265	-0,260
11,473	166,417	-0,231	-0,232
12,488	-192,344	-0,309	-0,002
13,502	6,780	-0,302	-0,158
14,517	142,957	-0,313	-0,295
15,531	68,337	-0,440	-0,319
16,546	-19,221	-0,351	-0,153
17,561	126,563	-0,401	-0,360
18,575	48,331	-0,216	-0,143
19,590	9,431	-0,279	-0,149
20,604	27,381	-0,292	-0,173
21,619	50,458	-0,494	-0,330
22,634	52,507	-0,507	-0,342
23,648	63,611	-0,508	-0,360
24,663	96,690	-0,401	-0,324
25,677	57,596	-0,430	-0,296
26,692	97,362	-0,296	-0,240
27,707	72,239	-0,300	-0,221
28,721	284,441	-0,270	-0,345
29,736	53,306	-0,419	-0,283
30,750	127,896	-0,338	-0,304
31,765	308,298	-0,307	-0,406
32,780	-9,134	-0,399	-0,188
33,794	-146,096	-0,270	-0,017
34,809	82,430	-0,321	-0,246
35,823	117,328	-0,328	-0,285
36,838	220,419	-0,391	-0,443
37,853	53,295	-0,476	-0,321
38,867	166,806	-0,318	-0,319
39,882	94,049	-0,285	-0,228
40,896	-66,037	-0,287	-0,080
41,911	85,310	-0,300	-0,232
42,926	219,090	-0,294	-0,332
43,940	334,931	-0,264	-0,362
44,955	46,599	-0,375	-0,245
45,969	61,438	-0,406	-0,284
46,984	174,283	-0,367	-0,375
47,999	88,182	-0,361	-0,282
49,013	-29,373	-0,210	-0,085
50,028	156,744	-0,391	-0,382
51,042	99,331	-0,237	-0,194
52,057	54,613	-0,326	-0,221
53,071	-28,535	-0,344	-0,139
54,086	3,421	-0,258	-0,132
55,101	58,459	-0,377	-0,260
56,115	96,068	-0,256	-0,207
57,130	26,530	-0,414	-0,244
58,144	4,576	-0,391	-0,202
59,159	379,762	-0,220	-0,319
60,174	81,139	-0,348	-0,265
61,188	62,624	-0,317	-0,223
62,203	-7,214	-0,515	-0,245
63,217	96,384	-0,216	-0,174
64,232	3,844	-0,233	-0,119
65,247	17,976	-0,322	-0,180
66,261	83,122	-0,263	-0,201
67,276	32,326	-0,282	-0,171
68,290	28,851	-0,365	-0,218
69,305	137,503	-0,259	-0,239
70,320	66,045	-0,253	-0,181
71,334	-48,006	-0,445	-0,151
72,349	29,919	-0,295	-0,177
73,363	171,158	-0,336	-0,340
74,378	255,715	-0,261	-0,316
75,393	254,339	-0,241	-0,291
76,407	5,327	-0,313	-0,162
77,422	478,455	-0,154	-0,247
78,436	131,621	-0,208	-0,189
79,451	0,865	-0,296	-0,149
80,466	37,984	-0,350	-0,219
81,480	68,242	-0,358	-0,258
82,495	-123,145	-0,285	-0,032
83,509	37,656	-0,331	-0,206
84,524	70,266	-0,208	-0,151
85,539	25,420	-0,250	-0,146
86,553	93,979	-0,208	-0,165
87,568	61,507	-0,380	-0,266
88,582	266,745	-0,288	-0,355
89,597	154,798	-0,216	-0,209
90,611	-25,972	-0,286	-0,118
91,626	65,029	-0,212	-0,150
92,641	-20,939	-0,264	-0,113
93,655	694,172	-0,143	-0,266
94,670	91,868	-0,265	-0,209
95,684	66,223	-0,360	-0,256
96,699	7,156	-0,420	-0,219
97,714	63,132	-0,289	-0,203
98,728	179,011	-0,105	-0,108
99,743	92,305	-0,185	-0,147
100,757	-3,200	-0,408	-0,199
101,772	11,730	-0,281	-0,151
102,787	471,320	-0,145	-0,230
103,801	67,423	-0,296	-0,212
104,816	110,068	-0,270	-0,228
105,830	-85,049	-0,238	-0,052
106,845	278,803	-0,279	-0,349
107,860	79,230	-0,324	-0,243
108,874	2,269	-0,335	-0,169
109,889	20,073	-0,284	-0,161
110,903	147,583	-0,259	-0,245
111,918	-78,246	-0,210	-0,050
112,933	41,446	-0,274	-0,174
113,947	-94,324	-0,275	0,052
114,962	227,072	-0,175	-0,200
115,976	307,147	-0,188	-0,247
116,991	99,407	-0,248	-0,201
118,006	89,686	-0,250	-0,196
119,020	5,069	-0,276	-0,142
120,035	-38,419	-0,331	-0,122
121,049	-127,528	-0,310	-0,031
122,064	128,189	-0,191	-0,170
123,079	334,861	-0,191	-0,260
124,093	63,260	-0,307	-0,215
125,108	-112,170	-0,206	0,029
126,122	95,449	-0,234	-0,187
127,137	1,450	-0,305	-0,153
128,151	171,310	-0,157	-0,158
129,166	-84,620	-0,187	-0,041
130,181	706,643	-0,113	-0,211
131,195	-42,648	-0,302	-0,107
132,210	-65,043	-0,362	-0,102
133,224	82,742	-0,244	-0,185
134,239	43,161	-0,270	-0,172
135,254	-41,649	-0,189	-0,068
136,268	92,836	-0,227	-0,179
137,283	129,669	-0,343	-0,307
138,297	162,811	-0,154	-0,151
139,312	120,791	-0,253	-0,220
140,327	179,187	-0,194	-0,199
141,341	424,529	-0,201	-0,304
142,356	-38,313	-0,242	-0,089
143,370	137,393	-0,149	-0,136
144,385	117,150	-0,302	-0,260
145,400	101,209	-0,326	-0,266
146,414	-37,719	-0,371	-0,138
147,429	268,265	-0,267	-0,327
148,443	103,189	-0,219	-0,180
149,458	-99,728	-0,163	-0,028
150,473	255,668	-0,276	-0,332
151,487	165,608	-0,144	-0,142
152,502	-38,205	-0,284	-0,105
153,516	136,444	-0,332	-0,303
154,531	29,478	-0,287	-0,170
155,546	26,357	-0,305	-0,178
156,560	29,258	-0,286	-0,169
157,575	249,216	-0,120	-0,143
158,589	-26,149	-0,238	-0,097
159,604	-17,728	-0,241	-0,105
160,619	215,403	-0,202	-0,224
161,633	39,951	-0,237	-0,149
162,648	61,403	-0,166	-0,115
163,662	-200,000	-0,042	-0,306
164,677	-29,332	-0,165	-0,066
165,692	36,263	-0,203	-0,125
166,706	-85,016	-0,412	-0,089
167,721	-11,352	-0,228	-0,104
168,735	79,862	-0,278	-0,209
169,750	123,603	-0,141	-0,123
170,764	20,578	-0,240	-0,135
171,779	-58,006	-0,350	-0,106
172,794	-141,962	-0,269	-0,018
173,808	-46,632	-0,257	-0,087
174,823	78,755	-0,218	-0,163
175,837	304,986	-0,198	-0,257
176,852	88,805	-0,189	-0,146
177,867	-78,353	-0,260	-0,062
178,881	-4,558	-0,244	-0,117
179,896	-175,905	-0,242	0,004
180,910	-66,014	-0,240	-0,066
181,925	-1,507	-0,219	-0,108
182,940	11,042	-0,254	-0,135
183,954	63,088	-0,194	-0,136
184,969	235,442	-0,133	-0,154
185,983	116,911	-0,148	-0,127
186,998	-38,329	-0,155	-0,057
188,013	-11,482	-0,139	-0,064
189,027	312,000	-0,245	-0,322
190,042	131,593	-0,092	-0,082
191,056	148,902	-0,328	-0,310
192,071	85,917	-0,197	-0,151
193,086	-127,071	-0,331	-0,033
194,100	541,438	-0,123	-0,204
195,115	109,550	-0,235	-0,196
196,129	-57,715	-0,211	-0,064
197,144	52,472	-0,119	-0,079
198,159	737,019	-0,093	-0,174
199,173	69,432	-0,248	-0,178
200,188	96,475	-0,200	-0,160
201,202	228,573	-0,185	-0,210
202,217	352,918	-0,167	-0,231
203,232	29,537	-0,280	-0,165
204,246	60,290	-0,212	-0,146
205,261	61,359	-0,300	-0,207
206,275	-60,018	-0,330	-0,097
207,290	-13,854	-0,146	-0,065
208,304	250,989	-0,150	-0,177
209,319	301,580	-0,203	-0,262
210,334	163,531	-0,169	-0,165
211,348	144,913	-0,119	-0,111
212,363	137,685	-0,152	-0,138
213,377	263,206	-0,158	-0,192
214,392	185,430	-0,182	-0,188
215,407	800,000	-0,102	-0,243
216,421	800,000	-0,098	-0,198
217,436	340,718	-0,145	-0,197
218,450	173,932	-0,207	-0,208
219,465	54,583	-0,124	-0,083
220,480	800,000	-0,102	-0,248
221,494	-200,000	-0,014	-0,076
222,509	15,090	-0,270	-0,146
223,523	16,977	-0,181	-0,099
224,538	60,094	-0,269	-0,184
225,553	123,771	-0,282	-0,246
226,567	22,204	-0,224	-0,127
227,582	-18,258	-0,316	-0,137
228,596	64,582	-0,152	-0,106
229,611	-42,831	-0,096	-0,034
230,626	-101,330	-0,164	-0,028
231,640	108,331	-0,089	-0,074
232,655	31,827	-0,121	-0,072
233,669	0,528	-0,237	-0,117
234,684	-70,519	-0,162	0,042
235,699	32,855	-0,214	-0,129
236,713	79,018	-0,229	-0,170
237,728	-56,665	-0,209	-0,064
238,742	-102,636	-0,348	-0,057
239,757	4,510	-0,307	-0,156
240,772	-23,812	-0,234	-0,097
241,786	309,063	-0,171	-0,222
242,801	800,000	-0,078	-0,202
243,815	41,040	-0,198	-0,124
244,830	246,754	-0,091	-0,107
245,844	86,060	-0,096	-0,073
246,859	-37,115	-0,248	-0,092
247,874	31,740	-0,240	-0,143
248,888	355,018	-0,129	-0,178
249,903	102,863	-0,207	-0,168
250,917	161,683	-0,272	-0,264
251,932	-40,416	-0,155	-0,056
252,947	-80,937	-0,242	-0,055
253,961	305,669	-0,111	-0,143
254,976	-112,195	-0,302	-0,042
255,990	595,479	-0,139	-0,239
257,005	685,930	-0,085	-0,155
258,020	215,062	-0,065	-0,072
259,034	800,000	-0,027	-0,065
260,049	800,000	-0,083	-0,238
261,063	266,589	-0,174	-0,211
262,078	262,804	-0,230	-0,278
263,093	-77,566	-0,239	-0,057
264,107	-96,490	-0,214	0,039
265,122	-17,128	-0,101	-0,044
266,136	747,009	0,001	0,003
267,151	73,944	-0,196	-0,142
268,166	71,681	-0,075	-0,054
269,180	-38,017	-0,248	-0,091
270,195	320,239	-0,207	-0,272
271,209	282,014	-0,194	-0,241
272,224	800,000	0,032	-0,088
273,239	67,099	-0,127	0,090
274,253	-102,884	-0,263	-0,043
275,268	43,833	-0,068	-0,043
276,282	248,920	-0,136	-0,159
277,297	10,704	-0,171	-0,090
278,312	432,937	-0,131	-0,198
279,326	4,972	-0,138	0,070
280,341	-19,243	-0,114	-0,049
281,355	93,948	-0,136	-0,106
282,370	-100,335	-0,167	-0,028
283,384	-62,450	-0,168	-0,048
284,399	613,893	-0,106	-0,184
285,414	416,387	-0,117	-0,173
286,428	-136,223	-0,119	0,009
287,443	374,059	-0,071	-0,100
288,457	-59,494	-0,114	0,034
289,472	800,000	-0,123	-0,267
290,487	460,346	-0,102	-0,157
291,501	62,295	-0,166	-0,114
292,516	-61,067	-0,218	-0,063
293,530	84,727	-0,033	-0,025
294,545	221,310	-0,084	0,094
295,560	-57,381	-0,137	0,041
296,574	30,864	-0,120	-0,071
297,589	800,000	-0,062	-0,169
298,603	800,000	-0,041	0,089
299,618	-200,000	0,008	-0,217
300,633	37,771	-0,083	-0,051
301,647	-92,460	-0,206	-0,040
302,662	-64,064	-0,188	-0,053
303,676	86,258	-0,182	-0,139
304,691	-76,823	-0,194	-0,046
305,706	481,812	-0,148	-0,232
306,720	-60,091	-0,194	-0,057
307,735	55,636	-0,122	0,081
308,749	-200,000	-0,007	-0,105
309,764	-29,784	-0,127	0,050
310,779	51,336	-0,165	-0,108
311,793	-143,222	-0,204	-0,013
312,808	212,536	-0,158	-0,172
313,822	284,438	-0,147	-0,183
314,837	241,068	-0,094	-0,109
315,852	119,008	-0,066	-0,057
316,866	-44,536	-0,220	-0,075
317,881	41,965	-0,049	0,031
318,895	800,000	-0,027	-0,065
319,910	182,435	-0,130	-0,133
320,925	-135,856	-0,096	-0,008
321,939	-192,219	-0,108	-0,001
322,954	163,362	-0,192	-0,186
323,968	167,979	-0,076	-0,075
324,983	-200,000	-0,025	-0,099
325,997	101,224	-0,173	-0,139
327,012	19,820	-0,268	-0,148
328,027	-16,798	-0,163	-0,071
329,041	639,571	-0,107	-0,189
330,056	61,497	-0,148	-0,101
331,070	7,790	-0,046	-0,024
332,085	-199,804	-0,077	-0,000
333,100	-200,000	-0,020	-0,132
334,114	-181,591	-0,146	0,002
335,129	800,000	-0,129	-0,256
336,143	-44,346	-0,210	-0,072
337,158	65,528	-0,125	-0,087
338,173	178,130	-0,116	-0,117
339,187	104,654	-0,094	-0,076
340,202	-97,728	-0,208	0,037
341,216	455,960	-0,124	-0,189
342,231	800,000	-0,095	-0,249
343,246	93,707	-0,231	-0,180
344,260	-14,492	-0,160	-0,070
345,275	-61,052	-0,114	-0,033
346,289	-176,253	-0,170	0,003
347,304	-11,792	-0,126	-0,056
348,319	-200,000	-0,006	-0,137
349,333	75,445	-0,198	-0,143
350,348	-68,990	-0,166	-0,044
351,362	30,728	-0,157	-0,092
352,377	65,515	-0,176	-0,122
353,392	23,485	-0,088	-0,050
354,406	800,000	0,030	-0,076
355,421	209,359	1315,090	1417,110
356,435	161,135	1475,875	1417,640
