DTS Sentinel unit serial number:	SN410029Multiplexer serial number:	ORYXHardware model number:	OX2-SRSoftware version number:	ORYX F/W v4,00 Oryx Data Collector v3.7.2.0data status	okinstallation	B3 Nyhavnadifferential loss correction	single-endedforward channel	channel 1reverse channel	N/Adate	2023/12/04time	18:07:30forward acquisition time	300,00reverse acquisition time	0,00gamma	499,1914k internal	0,3200k external	0,3200temperature offset calibration	1,0000default loss term (dB/km)	0,3820temperature slope calibration	1,0000multiplexer offset coefficient	1,0000multiplexer slope coefficient	1,0000fibre end	0,00T internal ref (°C)	15,00T ext. ref 1 (°C)	-0,12T ext. ref 2 (°C)	-0,13length (m)	temperature (°C)	Stokes	anti-Stokes-744,400	336,347	-0,103	-0,146
-743,385	276,152	0,235	0,305
-742,371	69,480	-0,224	-0,168
-741,356	-200,000	0,030	0,393
-740,342	800,000	-0,107	-0,228
-739,327	-200,000	-0,013	0,262
-738,312	34,225	-0,359	-0,227
-737,298	-200,000	0,065	0,220
-736,283	46,106	-0,243	-0,163
-735,269	-200,000	0,078	0,344
-734,254	-71,353	-0,245	-0,066
-733,239	83,694	-0,169	0,134
-732,225	800,000	-0,109	-0,250
-731,210	518,042	0,098	0,167
-730,196	-200,000	0,031	-0,103
-729,181	6,760	-0,092	-0,050
-728,167	226,035	-0,045	-0,053
-727,152	-200,000	-0,010	-0,034
-726,137	-60,112	-0,152	0,047
-725,123	-200,000	-0,026	-0,114
-724,108	-200,000	-0,059	-0,192
-723,094	-200,000	0,014	-0,182
-722,079	800,000	-0,066	-0,198
-721,064	482,899	-0,037	-0,061
-720,050	-200,000	-0,018	-0,155
-719,035	-200,000	0,030	0,145
-718,021	-8,906	-0,125	-0,061
-717,006	313,371	-0,054	-0,074
-715,991	-200,000	-0,111	-0,000
-714,977	60,169	-0,109	0,078
-713,962	-200,000	-0,008	-0,099
-712,948	36,998	0,091	-0,058
-711,933	150,418	0,060	-0,060
-710,918	-200,000	-0,002	-0,060
-709,904	800,000	-0,061	-0,157
-708,889	-200,000	0,010	-0,072
-707,875	261,463	0,075	-0,095
-706,860	255,700	0,042	0,053
-705,845	-200,000	0,015	0,109
-704,831	-200,000	-0,013	0,121
-703,816	615,476	-0,029	-0,053
-702,802	248,321	-0,089	-0,109
-701,787	561,257	-0,034	0,059
-700,772	-139,213	-0,045	-0,003
-699,758	-63,954	0,069	0,020
-698,743	-30,971	0,096	-0,039
-697,729	-102,947	0,068	0,012
-696,714	800,000	-0,014	0,037
-695,699	-200,000	0,005	0,083
-694,685	-113,293	-0,137	0,019
-693,670	800,000	-0,031	0,079
-692,656	-200,000	-0,004	-0,069
-691,641	-75,282	0,100	-0,026
-690,627	-103,185	0,082	0,014
-689,612	-153,176	-0,248	-0,012
-688,597	-200,000	-0,011	-0,062
-687,583	-1,622	-0,114	-0,058
-686,568	-45,695	-0,125	0,045
-685,554	-68,975	-0,153	0,042
-684,539	333,265	-0,006	0,009
-683,524	148,583	-0,092	-0,090
-682,510	-200,000	0,022	0,106
-681,495	-44,242	-0,016	-0,006
-680,481	-200,000	0,022	-0,142
-679,466	35,581	-0,060	-0,038
-678,451	171,071	0,039	0,040
-677,437	800,000	0,028	-0,061
-676,422	-94,074	0,162	0,032
-675,408	7,469	-0,032	-0,017
-674,393	219,304	0,079	0,092
-673,378	-36,316	0,082	0,032
-672,364	128,098	-0,030	0,028
-671,349	66,868	0,188	-0,139
-670,335	-49,380	0,091	-0,031
-669,320	71,825	-0,093	0,070
-668,305	-200,000	0,009	0,114
-667,291	-200,000	0,015	-0,072
-666,276	72,864	-0,126	-0,095
-665,262	-200,000	-0,013	-0,215
-664,247	-200,000	0,001	0,142
-663,232	800,000	-0,037	-0,097
-662,218	541,930	0,072	-0,126
-661,203	800,000	-0,014	-0,037
-660,189	800,000	0,006	-0,017
-659,174	-47,269	-0,145	0,051
-658,159	-200,000	-0,008	-0,040
-657,145	-200,000	0,022	0,075
-656,130	-78,692	-0,081	0,020
-655,116	-200,000	0,017	-0,140
-654,101	27,239	-0,108	-0,066
-653,086	263,274	-0,087	0,110
-652,072	-200,000	-0,002	-0,037
-651,057	-43,351	-0,053	-0,019
-650,043	-32,819	-0,088	-0,035
-649,028	-200,000	0,059	-0,191
-648,014	800,000	0,024	-0,059
-646,999	-200,000	0,008	0,062
-645,984	36,198	0,063	-0,040
-644,970	263,512	-0,064	0,081
-643,955	-200,000	0,001	-0,028
-642,941	64,692	-0,097	-0,071
-641,926	-200,000	0,009	0,036
-640,911	800,000	0,061	-0,133
-639,897	-54,718	0,137	0,045
-638,882	-129,437	-0,138	0,014
-637,868	-200,000	0,004	0,060
-636,853	-200,000	-0,005	-0,045
-635,838	-200,000	0,059	-0,196
-634,824	355,237	0,078	-0,113
-633,809	45,558	-0,099	-0,066
-632,795	-200,000	0,000	0,088
-631,780	-100,753	0,039	0,007
-630,765	-200,000	-0,041	-0,211
-629,751	-7,060	-0,102	0,050
-628,736	-200,000	-0,018	-0,093
-627,722	-200,000	0,011	-0,076
-626,707	-0,660	-0,082	0,042
-625,692	-80,809	0,081	-0,019
-624,678	-200,000	-0,022	-0,149
-623,663	-77,926	0,119	-0,030
-622,649	137,574	-0,050	-0,048
-621,634	800,000	-0,068	-0,138
-620,619	229,758	0,065	-0,077
-619,605	-200,000	0,004	-0,056
-618,590	39,314	0,131	0,085
-617,576	-200,000	0,032	0,185
-616,561	-65,010	-0,125	-0,036
-615,546	-47,218	0,048	-0,017
-614,532	-200,000	0,019	0,147
-613,517	-200,000	0,000	-0,175
-612,503	-42,081	0,110	-0,041
-611,488	-47,148	0,066	-0,023
-610,474	376,803	0,078	-0,116
-609,459	800,000	-0,030	0,089
-608,444	35,725	-0,105	-0,067
-607,430	800,000	0,010	-0,023
-606,415	64,610	-0,102	-0,075
-605,401	-200,000	-0,007	-0,102
-604,386	56,620	-0,055	0,038
-603,371	247,254	0,031	0,038
-602,357	800,000	0,045	0,106
-601,342	-90,888	-0,079	0,016
-600,328	-200,000	-0,017	-0,125
-599,313	-100,693	-0,103	0,018
-598,298	-200,000	0,006	-0,038
-597,284	-149,764	-0,039	-0,002
-596,269	-43,241	0,052	-0,019
-595,255	101,816	0,134	0,113
-594,240	158,689	0,084	0,084
-593,225	-175,807	-0,055	0,001
-592,211	-98,633	-0,062	-0,011
-591,196	-24,675	0,085	0,037
-590,182	-44,579	-0,175	0,063
-589,167	5,454	0,138	-0,073
-588,152	323,669	0,023	0,032
-587,138	109,086	0,040	-0,035
-586,123	216,624	-0,033	0,038
-585,109	-101,816	-0,084	-0,015
-584,094	-200,000	-0,003	-0,063
-583,079	-200,000	-0,013	0,131
-582,065	800,000	0,019	0,044
-581,050	160,997	0,036	-0,037
-580,036	-82,146	0,058	0,014
-579,021	-200,000	0,028	-0,096
-578,006	-200,000	-0,010	0,042
-576,992	180,962	-0,110	-0,116
-575,977	202,152	0,057	0,063
-574,963	103,842	0,079	0,067
-573,948	240,457	-0,101	0,122
-572,934	-1,105	0,064	-0,032
-571,919	-121,239	-0,097	-0,012
-570,904	144,098	0,074	-0,071
-569,890	-200,000	-0,010	-0,064
-568,875	416,443	0,035	0,054
-567,861	-122,373	-0,045	0,005
-566,846	-200,000	-0,012	-0,048
-565,831	110,605	0,072	-0,063
-564,817	130,432	0,024	-0,022
-563,802	800,000	-0,045	0,092
-562,788	800,000	-0,033	0,089
-561,773	800,000	-0,017	0,050
-560,758	134,098	-0,010	-0,009
-559,744	293,951	0,071	-0,094
-558,729	-58,683	0,071	0,022
-557,715	800,000	-0,073	0,159
-556,700	800,000	0,047	-0,125
-555,685	183,664	-0,061	-0,065
-554,671	-200,000	-0,014	0,237
-553,656	182,422	0,071	0,075
-552,642	800,000	-0,030	0,060
-551,627	794,480	-0,046	-0,091
-550,612	-147,661	-0,070	0,004
-549,598	-138,536	-0,214	-0,017
-548,583	462,866	-0,023	-0,038
-547,569	746,285	0,002	0,004
-546,554	432,146	0,067	-0,105
-545,539	133,203	0,047	0,044
-544,525	-69,463	0,157	0,043
-543,510	-57,358	-0,044	0,014
-542,496	142,271	-0,020	0,019
-541,481	-200,000	-0,046	-0,150
-540,466	-160,539	0,141	-0,005
-539,452	89,792	0,034	-0,027
-538,437	12,953	0,080	0,044
-537,423	-200,000	-0,001	-0,055
-536,408	-200,000	-0,005	0,089
-535,393	482,932	-0,023	0,037
-534,379	-31,902	-0,156	-0,063
-533,364	7,138	-0,038	-0,020
-532,350	-200,000	0,021	0,128
-531,335	10,075	0,013	0,007
-530,321	-155,900	0,109	-0,005
-529,306	800,000	0,043	0,129
-528,291	779,785	-0,014	-0,028
-527,277	92,095	-0,091	-0,074
-526,262	-200,000	0,003	0,095
-525,248	236,646	0,044	-0,053
-524,233	104,117	0,046	0,039
-523,218	4,386	-0,040	-0,021
-522,204	-117,292	-0,117	-0,015
-521,189	-200,000	0,028	-0,110
-520,175	55,146	-0,057	-0,040
-519,160	800,000	0,020	0,058
-518,145	-200,000	-0,009	-0,111
-517,131	137,100	0,095	0,089
-516,116	88,382	-0,030	-0,024
-515,102	800,000	0,045	0,106
-514,087	222,893	-0,094	-0,110
-513,072	184,179	0,044	-0,047
-512,058	-200,000	-0,015	-0,047
-511,043	-200,000	-0,050	-0,189
-510,029	174,268	-0,093	-0,097
-509,014	-94,907	0,157	0,030
-507,999	-25,265	-0,093	-0,040
-506,985	800,000	0,025	-0,069
-505,970	22,694	-0,118	-0,070
-504,956	-200,000	-0,009	-0,159
-503,941	-24,771	-0,040	0,017
-502,926	-200,000	-0,022	-0,100
-501,912	800,000	0,035	0,090
-500,897	-200,000	0,034	0,130
-499,883	800,000	-0,067	0,141
-498,868	800,000	-0,031	0,080
-497,853	132,109	0,030	0,028
-496,839	800,000	0,027	0,068
-495,824	9,445	0,097	0,053
-494,810	-200,000	-0,027	0,100
-493,795	103,390	0,116	-0,098
-492,781	361,734	-0,070	0,101
-491,766	800,000	-0,047	-0,113
-490,751	177,681	-0,048	-0,051
-489,737	800,000	0,008	0,024
-488,722	-73,226	0,042	-0,011
-487,708	72,745	-0,012	-0,009
-486,693	-28,311	0,118	-0,049
-485,678	-200,000	0,017	-0,087
-484,664	-200,000	-0,026	-0,121
-483,649	84,065	0,061	-0,048
-482,635	111,852	0,039	-0,034
-481,620	800,000	-0,045	-0,118
-480,605	-88,514	0,090	-0,019
-479,591	-2,814	0,034	-0,017
-478,576	-200,000	0,005	-0,079
-477,562	62,045	0,091	-0,065
-476,547	800,000	0,024	-0,068
-475,532	8,944	0,123	-0,067
-474,518	63,323	0,038	-0,027
-473,503	800,000	0,018	0,054
-472,489	21,959	0,088	-0,051
-471,474	-200,000	0,003	-0,075
-470,459	331,790	-0,051	0,071
-469,445	162,374	-0,107	-0,108
-468,430	-200,000	0,024	0,085
-467,416	354,893	-0,095	0,136
-466,401	64,674	0,051	0,037
-465,386	87,278	-0,095	0,075
-464,372	-158,405	0,082	0,003
-463,357	-200,000	-0,007	-0,048
-462,343	-118,634	0,035	0,004
-461,328	-133,723	-0,030	0,003
-460,313	-200,000	-0,003	0,026
-459,299	800,000	0,045	0,117
-458,284	133,005	0,109	0,101
-457,270	254,410	0,029	0,035
-456,255	800,000	0,027	0,065
-455,241	419,361	-0,063	0,097
-454,226	-112,052	-0,057	0,008
-453,211	800,000	-0,022	0,066
-452,197	107,796	0,103	0,088
-451,182	-200,000	-0,054	0,176
-450,168	800,000	-0,063	0,138
-449,153	-200,000	-0,006	0,034
-448,138	-98,632	0,067	0,012
-447,124	36,957	0,170	0,108
-446,109	82,762	-0,062	-0,048
-445,095	-51,185	-0,038	-0,013
-444,080	-108,379	-0,105	-0,016
-443,065	-200,000	0,029	-0,128
-442,051	96,386	0,050	-0,041
-441,036	-71,325	0,073	-0,020
-440,022	-34,846	0,088	-0,034
-439,007	192,188	-0,042	0,046
-437,992	-187,793	0,060	0,001
-436,978	171,957	0,149	0,154
-435,963	-200,000	-0,005	-0,033
-434,949	476,686	-0,025	0,041
-433,934	-130,646	0,007	-0,001
-432,919	800,000	-0,025	-0,067
-431,905	-23,374	-0,036	0,016
-430,890	41,776	-0,105	0,068
-429,876	194,888	0,061	-0,066
-428,861	800,000	0,041	0,084
-427,846	-200,000	-0,004	0,033
-426,832	-117,139	-0,111	0,014
-425,817	-154,139	-0,201	0,010
-424,803	408,599	0,099	-0,151
-423,788	-163,905	-0,030	0,001
-422,773	190,189	0,075	-0,081
-421,759	181,621	0,061	0,065
-420,744	-200,000	0,004	-0,033
-419,730	272,712	-0,052	0,066
-418,715	-20,970	-0,048	-0,021
-417,701	174,234	0,096	-0,100
-416,686	244,751	0,005	0,006
-415,671	-31,738	0,092	-0,037
-414,657	203,923	0,177	0,198
-413,642	-200,000	-0,008	0,046
-412,628	214,275	-0,037	-0,043
-411,613	466,017	0,032	-0,051
-410,598	174,980	0,066	0,069
-409,584	-175,279	0,072	-0,001
-408,569	-153,098	-0,040	-0,002
-407,555	-200,000	0,016	0,084
-406,540	-200,000	-0,001	0,078
-405,525	293,697	-0,069	-0,091
-404,511	-28,499	0,080	-0,033
-403,496	-200,000	0,007	0,026
-402,482	-200,000	0,004	0,017
-401,467	663,931	-0,026	-0,048
-400,452	-200,000	0,025	0,100
-399,438	-200,000	0,012	0,151
-398,423	317,200	-0,083	0,113
-397,409	-13,518	-0,177	0,082
-396,394	-200,000	-0,005	-0,022
-395,379	17,544	-0,117	0,067
-394,365	-50,936	-0,109	0,037
-393,350	11,812	0,044	0,024
-392,336	64,490	0,021	0,015
-391,321	-142,355	0,104	-0,007
-390,306	413,612	-0,031	0,048
-389,292	163,760	0,151	-0,153
-388,277	111,832	-0,082	0,071
-387,263	-200,000	-0,042	0,210
-386,248	800,000	0,047	0,145
-385,233	398,797	-0,056	0,084
-384,219	378,057	0,045	0,067
-383,204	800,000	0,050	0,120
-382,190	25,981	-0,100	-0,060
-381,175	-3,824	0,042	0,021
-380,160	30,896	0,085	0,052
-379,146	412,364	0,043	0,066
-378,131	-200,000	0,016	-0,131
-377,117	800,000	-0,072	-0,172
-376,102	142,988	-0,080	-0,076
-375,088	-39,896	-0,094	-0,035
-374,073	-14,609	-0,148	0,068
-373,058	-200,000	0,013	0,092
-372,044	-98,535	0,117	-0,021
-371,029	-200,000	-0,052	0,164
-370,015	23,395	-0,072	0,042
-369,000	-200,000	-0,016	-0,069
-367,985	327,671	-0,067	0,093
-366,971	-200,000	0,023	0,093
-365,956	-200,000	-0,004	0,043
-364,942	-200,000	0,013	0,043
-363,927	54,816	0,049	0,034
-362,912	352,762	-0,053	0,075
-361,898	420,801	-0,047	0,073
-360,883	45,400	-0,103	-0,068
-359,869	53,455	-0,165	0,114
-358,854	410,328	0,025	0,037
-357,839	800,000	-0,027	-0,058
-356,825	306,602	0,040	-0,053
-355,810	-109,816	0,061	0,009
-354,796	305,641	-0,080	-0,107
-353,781	-200,000	0,008	-0,074
-352,766	307,543	0,023	-0,030
-351,752	166,347	0,099	-0,101
-350,737	800,000	0,052	0,135
-349,723	-89,882	0,078	0,016
-348,708	100,150	-0,183	0,152
-347,693	110,944	-0,056	-0,048
-346,679	675,910	-0,093	-0,174
-345,664	-200,000	0,018	-0,210
-344,650	-200,000	0,000	-0,147
-343,635	-28,036	0,118	0,049
-342,620	-166,765	-0,041	-0,001
-341,606	83,312	0,084	0,065
-340,591	368,411	0,016	0,023
-339,577	279,697	-0,048	-0,062
-338,562	800,000	0,019	-0,057
-337,548	800,000	-0,036	-0,103
-336,533	800,000	-0,010	-0,030
-335,518	-96,713	0,096	-0,018
-334,504	-200,000	-0,025	-0,090
-333,489	125,596	-0,110	0,099
-332,475	68,155	-0,044	-0,032
-331,460	-45,145	-0,075	-0,026
-330,445	7,976	0,163	-0,087
-329,431	-70,391	-0,064	-0,017
-328,416	20,280	0,075	-0,043
-327,402	-93,624	0,072	0,014
-326,387	-200,000	-0,000	-0,071
-325,372	-98,639	-0,112	0,020
-324,358	35,655	-0,135	-0,084
-323,343	51,459	0,099	-0,067
-322,329	800,000	-0,052	0,146
-321,314	96,577	0,046	0,038
-320,299	-200,000	0,012	0,180
-319,285	800,000	-0,011	0,023
-318,270	-48,065	0,048	0,017
-317,256	104,100	-0,026	-0,022
-316,241	-15,937	0,042	-0,019
-315,226	-107,707	0,022	0,003
-314,212	-200,000	-0,003	-0,091
-313,197	135,062	0,130	-0,121
-312,183	-85,009	-0,100	0,022
-311,168	146,388	-0,019	-0,019
-310,153	158,400	0,050	-0,050
-309,139	-79,968	-0,060	0,014
-308,124	241,749	0,054	-0,065
-307,110	11,568	0,160	-0,087
-306,095	-200,000	-0,014	0,117
-305,080	-35,069	0,073	-0,028
-304,066	109,433	-0,051	0,044
-303,051	-200,000	-0,042	-0,135
-302,037	-200,000	-0,027	-0,132
-301,022	-154,360	-0,159	0,008
-300,008	93,664	0,159	-0,129
-298,993	-200,000	0,006	0,037
-297,978	221,848	0,048	0,056
-296,964	21,710	-0,043	0,025
-295,949	-200,000	-0,028	-0,140
-294,935	-132,454	-0,042	0,004
-293,920	57,155	0,055	0,038
-292,905	471,280	0,096	0,154
-291,891	475,904	0,114	0,186
-290,876	-2,355	-0,065	-0,033
-289,862	-200,000	-0,005	0,130
-288,847	-169,366	0,199	-0,005
-287,832	-61,660	0,074	-0,022
-286,818	-118,362	0,096	-0,012
-285,803	800,000	-0,029	0,086
-284,789	-200,000	-0,011	0,079
-283,774	-200,000	-0,002	-0,059
-282,759	-0,247	0,058	-0,030
-281,745	-37,139	-0,065	0,025
-280,730	107,467	-0,122	-0,104
-279,716	-200,000	-0,003	-0,026
-278,701	800,000	-0,017	0,047
-277,686	-200,000	-0,041	0,136
-276,672	-14,218	0,075	0,035
-275,657	-186,777	-0,121	-0,001
-274,643	-200,000	0,025	-0,127
-273,628	-74,527	-0,117	-0,030
-272,613	-200,000	-0,039	0,131
-271,599	514,590	0,059	0,100
-270,584	-28,585	-0,114	0,047
-269,570	306,591	0,031	-0,042
-268,555	242,586	-0,026	0,032
-267,540	-200,000	0,001	0,051
-266,526	800,000	0,032	-0,082
-265,511	-142,380	0,114	-0,008
-264,497	-200,000	0,020	-0,117
-263,482	-63,843	0,035	0,010
-262,467	-200,000	0,012	0,077
-261,453	800,000	-0,050	-0,115
-260,438	19,881	0,095	-0,055
-259,424	-78,347	-0,145	-0,035
-258,409	-9,368	-0,086	-0,041
-257,395	-129,114	0,031	0,003
-256,380	-200,000	0,008	0,160
-255,365	228,523	-0,100	0,117
-254,351	-100,508	0,053	0,009
-253,336	80,672	0,020	-0,015
-252,322	10,559	-0,058	-0,031
-251,307	97,953	0,059	-0,048
-250,292	129,559	0,013	-0,012
-249,278	-48,957	0,053	-0,018
-248,263	58,984	0,030	0,021
-247,249	-200,000	0,012	-0,078
-246,234	-114,264	-0,157	-0,021
-245,219	56,673	-0,141	-0,097
-244,205	225,496	-0,044	-0,051
-243,190	-94,179	0,066	-0,013
-242,176	209,722	-0,034	0,038
-241,161	-200,000	0,016	0,059
-240,146	-200,000	-0,002	0,020
-239,132	-54,851	0,025	-0,008
-238,117	614,117	0,036	-0,064
-237,103	601,265	-0,065	0,115
-236,088	800,000	-0,029	-0,088
-235,073	-200,000	0,017	0,085
-234,059	-200,000	-0,022	0,139
-233,044	570,491	-0,018	-0,032
-232,030	-200,000	-0,017	0,117
-231,015	73,246	-0,048	0,036
-230,000	444,120	0,020	-0,031
-228,986	-117,243	0,212	0,027
-227,971	-64,086	-0,104	-0,030
-226,957	800,000	0,075	0,222
-225,942	553,360	0,029	-0,050
-224,927	-200,000	-0,146	-0,000
-223,913	777,770	0,022	0,043
-222,898	-105,967	-0,080	-0,013
-221,884	0,166	0,105	-0,053
-220,869	-72,917	0,058	-0,015
-219,855	-200,000	-0,005	0,073
-218,840	-200,000	0,035	0,160
-217,825	86,418	-0,076	0,059
-216,811	688,113	0,085	-0,160
-215,796	-172,834	-0,071	-0,002
-214,782	-200,000	0,039	-0,151
-213,767	800,000	-0,020	-0,049
-212,752	-1,986	0,062	0,031
-211,738	-63,661	0,120	0,035
-210,723	-200,000	-0,005	0,113
-209,709	212,206	0,097	-0,110
-208,694	-31,964	-0,135	-0,054
-207,679	800,000	0,041	0,086
-206,665	-200,000	-0,021	0,124
-205,650	239,482	-0,108	0,129
-204,636	205,654	-0,051	-0,056
-203,621	386,781	-0,028	-0,041
-202,606	800,000	-0,050	-0,127
-201,592	-116,602	-0,156	0,020
-200,577	800,000	0,032	-0,070
-199,563	-108,632	0,078	0,012
-198,548	-70,666	0,177	-0,047
-197,533	10,931	0,031	-0,017
-196,519	-200,000	0,009	0,105
-195,504	-40,474	0,008	0,003
-194,490	409,484	-0,036	-0,055
-193,475	-156,530	0,127	-0,006
-192,460	40,245	-0,077	0,049
-191,446	800,000	-0,049	-0,104
-190,431	-67,499	0,117	0,033
-189,417	62,643	-0,059	0,042
-188,402	-125,753	-0,073	0,008
-187,387	-200,000	0,015	-0,105
-186,373	-181,278	0,031	-0,000
-185,358	17,407	-0,135	-0,076
-184,344	373,621	0,110	0,160
-183,329	-200,000	-0,016	0,077
-182,315	-47,866	-0,087	-0,030
-181,300	800,000	0,026	0,071
-180,285	344,951	0,078	-0,110
-179,271	211,729	0,027	-0,030
-178,256	30,388	0,124	-0,075
-177,242	800,000	0,018	0,051
-176,227	-200,000	0,005	0,030
-175,212	-200,000	-0,028	0,090
-174,198	-82,384	-0,075	-0,017
-173,183	499,675	-0,095	-0,156
-172,169	134,597	-0,112	-0,103
-171,154	92,369	-0,073	-0,058
-170,139	782,095	-0,012	0,024
-169,125	134,474	-0,058	0,054
-168,110	800,000	0,019	-0,049
-167,096	-134,568	-0,095	0,008
-166,081	-200,000	-0,013	-0,047
-165,066	-200,000	-0,010	-0,046
-164,052	135,135	-0,033	-0,031
-163,037	-173,446	-0,055	0,001
-162,023	115,128	0,072	0,063
-161,008	800,000	-0,022	-0,064
-159,993	-119,424	-0,044	-0,005
-158,979	42,842	-0,081	0,053
-157,964	800,000	-0,015	0,032
-156,950	-34,852	-0,046	-0,018
-155,935	-41,765	0,156	0,056
-154,920	170,624	0,043	-0,044
-153,906	517,775	-0,070	0,116
-152,891	-200,000	-0,002	0,041
-151,877	-200,000	-0,004	-0,082
-150,862	395,762	0,045	0,066
-149,847	10,689	0,112	0,060
-148,833	-78,044	-0,118	0,029
-147,818	-143,830	0,064	0,004
-146,804	-93,263	0,062	0,012
-145,789	-45,801	-0,139	0,048
-144,775	0,774	0,038	-0,019
-143,760	800,000	-0,043	-0,136
-142,745	800,000	0,057	-0,127
-141,731	-35,527	-0,034	-0,013
-140,716	589,040	0,063	0,111
-139,702	-93,879	0,037	0,007
-138,687	-104,308	0,079	-0,013
-137,672	-69,392	-0,094	0,025
-136,658	28,652	0,088	0,053
-135,643	155,811	0,059	-0,058
-134,629	-52,262	-0,061	-0,020
-133,614	267,813	0,123	0,153
-132,599	-164,156	0,132	-0,004
-131,585	-53,136	-0,085	-0,028
-130,570	-200,000	0,001	0,089
-129,556	-200,000	-0,022	-0,213
-128,541	73,869	0,053	-0,040
-127,526	-27,883	-0,142	0,058
-126,512	-200,000	-0,014	-0,131
-125,497	179,429	0,008	0,008
-124,483	-5,309	0,080	0,039
-123,468	-200,000	-0,007	0,062
-122,453	-17,083	0,080	-0,036
-121,439	-200,000	0,001	-0,030
-120,424	-139,621	-0,095	-0,007
-119,410	-43,374	-0,060	0,021
-118,395	218,483	-0,083	0,094
-117,380	-138,120	0,182	0,014
-116,366	164,936	0,024	-0,024
-115,351	71,431	-0,088	-0,065
-114,337	800,000	-0,061	-0,149
-113,322	172,175	-0,085	-0,086
-112,307	-200,000	-0,009	-0,043
-111,293	-13,348	0,152	0,070
-110,278	-61,986	0,058	0,017
-109,264	320,688	-0,087	0,118
-108,249	-44,459	-0,046	0,016
-107,234	443,203	0,054	-0,084
-106,220	125,936	-0,089	-0,080
-105,205	158,194	0,057	0,056
-104,191	133,991	-0,067	-0,061
-103,176	131,053	0,043	-0,039
-102,162	-200,000	0,002	0,040
-101,147	-107,547	0,076	-0,012
-100,132	-200,000	0,009	0,067
-99,118	-155,015	-0,170	-0,008
-98,103	150,829	0,040	0,039
-97,089	-7,779	-0,143	0,068
-96,074	-104,488	0,041	0,007
-95,059	15,806	-0,102	0,057
-94,045	-200,000	-0,000	-0,022
-93,030	226,095	0,047	-0,054
-92,016	-127,622	-0,093	0,009
-91,001	-200,000	0,008	-0,043
-89,986	-200,000	-0,003	0,014
-88,972	-128,869	0,091	0,009
-87,957	-62,588	0,098	0,029
-86,943	800,000	0,018	0,037
-85,928	55,665	-0,098	-0,067
-84,913	-14,352	-0,051	0,023
-83,899	61,998	-0,037	0,026
-82,884	-104,433	0,087	0,014
-81,870	730,622	0,030	0,057
-80,855	39,912	0,073	-0,046
-79,840	109,083	0,115	0,098
-78,826	800,000	0,025	-0,069
-77,811	-90,903	-0,065	0,013
-76,797	-200,000	-0,007	-0,071
-75,782	-34,467	0,062	-0,024
-74,767	-130,438	-0,081	-0,008
-73,753	-200,000	0,024	0,077
-72,738	55,353	-0,126	-0,086
-71,724	-200,000	-0,021	-0,133
-70,709	800,000	0,048	-0,150
-69,694	800,000	0,053	-0,135
-68,680	-109,230	0,112	-0,017
-67,665	69,934	-0,018	-0,013
-66,651	203,984	0,054	0,059
-65,636	-131,874	-0,104	0,009
-64,622	96,407	-0,006	-0,005
-63,607	800,000	0,048	-0,115
-62,592	-61,574	0,037	0,011
-61,578	-200,000	0,004	0,173
-60,563	-108,545	0,072	-0,011
-59,549	-55,043	0,090	0,029
-58,534	-61,660	-1,431	-0,422
-57,519	382,935	-1,440	-2,104
-56,505	-200,000	-0,519	-4,543
-55,490	135,313	0,968	0,892
-54,476	800,000	4,858	11,293
-53,461	-200,000	18,158	287,453
-52,446	800,000	727,097	2228,826
-51,432	555,247	1643,563	2812,843
-50,417	79,312	1665,571	1263,337
-49,403	22,875	1539,394	891,299
-48,388	16,848	1462,604	817,639
-47,373	17,862	1452,443	816,813
-46,359	17,249	1443,011	808,541
-45,344	15,115	1438,413	795,744
-44,330	14,978	1436,774	794,150
-43,315	15,093	1434,663	793,502
-42,300	15,071	1433,141	792,523
-41,286	15,105	1431,996	792,021
-40,271	15,060	1430,776	791,100
-39,257	15,045	1429,574	790,331
-38,242	15,131	1427,975	789,825
-37,227	15,097	1426,971	789,076
-36,213	15,093	1425,712	788,332
-35,198	15,073	1424,548	787,559
-34,184	15,148	1423,512	787,313
-33,169	15,097	1422,376	786,410
-32,154	15,134	1421,206	785,908
-31,140	15,153	1419,965	785,279
-30,125	15,157	1418,799	784,623
-29,111	15,165	1417,660	783,997
-28,096	15,093	1416,546	783,011
-27,082	15,060	1415,392	782,187
-26,067	15,030	1414,441	781,494
-25,052	15,004	1413,338	780,730
-24,038	15,026	1412,306	780,233
-23,023	15,055	1411,163	779,702
-22,009	15,028	1410,391	779,123
-20,994	14,991	1409,319	778,323
-19,979	14,977	1408,576	777,820
-18,965	14,977	1407,409	777,142
-17,950	14,972	1406,520	776,596
-16,936	14,954	1405,624	775,990
-15,921	14,948	1404,452	775,281
-14,906	14,929	1403,684	774,741
-13,892	14,923	1402,893	774,246
-12,877	14,928	1401,832	773,649
-11,863	14,935	1400,780	773,072
-10,848	14,884	1400,044	772,397
-9,833	14,914	1399,072	771,970
-8,819	14,874	1398,089	771,211
-7,804	14,850	1397,481	770,734
-6,790	14,796	1396,240	769,771
-5,775	14,815	1395,455	769,394
-4,760	14,787	1394,677	768,806
-3,746	14,865	1393,483	768,476
-2,731	14,779	1392,961	767,760
-1,717	14,817	1391,737	767,231
-0,702	14,802	1389,960	766,151
0,313	18,508	1309,040	738,736
1,327	34,653	707,247	436,572
2,342	53,212	124,733	84,427
3,356	2,212	16,675	8,502
4,371	11,453	3,132	1,693
5,386	2,163	0,494	0,252
6,400	-200,000	-0,031	0,159
7,415	51,224	-0,230	-0,154
8,429	19,618	-0,327	-0,185
9,444	90,855	-0,304	-0,241
10,459	127,922	-0,131	-0,118
11,473	176,787	-0,192	-0,197
12,488	123,485	-0,286	-0,254
13,502	84,001	-0,406	-0,313
14,517	84,260	-0,360	-0,278
15,531	40,567	-0,366	-0,233
16,546	139,919	-0,251	-0,234
17,561	192,253	-0,201	-0,214
18,575	32,854	-0,191	-0,117
19,590	214,306	-0,178	-0,200
20,604	-93,918	-0,195	-0,037
21,619	34,687	-0,400	-0,246
22,634	37,137	-0,523	-0,326
23,648	259,435	-0,271	-0,331
24,663	224,336	-0,364	-0,416
25,677	102,664	-0,408	-0,337
26,692	142,047	-0,295	-0,277
27,707	144,366	-0,214	-0,202
28,721	69,421	-0,364	-0,264
29,736	42,815	-0,508	-0,326
30,750	42,276	-0,496	-0,318
31,765	60,028	-0,408	-0,284
32,780	120,576	-0,347	-0,304
33,794	-29,776	-0,344	-0,138
34,809	159,090	-0,307	-0,302
35,823	35,458	-0,301	-0,186
36,838	224,361	-0,352	-0,402
37,853	73,991	-0,342	-0,253
38,867	27,411	-0,399	-0,236
39,882	499,101	-0,162	-0,264
40,896	251,880	-0,228	-0,275
41,911	800,000	-0,138	-0,324
42,926	137,447	-0,334	-0,308
43,940	-16,963	-0,393	-0,175
44,955	101,269	-0,338	-0,277
45,969	-5,704	-0,432	-0,208
46,984	235,709	-0,313	-0,365
47,999	114,271	-0,297	-0,255
49,013	79,788	-0,310	-0,235
50,028	-43,764	-0,361	-0,127
51,042	40,279	-0,449	-0,284
52,057	19,258	-0,328	-0,185
53,071	-61,470	-0,288	-0,085
54,086	236,852	-0,257	-0,301
55,101	-20,224	-0,310	-0,134
56,115	239,029	-0,235	-0,276
57,130	-29,323	-0,323	-0,129
58,144	13,947	-0,361	-0,197
59,159	33,819	-0,352	-0,215
60,174	380,520	-0,208	-0,301
61,188	184,159	-0,328	-0,343
62,203	69,932	-0,287	-0,209
63,217	-3,161	-0,360	-0,176
64,232	47,740	-0,339	-0,222
65,247	163,898	-0,337	-0,334
66,261	86,783	-0,417	-0,324
67,276	325,324	-0,243	-0,328
68,290	96,855	-0,361	-0,291
69,305	162,453	-0,259	-0,256
70,320	1,344	-0,356	-0,180
71,334	159,781	-0,285	-0,279
72,349	43,939	-0,285	-0,184
73,363	-32,874	-0,260	-0,101
74,378	-41,179	-0,402	-0,145
75,393	131,077	-0,221	-0,200
76,407	-3,314	-0,421	-0,205
77,422	165,715	-0,149	-0,149
78,436	-5,406	-0,318	-0,153
79,451	47,384	-0,311	-0,204
80,466	170,345	-0,317	-0,319
81,480	41,755	-0,313	-0,199
82,495	-58,935	-0,335	-0,101
83,509	54,287	-0,377	-0,255
84,524	5,123	-0,328	-0,169
85,539	-83,012	-0,349	-0,078
86,553	157,240	-0,188	-0,183
87,568	-23,932	-0,433	-0,181
88,582	-9,093	-0,416	-0,195
89,597	-71,763	-0,318	-0,083
90,611	-93,215	-0,393	-0,076
91,626	-69,950	-0,277	-0,074
92,641	44,091	-0,260	-0,167
93,655	-70,761	-0,240	-0,063
94,670	-57,797	-0,346	-0,106
95,684	219,326	-0,245	-0,276
96,699	85,524	-0,296	-0,228
97,714	33,158	-0,129	-0,078
98,728	-49,402	-0,162	-0,054
99,743	10,387	-0,271	-0,144
100,757	-6,669	-0,257	-0,122
101,772	151,431	-0,160	-0,153
102,787	705,998	-0,114	-0,212
103,801	621,024	-0,216	-0,383
104,816	87,497	-0,192	-0,149
105,830	-121,092	-0,293	0,034
106,845	52,442	-0,316	-0,211
107,860	86,534	-0,269	-0,208
108,874	-62,709	-0,222	-0,064
109,889	32,698	-0,282	-0,171
110,903	-26,616	-0,335	-0,137
111,918	-28,945	-0,168	-0,067
112,933	72,016	-0,346	-0,252
113,947	601,306	-0,118	-0,206
114,962	378,768	-0,179	-0,258
115,976	-145,739	-0,379	0,023
116,991	152,377	-0,244	-0,234
118,006	52,015	-0,318	-0,212
119,020	-200,000	-0,058	-0,285
120,035	-154,648	-0,191	-0,009
121,049	65,729	-0,176	-0,125
122,064	-1,694	-0,248	-0,122
123,079	38,581	-0,211	-0,131
124,093	-0,585	-0,323	-0,160
125,108	83,583	-0,291	-0,222
126,122	159,982	-0,225	-0,220
127,137	9,831	-0,282	-0,149
128,151	101,256	-0,139	-0,114
129,166	15,034	-0,236	-0,129
130,181	-200,000	-0,074	-0,250
131,195	-21,299	-0,503	-0,214
132,210	360,541	-0,213	-0,299
133,224	89,474	-0,266	-0,207
134,239	334,864	-0,206	-0,280
135,254	392,624	-0,114	-0,166
136,268	50,915	-0,165	-0,109
137,283	4,701	-0,287	-0,147
138,297	-13,380	-0,309	-0,140
139,312	84,337	-0,291	-0,222
140,327	-7,039	-0,349	-0,165
141,341	170,703	-0,142	-0,142
142,356	351,628	-0,148	-0,206
143,370	-61,936	-0,208	-0,060
144,385	-25,534	-0,199	-0,082
145,400	108,744	-0,319	-0,266
146,414	159,095	-0,331	-0,322
147,429	364,852	-0,223	-0,315
148,443	205,708	-0,269	-0,292
149,458	-90,210	-0,156	-0,031
150,473	-35,080	-0,133	-0,050
151,487	1,007	-0,263	-0,131
152,502	800,000	-0,155	-0,326
153,516	199,254	-0,207	-0,222
154,531	-57,465	-0,310	-0,095
155,546	133,172	-0,149	-0,135
156,560	800,000	-0,094	-0,220
157,575	67,868	-0,194	-0,138
158,589	429,170	-0,185	-0,279
159,604	92,193	-0,180	-0,141
160,619	153,053	-0,256	-0,245
161,633	150,661	-0,176	-0,167
162,648	71,965	-0,225	-0,163
163,662	71,869	-0,228	-0,165
164,677	250,034	-0,237	-0,281
165,692	-3,081	-0,266	-0,129
166,706	31,321	-0,252	-0,151
167,721	15,808	-0,260	-0,142
168,735	93,801	-0,230	-0,182
169,750	102,764	-0,226	-0,185
170,764	50,342	-0,234	-0,154
171,779	-122,468	-0,250	-0,028
172,794	-134,644	-0,236	0,020
173,808	91,103	-0,207	-0,162
174,823	14,107	-0,240	-0,130
175,837	-87,507	-0,191	-0,040
176,852	80,688	-0,320	-0,240
177,867	152,379	-0,237	-0,225
178,881	1,269	-0,233	-0,116
179,896	46,112	-0,339	-0,218
180,910	257,284	-0,102	-0,122
181,925	10,475	-0,260	-0,137
182,940	197,127	-0,293	-0,311
183,954	800,000	-0,085	-0,232
184,969	65,633	-0,226	-0,159
185,983	-200,000	-0,029	-0,146
186,998	22,461	-0,216	-0,122
188,013	19,344	-0,183	-0,102
189,027	134,476	-0,248	-0,224
190,042	32,430	-0,320	-0,192
191,056	48,097	-0,226	-0,147
192,071	229,190	-0,154	-0,175
193,086	-3,827	-0,174	-0,084
194,100	90,796	-0,221	-0,172
195,115	-51,326	-0,290	-0,094
196,129	167,669	-0,195	-0,193
197,144	539,580	-0,193	-0,321
198,159	353,695	-0,202	-0,280
199,173	456,211	-0,179	-0,277
200,188	141,080	-0,110	-0,102
201,202	72,519	-0,123	-0,089
202,217	800,000	-0,079	-0,191
203,232	-126,856	-0,199	0,020
204,246	-93,085	-0,324	-0,062
205,261	280,620	-0,197	-0,245
206,275	16,596	-0,199	-0,109
207,290	-200,000	-0,006	-0,021
208,304	-28,697	-0,305	-0,121
209,319	-187,487	-0,226	-0,002
210,334	-50,961	-0,270	-0,088
211,348	-12,339	-0,263	-0,119
212,363	-125,685	-0,179	-0,019
213,377	102,807	-0,200	-0,163
214,392	-11,990	-0,223	-0,101
215,407	31,120	-0,245	-0,146
216,421	-3,469	-0,259	-0,125
217,436	201,869	-0,166	-0,178
218,450	-95,424	-0,267	-0,049
219,465	294,920	-0,229	-0,292
220,480	-2,748	-0,156	-0,076
221,494	103,392	-0,237	-0,193
222,509	495,481	-0,049	-0,079
223,523	176,415	-0,160	-0,162
224,538	438,454	-0,144	-0,218
225,553	16,956	-0,397	-0,218
226,567	54,871	-0,219	-0,146
227,582	561,987	-0,169	-0,284
228,596	-9,620	-0,134	-0,062
229,611	195,721	-0,163	-0,173
230,626	-60,277	-0,202	-0,059
231,640	-53,327	-0,224	-0,071
232,655	406,925	-0,157	-0,231
233,669	127,172	-0,234	-0,206
234,684	8,969	-0,188	-0,098
235,699	148,713	-0,131	-0,123
236,713	-21,540	-0,184	-0,077
237,728	143,671	-0,175	-0,162
238,742	302,148	-0,160	-0,206
239,757	226,945	-0,128	-0,145
240,772	63,440	-0,198	-0,138
241,786	94,708	-0,143	-0,113
242,801	800,000	-0,053	-0,121
243,815	207,843	-0,145	-0,157
244,830	404,283	-0,102	-0,149
245,844	72,704	-0,165	-0,119
246,859	608,687	-0,111	-0,194
247,874	437,825	-0,290	-0,439
248,888	67,528	-0,149	-0,106
249,903	-200,000	0,036	-0,208
250,917	191,047	-0,234	-0,244
251,932	293,488	-0,085	-0,108
252,947	150,202	-0,182	-0,171
253,961	23,617	-0,217	-0,123
254,976	760,686	-0,132	-0,248
255,990	86,136	-0,165	-0,126
257,005	800,000	-0,060	-0,143
258,020	195,994	-0,097	-0,103
259,034	-32,829	-0,211	-0,081
260,049	303,147	-0,124	-0,160
261,063	-12,007	-0,187	-0,084
262,078	684,057	-0,129	-0,235
263,093	112,798	-0,183	-0,153
264,107	-38,213	-0,219	-0,080
265,122	-56,417	-0,111	-0,034
266,136	-3,873	-0,201	-0,096
267,151	427,231	-0,087	-0,131
268,166	82,296	-0,171	-0,128
269,180	800,000	-0,031	-0,084
270,195	108,415	-0,235	-0,194
271,209	-55,536	-0,153	-0,047
272,224	17,034	-0,153	-0,084
273,239	143,496	-0,125	-0,115
274,253	153,202	-0,176	-0,166
275,268	13,860	-0,184	0,099
276,282	255,040	-0,119	-0,142
277,297	-2,946	-0,279	-0,134
278,312	-33,124	-0,231	-0,088
279,326	120,332	-0,147	-0,126
280,341	-200,000	-0,058	-0,257
281,355	-27,381	-0,227	-0,091
282,370	471,068	-0,125	-0,194
283,384	-18,605	-0,158	-0,068
284,399	-45,161	-0,263	-0,090
285,414	61,268	-0,207	-0,142
286,428	-200,000	-0,071	-0,246
287,443	-200,000	0,012	-0,144
288,457	90,357	-0,057	-0,044
289,472	244,411	-0,153	-0,178
290,487	177,293	-0,235	-0,236
291,501	115,965	-0,100	-0,084
292,516	707,354	-0,205	-0,375
293,530	-43,216	-0,095	-0,033
294,545	515,760	-0,074	-0,120
295,560	210,094	-0,084	-0,091
296,574	83,734	-0,223	-0,168
297,589	105,878	-0,161	-0,132
298,603	-17,408	-0,367	-0,158
299,618	-55,223	-0,170	-0,053
300,633	-200,000	-0,003	-0,128
301,647	361,092	-0,141	-0,196
302,662	562,792	-0,057	-0,095
303,676	-30,168	-0,096	0,038
304,691	377,835	-0,153	-0,216
305,706	-200,000	-0,049	-0,224
306,720	464,053	-0,175	-0,270
307,735	-200,000	-0,035	-0,167
308,749	354,384	-0,090	-0,123
309,764	-54,057	-0,167	0,052
310,779	20,668	-0,116	-0,064
311,793	109,116	-0,184	-0,152
312,808	800,000	-0,135	-0,288
313,822	-88,792	-0,133	-0,027
314,837	24,542	-0,092	-0,052
315,852	-128,150	-0,123	0,012
316,866	193,465	-0,082	-0,085
317,881	-90,344	-0,139	0,028
318,895	75,540	-0,168	-0,122
319,910	567,614	-0,112	-0,187
320,925	800,000	-0,074	-0,167
321,939	-200,000	-0,030	-0,139
322,954	121,591	-0,114	-0,097
323,968	-97,768	-0,137	-0,024
324,983	203,224	-0,121	-0,128
325,997	-198,175	-0,156	0,001
327,012	-200,000	-0,057	-0,235
328,027	13,531	-0,228	-0,121
329,041	-12,759	-0,314	-0,140
330,056	-55,949	-0,130	-0,040
331,070	337,067	-0,036	-0,048
332,085	-112,241	-0,127	-0,017
333,100	27,017	-0,088	0,051
334,114	94,146	-0,159	-0,124
335,129	67,426	-0,198	-0,139
336,143	44,344	-0,077	-0,049
337,158	-200,000	0,003	-0,141
338,173	-109,370	-0,138	0,020
339,187	-116,886	-0,063	0,008
340,202	-35,908	-0,194	-0,072
341,216	-0,540	-0,258	-0,125
342,231	649,763	-0,119	-0,210
343,246	-154,531	-0,106	0,005
344,260	-69,681	-0,084	0,022
345,275	719,139	-0,098	-0,180
346,289	44,949	-0,134	-0,085
347,304	-36,270	-0,147	-0,054
348,319	34,531	-0,085	-0,051
349,333	-200,000	0,001	-0,128
350,348	671,525	-0,092	-0,164
351,362	83,198	-0,122	-0,091
352,377	0,513	-0,198	-0,097
353,392	125,171	-0,100	-0,086
354,406	-72,375	-0,230	-0,058
355,421	208,585	1316,968	1415,262
356,435	160,499	1477,997	1415,774
