DTS Sentinel unit serial number:	SN410029Multiplexer serial number:	ORYXHardware model number:	OX2-SRSoftware version number:	ORYX F/W v4,00 Oryx Data Collector v3.7.2.0data status	okinstallation	B3 Nyhavnadifferential loss correction	single-endedforward channel	channel 1reverse channel	N/Adate	2023/12/02time	04:57:30forward acquisition time	300,00reverse acquisition time	0,00gamma	499,1914k internal	0,3194k external	0,3194temperature offset calibration	1,0000default loss term (dB/km)	0,3820temperature slope calibration	1,0000multiplexer offset coefficient	1,0000multiplexer slope coefficient	1,0000fibre end	0,00T internal ref (°C)	16,38T ext. ref 1 (°C)	1,18T ext. ref 2 (°C)	1,16length (m)	temperature (°C)	Stokes	anti-Stokes-744,400	175,519	-0,257	-0,271
-743,385	-200,000	0,040	0,310
-742,371	-200,000	-0,048	-0,240
-741,356	-200,000	-0,042	0,333
-740,342	61,509	-0,239	-0,173
-739,327	-200,000	0,078	0,328
-738,312	800,000	-0,142	-0,353
-737,298	-200,000	-0,006	0,262
-736,283	77,510	-0,322	-0,250
-735,269	-200,000	0,066	0,335
-734,254	112,950	-0,161	-0,142
-733,239	55,012	-0,125	0,088
-732,225	-200,000	-0,087	-0,292
-731,210	-58,735	0,139	0,044
-730,196	45,247	0,078	-0,052
-729,181	365,682	-0,072	-0,106
-728,167	-115,178	-0,133	0,018
-727,152	-27,790	0,119	-0,050
-726,137	357,954	-0,063	-0,092
-725,123	-130,809	-0,089	-0,009
-724,108	-89,059	-0,104	-0,022
-723,094	381,540	-0,055	-0,082
-722,079	-200,000	-0,014	-0,073
-721,064	81,889	-0,107	-0,084
-720,050	800,000	0,025	-0,080
-719,035	-52,708	-0,066	-0,022
-718,021	-120,397	-0,066	-0,008
-717,006	800,000	0,053	-0,112
-715,991	30,626	-0,100	-0,062
-714,977	797,281	-0,033	-0,067
-713,962	800,000	0,070	0,141
-712,948	192,346	-0,052	-0,057
-711,933	531,171	0,077	-0,133
-710,918	-200,000	-0,028	-0,130
-709,904	-54,585	-0,069	-0,023
-708,889	-200,000	0,007	-0,158
-707,875	77,978	-0,170	-0,132
-706,860	-121,710	-0,160	-0,019
-705,845	-107,242	0,064	-0,010
-704,831	271,157	0,050	-0,064
-703,816	155,142	-0,097	-0,097
-702,802	-68,670	-0,045	-0,013
-701,787	68,215	0,040	0,030
-700,772	151,372	0,051	0,050
-699,758	-6,919	-0,156	0,077
-698,743	250,089	0,104	0,129
-697,729	-200,000	0,006	0,161
-696,714	53,128	-0,043	-0,030
-695,699	-174,579	0,056	0,001
-694,685	121,907	0,115	-0,104
-693,670	-79,262	-0,177	-0,043
-692,656	-118,029	0,118	0,015
-691,641	65,098	-0,047	-0,035
-690,627	9,955	0,091	-0,050
-689,612	800,000	-0,042	-0,089
-688,597	7,278	-0,109	0,059
-687,583	386,371	0,007	0,010
-686,568	-178,299	0,020	-0,000
-685,554	-200,000	-0,005	0,077
-684,539	-200,000	0,001	0,159
-683,524	679,076	-0,062	0,117
-682,510	700,192	-0,053	0,102
-681,495	38,584	-0,138	-0,089
-680,481	574,597	-0,055	-0,098
-679,466	9,227	-0,186	-0,102
-678,451	479,418	-0,019	-0,031
-677,437	-157,996	0,099	-0,004
-676,422	-10,169	0,130	-0,063
-675,408	-200,000	-0,022	0,072
-674,393	554,132	0,057	0,101
-673,378	17,925	-0,083	0,048
-672,364	-200,000	-0,002	-0,012
-671,349	32,637	-0,016	-0,010
-670,335	153,472	-0,051	-0,050
-669,320	95,922	0,140	-0,116
-668,305	-200,000	-0,013	-0,058
-667,291	800,000	0,044	-0,124
-666,276	800,000	0,042	0,132
-665,262	-158,219	-0,157	-0,007
-664,247	800,000	0,052	0,112
-663,232	800,000	-0,017	-0,046
-662,218	800,000	-0,055	-0,137
-661,203	193,867	-0,058	0,064
-660,189	-200,000	-0,009	0,041
-659,174	5,529	-0,124	-0,066
-658,159	800,000	0,017	-0,054
-657,145	100,046	-0,119	-0,100
-656,130	800,000	0,054	0,117
-655,116	-200,000	-0,010	-0,094
-654,101	343,526	0,089	0,127
-653,086	130,431	-0,069	-0,065
-652,072	800,000	-0,066	-0,196
-651,057	18,777	-0,060	-0,035
-650,043	-53,510	0,118	-0,039
-649,028	-120,249	-0,208	-0,025
-648,014	33,417	-0,033	0,021
-646,999	-95,285	0,134	-0,026
-645,984	800,000	0,021	0,045
-644,970	-37,605	-0,137	0,053
-643,955	170,432	-0,078	-0,081
-642,941	-75,002	0,037	-0,010
-641,926	-200,000	-0,006	-0,037
-640,911	178,214	0,022	-0,024
-639,897	139,824	0,103	0,099
-638,882	-106,550	-0,023	0,004
-637,868	-180,184	-0,122	0,002
-636,853	114,316	-0,108	0,096
-635,838	-200,000	0,006	0,055
-634,824	-97,091	-0,113	-0,021
-633,809	528,013	0,013	-0,022
-632,795	-132,968	-0,097	-0,009
-631,780	674,194	-0,083	0,157
-630,765	-135,115	-0,090	-0,008
-629,751	800,000	-0,060	-0,137
-628,736	-25,488	-0,155	-0,066
-627,722	169,957	-0,022	0,023
-626,707	-16,702	0,055	0,025
-625,692	19,413	-0,021	-0,012
-624,678	403,009	-0,066	0,101
-623,663	-89,303	-0,048	0,010
-622,649	-200,000	0,014	-0,173
-621,634	-90,337	-0,050	-0,010
-620,619	-108,237	-0,045	-0,007
-619,605	-132,869	0,131	0,012
-618,590	800,000	-0,040	0,116
-617,576	800,000	0,012	-0,029
-616,561	-87,139	-0,069	-0,015
-615,546	107,655	-0,029	-0,025
-614,532	-66,791	-0,109	0,031
-613,517	-200,000	-0,046	-0,153
-612,503	367,627	-0,022	-0,033
-611,488	-200,000	0,012	0,098
-610,474	-75,494	0,073	0,019
-609,459	-200,000	0,006	0,074
-608,444	617,357	-0,033	-0,060
-607,430	262,729	0,021	0,027
-606,415	-200,000	-0,014	-0,106
-605,401	13,289	-0,105	0,059
-604,386	-19,591	-0,068	-0,030
-603,371	38,108	0,109	0,070
-602,357	108,565	0,061	-0,052
-601,342	-168,634	-0,100	0,003
-600,328	11,583	0,050	-0,028
-599,313	-12,184	0,146	0,069
-598,298	-44,455	-0,082	0,030
-597,284	-200,000	0,003	0,010
-596,269	-86,322	-0,024	0,005
-595,255	-192,634	0,049	0,000
-594,240	114,326	0,096	0,085
-593,225	104,318	0,039	-0,033
-592,211	403,236	0,052	-0,079
-591,196	198,649	0,077	0,086
-590,182	41,001	-0,062	0,041
-589,167	86,289	0,063	-0,050
-588,152	-173,712	-0,145	0,003
-587,138	-158,730	0,125	-0,005
-586,123	-92,524	-0,142	0,029
-585,109	87,007	-0,068	-0,054
-584,094	-141,573	-0,055	-0,004
-583,079	16,443	0,096	0,055
-582,065	800,000	0,009	-0,024
-581,050	800,000	-0,023	0,051
-580,036	800,000	0,026	0,084
-579,021	195,975	0,043	0,047
-578,006	800,000	0,023	-0,054
-576,992	-200,000	-0,011	-0,075
-575,977	28,219	-0,067	0,041
-574,963	-200,000	-0,009	0,045
-573,948	800,000	0,014	0,034
-572,934	-200,000	0,003	0,080
-571,919	235,845	0,005	-0,006
-570,904	-101,999	-0,152	-0,026
-569,890	-108,921	-0,098	0,015
-568,875	-29,089	0,055	-0,023
-567,861	-189,338	0,084	0,001
-566,846	-49,060	0,025	0,009
-565,831	143,511	0,114	-0,110
-564,817	446,669	-0,046	-0,074
-563,802	-20,110	-0,087	0,038
-562,788	-120,750	0,049	-0,006
-561,773	284,963	0,066	-0,086
-560,758	-6,318	0,129	-0,063
-559,744	-104,513	-0,167	0,028
-558,729	175,115	-0,096	0,101
-557,715	-104,881	-0,046	-0,008
-556,700	495,988	0,060	0,101
-555,685	36,877	-0,092	0,058
-554,671	800,000	-0,016	0,035
-553,656	674,604	-0,038	-0,073
-552,642	-200,000	0,001	0,086
-551,627	-1,312	0,060	-0,030
-550,612	-200,000	0,019	-0,104
-549,598	-200,000	-0,002	-0,070
-548,583	108,188	-0,090	-0,077
-547,569	-46,826	-0,105	0,037
-546,554	329,672	0,097	0,135
-545,539	-200,000	-0,029	0,133
-544,525	-90,741	0,093	0,019
-543,510	-200,000	-0,025	0,136
-542,496	-36,810	-0,110	-0,042
-541,481	-200,000	0,007	-0,048
-540,466	-200,000	0,010	-0,155
-539,452	-96,222	0,069	0,013
-538,437	679,391	-0,003	0,006
-537,423	-19,545	0,041	-0,018
-536,408	751,536	-0,042	0,082
-535,393	104,864	-0,073	-0,062
-534,379	-109,822	0,039	-0,006
-533,364	54,678	-0,044	-0,030
-532,350	-24,636	-0,068	0,029
-531,335	101,569	0,047	-0,039
-530,321	25,014	-0,095	-0,057
-529,306	23,404	-0,063	0,037
-528,291	291,888	0,060	-0,080
-527,277	210,456	0,028	-0,032
-526,262	-8,925	-0,089	-0,043
-525,248	-200,000	-0,016	-0,058
-524,233	-200,000	0,004	-0,061
-523,218	-200,000	0,008	-0,080
-522,204	800,000	-0,042	-0,099
-521,189	558,225	-0,055	-0,096
-520,175	63,831	-0,154	0,112
-519,160	34,165	0,141	-0,089
-518,145	91,838	-0,096	0,078
-517,131	-134,856	0,141	-0,012
-516,116	-101,722	0,118	-0,021
-515,102	271,694	-0,065	-0,083
-514,087	-11,742	0,031	-0,015
-513,072	-76,372	-0,015	-0,004
-512,058	800,000	-0,068	0,156
-511,043	161,846	-0,076	-0,077
-510,029	35,946	0,102	0,065
-509,014	328,743	0,075	0,105
-507,999	-200,000	0,003	0,062
-506,985	9,062	-0,062	-0,034
-505,970	35,861	-0,031	0,020
-504,956	-200,000	-0,023	0,114
-503,941	-200,000	0,021	0,074
-502,926	800,000	-0,018	-0,053
-501,912	-200,000	0,002	-0,123
-500,897	-81,045	-0,026	0,006
-499,883	800,000	0,032	0,077
-498,868	250,639	-0,060	-0,074
-497,853	-120,951	-0,105	-0,013
-496,839	468,306	0,045	-0,073
-495,824	-200,000	-0,006	0,095
-494,810	-106,421	0,127	-0,020
-493,795	-185,180	-0,139	-0,002
-492,781	14,354	0,147	-0,082
-491,766	125,045	-0,035	0,032
-490,751	-200,000	-0,022	-0,077
-489,737	-200,000	-0,010	-0,102
-488,722	-92,935	0,187	0,037
-487,708	-130,051	-0,021	-0,002
-486,693	-153,353	0,021	0,001
-485,678	-45,837	-0,085	0,030
-484,664	73,831	0,045	0,034
-483,649	122,975	0,143	0,129
-482,635	-8,110	-0,125	0,061
-481,620	-141,552	0,022	0,002
-480,605	800,000	0,027	0,056
-479,591	800,000	-0,034	-0,075
-478,576	-112,348	0,079	0,011
-477,562	800,000	0,070	-0,165
-476,547	800,000	0,010	0,029
-475,532	800,000	-0,032	-0,065
-474,518	-154,610	0,090	0,004
-473,503	-69,419	-0,029	-0,008
-472,489	-95,758	-0,055	-0,011
-471,474	-64,595	-0,029	-0,009
-470,459	298,802	-0,090	0,120
-469,445	-181,686	-0,055	0,001
-468,430	-41,917	0,030	-0,011
-467,416	63,082	0,038	0,027
-466,401	90,877	0,109	0,088
-465,386	-119,033	-0,175	0,022
-464,372	-200,000	0,005	-0,065
-463,357	-13,167	0,052	0,024
-462,343	22,182	-0,033	0,020
-461,328	800,000	-0,076	-0,159
-460,313	800,000	0,030	-0,079
-459,299	-200,000	0,008	0,117
-458,284	111,357	0,109	0,095
-457,270	-123,406	-0,112	0,013
-456,255	-200,000	0,004	-0,118
-455,241	800,000	0,051	-0,123
-454,226	-80,371	0,101	-0,024
-453,211	-26,078	-0,075	-0,032
-452,197	318,632	0,056	-0,076
-451,182	594,040	-0,029	0,051
-450,168	-200,000	-0,023	0,183
-449,153	263,398	0,004	0,005
-448,138	-76,719	-0,082	0,021
-447,124	15,617	0,104	-0,059
-446,109	-200,000	0,024	-0,101
-445,095	111,754	0,049	0,043
-444,080	-122,437	-0,035	0,004
-443,065	-144,007	0,066	0,004
-442,051	-172,956	0,097	-0,002
-441,036	800,000	0,033	0,075
-440,022	-200,000	-0,031	-0,148
-439,007	800,000	0,028	0,084
-437,992	-200,000	-0,015	-0,050
-436,978	800,000	0,067	0,183
-435,963	-31,468	-0,091	-0,037
-434,949	-62,297	0,026	0,008
-433,934	405,832	-0,087	-0,133
-432,919	72,148	-0,046	-0,035
-431,905	-200,000	0,000	-0,100
-430,890	522,073	0,058	0,098
-429,876	65,063	0,135	0,098
-428,861	9,796	0,195	-0,106
-427,846	-200,000	-0,017	0,100
-426,832	-7,988	-0,050	0,024
-425,817	-65,478	0,010	0,003
-424,803	-101,884	0,129	-0,022
-423,788	32,268	0,095	-0,059
-422,773	39,830	0,033	0,022
-421,759	164,485	0,126	0,128
-420,744	-14,289	0,071	0,033
-419,730	-56,497	-0,052	-0,017
-418,715	132,790	-0,157	-0,146
-417,701	800,000	-0,028	-0,083
-416,686	167,749	0,094	-0,097
-415,671	800,000	-0,023	-0,049
-414,657	800,000	0,047	0,137
-413,642	69,058	0,066	0,048
-412,628	564,111	-0,073	-0,127
-411,613	-200,000	-0,007	-0,054
-410,598	6,513	-0,071	-0,038
-409,584	-48,133	-0,078	0,027
-408,569	-200,000	0,025	0,132
-407,555	-112,624	0,094	-0,013
-406,540	-200,000	0,004	-0,118
-405,525	-11,284	-0,058	0,027
-404,511	74,154	-0,014	-0,011
-403,496	-200,000	0,003	-0,054
-402,482	237,727	0,081	-0,097
-401,467	800,000	-0,043	0,107
-400,452	800,000	-0,044	0,116
-399,438	-200,000	-0,019	0,132
-398,423	-200,000	-0,007	-0,101
-397,409	223,118	-0,080	-0,093
-396,394	800,000	-0,019	-0,052
-395,379	-149,783	0,108	-0,006
-394,365	-152,173	-0,076	0,004
-393,350	0,668	0,080	0,041
-392,336	-28,026	-0,113	0,047
-391,321	800,000	0,021	0,060
-390,306	514,334	-0,028	-0,047
-389,292	82,783	-0,060	0,047
-388,277	26,551	-0,098	-0,059
-387,263	800,000	-0,041	0,083
-386,248	-78,369	0,163	0,040
-385,233	7,309	-0,029	0,015
-384,219	412,988	-0,052	0,080
-383,204	618,261	-0,034	-0,062
-382,190	98,993	-0,092	-0,076
-381,175	56,379	-0,063	-0,044
-380,160	12,448	0,148	-0,082
-379,146	800,000	-0,034	0,101
-378,131	69,922	-0,040	0,030
-377,117	-141,503	0,130	0,009
-376,102	0,793	0,080	-0,041
-375,088	415,654	-0,006	0,009
-374,073	-37,786	-0,087	-0,033
-373,058	433,428	-0,012	0,018
-372,044	-34,062	0,056	-0,022
-371,029	152,618	-0,117	0,115
-370,015	-200,000	0,005	0,053
-369,000	589,825	0,030	0,053
-367,985	800,000	-0,051	-0,129
-366,971	-200,000	-0,032	-0,147
-365,956	35,115	-0,021	-0,013
-364,942	162,659	-0,057	-0,058
-363,927	-200,000	0,005	-0,034
-362,912	-127,130	0,032	0,003
-361,898	-200,000	0,025	-0,107
-360,883	-200,000	-0,023	-0,083
-359,869	-133,213	-0,106	-0,010
-358,854	61,941	0,074	-0,053
-357,839	-118,651	0,118	0,015
-356,825	-57,247	0,063	0,020
-355,810	4,150	-0,052	-0,027
-354,796	-133,482	-0,112	0,010
-353,781	-105,788	0,046	-0,007
-352,766	-71,110	0,038	-0,010
-351,752	-200,000	-0,004	0,076
-350,737	482,796	0,046	-0,075
-349,723	800,000	0,036	-0,079
-348,708	-67,172	0,022	-0,006
-347,693	-200,000	0,012	0,094
-346,679	20,433	0,070	-0,041
-345,664	528,275	-0,049	0,083
-344,650	800,000	0,078	0,212
-343,635	-200,000	-0,037	-0,134
-342,620	800,000	-0,033	-0,067
-341,606	-138,379	0,076	0,006
-340,591	-59,437	0,018	-0,005
-339,577	18,828	0,059	-0,034
-338,562	-68,610	-0,115	0,032
-337,548	-138,552	-0,082	-0,006
-336,533	328,100	0,047	0,065
-335,518	-200,000	0,015	0,076
-334,504	64,483	0,121	0,087
-333,489	226,100	-0,019	-0,022
-332,475	-171,250	0,153	0,004
-331,460	-200,000	-0,031	-0,152
-330,445	248,351	0,057	0,070
-329,431	227,932	0,031	0,036
-328,416	166,725	0,064	-0,065
-327,402	29,891	-0,063	0,039
-326,387	241,146	-0,033	0,039
-325,372	161,411	-0,112	0,113
-324,358	401,264	-0,073	0,111
-323,343	-27,296	0,076	0,031
-322,329	-200,000	-0,009	-0,054
-321,314	451,904	0,050	-0,079
-320,299	796,201	0,025	0,050
-319,285	-200,000	-0,009	0,060
-318,270	-200,000	0,000	-0,033
-317,256	-200,000	0,028	-0,122
-316,241	643,641	0,021	-0,039
-315,226	-158,854	0,124	-0,005
-314,212	575,514	-0,021	0,037
-313,197	-200,000	0,024	0,124
-312,183	219,468	-0,056	-0,064
-311,168	-23,906	0,166	-0,071
-310,153	-120,282	-0,050	-0,006
-309,139	-200,000	0,016	0,078
-308,124	-200,000	0,005	0,193
-307,110	173,916	-0,039	0,040
-306,095	171,158	0,051	0,052
-305,080	800,000	0,070	-0,152
-304,066	-70,330	0,120	0,032
-303,051	-200,000	-0,016	-0,068
-302,037	-200,000	0,023	-0,136
-301,022	43,929	-0,037	-0,024
-300,008	229,603	-0,027	0,031
-298,993	800,000	0,029	-0,073
-297,978	-181,151	0,098	-0,001
-296,964	-69,433	-0,023	0,006
-295,949	-68,563	-0,126	-0,035
-294,935	-99,276	0,015	-0,003
-293,920	800,000	0,034	-0,071
-292,905	-49,220	0,006	-0,002
-291,891	-150,274	0,017	0,001
-290,876	800,000	-0,019	0,044
-289,862	-131,323	-0,092	-0,009
-288,847	-142,083	0,077	0,005
-287,832	800,000	-0,054	0,146
-286,818	-49,754	-0,041	0,014
-285,803	800,000	-0,035	-0,073
-284,789	165,340	-0,060	0,060
-283,774	-200,000	0,031	0,114
-282,759	580,546	-0,023	0,041
-281,745	-4,611	-0,144	-0,071
-280,730	288,118	-0,091	-0,118
-279,716	-200,000	0,010	0,041
-278,701	-200,000	0,013	0,061
-277,686	-113,709	0,051	-0,007
-276,672	-6,911	-0,036	0,017
-275,657	800,000	-0,036	0,084
-274,643	176,699	-0,047	-0,049
-273,628	1,803	-0,050	-0,026
-272,613	-200,000	0,002	0,056
-271,599	146,860	0,028	0,027
-270,584	-200,000	-0,002	-0,009
-269,570	145,387	0,061	0,059
-268,555	43,159	0,004	-0,003
-267,540	332,951	0,021	-0,029
-266,526	205,562	0,077	-0,086
-265,511	-94,361	0,077	0,015
-264,497	-182,155	0,041	0,001
-263,482	154,981	-0,106	-0,104
-262,467	-79,300	0,063	0,015
-261,453	800,000	0,026	0,077
-260,438	-128,395	-0,087	0,009
-259,424	-200,000	0,019	0,184
-258,409	-200,000	-0,005	-0,113
-257,395	569,120	0,024	-0,042
-256,380	282,315	0,028	-0,036
-255,365	122,677	0,079	0,071
-254,351	224,429	-0,051	0,059
-253,336	364,802	-0,014	0,021
-252,322	800,000	-0,032	0,077
-251,307	485,415	0,028	0,046
-250,292	-59,330	0,139	-0,043
-249,278	270,215	0,103	0,130
-248,263	25,024	-0,108	0,064
-247,249	-200,000	0,005	-0,127
-246,234	-35,418	0,220	-0,085
-245,219	626,255	-0,075	-0,136
-244,205	-200,000	0,027	0,199
-243,190	-13,123	-0,136	-0,063
-242,176	-133,793	-0,075	0,007
-241,161	800,000	0,025	0,063
-240,146	-200,000	0,025	0,081
-239,132	-60,020	0,084	-0,026
-238,117	425,100	-0,137	-0,212
-237,103	14,634	-0,058	0,032
-236,088	33,606	-0,071	-0,044
-235,073	67,426	-0,023	0,017
-234,059	394,923	0,059	0,088
-233,044	217,839	0,110	-0,126
-232,030	28,042	-0,041	0,025
-231,015	-6,326	0,060	-0,029
-230,000	3,751	-0,176	-0,092
-228,986	114,241	-0,033	-0,028
-227,971	361,274	-0,049	0,070
-226,957	173,377	-0,033	0,034
-225,942	151,453	-0,021	0,020
-224,927	-200,000	0,005	-0,026
-223,913	98,042	-0,074	-0,061
-222,898	-112,714	-0,038	0,005
-221,884	241,586	-0,090	0,108
-220,869	34,406	0,081	0,051
-219,855	-33,712	0,139	-0,055
-218,840	-132,915	0,091	0,008
-217,825	166,690	0,065	-0,066
-216,811	238,689	-0,027	0,032
-215,796	-128,231	0,048	-0,005
-214,782	-200,000	-0,001	-0,065
-213,767	57,038	0,024	0,017
-212,752	275,903	0,066	0,084
-211,738	-200,000	-0,002	0,035
-210,723	800,000	0,039	0,110
-209,709	-98,280	-0,108	0,020
-208,694	80,258	-0,114	-0,088
-207,679	224,579	-0,004	0,005
-206,665	-121,080	-0,129	-0,015
-205,650	800,000	0,052	0,159
-204,636	800,000	0,051	0,112
-203,621	672,932	-0,044	0,081
-202,606	-15,798	-0,116	0,053
-201,592	-200,000	-0,001	0,005
-200,577	-103,247	-0,051	0,009
-199,563	-43,826	0,059	-0,021
-198,548	-57,519	0,095	0,030
-197,533	-122,698	0,129	0,015
-196,519	160,661	-0,014	-0,014
-195,504	-200,000	0,004	-0,048
-194,490	507,243	0,058	-0,096
-193,475	281,153	-0,062	-0,079
-192,460	-67,163	0,068	-0,019
-191,446	104,069	0,074	-0,062
-190,431	71,649	0,081	-0,060
-189,417	59,720	0,047	-0,033
-188,402	-32,033	-0,006	0,003
-187,387	800,000	-0,054	-0,114
-186,373	279,785	0,056	0,072
-185,358	-200,000	0,010	-0,036
-184,344	-42,779	0,095	0,034
-183,329	-69,156	0,076	0,021
-182,315	800,000	0,023	-0,052
-181,300	-200,000	-0,008	-0,075
-180,285	170,339	0,058	-0,059
-179,271	800,000	-0,037	-0,105
-178,256	26,723	-0,072	-0,043
-177,242	-73,379	0,120	0,031
-176,227	122,189	0,077	-0,069
-175,212	-200,000	-0,023	-0,112
-174,198	269,624	0,015	0,019
-173,183	-200,000	-0,008	0,075
-172,169	-150,012	0,171	-0,009
-171,154	43,891	-0,133	0,087
-170,139	-200,000	-0,029	-0,119
-169,125	-200,000	-0,010	0,167
-168,110	-200,000	0,028	0,109
-167,096	99,313	-0,014	-0,012
-166,081	-8,480	-0,022	0,010
-165,066	800,000	0,006	-0,019
-164,052	-94,514	-0,159	-0,031
-163,037	12,367	0,064	-0,035
-162,023	753,874	0,047	0,092
-161,008	-200,000	0,023	0,142
-159,993	-100,265	0,124	-0,022
-158,979	800,000	-0,021	0,067
-157,964	-96,673	0,021	0,004
-156,950	-200,000	-0,011	-0,104
-155,935	-200,000	0,033	-0,124
-154,920	129,662	0,012	0,011
-153,906	343,495	-0,123	0,172
-152,891	3,062	0,124	0,064
-151,877	-200,000	0,010	-0,057
-150,862	-85,296	-0,041	0,009
-149,847	35,621	0,050	-0,031
-148,833	553,676	-0,030	-0,052
-147,818	235,576	0,049	0,058
-146,804	-122,696	0,152	0,017
-145,789	-200,000	-0,018	-0,064
-144,775	-108,146	-0,100	0,015
-143,760	800,000	-0,037	-0,092
-142,745	161,555	-0,069	-0,069
-141,731	-200,000	0,026	0,085
-140,716	502,301	0,076	-0,126
-139,702	-200,000	-0,008	0,087
-138,687	155,755	-0,018	0,018
-137,672	-149,057	-0,074	0,004
-136,658	46,271	-0,030	-0,020
-135,643	-200,000	-0,037	-0,125
-134,629	-127,309	-0,094	-0,010
-133,614	-111,946	0,114	-0,016
-132,599	43,522	-0,109	-0,071
-131,585	800,000	0,055	0,118
-130,570	77,007	-0,066	0,050
-129,556	110,007	0,019	0,016
-128,541	564,064	-0,060	-0,103
-127,526	-72,836	-0,090	-0,023
-126,512	449,141	0,039	0,062
-125,497	800,000	0,039	-0,098
-124,483	33,586	0,089	0,055
-123,468	-200,000	-0,004	-0,017
-122,453	-200,000	0,025	-0,112
-121,439	-200,000	-0,024	-0,100
-120,424	-71,804	-0,165	0,043
-119,410	707,901	0,054	0,101
-118,395	-200,000	0,014	0,095
-117,380	800,000	-0,027	0,064
-116,366	494,893	0,041	-0,067
-115,351	-200,000	-0,011	-0,056
-114,337	420,889	-0,064	-0,098
-113,322	292,675	-0,024	-0,031
-112,307	-108,149	0,086	0,013
-111,293	-200,000	-0,022	0,091
-110,278	-65,069	0,014	0,004
-109,264	74,009	-0,088	0,066
-108,249	-82,963	0,068	-0,015
-107,234	-200,000	0,002	-0,010
-106,220	368,599	-0,058	0,083
-105,205	186,814	0,076	0,081
-104,191	422,204	0,116	0,178
-103,176	424,198	-0,044	0,068
-102,162	57,765	-0,061	0,042
-101,147	155,615	-0,051	0,050
-100,132	-130,123	-0,073	-0,007
-99,118	260,167	-0,075	0,092
-98,103	284,354	0,114	-0,145
-97,089	105,604	-0,110	-0,093
-96,074	-200,000	-0,012	0,094
-95,059	253,548	-0,025	-0,031
-94,045	48,682	0,093	-0,062
-93,030	-143,699	-0,147	0,010
-92,016	-200,000	0,006	-0,082
-91,001	-150,055	0,112	0,006
-89,986	800,000	0,045	0,110
-88,972	226,651	0,087	0,101
-87,957	252,569	0,053	0,064
-86,943	399,076	-0,052	0,078
-85,928	107,764	-0,116	-0,098
-84,913	-96,299	-0,109	-0,020
-83,899	-6,450	-0,155	0,075
-82,884	800,000	0,053	-0,147
-81,870	-45,564	-0,108	-0,038
-80,855	341,225	0,117	0,163
-79,840	800,000	0,064	0,160
-78,826	62,310	-0,086	0,061
-77,811	-100,585	-0,113	-0,020
-76,797	-0,031	-0,025	0,012
-75,782	-49,113	-0,173	-0,058
-74,767	-200,000	-0,008	-0,025
-73,753	41,332	0,038	0,025
-72,738	-63,464	-0,077	-0,022
-71,724	-200,000	0,010	-0,108
-70,709	-138,961	-0,141	0,011
-69,694	800,000	-0,028	-0,063
-68,680	-75,658	0,026	-0,006
-67,665	122,242	0,062	0,055
-66,651	-200,000	-0,015	0,105
-65,636	800,000	0,035	0,075
-64,622	-200,000	-0,005	0,037
-63,607	800,000	-0,091	0,182
-62,592	800,000	-0,027	0,077
-61,578	175,458	0,033	-0,034
-60,563	-200,000	0,005	-0,022
-59,549	436,143	-0,045	0,070
-58,534	-91,775	-1,416	-0,283
-57,519	462,694	-1,394	-2,216
-56,505	-200,000	-0,354	-4,378
-55,490	80,608	0,755	0,577
-54,476	800,000	4,713	11,377
-53,461	-200,000	17,394	275,148
-52,446	800,000	717,660	2202,049
-51,432	557,397	1631,660	2801,983
-50,417	81,328	1656,904	1269,263
-49,403	24,215	1531,011	894,849
-48,388	18,223	1453,961	820,945
-47,373	18,470	1443,834	816,379
-46,359	18,204	1434,322	809,702
-45,344	16,523	1429,699	799,078
-44,330	16,449	1427,664	797,557
-43,315	16,458	1426,172	796,736
-42,300	16,452	1424,487	795,733
-41,286	16,507	1423,377	795,341
-40,271	16,469	1422,113	794,425
-39,257	16,440	1420,685	793,459
-38,242	16,499	1419,291	792,924
-37,227	16,548	1418,153	792,489
-36,213	16,490	1417,099	791,596
-35,198	16,463	1415,632	790,619
-34,184	16,513	1414,985	790,459
-33,169	16,413	1413,670	789,226
-32,154	16,503	1412,611	789,024
-31,140	16,485	1411,201	788,120
-30,125	16,535	1409,891	787,593
-29,111	16,466	1408,971	786,726
-28,096	16,450	1407,895	786,018
-27,082	16,404	1406,724	785,115
-26,067	16,400	1405,508	784,389
-25,052	16,467	1404,386	784,043
-24,038	16,432	1403,607	783,417
-23,023	16,390	1402,362	782,495
-22,009	16,357	1401,557	781,860
-20,994	16,330	1400,765	781,262
-19,979	16,353	1399,678	780,730
-18,965	16,337	1398,763	780,117
-17,950	16,312	1397,972	779,526
-16,936	16,313	1396,747	778,818
-15,921	16,307	1395,520	778,074
-14,906	16,331	1394,557	777,620
-13,892	16,334	1393,579	777,054
-12,877	16,256	1393,026	776,357
-11,863	16,320	1391,932	776,009
-10,848	16,320	1391,023	775,474
-9,833	16,352	1389,908	774,969
-8,819	16,214	1389,298	773,963
-7,804	16,247	1388,330	773,543
-6,790	16,210	1387,126	772,674
-5,775	16,215	1386,270	772,188
-4,760	16,172	1385,504	771,531
-3,746	16,158	1384,704	770,993
-2,731	16,181	1383,733	770,524
-1,717	16,160	1382,876	769,923
-0,702	16,170	1381,053	768,923
0,313	20,063	1302,504	743,113
1,327	36,582	707,741	442,125
2,342	56,085	125,782	86,440
3,356	5,805	16,592	8,675
4,371	13,813	3,061	1,682
5,386	11,261	0,499	0,270
6,400	413,270	0,068	0,102
7,415	-37,410	-0,369	-0,139
8,429	55,294	-0,291	-0,199
9,444	11,249	-0,349	-0,189
10,459	34,560	-0,325	-0,201
11,473	24,549	-0,356	-0,208
12,488	-24,927	-0,317	-0,133
13,502	24,517	-0,263	-0,154
14,517	-38,181	-0,451	-0,168
15,531	-36,748	-0,428	-0,162
16,546	262,033	-0,258	-0,318
17,561	172,064	-0,286	-0,292
18,575	-73,908	-0,304	-0,078
19,590	-63,871	-0,293	-0,084
20,604	23,694	-0,279	-0,162
21,619	34,420	-0,413	-0,255
22,634	118,059	-0,480	-0,419
23,648	83,391	-0,345	-0,266
24,663	232,358	-0,381	-0,443
25,677	15,762	-0,473	-0,263
26,692	-24,998	-0,314	-0,131
27,707	-59,193	-0,384	-0,116
28,721	104,983	-0,321	-0,268
29,736	22,460	-0,563	-0,325
30,750	51,251	-0,395	-0,265
31,765	119,036	-0,327	-0,286
32,780	0,464	-0,423	-0,213
33,794	287,828	-0,296	-0,380
34,809	128,840	-0,223	-0,201
35,823	131,635	-0,351	-0,319
36,838	47,916	-0,377	-0,248
37,853	84,065	-0,407	-0,314
38,867	41,646	-0,291	-0,186
39,882	313,209	-0,193	-0,257
40,896	102,196	-0,373	-0,307
41,911	5,668	-0,364	-0,190
42,926	81,247	-0,351	-0,267
43,940	100,797	-0,277	-0,227
44,955	50,360	-0,410	-0,273
45,969	131,836	-0,283	-0,257
46,984	104,248	-0,362	-0,301
47,999	100,228	-0,320	-0,262
49,013	42,494	-0,280	-0,179
50,028	12,129	-0,408	-0,221
51,042	35,006	-0,283	-0,174
52,057	232,908	-0,275	-0,320
53,071	94,635	-0,277	-0,222
54,086	88,130	-0,273	-0,214
55,101	166,013	-0,334	-0,334
56,115	36,097	-0,416	-0,258
57,130	14,321	-0,442	-0,243
58,144	8,958	-0,430	-0,228
59,159	15,039	-0,365	-0,201
60,174	89,132	-0,398	-0,313
61,188	55,038	-0,350	-0,238
62,203	66,200	-0,391	-0,280
63,217	170,208	-0,256	-0,258
64,232	46,865	-0,356	-0,233
65,247	71,514	-0,337	-0,247
66,261	143,195	-0,276	-0,259
67,276	108,449	-0,292	-0,246
68,290	42,118	-0,444	-0,283
69,305	129,636	-0,363	-0,327
70,320	442,202	-0,223	-0,346
71,334	-53,605	-0,467	-0,149
72,349	128,588	-0,211	-0,189
73,363	58,906	-0,364	-0,252
74,378	-6,140	-0,305	-0,146
75,393	17,094	-0,351	-0,195
76,407	97,081	-0,251	-0,203
77,422	-13,658	-0,329	-0,149
78,436	116,445	-0,216	-0,186
79,451	-72,987	-0,460	-0,118
80,466	3,034	-0,264	-0,135
81,480	-33,599	-0,314	-0,121
82,495	-35,117	-0,413	-0,158
83,509	39,356	-0,361	-0,227
84,524	11,766	-0,333	-0,180
85,539	-196,675	-0,224	0,001
86,553	222,966	-0,273	-0,310
87,568	144,858	-0,254	-0,239
88,582	326,138	-0,225	-0,304
89,597	-5,011	-0,309	-0,149
90,611	62,215	-0,269	-0,189
91,626	-200,000	-0,213	-0,000
92,641	24,745	-0,365	-0,212
93,655	-41,723	-0,298	-0,107
94,670	229,201	-0,269	-0,309
95,684	157,703	-0,329	-0,320
96,699	42,741	-0,359	-0,230
97,714	60,378	-0,287	-0,199
98,728	95,101	-0,260	-0,208
99,743	249,487	-0,232	-0,277
100,757	-24,812	-0,365	-0,152
101,772	146,182	-0,323	-0,305
102,787	108,368	-0,310	-0,260
103,801	22,215	-0,321	-0,184
104,816	49,799	-0,283	-0,187
105,830	115,098	-0,191	-0,163
106,845	-125,873	-0,264	-0,028
107,860	7,801	-0,331	-0,173
108,874	200,903	-0,220	-0,238
109,889	-9,681	-0,195	-0,091
110,903	-71,098	-0,317	-0,083
111,918	159,432	-0,273	-0,267
112,933	-106,735	-0,253	-0,039
113,947	37,186	-0,164	-0,102
114,962	60,489	-0,148	-0,103
115,976	-4,855	-0,346	-0,167
116,991	87,853	-0,345	-0,268
118,006	83,267	-0,242	-0,185
119,020	-62,577	-0,331	-0,096
120,035	209,558	-0,097	-0,106
121,049	58,258	-0,288	-0,198
122,064	133,438	-0,175	-0,159
123,079	800,000	-0,084	-0,193
124,093	27,847	-0,398	-0,234
125,108	-25,699	-0,262	-0,108
126,122	-4,185	-0,247	-0,120
127,137	172,775	-0,141	-0,143
128,151	97,323	-0,195	-0,157
129,166	800,000	-0,060	-0,174
130,181	73,932	-0,297	-0,218
131,195	141,086	-0,194	-0,180
132,210	141,749	-0,224	-0,208
133,224	-4,119	-0,279	-0,135
134,239	-136,505	-0,119	-0,010
135,254	11,550	-0,218	-0,117
136,268	-22,339	-0,165	-0,070
137,283	184,658	-0,181	-0,188
138,297	197,157	-0,290	-0,311
139,312	85,765	-0,302	-0,233
140,327	-56,193	-0,248	-0,077
141,341	-17,557	-0,270	-0,118
142,356	192,359	-0,167	-0,177
143,370	13,231	-0,212	-0,115
144,385	-61,506	-0,277	-0,081
145,400	11,075	-0,286	-0,153
146,414	54,505	-0,337	-0,227
147,429	-20,525	-0,225	-0,096
148,443	-23,394	-0,253	-0,106
149,458	184,973	-0,221	-0,230
150,473	59,422	-0,126	-0,087
151,487	509,345	-0,097	-0,159
152,502	21,518	-0,291	-0,165
153,516	113,318	-0,229	-0,194
154,531	360,018	-0,166	-0,233
155,546	-50,427	-0,182	-0,060
156,560	16,834	-0,286	-0,158
157,575	-38,726	-0,220	-0,081
158,589	732,068	-0,181	-0,339
159,604	159,244	-0,151	-0,147
160,619	800,000	-0,140	-0,333
161,633	33,042	-0,319	-0,193
162,648	70,842	-0,158	-0,114
163,662	161,231	-0,216	-0,211
164,677	27,503	-0,124	-0,073
165,692	-80,404	-0,279	-0,064
166,706	91,055	-0,230	-0,180
167,721	167,883	-0,276	-0,274
168,735	-26,411	-0,190	-0,077
169,750	-25,798	-0,267	-0,109
170,764	262,068	-0,155	-0,188
171,779	154,893	-0,216	-0,207
172,794	108,539	-0,264	-0,220
173,808	47,353	-0,255	-0,166
174,823	23,297	-0,312	-0,179
175,837	324,707	-0,166	-0,222
176,852	118,499	-0,153	-0,132
177,867	582,551	-0,168	-0,289
178,881	171,637	-0,122	-0,122
179,896	25,248	-0,204	-0,118
180,910	117,682	-0,170	-0,146
181,925	460,789	-0,140	-0,219
182,940	100,996	-0,167	-0,135
183,954	155,609	-0,194	-0,187
184,969	800,000	-0,131	-0,272
185,983	153,649	-0,144	-0,138
186,998	41,403	-0,225	-0,141
188,013	119,178	-0,260	-0,225
189,027	285,830	-0,285	-0,359
190,042	501,817	-0,138	-0,223
191,056	186,584	-0,251	-0,260
192,071	800,000	-0,073	-0,173
193,086	211,866	-0,142	-0,156
194,100	9,354	-0,207	-0,109
195,115	87,023	-0,207	-0,159
196,129	700,936	-0,109	-0,200
197,144	109,186	-0,256	-0,213
198,159	74,575	-0,270	-0,198
199,173	212,599	-0,107	-0,118
200,188	33,078	-0,180	-0,108
201,202	192,093	-0,107	-0,112
202,217	50,165	-0,117	-0,077
203,232	153,100	-0,191	-0,182
204,246	-10,090	-0,250	-0,115
205,261	63,629	-0,286	-0,200
206,275	129,006	-0,166	-0,147
207,290	-65,999	-0,225	-0,062
208,304	113,047	-0,171	-0,144
209,319	39,087	-0,067	-0,042
210,334	237,035	-0,224	-0,258
211,348	82,208	-0,277	-0,209
212,363	61,333	-0,205	-0,142
213,377	-9,766	-0,178	-0,082
214,392	-129,095	-0,184	-0,018
215,407	648,524	-0,095	-0,169
216,421	-8,278	-0,185	-0,086
217,436	266,460	-0,176	-0,214
218,450	-35,834	-0,356	-0,134
219,465	177,930	-0,235	-0,239
220,480	494,322	-0,147	-0,235
221,494	225,755	-0,164	-0,185
222,509	-91,019	-0,217	-0,043
223,523	29,938	-0,184	-0,109
224,538	115,467	-0,179	-0,152
225,553	164,614	-0,204	-0,200
226,567	-26,698	-0,233	-0,095
227,582	119,129	-0,130	-0,112
228,596	141,726	-0,137	-0,126
229,611	24,204	-0,051	-0,029
230,626	186,803	-0,115	-0,119
231,640	335,422	-0,123	-0,166
232,655	92,468	-0,126	-0,099
233,669	191,879	-0,156	-0,163
234,684	701,438	-0,103	-0,189
235,699	40,140	-0,203	-0,127
236,713	219,392	-0,173	-0,192
237,728	-1,819	-0,212	-0,103
238,742	122,502	-0,116	-0,101
239,757	800,000	-0,143	-0,319
240,772	-4,209	-0,251	-0,120
241,786	87,419	-0,212	-0,163
242,801	36,237	-0,230	-0,140
243,815	184,406	-0,184	-0,190
244,830	800,000	-0,077	-0,163
245,844	-129,934	-0,181	-0,017
246,859	58,785	-0,167	-0,114
247,874	86,313	-0,174	-0,133
248,888	133,278	-0,217	-0,195
249,903	-61,342	-0,246	-0,071
250,917	426,225	-0,091	-0,137
251,932	191,605	-0,152	-0,159
252,947	351,072	-0,102	-0,140
253,961	-179,019	-0,159	0,002
254,976	4,706	-0,337	-0,171
255,990	129,643	-0,109	-0,097
257,005	-91,351	-0,332	-0,065
258,020	-124,296	-0,114	-0,012
259,034	800,000	-0,069	-0,153
260,049	370,807	-0,077	-0,108
261,063	22,106	-0,150	-0,085
262,078	44,255	-0,155	-0,099
263,093	88,155	-0,098	-0,075
264,107	361,377	-0,156	-0,218
265,122	237,743	-0,210	-0,241
266,136	19,519	-0,213	-0,118
267,151	-157,772	-0,136	0,005
268,166	-112,236	-0,140	-0,019
269,180	34,872	-0,236	-0,143
270,195	75,205	-0,284	-0,207
271,209	333,243	-0,190	-0,254
272,224	28,501	-0,182	-0,106
273,239	96,141	-0,049	-0,039
274,253	-54,489	-0,229	-0,071
275,268	158,554	-0,197	-0,189
276,282	124,504	-0,144	-0,125
277,297	500,288	-0,084	-0,134
278,312	153,869	-0,214	-0,203
279,326	16,273	-0,158	-0,086
280,341	133,359	-0,155	-0,139
281,355	800,000	-0,072	-0,197
282,370	-24,359	-0,119	-0,049
283,384	-33,186	-0,127	-0,049
284,399	125,845	-0,196	-0,171
285,414	97,839	-0,208	-0,165
286,428	-2,033	-0,120	-0,058
287,443	-108,978	-0,143	-0,021
288,457	19,724	-0,104	-0,058
289,472	73,951	-0,123	-0,089
290,487	234,761	-0,100	-0,114
291,501	-78,874	-0,147	-0,034
292,516	18,320	-0,118	-0,065
293,530	351,895	-0,101	-0,139
294,545	-82,303	-0,056	0,012
295,560	181,474	-0,181	-0,185
296,574	62,907	-0,180	-0,124
297,589	-56,949	-0,241	-0,073
298,603	-127,938	-0,074	0,007
299,618	181,284	-0,201	-0,204
300,633	388,408	-0,115	-0,165
301,647	800,000	-0,129	-0,250
302,662	6,028	-0,132	-0,067
303,676	627,066	-0,023	-0,041
304,691	488,203	-0,082	-0,130
305,706	-200,000	-0,070	-0,240
306,720	228,596	-0,204	-0,230
307,735	-19,086	-0,115	-0,049
308,749	0,663	-0,154	-0,076
309,764	353,409	-0,134	-0,185
310,779	93,054	-0,139	-0,108
311,793	81,104	-0,083	-0,062
312,808	7,739	-0,238	-0,123
313,822	62,419	-0,271	-0,187
314,837	185,873	-0,151	-0,155
315,852	-29,008	-0,129	-0,051
316,866	800,000	-0,086	-0,190
317,881	-0,905	-0,118	-0,057
318,895	-49,294	-0,124	-0,040
319,910	238,452	-0,159	-0,183
320,925	57,249	-0,090	-0,061
321,939	800,000	-0,053	-0,109
322,954	-4,976	0,010	0,005
323,968	-20,880	-0,164	-0,069
324,983	-200,000	-0,057	-0,204
325,997	8,678	-0,162	-0,084
327,012	62,727	-0,096	-0,066
328,027	64,570	-0,244	-0,169
329,041	213,001	-0,083	-0,090
330,056	233,653	-0,088	-0,100
331,070	147,480	-0,099	-0,091
332,085	80,759	-0,169	-0,125
333,100	-34,983	-0,174	-0,065
334,114	301,024	-0,113	-0,144
335,129	2,913	-0,165	-0,082
336,143	98,465	-0,097	-0,077
337,158	11,054	-0,241	-0,127
338,173	-63,176	-0,168	-0,047
339,187	-200,000	-0,017	-0,057
340,202	36,049	-0,142	-0,086
341,216	-65,079	-0,229	-0,063
342,231	85,507	-0,186	-0,140
343,246	-127,325	-0,187	-0,019
344,260	-95,733	-0,062	-0,011
345,275	-11,143	-0,126	-0,057
346,289	795,815	0,056	-0,107
347,304	184,028	-0,080	-0,081
348,319	232,155	-0,098	-0,111
349,333	98,810	-0,194	-0,154
350,348	285,009	-0,200	-0,249
351,362	-167,354	-0,138	-0,004
352,377	334,010	-0,093	-0,124
353,392	-200,000	0,015	-0,157
354,406	-11,626	-0,136	-0,061
355,421	209,587	1313,270	1416,932
356,435	161,308	1473,872	1417,457
