DTS Sentinel unit serial number:	SN410029Multiplexer serial number:	ORYXHardware model number:	OX2-SRSoftware version number:	ORYX F/W v4,00 Oryx Data Collector v3.7.2.0data status	okinstallation	B3 Nyhavnadifferential loss correction	single-endedforward channel	channel 1reverse channel	N/Adate	2023/12/04time	00:07:30forward acquisition time	300,00reverse acquisition time	0,00gamma	499,1914k internal	0,3202k external	0,3202temperature offset calibration	1,0000default loss term (dB/km)	0,3820temperature slope calibration	1,0000multiplexer offset coefficient	1,0000multiplexer slope coefficient	1,0000fibre end	0,00T internal ref (°C)	12,75T ext. ref 1 (°C)	-2,51T ext. ref 2 (°C)	-2,54length (m)	temperature (°C)	Stokes	anti-Stokes-744,400	68,078	-0,309	-0,230
-743,385	800,000	0,007	0,021
-742,371	256,037	-0,228	-0,285
-741,356	-200,000	0,039	0,283
-740,342	274,839	-0,185	-0,238
-739,327	800,000	0,066	0,206
-738,312	274,410	-0,233	-0,300
-737,298	-200,000	0,015	0,304
-736,283	266,157	-0,156	-0,198
-735,269	-200,000	0,020	0,323
-734,254	302,989	-0,165	-0,222
-733,239	427,783	-0,162	0,255
-732,225	-200,000	-0,002	-0,197
-731,210	21,961	0,103	-0,061
-730,196	-200,000	-0,017	-0,099
-729,181	-97,229	-0,067	-0,013
-728,167	-156,806	0,131	0,006
-727,152	152,215	0,094	0,093
-726,137	289,339	-0,057	0,075
-725,123	-200,000	-0,021	-0,135
-724,108	159,167	-0,049	-0,049
-723,094	84,450	0,107	-0,085
-722,079	-122,008	-0,122	0,014
-721,064	800,000	-0,036	0,096
-720,050	800,000	-0,026	-0,069
-719,035	800,000	0,048	0,138
-718,021	-151,139	-0,176	-0,009
-717,006	236,755	-0,056	-0,068
-715,991	795,024	-0,061	-0,122
-714,977	800,000	-0,064	-0,156
-713,962	231,146	-0,069	-0,082
-712,948	26,090	-0,082	-0,050
-711,933	133,632	0,046	0,044
-710,918	-200,000	0,000	-0,077
-709,904	-65,415	-0,129	-0,038
-708,889	-64,726	-0,056	-0,016
-707,875	-171,963	-0,115	0,003
-706,860	29,240	0,134	-0,082
-705,845	4,064	0,115	0,061
-704,831	-200,000	0,004	-0,075
-703,816	137,327	0,114	0,108
-702,802	37,861	-0,139	-0,090
-701,787	85,808	-0,054	-0,043
-700,772	439,244	-0,094	-0,149
-699,758	61,032	0,062	-0,045
-698,743	-200,000	0,004	-0,033
-697,729	-102,355	-0,103	-0,018
-696,714	-200,000	0,001	0,004
-695,699	-186,102	-0,036	0,000
-694,685	-200,000	0,003	-0,107
-693,670	-10,393	0,095	-0,045
-692,656	800,000	0,047	-0,110
-691,641	220,479	0,069	-0,081
-690,627	74,323	0,054	-0,041
-689,612	112,361	-0,027	-0,023
-688,597	232,390	-0,069	0,082
-687,583	800,000	0,046	-0,113
-686,568	800,000	0,080	-0,161
-685,554	81,472	0,138	-0,108
-684,539	-200,000	-0,013	-0,122
-683,524	200,532	0,145	0,162
-682,510	-100,249	-0,058	-0,010
-681,495	90,566	-0,074	0,060
-680,481	-200,000	-0,001	-0,057
-679,466	-123,045	-0,107	0,012
-678,451	621,917	0,030	-0,055
-677,437	120,761	-0,134	0,121
-676,422	-200,000	-0,010	0,040
-675,408	322,534	-0,057	0,078
-674,393	30,246	-0,049	0,030
-673,378	33,595	-0,127	-0,080
-672,364	-84,282	0,031	-0,007
-671,349	-200,000	0,009	-0,051
-670,335	-200,000	0,000	-0,062
-669,320	-138,051	-0,122	-0,010
-668,305	-107,264	0,056	-0,009
-667,291	153,338	-0,077	0,076
-666,276	-200,000	0,013	-0,151
-665,262	-68,220	-0,136	0,038
-664,247	800,000	-0,088	-0,181
-663,232	-167,930	0,099	-0,003
-662,218	334,825	0,043	0,060
-661,203	-200,000	-0,019	0,082
-660,189	800,000	-0,032	0,087
-659,174	-200,000	0,006	-0,044
-658,159	-200,000	0,023	-0,116
-657,145	-200,000	0,026	-0,127
-656,130	703,973	-0,092	-0,176
-655,116	-200,000	0,010	-0,050
-654,101	-200,000	0,000	-0,099
-653,086	-200,000	0,008	0,047
-652,072	372,299	-0,054	0,080
-651,057	-200,000	0,005	-0,018
-650,043	-200,000	0,008	-0,055
-649,028	15,164	-0,119	-0,068
-648,014	-101,456	-0,167	0,029
-646,999	763,612	0,086	0,169
-645,984	-200,000	0,016	-0,088
-644,970	-142,049	-0,066	0,005
-643,955	-200,000	0,021	-0,099
-642,941	-200,000	0,025	-0,115
-641,926	-200,000	0,022	-0,114
-640,911	800,000	-0,023	-0,073
-639,897	119,636	-0,096	0,086
-638,882	103,554	-0,053	-0,045
-637,868	356,575	-0,028	0,040
-636,853	-114,121	0,071	0,010
-635,838	-200,000	-0,003	-0,070
-634,824	226,840	-0,084	-0,099
-633,809	800,000	0,014	-0,043
-632,795	24,663	-0,005	0,003
-631,780	375,868	-0,078	-0,116
-630,765	-50,265	0,067	0,023
-629,751	145,297	-0,095	-0,092
-628,736	62,831	-0,013	-0,009
-627,722	-10,229	0,034	0,016
-626,707	-37,010	-0,096	0,037
-625,692	-32,742	-0,116	0,046
-624,678	125,827	0,062	0,056
-623,663	-1,694	0,127	0,065
-622,649	51,109	-0,070	-0,048
-621,634	-91,310	-0,056	-0,011
-620,619	21,760	-0,033	0,019
-619,605	455,071	0,073	-0,117
-618,590	-191,711	-0,023	0,000
-617,576	132,857	-0,057	0,053
-616,561	18,869	0,186	-0,107
-615,546	371,378	-0,104	-0,153
-614,532	-200,000	-0,009	-0,130
-613,517	31,390	-0,028	-0,017
-612,503	-92,539	0,098	0,020
-611,488	-9,132	0,067	0,032
-610,474	271,177	-0,038	0,048
-609,459	208,214	-0,112	0,127
-608,444	181,544	-0,116	-0,123
-607,430	800,000	0,024	-0,062
-606,415	-200,000	-0,006	-0,159
-605,401	-200,000	0,000	0,013
-604,386	-200,000	-0,048	-0,230
-603,371	387,188	-0,032	-0,048
-602,357	393,682	0,075	0,113
-601,342	607,219	-0,063	-0,114
-600,328	-114,176	-0,043	-0,006
-599,313	-168,222	0,029	-0,001
-598,298	800,000	0,036	0,081
-597,284	-200,000	-0,025	0,170
-596,269	175,628	-0,006	-0,007
-595,255	548,447	-0,013	-0,023
-594,240	252,902	-0,026	-0,032
-593,225	-134,038	-0,064	0,006
-592,211	-114,503	-0,142	-0,019
-591,196	582,619	0,103	-0,184
-590,182	-99,789	-0,174	-0,031
-589,167	-200,000	-0,065	0,217
-588,152	-110,098	-0,052	0,008
-587,138	-200,000	-0,019	-0,090
-586,123	31,794	-0,070	0,043
-585,109	261,842	0,027	0,034
-584,094	-200,000	-0,011	0,066
-583,079	35,561	-0,021	-0,013
-582,065	-26,704	0,106	-0,045
-581,050	420,497	-0,085	-0,132
-580,036	800,000	0,043	0,101
-579,021	293,541	-0,110	-0,145
-578,006	-200,000	0,024	-0,096
-576,992	-53,237	-0,118	0,039
-575,977	800,000	0,012	-0,027
-574,963	-200,000	0,041	0,188
-573,948	800,000	-0,057	0,161
-572,934	15,911	-0,140	-0,079
-571,919	40,509	0,058	-0,038
-570,904	-96,339	-0,028	-0,005
-569,890	-85,332	0,065	-0,015
-568,875	53,421	0,120	-0,083
-567,861	-8,007	0,114	-0,055
-566,846	-200,000	-0,011	0,086
-565,831	-200,000	-0,008	0,050
-564,817	800,000	0,029	-0,078
-563,802	90,200	0,105	-0,085
-562,788	-200,000	-0,012	0,075
-561,773	800,000	-0,051	-0,112
-560,758	-168,600	0,159	0,004
-559,744	-200,000	0,000	-0,028
-558,729	-62,237	0,054	-0,016
-557,715	-176,370	-0,139	-0,003
-556,700	101,986	0,091	-0,077
-555,685	368,066	0,049	-0,072
-554,671	172,880	-0,056	-0,058
-553,656	-96,375	-0,058	-0,011
-552,642	800,000	-0,032	0,097
-551,627	-47,183	-0,079	-0,027
-550,612	129,933	-0,045	0,041
-549,598	-151,503	-0,165	-0,009
-548,583	-200,000	0,017	-0,061
-547,569	-160,646	-0,076	-0,003
-546,554	-153,222	-0,023	-0,001
-545,539	406,474	0,054	-0,082
-544,525	-65,395	-0,005	-0,001
-543,510	156,543	-0,036	-0,036
-542,496	-200,000	0,033	-0,156
-541,481	-9,184	0,104	-0,050
-540,466	-136,622	-0,026	0,002
-539,452	800,000	-0,045	0,092
-538,437	136,070	0,085	0,080
-537,423	-200,000	0,015	-0,048
-536,408	800,000	0,066	0,192
-535,393	-120,702	-0,094	-0,011
-534,379	404,216	-0,088	-0,134
-533,364	228,602	-0,054	0,064
-532,350	1,347	-0,117	0,060
-531,335	234,743	0,086	0,103
-530,321	167,185	-0,079	-0,081
-529,306	-200,000	-0,006	-0,030
-528,291	-200,000	0,022	-0,123
-527,277	-6,063	0,171	0,084
-526,262	557,501	-0,042	0,073
-525,248	-98,193	0,132	0,024
-524,233	-161,357	0,101	-0,004
-523,218	156,233	0,062	-0,062
-522,204	-200,000	-0,009	0,042
-521,189	-58,279	-0,160	-0,050
-520,175	72,917	0,065	0,049
-519,160	-200,000	0,006	0,056
-518,145	-200,000	0,002	0,112
-517,131	525,487	0,047	0,081
-516,116	-52,203	-0,052	0,017
-515,102	192,496	0,041	0,045
-514,087	-200,000	0,003	0,124
-513,072	86,674	-0,147	-0,117
-512,058	-81,583	-0,019	-0,005
-511,043	-200,000	0,010	0,143
-510,029	646,219	-0,022	0,040
-509,014	-102,437	0,149	0,026
-507,999	-81,233	0,052	-0,012
-506,985	-95,714	-0,064	-0,012
-505,970	74,584	0,071	-0,054
-504,956	203,586	-0,099	-0,110
-503,941	-200,000	0,003	-0,128
-502,926	-200,000	-0,003	-0,029
-501,912	237,746	0,164	0,196
-500,897	327,480	-0,080	-0,110
-499,883	188,398	0,057	0,061
-498,868	-103,655	-0,049	-0,008
-497,853	-7,918	0,032	0,015
-496,839	-122,311	-0,079	-0,009
-495,824	95,968	0,031	-0,026
-494,810	258,727	0,108	0,134
-493,795	800,000	0,031	0,063
-492,781	19,178	0,074	-0,043
-491,766	37,226	-0,177	-0,112
-490,751	800,000	-0,041	0,100
-489,737	-200,000	0,012	-0,056
-488,722	-87,760	-0,044	0,009
-487,708	-93,470	0,082	0,016
-486,693	-200,000	0,002	0,104
-485,678	-188,559	0,082	0,001
-484,664	61,259	-0,056	-0,040
-483,649	656,260	-0,063	0,117
-482,635	-200,000	-0,014	-0,052
-481,620	-200,000	0,007	0,054
-480,605	-200,000	0,000	-0,080
-479,591	1,740	-0,105	0,054
-478,576	160,703	0,064	0,064
-477,562	-200,000	-0,013	-0,063
-476,547	72,247	-0,135	-0,101
-475,532	-56,708	0,063	-0,020
-474,518	-200,000	0,006	0,132
-473,503	-200,000	-0,003	-0,093
-472,489	465,711	0,068	0,110
-471,474	-16,821	-0,044	-0,020
-470,459	132,813	0,057	0,053
-469,445	800,000	-0,051	0,145
-468,430	-200,000	0,004	0,081
-467,416	402,062	0,041	-0,062
-466,401	320,017	0,059	-0,081
-465,386	367,033	-0,033	0,048
-464,372	358,139	-0,010	0,014
-463,357	-200,000	-0,022	-0,111
-462,343	54,768	-0,078	-0,054
-461,328	13,198	-0,114	0,063
-460,313	-155,946	0,059	-0,003
-459,299	-200,000	-0,010	0,039
-458,284	-54,038	0,097	0,032
-457,270	117,714	0,058	-0,052
-456,255	-52,718	0,117	0,039
-455,241	-17,407	0,043	0,019
-454,226	800,000	-0,048	0,106
-453,211	-200,000	0,020	0,078
-452,197	-200,000	0,006	0,123
-451,182	-49,579	0,095	0,032
-450,168	-16,314	0,011	-0,005
-449,153	430,652	-0,054	0,084
-448,138	-101,055	-0,116	0,020
-447,124	3,886	0,056	-0,029
-446,109	800,000	0,020	0,053
-445,095	156,127	-0,076	0,076
-444,080	800,000	0,085	0,179
-443,065	246,168	-0,069	0,084
-442,051	666,329	0,050	0,094
-441,036	-2,769	-0,065	0,032
-440,022	104,778	-0,101	0,086
-439,007	-107,736	-0,027	-0,004
-437,992	-200,000	-0,003	-0,053
-436,978	90,437	0,103	-0,083
-435,963	-200,000	0,015	-0,066
-434,949	176,276	0,161	0,168
-433,934	800,000	-0,060	-0,186
-432,919	-200,000	-0,004	-0,162
-431,905	-200,000	0,028	-0,101
-430,890	-119,667	-0,124	0,015
-429,876	176,971	0,120	0,126
-428,861	651,510	0,088	0,162
-427,846	87,290	-0,017	-0,013
-426,832	-16,297	0,078	-0,036
-425,817	86,133	-0,165	-0,130
-424,803	800,000	0,033	-0,103
-423,788	-200,000	-0,001	0,037
-422,773	473,762	0,082	-0,133
-421,759	617,148	0,021	0,038
-420,744	-82,353	-0,127	-0,030
-419,730	109,224	-0,096	0,082
-418,715	321,210	0,063	-0,086
-417,701	11,499	-0,088	-0,048
-416,686	-70,219	0,047	-0,013
-415,671	800,000	0,006	-0,017
-414,657	313,516	0,036	-0,049
-413,642	393,024	0,052	0,077
-412,628	186,001	-0,050	-0,054
-411,613	92,244	0,111	-0,090
-410,598	800,000	0,041	-0,086
-409,584	800,000	-0,028	0,070
-408,569	-73,138	0,068	0,018
-407,555	-200,000	0,003	0,077
-406,540	-104,910	-0,084	-0,014
-405,525	800,000	-0,026	-0,068
-404,511	-0,247	-0,072	-0,036
-403,496	800,000	0,014	0,035
-402,482	-115,382	-0,106	0,014
-401,467	142,440	0,091	0,087
-400,452	-200,000	0,017	-0,060
-399,438	416,634	0,053	-0,081
-398,423	203,406	0,060	0,067
-397,409	-84,407	-0,172	0,039
-396,394	26,579	0,010	0,006
-395,379	-200,000	-0,028	0,198
-394,365	375,092	-0,023	-0,034
-393,350	285,025	0,070	0,090
-392,336	151,298	-0,087	0,085
-391,321	102,505	0,037	-0,031
-390,306	-200,000	-0,017	0,123
-389,292	800,000	0,008	0,022
-388,277	463,421	0,052	-0,083
-387,263	-200,000	0,007	0,098
-386,248	70,109	0,048	-0,036
-385,233	-200,000	0,003	0,038
-384,219	-136,592	-0,089	0,007
-383,204	130,630	-0,032	-0,030
-382,190	262,343	-0,091	-0,113
-381,175	-160,974	-0,037	-0,001
-380,160	146,255	0,127	-0,122
-379,146	-74,007	-0,062	0,016
-378,131	-200,000	0,001	0,107
-377,117	181,776	0,046	-0,049
-376,102	199,715	-0,104	0,114
-375,088	26,286	-0,132	0,079
-374,073	144,788	-0,018	-0,018
-373,058	355,154	-0,027	-0,039
-372,044	99,162	0,084	-0,070
-371,029	24,997	0,060	0,036
-370,015	316,447	0,022	-0,030
-369,000	23,940	-0,082	-0,048
-367,985	-200,000	-0,006	-0,081
-366,971	-20,833	-0,064	-0,028
-365,956	800,000	0,019	-0,059
-364,942	529,306	-0,033	0,056
-363,927	-47,971	0,197	0,068
-362,912	-200,000	0,026	0,154
-361,898	-200,000	0,003	-0,089
-360,883	-27,410	0,050	-0,021
-359,869	227,037	0,065	0,076
-358,854	334,342	0,020	0,028
-357,839	99,570	0,023	-0,019
-356,825	363,163	0,040	0,057
-355,810	-200,000	-0,014	0,049
-354,796	-26,263	0,035	-0,015
-353,781	-200,000	0,019	0,079
-352,766	-200,000	0,002	-0,022
-351,752	-64,365	0,043	0,012
-350,737	800,000	-0,034	-0,086
-349,723	109,150	0,056	-0,048
-348,708	135,883	0,146	-0,136
-347,693	800,000	-0,063	-0,153
-346,679	800,000	0,026	-0,077
-345,664	800,000	0,086	-0,249
-344,650	83,208	0,094	0,073
-343,635	-200,000	0,025	0,181
-342,620	-200,000	0,015	0,136
-341,606	800,000	0,037	0,087
-340,591	303,670	-0,040	-0,054
-339,577	-200,000	-0,011	0,117
-338,562	-121,220	0,096	0,011
-337,548	-200,000	0,008	0,026
-336,533	-200,000	-0,007	-0,056
-335,518	-0,045	-0,095	0,048
-334,504	-200,000	-0,015	0,250
-333,489	561,744	-0,035	-0,061
-332,475	224,468	0,061	-0,071
-331,460	400,907	0,081	-0,123
-330,445	-10,108	-0,068	-0,032
-329,431	203,118	0,021	0,023
-328,416	730,861	0,071	0,137
-327,402	-93,905	0,062	0,012
-326,387	714,822	0,070	-0,133
-325,372	520,006	-0,084	-0,142
-324,358	51,489	-0,077	-0,052
-323,343	800,000	-0,019	-0,048
-322,329	800,000	-0,010	0,025
-321,314	-66,027	0,038	-0,011
-320,299	-46,470	0,110	-0,038
-319,285	116,666	-0,136	0,119
-318,270	-200,000	0,008	-0,044
-317,256	249,281	-0,022	-0,026
-316,241	263,762	-0,039	-0,048
-315,226	84,593	-0,061	0,048
-314,212	-14,894	0,142	0,065
-313,197	431,240	-0,027	0,042
-312,183	800,000	-0,047	0,098
-311,168	56,994	-0,115	0,080
-310,153	-200,000	0,007	-0,138
-309,139	800,000	0,027	-0,067
-308,124	-150,938	-0,038	-0,002
-307,110	135,405	0,033	-0,030
-306,095	197,140	0,031	-0,034
-305,080	-200,000	0,013	0,080
-304,066	-63,974	0,146	0,042
-303,051	-20,288	-0,182	0,080
-302,037	160,272	-0,082	0,082
-301,022	-151,409	0,090	0,005
-300,008	472,598	0,029	0,047
-298,993	-135,856	0,155	0,013
-297,978	338,954	-0,081	0,113
-296,964	-200,000	-0,026	-0,100
-295,949	108,694	-0,045	-0,038
-294,935	800,000	-0,032	-0,087
-293,920	-200,000	-0,005	-0,074
-292,905	282,951	0,033	-0,042
-291,891	-200,000	-0,017	-0,288
-290,876	-116,761	0,101	0,013
-289,862	800,000	0,012	-0,028
-288,847	1,757	-0,163	-0,084
-287,832	416,737	-0,070	-0,108
-286,818	442,231	-0,040	0,062
-285,803	333,609	-0,017	-0,023
-284,789	336,816	0,056	-0,078
-283,774	86,961	0,083	0,065
-282,759	-68,159	-0,112	0,031
-281,745	53,385	-0,054	-0,037
-280,730	25,511	-0,082	-0,049
-279,716	-28,087	0,013	0,005
-278,701	-200,000	0,025	0,217
-277,686	-200,000	0,033	0,195
-276,672	-200,000	-0,024	0,265
-275,657	745,739	-0,065	-0,126
-274,643	-90,580	0,086	0,018
-273,628	800,000	-0,032	-0,079
-272,613	573,868	-0,063	0,110
-271,599	-2,807	0,026	-0,013
-270,584	261,490	0,096	0,118
-269,570	-105,183	0,015	0,002
-268,555	-8,333	-0,053	0,025
-267,540	800,000	-0,028	0,087
-266,526	-155,937	-0,086	-0,004
-265,511	-120,043	0,126	-0,015
-264,497	-146,805	0,083	-0,005
-263,482	800,000	-0,038	-0,079
-262,467	800,000	-0,021	0,054
-261,453	-29,642	0,113	0,046
-260,438	-200,000	-0,008	0,026
-259,424	-200,000	0,007	-0,089
-258,409	454,591	-0,042	-0,066
-257,395	-84,380	0,060	0,013
-256,380	-90,763	0,150	0,031
-255,365	-200,000	0,000	0,086
-254,351	-200,000	-0,024	0,128
-253,336	133,819	-0,043	-0,039
-252,322	264,745	-0,117	-0,146
-251,307	-125,664	-0,152	-0,016
-250,292	467,236	0,008	-0,013
-249,278	109,084	0,031	-0,027
-248,263	800,000	-0,018	-0,057
-247,249	-90,576	0,049	-0,010
-246,234	-173,852	-0,033	-0,001
-245,219	25,025	-0,095	0,056
-244,205	348,046	-0,055	0,078
-243,190	-84,414	0,110	-0,025
-242,176	224,306	0,054	-0,062
-241,161	-48,298	0,013	0,004
-240,146	-38,475	-0,099	0,037
-239,132	-150,263	-0,127	-0,007
-238,117	-134,120	-0,181	0,016
-237,103	405,628	0,065	-0,097
-236,088	137,933	-0,051	0,047
-235,073	800,000	0,034	0,097
-234,059	-111,640	-0,063	0,009
-233,044	-200,000	0,011	0,055
-232,030	-179,190	-0,088	0,001
-231,015	424,786	-0,090	-0,138
-230,000	-131,828	0,071	-0,007
-228,986	187,921	-0,061	-0,065
-227,971	23,314	0,071	0,042
-226,957	56,342	0,110	0,076
-225,942	-3,720	0,141	-0,070
-224,927	-26,799	-0,052	-0,022
-223,913	485,305	0,038	-0,062
-222,898	126,519	-0,112	-0,101
-221,884	800,000	-0,071	-0,198
-220,869	-139,026	0,127	0,010
-219,855	78,903	0,108	0,082
-218,840	-101,240	0,078	-0,013
-217,825	-200,000	-0,007	0,054
-216,811	-200,000	0,009	-0,034
-215,796	155,099	-0,076	-0,075
-214,782	-134,840	-0,119	-0,010
-213,767	800,000	0,020	0,051
-212,752	-26,813	0,147	-0,061
-211,738	755,219	0,034	0,066
-210,723	639,419	-0,052	0,094
-209,709	-200,000	-0,002	-0,033
-208,694	-200,000	0,035	-0,168
-207,679	6,763	-0,037	-0,019
-206,665	-163,100	0,146	-0,005
-205,650	-145,653	0,163	-0,010
-204,636	335,481	-0,134	0,186
-203,621	-44,761	0,048	0,017
-202,606	112,816	0,028	0,024
-201,592	-200,000	0,024	0,087
-200,577	54,834	-0,070	-0,048
-199,563	-179,233	0,060	0,001
-198,548	193,470	0,064	0,069
-197,533	71,118	0,067	-0,049
-196,519	-141,517	-0,088	0,006
-195,504	-200,000	0,006	0,079
-194,490	-200,000	-0,003	0,061
-193,475	316,029	-0,015	-0,020
-192,460	-74,413	-0,025	-0,006
-191,446	104,042	0,054	-0,045
-190,431	-200,000	0,019	0,180
-189,417	293,689	0,045	0,059
-188,402	-44,215	0,109	0,039
-187,387	800,000	-0,013	-0,030
-186,373	-200,000	-0,005	-0,094
-185,358	-111,282	0,030	0,004
-184,344	315,597	-0,027	0,037
-183,329	-24,822	0,083	0,035
-182,315	97,371	0,041	0,034
-181,300	-200,000	0,022	0,088
-180,285	800,000	0,045	-0,104
-179,271	26,673	0,075	-0,044
-178,256	800,000	-0,048	-0,098
-177,242	-29,036	0,038	0,016
-176,227	-200,000	0,030	0,137
-175,212	800,000	0,025	0,062
-174,198	115,205	-0,059	-0,051
-173,183	452,999	0,027	0,043
-172,169	35,650	-0,080	-0,050
-171,154	-200,000	0,079	-0,000
-170,139	-135,494	0,083	-0,007
-169,125	3,117	0,063	0,032
-168,110	208,428	0,034	0,038
-167,096	355,064	0,014	-0,019
-166,081	190,691	-0,048	0,051
-165,066	238,568	-0,085	-0,100
-164,052	88,336	0,084	-0,066
-163,037	247,408	-0,043	0,051
-162,023	-132,541	-0,089	0,008
-161,008	73,865	0,034	-0,026
-159,993	-79,336	-0,115	0,027
-158,979	-200,000	0,002	-0,057
-157,964	-200,000	-0,001	-0,068
-156,950	-49,948	0,033	-0,011
-155,935	-140,946	0,330	0,024
-154,920	800,000	0,008	-0,019
-153,906	-69,335	-0,066	0,018
-152,891	388,672	0,042	0,062
-151,877	77,769	0,038	0,029
-150,862	197,414	0,038	-0,041
-149,847	59,146	-0,061	-0,042
-148,833	-99,697	-0,153	-0,027
-147,818	240,200	0,047	0,056
-146,804	-200,000	-0,020	0,085
-145,789	-200,000	0,015	-0,097
-144,775	-200,000	0,018	-0,079
-143,760	-32,639	0,166	0,065
-142,745	111,047	-0,118	-0,101
-141,731	-151,624	0,022	0,001
-140,716	-200,000	-0,035	0,115
-139,702	-200,000	-0,014	0,093
-138,687	699,471	0,030	0,056
-137,672	800,000	0,031	0,065
-136,658	-200,000	0,004	-0,071
-135,643	-81,576	0,073	0,017
-134,629	-60,203	0,021	-0,006
-133,614	-22,492	0,106	-0,045
-132,599	-117,280	-0,043	-0,005
-131,585	-162,291	0,123	-0,004
-130,570	-28,457	-0,148	0,060
-129,556	285,590	-0,136	-0,175
-128,541	-200,000	0,003	0,018
-127,526	-24,881	0,110	-0,046
-126,512	-199,202	-0,077	0,000
-125,497	-107,191	0,023	0,004
-124,483	-111,809	0,058	0,008
-123,468	-171,381	0,081	0,002
-122,453	-62,879	-0,056	-0,016
-121,439	-200,000	-0,040	-0,135
-120,424	-200,000	0,034	0,127
-119,410	181,844	0,064	-0,067
-118,395	226,543	-0,123	0,142
-117,380	177,116	0,132	-0,137
-116,366	193,781	-0,083	-0,089
-115,351	163,971	-0,032	-0,032
-114,337	546,359	-0,073	-0,124
-113,322	-200,000	-0,005	-0,107
-112,307	-134,327	-0,063	-0,005
-111,293	-200,000	-0,018	-0,123
-110,278	-200,000	0,001	-0,059
-109,264	-200,000	0,005	-0,047
-108,249	-200,000	0,010	0,077
-107,234	-200,000	0,009	0,074
-106,220	800,000	-0,033	-0,071
-105,205	-70,950	-0,145	0,038
-104,191	300,291	0,063	0,082
-103,176	9,410	0,032	0,017
-102,162	44,954	-0,029	0,019
-101,147	70,410	0,077	0,056
-100,132	761,320	-0,040	0,077
-99,118	-7,973	0,083	0,040
-98,103	325,632	-0,068	0,093
-97,089	424,234	0,065	0,100
-96,074	-200,000	0,014	0,122
-95,059	-200,000	-0,008	0,068
-94,045	26,127	-0,094	-0,056
-93,030	-200,000	0,002	-0,172
-92,016	-200,000	-0,021	-0,110
-91,001	-200,000	0,001	0,029
-89,986	-200,000	0,006	-0,065
-88,972	-27,278	0,073	0,030
-87,957	-200,000	0,017	-0,074
-86,943	-200,000	0,032	-0,139
-85,928	538,317	-0,032	-0,055
-84,913	765,803	-0,102	-0,198
-83,899	-8,804	0,063	0,030
-82,884	412,854	0,044	0,066
-81,870	53,075	0,137	0,093
-80,855	-82,901	-0,085	-0,019
-79,840	106,219	-0,117	0,098
-78,826	-74,548	-0,086	-0,022
-77,811	254,779	-0,051	-0,062
-76,797	94,899	0,097	-0,078
-75,782	-58,587	0,011	-0,003
-74,767	-33,334	0,024	-0,009
-73,753	162,233	-0,064	0,063
-72,738	-63,590	-0,122	0,035
-71,724	-200,000	-0,017	-0,137
-70,709	504,376	-0,013	-0,021
-69,694	107,085	-0,086	0,073
-68,680	-104,272	0,087	0,014
-67,665	800,000	-0,025	0,061
-66,651	54,828	-0,077	0,052
-65,636	-200,000	-0,003	-0,014
-64,622	800,000	-0,031	-0,075
-63,607	247,495	0,075	-0,089
-62,592	-200,000	0,012	-0,075
-61,578	209,359	0,075	-0,083
-60,563	-159,279	-0,148	0,006
-59,549	219,984	0,102	0,116
-58,534	-3,820	-1,757	-0,860
-57,519	366,121	-1,357	-1,943
-56,505	-200,000	-0,582	-4,662
-55,490	199,396	0,913	0,992
-54,476	800,000	4,904	11,417
-53,461	-200,000	19,634	326,403
-52,446	-200,000	746,175	2331,943
-51,432	564,000	1658,324	2853,750
-50,417	76,896	1670,982	1254,108
-49,403	20,651	1544,439	882,167
-48,388	14,575	1467,111	808,432
-47,373	18,189	1457,138	820,374
-46,359	16,559	1446,877	806,748
-45,344	12,911	1441,967	786,504
-44,330	12,794	1440,335	785,020
-43,315	12,812	1438,641	784,153
-42,300	12,810	1436,923	783,177
-41,286	12,859	1435,587	782,653
-40,271	12,782	1434,080	781,431
-39,257	12,806	1432,885	780,863
-38,242	12,809	1431,938	780,331
-37,227	12,866	1430,547	779,811
-36,213	12,837	1429,228	778,925
-35,198	12,808	1428,075	778,130
-34,184	12,860	1427,045	777,782
-33,169	12,801	1425,661	776,719
-32,154	12,873	1424,524	776,411
-31,140	12,866	1423,309	775,685
-30,125	12,919	1422,015	775,196
-29,111	12,859	1420,949	774,303
-28,096	12,861	1420,006	773,769
-27,082	12,820	1418,898	772,939
-26,067	12,819	1417,735	772,270
-25,052	12,798	1416,669	771,560
-24,038	12,784	1415,799	770,987
-23,023	12,787	1414,836	770,446
-22,009	12,755	1413,873	769,745
-20,994	12,779	1412,888	769,288
-19,979	12,756	1412,025	768,680
-18,965	12,746	1410,926	768,005
-17,950	12,723	1410,099	767,416
-16,936	12,682	1409,541	766,889
-15,921	12,707	1408,131	766,212
-14,906	12,708	1407,273	765,716
-13,892	12,722	1406,230	765,186
-12,877	12,670	1405,503	764,516
-11,863	12,684	1404,554	764,033
-10,848	12,676	1403,629	763,464
-9,833	12,617	1403,006	762,820
-8,819	12,612	1402,053	762,247
-7,804	12,589	1401,266	761,681
-6,790	12,578	1400,147	760,993
-5,775	12,580	1399,082	760,391
-4,760	12,617	1397,903	759,893
-3,746	12,563	1397,093	759,173
-2,731	12,584	1396,051	758,673
-1,717	12,559	1395,349	758,148
-0,702	12,520	1393,724	757,055
0,313	16,373	1309,362	729,065
1,327	32,658	701,352	428,033
2,342	50,589	122,518	81,840
3,356	0,433	16,680	8,398
4,371	23,102	3,118	1,805
5,386	-36,278	0,533	0,202
6,400	378,672	0,124	0,179
7,415	-79,197	-0,305	-0,073
8,429	93,054	-0,190	-0,152
9,444	47,267	-0,345	-0,227
10,459	-149,196	-0,273	0,015
11,473	125,131	-0,250	-0,222
12,488	59,595	-0,304	-0,211
13,502	-7,041	-0,330	-0,158
14,517	86,945	-0,215	-0,168
15,531	41,180	-0,314	-0,200
16,546	74,427	-0,346	-0,257
17,561	186,065	-0,310	-0,326
18,575	800,000	-0,123	-0,241
19,590	78,867	-0,257	-0,194
20,604	-38,966	-0,278	-0,103
21,619	104,728	-0,325	-0,270
22,634	-12,507	-0,535	-0,246
23,648	159,194	-0,304	-0,299
24,663	-3,991	-0,574	-0,280
25,677	4,833	-0,346	-0,179
26,692	225,699	-0,214	-0,246
27,707	140,101	-0,274	-0,255
28,721	116,303	-0,304	-0,263
29,736	-15,164	-0,465	-0,209
30,750	348,589	-0,304	-0,425
31,765	147,234	-0,394	-0,374
32,780	800,000	-0,153	-0,326
33,794	174,905	-0,319	-0,326
34,809	127,247	-0,441	-0,395
35,823	44,806	-0,401	-0,260
36,838	56,524	-0,357	-0,245
37,853	92,659	-0,367	-0,292
38,867	85,770	-0,423	-0,328
39,882	203,797	-0,258	-0,281
40,896	80,200	-0,348	-0,264
41,911	14,622	-0,258	-0,142
42,926	51,324	-0,275	-0,184
43,940	307,520	-0,299	-0,394
44,955	-18,585	-0,402	-0,176
45,969	53,538	-0,211	-0,143
46,984	218,657	-0,258	-0,290
47,999	122,030	-0,323	-0,284
49,013	201,500	-0,195	-0,212
50,028	75,802	-0,228	-0,170
51,042	86,410	-0,350	-0,271
52,057	166,941	-0,415	-0,415
53,071	134,788	-0,360	-0,329
54,086	242,751	-0,267	-0,316
55,101	104,996	-0,183	-0,152
56,115	35,760	-0,300	-0,185
57,130	-20,093	-0,389	-0,168
58,144	12,913	-0,425	-0,230
59,159	-47,343	-0,310	-0,106
60,174	135,320	-0,377	-0,345
61,188	81,910	-0,356	-0,271
62,203	7,373	-0,259	-0,136
63,217	-77,498	-0,360	-0,087
64,232	74,362	-0,377	-0,279
65,247	14,685	-0,413	-0,227
66,261	422,431	-0,255	-0,386
67,276	201,315	-0,323	-0,350
68,290	15,770	-0,365	-0,202
69,305	-21,569	-0,361	-0,154
70,320	119,480	-0,246	-0,214
71,334	74,178	-0,379	-0,279
72,349	-40,539	-0,499	-0,181
73,363	69,369	-0,275	-0,198
74,378	230,307	-0,218	-0,251
75,393	237,667	-0,234	-0,273
76,407	360,811	-0,173	-0,245
77,422	60,067	-0,333	-0,231
78,436	34,209	-0,267	-0,163
79,451	-13,638	-0,253	-0,115
80,466	28,887	-0,362	-0,215
81,480	29,378	-0,391	-0,233
82,495	-9,164	-0,434	-0,203
83,509	-54,280	-0,205	-0,065
84,524	52,295	-0,137	-0,092
85,539	25,482	-0,247	-0,144
86,553	-75,509	-0,326	-0,081
87,568	-27,788	-0,289	-0,117
88,582	195,725	-0,360	-0,384
89,597	-63,061	-0,242	-0,070
90,611	34,901	-0,356	-0,218
91,626	800,000	-0,120	-0,299
92,641	14,997	-0,309	-0,169
93,655	14,384	-0,239	-0,130
94,670	228,740	-0,207	-0,237
95,684	72,700	-0,384	-0,281
96,699	73,507	-0,404	-0,296
97,714	68,345	-0,234	-0,168
98,728	108,753	-0,172	-0,144
99,743	49,465	-0,272	-0,179
100,757	-45,018	-0,222	-0,077
101,772	182,636	-0,256	-0,265
102,787	77,500	-0,194	-0,144
103,801	177,114	-0,202	-0,207
104,816	203,513	-0,226	-0,245
105,830	-103,433	-0,363	-0,059
106,845	2,934	-0,386	-0,196
107,860	16,629	-0,282	-0,156
108,874	52,957	-0,282	-0,189
109,889	166,541	-0,313	-0,311
110,903	23,661	-0,137	-0,079
111,918	-1,988	-0,248	-0,122
112,933	-155,988	-0,258	-0,011
113,947	-9,487	-0,268	-0,125
114,962	-67,476	-0,175	-0,048
115,976	60,632	-0,252	-0,175
116,991	-39,367	-0,289	-0,106
118,006	295,369	-0,134	-0,172
119,020	160,009	-0,147	-0,144
120,035	61,287	-0,295	-0,205
121,049	33,039	-0,241	-0,146
122,064	-59,358	-0,418	-0,125
123,079	-26,762	-0,186	-0,076
124,093	143,442	-0,276	-0,258
125,108	58,715	-0,255	-0,175
126,122	31,594	-0,240	-0,144
127,137	269,849	-0,118	-0,145
128,151	-56,264	-0,253	-0,078
129,166	38,832	-0,270	-0,168
130,181	444,076	-0,146	-0,225
131,195	91,064	-0,259	-0,203
132,210	58,770	-0,301	-0,206
133,224	253,025	-0,240	-0,287
134,239	361,412	-0,146	-0,205
135,254	64,446	-0,264	-0,186
136,268	133,373	-0,211	-0,191
137,283	18,274	-0,348	-0,194
138,297	223,812	-0,187	-0,212
139,312	3,748	-0,233	-0,118
140,327	262,398	-0,209	-0,254
141,341	189,994	-0,243	-0,255
142,356	99,302	-0,246	-0,199
143,370	44,214	-0,182	-0,117
144,385	57,791	-0,328	-0,224
145,400	114,578	-0,254	-0,216
146,414	189,627	-0,274	-0,287
147,429	140,618	-0,304	-0,281
148,443	52,439	-0,253	-0,169
149,458	21,953	-0,151	-0,086
150,473	105,568	-0,211	-0,174
151,487	137,479	-0,208	-0,190
152,502	-28,859	-0,266	-0,106
153,516	228,799	-0,124	-0,142
154,531	169,900	-0,160	-0,160
155,546	148,379	-0,185	-0,175
156,560	59,102	-0,224	-0,154
157,575	-57,288	-0,335	-0,102
158,589	408,229	-0,145	-0,215
159,604	185,229	-0,133	-0,138
160,619	-35,550	-0,365	-0,138
161,633	27,518	-0,260	-0,152
162,648	775,734	-0,196	-0,374
163,662	82,653	-0,246	-0,187
164,677	2,278	-0,250	-0,126
165,692	-192,935	-0,294	0,002
166,706	285,964	-0,238	-0,300
167,721	38,435	-0,397	-0,246
168,735	26,968	-0,271	-0,158
169,750	-24,490	-0,282	-0,117
170,764	602,962	-0,138	-0,240
171,779	162,229	-0,186	-0,182
172,794	466,236	-0,184	-0,288
173,808	7,253	-0,252	-0,131
174,823	38,205	-0,228	-0,141
175,837	144,853	-0,187	-0,174
176,852	63,592	-0,211	-0,148
177,867	115,375	-0,229	-0,195
178,881	252,388	-0,194	-0,231
179,896	121,977	-0,246	-0,213
180,910	272,535	-0,107	-0,131
181,925	217,100	-0,269	-0,298
182,940	186,698	-0,169	-0,176
183,954	215,235	-0,237	-0,262
184,969	-100,169	-0,226	-0,039
185,983	800,000	-0,082	-0,199
186,998	790,825	-0,103	-0,197
188,013	-64,601	-0,237	-0,067
189,027	169,264	-0,258	-0,256
190,042	137,720	-0,255	-0,232
191,056	243,067	-0,181	-0,211
192,071	59,204	-0,230	-0,157
193,086	99,179	-0,256	-0,206
194,100	800,000	-0,039	-0,087
195,115	458,626	-0,208	-0,323
196,129	-22,597	-0,286	-0,120
197,144	113,258	-0,160	-0,135
198,159	141,431	-0,174	-0,161
199,173	446,329	-0,172	-0,264
200,188	-55,147	-0,047	-0,015
201,202	-125,607	-0,198	-0,021
202,217	-112,657	-0,221	-0,030
203,232	229,099	-0,240	-0,272
204,246	158,073	-0,216	-0,208
205,261	62,314	-0,128	-0,088
206,275	69,390	-0,186	-0,133
207,290	88,921	-0,315	-0,243
208,304	-100,280	-0,276	-0,047
209,319	800,000	-0,034	-0,081
210,334	-20,931	-0,338	-0,143
211,348	46,764	-0,177	-0,114
212,363	-44,162	-0,180	-0,062
213,377	86,964	-0,203	-0,155
214,392	-73,710	-0,269	-0,067
215,407	337,815	-0,153	-0,207
216,421	45,218	-0,180	-0,115
217,436	261,420	-0,149	-0,179
218,450	412,937	-0,186	-0,275
219,465	800,000	-0,155	-0,306
220,480	747,744	-0,150	-0,281
221,494	40,889	-0,243	-0,152
222,509	45,313	-0,201	-0,128
223,523	100,565	-0,206	-0,166
224,538	-38,965	-0,226	-0,082
225,553	181,311	-0,250	-0,255
226,567	329,282	-0,165	-0,221
227,582	15,974	-0,222	-0,121
228,596	-1,727	-0,261	-0,127
229,611	-200,000	-0,077	-0,290
230,626	800,000	-0,080	-0,194
231,640	58,051	-0,167	-0,113
232,655	197,621	-0,151	-0,160
233,669	-19,825	-0,191	-0,082
234,684	800,000	-0,076	-0,180
235,699	800,000	-0,094	-0,197
236,713	145,231	-0,218	-0,202
237,728	44,722	-0,149	-0,095
238,742	218,428	-0,225	-0,249
239,757	142,263	-0,238	-0,218
240,772	195,618	-0,137	-0,145
241,786	-61,216	-0,218	-0,063
242,801	-59,558	-0,197	-0,058
243,815	-38,036	-0,160	-0,059
244,830	124,786	-0,172	-0,150
245,844	14,422	-0,231	-0,125
246,859	180,818	-0,215	-0,219
247,874	127,301	-0,212	-0,186
248,888	86,870	-0,139	-0,107
249,903	-5,265	-0,152	-0,072
250,917	-93,473	-0,152	-0,029
251,932	43,888	-0,133	-0,084
252,947	-146,834	-0,156	0,009
253,961	-2,424	-0,263	-0,127
254,976	60,940	-0,299	-0,205
255,990	278,702	-0,163	-0,201
257,005	295,576	-0,094	-0,120
258,020	-24,258	-0,260	-0,107
259,034	199,996	-0,129	-0,137
260,049	258,876	-0,137	-0,164
261,063	393,352	-0,107	-0,154
262,078	47,374	-0,155	-0,100
263,093	75,986	-0,143	-0,104
264,107	498,625	-0,157	-0,251
265,122	-59,692	-0,230	-0,068
266,136	14,584	-0,288	-0,155
267,151	234,284	-0,178	-0,203
268,166	108,508	-0,200	-0,165
269,180	67,496	-0,226	-0,159
270,195	701,577	-0,143	-0,262
271,209	53,443	-0,223	-0,148
272,224	-85,009	-0,128	-0,027
273,239	596,667	-0,085	-0,145
274,253	48,920	-0,142	-0,092
275,268	285,862	-0,191	-0,238
276,282	71,931	-0,146	-0,105
277,297	-3,790	-0,174	-0,083
278,312	-6,941	-0,153	-0,071
279,326	366,485	-0,098	-0,137
280,341	107,200	-0,156	-0,128
281,355	4,226	-0,160	-0,081
282,370	800,000	-0,067	-0,148
283,384	-42,607	-0,275	-0,096
284,399	309,535	-0,148	-0,191
285,414	259,806	-0,184	-0,219
286,428	2,813	-0,159	-0,079
287,443	284,956	-0,080	-0,099
288,457	-5,793	-0,211	-0,099
289,472	-200,000	-0,077	-0,239
290,487	-120,802	-0,257	-0,030
291,501	-200,000	-0,025	-0,111
292,516	-31,280	-0,108	-0,042
293,530	205,119	-0,090	-0,097
294,545	31,947	-0,127	-0,075
295,560	178,564	-0,085	-0,086
296,574	112,703	-0,060	-0,050
297,589	-131,102	-0,073	0,007
298,603	85,085	-0,210	-0,159
299,618	-200,000	-0,032	-0,156
300,633	651,945	-0,070	-0,124
301,647	-200,000	-0,022	-0,196
302,662	800,000	-0,094	-0,230
303,676	12,627	-0,086	-0,046
304,691	-3,604	-0,237	-0,113
305,706	-129,009	-0,130	0,012
306,720	-99,456	-0,198	-0,034
307,735	179,199	-0,097	-0,098
308,749	101,265	-0,121	-0,097
309,764	800,000	-0,035	-0,078
310,779	210,233	-0,137	-0,148
311,793	215,749	-0,087	-0,095
312,808	34,083	-0,130	-0,078
313,822	463,631	-0,131	-0,203
314,837	-78,609	-0,170	-0,040
315,852	5,312	-0,063	0,032
316,866	322,298	-0,055	-0,072
317,881	15,259	-0,140	-0,075
318,895	85,555	-0,186	-0,141
319,910	-44,946	-0,138	-0,047
320,925	130,635	-0,165	-0,145
321,939	110,937	-0,119	-0,098
322,954	266,424	-0,067	-0,081
323,968	-52,770	-0,121	-0,038
324,983	143,354	-0,161	-0,148
325,997	800,000	-0,117	-0,267
327,012	-73,298	-0,166	-0,041
328,027	493,067	-0,170	-0,269
329,041	800,000	-0,054	-0,137
330,056	800,000	-0,034	0,086
331,070	-167,389	-0,106	-0,003
332,085	-91,358	-0,127	-0,025
333,100	-200,000	-0,028	-0,137
334,114	189,675	-0,212	-0,219
335,129	-33,811	-0,230	-0,087
336,143	141,818	-0,155	-0,141
337,158	-200,000	0,002	-0,055
338,173	402,970	-0,030	-0,044
339,187	-200,000	-0,060	-0,242
340,202	-200,000	-0,067	-0,203
341,216	-181,132	-0,222	0,003
342,231	639,853	-0,113	-0,198
343,246	-200,000	-0,077	-0,262
344,260	38,697	-0,060	-0,037
345,275	4,298	-0,063	-0,032
346,289	488,862	-0,090	-0,141
347,304	800,000	-0,073	-0,182
348,319	43,396	-0,176	-0,110
349,333	102,534	-0,213	-0,171
350,348	435,031	-0,124	-0,185
351,362	-37,743	-0,115	-0,042
352,377	395,783	-0,090	-0,129
353,392	800,000	-0,062	-0,168
354,406	431,088	-0,184	-0,274
355,421	209,123	1311,507	1409,890
356,435	160,936	1471,829	1410,367
