DTS Sentinel unit serial number:	SN410029Multiplexer serial number:	ORYXHardware model number:	OX2-SRSoftware version number:	ORYX F/W v4,00 Oryx Data Collector v3.7.2.0data status	okinstallation	B3 Nyhavnadifferential loss correction	single-endedforward channel	channel 1reverse channel	N/Adate	2023/12/04time	03:27:30forward acquisition time	300,00reverse acquisition time	0,00gamma	499,1914k internal	0,3205k external	0,3205temperature offset calibration	1,0000default loss term (dB/km)	0,3820temperature slope calibration	1,0000multiplexer offset coefficient	1,0000multiplexer slope coefficient	1,0000fibre end	0,00T internal ref (°C)	12,12T ext. ref 1 (°C)	-3,08T ext. ref 2 (°C)	-3,10length (m)	temperature (°C)	Stokes	anti-Stokes-744,400	800,000	-0,080	-0,252
-743,385	800,000	-0,118	0,252
-742,371	386,251	-0,105	-0,158
-741,356	-200,000	0,062	0,329
-740,342	800,000	-0,059	-0,142
-739,327	-200,000	-0,021	0,130
-738,312	145,257	-0,242	-0,236
-737,298	232,887	-0,012	0,014
-736,283	208,418	-0,265	-0,301
-735,269	-200,000	0,109	0,369
-734,254	-200,000	-0,062	-0,272
-733,239	-87,011	-0,216	0,047
-732,225	-200,000	0,032	-0,253
-731,210	-14,025	0,068	0,032
-730,196	800,000	-0,037	-0,107
-729,181	-200,000	-0,011	0,073
-728,167	-91,781	0,096	-0,020
-727,152	800,000	0,034	-0,078
-726,137	-200,000	0,006	-0,078
-725,123	-47,531	-0,151	-0,053
-724,108	-200,000	-0,111	-0,000
-723,094	145,492	-0,090	-0,087
-722,079	186,610	-0,143	-0,154
-721,064	-200,000	0,006	-0,039
-720,050	-200,000	-0,008	0,124
-719,035	387,679	-0,053	0,080
-718,021	40,338	0,045	-0,030
-717,006	-108,432	-0,144	0,022
-715,991	10,134	-0,097	-0,053
-714,977	68,897	0,031	-0,023
-713,962	800,000	0,017	-0,045
-712,948	515,102	0,020	0,035
-711,933	412,326	0,014	0,021
-710,918	212,423	-0,039	-0,044
-709,904	-6,548	-0,040	-0,019
-708,889	637,106	-0,047	-0,086
-707,875	214,520	-0,086	0,099
-706,860	800,000	0,043	0,088
-705,845	-68,272	0,120	0,034
-704,831	-200,000	-0,002	-0,042
-703,816	800,000	0,044	-0,091
-702,802	-200,000	-0,012	-0,126
-701,787	-200,000	-0,008	-0,106
-700,772	114,311	0,043	-0,038
-699,758	-37,989	-0,118	-0,045
-698,743	-159,334	0,046	-0,002
-697,729	422,365	-0,016	0,024
-696,714	-71,334	-0,068	-0,018
-695,699	-200,000	-0,005	-0,057
-694,685	78,618	0,030	-0,024
-693,670	195,791	0,037	0,041
-692,656	349,000	-0,042	-0,060
-691,641	-200,000	0,022	-0,101
-690,627	800,000	-0,042	0,085
-689,612	-200,000	-0,018	-0,094
-688,597	-200,000	-0,001	0,083
-687,583	-34,280	0,027	-0,011
-686,568	800,000	-0,047	-0,106
-685,554	-49,880	0,033	-0,011
-684,539	-200,000	-0,021	0,198
-683,524	428,296	-0,088	0,138
-682,510	-200,000	-0,005	0,046
-681,495	-137,219	-0,066	0,005
-680,481	260,199	0,013	0,016
-679,466	586,754	-0,061	-0,110
-678,451	137,045	0,026	-0,024
-677,437	-16,448	-0,071	-0,032
-676,422	-200,000	-0,013	0,043
-675,408	31,031	0,046	-0,028
-674,393	-28,072	0,114	-0,047
-673,378	-200,000	-0,008	-0,038
-672,364	247,417	-0,022	0,027
-671,349	125,419	-0,074	-0,068
-670,335	271,628	0,060	-0,077
-669,320	800,000	0,052	0,107
-668,305	800,000	-0,021	0,049
-667,291	-200,000	0,037	-0,125
-666,276	59,142	-0,164	0,117
-665,262	-89,435	-0,086	-0,018
-664,247	561,018	-0,042	-0,073
-663,232	-43,513	0,030	-0,011
-662,218	21,756	-0,007	-0,004
-661,203	137,606	0,073	0,070
-660,189	135,689	0,123	0,116
-659,174	-200,000	-0,023	-0,105
-658,159	-200,000	0,042	-0,144
-657,145	56,911	-0,029	0,021
-656,130	493,524	-0,085	0,142
-655,116	-200,000	-0,008	-0,092
-654,101	-200,000	0,011	-0,064
-653,086	800,000	-0,013	0,038
-652,072	52,798	-0,061	0,042
-651,057	-200,000	-0,020	0,115
-650,043	-200,000	-0,029	-0,192
-649,028	-7,589	-0,068	-0,033
-648,014	-105,090	0,130	-0,021
-646,999	-10,168	0,016	0,008
-645,984	-35,540	-0,072	0,028
-644,970	-45,122	-0,122	0,044
-643,955	205,705	0,111	-0,125
-642,941	-23,005	0,138	-0,060
-641,926	800,000	-0,042	-0,111
-640,911	323,254	0,045	0,063
-639,897	800,000	-0,035	0,075
-638,882	4,925	-0,020	0,011
-637,868	-55,986	-0,097	-0,031
-636,853	662,044	-0,099	-0,186
-635,838	-200,000	-0,001	-0,022
-634,824	-64,525	0,023	0,007
-633,809	459,656	-0,017	-0,028
-632,795	174,977	0,053	0,056
-631,780	-95,103	0,091	0,018
-630,765	102,878	0,015	0,013
-629,751	800,000	-0,060	-0,157
-628,736	56,896	-0,134	-0,095
-627,722	-10,725	0,134	-0,064
-626,707	30,699	-0,051	-0,031
-625,692	-200,000	-0,025	0,086
-624,678	800,000	0,026	-0,079
-623,663	-200,000	-0,002	-0,150
-622,649	282,035	-0,055	-0,071
-621,634	-16,984	-0,169	-0,077
-620,619	-200,000	-0,037	-0,169
-619,605	66,747	0,119	0,088
-618,590	-16,115	0,090	0,041
-617,576	-200,000	0,011	0,057
-616,561	-153,289	-0,151	-0,007
-615,546	-63,785	0,068	0,020
-614,532	-200,000	0,036	-0,160
-613,517	407,463	0,061	0,093
-612,503	-200,000	0,004	-0,137
-611,488	77,879	0,146	0,112
-610,474	100,961	-0,141	0,119
-609,459	-75,176	0,112	-0,029
-608,444	-68,501	-0,121	0,034
-607,430	23,834	0,104	-0,062
-606,415	-50,866	0,060	0,020
-605,401	-200,000	0,013	0,046
-604,386	-8,384	-0,137	-0,067
-603,371	-200,000	-0,008	0,164
-602,357	-200,000	0,012	0,134
-601,342	-200,000	-0,039	-0,220
-600,328	-200,000	-0,024	-0,158
-599,313	68,144	-0,019	-0,014
-598,298	4,728	0,022	-0,012
-597,284	430,772	0,032	0,051
-596,269	-200,000	0,025	0,173
-595,255	-200,000	0,030	-0,098
-594,240	-24,304	-0,125	-0,054
-593,225	-99,097	-0,036	0,007
-592,211	-200,000	0,009	-0,132
-591,196	275,180	-0,060	-0,077
-590,182	417,150	0,067	0,103
-589,167	-163,901	0,078	-0,003
-588,152	-21,888	-0,155	0,068
-587,138	-142,875	0,054	-0,004
-586,123	-200,000	-0,003	-0,011
-585,109	800,000	-0,039	-0,117
-584,094	-33,053	0,061	0,024
-583,079	-87,208	-0,076	-0,017
-582,065	646,758	0,072	0,134
-581,050	61,584	-0,102	0,073
-580,036	307,685	-0,028	0,038
-579,021	-40,453	-0,108	-0,040
-578,006	-200,000	0,000	0,009
-576,992	205,999	-0,093	0,104
-575,977	24,562	0,021	0,012
-574,963	432,290	0,068	0,107
-573,948	77,425	0,127	0,097
-572,934	-200,000	0,002	0,065
-571,919	515,683	-0,057	-0,097
-570,904	800,000	0,057	-0,136
-569,890	45,009	-0,091	-0,060
-568,875	-1,026	0,046	-0,023
-567,861	-106,777	-0,044	0,007
-566,846	800,000	-0,026	0,058
-565,831	-200,000	-0,006	0,035
-564,817	-200,000	0,026	-0,194
-563,802	-78,472	-0,105	-0,026
-562,788	161,959	-0,118	-0,120
-561,773	-101,816	0,033	0,006
-560,758	633,128	0,022	-0,041
-559,744	800,000	-0,067	-0,162
-558,729	-200,000	-0,017	-0,077
-557,715	345,092	0,046	0,065
-556,700	800,000	0,033	-0,068
-555,685	-183,977	-0,034	0,000
-554,671	-83,087	0,095	0,022
-553,656	508,848	0,044	-0,073
-552,642	-150,420	-0,107	-0,006
-551,627	47,331	-0,053	-0,036
-550,612	-24,040	-0,111	-0,048
-549,598	-200,000	-0,003	0,115
-548,583	57,775	0,035	0,025
-547,569	66,572	-0,095	0,070
-546,554	387,150	-0,054	0,081
-545,539	-27,293	0,155	0,065
-544,525	352,596	-0,020	-0,028
-543,510	-42,240	0,107	-0,039
-542,496	-89,813	-0,121	-0,025
-541,481	41,609	-0,150	-0,098
-540,466	373,352	-0,017	-0,025
-539,452	80,807	0,039	-0,031
-538,437	-200,000	0,027	0,113
-537,423	15,345	-0,076	0,043
-536,408	-200,000	0,018	-0,079
-535,393	103,962	-0,098	-0,083
-534,379	-118,711	-0,066	0,008
-533,364	800,000	0,046	0,117
-532,350	239,043	0,053	-0,064
-531,335	-200,000	0,012	-0,039
-530,321	516,022	-0,058	0,098
-529,306	520,486	-0,083	0,140
-528,291	-103,052	-0,117	-0,020
-527,277	800,000	0,044	0,109
-526,262	530,853	0,048	0,083
-525,248	-74,585	-0,141	0,036
-524,233	-58,111	0,084	0,026
-523,218	-176,701	-0,152	-0,003
-522,204	19,147	0,024	-0,014
-521,189	-51,809	-0,151	0,050
-520,175	-200,000	0,007	-0,064
-519,160	319,231	0,051	-0,070
-518,145	412,536	-0,071	0,110
-517,131	800,000	0,050	0,128
-516,116	-114,443	0,070	0,010
-515,102	800,000	0,043	-0,094
-514,087	-83,821	0,063	-0,014
-513,072	363,892	0,017	0,025
-512,058	-200,000	0,023	-0,103
-511,043	800,000	-0,026	-0,077
-510,029	325,925	-0,021	0,029
-509,014	-200,000	-0,006	0,054
-507,999	-6,848	-0,039	-0,019
-506,985	800,000	0,038	-0,122
-505,970	62,193	-0,053	0,038
-504,956	338,886	-0,029	0,041
-503,941	800,000	0,049	0,112
-502,926	-200,000	0,009	0,080
-501,912	-200,000	0,031	0,116
-500,897	-7,786	0,066	-0,032
-499,883	800,000	-0,090	-0,192
-498,868	77,862	0,058	-0,044
-497,853	1,522	0,140	-0,072
-496,839	-200,000	-0,002	-0,165
-495,824	-141,947	0,064	0,005
-494,810	-112,787	0,074	-0,010
-493,795	-6,953	0,099	0,048
-492,781	-8,858	-0,057	0,027
-491,766	174,480	-0,082	-0,085
-490,751	159,870	0,035	0,035
-489,737	-200,000	0,011	0,146
-488,722	800,000	0,008	0,020
-487,708	34,135	0,085	-0,053
-486,693	-21,692	-0,062	0,027
-485,678	685,355	-0,048	-0,090
-484,664	-200,000	0,008	-0,182
-483,649	-200,000	-0,006	-0,078
-482,635	2,323	0,043	0,022
-481,620	-130,600	0,127	-0,012
-480,605	742,733	-0,042	0,082
-479,591	-200,000	0,007	0,104
-478,576	-200,000	0,023	0,088
-477,562	-87,364	-0,120	0,026
-476,547	36,757	0,037	0,023
-475,532	99,454	-0,064	-0,053
-474,518	516,530	0,020	0,033
-473,503	145,140	-0,014	-0,013
-472,489	-200,000	0,001	0,106
-471,474	42,626	0,087	-0,057
-470,459	-200,000	-0,042	-0,149
-469,445	109,422	-0,077	0,066
-468,430	-57,461	0,025	0,008
-467,416	763,952	0,050	0,099
-466,401	800,000	0,060	0,145
-465,386	-200,000	0,033	0,150
-464,372	-200,000	-0,006	-0,026
-463,357	181,302	0,041	0,043
-462,343	137,865	-0,090	-0,085
-461,328	-200,000	0,021	-0,121
-460,313	-171,494	-0,089	-0,002
-459,299	-31,588	0,062	-0,025
-458,284	-42,686	-0,217	0,079
-457,270	800,000	-0,045	0,092
-456,255	800,000	0,020	-0,045
-455,241	-200,000	-0,015	0,081
-454,226	-66,143	-0,121	0,034
-453,211	-182,763	-0,087	0,001
-452,197	-61,537	-0,080	-0,024
-451,182	570,413	-0,084	0,147
-450,168	-45,572	-0,023	-0,008
-449,153	23,477	0,057	-0,034
-448,138	237,483	-0,119	-0,142
-447,124	800,000	0,019	-0,041
-446,109	22,576	0,090	0,053
-445,095	800,000	0,035	0,100
-444,080	-146,885	0,084	-0,005
-443,065	-200,000	0,014	-0,083
-442,051	800,000	-0,032	-0,093
-441,036	800,000	-0,058	-0,130
-440,022	-200,000	0,014	-0,168
-439,007	800,000	-0,005	-0,013
-437,992	10,800	0,006	0,004
-436,978	-183,971	0,100	-0,001
-435,963	800,000	0,026	-0,078
-434,949	-18,649	-0,114	-0,051
-433,934	245,502	0,088	-0,107
-432,919	-199,254	-0,112	-0,000
-431,905	168,276	-0,108	0,110
-430,890	82,921	0,146	-0,114
-429,876	-1,432	0,033	-0,017
-428,861	160,905	0,105	0,105
-427,846	-170,693	-0,052	0,001
-426,832	-96,019	-0,075	-0,014
-425,817	761,082	-0,007	-0,014
-424,803	-64,365	-0,057	0,017
-423,788	82,692	0,086	0,067
-422,773	-79,089	0,091	0,022
-421,759	49,822	-0,049	-0,033
-420,744	-200,000	-0,004	-0,078
-419,730	800,000	0,043	-0,086
-418,715	800,000	-0,073	-0,185
-417,701	800,000	0,011	-0,028
-416,686	-84,817	-0,072	-0,016
-415,671	800,000	-0,068	0,157
-414,657	-17,253	-0,203	0,091
-413,642	800,000	0,081	0,195
-412,628	-200,000	-0,003	0,124
-411,613	-200,000	-0,002	-0,042
-410,598	-36,534	-0,119	0,046
-409,584	-200,000	-0,003	-0,076
-408,569	-200,000	-0,020	0,076
-407,555	-200,000	-0,018	0,143
-406,540	52,721	-0,039	0,027
-405,525	-156,064	0,186	0,008
-404,511	-42,179	-0,045	0,016
-403,496	-200,000	0,008	-0,064
-402,482	-200,000	-0,008	0,028
-401,467	-7,831	0,071	0,034
-400,452	-32,265	0,207	0,083
-399,438	454,793	0,032	-0,051
-398,423	800,000	0,073	0,148
-397,409	-200,000	-0,033	-0,169
-396,394	406,605	0,010	0,016
-395,379	-200,000	-0,014	-0,085
-394,365	441,430	0,044	0,069
-393,350	349,787	0,118	0,168
-392,336	-33,625	0,038	-0,015
-391,321	-18,994	-0,048	-0,021
-390,306	-200,000	0,003	-0,081
-389,292	-24,364	0,073	0,031
-388,277	800,000	0,035	0,108
-387,263	-106,247	-0,070	-0,011
-386,248	328,730	-0,024	0,033
-385,233	217,205	0,055	0,063
-384,219	448,086	-0,067	-0,106
-383,204	-200,000	0,009	-0,144
-382,190	-70,659	-0,110	-0,030
-381,175	-104,968	-0,053	-0,009
-380,160	441,559	0,038	-0,059
-379,146	-200,000	0,019	0,093
-378,131	-104,760	0,027	0,004
-377,117	148,481	-0,046	-0,045
-376,102	364,950	0,060	-0,087
-375,088	579,698	0,051	0,090
-374,073	122,960	-0,036	-0,033
-373,058	294,090	0,109	0,142
-372,044	-152,364	0,113	-0,006
-371,029	-200,000	0,029	0,100
-370,015	-111,814	-0,090	-0,013
-369,000	-200,000	-0,005	-0,099
-367,985	-200,000	0,004	-0,022
-366,971	-91,423	-0,085	-0,017
-365,956	-80,967	-0,040	0,010
-364,942	-124,629	0,074	-0,008
-363,927	191,496	0,076	0,082
-362,912	227,662	0,059	0,069
-361,898	-200,000	-0,025	-0,165
-360,883	-200,000	0,045	-0,184
-359,869	16,013	-0,133	-0,075
-358,854	-3,804	0,136	0,068
-357,839	31,833	0,085	-0,052
-356,825	-200,000	0,018	-0,130
-355,810	800,000	-0,048	-0,098
-354,796	413,342	0,074	-0,112
-353,781	800,000	-0,071	-0,184
-352,766	-16,509	0,092	-0,041
-351,752	-200,000	-0,023	0,091
-350,737	166,996	0,044	-0,044
-349,723	-200,000	0,010	0,034
-348,708	-10,372	0,162	0,076
-347,693	96,049	-0,055	-0,045
-346,679	599,144	-0,030	0,054
-345,664	53,826	0,046	0,032
-344,650	-118,681	0,100	0,012
-343,635	800,000	0,070	0,166
-342,620	-200,000	-0,050	0,176
-341,606	-41,348	0,132	0,048
-340,591	-95,502	-0,088	-0,017
-339,577	800,000	-0,060	0,146
-338,562	800,000	-0,050	-0,159
-337,548	265,498	0,006	-0,007
-336,533	-200,000	0,025	0,125
-335,518	316,860	0,016	-0,022
-334,504	-112,518	0,079	0,011
-333,489	156,431	-0,127	-0,125
-332,475	-200,000	0,034	-0,253
-331,460	-16,642	-0,024	-0,011
-330,445	3,677	-0,033	0,017
-329,431	-17,710	0,089	-0,040
-328,416	-130,504	0,041	-0,004
-327,402	-200,000	0,001	-0,025
-326,387	800,000	0,028	-0,059
-325,372	-200,000	0,012	-0,109
-324,358	380,866	-0,013	0,019
-323,343	363,105	0,040	0,057
-322,329	-200,000	0,041	0,143
-321,314	-200,000	-0,011	-0,054
-320,299	-29,203	0,153	0,062
-319,285	-194,492	0,120	0,001
-318,270	251,242	0,015	0,019
-317,256	-69,544	-0,075	-0,020
-316,241	-0,589	-0,065	0,033
-315,226	-165,517	0,078	0,002
-314,212	100,381	0,074	0,062
-313,197	-123,444	0,031	-0,003
-312,183	-71,693	-0,078	-0,021
-311,168	-30,277	-0,039	-0,016
-310,153	-48,890	0,127	-0,043
-309,139	800,000	-0,021	-0,053
-308,124	-200,000	-0,015	0,140
-307,110	672,734	0,047	0,088
-306,095	800,000	0,021	0,060
-305,080	-129,150	-0,092	-0,009
-304,066	-200,000	-0,036	-0,126
-303,051	-200,000	0,016	-0,123
-302,037	157,688	-0,039	-0,039
-301,022	800,000	0,031	0,069
-300,008	-200,000	-0,002	0,120
-298,993	-0,605	-0,075	0,038
-297,978	218,735	-0,066	0,076
-296,964	-200,000	0,017	-0,058
-295,949	146,503	-0,073	0,070
-294,935	-12,568	-0,117	-0,054
-293,920	-103,014	0,099	-0,017
-292,905	-68,477	-0,075	0,021
-291,891	-92,140	0,049	-0,010
-290,876	-74,350	-0,105	-0,027
-289,862	-200,000	-0,043	0,187
-288,847	344,660	0,041	-0,057
-287,832	59,139	-0,097	-0,068
-286,818	-37,319	-0,075	0,028
-285,803	-5,363	0,112	-0,055
-284,789	406,942	0,008	-0,012
-283,774	93,826	-0,039	0,032
-282,759	34,142	-0,094	0,059
-281,745	51,698	0,074	-0,050
-280,730	-200,000	-0,032	0,113
-279,716	-83,815	0,162	0,037
-278,701	-200,000	0,011	0,103
-277,686	-72,939	0,045	0,012
-276,672	-200,000	-0,011	0,095
-275,657	66,245	0,140	0,101
-274,643	-30,723	-0,162	0,065
-273,628	353,250	0,041	-0,059
-272,613	-15,090	-0,006	0,003
-271,599	609,556	-0,030	-0,053
-270,584	649,801	0,070	0,129
-269,570	-47,703	-0,037	0,013
-268,555	-13,298	-0,034	0,016
-267,540	391,214	0,033	0,049
-266,526	-66,158	-0,136	-0,038
-265,511	61,057	0,070	-0,050
-264,497	-112,147	0,110	0,016
-263,482	263,833	0,099	0,123
-262,467	-200,000	0,003	0,094
-261,453	800,000	0,023	-0,045
-260,438	-60,941	0,066	-0,020
-259,424	-157,617	-0,015	0,001
-258,409	127,340	0,011	-0,010
-257,395	-27,646	0,120	-0,049
-256,380	-4,330	0,134	-0,066
-255,365	384,792	0,057	0,084
-254,351	-84,584	0,144	0,032
-253,336	394,852	-0,032	-0,048
-252,322	-36,719	-0,097	-0,037
-251,307	125,416	-0,028	0,025
-250,292	58,966	0,148	0,103
-249,278	-127,731	-0,107	0,011
-248,263	-200,000	0,013	0,074
-247,249	-137,769	-0,031	0,002
-246,234	433,034	-0,031	-0,048
-245,219	98,172	-0,111	-0,091
-244,205	-10,125	-0,057	0,027
-243,190	-200,000	-0,025	0,159
-242,176	-69,864	0,143	0,039
-241,161	-200,000	-0,035	0,156
-240,146	-126,942	0,122	-0,013
-239,132	-200,000	0,002	-0,078
-238,117	136,144	-0,110	-0,102
-237,103	267,014	-0,055	-0,069
-236,088	-8,887	0,078	-0,037
-235,073	262,028	0,069	-0,085
-234,059	-54,346	0,111	0,036
-233,044	-200,000	0,009	0,032
-232,030	209,567	0,071	-0,080
-231,015	105,209	-0,058	0,049
-230,000	426,013	0,027	0,041
-228,986	784,996	-0,035	0,068
-227,971	-98,678	-0,088	-0,016
-226,957	-200,000	-0,008	0,091
-225,942	800,000	-0,067	0,188
-224,927	-200,000	-0,013	0,067
-223,913	230,760	-0,071	-0,083
-222,898	0,895	0,102	-0,052
-221,884	-32,767	-0,087	0,034
-220,869	55,719	0,063	0,043
-219,855	-110,946	-0,134	0,019
-218,840	153,963	0,165	0,161
-217,825	96,832	-0,043	0,035
-216,811	-200,000	0,016	-0,147
-215,796	799,834	-0,045	0,088
-214,782	-133,585	0,075	-0,007
-213,767	144,508	-0,032	0,030
-212,752	586,404	0,036	0,063
-211,738	-200,000	0,006	0,227
-210,723	-200,000	-0,004	-0,017
-209,709	326,441	-0,050	0,069
-208,694	128,934	-0,104	-0,094
-207,679	147,138	-0,084	-0,080
-206,665	-116,250	0,049	-0,006
-205,650	-76,299	0,142	-0,035
-204,636	-141,165	-0,054	0,004
-203,621	-200,000	-0,045	0,154
-202,606	-174,879	-0,074	-0,001
-201,592	-200,000	-0,006	0,051
-200,577	209,036	-0,033	0,037
-199,563	-157,306	-0,035	-0,001
-198,548	-21,944	-0,084	-0,036
-197,533	200,079	-0,053	0,058
-196,519	-200,000	-0,029	0,097
-195,504	-200,000	-0,019	-0,185
-194,490	-4,389	0,140	-0,069
-193,475	411,073	0,064	-0,098
-192,460	-104,564	0,069	-0,011
-191,446	-79,500	0,192	-0,046
-190,431	217,560	-0,046	-0,052
-189,417	52,871	0,047	0,032
-188,402	71,703	-0,149	0,110
-187,387	-136,804	0,075	-0,006
-186,373	305,247	-0,063	-0,083
-185,358	-66,772	-0,025	0,007
-184,344	-200,000	0,015	-0,060
-183,329	234,481	-0,081	-0,095
-182,315	-114,708	0,048	-0,007
-181,300	20,997	0,092	0,053
-180,285	45,314	-0,088	0,058
-179,271	-200,000	-0,017	-0,168
-178,256	74,993	0,016	-0,012
-177,242	-92,094	-0,158	-0,031
-176,227	800,000	-0,031	-0,075
-175,212	-144,350	0,119	-0,008
-174,198	93,490	0,064	-0,052
-173,183	528,800	-0,013	-0,022
-172,169	298,747	-0,046	-0,060
-171,154	11,330	0,097	-0,053
-170,139	141,833	0,080	0,075
-169,125	800,000	0,042	0,125
-168,110	-200,000	-0,015	0,082
-167,096	97,391	0,027	-0,022
-166,081	-171,495	-0,081	-0,002
-165,066	-169,847	-0,060	-0,001
-164,052	-4,679	-0,118	-0,058
-163,037	-200,000	0,003	-0,060
-162,023	358,039	-0,099	-0,141
-161,008	612,214	-0,065	0,115
-159,993	-200,000	-0,003	0,078
-158,979	-75,132	0,069	-0,017
-157,964	800,000	0,020	-0,052
-156,950	-200,000	0,003	0,026
-155,935	424,499	0,038	0,058
-154,920	34,792	0,018	0,011
-153,906	268,172	0,043	-0,053
-152,891	390,781	0,068	0,101
-151,877	-81,057	0,060	-0,014
-150,862	35,883	-0,108	-0,067
-149,847	-200,000	-0,006	-0,071
-148,833	5,439	-0,060	0,031
-147,818	-66,871	-0,027	0,008
-146,804	800,000	-0,003	0,008
-145,789	429,772	-0,059	0,091
-144,775	-200,000	0,023	-0,083
-143,760	800,000	-0,073	-0,194
-142,745	-200,000	0,021	-0,078
-141,731	-133,946	-0,092	-0,008
-140,716	-200,000	0,035	0,113
-139,702	92,305	0,097	0,078
-138,687	298,623	0,041	0,054
-137,672	196,870	-0,058	-0,062
-136,658	-66,567	-0,051	-0,014
-135,643	-200,000	-0,004	-0,093
-134,629	361,362	-0,059	-0,084
-133,614	-136,188	0,163	0,013
-132,599	800,000	0,025	-0,071
-131,585	130,993	-0,020	-0,018
-130,570	259,885	0,066	0,082
-129,556	244,648	-0,137	-0,163
-128,541	483,139	-0,065	-0,105
-127,526	-200,000	-0,002	-0,101
-126,512	800,000	-0,020	0,041
-125,497	350,822	0,035	0,049
-124,483	-51,619	-0,097	0,032
-123,468	-15,109	0,103	-0,047
-122,453	-53,683	0,072	-0,023
-121,439	-200,000	0,016	0,077
-120,424	-118,090	-0,097	-0,012
-119,410	223,822	0,043	-0,049
-118,395	191,564	0,097	0,104
-117,380	-200,000	-0,013	0,079
-116,366	-200,000	0,005	0,090
-115,351	800,000	0,022	-0,045
-114,337	800,000	-0,007	0,017
-113,322	19,056	-0,046	0,026
-112,307	-200,000	0,003	-0,081
-111,293	-45,520	-0,139	0,049
-110,278	800,000	0,011	0,031
-109,264	139,906	-0,073	0,068
-108,249	330,901	-0,037	0,051
-107,234	800,000	-0,028	-0,082
-106,220	-200,000	0,035	-0,126
-105,205	-41,259	0,247	0,090
-104,191	800,000	-0,089	0,196
-103,176	-186,534	0,162	0,002
-102,162	-31,802	-0,104	0,041
-101,147	330,010	-0,060	0,083
-100,132	-200,000	0,030	-0,178
-99,118	423,737	-0,082	0,125
-98,103	97,166	0,059	0,048
-97,089	-81,475	0,062	0,014
-96,074	61,080	-0,026	-0,019
-95,059	91,638	-0,112	-0,089
-94,045	91,268	-0,183	-0,145
-93,030	335,960	-0,083	0,114
-92,016	-200,000	-0,015	-0,147
-91,001	249,129	-0,049	-0,059
-89,986	800,000	0,039	0,079
-88,972	800,000	0,036	0,085
-87,957	28,188	0,052	-0,031
-86,943	-200,000	0,018	-0,098
-85,928	26,949	-0,070	-0,041
-84,913	85,592	0,029	-0,023
-83,899	-200,000	-0,002	-0,127
-82,884	632,871	0,047	-0,086
-81,870	-45,588	0,079	-0,028
-80,855	156,225	-0,049	0,048
-79,840	-200,000	-0,010	0,135
-78,826	800,000	0,021	0,058
-77,811	465,199	-0,026	0,041
-76,797	800,000	-0,031	-0,084
-75,782	745,251	0,017	-0,033
-74,767	-200,000	-0,020	0,063
-73,753	-119,099	-0,050	-0,006
-72,738	-4,231	0,056	-0,027
-71,724	-79,958	0,035	0,008
-70,709	283,975	-0,022	-0,028
-69,694	800,000	0,056	0,124
-68,680	266,998	-0,111	0,138
-67,665	-102,643	0,099	0,017
-66,651	-200,000	0,020	0,111
-65,636	-5,527	0,030	0,014
-64,622	-26,096	-0,066	0,028
-63,607	-200,000	-0,031	-0,158
-62,592	-13,249	-0,119	-0,054
-61,578	-43,365	0,108	-0,039
-60,563	800,000	-0,042	-0,111
-59,549	-153,515	0,095	0,005
-58,534	4,186	-1,787	-0,922
-57,519	397,169	-1,384	-2,052
-56,505	-200,000	-0,563	-4,616
-55,490	407,102	1,041	1,560
-54,476	800,000	4,983	11,155
-53,461	-200,000	20,210	323,930
-52,446	800,000	752,762	2311,528
-51,432	547,944	1663,642	2827,256
-50,417	74,912	1671,871	1243,532
-49,403	19,969	1544,850	878,157
-48,388	13,969	1467,390	804,929
-47,373	18,376	1457,604	820,823
-46,359	16,352	1446,834	805,031
-45,344	12,240	1442,685	782,994
-44,330	12,168	1440,474	781,418
-43,315	12,157	1438,825	780,437
-42,300	12,158	1437,216	779,542
-41,286	12,184	1435,973	778,959
-40,271	12,131	1434,818	778,051
-39,257	12,181	1433,110	777,329
-38,242	12,195	1431,984	776,757
-37,227	12,201	1430,869	776,146
-36,213	12,202	1429,755	775,515
-35,198	12,224	1428,497	774,909
-34,184	12,231	1427,571	774,410
-33,169	12,178	1426,181	773,371
-32,154	12,248	1425,109	773,091
-31,140	12,213	1423,688	772,125
-30,125	12,208	1422,798	771,588
-29,111	12,230	1421,735	771,084
-28,096	12,247	1420,358	770,386
-27,082	12,203	1419,236	769,542
-26,067	12,146	1418,324	768,749
-25,052	12,137	1417,229	768,083
-24,038	12,182	1415,917	767,551
-23,023	12,114	1415,387	766,915
-22,009	12,151	1414,217	766,422
-20,994	12,142	1413,103	765,748
-19,979	12,111	1412,403	765,191
-18,965	12,133	1411,341	764,690
-17,950	12,066	1410,527	763,902
-16,936	12,100	1409,679	763,572
-15,921	12,049	1408,549	762,692
-14,906	12,085	1407,717	762,378
-13,892	12,043	1406,863	761,691
-12,877	12,088	1405,907	761,352
-11,863	12,073	1404,952	760,735
-10,848	12,029	1403,869	759,916
-9,833	11,981	1403,288	759,346
-8,819	11,975	1402,443	758,829
-7,804	11,925	1401,671	758,148
-6,790	11,953	1400,226	757,466
-5,775	11,946	1399,346	756,929
-4,760	12,010	1398,175	756,563
-3,746	11,942	1397,460	755,829
-2,731	11,965	1396,668	755,480
-1,717	11,967	1395,713	754,941
-0,702	11,959	1393,997	753,949
0,313	16,053	1308,793	726,726
1,327	32,734	699,430	426,663
2,342	50,594	121,851	81,326
3,356	0,541	16,710	8,412
4,371	3,250	3,260	1,671
5,386	6,045	0,648	0,338
6,400	-200,000	0,108	0,347
7,415	63,080	-0,147	-0,104
8,429	3,797	-0,310	-0,160
9,444	93,853	-0,292	-0,234
10,459	336,095	-0,212	-0,291
11,473	181,392	-0,203	-0,211
12,488	126,504	-0,276	-0,247
13,502	83,886	-0,311	-0,239
14,517	-170,610	-0,254	-0,006
15,531	161,208	-0,339	-0,335
16,546	72,559	-0,324	-0,239
17,561	313,089	-0,270	-0,359
18,575	52,999	-0,170	-0,114
19,590	99,615	-0,296	-0,242
20,604	-50,237	-0,260	-0,086
21,619	273,512	-0,397	-0,496
22,634	107,495	-0,526	-0,441
23,648	299,901	-0,342	-0,446
24,663	36,443	-0,448	-0,278
25,677	-32,540	-0,298	-0,116
26,692	96,574	-0,407	-0,328
27,707	225,219	-0,331	-0,378
28,721	288,321	-0,346	-0,443
29,736	7,708	-0,448	-0,236
30,750	115,925	-0,405	-0,349
31,765	-73,296	-0,353	-0,090
32,780	149,292	-0,363	-0,346
33,794	35,413	-0,379	-0,234
34,809	14,141	-0,415	-0,227
35,823	422,629	-0,273	-0,414
36,838	131,246	-0,351	-0,318
37,853	56,326	-0,289	-0,198
38,867	54,014	-0,490	-0,332
39,882	45,732	-0,368	-0,239
40,896	185,823	-0,273	-0,286
41,911	77,043	-0,239	-0,179
42,926	273,668	-0,241	-0,300
43,940	107,534	-0,282	-0,236
44,955	107,160	-0,352	-0,294
45,969	-11,373	-0,451	-0,208
46,984	-89,045	-0,412	-0,085
47,999	119,277	-0,297	-0,259
49,013	42,634	-0,320	-0,205
50,028	-175,308	-0,262	-0,005
51,042	-15,567	-0,355	-0,159
52,057	16,111	-0,348	-0,193
53,071	276,928	-0,235	-0,295
54,086	43,709	-0,352	-0,226
55,101	89,796	-0,267	-0,209
56,115	234,930	-0,263	-0,306
57,130	125,095	-0,407	-0,361
58,144	48,868	-0,386	-0,254
59,159	22,983	-0,300	-0,172
60,174	74,842	-0,352	-0,260
61,188	-22,675	-0,358	-0,151
62,203	68,546	-0,358	-0,258
63,217	36,693	-0,395	-0,244
64,232	14,492	-0,341	-0,186
65,247	-10,285	-0,350	-0,162
66,261	56,036	-0,286	-0,195
67,276	-64,115	-0,510	-0,145
68,290	367,222	-0,177	-0,251
69,305	237,871	-0,315	-0,368
70,320	-19,935	-0,409	-0,177
71,334	94,853	-0,409	-0,327
72,349	125,675	-0,255	-0,226
73,363	-2,312	-0,349	-0,171
74,378	6,200	-0,407	-0,211
75,393	150,988	-0,217	-0,207
76,407	75,148	-0,243	-0,180
77,422	-15,245	-0,404	-0,181
78,436	-29,864	-0,213	-0,085
79,451	28,045	-0,303	-0,179
80,466	-77,661	-0,246	-0,059
81,480	438,544	-0,205	-0,315
82,495	71,227	-0,427	-0,311
83,509	455,995	-0,169	-0,263
84,524	-1,603	-0,246	-0,121
85,539	-60,002	-0,170	-0,051
86,553	-68,142	-0,133	-0,036
87,568	166,963	-0,254	-0,253
88,582	-78,523	-0,252	-0,060
89,597	336,772	-0,183	-0,250
90,611	54,687	-0,271	-0,183
91,626	-4,069	-0,373	-0,181
92,641	18,676	-0,398	-0,223
93,655	465,509	-0,129	-0,203
94,670	144,465	-0,263	-0,246
95,684	118,827	-0,192	-0,166
96,699	66,680	-0,272	-0,194
97,714	202,570	-0,239	-0,259
98,728	57,576	-0,301	-0,206
99,743	-200,000	-0,037	-0,241
100,757	27,191	-0,321	-0,189
101,772	1,145	-0,265	-0,133
102,787	306,844	-0,217	-0,284
103,801	618,922	-0,211	-0,373
104,816	93,203	-0,247	-0,195
105,830	106,255	-0,154	-0,128
106,845	149,136	-0,254	-0,241
107,860	286,038	-0,129	-0,163
108,874	101,175	-0,208	-0,169
109,889	140,533	-0,253	-0,233
110,903	61,147	-0,237	-0,164
111,918	-101,772	-0,315	-0,053
112,933	13,016	-0,309	-0,167
113,947	-99,617	-0,255	-0,044
114,962	50,661	-0,198	-0,131
115,976	69,339	-0,281	-0,202
116,991	-21,238	-0,350	-0,149
118,006	322,265	-0,297	-0,396
119,020	-22,650	-0,202	-0,085
120,035	90,640	-0,162	-0,127
121,049	76,607	-0,201	-0,149
122,064	152,668	-0,206	-0,197
123,079	153,720	-0,210	-0,202
124,093	432,069	-0,279	-0,424
125,108	116,883	-0,299	-0,257
126,122	226,576	-0,301	-0,342
127,137	32,236	-0,271	-0,163
128,151	98,435	-0,336	-0,270
129,166	118,758	-0,217	-0,187
130,181	-39,106	-0,274	-0,100
131,195	150,783	-0,234	-0,223
132,210	107,160	-0,134	-0,111
133,224	220,087	-0,149	-0,167
134,239	45,492	-0,328	-0,211
135,254	33,480	-0,258	-0,156
136,268	90,766	-0,168	-0,131
137,283	259,800	-0,180	-0,218
138,297	20,632	-0,329	-0,185
139,312	25,917	-0,315	-0,183
140,327	139,337	-0,203	-0,186
141,341	-2,245	-0,261	-0,127
142,356	65,406	-0,197	-0,139
143,370	4,072	-0,211	-0,107
144,385	-104,613	-0,305	-0,049
145,400	-51,972	-0,282	-0,091
146,414	61,621	-0,279	-0,194
147,429	761,349	-0,093	-0,177
148,443	-70,947	-0,323	-0,084
149,458	-93,094	-0,197	-0,038
150,473	437,598	-0,193	-0,294
151,487	227,380	-0,170	-0,194
152,502	-0,002	-0,255	-0,126
153,516	149,403	-0,226	-0,214
154,531	125,944	-0,256	-0,226
155,546	22,000	-0,298	-0,169
156,560	-140,623	-0,192	-0,014
157,575	-93,848	-0,209	0,040
158,589	149,202	-0,166	-0,156
159,604	-81,288	-0,260	-0,059
160,619	168,586	-0,249	-0,247
161,633	1,649	-0,293	-0,147
162,648	45,102	-0,257	-0,165
163,662	768,099	-0,100	-0,190
164,677	156,759	-0,169	-0,163
165,692	146,200	-0,188	-0,175
166,706	-46,294	-0,337	-0,115
167,721	275,046	-0,209	-0,258
168,735	-21,004	-0,129	-0,055
169,750	169,419	-0,179	-0,178
170,764	631,137	-0,114	-0,202
171,779	133,064	-0,308	-0,277
172,794	-118,650	-0,192	0,023
173,808	-100,344	-0,284	-0,049
174,823	-63,022	-0,356	-0,102
175,837	67,885	-0,228	-0,162
176,852	-14,058	-0,259	-0,116
177,867	800,000	-0,032	-0,064
178,881	-200,000	-0,229	-0,001
179,896	-38,394	-0,143	-0,052
180,910	31,797	-0,217	-0,130
181,925	12,430	-0,181	-0,097
182,940	-45,850	-0,245	-0,084
183,954	108,264	-0,174	-0,145
184,969	-30,234	-0,272	-0,107
185,983	-51,147	-0,260	-0,084
186,998	208,337	-0,261	-0,284
188,013	64,277	-0,228	-0,159
189,027	93,941	-0,265	-0,209
190,042	56,623	-0,232	-0,156
191,056	28,695	-0,251	-0,148
192,071	5,623	-0,217	0,111
193,086	35,100	-0,163	-0,099
194,100	223,748	-0,132	-0,148
195,115	3,608	-0,254	-0,128
196,129	-115,650	-0,195	0,025
197,144	440,933	-0,090	-0,137
198,159	-5,801	-0,208	-0,098
199,173	44,973	-0,249	-0,159
200,188	-11,856	-0,342	-0,155
201,202	-157,216	-0,197	-0,008
202,217	54,073	-0,191	-0,127
203,232	25,096	-0,269	-0,155
204,246	800,000	-0,117	-0,241
205,261	283,015	-0,171	-0,214
206,275	353,264	-0,197	-0,272
207,290	105,334	-0,116	-0,095
208,304	-53,351	-0,160	-0,051
209,319	-35,422	-0,098	-0,037
210,334	26,131	-0,237	-0,137
211,348	6,943	-0,214	-0,110
212,363	151,357	-0,214	-0,202
213,377	-53,346	-0,347	-0,110
214,392	42,086	-0,197	-0,124
215,407	-200,000	-0,014	-0,057
216,421	620,285	-0,106	-0,186
217,436	169,353	-0,182	-0,181
218,450	800,000	-0,115	-0,236
219,465	50,437	-0,224	-0,147
220,480	44,270	-0,190	-0,121
221,494	127,309	-0,126	-0,111
222,509	70,250	-0,083	-0,060
223,523	-9,985	-0,113	-0,052
224,538	326,568	-0,107	-0,142
225,553	447,049	-0,153	-0,234
226,567	85,075	-0,126	-0,096
227,582	800,000	-0,119	-0,237
228,596	44,134	-0,147	-0,093
229,611	800,000	-0,056	-0,134
230,626	-99,760	-0,166	-0,029
231,640	0,552	-0,198	-0,098
232,655	800,000	-0,107	-0,261
233,669	68,096	-0,249	-0,176
234,684	15,761	-0,260	-0,141
235,699	-103,599	-0,167	-0,027
236,713	325,137	-0,113	-0,150
237,728	214,171	-0,199	-0,218
238,742	672,551	-0,128	-0,230
239,757	169,484	-0,227	-0,224
240,772	211,505	-0,150	-0,164
241,786	101,039	-0,258	-0,207
242,801	-14,261	-0,191	-0,085
243,815	53,391	-0,185	-0,122
244,830	76,306	-0,089	-0,065
245,844	-125,023	-0,244	0,026
246,859	119,155	-0,265	-0,227
247,874	309,332	-0,165	-0,214
248,888	376,249	-0,171	-0,242
249,903	-33,538	-0,082	-0,031
250,917	-98,489	-0,129	-0,023
251,932	-61,153	-0,208	-0,060
252,947	311,608	-0,080	-0,104
253,961	-57,132	-0,168	-0,051
254,976	416,546	-0,121	-0,179
255,990	98,085	-0,246	-0,196
257,005	428,269	-0,100	-0,150
258,020	-27,750	-0,148	-0,059
259,034	1,685	-0,213	-0,106
260,049	229,902	-0,071	-0,080
261,063	-200,000	-0,055	-0,179
262,078	303,384	-0,137	-0,176
263,093	800,000	-0,144	-0,291
264,107	384,988	-0,160	-0,229
265,122	-107,758	-0,090	-0,013
266,136	138,086	-0,211	-0,191
267,151	19,994	-0,139	-0,077
268,166	152,422	-0,193	-0,182
269,180	54,620	-0,187	-0,124
270,195	-93,523	-0,242	-0,046
271,209	123,650	-0,132	-0,114
272,224	-37,539	-0,131	-0,048
273,239	-165,465	-0,153	-0,005
274,253	-27,639	-0,153	0,061
275,268	125,121	-0,155	-0,134
276,282	118,917	-0,173	-0,148
277,297	182,020	-0,178	-0,181
278,312	-46,202	-0,221	-0,074
279,326	-3,504	-0,135	-0,064
280,341	10,131	-0,124	-0,065
281,355	171,664	-0,136	-0,135
282,370	-57,201	-0,226	-0,068
283,384	87,892	-0,127	-0,097
284,399	427,422	-0,157	-0,235
285,414	-87,571	-0,073	-0,015
286,428	-200,000	-0,069	-0,224
287,443	173,349	-0,119	-0,118
288,457	632,462	-0,054	-0,095
289,472	51,107	-0,114	-0,074
290,487	46,898	-0,206	-0,132
291,501	185,458	-0,107	-0,109
292,516	136,002	-0,113	-0,101
293,530	345,651	-0,143	-0,194
294,545	64,785	-0,155	-0,108
295,560	-60,737	-0,145	0,042
296,574	1,051	-0,226	-0,111
297,589	621,357	-0,149	-0,260
298,603	171,435	-0,217	-0,215
299,618	-34,441	-0,162	-0,061
300,633	-200,000	0,019	-0,187
301,647	-26,549	0,018	0,007
302,662	206,188	-0,110	-0,118
303,676	86,897	-0,095	-0,072
304,691	800,000	-0,115	-0,243
305,706	-4,871	-0,213	-0,101
306,720	84,911	-0,144	-0,108
307,735	30,276	-0,141	-0,083
308,749	171,611	-0,161	-0,160
309,764	-200,000	-0,069	-0,219
310,779	59,475	-0,175	-0,118
311,793	247,745	-0,182	-0,212
312,808	-74,355	-0,139	-0,034
313,822	-21,574	-0,150	-0,063
314,837	-48,711	-0,096	0,031
315,852	98,906	-0,127	0,101
316,866	42,227	-0,123	-0,076
317,881	10,102	-0,142	-0,074
318,895	-49,983	-0,095	0,031
319,910	647,450	-0,123	-0,217
320,925	-68,184	-0,132	0,035
321,939	-12,783	-0,137	-0,061
322,954	248,030	-0,166	-0,194
323,968	-11,666	-0,085	-0,038
324,983	800,000	-0,078	-0,184
325,997	241,409	-0,127	-0,146
327,012	-54,122	-0,209	-0,065
328,027	516,714	-0,119	-0,191
329,041	-95,858	-0,145	-0,026
330,056	405,312	-0,090	-0,130
331,070	-200,000	-0,034	-0,103
332,085	45,357	-0,111	-0,070
333,100	67,224	-0,121	-0,085
334,114	-34,822	-0,210	-0,078
335,129	370,124	-0,100	-0,139
336,143	215,010	-0,115	-0,125
337,158	270,636	-0,068	-0,082
338,173	-99,762	-0,186	0,032
339,187	336,227	-0,146	-0,195
340,202	-65,183	-0,277	0,076
341,216	-63,119	-0,139	-0,039
342,231	9,039	-0,153	-0,079
343,246	37,041	-0,112	0,068
344,260	42,459	-0,156	-0,097
345,275	-64,226	-0,204	-0,057
346,289	-44,468	-0,117	-0,040
347,304	16,056	-0,121	-0,065
348,319	-97,510	-0,054	-0,009
349,333	-48,657	-0,237	-0,078
350,348	48,767	-0,164	-0,105
351,362	223,033	-0,123	-0,136
352,377	-6,520	-0,166	-0,077
353,392	-200,000	-0,118	-0,000
354,406	-105,274	-0,220	0,034
355,421	207,871	1312,271	1405,694
356,435	159,916	1472,700	1406,160
