DTS Sentinel unit serial number:	SN410029Multiplexer serial number:	ORYXHardware model number:	OX2-SRSoftware version number:	ORYX F/W v4,00 Oryx Data Collector v3.7.2.0data status	okinstallation	B3 Nyhavnadifferential loss correction	single-endedforward channel	channel 1reverse channel	N/Adate	2023/12/02time	10:27:30forward acquisition time	300,00reverse acquisition time	0,00gamma	499,1914k internal	0,3196k external	0,3196temperature offset calibration	1,0000default loss term (dB/km)	0,3820temperature slope calibration	1,0000multiplexer offset coefficient	1,0000multiplexer slope coefficient	1,0000fibre end	0,00T internal ref (°C)	14,54T ext. ref 1 (°C)	-1,16T ext. ref 2 (°C)	-1,19length (m)	temperature (°C)	Stokes	anti-Stokes-744,400	137,052	-0,222	-0,212
-743,385	-200,000	0,043	0,389
-742,371	800,000	-0,081	-0,205
-741,356	-200,000	0,025	0,264
-740,342	800,000	-0,099	-0,222
-739,327	-200,000	-0,005	0,259
-738,312	487,370	-0,181	-0,302
-737,298	-200,000	-0,051	0,335
-736,283	-200,000	-0,017	-0,267
-735,269	-200,000	-0,047	0,330
-734,254	114,288	-0,326	-0,289
-733,239	219,789	-0,078	0,091
-732,225	800,000	-0,118	-0,348
-731,210	171,817	0,042	0,044
-730,196	-194,303	-0,117	0,001
-729,181	-200,000	0,013	-0,055
-728,167	-200,000	0,012	0,090
-727,152	200,379	-0,007	0,007
-726,137	-200,000	-0,010	-0,147
-725,123	157,266	-0,018	0,019
-724,108	800,000	-0,011	-0,027
-723,094	115,066	-0,084	0,074
-722,079	-154,802	-0,127	-0,006
-721,064	290,867	-0,045	0,060
-720,050	-127,292	0,035	0,004
-719,035	-200,000	-0,025	0,138
-718,021	-59,076	-0,061	0,019
-717,006	-200,000	0,002	-0,114
-715,991	-127,689	-0,148	-0,015
-714,977	800,000	0,011	-0,028
-713,962	43,491	-0,038	0,025
-712,948	-56,387	0,138	-0,044
-711,933	-200,000	-0,001	-0,039
-710,918	800,000	-0,025	0,057
-709,904	-146,174	-0,118	-0,007
-708,889	800,000	0,066	-0,180
-707,875	334,509	-0,047	-0,066
-706,860	-120,243	0,145	0,018
-705,845	-12,131	0,118	0,056
-704,831	71,612	0,015	-0,011
-703,816	800,000	-0,044	-0,105
-702,802	4,848	-0,082	-0,044
-701,787	-35,470	-0,080	-0,031
-700,772	-61,537	-0,071	-0,022
-699,758	109,869	-0,021	0,018
-698,743	150,852	-0,103	-0,102
-697,729	800,000	-0,028	-0,062
-696,714	145,200	0,050	-0,049
-695,699	232,819	0,039	0,047
-694,685	28,711	-0,036	-0,022
-693,670	-100,789	-0,180	0,032
-692,656	-200,000	0,003	-0,083
-691,641	-137,593	0,044	0,004
-690,627	447,663	-0,047	0,076
-689,612	-22,636	0,068	0,030
-688,597	627,857	-0,061	0,113
-687,583	-78,391	-0,029	0,007
-686,568	374,587	-0,059	-0,088
-685,554	-14,392	-0,018	-0,008
-684,539	243,495	0,029	-0,036
-683,524	-63,023	0,072	0,022
-682,510	164,188	-0,054	0,055
-681,495	-89,867	-0,011	0,002
-680,481	107,802	0,080	-0,070
-679,466	192,161	-0,163	-0,179
-678,451	-200,000	-0,017	-0,082
-677,437	-170,466	0,153	0,004
-676,422	160,584	0,083	0,084
-675,408	117,812	-0,035	0,032
-674,393	-200,000	-0,048	0,207
-673,378	-143,631	-0,113	0,008
-672,364	-200,000	-0,010	0,118
-671,349	-51,375	0,091	-0,031
-670,335	93,109	0,095	-0,078
-669,320	-13,156	0,240	0,113
-668,305	-200,000	0,023	0,087
-667,291	-200,000	0,010	-0,136
-666,276	-200,000	0,008	-0,096
-665,262	220,446	-0,154	-0,180
-664,247	8,117	-0,094	-0,051
-663,232	-142,130	-0,051	0,004
-662,218	474,933	-0,038	0,063
-661,203	238,548	0,062	0,074
-660,189	-97,847	-0,083	0,015
-659,174	-21,424	-0,044	-0,020
-658,159	4,689	-0,047	0,025
-657,145	436,484	-0,027	-0,042
-656,130	-200,000	-0,015	-0,087
-655,116	-53,423	0,101	-0,033
-654,101	-200,000	0,019	0,064
-653,086	-47,069	0,096	0,034
-652,072	800,000	-0,030	0,066
-651,057	-200,000	-0,014	0,097
-650,043	-131,290	-0,098	0,009
-649,028	758,334	0,019	0,037
-648,014	-46,394	-0,063	-0,022
-646,999	288,379	-0,025	0,033
-645,984	-200,000	-0,004	0,033
-644,970	128,972	-0,166	-0,154
-643,955	800,000	-0,058	-0,173
-642,941	390,003	0,058	-0,087
-641,926	15,000	-0,015	0,009
-640,911	54,541	-0,026	-0,018
-639,897	107,957	0,011	0,009
-638,882	243,640	-0,036	0,044
-637,868	-12,402	0,038	-0,018
-636,853	449,364	-0,014	0,022
-635,838	-200,000	-0,019	-0,112
-634,824	154,893	-0,045	-0,045
-633,809	693,322	0,022	-0,042
-632,795	-75,286	-0,161	0,041
-631,780	126,413	0,076	0,070
-630,765	800,000	0,016	-0,049
-629,751	-70,778	-0,113	0,031
-628,736	-14,660	-0,061	0,028
-627,722	-106,804	0,121	-0,019
-626,707	-85,521	0,085	0,019
-625,692	54,838	0,072	0,050
-624,678	401,269	-0,042	0,065
-623,663	-43,928	-0,118	0,043
-622,649	800,000	0,066	-0,165
-621,634	-44,957	-0,081	-0,029
-620,619	800,000	0,021	-0,064
-619,605	-200,000	-0,028	-0,134
-618,590	-200,000	-0,010	0,093
-617,576	305,593	-0,041	0,055
-616,561	21,393	0,072	0,042
-615,546	61,669	-0,069	0,050
-614,532	6,713	-0,127	0,068
-613,517	83,310	-0,055	-0,043
-612,503	-200,000	0,003	-0,193
-611,488	-200,000	0,010	0,051
-610,474	239,146	-0,074	0,089
-609,459	90,109	0,111	-0,090
-608,444	-200,000	-0,025	-0,150
-607,430	-200,000	-0,013	-0,106
-606,415	800,000	0,032	0,091
-605,401	800,000	0,034	0,076
-604,386	-4,600	-0,079	-0,040
-603,371	426,594	0,018	0,028
-602,357	251,346	-0,146	0,180
-601,342	-200,000	0,003	-0,017
-600,328	66,274	-0,151	-0,111
-599,313	-200,000	-0,018	-0,173
-598,298	800,000	-0,030	-0,094
-597,284	-200,000	-0,003	0,083
-596,269	-89,983	-0,051	0,011
-595,255	-4,803	0,130	-0,065
-594,240	497,093	0,031	-0,052
-593,225	78,312	-0,104	-0,080
-592,211	483,242	-0,112	0,186
-591,196	691,613	0,105	0,200
-590,182	167,281	0,061	-0,063
-589,167	-200,000	0,033	-0,125
-588,152	26,349	-0,074	-0,045
-587,138	-200,000	0,006	-0,138
-586,123	264,929	-0,124	-0,157
-585,109	-200,000	0,001	-0,118
-584,094	-134,429	0,068	0,006
-583,079	-40,387	-0,067	0,025
-582,065	295,237	-0,049	0,064
-581,050	-200,000	-0,023	0,140
-580,036	-92,800	0,154	0,031
-579,021	-200,000	-0,019	0,098
-578,006	800,000	-0,020	-0,044
-576,992	435,535	-0,041	0,065
-575,977	340,829	0,081	0,115
-574,963	-200,000	-0,006	0,072
-573,948	393,036	0,072	0,109
-572,934	323,620	0,017	0,023
-571,919	-200,000	-0,005	0,047
-570,904	-5,468	0,025	0,012
-569,890	-158,193	-0,067	-0,003
-568,875	-150,717	0,074	0,004
-567,861	-39,034	0,169	0,064
-566,846	13,991	-0,059	0,033
-565,831	800,000	0,055	0,124
-564,817	-5,961	0,044	-0,022
-563,802	190,205	0,022	-0,024
-562,788	-55,894	-0,156	-0,050
-561,773	-26,633	0,095	0,040
-560,758	-90,315	-0,015	0,003
-559,744	-82,281	0,028	-0,007
-558,729	4,183	0,075	0,040
-557,715	800,000	0,010	0,027
-556,700	-83,763	-0,042	-0,010
-555,685	-138,901	-0,102	0,008
-554,671	262,271	-0,074	0,093
-553,656	800,000	0,039	0,109
-552,642	-21,150	-0,064	-0,028
-551,627	125,623	0,066	0,060
-550,612	-144,626	-0,218	-0,014
-549,598	422,304	-0,046	-0,071
-548,583	172,607	0,106	-0,110
-547,569	-73,204	-0,032	0,008
-546,554	484,022	0,018	-0,030
-545,539	633,555	-0,054	-0,099
-544,525	-200,000	-0,007	-0,024
-543,510	-200,000	0,032	0,123
-542,496	-38,169	-0,061	0,023
-541,481	-66,362	-0,053	-0,015
-540,466	-200,000	0,027	-0,175
-539,452	-15,243	-0,132	0,061
-538,437	93,882	-0,070	0,057
-537,423	52,042	0,104	-0,072
-536,408	-31,962	-0,084	-0,034
-535,393	-200,000	0,028	-0,175
-534,379	-200,000	-0,025	-0,135
-533,364	364,973	0,070	-0,102
-532,350	571,901	-0,032	-0,056
-531,335	800,000	0,049	0,115
-530,321	-68,313	0,059	-0,016
-529,306	185,117	0,117	0,125
-528,291	800,000	-0,088	-0,210
-527,277	-102,605	-0,092	-0,016
-526,262	764,198	0,079	-0,156
-525,248	-42,990	-0,129	0,047
-524,233	-112,505	0,069	-0,010
-523,218	-200,000	-0,013	-0,128
-522,204	468,416	0,079	-0,128
-521,189	350,391	-0,020	-0,029
-520,175	442,574	0,023	-0,037
-519,160	-200,000	-0,006	-0,116
-518,145	-200,000	0,002	0,019
-517,131	210,213	-0,024	-0,027
-516,116	292,660	-0,061	0,081
-515,102	481,227	0,075	0,123
-514,087	87,338	0,141	0,113
-513,072	266,641	-0,020	-0,025
-512,058	93,452	-0,088	0,072
-511,043	800,000	-0,006	0,013
-510,029	-200,000	0,035	0,137
-509,014	800,000	0,016	0,040
-507,999	264,846	-0,036	0,045
-506,985	-63,982	-0,153	0,045
-505,970	-200,000	-0,012	-0,097
-504,956	17,247	-0,074	-0,042
-503,941	-182,124	0,076	0,001
-502,926	-147,516	0,075	-0,005
-501,912	6,660	0,070	-0,037
-500,897	800,000	0,056	0,113
-499,883	-130,489	0,101	0,010
-498,868	727,983	0,072	-0,140
-497,853	34,167	-0,135	-0,085
-496,839	80,037	0,061	-0,047
-495,824	135,978	0,128	0,120
-494,810	-200,000	-0,013	-0,114
-493,795	-34,569	-0,140	0,055
-492,781	-200,000	-0,014	-0,121
-491,766	119,898	-0,053	0,047
-490,751	-200,000	0,015	0,085
-489,737	800,000	0,006	0,013
-488,722	-55,699	0,150	-0,048
-487,708	27,538	-0,046	-0,028
-486,693	-172,170	0,091	0,002
-485,678	800,000	-0,045	0,100
-484,664	93,927	0,074	0,060
-483,649	-104,122	-0,189	0,031
-482,635	176,802	0,035	0,036
-481,620	200,878	0,065	-0,072
-480,605	-80,270	-0,065	0,016
-479,591	-40,224	-0,085	0,032
-478,576	800,000	-0,042	0,101
-477,562	-145,216	0,086	0,006
-476,547	-200,000	0,012	0,038
-475,532	-3,948	-0,011	0,006
-474,518	-200,000	-0,028	-0,177
-473,503	479,734	0,071	0,117
-472,489	-200,000	0,003	0,137
-471,474	535,826	0,019	0,032
-470,459	800,000	-0,030	0,081
-469,445	800,000	0,029	-0,080
-468,430	-140,233	-0,039	0,003
-467,416	102,802	0,018	-0,015
-466,401	-82,698	0,109	0,025
-465,386	253,563	-0,088	0,108
-464,372	1,699	-0,055	0,028
-463,357	800,000	0,064	-0,131
-462,343	-56,627	-0,117	-0,037
-461,328	-200,000	-0,018	-0,162
-460,313	800,000	0,016	0,035
-459,299	-75,941	0,113	-0,029
-458,284	-200,000	-0,008	0,055
-457,270	-3,577	-0,090	0,045
-456,255	298,827	-0,035	-0,047
-455,241	-113,062	-0,140	0,020
-454,226	800,000	0,057	0,170
-453,211	800,000	-0,038	0,090
-452,197	-105,920	0,134	-0,022
-451,182	-41,235	-0,077	-0,028
-450,168	-200,000	-0,010	-0,038
-449,153	-85,181	0,119	-0,027
-448,138	-200,000	0,005	0,131
-447,124	-8,318	-0,067	0,032
-446,109	-200,000	0,006	0,027
-445,095	-200,000	-0,002	0,137
-444,080	-54,791	-0,019	-0,006
-443,065	-200,000	-0,005	0,059
-442,051	-61,487	-0,160	-0,048
-441,036	-3,020	-0,044	0,022
-440,022	-131,395	-0,067	0,006
-439,007	-32,410	0,087	-0,035
-437,992	220,516	0,144	-0,166
-436,978	-200,000	0,026	0,093
-435,963	-200,000	0,012	-0,053
-434,949	-200,000	-0,016	0,074
-433,934	-127,102	-0,136	-0,014
-432,919	800,000	0,015	0,033
-431,905	800,000	-0,013	0,036
-430,890	7,621	0,074	0,040
-429,876	-200,000	0,021	0,080
-428,861	-77,831	0,078	0,019
-427,846	-16,570	-0,034	-0,016
-426,832	-200,000	-0,022	-0,133
-425,817	733,467	-0,070	-0,136
-424,803	253,083	-0,052	-0,064
-423,788	-8,130	-0,061	-0,029
-422,773	1,008	0,135	-0,069
-421,759	-87,467	0,076	0,016
-420,744	360,313	0,058	0,084
-419,730	-165,781	-0,090	0,003
-418,715	800,000	-0,021	-0,053
-417,701	800,000	-0,010	-0,027
-416,686	-16,994	0,104	-0,047
-415,671	136,136	-0,048	-0,045
-414,657	-200,000	-0,002	0,009
-413,642	-200,000	0,022	0,110
-412,628	401,003	-0,060	0,091
-411,613	800,000	-0,037	0,115
-410,598	610,683	0,035	0,063
-409,584	-65,767	-0,071	-0,020
-408,569	-200,000	0,020	0,102
-407,555	-200,000	-0,009	0,206
-406,540	800,000	0,060	0,135
-405,525	-28,191	0,082	-0,034
-404,511	20,627	-0,087	-0,050
-403,496	-26,894	-0,092	-0,038
-402,482	26,493	0,062	0,037
-401,467	-20,783	0,109	0,048
-400,452	-200,000	-0,002	0,050
-399,438	30,236	-0,042	0,026
-398,423	53,212	-0,052	0,036
-397,409	-146,789	0,046	0,003
-396,394	-105,543	0,109	-0,018
-395,379	-93,434	-0,110	-0,022
-394,365	19,680	-0,100	0,058
-393,350	104,491	-0,040	0,033
-392,336	-51,615	0,028	0,009
-391,321	-68,143	0,087	0,024
-390,306	230,139	0,101	0,118
-389,292	676,013	-0,099	-0,185
-388,277	-200,000	0,007	-0,089
-387,263	11,831	-0,017	-0,009
-386,248	-200,000	-0,004	0,083
-385,233	-200,000	0,006	0,099
-384,219	-123,859	0,110	0,012
-383,204	-114,570	-0,077	-0,010
-382,190	-74,126	-0,075	-0,019
-381,175	23,873	0,045	0,027
-380,160	682,384	0,045	-0,084
-379,146	-122,625	-0,108	-0,012
-378,131	97,020	0,029	0,023
-377,117	800,000	0,074	0,208
-376,102	794,787	-0,051	-0,100
-375,088	235,673	0,048	-0,058
-374,073	-125,460	0,023	0,003
-373,058	800,000	0,023	0,046
-372,044	-120,694	0,079	-0,009
-371,029	800,000	0,081	0,170
-370,015	-200,000	0,009	0,080
-369,000	-200,000	0,003	-0,099
-367,985	-77,500	-0,124	-0,031
-366,971	37,396	-0,026	-0,017
-365,956	-200,000	-0,005	0,034
-364,942	-9,185	0,064	-0,030
-363,927	-200,000	0,016	0,064
-362,912	465,034	-0,069	0,111
-361,898	-130,094	-0,118	-0,011
-360,883	-200,000	-0,013	-0,054
-359,869	120,260	0,110	-0,098
-358,854	34,470	0,103	-0,064
-357,839	231,888	0,013	0,015
-356,825	46,286	0,038	0,025
-355,810	-200,000	0,020	-0,133
-354,796	-200,000	0,013	-0,050
-353,781	-107,008	-0,112	0,018
-352,766	25,354	-0,060	0,035
-351,752	-200,000	0,005	-0,045
-350,737	69,336	0,106	-0,078
-349,723	510,269	-0,045	0,075
-348,708	-200,000	0,007	-0,052
-347,693	-69,849	-0,132	0,036
-346,679	0,032	0,013	-0,007
-345,664	280,411	-0,056	-0,072
-344,650	800,000	-0,019	0,045
-343,635	-159,166	-0,096	0,004
-342,620	-200,000	-0,031	0,102
-341,606	218,975	0,087	-0,100
-340,591	-60,952	-0,043	-0,013
-339,577	113,183	-0,059	0,051
-338,562	-34,360	-0,054	-0,021
-337,548	-68,140	-0,021	-0,006
-336,533	123,859	0,030	0,027
-335,518	-200,000	-0,015	0,051
-334,504	16,215	0,040	-0,023
-333,489	800,000	-0,019	-0,039
-332,475	28,139	0,125	0,075
-331,460	-200,000	-0,013	-0,056
-330,445	-200,000	0,008	0,078
-329,431	-200,000	-0,020	-0,102
-328,416	284,309	-0,060	0,078
-327,402	595,824	-0,045	0,080
-326,387	-93,202	0,011	-0,002
-325,372	-76,061	0,187	0,047
-324,358	41,704	-0,097	-0,063
-323,343	-22,604	0,141	0,061
-322,329	-200,000	0,010	-0,131
-321,314	152,318	0,074	0,073
-320,299	-200,000	-0,015	0,059
-319,285	-106,996	-0,098	-0,015
-318,270	-200,000	0,018	0,121
-317,256	-200,000	-0,022	-0,083
-316,241	56,685	0,119	0,083
-315,226	148,433	0,048	-0,047
-314,212	-95,001	0,094	-0,018
-313,197	800,000	0,034	0,076
-312,183	266,847	-0,007	0,009
-311,168	-200,000	0,009	0,072
-310,153	144,209	-0,091	-0,087
-309,139	229,083	-0,065	-0,076
-308,124	-82,963	-0,102	0,023
-307,110	800,000	0,006	0,019
-306,095	-151,928	-0,120	0,006
-305,080	255,228	0,015	0,019
-304,066	413,285	0,104	0,159
-303,051	800,000	-0,050	-0,124
-302,037	356,176	0,039	0,056
-301,022	-200,000	-0,029	-0,103
-300,008	800,000	-0,031	-0,077
-298,993	-66,937	0,152	0,043
-297,978	163,498	0,028	0,028
-296,964	2,613	0,090	0,047
-295,949	800,000	-0,027	-0,066
-294,935	-125,121	-0,104	0,011
-293,920	251,896	-0,023	-0,028
-292,905	159,423	-0,053	0,053
-291,891	473,908	0,047	0,076
-290,876	-200,000	0,004	0,124
-289,862	-118,002	0,026	-0,003
-288,847	-52,866	-0,076	-0,025
-287,832	-120,906	-0,042	-0,005
-286,818	-200,000	-0,018	-0,067
-285,803	405,993	0,058	-0,087
-284,789	-108,898	-0,194	0,029
-283,774	-200,000	0,025	0,149
-282,759	788,113	-0,034	-0,067
-281,745	-200,000	-0,008	-0,100
-280,730	-200,000	-0,004	-0,094
-279,716	134,072	-0,116	0,108
-278,701	215,297	-0,048	0,055
-277,686	-200,000	0,004	0,027
-276,672	-200,000	-0,021	0,086
-275,657	800,000	0,029	0,069
-274,643	-16,355	0,118	-0,053
-273,628	-200,000	0,010	-0,068
-272,613	8,659	0,079	-0,043
-271,599	-66,130	0,056	0,016
-270,584	-200,000	0,032	0,115
-269,570	228,102	0,089	-0,104
-268,555	-200,000	-0,020	-0,090
-267,540	-56,679	0,084	-0,027
-266,526	-200,000	-0,033	-0,140
-265,511	800,000	0,076	-0,184
-264,497	92,036	-0,084	0,067
-263,482	-157,757	0,133	0,006
-262,467	-63,757	0,110	0,032
-261,453	-46,801	0,065	-0,023
-260,438	800,000	-0,028	-0,065
-259,424	674,053	-0,010	0,019
-258,409	-200,000	0,029	0,109
-257,395	-111,140	0,048	-0,007
-256,380	-200,000	-0,031	0,141
-255,365	-200,000	-0,005	0,085
-254,351	151,111	-0,082	0,080
-253,336	-200,000	-0,013	-0,068
-252,322	191,977	0,037	-0,039
-251,307	-200,000	-0,009	-0,169
-250,292	-105,871	-0,081	0,013
-249,278	-200,000	-0,010	0,047
-248,263	-200,000	0,009	0,091
-247,249	-94,970	0,072	-0,014
-246,234	-200,000	-0,018	-0,085
-245,219	664,627	-0,072	-0,134
-244,205	-87,477	-0,091	0,019
-243,190	-8,471	0,151	-0,072
-242,176	-200,000	0,010	0,051
-241,161	800,000	-0,024	-0,074
-240,146	800,000	-0,037	0,116
-239,132	91,128	0,085	0,068
-238,117	-200,000	-0,009	-0,102
-237,103	169,503	-0,080	0,082
-236,088	-200,000	-0,007	-0,044
-235,073	-78,320	-0,026	-0,006
-234,059	757,121	-0,048	0,093
-233,044	564,202	-0,023	0,040
-232,030	-58,500	0,128	-0,039
-231,015	301,984	0,079	-0,104
-230,000	800,000	-0,035	-0,096
-228,986	150,754	0,121	-0,117
-227,971	-200,000	-0,021	0,156
-226,957	-66,964	0,030	-0,008
-225,942	-27,038	0,110	-0,046
-224,927	-20,041	-0,087	0,038
-223,913	-200,000	0,026	-0,129
-222,898	800,000	-0,032	-0,096
-221,884	242,921	0,105	-0,126
-220,869	800,000	-0,046	-0,094
-219,855	290,087	0,062	0,080
-218,840	-6,912	0,061	0,029
-217,825	206,575	-0,038	0,042
-216,811	497,533	-0,071	0,118
-215,796	-180,920	-0,033	0,000
-214,782	-144,705	-0,116	0,007
-213,767	-140,071	0,089	-0,007
-212,752	-71,514	0,059	-0,016
-211,738	-104,859	0,076	-0,012
-210,723	-200,000	0,008	0,095
-209,709	800,000	0,019	-0,044
-208,694	-145,991	-0,076	-0,005
-207,679	-187,299	-0,146	-0,001
-206,665	116,929	0,113	-0,099
-205,650	-66,236	0,061	-0,017
-204,636	-200,000	0,005	-0,034
-203,621	800,000	-0,015	-0,041
-202,606	342,909	-0,113	0,158
-201,592	58,126	0,064	-0,044
-200,577	-200,000	-0,015	0,106
-199,563	-200,000	-0,034	0,117
-198,548	338,707	0,087	0,122
-197,533	76,207	0,119	-0,090
-196,519	10,017	-0,082	0,044
-195,504	-144,107	-0,122	0,008
-194,490	33,071	0,138	-0,085
-193,475	-18,298	0,068	-0,030
-192,460	-90,943	0,038	0,008
-191,446	-137,683	-0,117	0,009
-190,431	800,000	-0,052	-0,109
-189,417	-16,120	0,092	0,042
-188,402	-65,241	-0,090	-0,026
-187,387	488,806	0,059	-0,097
-186,373	399,821	-0,069	-0,104
-185,358	-113,027	0,057	-0,008
-184,344	-60,684	0,105	0,032
-183,329	105,261	0,066	0,055
-182,315	409,947	0,124	0,188
-181,300	800,000	-0,067	0,138
-180,285	-10,493	-0,071	0,034
-179,271	775,137	-0,017	-0,034
-178,256	-55,470	0,111	-0,035
-177,242	90,154	-0,070	-0,056
-176,227	41,110	0,104	-0,067
-175,212	421,798	-0,020	0,031
-174,198	98,787	0,054	-0,045
-173,183	60,467	0,117	-0,083
-172,169	-200,000	-0,018	-0,105
-171,154	-40,434	-0,190	0,070
-170,139	-73,583	-0,043	-0,011
-169,125	144,569	0,109	0,104
-168,110	204,235	0,054	-0,060
-167,096	118,673	0,094	0,083
-166,081	-200,000	0,007	0,124
-165,066	-200,000	0,023	-0,142
-164,052	667,111	-0,094	-0,174
-163,037	210,731	-0,047	-0,053
-162,023	-37,863	-0,063	-0,024
-161,008	-33,879	0,205	0,080
-159,993	-200,000	-0,016	-0,065
-158,979	-200,000	-0,022	0,086
-157,964	756,531	-0,011	-0,022
-156,950	-29,869	0,041	-0,017
-155,935	-200,000	-0,006	-0,115
-154,920	-131,482	0,019	0,002
-153,906	-22,542	0,049	-0,021
-152,891	38,342	0,052	0,033
-151,877	-114,034	-0,089	0,012
-150,862	-200,000	0,008	-0,073
-149,847	220,165	0,019	-0,022
-148,833	666,365	0,026	0,048
-147,818	800,000	0,029	0,075
-146,804	-200,000	0,017	0,113
-145,789	-76,152	-0,108	0,027
-144,775	251,235	0,074	-0,090
-143,760	551,763	-0,103	-0,176
-142,745	-80,778	-0,166	-0,039
-141,731	-200,000	0,026	0,153
-140,716	261,957	0,062	0,077
-139,702	84,060	0,049	0,038
-138,687	-120,159	0,016	0,002
-137,672	-48,176	0,054	0,019
-136,658	214,061	-0,084	-0,094
-135,643	-200,000	-0,000	-0,103
-134,629	-200,000	0,006	0,060
-133,614	-200,000	-0,002	0,069
-132,599	-200,000	-0,000	-0,068
-131,585	-111,493	0,061	-0,009
-130,570	58,777	0,134	-0,093
-129,556	-200,000	-0,010	-0,070
-128,541	-109,875	-0,025	-0,004
-127,526	-178,520	0,039	-0,001
-126,512	596,340	0,055	0,098
-125,497	18,552	-0,136	0,077
-124,483	-3,415	-0,075	0,037
-123,468	-58,671	0,188	-0,058
-122,453	383,715	-0,061	0,090
-121,439	705,484	-0,041	0,078
-120,424	-54,155	-0,104	-0,033
-119,410	-54,000	0,074	-0,024
-118,395	363,191	0,061	-0,088
-117,380	-20,177	0,018	-0,008
-116,366	800,000	0,034	0,094
-115,351	-200,000	0,000	0,082
-114,337	544,798	-0,029	-0,049
-113,322	-200,000	-0,011	0,112
-112,307	392,176	-0,046	-0,068
-111,293	111,558	-0,073	0,063
-110,278	40,247	0,050	0,032
-109,264	20,222	-0,048	0,028
-108,249	-200,000	-0,018	-0,069
-107,234	-200,000	-0,010	-0,045
-106,220	-200,000	0,019	-0,064
-105,205	-13,505	0,098	-0,045
-104,191	-106,990	0,131	0,020
-103,176	101,693	0,059	0,049
-102,162	-105,366	-0,219	0,035
-101,147	800,000	-0,067	-0,150
-100,132	245,574	-0,048	0,058
-99,118	-200,000	0,008	-0,051
-98,103	97,260	-0,046	0,037
-97,089	-15,351	0,081	-0,037
-96,074	-121,062	-0,109	0,013
-95,059	57,117	-0,069	-0,048
-94,045	140,059	0,059	-0,055
-93,030	-137,793	0,062	0,005
-92,016	-200,000	-0,012	0,045
-91,001	800,000	-0,021	0,061
-89,986	-200,000	-0,005	-0,038
-88,972	32,225	0,107	-0,065
-87,957	-17,034	-0,111	-0,050
-86,943	-200,000	-0,029	-0,188
-85,928	113,771	0,105	-0,090
-84,913	-200,000	0,008	-0,087
-83,899	-200,000	0,026	-0,106
-82,884	-24,627	0,117	0,049
-81,870	-10,310	-0,010	-0,005
-80,855	127,812	0,021	0,019
-79,840	121,340	0,085	-0,075
-78,826	800,000	-0,063	-0,161
-77,811	68,945	-0,025	0,018
-76,797	-78,877	-0,061	0,015
-75,782	53,933	0,187	0,128
-74,767	-119,364	-0,091	-0,011
-73,753	463,703	0,036	0,057
-72,738	-200,000	-0,004	0,027
-71,724	-55,720	-0,112	-0,035
-70,709	-200,000	-0,010	-0,032
-69,694	75,122	-0,073	0,054
-68,680	-200,000	0,028	-0,097
-67,665	273,221	0,068	-0,086
-66,651	28,637	-0,140	0,084
-65,636	800,000	-0,034	0,093
-64,622	-56,020	0,094	0,029
-63,607	262,162	-0,010	-0,012
-62,592	-82,954	0,060	-0,014
-61,578	158,405	-0,062	0,061
-60,563	-200,000	0,008	-0,028
-59,549	-200,000	-0,018	0,083
-58,534	-30,321	-1,637	-0,656
-57,519	310,459	-1,564	-2,081
-56,505	-200,000	-0,420	-4,480
-55,490	147,444	1,056	1,008
-54,476	800,000	4,929	11,334
-53,461	-200,000	18,529	295,872
-52,446	800,000	731,864	2256,911
-51,432	559,775	1648,172	2833,367
-50,417	78,769	1667,097	1263,242
-49,403	22,465	1540,254	890,774
-48,388	16,401	1463,345	816,856
-47,373	17,822	1453,248	818,049
-46,359	17,090	1443,486	809,011
-45,344	14,733	1438,759	795,058
-44,330	14,606	1436,944	793,412
-43,315	14,609	1435,074	792,366
-42,300	14,639	1433,474	791,592
-41,286	14,669	1432,463	791,146
-40,271	14,657	1431,091	790,297
-39,257	14,623	1429,937	789,471
-38,242	14,661	1428,423	788,783
-37,227	14,696	1427,311	788,305
-36,213	14,683	1425,970	787,468
-35,198	14,681	1424,702	786,729
-34,184	14,636	1424,089	786,144
-33,169	14,599	1422,760	785,208
-32,154	14,651	1421,658	784,814
-31,140	14,643	1420,282	783,982
-30,125	14,668	1419,151	783,444
-29,111	14,680	1418,063	782,871
-28,096	14,613	1416,852	781,856
-27,082	14,624	1415,819	781,305
-26,067	14,540	1414,946	780,398
-25,052	14,587	1413,594	779,844
-24,038	14,525	1412,855	779,113
-23,023	14,532	1411,874	778,574
-22,009	14,508	1410,844	777,861
-20,994	14,502	1409,924	777,296
-19,979	14,537	1408,955	776,896
-18,965	14,495	1407,952	776,116
-17,950	14,496	1406,790	775,448
-16,936	14,496	1405,958	774,957
-15,921	14,500	1404,903	774,364
-14,906	14,478	1404,169	773,828
-13,892	14,525	1403,069	773,408
-12,877	14,449	1402,382	772,644
-11,863	14,458	1401,171	771,990
-10,848	14,442	1400,576	771,556
-9,833	14,382	1399,690	770,760
-8,819	14,402	1398,630	770,237
-7,804	14,383	1397,831	769,677
-6,790	14,403	1396,608	769,065
-5,775	14,423	1395,445	768,490
-4,760	14,411	1394,638	767,959
-3,746	14,349	1394,179	767,389
-2,731	14,362	1393,261	766,910
-1,717	14,396	1392,141	766,423
-0,702	14,329	1390,562	765,216
0,313	18,190	1308,910	738,163
1,327	34,498	705,543	435,686
2,342	53,395	123,968	84,082
3,356	2,309	16,587	8,472
4,371	1,340	3,173	1,610
5,386	-50,527	0,507	0,168
6,400	610,348	0,132	0,234
7,415	102,659	-0,342	-0,283
8,429	-43,773	-0,277	-0,098
9,444	362,420	-0,148	-0,211
10,459	191,784	-0,177	-0,189
11,473	14,083	-0,298	-0,164
12,488	-54,157	-0,224	-0,072
13,502	-2,033	-0,353	-0,175
14,517	-35,425	-0,161	-0,062
15,531	83,387	-0,336	-0,259
16,546	-22,689	-0,393	-0,167
17,561	115,232	-0,364	-0,315
18,575	-26,697	-0,263	-0,108
19,590	249,917	-0,181	-0,217
20,604	37,694	-0,313	-0,196
21,619	59,199	-0,511	-0,355
22,634	37,656	-0,558	-0,349
23,648	-1,715	-0,292	-0,145
24,663	55,520	-0,404	-0,276
25,677	70,712	-0,248	-0,181
26,692	62,840	-0,334	-0,236
27,707	114,052	-0,313	-0,269
28,721	95,687	-0,364	-0,294
29,736	152,066	-0,363	-0,351
30,750	112,537	-0,381	-0,326
31,765	171,839	-0,309	-0,314
32,780	256,795	-0,328	-0,399
33,794	-33,724	-0,338	-0,131
34,809	153,900	-0,295	-0,286
35,823	25,462	-0,344	-0,201
36,838	96,629	-0,328	-0,265
37,853	134,754	-0,331	-0,303
38,867	32,861	-0,388	-0,237
39,882	99,540	-0,313	-0,255
40,896	-9,567	-0,412	-0,193
41,911	22,956	-0,336	-0,194
42,926	174,394	-0,336	-0,343
43,940	296,951	-0,231	-0,300
44,955	10,375	-0,426	-0,228
45,969	93,708	-0,293	-0,234
46,984	-28,533	-0,396	-0,160
47,999	47,677	-0,301	-0,198
49,013	-68,546	-0,395	-0,107
50,028	101,605	-0,312	-0,257
51,042	-33,467	-0,509	-0,197
52,057	27,202	-0,388	-0,229
53,071	112,343	-0,294	-0,251
54,086	-1,541	-0,404	-0,200
55,101	71,732	-0,332	-0,243
56,115	7,241	-0,327	-0,171
57,130	-7,521	-0,385	-0,183
58,144	-25,476	-0,371	-0,154
59,159	-42,735	-0,369	-0,132
60,174	-11,783	-0,388	-0,179
61,188	21,578	-0,285	-0,163
62,203	116,933	-0,257	-0,223
63,217	-53,123	-0,432	-0,139
64,232	43,379	-0,137	-0,088
65,247	11,993	-0,369	-0,200
66,261	93,241	-0,370	-0,294
67,276	10,260	-0,386	-0,206
68,290	-35,020	-0,451	-0,172
69,305	-7,063	-0,294	-0,140
70,320	350,451	-0,161	-0,225
71,334	61,259	-0,302	-0,211
72,349	-61,894	-0,371	-0,108
73,363	16,333	-0,212	-0,118
74,378	176,255	-0,202	-0,207
75,393	107,260	-0,270	-0,226
76,407	-26,641	-0,375	-0,154
77,422	74,941	-0,221	-0,164
78,436	119,496	-0,274	-0,239
79,451	-67,929	-0,389	-0,106
80,466	52,964	-0,339	-0,228
81,480	527,589	-0,131	-0,218
82,495	34,016	-0,222	-0,136
83,509	48,459	-0,345	-0,227
84,524	-77,317	-0,335	-0,081
85,539	-80,106	-0,391	-0,091
86,553	-106,215	-0,272	-0,043
87,568	26,255	-0,406	-0,238
88,582	80,798	-0,411	-0,311
89,597	146,479	-0,177	-0,167
90,611	207,002	-0,204	-0,224
91,626	114,075	-0,316	-0,270
92,641	101,702	-0,186	-0,153
93,655	-44,369	-0,329	-0,115
94,670	257,864	-0,186	-0,225
95,684	34,178	-0,248	-0,152
96,699	-11,048	-0,312	-0,144
97,714	223,004	-0,227	-0,257
98,728	-6,247	-0,200	-0,096
99,743	-107,010	-0,298	-0,046
100,757	13,956	-0,327	-0,178
101,772	113,611	-0,314	-0,268
102,787	-0,866	-0,430	-0,213
103,801	88,503	-0,321	-0,250
104,816	96,147	-0,219	-0,176
105,830	243,777	-0,143	-0,169
106,845	47,270	-0,325	-0,212
107,860	142,535	-0,290	-0,270
108,874	47,616	-0,285	-0,186
109,889	53,805	-0,344	-0,232
110,903	18,307	-0,326	-0,182
111,918	209,987	-0,231	-0,254
112,933	30,462	-0,271	-0,162
113,947	290,841	-0,215	-0,275
114,962	33,291	-0,220	-0,134
115,976	85,271	-0,229	-0,176
116,991	120,887	-0,274	-0,239
118,006	44,618	-0,174	-0,112
119,020	105,905	-0,241	-0,200
120,035	413,212	-0,148	-0,222
121,049	-62,382	-0,184	-0,053
122,064	800,000	-0,135	-0,270
123,079	-62,695	-0,427	-0,123
124,093	-73,777	-0,263	-0,067
125,108	-53,723	-0,378	-0,120
126,122	38,195	-0,278	-0,173
127,137	-47,083	-0,318	-0,108
128,151	18,471	-0,110	-0,061
129,166	761,329	-0,055	-0,104
130,181	22,821	-0,254	-0,146
131,195	101,481	-0,235	-0,191
132,210	56,912	-0,250	-0,171
133,224	37,871	-0,309	-0,192
134,239	-28,343	-0,324	-0,130
135,254	144,706	-0,191	-0,179
136,268	24,189	-0,302	-0,174
137,283	97,077	-0,290	-0,233
138,297	45,311	-0,338	-0,218
139,312	-16,781	-0,400	-0,177
140,327	20,668	-0,273	-0,154
141,341	-28,466	-0,281	-0,113
142,356	-35,652	-0,207	-0,078
143,370	113,458	-0,168	-0,143
144,385	392,104	-0,120	-0,175
145,400	130,407	-0,320	-0,287
146,414	173,949	-0,241	-0,243
147,429	178,395	-0,189	-0,193
148,443	83,608	-0,156	-0,119
149,458	59,647	-0,204	-0,140
150,473	57,923	-0,221	-0,151
151,487	-134,325	-0,373	0,032
152,502	-12,675	-0,266	-0,121
153,516	-8,056	-0,374	-0,176
154,531	385,917	-0,223	-0,322
155,546	172,611	-0,162	-0,163
156,560	-51,599	-0,321	-0,104
157,575	-36,755	-0,303	-0,113
158,589	483,204	-0,158	-0,252
159,604	21,561	-0,249	-0,141
160,619	-49,176	-0,346	-0,115
161,633	622,205	-0,183	-0,323
162,648	372,541	-0,147	-0,210
163,662	237,383	-0,167	-0,194
164,677	31,931	-0,213	-0,128
165,692	45,808	-0,270	-0,174
166,706	40,515	-0,199	-0,125
167,721	53,651	-0,267	-0,179
168,735	-98,742	-0,098	0,017
169,750	92,344	-0,175	-0,137
170,764	453,250	-0,167	-0,260
171,779	-96,324	-0,263	-0,048
172,794	-167,543	-0,205	-0,006
173,808	-20,366	-0,246	-0,105
174,823	42,784	-0,135	-0,086
175,837	78,879	-0,305	-0,228
176,852	214,156	-0,277	-0,307
177,867	211,007	-0,203	-0,222
178,881	-78,048	-0,094	0,022
179,896	377,056	-0,131	-0,187
180,910	381,502	-0,218	-0,313
181,925	8,976	-0,220	-0,116
182,940	24,856	-0,289	-0,167
183,954	272,345	-0,141	-0,174
184,969	163,724	-0,181	-0,178
185,983	-0,090	-0,304	-0,150
186,998	205,241	-0,185	-0,200
188,013	270,825	-0,080	-0,098
189,027	56,775	-0,203	-0,138
190,042	145,349	-0,133	-0,124
191,056	125,156	-0,224	-0,197
192,071	64,893	-0,242	-0,170
193,086	207,481	-0,168	-0,183
194,100	48,659	-0,307	-0,200
195,115	800,000	-0,143	-0,284
196,129	29,532	-0,175	-0,104
197,144	237,131	-0,264	-0,305
198,159	29,764	-0,280	-0,166
199,173	-0,345	-0,099	-0,049
200,188	265,086	-0,139	-0,169
201,202	-49,274	-0,129	-0,043
202,217	289,858	-0,210	-0,267
203,232	197,296	-0,279	-0,297
204,246	204,736	-0,107	-0,115
205,261	58,368	-0,296	-0,202
206,275	-171,389	-0,146	-0,003
207,290	616,474	-0,142	-0,249
208,304	466,209	-0,108	-0,169
209,319	800,000	-0,083	-0,178
210,334	288,735	-0,137	-0,173
211,348	23,557	-0,200	-0,114
212,363	8,829	-0,324	-0,169
213,377	-200,000	-0,040	-0,176
214,392	705,841	-0,077	-0,142
215,407	32,516	-0,203	-0,122
216,421	-11,084	-0,293	-0,134
217,436	429,190	-0,162	-0,245
218,450	90,131	-0,237	-0,184
219,465	800,000	-0,109	-0,254
220,480	-137,744	-0,252	-0,019
221,494	356,948	-0,192	-0,267
222,509	93,172	-0,209	-0,164
223,523	-68,758	-0,310	-0,083
224,538	-102,063	-0,208	-0,034
225,553	-200,000	-0,057	-0,181
226,567	14,064	-0,315	-0,170
227,582	56,839	-0,251	-0,169
228,596	236,900	-0,133	-0,153
229,611	204,955	-0,127	-0,137
230,626	14,671	-0,106	0,057
231,640	800,000	-0,110	-0,226
232,655	45,342	-0,198	-0,127
233,669	293,393	-0,199	-0,252
234,684	196,451	-0,167	-0,177
235,699	2,331	-0,201	-0,100
236,713	25,769	-0,095	-0,055
237,728	-107,781	-0,142	-0,021
238,742	-95,856	-0,177	-0,032
239,757	152,160	-0,186	-0,176
240,772	-43,733	-0,314	-0,109
241,786	90,458	-0,200	-0,155
242,801	-87,380	-0,195	-0,041
243,815	167,562	-0,153	-0,151
244,830	-74,603	-0,181	-0,045
245,844	15,671	-0,114	-0,062
246,859	-77,560	-0,137	-0,033
247,874	-200,000	-0,020	-0,348
248,888	9,891	-0,273	-0,143
249,903	269,405	-0,112	-0,137
250,917	-198,050	-0,199	0,001
251,932	252,300	-0,128	-0,152
252,947	800,000	-0,139	-0,300
253,961	142,524	-0,207	-0,191
254,976	89,282	-0,121	-0,094
255,990	-137,954	-0,327	-0,025
257,005	185,951	-0,161	-0,166
258,020	30,249	-0,084	-0,049
259,034	-62,486	-0,173	0,049
260,049	108,860	-0,090	-0,074
261,063	5,076	-0,233	-0,118
262,078	15,549	-0,187	-0,101
263,093	800,000	-0,138	-0,285
264,107	-71,133	-0,243	0,063
265,122	433,983	-0,059	-0,089
266,136	-22,511	-0,178	-0,074
267,151	42,935	-0,101	0,064
268,166	409,804	-0,036	-0,053
269,180	212,849	-0,186	-0,204
270,195	478,670	-0,161	-0,254
271,209	-45,147	-0,212	-0,073
272,224	322,286	-0,230	-0,304
273,239	-102,313	-0,194	-0,032
274,253	-48,699	-0,179	-0,059
275,268	22,979	-0,253	-0,143
276,282	68,836	-0,245	-0,174
277,297	322,118	-0,140	-0,184
278,312	214,631	-0,218	-0,239
279,326	133,898	-0,121	-0,109
280,341	800,000	-0,027	-0,077
281,355	124,905	-0,146	-0,127
282,370	-57,138	-0,172	-0,052
283,384	70,959	-0,259	-0,185
284,399	800,000	-0,134	-0,295
285,414	372,122	-0,137	-0,193
286,428	297,764	-0,078	-0,100
287,443	90,048	-0,106	-0,082
288,457	-131,247	-0,078	0,007
289,472	29,845	-0,151	-0,089
290,487	-26,081	-0,388	-0,157
291,501	148,619	-0,161	-0,151
292,516	20,499	-0,127	-0,071
293,530	91,362	-0,037	0,029
294,545	-10,267	-0,218	-0,100
295,560	92,266	-0,162	-0,126
296,574	800,000	-0,092	-0,268
297,589	6,327	-0,244	-0,125
298,603	124,303	-0,185	-0,161
299,618	25,617	-0,164	-0,094
300,633	-65,130	-0,169	-0,047
301,647	-71,710	-0,216	-0,055
302,662	63,895	-0,131	-0,090
303,676	374,218	-0,093	-0,132
304,691	16,032	-0,130	-0,070
305,706	800,000	-0,141	-0,286
306,720	147,307	-0,157	-0,146
307,735	800,000	-0,089	-0,189
308,749	-73,715	-0,140	0,035
309,764	36,667	-0,127	-0,077
310,779	573,591	-0,107	-0,181
311,793	315,426	-0,108	-0,141
312,808	-169,410	-0,147	-0,004
313,822	109,519	-0,116	-0,095
314,837	421,703	-0,117	-0,174
315,852	1,066	-0,067	-0,033
316,866	184,260	-0,062	0,063
317,881	775,188	-0,095	-0,179
318,895	535,456	-0,132	-0,216
319,910	104,621	-0,128	-0,104
320,925	146,010	-0,228	-0,211
321,939	-9,349	-0,204	-0,094
322,954	7,267	-0,148	-0,076
323,968	-117,053	-0,134	-0,017
324,983	800,000	0,020	-0,047
325,997	-106,378	-0,039	-0,006
327,012	439,448	-0,119	-0,180
328,027	72,671	-0,080	-0,057
329,041	25,066	-0,141	-0,080
330,056	89,805	-0,063	-0,048
331,070	-126,511	-0,271	0,027
332,085	-109,121	-0,129	-0,019
333,100	219,241	-0,126	-0,139
334,114	5,181	-0,098	-0,049
335,129	-107,675	-0,094	-0,014
336,143	55,619	-0,205	-0,137
337,158	800,000	-0,053	-0,127
338,173	42,909	-0,126	0,079
339,187	5,824	-0,079	0,040
340,202	-46,086	-0,104	-0,035
341,216	-152,891	-0,179	0,009
342,231	191,902	-0,194	-0,201
343,246	-26,999	-0,082	-0,033
344,260	-136,271	-0,118	0,009
345,275	515,941	-0,068	-0,110
346,289	-50,726	-0,142	-0,046
347,304	204,184	-0,145	-0,155
348,319	465,394	-0,131	-0,203
349,333	800,000	-0,133	-0,286
350,348	201,517	-0,240	-0,254
351,362	539,169	-0,092	-0,150
352,377	83,793	-0,090	-0,068
353,392	-110,270	-0,144	-0,020
354,406	-85,334	-0,231	-0,049
355,421	209,223	1313,507	1415,167
356,435	161,017	1474,108	1415,676
