DTS Sentinel unit serial number:	SN410029Multiplexer serial number:	ORYXHardware model number:	OX2-SRSoftware version number:	ORYX F/W v4,00 Oryx Data Collector v3.7.2.0data status	okinstallation	B3 Nyhavnadifferential loss correction	single-endedforward channel	channel 1reverse channel	N/Adate	2023/12/03time	10:52:30forward acquisition time	300,00reverse acquisition time	0,00gamma	499,1914k internal	0,3201k external	0,3201temperature offset calibration	1,0000default loss term (dB/km)	0,3820temperature slope calibration	1,0000multiplexer offset coefficient	1,0000multiplexer slope coefficient	1,0000fibre end	0,00T internal ref (°C)	13,44T ext. ref 1 (°C)	-1,34T ext. ref 2 (°C)	-1,34length (m)	temperature (°C)	Stokes	anti-Stokes-744,400	272,336	-0,237	-0,304
-743,385	-200,000	0,050	0,444
-742,371	221,765	-0,189	-0,222
-741,356	-200,000	-0,028	0,242
-740,342	231,229	-0,140	-0,167
-739,327	-200,000	-0,021	0,316
-738,312	269,886	-0,165	-0,212
-737,298	-200,000	0,028	0,210
-736,283	140,781	-0,265	-0,254
-735,269	800,000	0,104	0,312
-734,254	-102,039	-0,310	-0,054
-733,239	257,062	-0,167	0,209
-732,225	800,000	-0,100	-0,218
-731,210	139,467	0,131	0,126
-730,196	800,000	-0,039	0,113
-729,181	-200,000	0,040	-0,157
-728,167	74,818	-0,048	-0,037
-727,152	277,013	0,074	0,095
-726,137	-200,000	-0,025	-0,169
-725,123	722,621	-0,025	-0,049
-724,108	-200,000	0,019	-0,129
-723,094	-200,000	-0,011	0,102
-722,079	-200,000	-0,012	-0,150
-721,064	210,440	-0,023	-0,027
-720,050	-49,989	-0,103	0,035
-719,035	800,000	0,041	-0,109
-718,021	-200,000	-0,043	-0,158
-717,006	310,213	-0,100	-0,136
-715,991	-32,625	-0,166	-0,067
-714,977	-75,044	-0,122	0,032
-713,962	159,556	-0,028	-0,028
-712,948	-29,504	-0,070	0,029
-711,933	-200,000	0,023	0,141
-710,918	-106,645	-0,122	-0,020
-709,904	-41,904	0,060	0,022
-708,889	115,304	-0,066	-0,059
-707,875	-200,000	0,012	-0,056
-706,860	800,000	-0,032	-0,091
-705,845	158,979	0,063	0,063
-704,831	146,646	0,086	0,084
-703,816	-17,987	-0,087	0,039
-702,802	452,546	0,010	-0,016
-701,787	729,174	-0,079	-0,153
-700,772	-4,711	-0,105	-0,053
-699,758	800,000	-0,039	0,101
-698,743	98,063	-0,018	-0,015
-697,729	161,388	0,015	-0,015
-696,714	25,842	-0,024	-0,015
-695,699	-13,260	-0,103	-0,049
-694,685	296,014	0,015	-0,020
-693,670	-72,608	-0,162	0,043
-692,656	487,413	-0,092	-0,153
-691,641	-70,364	0,058	-0,016
-690,627	-93,222	0,053	-0,011
-689,612	800,000	-0,022	-0,057
-688,597	800,000	-0,077	-0,179
-687,583	84,986	-0,145	-0,115
-686,568	-133,767	-0,162	-0,014
-685,554	-17,217	0,119	0,054
-684,539	332,601	0,062	0,087
-683,524	-200,000	-0,014	0,116
-682,510	-200,000	-0,020	0,100
-681,495	-200,000	0,037	-0,117
-680,481	30,111	0,140	-0,087
-679,466	-73,203	-0,022	-0,006
-678,451	620,277	-0,035	-0,065
-677,437	525,158	0,058	-0,100
-676,422	-200,000	0,012	0,066
-675,408	121,502	-0,117	0,106
-674,393	-46,395	0,121	0,043
-673,378	44,830	-0,018	-0,012
-672,364	159,092	-0,046	-0,046
-671,349	-1,498	0,021	-0,011
-670,335	-44,981	-0,032	0,011
-669,320	800,000	-0,047	-0,126
-668,305	-46,027	-0,129	0,046
-667,291	-107,450	0,131	-0,021
-666,276	-132,320	-0,049	-0,005
-665,262	-163,087	-0,065	-0,002
-664,247	-100,727	0,051	0,009
-663,232	800,000	0,057	-0,126
-662,218	800,000	0,053	0,133
-661,203	-49,206	-0,079	0,027
-660,189	-32,758	-0,102	-0,041
-659,174	16,230	-0,051	0,029
-658,159	-13,369	-0,030	0,014
-657,145	86,159	-0,062	0,050
-656,130	-42,825	0,100	-0,037
-655,116	-69,447	0,181	0,050
-654,101	-70,183	-0,195	0,053
-653,086	138,003	0,065	0,062
-652,072	-98,011	0,099	-0,018
-651,057	-200,000	-0,014	-0,076
-650,043	70,749	-0,028	-0,021
-649,028	620,105	0,041	-0,076
-648,014	402,302	-0,065	0,099
-646,999	800,000	-0,020	-0,044
-645,984	800,000	-0,023	0,065
-644,970	800,000	-0,068	-0,183
-643,955	107,265	0,094	0,081
-642,941	148,782	-0,193	-0,189
-641,926	800,000	-0,031	-0,095
-640,911	800,000	0,023	-0,067
-639,897	-27,555	0,024	0,010
-638,882	225,743	-0,045	0,053
-637,868	-30,454	0,038	-0,016
-636,853	-200,000	0,006	-0,041
-635,838	296,791	0,025	-0,034
-634,824	-41,990	-0,026	-0,009
-633,809	-200,000	-0,005	-0,052
-632,795	613,925	-0,018	-0,034
-631,780	59,647	-0,021	0,015
-630,765	800,000	0,034	-0,069
-629,751	-125,098	-0,018	0,002
-628,736	130,092	-0,105	-0,097
-627,722	68,225	-0,064	0,047
-626,707	-165,786	0,072	0,002
-625,692	119,123	0,021	-0,019
-624,678	-42,886	-0,068	0,025
-623,663	800,000	0,056	-0,123
-622,649	-4,170	-0,191	-0,095
-621,634	800,000	0,046	-0,116
-620,619	800,000	-0,064	-0,159
-619,605	585,825	0,024	-0,042
-618,590	-200,000	-0,037	0,210
-617,576	-200,000	0,009	-0,075
-616,561	-200,000	-0,001	0,022
-615,546	-103,347	0,025	0,004
-614,532	800,000	0,028	-0,086
-613,517	68,110	-0,091	-0,067
-612,503	22,285	0,115	0,068
-611,488	-50,174	0,068	0,023
-610,474	-200,000	0,030	0,111
-609,459	-58,280	-0,103	0,032
-608,444	-18,407	-0,161	-0,072
-607,430	499,795	-0,053	-0,089
-606,415	649,795	-0,076	-0,141
-605,401	-49,555	-0,053	0,018
-604,386	-200,000	-0,013	-0,049
-603,371	11,504	0,035	0,019
-602,357	794,048	-0,045	0,090
-601,342	83,749	-0,083	0,065
-600,328	269,622	-0,015	-0,019
-599,313	21,196	0,018	0,011
-598,298	800,000	0,039	0,112
-597,284	191,758	0,091	-0,099
-596,269	23,748	-0,138	-0,082
-595,255	800,000	0,063	-0,139
-594,240	-200,000	-0,030	-0,177
-593,225	364,477	0,023	-0,034
-592,211	61,973	-0,158	-0,114
-591,196	220,332	-0,065	-0,075
-590,182	233,634	0,110	0,131
-589,167	-3,525	0,104	0,052
-588,152	800,000	0,030	0,096
-587,138	-110,336	0,061	0,009
-586,123	-110,393	0,086	-0,013
-585,109	49,804	-0,088	-0,060
-584,094	9,733	-0,153	-0,084
-583,079	-34,334	-0,024	-0,009
-582,065	-31,277	0,101	-0,041
-581,050	670,124	0,048	-0,090
-580,036	91,464	0,034	-0,028
-579,021	-61,199	-0,079	-0,024
-578,006	15,158	-0,065	0,037
-576,992	434,424	0,042	-0,066
-575,977	-200,000	-0,010	-0,100
-574,963	72,677	0,120	0,091
-573,948	254,907	-0,073	0,091
-572,934	800,000	-0,021	0,055
-571,919	-200,000	-0,011	-0,090
-570,904	-200,000	0,011	-0,215
-569,890	800,000	0,019	0,051
-568,875	285,485	-0,013	0,017
-567,861	-21,606	0,154	0,068
-566,846	257,736	0,039	0,049
-565,831	-14,686	-0,069	-0,032
-564,817	-143,697	0,093	0,006
-563,802	501,141	-0,089	-0,149
-562,788	800,000	0,034	0,070
-561,773	607,011	0,063	0,114
-560,758	-200,000	-0,005	-0,036
-559,744	-40,501	0,083	-0,031
-558,729	237,513	0,133	-0,160
-557,715	-10,154	-0,193	-0,092
-556,700	-6,040	0,110	-0,054
-555,685	40,068	-0,112	0,073
-554,671	-200,000	-0,021	0,072
-553,656	-114,957	-0,150	0,020
-552,642	132,570	-0,105	0,098
-551,627	-200,000	0,004	0,100
-550,612	-2,226	-0,018	-0,009
-549,598	347,168	0,082	-0,117
-548,583	259,216	-0,158	-0,197
-547,569	25,694	0,081	-0,048
-546,554	168,963	-0,024	-0,025
-545,539	800,000	0,012	-0,037
-544,525	114,398	-0,087	-0,076
-543,510	-126,817	0,155	0,016
-542,496	-102,653	0,026	-0,005
-541,481	132,594	0,063	0,058
-540,466	303,289	-0,021	0,028
-539,452	180,127	0,093	-0,099
-538,437	-200,000	-0,020	0,103
-537,423	612,502	-0,007	-0,013
-536,408	800,000	-0,030	-0,067
-535,393	-200,000	0,000	0,035
-534,379	43,611	0,103	0,068
-533,364	-33,588	0,077	-0,030
-532,350	800,000	0,023	0,050
-531,335	742,313	0,014	0,027
-530,321	-110,415	-0,036	-0,005
-529,306	-148,214	-0,095	-0,006
-528,291	423,205	-0,059	-0,091
-527,277	-200,000	-0,005	0,034
-526,262	88,703	0,040	0,032
-525,248	-84,851	0,102	0,023
-524,233	105,133	-0,027	0,023
-523,218	-54,376	0,146	0,047
-522,204	224,277	0,069	0,080
-521,189	6,894	-0,103	-0,055
-520,175	0,385	0,067	0,034
-519,160	192,126	0,085	-0,093
-518,145	100,112	0,010	-0,008
-517,131	590,467	0,046	0,082
-516,116	126,593	-0,069	0,063
-515,102	247,217	-0,054	0,065
-514,087	800,000	-0,034	-0,086
-513,072	800,000	-0,064	-0,140
-512,058	256,652	0,038	0,047
-511,043	-11,082	-0,111	-0,053
-510,029	-128,438	0,041	0,004
-509,014	286,554	-0,071	-0,093
-507,999	394,124	-0,107	-0,161
-506,985	800,000	0,069	0,153
-505,970	383,065	-0,068	0,101
-504,956	-173,998	-0,049	0,001
-503,941	340,547	-0,048	0,068
-502,926	672,004	0,025	0,047
-501,912	77,094	0,075	0,058
-500,897	-185,787	-0,110	-0,001
-499,883	800,000	0,034	-0,089
-498,868	233,482	-0,045	-0,053
-497,853	-200,000	-0,010	-0,120
-496,839	207,375	-0,085	-0,096
-495,824	-200,000	0,002	-0,026
-494,810	-95,094	0,050	0,010
-493,795	451,961	-0,050	-0,080
-492,781	-200,000	0,034	-0,110
-491,766	800,000	0,033	-0,075
-490,751	-200,000	0,011	-0,144
-489,737	196,875	-0,094	-0,104
-488,722	246,560	-0,120	0,146
-487,708	-200,000	-0,031	0,129
-486,693	187,651	0,062	0,067
-485,678	424,063	-0,092	-0,143
-484,664	-200,000	0,031	-0,162
-483,649	-200,000	0,007	-0,153
-482,635	800,000	-0,047	-0,141
-481,620	182,658	-0,082	-0,087
-480,605	-76,683	0,177	-0,044
-479,591	38,140	-0,052	-0,033
-478,576	201,610	0,067	-0,074
-477,562	58,870	-0,010	-0,007
-476,547	27,294	-0,087	-0,053
-475,532	-63,680	-0,028	0,008
-474,518	302,222	0,035	0,047
-473,503	734,871	-0,057	0,111
-472,489	-43,400	0,117	-0,042
-471,474	111,645	0,077	-0,067
-470,459	-84,314	-0,057	-0,013
-469,445	707,261	0,046	-0,087
-468,430	800,000	0,028	0,059
-467,416	-200,000	-0,021	0,123
-466,401	-59,709	0,123	0,038
-465,386	-5,964	-0,087	0,043
-464,372	137,204	0,044	-0,041
-463,357	-200,000	0,030	-0,171
-462,343	358,011	-0,058	-0,084
-461,328	98,484	0,073	-0,061
-460,313	-96,930	-0,081	0,015
-459,299	675,641	0,053	0,100
-458,284	743,347	-0,049	0,096
-457,270	-115,924	0,071	0,009
-456,255	-68,917	0,199	-0,055
-455,241	165,052	0,080	0,081
-454,226	7,880	0,216	0,116
-453,211	-200,000	0,009	0,152
-452,197	-29,794	0,036	0,015
-451,182	-200,000	-0,029	0,095
-450,168	79,248	-0,082	0,063
-449,153	98,248	-0,079	-0,066
-448,138	117,100	-0,078	-0,069
-447,124	-200,000	-0,026	0,083
-446,109	-141,903	0,135	0,010
-445,095	174,910	0,106	0,111
-444,080	120,006	-0,073	0,065
-443,065	424,832	0,065	0,101
-442,051	800,000	0,027	0,084
-441,036	800,000	0,016	-0,048
-440,022	-14,682	-0,087	-0,040
-439,007	214,530	0,048	-0,054
-437,992	-87,351	0,049	0,011
-436,978	-135,908	-0,024	-0,002
-435,963	205,329	0,095	0,106
-434,949	103,138	-0,049	0,041
-433,934	49,635	-0,039	-0,026
-432,919	232,324	-0,079	-0,093
-431,905	530,338	0,093	-0,158
-430,890	-131,305	0,100	0,009
-429,876	568,790	0,027	-0,047
-428,861	194,868	-0,025	0,027
-427,846	-200,000	0,009	0,071
-426,832	-80,542	-0,226	0,054
-425,817	323,754	-0,017	-0,024
-424,803	-16,990	0,025	0,011
-423,788	-200,000	0,006	0,071
-422,773	-95,474	0,067	0,013
-421,759	-200,000	0,000	-0,007
-420,744	71,841	0,065	0,049
-419,730	800,000	-0,029	-0,062
-418,715	200,857	-0,054	0,060
-417,701	53,788	0,174	-0,120
-416,686	800,000	-0,031	-0,093
-415,671	-74,476	0,008	-0,002
-414,657	-157,834	0,100	-0,004
-413,642	83,461	-0,033	0,026
-412,628	249,288	-0,025	-0,031
-411,613	-200,000	-0,030	-0,096
-410,598	180,141	-0,072	-0,076
-409,584	697,249	-0,063	-0,120
-408,569	800,000	0,076	0,200
-407,555	178,542	0,067	0,071
-406,540	800,000	-0,031	0,073
-405,525	-108,479	-0,032	-0,005
-404,511	-41,763	-0,208	0,076
-403,496	-100,899	-0,064	0,011
-402,482	-6,087	0,036	-0,018
-401,467	326,098	0,056	0,078
-400,452	-35,878	-0,168	-0,065
-399,438	800,000	-0,052	0,146
-398,423	-200,000	0,015	-0,051
-397,409	-49,200	0,016	-0,006
-396,394	800,000	-0,019	0,050
-395,379	-157,300	0,073	-0,003
-394,365	-77,856	0,156	-0,038
-393,350	-104,232	-0,080	-0,013
-392,336	-200,000	0,033	0,119
-391,321	800,000	0,028	0,057
-390,306	604,104	0,039	-0,071
-389,292	800,000	0,030	-0,067
-388,277	275,880	0,030	-0,038
-387,263	-96,860	-0,054	-0,010
-386,248	-60,829	0,114	0,034
-385,233	119,623	0,047	0,041
-384,219	-77,604	0,143	0,035
-383,204	187,598	-0,065	-0,070
-382,190	-52,630	-0,124	0,041
-381,175	-200,000	-0,020	-0,227
-380,160	197,523	-0,065	-0,071
-379,146	-134,338	0,074	0,006
-378,131	-200,000	-0,023	0,151
-377,117	-200,000	-0,001	0,010
-376,102	128,135	0,084	-0,077
-375,088	41,338	0,057	0,037
-374,073	800,000	-0,027	-0,083
-373,058	204,633	0,081	0,090
-372,044	-200,000	0,029	0,185
-371,029	271,249	0,070	0,088
-370,015	239,301	-0,086	0,102
-369,000	-14,373	-0,066	0,030
-367,985	243,789	0,055	-0,067
-366,971	17,245	0,056	0,032
-365,956	79,264	-0,032	0,025
-364,942	580,313	-0,084	0,148
-363,927	49,380	0,148	0,100
-362,912	-140,916	0,052	-0,004
-361,898	229,516	0,070	0,082
-360,883	483,268	-0,036	0,059
-359,869	-51,057	0,092	-0,031
-358,854	-126,090	0,112	0,012
-357,839	-200,000	-0,040	0,158
-356,825	196,951	0,084	0,092
-355,810	-119,016	-0,108	-0,013
-354,796	-123,610	0,105	-0,012
-353,781	32,296	0,073	-0,045
-352,766	202,667	-0,051	0,056
-351,752	-200,000	-0,038	0,140
-350,737	-79,627	-0,027	0,006
-349,723	51,316	-0,118	-0,080
-348,708	137,233	0,079	0,074
-347,693	800,000	0,016	-0,045
-346,679	-9,418	0,124	-0,059
-345,664	89,169	0,066	-0,052
-344,650	143,697	0,076	-0,072
-343,635	-196,023	0,027	0,000
-342,620	196,623	0,047	0,051
-341,606	-37,446	0,062	-0,023
-340,591	5,562	0,068	0,036
-339,577	-200,000	-0,004	-0,078
-338,562	32,722	0,046	0,028
-337,548	-5,198	0,015	0,007
-336,533	-200,000	-0,020	0,090
-335,518	256,180	0,135	0,166
-334,504	402,949	-0,057	0,087
-333,489	-200,000	0,002	0,014
-332,475	179,942	-0,065	-0,068
-331,460	228,931	0,064	-0,074
-330,445	-200,000	0,015	0,130
-329,431	-196,479	0,120	0,001
-328,416	-200,000	0,008	0,077
-327,402	-200,000	0,007	0,057
-326,387	800,000	0,028	-0,057
-325,372	800,000	-0,078	-0,162
-324,358	-152,668	-0,133	-0,007
-323,343	-130,242	-0,079	0,008
-322,329	418,341	0,035	0,053
-321,314	46,018	-0,027	0,018
-320,299	-5,574	0,079	-0,039
-319,285	-96,451	0,097	-0,018
-318,270	193,477	0,039	0,042
-317,256	-141,855	-0,008	0,001
-316,241	-200,000	0,003	-0,019
-315,226	800,000	0,071	0,156
-314,212	-200,000	0,005	0,142
-313,197	400,605	0,083	0,126
-312,183	89,181	-0,046	-0,036
-311,168	-113,790	-0,058	0,008
-310,153	444,925	0,006	-0,009
-309,139	-56,462	0,061	0,019
-308,124	6,319	0,048	-0,025
-307,110	-50,320	-0,059	-0,020
-306,095	800,000	-0,028	0,062
-305,080	249,838	0,052	-0,064
-304,066	11,633	0,007	0,004
-303,051	-56,874	-0,081	-0,025
-302,037	266,556	-0,045	-0,056
-301,022	-123,007	-0,035	-0,004
-300,008	-200,000	-0,061	0,229
-298,993	-200,000	0,035	0,163
-297,978	284,480	0,036	0,046
-296,964	158,712	0,030	0,030
-295,949	531,060	0,070	-0,118
-294,935	146,123	-0,139	-0,133
-293,920	-45,406	-0,144	0,051
-292,905	-200,000	0,001	-0,117
-291,891	-200,000	-0,006	-0,032
-290,876	52,872	0,013	0,009
-289,862	46,715	-0,070	0,047
-288,847	-162,186	-0,075	0,003
-287,832	93,112	0,054	-0,044
-286,818	-69,335	0,096	0,026
-285,803	91,424	0,034	-0,027
-284,789	43,783	0,054	0,035
-283,774	-73,144	-0,097	-0,025
-282,759	45,362	-0,102	-0,067
-281,745	-200,000	0,010	-0,053
-280,730	246,030	-0,035	-0,042
-279,716	46,188	0,053	0,035
-278,701	800,000	0,037	0,074
-277,686	-200,000	-0,019	0,076
-276,672	98,792	0,095	-0,078
-275,657	387,477	-0,070	-0,103
-274,643	50,289	-0,143	0,096
-273,628	792,332	-0,051	-0,100
-272,613	-35,356	0,070	-0,027
-271,599	800,000	-0,040	0,080
-270,584	800,000	0,024	0,064
-269,570	-200,000	0,010	0,164
-268,555	355,267	0,050	0,071
-267,540	760,855	0,048	-0,093
-266,526	-200,000	-0,001	-0,012
-265,511	156,149	-0,058	-0,057
-264,497	800,000	0,021	0,062
-263,482	-67,334	0,058	-0,016
-262,467	95,956	0,036	0,029
-261,453	87,728	0,078	0,061
-260,438	324,112	-0,057	-0,077
-259,424	800,000	0,046	-0,126
-258,409	368,015	-0,119	-0,173
-257,395	282,724	-0,062	-0,079
-256,380	444,634	0,069	0,108
-255,365	-200,000	0,019	0,080
-254,351	-200,000	0,004	0,015
-253,336	800,000	-0,020	0,056
-252,322	102,469	-0,078	-0,065
-251,307	800,000	0,012	-0,035
-250,292	-109,431	0,056	0,008
-249,278	146,385	-0,146	0,140
-248,263	188,617	0,133	0,142
-247,249	313,570	0,062	0,083
-246,234	61,818	0,016	0,012
-245,219	-72,094	-0,110	0,029
-244,205	-166,380	-0,100	0,003
-243,190	30,765	0,134	-0,082
-242,176	800,000	0,062	0,139
-241,161	791,533	0,037	-0,074
-240,146	191,736	0,030	0,032
-239,132	800,000	0,014	0,038
-238,117	18,787	-0,018	-0,010
-237,103	96,038	-0,076	-0,062
-236,088	-200,000	0,017	-0,077
-235,073	299,468	0,056	0,073
-234,059	479,566	0,060	-0,098
-233,044	-51,620	0,100	0,033
-232,030	-109,173	0,082	0,012
-231,015	-38,390	-0,050	-0,019
-230,000	664,622	0,038	-0,070
-228,986	-71,334	0,069	-0,018
-227,971	-188,553	-0,085	-0,001
-226,957	-200,000	-0,001	0,028
-225,942	-97,835	0,021	-0,004
-224,927	-200,000	0,009	0,030
-223,913	350,365	0,035	-0,050
-222,898	-45,063	-0,168	-0,059
-221,884	46,473	0,086	-0,056
-220,869	190,450	0,017	-0,018
-219,855	-200,000	-0,022	0,089
-218,840	-200,000	-0,048	0,162
-217,825	-200,000	-0,010	0,087
-216,811	-200,000	-0,005	-0,029
-215,796	-200,000	-0,003	0,092
-214,782	-200,000	-0,006	-0,095
-213,767	-53,433	-0,145	0,047
-212,752	59,251	0,164	-0,115
-211,738	528,501	0,104	-0,175
-210,723	199,121	-0,065	-0,071
-209,709	732,551	-0,029	0,055
-208,694	457,309	-0,033	0,053
-207,679	215,133	0,074	0,084
-206,665	800,000	0,047	0,118
-205,650	110,761	0,082	0,070
-204,636	264,503	-0,048	0,060
-203,621	-200,000	-0,046	0,159
-202,606	164,245	-0,070	0,071
-201,592	336,140	-0,093	-0,129
-200,577	262,481	-0,043	-0,053
-199,563	-53,996	0,015	-0,005
-198,548	335,539	-0,115	0,160
-197,533	-200,000	-0,029	0,138
-196,519	-200,000	0,043	-0,147
-195,504	184,200	-0,083	0,087
-194,490	-6,355	-0,097	0,047
-193,475	121,177	-0,053	0,047
-192,460	-3,895	0,019	0,009
-191,446	-200,000	-0,067	0,000
-190,431	-104,765	0,041	0,007
-189,417	-200,000	-0,012	0,100
-188,402	-200,000	-0,021	0,160
-187,387	183,609	-0,114	0,120
-186,373	148,047	0,082	0,079
-185,358	-54,054	0,027	0,009
-184,344	-2,434	0,177	0,088
-183,329	67,829	-0,126	-0,092
-182,315	57,391	-0,061	-0,042
-181,300	205,408	0,008	-0,009
-180,285	-200,000	0,020	0,104
-179,271	800,000	0,114	-0,240
-178,256	327,788	0,027	0,036
-177,242	5,876	0,098	0,052
-176,227	-51,513	0,112	0,037
-175,212	-101,724	-0,111	0,019
-174,198	-24,251	0,107	-0,045
-173,183	-200,000	0,020	-0,077
-172,169	-104,626	-0,137	0,022
-171,154	532,258	0,005	-0,008
-170,139	-200,000	-0,006	-0,042
-169,125	-110,106	-0,103	0,015
-168,110	44,269	-0,088	0,057
-167,096	-200,000	-0,011	-0,122
-166,081	275,289	0,032	-0,041
-165,066	252,108	-0,040	-0,048
-164,052	-58,586	-0,097	-0,030
-163,037	78,165	0,030	-0,022
-162,023	800,000	0,019	0,039
-161,008	-62,225	0,041	-0,012
-159,993	-200,000	0,003	0,122
-158,979	261,697	-0,098	0,121
-157,964	192,550	-0,039	-0,042
-156,950	-109,958	-0,050	-0,007
-155,935	-92,864	-0,099	-0,020
-154,920	621,696	0,017	-0,031
-153,906	800,000	-0,033	0,071
-152,891	81,387	-0,150	-0,115
-151,877	77,613	-0,114	0,086
-150,862	-30,201	-0,065	0,026
-149,847	346,360	0,037	-0,052
-148,833	145,300	-0,038	-0,036
-147,818	190,976	-0,027	0,029
-146,804	-200,000	-0,018	0,076
-145,789	-84,599	0,048	-0,011
-144,775	241,378	-0,072	-0,086
-143,760	49,222	0,031	0,021
-142,745	-102,931	-0,129	-0,022
-141,731	800,000	-0,039	0,090
-140,716	41,766	0,050	0,032
-139,702	-26,463	-0,050	0,021
-138,687	-61,447	0,073	0,022
-137,672	56,016	-0,028	-0,019
-136,658	-131,899	-0,138	-0,013
-135,643	42,214	0,172	-0,111
-134,629	-200,000	-0,002	-0,033
-133,614	592,069	-0,034	-0,059
-132,599	36,056	-0,086	-0,053
-131,585	9,790	0,054	0,029
-130,570	-200,000	0,007	0,049
-129,556	-51,877	-0,152	0,050
-128,541	-51,475	-0,067	-0,022
-127,526	-62,059	0,078	-0,023
-126,512	159,519	0,110	-0,109
-125,497	8,072	0,110	-0,059
-124,483	249,407	-0,053	0,064
-123,468	256,903	-0,058	0,071
-122,453	122,776	-0,056	0,050
-121,439	686,167	-0,056	0,105
-120,424	202,803	-0,039	0,043
-119,410	-200,000	0,011	0,107
-118,395	2,922	0,057	-0,029
-117,380	292,856	0,034	0,044
-116,366	800,000	-0,029	0,085
-115,351	328,664	0,083	-0,114
-114,337	-200,000	0,009	-0,045
-113,322	552,090	0,025	0,043
-112,307	71,433	-0,024	-0,018
-111,293	-159,433	-0,079	0,003
-110,278	227,074	-0,073	-0,084
-109,264	-10,317	-0,035	-0,016
-108,249	800,000	-0,052	0,161
-107,234	800,000	0,049	-0,135
-106,220	-200,000	-0,004	-0,150
-105,205	800,000	0,044	0,110
-104,191	800,000	0,038	0,107
-103,176	800,000	-0,081	0,209
-102,162	21,956	0,078	-0,045
-101,147	-33,467	-0,067	0,026
-100,132	12,981	0,058	0,032
-99,118	-200,000	-0,008	-0,137
-98,103	253,340	0,072	0,088
-97,089	-200,000	0,040	-0,128
-96,074	-56,273	-0,053	-0,017
-95,059	-106,612	-0,110	-0,017
-94,045	186,725	-0,059	0,062
-93,030	29,204	-0,020	-0,012
-92,016	287,983	-0,007	0,009
-91,001	800,000	0,060	0,142
-89,986	106,920	0,087	0,073
-88,972	91,826	-0,089	0,071
-87,957	-200,000	-0,012	-0,067
-86,943	-75,432	0,207	0,052
-85,928	800,000	-0,062	-0,123
-84,913	663,549	0,015	-0,027
-83,899	-7,941	0,047	0,023
-82,884	222,781	-0,089	-0,102
-81,870	459,975	0,084	0,134
-80,855	800,000	-0,009	-0,029
-79,840	-139,300	-0,157	0,012
-78,826	-200,000	-0,013	0,104
-77,811	-43,953	-0,126	0,045
-76,797	580,657	-0,095	-0,165
-75,782	34,178	0,167	-0,103
-74,767	244,120	-0,007	0,008
-73,753	-200,000	0,009	0,046
-72,738	800,000	-0,014	-0,041
-71,724	-33,850	-0,153	-0,059
-70,709	800,000	-0,042	-0,085
-69,694	8,815	-0,062	-0,033
-68,680	150,845	0,193	0,186
-67,665	757,025	-0,038	0,073
-66,651	800,000	0,022	-0,056
-65,636	158,671	0,109	0,108
-64,622	-107,781	-0,094	-0,014
-63,607	480,023	-0,062	0,099
-62,592	218,424	-0,062	-0,070
-61,578	85,849	0,042	0,033
-60,563	800,000	-0,062	0,168
-59,549	83,578	0,105	0,081
-58,534	-11,017	-1,621	-0,755
-57,519	463,806	-1,275	-2,025
-56,505	-200,000	-0,466	-4,465
-55,490	228,976	1,119	1,295
-54,476	800,000	4,840	11,084
-53,461	-200,000	19,055	318,019
-52,446	-200,000	739,356	2333,940
-51,432	576,279	1654,809	2873,886
-50,417	78,668	1670,961	1263,804
-49,403	21,461	1543,763	886,382
-48,388	15,332	1466,276	812,090
-47,373	17,947	1456,489	819,275
-46,359	16,686	1446,507	807,579
-45,344	13,572	1441,663	789,932
-44,330	13,505	1439,692	788,497
-43,315	13,469	1438,184	787,469
-42,300	13,485	1436,442	786,561
-41,286	13,520	1435,088	785,955
-40,271	13,503	1433,798	785,137
-39,257	13,460	1432,617	784,252
-38,242	13,525	1431,157	783,731
-37,227	13,510	1430,160	783,083
-36,213	13,541	1428,725	782,414
-35,198	13,537	1427,600	781,746
-34,184	13,570	1426,692	781,378
-33,169	13,533	1425,306	780,411
-32,154	13,528	1424,330	779,823
-31,140	13,527	1423,206	779,168
-30,125	13,576	1421,897	778,656
-29,111	13,539	1420,749	777,820
-28,096	13,531	1419,450	777,040
-27,082	13,478	1418,423	776,195
-26,067	13,461	1417,592	775,632
-25,052	13,496	1416,468	775,151
-24,038	13,472	1415,152	774,286
-23,023	13,441	1414,396	773,698
-22,009	13,423	1413,385	773,025
-20,994	13,451	1412,377	772,577
-19,979	13,417	1411,653	771,991
-18,965	13,401	1410,571	771,296
-17,950	13,400	1409,694	770,778
-16,936	13,439	1408,769	770,424
-15,921	13,371	1407,627	769,450
-14,906	13,369	1406,909	769,019
-13,892	13,411	1405,822	768,590
-12,877	13,343	1404,917	767,747
-11,863	13,385	1404,108	767,470
-10,848	13,398	1403,053	766,927
-9,833	13,329	1402,507	766,276
-8,819	13,275	1401,665	765,534
-7,804	13,310	1400,525	765,044
-6,790	13,306	1399,550	764,459
-5,775	13,256	1398,499	763,625
-4,760	13,305	1397,535	763,294
-3,746	13,268	1396,643	762,607
-2,731	13,259	1395,877	762,117
-1,717	13,287	1394,866	761,665
-0,702	13,213	1393,155	760,355
0,313	17,140	1310,353	733,336
1,327	33,595	704,343	432,238
2,342	51,890	123,478	83,037
3,356	3,056	16,540	8,477
4,371	3,616	3,201	1,646
5,386	0,893	0,623	0,315
6,400	-200,000	-0,072	0,225
7,415	175,680	-0,181	-0,186
8,429	59,429	-0,359	-0,250
9,444	19,692	-0,383	-0,217
10,459	109,847	-0,217	-0,184
11,473	36,002	-0,358	-0,223
12,488	158,826	-0,145	-0,142
13,502	181,421	-0,278	-0,289
14,517	35,784	-0,271	-0,168
15,531	75,798	-0,295	-0,220
16,546	62,422	-0,289	-0,204
17,561	138,800	-0,359	-0,334
18,575	98,684	-0,203	-0,165
19,590	228,580	-0,131	-0,151
20,604	62,911	-0,243	-0,171
21,619	235,406	-0,382	-0,447
22,634	54,106	-0,450	-0,305
23,648	-91,196	-0,462	-0,093
24,663	-2,441	-0,423	-0,209
25,677	724,654	-0,153	-0,289
26,692	28,777	-0,367	-0,219
27,707	51,217	-0,314	-0,210
28,721	181,247	-0,350	-0,363
29,736	106,266	-0,484	-0,404
30,750	102,344	-0,483	-0,398
31,765	657,565	-0,246	-0,449
32,780	231,244	-0,291	-0,337
33,794	24,138	-0,440	-0,255
34,809	171,792	-0,303	-0,307
35,823	178,434	-0,401	-0,414
36,838	321,365	-0,359	-0,482
37,853	85,904	-0,434	-0,337
38,867	-14,937	-0,421	-0,190
39,882	44,150	-0,445	-0,287
40,896	152,332	-0,395	-0,380
41,911	323,732	-0,285	-0,385
42,926	122,662	-0,398	-0,351
43,940	-8,919	-0,488	-0,229
44,955	79,820	-0,335	-0,253
45,969	110,697	-0,321	-0,272
46,984	22,190	-0,334	-0,192
47,999	80,746	-0,274	-0,208
49,013	4,827	-0,341	-0,176
50,028	85,154	-0,252	-0,194
51,042	37,687	-0,306	-0,191
52,057	-92,515	-0,472	-0,093
53,071	-17,182	-0,285	-0,126
54,086	67,027	-0,402	-0,288
55,101	185,363	-0,266	-0,279
56,115	165,466	-0,303	-0,302
57,130	220,524	-0,250	-0,283
58,144	225,034	-0,347	-0,396
59,159	8,125	-0,384	-0,203
60,174	42,041	-0,376	-0,240
61,188	118,865	-0,400	-0,348
62,203	-22,140	-0,300	-0,128
63,217	15,759	-0,258	-0,142
64,232	20,365	-0,250	-0,142
65,247	139,133	-0,350	-0,324
66,261	-124,857	-0,416	-0,045
67,276	-67,913	-0,423	-0,116
68,290	21,307	-0,403	-0,230
69,305	162,751	-0,270	-0,267
70,320	-92,790	-0,316	-0,062
71,334	-15,091	-0,408	-0,183
72,349	68,769	-0,340	-0,245
73,363	89,023	-0,409	-0,320
74,378	-62,791	-0,262	-0,076
75,393	137,470	-0,354	-0,325
76,407	335,060	-0,206	-0,282
77,422	176,736	-0,292	-0,299
78,436	279,401	-0,289	-0,363
79,451	244,098	-0,253	-0,299
80,466	-62,781	-0,357	-0,103
81,480	9,123	-0,369	-0,195
82,495	23,192	-0,395	-0,228
83,509	408,305	-0,174	-0,260
84,524	185,632	-0,218	-0,228
85,539	-64,793	-0,313	-0,089
86,553	38,086	-0,336	-0,210
87,568	70,765	-0,334	-0,242
88,582	-98,002	-0,341	-0,061
89,597	25,931	-0,328	-0,192
90,611	403,026	-0,210	-0,311
91,626	95,614	-0,351	-0,281
92,641	194,741	-0,153	-0,163
93,655	181,776	-0,229	-0,237
94,670	194,694	-0,253	-0,270
95,684	79,859	-0,326	-0,245
96,699	3,311	-0,395	-0,201
97,714	151,823	-0,231	-0,221
98,728	-155,297	-0,269	-0,012
99,743	-40,956	-0,283	-0,102
100,757	197,915	-0,194	-0,208
101,772	230,703	-0,180	-0,207
102,787	103,097	-0,266	-0,218
103,801	-149,455	-0,301	-0,016
104,816	-89,267	-0,401	-0,082
105,830	280,188	-0,223	-0,280
106,845	96,877	-0,125	-0,101
107,860	12,094	-0,237	-0,127
108,874	-129,381	-0,290	-0,028
109,889	79,974	-0,308	-0,232
110,903	-24,760	-0,396	-0,164
111,918	485,487	-0,130	-0,208
112,933	107,496	-0,217	-0,181
113,947	26,816	-0,210	-0,123
114,962	-19,166	-0,175	0,076
115,976	8,357	-0,256	-0,134
116,991	64,805	-0,310	-0,219
118,006	106,082	-0,294	-0,244
119,020	-103,093	-0,262	-0,043
120,035	269,090	-0,142	-0,175
121,049	117,936	-0,226	-0,195
122,064	6,614	-0,274	-0,142
123,079	531,538	-0,162	-0,270
124,093	245,885	-0,216	-0,255
125,108	386,042	-0,154	-0,223
126,122	-9,988	-0,375	-0,174
127,137	263,993	-0,236	-0,287
128,151	310,572	-0,143	-0,187
129,166	-16,837	-0,327	-0,144
130,181	-13,603	-0,356	-0,161
131,195	97,620	-0,308	-0,247
132,210	127,750	-0,258	-0,230
133,224	31,669	-0,286	-0,171
134,239	177,924	-0,210	-0,215
135,254	-123,557	-0,255	-0,028
136,268	11,776	-0,265	-0,142
137,283	-63,452	-0,258	-0,074
138,297	27,327	-0,225	-0,132
139,312	437,652	-0,179	-0,274
140,327	-52,477	-0,209	-0,067
141,341	85,832	-0,232	-0,178
142,356	-11,663	-0,213	-0,097
143,370	-104,913	-0,140	0,022
144,385	-5,149	-0,185	-0,089
145,400	622,518	-0,197	-0,348
146,414	142,184	-0,315	-0,292
147,429	268,772	-0,216	-0,266
148,443	58,117	-0,229	-0,156
149,458	-64,445	-0,252	-0,071
150,473	-33,361	-0,304	-0,117
151,487	-13,603	-0,208	-0,094
152,502	135,503	-0,225	-0,205
153,516	-32,367	-0,289	-0,112
154,531	140,793	-0,302	-0,278
155,546	189,188	-0,288	-0,301
156,560	800,000	-0,105	-0,218
157,575	276,346	-0,208	-0,258
158,589	110,899	-0,244	-0,205
159,604	-95,951	-0,240	-0,044
160,619	30,205	-0,304	-0,181
161,633	17,830	-0,355	-0,197
162,648	-200,000	-0,079	-0,327
163,662	67,031	-0,274	-0,195
164,677	188,059	-0,169	-0,176
165,692	43,978	-0,168	-0,107
166,706	87,677	-0,120	-0,093
167,721	86,458	-0,264	-0,203
168,735	-3,699	-0,334	-0,161
169,750	485,247	-0,123	-0,195
170,764	767,177	-0,176	-0,335
171,779	177,446	-0,181	-0,184
172,794	405,951	-0,134	-0,198
173,808	133,675	-0,268	-0,241
174,823	109,830	-0,237	-0,198
175,837	165,833	-0,190	-0,188
176,852	712,915	-0,127	-0,235
177,867	17,880	-0,249	-0,138
178,881	99,168	-0,159	-0,128
179,896	-99,416	-0,413	-0,072
180,910	-131,896	-0,295	0,026
181,925	111,804	-0,175	-0,147
182,940	533,756	-0,181	-0,299
183,954	139,341	-0,217	-0,199
184,969	56,231	-0,221	-0,150
185,983	20,267	-0,113	-0,064
186,998	146,032	-0,283	-0,265
188,013	26,009	-0,161	-0,093
189,027	349,604	-0,133	-0,183
190,042	164,830	-0,143	-0,141
191,056	368,642	-0,142	-0,200
192,071	277,872	-0,101	-0,125
193,086	160,799	-0,293	-0,285
194,100	9,234	-0,240	-0,126
195,115	386,186	-0,161	-0,232
196,129	77,840	-0,288	-0,213
197,144	-18,385	-0,304	-0,131
198,159	152,130	-0,199	-0,189
199,173	25,021	-0,179	-0,103
200,188	-2,430	-0,231	-0,112
201,202	152,357	-0,226	-0,214
202,217	-68,002	-0,183	-0,049
203,232	-93,685	-0,206	-0,039
204,246	560,247	-0,109	-0,183
205,261	-3,541	-0,345	-0,166
206,275	0,224	-0,286	-0,141
207,290	-179,494	-0,228	0,003
208,304	351,230	-0,111	-0,153
209,319	233,498	-0,089	-0,102
210,334	34,992	-0,280	-0,170
211,348	-54,601	-0,240	-0,075
212,363	107,347	-0,154	-0,127
213,377	-19,000	-0,222	-0,095
214,392	-20,760	-0,149	-0,063
215,407	108,775	-0,167	-0,138
216,421	126,077	-0,069	-0,061
217,436	89,492	-0,207	-0,160
218,450	-4,450	-0,280	-0,134
219,465	328,918	-0,145	-0,194
220,480	800,000	-0,100	-0,228
221,494	165,515	-0,156	-0,153
222,509	1,795	-0,146	-0,073
223,523	222,129	-0,132	-0,148
224,538	544,915	-0,175	-0,291
225,553	98,818	-0,309	-0,247
226,567	-60,793	-0,228	-0,067
227,582	800,000	-0,059	-0,153
228,596	-38,730	-0,156	-0,057
229,611	-172,272	-0,240	0,005
230,626	-200,000	-0,002	-0,158
231,640	-4,540	-0,165	-0,079
232,655	547,150	-0,109	-0,181
233,669	-7,302	-0,280	-0,131
234,684	-33,641	-0,251	-0,095
235,699	800,000	-0,079	-0,170
236,713	-97,212	-0,095	0,017
237,728	385,644	-0,128	-0,183
238,742	437,130	-0,186	-0,281
239,757	370,674	-0,083	-0,117
240,772	390,046	-0,122	-0,176
241,786	800,000	-0,151	-0,298
242,801	81,673	-0,128	-0,096
243,815	202,757	-0,130	-0,139
244,830	402,882	-0,162	-0,237
245,844	-83,976	-0,155	0,034
246,859	216,963	-0,132	-0,146
247,874	72,881	-0,209	-0,151
248,888	45,111	-0,133	-0,085
249,903	800,000	-0,051	-0,102
250,917	-129,845	-0,224	0,021
251,932	486,471	-0,106	-0,169
252,947	640,475	-0,045	-0,079
253,961	800,000	-0,060	-0,131
254,976	-23,097	-0,237	-0,098
255,990	-113,173	-0,178	0,024
257,005	137,799	-0,183	-0,166
258,020	-8,081	-0,180	-0,083
259,034	63,433	-0,219	-0,152
260,049	271,419	-0,159	-0,194
261,063	95,367	-0,201	-0,158
262,078	225,851	-0,190	-0,214
263,093	-140,144	-0,223	-0,016
264,107	26,325	-0,245	-0,141
265,122	-95,017	-0,112	-0,021
266,136	115,794	-0,178	-0,151
267,151	37,241	-0,187	-0,114
268,166	-12,631	-0,188	-0,085
269,180	97,612	-0,198	-0,157
270,195	519,074	-0,113	-0,183
271,209	-200,000	-0,075	-0,264
272,224	-107,147	-0,205	-0,031
273,239	128,699	-0,110	-0,097
274,253	-200,000	-0,065	-0,287
275,268	170,614	-0,127	-0,126
276,282	582,281	-0,072	-0,123
277,297	48,799	-0,165	-0,106
278,312	364,162	-0,147	-0,205
279,326	-186,409	-0,170	0,002
280,341	151,868	-0,046	0,043
281,355	800,000	-0,106	-0,218
282,370	196,643	-0,186	-0,196
283,384	58,917	-0,150	-0,102
284,399	-96,480	-0,229	-0,041
285,414	800,000	-0,047	-0,114
286,428	-122,463	-0,085	-0,009
287,443	-148,431	-0,196	0,011
288,457	-132,139	-0,151	-0,013
289,472	119,019	-0,210	-0,179
290,487	800,000	-0,126	-0,241
291,501	-40,217	-0,108	0,039
292,516	60,310	-0,201	-0,137
293,530	138,553	-0,187	-0,169
294,545	800,000	-0,068	-0,166
295,560	-39,996	-0,130	-0,046
296,574	-200,000	-0,026	-0,197
297,589	-23,490	-0,151	0,062
298,603	-27,636	-0,142	-0,057
299,618	382,071	-0,079	-0,113
300,633	-104,841	-0,146	-0,023
301,647	-10,724	-0,201	0,091
302,662	348,488	-0,193	-0,263
303,676	31,250	-0,151	-0,089
304,691	62,480	-0,142	-0,098
305,706	-18,286	-0,144	0,062
306,720	368,904	-0,148	-0,207
307,735	134,426	-0,160	-0,143
308,749	800,000	-0,082	-0,201
309,764	402,952	-0,109	-0,158
310,779	55,129	-0,133	-0,089
311,793	-0,309	-0,229	-0,112
312,808	54,603	-0,319	-0,211
313,822	-136,634	-0,171	0,013
314,837	800,000	-0,115	-0,244
315,852	173,377	-0,079	-0,078
316,866	80,113	-0,164	-0,121
317,881	263,682	-0,157	-0,188
318,895	-200,000	-0,029	-0,153
319,910	76,111	-0,157	-0,114
320,925	65,514	-0,219	-0,152
321,939	-200,000	0,027	-0,143
322,954	-18,482	-0,189	-0,081
323,968	-101,480	-0,212	0,035
324,983	-134,485	-0,040	-0,003
325,997	-135,142	-0,168	-0,014
327,012	-176,406	-0,238	0,004
328,027	-37,891	-0,140	-0,051
329,041	281,812	-0,095	-0,118
330,056	184,691	-0,109	-0,111
331,070	227,330	-0,222	-0,248
332,085	-94,927	-0,222	0,041
333,100	520,491	-0,098	-0,158
334,114	1,857	-0,202	-0,100
335,129	-8,324	-0,324	-0,149
336,143	-161,224	-0,142	0,005
337,158	-127,017	-0,076	-0,008
338,173	800,000	-0,039	-0,090
339,187	-72,659	-0,128	0,032
340,202	437,510	-0,058	-0,087
341,216	-187,474	-0,141	-0,001
342,231	-200,000	-0,008	-0,114
343,246	-60,343	-0,137	-0,040
344,260	-77,508	-0,142	-0,033
345,275	178,496	-0,080	-0,080
346,289	-93,267	-0,130	0,025
347,304	-168,068	-0,166	0,004
348,319	-28,456	-0,066	-0,026
349,333	-198,605	-0,134	-0,001
350,348	229,674	-0,127	-0,142
351,362	390,633	-0,125	-0,179
352,377	-26,355	-0,140	0,056
353,392	292,260	-0,174	0,218
354,406	-105,452	-0,209	0,032
355,421	209,732	1315,207	1416,470
356,435	161,429	1476,009	1416,974
