DTS Sentinel unit serial number:	SN410029Multiplexer serial number:	ORYXHardware model number:	OX2-SRSoftware version number:	ORYX F/W v4,00 Oryx Data Collector v3.7.2.0data status	okinstallation	B3 Nyhavnadifferential loss correction	single-endedforward channel	channel 1reverse channel	N/Adate	2023/12/01time	00:12:30forward acquisition time	300,00reverse acquisition time	0,00gamma	499,1914k internal	0,3211k external	0,3211temperature offset calibration	1,0000default loss term (dB/km)	0,3820temperature slope calibration	1,0000multiplexer offset coefficient	1,0000multiplexer slope coefficient	1,0000fibre end	0,00T internal ref (°C)	9,30T ext. ref 1 (°C)	-5,77T ext. ref 2 (°C)	-5,92length (m)	temperature (°C)	Stokes	anti-Stokes-744,400	-200,000	-0,072	-0,319
-743,385	-200,000	0,013	0,285
-742,371	800,000	-0,081	-0,177
-741,356	-200,000	-0,054	0,182
-740,342	218,690	-0,261	-0,302
-739,327	-200,000	-0,006	0,240
-738,312	-200,000	-0,096	-0,358
-737,298	296,592	0,077	0,102
-736,283	690,251	-0,157	-0,299
-735,269	-200,000	-0,049	0,253
-734,254	123,310	-0,266	-0,242
-733,239	-88,813	-0,329	0,070
-732,225	163,888	-0,202	-0,206
-731,210	-35,807	0,075	0,029
-730,196	58,261	-0,009	0,006
-729,181	107,359	-0,088	-0,076
-728,167	-200,000	0,023	-0,123
-727,152	209,639	0,077	-0,087
-726,137	-119,339	-0,175	0,022
-725,123	143,312	0,194	-0,188
-724,108	-14,268	-0,078	-0,036
-723,094	-159,749	0,055	0,002
-722,079	25,672	-0,184	-0,111
-721,064	34,675	0,031	-0,019
-720,050	800,000	-0,011	0,036
-719,035	237,398	-0,085	-0,102
-718,021	-38,860	-0,070	0,027
-717,006	-36,178	-0,034	0,013
-715,991	-200,000	-0,007	-0,066
-714,977	630,405	0,018	0,033
-713,962	-200,000	-0,025	0,117
-712,948	27,231	0,048	-0,029
-711,933	127,483	-0,048	-0,044
-710,918	-170,421	0,083	0,002
-709,904	258,169	-0,132	-0,165
-708,889	374,305	-0,079	-0,116
-707,875	394,495	-0,105	-0,159
-706,860	136,861	-0,056	0,053
-705,845	-200,000	-0,015	-0,123
-704,831	800,000	0,030	-0,065
-703,816	399,105	0,001	0,001
-702,802	347,377	-0,126	-0,180
-701,787	-13,028	-0,159	-0,075
-700,772	800,000	-0,039	-0,122
-699,758	146,449	-0,073	-0,071
-698,743	-200,000	-0,001	-0,097
-697,729	-200,000	0,002	0,040
-696,714	4,262	-0,106	0,056
-695,699	248,986	0,079	0,097
-694,685	-200,000	0,015	-0,066
-693,670	254,291	0,075	-0,093
-692,656	636,601	-0,060	0,111
-691,641	800,000	0,009	0,023
-690,627	280,780	0,086	-0,112
-689,612	760,249	-0,051	-0,101
-688,597	800,000	-0,038	-0,097
-687,583	800,000	0,078	-0,192
-686,568	336,117	-0,081	-0,114
-685,554	-112,909	0,028	-0,004
-684,539	3,768	-0,137	0,072
-683,524	-78,609	0,111	0,027
-682,510	28,742	-0,052	-0,032
-681,495	168,141	-0,062	-0,064
-680,481	800,000	-0,033	0,068
-679,466	-200,000	-0,002	-0,051
-678,451	-200,000	0,017	-0,133
-677,437	623,066	0,034	0,063
-676,422	-131,587	0,077	0,007
-675,408	800,000	0,018	0,048
-674,393	-45,668	0,054	-0,019
-673,378	-8,562	-0,129	-0,062
-672,364	21,271	0,117	-0,069
-671,349	-200,000	-0,008	-0,119
-670,335	232,946	0,028	0,034
-669,320	479,805	0,063	0,104
-668,305	311,162	0,055	-0,074
-667,291	140,870	-0,097	-0,092
-666,276	22,327	-0,107	-0,063
-665,262	-200,000	-0,015	-0,115
-664,247	-36,809	-0,070	-0,027
-663,232	-98,193	0,077	0,014
-662,218	361,115	-0,044	0,064
-661,203	800,000	0,041	0,100
-660,189	702,323	0,052	-0,100
-659,174	-105,370	-0,122	0,020
-658,159	-200,000	-0,010	-0,086
-657,145	377,711	-0,063	-0,094
-656,130	-19,008	0,019	-0,008
-655,116	-200,000	0,025	0,153
-654,101	800,000	0,045	0,114
-653,086	800,000	0,019	-0,052
-652,072	119,777	0,032	0,029
-651,057	739,323	-0,125	-0,244
-650,043	96,823	-0,174	-0,144
-649,028	301,396	0,158	-0,211
-648,014	145,328	-0,096	-0,093
-646,999	-102,335	0,105	-0,018
-645,984	-200,000	0,002	0,047
-644,970	291,669	-0,099	-0,131
-643,955	65,707	0,082	0,060
-642,941	196,196	-0,063	0,069
-641,926	81,012	0,102	0,079
-640,911	218,014	0,007	0,008
-639,897	-52,577	-0,068	-0,022
-638,882	139,890	0,092	0,087
-637,868	46,792	0,052	-0,035
-636,853	80,893	-0,044	-0,034
-635,838	99,857	-0,107	-0,089
-634,824	-200,000	-0,006	0,025
-633,809	403,361	0,022	0,033
-632,795	-26,294	0,112	0,047
-631,780	-186,355	-0,138	-0,001
-630,765	36,506	-0,118	-0,075
-629,751	353,378	0,057	0,081
-628,736	209,732	0,028	-0,032
-627,722	-200,000	0,008	-0,068
-626,707	-22,126	-0,028	-0,012
-625,692	-200,000	-0,013	-0,086
-624,678	-200,000	0,010	-0,038
-623,663	800,000	0,046	-0,095
-622,649	-76,048	0,092	-0,023
-621,634	65,386	-0,156	-0,114
-620,619	-8,308	-0,005	0,003
-619,605	-200,000	0,016	-0,147
-618,590	-200,000	0,036	0,121
-617,576	-63,744	-0,123	-0,036
-616,561	-128,127	0,107	-0,011
-615,546	-200,000	-0,026	-0,099
-614,532	136,536	-0,032	-0,030
-613,517	-60,703	0,181	-0,055
-612,503	151,911	-0,071	-0,070
-611,488	245,702	0,020	0,024
-610,474	-27,807	0,053	-0,022
-609,459	-200,000	-0,012	0,085
-608,444	50,231	-0,130	0,088
-607,430	-200,000	0,010	-0,250
-606,415	-200,000	-0,007	-0,037
-605,401	-68,654	0,049	0,014
-604,386	-200,000	0,032	0,151
-603,371	-73,385	0,045	-0,012
-602,357	800,000	-0,020	-0,044
-601,342	-128,218	-0,219	-0,022
-600,328	-34,520	-0,109	0,043
-599,313	800,000	-0,094	-0,198
-598,298	435,849	0,055	-0,086
-597,284	-122,143	-0,189	-0,022
-596,269	800,000	0,035	0,088
-595,255	215,316	0,026	0,030
-594,240	800,000	0,028	-0,089
-593,225	-39,087	-0,182	-0,069
-592,211	482,462	0,056	-0,092
-591,196	-200,000	-0,003	0,029
-590,182	800,000	-0,047	-0,097
-589,167	-200,000	0,007	-0,036
-588,152	-42,960	0,076	-0,028
-587,138	800,000	0,045	-0,108
-586,123	230,756	0,064	0,075
-585,109	655,838	0,085	-0,159
-584,094	800,000	-0,022	0,047
-583,079	-200,000	0,002	-0,123
-582,065	112,991	0,091	0,079
-581,050	47,583	0,038	-0,026
-580,036	326,611	0,042	0,058
-579,021	-44,891	0,105	0,037
-578,006	177,094	-0,049	0,051
-576,992	410,789	-0,051	0,079
-575,977	800,000	0,050	0,109
-574,963	67,518	0,156	0,114
-573,948	28,932	0,041	-0,025
-572,934	61,450	0,054	-0,039
-571,919	649,763	0,073	-0,136
-570,904	800,000	-0,043	-0,115
-569,890	-200,000	0,012	-0,215
-568,875	-155,101	0,119	-0,005
-567,861	107,541	-0,018	-0,016
-566,846	-74,174	0,121	0,031
-565,831	-141,529	-0,090	0,006
-564,817	627,298	0,041	0,074
-563,802	347,215	-0,085	-0,121
-562,788	800,000	0,049	-0,112
-561,773	288,010	0,030	-0,039
-560,758	185,343	-0,063	0,068
-559,744	76,483	0,084	-0,064
-558,729	-22,598	0,101	0,044
-557,715	-200,000	0,003	-0,081
-556,700	-24,843	-0,102	-0,044
-555,685	39,174	-0,009	0,006
-554,671	267,598	0,136	-0,172
-553,656	800,000	0,026	-0,070
-552,642	7,009	-0,064	0,034
-551,627	-200,000	0,010	-0,044
-550,612	257,201	-0,054	-0,067
-549,598	-21,128	-0,076	-0,033
-548,583	-35,354	-0,115	0,045
-547,569	-28,162	-0,113	0,047
-546,554	-39,887	0,143	-0,053
-545,539	-37,734	0,160	-0,061
-544,525	97,056	-0,070	-0,057
-543,510	-180,196	-0,131	0,002
-542,496	-25,593	-0,095	0,040
-541,481	-170,171	-0,078	0,002
-540,466	-27,180	0,106	0,044
-539,452	335,038	0,029	0,041
-538,437	-9,426	0,090	0,043
-537,423	-33,039	-0,078	0,031
-536,408	-200,000	-0,001	0,061
-535,393	47,904	-0,043	0,029
-534,379	295,266	-0,041	-0,054
-533,364	-112,425	-0,048	-0,007
-532,350	28,268	0,047	-0,029
-531,335	91,428	-0,124	0,100
-530,321	45,197	0,111	0,074
-529,306	304,095	0,058	-0,078
-528,291	99,536	-0,101	-0,084
-527,277	-35,145	-0,027	-0,010
-526,262	800,000	0,062	-0,142
-525,248	709,175	0,036	0,069
-524,233	19,944	-0,082	-0,047
-523,218	-200,000	-0,022	0,193
-522,204	-200,000	-0,004	0,105
-521,189	692,962	0,061	-0,115
-520,175	228,245	-0,031	0,036
-519,160	78,686	-0,094	-0,072
-518,145	-200,000	-0,022	0,086
-517,131	-74,911	-0,101	-0,026
-516,116	-154,134	-0,102	0,005
-515,102	8,410	-0,030	-0,016
-514,087	-111,813	-0,110	-0,016
-513,072	-200,000	0,003	-0,075
-512,058	-200,000	-0,010	-0,127
-511,043	-108,744	0,135	0,021
-510,029	79,871	0,087	0,067
-509,014	-200,000	-0,007	-0,040
-507,999	-93,492	-0,113	-0,022
-506,985	-198,873	-0,087	-0,000
-505,970	-200,000	0,013	0,071
-504,956	118,043	-0,042	0,037
-503,941	130,743	0,014	0,013
-502,926	800,000	0,025	0,052
-501,912	45,172	0,045	0,029
-500,897	-27,488	-0,172	0,071
-499,883	34,524	0,105	0,065
-498,868	-98,237	-0,130	-0,024
-497,853	4,303	0,068	0,036
-496,839	127,477	0,120	-0,109
-495,824	638,040	-0,076	0,140
-494,810	-96,016	-0,127	0,024
-493,795	800,000	0,082	-0,257
-492,781	92,909	-0,124	-0,101
-491,766	800,000	-0,032	0,080
-490,751	800,000	-0,008	0,020
-489,737	-200,000	0,025	-0,127
-488,722	-65,129	-0,077	0,022
-487,708	-40,167	0,040	-0,015
-486,693	-119,964	0,021	-0,003
-485,678	9,955	-0,038	0,020
-484,664	-200,000	-0,006	0,071
-483,649	8,900	-0,046	-0,025
-482,635	-134,026	-0,158	-0,014
-481,620	-125,000	0,124	0,014
-480,605	92,893	0,087	0,071
-479,591	85,986	0,145	0,114
-478,576	800,000	-0,026	0,071
-477,562	-200,000	0,009	-0,087
-476,547	-200,000	-0,010	-0,104
-475,532	800,000	-0,016	0,046
-474,518	800,000	0,024	0,051
-473,503	-200,000	0,050	0,164
-472,489	-135,414	0,107	0,009
-471,474	145,330	0,020	-0,019
-470,459	-200,000	-0,038	-0,170
-469,445	800,000	-0,011	0,023
-468,430	275,829	0,031	0,040
-467,416	232,280	-0,056	0,066
-466,401	227,576	-0,046	-0,054
-465,386	800,000	-0,028	-0,083
-464,372	188,788	-0,070	0,075
-463,357	800,000	0,033	-0,067
-462,343	-43,764	-0,016	-0,006
-461,328	-144,406	-0,123	-0,008
-460,313	-4,952	-0,116	0,057
-459,299	501,887	0,040	0,066
-458,284	-77,406	0,188	0,046
-457,270	-17,137	-0,183	0,082
-456,255	800,000	0,019	-0,045
-455,241	201,043	0,059	-0,065
-454,226	145,377	-0,058	-0,056
-453,211	-120,890	0,025	-0,003
-452,197	34,840	0,132	-0,083
-451,182	19,857	0,089	-0,051
-450,168	800,000	0,039	-0,105
-449,153	-200,000	-0,001	-0,180
-448,138	-121,911	-0,019	0,002
-447,124	-21,558	0,019	0,008
-446,109	83,486	-0,018	-0,014
-445,095	-200,000	-0,020	0,112
-444,080	48,169	-0,102	-0,068
-443,065	-200,000	0,002	-0,088
-442,051	-175,037	-0,072	0,001
-441,036	22,130	-0,049	0,028
-440,022	2,870	-0,107	-0,055
-439,007	800,000	0,004	-0,011
-437,992	800,000	-0,016	0,048
-436,978	45,105	-0,067	-0,044
-435,963	-107,787	-0,095	0,015
-434,949	65,941	-0,024	-0,018
-433,934	-150,719	-0,111	0,006
-432,919	98,327	0,048	0,040
-431,905	379,685	0,040	0,059
-430,890	-32,234	0,085	0,034
-429,876	20,507	0,045	0,026
-428,861	26,244	0,070	0,042
-427,846	519,569	-0,052	-0,087
-426,832	-200,000	-0,004	0,078
-425,817	-117,784	0,091	-0,012
-424,803	-200,000	0,014	-0,052
-423,788	-200,000	-0,015	-0,062
-422,773	-200,000	-0,005	-0,093
-421,759	-200,000	-0,018	0,081
-420,744	149,700	-0,055	-0,054
-419,730	320,267	0,096	-0,130
-418,715	800,000	-0,037	-0,113
-417,701	-59,987	-0,203	0,062
-416,686	-43,457	0,049	0,018
-415,671	-37,889	0,047	-0,018
-414,657	-26,308	0,264	0,111
-413,642	800,000	-0,060	0,148
-412,628	79,891	0,085	-0,065
-411,613	779,086	-0,074	-0,145
-410,598	-165,379	0,010	-0,000
-409,584	-94,054	0,136	0,026
-408,569	73,836	0,090	0,067
-407,555	108,311	0,125	0,107
-406,540	-200,000	-0,040	-0,185
-405,525	-97,930	-0,029	0,005
-404,511	-200,000	-0,018	0,087
-403,496	-200,000	0,007	-0,164
-402,482	-200,000	0,016	-0,095
-401,467	800,000	0,034	-0,097
-400,452	538,170	0,047	0,079
-399,438	-79,103	-0,100	0,024
-398,423	-67,607	-0,177	0,049
-397,409	800,000	-0,046	0,128
-396,394	-200,000	-0,051	-0,167
-395,379	-27,589	-0,150	0,062
-394,365	191,363	0,065	0,070
-393,350	90,772	-0,015	0,012
-392,336	-163,561	0,078	0,003
-391,321	-200,000	-0,001	0,089
-390,306	103,091	-0,105	-0,088
-389,292	568,414	0,077	0,134
-388,277	-200,000	0,011	-0,048
-387,263	-67,782	0,127	-0,035
-386,248	72,075	0,176	0,131
-385,233	-200,000	-0,030	-0,186
-384,219	401,758	0,038	0,058
-383,204	800,000	-0,064	-0,185
-382,190	-163,553	0,062	-0,002
-381,175	40,134	-0,080	0,052
-380,160	-12,562	0,121	-0,056
-379,146	-200,000	-0,032	0,169
-378,131	-63,037	-0,137	0,040
-377,117	-133,836	-0,080	0,007
-376,102	-112,189	0,029	-0,004
-375,088	-127,379	-0,063	-0,006
-374,073	800,000	-0,031	-0,071
-373,058	-57,120	0,089	-0,028
-372,044	-200,000	0,052	0,316
-371,029	-200,000	-0,001	0,033
-370,015	351,547	-0,036	-0,051
-369,000	-200,000	-0,024	-0,078
-367,985	-200,000	-0,023	0,109
-366,971	418,170	0,062	0,095
-365,956	71,814	0,024	0,018
-364,942	134,337	-0,055	0,051
-363,927	116,662	0,158	0,139
-362,912	-173,719	0,078	-0,002
-361,898	-62,987	-0,040	0,012
-360,883	135,223	-0,017	-0,016
-359,869	-167,551	-0,120	-0,003
-358,854	-6,079	0,043	0,021
-357,839	800,000	0,027	0,074
-356,825	-200,000	-0,006	-0,094
-355,810	234,072	0,027	0,031
-354,796	58,756	-0,019	-0,014
-353,781	630,723	-0,034	0,061
-352,766	39,975	0,047	0,030
-351,752	800,000	0,021	0,053
-350,737	-57,118	-0,084	-0,026
-349,723	484,811	0,032	-0,052
-348,708	119,624	-0,083	0,073
-347,693	-200,000	0,037	0,207
-346,679	-132,410	-0,023	0,002
-345,664	-200,000	0,010	-0,045
-344,650	4,852	-0,096	0,050
-343,635	-146,283	-0,005	0,000
-342,620	159,249	-0,092	0,091
-341,606	65,711	0,116	0,084
-340,591	617,948	0,011	0,021
-339,577	-39,996	-0,047	-0,018
-338,562	-200,000	-0,020	0,062
-337,548	309,934	0,066	0,089
-336,533	-13,412	0,091	0,042
-335,518	-99,378	-0,081	0,014
-334,504	-200,000	0,007	0,112
-333,489	37,478	0,091	0,058
-332,475	34,781	-0,084	-0,052
-331,460	478,534	0,029	-0,046
-330,445	-123,359	-0,017	0,002
-329,431	-168,303	-0,084	0,002
-328,416	-200,000	-0,002	0,085
-327,402	-200,000	0,001	-0,005
-326,387	600,720	-0,027	0,049
-325,372	101,595	-0,086	-0,071
-324,358	-117,614	-0,031	-0,004
-323,343	-118,455	-0,103	0,013
-322,329	403,665	-0,058	-0,088
-321,314	800,000	0,052	0,129
-320,299	17,506	-0,071	0,040
-319,285	800,000	0,048	0,143
-318,270	-37,455	-0,135	-0,051
-317,256	-146,382	-0,046	0,003
-316,241	295,854	-0,088	-0,116
-315,226	169,620	-0,033	-0,034
-314,212	67,662	-0,150	0,109
-313,197	-114,099	0,120	0,016
-312,183	-69,365	-0,068	-0,018
-311,168	150,978	-0,069	-0,067
-310,153	-2,831	-0,069	-0,034
-309,139	704,175	-0,032	-0,060
-308,124	19,374	0,066	-0,037
-307,110	-50,877	0,055	-0,018
-306,095	176,466	0,136	0,141
-305,080	-200,000	0,011	0,062
-304,066	-2,835	0,102	0,050
-303,051	-4,143	-0,135	-0,067
-302,037	-87,776	0,110	0,023
-301,022	29,575	-0,057	-0,035
-300,008	156,312	-0,023	-0,023
-298,993	104,075	-0,071	-0,059
-297,978	-200,000	0,041	-0,226
-296,964	-200,000	-0,001	0,021
-295,949	-135,885	0,044	0,004
-294,935	-35,895	0,059	0,023
-293,920	141,724	-0,036	0,034
-292,905	-170,284	0,110	-0,003
-291,891	800,000	-0,016	-0,032
-290,876	334,214	0,044	0,061
-289,862	316,969	-0,042	-0,057
-288,847	-200,000	-0,049	-0,000
-287,832	-200,000	-0,008	-0,049
-286,818	255,665	-0,050	-0,061
-285,803	314,319	0,173	0,233
-284,789	-200,000	-0,008	-0,033
-283,774	-160,208	0,100	-0,004
-282,759	84,520	-0,052	-0,040
-281,745	-83,207	0,098	-0,022
-280,730	657,135	0,018	-0,034
-279,716	-101,170	0,160	0,028
-278,701	395,357	0,044	0,066
-277,686	443,158	0,027	-0,042
-276,672	-200,000	0,001	0,193
-275,657	-200,000	0,004	0,027
-274,643	-112,589	0,114	-0,016
-273,628	-3,915	0,114	-0,056
-272,613	-164,518	-0,119	0,004
-271,599	787,254	-0,067	-0,131
-270,584	55,716	-0,131	0,090
-269,570	800,000	-0,072	0,151
-268,555	-105,526	0,045	0,007
-267,540	800,000	0,020	-0,048
-266,526	36,920	-0,060	-0,038
-265,511	657,681	-0,013	-0,023
-264,497	-79,374	-0,107	0,026
-263,482	36,695	0,119	0,075
-262,467	800,000	-0,021	0,042
-261,453	699,661	-0,023	-0,042
-260,438	-57,495	-0,070	0,022
-259,424	-6,873	-0,186	-0,090
-258,409	400,398	-0,033	-0,049
-257,395	-200,000	-0,004	-0,029
-256,380	-84,952	0,093	0,021
-255,365	-113,878	-0,066	-0,009
-254,351	361,687	0,103	0,147
-253,336	620,020	0,013	-0,024
-252,322	-200,000	-0,010	0,090
-251,307	-76,886	0,058	0,014
-250,292	-62,508	-0,070	-0,021
-249,278	-152,208	0,104	0,005
-248,263	-17,306	0,061	0,027
-247,249	145,776	0,088	0,084
-246,234	-3,447	-0,169	-0,083
-245,219	14,135	-0,117	-0,065
-244,205	-18,909	-0,039	-0,017
-243,190	129,626	0,071	0,064
-242,176	-200,000	-0,016	0,142
-241,161	-103,734	0,060	0,010
-240,146	800,000	-0,023	-0,059
-239,132	-135,186	-0,085	-0,007
-238,117	-200,000	-0,023	-0,120
-237,103	115,803	0,095	-0,083
-236,088	-93,126	0,102	-0,020
-235,073	-200,000	0,019	-0,073
-234,059	-4,993	0,141	0,069
-233,044	-91,881	0,169	-0,034
-232,030	324,430	0,027	0,037
-231,015	800,000	-0,056	-0,125
-230,000	800,000	0,016	-0,032
-228,986	-117,164	0,202	0,026
-227,971	-200,000	0,019	-0,073
-226,957	540,189	0,044	0,075
-225,942	800,000	-0,050	-0,107
-224,927	-29,348	-0,086	-0,035
-223,913	-87,732	-0,143	-0,030
-222,898	800,000	-0,077	-0,235
-221,884	-200,000	0,013	-0,148
-220,869	20,945	0,086	0,050
-219,855	-152,490	0,213	-0,011
-218,840	207,252	-0,026	0,029
-217,825	-47,455	-0,078	-0,027
-216,811	-200,000	0,010	-0,064
-215,796	-50,863	-0,134	-0,045
-214,782	-59,160	0,078	0,024
-213,767	144,822	0,144	0,137
-212,752	-200,000	0,023	0,240
-211,738	800,000	0,029	0,081
-210,723	186,749	0,131	0,138
-209,709	-200,000	0,004	0,068
-208,694	335,958	-0,075	0,104
-207,679	-23,415	0,154	0,065
-206,665	-200,000	0,003	0,091
-205,650	800,000	0,016	0,047
-204,636	47,596	0,067	0,044
-203,621	667,307	0,019	0,036
-202,606	-200,000	0,009	0,145
-201,592	-110,842	-0,098	0,014
-200,577	-27,030	0,087	0,036
-199,563	-200,000	-0,032	0,164
-198,548	140,211	0,110	0,103
-197,533	576,145	0,038	0,066
-196,519	53,103	-0,086	-0,058
-195,504	124,426	-0,071	-0,064
-194,490	800,000	0,022	0,063
-193,475	-136,287	0,091	-0,007
-192,460	-200,000	-0,009	-0,051
-191,446	-79,020	-0,072	-0,017
-190,431	-51,183	0,179	0,059
-189,417	800,000	-0,043	0,111
-188,402	75,929	0,073	0,055
-187,387	-200,000	-0,008	-0,055
-186,373	61,470	-0,127	-0,090
-185,358	53,559	-0,082	0,055
-184,344	-200,000	-0,004	0,024
-183,329	278,642	0,041	0,052
-182,315	800,000	-0,020	0,054
-181,300	-116,821	-0,029	0,004
-180,285	533,950	-0,017	-0,029
-179,271	-200,000	-0,022	0,073
-178,256	800,000	0,009	-0,019
-177,242	800,000	-0,032	0,070
-176,227	-200,000	-0,000	0,146
-175,212	-84,127	0,025	-0,005
-174,198	-30,049	0,033	0,013
-173,183	319,687	-0,040	-0,054
-172,169	-200,000	0,022	0,118
-171,154	54,281	0,092	0,062
-170,139	-12,024	0,077	-0,036
-169,125	-200,000	-0,002	0,046
-168,110	79,370	0,144	0,109
-167,096	-167,243	-0,085	0,002
-166,081	20,475	-0,032	0,018
-165,066	61,578	-0,097	-0,068
-164,052	91,691	0,143	-0,114
-163,037	-91,874	-0,071	-0,014
-162,023	-200,000	0,019	0,087
-161,008	174,544	-0,079	0,081
-159,993	800,000	-0,039	-0,091
-158,979	77,448	-0,102	-0,077
-157,964	-87,951	-0,128	-0,027
-156,950	-200,000	-0,033	-0,117
-155,935	45,398	0,075	-0,049
-154,920	-52,469	0,038	0,012
-153,906	170,599	0,071	0,072
-152,891	-200,000	-0,002	-0,055
-151,877	800,000	0,020	-0,052
-150,862	-149,495	-0,145	-0,008
-149,847	80,518	-0,039	0,030
-148,833	-200,000	-0,036	-0,138
-147,818	88,694	-0,081	0,064
-146,804	-74,248	-0,028	0,007
-145,789	-159,663	-0,059	0,002
-144,775	-200,000	-0,006	-0,032
-143,760	409,101	0,066	-0,099
-142,745	43,215	-0,112	-0,072
-141,731	102,511	-0,050	-0,042
-140,716	67,365	0,053	0,038
-139,702	-2,361	-0,048	0,024
-138,687	-200,000	-0,015	0,064
-137,672	15,822	-0,092	0,051
-136,658	202,989	0,099	0,109
-135,643	249,850	-0,070	0,084
-134,629	-132,361	0,135	-0,012
-133,614	380,449	0,027	-0,039
-132,599	-166,796	0,110	0,003
-131,585	-48,034	0,070	-0,024
-130,570	-200,000	-0,006	0,045
-129,556	-57,987	-0,031	-0,009
-128,541	92,576	-0,096	-0,077
-127,526	68,741	0,055	-0,040
-126,512	192,846	-0,031	0,033
-125,497	217,156	-0,055	0,062
-124,483	0,879	-0,042	0,021
-123,468	800,000	-0,025	-0,072
-122,453	84,472	0,055	-0,043
-121,439	48,201	0,037	-0,024
-120,424	-96,816	0,072	0,013
-119,410	253,065	-0,045	-0,054
-118,395	-85,707	0,101	-0,022
-117,380	263,693	0,063	-0,078
-116,366	-200,000	-0,021	-0,100
-115,351	-73,881	-0,107	0,027
-114,337	-139,769	-0,105	-0,008
-113,322	13,386	0,040	-0,022
-112,307	-200,000	0,000	0,134
-111,293	620,292	-0,089	0,160
-110,278	800,000	0,044	0,136
-109,264	-200,000	-0,005	0,128
-108,249	774,176	0,047	-0,090
-107,234	-127,206	-0,045	0,005
-106,220	-5,517	0,020	0,010
-105,205	-15,588	0,038	0,017
-104,191	-80,861	0,087	-0,020
-103,176	12,477	0,045	-0,025
-102,162	273,411	0,070	0,087
-101,147	126,541	-0,172	-0,154
-100,132	6,777	-0,048	-0,025
-99,118	-200,000	0,063	0,262
-98,103	193,947	-0,030	0,032
-97,089	641,019	0,076	-0,137
-96,074	-80,511	-0,028	0,006
-95,059	-200,000	-0,007	0,071
-94,045	-87,051	0,061	0,013
-93,030	-200,000	0,041	-0,173
-92,016	-80,373	-0,189	-0,044
-91,001	154,841	-0,040	-0,039
-89,986	87,465	0,143	-0,112
-88,972	118,915	0,122	0,106
-87,957	117,112	0,115	-0,100
-86,943	19,339	-0,173	-0,098
-85,928	644,262	0,031	-0,056
-84,913	134,027	-0,057	-0,052
-83,899	217,738	0,101	-0,114
-82,884	-108,284	0,141	-0,021
-81,870	-60,049	0,029	0,009
-80,855	-68,398	0,100	-0,027
-79,840	-200,000	0,011	0,090
-78,826	119,182	-0,113	0,098
-77,811	800,000	0,038	0,089
-76,797	-128,773	-0,138	0,014
-75,782	130,099	-0,090	-0,082
-74,767	55,305	0,139	-0,095
-73,753	246,467	-0,064	0,077
-72,738	116,917	-0,145	-0,126
-71,724	-200,000	0,006	-0,168
-70,709	51,561	0,096	0,065
-69,694	92,869	-0,054	-0,043
-68,680	677,759	0,026	-0,049
-67,665	-200,000	-0,012	-0,094
-66,651	21,711	-0,089	-0,051
-65,636	-200,000	-0,013	0,077
-64,622	-200,000	0,001	0,034
-63,607	382,503	0,054	0,079
-62,592	279,572	-0,078	-0,099
-61,578	800,000	-0,045	-0,091
-60,563	-33,995	0,064	-0,025
-59,549	-130,315	-0,124	0,012
-58,534	51,906	-2,043	-1,371
-57,519	504,451	-1,158	-1,899
-56,505	-200,000	-0,434	-4,604
-55,490	443,651	0,802	1,245
-54,476	800,000	5,305	12,097
-53,461	-200,000	21,783	342,505
-52,446	800,000	762,343	2317,905
-51,432	537,986	1659,240	2794,061
-50,417	70,281	1656,540	1206,479
-49,403	17,017	1530,708	853,724
-48,388	11,145	1454,797	783,030
-47,373	19,282	1446,561	817,549
-46,359	14,550	1435,418	788,759
-45,344	9,442	1431,593	762,337
-44,330	9,383	1429,564	760,946
-43,315	9,349	1427,844	759,839
-42,300	9,322	1426,138	758,775
-41,286	9,398	1424,724	758,351
-40,271	9,373	1423,520	757,561
-39,257	9,334	1422,410	756,755
-38,242	9,406	1421,064	756,352
-37,227	9,387	1420,456	755,908
-36,213	9,424	1418,913	755,231
-35,198	9,423	1417,616	754,504
-34,184	9,454	1416,777	754,176
-33,169	9,331	1415,367	752,814
-32,154	9,394	1414,466	752,605
-31,140	9,360	1413,098	751,686
-30,125	9,457	1411,853	751,448
-29,111	9,418	1410,856	750,703
-28,096	9,382	1409,581	749,829
-27,082	9,342	1408,397	748,982
-26,067	9,298	1407,383	748,205
-25,052	9,328	1406,432	747,811
-24,038	9,331	1405,486	747,291
-23,023	9,383	1404,263	746,854
-22,009	9,330	1403,599	746,225
-20,994	9,319	1402,415	745,516
-19,979	9,327	1401,651	745,117
-18,965	9,293	1400,563	744,348
-17,950	9,266	1399,741	743,759
-16,936	9,244	1399,023	743,245
-15,921	9,200	1398,032	742,486
-14,906	9,245	1396,769	741,994
-13,892	9,287	1395,919	741,708
-12,877	9,266	1395,163	741,178
-11,863	9,243	1394,368	740,621
-10,848	9,197	1393,435	739,883
-9,833	9,195	1392,403	739,295
-8,819	9,147	1391,630	738,633
-7,804	9,174	1390,600	738,180
-6,790	9,154	1389,660	737,563
-5,775	9,097	1388,691	736,755
-4,760	9,165	1387,788	736,558
-3,746	9,182	1386,692	736,028
-2,731	9,181	1385,777	735,506
-1,717	9,182	1384,856	734,992
-0,702	9,156	1383,426	734,085
0,313	13,148	1294,914	705,335
1,327	29,065	685,482	409,256
2,342	44,998	118,327	76,731
3,356	-2,109	16,722	8,255
4,371	-5,423	3,698	1,784
5,386	-1,403	1,191	0,590
6,400	800,000	0,282	0,712
7,415	-13,721	-0,125	-0,057
8,429	70,437	-0,183	-0,133
9,444	134,985	-0,384	-0,352
10,459	273,026	-0,203	-0,253
11,473	42,598	-0,281	-0,180
12,488	-17,128	-0,187	-0,083
13,502	-24,313	-0,431	-0,180
14,517	-31,170	-0,387	-0,153
15,531	91,565	-0,309	-0,245
16,546	44,212	-0,319	-0,206
17,561	61,510	-0,406	-0,284
18,575	80,410	-0,218	-0,166
19,590	120,798	-0,100	-0,088
20,604	-23,479	-0,235	-0,099
21,619	137,032	-0,362	-0,334
22,634	81,388	-0,475	-0,361
23,648	94,495	-0,468	-0,374
24,663	88,214	-0,300	-0,234
25,677	38,230	-0,429	-0,268
26,692	-18,776	-0,349	-0,152
27,707	-40,579	-0,394	-0,143
28,721	109,338	-0,354	-0,298
29,736	37,721	-0,410	-0,255
30,750	113,964	-0,381	-0,326
31,765	-1,355	-0,483	-0,239
32,780	-18,857	-0,316	-0,138
33,794	-8,152	-0,386	-0,182
34,809	101,189	-0,273	-0,223
35,823	240,828	-0,344	-0,404
36,838	146,185	-0,411	-0,388
37,853	170,991	-0,356	-0,359
38,867	149,617	-0,369	-0,351
39,882	280,093	-0,248	-0,312
40,896	24,130	-0,383	-0,222
41,911	64,757	-0,286	-0,203
42,926	110,384	-0,307	-0,259
43,940	470,344	-0,280	-0,444
44,955	-0,341	-0,559	-0,278
45,969	350,101	-0,221	-0,308
46,984	218,710	-0,227	-0,256
47,999	279,202	-0,216	-0,271
49,013	43,309	-0,407	-0,261
50,028	-12,270	-0,353	-0,162
51,042	-54,723	-0,344	-0,109
52,057	43,923	-0,397	-0,255
53,071	95,806	-0,242	-0,194
54,086	89,320	-0,395	-0,309
55,101	236,063	-0,311	-0,362
56,115	78,519	-0,296	-0,222
57,130	-21,743	-0,454	-0,193
58,144	59,835	-0,303	-0,210
59,159	57,736	-0,322	-0,221
60,174	343,879	-0,204	-0,281
61,188	168,606	-0,259	-0,259
62,203	208,840	-0,322	-0,354
63,217	139,212	-0,254	-0,235
64,232	88,800	-0,380	-0,296
65,247	13,466	-0,350	-0,190
66,261	86,626	-0,449	-0,347
67,276	40,028	-0,340	-0,214
68,290	80,749	-0,303	-0,229
69,305	9,217	-0,343	-0,181
70,320	14,784	-0,433	-0,237
71,334	-160,762	-0,311	0,011
72,349	23,803	-0,286	-0,165
73,363	5,231	-0,278	-0,143
74,378	-111,179	-0,451	-0,064
75,393	44,356	-0,372	-0,239
76,407	-0,039	-0,417	-0,207
77,422	35,439	-0,278	-0,171
78,436	447,022	-0,134	-0,207
79,451	-36,556	-0,293	-0,110
80,466	-12,498	-0,406	-0,185
81,480	91,006	-0,360	-0,282
82,495	443,310	-0,178	-0,274
83,509	72,449	-0,247	-0,180
84,524	83,156	-0,302	-0,230
85,539	82,916	-0,322	-0,245
86,553	330,650	-0,176	-0,238
87,568	-16,471	-0,380	-0,168
88,582	800,000	-0,152	-0,308
89,597	-60,783	-0,384	-0,113
90,611	76,431	-0,205	-0,152
91,626	44,097	-0,284	-0,182
92,641	-60,787	-0,352	-0,104
93,655	-13,314	-0,328	-0,148
94,670	9,073	-0,242	-0,127
95,684	-12,484	-0,244	-0,111
96,699	311,744	-0,280	-0,368
97,714	148,471	-0,230	-0,218
98,728	119,278	-0,225	-0,195
99,743	37,449	-0,218	-0,135
100,757	169,039	-0,212	-0,212
101,772	583,727	-0,246	-0,424
102,787	539,966	-0,239	-0,400
103,801	174,530	-0,201	-0,203
104,816	10,730	-0,181	-0,096
105,830	-6,648	-0,331	-0,157
106,845	-66,260	-0,367	-0,101
107,860	800,000	-0,129	-0,259
108,874	76,603	-0,375	-0,278
109,889	142,443	-0,362	-0,336
110,903	134,340	-0,294	-0,267
111,918	186,827	-0,274	-0,285
112,933	527,574	-0,180	-0,297
113,947	-86,117	-0,263	-0,056
114,962	-4,821	-0,299	-0,144
115,976	226,152	-0,187	-0,212
116,991	108,705	-0,265	-0,221
118,006	-16,825	-0,353	-0,155
119,020	119,825	-0,253	-0,219
120,035	-116,843	-0,172	-0,022
121,049	115,714	-0,188	-0,161
122,064	48,647	-0,193	-0,126
123,079	225,548	-0,207	-0,234
124,093	113,251	-0,335	-0,283
125,108	240,305	-0,247	-0,288
126,122	61,578	-0,343	-0,238
127,137	174,728	-0,241	-0,243
128,151	107,439	-0,235	-0,195
129,166	139,893	-0,272	-0,250
130,181	364,320	-0,154	-0,217
131,195	159,593	-0,145	-0,141
132,210	383,580	-0,165	-0,237
133,224	66,505	-0,329	-0,233
134,239	-42,196	-0,334	-0,118
135,254	256,082	-0,195	-0,234
136,268	103,150	-0,133	-0,109
137,283	276,801	-0,163	-0,203
138,297	43,323	-0,302	-0,192
139,312	56,547	-0,316	-0,214
140,327	153,678	-0,236	-0,225
141,341	-7,640	-0,249	-0,117
142,356	34,417	-0,130	-0,079
143,370	232,933	-0,194	-0,223
144,385	100,062	-0,312	-0,252
145,400	161,998	-0,152	-0,149
146,414	279,075	-0,270	-0,336
147,429	-22,294	-0,297	-0,125
148,443	56,014	-0,248	-0,167
149,458	238,548	-0,156	-0,181
150,473	630,959	-0,145	-0,257
151,487	35,357	-0,223	-0,136
152,502	40,082	-0,189	-0,118
153,516	17,966	-0,281	-0,155
154,531	649,199	-0,088	-0,157
155,546	800,000	-0,129	-0,269
156,560	126,232	-0,186	-0,163
157,575	10,501	-0,324	-0,171
158,589	113,210	-0,149	-0,126
159,604	-4,864	-0,230	-0,110
160,619	237,893	-0,266	-0,308
161,633	174,155	-0,182	-0,183
162,648	137,763	-0,319	-0,291
163,662	-3,968	-0,211	-0,101
164,677	-18,997	-0,200	-0,086
165,692	248,117	-0,176	-0,207
166,706	34,695	-0,264	-0,160
167,721	422,694	-0,237	-0,356
168,735	137,016	-0,138	-0,126
169,750	-102,100	-0,214	-0,035
170,764	800,000	-0,108	-0,324
171,779	294,005	-0,178	-0,226
172,794	2,944	-0,293	-0,148
173,808	12,766	-0,231	-0,123
174,823	-13,200	-0,237	-0,107
175,837	771,608	-0,154	-0,293
176,852	8,063	-0,229	-0,119
177,867	107,904	-0,235	-0,194
178,881	106,230	-0,172	-0,141
179,896	-26,386	-0,333	-0,135
180,910	63,253	-0,228	-0,158
181,925	301,457	-0,201	-0,259
182,940	82,998	-0,302	-0,228
183,954	167,441	-0,156	-0,154
184,969	33,836	-0,242	-0,146
185,983	41,428	-0,252	-0,158
186,998	536,419	-0,185	-0,307
188,013	251,572	-0,189	-0,223
189,027	98,452	-0,180	-0,144
190,042	-118,609	-0,226	-0,027
191,056	152,290	-0,202	-0,191
192,071	12,143	-0,108	-0,057
193,086	503,738	-0,091	-0,146
194,100	59,720	-0,185	-0,127
195,115	142,114	-0,212	-0,195
196,129	34,296	-0,161	-0,097
197,144	-13,756	-0,333	-0,149
198,159	-3,134	-0,270	-0,130
199,173	322,420	-0,140	-0,185
200,188	40,075	-0,210	-0,131
201,202	206,810	-0,198	-0,214
202,217	70,310	-0,150	-0,108
203,232	220,506	-0,234	-0,260
204,246	418,928	-0,119	-0,177
205,261	251,471	-0,206	-0,243
206,275	-200,000	-0,027	-0,170
207,290	58,995	-0,297	-0,202
208,304	37,999	-0,199	-0,122
209,319	-13,394	-0,261	-0,117
210,334	-84,685	-0,215	-0,046
211,348	105,548	-0,330	-0,270
212,363	-18,820	-0,165	-0,071
213,377	52,285	-0,247	-0,163
214,392	21,945	-0,240	-0,135
215,407	412,374	-0,091	-0,135
216,421	167,877	-0,179	-0,176
217,436	227,214	-0,226	-0,254
218,450	-86,199	-0,200	-0,042
219,465	192,055	-0,130	-0,136
220,480	238,108	-0,221	-0,254
221,494	-94,330	-0,214	-0,040
222,509	-57,566	-0,168	-0,051
223,523	111,606	-0,270	-0,225
224,538	203,772	-0,125	-0,134
225,553	224,215	-0,204	-0,228
226,567	73,642	-0,285	-0,206
227,582	-200,000	-0,053	-0,369
228,596	242,643	-0,149	-0,173
229,611	-91,245	-0,123	-0,024
230,626	164,766	-0,092	-0,090
231,640	90,597	-0,284	-0,220
232,655	-112,042	-0,291	-0,040
233,669	288,459	-0,115	-0,145
234,684	2,192	-0,126	-0,063
235,699	493,473	-0,140	-0,223
236,713	18,139	-0,055	0,030
237,728	-200,000	-0,052	-0,206
238,742	480,359	-0,086	-0,136
239,757	187,352	-0,235	-0,242
240,772	318,805	-0,192	-0,253
241,786	-78,728	-0,249	-0,058
242,801	577,014	-0,149	-0,253
243,815	203,934	-0,248	-0,266
244,830	367,553	-0,091	-0,128
245,844	-14,365	-0,149	-0,066
246,859	54,747	-0,188	-0,125
247,874	101,942	-0,200	-0,161
248,888	23,218	-0,212	-0,120
249,903	90,135	-0,131	-0,101
250,917	236,768	-0,139	-0,159
251,932	85,249	-0,115	-0,087
252,947	251,451	-0,154	-0,181
253,961	118,536	-0,208	-0,177
254,976	694,278	-0,130	-0,237
255,990	670,350	-0,124	-0,222
257,005	420,456	-0,126	-0,187
258,020	131,611	-0,058	-0,052
259,034	34,485	-0,119	-0,071
260,049	323,327	-0,150	-0,198
261,063	-127,139	-0,253	-0,025
262,078	26,999	-0,227	-0,131
263,093	10,192	-0,294	-0,153
264,107	800,000	-0,079	-0,202
265,122	213,382	-0,066	-0,071
266,136	216,559	-0,099	0,109
267,151	10,929	-0,291	-0,153
268,166	165,559	-0,173	-0,169
269,180	95,741	-0,231	-0,181
270,195	59,714	-0,159	-0,108
271,209	-3,447	-0,167	-0,080
272,224	-200,000	-0,028	-0,087
273,239	493,497	-0,114	-0,180
274,253	38,809	-0,193	-0,118
275,268	40,003	-0,234	-0,145
276,282	-33,585	-0,414	-0,157
277,297	80,727	-0,102	-0,076
278,312	27,263	-0,239	-0,138
279,326	123,341	-0,148	-0,128
280,341	-84,791	-0,207	-0,044
281,355	123,019	-0,198	-0,171
282,370	148,506	-0,216	-0,201
283,384	167,168	-0,118	-0,116
284,399	262,082	-0,119	-0,142
285,414	473,027	-0,146	-0,228
286,428	-123,678	-0,185	-0,020
287,443	69,633	-0,167	-0,119
288,457	42,651	-0,127	-0,079
289,472	-2,196	-0,241	-0,116
290,487	155,344	-0,158	-0,150
291,501	439,048	-0,104	-0,157
292,516	167,574	-0,152	-0,148
293,530	-132,174	-0,119	0,010
294,545	129,055	-0,156	-0,137
295,560	-80,015	-0,074	0,017
296,574	369,189	-0,127	-0,178
297,589	800,000	-0,067	-0,157
298,603	162,737	-0,209	-0,202
299,618	261,146	-0,159	-0,189
300,633	152,945	-0,203	-0,190
301,647	756,755	-0,084	-0,158
302,662	-76,264	-0,111	-0,027
303,676	267,251	-0,184	-0,222
304,691	-57,833	-0,202	-0,060
305,706	98,833	-0,149	-0,118
306,720	48,561	-0,203	-0,131
307,735	428,207	-0,148	-0,220
308,749	77,656	-0,123	-0,090
309,764	284,286	-0,088	-0,109
310,779	-37,686	-0,089	-0,032
311,793	800,000	-0,147	-0,324
312,808	-200,000	-0,050	-0,162
313,822	285,923	-0,149	-0,185
314,837	303,855	-0,074	-0,094
315,852	-200,000	-0,047	-0,179
316,866	-135,364	-0,200	0,016
317,881	-35,436	-0,157	-0,058
318,895	-200,000	-0,055	-0,230
319,910	-4,708	-0,105	-0,050
320,925	-97,848	-0,158	-0,028
321,939	264,719	-0,145	-0,174
322,954	-200,000	0,003	0,013
323,968	-66,218	-0,068	-0,019
324,983	-39,626	-0,165	0,059
325,997	123,797	-0,148	-0,127
327,012	199,095	-0,134	-0,140
328,027	13,029	-0,106	-0,056
329,041	102,669	-0,150	-0,121
330,056	339,160	-0,108	-0,145
331,070	-15,833	-0,122	-0,053
332,085	77,006	-0,213	-0,155
333,100	-105,802	-0,215	-0,033
334,114	-5,076	-0,147	-0,069
335,129	31,626	-0,348	-0,204
336,143	348,697	-0,081	-0,110
337,158	-48,119	-0,144	-0,047
338,173	236,843	-0,070	-0,079
339,187	-97,742	-0,154	0,027
340,202	-149,052	-0,221	-0,012
341,216	-77,544	-0,230	-0,054
342,231	94,363	-0,101	-0,079
343,246	328,364	-0,145	-0,191
344,260	172,588	-0,156	-0,154
345,275	800,000	0,059	-0,115
346,289	129,767	-0,062	0,054
347,304	192,696	-0,133	-0,137
348,319	20,394	0,006	-0,003
349,333	800,000	-0,068	-0,195
350,348	800,000	-0,069	-0,169
351,362	441,592	-0,034	-0,050
352,377	-37,306	-0,165	-0,060
353,392	800,000	-0,058	-0,172
354,406	633,775	-0,102	-0,177
355,421	208,069	1310,716	1402,246
356,435	160,084	1470,916	1402,701
