DTS Sentinel unit serial number:	SN410029Multiplexer serial number:	ORYXHardware model number:	OX2-SRSoftware version number:	ORYX F/W v4,00 Oryx Data Collector v3.7.2.0data status	okinstallation	B3 Nyhavnadifferential loss correction	single-endedforward channel	channel 1reverse channel	N/Adate	2023/12/02time	15:37:30forward acquisition time	300,00reverse acquisition time	0,00gamma	499,1914k internal	0,3197k external	0,3197temperature offset calibration	1,0000default loss term (dB/km)	0,3820temperature slope calibration	1,0000multiplexer offset coefficient	1,0000multiplexer slope coefficient	1,0000fibre end	0,00T internal ref (°C)	14,62T ext. ref 1 (°C)	-0,97T ext. ref 2 (°C)	-0,99length (m)	temperature (°C)	Stokes	anti-Stokes-744,400	280,336	-0,141	-0,185
-743,385	-200,000	-0,002	0,409
-742,371	202,953	-0,218	-0,245
-741,356	-200,000	0,018	0,328
-740,342	-3,469	-0,213	-0,107
-739,327	-200,000	0,019	0,340
-738,312	228,773	-0,250	-0,298
-737,298	-200,000	-0,041	0,211
-736,283	114,471	-0,288	-0,255
-735,269	-200,000	0,088	0,349
-734,254	78,414	-0,195	-0,152
-733,239	113,457	-0,153	0,136
-732,225	496,773	-0,129	-0,217
-731,210	-200,000	0,008	0,050
-730,196	-200,000	-0,011	0,076
-729,181	-37,300	0,060	0,023
-728,167	-16,797	0,187	0,086
-727,152	800,000	0,043	0,099
-726,137	281,016	-0,035	-0,046
-725,123	43,977	-0,089	0,059
-724,108	-200,000	0,002	0,089
-723,094	-154,610	-0,023	0,001
-722,079	127,024	0,015	-0,014
-721,064	-60,960	0,156	-0,048
-720,050	800,000	-0,020	-0,058
-719,035	800,000	0,007	-0,017
-718,021	-18,148	-0,112	0,051
-717,006	-200,000	0,008	-0,060
-715,991	800,000	0,019	-0,048
-714,977	-64,501	-0,110	0,032
-713,962	26,759	0,045	-0,028
-712,948	95,260	0,126	-0,104
-711,933	-62,006	0,004	-0,001
-710,918	578,523	-0,060	-0,107
-709,904	400,032	-0,073	-0,112
-708,889	800,000	-0,019	0,059
-707,875	-64,017	0,044	0,013
-706,860	8,130	-0,108	-0,059
-705,845	132,280	-0,061	0,057
-704,831	800,000	-0,041	0,121
-703,816	-98,815	-0,059	-0,011
-702,802	222,411	-0,122	-0,143
-701,787	482,106	-0,046	-0,076
-700,772	800,000	0,038	-0,118
-699,758	90,841	-0,099	-0,080
-698,743	109,724	-0,059	-0,051
-697,729	75,074	0,061	0,047
-696,714	91,286	0,083	0,067
-695,699	-8,089	-0,120	-0,059
-694,685	38,080	-0,058	-0,038
-693,670	18,384	-0,114	-0,066
-692,656	62,852	-0,025	0,018
-691,641	-41,219	-0,053	-0,020
-690,627	711,434	-0,026	0,050
-689,612	229,873	0,063	0,075
-688,597	800,000	0,037	-0,074
-687,583	536,065	-0,061	-0,106
-686,568	800,000	-0,023	-0,060
-685,554	800,000	0,036	-0,112
-684,539	-200,000	-0,016	-0,102
-683,524	26,238	0,034	-0,021
-682,510	800,000	-0,024	0,072
-681,495	395,734	-0,069	-0,104
-680,481	800,000	0,060	-0,171
-679,466	-76,224	-0,102	-0,026
-678,451	-124,337	0,011	-0,001
-677,437	-19,767	-0,074	-0,033
-676,422	-88,651	0,097	0,021
-675,408	-200,000	-0,000	-0,010
-674,393	800,000	0,022	-0,049
-673,378	207,466	-0,044	-0,050
-672,364	12,221	-0,141	0,078
-671,349	-44,571	-0,148	-0,053
-670,335	-200,000	0,008	-0,082
-669,320	800,000	-0,008	-0,021
-668,305	491,448	0,016	0,027
-667,291	165,082	-0,119	0,122
-666,276	429,448	0,039	-0,062
-665,262	247,859	-0,071	-0,087
-664,247	241,682	-0,091	-0,110
-663,232	663,549	0,029	-0,054
-662,218	201,036	0,044	-0,049
-661,203	117,244	0,044	-0,039
-660,189	114,256	-0,149	0,131
-659,174	54,594	-0,051	-0,036
-658,159	298,793	-0,020	-0,026
-657,145	-70,362	0,119	-0,033
-656,130	36,903	-0,087	-0,056
-655,116	-129,799	0,075	-0,007
-654,101	584,511	0,051	0,091
-653,086	800,000	-0,037	-0,085
-652,072	-200,000	0,003	-0,139
-651,057	800,000	0,025	-0,060
-650,043	-40,625	-0,096	-0,036
-649,028	145,955	0,074	0,072
-648,014	735,348	-0,027	-0,053
-646,999	800,000	0,051	-0,133
-645,984	13,580	-0,090	-0,051
-644,970	132,738	-0,093	-0,087
-643,955	231,910	-0,073	-0,086
-642,941	-200,000	0,037	-0,224
-641,926	32,048	0,045	-0,028
-640,911	-7,910	0,058	0,028
-639,897	146,066	0,039	-0,038
-638,882	-200,000	-0,015	0,083
-637,868	800,000	-0,020	0,050
-636,853	1,360	-0,023	-0,012
-635,838	-137,081	0,125	-0,010
-634,824	1,865	-0,062	-0,032
-633,809	-93,304	0,114	-0,023
-632,795	-7,043	-0,037	0,018
-631,780	-200,000	0,003	0,018
-630,765	106,133	-0,112	0,096
-629,751	104,340	-0,108	0,092
-628,736	85,252	-0,210	-0,167
-627,722	289,607	-0,045	0,060
-626,707	256,781	0,063	-0,079
-625,692	800,000	0,074	-0,151
-624,678	-91,602	-0,120	0,024
-623,663	800,000	-0,007	-0,019
-622,649	742,746	-0,025	-0,050
-621,634	-200,000	-0,003	0,083
-620,619	16,577	-0,079	0,045
-619,605	-88,161	-0,118	-0,025
-618,590	-200,000	-0,003	0,087
-617,576	800,000	-0,050	0,154
-616,561	187,131	-0,144	0,156
-615,546	75,223	0,069	-0,053
-614,532	-2,473	-0,095	-0,048
-613,517	-81,046	-0,088	0,021
-612,503	-200,000	0,005	0,121
-611,488	160,155	-0,016	0,016
-610,474	201,297	0,051	-0,057
-609,459	800,000	-0,064	-0,135
-608,444	-43,938	0,094	-0,034
-607,430	-200,000	0,006	-0,138
-606,415	-32,057	-0,102	0,041
-605,401	307,991	0,080	0,109
-604,386	-94,649	0,096	-0,019
-603,371	-102,777	-0,089	0,015
-602,357	-200,000	-0,006	0,086
-601,342	-200,000	-0,009	-0,074
-600,328	269,157	-0,072	-0,092
-599,313	57,279	0,072	0,050
-598,298	-72,958	-0,067	0,018
-597,284	800,000	-0,020	-0,065
-596,269	-3,763	0,083	0,042
-595,255	59,861	-0,164	-0,117
-594,240	53,012	-0,014	0,010
-593,225	34,164	-0,036	-0,022
-592,211	-97,986	-0,080	0,015
-591,196	447,451	0,051	-0,082
-590,182	18,146	0,135	0,078
-589,167	481,926	-0,030	-0,049
-588,152	-200,000	0,033	-0,157
-587,138	1,287	-0,047	0,024
-586,123	-49,308	-0,025	0,009
-585,109	-200,000	-0,002	-0,097
-584,094	-200,000	0,044	-0,186
-583,079	-24,229	-0,073	0,032
-582,065	153,853	0,067	-0,066
-581,050	-36,738	0,106	-0,041
-580,036	-19,220	0,027	-0,012
-579,021	800,000	-0,033	0,071
-578,006	-200,000	-0,009	-0,098
-576,992	800,000	-0,035	0,104
-575,977	704,087	0,070	0,134
-574,963	-30,975	0,182	0,074
-573,948	-200,000	-0,000	0,045
-572,934	246,246	-0,053	-0,065
-571,919	393,757	0,060	0,090
-570,904	620,066	0,031	-0,056
-569,890	-200,000	-0,006	0,067
-568,875	-26,169	-0,041	-0,017
-567,861	800,000	0,009	0,019
-566,846	86,713	0,080	0,064
-565,831	79,705	-0,034	-0,026
-564,817	-200,000	0,006	0,053
-563,802	255,345	-0,068	-0,084
-562,788	357,715	-0,034	-0,049
-561,773	-50,023	0,072	-0,024
-560,758	127,565	0,079	0,073
-559,744	33,221	-0,058	-0,036
-558,729	-43,292	0,105	0,038
-557,715	-84,151	-0,134	-0,031
-556,700	-127,854	-0,060	0,006
-555,685	800,000	0,018	-0,051
-554,671	-1,485	-0,079	0,040
-553,656	-39,069	0,142	-0,054
-552,642	800,000	-0,032	-0,084
-551,627	165,950	-0,023	-0,024
-550,612	-200,000	-0,006	-0,052
-549,598	61,845	0,043	-0,031
-548,583	-136,656	-0,124	0,010
-547,569	301,858	0,080	0,107
-546,554	292,390	0,095	0,125
-545,539	800,000	0,017	0,036
-544,525	-200,000	0,018	-0,129
-543,510	-200,000	-0,015	-0,116
-542,496	-126,789	-0,024	-0,003
-541,481	-200,000	0,008	0,058
-540,466	-200,000	-0,006	-0,031
-539,452	-157,415	-0,058	0,002
-538,437	-96,414	-0,137	-0,026
-537,423	163,966	0,132	0,134
-536,408	-137,263	-0,098	0,008
-535,393	-200,000	-0,028	-0,116
-534,379	545,221	0,030	0,052
-533,364	225,413	-0,095	0,112
-532,350	398,102	0,003	0,005
-531,335	101,971	-0,054	0,046
-530,321	-200,000	0,000	-0,008
-529,306	79,372	0,062	0,048
-528,291	-15,815	-0,106	-0,049
-527,277	3,789	-0,077	0,040
-526,262	-142,051	-0,143	-0,010
-525,248	209,336	0,033	-0,037
-524,233	-74,818	0,046	-0,012
-523,218	-118,264	0,082	-0,010
-522,204	-200,000	0,002	0,065
-521,189	-13,658	0,154	-0,072
-520,175	114,367	0,027	-0,024
-519,160	-136,308	0,084	-0,007
-518,145	-200,000	-0,016	-0,148
-517,131	-70,690	0,123	-0,033
-516,116	-62,866	0,118	-0,035
-515,102	-75,912	-0,083	0,021
-514,087	189,570	-0,038	0,042
-513,072	49,650	0,128	0,087
-512,058	3,775	-0,062	0,032
-511,043	-114,389	-0,098	-0,014
-510,029	-51,102	0,103	0,035
-509,014	273,264	0,024	-0,030
-507,999	-200,000	0,002	0,054
-506,985	-200,000	0,001	-0,077
-505,970	-200,000	0,033	-0,105
-504,956	-200,000	-0,005	0,073
-503,941	151,000	0,056	-0,055
-502,926	1,853	0,119	0,062
-501,912	4,769	0,088	0,047
-500,897	-30,356	-0,049	-0,020
-499,883	247,584	-0,025	0,030
-498,868	216,351	-0,128	0,147
-497,853	7,978	0,036	0,020
-496,839	-168,333	-0,156	-0,004
-495,824	-200,000	-0,005	-0,031
-494,810	65,287	-0,085	-0,062
-493,795	497,750	0,070	-0,117
-492,781	-146,810	-0,097	-0,006
-491,766	800,000	0,039	-0,083
-490,751	-200,000	0,004	0,137
-489,737	26,078	-0,025	0,015
-488,722	-11,925	0,040	0,019
-487,708	-9,763	0,087	-0,042
-486,693	129,840	-0,041	-0,038
-485,678	-200,000	-0,003	0,088
-484,664	-82,336	-0,057	0,013
-483,649	70,898	-0,088	-0,065
-482,635	-200,000	0,014	-0,076
-481,620	777,691	0,014	-0,028
-480,605	-103,187	-0,126	-0,021
-479,591	311,783	-0,070	-0,095
-478,576	-46,444	0,073	-0,026
-477,562	461,941	0,047	0,075
-476,547	239,310	-0,030	-0,036
-475,532	-200,000	-0,011	-0,136
-474,518	-200,000	-0,004	-0,095
-473,503	-183,208	0,023	-0,000
-472,489	326,032	0,112	0,155
-471,474	-83,468	0,048	-0,011
-470,459	484,340	0,048	0,079
-469,445	710,899	-0,041	0,079
-468,430	-115,362	-0,113	-0,015
-467,416	-134,596	-0,047	-0,004
-466,401	220,240	0,070	0,081
-465,386	325,741	0,020	0,028
-464,372	800,000	-0,017	0,037
-463,357	-200,000	0,009	-0,064
-462,343	521,815	0,079	-0,133
-461,328	144,960	0,031	-0,030
-460,313	49,091	0,060	0,040
-459,299	12,607	0,019	0,011
-458,284	-200,000	0,046	0,187
-457,270	-200,000	-0,042	0,138
-456,255	-118,164	-0,154	-0,020
-455,241	-182,176	-0,060	0,001
-454,226	800,000	0,039	-0,123
-453,211	-103,955	0,063	0,010
-452,197	240,678	-0,053	-0,063
-451,182	-200,000	-0,027	-0,103
-450,168	-52,994	-0,047	-0,015
-449,153	164,252	-0,042	-0,043
-448,138	-104,287	0,060	-0,010
-447,124	51,272	-0,106	-0,072
-446,109	-100,174	0,025	0,004
-445,095	132,957	0,070	0,065
-444,080	433,938	-0,088	0,138
-443,065	800,000	-0,030	0,071
-442,051	189,004	0,011	0,012
-441,036	418,318	-0,053	-0,082
-440,022	-200,000	-0,014	-0,168
-439,007	-15,471	-0,108	-0,049
-437,992	205,366	0,117	0,131
-436,978	39,721	0,127	0,082
-435,963	-200,000	-0,002	0,076
-434,949	26,959	0,064	-0,039
-433,934	142,726	-0,074	-0,071
-432,919	-200,000	-0,008	-0,044
-431,905	334,885	-0,033	0,045
-430,890	-113,413	0,104	-0,015
-429,876	-200,000	-0,027	0,114
-428,861	-61,132	-0,198	-0,060
-427,846	232,100	0,084	-0,100
-426,832	-200,000	0,010	0,223
-425,817	193,746	0,059	0,064
-424,803	-32,029	-0,074	-0,030
-423,788	85,075	0,031	-0,025
-422,773	-108,535	0,147	-0,022
-421,759	800,000	0,020	-0,043
-420,744	-34,706	0,064	0,025
-419,730	-200,000	-0,005	-0,075
-418,715	101,321	0,054	-0,045
-417,701	318,221	0,076	-0,104
-416,686	-129,789	-0,179	-0,017
-415,671	185,218	0,060	0,064
-414,657	-16,490	-0,020	-0,009
-413,642	191,312	0,063	0,069
-412,628	-67,795	-0,088	0,024
-411,613	-200,000	-0,001	-0,159
-410,598	-53,828	-0,037	-0,012
-409,584	74,561	-0,109	-0,083
-408,569	133,754	0,090	0,084
-407,555	800,000	0,024	0,063
-406,540	364,657	-0,049	0,071
-405,525	-164,994	0,082	0,003
-404,511	-200,000	0,014	-0,058
-403,496	800,000	-0,064	-0,134
-402,482	-200,000	-0,040	0,158
-401,467	-200,000	-0,015	0,091
-400,452	-200,000	-0,025	0,102
-399,438	13,473	0,150	0,083
-398,423	800,000	0,065	-0,131
-397,409	-200,000	0,017	-0,106
-396,394	170,189	-0,111	0,115
-395,379	-200,000	-0,030	0,255
-394,365	793,859	0,041	0,080
-393,350	737,475	-0,059	0,114
-392,336	-87,387	-0,159	0,034
-391,321	27,785	0,080	-0,048
-390,306	545,087	-0,050	-0,086
-389,292	-35,314	0,034	-0,013
-388,277	157,292	0,035	0,035
-387,263	110,480	0,051	-0,044
-386,248	-98,978	0,114	0,021
-385,233	323,718	0,096	-0,132
-384,219	49,224	-0,123	-0,083
-383,204	-15,570	0,155	0,071
-382,190	137,555	-0,058	-0,054
-381,175	-166,006	0,051	-0,002
-380,160	-200,000	0,001	-0,083
-379,146	800,000	0,036	-0,086
-378,131	800,000	-0,051	0,104
-377,117	-200,000	0,015	0,147
-376,102	6,072	-0,085	-0,045
-375,088	114,760	-0,042	-0,037
-374,073	-146,965	0,026	0,002
-373,058	526,765	-0,118	-0,199
-372,044	-200,000	-0,041	0,163
-371,029	-200,000	0,004	-0,062
-370,015	-95,225	-0,059	0,011
-369,000	498,324	0,072	-0,119
-367,985	-200,000	0,011	-0,059
-366,971	-95,404	0,079	-0,015
-365,956	-138,240	-0,096	-0,008
-364,942	29,013	0,053	-0,032
-363,927	75,627	0,056	0,042
-362,912	46,312	0,078	-0,052
-361,898	73,614	-0,013	-0,010
-360,883	-200,000	0,011	0,067
-359,869	-200,000	0,023	0,152
-358,854	-26,045	0,093	0,039
-357,839	229,902	-0,053	-0,063
-356,825	-171,291	0,017	0,000
-355,810	340,137	0,069	-0,096
-354,796	222,492	-0,041	-0,048
-353,781	-200,000	-0,047	-0,183
-352,766	-116,454	-0,023	0,003
-351,752	800,000	0,019	-0,054
-350,737	193,184	0,119	0,129
-349,723	800,000	0,019	0,041
-348,708	121,877	0,091	0,082
-347,693	-6,538	-0,037	0,018
-346,679	-103,387	-0,132	-0,022
-345,664	49,585	0,027	0,018
-344,650	-200,000	0,012	0,096
-343,635	38,996	0,081	0,052
-342,620	366,098	-0,039	0,057
-341,606	-200,000	0,016	0,191
-340,591	370,855	-0,079	-0,115
-339,577	-154,405	-0,097	-0,005
-338,562	55,016	0,017	0,012
-337,548	662,598	-0,005	-0,010
-336,533	800,000	0,021	-0,055
-335,518	800,000	-0,006	0,017
-334,504	127,001	0,040	0,037
-333,489	72,206	0,026	0,020
-332,475	800,000	-0,023	-0,054
-331,460	23,223	-0,028	-0,017
-330,445	-78,733	0,040	0,010
-329,431	344,131	0,067	0,095
-328,416	-200,000	0,010	-0,080
-327,402	-200,000	-0,011	0,149
-326,387	67,218	0,107	0,078
-325,372	-200,000	-0,024	-0,099
-324,358	-200,000	-0,019	-0,165
-323,343	-200,000	0,012	0,040
-322,329	800,000	-0,052	0,157
-321,314	155,140	0,106	0,104
-320,299	179,532	-0,104	0,109
-319,285	345,807	0,026	0,037
-318,270	-39,208	-0,029	-0,011
-317,256	-105,033	-0,098	-0,016
-316,241	-65,900	0,058	-0,017
-315,226	427,423	-0,064	-0,100
-314,212	137,317	-0,062	0,058
-313,197	-200,000	-0,014	0,105
-312,183	-89,503	0,051	-0,011
-311,168	-114,817	0,110	-0,015
-310,153	91,128	-0,040	0,032
-309,139	-194,251	0,128	-0,001
-308,124	-50,622	-0,028	-0,009
-307,110	-200,000	0,005	-0,024
-306,095	469,182	0,029	-0,048
-305,080	800,000	-0,076	0,211
-304,066	-200,000	-0,005	0,020
-303,051	-132,817	-0,104	-0,009
-302,037	512,777	0,034	-0,057
-301,022	800,000	0,028	-0,086
-300,008	-129,794	0,055	-0,005
-298,993	-69,182	0,137	-0,037
-297,978	-200,000	-0,012	-0,131
-296,964	179,156	0,064	0,067
-295,949	-200,000	-0,018	-0,132
-294,935	118,335	0,103	-0,091
-293,920	645,286	-0,026	0,047
-292,905	500,321	0,033	0,054
-291,891	234,315	-0,066	0,078
-290,876	357,732	0,115	0,165
-289,862	367,634	0,077	-0,111
-288,847	-26,128	-0,010	-0,004
-287,832	-83,525	0,100	-0,023
-286,818	-72,607	-0,100	0,026
-285,803	-127,302	0,056	0,006
-284,789	-4,519	0,099	-0,049
-283,774	133,120	-0,124	0,115
-282,759	765,935	0,049	0,095
-281,745	-37,658	-0,188	-0,071
-280,730	-200,000	0,009	0,030
-279,716	22,796	0,144	-0,084
-278,701	265,951	0,025	-0,031
-277,686	534,470	0,009	-0,014
-276,672	17,665	0,057	0,033
-275,657	-87,335	-0,062	-0,013
-274,643	-200,000	0,007	-0,089
-273,628	69,879	0,067	0,050
-272,613	800,000	-0,018	0,038
-271,599	418,061	-0,045	0,069
-270,584	-68,153	0,191	-0,053
-269,570	-200,000	0,020	0,174
-268,555	-106,310	-0,106	0,017
-267,540	-130,677	-0,086	0,008
-266,526	8,729	-0,065	-0,035
-265,511	346,803	-0,055	-0,077
-264,497	-200,000	-0,026	-0,086
-263,482	146,714	0,009	0,008
-262,467	-200,000	0,012	-0,078
-261,453	-36,091	0,024	0,009
-260,438	-53,776	-0,179	0,058
-259,424	-162,266	0,112	-0,004
-258,409	-178,712	-0,065	-0,001
-257,395	82,666	0,072	0,056
-256,380	-43,401	0,067	-0,024
-255,365	-159,128	-0,051	0,002
-254,351	131,120	0,084	0,077
-253,336	32,788	-0,149	-0,092
-252,322	-131,746	-0,097	-0,009
-251,307	135,793	-0,120	0,112
-250,292	-200,000	0,029	0,135
-249,278	-99,744	0,060	-0,011
-248,263	99,388	0,043	0,035
-247,249	392,648	-0,078	0,116
-246,234	228,756	0,020	-0,024
-245,219	800,000	-0,029	-0,073
-244,205	800,000	0,008	0,018
-243,190	190,047	-0,027	-0,029
-242,176	-160,792	0,089	-0,003
-241,161	-200,000	-0,007	0,093
-240,146	800,000	0,060	0,128
-239,132	41,264	0,020	0,013
-238,117	800,000	-0,046	-0,119
-237,103	89,143	-0,081	-0,065
-236,088	-200,000	-0,000	-0,117
-235,073	-34,586	0,137	-0,053
-234,059	-1,331	0,074	-0,037
-233,044	598,906	-0,046	0,082
-232,030	-200,000	0,017	-0,061
-231,015	30,146	-0,140	0,085
-230,000	-200,000	-0,024	-0,090
-228,986	598,537	0,058	-0,104
-227,971	-200,000	-0,008	-0,039
-226,957	560,997	0,049	-0,085
-225,942	733,390	0,036	0,069
-224,927	-200,000	-0,001	-0,019
-223,913	331,005	-0,082	-0,112
-222,898	11,457	-0,092	-0,050
-221,884	10,332	0,014	-0,008
-220,869	-91,903	-0,198	0,040
-219,855	-84,135	0,159	-0,036
-218,840	-1,972	0,112	-0,056
-217,825	270,512	0,034	0,042
-216,811	-150,079	-0,088	-0,005
-215,796	114,331	-0,047	-0,041
-214,782	338,961	0,105	-0,146
-213,767	767,539	-0,043	0,084
-212,752	149,736	0,038	-0,037
-211,738	13,661	-0,068	-0,037
-210,723	-100,919	0,096	0,017
-209,709	-84,865	-0,099	-0,022
-208,694	-200,000	0,014	0,054
-207,679	-200,000	-0,002	-0,025
-206,665	-120,055	-0,112	0,013
-205,650	-188,352	-0,128	0,001
-204,636	108,423	0,029	-0,024
-203,621	261,896	-0,063	0,078
-202,606	-41,014	-0,103	0,038
-201,592	-200,000	-0,016	0,081
-200,577	-200,000	0,013	0,087
-199,563	469,752	-0,021	-0,034
-198,548	-130,004	0,119	0,011
-197,533	181,471	-0,023	0,024
-196,519	-96,583	-0,116	0,022
-195,504	-200,000	0,027	-0,138
-194,490	18,143	-0,142	-0,081
-193,475	800,000	-0,019	-0,050
-192,460	642,450	-0,023	-0,041
-191,446	-8,746	0,117	0,056
-190,431	-145,730	0,139	0,009
-189,417	800,000	0,053	-0,135
-188,402	800,000	-0,027	-0,078
-187,387	118,977	0,019	0,017
-186,373	-200,000	-0,002	0,149
-185,358	-200,000	-0,010	-0,065
-184,344	-15,435	0,123	-0,056
-183,329	30,392	0,102	-0,062
-182,315	-84,879	0,102	0,023
-181,300	213,063	0,033	0,037
-180,285	-71,643	-0,055	-0,015
-179,271	535,598	-0,075	-0,128
-178,256	79,336	-0,031	0,023
-177,242	-115,629	0,106	0,014
-176,227	-200,000	0,002	-0,076
-175,212	-77,124	0,145	-0,036
-174,198	-6,699	0,131	0,063
-173,183	262,257	-0,049	0,061
-172,169	-0,845	-0,127	-0,064
-171,154	79,181	0,135	0,103
-170,139	35,584	-0,094	-0,059
-169,125	-136,482	-0,033	-0,003
-168,110	-200,000	-0,011	0,153
-167,096	-200,000	0,031	0,224
-166,081	273,570	-0,058	-0,074
-165,066	-67,558	-0,107	-0,030
-164,052	355,615	0,092	0,131
-163,037	800,000	0,021	0,053
-162,023	-200,000	-0,017	0,132
-161,008	800,000	0,013	-0,031
-159,993	-133,950	-0,098	-0,009
-158,979	800,000	0,048	0,123
-157,964	800,000	-0,046	0,094
-156,950	-44,503	0,113	0,040
-155,935	-12,079	0,035	0,016
-154,920	369,533	0,080	0,116
-153,906	405,846	-0,020	0,029
-152,891	800,000	0,022	-0,051
-151,877	-200,000	-0,007	-0,078
-150,862	-66,163	-0,166	-0,047
-149,847	406,232	-0,051	-0,077
-148,833	461,693	0,041	-0,065
-147,818	-200,000	0,001	-0,120
-146,804	-200,000	0,023	0,107
-145,789	522,128	-0,080	0,133
-144,775	-200,000	0,004	-0,092
-143,760	800,000	-0,018	-0,046
-142,745	434,287	0,039	-0,061
-141,731	-60,048	0,119	0,036
-140,716	365,179	0,045	0,065
-139,702	-77,470	-0,127	0,031
-138,687	-200,000	0,012	-0,124
-137,672	513,218	-0,026	-0,043
-136,658	-37,434	-0,046	-0,017
-135,643	94,752	-0,091	-0,073
-134,629	-52,360	0,078	-0,026
-133,614	-68,260	0,057	-0,016
-132,599	464,958	-0,031	0,050
-131,585	19,384	-0,046	0,026
-130,570	420,435	0,086	-0,131
-129,556	-146,466	-0,020	-0,001
-128,541	-49,630	-0,086	0,029
-127,526	-200,000	0,035	-0,159
-126,512	800,000	0,008	0,020
-125,497	-55,863	0,049	-0,015
-124,483	217,726	-0,055	0,062
-123,468	-62,137	0,113	-0,033
-122,453	197,346	0,075	-0,081
-121,439	-106,073	0,018	-0,003
-120,424	208,506	0,051	-0,057
-119,410	-18,972	0,055	0,024
-118,395	-56,499	0,065	0,020
-117,380	7,603	-0,058	-0,031
-116,366	-53,136	-0,044	0,014
-115,351	-200,000	0,006	-0,051
-114,337	-40,011	0,076	0,028
-113,322	-107,063	-0,056	-0,009
-112,307	18,272	0,114	-0,065
-111,293	-200,000	0,048	-0,173
-110,278	-58,334	0,091	-0,028
-109,264	-105,545	-0,035	-0,006
-108,249	724,184	-0,016	0,030
-107,234	-200,000	0,011	-0,062
-106,220	-99,283	-0,086	0,015
-105,205	-200,000	0,042	-0,144
-104,191	-200,000	-0,002	-0,057
-103,176	800,000	0,058	0,148
-102,162	35,939	-0,014	-0,009
-101,147	108,302	-0,138	0,117
-100,132	24,015	-0,093	-0,054
-99,118	96,737	0,130	-0,106
-98,103	-93,526	0,096	-0,019
-97,089	373,309	-0,008	0,012
-96,074	-105,156	-0,043	-0,007
-95,059	44,877	-0,103	0,067
-94,045	-200,000	-0,032	0,117
-93,030	-57,216	-0,072	-0,022
-92,016	-200,000	-0,010	-0,093
-91,001	641,930	0,017	0,031
-89,986	-69,987	-0,023	0,006
-88,972	800,000	0,035	-0,072
-87,957	-200,000	-0,017	0,057
-86,943	187,328	-0,028	0,030
-85,928	-63,713	-0,046	0,013
-84,913	800,000	-0,031	-0,090
-83,899	-138,734	0,039	-0,003
-82,884	279,789	-0,069	-0,087
-81,870	171,913	0,095	0,097
-80,855	-108,556	-0,137	-0,021
-79,840	800,000	0,016	0,039
-78,826	-158,013	-0,024	-0,001
-77,811	-73,613	-0,144	0,037
-76,797	-200,000	-0,000	0,107
-75,782	-164,152	0,009	-0,000
-74,767	640,526	0,022	0,040
-73,753	-200,000	0,036	0,130
-72,738	-44,053	-0,033	0,012
-71,724	-96,179	0,092	0,017
-70,709	800,000	-0,019	0,041
-69,694	800,000	-0,033	-0,069
-68,680	-200,000	0,026	0,089
-67,665	800,000	0,026	0,061
-66,651	800,000	0,023	0,071
-65,636	-144,393	0,163	-0,011
-64,622	-22,254	-0,088	-0,037
-63,607	101,552	0,112	-0,093
-62,592	800,000	-0,031	0,063
-61,578	36,493	0,119	-0,075
-60,563	-200,000	-0,013	0,064
-59,549	75,197	-0,042	0,031
-58,534	-18,963	-1,685	-0,740
-57,519	267,137	-1,659	-2,061
-56,505	-200,000	-0,549	-4,510
-55,490	119,085	0,959	0,841
-54,476	800,000	4,897	11,266
-53,461	-200,000	18,513	294,946
-52,446	800,000	730,804	2251,431
-51,432	558,740	1646,879	2827,885
-50,417	78,866	1666,618	1262,862
-49,403	22,512	1539,980	890,493
-48,388	16,491	1462,963	816,751
-47,373	17,837	1452,938	817,613
-46,359	17,169	1443,200	808,903
-45,344	14,771	1438,791	794,933
-44,330	14,692	1436,898	793,475
-43,315	14,696	1434,873	792,346
-42,300	14,680	1433,375	791,412
-41,286	14,730	1432,285	791,016
-40,271	14,750	1430,719	790,213
-39,257	14,714	1429,797	789,505
-38,242	14,751	1428,273	788,808
-37,227	14,743	1427,130	788,105
-36,213	14,781	1425,664	787,445
-35,198	14,705	1424,627	786,482
-34,184	14,745	1423,856	786,215
-33,169	14,699	1422,489	785,208
-32,154	14,716	1421,442	784,680
-31,140	14,707	1419,993	783,810
-30,125	14,798	1418,943	783,629
-29,111	14,762	1417,843	782,817
-28,096	14,693	1416,686	781,822
-27,082	14,652	1415,747	781,079
-26,067	14,701	1414,489	780,586
-25,052	14,658	1413,646	779,886
-24,038	14,650	1412,697	779,295
-23,023	14,620	1411,570	778,504
-22,009	14,587	1410,643	777,807
-20,994	14,597	1409,717	777,310
-19,979	14,619	1408,712	776,829
-18,965	14,578	1407,678	776,035
-17,950	14,581	1406,852	775,566
-16,936	14,601	1405,899	775,101
-15,921	14,541	1404,704	774,134
-14,906	14,516	1404,038	773,618
-13,892	14,565	1403,082	773,287
-12,877	14,588	1401,920	772,726
-11,863	14,549	1401,243	772,141
-10,848	14,567	1400,183	771,606
-9,833	14,515	1399,399	770,906
-8,819	14,471	1398,494	770,168
-7,804	14,440	1397,792	769,608
-6,790	14,521	1396,462	769,221
-5,775	14,472	1395,640	768,511
-4,760	14,488	1394,384	767,864
-3,746	14,429	1393,795	767,237
-2,731	14,468	1392,989	766,943
-1,717	14,441	1392,128	766,314
-0,702	14,407	1390,383	765,166
0,313	18,220	1308,769	737,913
1,327	34,577	705,622	435,737
2,342	52,958	124,152	84,000
3,356	0,145	16,694	8,402
4,371	-0,136	3,197	1,606
5,386	-29,489	0,484	0,195
6,400	-200,000	0,077	0,268
7,415	82,549	-0,160	-0,123
8,429	-50,530	-0,232	-0,077
9,444	198,335	-0,277	-0,301
10,459	-25,729	-0,358	-0,149
11,473	800,000	-0,087	-0,204
12,488	113,511	-0,209	-0,180
13,502	-110,559	-0,325	-0,047
14,517	5,356	-0,325	-0,169
15,531	-50,497	-0,439	-0,146
16,546	216,131	-0,348	-0,392
17,561	99,248	-0,469	-0,383
18,575	-48,493	-0,237	-0,080
19,590	47,560	-0,285	-0,188
20,604	-4,647	-0,207	-0,101
21,619	-3,110	-0,561	-0,276
22,634	101,355	-0,476	-0,392
23,648	17,571	-0,429	-0,240
24,663	178,984	-0,277	-0,286
25,677	55,093	-0,445	-0,303
26,692	109,014	-0,397	-0,336
27,707	-22,918	-0,385	-0,164
28,721	-24,197	-0,394	-0,166
29,736	114,303	-0,484	-0,416
30,750	51,673	-0,433	-0,290
31,765	137,212	-0,357	-0,330
32,780	49,489	-0,451	-0,299
33,794	104,561	-0,378	-0,314
34,809	141,957	-0,468	-0,439
35,823	76,595	-0,315	-0,236
36,838	-28,803	-0,508	-0,205
37,853	69,144	-0,393	-0,285
38,867	-32,315	-0,334	-0,131
39,882	-91,673	-0,371	-0,074
40,896	2,761	-0,354	-0,180
41,911	355,446	-0,268	-0,377
42,926	97,049	-0,175	-0,141
43,940	16,778	-0,345	-0,192
44,955	105,855	-0,295	-0,246
45,969	800,000	-0,151	-0,353
46,984	184,977	-0,250	-0,262
47,999	0,934	-0,285	-0,144
49,013	81,701	-0,275	-0,210
50,028	185,731	-0,284	-0,298
51,042	310,049	-0,231	-0,305
52,057	53,166	-0,452	-0,305
53,071	191,870	-0,385	-0,410
54,086	-28,873	-0,409	-0,165
55,101	1,036	-0,268	-0,135
56,115	-13,592	-0,268	-0,122
57,130	-0,353	-0,278	-0,139
58,144	34,413	-0,324	-0,199
59,159	30,382	-0,564	-0,339
60,174	45,465	-0,318	-0,207
61,188	227,686	-0,294	-0,338
62,203	61,757	-0,347	-0,243
63,217	65,040	-0,330	-0,234
64,232	-41,691	-0,338	-0,122
65,247	36,723	-0,405	-0,252
66,261	1,314	-0,357	-0,180
67,276	32,248	-0,288	-0,175
68,290	185,114	-0,364	-0,381
69,305	-17,038	-0,232	-0,103
70,320	76,522	-0,239	-0,178
71,334	-78,477	-0,326	-0,078
72,349	-110,869	-0,330	-0,047
73,363	69,748	-0,375	-0,271
74,378	87,234	-0,296	-0,230
75,393	182,711	-0,357	-0,371
76,407	-8,587	-0,222	-0,104
77,422	92,760	-0,212	-0,169
78,436	38,554	-0,270	-0,169
79,451	-21,842	-0,322	-0,137
80,466	52,076	-0,309	-0,207
81,480	191,964	-0,247	-0,262
82,495	235,584	-0,370	-0,430
83,509	71,952	-0,260	-0,190
84,524	180,599	-0,207	-0,213
85,539	93,654	-0,253	-0,201
86,553	-81,171	-0,290	-0,067
87,568	-24,472	-0,315	-0,131
88,582	71,914	-0,302	-0,221
89,597	44,948	-0,333	-0,215
90,611	-40,959	-0,279	-0,101
91,626	-68,898	-0,243	-0,066
92,641	-116,781	-0,262	-0,033
93,655	140,163	-0,198	-0,184
94,670	27,286	-0,287	-0,169
95,684	97,690	-0,241	-0,194
96,699	-18,056	-0,179	-0,078
97,714	21,010	-0,295	-0,168
98,728	-38,062	-0,189	-0,070
99,743	49,820	-0,336	-0,222
100,757	259,441	-0,191	-0,232
101,772	4,532	-0,246	-0,127
102,787	167,155	-0,335	-0,334
103,801	151,122	-0,323	-0,309
104,816	-20,302	-0,327	-0,141
105,830	219,063	-0,128	-0,144
106,845	295,691	-0,177	-0,228
107,860	93,283	-0,303	-0,240
108,874	-54,010	-0,318	-0,101
109,889	700,825	-0,173	-0,320
110,903	45,169	-0,342	-0,221
111,918	104,029	-0,206	-0,170
112,933	-55,152	-0,261	-0,082
113,947	-90,091	-0,248	-0,050
114,962	-23,813	-0,403	-0,169
115,976	-22,887	-0,165	-0,070
116,991	212,145	-0,216	-0,239
118,006	46,354	-0,228	-0,148
119,020	-10,581	-0,310	-0,143
120,035	118,492	-0,310	-0,268
121,049	-117,985	-0,167	-0,021
122,064	159,256	-0,274	-0,267
123,079	187,979	-0,215	-0,225
124,093	255,214	-0,181	-0,217
125,108	57,701	-0,463	-0,317
126,122	212,899	-0,180	-0,199
127,137	-67,287	-0,226	-0,062
128,151	-26,982	-0,362	-0,148
129,166	46,237	-0,214	-0,139
130,181	-75,790	-0,120	0,030
131,195	240,905	-0,306	-0,358
132,210	100,118	-0,252	-0,204
133,224	91,099	-0,263	-0,206
134,239	-33,784	-0,257	-0,099
135,254	-35,027	-0,225	-0,086
136,268	-40,558	-0,187	-0,068
137,283	-29,873	-0,184	-0,073
138,297	89,603	-0,319	-0,249
139,312	253,380	-0,195	-0,234
140,327	8,600	-0,272	-0,143
141,341	7,861	-0,231	-0,121
142,356	39,848	-0,177	-0,111
143,370	389,363	-0,208	-0,302
144,385	-46,876	-0,319	-0,109
145,400	-19,476	-0,261	-0,113
146,414	121,712	-0,346	-0,302
147,429	157,188	-0,241	-0,233
148,443	215,030	-0,203	-0,226
149,458	800,000	-0,118	-0,255
150,473	70,382	-0,128	-0,092
151,487	52,549	-0,285	-0,190
152,502	31,639	-0,175	-0,105
153,516	239,350	-0,162	-0,189
154,531	45,370	-0,265	-0,171
155,546	29,257	-0,253	-0,150
156,560	71,325	-0,306	-0,222
157,575	20,379	-0,306	-0,172
158,589	38,413	-0,353	-0,219
159,604	135,018	-0,203	-0,184
160,619	275,646	-0,152	-0,188
161,633	150,841	-0,176	-0,167
162,648	210,399	-0,215	-0,236
163,662	235,483	-0,120	-0,139
164,677	26,888	-0,222	-0,130
165,692	-68,825	-0,275	-0,074
166,706	354,545	-0,088	-0,123
167,721	66,779	-0,213	-0,151
168,735	196,895	-0,329	-0,350
169,750	307,075	-0,148	-0,193
170,764	122,959	-0,331	-0,289
171,779	362,725	-0,193	-0,271
172,794	-34,739	-0,195	-0,074
173,808	-59,244	-0,315	-0,094
174,823	93,411	-0,172	-0,136
175,837	-48,072	-0,199	-0,067
176,852	22,481	-0,217	-0,124
177,867	146,639	-0,161	-0,151
178,881	71,827	-0,251	-0,182
179,896	693,038	-0,150	-0,276
180,910	12,219	-0,216	-0,115
181,925	-53,107	-0,235	-0,075
182,940	114,416	-0,241	-0,205
183,954	-40,065	-0,340	-0,123
184,969	-200,000	0,014	-0,106
185,983	433,689	-0,127	-0,193
186,998	-62,613	-0,173	-0,050
188,013	741,752	-0,053	-0,099
189,027	282,034	-0,106	-0,133
190,042	698,013	-0,138	-0,254
191,056	134,989	-0,257	-0,233
192,071	-64,561	-0,292	-0,082
193,086	328,415	-0,118	-0,158
194,100	115,303	-0,168	-0,143
195,115	52,861	-0,246	-0,164
196,129	29,961	-0,293	-0,174
197,144	214,137	-0,183	-0,201
198,159	459,357	-0,200	-0,311
199,173	194,633	-0,164	-0,173
200,188	800,000	-0,073	-0,194
201,202	-5,164	-0,154	-0,073
202,217	-35,094	-0,275	-0,104
203,232	112,436	-0,248	-0,209
204,246	-200,000	-0,002	-0,034
205,261	50,236	-0,224	-0,147
206,275	185,916	-0,251	-0,260
207,290	233,002	-0,172	-0,198
208,304	-43,641	-0,177	0,062
209,319	773,854	-0,119	-0,227
210,334	-10,189	-0,260	-0,119
211,348	33,292	-0,311	-0,187
212,363	-8,990	-0,186	-0,086
213,377	-16,126	-0,250	-0,110
214,392	-138,540	-0,179	-0,013
215,407	-24,285	-0,178	-0,074
216,421	81,694	-0,128	-0,096
217,436	-34,745	-0,265	-0,100
218,450	800,000	-0,099	-0,219
219,465	759,475	-0,103	-0,195
220,480	-81,258	-0,196	0,045
221,494	185,000	-0,192	-0,199
222,509	-1,147	-0,253	-0,124
223,523	239,189	-0,170	-0,196
224,538	593,973	-0,075	-0,130
225,553	188,511	-0,227	-0,236
226,567	140,845	-0,201	-0,184
227,582	209,868	-0,223	-0,244
228,596	800,000	-0,107	-0,253
229,611	122,500	-0,143	-0,124
230,626	-23,529	-0,206	-0,085
231,640	13,922	-0,243	-0,131
232,655	24,158	-0,275	-0,157
233,669	88,566	-0,184	-0,142
234,684	800,000	-0,145	-0,327
235,699	309,192	-0,086	-0,111
236,713	-75,610	-0,220	-0,054
237,728	71,360	-0,266	-0,191
238,742	800,000	-0,138	-0,267
239,757	11,932	-0,283	-0,150
240,772	-69,122	-0,294	-0,078
241,786	157,439	-0,153	-0,147
242,801	-200,000	-0,016	-0,134
243,815	420,888	-0,091	-0,136
244,830	-2,112	-0,125	0,061
245,844	-149,952	-0,180	0,010
246,859	106,690	-0,233	-0,192
247,874	-54,353	-0,247	-0,077
248,888	91,848	-0,278	-0,217
249,903	-200,000	0,003	-0,118
250,917	-56,707	-0,166	-0,051
251,932	-73,700	-0,107	-0,027
252,947	-143,494	-0,128	0,008
253,961	86,781	-0,206	-0,157
254,976	12,085	-0,212	-0,112
255,990	70,467	-0,165	-0,118
257,005	128,411	-0,236	-0,209
258,020	-17,700	-0,286	-0,124
259,034	-41,746	-0,180	-0,064
260,049	420,063	-0,079	0,117
261,063	-19,088	-0,194	-0,083
262,078	108,118	-0,104	-0,086
263,093	17,971	-0,178	-0,098
264,107	206,552	-0,207	-0,223
265,122	24,534	-0,148	-0,085
266,136	800,000	-0,038	-0,094
267,151	229,593	-0,176	-0,200
268,166	66,967	-0,075	0,053
269,180	32,579	-0,254	-0,151
270,195	362,415	-0,211	-0,294
271,209	61,839	-0,126	-0,087
272,224	211,717	-0,131	-0,143
273,239	280,185	-0,195	-0,242
274,253	599,467	-0,049	-0,084
275,268	16,007	-0,109	0,059
276,282	257,259	-0,137	-0,163
277,297	800,000	-0,049	-0,099
278,312	74,851	-0,206	-0,149
279,326	51,774	-0,195	-0,128
280,341	800,000	-0,042	-0,098
281,355	73,090	-0,085	-0,061
282,370	59,151	-0,198	-0,134
283,384	335,506	-0,142	-0,191
284,399	23,058	-0,175	-0,099
285,414	70,977	-0,171	-0,122
286,428	-101,854	-0,143	-0,024
287,443	254,601	-0,131	-0,155
288,457	-38,967	-0,143	-0,052
289,472	164,871	-0,160	-0,156
290,487	-13,236	-0,200	-0,090
291,501	104,059	-0,225	-0,183
292,516	122,443	-0,193	-0,167
293,530	242,511	-0,116	-0,135
294,545	17,711	-0,089	-0,049
295,560	12,268	-0,193	-0,102
296,574	-27,537	-0,054	0,022
297,589	613,793	-0,079	-0,137
298,603	35,327	-0,209	-0,126
299,618	127,203	-0,206	-0,181
300,633	222,692	-0,206	-0,229
301,647	800,000	-0,040	-0,095
302,662	134,077	-0,107	-0,095
303,676	163,219	-0,119	-0,115
304,691	57,005	-0,156	-0,105
305,706	1,161	-0,265	-0,131
306,720	237,361	-0,063	-0,072
307,735	-109,835	-0,173	-0,025
308,749	-143,987	-0,194	0,012
309,764	-200,000	-0,006	-0,110
310,779	-89,089	-0,250	-0,051
311,793	357,547	-0,121	-0,166
312,808	237,809	-0,151	-0,173
313,822	37,217	-0,286	-0,174
314,837	416,579	-0,160	-0,235
315,852	-142,813	-0,072	0,005
316,866	257,325	-0,082	-0,097
317,881	248,511	-0,192	-0,225
318,895	-200,000	0,008	0,037
319,910	-22,040	-0,228	-0,095
320,925	-35,109	-0,141	0,053
321,939	113,349	-0,181	-0,152
322,954	613,339	-0,082	-0,141
323,968	-64,859	-0,116	-0,032
324,983	152,300	-0,078	-0,073
325,997	-13,667	-0,160	-0,071
327,012	72,593	-0,193	-0,139
328,027	12,709	-0,248	-0,131
329,041	549,363	-0,097	-0,160
330,056	145,585	-0,132	0,122
331,070	597,330	-0,034	-0,058
332,085	-67,414	-0,078	-0,021
333,100	276,238	-0,171	-0,209
334,114	5,580	-0,135	-0,068
335,129	315,210	-0,187	-0,243
336,143	794,209	-0,127	-0,242
337,158	-200,000	-0,018	0,060
338,173	125,164	-0,122	-0,105
339,187	-65,581	-0,210	-0,058
340,202	342,650	-0,083	0,112
341,216	-200,000	-0,067	-0,325
342,231	228,299	-0,058	-0,065
343,246	-7,853	-0,114	-0,053
344,260	622,693	-0,066	-0,115
345,275	102,260	-0,066	-0,053
346,289	-16,301	-0,177	-0,077
347,304	40,704	-0,063	-0,039
348,319	620,812	-0,124	-0,214
349,333	-13,503	-0,149	-0,066
350,348	-21,943	-0,211	-0,088
351,362	167,250	-0,178	-0,174
352,377	55,957	-0,118	-0,079
353,392	-200,000	-0,002	0,057
354,406	-16,395	0,096	-0,041
355,421	208,256	1313,339	1411,474
356,435	160,244	1473,882	1411,985
