DTS Sentinel unit serial number:	SN410029Multiplexer serial number:	ORYXHardware model number:	OX2-SRSoftware version number:	ORYX F/W v4,00 Oryx Data Collector v3.7.2.0data status	okinstallation	B3 Nyhavnadifferential loss correction	single-endedforward channel	channel 1reverse channel	N/Adate	2023/12/04time	10:37:30forward acquisition time	300,00reverse acquisition time	0,00gamma	499,1914k internal	0,3203k external	0,3203temperature offset calibration	1,0000default loss term (dB/km)	0,3820temperature slope calibration	1,0000multiplexer offset coefficient	1,0000multiplexer slope coefficient	1,0000fibre end	0,00T internal ref (°C)	13,62T ext. ref 1 (°C)	-0,75T ext. ref 2 (°C)	-0,77length (m)	temperature (°C)	Stokes	anti-Stokes-744,400	-200,000	-0,086	-0,373
-743,385	-200,000	0,096	0,332
-742,371	119,372	-0,124	-0,112
-741,356	-200,000	-0,021	0,253
-740,342	800,000	-0,108	-0,267
-739,327	-200,000	0,053	0,308
-738,312	409,633	-0,145	-0,224
-737,298	-200,000	-0,008	0,273
-736,283	800,000	-0,113	-0,276
-735,269	-200,000	0,056	0,416
-734,254	5,977	-0,224	-0,120
-733,239	90,262	-0,133	0,108
-732,225	800,000	-0,095	-0,208
-731,210	-154,680	0,135	-0,006
-730,196	-153,697	-0,066	0,003
-729,181	-200,000	0,019	-0,070
-728,167	-200,000	-0,022	0,073
-727,152	-33,585	0,099	0,039
-726,137	-21,721	-0,154	0,068
-725,123	-200,000	-0,019	-0,083
-724,108	24,266	-0,149	-0,089
-723,094	46,709	0,007	-0,005
-722,079	190,675	-0,019	-0,021
-721,064	800,000	-0,049	-0,112
-720,050	-60,878	0,109	0,033
-719,035	-200,000	0,021	-0,110
-718,021	59,126	-0,083	-0,059
-717,006	-17,584	-0,026	0,012
-715,991	800,000	-0,019	-0,042
-714,977	-128,319	-0,059	-0,006
-713,962	360,500	0,072	-0,105
-712,948	-127,813	-0,062	0,006
-711,933	703,385	-0,062	0,119
-710,918	534,077	-0,052	0,091
-709,904	-200,000	0,001	-0,026
-708,889	-81,012	-0,070	-0,017
-707,875	-200,000	-0,010	0,041
-706,860	-9,268	-0,108	-0,052
-705,845	800,000	-0,065	-0,134
-704,831	285,013	0,099	-0,130
-703,816	800,000	0,049	-0,155
-702,802	-200,000	-0,016	-0,061
-701,787	-30,309	0,074	0,030
-700,772	-102,338	-0,213	0,037
-699,758	-2,421	-0,052	-0,026
-698,743	-200,000	0,008	-0,108
-697,729	64,745	0,095	0,070
-696,714	35,428	0,068	-0,043
-695,699	-67,885	-0,062	-0,017
-694,685	800,000	-0,030	-0,075
-693,670	448,148	0,053	-0,085
-692,656	61,203	-0,118	-0,085
-691,641	206,762	0,069	0,078
-690,627	-200,000	-0,024	-0,079
-689,612	-55,678	-0,109	-0,035
-688,597	38,305	-0,139	0,090
-687,583	-200,000	-0,008	0,092
-686,568	-77,859	-0,086	-0,021
-685,554	-200,000	0,025	-0,169
-684,539	800,000	0,046	-0,094
-683,524	770,023	-0,024	-0,048
-682,510	19,044	0,138	0,080
-681,495	48,522	-0,118	-0,080
-680,481	16,799	-0,113	-0,065
-679,466	-200,000	0,010	-0,067
-678,451	289,638	-0,092	0,122
-677,437	-200,000	0,042	0,135
-676,422	576,786	-0,060	0,108
-675,408	-57,136	-0,096	-0,031
-674,393	800,000	0,023	0,069
-673,378	-14,774	-0,105	-0,048
-672,364	149,367	-0,129	0,127
-671,349	-200,000	-0,024	-0,108
-670,335	800,000	0,027	0,063
-669,320	319,561	-0,041	-0,057
-668,305	-77,387	0,072	0,018
-667,291	396,958	0,028	0,042
-666,276	442,229	-0,064	0,101
-665,262	69,657	-0,063	0,047
-664,247	-132,210	-0,028	0,003
-663,232	-87,119	-0,178	-0,039
-662,218	-14,141	-0,066	0,031
-661,203	-200,000	-0,003	0,044
-660,189	461,275	-0,046	-0,075
-659,174	167,264	-0,151	-0,155
-658,159	-61,126	-0,044	-0,013
-657,145	629,664	0,061	-0,111
-656,130	-27,330	-0,063	0,027
-655,116	145,565	-0,056	0,055
-654,101	-21,701	0,119	-0,052
-653,086	212,190	0,006	-0,007
-652,072	267,001	0,045	0,057
-651,057	472,315	-0,084	-0,138
-650,043	134,947	-0,021	0,020
-649,028	164,769	0,016	0,016
-648,014	32,132	0,049	0,030
-646,999	-200,000	0,015	0,064
-645,984	-35,993	0,084	0,033
-644,970	-200,000	-0,006	0,124
-643,955	595,321	-0,055	-0,099
-642,941	-76,826	-0,027	-0,007
-641,926	598,709	-0,004	-0,007
-640,911	-11,796	0,101	0,048
-639,897	800,000	-0,030	0,080
-638,882	-25,007	-0,079	0,034
-637,868	-200,000	-0,001	0,016
-636,853	-200,000	-0,008	-0,148
-635,838	203,030	-0,041	-0,046
-634,824	-57,513	0,058	0,018
-633,809	-85,358	-0,048	-0,011
-632,795	-65,111	0,110	-0,032
-631,780	-69,487	0,119	-0,033
-630,765	800,000	0,034	-0,091
-629,751	150,057	-0,060	-0,059
-628,736	220,831	-0,072	0,084
-627,722	109,588	0,038	-0,033
-626,707	-79,952	-0,179	-0,043
-625,692	88,796	0,016	-0,013
-624,678	-7,582	-0,066	0,032
-623,663	161,744	0,012	-0,012
-622,649	-200,000	0,015	-0,130
-621,634	-98,035	-0,041	0,008
-620,619	184,775	-0,079	-0,084
-619,605	77,180	0,113	-0,087
-618,590	-106,911	-0,117	-0,019
-617,576	94,991	-0,102	-0,084
-616,561	-143,166	-0,050	-0,003
-615,546	-83,653	-0,105	-0,024
-614,532	512,232	-0,051	-0,086
-613,517	-29,408	-0,042	0,017
-612,503	-200,000	0,004	0,038
-611,488	-200,000	-0,012	0,067
-610,474	461,976	0,061	0,099
-609,459	-64,831	0,061	0,018
-608,444	330,867	0,059	-0,082
-607,430	800,000	-0,033	-0,075
-606,415	320,950	-0,056	-0,077
-605,401	-63,276	0,110	-0,033
-604,386	4,292	0,016	-0,008
-603,371	-200,000	0,004	0,079
-602,357	800,000	-0,034	0,097
-601,342	88,149	-0,022	0,017
-600,328	-27,828	-0,126	-0,053
-599,313	453,676	0,077	0,124
-598,298	15,170	-0,112	-0,063
-597,284	191,453	0,084	-0,091
-596,269	-79,313	-0,061	0,015
-595,255	-20,041	0,121	-0,054
-594,240	-200,000	0,001	-0,072
-593,225	800,000	-0,054	-0,110
-592,211	800,000	-0,022	-0,045
-591,196	25,141	-0,125	-0,075
-590,182	800,000	0,049	-0,154
-589,167	-94,306	-0,047	-0,009
-588,152	135,166	0,121	0,113
-587,138	130,848	-0,089	-0,082
-586,123	375,160	-0,028	-0,041
-585,109	215,213	0,138	-0,158
-584,094	-36,876	-0,080	0,031
-583,079	-163,710	-0,163	-0,005
-582,065	-184,837	-0,057	-0,001
-581,050	278,605	0,037	-0,048
-580,036	800,000	0,023	0,050
-579,021	-200,000	0,002	0,057
-578,006	-43,344	-0,088	0,032
-576,992	6,444	-0,054	-0,029
-575,977	-20,592	-0,120	-0,053
-574,963	-200,000	-0,012	-0,072
-573,948	800,000	-0,051	-0,103
-572,934	588,997	-0,063	0,112
-571,919	-38,412	-0,088	-0,033
-570,904	-149,662	-0,078	-0,004
-569,890	-142,031	-0,116	-0,008
-568,875	8,631	0,086	0,047
-567,861	-19,298	0,023	-0,010
-566,846	800,000	-0,041	0,089
-565,831	141,741	0,080	0,076
-564,817	-200,000	0,008	0,073
-563,802	575,304	-0,017	-0,029
-562,788	91,031	-0,054	-0,044
-561,773	-200,000	-0,038	0,168
-560,758	-200,000	0,001	0,199
-559,744	356,411	-0,098	-0,141
-558,729	471,237	0,073	0,119
-557,715	298,723	0,037	-0,050
-556,700	15,890	-0,069	-0,039
-555,685	-39,708	-0,027	0,010
-554,671	-200,000	-0,001	0,018
-553,656	412,716	0,064	-0,098
-552,642	-20,154	0,095	-0,042
-551,627	-45,208	-0,076	0,027
-550,612	224,431	0,039	-0,045
-549,598	-9,081	-0,172	-0,083
-548,583	759,874	0,016	-0,032
-547,569	-200,000	-0,037	0,121
-546,554	75,785	-0,018	-0,014
-545,539	-106,283	0,099	-0,016
-544,525	84,353	-0,096	0,076
-543,510	353,640	0,041	0,058
-542,496	131,326	0,058	0,054
-541,481	-154,420	-0,057	-0,003
-540,466	614,831	0,071	-0,129
-539,452	301,557	-0,083	-0,112
-538,437	-137,664	-0,122	-0,010
-537,423	-134,949	0,090	-0,008
-536,408	-200,000	0,011	-0,067
-535,393	80,508	-0,077	0,060
-534,379	800,000	0,030	-0,063
-533,364	800,000	-0,054	0,130
-532,350	-200,000	0,006	-0,083
-531,335	-200,000	0,006	0,122
-530,321	-200,000	-0,005	0,127
-529,306	116,073	-0,110	-0,097
-528,291	254,113	-0,122	-0,151
-527,277	69,356	0,038	-0,028
-526,262	74,619	-0,094	-0,071
-525,248	-200,000	0,016	0,173
-524,233	-0,639	0,121	0,062
-523,218	800,000	-0,010	-0,024
-522,204	-200,000	0,003	0,012
-521,189	-87,596	-0,110	0,024
-520,175	50,025	-0,099	-0,067
-519,160	26,822	0,018	0,011
-518,145	-200,000	-0,005	-0,023
-517,131	-84,425	0,058	-0,013
-516,116	68,545	0,039	-0,029
-515,102	-130,486	-0,079	-0,008
-514,087	456,987	0,040	0,064
-513,072	-152,467	0,102	-0,005
-512,058	-58,469	0,087	0,027
-511,043	-200,000	0,016	0,053
-510,029	82,762	0,104	-0,082
-509,014	-180,008	-0,028	-0,000
-507,999	112,104	0,106	-0,092
-506,985	-151,611	0,116	0,006
-505,970	800,000	0,029	-0,088
-504,956	-66,209	-0,182	0,052
-503,941	171,524	0,096	0,099
-502,926	132,590	-0,156	-0,145
-501,912	-200,000	-0,000	-0,051
-500,897	44,444	-0,136	0,090
-499,883	357,407	-0,039	0,056
-498,868	-47,369	0,132	0,046
-497,853	-92,711	-0,067	-0,013
-496,839	16,457	-0,070	-0,040
-495,824	800,000	-0,018	0,050
-494,810	-26,118	0,066	0,028
-493,795	5,171	-0,121	-0,064
-492,781	-200,000	0,010	-0,064
-491,766	-25,742	-0,082	0,035
-490,751	-81,113	0,076	-0,018
-489,737	667,331	-0,064	-0,120
-488,722	-110,477	-0,173	0,025
-487,708	218,515	0,095	0,109
-486,693	53,318	0,069	-0,048
-485,678	-160,755	0,025	0,001
-484,664	-200,000	-0,019	-0,110
-483,649	152,634	0,030	-0,029
-482,635	-200,000	-0,006	-0,037
-481,620	-48,175	0,202	0,070
-480,605	-200,000	-0,001	-0,012
-479,591	-172,645	-0,032	0,001
-478,576	-28,021	-0,109	-0,045
-477,562	-63,370	-0,195	-0,057
-476,547	800,000	0,039	0,095
-475,532	-200,000	-0,010	0,056
-474,518	220,622	-0,021	-0,025
-473,503	-30,610	-0,057	-0,023
-472,489	24,313	0,110	-0,065
-471,474	308,815	-0,086	0,116
-470,459	-81,513	0,172	0,040
-469,445	25,018	0,049	-0,029
-468,430	344,741	0,064	-0,091
-467,416	138,992	-0,098	0,093
-466,401	-120,615	0,094	-0,011
-465,386	69,319	0,097	0,071
-464,372	800,000	-0,023	0,063
-463,357	-35,835	-0,094	0,037
-462,343	507,964	-0,054	0,090
-461,328	49,458	-0,133	-0,090
-460,313	-200,000	0,004	0,129
-459,299	-200,000	0,028	0,156
-458,284	-157,937	0,034	0,001
-457,270	474,351	-0,073	0,118
-456,255	-200,000	-0,025	-0,092
-455,241	-200,000	-0,030	-0,117
-454,226	290,733	-0,054	-0,071
-453,211	542,784	-0,027	-0,046
-452,197	800,000	-0,076	0,158
-451,182	-32,249	0,163	0,065
-450,168	800,000	-0,036	0,078
-449,153	-127,906	0,013	0,001
-448,138	-200,000	0,022	0,079
-447,124	-200,000	-0,008	-0,072
-446,109	-14,640	0,009	0,004
-445,095	800,000	-0,048	0,099
-444,080	164,234	-0,063	-0,064
-443,065	800,000	0,008	0,022
-442,051	-200,000	0,021	-0,089
-441,036	-70,845	-0,050	0,014
-440,022	345,645	-0,051	0,072
-439,007	-200,000	-0,015	-0,108
-437,992	231,198	-0,019	0,023
-436,978	243,716	-0,056	-0,068
-435,963	-200,000	-0,017	-0,057
-434,949	-200,000	-0,015	-0,050
-433,934	-32,546	-0,084	-0,033
-432,919	65,521	-0,036	0,026
-431,905	800,000	-0,030	0,063
-430,890	-200,000	-0,010	0,046
-429,876	8,146	0,215	0,115
-428,861	292,302	0,091	0,119
-427,846	-104,672	0,127	0,021
-426,832	-200,000	-0,053	-0,171
-425,817	-114,885	-0,061	-0,008
-424,803	437,785	-0,021	-0,033
-423,788	-52,578	-0,080	0,026
-422,773	800,000	0,087	0,222
-421,759	75,781	0,084	0,064
-420,744	-200,000	-0,003	0,011
-419,730	-4,302	-0,118	0,059
-418,715	-200,000	0,001	0,140
-417,701	-34,476	0,058	0,023
-416,686	-85,522	-0,061	0,014
-415,671	-200,000	-0,006	0,136
-414,657	-140,940	-0,044	0,003
-413,642	471,652	0,078	0,127
-412,628	19,281	-0,093	-0,053
-411,613	107,857	0,070	-0,060
-410,598	800,000	-0,045	-0,119
-409,584	-71,649	0,153	-0,041
-408,569	142,051	0,046	-0,044
-407,555	109,126	0,080	0,068
-406,540	154,826	-0,055	-0,054
-405,525	800,000	0,039	0,102
-404,511	-44,324	-0,118	-0,042
-403,496	800,000	-0,045	-0,099
-402,482	80,601	0,101	-0,078
-401,467	-200,000	-0,002	-0,008
-400,452	459,330	0,058	0,093
-399,438	48,879	0,028	-0,019
-398,423	165,174	-0,041	-0,041
-397,409	-46,252	-0,116	-0,041
-396,394	-9,188	-0,033	-0,016
-395,379	-53,673	0,061	-0,020
-394,365	-145,007	0,256	-0,016
-393,350	-200,000	0,003	-0,078
-392,336	499,476	-0,037	0,062
-391,321	-200,000	0,025	0,101
-390,306	-72,778	-0,119	-0,031
-389,292	29,750	-0,078	-0,048
-388,277	-113,991	-0,059	0,008
-387,263	59,832	-0,072	-0,051
-386,248	-200,000	-0,015	0,079
-385,233	449,882	0,034	0,054
-384,219	-200,000	0,016	0,058
-383,204	64,407	-0,100	-0,072
-382,190	-200,000	-0,027	-0,158
-381,175	80,837	-0,075	-0,058
-380,160	-83,252	-0,099	-0,023
-379,146	-88,773	0,150	-0,032
-378,131	800,000	-0,002	0,006
-377,117	-12,475	0,144	-0,067
-376,102	-200,000	-0,031	-0,116
-375,088	27,429	-0,138	-0,083
-374,073	-200,000	0,032	-0,132
-373,058	154,263	0,019	-0,019
-372,044	-96,679	-0,036	0,007
-371,029	622,161	0,083	0,151
-370,015	-40,368	-0,139	-0,052
-369,000	-14,600	0,172	0,079
-367,985	-200,000	-0,033	-0,139
-366,971	409,206	0,058	-0,089
-365,956	-12,735	0,090	-0,042
-364,942	800,000	0,004	0,014
-363,927	39,187	0,040	0,025
-362,912	435,489	-0,076	0,119
-361,898	-200,000	-0,021	0,135
-360,883	251,676	0,127	-0,155
-359,869	-71,800	0,034	0,009
-358,854	800,000	0,030	0,079
-357,839	800,000	-0,008	-0,023
-356,825	800,000	0,048	-0,102
-355,810	123,741	0,046	0,041
-354,796	48,765	-0,149	0,100
-353,781	228,859	0,053	-0,061
-352,766	-200,000	0,002	-0,104
-351,752	800,000	-0,012	0,035
-350,737	323,524	0,076	0,103
-349,723	336,758	0,084	0,118
-348,708	591,905	0,050	0,089
-347,693	-200,000	0,011	-0,073
-346,679	-89,514	-0,075	-0,016
-345,664	-185,525	0,075	-0,001
-344,650	141,306	0,123	0,116
-343,635	-200,000	-0,018	0,083
-342,620	-29,716	-0,046	0,019
-341,606	192,627	0,043	-0,046
-340,591	5,488	0,118	0,062
-339,577	-200,000	0,004	0,086
-338,562	800,000	-0,029	0,082
-337,548	654,842	-0,035	0,065
-336,533	154,178	0,108	0,106
-335,518	-200,000	-0,005	0,033
-334,504	126,607	-0,081	0,073
-333,489	598,665	0,037	0,066
-332,475	-67,229	-0,074	-0,021
-331,460	99,477	-0,058	-0,048
-330,445	800,000	0,014	0,028
-329,431	-200,000	0,004	0,033
-328,416	-200,000	-0,002	-0,078
-327,402	43,156	-0,044	0,029
-326,387	-126,646	0,070	0,007
-325,372	313,083	-0,039	0,053
-324,358	-200,000	-0,005	0,016
-323,343	-200,000	0,008	0,044
-322,329	82,647	-0,030	0,023
-321,314	307,382	-0,031	0,041
-320,299	-200,000	0,003	-0,078
-319,285	129,938	-0,036	0,033
-318,270	84,287	-0,087	0,068
-317,256	74,821	0,067	-0,051
-316,241	264,751	-0,105	-0,131
-315,226	138,995	-0,081	-0,076
-314,212	-200,000	0,055	0,179
-313,197	591,331	-0,062	-0,110
-312,183	-200,000	-0,008	-0,048
-311,168	-200,000	-0,037	-0,127
-310,153	-200,000	0,019	0,081
-309,139	98,297	0,081	0,067
-308,124	9,206	0,043	0,023
-307,110	173,569	0,150	-0,154
-306,095	11,330	-0,105	0,057
-305,080	116,360	-0,100	0,088
-304,066	800,000	-0,033	0,079
-303,051	-200,000	0,012	-0,042
-302,037	800,000	0,030	-0,083
-301,022	-200,000	0,023	0,078
-300,008	-15,977	0,124	-0,056
-298,993	50,350	0,199	0,134
-297,978	-200,000	0,046	-0,267
-296,964	-51,464	-0,029	0,010
-295,949	-200,000	0,013	-0,089
-294,935	800,000	0,023	-0,047
-293,920	458,294	-0,015	0,024
-292,905	13,526	-0,156	0,086
-291,891	800,000	0,026	-0,070
-290,876	-200,000	-0,020	0,135
-289,862	85,713	0,016	0,013
-288,847	646,577	0,081	-0,149
-287,832	-9,417	-0,115	-0,055
-286,818	34,280	0,069	-0,043
-285,803	800,000	-0,041	-0,085
-284,789	225,727	0,151	0,175
-283,774	174,014	-0,019	-0,020
-282,759	101,121	-0,016	-0,014
-281,745	107,337	-0,067	-0,057
-280,730	318,120	-0,116	-0,157
-279,716	391,436	-0,053	0,078
-278,701	57,869	0,129	-0,090
-277,686	212,700	0,096	0,109
-276,672	-200,000	0,017	0,169
-275,657	-3,537	-0,066	-0,033
-274,643	-144,170	0,109	-0,007
-273,628	800,000	0,048	-0,100
-272,613	-6,727	-0,103	0,050
-271,599	-94,266	0,056	-0,011
-270,584	-200,000	-0,006	0,120
-269,570	-200,000	-0,006	-0,109
-268,555	-6,981	0,029	-0,014
-267,540	225,698	-0,051	0,059
-266,526	-95,162	-0,075	-0,014
-265,511	130,648	0,020	0,018
-264,497	703,819	0,075	-0,141
-263,482	426,359	0,070	0,108
-262,467	-134,985	-0,084	-0,007
-261,453	629,523	0,077	-0,139
-260,438	56,072	0,066	-0,046
-259,424	-177,074	-0,075	0,001
-258,409	351,687	0,059	-0,084
-257,395	-200,000	0,013	-0,094
-256,380	52,629	0,059	-0,040
-255,365	-200,000	0,044	-0,147
-254,351	-80,202	0,034	0,008
-253,336	59,465	-0,036	-0,025
-252,322	-200,000	-0,016	-0,093
-251,307	-200,000	0,005	0,095
-250,292	-200,000	-0,023	0,080
-249,278	-72,957	0,219	-0,057
-248,263	-73,936	0,178	0,046
-247,249	-42,441	-0,059	-0,021
-246,234	-50,420	0,085	-0,028
-245,219	800,000	-0,013	0,037
-244,205	-184,220	0,015	0,000
-243,190	-97,331	0,069	-0,013
-242,176	508,814	-0,039	0,064
-241,161	-105,982	0,123	0,020
-240,146	-37,802	-0,060	-0,023
-239,132	70,904	0,083	-0,062
-238,117	399,647	-0,073	0,110
-237,103	-200,000	-0,015	-0,151
-236,088	-200,000	0,012	0,042
-235,073	226,651	0,042	-0,048
-234,059	-58,192	-0,012	-0,004
-233,044	-200,000	0,020	0,069
-232,030	226,740	0,030	-0,035
-231,015	97,997	-0,055	-0,045
-230,000	800,000	0,047	-0,107
-228,986	77,866	-0,076	0,058
-227,971	-200,000	0,040	0,155
-226,957	800,000	-0,047	0,105
-225,942	-200,000	-0,007	0,031
-224,927	-200,000	0,000	0,181
-223,913	-152,768	0,106	0,005
-222,898	-200,000	0,020	-0,206
-221,884	-200,000	0,008	-0,044
-220,869	-98,605	0,025	-0,005
-219,855	34,456	-0,099	0,061
-218,840	621,845	0,058	0,105
-217,825	64,814	-0,064	0,046
-216,811	205,513	0,024	0,027
-215,796	774,968	-0,084	0,163
-214,782	96,307	-0,050	-0,041
-213,767	800,000	-0,015	-0,041
-212,752	-200,000	0,004	0,048
-211,738	-91,847	0,145	-0,029
-210,723	-200,000	0,007	-0,080
-209,709	-200,000	0,006	0,098
-208,694	95,986	0,071	-0,058
-207,679	800,000	-0,034	-0,086
-206,665	-155,838	-0,017	-0,001
-205,650	373,409	0,052	0,076
-204,636	-48,775	-0,060	-0,020
-203,621	310,647	0,041	0,055
-202,606	385,960	0,005	-0,007
-201,592	-52,846	0,009	-0,003
-200,577	113,901	0,019	0,016
-199,563	-3,436	-0,097	-0,048
-198,548	-200,000	0,009	0,032
-197,533	-200,000	-0,004	-0,045
-196,519	-200,000	-0,001	0,041
-195,504	-200,000	0,015	0,098
-194,490	-171,094	-0,060	0,001
-193,475	320,724	-0,063	-0,085
-192,460	7,618	0,074	0,039
-191,446	800,000	-0,035	0,106
-190,431	-72,997	0,180	0,047
-189,417	-200,000	-0,012	-0,040
-188,402	-102,989	0,114	0,019
-187,387	138,169	-0,079	-0,073
-186,373	203,148	-0,033	0,036
-185,358	11,944	0,040	0,022
-184,344	800,000	0,039	0,078
-183,329	744,593	-0,042	-0,080
-182,315	-200,000	0,045	0,156
-181,300	-200,000	-0,012	-0,042
-180,285	169,211	-0,073	-0,074
-179,271	-110,202	-0,034	0,005
-178,256	85,272	-0,075	-0,059
-177,242	-17,588	0,088	0,039
-176,227	800,000	0,050	0,126
-175,212	-200,000	-0,011	0,111
-174,198	-200,000	0,002	-0,055
-173,183	56,337	-0,106	0,073
-172,169	259,125	0,046	-0,056
-171,154	118,231	-0,075	-0,066
-170,139	138,515	0,024	0,022
-169,125	800,000	0,046	0,102
-168,110	-44,996	0,084	0,030
-167,096	-139,669	-0,017	0,001
-166,081	-153,731	0,130	-0,006
-165,066	-1,086	0,142	0,071
-164,052	583,104	-0,055	-0,096
-163,037	31,735	0,078	-0,048
-162,023	38,874	0,120	0,076
-161,008	800,000	0,054	0,124
-159,993	289,545	-0,031	-0,040
-158,979	-200,000	0,017	-0,058
-157,964	800,000	-0,013	0,032
-156,950	308,200	0,029	-0,039
-155,935	-19,387	-0,116	-0,051
-154,920	-137,650	0,060	0,005
-153,906	18,419	0,060	-0,034
-152,891	-67,080	0,058	-0,016
-151,877	800,000	-0,031	0,087
-150,862	-200,000	-0,015	-0,070
-149,847	-26,808	-0,049	-0,020
-148,833	335,046	-0,037	0,050
-147,818	259,307	-0,043	0,052
-146,804	800,000	0,032	0,083
-145,789	-200,000	0,018	0,068
-144,775	239,743	-0,153	-0,182
-143,760	800,000	-0,071	-0,170
-142,745	133,619	0,107	-0,099
-141,731	-200,000	0,032	-0,151
-140,716	-47,891	-0,106	-0,036
-139,702	127,989	0,036	-0,032
-138,687	-200,000	-0,014	-0,073
-137,672	800,000	-0,012	0,026
-136,658	800,000	-0,093	0,261
-135,643	-93,621	0,043	0,008
-134,629	-200,000	0,032	-0,114
-133,614	800,000	0,046	-0,111
-132,599	800,000	-0,044	-0,096
-131,585	-58,826	0,171	0,052
-130,570	-93,184	-0,093	0,018
-129,556	142,495	0,096	0,090
-128,541	-14,371	-0,034	0,015
-127,526	800,000	-0,025	0,058
-126,512	-140,957	-0,109	-0,008
-125,497	-200,000	-0,001	0,135
-124,483	-115,524	-0,096	-0,013
-123,468	-32,747	-0,084	0,033
-122,453	75,255	0,100	0,075
-121,439	79,574	0,080	0,061
-120,424	-200,000	-0,018	0,088
-119,410	-18,984	0,101	0,044
-118,395	-70,242	-0,141	0,038
-117,380	232,751	0,061	0,071
-116,366	-60,665	-0,056	-0,017
-115,351	-27,024	0,050	-0,021
-114,337	381,197	0,046	-0,067
-113,322	-126,338	-0,043	-0,005
-112,307	800,000	0,050	0,101
-111,293	-200,000	-0,042	0,151
-110,278	-200,000	0,023	-0,158
-109,264	159,222	-0,034	0,034
-108,249	-60,209	0,036	-0,011
-107,234	-200,000	-0,008	0,036
-106,220	44,452	-0,101	0,066
-105,205	800,000	0,005	-0,010
-104,191	-19,347	0,122	-0,053
-103,176	-57,914	0,049	-0,015
-102,162	783,439	0,054	0,105
-101,147	650,087	0,034	-0,062
-100,132	109,995	-0,101	-0,086
-99,118	800,000	0,093	-0,207
-98,103	-200,000	-0,006	0,101
-97,089	524,782	0,133	0,223
-96,074	-200,000	-0,021	0,117
-95,059	800,000	0,053	0,148
-94,045	-36,423	0,180	0,068
-93,030	-32,847	0,035	0,014
-92,016	536,800	0,060	-0,101
-91,001	321,677	-0,115	-0,155
-89,986	-105,144	0,065	0,010
-88,972	-80,900	-0,081	-0,019
-87,957	-131,248	0,032	0,003
-86,943	-200,000	-0,014	-0,090
-85,928	25,774	0,073	-0,043
-84,913	-7,520	-0,143	0,068
-83,899	13,258	0,100	-0,055
-82,884	222,512	0,026	0,030
-81,870	292,245	-0,032	0,042
-80,855	-200,000	0,007	-0,056
-79,840	800,000	0,044	-0,111
-78,826	-108,137	-0,035	-0,005
-77,811	800,000	-0,033	-0,094
-76,797	75,878	0,102	0,076
-75,782	253,035	0,056	0,067
-74,767	800,000	-0,074	0,194
-73,753	800,000	-0,040	-0,084
-72,738	-87,285	-0,124	0,026
-71,724	113,980	-0,066	-0,057
-70,709	-200,000	-0,017	-0,092
-69,694	-46,299	-0,125	0,043
-68,680	800,000	0,039	0,094
-67,665	800,000	0,030	0,074
-66,651	800,000	0,048	0,096
-65,636	109,146	-0,099	-0,084
-64,622	-69,663	-0,281	0,075
-63,607	38,505	-0,059	0,037
-62,592	800,000	0,015	0,041
-61,578	286,991	0,065	0,083
-60,563	-200,000	0,009	0,085
-59,549	16,307	-0,079	-0,044
-58,534	-26,131	-1,661	-0,688
-57,519	362,545	-1,344	-1,915
-56,505	-200,000	-0,531	-4,453
-55,490	289,789	1,070	1,378
-54,476	800,000	4,811	10,928
-53,461	-200,000	19,002	315,031
-52,446	-200,000	739,095	2328,480
-51,432	576,532	1654,413	2872,028
-50,417	78,863	1670,731	1263,888
-49,403	21,666	1543,389	886,697
-48,388	15,483	1465,801	812,091
-47,373	17,813	1455,922	817,836
-46,359	16,694	1446,089	806,915
-45,344	13,747	1441,302	790,108
-44,330	13,646	1439,486	788,601
-43,315	13,691	1437,744	787,830
-42,300	13,675	1436,075	786,806
-41,286	13,691	1434,921	786,222
-40,271	13,674	1433,471	785,315
-39,257	13,666	1432,396	784,655
-38,242	13,692	1430,909	783,935
-37,227	13,706	1429,826	783,376
-36,213	13,733	1428,593	782,799
-35,198	13,731	1427,380	782,092
-34,184	13,755	1426,394	781,634
-33,169	13,688	1425,146	780,604
-32,154	13,744	1424,028	780,222
-31,140	13,757	1422,553	779,448
-30,125	13,731	1421,639	778,790
-29,111	13,751	1420,385	778,171
-28,096	13,745	1419,406	777,573
-27,082	13,640	1418,373	776,481
-26,067	13,657	1417,143	775,857
-25,052	13,632	1416,175	775,179
-24,038	13,616	1415,213	774,546
-23,023	13,618	1414,170	773,954
-22,009	13,647	1413,143	773,496
-20,994	13,568	1412,291	772,632
-19,979	13,602	1411,407	772,276
-18,965	13,575	1410,371	771,552
-17,950	13,542	1409,584	770,937
-16,936	13,545	1408,580	770,368
-15,921	13,562	1407,315	769,727
-14,906	13,605	1406,362	769,378
-13,892	13,530	1405,670	768,617
-12,877	13,557	1404,704	768,183
-11,863	13,561	1403,950	767,760
-10,848	13,539	1403,048	767,135
-9,833	13,525	1402,101	766,521
-8,819	13,485	1401,307	765,870
-7,804	13,475	1400,321	765,255
-6,790	13,467	1399,400	764,683
-5,775	13,430	1398,278	763,867
-4,760	13,463	1397,390	763,505
-3,746	13,436	1396,307	762,756
-2,731	13,438	1395,644	762,376
-1,717	13,395	1394,792	761,682
-0,702	13,378	1393,099	760,648
0,313	17,199	1310,407	733,196
1,327	33,383	704,338	431,497
2,342	51,391	123,575	82,858
3,356	2,843	16,596	8,489
4,371	9,051	3,277	1,744
5,386	-30,765	0,685	0,273
6,400	-200,000	0,055	0,186
7,415	-52,529	-0,330	-0,107
8,429	-51,696	-0,380	-0,125
9,444	25,279	-0,372	-0,218
10,459	-36,921	-0,273	-0,103
11,473	146,219	-0,261	-0,248
12,488	45,295	-0,191	-0,124
13,502	38,205	-0,294	-0,184
14,517	-19,936	-0,321	-0,140
15,531	-14,099	-0,455	-0,206
16,546	-7,092	-0,339	-0,162
17,561	32,786	-0,359	-0,219
18,575	21,882	-0,225	-0,129
19,590	157,502	-0,296	-0,290
20,604	-44,962	-0,341	-0,119
21,619	19,091	-0,402	-0,227
22,634	98,473	-0,531	-0,432
23,648	137,497	-0,334	-0,308
24,663	234,175	-0,372	-0,434
25,677	44,312	-0,376	-0,243
26,692	588,672	-0,180	-0,315
27,707	-26,012	-0,346	-0,143
28,721	250,536	-0,374	-0,450
29,736	13,942	-0,498	-0,272
30,750	110,720	-0,412	-0,349
31,765	113,055	-0,342	-0,292
32,780	18,209	-0,384	-0,216
33,794	20,294	-0,424	-0,241
34,809	47,943	-0,399	-0,263
35,823	34,569	-0,479	-0,295
36,838	76,834	-0,379	-0,283
37,853	-49,140	-0,361	-0,121
38,867	-25,077	-0,468	-0,195
39,882	35,064	-0,432	-0,266
40,896	113,492	-0,326	-0,279
41,911	46,493	-0,476	-0,311
42,926	7,624	-0,366	-0,192
43,940	94,579	-0,385	-0,308
44,955	25,778	-0,416	-0,243
45,969	88,391	-0,320	-0,250
46,984	21,425	-0,432	-0,247
47,999	146,573	-0,260	-0,246
49,013	151,883	-0,275	-0,264
50,028	59,651	-0,376	-0,261
51,042	53,446	-0,395	-0,267
52,057	29,090	-0,408	-0,243
53,071	49,293	-0,436	-0,288
54,086	227,297	-0,282	-0,323
55,101	85,627	-0,410	-0,317
56,115	79,327	-0,330	-0,248
57,130	32,620	-0,245	-0,149
58,144	67,669	-0,395	-0,283
59,159	67,202	-0,470	-0,337
60,174	126,565	-0,367	-0,327
61,188	60,968	-0,235	-0,164
62,203	-59,464	-0,261	-0,078
63,217	107,524	-0,353	-0,296
64,232	25,476	-0,277	-0,161
65,247	110,070	-0,374	-0,315
66,261	88,552	-0,388	-0,303
67,276	79,414	-0,226	-0,171
68,290	-1,976	-0,337	-0,166
69,305	84,062	-0,330	-0,253
70,320	58,635	-0,275	-0,190
71,334	213,405	-0,262	-0,291
72,349	31,305	-0,286	-0,172
73,363	-33,198	-0,404	-0,156
74,378	139,996	-0,333	-0,308
75,393	37,094	-0,345	-0,214
76,407	68,714	-0,327	-0,235
77,422	-12,405	-0,162	-0,074
78,436	-74,988	-0,336	-0,084
79,451	67,576	-0,341	-0,244
80,466	-7,416	-0,307	-0,145
81,480	61,155	-0,252	-0,176
82,495	31,758	-0,279	-0,168
83,509	-5,080	-0,290	-0,140
84,524	123,688	-0,212	-0,187
85,539	9,276	-0,336	-0,178
86,553	64,236	-0,334	-0,235
87,568	277,367	-0,218	-0,273
88,582	79,010	-0,320	-0,240
89,597	6,646	-0,209	-0,109
90,611	62,666	-0,329	-0,231
91,626	1,970	-0,317	-0,160
92,641	32,983	-0,307	-0,186
93,655	88,674	-0,216	-0,168
94,670	36,405	-0,323	-0,200
95,684	34,853	-0,369	-0,226
96,699	152,836	-0,273	-0,262
97,714	-57,653	-0,231	-0,071
98,728	5,249	-0,204	-0,105
99,743	-11,586	-0,206	-0,094
100,757	-15,199	-0,406	-0,181
101,772	76,299	-0,277	-0,205
102,787	-16,593	-0,277	-0,122
103,801	800,000	-0,149	-0,334
104,816	88,845	-0,328	-0,256
105,830	61,562	-0,341	-0,238
106,845	19,532	-0,243	-0,137
107,860	82,196	-0,306	-0,232
108,874	237,163	-0,213	-0,248
109,889	206,225	-0,203	-0,222
110,903	57,585	-0,254	-0,174
111,918	147,181	-0,186	-0,175
112,933	-43,961	-0,298	-0,104
113,947	-166,502	-0,248	-0,007
114,962	-11,492	-0,198	-0,091
115,976	150,197	-0,327	-0,311
116,991	66,510	-0,273	-0,194
118,006	800,000	-0,131	-0,339
119,020	-62,650	-0,316	-0,091
120,035	712,698	-0,075	-0,140
121,049	-39,208	-0,254	-0,093
122,064	57,816	-0,288	-0,197
123,079	11,222	-0,180	-0,096
124,093	178,847	-0,188	-0,193
125,108	288,818	-0,161	-0,204
126,122	-30,174	-0,253	-0,100
127,137	165,820	-0,230	-0,228
128,151	145,674	-0,230	-0,215
129,166	363,171	-0,124	-0,175
130,181	28,082	-0,269	-0,158
131,195	-78,002	-0,338	-0,081
132,210	132,289	-0,278	-0,251
133,224	236,519	-0,139	-0,161
134,239	215,953	-0,246	-0,273
135,254	163,934	-0,214	-0,211
136,268	-89,834	-0,213	-0,043
137,283	-51,084	-0,251	-0,082
138,297	12,401	-0,286	-0,154
139,312	93,229	-0,258	-0,204
140,327	72,771	-0,256	-0,186
141,341	9,944	-0,299	-0,158
142,356	23,625	-0,233	-0,133
143,370	161,233	-0,069	-0,067
144,385	71,831	-0,220	-0,160
145,400	211,480	-0,137	-0,151
146,414	248,623	-0,172	-0,204
147,429	30,864	-0,300	-0,179
148,443	141,030	-0,205	-0,189
149,458	715,516	-0,138	-0,257
150,473	184,306	-0,215	-0,223
151,487	194,304	-0,279	-0,295
152,502	648,516	-0,172	-0,308
153,516	1,110	-0,289	-0,144
154,531	-17,486	-0,329	-0,144
155,546	80,392	-0,180	-0,135
156,560	456,078	-0,123	-0,191
157,575	23,103	-0,249	-0,142
158,589	8,347	-0,334	-0,175
159,604	217,986	-0,191	-0,213
160,619	53,884	-0,309	-0,207
161,633	181,195	-0,252	-0,258
162,648	290,047	-0,214	-0,271
163,662	464,868	-0,129	-0,202
164,677	191,978	-0,164	-0,173
165,692	22,281	-0,277	-0,157
166,706	99,231	-0,166	-0,134
167,721	262,280	-0,165	-0,200
168,735	800,000	-0,136	-0,309
169,750	47,281	-0,272	-0,176
170,764	473,645	-0,160	-0,252
171,779	-76,841	-0,279	-0,067
172,794	-134,026	-0,335	0,029
173,808	222,989	-0,144	-0,161
174,823	341,689	-0,198	-0,271
175,837	151,360	-0,222	-0,210
176,852	133,940	-0,240	-0,217
177,867	-53,858	-0,279	-0,088
178,881	95,103	-0,265	-0,210
179,896	-200,000	-0,009	-0,073
180,910	-58,055	-0,211	-0,064
181,925	169,219	-0,141	-0,140
182,940	235,232	-0,140	-0,161
183,954	-33,383	-0,087	-0,034
184,969	243,724	-0,208	-0,243
185,983	-117,612	-0,223	-0,028
186,998	121,309	-0,090	-0,078
188,013	-34,788	-0,239	-0,091
189,027	61,065	-0,251	-0,173
190,042	74,279	-0,248	-0,181
191,056	152,507	-0,155	-0,147
192,071	-97,530	-0,170	-0,030
193,086	54,595	-0,108	-0,072
194,100	-96,035	-0,177	-0,032
195,115	77,539	-0,215	-0,159
196,129	151,294	-0,241	-0,228
197,144	253,286	-0,174	-0,207
198,159	244,850	-0,155	-0,181
199,173	342,058	-0,207	-0,283
200,188	-139,593	-0,077	-0,006
201,202	-38,154	-0,209	-0,077
202,217	-11,893	-0,118	0,053
203,232	-25,063	-0,135	-0,055
204,246	-36,390	-0,303	-0,113
205,261	749,292	-0,100	-0,188
206,275	440,745	-0,163	-0,248
207,290	21,461	-0,173	-0,098
208,304	800,000	-0,140	-0,276
209,319	-152,317	-0,134	-0,007
210,334	311,241	-0,129	-0,168
211,348	49,522	-0,273	-0,178
212,363	272,157	-0,149	-0,183
213,377	179,898	-0,194	-0,197
214,392	238,029	-0,188	-0,217
215,407	296,658	-0,128	-0,163
216,421	71,398	-0,167	-0,120
217,436	448,149	-0,206	-0,316
218,450	47,726	-0,298	-0,193
219,465	196,870	-0,260	-0,276
220,480	800,000	-0,067	-0,187
221,494	19,490	-0,285	-0,159
222,509	122,085	-0,154	-0,133
223,523	117,583	-0,265	-0,226
224,538	17,255	-0,180	-0,099
225,553	221,792	-0,182	-0,204
226,567	-43,656	-0,207	-0,072
227,582	37,407	-0,111	-0,068
228,596	-21,453	-0,141	-0,060
229,611	-28,100	-0,146	-0,058
230,626	-179,826	-0,220	0,003
231,640	42,084	-0,303	-0,190
232,655	-171,844	-0,164	0,004
233,669	107,885	-0,185	-0,153
234,684	270,608	-0,169	-0,206
235,699	-169,328	-0,181	-0,005
236,713	-178,958	-0,210	0,003
237,728	-10,885	-0,195	-0,089
238,742	-65,995	-0,100	0,027
239,757	7,576	-0,204	-0,106
240,772	30,514	-0,279	-0,165
241,786	58,139	-0,185	-0,125
242,801	-200,000	-0,048	-0,155
243,815	-78,416	-0,120	-0,028
244,830	-24,438	-0,154	0,063
245,844	171,843	-0,187	-0,186
246,859	223,940	-0,143	-0,161
247,874	165,135	-0,258	-0,253
248,888	126,522	-0,224	-0,197
249,903	690,733	-0,115	-0,210
250,917	267,308	-0,157	-0,191
251,932	800,000	-0,055	-0,148
252,947	-44,984	-0,183	-0,063
253,961	190,741	-0,137	-0,143
254,976	0,770	-0,235	-0,116
255,990	-9,277	-0,127	-0,058
257,005	-123,405	-0,195	-0,021
258,020	154,987	-0,234	-0,222
259,034	-200,000	-0,067	-0,241
260,049	-200,000	-0,040	-0,178
261,063	-89,768	-0,248	-0,050
262,078	8,688	-0,301	-0,156
263,093	85,323	-0,171	-0,130
264,107	-69,740	-0,239	-0,063
265,122	287,596	-0,097	-0,122
266,136	800,000	-0,038	-0,076
267,151	29,157	-0,147	-0,086
268,166	149,468	-0,264	-0,247
269,180	74,471	-0,230	-0,167
270,195	63,492	-0,172	-0,119
271,209	17,856	-0,077	-0,042
272,224	174,284	-0,115	-0,115
273,239	136,255	-0,181	-0,163
274,253	87,380	-0,087	-0,066
275,268	-200,000	-0,221	-0,000
276,282	23,234	-0,143	-0,081
277,297	149,019	-0,143	-0,133
278,312	800,000	-0,077	-0,150
279,326	699,778	-0,060	-0,110
280,341	-39,930	-0,148	-0,053
281,355	124,938	-0,160	-0,139
282,370	-125,041	-0,100	-0,010
283,384	196,606	-0,151	-0,159
284,399	235,215	-0,178	-0,203
285,414	-137,025	-0,211	-0,016
286,428	-80,832	-0,235	-0,053
287,443	29,300	-0,032	0,019
288,457	226,463	-0,135	-0,152
289,472	800,000	-0,115	-0,253
290,487	440,726	-0,193	-0,292
291,501	455,037	-0,043	-0,065
292,516	109,074	-0,183	-0,151
293,530	-14,416	-0,085	-0,038
294,545	-80,019	-0,305	-0,070
295,560	-200,000	-0,049	-0,213
296,574	17,265	-0,193	-0,105
297,589	800,000	-0,133	-0,321
298,603	17,879	-0,202	-0,111
299,618	-10,172	-0,260	-0,118
300,633	0,997	-0,131	-0,064
301,647	-106,636	-0,195	-0,030
302,662	21,690	-0,122	0,068
303,676	-11,222	-0,093	0,042
304,691	77,968	-0,054	-0,040
305,706	294,943	-0,143	-0,181
306,720	-4,004	-0,133	-0,063
307,735	240,846	-0,155	-0,179
308,749	-15,421	-0,052	-0,023
309,764	16,275	-0,050	-0,027
310,779	43,428	-0,087	-0,055
311,793	-46,648	-0,065	0,022
312,808	465,332	-0,077	-0,119
313,822	216,164	-0,139	-0,152
314,837	-22,982	-0,299	-0,124
315,852	338,907	-0,060	-0,081
316,866	64,838	-0,085	-0,059
317,881	285,427	-0,083	0,104
318,895	800,000	-0,136	-0,267
319,910	800,000	-0,086	-0,164
320,925	-51,630	-0,137	-0,044
321,939	508,464	-0,122	-0,195
322,954	172,763	-0,084	-0,083
323,968	-111,750	0,034	0,005
324,983	172,693	-0,066	-0,066
325,997	800,000	-0,062	-0,138
327,012	800,000	-0,047	-0,116
328,027	-52,567	-0,186	-0,059
329,041	800,000	-0,045	-0,093
330,056	-80,699	-0,180	-0,041
331,070	61,177	-0,131	-0,089
332,085	33,504	-0,213	-0,127
333,100	-200,000	0,008	-0,151
334,114	-108,016	-0,179	0,026
335,129	-16,131	-0,257	-0,112
336,143	800,000	-0,043	-0,087
337,158	71,338	-0,088	-0,063
338,173	74,703	-0,189	0,136
339,187	800,000	0,013	-0,038
340,202	-200,000	0,004	0,030
341,216	268,115	-0,122	-0,146
342,231	554,326	-0,075	-0,124
343,246	329,709	-0,134	-0,177
344,260	2,566	-0,149	-0,074
345,275	-69,501	-0,109	-0,028
346,289	58,117	-0,181	-0,121
347,304	800,000	-0,025	-0,064
348,319	202,840	-0,164	-0,174
349,333	118,089	-0,227	-0,192
350,348	101,437	-0,138	-0,111
351,362	-200,000	-0,007	-0,095
352,377	274,662	-0,043	0,053
353,392	-25,139	-0,109	-0,044
354,406	-104,466	-0,178	-0,028
355,421	208,764	1316,917	1414,545
356,435	160,644	1477,917	1415,035
