DTS Sentinel unit serial number:	SN410029Multiplexer serial number:	ORYXHardware model number:	OX2-SRSoftware version number:	ORYX F/W v4,00 Oryx Data Collector v3.7.2.0data status	okinstallation	B3 Nyhavnadifferential loss correction	single-endedforward channel	channel 1reverse channel	N/Adate	2023/12/01time	15:12:30forward acquisition time	300,00reverse acquisition time	0,00gamma	499,1914k internal	0,3210k external	0,3210temperature offset calibration	1,0000default loss term (dB/km)	0,3820temperature slope calibration	1,0000multiplexer offset coefficient	1,0000multiplexer slope coefficient	1,0000fibre end	0,00T internal ref (°C)	11,69T ext. ref 1 (°C)	-1,74T ext. ref 2 (°C)	-1,80length (m)	temperature (°C)	Stokes	anti-Stokes-744,400	102,901	-0,225	-0,191
-743,385	-200,000	-0,049	0,262
-742,371	800,000	-0,081	-0,249
-741,356	800,000	0,131	0,321
-740,342	121,915	-0,191	-0,173
-739,327	-200,000	-0,119	0,397
-738,312	562,454	-0,214	-0,377
-737,298	-200,000	0,044	0,389
-736,283	56,669	-0,185	-0,130
-735,269	-200,000	-0,043	0,268
-734,254	25,236	-0,367	-0,220
-733,239	-69,231	-0,129	0,036
-732,225	-200,000	-0,011	-0,224
-731,210	154,004	0,168	0,167
-730,196	800,000	-0,049	-0,142
-729,181	-20,201	-0,065	-0,029
-728,167	-50,371	-0,045	-0,015
-727,152	59,146	-0,052	-0,037
-726,137	-70,546	-0,063	0,017
-725,123	207,379	-0,079	-0,090
-724,108	-82,786	-0,040	0,009
-723,094	-200,000	-0,010	-0,075
-722,079	-200,000	0,019	-0,131
-721,064	62,470	-0,096	0,070
-720,050	-75,822	0,142	0,036
-719,035	-15,879	0,018	0,008
-718,021	-18,976	-0,157	-0,071
-717,006	-200,000	0,003	-0,096
-715,991	144,092	-0,122	-0,118
-714,977	580,465	-0,057	0,102
-713,962	211,124	-0,023	0,026
-712,948	268,264	-0,037	-0,048
-711,933	-62,916	-0,111	0,033
-710,918	800,000	-0,013	-0,038
-709,904	-200,000	-0,028	0,106
-708,889	-119,764	-0,115	0,014
-707,875	48,591	-0,138	-0,094
-706,860	46,212	0,031	-0,021
-705,845	-200,000	0,014	0,098
-704,831	-85,871	-0,120	0,027
-703,816	800,000	-0,023	-0,071
-702,802	493,311	0,021	-0,035
-701,787	263,443	-0,116	-0,146
-700,772	27,928	-0,162	0,098
-699,758	604,842	-0,009	-0,017
-698,743	435,283	0,044	-0,069
-697,729	-143,672	-0,081	0,005
-696,714	36,060	0,137	0,087
-695,699	28,552	-0,076	-0,047
-694,685	522,220	-0,102	-0,173
-693,670	-200,000	-0,011	-0,277
-692,656	800,000	-0,017	-0,044
-691,641	-112,906	-0,100	-0,014
-690,627	-136,465	0,027	-0,002
-689,612	-132,307	-0,029	0,003
-688,597	-200,000	0,029	-0,126
-687,583	-200,000	-0,013	-0,062
-686,568	83,133	-0,047	0,037
-685,554	-36,179	-0,109	-0,042
-684,539	167,340	0,011	-0,011
-683,524	-130,071	0,078	0,008
-682,510	-75,056	0,166	-0,043
-681,495	-7,140	-0,095	-0,047
-680,481	800,000	0,036	-0,096
-679,466	-48,293	-0,018	-0,006
-678,451	631,225	-0,045	0,082
-677,437	-23,875	0,181	0,078
-676,422	-53,094	0,080	0,026
-675,408	-113,919	-0,059	-0,008
-674,393	-200,000	0,016	-0,109
-673,378	603,117	-0,042	-0,076
-672,364	-110,026	-0,067	-0,010
-671,349	-67,936	-0,133	-0,037
-670,335	-110,527	-0,068	0,010
-669,320	-200,000	0,013	0,084
-668,305	800,000	-0,010	-0,028
-667,291	658,827	-0,063	0,118
-666,276	-49,639	0,082	-0,028
-665,262	512,136	-0,058	-0,098
-664,247	800,000	0,013	0,027
-663,232	261,792	0,062	0,077
-662,218	22,643	-0,047	-0,028
-661,203	800,000	-0,014	-0,032
-660,189	-91,996	-0,059	0,012
-659,174	-200,000	-0,001	0,034
-658,159	-99,233	-0,135	-0,024
-657,145	45,629	0,033	0,022
-656,130	-200,000	0,011	-0,045
-655,116	-200,000	0,003	0,027
-654,101	-113,805	0,073	-0,010
-653,086	800,000	-0,085	-0,176
-652,072	-121,800	0,073	-0,009
-651,057	-171,284	-0,138	-0,003
-650,043	37,982	0,097	-0,062
-649,028	651,249	0,037	0,069
-648,014	0,656	-0,051	-0,026
-646,999	-100,131	-0,071	0,013
-645,984	-24,409	-0,116	-0,050
-644,970	-73,915	-0,081	0,021
-643,955	-200,000	0,015	-0,102
-642,941	-200,000	-0,006	-0,199
-641,926	749,574	-0,032	0,063
-640,911	777,092	-0,062	0,124
-639,897	-200,000	0,013	0,053
-638,882	290,635	0,040	-0,052
-637,868	-8,067	-0,025	0,012
-636,853	-200,000	-0,033	-0,164
-635,838	-200,000	-0,015	-0,199
-634,824	-56,977	-0,085	-0,027
-633,809	-145,443	0,078	-0,005
-632,795	78,038	-0,055	-0,042
-631,780	30,820	0,037	0,023
-630,765	800,000	0,050	-0,116
-629,751	571,726	-0,092	-0,162
-628,736	-12,513	-0,065	0,030
-627,722	-200,000	-0,006	0,193
-626,707	-200,000	-0,047	-0,162
-625,692	532,191	-0,068	-0,117
-624,678	-200,000	-0,009	0,116
-623,663	33,998	-0,116	0,073
-622,649	18,480	-0,033	-0,019
-621,634	98,542	-0,094	-0,078
-620,619	-83,214	0,084	-0,019
-619,605	615,527	-0,017	0,032
-618,590	-66,474	0,134	0,038
-617,576	-127,875	0,070	-0,007
-616,561	-200,000	-0,012	-0,092
-615,546	248,358	-0,067	0,082
-614,532	-200,000	-0,001	-0,078
-613,517	51,759	-0,082	-0,056
-612,503	-32,025	0,094	-0,038
-611,488	-60,323	0,098	0,030
-610,474	318,303	0,059	0,081
-609,459	-200,000	-0,020	0,081
-608,444	508,427	-0,013	-0,022
-607,430	-76,474	0,066	-0,017
-606,415	207,852	0,082	-0,092
-605,401	-113,340	-0,080	0,011
-604,386	-200,000	0,013	0,074
-603,371	149,513	0,063	-0,062
-602,357	-200,000	-0,020	0,069
-601,342	-143,114	-0,079	-0,005
-600,328	124,301	-0,029	0,026
-599,313	-191,655	-0,141	-0,001
-598,298	-200,000	0,010	-0,040
-597,284	143,948	0,043	0,042
-596,269	183,058	0,105	-0,112
-595,255	760,791	0,023	0,045
-594,240	-34,556	-0,071	-0,028
-593,225	-134,275	0,087	-0,008
-592,211	-20,940	0,026	0,011
-591,196	-135,297	-0,124	-0,011
-590,182	-149,734	-0,135	0,008
-589,167	76,478	0,043	0,032
-588,152	-60,187	0,007	-0,002
-587,138	800,000	-0,045	-0,096
-586,123	-200,000	0,022	-0,123
-585,109	800,000	-0,070	-0,191
-584,094	-200,000	-0,002	-0,079
-583,079	416,797	-0,069	0,107
-582,065	800,000	-0,037	0,108
-581,050	-200,000	0,024	-0,163
-580,036	584,690	-0,042	0,075
-579,021	-4,525	-0,151	0,075
-578,006	-200,000	0,006	-0,036
-576,992	-200,000	0,058	-0,189
-575,977	-200,000	-0,026	0,097
-574,963	-200,000	-0,005	0,132
-573,948	-37,475	0,036	-0,014
-572,934	-76,553	0,078	-0,020
-571,919	307,951	-0,116	0,157
-570,904	-200,000	0,001	0,033
-569,890	99,517	0,024	0,020
-568,875	115,243	-0,063	0,055
-567,861	-146,221	0,153	-0,010
-566,846	4,657	0,116	0,061
-565,831	299,272	0,049	0,065
-564,817	-136,825	-0,227	-0,019
-563,802	148,484	-0,043	-0,041
-562,788	-200,000	-0,001	0,005
-561,773	-150,194	-0,075	-0,004
-560,758	-36,149	0,044	0,017
-559,744	140,079	0,164	0,156
-558,729	-200,000	0,009	0,042
-557,715	278,923	-0,050	-0,065
-556,700	525,368	0,064	-0,108
-555,685	-170,059	-0,042	0,001
-554,671	-46,257	0,088	-0,031
-553,656	-74,273	0,058	0,015
-552,642	50,704	-0,102	-0,069
-551,627	-200,000	0,014	-0,076
-550,612	236,490	0,076	0,091
-549,598	-11,027	-0,106	0,050
-548,583	-44,060	-0,074	0,027
-547,569	656,527	0,027	-0,051
-546,554	698,302	-0,046	0,088
-545,539	-200,000	-0,009	0,047
-544,525	-200,000	0,059	0,221
-543,510	800,000	0,014	0,035
-542,496	5,660	-0,082	0,044
-541,481	-100,690	-0,064	0,011
-540,466	-60,476	0,111	-0,034
-539,452	325,081	-0,011	0,015
-538,437	-200,000	0,000	0,037
-537,423	181,950	-0,071	0,075
-536,408	-59,989	0,086	-0,026
-535,393	-200,000	-0,011	-0,074
-534,379	800,000	0,034	-0,098
-533,364	48,766	-0,159	0,107
-532,350	-149,907	0,152	0,008
-531,335	49,790	0,085	0,057
-530,321	150,799	-0,103	0,101
-529,306	-200,000	-0,002	0,103
-528,291	-152,763	-0,140	0,007
-527,277	-200,000	0,026	-0,136
-526,262	10,211	-0,147	0,080
-525,248	-150,716	0,129	-0,007
-524,233	465,724	-0,011	0,017
-523,218	-87,969	0,063	0,013
-522,204	800,000	0,013	-0,038
-521,189	59,116	-0,093	-0,066
-520,175	-56,057	0,063	-0,020
-519,160	-42,053	-0,019	-0,007
-518,145	-200,000	-0,010	-0,090
-517,131	800,000	0,043	0,106
-516,116	8,462	0,139	0,075
-515,102	137,384	-0,075	0,070
-514,087	-4,312	0,053	0,026
-513,072	800,000	0,056	-0,114
-512,058	-116,292	-0,134	0,018
-511,043	170,787	-0,030	-0,030
-510,029	-200,000	0,014	-0,044
-509,014	-31,352	0,062	0,025
-507,999	800,000	0,031	-0,098
-506,985	-200,000	0,011	0,116
-505,970	537,345	0,026	0,044
-504,956	-200,000	-0,007	-0,049
-503,941	-200,000	-0,032	0,114
-502,926	-58,269	0,109	-0,034
-501,912	39,501	0,144	0,093
-500,897	309,756	-0,025	0,034
-499,883	-33,924	-0,121	0,048
-498,868	485,078	-0,094	-0,154
-497,853	800,000	-0,047	-0,096
-496,839	71,591	-0,084	-0,063
-495,824	-200,000	0,013	0,041
-494,810	-200,000	0,022	-0,134
-493,795	-200,000	0,017	-0,073
-492,781	800,000	0,040	0,112
-491,766	-200,000	0,035	-0,168
-490,751	238,697	-0,091	-0,109
-489,737	18,045	0,046	-0,026
-488,722	800,000	0,019	0,052
-487,708	88,402	-0,103	0,082
-486,693	794,828	-0,040	0,079
-485,678	-200,000	-0,022	-0,083
-484,664	800,000	-0,012	0,037
-483,649	-74,394	-0,154	0,040
-482,635	371,119	-0,023	-0,034
-481,620	-33,731	0,043	-0,017
-480,605	-200,000	0,009	0,074
-479,591	-200,000	-0,019	0,128
-478,576	-169,273	-0,093	-0,002
-477,562	800,000	-0,030	0,064
-476,547	466,347	-0,043	-0,069
-475,532	-200,000	0,010	-0,165
-474,518	424,686	0,022	-0,034
-473,503	174,348	0,064	0,066
-472,489	44,468	0,031	-0,020
-471,474	-6,961	-0,048	-0,023
-470,459	-80,161	0,094	0,022
-469,445	-200,000	-0,020	-0,088
-468,430	-200,000	-0,015	-0,061
-467,416	86,929	0,146	0,116
-466,401	-38,689	-0,113	-0,042
-465,386	-200,000	0,002	-0,048
-464,372	287,298	0,031	-0,040
-463,357	-200,000	-0,032	0,121
-462,343	-3,334	-0,111	-0,055
-461,328	800,000	-0,042	0,085
-460,313	22,799	-0,114	0,067
-459,299	90,000	-0,030	-0,024
-458,284	290,047	-0,036	0,047
-457,270	6,811	0,091	0,049
-456,255	-90,449	-0,163	-0,034
-455,241	304,741	0,118	-0,158
-454,226	-109,965	-0,019	0,003
-453,211	-200,000	0,017	-0,111
-452,197	800,000	-0,049	0,118
-451,182	-31,560	0,067	-0,027
-450,168	212,377	0,094	0,106
-449,153	55,132	-0,143	0,099
-448,138	92,665	-0,135	-0,109
-447,124	6,449	0,061	-0,032
-446,109	-10,993	0,045	-0,021
-445,095	-9,228	0,051	0,024
-444,080	-200,000	-0,018	-0,075
-443,065	800,000	0,034	0,102
-442,051	20,425	-0,075	-0,044
-441,036	-57,311	-0,069	-0,022
-440,022	532,293	-0,053	0,090
-439,007	-200,000	0,021	0,074
-437,992	800,000	0,019	-0,054
-436,978	800,000	-0,026	0,079
-435,963	-200,000	0,013	-0,058
-434,949	-92,442	0,048	0,010
-433,934	2,846	-0,105	0,054
-432,919	-200,000	0,010	-0,240
-431,905	800,000	0,044	0,109
-430,890	67,059	-0,086	0,063
-429,876	800,000	0,037	-0,098
-428,861	173,910	0,127	-0,132
-427,846	304,346	0,012	0,016
-426,832	-36,744	-0,123	0,047
-425,817	-200,000	-0,019	-0,062
-424,803	294,543	0,067	-0,088
-423,788	800,000	0,052	0,146
-422,773	-31,318	0,113	-0,045
-421,759	273,126	0,087	-0,110
-420,744	-150,271	0,026	-0,001
-419,730	-200,000	-0,007	-0,069
-418,715	132,381	0,076	-0,070
-417,701	152,892	-0,056	-0,055
-416,686	420,341	0,034	-0,052
-415,671	75,668	-0,020	0,015
-414,657	43,840	0,215	0,141
-413,642	55,658	-0,082	-0,057
-412,628	-52,202	-0,138	-0,045
-411,613	288,756	0,089	-0,116
-410,598	-146,181	0,080	-0,005
-409,584	299,053	0,056	0,074
-408,569	657,936	0,100	-0,185
-407,555	-200,000	-0,016	0,094
-406,540	-200,000	-0,001	0,078
-405,525	-67,189	0,137	-0,038
-404,511	-22,348	0,101	0,044
-403,496	-200,000	0,008	-0,086
-402,482	-200,000	-0,003	0,032
-401,467	-68,083	0,178	0,049
-400,452	-119,967	-0,148	0,018
-399,438	-52,039	0,024	0,008
-398,423	548,166	-0,024	0,042
-397,409	-75,355	-0,068	0,017
-396,394	800,000	0,031	0,074
-395,379	-200,000	-0,014	0,106
-394,365	165,662	0,066	0,067
-393,350	324,994	-0,064	-0,088
-392,336	-46,119	0,088	0,031
-391,321	-28,051	-0,111	0,046
-390,306	-113,425	-0,105	-0,015
-389,292	169,063	0,006	-0,006
-388,277	-175,566	-0,160	-0,003
-387,263	-145,829	0,082	-0,005
-386,248	-200,000	0,034	0,143
-385,233	-75,207	-0,024	-0,006
-384,219	41,998	0,025	-0,016
-383,204	-200,000	0,007	-0,044
-382,190	-105,345	0,074	0,012
-381,175	51,934	-0,058	-0,039
-380,160	191,218	0,029	-0,031
-379,146	-200,000	0,032	0,113
-378,131	800,000	0,009	-0,021
-377,117	-164,059	0,049	0,002
-376,102	113,950	0,051	-0,045
-375,088	53,919	0,079	-0,054
-374,073	-83,759	-0,255	0,058
-373,058	93,482	0,002	-0,002
-372,044	-200,000	0,004	-0,016
-371,029	162,943	0,052	-0,052
-370,015	57,945	-0,055	-0,038
-369,000	237,959	-0,067	-0,080
-367,985	-114,683	-0,091	-0,012
-366,971	263,084	0,028	-0,035
-365,956	7,924	0,044	0,023
-364,942	800,000	0,040	0,102
-363,927	21,580	0,050	-0,029
-362,912	-53,636	0,061	0,020
-361,898	-200,000	-0,051	-0,213
-360,883	12,144	-0,048	0,026
-359,869	104,104	-0,015	-0,013
-358,854	-32,241	0,113	-0,045
-357,839	-102,401	-0,031	0,005
-356,825	98,049	-0,120	-0,099
-355,810	-200,000	0,023	0,094
-354,796	-78,742	0,164	0,040
-353,781	128,080	0,018	-0,016
-352,766	72,985	0,139	-0,104
-351,752	211,015	-0,041	-0,046
-350,737	-44,706	-0,086	-0,031
-349,723	-134,794	0,160	0,014
-348,708	291,517	0,025	0,032
-347,693	-134,542	0,109	-0,009
-346,679	-91,963	-0,063	-0,013
-345,664	-73,923	-0,048	0,012
-344,650	800,000	0,012	0,027
-343,635	-200,000	-0,002	0,098
-342,620	-200,000	0,089	0,000
-341,606	-89,063	0,079	0,017
-340,591	-200,000	-0,033	0,117
-339,577	5,983	-0,030	0,016
-338,562	86,728	0,037	-0,030
-337,548	615,953	0,033	-0,059
-336,533	81,590	0,037	-0,029
-335,518	-200,000	-0,018	0,111
-334,504	348,427	0,082	0,116
-333,489	-200,000	0,018	-0,102
-332,475	254,971	-0,076	-0,093
-331,460	44,219	-0,046	0,030
-330,445	-200,000	-0,029	-0,149
-329,431	800,000	0,029	-0,069
-328,416	800,000	-0,019	0,037
-327,402	464,470	0,091	0,146
-326,387	-2,141	-0,026	-0,013
-325,372	-7,028	-0,127	-0,061
-324,358	-136,868	-0,108	0,009
-323,343	-194,734	0,101	-0,001
-322,329	-144,597	0,123	0,008
-321,314	33,597	-0,037	-0,023
-320,299	-200,000	0,007	-0,041
-319,285	500,567	0,051	-0,085
-318,270	148,587	-0,100	0,096
-317,256	800,000	-0,035	-0,069
-316,241	-200,000	0,025	-0,098
-315,226	103,731	0,118	-0,099
-314,212	-148,285	0,091	0,005
-313,197	126,790	0,053	0,048
-312,183	800,000	-0,061	-0,148
-311,168	-200,000	0,001	-0,068
-310,153	271,018	-0,015	0,019
-309,139	-110,638	-0,014	0,002
-308,124	-119,827	0,133	-0,016
-307,110	-200,000	-0,021	0,121
-306,095	-2,703	0,082	-0,041
-305,080	-135,426	-0,063	-0,005
-304,066	-79,521	-0,054	0,013
-303,051	-133,558	-0,118	-0,010
-302,037	-38,056	-0,151	-0,057
-301,022	-36,795	0,115	-0,044
-300,008	94,389	-0,028	-0,023
-298,993	800,000	0,047	0,109
-297,978	288,093	0,105	0,136
-296,964	-200,000	-0,019	-0,110
-295,949	18,696	0,138	-0,079
-294,935	135,760	0,070	0,065
-293,920	-6,926	-0,152	-0,073
-292,905	800,000	0,057	0,140
-291,891	-122,334	-0,072	0,008
-290,876	-104,570	0,125	0,020
-289,862	65,672	-0,151	-0,109
-288,847	-40,538	0,083	-0,031
-287,832	44,480	0,047	-0,031
-286,818	-200,000	0,037	-0,123
-285,803	800,000	0,029	0,064
-284,789	-161,328	-0,056	0,002
-283,774	-28,969	0,179	0,073
-282,759	125,250	0,043	0,038
-281,745	-200,000	0,022	-0,070
-280,730	-200,000	0,011	-0,061
-279,716	-64,218	0,111	0,032
-278,701	-123,985	0,046	-0,005
-277,686	-200,000	0,033	0,107
-276,672	249,423	0,089	0,108
-275,657	-200,000	0,016	-0,136
-274,643	-200,000	-0,022	-0,120
-273,628	-200,000	-0,199	-0,000
-272,613	722,053	-0,040	-0,076
-271,599	800,000	-0,029	0,058
-270,584	248,960	0,053	0,064
-269,570	113,444	-0,086	-0,074
-268,555	-200,000	-0,026	0,170
-267,540	406,197	-0,051	-0,077
-266,526	800,000	-0,056	0,121
-265,511	-150,987	-0,065	0,003
-264,497	-70,219	0,016	-0,004
-263,482	-68,031	0,127	0,035
-262,467	-200,000	-0,002	0,043
-261,453	-59,540	0,039	0,012
-260,438	-120,728	-0,225	0,027
-259,424	800,000	0,018	0,048
-258,409	442,607	0,034	-0,053
-257,395	397,048	0,084	0,125
-256,380	255,326	-0,053	0,065
-255,365	-200,000	-0,003	0,042
-254,351	-47,297	0,144	0,049
-253,336	238,408	-0,023	-0,027
-252,322	416,049	-0,031	-0,047
-251,307	5,211	0,061	-0,032
-250,292	-200,000	0,025	0,113
-249,278	-26,775	0,102	-0,042
-248,263	800,000	0,034	0,076
-247,249	-11,654	0,042	-0,019
-246,234	800,000	0,037	0,094
-245,219	0,284	-0,097	-0,049
-244,205	-71,523	-0,113	0,030
-243,190	800,000	0,031	0,076
-242,176	800,000	0,025	-0,061
-241,161	95,368	0,044	-0,036
-240,146	8,452	-0,072	-0,038
-239,132	-200,000	-0,001	0,056
-238,117	130,279	0,081	-0,074
-237,103	-76,292	-0,171	-0,042
-236,088	144,243	-0,038	-0,036
-235,073	-2,597	-0,100	0,049
-234,059	-158,238	0,127	0,005
-233,044	94,350	0,154	0,124
-232,030	-200,000	-0,001	-0,088
-231,015	8,262	-0,052	0,028
-230,000	-103,215	-0,120	-0,020
-228,986	48,154	-0,114	0,075
-227,971	800,000	0,033	-0,068
-226,957	-200,000	-0,028	-0,092
-225,942	-200,000	0,042	0,173
-224,927	-109,335	-0,076	0,011
-223,913	136,135	0,109	-0,101
-222,898	213,638	-0,030	-0,033
-221,884	800,000	-0,041	-0,095
-220,869	-101,322	-0,002	0,000
-219,855	-17,954	-0,024	0,011
-218,840	292,008	0,066	0,086
-217,825	-147,804	-0,229	0,013
-216,811	199,335	0,057	0,062
-215,796	800,000	-0,023	-0,067
-214,782	75,261	-0,081	-0,061
-213,767	-200,000	-0,021	-0,082
-212,752	-168,496	-0,088	0,002
-211,738	-200,000	0,012	0,061
-210,723	-23,188	-0,034	0,015
-209,709	-23,682	-0,136	-0,058
-208,694	295,884	-0,027	-0,035
-207,679	-93,394	-0,130	-0,025
-206,665	-200,000	0,023	0,168
-205,650	684,111	0,089	0,166
-204,636	-200,000	0,026	0,176
-203,621	22,773	0,137	-0,080
-202,606	800,000	-0,056	0,122
-201,592	30,548	-0,071	-0,043
-200,577	-51,430	0,147	0,048
-199,563	239,723	-0,075	-0,088
-198,548	47,258	-0,021	-0,014
-197,533	-65,093	0,065	-0,018
-196,519	-200,000	0,024	0,089
-195,504	201,494	0,060	-0,066
-194,490	800,000	0,051	-0,124
-193,475	-57,965	-0,149	-0,046
-192,460	-61,979	0,029	0,009
-191,446	12,868	0,096	0,052
-190,431	-168,075	-0,061	-0,002
-189,417	800,000	-0,041	0,129
-188,402	522,639	0,086	0,143
-187,387	92,206	-0,016	-0,013
-186,373	530,900	-0,016	-0,026
-185,358	-200,000	0,011	-0,065
-184,344	118,743	0,076	0,067
-183,329	108,649	0,044	-0,037
-182,315	-200,000	-0,020	0,073
-181,300	111,839	0,047	-0,040
-180,285	-30,574	0,162	0,065
-179,271	103,691	-0,072	0,060
-178,256	109,969	0,083	-0,070
-177,242	-29,398	-0,087	0,035
-176,227	124,312	-0,030	-0,026
-175,212	-22,445	-0,074	0,032
-174,198	59,408	0,054	-0,037
-173,183	-4,231	0,071	-0,035
-172,169	-31,238	-0,038	0,015
-171,154	105,113	0,120	-0,101
-170,139	-200,000	0,000	-0,006
-169,125	194,370	0,018	-0,020
-168,110	123,428	-0,075	0,067
-167,096	31,520	-0,077	0,047
-166,081	-108,270	-0,056	-0,009
-165,066	53,817	0,044	0,030
-164,052	-143,898	0,017	-0,001
-163,037	800,000	-0,057	0,124
-162,023	26,699	0,100	0,059
-161,008	-181,849	0,065	0,001
-159,993	-89,791	0,044	0,009
-158,979	-200,000	0,003	0,186
-157,964	-104,236	0,081	0,013
-156,950	-96,647	-0,041	-0,008
-155,935	800,000	0,046	0,091
-154,920	1,514	0,097	-0,049
-153,906	-45,350	-0,048	-0,017
-152,891	38,771	-0,039	-0,025
-151,877	505,409	-0,042	0,070
-150,862	-200,000	0,017	-0,064
-149,847	800,000	0,022	0,060
-148,833	92,438	0,053	-0,042
-147,818	386,583	-0,042	-0,062
-146,804	800,000	0,030	0,090
-145,789	-200,000	0,047	0,175
-144,775	-200,000	-0,027	-0,089
-143,760	317,067	-0,037	-0,049
-142,745	-177,371	-0,076	0,001
-141,731	224,043	-0,071	-0,081
-140,716	39,969	0,120	0,076
-139,702	800,000	0,092	0,207
-138,687	-29,172	0,037	0,015
-137,672	51,419	0,007	0,005
-136,658	500,433	-0,067	-0,110
-135,643	538,294	-0,018	0,031
-134,629	-157,231	-0,036	-0,002
-133,614	-37,194	0,203	-0,076
-132,599	188,250	-0,100	0,106
-131,585	57,189	-0,061	0,042
-130,570	-16,514	0,028	-0,012
-129,556	596,097	0,045	-0,080
-128,541	-115,136	-0,125	0,017
-127,526	-77,352	-0,185	0,045
-126,512	-55,604	0,138	-0,043
-125,497	56,812	0,045	0,031
-124,483	-200,000	-0,021	-0,101
-123,468	-200,000	-0,006	-0,102
-122,453	-200,000	-0,011	0,039
-121,439	800,000	-0,035	-0,074
-120,424	39,418	0,105	-0,067
-119,410	-83,122	0,020	-0,005
-118,395	-112,477	0,074	0,010
-117,380	704,978	-0,051	-0,095
-116,366	366,669	-0,018	0,025
-115,351	-44,497	0,073	0,026
-114,337	-200,000	-0,041	-0,191
-113,322	326,028	-0,024	0,033
-112,307	611,999	0,057	0,102
-111,293	-99,112	0,067	0,012
-110,278	800,000	-0,037	0,098
-109,264	444,786	-0,070	0,109
-108,249	-69,850	-0,052	-0,014
-107,234	-22,006	-0,131	0,056
-106,220	-0,228	-0,041	0,020
-105,205	548,433	0,008	-0,013
-104,191	800,000	0,021	-0,049
-103,176	365,712	0,062	-0,088
-102,162	-131,207	-0,141	-0,013
-101,147	800,000	0,026	-0,063
-100,132	-200,000	-0,010	-0,095
-99,118	-200,000	0,006	-0,028
-98,103	800,000	0,043	-0,090
-97,089	800,000	0,049	-0,152
-96,074	-145,807	0,073	-0,005
-95,059	-138,827	0,071	-0,005
-94,045	-107,340	-0,072	-0,011
-93,030	85,566	-0,191	-0,148
-92,016	-122,296	0,038	-0,004
-91,001	82,813	-0,087	0,066
-89,986	680,240	0,029	0,054
-88,972	-200,000	-0,009	0,033
-87,957	498,950	-0,053	-0,086
-86,943	-53,170	-0,037	-0,012
-85,928	220,282	-0,075	0,085
-84,913	-200,000	-0,005	-0,194
-83,899	151,938	0,052	0,050
-82,884	396,049	-0,070	0,104
-81,870	-93,485	0,094	0,018
-80,855	353,917	0,034	0,048
-79,840	274,550	-0,080	0,100
-78,826	-51,820	0,145	-0,047
-77,811	-200,000	0,006	-0,149
-76,797	61,898	0,087	-0,061
-75,782	497,786	0,028	0,045
-74,767	800,000	0,048	0,142
-73,753	800,000	0,033	0,083
-72,738	167,830	0,081	-0,082
-71,724	-72,076	-0,076	-0,020
-70,709	-200,000	-0,037	-0,145
-69,694	148,830	0,037	-0,035
-68,680	-129,355	0,097	0,009
-67,665	-126,503	0,134	-0,014
-66,651	-102,642	0,099	0,016
-65,636	46,018	-0,116	-0,076
-64,622	-50,110	-0,032	0,011
-63,607	-104,553	-0,111	-0,018
-62,592	264,526	0,088	-0,108
-61,578	-157,441	-0,104	-0,004
-60,563	409,947	-0,084	0,125
-59,549	-200,000	0,038	0,124
-58,534	25,083	-1,976	-1,155
-57,519	390,243	-1,452	-2,133
-56,505	-200,000	-0,317	-4,466
-55,490	476,695	0,882	1,413
-54,476	800,000	5,042	11,118
-53,461	-200,000	20,353	328,593
-52,446	800,000	751,536	2313,008
-51,432	550,029	1658,866	2819,005
-50,417	74,470	1666,019	1234,963
-49,403	19,547	1538,865	871,225
-48,388	13,584	1461,298	798,452
-47,373	18,845	1451,680	818,438
-46,359	16,373	1440,956	800,590
-45,344	11,812	1436,742	776,489
-44,330	11,735	1434,793	775,035
-43,315	11,696	1433,253	773,986
-42,300	11,725	1431,276	773,029
-41,286	11,757	1430,112	772,521
-40,271	11,699	1428,792	771,504
-39,257	11,713	1427,451	770,814
-38,242	11,746	1426,420	770,384
-37,227	11,730	1425,423	769,737
-36,213	11,773	1423,884	769,078
-35,198	11,742	1422,928	768,385
-34,184	11,794	1421,847	768,016
-33,169	11,776	1420,330	767,082
-32,154	11,809	1419,451	766,731
-31,140	11,797	1418,178	765,958
-30,125	11,846	1417,051	765,550
-29,111	11,788	1416,092	764,728
-28,096	11,818	1415,050	764,275
-27,082	11,743	1413,814	763,225
-26,067	11,730	1412,702	762,537
-25,052	11,691	1411,807	761,839
-24,038	11,737	1410,581	761,365
-23,023	11,696	1409,699	760,664
-22,009	11,661	1408,700	759,934
-20,994	11,674	1407,582	759,357
-19,979	11,692	1406,811	758,995
-18,965	11,638	1405,912	758,230
-17,950	11,648	1405,107	757,812
-16,936	11,708	1403,956	757,439
-15,921	11,616	1402,911	756,417
-14,906	11,663	1402,032	756,133
-13,892	11,643	1401,233	755,577
-12,877	11,619	1400,405	754,990
-11,863	11,648	1399,425	754,566
-10,848	11,643	1398,383	753,951
-9,833	11,585	1397,771	753,324
-8,819	11,561	1396,662	752,583
-7,804	11,481	1395,974	751,814
-6,790	11,547	1394,740	751,424
-5,775	11,565	1393,931	751,043
-4,760	11,548	1392,986	750,423
-3,746	11,523	1391,945	749,719
-2,731	11,484	1391,305	749,166
-1,717	11,501	1390,372	748,711
-0,702	11,492	1388,491	747,626
0,313	15,618	1303,675	720,857
1,327	32,069	696,959	422,973
2,342	49,430	121,618	80,592
3,356	2,813	16,616	8,477
4,371	2,360	3,414	1,737
5,386	9,744	0,867	0,462
6,400	-200,000	0,038	0,309
7,415	255,111	-0,174	-0,210
8,429	-200,000	-0,016	-0,149
9,444	138,397	-0,358	-0,331
10,459	11,374	-0,321	-0,173
11,473	-22,196	-0,310	-0,132
12,488	36,101	-0,285	-0,176
13,502	49,071	-0,294	-0,194
14,517	165,495	-0,234	-0,233
15,531	57,460	-0,379	-0,260
16,546	170,577	-0,336	-0,340
17,561	132,609	-0,310	-0,282
18,575	51,223	-0,163	-0,109
19,590	103,120	-0,167	-0,138
20,604	133,863	-0,259	-0,236
21,619	-48,963	-0,492	-0,165
22,634	136,115	-0,339	-0,311
23,648	5,995	-0,379	-0,197
24,663	63,402	-0,437	-0,308
25,677	76,673	-0,357	-0,266
26,692	-24,819	-0,401	-0,167
27,707	14,981	-0,295	-0,162
28,721	60,494	-0,439	-0,305
29,736	104,052	-0,429	-0,355
30,750	98,105	-0,453	-0,367
31,765	38,487	-0,340	-0,213
32,780	88,618	-0,332	-0,260
33,794	327,153	-0,291	-0,393
34,809	98,978	-0,362	-0,294
35,823	182,151	-0,237	-0,246
36,838	14,701	-0,407	-0,223
37,853	152,116	-0,321	-0,308
38,867	5,370	-0,431	-0,223
39,882	121,051	-0,312	-0,273
40,896	142,751	-0,210	-0,196
41,911	79,441	-0,247	-0,186
42,926	-97,534	-0,417	-0,075
43,940	63,627	-0,365	-0,257
44,955	375,688	-0,267	-0,383
45,969	27,133	-0,336	-0,198
46,984	28,958	-0,374	-0,222
47,999	-69,238	-0,250	-0,067
49,013	-62,343	-0,349	-0,101
50,028	35,977	-0,200	-0,124
51,042	74,787	-0,312	-0,230
52,057	70,890	-0,367	-0,267
53,071	387,693	-0,220	-0,321
54,086	-14,993	-0,362	-0,163
55,101	70,315	-0,300	-0,217
56,115	116,046	-0,303	-0,260
57,130	21,046	-0,410	-0,233
58,144	53,394	-0,288	-0,194
59,159	98,373	-0,369	-0,299
60,174	35,431	-0,321	-0,197
61,188	199,314	-0,280	-0,302
62,203	-15,821	-0,318	-0,141
63,217	161,948	-0,158	-0,155
64,232	55,168	-0,339	-0,230
65,247	29,552	-0,461	-0,275
66,261	145,788	-0,269	-0,253
67,276	7,176	-0,410	-0,214
68,290	71,196	-0,287	-0,209
69,305	37,051	-0,275	-0,170
70,320	2,533	-0,302	-0,153
71,334	102,257	-0,303	-0,248
72,349	11,487	-0,391	-0,209
73,363	36,067	-0,406	-0,250
74,378	35,502	-0,343	-0,211
75,393	14,830	-0,366	-0,200
76,407	47,692	-0,291	-0,190
77,422	108,409	-0,307	-0,257
78,436	127,977	-0,199	-0,177
79,451	-37,914	-0,322	-0,119
80,466	27,661	-0,306	-0,180
81,480	1,964	-0,339	-0,171
82,495	-34,278	-0,506	-0,194
83,509	62,728	-0,300	-0,210
84,524	-17,906	-0,330	-0,144
85,539	-103,156	-0,300	-0,049
86,553	110,430	-0,281	-0,236
87,568	402,042	-0,097	-0,143
88,582	18,140	-0,345	-0,192
89,597	39,170	-0,226	-0,141
90,611	317,255	-0,262	-0,347
91,626	-72,662	-0,223	-0,057
92,641	40,398	-0,194	-0,122
93,655	92,304	-0,167	-0,132
94,670	46,808	-0,240	-0,156
95,684	-110,377	-0,400	-0,057
96,699	113,240	-0,279	-0,237
97,714	-9,543	-0,252	-0,117
98,728	668,816	-0,117	-0,213
99,743	47,115	-0,321	-0,209
100,757	170,935	-0,233	-0,234
101,772	95,939	-0,188	-0,150
102,787	-120,497	-0,331	-0,039
103,801	63,730	-0,257	-0,180
104,816	15,290	-0,257	-0,140
105,830	65,083	-0,231	-0,163
106,845	800,000	-0,134	-0,269
107,860	463,256	-0,142	-0,222
108,874	-26,129	-0,257	-0,105
109,889	107,299	-0,353	-0,294
110,903	419,632	-0,183	-0,275
111,918	16,440	-0,341	-0,187
112,933	-200,000	-0,102	-0,320
113,947	77,874	-0,276	-0,205
114,962	424,307	-0,177	-0,267
115,976	136,387	-0,249	-0,226
116,991	121,943	-0,224	-0,195
118,006	147,686	-0,191	-0,180
119,020	-124,637	-0,271	-0,029
120,035	163,222	-0,251	-0,246
121,049	-45,153	-0,228	-0,079
122,064	-99,834	-0,366	-0,063
123,079	434,445	-0,120	-0,182
124,093	-15,836	-0,281	-0,124
125,108	124,653	-0,158	-0,138
126,122	45,387	-0,253	-0,162
127,137	615,716	-0,123	-0,216
128,151	355,513	-0,098	-0,137
129,166	210,908	-0,191	-0,209
130,181	-89,516	-0,230	-0,047
131,195	65,967	-0,359	-0,254
132,210	-51,971	-0,403	-0,130
133,224	47,601	-0,250	-0,163
134,239	-20,215	-0,239	-0,102
135,254	165,099	-0,132	-0,130
136,268	-52,353	-0,335	-0,107
137,283	-58,282	-0,307	-0,093
138,297	243,688	-0,178	-0,208
139,312	111,397	-0,249	-0,209
140,327	208,853	-0,214	-0,233
141,341	110,044	-0,235	-0,196
142,356	136,774	-0,215	-0,196
143,370	-65,476	-0,380	-0,106
144,385	-151,141	-0,266	0,014
145,400	-30,003	-0,264	-0,104
146,414	31,946	-0,234	-0,140
147,429	96,771	-0,196	-0,156
148,443	-81,111	-0,487	-0,111
149,458	295,801	-0,142	-0,181
150,473	-68,743	-0,265	-0,071
151,487	148,653	-0,259	-0,243
152,502	91,797	-0,246	-0,193
153,516	89,634	-0,252	-0,195
154,531	141,208	-0,195	-0,180
155,546	-16,202	-0,184	-0,081
156,560	427,235	-0,141	-0,212
157,575	136,340	-0,164	-0,149
158,589	55,555	-0,238	-0,160
159,604	51,664	-0,270	-0,179
160,619	-59,027	-0,423	-0,126
161,633	93,138	-0,285	-0,224
162,648	95,362	-0,322	-0,255
163,662	599,111	-0,137	-0,238
164,677	52,955	-0,142	-0,095
165,692	14,872	-0,215	-0,117
166,706	238,420	-0,206	-0,238
167,721	99,727	-0,284	-0,229
168,735	133,056	-0,180	-0,162
169,750	174,540	-0,177	-0,178
170,764	-141,048	-0,220	0,015
171,779	134,572	-0,259	-0,234
172,794	29,441	-0,151	-0,089
173,808	299,862	-0,161	-0,207
174,823	128,604	-0,280	-0,248
175,837	-8,204	-0,258	-0,120
176,852	64,961	-0,253	-0,177
177,867	204,967	-0,148	-0,159
178,881	97,150	-0,203	-0,161
179,896	149,176	-0,132	-0,124
180,910	126,299	-0,252	-0,221
181,925	-122,045	-0,280	-0,032
182,940	154,926	-0,226	-0,216
183,954	196,386	-0,199	-0,210
184,969	-46,440	-0,135	-0,046
185,983	800,000	-0,063	-0,132
186,998	59,759	-0,143	-0,098
188,013	-55,438	-0,222	-0,069
189,027	406,970	-0,172	-0,253
190,042	555,706	-0,157	-0,263
191,056	42,086	-0,214	-0,134
192,071	-123,058	-0,182	-0,020
193,086	-200,000	-0,031	-0,113
194,100	23,564	-0,169	-0,096
195,115	224,075	-0,143	-0,160
196,129	-20,257	-0,190	-0,081
197,144	-101,308	-0,280	-0,047
198,159	14,751	-0,127	-0,069
199,173	235,095	-0,202	-0,232
200,188	460,458	-0,149	-0,231
201,202	6,048	-0,264	-0,135
202,217	179,240	-0,154	-0,157
203,232	145,479	-0,239	-0,221
204,246	29,205	-0,185	-0,109
205,261	233,172	-0,126	-0,144
206,275	39,007	-0,175	-0,108
207,290	111,008	-0,233	-0,194
208,304	15,150	-0,087	-0,047
209,319	-75,069	-0,103	0,025
210,334	-84,486	-0,366	-0,079
211,348	247,173	-0,262	-0,307
212,363	47,255	-0,207	-0,133
213,377	101,109	-0,157	-0,126
214,392	-95,360	-0,115	0,021
215,407	127,383	-0,119	-0,104
216,421	-48,352	-0,212	-0,070
217,436	80,426	-0,179	-0,133
218,450	-49,545	-0,291	-0,095
219,465	800,000	-0,198	-0,382
220,480	2,019	-0,284	-0,141
221,494	-5,672	-0,175	-0,083
222,509	76,822	-0,163	-0,119
223,523	372,168	-0,199	-0,280
224,538	338,454	-0,123	-0,166
225,553	135,895	-0,248	-0,224
226,567	114,988	-0,227	-0,192
227,582	-37,502	-0,215	-0,079
228,596	89,804	-0,102	-0,079
229,611	610,737	-0,062	-0,107
230,626	-3,011	-0,187	-0,090
231,640	302,813	-0,171	-0,220
232,655	241,792	-0,181	-0,210
233,669	4,406	-0,185	-0,094
234,684	416,672	-0,137	-0,202
235,699	539,797	-0,072	-0,118
236,713	-48,230	-0,149	-0,049
237,728	22,864	-0,236	-0,133
238,742	662,075	-0,061	-0,108
239,757	151,376	-0,184	-0,173
240,772	1,722	-0,315	-0,156
241,786	102,033	-0,204	-0,164
242,801	210,842	-0,146	-0,159
243,815	233,435	-0,164	-0,186
244,830	184,744	-0,091	-0,093
245,844	247,403	-0,133	-0,155
246,859	262,074	-0,158	-0,190
247,874	40,423	-0,189	-0,118
248,888	151,297	-0,070	-0,066
249,903	47,123	-0,183	-0,118
250,917	-61,267	-0,151	-0,044
251,932	-200,000	-0,013	-0,164
252,947	141,020	-0,232	-0,212
253,961	218,890	-0,189	-0,209
254,976	9,912	-0,279	-0,146
255,990	228,053	-0,158	-0,177
257,005	800,000	-0,086	-0,188
258,020	165,258	-0,149	-0,145
259,034	-200,000	-0,044	-0,199
260,049	10,292	-0,327	-0,171
261,063	3,916	-0,212	-0,106
262,078	39,972	-0,131	-0,081
263,093	35,937	-0,104	-0,063
264,107	-79,363	-0,114	-0,026
265,122	111,785	-0,037	-0,031
266,136	-90,933	-0,175	0,034
267,151	-26,934	-0,186	-0,075
268,166	90,721	-0,253	-0,195
269,180	-25,527	-0,300	-0,122
270,195	324,226	-0,140	-0,185
271,209	92,519	-0,193	-0,150
272,224	800,000	-0,073	-0,157
273,239	800,000	-0,088	-0,234
274,253	-192,461	-0,177	-0,001
275,268	-20,678	-0,212	-0,089
276,282	-22,948	-0,104	-0,043
277,297	800,000	-0,068	-0,189
278,312	130,601	-0,187	-0,165
279,326	32,865	-0,120	-0,071
280,341	-42,440	-0,118	-0,041
281,355	10,344	-0,118	-0,062
282,370	-31,715	-0,161	-0,062
283,384	-66,991	-0,220	-0,059
284,399	-70,426	-0,236	-0,061
285,414	58,876	-0,162	-0,110
286,428	-72,379	-0,142	-0,036
287,443	51,595	-0,097	-0,063
288,457	-200,000	-0,038	-0,217
289,472	-61,434	-0,117	-0,034
290,487	42,740	-0,169	-0,106
291,501	383,339	-0,130	-0,184
292,516	-100,972	-0,144	0,024
293,530	-147,216	-0,062	-0,004
294,545	701,569	-0,068	-0,124
295,560	800,000	-0,044	-0,088
296,574	27,747	-0,131	-0,076
297,589	-36,984	-0,127	-0,047
298,603	110,774	-0,182	-0,151
299,618	235,996	-0,099	-0,113
300,633	800,000	-0,072	-0,150
301,647	216,135	-0,126	-0,138
302,662	-45,558	-0,146	-0,049
303,676	-143,871	-0,117	-0,007
304,691	250,325	-0,117	-0,137
305,706	-5,890	-0,127	-0,059
306,720	-92,761	-0,263	-0,050
307,735	232,473	-0,135	-0,152
308,749	-72,374	-0,103	-0,026
309,764	197,135	-0,150	-0,157
310,779	-140,250	-0,064	-0,005
311,793	-111,484	-0,103	0,014
312,808	508,110	-0,081	-0,130
313,822	495,159	-0,116	-0,183
314,837	-18,335	-0,132	0,056
315,852	262,548	-0,141	-0,168
316,866	559,257	-0,094	-0,157
317,881	-94,721	-0,157	-0,029
318,895	234,842	-0,061	-0,070
319,910	-200,000	-0,040	-0,135
320,925	-119,826	-0,212	-0,025
321,939	503,418	-0,174	-0,277
322,954	115,954	-0,127	-0,106
323,968	125,857	-0,188	-0,163
324,983	800,000	-0,110	-0,233
325,997	59,880	-0,090	-0,061
327,012	-200,000	-0,023	-0,209
328,027	149,445	-0,118	-0,110
329,041	-200,000	-0,005	-0,134
330,056	292,171	-0,122	-0,153
331,070	233,719	-0,160	-0,181
332,085	246,934	-0,071	-0,082
333,100	800,000	-0,075	-0,156
334,114	239,373	-0,230	-0,262
335,129	78,788	-0,114	-0,083
336,143	69,617	-0,187	-0,132
337,158	22,049	-0,171	-0,095
338,173	-42,849	-0,171	-0,059
339,187	716,430	-0,091	-0,166
340,202	72,903	-0,285	-0,203
341,216	219,468	-0,155	-0,170
342,231	-113,045	-0,205	0,027
343,246	-102,359	-0,231	0,038
344,260	-53,813	-0,145	0,045
345,275	209,080	-0,080	-0,086
346,289	70,521	-0,064	-0,045
347,304	360,627	-0,119	-0,163
348,319	98,444	-0,120	-0,094
349,333	27,946	-0,101	-0,058
350,348	100,584	-0,182	-0,144
351,362	-80,577	-0,179	-0,041
352,377	-84,805	-0,207	-0,044
353,392	473,657	-0,087	-0,135
354,406	63,877	-0,185	-0,127
355,421	208,770	1313,718	1407,732
356,435	160,650	1474,317	1408,214
