DTS Sentinel unit serial number:	SN410029Multiplexer serial number:	ORYXHardware model number:	OX2-SRSoftware version number:	ORYX F/W v4,00 Oryx Data Collector v3.7.2.0data status	okinstallation	B3 Nyhavnadifferential loss correction	single-endedforward channel	channel 1reverse channel	N/Adate	2023/11/30time	13:17:30forward acquisition time	300,00reverse acquisition time	0,00gamma	499,1914k internal	0,3213k external	0,3213temperature offset calibration	1,0000default loss term (dB/km)	0,3820temperature slope calibration	1,0000multiplexer offset coefficient	1,0000multiplexer slope coefficient	1,0000fibre end	0,00T internal ref (°C)	10,46T ext. ref 1 (°C)	-3,05T ext. ref 2 (°C)	-3,11length (m)	temperature (°C)	Stokes	anti-Stokes-744,400	-46,456	-0,247	-0,087
-743,385	-200,000	-0,035	0,325
-742,371	53,310	-0,104	-0,072
-741,356	-200,000	0,054	0,351
-740,342	800,000	-0,071	-0,184
-739,327	-200,000	-0,066	0,268
-738,312	254,186	-0,258	-0,320
-737,298	-200,000	0,027	0,199
-736,283	615,949	-0,117	-0,213
-735,269	800,000	0,073	0,206
-734,254	31,477	-0,244	-0,151
-733,239	89,413	-0,327	0,264
-732,225	382,350	-0,121	-0,180
-731,210	96,200	0,027	0,023
-730,196	-200,000	-0,022	-0,181
-729,181	-94,500	0,103	-0,020
-728,167	-105,814	0,080	0,013
-727,152	-49,221	0,088	-0,030
-726,137	-124,862	-0,077	0,009
-725,123	-121,674	-0,175	-0,021
-724,108	-63,610	0,101	-0,030
-723,094	64,301	0,099	-0,072
-722,079	22,731	-0,126	-0,075
-721,064	-200,000	-0,008	-0,050
-720,050	-18,402	-0,095	0,043
-719,035	-200,000	-0,031	-0,112
-718,021	98,125	-0,012	-0,010
-717,006	-24,212	-0,093	-0,040
-715,991	137,958	-0,045	0,043
-714,977	419,167	-0,065	0,101
-713,962	-200,000	0,016	-0,163
-712,948	-200,000	-0,006	0,030
-711,933	512,589	0,045	0,076
-710,918	9,311	-0,085	0,047
-709,904	-200,000	-0,001	-0,051
-708,889	198,845	-0,113	-0,125
-707,875	-134,383	-0,084	-0,007
-706,860	-162,160	-0,139	-0,005
-705,845	346,325	-0,117	-0,167
-704,831	145,016	-0,062	-0,060
-703,816	-83,370	0,062	0,014
-702,802	-96,117	0,032	-0,006
-701,787	626,391	-0,018	-0,032
-700,772	184,773	0,048	-0,052
-699,758	-200,000	0,009	0,075
-698,743	-200,000	-0,020	0,126
-697,729	276,185	-0,110	0,142
-696,714	-200,000	0,014	-0,115
-695,699	35,909	-0,122	-0,078
-694,685	265,507	-0,117	0,148
-693,670	-4,030	0,091	-0,045
-692,656	218,324	-0,057	0,066
-691,641	800,000	0,035	-0,078
-690,627	3,499	-0,058	-0,031
-689,612	-19,553	-0,055	0,025
-688,597	-58,763	-0,098	0,030
-687,583	-79,323	-0,197	0,048
-686,568	545,111	-0,042	-0,074
-685,554	-200,000	0,004	-0,152
-684,539	-165,906	0,040	0,001
-683,524	-93,333	-0,092	-0,018
-682,510	-200,000	-0,020	0,072
-681,495	66,212	-0,031	-0,023
-680,481	698,891	-0,012	0,023
-679,466	-87,658	-0,150	0,032
-678,451	157,595	0,058	-0,058
-677,437	360,031	-0,025	-0,036
-676,422	-63,095	0,158	-0,047
-675,408	-16,812	0,032	0,014
-674,393	-200,000	-0,014	0,072
-673,378	800,000	0,061	-0,158
-672,364	512,764	-0,023	0,039
-671,349	-200,000	0,006	-0,107
-670,335	791,526	-0,069	-0,137
-669,320	408,234	-0,042	-0,065
-668,305	105,311	-0,094	-0,080
-667,291	-200,000	-0,018	-0,072
-666,276	-200,000	0,006	-0,053
-665,262	42,159	-0,060	0,040
-664,247	63,816	-0,070	-0,051
-663,232	800,000	0,024	-0,073
-662,218	234,363	-0,034	-0,041
-661,203	392,736	-0,040	-0,060
-660,189	212,311	-0,027	0,031
-659,174	-150,017	-0,178	-0,010
-658,159	115,140	-0,139	-0,123
-657,145	150,938	-0,074	-0,073
-656,130	50,914	-0,024	-0,017
-655,116	-200,000	0,004	-0,110
-654,101	46,271	-0,110	0,073
-653,086	-99,308	-0,126	-0,023
-652,072	800,000	0,065	0,152
-651,057	372,829	-0,048	-0,070
-650,043	800,000	0,013	-0,040
-649,028	-58,435	-0,129	0,040
-648,014	-11,003	-0,097	-0,046
-646,999	-200,000	-0,003	0,022
-645,984	550,167	-0,070	-0,121
-644,970	-49,929	-0,061	0,021
-643,955	-200,000	0,008	0,042
-642,941	454,760	-0,071	-0,115
-641,926	-200,000	0,000	-0,081
-640,911	749,450	0,057	0,111
-639,897	527,304	0,083	0,143
-638,882	148,088	-0,029	-0,028
-637,868	800,000	-0,021	-0,065
-636,853	90,254	-0,064	-0,051
-635,838	-163,226	0,050	-0,002
-634,824	75,430	-0,049	-0,037
-633,809	48,922	0,081	-0,055
-632,795	-152,306	-0,145	0,007
-631,780	-111,484	-0,054	-0,008
-630,765	139,402	-0,061	0,058
-629,751	33,872	-0,056	-0,035
-628,736	-1,873	-0,124	-0,063
-627,722	272,399	-0,072	-0,092
-626,707	-200,000	-0,022	-0,112
-625,692	800,000	0,043	0,098
-624,678	608,078	0,028	0,050
-623,663	787,409	0,021	-0,041
-622,649	-200,000	0,005	-0,048
-621,634	416,841	-0,078	-0,120
-620,619	-61,039	0,066	0,020
-619,605	76,051	0,075	-0,057
-618,590	-31,682	-0,029	-0,012
-617,576	-50,201	0,178	-0,060
-616,561	88,476	0,041	0,033
-615,546	-71,520	-0,086	0,023
-614,532	-116,443	-0,074	-0,010
-613,517	-15,159	-0,065	0,030
-612,503	-99,452	-0,093	0,017
-611,488	-117,576	0,088	0,011
-610,474	-200,000	-0,009	0,059
-609,459	-200,000	0,028	-0,138
-608,444	548,047	-0,010	-0,018
-607,430	244,535	0,149	-0,180
-606,415	70,740	-0,054	-0,040
-605,401	-200,000	-0,012	-0,104
-604,386	-200,000	0,047	0,152
-603,371	138,863	0,041	-0,039
-602,357	158,011	0,058	0,058
-601,342	571,463	0,060	-0,106
-600,328	649,042	-0,034	0,064
-599,313	92,428	-0,040	-0,033
-598,298	132,916	0,084	-0,078
-597,284	-200,000	-0,014	0,088
-596,269	213,086	0,028	0,032
-595,255	231,268	-0,044	-0,052
-594,240	800,000	0,027	-0,074
-593,225	28,822	-0,208	-0,127
-592,211	-200,000	0,002	-0,023
-591,196	800,000	-0,011	-0,026
-590,182	-169,246	0,084	-0,002
-589,167	244,065	-0,127	0,154
-588,152	800,000	-0,014	-0,040
-587,138	-164,259	-0,137	0,004
-586,123	181,320	0,039	0,042
-585,109	-96,663	-0,125	0,024
-584,094	83,573	-0,051	0,040
-583,079	-200,000	0,009	-0,084
-582,065	242,214	0,094	-0,114
-581,050	-110,119	-0,040	0,006
-580,036	-200,000	-0,005	-0,072
-579,021	2,747	-0,028	-0,014
-578,006	800,000	-0,030	0,062
-576,992	626,381	-0,045	-0,083
-575,977	-118,287	-0,125	-0,016
-574,963	800,000	-0,019	0,043
-573,948	800,000	0,059	0,138
-572,934	-89,494	0,088	-0,019
-571,919	115,644	-0,157	-0,138
-570,904	-200,000	-0,016	-0,138
-569,890	-200,000	-0,039	-0,153
-568,875	479,238	-0,050	0,082
-567,861	-200,000	-0,010	-0,056
-566,846	-200,000	0,141	0,000
-565,831	3,836	-0,066	0,035
-564,817	204,920	0,087	0,097
-563,802	136,192	-0,037	-0,034
-562,788	48,909	-0,053	-0,036
-561,773	-33,197	0,079	-0,031
-560,758	-200,000	-0,003	0,026
-559,744	-98,959	0,091	-0,017
-558,729	607,673	-0,060	0,108
-557,715	394,344	-0,080	0,121
-556,700	504,521	0,072	0,120
-555,685	-59,819	-0,128	0,039
-554,671	800,000	-0,066	-0,159
-553,656	-200,000	-0,013	-0,080
-552,642	99,866	0,054	-0,045
-551,627	-75,630	0,043	-0,011
-550,612	34,547	0,059	-0,037
-549,598	-200,000	-0,005	-0,047
-548,583	106,049	-0,118	-0,100
-547,569	-112,231	-0,086	-0,012
-546,554	45,927	0,018	0,012
-545,539	180,303	-0,071	0,075
-544,525	63,831	-0,098	0,071
-543,510	800,000	-0,055	-0,161
-542,496	204,286	-0,171	-0,191
-541,481	125,675	0,038	-0,035
-540,466	-43,336	0,106	0,038
-539,452	-140,680	-0,017	0,001
-538,437	800,000	0,015	-0,039
-537,423	-97,267	0,156	0,029
-536,408	-82,810	-0,077	-0,018
-535,393	800,000	0,056	-0,141
-534,379	214,734	-0,052	0,059
-533,364	150,392	-0,084	0,082
-532,350	-200,000	0,007	0,171
-531,335	-200,000	-0,000	0,033
-530,321	-104,286	-0,054	0,009
-529,306	440,921	-0,096	0,151
-528,291	-139,535	-0,091	-0,007
-527,277	-200,000	0,000	-0,008
-526,262	279,467	0,115	0,147
-525,248	47,587	0,098	0,066
-524,233	800,000	0,008	0,024
-523,218	-139,229	0,085	-0,007
-522,204	2,363	-0,126	-0,066
-521,189	800,000	-0,073	-0,151
-520,175	176,639	-0,026	0,028
-519,160	700,797	0,039	0,074
-518,145	-200,000	0,013	-0,136
-517,131	-86,530	0,108	-0,024
-516,116	25,654	-0,058	0,035
-515,102	800,000	0,031	-0,088
-514,087	-200,000	-0,008	-0,149
-513,072	800,000	-0,024	-0,051
-512,058	800,000	-0,028	-0,070
-511,043	36,513	-0,054	0,034
-510,029	-200,000	-0,006	0,084
-509,014	-200,000	-0,022	-0,111
-507,999	17,189	0,047	0,027
-506,985	198,836	-0,004	-0,005
-505,970	265,030	-0,133	-0,167
-504,956	-152,146	-0,031	0,002
-503,941	-200,000	-0,037	-0,157
-502,926	-56,037	0,098	0,031
-501,912	-34,724	0,082	0,032
-500,897	800,000	0,083	-0,171
-499,883	64,648	0,026	0,019
-498,868	211,354	-0,031	0,035
-497,853	-36,111	-0,053	0,021
-496,839	69,376	-0,098	0,072
-495,824	240,974	0,114	0,136
-494,810	58,344	-0,108	0,076
-493,795	144,833	-0,053	0,051
-492,781	-33,873	-0,205	0,081
-491,766	-200,000	-0,010	-0,112
-490,751	28,400	-0,096	0,058
-489,737	553,396	0,063	-0,109
-488,722	24,455	0,080	0,047
-487,708	70,583	-0,050	-0,037
-486,693	195,912	0,023	0,025
-485,678	800,000	0,022	-0,065
-484,664	53,599	0,019	-0,013
-483,649	174,879	-0,068	-0,070
-482,635	-154,693	0,085	0,004
-481,620	-159,816	0,146	0,006
-480,605	397,620	0,009	0,013
-479,591	-200,000	-0,019	0,211
-478,576	48,390	-0,079	0,053
-477,562	-22,096	0,077	-0,033
-476,547	151,183	-0,087	-0,084
-475,532	800,000	-0,049	-0,128
-474,518	-200,000	0,033	-0,125
-473,503	-18,818	0,099	-0,044
-472,489	-197,302	0,143	0,001
-471,474	-200,000	0,022	0,083
-470,459	-200,000	0,007	0,040
-469,445	-200,000	0,001	0,018
-468,430	800,000	-0,040	-0,104
-467,416	-200,000	0,020	-0,091
-466,401	8,550	0,113	-0,061
-465,386	106,921	-0,076	0,065
-464,372	-76,294	0,095	0,024
-463,357	-200,000	-0,023	0,098
-462,343	-76,952	-0,222	-0,055
-461,328	-130,103	0,050	-0,005
-460,313	229,331	0,107	0,125
-459,299	-95,713	0,113	0,021
-458,284	-186,689	0,101	-0,001
-457,270	152,469	-0,072	0,070
-456,255	625,987	0,074	-0,134
-455,241	-200,000	0,012	-0,076
-454,226	447,902	-0,030	-0,048
-453,211	-158,896	-0,087	0,003
-452,197	-151,961	0,027	0,001
-451,182	800,000	-0,085	0,178
-450,168	59,767	0,135	0,096
-449,153	95,901	0,057	0,047
-448,138	91,568	0,047	0,037
-447,124	-200,000	-0,006	-0,065
-446,109	195,321	-0,052	0,056
-445,095	-200,000	0,003	0,123
-444,080	-200,000	0,016	0,084
-443,065	-200,000	0,009	0,064
-442,051	800,000	-0,056	0,138
-441,036	-200,000	0,017	0,153
-440,022	-200,000	0,007	0,031
-439,007	800,000	-0,054	-0,170
-437,992	637,192	-0,034	0,062
-436,978	800,000	-0,067	0,137
-435,963	-97,533	0,174	0,032
-434,949	-142,213	-0,025	0,002
-433,934	26,023	-0,070	0,041
-432,919	20,771	0,095	-0,055
-431,905	-200,000	-0,007	-0,032
-430,890	-90,703	-0,030	-0,006
-429,876	-200,000	-0,008	0,027
-428,861	66,400	0,141	0,102
-427,846	593,676	-0,055	0,098
-426,832	-151,727	-0,048	-0,002
-425,817	714,810	-0,055	-0,106
-424,803	69,198	0,071	-0,052
-423,788	-200,000	-0,014	0,175
-422,773	-54,116	0,123	-0,040
-421,759	92,831	-0,106	0,085
-420,744	-200,000	0,012	0,088
-419,730	403,478	0,063	-0,095
-418,715	-61,679	-0,111	-0,033
-417,701	42,329	-0,038	-0,025
-416,686	387,773	0,098	0,145
-415,671	31,367	0,049	-0,030
-414,657	78,440	-0,086	0,066
-413,642	249,510	0,074	0,090
-412,628	800,000	-0,017	-0,045
-411,613	-57,903	-0,110	0,034
-410,598	-158,461	-0,139	0,006
-409,584	61,370	-0,043	0,031
-408,569	239,965	0,105	0,125
-407,555	51,108	0,107	-0,072
-406,540	24,249	-0,181	0,107
-405,525	-129,554	-0,100	0,010
-404,511	100,824	-0,052	-0,043
-403,496	-200,000	0,008	-0,148
-402,482	764,699	0,036	-0,070
-401,467	-200,000	-0,007	0,111
-400,452	341,839	0,081	0,113
-399,438	-200,000	-0,002	-0,010
-398,423	-15,506	-0,110	-0,050
-397,409	-175,807	-0,099	-0,002
-396,394	155,056	0,028	-0,027
-395,379	-81,169	-0,122	0,029
-394,365	54,262	-0,073	0,050
-393,350	-48,848	0,075	-0,025
-392,336	375,090	0,074	-0,108
-391,321	-47,838	-0,090	0,031
-390,306	-200,000	-0,007	-0,137
-389,292	800,000	0,052	-0,118
-388,277	-133,297	-0,104	-0,009
-387,263	79,960	0,043	-0,033
-386,248	-143,997	0,109	-0,007
-385,233	-83,745	-0,046	0,010
-384,219	439,533	-0,044	0,068
-383,204	-29,156	0,034	0,014
-382,190	9,468	0,074	-0,040
-381,175	-200,000	0,005	0,113
-380,160	-200,000	0,008	0,058
-379,146	-200,000	0,017	0,123
-378,131	-200,000	0,011	0,080
-377,117	-132,048	0,182	0,017
-376,102	31,376	-0,109	0,067
-375,088	800,000	-0,048	-0,126
-374,073	-82,551	0,062	0,014
-373,058	37,222	-0,089	-0,056
-372,044	800,000	0,090	-0,204
-371,029	-98,478	-0,073	0,013
-370,015	-25,334	-0,192	-0,081
-369,000	45,044	-0,035	-0,023
-367,985	-97,284	0,064	0,012
-366,971	-54,767	-0,084	0,027
-365,956	-161,292	0,062	-0,002
-364,942	80,740	-0,046	-0,035
-363,927	-64,875	-0,108	0,031
-362,912	463,863	0,073	0,117
-361,898	210,714	-0,091	-0,102
-360,883	800,000	0,088	-0,189
-359,869	-200,000	0,031	0,128
-358,854	-200,000	0,065	-0,233
-357,839	-19,678	0,061	0,027
-356,825	179,607	0,066	-0,069
-355,810	-172,002	0,137	-0,003
-354,796	-12,511	-0,053	0,025
-353,781	-200,000	-0,007	-0,055
-352,766	389,466	-0,055	-0,081
-351,752	78,120	0,038	-0,029
-350,737	362,238	0,037	0,053
-349,723	73,593	0,055	-0,041
-348,708	-4,062	-0,087	0,043
-347,693	-148,786	-0,121	-0,007
-346,679	158,144	0,107	-0,106
-345,664	-23,718	0,096	0,041
-344,650	107,069	0,069	-0,059
-343,635	27,241	0,038	0,023
-342,620	800,000	-0,032	0,095
-341,606	32,164	0,147	0,090
-340,591	66,319	-0,072	-0,052
-339,577	-200,000	0,030	-0,126
-338,562	-200,000	0,029	-0,106
-337,548	-200,000	0,004	-0,069
-336,533	32,089	0,082	-0,051
-335,518	-200,000	-0,022	0,072
-334,504	-148,850	0,078	0,004
-333,489	12,884	-0,073	-0,040
-332,475	58,154	-0,086	0,060
-331,460	20,593	-0,057	0,033
-330,445	346,522	0,011	-0,015
-329,431	227,817	0,120	0,139
-328,416	-91,617	0,086	0,017
-327,402	250,834	0,058	-0,071
-326,387	21,465	-0,095	-0,055
-325,372	23,315	-0,034	-0,020
-324,358	-200,000	-0,003	-0,030
-323,343	458,146	-0,026	0,041
-322,329	211,571	0,090	0,101
-321,314	42,474	0,095	0,061
-320,299	-200,000	0,025	0,092
-319,285	-200,000	-0,020	-0,083
-318,270	57,719	0,122	-0,085
-317,256	632,411	-0,045	-0,081
-316,241	270,178	-0,012	-0,015
-315,226	196,541	0,042	-0,046
-314,212	63,554	0,107	-0,076
-313,197	-104,531	0,052	0,008
-312,183	-13,020	0,147	0,068
-311,168	-78,446	-0,129	-0,031
-310,153	577,158	0,087	0,151
-309,139	184,452	-0,089	-0,094
-308,124	226,190	0,113	-0,131
-307,110	192,252	0,101	-0,108
-306,095	800,000	-0,042	0,085
-305,080	-144,321	-0,210	-0,014
-304,066	179,479	0,041	0,043
-303,051	-200,000	-0,015	-0,087
-302,037	144,676	-0,115	-0,109
-301,022	-200,000	0,006	-0,029
-300,008	800,000	-0,013	-0,030
-298,993	-22,092	0,209	0,090
-297,978	342,837	0,105	0,147
-296,964	199,676	-0,100	-0,109
-295,949	-110,678	-0,092	-0,013
-294,935	-98,252	0,049	0,009
-293,920	266,844	0,101	-0,125
-292,905	800,000	0,021	0,058
-291,891	800,000	-0,017	0,042
-290,876	35,295	0,175	0,109
-289,862	-200,000	0,003	-0,020
-288,847	-100,782	-0,140	0,024
-287,832	-200,000	-0,003	-0,018
-286,818	392,645	0,080	0,119
-285,803	309,222	0,160	0,214
-284,789	-130,717	0,113	-0,011
-283,774	-200,000	0,012	-0,122
-282,759	800,000	0,010	0,022
-281,745	-200,000	-0,034	0,109
-280,730	800,000	-0,022	-0,059
-279,716	-70,744	0,088	-0,024
-278,701	323,076	-0,086	0,118
-277,686	800,000	-0,048	0,117
-276,672	-70,210	-0,026	-0,007
-275,657	-0,209	-0,016	-0,008
-274,643	-81,314	0,055	-0,013
-273,628	-200,000	-0,008	-0,075
-272,613	640,848	0,014	0,026
-271,599	-200,000	0,002	0,083
-270,584	-148,143	0,094	0,005
-269,570	-180,642	-0,059	0,001
-268,555	541,025	0,066	0,112
-267,540	-172,513	-0,151	0,003
-266,526	-200,000	-0,015	-0,106
-265,511	-54,820	-0,126	-0,040
-264,497	187,976	0,073	-0,077
-263,482	-5,485	-0,022	-0,011
-262,467	211,534	0,106	0,118
-261,453	-70,123	-0,119	0,032
-260,438	80,652	-0,089	-0,068
-259,424	800,000	-0,058	-0,154
-258,409	800,000	0,040	0,099
-257,395	-137,675	-0,033	0,003
-256,380	113,271	0,128	-0,111
-255,365	-200,000	-0,034	0,125
-254,351	-200,000	0,025	0,157
-253,336	-5,121	-0,050	-0,024
-252,322	-27,198	-0,126	0,052
-251,307	428,666	0,049	-0,076
-250,292	35,019	0,061	-0,038
-249,278	800,000	0,042	0,100
-248,263	-200,000	0,001	0,077
-247,249	-64,312	-0,065	-0,019
-246,234	-88,226	-0,057	-0,012
-245,219	224,263	0,027	-0,031
-244,205	440,773	0,069	0,107
-243,190	-200,000	0,026	-0,096
-242,176	-25,535	-0,031	-0,013
-241,161	-200,000	-0,029	0,114
-240,146	-200,000	0,003	0,077
-239,132	397,484	0,046	0,068
-238,117	-18,687	-0,083	-0,037
-237,103	-200,000	0,013	0,100
-236,088	800,000	0,024	0,049
-235,073	800,000	0,017	0,039
-234,059	-200,000	0,017	-0,071
-233,044	-40,316	-0,030	-0,011
-232,030	800,000	0,026	-0,053
-231,015	-98,818	-0,049	0,009
-230,000	124,265	-0,112	-0,100
-228,986	63,042	-0,146	-0,104
-227,971	8,662	0,080	0,043
-226,957	-200,000	0,017	0,075
-225,942	-138,168	0,110	0,009
-224,927	-200,000	0,003	0,032
-223,913	-59,664	-0,064	0,019
-222,898	-200,000	-0,004	-0,045
-221,884	259,126	-0,048	0,059
-220,869	499,001	0,061	0,100
-219,855	691,787	0,033	0,061
-218,840	248,188	0,083	-0,100
-217,825	-200,000	-0,020	-0,097
-216,811	-200,000	-0,009	0,033
-215,796	-13,574	0,057	0,026
-214,782	274,252	-0,032	0,041
-213,767	27,971	0,069	-0,041
-212,752	800,000	0,034	0,070
-211,738	-121,072	0,103	0,012
-210,723	657,831	0,039	0,071
-209,709	-200,000	0,014	0,079
-208,694	118,067	0,089	-0,077
-207,679	-200,000	-0,004	0,102
-206,665	28,692	-0,007	-0,004
-205,650	-200,000	0,009	0,102
-204,636	-92,467	0,047	0,009
-203,621	34,054	0,083	0,051
-202,606	-96,897	0,082	0,015
-201,592	800,000	-0,045	-0,108
-200,577	-48,174	0,182	-0,062
-199,563	195,493	-0,006	0,006
-198,548	-200,000	0,026	0,132
-197,533	800,000	0,057	0,112
-196,519	-22,584	0,078	0,033
-195,504	-200,000	-0,007	0,076
-194,490	-200,000	-0,069	-0,284
-193,475	318,090	0,076	0,102
-192,460	-59,605	-0,091	0,028
-191,446	-48,487	0,057	0,019
-190,431	87,946	0,068	0,054
-189,417	444,759	0,048	0,074
-188,402	555,640	0,029	-0,050
-187,387	671,611	-0,091	-0,168
-186,373	-200,000	-0,038	-0,149
-185,358	800,000	-0,023	-0,055
-184,344	-200,000	0,005	0,028
-183,329	800,000	-0,051	0,119
-182,315	-65,824	0,104	-0,029
-181,300	633,188	-0,026	0,048
-180,285	-200,000	-0,015	-0,067
-179,271	-91,643	0,088	0,018
-178,256	-30,310	0,108	0,043
-177,242	800,000	-0,033	-0,070
-176,227	377,360	0,029	0,042
-175,212	98,604	-0,116	-0,095
-174,198	-200,000	-0,008	0,034
-173,183	692,366	-0,033	-0,062
-172,169	-200,000	0,003	0,103
-171,154	-135,890	-0,111	-0,009
-170,139	-200,000	0,012	-0,106
-169,125	-127,561	-0,067	0,007
-168,110	234,293	0,030	0,036
-167,096	-100,379	-0,073	-0,013
-166,081	800,000	0,066	-0,162
-165,066	-40,263	0,046	0,017
-164,052	-200,000	0,025	0,081
-163,037	56,651	0,099	0,068
-162,023	-14,220	-0,015	0,007
-161,008	75,022	0,043	0,032
-159,993	-200,000	-0,005	0,122
-158,979	403,275	0,081	0,121
-157,964	249,065	-0,044	-0,053
-156,950	-24,518	-0,058	0,025
-155,935	382,645	-0,093	0,135
-154,920	800,000	-0,021	0,044
-153,906	92,562	0,054	0,043
-152,891	800,000	-0,021	0,044
-151,877	452,519	0,055	-0,086
-150,862	273,052	-0,069	-0,086
-149,847	-124,349	-0,116	0,013
-148,833	-200,000	-0,012	0,126
-147,818	762,828	0,045	-0,086
-146,804	-200,000	0,053	0,225
-145,789	92,991	0,080	0,064
-144,775	55,747	-0,120	0,082
-143,760	292,520	-0,023	0,030
-142,745	-200,000	-0,020	-0,133
-141,731	171,579	-0,020	-0,020
-140,716	-200,000	-0,021	0,157
-139,702	348,465	0,202	0,283
-138,687	-121,376	-0,173	-0,020
-137,672	-200,000	0,014	0,047
-136,658	800,000	0,030	-0,086
-135,643	26,632	0,072	0,042
-134,629	800,000	-0,066	0,150
-133,614	21,831	0,024	0,014
-132,599	800,000	0,061	0,127
-131,585	233,819	-0,100	-0,116
-130,570	-136,070	-0,096	-0,008
-129,556	-72,948	-0,079	-0,020
-128,541	-200,000	-0,002	-0,015
-127,526	800,000	-0,046	-0,092
-126,512	552,397	0,071	0,121
-125,497	385,916	0,031	0,045
-124,483	800,000	0,034	0,107
-123,468	354,303	0,019	0,027
-122,453	33,436	0,074	0,045
-121,439	214,865	0,109	0,122
-120,424	-48,194	-0,125	-0,043
-119,410	10,364	-0,034	-0,018
-118,395	36,174	-0,056	0,035
-117,380	111,954	0,036	0,030
-116,366	-200,000	0,014	0,048
-115,351	-171,236	-0,172	-0,004
-114,337	-81,758	-0,238	-0,055
-113,322	-200,000	-0,000	0,131
-112,307	125,258	-0,066	0,059
-111,293	-200,000	-0,025	0,124
-110,278	-200,000	0,042	0,246
-109,264	268,174	-0,061	0,076
-108,249	368,535	0,049	-0,070
-107,234	-200,000	0,013	-0,107
-106,220	149,623	0,117	-0,112
-105,205	-200,000	-0,012	0,056
-104,191	-200,000	0,002	0,020
-103,176	538,955	-0,043	0,073
-102,162	-200,000	0,017	0,158
-101,147	-19,034	0,052	-0,023
-100,132	-101,603	-0,140	-0,024
-99,118	75,240	0,018	0,013
-98,103	-52,396	-0,112	0,036
-97,089	-116,068	0,037	-0,005
-96,074	172,805	-0,024	0,025
-95,059	-93,315	0,126	-0,024
-94,045	246,716	-0,097	-0,115
-93,030	-139,837	0,143	0,011
-92,016	-200,000	-0,005	0,029
-91,001	615,326	-0,093	-0,165
-89,986	69,759	0,069	0,050
-88,972	-10,381	0,151	-0,071
-87,957	-95,004	0,050	-0,009
-86,943	26,539	0,039	0,023
-85,928	377,124	0,095	-0,138
-84,913	-200,000	0,012	-0,128
-83,899	800,000	0,025	0,063
-82,884	800,000	-0,079	-0,165
-81,870	17,776	0,050	0,028
-80,855	-200,000	-0,001	0,097
-79,840	-12,227	0,067	0,031
-78,826	13,874	-0,085	-0,047
-77,811	6,243	-0,093	0,049
-76,797	-11,670	0,085	-0,039
-75,782	-200,000	0,008	0,032
-74,767	788,431	-0,025	0,049
-73,753	23,838	0,139	0,080
-72,738	684,064	-0,029	-0,055
-71,724	-33,868	-0,053	-0,021
-70,709	-200,000	0,010	0,054
-69,694	-200,000	-0,003	0,063
-68,680	-200,000	0,014	0,150
-67,665	578,965	0,022	0,039
-66,651	30,552	-0,096	-0,058
-65,636	-43,738	0,125	0,044
-64,622	319,256	0,069	-0,093
-63,607	562,059	0,059	-0,102
-62,592	-200,000	-0,007	-0,029
-61,578	80,635	0,078	-0,059
-60,563	-162,340	0,104	-0,004
-59,549	164,501	0,004	-0,004
-58,534	39,329	-1,944	-1,226
-57,519	409,643	-1,391	-2,085
-56,505	-200,000	-0,238	-4,471
-55,490	439,871	0,961	1,486
-54,476	800,000	5,046	11,281
-53,461	-200,000	20,917	334,252
-52,446	800,000	757,244	2335,972
-51,432	554,258	1661,906	2830,903
-50,417	73,681	1663,486	1228,180
-49,403	18,358	1536,821	863,418
-48,388	12,315	1459,674	790,849
-47,373	19,191	1450,406	818,788
-46,359	15,685	1439,700	796,042
-45,344	10,593	1435,491	769,443
-44,330	10,486	1433,579	767,877
-43,315	10,479	1431,600	766,753
-42,300	10,548	1429,872	766,128
-41,286	10,499	1428,909	765,348
-40,271	10,524	1427,532	764,700
-39,257	10,495	1426,442	763,945
-38,242	10,556	1425,376	763,632
-37,227	10,528	1424,258	762,873
-36,213	10,592	1422,848	762,387
-35,198	10,549	1421,813	761,602
-34,184	10,598	1420,777	761,248
-33,169	10,511	1419,612	760,180
-32,154	10,593	1418,420	759,902
-31,140	10,538	1417,436	759,083
-30,125	10,594	1416,158	758,634
-29,111	10,547	1415,162	757,849
-28,096	10,557	1413,884	757,180
-27,082	10,499	1412,642	756,214
-26,067	10,487	1411,747	755,646
-25,052	10,466	1410,740	754,982
-24,038	10,540	1409,423	754,594
-23,023	10,507	1408,573	753,953
-22,009	10,479	1407,800	753,377
-20,994	10,511	1406,532	752,821
-19,979	10,488	1405,868	752,326
-18,965	10,448	1404,907	751,595
-17,950	10,411	1403,936	750,872
-16,936	10,437	1403,275	750,612
-15,921	10,360	1402,003	749,542
-14,906	10,425	1401,212	749,392
-13,892	10,458	1400,009	748,874
-12,877	10,418	1399,281	748,266
-11,863	10,393	1398,614	747,768
-10,848	10,309	1397,835	746,930
-9,833	10,351	1396,759	746,521
-8,819	10,303	1395,923	745,821
-7,804	10,275	1395,172	745,260
-6,790	10,327	1394,072	744,882
-5,775	10,311	1392,950	744,183
-4,760	10,333	1391,939	743,715
-3,746	10,340	1391,200	743,319
-2,731	10,335	1390,171	742,719
-1,717	10,320	1389,322	742,164
-0,702	10,262	1387,581	740,938
0,313	14,442	1300,997	713,798
1,327	30,806	692,489	417,116
2,342	47,435	120,429	78,983
3,356	0,981	16,566	8,344
4,371	3,648	3,453	1,770
5,386	65,102	0,815	0,580
6,400	-200,000	0,080	0,536
7,415	171,050	-0,082	-0,083
8,429	47,241	-0,280	-0,183
9,444	139,273	-0,272	-0,253
10,459	421,933	-0,142	-0,215
11,473	89,235	-0,281	-0,220
12,488	230,809	-0,165	-0,191
13,502	18,125	-0,267	-0,150
14,517	23,437	-0,150	-0,087
15,531	65,780	-0,285	-0,203
16,546	-46,423	-0,270	-0,093
17,561	103,826	-0,380	-0,314
18,575	57,670	-0,150	-0,103
19,590	-35,221	-0,307	-0,117
20,604	60,172	-0,190	-0,132
21,619	87,265	-0,413	-0,321
22,634	227,570	-0,416	-0,477
23,648	82,869	-0,468	-0,358
24,663	25,435	-0,363	-0,212
25,677	-68,215	-0,501	-0,136
26,692	-3,764	-0,343	-0,167
27,707	16,223	-0,260	-0,144
28,721	179,446	-0,403	-0,415
29,736	202,253	-0,335	-0,364
30,750	28,366	-0,418	-0,248
31,765	95,924	-0,339	-0,272
32,780	179,148	-0,308	-0,317
33,794	121,525	-0,366	-0,321
34,809	115,549	-0,378	-0,325
35,823	22,017	-0,409	-0,234
36,838	51,119	-0,380	-0,253
37,853	147,039	-0,309	-0,292
38,867	106,517	-0,303	-0,253
39,882	117,506	-0,325	-0,281
40,896	-28,366	-0,390	-0,157
41,911	-43,322	-0,417	-0,148
42,926	-46,507	-0,389	-0,133
43,940	23,353	-0,414	-0,238
44,955	169,758	-0,312	-0,314
45,969	94,870	-0,253	-0,202
46,984	54,075	-0,389	-0,262
47,999	-43,049	-0,442	-0,156
49,013	104,938	-0,294	-0,243
50,028	-39,828	-0,207	-0,075
51,042	149,842	-0,335	-0,319
52,057	247,123	-0,256	-0,304
53,071	20,236	-0,377	-0,213
54,086	36,685	-0,356	-0,220
55,101	-7,589	-0,411	-0,195
56,115	105,910	-0,375	-0,311
57,130	144,078	-0,273	-0,255
58,144	100,348	-0,301	-0,245
59,159	-28,296	-0,431	-0,174
60,174	345,287	-0,322	-0,445
61,188	129,115	-0,266	-0,238
62,203	124,638	-0,317	-0,280
63,217	20,460	-0,340	-0,192
64,232	41,333	-0,399	-0,252
65,247	15,348	-0,328	-0,180
66,261	-26,317	-0,417	-0,171
67,276	-1,361	-0,339	-0,167
68,290	33,180	-0,267	-0,162
69,305	-9,950	-0,184	-0,086
70,320	100,227	-0,231	-0,188
71,334	1,866	-0,322	-0,162
72,349	76,107	-0,295	-0,218
73,363	12,751	-0,430	-0,232
74,378	66,984	-0,414	-0,295
75,393	0,572	-0,300	-0,150
76,407	65,322	-0,171	-0,121
77,422	35,785	-0,324	-0,199
78,436	53,365	-0,240	-0,161
79,451	384,242	-0,145	-0,210
80,466	7,225	-0,458	-0,238
81,480	14,551	-0,336	-0,183
82,495	-13,729	-0,408	-0,184
83,509	-36,708	-0,390	-0,146
84,524	180,266	-0,135	-0,139
85,539	-86,885	-0,334	-0,071
86,553	63,781	-0,239	-0,168
87,568	104,000	-0,290	-0,238
88,582	64,345	-0,318	-0,224
89,597	38,277	-0,291	-0,181
90,611	151,385	-0,198	-0,188
91,626	41,705	-0,150	-0,095
92,641	32,162	-0,245	-0,148
93,655	-66,728	-0,251	-0,069
94,670	153,021	-0,286	-0,273
95,684	95,305	-0,360	-0,287
96,699	231,747	-0,263	-0,302
97,714	132,695	-0,297	-0,268
98,728	-106,408	-0,327	-0,051
99,743	124,440	-0,197	-0,173
100,757	-115,534	-0,231	-0,030
101,772	-67,478	-0,300	-0,082
102,787	26,742	-0,261	-0,152
103,801	78,221	-0,338	-0,252
104,816	254,977	-0,211	-0,253
105,830	-46,118	-0,270	-0,092
106,845	16,640	-0,288	-0,159
107,860	-20,552	-0,226	-0,097
108,874	12,421	-0,239	-0,128
109,889	144,146	-0,285	-0,265
110,903	118,792	-0,273	-0,236
111,918	28,424	-0,184	-0,108
112,933	-22,701	-0,276	-0,116
113,947	16,389	-0,176	-0,096
114,962	82,202	-0,189	-0,143
115,976	20,391	-0,355	-0,200
116,991	35,618	-0,312	-0,191
118,006	-5,892	-0,392	-0,187
119,020	-30,736	-0,346	-0,136
120,035	256,397	-0,183	-0,219
121,049	7,492	-0,129	-0,067
122,064	114,077	-0,245	-0,208
123,079	-100,811	-0,262	-0,045
124,093	171,942	-0,233	-0,234
125,108	9,288	-0,358	-0,188
126,122	110,662	-0,179	-0,150
127,137	27,810	-0,234	-0,137
128,151	800,000	-0,072	-0,153
129,166	196,238	-0,139	-0,148
130,181	219,800	-0,164	-0,184
131,195	17,871	-0,312	-0,173
132,210	130,575	-0,267	-0,238
133,224	23,536	-0,265	-0,152
134,239	35,475	-0,175	-0,107
135,254	38,533	-0,264	-0,163
136,268	682,785	-0,140	-0,255
137,283	95,777	-0,252	-0,200
138,297	16,445	-0,219	-0,120
139,312	85,763	-0,242	-0,185
140,327	11,749	-0,324	-0,173
141,341	-33,716	-0,342	-0,131
142,356	-40,730	-0,276	-0,099
143,370	76,439	-0,287	-0,211
144,385	-142,365	-0,338	0,023
145,400	253,877	-0,259	-0,309
146,414	160,776	-0,280	-0,272
147,429	140,462	-0,300	-0,276
148,443	491,748	-0,190	-0,304
149,458	329,128	-0,140	-0,188
150,473	57,345	-0,234	-0,158
151,487	61,029	-0,300	-0,207
152,502	153,462	-0,187	-0,179
153,516	23,130	-0,330	-0,188
154,531	-108,983	-0,142	-0,021
155,546	-1,721	-0,320	-0,156
156,560	49,946	-0,202	-0,132
157,575	206,043	-0,167	-0,180
158,589	-43,983	-0,285	-0,099
159,604	23,850	-0,218	-0,125
160,619	209,653	-0,291	-0,317
161,633	-132,928	-0,189	-0,017
162,648	70,577	-0,167	-0,120
163,662	-29,432	-0,213	-0,084
164,677	464,860	-0,131	-0,204
165,692	130,464	-0,150	-0,134
166,706	193,484	-0,201	-0,211
167,721	1,559	-0,303	-0,151
168,735	47,622	-0,300	-0,194
169,750	198,823	-0,214	-0,228
170,764	26,095	-0,175	-0,101
171,779	64,907	-0,147	-0,103
172,794	299,979	-0,066	-0,085
173,808	80,290	-0,239	-0,178
174,823	24,412	-0,174	-0,099
175,837	332,802	-0,227	-0,305
176,852	3,670	-0,253	-0,128
177,867	44,955	-0,324	-0,207
178,881	-1,419	-0,218	-0,106
179,896	85,959	-0,210	-0,160
180,910	33,710	-0,288	-0,174
181,925	587,043	-0,084	-0,144
182,940	800,000	-0,148	-0,342
183,954	73,980	-0,292	-0,213
184,969	200,613	-0,212	-0,226
185,983	800,000	-0,069	-0,177
186,998	-15,872	-0,269	-0,118
188,013	-108,589	-0,170	-0,025
189,027	112,375	-0,232	-0,194
190,042	69,166	-0,215	-0,153
191,056	241,086	-0,276	-0,319
192,071	51,560	-0,235	-0,155
193,086	-31,676	-0,210	-0,081
194,100	-32,708	-0,182	-0,070
195,115	42,825	-0,230	-0,145
196,129	108,566	-0,181	-0,150
197,144	16,969	-0,395	-0,216
198,159	220,099	-0,184	-0,205
199,173	34,801	-0,295	-0,178
200,188	45,832	-0,135	-0,086
201,202	29,434	-0,236	-0,139
202,217	175,013	-0,113	-0,114
203,232	121,660	-0,181	-0,156
204,246	680,190	-0,167	-0,302
205,261	62,791	-0,251	-0,174
206,275	586,037	-0,096	-0,164
207,290	332,495	-0,151	-0,202
208,304	188,246	-0,117	-0,121
209,319	103,869	-0,247	-0,201
210,334	177,003	-0,194	-0,196
211,348	-71,596	-0,316	-0,081
212,363	141,303	-0,187	-0,171
213,377	17,275	-0,249	-0,137
214,392	-78,418	-0,206	-0,049
215,407	-173,955	-0,191	-0,004
216,421	49,023	-0,296	-0,192
217,436	48,398	-0,171	-0,110
218,450	10,566	-0,349	-0,183
219,465	69,636	-0,244	-0,174
220,480	121,085	-0,204	-0,175
221,494	-200,000	-0,060	-0,202
222,509	93,148	-0,131	-0,102
223,523	-133,904	-0,226	-0,019
224,538	-106,319	-0,079	-0,012
225,553	-92,882	-0,248	-0,048
226,567	313,160	-0,213	-0,278
227,582	137,766	-0,237	-0,214
228,596	-200,000	-0,005	-0,166
229,611	-105,048	-0,108	-0,017
230,626	-162,558	-0,149	0,005
231,640	-3,185	-0,197	-0,095
232,655	39,538	-0,271	-0,167
233,669	412,651	-0,215	-0,317
234,684	229,620	-0,151	-0,170
235,699	72,984	-0,266	-0,191
236,713	33,794	-0,248	-0,149
237,728	78,549	-0,204	-0,151
238,742	-67,798	-0,215	-0,058
239,757	54,469	-0,200	-0,133
240,772	19,253	-0,202	-0,112
241,786	137,652	-0,161	-0,146
242,801	257,920	-0,216	-0,258
243,815	76,361	-0,220	-0,160
244,830	147,179	-0,110	-0,102
245,844	-117,462	-0,153	-0,019
246,859	-19,410	-0,284	-0,121
247,874	66,556	-0,329	-0,231
248,888	9,309	-0,235	-0,122
249,903	-18,824	-0,154	0,066
250,917	307,369	-0,070	-0,090
251,932	288,515	-0,129	-0,161
252,947	40,225	-0,104	-0,064
253,961	-59,890	-0,292	-0,086
254,976	113,155	-0,186	-0,156
255,990	445,604	-0,080	-0,121
257,005	-63,121	-0,150	-0,042
258,020	119,290	-0,031	-0,026
259,034	126,762	-0,090	-0,078
260,049	-165,626	-0,126	-0,004
261,063	202,321	-0,171	-0,182
262,078	-36,527	-0,211	-0,078
263,093	-132,005	-0,255	-0,023
264,107	93,889	-0,186	-0,145
265,122	-45,019	-0,083	0,028
266,136	66,972	-0,135	-0,095
267,151	-73,940	-0,145	0,036
268,166	-73,929	-0,229	-0,057
269,180	235,208	-0,228	-0,259
270,195	800,000	-0,057	-0,143
271,209	120,898	-0,195	-0,167
272,224	56,087	-0,126	-0,084
273,239	33,194	-0,118	-0,070
274,253	-121,737	-0,244	-0,027
275,268	171,184	-0,142	-0,140
276,282	-162,927	-0,144	0,005
277,297	679,434	-0,113	-0,203
278,312	94,261	-0,249	-0,195
279,326	-82,634	-0,072	0,016
280,341	-78,591	-0,110	-0,026
281,355	800,000	-0,030	-0,074
282,370	164,704	-0,105	-0,102
283,384	-40,048	-0,140	0,050
284,399	231,625	-0,232	-0,262
285,414	-200,000	-0,026	-0,202
286,428	-200,000	-0,029	-0,102
287,443	-200,000	-0,030	-0,117
288,457	128,811	-0,215	-0,188
289,472	231,816	-0,196	-0,221
290,487	197,276	-0,166	-0,175
291,501	-59,445	-0,174	-0,051
292,516	697,455	-0,128	-0,232
293,530	-85,101	-0,065	-0,014
294,545	-9,387	-0,096	0,044
295,560	-15,909	-0,155	-0,068
296,574	-99,649	-0,124	-0,021
297,589	98,592	-0,157	-0,124
298,603	462,320	-0,072	-0,111
299,618	800,000	-0,083	-0,181
300,633	-42,604	-0,049	-0,017
301,647	800,000	-0,022	-0,061
302,662	-167,254	-0,227	-0,006
303,676	111,828	-0,070	-0,058
304,691	8,209	-0,229	-0,118
305,706	439,066	-0,118	-0,178
306,720	50,587	-0,212	-0,138
307,735	-200,000	-0,090	-0,287
308,749	-90,794	-0,164	-0,032
309,764	264,058	0,095	-0,113
310,779	23,595	-0,102	-0,057
311,793	31,730	-0,200	-0,118
312,808	102,354	-0,126	-0,101
313,822	-26,077	-0,150	-0,060
314,837	213,226	-0,115	-0,125
315,852	173,914	-0,072	-0,071
316,866	-99,472	-0,123	0,021
317,881	800,000	0,028	-0,073
318,895	197,817	-0,118	-0,124
319,910	194,586	-0,185	-0,193
320,925	281,499	-0,154	-0,189
321,939	-99,282	-0,159	0,027
322,954	-131,222	-0,149	-0,013
323,968	-81,570	-0,053	-0,012
324,983	-191,100	-0,138	0,001
325,997	98,288	-0,145	-0,114
327,012	25,497	-0,169	-0,096
328,027	-2,037	-0,248	-0,119
329,041	-98,075	-0,198	-0,035
330,056	138,781	-0,099	-0,089
331,070	-70,995	0,103	0,026
332,085	-110,326	-0,117	0,016
333,100	-32,273	-0,226	-0,086
334,114	800,000	-0,070	-0,175
335,129	-200,000	-0,061	-0,193
336,143	580,481	-0,077	-0,129
337,158	287,383	-0,065	-0,081
338,173	-200,000	-0,023	-0,156
339,187	800,000	-0,093	-0,198
340,202	23,161	-0,170	-0,095
341,216	339,586	-0,138	-0,185
342,231	57,030	-0,128	-0,085
343,246	-100,180	-0,176	-0,030
344,260	-73,651	-0,175	-0,043
345,275	-99,392	-0,193	0,033
346,289	48,853	-0,144	-0,092
347,304	-116,341	-0,159	-0,020
348,319	134,847	-0,109	-0,097
349,333	800,000	-0,094	-0,187
350,348	53,611	-0,205	-0,134
351,362	800,000	-0,048	-0,094
352,377	-78,694	-0,065	-0,015
353,392	-99,349	-0,139	-0,024
354,406	12,538	-0,043	-0,023
355,421	205,841	1313,807	1397,935
356,435	158,283	1474,387	1398,416
