DTS Sentinel unit serial number:	SN410029Multiplexer serial number:	ORYXHardware model number:	OX2-SRSoftware version number:	ORYX F/W v4,00 Oryx Data Collector v3.7.2.0data status	okinstallation	B3 Nyhavnadifferential loss correction	single-endedforward channel	channel 1reverse channel	N/Adate	2023/12/02time	08:37:30forward acquisition time	300,00reverse acquisition time	0,00gamma	499,1914k internal	0,3195k external	0,3195temperature offset calibration	1,0000default loss term (dB/km)	0,3820temperature slope calibration	1,0000multiplexer offset coefficient	1,0000multiplexer slope coefficient	1,0000fibre end	0,00T internal ref (°C)	15,35T ext. ref 1 (°C)	0,05T ext. ref 2 (°C)	0,03length (m)	temperature (°C)	Stokes	anti-Stokes-744,400	329,611	-0,172	-0,241
-743,385	-200,000	0,020	0,443
-742,371	200,850	-0,143	-0,160
-741,356	-200,000	0,050	0,289
-740,342	3,079	-0,274	-0,145
-739,327	-200,000	0,044	0,286
-738,312	251,481	-0,196	-0,243
-737,298	-200,000	0,031	0,150
-736,283	255,737	-0,168	-0,210
-735,269	800,000	0,101	0,231
-734,254	145,389	-0,242	-0,236
-733,239	-51,858	-0,220	0,074
-732,225	428,164	-0,158	-0,249
-731,210	-200,000	0,017	0,155
-730,196	-14,373	-0,161	-0,075
-729,181	-200,000	0,017	0,089
-728,167	-200,000	0,001	-0,103
-727,152	800,000	-0,066	-0,135
-726,137	-138,540	-0,102	0,008
-725,123	115,103	-0,048	-0,042
-724,108	23,655	0,064	-0,038
-723,094	43,988	-0,107	-0,072
-722,079	800,000	-0,037	0,082
-721,064	96,146	-0,062	-0,052
-720,050	393,677	-0,109	0,165
-719,035	422,597	0,057	0,089
-718,021	313,377	-0,083	-0,114
-717,006	101,718	-0,049	-0,042
-715,991	227,945	-0,043	-0,051
-714,977	-187,275	0,095	-0,001
-713,962	-122,686	0,039	0,005
-712,948	-200,000	0,018	0,114
-711,933	-200,000	-0,031	0,102
-710,918	-166,716	-0,105	0,003
-709,904	-200,000	0,001	-0,034
-708,889	-47,581	-0,126	0,044
-707,875	325,549	0,065	-0,091
-706,860	106,319	-0,068	-0,059
-705,845	198,274	0,029	-0,032
-704,831	747,465	0,054	0,107
-703,816	169,969	-0,091	0,095
-702,802	105,481	0,058	-0,050
-701,787	431,335	0,027	-0,043
-700,772	32,997	-0,086	0,054
-699,758	-155,236	-0,064	0,003
-698,743	329,836	0,060	-0,084
-697,729	-200,000	-0,021	0,080
-696,714	299,268	-0,080	0,108
-695,699	-194,606	-0,149	0,001
-694,685	-153,766	-0,087	-0,004
-693,670	-200,000	-0,005	-0,131
-692,656	-143,277	-0,071	-0,005
-691,641	414,199	-0,024	-0,037
-690,627	-105,018	0,099	0,016
-689,612	-200,000	-0,017	0,189
-688,597	615,003	-0,045	0,083
-687,583	-200,000	-0,018	-0,118
-686,568	-200,000	0,038	-0,133
-685,554	59,709	-0,064	0,046
-684,539	-150,864	0,085	0,005
-683,524	-200,000	-0,007	-0,026
-682,510	-200,000	0,011	-0,061
-681,495	366,911	0,021	0,031
-680,481	-151,054	-0,085	0,005
-679,466	-87,631	-0,047	-0,010
-678,451	800,000	0,052	-0,106
-677,437	-200,000	0,021	0,114
-676,422	-200,000	-0,047	0,167
-675,408	55,009	-0,062	-0,044
-674,393	63,907	-0,056	-0,041
-673,378	49,883	0,020	-0,014
-672,364	667,913	-0,060	0,113
-671,349	800,000	-0,065	-0,204
-670,335	-200,000	-0,003	0,067
-669,320	-200,000	0,034	0,124
-668,305	-80,395	-0,064	0,016
-667,291	534,390	-0,089	0,155
-666,276	800,000	0,048	-0,115
-665,262	552,748	0,024	-0,043
-664,247	-30,833	-0,104	-0,042
-663,232	16,471	0,068	0,039
-662,218	-143,023	-0,099	-0,007
-661,203	13,918	0,057	0,032
-660,189	187,201	0,005	0,006
-659,174	491,924	-0,043	-0,072
-658,159	-70,799	-0,099	-0,027
-657,145	-115,176	-0,101	-0,014
-656,130	123,829	0,077	-0,070
-655,116	-200,000	0,011	-0,080
-654,101	709,952	0,014	-0,028
-653,086	-200,000	0,010	-0,087
-652,072	125,054	0,083	-0,076
-651,057	800,000	-0,021	-0,053
-650,043	-38,860	0,129	-0,049
-649,028	268,688	-0,042	-0,054
-648,014	-200,000	0,004	-0,020
-646,999	-200,000	-0,025	0,135
-645,984	728,086	0,057	0,111
-644,970	-200,000	0,018	0,078
-643,955	125,572	-0,098	0,090
-642,941	-65,115	-0,152	-0,044
-641,926	18,879	-0,016	-0,009
-640,911	374,983	-0,049	0,072
-639,897	-200,000	-0,004	0,092
-638,882	-37,626	0,083	0,032
-637,868	-165,125	-0,266	0,008
-636,853	471,434	-0,125	-0,204
-635,838	800,000	0,047	-0,115
-634,824	-32,347	-0,136	0,055
-633,809	20,736	0,088	-0,052
-632,795	438,745	0,076	-0,120
-631,780	-59,077	0,096	0,030
-630,765	-83,922	-0,049	0,011
-629,751	-28,168	-0,171	-0,071
-628,736	205,509	-0,032	-0,036
-627,722	313,645	-0,009	-0,013
-626,707	-131,423	0,183	0,017
-625,692	-200,000	-0,039	-0,146
-624,678	-200,000	0,022	-0,111
-623,663	-200,000	-0,000	-0,066
-622,649	203,329	0,026	0,029
-621,634	-59,075	-0,037	0,011
-620,619	800,000	-0,027	-0,066
-619,605	-159,098	-0,055	-0,002
-618,590	118,915	0,123	0,110
-617,576	-50,250	-0,195	0,066
-616,561	50,387	0,090	0,061
-615,546	-200,000	0,006	0,087
-614,532	-200,000	-0,023	-0,172
-613,517	-133,922	-0,041	-0,004
-612,503	-200,000	0,024	-0,179
-611,488	113,568	0,043	0,038
-610,474	-200,000	0,005	-0,063
-609,459	234,730	0,041	0,049
-608,444	-36,111	-0,190	-0,074
-607,430	62,401	-0,137	-0,099
-606,415	103,409	0,053	-0,045
-605,401	-68,802	0,085	-0,024
-604,386	-89,701	-0,098	0,021
-603,371	-200,000	-0,009	0,114
-602,357	800,000	-0,002	0,004
-601,342	24,205	-0,084	0,050
-600,328	-200,000	-0,024	-0,077
-599,313	33,281	-0,149	0,093
-598,298	-200,000	-0,001	-0,023
-597,284	-200,000	-0,030	-0,250
-596,269	-126,496	-0,099	0,011
-595,255	-123,605	0,230	0,026
-594,240	-200,000	0,021	-0,154
-593,225	-200,000	0,000	0,005
-592,211	325,824	-0,089	-0,124
-591,196	-200,000	0,012	0,083
-590,182	-117,435	-0,102	0,013
-589,167	-200,000	0,001	0,009
-588,152	800,000	0,066	0,177
-587,138	800,000	-0,046	-0,134
-586,123	-63,978	-0,107	0,031
-585,109	57,269	-0,031	-0,022
-584,094	66,791	-0,053	-0,039
-583,079	-200,000	-0,023	-0,098
-582,065	-60,858	-0,074	0,023
-581,050	-200,000	0,018	-0,159
-580,036	133,442	0,102	-0,095
-579,021	800,000	0,045	-0,140
-578,006	800,000	-0,045	-0,137
-576,992	2,010	0,030	-0,015
-575,977	-182,225	0,096	0,001
-574,963	-200,000	-0,002	-0,042
-573,948	-96,516	-0,118	0,022
-572,934	249,549	-0,056	0,069
-571,919	-71,102	0,027	-0,007
-570,904	165,226	-0,078	-0,080
-569,890	-96,135	0,053	-0,010
-568,875	-16,923	-0,020	-0,009
-567,861	752,460	-0,045	0,088
-566,846	130,686	0,022	0,021
-565,831	-33,183	0,170	-0,068
-564,817	-117,267	-0,046	-0,006
-563,802	-49,428	-0,075	0,026
-562,788	43,556	0,067	-0,044
-561,773	-4,588	-0,057	-0,028
-560,758	-120,466	0,152	0,018
-559,744	-145,899	-0,102	0,006
-558,729	800,000	0,035	-0,079
-557,715	-84,784	-0,038	0,008
-556,700	-109,579	-0,143	-0,022
-555,685	800,000	0,062	0,146
-554,671	40,933	-0,107	-0,070
-553,656	-130,122	-0,074	-0,007
-552,642	800,000	-0,054	0,169
-551,627	571,287	0,039	0,069
-550,612	800,000	0,027	-0,072
-549,598	246,821	-0,076	0,093
-548,583	12,008	-0,061	0,034
-547,569	73,127	0,028	0,021
-546,554	233,721	0,060	-0,072
-545,539	-200,000	0,015	-0,050
-544,525	38,948	-0,062	-0,040
-543,510	-69,182	0,130	0,036
-542,496	-85,868	-0,027	-0,006
-541,481	35,446	-0,102	-0,064
-540,466	-168,901	0,031	0,001
-539,452	-41,428	0,106	0,039
-538,437	-118,979	0,050	-0,006
-537,423	-200,000	0,012	0,088
-536,408	312,135	-0,058	-0,079
-535,393	249,538	-0,061	-0,075
-534,379	-200,000	-0,013	-0,134
-533,364	81,924	0,075	-0,059
-532,350	-200,000	-0,008	0,071
-531,335	-200,000	0,040	0,171
-530,321	231,657	-0,050	0,059
-529,306	104,320	0,026	0,022
-528,291	-58,701	-0,077	0,024
-527,277	0,561	0,118	-0,061
-526,262	800,000	0,034	0,101
-525,248	800,000	-0,060	0,127
-524,233	-10,494	0,070	0,034
-523,218	420,259	-0,110	0,170
-522,204	115,592	-0,031	-0,027
-521,189	253,714	-0,040	-0,049
-520,175	-136,487	0,072	-0,006
-519,160	238,545	0,057	-0,068
-518,145	43,995	0,070	-0,046
-517,131	800,000	-0,041	0,126
-516,116	800,000	0,056	0,119
-515,102	-96,042	0,091	0,017
-514,087	296,417	-0,052	-0,070
-513,072	-130,896	0,047	0,005
-512,058	-200,000	-0,018	-0,175
-511,043	-76,518	0,063	-0,016
-510,029	800,000	0,055	0,135
-509,014	246,421	-0,049	0,060
-507,999	-32,846	-0,090	-0,036
-506,985	-200,000	0,012	-0,120
-505,970	-200,000	0,013	-0,093
-504,956	11,099	-0,074	-0,041
-503,941	800,000	0,038	0,082
-502,926	321,906	0,088	0,121
-501,912	257,929	0,062	0,077
-500,897	-28,227	-0,033	-0,014
-499,883	67,704	-0,150	0,111
-498,868	-200,000	-0,013	-0,147
-497,853	171,908	-0,034	-0,035
-496,839	42,391	-0,021	-0,014
-495,824	402,857	-0,094	-0,143
-494,810	-4,822	0,086	0,043
-493,795	77,517	0,114	0,088
-492,781	800,000	0,033	-0,088
-491,766	308,077	0,032	-0,044
-490,751	800,000	0,030	-0,062
-489,737	800,000	0,036	0,097
-488,722	-75,118	0,129	-0,033
-487,708	58,128	0,011	0,008
-486,693	-96,693	0,067	-0,013
-485,678	800,000	0,038	-0,121
-484,664	-200,000	-0,024	-0,228
-483,649	83,943	0,034	-0,027
-482,635	614,634	-0,056	-0,101
-481,620	3,781	0,064	0,034
-480,605	-53,178	-0,181	-0,060
-479,591	800,000	0,034	0,073
-478,576	8,874	-0,072	0,039
-477,562	96,886	-0,088	-0,073
-476,547	215,132	-0,059	0,067
-475,532	-110,968	0,155	0,023
-474,518	-183,965	-0,048	-0,001
-473,503	166,949	0,095	-0,097
-472,489	6,059	0,025	0,013
-471,474	129,923	-0,134	-0,124
-470,459	800,000	0,046	-0,129
-469,445	-13,717	0,096	-0,044
-468,430	298,829	0,064	0,085
-467,416	-12,303	0,061	0,028
-466,401	-200,000	0,004	0,027
-465,386	30,096	0,017	-0,011
-464,372	-200,000	-0,005	-0,028
-463,357	800,000	-0,057	0,118
-462,343	-200,000	-0,039	-0,129
-461,328	-89,015	0,037	-0,008
-460,313	209,481	0,117	0,132
-459,299	-200,000	-0,022	0,095
-458,284	-100,731	0,058	-0,010
-457,270	-200,000	-0,025	0,122
-456,255	-200,000	0,016	0,106
-455,241	147,056	-0,011	0,010
-454,226	9,928	-0,072	-0,039
-453,211	-200,000	0,017	-0,070
-452,197	-75,417	0,089	0,023
-451,182	463,042	0,090	-0,145
-450,168	-200,000	-0,001	0,013
-449,153	44,022	0,045	-0,030
-448,138	-79,184	-0,058	0,014
-447,124	119,617	-0,054	0,048
-446,109	206,212	0,020	-0,023
-445,095	-200,000	-0,009	-0,046
-444,080	-114,560	-0,100	-0,014
-443,065	73,462	0,139	0,105
-442,051	5,535	-0,116	0,061
-441,036	66,789	0,054	-0,039
-440,022	800,000	-0,040	-0,096
-439,007	387,051	-0,070	-0,105
-437,992	-200,000	0,008	-0,050
-436,978	-86,393	0,064	0,014
-435,963	-122,386	-0,084	-0,010
-434,949	-200,000	0,001	0,036
-433,934	800,000	0,017	0,050
-432,919	-59,937	-0,187	-0,057
-431,905	-105,379	-0,042	0,007
-430,890	352,795	-0,081	-0,116
-429,876	166,137	0,106	0,108
-428,861	-200,000	0,032	0,116
-427,846	76,131	-0,075	-0,057
-426,832	-200,000	0,001	-0,017
-425,817	429,136	-0,025	-0,039
-424,803	800,000	0,077	-0,192
-423,788	-26,832	-0,029	-0,012
-422,773	-200,000	-0,010	-0,143
-421,759	319,672	-0,048	0,065
-420,744	-92,043	-0,125	0,025
-419,730	-200,000	-0,006	0,033
-418,715	800,000	-0,034	-0,069
-417,701	224,444	0,012	-0,014
-416,686	-70,326	0,079	-0,021
-415,671	-128,150	-0,036	0,004
-414,657	417,652	0,055	0,085
-413,642	800,000	0,009	-0,022
-412,628	68,667	-0,035	0,025
-411,613	800,000	-0,014	-0,029
-410,598	-146,548	-0,089	0,005
-409,584	54,189	-0,066	0,045
-408,569	-160,064	0,156	0,006
-407,555	-82,861	0,155	0,036
-406,540	-79,523	-0,114	-0,027
-405,525	800,000	0,046	0,123
-404,511	-102,479	0,029	-0,005
-403,496	195,825	-0,028	0,031
-402,482	189,929	-0,083	-0,090
-401,467	223,930	-0,033	-0,038
-400,452	800,000	0,007	0,021
-399,438	215,480	0,011	-0,013
-398,423	-200,000	0,015	-0,132
-397,409	408,901	-0,120	-0,184
-396,394	-200,000	0,001	-0,010
-395,379	800,000	0,015	-0,043
-394,365	269,206	-0,020	0,025
-393,350	20,772	0,152	0,088
-392,336	509,035	0,067	0,112
-391,321	-63,292	-0,086	-0,025
-390,306	800,000	-0,015	-0,042
-389,292	-200,000	-0,010	-0,059
-388,277	800,000	-0,028	0,059
-387,263	41,782	0,044	0,029
-386,248	-129,425	0,118	0,012
-385,233	361,562	0,013	0,018
-384,219	-200,000	-0,027	-0,120
-383,204	800,000	-0,083	-0,217
-382,190	134,141	-0,094	-0,088
-381,175	-37,785	0,064	0,024
-380,160	-200,000	0,082	-0,000
-379,146	-200,000	0,014	0,091
-378,131	-200,000	0,010	0,182
-377,117	-200,000	-0,032	0,194
-376,102	-117,016	0,096	-0,012
-375,088	72,295	-0,014	-0,011
-374,073	-75,261	0,092	-0,023
-373,058	-200,000	-0,008	0,024
-372,044	493,128	0,133	0,220
-371,029	-133,900	0,092	-0,008
-370,015	-165,755	-0,108	-0,003
-369,000	-51,156	0,057	0,019
-367,985	-89,763	0,068	0,014
-366,971	606,574	-0,032	-0,058
-365,956	706,072	0,051	-0,097
-364,942	-200,000	0,032	0,174
-363,927	48,306	0,096	0,064
-362,912	135,102	0,022	0,020
-361,898	464,455	0,069	0,111
-360,883	53,194	0,052	-0,036
-359,869	143,325	0,085	0,081
-358,854	-200,000	0,018	-0,084
-357,839	-46,827	0,181	0,063
-356,825	-71,426	-0,010	0,003
-355,810	-34,069	-0,142	-0,056
-354,796	660,873	0,028	-0,052
-353,781	800,000	-0,030	-0,088
-352,766	503,638	0,059	-0,098
-351,752	-200,000	-0,002	0,165
-350,737	252,449	0,058	0,071
-349,723	800,000	0,019	0,053
-348,708	160,467	-0,115	0,115
-347,693	-9,193	0,092	-0,044
-346,679	-133,330	-0,098	-0,009
-345,664	800,000	0,056	-0,132
-344,650	125,015	0,128	-0,116
-343,635	193,356	-0,070	-0,076
-342,620	-160,266	0,129	-0,005
-341,606	277,149	0,050	0,064
-340,591	-68,910	-0,180	0,050
-339,577	62,379	-0,033	-0,024
-338,562	777,181	-0,032	-0,064
-337,548	90,031	0,100	-0,080
-336,533	245,667	0,060	0,072
-335,518	427,774	-0,051	-0,079
-334,504	-60,878	-0,102	0,031
-333,489	-200,000	-0,013	0,097
-332,475	17,501	-0,163	-0,092
-331,460	224,330	0,060	-0,069
-330,445	-124,874	0,101	0,011
-329,431	800,000	-0,044	-0,092
-328,416	264,863	0,073	0,091
-327,402	-12,571	-0,123	0,057
-326,387	248,590	0,085	-0,103
-325,372	58,591	0,012	-0,009
-324,358	611,593	0,076	-0,137
-323,343	-200,000	-0,018	-0,061
-322,329	70,216	0,128	-0,095
-321,314	78,524	0,124	0,095
-320,299	800,000	0,021	-0,060
-319,285	68,244	-0,066	0,049
-318,270	155,613	-0,019	0,018
-317,256	-43,523	-0,063	-0,023
-316,241	800,000	0,048	-0,100
-315,226	800,000	0,030	0,075
-314,212	800,000	0,027	0,057
-313,197	146,186	-0,074	-0,071
-312,183	57,218	0,078	0,054
-311,168	-101,113	0,117	-0,020
-310,153	243,372	-0,116	-0,140
-309,139	-65,391	-0,035	0,010
-308,124	340,771	0,047	0,065
-307,110	65,780	0,044	0,032
-306,095	-147,470	0,092	0,005
-305,080	593,893	0,039	-0,070
-304,066	91,013	0,029	0,024
-303,051	-200,000	-0,009	-0,061
-302,037	800,000	0,041	-0,089
-301,022	800,000	-0,037	0,092
-300,008	800,000	0,064	0,201
-298,993	-200,000	-0,023	0,091
-297,978	-112,366	0,031	0,004
-296,964	-145,268	-0,145	-0,009
-295,949	-82,767	-0,056	0,013
-294,935	214,367	-0,063	-0,071
-293,920	-200,000	0,006	0,129
-292,905	-176,126	-0,085	-0,002
-291,891	72,485	-0,011	0,008
-290,876	800,000	0,045	0,105
-289,862	-200,000	0,012	-0,080
-288,847	-145,718	-0,087	0,005
-287,832	-54,327	-0,099	-0,032
-286,818	-145,372	0,021	-0,001
-285,803	-118,819	0,089	-0,011
-284,789	-14,399	0,094	0,043
-283,774	-30,496	-0,021	-0,009
-282,759	800,000	-0,009	0,028
-281,745	24,866	-0,092	0,054
-280,730	800,000	-0,016	-0,041
-279,716	-47,485	0,097	-0,034
-278,701	33,497	0,038	0,024
-277,686	-200,000	-0,005	-0,043
-276,672	-94,593	0,062	0,012
-275,657	800,000	-0,020	0,041
-274,643	-200,000	-0,002	-0,103
-273,628	800,000	0,024	-0,068
-272,613	-200,000	-0,009	0,075
-271,599	137,028	-0,090	0,084
-270,584	-200,000	-0,019	0,115
-269,570	-78,787	0,049	0,012
-268,555	-166,047	-0,100	0,003
-267,540	-69,486	-0,133	-0,036
-266,526	-200,000	0,000	-0,042
-265,511	800,000	0,070	0,173
-264,497	-2,967	-0,062	-0,031
-263,482	800,000	0,029	0,075
-262,467	88,555	0,095	0,075
-261,453	286,862	0,109	0,141
-260,438	282,145	-0,067	-0,087
-259,424	800,000	0,008	-0,024
-258,409	-136,822	0,102	-0,008
-257,395	-200,000	-0,022	0,083
-256,380	-37,686	-0,088	0,033
-255,365	653,175	0,026	0,048
-254,351	-200,000	0,014	-0,123
-253,336	-139,732	-0,152	-0,011
-252,322	140,800	0,076	-0,072
-251,307	800,000	-0,012	0,035
-250,292	-200,000	-0,006	-0,025
-249,278	-110,740	-0,051	-0,007
-248,263	-200,000	0,035	0,174
-247,249	-200,000	-0,032	0,115
-246,234	-200,000	0,014	0,142
-245,219	87,194	-0,016	-0,013
-244,205	-31,581	0,117	-0,047
-243,190	109,072	0,041	-0,035
-242,176	800,000	0,051	0,139
-241,161	-120,624	0,076	-0,009
-240,146	-71,989	0,019	0,005
-239,132	142,664	0,020	0,019
-238,117	-186,359	-0,101	-0,001
-237,103	-200,000	0,006	0,114
-236,088	11,440	-0,032	-0,018
-235,073	126,116	0,088	-0,080
-234,059	-33,322	0,137	0,054
-233,044	-40,558	-0,109	0,040
-232,030	-200,000	0,011	-0,138
-231,015	-188,048	-0,052	-0,000
-230,000	-200,000	0,036	0,139
-228,986	-22,612	-0,076	-0,033
-227,971	-117,357	-0,067	-0,009
-226,957	-63,324	0,045	0,013
-225,942	-22,125	-0,101	0,044
-224,927	-55,656	-0,164	0,052
-223,913	-65,057	-0,108	0,031
-222,898	-121,042	-0,190	0,023
-221,884	-200,000	0,000	0,198
-220,869	800,000	0,033	0,074
-219,855	-200,000	-0,042	0,157
-218,840	-200,000	-0,002	0,091
-217,825	-200,000	-0,006	-0,031
-216,811	-200,000	-0,011	-0,078
-215,796	800,000	-0,087	-0,182
-214,782	183,387	0,058	-0,062
-213,767	160,331	0,023	0,023
-212,752	16,333	0,087	0,049
-211,738	35,176	0,083	0,052
-210,723	69,491	0,021	-0,015
-209,709	-200,000	0,008	-0,148
-208,694	-200,000	-0,020	0,088
-207,679	339,556	-0,037	-0,051
-206,665	-173,748	0,028	-0,001
-205,650	-4,839	0,072	0,035
-204,636	-81,721	0,088	0,020
-203,621	-200,000	0,040	0,164
-202,606	-135,498	0,157	0,013
-201,592	-64,712	-0,072	-0,021
-200,577	101,758	0,119	-0,099
-199,563	-200,000	0,023	-0,102
-198,548	532,660	-0,047	0,080
-197,533	800,000	-0,044	0,123
-196,519	-24,729	0,116	0,049
-195,504	-200,000	-0,026	0,097
-194,490	-200,000	-0,016	-0,061
-193,475	63,950	0,032	-0,023
-192,460	647,635	0,006	-0,012
-191,446	483,211	-0,070	0,114
-190,431	800,000	0,043	0,114
-189,417	-106,391	-0,071	-0,011
-188,402	-103,083	-0,032	-0,005
-187,387	-200,000	-0,005	-0,051
-186,373	-171,279	0,114	0,003
-185,358	-200,000	0,013	0,083
-184,344	318,881	0,006	0,008
-183,329	168,816	0,133	0,135
-182,315	-96,855	-0,079	0,015
-181,300	-9,368	-0,099	0,047
-180,285	-200,000	0,028	-0,110
-179,271	-200,000	-0,001	-0,111
-178,256	196,611	-0,091	-0,099
-177,242	333,782	-0,091	0,125
-176,227	151,230	0,067	0,065
-175,212	125,024	0,150	0,135
-174,198	569,852	-0,020	0,034
-173,183	-200,000	-0,007	-0,061
-172,169	-45,183	-0,073	-0,026
-171,154	135,905	-0,050	0,046
-170,139	-108,199	-0,043	-0,007
-169,125	800,000	0,028	-0,085
-168,110	-200,000	0,036	-0,129
-167,096	-200,000	0,020	-0,109
-166,081	53,018	0,043	-0,029
-165,066	-26,365	-0,055	-0,023
-164,052	-200,000	0,006	0,122
-163,037	-200,000	0,028	0,157
-162,023	-36,790	0,136	0,052
-161,008	800,000	0,015	-0,032
-159,993	800,000	-0,047	-0,107
-158,979	-200,000	0,009	-0,089
-157,964	-200,000	-0,044	0,164
-156,950	-200,000	0,010	0,067
-155,935	-200,000	0,000	0,022
-154,920	234,025	0,061	0,071
-153,906	-2,201	-0,118	-0,059
-152,891	793,051	0,039	-0,076
-151,877	325,048	0,092	-0,125
-150,862	800,000	-0,057	-0,158
-149,847	-200,000	0,020	-0,081
-148,833	800,000	-0,020	-0,057
-147,818	-113,036	0,095	0,013
-146,804	-57,474	-0,138	-0,043
-145,789	171,444	-0,100	0,102
-144,775	8,720	0,105	0,056
-143,760	396,441	0,017	-0,026
-142,745	-132,422	0,147	0,013
-141,731	-91,874	0,070	0,014
-140,716	-200,000	-0,039	0,154
-139,702	-58,381	-0,047	-0,015
-138,687	11,142	-0,058	0,031
-137,672	68,841	-0,037	-0,027
-136,658	800,000	-0,019	-0,046
-135,643	130,796	-0,111	-0,101
-134,629	-23,424	-0,101	-0,043
-133,614	-200,000	-0,035	0,113
-132,599	-9,193	0,024	-0,011
-131,585	800,000	0,018	0,042
-130,570	-200,000	0,010	0,062
-129,556	-115,801	-0,067	-0,009
-128,541	800,000	-0,044	-0,102
-127,526	-15,519	0,109	-0,049
-126,512	141,059	0,044	-0,041
-125,497	-122,468	0,121	-0,014
-124,483	800,000	0,021	-0,042
-123,468	800,000	-0,049	-0,105
-122,453	-200,000	0,030	-0,107
-121,439	282,920	-0,065	0,083
-120,424	-200,000	0,004	0,017
-119,410	-164,103	0,041	-0,001
-118,395	-200,000	0,014	0,066
-117,380	115,811	-0,042	0,037
-116,366	94,014	-0,017	0,013
-115,351	-126,978	-0,157	0,016
-114,337	-198,001	-0,200	0,001
-113,322	111,136	0,079	-0,068
-112,307	33,609	0,106	0,066
-111,293	-200,000	-0,025	0,141
-110,278	256,200	-0,014	0,017
-109,264	515,976	0,037	0,062
-108,249	-200,000	-0,011	-0,106
-107,234	-47,761	-0,051	-0,017
-106,220	69,681	0,092	0,067
-105,205	75,159	-0,135	0,101
-104,191	800,000	0,049	0,134
-103,176	-94,616	0,083	0,016
-102,162	-200,000	-0,000	-0,063
-101,147	49,711	0,095	-0,064
-100,132	144,279	-0,078	0,074
-99,118	800,000	-0,024	-0,054
-98,103	-65,735	-0,041	-0,012
-97,089	7,103	0,123	0,065
-96,074	-106,727	0,208	0,033
-95,059	-200,000	-0,018	0,142
-94,045	189,310	-0,053	0,056
-93,030	800,000	-0,055	0,117
-92,016	695,299	-0,038	0,071
-91,001	-31,554	0,037	-0,015
-89,986	-200,000	-0,017	-0,057
-88,972	-83,930	0,148	0,033
-87,957	800,000	-0,018	-0,047
-86,943	-5,002	-0,065	-0,032
-85,928	7,559	-0,097	-0,051
-84,913	-52,499	-0,087	0,028
-83,899	800,000	0,017	-0,035
-82,884	800,000	0,043	0,098
-81,870	-200,000	0,013	-0,046
-80,855	-26,495	0,056	0,023
-79,840	800,000	-0,030	0,087
-78,826	-200,000	0,014	-0,232
-77,811	26,056	-0,038	0,022
-76,797	800,000	0,033	-0,086
-75,782	-132,317	-0,078	0,007
-74,767	-7,592	0,064	0,031
-73,753	-120,664	0,058	-0,007
-72,738	-200,000	0,041	0,147
-71,724	800,000	0,007	0,016
-70,709	800,000	-0,046	-0,110
-69,694	81,053	0,072	-0,055
-68,680	317,394	0,066	-0,089
-67,665	150,705	0,068	-0,065
-66,651	-171,801	-0,174	0,004
-65,636	748,873	0,030	-0,057
-64,622	-128,432	-0,083	0,008
-63,607	39,911	0,115	0,073
-62,592	213,027	0,051	0,057
-61,578	-200,000	-0,015	0,111
-60,563	-200,000	0,014	0,075
-59,549	190,662	0,128	0,137
-58,534	-43,215	-1,531	-0,547
-57,519	348,223	-1,499	-2,102
-56,505	-200,000	-0,552	-4,520
-55,490	130,027	1,010	0,917
-54,476	800,000	4,807	11,229
-53,461	-200,000	18,030	284,825
-52,446	800,000	725,876	2223,297
-51,432	557,063	1640,951	2816,050
-50,417	79,657	1662,696	1264,690
-49,403	23,199	1536,563	892,559
-48,388	17,169	1460,047	818,921
-47,373	17,979	1449,795	817,038
-46,359	17,480	1440,256	809,242
-45,344	15,438	1435,604	796,853
-44,330	15,368	1433,540	795,345
-43,315	15,405	1431,785	794,512
-42,300	15,433	1430,135	793,701
-41,286	15,473	1429,046	793,254
-40,271	15,424	1427,894	792,349
-39,257	15,424	1426,491	791,538
-38,242	15,444	1425,317	790,954
-37,227	15,505	1423,828	790,384
-36,213	15,471	1422,680	789,554
-35,198	15,474	1421,596	788,934
-34,184	15,502	1420,631	788,498
-33,169	15,363	1419,621	787,252
-32,154	15,473	1418,434	787,080
-31,140	15,481	1417,013	786,300
-30,125	15,495	1415,738	785,628
-29,111	15,501	1414,807	785,106
-28,096	15,440	1413,643	784,146
-27,082	15,352	1412,720	783,188
-26,067	15,382	1411,443	782,589
-25,052	15,401	1410,449	782,094
-24,038	15,357	1409,473	781,320
-23,023	15,362	1408,315	780,667
-22,009	15,382	1407,373	780,210
-20,994	15,314	1406,596	779,428
-19,979	15,286	1405,606	778,720
-18,965	15,279	1404,712	778,161
-17,950	15,306	1403,795	777,745
-16,936	15,319	1402,668	777,152
-15,921	15,229	1401,720	776,174
-14,906	15,229	1400,627	775,541
-13,892	15,309	1399,634	775,331
-12,877	15,266	1398,955	774,723
-11,863	15,282	1397,846	774,152
-10,848	15,256	1397,007	773,537
-9,833	15,258	1396,009	772,966
-8,819	15,204	1395,076	772,165
-7,804	15,173	1394,349	771,591
-6,790	15,197	1393,272	771,073
-5,775	15,223	1391,931	770,422
-4,760	15,170	1391,404	769,854
-3,746	15,191	1390,564	769,459
-2,731	15,161	1389,681	768,800
-1,717	15,161	1388,714	768,234
-0,702	15,160	1386,864	767,174
0,313	18,994	1306,940	740,697
1,327	35,555	706,757	438,962
2,342	54,817	124,766	85,204
3,356	6,301	16,546	8,675
4,371	-0,393	3,099	1,555
5,386	-69,410	0,625	0,169
6,400	-200,000	0,011	0,205
7,415	800,000	-0,074	-0,189
8,429	167,098	-0,317	-0,319
9,444	152,233	-0,344	-0,332
10,459	7,314	-0,300	-0,158
11,473	-33,315	-0,343	-0,134
12,488	800,000	-0,166	-0,328
13,502	119,728	-0,197	-0,173
14,517	51,144	-0,320	-0,214
15,531	141,635	-0,340	-0,319
16,546	113,133	-0,424	-0,364
17,561	187,793	-0,271	-0,287
18,575	281,765	-0,186	-0,237
19,590	370,752	-0,163	-0,234
20,604	-51,307	-0,307	-0,101
21,619	-13,767	-0,434	-0,198
22,634	31,034	-0,471	-0,285
23,648	319,105	-0,274	-0,368
24,663	263,594	-0,302	-0,372
25,677	-8,814	-0,309	-0,146
26,692	168,301	-0,299	-0,302
27,707	43,202	-0,383	-0,247
28,721	28,142	-0,323	-0,192
29,736	48,399	-0,407	-0,269
30,750	178,465	-0,399	-0,412
31,765	109,543	-0,437	-0,370
32,780	147,583	-0,436	-0,415
33,794	204,745	-0,216	-0,237
34,809	33,626	-0,230	-0,141
35,823	0,424	-0,381	-0,191
36,838	71,466	-0,425	-0,311
37,853	108,503	-0,366	-0,309
38,867	35,864	-0,338	-0,209
39,882	7,454	-0,463	-0,244
40,896	62,522	-0,334	-0,235
41,911	-46,006	-0,336	-0,116
42,926	77,679	-0,410	-0,308
43,940	87,878	-0,312	-0,244
44,955	39,680	-0,390	-0,246
45,969	51,076	-0,444	-0,297
46,984	77,089	-0,347	-0,260
47,999	157,281	-0,242	-0,237
49,013	188,903	-0,331	-0,350
50,028	25,729	-0,377	-0,221
51,042	166,894	-0,340	-0,340
52,057	-49,718	-0,380	-0,127
53,071	0,009	-0,329	-0,165
54,086	204,532	-0,208	-0,228
55,101	71,173	-0,305	-0,223
56,115	20,960	-0,387	-0,221
57,130	-24,553	-0,337	-0,141
58,144	47,302	-0,424	-0,278
59,159	522,291	-0,224	-0,372
60,174	37,580	-0,351	-0,219
61,188	94,737	-0,367	-0,294
62,203	-39,904	-0,411	-0,150
63,217	37,206	-0,297	-0,185
64,232	37,229	-0,296	-0,184
65,247	-12,921	-0,398	-0,182
66,261	288,596	-0,294	-0,376
67,276	87,199	-0,314	-0,245
68,290	251,125	-0,223	-0,268
69,305	-31,821	-0,428	-0,168
70,320	0,364	-0,257	-0,129
71,334	3,515	-0,329	-0,168
72,349	97,220	-0,234	-0,189
73,363	-61,491	-0,519	-0,153
74,378	47,380	-0,343	-0,224
75,393	63,684	-0,402	-0,284
76,407	108,445	-0,228	-0,192
77,422	-29,686	-0,216	-0,086
78,436	59,997	-0,278	-0,193
79,451	-109,991	-0,307	-0,045
80,466	102,796	-0,264	-0,217
81,480	-15,985	-0,400	-0,178
82,495	25,078	-0,331	-0,193
83,509	52,677	-0,311	-0,209
84,524	159,482	-0,259	-0,253
85,539	-86,062	-0,280	-0,060
86,553	-38,177	-0,306	-0,114
87,568	138,242	-0,255	-0,236
88,582	19,961	-0,355	-0,201
89,597	126,910	-0,277	-0,247
90,611	36,752	-0,307	-0,190
91,626	117,445	-0,207	-0,179
92,641	-93,475	-0,305	-0,059
93,655	69,767	-0,209	-0,152
94,670	118,546	-0,219	-0,190
95,684	56,668	-0,346	-0,237
96,699	37,887	-0,171	-0,106
97,714	61,738	-0,183	-0,128
98,728	102,482	-0,246	-0,202
99,743	-97,612	-0,335	-0,061
100,757	-68,223	-0,316	-0,086
101,772	142,806	-0,244	-0,228
102,787	43,583	-0,395	-0,253
103,801	4,921	-0,355	-0,183
104,816	239,786	-0,244	-0,285
105,830	-20,914	-0,278	-0,119
106,845	106,916	-0,305	-0,254
107,860	-17,496	-0,401	-0,177
108,874	10,890	-0,312	-0,167
109,889	349,606	-0,255	-0,355
110,903	129,111	-0,226	-0,202
111,918	15,214	-0,423	-0,232
112,933	-91,174	-0,177	-0,035
113,947	-139,436	-0,232	-0,017
114,962	-28,583	-0,268	-0,108
115,976	-70,880	-0,326	-0,086
116,991	159,421	-0,238	-0,233
118,006	57,304	-0,229	-0,156
119,020	800,000	-0,093	-0,203
120,035	-37,687	-0,225	-0,084
121,049	43,081	-0,174	-0,111
122,064	-37,179	-0,338	-0,126
123,079	-124,107	-0,265	0,029
124,093	253,356	-0,182	-0,218
125,108	119,653	-0,279	-0,242
126,122	64,831	-0,178	-0,126
127,137	191,528	-0,197	-0,208
128,151	60,087	-0,175	-0,121
129,166	31,002	-0,322	-0,193
130,181	-15,108	-0,295	-0,132
131,195	63,221	-0,269	-0,189
132,210	10,068	-0,332	-0,176
133,224	-21,403	-0,277	-0,118
134,239	143,057	-0,185	-0,173
135,254	146,240	-0,236	-0,222
136,268	-70,119	-0,167	-0,044
137,283	-77,397	-0,222	-0,054
138,297	181,322	-0,168	-0,174
139,312	146,911	-0,228	-0,215
140,327	125,400	-0,223	-0,197
141,341	55,363	-0,219	-0,148
142,356	500,063	-0,212	-0,343
143,370	-60,154	-0,284	0,084
144,385	24,419	-0,331	-0,191
145,400	33,941	-0,265	-0,161
146,414	-86,003	-0,211	-0,045
147,429	124,339	-0,256	-0,225
148,443	40,996	-0,152	-0,096
149,458	-106,139	-0,227	-0,035
150,473	-93,193	-0,266	-0,051
151,487	44,250	-0,233	-0,149
152,502	237,118	-0,210	-0,243
153,516	28,432	-0,227	-0,134
154,531	155,564	-0,214	-0,206
155,546	6,775	-0,205	-0,106
156,560	154,012	-0,166	-0,159
157,575	133,757	-0,214	-0,193
158,589	-63,584	-0,286	-0,082
159,604	24,027	-0,222	-0,127
160,619	96,222	-0,285	-0,228
161,633	505,994	-0,127	-0,206
162,648	243,545	-0,232	-0,273
163,662	-16,289	-0,186	-0,082
164,677	34,606	-0,202	-0,123
165,692	-112,016	-0,176	0,024
166,706	800,000	-0,108	-0,245
167,721	-21,231	-0,244	-0,104
168,735	180,552	-0,219	-0,225
169,750	256,730	-0,178	-0,214
170,764	196,982	-0,239	-0,254
171,779	-69,358	-0,360	-0,096
172,794	716,024	-0,107	-0,199
173,808	640,418	-0,108	-0,193
174,823	7,664	-0,236	-0,123
175,837	58,009	-0,230	-0,157
176,852	-49,294	-0,335	-0,111
177,867	42,037	-0,273	-0,172
178,881	-51,906	-0,188	-0,061
179,896	41,817	-0,252	-0,159
180,910	-120,211	-0,369	-0,043
181,925	-140,883	-0,367	-0,026
182,940	18,840	-0,390	-0,217
183,954	21,601	-0,299	-0,169
184,969	206,591	-0,145	-0,158
185,983	-71,634	-0,195	-0,050
186,998	6,655	-0,190	-0,098
188,013	-66,771	-0,096	-0,026
189,027	139,607	-0,125	-0,115
190,042	-29,591	-0,249	-0,099
191,056	800,000	-0,101	-0,241
192,071	538,929	-0,133	-0,221
193,086	276,768	-0,116	-0,144
194,100	29,773	-0,220	-0,130
195,115	25,775	-0,218	-0,126
196,129	-28,624	-0,211	-0,084
197,144	62,574	-0,110	-0,077
198,159	220,827	-0,181	-0,203
199,173	158,245	-0,187	-0,181
200,188	490,301	-0,104	-0,166
201,202	409,596	-0,102	-0,151
202,217	342,959	-0,081	-0,111
203,232	-69,735	-0,247	-0,065
204,246	703,644	-0,129	-0,238
205,261	211,142	-0,243	-0,267
206,275	373,947	-0,121	-0,172
207,290	800,000	-0,132	-0,261
208,304	215,172	-0,163	-0,180
209,319	0,212	-0,203	-0,100
210,334	-135,065	-0,207	-0,017
211,348	630,017	-0,134	-0,236
212,363	281,698	-0,173	-0,216
213,377	28,248	-0,149	-0,088
214,392	401,979	-0,157	-0,230
215,407	179,876	-0,145	-0,148
216,421	68,300	-0,185	-0,132
217,436	211,050	-0,149	-0,163
218,450	115,209	-0,235	-0,200
219,465	-200,000	-0,086	-0,275
220,480	793,461	-0,108	-0,208
221,494	-200,000	-0,022	-0,238
222,509	696,903	-0,124	-0,227
223,523	134,840	-0,200	-0,180
224,538	213,684	-0,143	-0,157
225,553	800,000	-0,142	-0,309
226,567	103,640	-0,208	-0,169
227,582	132,809	-0,143	-0,128
228,596	15,928	-0,196	-0,107
229,611	301,010	-0,154	-0,198
230,626	187,166	-0,106	-0,109
231,640	-36,882	-0,260	-0,096
232,655	16,486	-0,057	0,031
233,669	141,801	-0,220	-0,203
234,684	-15,459	-0,189	-0,083
235,699	48,706	-0,208	-0,135
236,713	129,992	-0,144	-0,128
237,728	268,525	-0,082	-0,100
238,742	-98,530	-0,247	-0,043
239,757	528,833	-0,146	-0,241
240,772	267,014	-0,163	-0,198
241,786	-200,000	0,007	-0,149
242,801	238,206	-0,143	-0,165
243,815	78,488	-0,232	-0,172
244,830	-14,079	-0,154	-0,069
245,844	-159,239	-0,246	-0,009
246,859	-4,758	-0,223	-0,106
247,874	150,823	-0,240	-0,227
248,888	245,456	-0,150	-0,176
249,903	243,219	-0,175	-0,203
250,917	34,942	-0,256	-0,155
251,932	-68,983	-0,204	-0,054
252,947	58,032	-0,091	-0,061
253,961	89,206	-0,186	-0,144
254,976	203,489	-0,139	-0,149
255,990	606,697	-0,125	-0,217
257,005	189,986	-0,128	-0,134
258,020	-21,232	-0,211	-0,089
259,034	-21,706	-0,110	-0,046
260,049	5,767	-0,132	-0,068
261,063	-60,245	-0,214	-0,063
262,078	182,969	-0,207	-0,211
263,093	152,268	-0,163	-0,154
264,107	-136,221	-0,159	-0,013
265,122	-114,953	-0,087	-0,011
266,136	-60,183	-0,216	-0,063
267,151	-78,584	-0,029	0,007
268,166	-5,698	-0,214	-0,101
269,180	614,896	-0,149	-0,259
270,195	-25,927	-0,270	-0,109
271,209	5,533	-0,157	-0,080
272,224	-83,422	-0,114	-0,025
273,239	-200,000	-0,021	-0,110
274,253	155,952	-0,123	-0,118
275,268	-177,781	-0,143	0,002
276,282	433,954	-0,209	-0,315
277,297	444,133	-0,166	-0,252
278,312	-69,037	-0,238	-0,063
279,326	627,439	-0,119	-0,209
280,341	-98,947	-0,227	-0,039
281,355	54,870	-0,133	-0,089
282,370	-36,571	-0,224	-0,083
283,384	378,013	-0,086	-0,122
284,399	-28,384	-0,271	-0,107
285,414	331,906	-0,155	-0,207
286,428	-200,000	-0,051	-0,181
287,443	130,353	-0,154	-0,137
288,457	-78,918	-0,217	-0,051
289,472	-103,234	-0,207	0,033
290,487	208,074	-0,078	-0,084
291,501	57,689	-0,251	-0,170
292,516	17,475	-0,132	-0,072
293,530	131,513	-0,121	-0,108
294,545	130,622	-0,203	-0,180
295,560	-103,309	-0,267	-0,043
296,574	45,112	-0,188	-0,119
297,589	12,896	-0,207	-0,110
298,603	84,484	-0,145	-0,109
299,618	-200,000	-0,014	-0,067
300,633	800,000	-0,104	-0,231
301,647	74,529	-0,113	-0,082
302,662	-117,316	-0,172	0,021
303,676	-39,722	-0,190	-0,068
304,691	-72,972	-0,283	-0,071
305,706	41,009	-0,301	-0,187
306,720	-200,000	-0,017	-0,179
307,735	-25,552	-0,189	-0,077
308,749	573,693	-0,164	-0,278
309,764	30,806	-0,133	-0,078
310,779	-4,102	-0,118	-0,056
311,793	-97,059	-0,130	0,023
312,808	-31,725	-0,129	-0,050
313,822	-69,375	-0,273	-0,072
314,837	56,618	-0,210	-0,141
315,852	206,946	-0,094	-0,101
316,866	-200,000	0,000	-0,046
317,881	-32,991	-0,220	-0,084
318,895	282,055	-0,042	-0,052
319,910	32,886	-0,175	-0,104
320,925	-43,098	-0,259	-0,090
321,939	23,364	-0,168	-0,095
322,954	-3,379	-0,143	-0,068
323,968	-22,876	-0,134	-0,056
324,983	-200,000	-0,078	-0,247
325,997	111,552	-0,076	0,063
327,012	421,024	-0,124	-0,184
328,027	-73,585	-0,195	-0,049
329,041	148,839	-0,161	-0,150
330,056	800,000	0,053	-0,135
331,070	32,718	-0,042	-0,025
332,085	276,985	-0,138	-0,170
333,100	157,964	-0,095	-0,091
334,114	569,607	-0,101	-0,170
335,129	-98,562	-0,157	-0,027
336,143	134,990	-0,136	-0,121
337,158	-99,901	-0,057	-0,010
338,173	800,000	-0,073	-0,149
339,187	-73,308	-0,109	0,027
340,202	51,899	-0,127	-0,083
341,216	235,742	-0,115	-0,131
342,231	54,733	-0,276	-0,183
343,246	183,450	-0,210	-0,214
344,260	-152,912	-0,207	0,010
345,275	-52,052	-0,143	0,045
346,289	130,472	-0,066	-0,058
347,304	-8,776	-0,047	-0,021
348,319	-102,008	-0,247	-0,041
349,333	-135,371	-0,223	0,018
350,348	-200,000	-0,039	-0,152
351,362	511,403	-0,087	-0,140
352,377	-15,064	-0,186	0,082
353,392	185,886	-0,112	-0,114
354,406	-135,831	-0,169	0,014
355,421	209,004	1312,361	1413,574
356,435	160,842	1472,830	1414,101
