DTS Sentinel unit serial number:	SN410029Multiplexer serial number:	ORYXHardware model number:	OX2-SRSoftware version number:	ORYX F/W v4,00 Oryx Data Collector v3.7.2.0data status	okinstallation	B3 Nyhavnadifferential loss correction	single-endedforward channel	channel 1reverse channel	N/Adate	2023/12/03time	07:32:30forward acquisition time	300,00reverse acquisition time	0,00gamma	499,1914k internal	0,3201k external	0,3201temperature offset calibration	1,0000default loss term (dB/km)	0,3820temperature slope calibration	1,0000multiplexer offset coefficient	1,0000multiplexer slope coefficient	1,0000fibre end	0,00T internal ref (°C)	13,31T ext. ref 1 (°C)	-1,69T ext. ref 2 (°C)	-1,69length (m)	temperature (°C)	Stokes	anti-Stokes-744,400	473,815	-0,121	-0,199
-743,385	162,958	0,125	0,128
-742,371	800,000	-0,123	-0,307
-741,356	-200,000	0,015	0,361
-740,342	159,966	-0,198	-0,201
-739,327	-200,000	0,055	0,205
-738,312	169,135	-0,151	-0,157
-737,298	-200,000	0,045	0,307
-736,283	271,789	-0,132	-0,170
-735,269	-200,000	-0,050	0,264
-734,254	348,297	-0,139	-0,200
-733,239	178,055	-0,181	0,193
-732,225	-200,000	-0,016	-0,261
-731,210	-200,000	0,009	0,042
-730,196	613,786	-0,024	-0,043
-729,181	-200,000	-0,009	-0,029
-728,167	-200,000	0,001	0,034
-727,152	-200,000	-0,020	-0,083
-726,137	-64,583	-0,244	-0,072
-725,123	392,670	-0,053	-0,080
-724,108	-41,237	-0,079	-0,029
-723,094	-91,552	-0,125	-0,026
-722,079	55,851	-0,061	0,043
-721,064	28,333	0,162	0,099
-720,050	-46,137	-0,005	0,002
-719,035	-34,854	0,113	0,045
-718,021	282,658	-0,056	-0,073
-717,006	-52,364	-0,173	-0,058
-715,991	15,283	-0,067	-0,038
-714,977	411,091	-0,071	-0,109
-713,962	-200,000	-0,002	-0,038
-712,948	-145,461	-0,082	0,005
-711,933	-200,000	-0,000	-0,089
-710,918	216,790	0,085	-0,099
-709,904	-137,943	-0,155	-0,012
-708,889	-200,000	-0,006	-0,114
-707,875	93,630	-0,140	-0,115
-706,860	183,135	-0,084	-0,090
-705,845	253,629	0,037	-0,046
-704,831	-89,955	-0,053	0,011
-703,816	-200,000	0,003	0,111
-702,802	210,995	0,103	-0,118
-701,787	-200,000	-0,043	-0,193
-700,772	165,045	-0,081	0,083
-699,758	-200,000	-0,022	0,122
-698,743	-200,000	0,015	0,101
-697,729	-200,000	-0,011	0,124
-696,714	107,868	0,063	0,054
-695,699	-200,000	-0,006	-0,039
-694,685	60,211	-0,172	-0,123
-693,670	-116,699	0,026	0,003
-692,656	264,203	0,056	-0,071
-691,641	-200,000	0,041	0,145
-690,627	800,000	0,018	-0,043
-689,612	269,700	0,064	0,082
-688,597	-106,455	-0,174	-0,028
-687,583	800,000	0,028	-0,060
-686,568	204,701	-0,086	-0,097
-685,554	411,392	-0,076	-0,117
-684,539	800,000	0,050	0,136
-683,524	800,000	0,004	-0,011
-682,510	-72,526	0,115	0,031
-681,495	-151,345	0,021	0,001
-680,481	-22,091	-0,100	-0,044
-679,466	800,000	-0,056	-0,129
-678,451	800,000	-0,060	-0,181
-677,437	-200,000	0,026	-0,105
-676,422	-200,000	0,011	0,059
-675,408	-200,000	0,021	0,274
-674,393	433,385	0,041	0,066
-673,378	61,587	-0,036	0,026
-672,364	-114,210	-0,225	0,031
-671,349	191,800	-0,090	-0,099
-670,335	87,691	-0,092	-0,074
-669,320	424,791	-0,061	0,096
-668,305	-169,479	0,106	-0,003
-667,291	-44,036	-0,152	0,055
-666,276	100,844	-0,079	-0,067
-665,262	-146,862	-0,030	-0,002
-664,247	-46,042	-0,034	-0,012
-663,232	-61,072	-0,058	0,018
-662,218	-174,977	-0,058	0,001
-661,203	371,096	-0,025	-0,037
-660,189	-173,862	0,044	0,001
-659,174	800,000	0,019	-0,047
-658,159	289,297	-0,066	-0,087
-657,145	800,000	0,017	0,039
-656,130	59,438	0,036	-0,026
-655,116	-163,890	0,082	0,003
-654,101	292,127	0,042	0,056
-653,086	-118,478	-0,054	-0,007
-652,072	-16,791	-0,056	-0,026
-651,057	-146,055	-0,125	0,008
-650,043	-200,000	0,002	0,014
-649,028	-96,892	0,106	0,020
-648,014	-200,000	-0,058	-0,193
-646,999	-69,641	0,055	0,015
-645,984	-113,002	-0,087	0,012
-644,970	800,000	-0,032	-0,083
-643,955	-12,494	0,090	0,042
-642,941	287,062	0,077	-0,101
-641,926	-200,000	-0,003	-0,039
-640,911	800,000	-0,066	0,164
-639,897	-37,716	0,074	0,028
-638,882	800,000	-0,017	-0,041
-637,868	800,000	-0,031	-0,081
-636,853	-9,860	-0,054	0,026
-635,838	-77,141	-0,026	0,006
-634,824	158,300	-0,040	0,040
-633,809	-200,000	0,013	0,101
-632,795	322,294	-0,045	-0,062
-631,780	-31,112	0,187	0,076
-630,765	800,000	0,049	0,102
-629,751	218,703	-0,085	-0,098
-628,736	-200,000	-0,006	-0,027
-627,722	109,222	0,029	0,025
-626,707	151,610	0,014	0,014
-625,692	-200,000	-0,007	-0,056
-624,678	78,844	0,042	0,032
-623,663	0,207	0,086	0,044
-622,649	-200,000	-0,005	-0,028
-621,634	-72,124	0,141	-0,038
-620,619	111,534	0,065	-0,056
-619,605	-11,398	0,040	0,019
-618,590	717,985	0,026	0,050
-617,576	173,359	-0,043	0,044
-616,561	89,783	0,081	-0,065
-615,546	-200,000	0,007	-0,026
-614,532	-200,000	0,013	-0,053
-613,517	527,737	0,022	-0,038
-612,503	-200,000	0,021	0,098
-611,488	-5,278	0,027	-0,013
-610,474	800,000	0,026	0,083
-609,459	800,000	-0,059	-0,129
-608,444	28,462	0,055	0,034
-607,430	-200,000	-0,016	-0,074
-606,415	-200,000	0,032	-0,131
-605,401	579,395	-0,049	0,087
-604,386	205,512	-0,055	-0,062
-603,371	412,001	-0,026	-0,040
-602,357	-76,540	-0,067	-0,017
-601,342	-200,000	0,007	-0,120
-600,328	-200,000	-0,003	-0,075
-599,313	127,988	-0,134	-0,124
-598,298	232,334	-0,037	0,044
-597,284	790,309	-0,046	0,092
-596,269	-200,000	0,007	0,124
-595,255	243,548	-0,072	-0,088
-594,240	31,151	-0,022	0,014
-593,225	-35,281	0,033	-0,013
-592,211	-200,000	-0,001	0,011
-591,196	-200,000	-0,031	-0,144
-590,182	-36,427	0,088	0,034
-589,167	-200,000	0,010	-0,107
-588,152	-48,554	0,069	-0,024
-587,138	138,296	-0,008	-0,007
-586,123	800,000	-0,061	-0,136
-585,109	0,106	-0,208	0,107
-584,094	800,000	-0,030	0,076
-583,079	76,211	0,031	-0,024
-582,065	439,950	-0,018	0,028
-581,050	-87,384	-0,044	0,010
-580,036	800,000	-0,010	-0,023
-579,021	132,549	-0,111	-0,103
-578,006	355,500	0,039	-0,056
-576,992	226,671	-0,064	-0,076
-575,977	-171,336	0,164	-0,004
-574,963	654,805	-0,047	0,087
-573,948	115,095	-0,048	0,042
-572,934	19,504	-0,094	-0,055
-571,919	-105,958	0,157	-0,025
-570,904	90,376	-0,011	0,009
-569,890	-97,888	-0,072	-0,013
-568,875	-200,000	0,001	-0,140
-567,861	-200,000	-0,038	0,210
-566,846	345,301	-0,029	0,041
-565,831	-200,000	0,027	0,103
-564,817	-32,503	-0,073	0,029
-563,802	-200,000	-0,044	-0,219
-562,788	800,000	-0,080	-0,186
-561,773	126,001	0,066	-0,060
-560,758	-200,000	-0,006	-0,023
-559,744	-30,214	0,079	-0,032
-558,729	790,428	-0,025	0,050
-557,715	-200,000	-0,029	0,212
-556,700	14,896	-0,155	-0,087
-555,685	306,176	0,058	-0,078
-554,671	800,000	-0,047	-0,103
-553,656	124,517	-0,058	-0,053
-552,642	70,910	-0,067	0,050
-551,627	-200,000	0,027	0,089
-550,612	79,730	-0,130	-0,100
-549,598	603,574	-0,063	-0,113
-548,583	10,193	-0,069	0,038
-547,569	16,139	0,128	0,072
-546,554	52,886	0,160	0,110
-545,539	-200,000	-0,026	0,100
-544,525	-200,000	0,036	0,234
-543,510	-200,000	-0,002	0,013
-542,496	-30,983	0,169	-0,068
-541,481	171,111	0,043	-0,044
-540,466	-60,401	-0,051	0,016
-539,452	206,991	0,062	0,070
-538,437	-200,000	0,007	0,074
-537,423	22,825	-0,020	-0,012
-536,408	-200,000	0,007	-0,161
-535,393	-200,000	0,011	-0,119
-534,379	-141,409	-0,121	-0,009
-533,364	556,241	-0,049	-0,085
-532,350	119,040	0,060	-0,054
-531,335	-141,106	0,097	0,007
-530,321	-50,260	-0,142	0,048
-529,306	800,000	-0,036	0,087
-528,291	-200,000	0,014	-0,126
-527,277	800,000	0,019	-0,060
-526,262	766,648	0,023	0,045
-525,248	-67,250	-0,045	0,013
-524,233	-99,236	0,172	0,031
-523,218	-117,532	0,111	-0,014
-522,204	800,000	-0,050	-0,111
-521,189	-104,722	-0,231	-0,038
-520,175	584,075	-0,042	-0,074
-519,160	800,000	0,030	0,086
-518,145	-200,000	-0,051	0,182
-517,131	-21,716	-0,142	0,062
-516,116	748,979	0,088	0,171
-515,102	-34,969	0,012	0,005
-514,087	667,873	-0,061	-0,113
-513,072	-18,005	-0,162	0,073
-512,058	678,121	-0,034	-0,064
-511,043	496,284	0,027	0,045
-510,029	412,740	0,054	-0,083
-509,014	216,986	0,026	-0,030
-507,999	277,746	0,048	0,061
-506,985	-36,213	-0,098	-0,038
-505,970	12,769	0,109	0,061
-504,956	34,777	0,094	-0,059
-503,941	5,283	-0,152	0,080
-502,926	374,090	-0,085	-0,125
-501,912	783,464	0,028	0,055
-500,897	-179,794	0,030	0,000
-499,883	-14,461	0,042	0,019
-498,868	15,320	-0,025	-0,014
-497,853	-59,976	0,133	-0,041
-496,839	206,107	0,050	0,056
-495,824	-200,000	0,011	0,064
-494,810	-126,924	0,175	-0,018
-493,795	129,367	0,069	0,064
-492,781	-145,666	0,051	0,003
-491,766	224,348	0,065	-0,076
-490,751	448,289	-0,029	-0,046
-489,737	-190,107	-0,102	-0,001
-488,722	396,514	0,068	0,103
-487,708	176,886	-0,043	-0,045
-486,693	223,928	0,046	-0,054
-485,678	-109,610	0,075	0,011
-484,664	23,706	-0,086	0,051
-483,649	653,153	-0,049	0,091
-482,635	-200,000	-0,007	-0,032
-481,620	93,347	0,045	0,037
-480,605	-61,443	-0,076	0,023
-479,591	138,005	0,056	0,053
-478,576	-200,000	-0,013	0,096
-477,562	-26,958	-0,018	0,007
-476,547	146,488	0,121	-0,117
-475,532	118,538	0,054	-0,048
-474,518	252,625	0,027	0,033
-473,503	379,125	-0,017	0,025
-472,489	64,059	0,041	0,030
-471,474	-56,035	-0,133	-0,042
-470,459	-71,794	-0,198	-0,053
-469,445	-200,000	0,031	0,199
-468,430	-101,774	-0,060	0,010
-467,416	-90,572	-0,065	0,013
-466,401	667,092	0,029	-0,055
-465,386	800,000	0,064	-0,140
-464,372	28,417	-0,010	0,006
-463,357	146,991	0,053	-0,051
-462,343	-200,000	-0,008	0,037
-461,328	3,573	-0,047	-0,024
-460,313	-200,000	0,012	-0,109
-459,299	-93,577	0,044	-0,009
-458,284	-200,000	-0,004	0,028
-457,270	-32,620	0,146	-0,058
-456,255	-200,000	0,001	-0,022
-455,241	-182,727	0,131	-0,002
-454,226	-118,801	-0,129	-0,016
-453,211	476,027	0,101	-0,165
-452,197	188,338	0,065	-0,070
-451,182	-200,000	-0,004	0,051
-450,168	-142,095	0,020	0,001
-449,153	129,259	-0,026	0,024
-448,138	-75,430	-0,047	-0,012
-447,124	-28,981	-0,184	-0,076
-446,109	-200,000	0,023	-0,132
-445,095	-200,000	-0,012	-0,047
-444,080	314,121	-0,048	0,065
-443,065	244,140	0,077	0,093
-442,051	127,723	-0,129	0,118
-441,036	800,000	0,021	-0,061
-440,022	-26,482	-0,021	-0,009
-439,007	367,790	0,130	-0,189
-437,992	-200,000	0,002	0,049
-436,978	-193,870	-0,044	-0,000
-435,963	7,861	-0,117	0,063
-434,949	28,748	0,046	0,028
-433,934	-89,887	-0,115	0,024
-432,919	-71,003	-0,078	-0,021
-431,905	750,978	-0,020	-0,039
-430,890	-11,834	-0,098	-0,046
-429,876	-200,000	0,021	-0,070
-428,861	51,359	-0,124	0,085
-427,846	-200,000	-0,028	-0,097
-426,832	382,626	-0,020	0,029
-425,817	253,612	-0,082	-0,101
-424,803	80,033	0,022	-0,017
-423,788	92,602	-0,090	-0,073
-422,773	800,000	0,035	0,071
-421,759	-200,000	-0,019	0,102
-420,744	-94,266	-0,166	-0,032
-419,730	-200,000	0,136	0,000
-418,715	-95,742	-0,081	-0,015
-417,701	-151,169	-0,128	-0,007
-416,686	232,184	0,168	-0,199
-415,671	81,873	0,142	0,111
-414,657	-140,681	0,060	0,004
-413,642	-49,853	0,069	-0,023
-412,628	60,527	-0,094	0,067
-411,613	-0,609	-0,039	-0,020
-410,598	800,000	-0,020	0,055
-409,584	77,139	-0,151	0,115
-408,569	-49,141	-0,032	-0,011
-407,555	75,729	-0,080	0,061
-406,540	-200,000	-0,004	0,108
-405,525	223,049	-0,062	-0,071
-404,511	-200,000	-0,020	-0,098
-403,496	-27,006	-0,163	-0,068
-402,482	198,377	-0,060	-0,066
-401,467	-200,000	0,012	-0,070
-400,452	62,375	0,065	0,046
-399,438	609,519	-0,023	-0,042
-398,423	73,267	-0,087	0,065
-397,409	329,379	-0,043	-0,059
-396,394	412,667	0,095	0,145
-395,379	-200,000	-0,005	0,025
-394,365	94,131	0,026	0,021
-393,350	52,682	0,058	0,040
-392,336	106,065	0,093	0,079
-391,321	56,773	0,052	-0,037
-390,306	131,120	-0,097	-0,089
-389,292	800,000	-0,011	-0,026
-388,277	593,646	0,014	-0,025
-387,263	-162,284	0,133	0,005
-386,248	-200,000	0,015	-0,050
-385,233	8,538	0,079	0,042
-384,219	800,000	-0,029	-0,084
-383,204	441,102	-0,042	-0,067
-382,190	55,947	0,102	-0,071
-381,175	-200,000	-0,004	0,027
-380,160	292,936	-0,032	0,042
-379,146	800,000	-0,033	0,085
-378,131	60,453	0,113	0,080
-377,117	93,166	0,032	-0,026
-376,102	-200,000	0,002	-0,088
-375,088	-200,000	-0,004	0,151
-374,073	-7,667	-0,086	-0,041
-373,058	109,344	0,034	0,029
-372,044	-200,000	-0,020	0,229
-371,029	800,000	0,017	-0,043
-370,015	-200,000	-0,032	-0,115
-369,000	-200,000	0,017	0,099
-367,985	-153,835	-0,102	0,005
-366,971	-129,150	-0,078	0,008
-365,956	-9,724	0,075	0,035
-364,942	106,596	0,044	-0,037
-363,927	-2,821	0,170	0,085
-362,912	432,887	-0,057	0,088
-361,898	-107,993	0,066	0,010
-360,883	800,000	-0,044	-0,119
-359,869	25,445	-0,135	0,080
-358,854	-74,802	0,075	0,019
-357,839	237,912	-0,086	0,102
-356,825	-200,000	0,011	0,074
-355,810	800,000	0,036	0,101
-354,796	-19,652	-0,126	-0,055
-353,781	22,370	-0,114	-0,066
-352,766	61,188	-0,073	-0,052
-351,752	-34,612	0,098	-0,038
-350,737	800,000	-0,023	-0,046
-349,723	276,462	-0,050	0,064
-348,708	747,306	0,035	-0,067
-347,693	13,878	-0,054	-0,030
-346,679	-200,000	-0,020	-0,112
-345,664	22,075	0,074	-0,043
-344,650	-128,235	0,033	-0,003
-343,635	-90,087	0,035	-0,007
-342,620	75,658	0,107	0,081
-341,606	-85,666	-0,060	0,013
-340,591	-72,080	0,081	0,021
-339,577	466,790	-0,043	-0,069
-338,562	-61,115	-0,083	-0,025
-337,548	491,159	-0,015	-0,024
-336,533	-200,000	0,012	0,045
-335,518	202,764	0,116	0,128
-334,504	78,965	-0,073	0,056
-333,489	800,000	-0,034	-0,092
-332,475	-200,000	-0,000	0,052
-331,460	478,784	0,104	-0,170
-330,445	-130,524	0,069	-0,007
-329,431	583,566	0,018	0,033
-328,416	-176,014	0,133	-0,002
-327,402	800,000	0,054	0,167
-326,387	-200,000	-0,004	0,061
-325,372	-200,000	0,002	0,077
-324,358	-88,987	-0,054	-0,011
-323,343	-200,000	-0,005	0,071
-322,329	-200,000	0,015	0,119
-321,314	224,310	0,096	0,111
-320,299	33,882	-0,055	0,034
-319,285	435,332	-0,052	0,082
-318,270	674,333	-0,036	0,067
-317,256	-200,000	0,068	0,000
-316,241	-118,314	-0,081	0,010
-315,226	800,000	-0,023	0,061
-314,212	-111,517	0,122	0,018
-313,197	55,794	-0,048	-0,033
-312,183	-53,633	0,133	0,043
-311,168	49,621	-0,019	-0,013
-310,153	-31,693	-0,023	0,009
-309,139	140,936	0,040	0,038
-308,124	104,641	0,029	-0,024
-307,110	800,000	0,012	0,027
-306,095	-36,920	0,122	0,047
-305,080	358,024	-0,082	0,117
-304,066	-200,000	0,001	0,069
-303,051	-200,000	0,001	0,156
-302,037	800,000	-0,014	-0,036
-301,022	-78,756	-0,175	-0,042
-300,008	66,990	0,022	0,016
-298,993	800,000	0,042	0,103
-297,978	36,759	0,058	-0,037
-296,964	-35,987	0,085	-0,033
-295,949	-70,314	0,011	0,003
-294,935	184,051	0,010	-0,011
-293,920	-200,000	-0,002	0,106
-292,905	5,621	0,103	0,054
-291,891	216,555	-0,066	-0,075
-290,876	-171,676	0,050	0,001
-289,862	-200,000	-0,005	0,072
-288,847	379,125	-0,046	0,068
-287,832	-72,955	0,091	-0,024
-286,818	105,472	0,090	0,076
-285,803	-200,000	-0,009	-0,066
-284,789	166,348	0,098	0,099
-283,774	98,029	0,036	-0,029
-282,759	800,000	-0,015	-0,037
-281,745	171,775	0,052	-0,054
-280,730	724,008	-0,031	-0,060
-279,716	12,993	0,080	0,044
-278,701	-0,378	0,082	-0,042
-277,686	-45,599	0,116	0,041
-276,672	800,000	-0,042	-0,118
-275,657	-200,000	-0,027	0,198
-274,643	-200,000	0,021	-0,086
-273,628	-200,000	-0,006	-0,077
-272,613	-200,000	-0,006	-0,036
-271,599	-200,000	-0,026	0,117
-270,584	-13,033	0,102	0,047
-269,570	3,023	0,069	-0,036
-268,555	-13,282	-0,139	0,064
-267,540	800,000	-0,063	-0,158
-266,526	-6,880	0,058	0,028
-265,511	-63,189	-0,082	0,024
-264,497	-61,944	0,105	-0,031
-263,482	-200,000	0,005	0,017
-262,467	-200,000	-0,002	0,018
-261,453	800,000	0,016	0,036
-260,438	360,038	0,033	-0,047
-259,424	131,456	-0,137	-0,125
-258,409	-200,000	0,031	-0,231
-257,395	259,586	-0,114	0,141
-256,380	600,202	-0,072	0,127
-255,365	-200,000	0,020	0,078
-254,351	-44,209	0,091	0,032
-253,336	19,180	0,056	-0,032
-252,322	41,518	0,140	-0,090
-251,307	-24,282	-0,053	-0,023
-250,292	-94,210	0,049	0,010
-249,278	195,766	0,067	0,073
-248,263	108,576	0,092	0,078
-247,249	211,218	-0,015	0,017
-246,234	11,338	-0,100	-0,054
-245,219	230,402	-0,115	-0,134
-244,205	-200,000	-0,017	-0,057
-243,190	-26,911	-0,053	-0,022
-242,176	-119,022	0,034	-0,004
-241,161	-200,000	0,042	0,135
-240,146	-200,000	-0,012	0,094
-239,132	-123,627	-0,120	0,013
-238,117	406,835	-0,108	-0,163
-237,103	138,162	-0,092	-0,086
-236,088	-157,794	-0,079	-0,003
-235,073	37,524	0,076	0,048
-234,059	800,000	0,025	0,070
-233,044	53,027	-0,074	0,051
-232,030	78,854	-0,065	-0,050
-231,015	800,000	0,037	-0,097
-230,000	800,000	0,011	0,025
-228,986	231,779	-0,100	-0,117
-227,971	579,158	-0,018	-0,032
-226,957	-102,529	0,063	-0,011
-225,942	225,443	-0,070	0,080
-224,927	-42,433	-0,105	-0,038
-223,913	209,431	-0,027	-0,030
-222,898	171,021	-0,051	-0,052
-221,884	800,000	-0,012	0,034
-220,869	800,000	0,061	0,138
-219,855	63,477	0,071	-0,051
-218,840	800,000	0,031	-0,070
-217,825	15,241	0,035	-0,019
-216,811	800,000	0,008	0,018
-215,796	-200,000	-0,000	-0,012
-214,782	42,303	0,043	0,028
-213,767	431,513	0,028	0,043
-212,752	162,623	0,016	-0,016
-211,738	397,194	0,038	0,057
-210,723	-111,299	0,061	-0,009
-209,709	-200,000	0,033	0,154
-208,694	167,631	-0,144	-0,146
-207,679	-88,242	0,095	-0,020
-206,665	426,288	0,013	0,020
-205,650	800,000	0,048	0,133
-204,636	-200,000	-0,016	0,159
-203,621	-128,882	0,025	0,002
-202,606	4,184	-0,195	0,101
-201,592	-125,085	0,055	0,006
-200,577	-74,977	0,081	-0,021
-199,563	-113,597	-0,080	-0,011
-198,548	-70,633	0,137	-0,037
-197,533	-188,610	0,109	0,001
-196,519	181,515	0,123	-0,129
-195,504	255,588	-0,002	-0,002
-194,490	122,008	0,097	-0,086
-193,475	-200,000	0,005	0,061
-192,460	315,490	0,047	-0,063
-191,446	800,000	0,062	0,193
-190,431	299,776	0,067	0,089
-189,417	241,328	0,030	-0,036
-188,402	160,081	-0,064	-0,063
-187,387	800,000	-0,047	0,124
-186,373	-90,186	-0,081	0,017
-185,358	651,583	0,032	0,058
-184,344	-200,000	0,014	0,088
-183,329	-100,333	-0,084	-0,015
-182,315	-200,000	0,009	0,044
-181,300	331,538	-0,078	-0,107
-180,285	-200,000	0,013	-0,078
-179,271	800,000	-0,021	-0,053
-178,256	-130,956	-0,156	0,015
-177,242	-200,000	0,033	0,182
-176,227	250,679	-0,098	0,118
-175,212	2,606	0,068	0,035
-174,198	800,000	-0,009	-0,027
-173,183	-124,728	-0,218	-0,024
-172,169	75,263	0,043	-0,032
-171,154	115,228	0,077	-0,067
-170,139	-82,062	0,102	-0,024
-169,125	-200,000	-0,022	0,076
-168,110	800,000	-0,010	0,029
-167,096	-71,298	-0,096	0,025
-166,081	-21,021	0,077	-0,033
-165,066	45,561	-0,103	-0,068
-164,052	77,680	-0,053	-0,040
-163,037	-200,000	-0,012	-0,081
-162,023	-142,911	0,051	-0,003
-161,008	231,471	0,059	-0,069
-159,993	340,064	0,071	0,098
-158,979	-200,000	-0,012	-0,048
-157,964	472,575	0,154	-0,248
-156,950	-200,000	-0,018	-0,145
-155,935	363,952	0,086	-0,123
-154,920	800,000	0,096	0,205
-153,906	-122,225	-0,061	0,007
-152,891	-200,000	0,024	-0,098
-151,877	800,000	-0,015	-0,048
-150,862	6,906	0,071	0,037
-149,847	3,350	0,048	-0,025
-148,833	-200,000	-0,023	-0,077
-147,818	-200,000	-0,005	0,085
-146,804	-200,000	0,000	0,157
-145,789	-200,000	0,010	0,170
-144,775	800,000	-0,027	-0,082
-143,760	-97,322	-0,100	0,018
-142,745	590,965	-0,041	0,072
-141,731	-146,991	0,070	-0,004
-140,716	-147,313	0,157	-0,009
-139,702	-117,352	0,123	-0,016
-138,687	-86,434	-0,092	-0,020
-137,672	28,982	-0,091	-0,055
-136,658	-96,074	-0,145	0,027
-135,643	-200,000	0,018	-0,064
-134,629	203,934	-0,048	-0,053
-133,614	-200,000	0,038	-0,184
-132,599	26,450	-0,094	0,056
-131,585	581,040	-0,032	-0,056
-130,570	280,819	-0,042	-0,054
-129,556	-83,157	-0,034	-0,008
-128,541	34,077	-0,041	-0,025
-127,526	-93,567	-0,149	-0,029
-126,512	393,226	-0,019	-0,028
-125,497	216,197	0,057	-0,065
-124,483	800,000	0,031	-0,065
-123,468	-200,000	0,005	0,065
-122,453	119,679	0,059	-0,052
-121,439	-35,266	0,156	0,060
-120,424	69,196	-0,073	0,053
-119,410	486,364	-0,022	-0,036
-118,395	-200,000	0,011	0,072
-117,380	29,327	0,089	0,053
-116,366	278,598	-0,023	0,029
-115,351	-200,000	-0,032	-0,137
-114,337	449,010	-0,029	-0,045
-113,322	150,339	0,009	-0,009
-112,307	-20,792	0,018	0,008
-111,293	-43,845	-0,086	-0,031
-110,278	-80,578	0,103	-0,024
-109,264	73,082	0,117	-0,087
-108,249	-141,258	-0,089	0,006
-107,234	-200,000	0,010	0,058
-106,220	800,000	-0,040	-0,097
-105,205	190,459	0,113	0,121
-104,191	721,009	-0,081	0,154
-103,176	35,858	0,164	0,102
-102,162	288,226	-0,030	-0,039
-101,147	-69,932	0,016	0,004
-100,132	431,993	-0,067	-0,103
-99,118	800,000	0,039	0,107
-98,103	37,042	-0,094	0,059
-97,089	-57,463	-0,084	0,026
-96,074	-200,000	-0,014	-0,052
-95,059	-30,284	-0,153	-0,061
-94,045	-200,000	-0,018	0,111
-93,030	-154,265	0,032	-0,001
-92,016	103,500	0,062	-0,052
-91,001	17,790	0,045	-0,026
-89,986	-15,142	0,056	-0,025
-88,972	121,729	-0,090	0,080
-87,957	0,726	0,031	0,016
-86,943	305,580	0,083	-0,110
-85,928	-200,000	0,013	-0,047
-84,913	-56,521	-0,121	-0,038
-83,899	-200,000	-0,014	-0,115
-82,884	101,892	0,120	0,099
-81,870	-200,000	-0,013	-0,138
-80,855	-200,000	0,004	-0,026
-79,840	800,000	-0,016	0,033
-78,826	140,135	-0,037	-0,035
-77,811	-59,524	-0,075	0,023
-76,797	800,000	0,059	-0,166
-75,782	-200,000	-0,003	-0,025
-74,767	-58,486	0,047	-0,014
-73,753	-84,932	0,053	-0,012
-72,738	-141,766	0,156	0,011
-71,724	800,000	0,078	-0,203
-70,709	-200,000	-0,021	-0,154
-69,694	242,634	0,029	-0,034
-68,680	77,508	0,102	0,077
-67,665	-200,000	-0,013	0,106
-66,651	-164,350	0,102	0,003
-65,636	-200,000	-0,034	-0,128
-64,622	288,187	0,026	0,033
-63,607	800,000	-0,128	-0,287
-62,592	-200,000	0,017	-0,053
-61,578	-45,825	-0,019	0,007
-60,563	73,362	-0,055	0,041
-59,549	440,818	0,025	0,040
-58,534	0,451	-1,531	-0,772
-57,519	377,627	-1,359	-1,973
-56,505	-200,000	-0,464	-4,419
-55,490	207,257	0,991	1,096
-54,476	800,000	4,942	11,500
-53,461	-200,000	19,209	319,822
-52,446	-200,000	740,640	2333,852
-51,432	573,442	1655,519	2868,993
-50,417	78,321	1670,983	1261,847
-49,403	21,299	1544,180	885,649
-48,388	15,191	1466,531	811,414
-47,373	17,916	1456,815	819,176
-46,359	16,676	1446,595	807,451
-45,344	13,443	1441,856	789,288
-44,330	13,340	1440,053	787,777
-43,315	13,365	1438,329	786,920
-42,300	13,392	1436,264	785,890
-41,286	13,380	1435,392	785,325
-40,271	13,365	1434,138	784,534
-39,257	13,315	1432,942	783,608
-38,242	13,374	1431,479	783,059
-37,227	13,407	1430,339	782,562
-36,213	13,358	1428,940	781,536
-35,198	13,347	1427,733	780,788
-34,184	13,435	1426,968	780,760
-33,169	13,375	1425,467	779,620
-32,154	13,464	1424,288	779,369
-31,140	13,429	1422,994	778,461
-30,125	13,452	1421,854	777,916
-29,111	13,425	1420,976	777,280
-28,096	13,436	1419,625	776,558
-27,082	13,334	1418,627	775,500
-26,067	13,345	1417,755	775,045
-25,052	13,394	1416,347	774,478
-24,038	13,334	1415,438	773,669
-23,023	13,323	1414,494	773,067
-22,009	13,300	1413,543	772,410
-20,994	13,311	1412,638	771,937
-19,979	13,299	1411,788	771,382
-18,965	13,271	1411,119	770,859
-17,950	13,258	1409,981	770,146
-16,936	13,307	1408,828	769,711
-15,921	13,282	1407,699	768,950
-14,906	13,240	1406,931	768,300
-13,892	13,285	1405,981	767,962
-12,877	13,262	1405,102	767,344
-11,863	13,266	1404,350	766,921
-10,848	13,191	1403,547	766,102
-9,833	13,191	1402,602	765,558
-8,819	13,167	1401,776	764,967
-7,804	13,176	1400,769	764,428
-6,790	13,168	1399,707	763,782
-5,775	13,135	1398,539	762,958
-4,760	13,183	1397,455	762,560
-3,746	13,110	1396,884	761,880
-2,731	13,127	1396,007	761,452
-1,717	13,150	1395,070	761,015
-0,702	13,123	1393,306	759,898
0,313	17,022	1309,956	732,481
1,327	33,328	703,655	431,134
2,342	51,280	123,251	82,632
3,356	1,080	16,661	8,427
4,371	10,036	3,274	1,754
5,386	13,481	0,651	0,356
6,400	-200,000	0,067	0,334
7,415	13,786	-0,209	-0,114
8,429	6,839	-0,217	-0,114
9,444	-2,129	-0,456	-0,226
10,459	-161,299	-0,411	-0,015
11,473	-32,332	-0,261	-0,103
12,488	424,864	-0,112	-0,171
13,502	60,047	-0,282	-0,197
14,517	8,890	-0,318	-0,169
15,531	210,679	-0,284	-0,315
16,546	123,416	-0,381	-0,337
17,561	151,841	-0,411	-0,396
18,575	27,623	-0,191	-0,113
19,590	187,964	-0,225	-0,238
20,604	26,232	-0,230	-0,135
21,619	-31,373	-0,498	-0,197
22,634	2,924	-0,489	-0,250
23,648	188,468	-0,396	-0,419
24,663	-22,613	-0,367	-0,156
25,677	-72,336	-0,429	-0,111
26,692	90,355	-0,332	-0,262
27,707	98,746	-0,258	-0,210
28,721	135,315	-0,377	-0,346
29,736	169,909	-0,380	-0,384
30,750	83,859	-0,402	-0,309
31,765	125,007	-0,346	-0,308
32,780	139,940	-0,291	-0,271
33,794	99,372	-0,330	-0,269
34,809	41,033	-0,298	-0,189
35,823	73,128	-0,290	-0,213
36,838	56,776	-0,439	-0,301
37,853	187,598	-0,321	-0,339
38,867	92,889	-0,443	-0,353
39,882	202,279	-0,374	-0,408
40,896	-1,838	-0,371	-0,184
41,911	149,822	-0,291	-0,278
42,926	95,843	-0,369	-0,297
43,940	-67,308	-0,309	-0,085
44,955	-57,385	-0,443	-0,136
45,969	107,819	-0,356	-0,299
46,984	99,358	-0,277	-0,226
47,999	70,308	-0,420	-0,306
49,013	182,437	-0,247	-0,257
50,028	147,999	-0,337	-0,320
51,042	243,196	-0,165	-0,195
52,057	129,095	-0,422	-0,379
53,071	524,244	-0,207	-0,343
54,086	217,961	-0,248	-0,279
55,101	208,695	-0,226	-0,250
56,115	-63,247	-0,353	-0,102
57,130	-114,754	-0,503	-0,067
58,144	134,424	-0,328	-0,300
59,159	-66,155	-0,356	-0,099
60,174	-36,708	-0,458	-0,172
61,188	-23,456	-0,366	-0,154
62,203	0,799	-0,377	-0,189
63,217	194,840	-0,187	-0,200
64,232	137,682	-0,372	-0,343
65,247	-8,328	-0,346	-0,163
66,261	-3,259	-0,341	-0,166
67,276	18,545	-0,308	-0,173
68,290	-116,570	-0,373	-0,048
69,305	126,602	-0,401	-0,357
70,320	8,125	-0,292	-0,154
71,334	29,321	-0,308	-0,183
72,349	40,573	-0,315	-0,199
73,363	60,878	-0,353	-0,246
74,378	284,279	-0,193	-0,244
75,393	-25,936	-0,262	-0,108
76,407	433,023	-0,198	-0,303
77,422	17,319	-0,300	-0,167
78,436	322,951	-0,201	-0,270
79,451	597,885	-0,123	-0,214
80,466	118,247	-0,443	-0,384
81,480	154,959	-0,204	-0,197
82,495	267,394	-0,334	-0,412
83,509	209,528	-0,271	-0,299
84,524	16,724	-0,261	-0,145
85,539	57,243	-0,221	-0,151
86,553	195,271	-0,173	-0,184
87,568	97,610	-0,255	-0,206
88,582	-1,454	-0,289	-0,143
89,597	78,101	-0,398	-0,298
90,611	172,266	-0,175	-0,177
91,626	288,042	-0,161	-0,205
92,641	-4,781	-0,227	-0,110
93,655	-51,571	-0,396	-0,129
94,670	-6,216	-0,324	-0,154
95,684	10,992	-0,298	-0,159
96,699	66,285	-0,253	-0,180
97,714	166,813	-0,300	-0,298
98,728	-61,916	-0,257	-0,075
99,743	-135,568	-0,370	-0,030
100,757	-47,686	-0,260	-0,088
101,772	105,088	-0,237	-0,196
102,787	50,049	-0,412	-0,272
103,801	231,286	-0,157	-0,180
104,816	152,230	-0,158	-0,151
105,830	135,523	-0,222	-0,203
106,845	-151,891	-0,312	0,016
107,860	12,125	-0,307	-0,165
108,874	624,144	-0,204	-0,362
109,889	129,688	-0,294	-0,263
110,903	209,796	-0,184	-0,203
111,918	111,373	-0,171	-0,145
112,933	-20,345	-0,224	-0,096
113,947	26,258	-0,315	-0,184
114,962	15,537	-0,377	-0,207
115,976	91,521	-0,182	-0,143
116,991	7,586	-0,278	-0,145
118,006	10,473	-0,313	-0,167
119,020	-88,145	-0,319	-0,066
120,035	67,804	-0,250	-0,179
121,049	-92,915	-0,277	-0,054
122,064	-42,632	-0,330	-0,117
123,079	25,636	-0,228	-0,132
124,093	-108,057	-0,384	-0,058
125,108	137,880	-0,303	-0,278
126,122	-54,217	-0,249	-0,079
127,137	-120,613	-0,310	-0,036
128,151	190,146	-0,197	-0,207
129,166	50,872	-0,259	-0,172
130,181	313,222	-0,220	-0,290
131,195	133,267	-0,369	-0,334
132,210	15,733	-0,298	-0,164
133,224	-40,539	-0,358	-0,129
134,239	242,276	-0,205	-0,240
135,254	131,377	-0,180	-0,162
136,268	142,432	-0,208	-0,193
137,283	163,766	-0,251	-0,247
138,297	265,297	-0,193	-0,236
139,312	104,957	-0,199	-0,164
140,327	9,664	-0,239	-0,126
141,341	66,396	-0,234	-0,166
142,356	13,884	-0,215	-0,116
143,370	-124,496	-0,124	0,013
144,385	205,422	-0,194	-0,211
145,400	148,441	-0,304	-0,287
146,414	115,562	-0,302	-0,258
147,429	45,794	-0,232	-0,150
148,443	30,507	-0,228	-0,136
149,458	210,682	-0,256	-0,281
150,473	13,695	-0,070	-0,038
151,487	800,000	-0,109	-0,257
152,502	234,006	-0,264	-0,304
153,516	5,827	-0,373	-0,192
154,531	29,139	-0,299	-0,177
155,546	43,264	-0,304	-0,193
156,560	32,319	-0,303	-0,182
157,575	-82,960	-0,238	0,053
158,589	-55,189	-0,280	-0,087
159,604	-23,575	-0,360	-0,150
160,619	21,727	-0,334	-0,190
161,633	80,367	-0,279	-0,209
162,648	-63,057	-0,306	-0,088
163,662	279,345	-0,147	-0,183
164,677	-36,605	-0,232	-0,087
165,692	83,496	-0,168	-0,128
166,706	71,500	-0,320	-0,231
167,721	100,543	-0,192	-0,155
168,735	179,139	-0,216	-0,220
169,750	257,896	-0,145	-0,175
170,764	24,785	-0,298	-0,171
171,779	-61,061	-0,277	-0,081
172,794	221,219	-0,129	-0,144
173,808	198,478	-0,207	-0,220
174,823	65,019	-0,140	-0,099
175,837	167,253	-0,246	-0,244
176,852	80,817	-0,188	-0,141
177,867	170,489	-0,254	-0,253
178,881	-101,738	-0,092	0,015
179,896	-153,399	-0,156	0,007
180,910	39,837	-0,209	-0,131
181,925	37,238	-0,201	-0,123
182,940	-137,799	-0,321	-0,025
183,954	800,000	-0,097	-0,195
184,969	19,488	-0,291	-0,163
185,983	-154,177	-0,225	-0,010
186,998	-31,702	-0,253	-0,098
188,013	142,902	-0,272	-0,252
189,027	17,086	-0,290	-0,159
190,042	-34,862	-0,308	-0,116
191,056	73,204	-0,183	-0,133
192,071	176,912	-0,179	-0,181
193,086	201,122	-0,188	-0,202
194,100	68,119	-0,133	-0,095
195,115	141,855	-0,198	-0,183
196,129	-86,567	-0,458	-0,097
197,144	640,862	-0,136	-0,241
198,159	285,227	-0,207	-0,260
199,173	-96,736	-0,237	-0,043
200,188	319,730	-0,137	-0,181
201,202	468,896	-0,166	-0,260
202,217	66,632	-0,158	-0,112
203,232	304,962	-0,193	-0,249
204,246	150,569	-0,153	-0,144
205,261	-7,798	-0,364	-0,170
206,275	113,695	-0,193	-0,163
207,290	721,472	-0,103	-0,191
208,304	202,907	-0,196	-0,211
209,319	11,664	-0,284	-0,151
210,334	800,000	-0,132	-0,258
211,348	242,885	-0,129	-0,150
212,363	300,677	-0,127	-0,163
213,377	800,000	-0,072	-0,150
214,392	0,478	-0,138	-0,068
215,407	-59,362	-0,258	-0,077
216,421	175,719	-0,174	-0,175
217,436	-2,381	-0,182	-0,088
218,450	419,675	-0,060	-0,089
219,465	267,597	-0,259	-0,315
220,480	217,151	-0,207	-0,229
221,494	-106,510	-0,175	-0,027
222,509	-30,950	-0,240	-0,093
223,523	38,812	-0,214	-0,132
224,538	-50,633	-0,138	-0,045
225,553	343,497	-0,133	-0,181
226,567	-92,718	-0,197	-0,038
227,582	499,375	-0,139	-0,223
228,596	-200,000	-0,036	-0,122
229,611	299,199	-0,151	-0,194
230,626	88,610	-0,294	-0,226
231,640	542,817	-0,171	-0,285
232,655	212,159	-0,274	-0,300
233,669	86,605	-0,304	-0,232
234,684	800,000	-0,160	-0,323
235,699	28,347	-0,201	-0,117
236,713	440,753	-0,148	-0,225
237,728	83,760	-0,097	-0,073
238,742	118,231	-0,151	-0,129
239,757	546,921	-0,166	-0,276
240,772	84,475	-0,131	-0,099
241,786	-137,334	-0,252	-0,020
242,801	40,772	-0,252	-0,157
243,815	70,183	-0,224	-0,160
244,830	-151,181	-0,206	-0,011
245,844	564,363	-0,095	-0,160
246,859	-128,232	-0,314	-0,031
247,874	164,275	-0,209	-0,204
248,888	-164,352	-0,068	0,002
249,903	83,929	-0,143	-0,108
250,917	-200,000	-0,034	-0,194
251,932	-57,971	-0,200	-0,060
252,947	-30,998	-0,198	-0,077
253,961	800,000	-0,129	-0,279
254,976	494,357	-0,150	-0,239
255,990	25,885	-0,191	-0,110
257,005	710,881	-0,101	-0,186
258,020	129,229	-0,170	-0,150
259,034	262,557	-0,146	-0,175
260,049	-14,991	-0,150	0,066
261,063	28,204	-0,163	-0,095
262,078	113,543	-0,249	-0,209
263,093	113,384	-0,297	-0,249
264,107	-200,000	-0,068	-0,227
265,122	560,337	-0,134	-0,224
266,136	-81,836	-0,197	0,044
267,151	11,541	-0,190	-0,100
268,166	-150,600	-0,156	0,008
269,180	139,890	-0,129	-0,118
270,195	41,333	-0,180	-0,112
271,209	-106,872	-0,265	-0,040
272,224	222,741	-0,168	-0,187
273,239	186,159	-0,161	-0,166
274,253	-46,289	-0,292	-0,099
275,268	287,661	-0,121	-0,152
276,282	32,238	-0,204	-0,121
277,297	459,107	-0,201	-0,310
278,312	-47,840	-0,084	-0,028
279,326	99,258	-0,124	-0,099
280,341	544,250	-0,077	-0,128
281,355	214,798	-0,155	-0,169
282,370	39,455	-0,308	-0,190
283,384	41,053	-0,205	-0,127
284,399	-31,541	-0,173	-0,067
285,414	86,978	-0,179	-0,136
286,428	800,000	-0,080	-0,156
287,443	-41,717	-0,099	-0,035
288,457	-49,881	-0,109	-0,035
289,472	48,085	-0,187	0,120
290,487	64,312	-0,197	-0,137
291,501	-105,258	-0,238	-0,037
292,516	-106,389	-0,148	-0,023
293,530	84,885	-0,183	-0,139
294,545	279,759	-0,088	-0,109
295,560	800,000	-0,077	-0,186
296,574	229,603	-0,068	-0,077
297,589	357,179	-0,186	-0,257
298,603	145,052	-0,223	-0,206
299,618	-72,080	-0,256	-0,065
300,633	-114,308	-0,088	-0,012
301,647	26,927	-0,194	-0,112
302,662	155,355	-0,081	-0,077
303,676	-21,353	-0,044	0,018
304,691	-45,753	-0,084	-0,029
305,706	-17,878	-0,150	-0,065
306,720	40,481	-0,152	-0,094
307,735	183,236	-0,168	-0,171
308,749	800,000	-0,052	-0,117
309,764	-46,114	-0,145	-0,049
310,779	-114,235	-0,151	-0,020
311,793	11,950	-0,224	-0,118
312,808	159,197	-0,215	-0,206
313,822	-200,000	-0,010	-0,041
314,837	-200,000	-0,025	-0,093
315,852	-94,285	-0,108	-0,020
316,866	95,298	-0,189	0,148
317,881	-72,108	-0,122	0,031
318,895	-103,578	-0,132	-0,021
319,910	-180,245	-0,173	0,002
320,925	191,290	-0,205	-0,213
321,939	304,008	-0,157	-0,201
322,954	-200,000	-0,007	-0,162
323,968	-7,347	-0,076	0,035
324,983	642,720	-0,049	0,086
325,997	-32,511	-0,108	-0,041
327,012	641,251	-0,120	-0,211
328,027	-13,070	-0,123	-0,055
329,041	501,398	-0,120	-0,190
330,056	-123,811	-0,105	0,011
331,070	800,000	-0,061	-0,181
332,085	696,418	-0,083	-0,150
333,100	-125,958	-0,153	-0,016
334,114	-76,431	-0,062	-0,015
335,129	-89,724	-0,134	-0,027
336,143	-200,000	-0,028	-0,136
337,158	107,793	-0,131	-0,107
338,173	-200,000	-0,023	-0,079
339,187	122,005	-0,080	-0,068
340,202	-130,588	-0,127	0,012
341,216	10,430	-0,215	-0,112
342,231	585,263	-0,099	-0,168
343,246	241,001	-0,142	-0,163
344,260	-82,012	-0,100	-0,022
345,275	-161,957	-0,263	-0,009
346,289	-185,386	-0,162	-0,002
347,304	379,733	-0,093	-0,131
348,319	528,786	-0,033	-0,054
349,333	-66,689	-0,216	-0,058
350,348	-10,113	-0,234	-0,106
351,362	-29,816	-0,091	-0,035
352,377	-60,732	-0,116	0,034
353,392	-184,290	-0,070	0,001
354,406	97,843	-0,117	-0,092
355,421	209,303	1312,801	1412,347
356,435	161,080	1473,293	1412,831
