DTS Sentinel unit serial number:	SN410029Multiplexer serial number:	ORYXHardware model number:	OX2-SRSoftware version number:	ORYX F/W v4,00 Oryx Data Collector v3.7.2.0data status	okinstallation	B3 Nyhavnadifferential loss correction	single-endedforward channel	channel 1reverse channel	N/Adate	2023/11/29time	01:47:30forward acquisition time	300,00reverse acquisition time	0,00gamma	499,1914k internal	0,3211k external	0,3211temperature offset calibration	1,0000default loss term (dB/km)	0,3820temperature slope calibration	1,0000multiplexer offset coefficient	1,0000multiplexer slope coefficient	1,0000fibre end	0,00T internal ref (°C)	9,56T ext. ref 1 (°C)	-5,16T ext. ref 2 (°C)	-5,29length (m)	temperature (°C)	Stokes	anti-Stokes-744,400	38,375	-0,195	-0,126
-743,385	-200,000	-0,006	0,066
-742,371	577,770	-0,098	-0,174
-741,356	-200,000	0,064	0,243
-740,342	254,687	-0,133	-0,165
-739,327	-200,000	-0,043	0,252
-738,312	-26,667	-0,278	-0,117
-737,298	-200,000	0,003	0,206
-736,283	800,000	-0,057	-0,154
-735,269	-200,000	0,038	0,258
-734,254	607,998	-0,139	-0,252
-733,239	2,968	-0,243	0,128
-732,225	-200,000	0,028	-0,106
-731,210	32,855	0,145	0,091
-730,196	-145,303	-0,012	-0,001
-729,181	-8,655	-0,118	0,057
-728,167	619,152	0,015	-0,028
-727,152	223,842	0,022	0,026
-726,137	-128,939	0,031	0,003
-725,123	479,850	-0,098	-0,162
-724,108	116,572	-0,071	-0,063
-723,094	5,127	-0,103	-0,055
-722,079	-105,515	-0,109	0,018
-721,064	-116,132	-0,097	0,013
-720,050	104,820	-0,049	0,042
-719,035	-65,482	-0,174	0,050
-718,021	-200,000	-0,010	-0,106
-717,006	304,600	-0,036	0,048
-715,991	-200,000	-0,035	-0,119
-714,977	493,072	-0,015	0,025
-713,962	142,221	-0,088	-0,085
-712,948	-26,792	0,050	-0,021
-711,933	20,745	-0,077	-0,045
-710,918	109,616	-0,102	-0,089
-709,904	-173,254	-0,021	-0,000
-708,889	-76,234	-0,107	-0,027
-707,875	-200,000	0,027	-0,095
-706,860	-200,000	-0,009	-0,169
-705,845	82,395	-0,056	0,044
-704,831	-200,000	-0,006	0,093
-703,816	-44,251	-0,105	0,038
-702,802	91,723	0,136	-0,111
-701,787	-103,974	0,045	0,008
-700,772	-200,000	-0,014	-0,118
-699,758	315,072	-0,077	-0,105
-698,743	-54,015	0,020	0,006
-697,729	215,511	0,036	0,042
-696,714	331,578	-0,043	0,060
-695,699	800,000	-0,022	0,060
-694,685	-200,000	0,042	-0,253
-693,670	-22,778	0,046	-0,020
-692,656	-200,000	-0,013	-0,129
-691,641	-200,000	0,009	-0,051
-690,627	195,096	0,030	-0,033
-689,612	34,702	0,025	-0,016
-688,597	-50,643	-0,040	0,014
-687,583	17,549	-0,079	0,045
-686,568	737,797	-0,042	0,082
-685,554	-113,477	-0,072	0,010
-684,539	-69,768	0,120	0,033
-683,524	-4,241	-0,071	0,035
-682,510	611,097	0,065	0,119
-681,495	122,841	-0,056	-0,051
-680,481	-200,000	0,001	-0,083
-679,466	32,721	-0,119	-0,074
-678,451	800,000	-0,001	-0,003
-677,437	800,000	-0,035	-0,105
-676,422	44,257	0,151	-0,100
-675,408	-84,229	0,067	-0,015
-674,393	301,510	-0,039	0,052
-673,378	342,994	-0,061	-0,086
-672,364	164,195	0,075	-0,076
-671,349	583,367	0,035	-0,063
-670,335	66,408	-0,051	0,037
-669,320	-200,000	0,026	0,108
-668,305	9,152	0,092	-0,050
-667,291	800,000	-0,025	-0,054
-666,276	-129,979	-0,044	-0,004
-665,262	-134,868	0,065	0,006
-664,247	341,384	-0,073	-0,103
-663,232	800,000	-0,069	-0,196
-662,218	-98,771	-0,144	-0,026
-661,203	800,000	0,034	-0,080
-660,189	318,353	-0,038	0,053
-659,174	-67,595	0,019	-0,005
-658,159	199,565	-0,133	-0,147
-657,145	-115,899	-0,158	-0,021
-656,130	-78,337	0,027	-0,007
-655,116	-200,000	-0,002	0,054
-654,101	59,189	-0,106	0,076
-653,086	643,914	-0,035	0,066
-652,072	5,758	0,062	-0,033
-651,057	219,811	-0,074	-0,086
-650,043	326,225	0,013	0,017
-649,028	441,317	0,047	0,074
-648,014	-13,894	0,113	0,052
-646,999	800,000	-0,031	0,071
-645,984	68,816	0,089	-0,066
-644,970	366,832	-0,044	-0,064
-643,955	800,000	-0,049	-0,122
-642,941	-39,939	-0,144	0,054
-641,926	-124,560	-0,222	-0,025
-640,911	-34,943	-0,093	0,037
-639,897	182,296	0,078	0,083
-638,882	693,920	-0,013	-0,024
-637,868	791,242	0,043	-0,085
-636,853	-38,058	-0,148	0,056
-635,838	-130,243	-0,095	0,009
-634,824	800,000	0,032	-0,101
-633,809	129,353	-0,065	-0,060
-632,795	-200,000	-0,016	-0,118
-631,780	41,772	-0,064	-0,042
-630,765	-7,987	0,186	-0,090
-629,751	56,331	-0,006	0,004
-628,736	-101,449	-0,097	-0,017
-627,722	800,000	0,022	-0,050
-626,707	286,403	0,018	-0,024
-625,692	-71,227	0,057	0,015
-624,678	-132,026	0,126	0,012
-623,663	800,000	0,047	-0,114
-622,649	-200,000	0,022	-0,109
-621,634	379,580	-0,061	-0,091
-620,619	-200,000	-0,025	-0,120
-619,605	-200,000	0,010	-0,126
-618,590	-103,070	-0,046	0,008
-617,576	-54,285	0,130	-0,042
-616,561	-60,390	0,087	-0,026
-615,546	-200,000	0,004	-0,082
-614,532	-73,302	-0,102	-0,027
-613,517	800,000	-0,027	-0,083
-612,503	-48,725	-0,070	0,024
-611,488	800,000	-0,023	0,056
-610,474	76,020	-0,082	-0,063
-609,459	53,535	0,097	-0,067
-608,444	-62,502	-0,098	-0,029
-607,430	186,232	0,067	0,072
-606,415	-200,000	-0,048	-0,243
-605,401	188,406	0,045	0,049
-604,386	67,785	0,050	-0,037
-603,371	-200,000	-0,057	0,185
-602,357	535,550	-0,010	-0,018
-601,342	-200,000	0,021	-0,084
-600,328	-55,296	0,111	-0,036
-599,313	-75,901	-0,185	0,047
-598,298	-39,218	0,044	-0,016
-597,284	256,354	0,075	0,093
-596,269	9,099	-0,053	-0,029
-595,255	311,136	0,073	-0,099
-594,240	800,000	-0,049	-0,098
-593,225	435,289	-0,051	-0,080
-592,211	53,038	-0,070	-0,048
-591,196	-45,582	-0,067	-0,024
-590,182	-200,000	0,026	-0,120
-589,167	196,516	0,065	-0,071
-588,152	-200,000	-0,030	0,137
-587,138	408,732	-0,080	-0,122
-586,123	10,002	0,081	0,044
-585,109	-200,000	-0,014	-0,131
-584,094	-200,000	0,014	0,087
-583,079	-200,000	0,043	0,142
-582,065	102,693	0,013	-0,011
-581,050	132,750	0,050	-0,047
-580,036	-200,000	-0,001	0,017
-579,021	344,377	-0,037	0,052
-578,006	-200,000	-0,015	-0,126
-576,992	800,000	0,051	-0,119
-575,977	2,880	0,130	0,068
-574,963	800,000	-0,039	0,078
-573,948	52,103	0,058	0,040
-572,934	-200,000	0,012	0,078
-571,919	-150,229	-0,062	-0,003
-570,904	-129,254	-0,084	-0,008
-569,890	230,289	-0,067	-0,079
-568,875	536,563	-0,018	0,031
-567,861	800,000	0,023	0,064
-566,846	121,277	-0,071	-0,064
-565,831	-62,420	-0,089	-0,027
-564,817	-165,327	0,073	0,002
-563,802	-105,736	-0,070	0,011
-562,788	-106,297	0,148	-0,024
-561,773	206,665	0,094	-0,106
-560,758	29,716	-0,013	-0,008
-559,744	800,000	-0,054	-0,132
-558,729	2,195	-0,074	0,038
-557,715	-68,399	-0,142	0,039
-556,700	27,121	-0,079	-0,048
-555,685	41,462	0,144	0,094
-554,671	-200,000	0,008	0,059
-553,656	-200,000	-0,028	0,140
-552,642	775,890	-0,052	-0,102
-551,627	800,000	-0,033	-0,080
-550,612	86,048	0,085	0,068
-549,598	-65,925	-0,099	0,028
-548,583	-200,000	-0,018	-0,063
-547,569	-200,000	-0,011	-0,072
-546,554	-107,141	0,108	0,017
-545,539	-58,927	0,241	0,074
-544,525	43,213	0,042	-0,027
-543,510	57,857	-0,075	0,053
-542,496	-200,000	0,034	-0,130
-541,481	-51,890	-0,090	0,030
-540,466	800,000	-0,042	-0,131
-539,452	800,000	0,013	-0,034
-538,437	-200,000	0,033	-0,123
-537,423	-200,000	0,000	-0,040
-536,408	-200,000	0,008	0,086
-535,393	800,000	-0,041	-0,086
-534,379	412,866	-0,051	-0,078
-533,364	38,406	0,117	-0,075
-532,350	800,000	-0,063	0,128
-531,335	-45,935	0,016	-0,006
-530,321	79,234	-0,086	0,066
-529,306	413,505	-0,044	-0,068
-528,291	22,064	-0,045	0,026
-527,277	800,000	0,051	-0,127
-526,262	585,731	-0,034	-0,061
-525,248	-200,000	0,003	-0,132
-524,233	-97,533	0,140	0,026
-523,218	0,205	-0,013	0,007
-522,204	-200,000	-0,008	0,112
-521,189	436,107	0,044	0,069
-520,175	-200,000	-0,002	-0,072
-519,160	-200,000	0,004	0,086
-518,145	135,385	-0,069	0,064
-517,131	-200,000	0,005	0,047
-516,116	90,455	-0,133	-0,107
-515,102	51,625	0,116	0,079
-514,087	149,627	-0,084	-0,082
-513,072	800,000	0,023	-0,060
-512,058	199,486	0,077	0,084
-511,043	-200,000	-0,001	0,146
-510,029	800,000	0,035	0,086
-509,014	-200,000	-0,005	0,137
-507,999	11,886	0,075	-0,041
-506,985	-26,309	0,048	-0,020
-505,970	-136,985	-0,127	-0,010
-504,956	-185,481	0,068	0,001
-503,941	44,640	0,033	0,022
-502,926	-104,046	-0,008	0,001
-501,912	-57,544	-0,103	0,032
-500,897	162,720	0,088	-0,089
-499,883	36,173	-0,034	-0,021
-498,868	-200,000	-0,001	-0,110
-497,853	-200,000	0,038	-0,176
-496,839	-98,815	0,160	-0,029
-495,824	800,000	0,047	0,112
-494,810	417,632	0,042	-0,064
-493,795	9,468	-0,092	-0,050
-492,781	-200,000	0,013	-0,125
-491,766	-108,262	-0,073	0,011
-490,751	-115,949	-0,067	0,009
-489,737	-200,000	-0,021	0,113
-488,722	-200,000	0,008	0,078
-487,708	-76,985	0,087	-0,022
-486,693	-159,942	0,104	-0,004
-485,678	595,856	0,035	-0,062
-484,664	-200,000	-0,003	0,151
-483,649	239,341	0,064	0,077
-482,635	800,000	0,008	0,019
-481,620	-155,033	0,093	0,004
-480,605	-82,486	0,029	-0,007
-479,591	-82,582	-0,081	0,019
-478,576	800,000	-0,013	0,032
-477,562	-60,380	-0,140	0,042
-476,547	394,647	0,101	-0,152
-475,532	-200,000	0,009	-0,158
-474,518	113,285	0,090	-0,078
-473,503	-133,597	0,016	-0,001
-472,489	96,024	0,013	0,011
-471,474	68,476	-0,142	-0,105
-470,459	-23,986	-0,089	0,038
-469,445	-200,000	-0,008	-0,054
-468,430	85,487	-0,074	-0,059
-467,416	215,758	-0,109	0,125
-466,401	28,539	0,065	-0,039
-465,386	800,000	0,012	0,031
-464,372	-78,771	0,090	-0,022
-463,357	-200,000	0,004	0,098
-462,343	27,593	-0,128	0,077
-461,328	-131,355	-0,130	-0,012
-460,313	455,185	0,061	0,098
-459,299	-200,000	-0,019	0,211
-458,284	600,619	0,067	0,120
-457,270	150,014	0,014	-0,014
-456,255	-9,945	0,071	-0,034
-455,241	-142,281	-0,033	-0,002
-454,226	-22,165	0,165	-0,072
-453,211	41,521	-0,025	-0,016
-452,197	-137,010	0,066	-0,005
-451,182	211,449	0,073	-0,082
-450,168	155,098	0,059	0,058
-449,153	-40,224	-0,103	-0,038
-448,138	800,000	0,023	0,052
-447,124	467,113	-0,053	0,086
-446,109	353,613	0,062	0,088
-445,095	-129,339	-0,036	-0,004
-444,080	265,265	0,061	0,077
-443,065	212,801	0,013	-0,014
-442,051	32,858	-0,115	-0,071
-441,036	-116,155	0,033	0,004
-440,022	195,285	-0,049	0,054
-439,007	-39,711	0,082	-0,031
-437,992	37,520	0,070	0,044
-436,978	-200,000	-0,001	0,055
-435,963	-200,000	-0,006	0,069
-434,949	-200,000	0,008	-0,028
-433,934	-109,256	-0,109	-0,016
-432,919	-200,000	0,018	0,074
-431,905	-200,000	0,002	0,036
-430,890	288,837	0,017	0,022
-429,876	281,214	-0,050	-0,065
-428,861	-84,559	0,124	0,028
-427,846	-104,466	-0,175	0,029
-426,832	-200,000	-0,011	0,083
-425,817	-200,000	-0,008	-0,087
-424,803	-54,622	0,032	-0,010
-423,788	-4,281	-0,106	-0,053
-422,773	522,426	0,029	0,049
-421,759	314,978	0,103	0,140
-420,744	-26,662	0,030	0,013
-419,730	-12,932	-0,088	0,041
-418,715	-5,733	0,040	-0,020
-417,701	-110,235	-0,151	0,022
-416,686	487,621	-0,044	0,072
-415,671	38,126	0,116	-0,073
-414,657	800,000	0,028	0,089
-413,642	-63,102	-0,037	0,011
-412,628	-52,937	-0,079	-0,026
-411,613	397,481	-0,116	-0,175
-410,598	70,639	-0,095	0,070
-409,584	-200,000	0,026	0,152
-408,569	-16,070	0,097	0,044
-407,555	800,000	-0,032	0,069
-406,540	45,519	0,095	-0,063
-405,525	496,539	-0,052	0,086
-404,511	800,000	-0,022	0,056
-403,496	800,000	-0,026	0,065
-402,482	79,115	-0,032	-0,025
-401,467	153,307	0,133	-0,130
-400,452	-72,115	0,049	0,013
-399,438	38,953	-0,135	-0,086
-398,423	-200,000	-0,013	-0,075
-397,409	-7,490	-0,013	0,006
-396,394	-85,141	0,040	-0,009
-395,379	453,997	-0,082	-0,130
-394,365	333,597	-0,025	-0,035
-393,350	-200,000	-0,015	0,165
-392,336	295,121	-0,004	-0,006
-391,321	-200,000	-0,008	0,078
-390,306	158,475	0,024	-0,024
-389,292	30,769	-0,179	-0,109
-388,277	-108,773	-0,082	-0,012
-387,263	-57,421	0,102	0,032
-386,248	165,961	-0,081	0,082
-385,233	-200,000	0,012	0,061
-384,219	-163,602	0,012	0,000
-383,204	-47,678	0,036	-0,013
-382,190	-37,418	-0,041	-0,016
-381,175	74,633	0,099	0,074
-380,160	-200,000	0,025	0,083
-379,146	-200,000	0,010	-0,049
-378,131	-47,791	0,191	0,066
-377,117	-200,000	-0,001	-0,179
-376,102	800,000	-0,031	-0,090
-375,088	174,182	-0,094	-0,098
-374,073	-116,452	-0,183	-0,024
-373,058	-200,000	0,015	0,148
-372,044	800,000	0,028	0,060
-371,029	118,631	-0,065	0,058
-370,015	599,234	0,066	0,118
-369,000	328,046	-0,040	-0,055
-367,985	446,537	0,079	-0,125
-366,971	-200,000	0,003	-0,051
-365,956	-200,000	0,014	0,054
-364,942	-200,000	-0,035	0,147
-363,927	569,052	0,048	0,083
-362,912	800,000	-0,028	-0,080
-361,898	-200,000	0,016	0,050
-360,883	99,723	-0,116	-0,096
-359,869	-16,752	0,101	-0,045
-358,854	211,898	-0,085	0,096
-357,839	800,000	-0,027	-0,058
-356,825	215,226	0,089	0,101
-355,810	-200,000	-0,020	0,129
-354,796	173,275	0,057	-0,059
-353,781	778,331	-0,051	-0,100
-352,766	20,414	-0,021	0,012
-351,752	-69,499	-0,045	0,012
-350,737	-73,002	0,092	-0,024
-349,723	-126,565	0,182	0,019
-348,708	-200,000	0,015	-0,086
-347,693	-200,000	-0,003	-0,025
-346,679	106,455	-0,126	0,106
-345,664	-66,528	0,009	0,003
-344,650	47,927	-0,056	0,037
-343,635	-130,788	0,044	-0,004
-342,620	439,021	0,028	0,044
-341,606	-157,299	0,123	-0,005
-340,591	767,947	0,068	-0,133
-339,577	330,454	-0,070	0,096
-338,562	572,951	-0,038	0,066
-337,548	136,370	0,171	0,159
-336,533	482,515	-0,070	0,115
-335,518	800,000	0,064	0,178
-334,504	57,365	0,084	0,059
-333,489	-200,000	-0,022	0,178
-332,475	-89,402	-0,108	0,022
-331,460	118,763	-0,025	0,022
-330,445	275,621	0,119	-0,151
-329,431	574,525	0,039	-0,069
-328,416	79,857	0,105	0,081
-327,402	-77,829	-0,067	-0,016
-326,387	355,403	0,077	-0,110
-325,372	254,148	-0,096	-0,117
-324,358	68,930	0,084	-0,061
-323,343	-102,342	0,055	0,009
-322,329	441,129	0,078	0,122
-321,314	461,296	0,022	0,035
-320,299	3,599	0,124	0,064
-319,285	-126,013	-0,081	0,009
-318,270	388,808	-0,076	-0,113
-317,256	800,000	0,030	-0,069
-316,241	800,000	-0,025	-0,065
-315,226	112,516	0,090	0,078
-314,212	195,483	0,092	0,100
-313,197	-200,000	-0,033	0,149
-312,183	800,000	-0,057	-0,137
-311,168	800,000	0,068	-0,165
-310,153	9,274	-0,141	-0,076
-309,139	800,000	0,012	-0,026
-308,124	800,000	0,023	-0,057
-307,110	-27,202	0,132	0,054
-306,095	-200,000	-0,003	-0,055
-305,080	-87,442	0,123	0,026
-304,066	-16,221	0,039	0,018
-303,051	6,216	-0,035	0,018
-302,037	112,118	-0,070	-0,060
-301,022	-128,905	-0,105	-0,010
-300,008	-200,000	0,013	0,090
-298,993	-200,000	-0,033	0,124
-297,978	-200,000	-0,012	0,055
-296,964	484,915	-0,054	0,088
-295,949	-78,041	-0,115	-0,028
-294,935	-38,581	-0,186	0,070
-293,920	-200,000	0,031	0,100
-292,905	800,000	0,035	0,081
-291,891	225,774	-0,023	0,027
-290,876	-200,000	-0,020	-0,158
-289,862	82,516	-0,058	0,044
-288,847	95,328	-0,107	0,087
-287,832	412,050	0,086	-0,131
-286,818	800,000	0,030	-0,078
-285,803	800,000	-0,014	0,034
-284,789	800,000	0,024	-0,067
-283,774	800,000	-0,042	0,104
-282,759	10,858	0,115	0,063
-281,745	800,000	0,011	-0,033
-280,730	274,028	-0,085	-0,107
-279,716	-200,000	-0,024	0,152
-278,701	447,230	-0,017	0,027
-277,686	-61,899	0,028	-0,008
-276,672	549,812	-0,062	0,106
-275,657	98,794	-0,044	-0,036
-274,643	9,062	-0,142	0,076
-273,628	-200,000	-0,003	-0,081
-272,613	517,165	-0,025	-0,042
-271,599	-111,045	0,149	0,022
-270,584	-200,000	0,035	-0,121
-269,570	239,488	-0,098	-0,116
-268,555	-91,992	0,046	0,009
-267,540	-200,000	-0,003	-0,085
-266,526	-200,000	-0,033	-0,134
-265,511	718,960	0,019	0,036
-264,497	-172,862	0,026	-0,001
-263,482	103,216	0,119	0,099
-262,467	437,911	-0,085	0,133
-261,453	256,934	0,034	-0,042
-260,438	-144,990	0,063	-0,004
-259,424	-34,504	0,067	0,026
-258,409	600,521	-0,025	-0,044
-257,395	-120,563	-0,083	-0,010
-256,380	-200,000	0,001	0,054
-255,365	10,140	0,103	-0,055
-254,351	-200,000	0,023	-0,111
-253,336	-14,755	-0,048	-0,022
-252,322	-121,850	-0,053	-0,006
-251,307	382,736	-0,080	0,117
-250,292	-102,362	-0,063	-0,011
-249,278	800,000	0,053	0,128
-248,263	-200,000	0,022	0,112
-247,249	-26,611	-0,067	0,028
-246,234	305,212	0,045	0,060
-245,219	-200,000	0,019	-0,119
-244,205	800,000	0,010	-0,027
-243,190	127,176	0,036	0,032
-242,176	-126,332	0,072	0,008
-241,161	-57,969	0,113	0,035
-240,146	-59,994	0,065	-0,020
-239,132	-120,072	-0,142	0,017
-238,117	32,934	-0,151	-0,093
-237,103	-200,000	-0,017	0,176
-236,088	291,135	-0,038	0,049
-235,073	44,132	0,019	-0,012
-234,059	628,423	0,099	0,179
-233,044	-200,000	-0,014	0,131
-232,030	41,202	0,114	-0,073
-231,015	38,129	-0,121	0,076
-230,000	233,813	0,058	-0,068
-228,986	800,000	-0,059	-0,173
-227,971	-200,000	0,017	0,068
-226,957	10,312	0,231	0,124
-225,942	-200,000	0,000	-0,104
-224,927	278,570	-0,024	-0,030
-223,913	-32,419	0,052	-0,020
-222,898	221,371	-0,035	-0,040
-221,884	800,000	0,030	-0,084
-220,869	-200,000	-0,008	0,042
-219,855	-6,103	0,030	0,014
-218,840	404,403	0,049	0,074
-217,825	-200,000	-0,032	-0,144
-216,811	3,529	-0,166	-0,086
-215,796	800,000	-0,038	-0,103
-214,782	-200,000	0,013	-0,050
-213,767	-200,000	-0,008	0,066
-212,752	-112,876	0,161	-0,022
-211,738	-200,000	-0,031	0,140
-210,723	33,982	0,137	0,084
-209,709	502,117	-0,111	-0,182
-208,694	-200,000	0,001	-0,160
-207,679	-200,000	-0,032	-0,127
-206,665	326,046	0,048	-0,066
-205,650	562,232	0,021	0,036
-204,636	181,949	0,061	-0,063
-203,621	-50,119	0,032	0,011
-202,606	-200,000	0,000	0,030
-201,592	213,065	-0,022	0,024
-200,577	-200,000	-0,006	0,077
-199,563	800,000	0,013	-0,038
-198,548	-112,175	0,101	0,014
-197,533	-200,000	0,025	0,099
-196,519	73,085	-0,101	0,075
-195,504	-136,258	0,059	0,005
-194,490	800,000	-0,032	0,076
-193,475	-200,000	-0,015	-0,127
-192,460	85,593	0,012	0,010
-191,446	-200,000	0,018	0,155
-190,431	-56,495	-0,036	0,011
-189,417	-200,000	0,018	0,077
-188,402	-19,334	-0,098	-0,043
-187,387	-77,026	0,053	0,013
-186,373	-35,236	-0,077	0,029
-185,358	-175,661	0,099	-0,002
-184,344	800,000	0,039	0,119
-183,329	145,045	0,039	-0,037
-182,315	368,166	-0,085	0,122
-181,300	49,424	-0,096	-0,064
-180,285	141,601	0,019	0,018
-179,271	763,005	-0,042	-0,080
-178,256	-200,000	0,008	0,045
-177,242	434,666	-0,052	-0,080
-176,227	136,360	-0,030	-0,027
-175,212	-11,547	0,103	0,048
-174,198	-75,387	0,097	-0,024
-173,183	-135,785	-0,031	0,003
-172,169	250,635	-0,055	-0,066
-171,154	-22,358	-0,086	0,037
-170,139	-59,006	0,057	-0,017
-169,125	-111,928	0,079	0,011
-168,110	-200,000	-0,033	0,130
-167,096	68,609	-0,109	-0,079
-166,081	321,202	-0,066	-0,089
-165,066	61,217	-0,109	0,077
-164,052	-200,000	-0,027	0,105
-163,037	-54,774	0,055	-0,018
-162,023	636,200	0,058	0,105
-161,008	-123,574	-0,045	-0,005
-159,993	725,959	0,090	0,171
-158,979	-154,777	0,059	-0,003
-157,964	-200,000	-0,038	-0,125
-156,950	-87,757	0,188	0,040
-155,935	-110,237	-0,049	0,007
-154,920	-200,000	0,003	-0,026
-153,906	651,683	-0,045	-0,083
-152,891	-200,000	0,001	0,077
-151,877	139,298	0,093	0,087
-150,862	578,239	-0,021	0,037
-149,847	800,000	-0,033	-0,086
-148,833	800,000	-0,014	0,032
-147,818	131,319	0,072	0,065
-146,804	-200,000	0,005	-0,095
-145,789	11,685	-0,009	0,005
-144,775	227,854	0,099	0,114
-143,760	-22,453	-0,124	-0,053
-142,745	800,000	-0,009	-0,019
-141,731	800,000	0,042	0,093
-140,716	418,738	0,045	-0,068
-139,702	800,000	0,086	0,205
-138,687	-200,000	-0,020	0,081
-137,672	309,387	0,099	-0,132
-136,658	77,457	0,076	-0,057
-135,643	-200,000	-0,031	-0,122
-134,629	349,906	-0,093	-0,130
-133,614	385,116	0,050	0,073
-132,599	-143,580	-0,081	0,005
-131,585	-143,983	0,059	0,004
-130,570	146,863	-0,050	-0,048
-129,556	800,000	-0,051	-0,116
-128,541	-52,744	-0,081	-0,026
-127,526	135,102	0,100	0,092
-126,512	93,776	0,114	0,092
-125,497	92,890	-0,094	0,075
-124,483	141,080	-0,095	-0,089
-123,468	646,454	-0,010	-0,017
-122,453	800,000	-0,036	-0,089
-121,439	-200,000	-0,002	-0,038
-120,424	2,111	0,072	-0,037
-119,410	-200,000	0,007	-0,039
-118,395	-104,399	0,063	-0,010
-117,380	765,371	0,014	-0,028
-116,366	800,000	-0,014	-0,029
-115,351	147,081	0,046	0,044
-114,337	-58,878	-0,215	-0,065
-113,322	-105,188	0,113	-0,018
-112,307	46,198	-0,058	-0,038
-111,293	155,996	0,078	0,076
-110,278	282,528	0,088	0,112
-109,264	-67,543	0,052	-0,014
-108,249	181,705	-0,038	-0,040
-107,234	-50,332	-0,102	-0,034
-106,220	-200,000	-0,014	-0,119
-105,205	800,000	-0,040	0,117
-104,191	481,651	-0,085	0,137
-103,176	22,512	-0,091	-0,053
-102,162	28,716	0,138	-0,082
-101,147	160,498	-0,047	-0,046
-100,132	-61,152	0,052	0,015
-99,118	800,000	-0,032	-0,082
-98,103	581,047	-0,033	-0,057
-97,089	-136,044	0,137	0,011
-96,074	-200,000	-0,021	0,101
-95,059	-200,000	-0,006	0,061
-94,045	-80,573	-0,079	0,018
-93,030	168,680	-0,019	-0,019
-92,016	-127,655	-0,012	0,001
-91,001	-200,000	0,002	-0,084
-89,986	356,656	-0,040	-0,056
-88,972	-200,000	0,027	0,118
-87,957	800,000	0,022	0,059
-86,943	800,000	0,010	0,024
-85,928	249,651	-0,034	-0,041
-84,913	57,958	-0,022	0,015
-83,899	122,047	-0,108	0,096
-82,884	800,000	0,033	0,083
-81,870	-200,000	0,001	0,020
-80,855	-200,000	0,003	0,103
-79,840	23,488	0,034	0,020
-78,826	-91,736	0,035	0,007
-77,811	-14,739	-0,043	-0,019
-76,797	223,344	-0,072	0,082
-75,782	324,529	-0,043	0,059
-74,767	596,544	0,083	0,145
-73,753	87,928	0,032	-0,025
-72,738	-200,000	-0,034	-0,112
-71,724	-55,788	0,059	-0,018
-70,709	208,639	-0,064	0,071
-69,694	770,190	-0,043	0,082
-68,680	411,633	-0,055	0,082
-67,665	60,874	0,043	-0,030
-66,651	800,000	-0,016	0,034
-65,636	-200,000	-0,004	0,055
-64,622	-200,000	0,026	-0,089
-63,607	-200,000	-0,010	-0,087
-62,592	-200,000	-0,038	0,119
-61,578	101,466	0,033	-0,027
-60,563	-200,000	-0,001	0,127
-59,549	86,942	0,060	0,046
-58,534	36,319	-2,071	-1,286
-57,519	382,727	-1,283	-1,868
-56,505	-200,000	-0,231	-4,336
-55,490	788,174	0,809	1,574
-54,476	800,000	5,174	11,129
-53,461	-200,000	21,654	343,541
-52,446	800,000	762,870	2352,341
-51,432	550,919	1662,280	2825,786
-50,417	71,923	1658,302	1215,906
-49,403	17,399	1531,786	856,088
-48,388	11,384	1455,619	784,473
-47,373	19,367	1447,144	818,121
-46,359	14,943	1436,172	790,884
-45,344	9,693	1432,193	763,701
-44,330	9,621	1430,292	762,318
-43,315	9,591	1428,418	761,143
-42,300	9,612	1426,803	760,352
-41,286	9,635	1425,555	759,767
-40,271	9,603	1424,200	758,861
-39,257	9,563	1422,981	757,994
-38,242	9,659	1421,763	757,768
-37,227	9,647	1420,849	757,194
-36,213	9,598	1419,571	756,253
-35,198	9,614	1418,413	755,681
-34,184	9,709	1417,435	755,578
-33,169	9,611	1416,007	754,323
-32,154	9,638	1414,999	753,884
-31,140	9,646	1413,734	753,221
-30,125	9,703	1412,659	752,882
-29,111	9,668	1411,377	752,007
-28,096	9,657	1410,288	751,345
-27,082	9,580	1409,006	750,273
-26,067	9,588	1407,976	749,730
-25,052	9,602	1407,056	749,278
-24,038	9,584	1406,104	748,658
-23,023	9,602	1405,269	748,266
-22,009	9,569	1404,184	747,506
-20,994	9,599	1403,108	747,043
-19,979	9,582	1402,124	746,409
-18,965	9,544	1401,386	745,810
-17,950	9,515	1400,360	745,100
-16,936	9,549	1399,360	744,693
-15,921	9,522	1398,583	744,125
-14,906	9,507	1397,700	743,555
-13,892	9,547	1396,624	743,139
-12,877	9,503	1395,871	742,506
-11,863	9,482	1395,043	741,941
-10,848	9,463	1394,200	741,375
-9,833	9,434	1393,199	740,679
-8,819	9,425	1392,384	740,176
-7,804	9,387	1391,418	739,453
-6,790	9,381	1390,584	738,953
-5,775	9,368	1389,455	738,265
-4,760	9,398	1388,479	737,856
-3,746	9,395	1387,325	737,200
-2,731	9,416	1386,643	736,902
-1,717	9,401	1385,769	736,341
-0,702	9,378	1383,898	735,212
0,313	13,393	1296,533	707,131
1,327	29,357	687,287	410,907
2,342	45,582	118,853	77,279
3,356	0,583	16,494	8,289
4,371	15,262	3,545	1,955
5,386	7,913	1,193	0,629
6,400	800,000	0,204	0,493
7,415	19,507	-0,210	-0,119
8,429	221,857	-0,206	-0,234
9,444	8,092	-0,356	-0,188
10,459	10,375	-0,254	-0,136
11,473	183,798	-0,275	-0,287
12,488	-48,828	-0,239	-0,080
13,502	22,050	-0,283	-0,162
14,517	-17,046	-0,112	-0,049
15,531	67,684	-0,359	-0,258
16,546	293,698	-0,218	-0,281
17,561	48,628	-0,416	-0,274
18,575	-10,896	-0,159	-0,074
19,590	141,743	-0,237	-0,221
20,604	-70,946	-0,233	-0,061
21,619	3,554	-0,458	-0,235
22,634	117,738	-0,422	-0,366
23,648	105,374	-0,407	-0,338
24,663	-26,765	-0,474	-0,194
25,677	132,516	-0,304	-0,276
26,692	164,478	-0,281	-0,279
27,707	142,072	-0,380	-0,355
28,721	31,640	-0,344	-0,208
29,736	43,844	-0,478	-0,307
30,750	151,201	-0,385	-0,369
31,765	179,795	-0,359	-0,370
32,780	66,943	-0,365	-0,261
33,794	90,594	-0,302	-0,238
34,809	55,948	-0,262	-0,179
35,823	157,879	-0,260	-0,254
36,838	172,309	-0,320	-0,324
37,853	-18,874	-0,385	-0,168
38,867	75,068	-0,373	-0,276
39,882	81,138	-0,273	-0,207
40,896	51,054	-0,319	-0,213
41,911	48,973	-0,348	-0,229
42,926	116,673	-0,337	-0,291
43,940	90,940	-0,350	-0,275
44,955	39,393	-0,378	-0,237
45,969	-37,219	-0,448	-0,167
46,984	36,990	-0,390	-0,242
47,999	580,952	-0,149	-0,258
49,013	19,337	-0,280	-0,158
50,028	73,460	-0,361	-0,265
51,042	18,283	-0,325	-0,182
52,057	63,329	-0,297	-0,209
53,071	165,288	-0,337	-0,334
54,086	-6,048	-0,411	-0,197
55,101	125,344	-0,249	-0,221
56,115	-1,899	-0,375	-0,185
57,130	63,078	-0,270	-0,190
58,144	342,083	-0,200	-0,275
59,159	48,605	-0,343	-0,225
60,174	-40,255	-0,309	-0,112
61,188	87,130	-0,253	-0,196
62,203	-37,358	-0,376	-0,140
63,217	99,065	-0,302	-0,245
64,232	21,015	-0,288	-0,164
65,247	-10,157	-0,388	-0,180
66,261	-36,712	-0,317	-0,119
67,276	229,567	-0,331	-0,380
68,290	-58,456	-0,370	-0,112
69,305	111,135	-0,312	-0,264
70,320	205,974	-0,255	-0,278
71,334	167,533	-0,236	-0,235
72,349	252,821	-0,281	-0,336
73,363	75,629	-0,372	-0,275
74,378	20,828	-0,407	-0,230
75,393	-70,418	-0,306	-0,081
76,407	-77,000	-0,360	-0,087
77,422	-36,868	-0,292	-0,109
78,436	54,680	-0,245	-0,165
79,451	121,202	-0,284	-0,248
80,466	49,422	-0,269	-0,177
81,480	16,362	-0,405	-0,223
82,495	20,775	-0,274	-0,155
83,509	-18,939	-0,301	-0,131
84,524	-154,527	-0,249	0,011
85,539	225,258	-0,263	-0,299
86,553	150,513	-0,180	-0,171
87,568	-51,717	-0,359	-0,116
88,582	-63,409	-0,422	-0,121
89,597	-72,296	-0,414	-0,107
90,611	266,445	-0,209	-0,256
91,626	-91,781	-0,307	-0,060
92,641	84,173	-0,211	-0,161
93,655	24,201	-0,394	-0,227
94,670	88,718	-0,280	-0,218
95,684	300,400	-0,349	-0,451
96,699	93,253	-0,336	-0,265
97,714	678,160	-0,211	-0,386
98,728	-140,990	-0,303	-0,021
99,743	-60,028	-0,181	-0,054
100,757	-27,211	-0,236	-0,096
101,772	3,916	-0,333	-0,170
102,787	-19,555	-0,230	-0,099
103,801	71,398	-0,363	-0,263
104,816	-17,395	-0,190	-0,083
105,830	-200,000	-0,077	-0,270
106,845	116,539	-0,228	-0,195
107,860	35,120	-0,218	-0,133
108,874	-69,387	-0,279	-0,074
109,889	83,702	-0,259	-0,197
110,903	29,374	-0,226	-0,134
111,918	434,850	-0,174	-0,265
112,933	-69,611	-0,303	-0,080
113,947	170,564	-0,164	-0,165
114,962	144,211	-0,132	-0,123
115,976	-141,889	-0,238	-0,016
116,991	169,771	-0,172	-0,171
118,006	-36,841	-0,255	-0,095
119,020	26,589	-0,316	-0,184
120,035	159,791	-0,160	-0,156
121,049	-99,994	-0,287	-0,049
122,064	141,852	-0,279	-0,258
123,079	-23,410	-0,190	-0,079
124,093	44,325	-0,319	-0,204
125,108	89,895	-0,283	-0,221
126,122	-98,440	-0,336	-0,059
127,137	-119,431	-0,249	0,030
128,151	73,347	-0,175	-0,128
129,166	43,676	-0,214	-0,136
130,181	118,149	-0,201	-0,173
131,195	-2,504	-0,360	-0,175
132,210	84,037	-0,290	-0,221
133,224	47,301	-0,207	-0,134
134,239	-17,419	-0,238	-0,104
135,254	-66,951	-0,300	-0,082
136,268	150,063	-0,294	-0,278
137,283	-21,978	-0,338	-0,142
138,297	122,876	-0,206	-0,179
139,312	125,731	-0,251	-0,221
140,327	26,053	-0,257	-0,149
141,341	136,963	-0,215	-0,196
142,356	800,000	-0,084	-0,170
143,370	213,395	-0,173	-0,191
144,385	488,285	-0,133	-0,212
145,400	-9,606	-0,271	-0,126
146,414	156,287	-0,294	-0,282
147,429	259,967	-0,169	-0,203
148,443	422,880	-0,150	-0,225
149,458	-18,280	-0,340	-0,147
150,473	107,526	-0,207	-0,171
151,487	112,205	-0,219	-0,184
152,502	-33,463	-0,257	-0,099
153,516	90,302	-0,325	-0,253
154,531	437,310	-0,112	-0,170
155,546	48,347	-0,170	-0,111
156,560	-71,820	-0,212	-0,054
157,575	408,826	-0,125	-0,185
158,589	-12,476	-0,248	-0,112
159,604	215,469	-0,167	-0,184
160,619	179,932	-0,153	-0,156
161,633	23,176	-0,301	-0,171
162,648	606,226	-0,116	-0,202
163,662	470,025	-0,107	-0,168
164,677	41,178	-0,147	-0,092
165,692	-50,650	-0,153	0,050
166,706	29,645	-0,263	-0,155
167,721	24,420	-0,299	-0,172
168,735	-15,010	-0,419	-0,186
169,750	312,912	-0,149	-0,194
170,764	800,000	-0,069	-0,158
171,779	800,000	-0,093	-0,275
172,794	800,000	-0,044	-0,132
173,808	70,441	-0,220	-0,158
174,823	99,863	-0,264	-0,212
175,837	16,997	-0,268	-0,147
176,852	49,556	-0,234	-0,153
177,867	97,783	-0,264	-0,211
178,881	52,019	-0,149	-0,099
179,896	-111,985	-0,254	-0,035
180,910	12,919	-0,267	-0,143
181,925	-38,699	-0,274	-0,100
182,940	364,742	-0,192	-0,269
183,954	-46,957	-0,225	-0,076
184,969	83,920	-0,222	-0,168
185,983	218,158	-0,132	-0,146
186,998	193,085	-0,129	-0,136
188,013	-22,894	-0,199	-0,083
189,027	-36,403	-0,290	-0,108
190,042	-2,981	-0,287	-0,139
191,056	180,450	-0,241	-0,245
192,071	47,461	-0,158	-0,102
193,086	16,666	-0,204	-0,111
194,100	42,096	-0,172	-0,108
195,115	-112,769	-0,183	-0,025
196,129	44,491	-0,222	-0,141
197,144	556,478	-0,206	-0,346
198,159	99,810	-0,368	-0,296
199,173	-2,617	-0,198	-0,096
200,188	329,173	-0,133	-0,178
201,202	-78,405	-0,221	-0,052
202,217	111,154	-0,151	-0,126
203,232	-60,558	-0,243	-0,071
204,246	76,292	-0,280	-0,205
205,261	9,211	-0,280	-0,146
206,275	183,084	-0,296	-0,303
207,290	176,092	-0,116	-0,117
208,304	137,442	-0,242	-0,219
209,319	120,524	-0,205	-0,176
210,334	123,512	-0,176	-0,153
211,348	128,447	-0,213	-0,188
212,363	145,419	-0,262	-0,243
213,377	103,593	-0,203	-0,165
214,392	-38,902	-0,095	0,034
215,407	47,375	-0,196	-0,126
216,421	147,257	-0,195	-0,182
217,436	208,449	-0,126	-0,137
218,450	58,550	-0,242	-0,164
219,465	116,357	-0,303	-0,257
220,480	119,008	-0,330	-0,282
221,494	800,000	-0,109	-0,242
222,509	-120,769	-0,211	-0,024
223,523	207,023	-0,215	-0,232
224,538	-32,234	-0,118	0,045
225,553	358,778	-0,165	-0,228
226,567	-52,456	-0,227	-0,072
227,582	198,701	-0,072	-0,076
228,596	800,000	-0,056	-0,161
229,611	-200,000	-0,047	-0,160
230,626	220,089	-0,178	-0,197
231,640	155,413	-0,251	-0,239
232,655	800,000	-0,114	-0,231
233,669	51,924	-0,234	-0,153
234,684	68,267	-0,240	-0,170
235,699	800,000	-0,053	-0,138
236,713	-126,943	-0,122	-0,012
237,728	-178,560	-0,203	-0,003
238,742	-131,912	-0,094	0,008
239,757	-174,859	-0,192	0,004
240,772	340,261	-0,120	-0,162
241,786	87,774	-0,302	-0,231
242,801	45,153	-0,200	-0,127
243,815	497,097	-0,092	-0,147
244,830	48,715	-0,141	-0,091
245,844	117,032	-0,174	-0,147
246,859	208,960	-0,259	-0,280
247,874	162,961	-0,063	-0,061
248,888	181,363	-0,159	-0,162
249,903	13,097	-0,291	-0,155
250,917	-65,884	-0,192	-0,053
251,932	427,321	-0,134	-0,200
252,947	252,369	-0,176	-0,207
253,961	440,171	-0,177	-0,268
254,976	307,384	-0,166	-0,214
255,990	139,118	-0,125	-0,114
257,005	37,834	-0,232	-0,142
258,020	695,511	-0,154	-0,279
259,034	-61,958	-0,146	-0,042
260,049	45,384	-0,164	-0,104
261,063	94,085	-0,212	-0,166
262,078	490,779	-0,158	-0,251
263,093	154,641	-0,113	-0,107
264,107	80,389	-0,159	-0,118
265,122	-12,558	-0,198	-0,089
266,136	-148,676	-0,123	0,007
267,151	-162,550	-0,195	-0,006
268,166	133,874	-0,228	-0,204
269,180	198,004	-0,176	-0,185
270,195	258,804	-0,126	-0,150
271,209	114,132	-0,161	-0,135
272,224	69,004	-0,100	-0,071
273,239	-200,000	-0,133	0,000
274,253	144,196	-0,133	-0,122
275,268	386,682	-0,057	0,082
276,282	376,600	-0,127	-0,180
277,297	1,160	-0,103	-0,051
278,312	76,244	-0,165	-0,120
279,326	-139,828	0,033	-0,002
280,341	295,828	-0,102	-0,129
281,355	-32,991	-0,174	-0,066
282,370	176,736	-0,199	-0,199
283,384	80,066	-0,210	-0,156
284,399	800,000	-0,124	-0,265
285,414	-200,000	-0,064	-0,259
286,428	800,000	-0,058	-0,135
287,443	153,542	-0,155	-0,146
288,457	-80,432	-0,100	0,023
289,472	220,227	-0,194	-0,214
290,487	31,905	-0,321	-0,190
291,501	-200,000	-0,058	-0,236
292,516	29,208	-0,163	-0,095
293,530	200,858	-0,121	-0,128
294,545	57,313	-0,166	-0,111
295,560	4,806	-0,230	-0,116
296,574	-64,845	-0,124	-0,034
297,589	-200,000	-0,036	-0,197
298,603	106,916	-0,196	-0,160
299,618	498,589	-0,129	-0,205
300,633	192,606	-0,153	-0,159
301,647	42,571	-0,177	-0,111
302,662	-25,076	-0,083	-0,034
303,676	255,013	-0,063	-0,074
304,691	232,610	-0,139	-0,157
305,706	800,000	-0,101	-0,234
306,720	32,536	-0,175	-0,103
307,735	384,991	-0,072	-0,102
308,749	129,311	-0,055	0,048
309,764	49,739	-0,159	-0,102
310,779	20,154	-0,266	-0,147
311,793	800,000	-0,049	-0,120
312,808	206,242	-0,166	-0,177
313,822	-73,041	-0,152	-0,038
314,837	86,797	-0,112	-0,085
315,852	-68,522	-0,076	-0,020
316,866	-45,377	-0,144	0,049
317,881	-97,237	-0,186	-0,033
318,895	115,707	-0,178	-0,149
319,910	-104,044	-0,090	-0,014
320,925	531,414	-0,065	-0,106
321,939	393,881	-0,111	-0,159
322,954	85,439	-0,094	-0,070
323,968	-80,528	-0,140	-0,032
324,983	-123,086	-0,113	-0,012
325,997	800,000	-0,046	-0,118
327,012	31,357	-0,107	-0,063
328,027	-200,000	-0,023	-0,098
329,041	180,437	-0,120	-0,121
330,056	-55,899	-0,142	-0,043
331,070	12,372	-0,147	0,078
332,085	54,387	-0,190	-0,125
333,100	28,889	-0,067	0,039
334,114	-41,994	-0,206	-0,072
335,129	540,236	0,043	-0,071
336,143	-75,176	-0,161	-0,039
337,158	-200,000	-0,015	-0,062
338,173	-34,536	-0,133	-0,050
339,187	-125,680	-0,118	-0,012
340,202	98,428	-0,116	-0,091
341,216	213,104	-0,190	-0,206
342,231	223,022	-0,149	-0,164
343,246	545,417	-0,158	-0,259
344,260	35,687	-0,161	-0,097
345,275	-200,000	0,005	-0,045
346,289	191,479	-0,136	-0,141
347,304	-200,000	-0,052	-0,203
348,319	800,000	-0,028	-0,065
349,333	-123,839	-0,100	-0,011
350,348	424,798	-0,095	-0,141
351,362	30,613	-0,125	-0,073
352,377	-39,675	-0,194	0,069
353,392	-38,645	-0,084	0,030
354,406	223,458	-0,152	-0,168
355,421	208,373	1306,199	1398,053
356,435	160,335	1465,853	1398,532
