DTS Sentinel unit serial number:	SN410029Multiplexer serial number:	ORYXHardware model number:	OX2-SRSoftware version number:	ORYX F/W v4,00 Oryx Data Collector v3.7.2.0data status	okinstallation	B3 Nyhavnadifferential loss correction	single-endedforward channel	channel 1reverse channel	N/Adate	2023/12/05time	04:47:30forward acquisition time	300,00reverse acquisition time	0,00gamma	499,1914k internal	0,3201k external	0,3201temperature offset calibration	1,0000default loss term (dB/km)	0,3820temperature slope calibration	1,0000multiplexer offset coefficient	1,0000multiplexer slope coefficient	1,0000fibre end	0,00T internal ref (°C)	14,12T ext. ref 1 (°C)	-0,90T ext. ref 2 (°C)	-0,93length (m)	temperature (°C)	Stokes	anti-Stokes-744,400	40,645	-0,223	-0,146
-743,385	800,000	-0,114	0,260
-742,371	52,257	-0,140	-0,097
-741,356	-200,000	-0,041	0,271
-740,342	7,280	-0,279	-0,151
-739,327	-200,000	0,019	0,375
-738,312	70,978	-0,228	-0,172
-737,298	-200,000	-0,067	0,320
-736,283	-54,307	-0,149	-0,049
-735,269	-200,000	-0,071	0,237
-734,254	20,505	-0,267	-0,157
-733,239	160,718	-0,110	0,112
-732,225	277,152	-0,038	-0,049
-731,210	800,000	0,072	0,160
-730,196	-25,466	0,037	-0,016
-729,181	800,000	0,041	0,093
-728,167	-46,340	0,031	0,011
-727,152	-200,000	0,014	-0,229
-726,137	800,000	-0,053	-0,131
-725,123	-82,679	-0,095	-0,022
-724,108	212,973	-0,100	-0,115
-723,094	551,308	-0,061	-0,106
-722,079	361,362	0,004	-0,005
-721,064	-101,486	-0,030	-0,005
-720,050	-66,961	0,094	-0,027
-719,035	713,003	0,073	0,142
-718,021	-103,374	0,013	-0,002
-717,006	66,203	0,066	0,049
-715,991	332,198	0,042	-0,060
-714,977	-200,000	-0,014	-0,201
-713,962	800,000	0,044	0,107
-712,948	800,000	0,002	-0,006
-711,933	-131,935	-0,097	-0,009
-710,918	210,853	0,054	0,062
-709,904	-200,000	-0,011	-0,155
-708,889	-8,930	-0,149	-0,072
-707,875	-109,226	0,124	-0,019
-706,860	-29,583	-0,207	-0,085
-705,845	134,026	0,056	0,053
-704,831	-200,000	-0,002	0,008
-703,816	-200,000	0,029	-0,110
-702,802	258,170	-0,102	-0,128
-701,787	-200,000	-0,013	-0,087
-700,772	-112,708	-0,083	-0,012
-699,758	800,000	-0,036	0,116
-698,743	-200,000	0,013	-0,144
-697,729	76,087	-0,111	-0,085
-696,714	119,500	0,138	0,124
-695,699	-200,000	-0,000	0,017
-694,685	260,897	-0,051	-0,064
-693,670	800,000	0,076	-0,165
-692,656	-200,000	0,004	-0,013
-691,641	487,268	0,116	0,192
-690,627	-200,000	0,015	0,240
-689,612	235,657	0,045	0,054
-688,597	-200,000	-0,006	-0,099
-687,583	-18,510	0,137	0,062
-686,568	-77,176	-0,065	0,016
-685,554	-200,000	-0,009	0,130
-684,539	462,584	0,042	0,068
-683,524	468,945	-0,090	0,147
-682,510	784,971	-0,046	0,092
-681,495	-200,000	-0,003	-0,123
-680,481	12,449	-0,041	-0,023
-679,466	34,928	-0,053	-0,033
-678,451	615,004	-0,014	0,026
-677,437	800,000	-0,020	-0,055
-676,422	210,241	-0,108	-0,123
-675,408	145,345	0,101	-0,098
-674,393	-51,872	-0,137	0,046
-673,378	800,000	0,003	0,009
-672,364	-200,000	0,017	-0,163
-671,349	-200,000	-0,009	0,061
-670,335	-200,000	-0,011	-0,131
-669,320	128,628	0,062	-0,057
-668,305	800,000	0,045	-0,133
-667,291	310,363	0,032	-0,044
-666,276	-162,094	-0,179	-0,006
-665,262	-61,047	-0,087	-0,026
-664,247	800,000	0,049	-0,108
-663,232	-200,000	0,026	-0,104
-662,218	-200,000	-0,025	0,147
-661,203	800,000	0,028	0,073
-660,189	-105,725	-0,044	0,007
-659,174	-94,905	-0,015	0,003
-658,159	-200,000	0,064	-0,210
-657,145	-200,000	0,000	-0,118
-656,130	-200,000	0,022	-0,149
-655,116	32,885	0,094	-0,059
-654,101	33,851	0,138	0,087
-653,086	130,009	0,029	0,027
-652,072	-200,000	-0,057	-0,208
-651,057	-200,000	0,010	-0,146
-650,043	-200,000	-0,031	-0,105
-649,028	800,000	-0,005	-0,014
-648,014	98,637	-0,032	-0,027
-646,999	-153,556	0,048	0,002
-645,984	-160,498	-0,147	0,006
-644,970	-177,567	-0,170	-0,003
-643,955	514,350	0,039	-0,067
-642,941	800,000	-0,083	-0,170
-641,926	800,000	-0,015	0,044
-640,911	-38,813	-0,116	-0,044
-639,897	-27,879	0,095	0,040
-638,882	800,000	0,051	0,114
-637,868	-39,829	0,089	-0,034
-636,853	8,127	-0,104	0,057
-635,838	-101,187	0,120	-0,021
-634,824	-64,092	-0,053	-0,015
-633,809	-103,704	0,103	0,017
-632,795	263,883	0,026	0,032
-631,780	-200,000	0,006	-0,027
-630,765	32,389	-0,038	0,024
-629,751	-200,000	0,035	-0,186
-628,736	19,456	0,060	-0,035
-627,722	-200,000	0,013	-0,149
-626,707	65,137	0,121	0,089
-625,692	428,521	-0,029	0,046
-624,678	-39,012	0,177	0,067
-623,663	54,026	-0,005	-0,003
-622,649	210,023	-0,094	-0,107
-621,634	-61,503	0,028	0,008
-620,619	312,078	-0,046	-0,063
-619,605	152,181	-0,012	-0,012
-618,590	458,788	-0,052	0,083
-617,576	18,603	-0,021	0,012
-616,561	-200,000	-0,002	-0,056
-615,546	45,562	0,149	-0,099
-614,532	350,038	-0,022	-0,032
-613,517	800,000	0,035	0,113
-612,503	800,000	-0,039	-0,104
-611,488	-108,329	-0,160	0,025
-610,474	-67,017	0,029	0,008
-609,459	193,991	0,059	0,065
-608,444	57,203	-0,078	0,055
-607,430	-129,687	-0,034	0,003
-606,415	40,237	-0,061	0,040
-605,401	-0,279	-0,033	0,017
-604,386	14,454	0,087	-0,049
-603,371	-200,000	-0,003	-0,014
-602,357	91,895	0,163	-0,133
-601,342	800,000	-0,015	-0,045
-600,328	-124,013	-0,133	0,015
-599,313	439,085	-0,012	0,019
-598,298	155,599	-0,080	0,080
-597,284	800,000	-0,021	-0,045
-596,269	-9,048	0,124	0,060
-595,255	23,801	0,126	0,075
-594,240	-200,000	-0,004	-0,030
-593,225	-59,078	-0,023	0,007
-592,211	538,783	-0,022	0,037
-591,196	-14,095	0,081	-0,038
-590,182	341,217	-0,085	0,121
-589,167	427,408	-0,085	0,133
-588,152	100,199	0,109	0,091
-587,138	20,540	-0,038	-0,022
-586,123	-61,569	-0,105	-0,032
-585,109	562,217	0,003	-0,006
-584,094	767,236	-0,029	-0,057
-583,079	113,476	-0,011	0,010
-582,065	-126,314	0,112	-0,012
-581,050	542,108	-0,030	0,052
-580,036	-200,000	-0,003	0,020
-579,021	-200,000	-0,027	0,168
-578,006	308,689	-0,105	-0,142
-576,992	-82,435	0,099	0,023
-575,977	368,462	0,031	-0,045
-574,963	-6,651	0,098	0,048
-573,948	138,511	-0,047	-0,045
-572,934	-104,872	-0,085	0,014
-571,919	-109,269	0,060	-0,009
-570,904	296,957	0,059	-0,079
-569,890	2,674	-0,029	-0,015
-568,875	800,000	-0,034	-0,079
-567,861	-51,107	-0,056	0,019
-566,846	-114,676	-0,067	0,009
-565,831	362,055	-0,120	-0,174
-564,817	-24,087	-0,120	0,052
-563,802	-200,000	-0,023	-0,119
-562,788	-30,807	-0,078	0,032
-561,773	-0,385	0,064	-0,033
-560,758	-102,681	0,031	-0,005
-559,744	161,905	0,049	-0,050
-558,729	-200,000	0,017	0,056
-557,715	90,302	0,048	-0,039
-556,700	211,130	-0,040	-0,045
-555,685	91,018	0,039	-0,032
-554,671	569,254	0,045	-0,080
-553,656	179,443	-0,096	0,102
-552,642	-82,240	0,186	0,043
-551,627	-200,000	-0,025	0,135
-550,612	195,579	-0,094	-0,103
-549,598	101,823	-0,140	-0,118
-548,583	800,000	-0,044	-0,101
-547,569	-200,000	0,027	-0,092
-546,554	-39,403	0,098	0,037
-545,539	-200,000	0,006	0,123
-544,525	-42,838	0,064	-0,023
-543,510	-78,447	-0,087	-0,021
-542,496	800,000	0,047	-0,147
-541,481	1,770	-0,011	-0,006
-540,466	95,296	0,022	-0,018
-539,452	303,313	0,026	-0,035
-538,437	800,000	0,024	-0,074
-537,423	-200,000	-0,007	0,084
-536,408	800,000	0,021	-0,064
-535,393	800,000	0,035	-0,103
-534,379	-200,000	-0,006	-0,047
-533,364	800,000	-0,057	0,170
-532,350	-200,000	-0,010	-0,040
-531,335	-200,000	0,006	0,119
-530,321	-200,000	0,016	-0,083
-529,306	13,318	0,074	0,041
-528,291	-200,000	-0,002	-0,075
-527,277	-119,986	-0,087	0,011
-526,262	73,341	0,025	0,019
-525,248	-20,441	0,087	-0,039
-524,233	800,000	-0,057	0,124
-523,218	278,609	0,047	0,060
-522,204	26,722	-0,094	-0,057
-521,189	-200,000	0,045	-0,151
-520,175	-114,126	-0,109	0,015
-519,160	-56,174	-0,187	0,059
-518,145	-143,341	0,113	-0,008
-517,131	-200,000	0,009	0,124
-516,116	800,000	-0,039	-0,094
-515,102	-200,000	-0,030	0,150
-514,087	-23,342	-0,061	-0,026
-513,072	5,845	-0,087	-0,046
-512,058	46,530	-0,028	0,019
-511,043	800,000	-0,036	-0,073
-510,029	180,217	0,130	-0,138
-509,014	800,000	-0,012	0,033
-507,999	276,380	-0,044	-0,056
-506,985	800,000	0,019	-0,045
-505,970	423,132	0,033	0,051
-504,956	8,599	0,081	-0,044
-503,941	-200,000	-0,029	0,149
-502,926	-4,336	0,072	-0,036
-501,912	-200,000	-0,015	-0,068
-500,897	-82,010	-0,162	0,038
-499,883	-46,867	-0,090	-0,031
-498,868	-200,000	-0,015	-0,135
-497,853	-200,000	0,011	0,075
-496,839	-60,294	0,037	-0,011
-495,824	800,000	-0,021	0,066
-494,810	800,000	0,033	0,092
-493,795	33,503	-0,079	0,050
-492,781	800,000	-0,040	0,110
-491,766	99,248	-0,019	-0,016
-490,751	192,987	-0,064	-0,069
-489,737	146,403	-0,063	0,061
-488,722	174,664	-0,062	0,064
-487,708	-64,890	-0,063	0,018
-486,693	491,734	0,086	0,143
-485,678	668,797	-0,039	0,073
-484,664	-79,133	0,095	0,023
-483,649	19,812	-0,039	-0,023
-482,635	800,000	0,046	-0,111
-481,620	-92,391	0,161	-0,032
-480,605	72,048	0,074	0,055
-479,591	348,446	0,066	0,093
-478,576	379,179	-0,031	0,046
-477,562	-162,971	0,056	0,002
-476,547	77,961	-0,052	-0,040
-475,532	247,580	-0,019	-0,023
-474,518	-164,932	0,178	0,006
-473,503	123,378	0,059	0,054
-472,489	49,046	-0,042	-0,029
-471,474	170,041	0,059	0,060
-470,459	733,421	0,023	-0,045
-469,445	-70,296	0,100	0,027
-468,430	800,000	0,027	0,062
-467,416	20,951	0,139	-0,081
-466,401	43,904	0,072	0,048
-465,386	123,479	0,107	0,096
-464,372	-23,195	-0,092	0,040
-463,357	437,033	0,053	-0,084
-462,343	217,471	-0,116	-0,133
-461,328	-139,369	-0,104	-0,008
-460,313	139,043	-0,041	-0,038
-459,299	-200,000	-0,028	0,134
-458,284	228,634	-0,142	-0,167
-457,270	183,925	0,081	-0,086
-456,255	-46,112	-0,213	0,075
-455,241	-25,639	0,051	-0,021
-454,226	-18,959	-0,152	-0,068
-453,211	-119,625	-0,123	-0,015
-452,197	568,703	-0,034	0,060
-451,182	74,505	0,121	0,092
-450,168	126,765	0,062	0,056
-449,153	-200,000	-0,027	0,101
-448,138	-39,404	0,035	0,013
-447,124	564,719	0,013	-0,022
-446,109	-84,430	-0,032	-0,007
-445,095	-200,000	0,005	0,077
-444,080	-200,000	0,000	-0,018
-443,065	81,000	-0,007	-0,005
-442,051	-3,670	0,045	0,022
-441,036	401,688	-0,033	-0,049
-440,022	-130,633	-0,140	0,013
-439,007	-200,000	-0,008	0,078
-437,992	-104,059	0,099	0,016
-436,978	-200,000	0,002	-0,015
-435,963	115,223	-0,040	-0,035
-434,949	-118,539	-0,080	-0,010
-433,934	446,794	0,013	-0,020
-432,919	-78,514	-0,068	0,017
-431,905	800,000	0,033	-0,087
-430,890	90,772	0,087	0,070
-429,876	430,638	0,113	0,177
-428,861	-101,331	-0,061	-0,011
-427,846	-112,957	-0,069	0,010
-426,832	-177,485	-0,199	0,003
-425,817	800,000	0,021	-0,065
-424,803	-105,933	-0,027	0,004
-423,788	-158,069	-0,170	-0,007
-422,773	46,421	0,122	0,081
-421,759	-49,368	0,033	-0,011
-420,744	800,000	0,021	0,043
-419,730	-40,713	-0,045	0,017
-418,715	22,271	-0,072	0,042
-417,701	313,918	0,010	-0,013
-416,686	519,364	-0,051	0,085
-415,671	58,634	0,067	0,047
-414,657	439,765	0,061	0,096
-413,642	148,632	-0,097	-0,094
-412,628	755,696	-0,051	-0,099
-411,613	-200,000	0,002	-0,016
-410,598	507,378	0,075	-0,125
-409,584	-8,687	0,144	-0,069
-408,569	-200,000	-0,007	-0,062
-407,555	33,002	0,084	-0,052
-406,540	-68,080	0,161	-0,045
-405,525	268,989	0,012	-0,015
-404,511	-99,343	-0,085	0,015
-403,496	800,000	-0,054	-0,135
-402,482	-200,000	-0,039	-0,230
-401,467	33,314	0,138	0,086
-400,452	103,423	-0,050	0,042
-399,438	-200,000	-0,020	0,182
-398,423	57,947	-0,087	-0,061
-397,409	90,754	0,066	0,053
-396,394	-200,000	-0,048	-0,176
-395,379	800,000	0,028	0,084
-394,365	-200,000	0,010	0,208
-393,350	-6,544	-0,106	0,052
-392,336	800,000	0,012	0,030
-391,321	800,000	-0,036	0,084
-390,306	800,000	-0,031	-0,081
-389,292	-200,000	-0,026	-0,100
-388,277	-200,000	0,022	0,095
-387,263	-200,000	0,000	-0,056
-386,248	-200,000	0,006	-0,027
-385,233	-165,680	-0,032	-0,001
-384,219	-48,517	0,087	0,030
-383,204	-129,842	-0,138	0,013
-382,190	553,753	0,059	-0,103
-381,175	220,561	0,024	-0,027
-380,160	271,352	0,058	0,074
-379,146	-95,181	0,090	-0,017
-378,131	118,476	-0,038	0,034
-377,117	-32,139	0,057	0,023
-376,102	-110,269	-0,053	-0,008
-375,088	-200,000	-0,036	-0,135
-374,073	31,665	0,148	0,091
-373,058	-153,036	0,104	0,005
-372,044	587,059	0,039	0,070
-371,029	158,311	-0,099	0,098
-370,015	800,000	-0,025	0,078
-369,000	-23,100	0,079	0,034
-367,985	-200,000	0,052	-0,190
-366,971	26,471	-0,081	-0,049
-365,956	-138,238	-0,059	0,005
-364,942	-135,578	-0,044	0,004
-363,927	-154,494	0,052	0,002
-362,912	800,000	0,026	0,055
-361,898	42,185	0,063	-0,041
-360,883	-200,000	-0,025	0,085
-359,869	14,498	0,099	0,055
-358,854	-53,389	-0,138	-0,045
-357,839	353,687	0,057	0,081
-356,825	-200,000	0,033	0,109
-355,810	800,000	0,015	-0,039
-354,796	-141,357	-0,003	0,000
-353,781	196,553	-0,074	0,080
-352,766	118,101	0,102	-0,090
-351,752	-27,295	0,130	-0,054
-350,737	97,622	0,069	0,057
-349,723	-200,000	-0,020	0,134
-348,708	-38,327	0,093	-0,035
-347,693	800,000	0,035	-0,089
-346,679	800,000	-0,019	0,043
-345,664	800,000	-0,103	-0,232
-344,650	800,000	0,044	-0,102
-343,635	279,787	-0,074	-0,095
-342,620	-102,069	0,068	0,012
-341,606	-112,853	0,067	0,009
-340,591	5,154	-0,198	0,104
-339,577	102,024	0,035	0,029
-338,562	148,490	0,029	0,028
-337,548	-200,000	0,001	-0,174
-336,533	86,385	0,059	-0,047
-335,518	210,968	-0,060	0,068
-334,504	-42,912	0,056	-0,020
-333,489	800,000	-0,057	0,114
-332,475	-70,002	0,005	0,001
-331,460	-200,000	0,000	0,064
-330,445	-103,033	0,024	0,004
-329,431	-69,119	-0,018	0,005
-328,416	-127,900	0,094	0,010
-327,402	800,000	-0,049	0,114
-326,387	783,323	0,051	0,100
-325,372	101,007	0,011	0,009
-324,358	800,000	0,030	0,087
-323,343	32,279	0,134	0,082
-322,329	-200,000	0,007	0,084
-321,314	800,000	-0,027	0,071
-320,299	107,555	0,114	0,097
-319,285	-200,000	-0,003	0,054
-318,270	-138,966	-0,120	0,009
-317,256	-151,494	0,015	-0,001
-316,241	800,000	0,048	-0,110
-315,226	12,317	-0,115	-0,063
-314,212	-111,532	0,178	0,026
-313,197	-170,676	-0,066	0,002
-312,183	437,141	0,035	-0,055
-311,168	67,334	0,090	-0,066
-310,153	417,006	-0,061	-0,094
-309,139	-200,000	-0,011	-0,151
-308,124	27,408	0,099	-0,059
-307,110	-1,166	0,019	-0,009
-306,095	-35,378	0,153	0,059
-305,080	-28,038	0,075	-0,031
-304,066	800,000	-0,049	-0,119
-303,051	-127,593	-0,020	0,002
-302,037	800,000	-0,045	-0,127
-301,022	33,038	-0,005	0,003
-300,008	425,479	-0,008	0,012
-298,993	-93,775	0,027	0,005
-297,978	-117,705	-0,053	-0,007
-296,964	544,958	0,067	-0,114
-295,949	-138,307	0,025	-0,002
-294,935	242,809	0,038	-0,046
-293,920	96,043	-0,091	-0,074
-292,905	-92,370	0,066	-0,013
-291,891	66,036	0,069	0,050
-290,876	-200,000	0,005	0,037
-289,862	-93,533	0,094	-0,018
-288,847	800,000	0,046	0,128
-287,832	41,153	-0,086	0,055
-286,818	199,624	0,021	0,024
-285,803	-6,704	0,116	-0,056
-284,789	-136,830	-0,115	-0,009
-283,774	687,276	0,051	0,097
-282,759	800,000	0,012	-0,028
-281,745	-200,000	-0,005	0,133
-280,730	177,969	-0,048	0,050
-279,716	364,575	-0,095	0,136
-278,701	-55,654	0,093	0,029
-277,686	-200,000	0,022	0,076
-276,672	800,000	0,062	0,182
-275,657	-142,190	-0,076	0,005
-274,643	274,547	0,023	-0,029
-273,628	-89,079	-0,060	-0,013
-272,613	-53,345	-0,053	-0,017
-271,599	240,901	0,059	-0,070
-270,584	-200,000	0,002	0,043
-269,570	-200,000	-0,028	0,180
-268,555	153,862	0,045	0,044
-267,540	800,000	0,015	-0,042
-266,526	-200,000	0,082	-0,269
-265,511	236,746	0,037	-0,043
-264,497	800,000	-0,044	0,119
-263,482	722,507	0,056	-0,106
-262,467	-136,583	0,059	0,005
-261,453	-22,258	0,126	-0,054
-260,438	0,200	-0,064	0,032
-259,424	295,649	0,007	0,010
-258,409	-143,914	-0,059	-0,004
-257,395	375,487	0,035	-0,052
-256,380	-99,413	-0,200	-0,036
-255,365	102,248	0,073	0,061
-254,351	187,434	-0,009	-0,010
-253,336	73,196	0,055	-0,041
-252,322	-74,498	-0,129	0,033
-251,307	77,966	-0,122	-0,092
-250,292	-77,609	0,029	-0,007
-249,278	307,333	0,060	0,080
-248,263	37,697	-0,035	0,022
-247,249	-48,313	0,025	0,009
-246,234	800,000	0,054	0,114
-245,219	176,936	-0,022	-0,022
-244,205	77,934	-0,048	-0,037
-243,190	-120,296	0,022	-0,003
-242,176	-200,000	-0,037	0,128
-241,161	-200,000	-0,001	0,009
-240,146	158,943	0,104	-0,103
-239,132	-200,000	-0,002	-0,025
-238,117	-200,000	-0,003	0,027
-237,103	-200,000	-0,014	-0,154
-236,088	10,867	-0,070	0,038
-235,073	282,469	0,055	-0,070
-234,059	-108,228	-0,022	0,003
-233,044	5,216	0,043	0,023
-232,030	-200,000	0,002	-0,029
-231,015	88,437	-0,085	-0,067
-230,000	-200,000	-0,001	0,035
-228,986	36,365	-0,054	0,034
-227,971	-113,504	0,131	-0,018
-226,957	401,807	-0,043	0,065
-225,942	24,674	-0,053	0,031
-224,927	-200,000	-0,008	-0,057
-223,913	-39,671	-0,054	-0,020
-222,898	671,249	0,008	-0,014
-221,884	-4,277	0,088	0,043
-220,869	-200,000	0,025	0,129
-219,855	-200,000	0,010	0,182
-218,840	-200,000	0,004	0,058
-217,825	20,119	-0,040	0,023
-216,811	253,082	0,125	-0,153
-215,796	753,170	-0,074	-0,142
-214,782	9,604	-0,134	-0,072
-213,767	418,788	-0,027	0,042
-212,752	-200,000	-0,016	0,135
-211,738	800,000	0,023	-0,052
-210,723	94,642	-0,111	-0,090
-209,709	-200,000	-0,011	0,159
-208,694	-200,000	0,002	-0,067
-207,679	-55,101	-0,146	0,047
-206,665	276,294	-0,050	0,064
-205,650	-200,000	0,029	-0,130
-204,636	-200,000	-0,018	-0,059
-203,621	274,498	-0,038	-0,048
-202,606	234,596	0,061	-0,072
-201,592	-3,341	-0,059	0,029
-200,577	-200,000	0,003	0,037
-199,563	-200,000	0,001	0,048
-198,548	157,372	0,067	0,066
-197,533	-0,758	0,056	0,028
-196,519	800,000	0,026	0,058
-195,504	-60,993	-0,130	-0,039
-194,490	490,805	0,034	0,055
-193,475	-71,520	-0,060	-0,016
-192,460	-126,839	-0,020	-0,002
-191,446	795,396	0,026	-0,052
-190,431	62,169	-0,062	0,044
-189,417	-200,000	-0,003	-0,024
-188,402	218,461	0,042	0,048
-187,387	103,337	-0,048	-0,040
-186,373	26,278	-0,131	-0,078
-185,358	120,021	0,048	-0,042
-184,344	167,834	-0,021	0,021
-183,329	-200,000	-0,003	-0,042
-182,315	-76,562	-0,128	0,032
-181,300	-137,450	0,077	0,006
-180,285	23,084	0,030	-0,017
-179,271	-142,429	0,065	0,005
-178,256	800,000	-0,036	0,083
-177,242	-70,919	-0,082	-0,022
-176,227	-1,042	0,077	0,039
-175,212	-118,727	-0,136	-0,017
-174,198	291,634	-0,040	0,052
-173,183	116,964	-0,042	-0,037
-172,169	-112,480	0,148	-0,021
-171,154	800,000	-0,078	-0,155
-170,139	785,104	-0,028	-0,055
-169,125	494,960	-0,004	-0,007
-168,110	-137,574	0,098	0,008
-167,096	197,874	-0,033	-0,036
-166,081	-200,000	0,041	0,141
-165,066	7,827	0,033	0,017
-164,052	320,991	-0,017	0,023
-163,037	54,376	-0,071	0,049
-162,023	-105,975	0,101	-0,016
-161,008	87,684	-0,080	0,063
-159,993	161,349	0,074	-0,074
-158,979	-200,000	-0,000	-0,017
-157,964	-91,618	0,130	-0,026
-156,950	40,971	0,026	0,016
-155,935	722,938	0,049	-0,094
-154,920	-200,000	0,001	-0,044
-153,906	90,014	-0,062	-0,049
-152,891	177,188	0,046	0,048
-151,877	-200,000	-0,002	-0,034
-150,862	319,084	-0,043	0,058
-149,847	262,746	0,011	0,013
-148,833	81,545	-0,061	0,047
-147,818	375,537	0,037	0,054
-146,804	800,000	0,020	-0,041
-145,789	50,926	-0,038	0,026
-144,775	-120,686	-0,037	0,004
-143,760	-40,804	0,122	0,044
-142,745	-200,000	-0,009	0,059
-141,731	-200,000	-0,024	0,079
-140,716	-200,000	0,031	-0,099
-139,702	-200,000	-0,023	0,085
-138,687	-49,132	0,029	-0,010
-137,672	133,957	-0,156	0,144
-136,658	-200,000	-0,010	0,078
-135,643	499,514	0,034	-0,055
-134,629	-191,990	-0,070	-0,000
-133,614	-51,480	-0,052	-0,017
-132,599	108,579	-0,011	-0,009
-131,585	83,246	0,075	0,058
-130,570	-200,000	-0,002	0,056
-129,556	-139,327	0,049	-0,004
-128,541	-200,000	-0,020	-0,080
-127,526	197,527	0,089	-0,097
-126,512	-200,000	0,011	-0,062
-125,497	131,379	0,055	-0,050
-124,483	119,779	0,123	0,108
-123,468	-32,183	0,041	0,016
-122,453	28,174	-0,157	-0,094
-121,439	121,372	0,033	0,029
-120,424	-87,405	-0,182	0,039
-119,410	-82,234	0,037	0,008
-118,395	-74,356	-0,112	0,028
-117,380	-200,000	-0,017	0,056
-116,366	491,881	-0,072	0,117
-115,351	800,000	0,031	-0,063
-114,337	-48,403	-0,117	0,040
-113,322	348,119	-0,092	-0,129
-112,307	27,002	0,041	0,024
-111,293	331,585	0,062	-0,085
-110,278	-79,639	0,032	-0,008
-109,264	-33,142	0,065	0,025
-108,249	5,865	-0,089	0,047
-107,234	-200,000	0,002	0,031
-106,220	95,944	-0,106	0,086
-105,205	104,034	0,055	0,046
-104,191	39,188	0,110	0,070
-103,176	-79,081	-0,119	-0,029
-102,162	175,927	0,085	-0,088
-101,147	15,203	-0,044	-0,025
-100,132	-153,507	-0,028	0,001
-99,118	-200,000	0,012	-0,058
-98,103	-200,000	0,005	-0,078
-97,089	-179,570	-0,085	0,001
-96,074	800,000	-0,007	0,015
-95,059	-27,325	-0,194	-0,080
-94,045	430,026	-0,007	-0,010
-93,030	-75,638	-0,099	-0,025
-92,016	-200,000	-0,026	-0,146
-91,001	-200,000	-0,001	0,093
-89,986	307,765	0,016	0,021
-88,972	177,156	0,004	0,004
-87,957	-200,000	-0,009	0,124
-86,943	131,949	0,131	-0,119
-85,928	41,051	-0,132	-0,084
-84,913	-129,282	0,032	0,003
-83,899	193,549	-0,089	-0,095
-82,884	800,000	-0,016	-0,046
-81,870	12,221	0,021	0,011
-80,855	226,235	0,056	0,064
-79,840	247,664	-0,044	0,053
-78,826	75,101	-0,053	0,040
-77,811	-64,469	-0,090	-0,026
-76,797	800,000	0,044	0,092
-75,782	-30,022	0,161	0,064
-74,767	49,244	0,121	0,081
-73,753	-22,787	0,008	0,003
-72,738	-24,649	-0,091	0,038
-71,724	52,715	-0,103	0,070
-70,709	-26,695	-0,133	-0,055
-69,694	-200,000	0,034	-0,204
-68,680	549,425	-0,071	0,121
-67,665	448,155	-0,036	0,056
-66,651	678,568	-0,099	0,183
-65,636	-200,000	0,011	0,038
-64,622	-33,663	-0,047	-0,018
-63,607	-200,000	-0,052	-0,165
-62,592	-200,000	0,006	0,081
-61,578	-28,393	0,182	0,074
-60,563	-139,009	0,166	-0,013
-59,549	757,882	-0,086	0,166
-58,534	-42,670	-1,695	-0,608
-57,519	389,634	-1,426	-2,099
-56,505	-200,000	-0,479	-4,660
-55,490	128,354	1,078	0,972
-54,476	800,000	4,921	11,403
-53,461	-200,000	18,863	304,881
-52,446	800,000	736,194	2293,476
-51,432	568,243	1652,624	2853,678
-50,417	79,061	1670,277	1265,134
-49,403	22,123	1543,231	889,339
-48,388	16,007	1465,998	815,124
-47,373	17,726	1455,962	817,815
-46,359	16,913	1446,164	808,379
-45,344	14,284	1441,497	793,155
-44,330	14,218	1439,345	791,623
-43,315	14,187	1437,945	790,672
-42,300	14,147	1436,380	789,590
-41,286	14,235	1435,188	789,324
-40,271	14,223	1433,768	788,455
-39,257	14,191	1432,448	787,546
-38,242	14,237	1431,208	787,052
-37,227	14,265	1430,174	786,587
-36,213	14,240	1428,843	785,702
-35,198	14,203	1427,582	784,804
-34,184	14,320	1426,452	784,703
-33,169	14,224	1425,274	783,572
-32,154	14,245	1424,127	783,008
-31,140	14,184	1422,910	782,021
-30,125	14,272	1421,639	781,708
-29,111	14,248	1420,789	781,094
-28,096	14,215	1419,490	780,195
-27,082	14,149	1418,709	779,424
-26,067	14,171	1417,513	778,837
-25,052	14,193	1416,175	778,173
-24,038	14,123	1415,497	777,441
-23,023	14,130	1414,628	776,967
-22,009	14,128	1413,553	776,335
-20,994	14,129	1412,616	775,794
-19,979	14,094	1411,783	775,145
-18,965	14,060	1410,825	774,427
-17,950	14,101	1409,775	774,013
-16,936	14,102	1408,948	773,534
-15,921	14,054	1407,602	772,539
-14,906	14,056	1406,912	772,139
-13,892	14,037	1406,048	771,543
-12,877	14,066	1404,896	771,017
-11,863	14,060	1404,108	770,525
-10,848	14,035	1403,290	769,932
-9,833	14,006	1402,334	769,240
-8,819	13,970	1401,422	768,540
-7,804	13,971	1400,601	768,066
-6,790	13,988	1399,255	767,377
-5,775	13,933	1398,533	766,694
-4,760	14,013	1397,364	766,393
-3,746	13,961	1396,781	765,805
-2,731	13,963	1395,874	765,282
-1,717	13,947	1395,032	764,720
-0,702	13,956	1393,067	763,651
0,313	17,738	1311,272	736,360
1,327	33,964	706,121	434,124
2,342	52,306	124,174	83,659
3,356	5,968	16,573	8,655
4,371	-11,863	3,292	1,522
5,386	40,094	0,609	0,386
6,400	138,986	0,163	0,152
7,415	21,897	-0,175	-0,101
8,429	-13,179	-0,347	-0,159
9,444	23,857	-0,288	-0,167
10,459	8,225	-0,353	-0,187
11,473	-62,472	-0,421	-0,123
12,488	477,383	-0,091	-0,145
13,502	-72,523	-0,314	-0,081
14,517	47,684	-0,291	-0,191
15,531	-21,660	-0,434	-0,186
16,546	67,242	-0,388	-0,279
17,561	34,832	-0,435	-0,268
18,575	-102,170	-0,275	-0,046
19,590	96,115	-0,301	-0,243
20,604	45,161	-0,204	-0,133
21,619	155,666	-0,469	-0,457
22,634	85,033	-0,429	-0,332
23,648	346,294	-0,274	-0,381
24,663	-25,867	-0,446	-0,185
25,677	-14,721	-0,446	-0,202
26,692	441,906	-0,203	-0,315
27,707	-60,439	-0,358	-0,107
28,721	100,389	-0,302	-0,247
29,736	17,325	-0,363	-0,203
30,750	293,045	-0,335	-0,432
31,765	33,055	-0,341	-0,208
32,780	29,640	-0,404	-0,242
33,794	41,586	-0,308	-0,196
34,809	61,257	-0,366	-0,256
35,823	-41,256	-0,470	-0,170
36,838	123,847	-0,293	-0,260
37,853	62,169	-0,461	-0,324
38,867	14,939	-0,308	-0,169
39,882	199,979	-0,322	-0,349
40,896	5,302	-0,261	-0,135
41,911	25,720	-0,360	-0,211
42,926	352,188	-0,272	-0,381
43,940	65,080	-0,451	-0,321
44,955	137,129	-0,403	-0,372
45,969	254,246	-0,288	-0,348
46,984	-48,821	-0,434	-0,146
47,999	406,804	-0,189	-0,282
49,013	72,161	-0,246	-0,181
50,028	127,273	-0,286	-0,256
51,042	64,546	-0,315	-0,224
52,057	298,075	-0,278	-0,361
53,071	-0,112	-0,399	-0,199
54,086	44,568	-0,285	-0,184
55,101	23,834	-0,345	-0,200
56,115	268,669	-0,278	-0,344
57,130	546,858	-0,138	-0,234
58,144	215,205	-0,292	-0,327
59,159	78,726	-0,376	-0,283
60,174	128,460	-0,397	-0,356
61,188	15,216	-0,346	-0,190
62,203	70,962	-0,288	-0,210
63,217	48,082	-0,369	-0,242
64,232	138,373	-0,278	-0,257
65,247	61,605	-0,391	-0,274
66,261	92,193	-0,441	-0,349
67,276	100,156	-0,363	-0,296
68,290	262,623	-0,238	-0,291
69,305	27,031	-0,272	-0,160
70,320	33,938	-0,287	-0,175
71,334	-30,455	-0,288	-0,114
72,349	-89,866	-0,310	-0,063
73,363	32,400	-0,313	-0,190
74,378	133,079	-0,288	-0,261
75,393	191,834	-0,298	-0,316
76,407	44,344	-0,327	-0,210
77,422	114,187	-0,310	-0,265
78,436	-1,986	-0,382	-0,188
79,451	-12,316	-0,298	-0,137
80,466	141,588	-0,294	-0,273
81,480	127,159	-0,307	-0,273
82,495	-38,623	-0,341	-0,126
83,509	800,000	-0,128	-0,274
84,524	56,092	-0,329	-0,224
85,539	724,077	-0,127	-0,238
86,553	-74,163	-0,311	-0,079
87,568	-34,961	-0,307	-0,117
88,582	112,504	-0,225	-0,191
89,597	800,000	-0,166	-0,347
90,611	29,053	-0,346	-0,206
91,626	32,979	-0,245	-0,148
92,641	17,720	-0,272	-0,151
93,655	62,460	-0,324	-0,227
94,670	-26,879	-0,303	-0,123
95,684	133,553	-0,203	-0,184
96,699	-170,615	-0,366	0,009
97,714	167,315	-0,304	-0,303
98,728	247,634	-0,238	-0,283
99,743	-21,823	-0,267	-0,113
100,757	293,150	-0,240	-0,308
101,772	81,398	-0,289	-0,219
102,787	142,390	-0,298	-0,277
103,801	193,370	-0,293	-0,311
104,816	-10,873	-0,223	-0,103
105,830	17,455	-0,226	-0,126
106,845	49,036	-0,293	-0,193
107,860	324,141	-0,144	-0,193
108,874	278,905	-0,189	-0,236
109,889	32,208	-0,260	-0,157
110,903	87,371	-0,302	-0,234
111,918	198,841	-0,140	-0,151
112,933	160,300	-0,149	-0,145
113,947	158,956	-0,207	-0,202
114,962	-17,682	-0,323	-0,142
115,976	419,067	-0,226	-0,340
116,991	105,959	-0,253	-0,210
118,006	97,532	-0,284	-0,228
119,020	100,368	-0,309	-0,251
120,035	70,403	-0,249	-0,180
121,049	-74,779	-0,178	-0,045
122,064	-8,317	-0,176	-0,082
123,079	66,233	-0,199	-0,141
124,093	210,156	-0,203	-0,224
125,108	319,496	-0,143	-0,190
126,122	150,186	-0,237	-0,225
127,137	-43,007	-0,304	-0,107
128,151	155,668	-0,113	-0,109
129,166	57,871	-0,230	-0,157
130,181	160,569	-0,257	-0,251
131,195	105,279	-0,304	-0,251
132,210	-15,142	-0,293	-0,131
133,224	-31,366	-0,391	-0,153
134,239	-37,390	-0,361	-0,134
135,254	-30,438	-0,415	-0,164
136,268	-86,098	-0,278	-0,059
137,283	43,688	-0,285	-0,182
138,297	24,664	-0,228	-0,131
139,312	166,316	-0,256	-0,254
140,327	-21,590	-0,267	-0,113
141,341	55,736	-0,354	-0,239
142,356	83,342	-0,233	-0,178
143,370	26,319	-0,249	-0,145
144,385	-57,705	-0,187	-0,057
145,400	631,589	-0,173	-0,308
146,414	161,631	-0,178	-0,174
147,429	234,559	-0,286	-0,330
148,443	419,745	-0,087	-0,131
149,458	190,811	-0,252	-0,265
150,473	-76,310	-0,354	-0,086
151,487	-107,269	-0,182	-0,028
152,502	-153,733	-0,319	-0,015
153,516	58,099	-0,228	-0,156
154,531	126,298	-0,296	-0,261
155,546	158,647	-0,291	-0,282
156,560	-101,570	-0,311	0,052
157,575	655,952	-0,075	-0,135
158,589	28,925	-0,323	-0,191
159,604	12,955	-0,285	-0,153
160,619	80,684	-0,246	-0,185
161,633	246,354	-0,194	-0,228
162,648	252,482	-0,145	-0,173
163,662	-39,806	-0,150	-0,054
164,677	462,313	-0,144	-0,224
165,692	-200,000	-0,065	-0,270
166,706	9,240	-0,275	-0,144
167,721	107,416	-0,213	-0,177
168,735	143,948	-0,243	-0,226
169,750	155,724	-0,291	-0,280
170,764	275,928	-0,203	-0,252
171,779	174,936	-0,185	-0,186
172,794	-75,201	-0,309	-0,076
173,808	-48,737	-0,191	-0,063
174,823	-49,531	-0,221	-0,073
175,837	181,144	-0,272	-0,279
176,852	322,029	-0,178	-0,237
177,867	171,264	-0,165	-0,165
178,881	96,116	-0,133	-0,106
179,896	392,148	-0,071	-0,103
180,910	146,386	-0,233	-0,218
181,925	0,226	-0,282	-0,140
182,940	192,436	-0,210	-0,221
183,954	155,516	-0,199	-0,191
184,969	-62,775	-0,238	-0,068
185,983	-200,000	0,017	-0,125
186,998	800,000	-0,114	-0,234
188,013	800,000	-0,064	-0,177
189,027	-7,350	-0,286	-0,134
190,042	77,046	-0,172	-0,127
191,056	365,793	-0,181	-0,254
192,071	389,974	-0,174	-0,252
193,086	392,672	-0,097	-0,141
194,100	34,151	-0,194	-0,117
195,115	339,962	-0,079	-0,108
196,129	355,524	-0,168	-0,234
197,144	109,389	-0,282	-0,235
198,159	687,097	-0,161	-0,293
199,173	63,462	-0,181	-0,126
200,188	800,000	-0,055	-0,149
201,202	432,632	-0,107	-0,161
202,217	200,012	-0,178	-0,190
203,232	556,220	-0,108	-0,181
204,246	-87,046	-0,343	-0,072
205,261	136,510	-0,196	-0,178
206,275	-24,925	-0,219	-0,090
207,290	466,004	-0,060	-0,093
208,304	39,186	-0,282	-0,175
209,319	6,929	-0,226	-0,117
210,334	305,857	-0,069	-0,089
211,348	168,021	-0,266	-0,263
212,363	-21,095	-0,300	-0,127
213,377	353,381	-0,051	-0,071
214,392	-115,078	-0,120	-0,016
215,407	131,789	-0,097	-0,086
216,421	-15,320	-0,223	-0,099
217,436	45,568	-0,154	-0,099
218,450	340,055	-0,118	-0,160
219,465	78,892	-0,258	-0,191
220,480	-14,416	-0,250	-0,111
221,494	-200,000	0,018	-0,103
222,509	170,732	-0,061	-0,060
223,523	263,860	-0,218	-0,263
224,538	-8,961	-0,253	-0,117
225,553	-36,059	-0,220	-0,082
226,567	133,796	-0,267	-0,240
227,582	126,762	-0,147	-0,129
228,596	7,447	-0,170	-0,088
229,611	-22,314	-0,139	-0,058
230,626	51,096	-0,231	-0,152
231,640	120,616	-0,237	-0,204
232,655	159,468	-0,316	-0,305
233,669	17,239	-0,312	-0,171
234,684	-161,083	-0,190	0,007
235,699	-200,000	-0,054	-0,242
236,713	-76,392	-0,170	-0,041
237,728	108,419	-0,147	-0,122
238,742	-21,776	-0,179	-0,075
239,757	51,179	-0,205	-0,135
240,772	393,558	-0,173	-0,250
241,786	287,082	-0,175	-0,219
242,801	800,000	-0,078	-0,209
243,815	-41,511	-0,222	-0,079
244,830	-25,982	-0,141	-0,057
245,844	-56,328	-0,169	-0,052
246,859	159,059	-0,154	-0,148
247,874	147,414	-0,279	-0,261
248,888	68,652	-0,212	-0,150
249,903	-9,905	-0,121	0,056
250,917	225,809	-0,099	-0,111
251,932	12,847	-0,186	-0,099
252,947	112,206	-0,213	-0,178
253,961	800,000	-0,085	-0,188
254,976	61,912	-0,197	-0,136
255,990	105,977	-0,204	-0,167
257,005	288,574	-0,116	-0,146
258,020	109,001	-0,126	-0,104
259,034	-98,450	-0,147	-0,026
260,049	151,600	-0,048	-0,046
261,063	8,534	-0,198	-0,103
262,078	80,812	-0,197	-0,146
263,093	185,691	-0,211	-0,217
264,107	0,083	-0,157	-0,077
265,122	227,849	-0,093	-0,105
266,136	-2,810	-0,278	-0,134
267,151	45,260	-0,081	-0,051
268,166	49,257	-0,193	-0,125
269,180	155,297	-0,169	-0,161
270,195	322,315	-0,144	-0,190
271,209	220,602	-0,129	-0,144
272,224	107,155	-0,136	-0,111
273,239	800,000	-0,107	-0,256
274,253	-200,000	-0,004	-0,090
275,268	-30,921	-0,246	-0,096
276,282	-30,620	-0,181	-0,071
277,297	352,749	-0,116	-0,159
278,312	336,877	-0,124	-0,167
279,326	17,698	-0,158	-0,087
280,341	-200,000	-0,016	-0,148
281,355	-147,986	-0,165	-0,009
282,370	-200,000	-0,036	-0,175
283,384	800,000	-0,073	-0,194
284,399	315,748	-0,113	-0,147
285,414	321,311	-0,161	-0,212
286,428	261,717	-0,150	-0,180
287,443	88,370	-0,112	-0,086
288,457	200,186	-0,133	-0,141
289,472	-31,723	-0,135	-0,052
290,487	134,775	-0,135	-0,121
291,501	166,461	-0,091	-0,089
292,516	-129,212	-0,208	0,020
293,530	531,753	-0,096	-0,157
294,545	268,773	-0,152	-0,185
295,560	385,385	-0,160	-0,228
296,574	450,292	-0,075	-0,115
297,589	218,345	-0,125	-0,137
298,603	77,489	-0,162	-0,118
299,618	-35,163	-0,181	-0,068
300,633	22,858	-0,109	-0,062
301,647	-90,481	-0,122	-0,024
302,662	-72,860	-0,178	0,045
303,676	-71,917	-0,110	-0,028
304,691	-72,164	-0,082	-0,021
305,706	247,667	-0,167	-0,194
306,720	-17,527	-0,148	-0,064
307,735	-74,829	-0,250	-0,061
308,749	-200,000	-0,004	0,015
309,764	375,622	-0,128	-0,180
310,779	800,000	-0,077	-0,197
311,793	-128,213	-0,119	-0,012
312,808	117,454	-0,218	-0,185
313,822	126,363	-0,128	-0,111
314,837	614,951	-0,064	-0,111
315,852	98,068	-0,185	-0,147
316,866	800,000	-0,064	-0,170
317,881	70,860	-0,187	-0,133
318,895	-96,143	-0,183	-0,033
319,910	85,501	-0,205	-0,155
320,925	38,476	-0,137	-0,084
321,939	239,488	0,043	-0,050
322,954	-200,000	-0,020	-0,217
323,968	68,225	-0,151	-0,106
324,983	-56,791	-0,112	-0,034
325,997	-71,082	-0,222	-0,057
327,012	298,609	-0,145	-0,183
328,027	23,693	-0,114	-0,064
329,041	800,000	-0,046	-0,130
330,056	251,988	-0,165	-0,194
331,070	544,630	-0,079	-0,131
332,085	-200,000	-0,050	-0,158
333,100	-137,054	-0,179	-0,014
334,114	211,948	-0,134	-0,145
335,129	-200,000	0,005	-0,033
336,143	329,016	-0,098	-0,130
337,158	800,000	-0,062	-0,124
338,173	31,124	-0,184	-0,108
339,187	6,449	-0,125	0,063
340,202	-195,246	-0,144	0,001
341,216	-92,764	-0,104	0,020
342,231	-200,000	0,047	-0,170
343,246	23,673	-0,174	-0,098
344,260	-29,896	-0,220	-0,086
345,275	-200,000	-0,026	-0,200
346,289	-108,155	-0,075	0,011
347,304	201,770	-0,113	-0,120
348,319	-7,253	-0,155	-0,072
349,333	42,345	-0,188	-0,117
350,348	-200,000	-0,062	-0,319
351,362	-200,000	-0,006	-0,122
352,377	-17,670	-0,220	-0,095
353,392	-87,729	-0,096	0,020
354,406	3,537	-0,149	-0,074
355,421	210,040	1314,287	1416,239
356,435	161,676	1474,954	1416,713
