DTS Sentinel unit serial number:	SN410029Multiplexer serial number:	ORYXHardware model number:	OX2-SRSoftware version number:	ORYX F/W v4,00 Oryx Data Collector v3.7.2.0data status	okinstallation	B3 Nyhavnadifferential loss correction	single-endedforward channel	channel 1reverse channel	N/Adate	2023/11/28time	21:57:30forward acquisition time	300,00reverse acquisition time	0,00gamma	499,1914k internal	0,3212k external	0,3212temperature offset calibration	1,0000default loss term (dB/km)	0,3820temperature slope calibration	1,0000multiplexer offset coefficient	1,0000multiplexer slope coefficient	1,0000fibre end	0,00T internal ref (°C)	8,49T ext. ref 1 (°C)	-6,02T ext. ref 2 (°C)	-6,17length (m)	temperature (°C)	Stokes	anti-Stokes-744,400	220,638	-0,264	-0,307
-743,385	-200,000	-0,036	0,353
-742,371	342,026	-0,159	-0,226
-741,356	-200,000	-0,085	0,324
-740,342	800,000	-0,149	-0,323
-739,327	-200,000	0,021	0,403
-738,312	114,354	-0,285	-0,251
-737,298	-200,000	-0,009	0,244
-736,283	617,010	-0,117	-0,213
-735,269	800,000	0,128	0,374
-734,254	466,878	-0,112	-0,183
-733,239	-42,185	-0,184	0,068
-732,225	-200,000	-0,030	-0,263
-731,210	533,616	0,099	0,170
-730,196	178,234	0,064	-0,068
-729,181	-95,720	-0,124	0,024
-728,167	-92,931	0,150	-0,030
-727,152	12,436	0,032	0,018
-726,137	97,822	-0,086	-0,071
-725,123	-31,959	-0,015	0,006
-724,108	-91,060	-0,127	-0,026
-723,094	-110,147	-0,149	0,022
-722,079	75,459	-0,065	-0,050
-721,064	205,366	0,017	-0,019
-720,050	-200,000	-0,007	-0,105
-719,035	501,994	0,050	0,084
-718,021	58,077	-0,031	0,022
-717,006	377,127	-0,072	-0,107
-715,991	800,000	0,037	-0,089
-714,977	87,474	-0,125	-0,100
-713,962	-200,000	0,023	-0,086
-712,948	-200,000	-0,008	0,072
-711,933	153,039	-0,070	-0,069
-710,918	30,873	-0,029	-0,018
-709,904	617,467	-0,056	-0,102
-708,889	63,097	-0,097	-0,071
-707,875	-200,000	0,000	-0,157
-706,860	119,382	-0,128	-0,114
-705,845	-200,000	0,008	0,030
-704,831	-32,826	0,145	-0,058
-703,816	109,828	-0,084	0,073
-702,802	291,913	0,016	-0,022
-701,787	-59,496	-0,153	-0,047
-700,772	423,121	-0,061	0,096
-699,758	-175,608	0,035	0,001
-698,743	212,985	-0,041	-0,047
-697,729	-200,000	0,203	-0,001
-696,714	57,510	-0,036	-0,025
-695,699	-200,000	0,006	-0,048
-694,685	-200,000	-0,018	-0,084
-693,670	-101,558	-0,109	-0,019
-692,656	780,202	-0,021	0,042
-691,641	-109,511	0,079	0,012
-690,627	-86,737	-0,028	-0,006
-689,612	38,635	0,075	-0,048
-688,597	-138,310	0,043	0,003
-687,583	-123,046	-0,161	0,018
-686,568	-200,000	0,010	-0,096
-685,554	-23,281	-0,013	0,005
-684,539	-163,902	-0,127	-0,004
-683,524	-8,923	-0,070	0,034
-682,510	800,000	-0,032	0,076
-681,495	445,995	0,043	-0,068
-680,481	131,106	-0,021	-0,020
-679,466	-200,000	-0,004	-0,050
-678,451	596,237	0,071	-0,128
-677,437	-200,000	0,005	0,048
-676,422	-200,000	0,000	0,088
-675,408	-22,208	-0,001	0,001
-674,393	-200,000	-0,020	-0,097
-673,378	218,502	0,072	-0,083
-672,364	569,481	-0,072	-0,128
-671,349	800,000	0,043	-0,102
-670,335	17,132	0,034	-0,020
-669,320	329,331	-0,032	0,045
-668,305	-58,687	0,035	0,011
-667,291	712,166	0,004	-0,007
-666,276	243,143	-0,064	-0,077
-665,262	330,660	0,042	-0,059
-664,247	-200,000	-0,009	0,075
-663,232	-139,128	-0,085	-0,007
-662,218	51,196	-0,034	-0,023
-661,203	172,403	0,108	-0,113
-660,189	410,044	-0,127	-0,195
-659,174	-200,000	-0,011	-0,050
-658,159	-93,256	-0,032	0,006
-657,145	117,550	0,148	-0,132
-656,130	96,173	-0,080	-0,066
-655,116	-41,483	-0,018	0,007
-654,101	-200,000	-0,010	-0,119
-653,086	800,000	-0,023	-0,054
-652,072	-115,552	-0,105	0,014
-651,057	-72,459	-0,091	0,024
-650,043	-6,868	0,029	0,014
-649,028	800,000	0,022	-0,054
-648,014	-200,000	0,013	-0,085
-646,999	-200,000	-0,009	0,085
-645,984	571,576	0,039	-0,068
-644,970	14,540	-0,076	-0,043
-643,955	-200,000	-0,002	-0,010
-642,941	-134,513	-0,057	-0,005
-641,926	800,000	0,012	-0,038
-640,911	-90,797	-0,073	-0,015
-639,897	-200,000	-0,020	0,154
-638,882	-200,000	-0,011	-0,108
-637,868	800,000	0,034	0,068
-636,853	-73,122	-0,097	-0,025
-635,838	800,000	-0,060	-0,140
-634,824	-154,119	0,142	0,007
-633,809	-98,645	0,088	-0,016
-632,795	-93,578	0,226	-0,045
-631,780	-200,000	-0,009	0,030
-630,765	152,435	-0,082	0,081
-629,751	800,000	-0,011	-0,033
-628,736	517,207	-0,035	-0,059
-627,722	-127,116	-0,028	0,003
-626,707	272,640	0,043	-0,055
-625,692	-200,000	0,008	0,115
-624,678	609,473	0,035	-0,063
-623,663	234,289	0,115	-0,137
-622,649	800,000	-0,062	-0,156
-621,634	159,863	-0,095	-0,096
-620,619	-200,000	0,024	0,102
-619,605	24,881	0,061	0,036
-618,590	382,716	-0,065	-0,096
-617,576	-97,085	-0,046	-0,009
-616,561	155,779	-0,111	0,111
-615,546	-124,498	0,092	-0,010
-614,532	196,695	0,025	-0,028
-613,517	128,345	0,108	-0,099
-612,503	-89,193	0,040	0,008
-611,488	-33,584	-0,101	0,040
-610,474	800,000	-0,061	0,144
-609,459	653,065	0,039	-0,073
-608,444	800,000	-0,018	-0,048
-607,430	142,470	-0,113	-0,108
-606,415	-200,000	0,009	0,066
-605,401	27,613	-0,075	-0,045
-604,386	-200,000	-0,020	-0,124
-603,371	77,367	0,115	0,088
-602,357	171,592	-0,096	-0,100
-601,342	-76,624	-0,113	0,028
-600,328	-141,622	-0,097	0,007
-599,313	-200,000	-0,004	0,015
-598,298	-48,844	-0,065	-0,022
-597,284	-109,886	-0,107	-0,016
-596,269	-91,030	-0,064	-0,013
-595,255	-200,000	0,032	0,103
-594,240	256,342	-0,021	0,026
-593,225	18,762	-0,111	0,064
-592,211	-32,643	-0,164	0,065
-591,196	772,746	-0,026	0,051
-590,182	-100,518	0,137	-0,024
-589,167	-155,537	0,072	0,003
-588,152	-67,053	-0,061	-0,017
-587,138	-200,000	-0,015	-0,157
-586,123	421,609	0,034	-0,053
-585,109	512,302	-0,027	-0,046
-584,094	800,000	0,048	0,147
-583,079	800,000	0,060	0,160
-582,065	51,229	0,132	0,090
-581,050	-50,624	-0,078	0,026
-580,036	-134,962	-0,074	-0,006
-579,021	-200,000	0,025	-0,124
-578,006	-108,714	-0,096	0,015
-576,992	-183,355	-0,157	-0,002
-575,977	124,825	0,126	-0,114
-574,963	-27,688	0,069	-0,029
-573,948	59,314	0,101	0,072
-572,934	-124,709	-0,117	-0,013
-571,919	578,586	-0,071	-0,125
-570,904	-200,000	-0,028	-0,115
-569,890	610,623	0,128	-0,232
-568,875	32,949	0,089	-0,056
-567,861	-100,176	0,084	-0,015
-566,846	306,232	-0,033	0,044
-565,831	26,141	-0,125	0,075
-564,817	218,277	-0,042	-0,048
-563,802	120,737	-0,093	-0,084
-562,788	122,717	-0,010	0,009
-561,773	226,122	-0,024	0,028
-560,758	291,644	0,092	0,121
-559,744	-200,000	-0,007	0,024
-558,729	117,979	0,133	0,118
-557,715	52,711	-0,075	0,052
-556,700	417,295	-0,030	-0,046
-555,685	-38,341	-0,111	-0,042
-554,671	-124,629	-0,064	-0,007
-553,656	-200,000	0,007	0,071
-552,642	-200,000	-0,038	0,171
-551,627	-106,146	0,019	-0,003
-550,612	-29,236	-0,026	-0,011
-549,598	328,515	-0,020	-0,027
-548,583	550,479	-0,083	-0,145
-547,569	-55,902	0,095	-0,030
-546,554	184,689	-0,079	0,085
-545,539	-200,000	-0,016	0,100
-544,525	469,080	-0,035	0,057
-543,510	576,049	-0,040	-0,071
-542,496	4,010	-0,095	-0,050
-541,481	95,479	0,080	-0,066
-540,466	-200,000	-0,007	-0,032
-539,452	282,569	0,019	-0,025
-538,437	20,524	0,061	0,036
-537,423	-129,294	0,122	0,012
-536,408	800,000	-0,065	-0,139
-535,393	-200,000	-0,034	-0,262
-534,379	-200,000	-0,032	-0,170
-533,364	-200,000	-0,005	-0,091
-532,350	-200,000	-0,003	0,037
-531,335	-69,855	0,058	0,016
-530,321	24,141	-0,093	0,055
-529,306	-34,888	0,105	-0,041
-528,291	-200,000	0,014	-0,079
-527,277	579,958	0,037	-0,065
-526,262	128,130	-0,007	0,006
-525,248	-115,492	0,141	0,019
-524,233	-64,138	0,129	0,038
-523,218	800,000	-0,026	-0,067
-522,204	353,074	0,068	0,097
-521,189	13,937	-0,108	-0,060
-520,175	-18,835	0,104	0,046
-519,160	-60,939	-0,094	0,028
-518,145	-25,336	-0,054	0,023
-517,131	-200,000	0,007	-0,072
-516,116	-108,571	0,091	0,014
-515,102	800,000	-0,069	-0,169
-514,087	-200,000	0,018	0,059
-513,072	39,131	-0,079	-0,051
-512,058	148,314	-0,076	-0,074
-511,043	800,000	-0,074	0,176
-510,029	-143,998	0,203	-0,013
-509,014	110,706	-0,054	0,046
-507,999	-118,644	0,062	0,008
-506,985	-200,000	-0,021	0,112
-505,970	-148,596	-0,053	0,003
-504,956	137,073	-0,097	0,091
-503,941	103,887	0,039	0,033
-502,926	-165,026	0,082	-0,003
-501,912	13,372	-0,094	0,052
-500,897	-200,000	0,009	0,120
-499,883	-151,944	-0,030	0,002
-498,868	196,910	-0,055	0,061
-497,853	-200,000	-0,015	-0,060
-496,839	-90,724	0,196	-0,040
-495,824	-144,378	0,026	-0,002
-494,810	143,636	0,153	0,146
-493,795	-200,000	0,016	0,091
-492,781	-200,000	-0,002	-0,007
-491,766	-200,000	-0,004	0,086
-490,751	-61,226	-0,082	-0,025
-489,737	134,731	0,105	-0,098
-488,722	473,783	-0,038	-0,062
-487,708	-200,000	0,015	-0,103
-486,693	-13,067	-0,042	-0,019
-485,678	-173,749	0,097	-0,002
-484,664	-199,139	-0,025	0,000
-483,649	8,449	-0,121	0,065
-482,635	-200,000	0,051	-0,186
-481,620	-91,283	0,095	-0,019
-480,605	206,650	0,044	-0,049
-479,591	-200,000	0,014	-0,084
-478,576	195,371	0,017	-0,019
-477,562	-46,243	-0,144	-0,051
-476,547	62,037	-0,064	-0,046
-475,532	83,197	-0,027	0,021
-474,518	93,489	-0,065	0,052
-473,503	-200,000	0,009	-0,098
-472,489	-200,000	-0,017	-0,088
-471,474	-200,000	-0,010	0,079
-470,459	-78,192	-0,123	-0,030
-469,445	186,952	-0,093	0,100
-468,430	-200,000	-0,008	-0,025
-467,416	535,205	0,050	0,085
-466,401	-121,318	0,070	0,008
-465,386	-129,288	-0,091	0,009
-464,372	-88,212	-0,019	-0,004
-463,357	39,454	-0,034	0,022
-462,343	-26,112	-0,100	0,042
-461,328	-200,000	-0,039	-0,131
-460,313	800,000	0,030	0,062
-459,299	-96,415	0,151	0,028
-458,284	-112,600	-0,046	0,006
-457,270	138,429	0,072	-0,068
-456,255	120,944	0,034	-0,031
-455,241	-145,246	-0,166	0,011
-454,226	51,963	-0,082	0,056
-453,211	197,817	0,105	0,115
-452,197	800,000	-0,016	-0,046
-451,182	592,783	0,088	0,156
-450,168	90,212	0,069	0,055
-449,153	-200,000	-0,009	-0,110
-448,138	-200,000	0,006	-0,023
-447,124	144,369	-0,043	-0,041
-446,109	39,949	0,013	-0,008
-445,095	36,215	0,109	0,069
-444,080	-200,000	0,019	0,064
-443,065	653,771	-0,036	0,066
-442,051	431,573	0,062	0,096
-441,036	178,799	-0,053	0,055
-440,022	353,787	0,044	0,062
-439,007	-200,000	-0,016	-0,062
-437,992	-200,000	0,002	0,070
-436,978	-33,317	0,139	0,055
-435,963	-200,000	0,000	-0,142
-434,949	-77,692	-0,037	-0,009
-433,934	47,404	0,072	-0,048
-432,919	-200,000	-0,043	-0,148
-431,905	276,576	-0,023	0,030
-430,890	800,000	0,027	0,075
-429,876	800,000	0,085	0,236
-428,861	169,888	0,009	0,009
-427,846	468,860	-0,082	-0,133
-426,832	-22,251	-0,156	-0,067
-425,817	157,364	0,104	-0,104
-424,803	-200,000	0,018	-0,150
-423,788	1,996	-0,045	0,023
-422,773	-99,187	-0,089	0,016
-421,759	-99,327	0,162	0,029
-420,744	-42,463	-0,041	0,015
-419,730	552,814	-0,043	0,074
-418,715	-139,007	0,114	-0,009
-417,701	-200,000	0,013	-0,048
-416,686	-55,481	0,030	-0,009
-415,671	800,000	-0,029	0,083
-414,657	800,000	0,033	-0,089
-413,642	95,280	-0,114	-0,093
-412,628	-22,870	-0,142	-0,061
-411,613	653,971	-0,093	-0,172
-410,598	-17,656	-0,007	-0,003
-409,584	320,992	0,043	-0,058
-408,569	466,780	-0,097	-0,157
-407,555	729,859	0,050	0,097
-406,540	176,521	0,056	0,058
-405,525	-200,000	-0,018	-0,098
-404,511	266,654	0,101	-0,127
-403,496	-164,677	-0,062	0,002
-402,482	77,887	0,136	-0,104
-401,467	-163,343	0,051	-0,002
-400,452	-200,000	-0,013	0,107
-399,438	-51,501	-0,155	0,051
-398,423	-200,000	0,001	-0,078
-397,409	47,591	-0,139	-0,093
-396,394	-200,000	0,040	-0,163
-395,379	-200,000	-0,008	-0,131
-394,365	-129,063	0,115	0,011
-393,350	110,824	0,077	0,067
-392,336	387,414	-0,024	0,036
-391,321	-97,077	0,171	-0,032
-390,306	-200,000	0,001	0,059
-389,292	555,427	0,033	-0,057
-388,277	-200,000	-0,010	0,049
-387,263	800,000	-0,027	-0,073
-386,248	-63,859	0,060	0,018
-385,233	-51,785	0,057	0,019
-384,219	-200,000	-0,025	-0,118
-383,204	800,000	-0,053	0,123
-382,190	800,000	-0,058	-0,138
-381,175	-120,355	-0,099	0,012
-380,160	538,657	-0,066	0,112
-379,146	-45,445	0,058	-0,020
-378,131	-200,000	-0,005	0,065
-377,117	143,278	0,134	0,127
-376,102	-6,538	0,010	-0,005
-375,088	-81,297	0,111	0,026
-374,073	170,929	0,173	0,177
-373,058	-73,049	0,148	0,038
-372,044	164,403	0,123	0,124
-371,029	800,000	-0,085	0,199
-370,015	-146,986	0,102	-0,006
-369,000	94,201	-0,046	-0,037
-367,985	-62,756	-0,180	-0,053
-366,971	295,466	-0,031	-0,041
-365,956	-12,476	0,149	-0,069
-364,942	102,154	0,096	-0,080
-363,927	-200,000	-0,012	-0,074
-362,912	363,944	-0,077	-0,110
-361,898	-200,000	-0,006	-0,223
-360,883	307,976	-0,040	-0,054
-359,869	800,000	-0,052	0,133
-358,854	369,303	-0,031	0,045
-357,839	-200,000	-0,015	-0,057
-356,825	800,000	-0,062	0,151
-355,810	528,197	-0,072	0,121
-354,796	158,952	-0,025	0,025
-353,781	438,265	0,013	-0,020
-352,766	160,767	0,091	0,091
-351,752	-200,000	-0,010	-0,094
-350,737	-200,000	0,017	-0,110
-349,723	125,240	0,054	0,049
-348,708	-200,000	0,012	0,094
-347,693	217,198	-0,041	0,047
-346,679	754,634	-0,007	-0,013
-345,664	-43,744	0,047	0,017
-344,650	-93,834	0,031	0,006
-343,635	-164,459	-0,162	-0,005
-342,620	-127,290	0,032	0,003
-341,606	800,000	-0,012	0,029
-340,591	631,367	-0,077	-0,139
-339,577	-23,947	-0,163	-0,069
-338,562	-28,677	-0,151	-0,062
-337,548	-114,371	0,087	0,012
-336,533	408,586	-0,041	0,061
-335,518	430,901	0,071	0,110
-334,504	56,936	-0,048	0,033
-333,489	547,662	0,069	0,118
-332,475	619,280	-0,050	-0,090
-331,460	268,406	-0,042	-0,053
-330,445	-95,227	-0,193	-0,037
-329,431	-164,719	0,068	-0,002
-328,416	87,441	0,094	0,074
-327,402	-200,000	-0,040	0,137
-326,387	-5,225	0,066	0,032
-325,372	521,979	-0,009	-0,016
-324,358	-143,122	0,088	0,006
-323,343	-200,000	-0,008	0,082
-322,329	-200,000	0,013	-0,073
-321,314	-200,000	0,007	0,053
-320,299	550,372	0,032	0,055
-319,285	-200,000	0,023	0,156
-318,270	160,844	-0,028	-0,028
-317,256	-200,000	0,011	-0,088
-316,241	160,406	0,053	-0,053
-315,226	800,000	0,044	0,105
-314,212	-200,000	0,026	0,178
-313,197	-200,000	0,014	0,051
-312,183	698,877	-0,024	0,046
-311,168	55,337	0,026	-0,018
-310,153	713,412	-0,054	0,102
-309,139	-32,286	0,030	0,012
-308,124	-37,639	-0,084	-0,032
-307,110	800,000	0,075	0,180
-306,095	-105,467	0,085	-0,014
-305,080	84,960	0,041	0,032
-304,066	-200,000	-0,004	-0,074
-303,051	210,674	0,014	-0,016
-302,037	-48,574	-0,121	0,041
-301,022	-114,351	0,130	-0,018
-300,008	-200,000	-0,003	-0,036
-298,993	-200,000	0,005	0,184
-297,978	800,000	0,060	0,135
-296,964	415,305	-0,082	0,126
-295,949	757,707	-0,038	-0,073
-294,935	704,868	0,078	-0,146
-293,920	235,325	0,073	-0,086
-292,905	249,917	0,061	-0,074
-291,891	-200,000	-0,040	0,169
-290,876	-167,716	0,101	-0,003
-289,862	-118,490	-0,024	0,003
-288,847	-200,000	-0,004	0,072
-287,832	114,791	0,047	-0,041
-286,818	-200,000	0,031	-0,106
-285,803	42,139	-0,091	-0,059
-284,789	21,034	-0,082	-0,047
-283,774	343,506	-0,017	0,024
-282,759	27,130	0,113	-0,067
-281,745	-200,000	-0,002	0,082
-280,730	686,678	-0,049	-0,092
-279,716	-200,000	0,003	-0,035
-278,701	-139,492	0,098	-0,007
-277,686	133,129	0,064	-0,059
-276,672	730,853	0,075	0,143
-275,657	249,074	-0,051	0,061
-274,643	203,768	-0,083	-0,091
-273,628	-200,000	0,023	-0,091
-272,613	-200,000	-0,019	0,061
-271,599	-34,253	0,058	-0,023
-270,584	518,886	0,020	0,033
-269,570	221,379	-0,013	-0,015
-268,555	800,000	-0,014	0,039
-267,540	800,000	-0,041	0,098
-266,526	25,343	0,070	-0,042
-265,511	-62,310	-0,137	0,040
-264,497	-54,385	0,016	0,005
-263,482	59,317	0,050	0,035
-262,467	43,533	-0,064	0,041
-261,453	322,105	0,014	0,019
-260,438	-200,000	0,025	-0,142
-259,424	68,687	-0,035	0,025
-258,409	-101,015	-0,129	-0,022
-257,395	-20,233	0,111	0,048
-256,380	50,437	-0,068	-0,046
-255,365	-200,000	0,037	0,123
-254,351	-59,334	-0,146	0,045
-253,336	-88,155	0,028	0,006
-252,322	-35,146	-0,131	0,051
-251,307	94,563	0,061	0,049
-250,292	-200,000	-0,008	-0,128
-249,278	156,470	0,067	0,066
-248,263	-84,450	0,201	0,045
-247,249	800,000	0,018	0,049
-246,234	-167,715	-0,087	0,002
-245,219	800,000	0,015	0,037
-244,205	-200,000	0,001	-0,031
-243,190	375,374	0,028	-0,040
-242,176	92,313	0,088	-0,071
-241,161	-200,000	-0,017	0,126
-240,146	204,468	0,051	-0,056
-239,132	59,392	0,100	0,070
-238,117	-19,316	-0,040	0,018
-237,103	800,000	-0,063	-0,157
-236,088	800,000	0,022	0,065
-235,073	-200,000	-0,010	0,082
-234,059	-159,877	0,088	0,003
-233,044	-177,569	-0,122	0,002
-232,030	-25,613	-0,092	0,038
-231,015	350,374	0,052	-0,073
-230,000	-200,000	0,008	-0,147
-228,986	223,016	0,040	0,045
-227,971	566,766	0,004	0,007
-226,957	1,254	0,116	-0,059
-225,942	267,144	-0,110	-0,137
-224,927	172,277	0,099	-0,101
-223,913	17,052	-0,021	0,012
-222,898	27,043	0,084	-0,050
-221,884	800,000	-0,024	-0,066
-220,869	-32,649	-0,047	-0,019
-219,855	-200,000	0,017	-0,080
-218,840	89,964	0,139	-0,111
-217,825	-103,679	-0,014	0,002
-216,811	433,835	-0,040	-0,062
-215,796	-200,000	0,026	-0,290
-214,782	-45,273	0,117	-0,041
-213,767	296,493	0,073	0,095
-212,752	-24,327	-0,083	-0,035
-211,738	88,659	0,081	0,064
-210,723	800,000	0,052	0,125
-209,709	799,697	-0,011	0,022
-208,694	-200,000	-0,018	-0,109
-207,679	800,000	-0,032	0,082
-206,665	478,667	-0,071	0,114
-205,650	96,109	-0,071	-0,058
-204,636	-200,000	0,007	0,079
-203,621	-105,125	0,195	-0,031
-202,606	-7,440	-0,027	0,013
-201,592	188,037	0,111	0,117
-200,577	-59,428	-0,087	0,026
-199,563	96,717	-0,069	0,056
-198,548	-92,208	0,080	0,016
-197,533	-200,000	-0,033	0,117
-196,519	-76,122	0,072	0,018
-195,504	103,133	-0,079	-0,065
-194,490	457,908	0,037	-0,059
-193,475	397,079	0,022	-0,033
-192,460	800,000	0,034	0,107
-191,446	-16,260	-0,069	0,031
-190,431	-200,000	0,006	0,061
-189,417	-200,000	0,003	-0,016
-188,402	-76,662	0,075	-0,019
-187,387	10,838	-0,094	-0,051
-186,373	389,482	0,009	0,013
-185,358	-200,000	-0,032	-0,183
-184,344	-200,000	0,001	-0,010
-183,329	-21,201	0,107	0,046
-182,315	-200,000	0,020	0,187
-181,300	456,088	-0,034	0,053
-180,285	-92,060	0,064	0,013
-179,271	-176,891	-0,143	0,003
-178,256	128,733	-0,026	-0,023
-177,242	800,000	-0,032	0,078
-176,227	179,009	-0,055	0,057
-175,212	800,000	-0,120	0,246
-174,198	800,000	-0,018	0,049
-173,183	800,000	-0,043	0,093
-172,169	-200,000	-0,011	-0,135
-171,154	321,120	0,050	0,068
-170,139	10,956	0,009	-0,005
-169,125	614,217	0,075	0,133
-168,110	-200,000	0,010	0,050
-167,096	-22,818	-0,040	0,017
-166,081	0,425	-0,088	0,045
-165,066	162,919	0,012	-0,012
-164,052	26,274	-0,052	0,031
-163,037	-200,000	0,017	0,083
-162,023	-200,000	-0,019	0,150
-161,008	30,467	-0,095	0,057
-159,993	-200,000	-0,001	-0,141
-158,979	206,069	-0,056	-0,062
-157,964	742,019	-0,046	0,089
-156,950	-18,502	-0,033	-0,014
-155,935	-33,717	0,120	-0,047
-154,920	-200,000	-0,002	0,057
-153,906	117,501	0,054	0,047
-152,891	800,000	0,049	-0,101
-151,877	-90,615	0,062	0,013
-150,862	-5,550	-0,123	-0,060
-149,847	0,529	-0,140	-0,070
-148,833	35,336	0,019	-0,012
-147,818	62,058	0,039	0,028
-146,804	-85,225	0,042	0,009
-145,789	-200,000	-0,019	0,059
-144,775	-113,245	0,017	0,002
-143,760	-200,000	-0,004	0,031
-142,745	253,628	-0,103	-0,125
-141,731	-165,954	0,090	-0,003
-140,716	263,922	-0,016	-0,020
-139,702	-23,623	-0,067	0,029
-138,687	464,504	0,030	0,048
-137,672	800,000	0,049	-0,106
-136,658	-200,000	0,018	0,068
-135,643	-200,000	-0,001	-0,102
-134,629	800,000	0,037	0,088
-133,614	-42,344	-0,114	-0,041
-132,599	470,640	-0,022	0,035
-131,585	-200,000	0,023	0,135
-130,570	48,207	-0,070	-0,046
-129,556	249,208	-0,050	-0,060
-128,541	800,000	0,032	-0,087
-127,526	101,449	-0,080	-0,066
-126,512	690,841	-0,040	0,074
-125,497	68,541	-0,054	0,039
-124,483	671,305	0,095	0,176
-123,468	-56,599	0,089	-0,028
-122,453	800,000	-0,043	-0,101
-121,439	177,725	-0,061	0,063
-120,424	21,208	0,056	0,032
-119,410	88,106	-0,112	0,088
-118,395	-200,000	-0,032	0,174
-117,380	-200,000	-0,002	0,082
-116,366	171,095	0,114	0,115
-115,351	-200,000	-0,026	-0,099
-114,337	-200,000	-0,020	-0,118
-113,322	-12,076	0,146	-0,067
-112,307	-102,533	0,049	0,008
-111,293	800,000	0,026	0,065
-110,278	-200,000	0,040	0,124
-109,264	-66,135	0,077	0,022
-108,249	150,114	0,017	-0,017
-107,234	-200,000	-0,013	-0,137
-106,220	31,128	0,014	0,008
-105,205	43,771	0,077	-0,050
-104,191	96,633	-0,162	0,131
-103,176	210,276	-0,020	0,022
-102,162	-36,795	0,142	-0,053
-101,147	-28,983	0,056	0,022
-100,132	-104,562	-0,099	-0,016
-99,118	747,160	0,024	0,046
-98,103	-200,000	0,042	0,181
-97,089	-1,393	0,148	0,074
-96,074	1,891	0,081	0,041
-95,059	-157,841	-0,084	0,003
-94,045	-137,471	-0,115	-0,009
-93,030	77,999	0,016	-0,012
-92,016	-200,000	0,009	-0,054
-91,001	800,000	0,003	0,008
-89,986	800,000	0,014	0,039
-88,972	-200,000	-0,020	0,134
-87,957	3,279	0,151	0,077
-86,943	-200,000	-0,029	-0,096
-85,928	-200,000	0,008	-0,045
-84,913	319,939	0,072	-0,096
-83,899	555,162	-0,029	-0,050
-82,884	-69,417	0,067	0,018
-81,870	-14,404	0,042	-0,019
-80,855	-138,157	-0,032	-0,002
-79,840	106,485	0,069	0,058
-78,826	145,194	-0,109	-0,103
-77,811	-200,000	-0,008	-0,077
-76,797	800,000	0,069	-0,182
-75,782	169,989	-0,101	-0,102
-74,767	233,019	0,035	-0,041
-73,753	84,001	0,015	0,011
-72,738	-200,000	0,004	-0,043
-71,724	-30,880	0,072	-0,029
-70,709	-83,479	-0,124	-0,028
-69,694	800,000	0,016	0,041
-68,680	800,000	0,052	-0,153
-67,665	-138,882	-0,107	0,008
-66,651	-20,714	0,203	-0,088
-65,636	-54,089	-0,154	-0,049
-64,622	622,417	0,027	0,049
-63,607	125,991	-0,089	-0,080
-62,592	800,000	-0,030	-0,061
-61,578	800,000	-0,015	0,033
-60,563	667,831	0,024	-0,043
-59,549	-200,000	-0,024	0,142
-58,534	45,340	-2,107	-1,369
-57,519	454,273	-1,203	-1,887
-56,505	-200,000	-0,293	-4,312
-55,490	527,044	0,953	1,591
-54,476	800,000	5,183	11,210
-53,461	-200,000	22,105	341,675
-52,446	800,000	756,803	2299,217
-51,432	535,325	1647,210	2767,168
-50,417	68,785	1645,133	1190,138
-49,403	16,158	1520,892	843,615
-48,388	10,312	1445,948	773,976
-47,373	19,207	1437,912	812,004
-46,359	13,801	1426,903	780,250
-45,344	8,625	1422,692	753,452
-44,330	8,629	1420,910	752,495
-43,315	8,589	1418,932	751,230
-42,300	8,581	1417,159	750,222
-41,286	8,587	1416,020	749,617
-40,271	8,540	1414,802	748,721
-39,257	8,591	1413,406	748,195
-38,242	8,600	1412,319	747,632
-37,227	8,590	1411,441	747,087
-36,213	8,615	1410,012	746,421
-35,198	8,596	1409,009	745,769
-34,184	8,627	1407,761	745,225
-33,169	8,504	1406,692	744,054
-32,154	8,573	1405,600	743,772
-31,140	8,577	1404,266	743,054
-30,125	8,610	1403,223	742,627
-29,111	8,562	1402,085	741,769
-28,096	8,577	1400,907	741,189
-27,082	8,497	1399,646	740,120
-26,067	8,480	1398,551	739,428
-25,052	8,528	1397,408	739,021
-24,038	8,547	1396,578	738,640
-23,023	8,518	1395,594	737,957
-22,009	8,497	1394,553	737,281
-20,994	8,486	1393,631	736,709
-19,979	8,504	1392,511	736,173
-18,965	8,473	1391,665	735,553
-17,950	8,495	1390,515	735,020
-16,936	8,455	1390,003	734,534
-15,921	8,315	1389,292	733,479
-14,906	8,464	1387,814	733,361
-13,892	8,428	1387,115	732,794
-12,877	8,460	1386,351	732,511
-11,863	8,395	1385,602	731,786
-10,848	8,416	1384,564	731,306
-9,833	8,340	1383,557	730,397
-8,819	8,366	1382,621	729,990
-7,804	8,338	1381,827	729,413
-6,790	8,363	1380,923	729,023
-5,775	8,328	1380,015	728,354
-4,760	8,372	1378,542	727,750
-3,746	8,345	1378,095	727,359
-2,731	8,347	1377,164	726,851
-1,717	8,331	1376,195	726,236
-0,702	8,350	1374,411	725,355
0,313	12,391	1286,209	697,108
1,327	28,216	679,307	403,538
2,342	43,765	116,861	75,291
3,356	-2,144	16,573	8,176
4,371	6,204	3,708	1,933
5,386	19,301	1,192	0,673
6,400	800,000	0,200	0,554
7,415	-83,340	-0,301	-0,067
8,429	181,212	-0,189	-0,196
9,444	6,778	-0,327	-0,171
10,459	-7,779	-0,279	-0,133
11,473	31,162	-0,224	-0,135
12,488	-34,581	-0,384	-0,147
13,502	-36,492	-0,232	-0,087
14,517	50,227	-0,323	-0,214
15,531	150,753	-0,372	-0,356
16,546	13,627	-0,311	-0,170
17,561	89,334	-0,413	-0,324
18,575	142,983	-0,126	-0,118
19,590	223,297	-0,167	-0,189
20,604	-72,028	-0,316	-0,082
21,619	89,687	-0,395	-0,310
22,634	86,867	-0,436	-0,338
23,648	218,529	-0,368	-0,414
24,663	111,697	-0,347	-0,295
25,677	9,685	-0,256	-0,136
26,692	40,549	-0,249	-0,157
27,707	52,623	-0,378	-0,254
28,721	37,763	-0,360	-0,224
29,736	434,623	-0,314	-0,481
30,750	147,677	-0,362	-0,343
31,765	13,711	-0,454	-0,247
32,780	191,702	-0,187	-0,198
33,794	103,126	-0,254	-0,209
34,809	187,735	-0,279	-0,293
35,823	230,354	-0,267	-0,307
36,838	-11,267	-0,360	-0,166
37,853	443,483	-0,233	-0,361
38,867	-57,407	-0,378	-0,116
39,882	216,846	-0,270	-0,302
40,896	5,421	-0,257	-0,133
41,911	43,315	-0,363	-0,232
42,926	68,186	-0,327	-0,235
43,940	-16,264	-0,403	-0,179
44,955	-4,259	-0,369	-0,179
45,969	211,936	-0,329	-0,365
46,984	208,716	-0,238	-0,262
47,999	-22,971	-0,343	-0,144
49,013	-7,503	-0,302	-0,143
50,028	50,357	-0,289	-0,191
51,042	53,783	-0,372	-0,251
52,057	-34,496	-0,354	-0,135
53,071	59,487	-0,334	-0,231
54,086	106,505	-0,294	-0,244
55,101	29,522	-0,307	-0,183
56,115	101,781	-0,313	-0,256
57,130	71,837	-0,365	-0,266
58,144	84,600	-0,374	-0,287
59,159	145,901	-0,360	-0,338
60,174	119,984	-0,293	-0,255
61,188	61,040	-0,329	-0,229
62,203	56,444	-0,288	-0,196
63,217	222,742	-0,224	-0,253
64,232	115,934	-0,341	-0,293
65,247	152,007	-0,282	-0,270
66,261	11,994	-0,359	-0,193
67,276	92,634	-0,430	-0,340
68,290	123,793	-0,288	-0,253
69,305	-107,247	-0,346	-0,053
70,320	-58,317	-0,291	-0,088
71,334	65,433	-0,340	-0,241
72,349	-79,276	-0,343	-0,081
73,363	64,791	-0,322	-0,228
74,378	171,119	-0,313	-0,314
75,393	147,771	-0,348	-0,329
76,407	-72,569	-0,273	-0,070
77,422	-10,139	-0,296	-0,137
78,436	-27,312	-0,305	-0,124
79,451	5,476	-0,289	-0,149
80,466	-79,303	-0,320	-0,075
81,480	65,429	-0,331	-0,234
82,495	92,922	-0,352	-0,278
83,509	2,223	-0,209	-0,106
84,524	46,446	-0,225	-0,146
85,539	226,344	-0,268	-0,304
86,553	-38,515	-0,287	-0,105
87,568	61,781	-0,296	-0,206
88,582	773,693	-0,186	-0,358
89,597	-8,170	-0,332	-0,156
90,611	-47,094	-0,220	-0,075
91,626	-3,556	-0,232	-0,112
92,641	8,465	-0,313	-0,164
93,655	20,928	-0,258	-0,146
94,670	-159,118	-0,272	-0,011
95,684	-55,271	-0,418	-0,130
96,699	-104,978	-0,313	-0,050
97,714	6,014	-0,241	-0,124
98,728	-31,628	-0,250	-0,098
99,743	-86,541	-0,203	-0,043
100,757	152,267	-0,170	-0,162
101,772	24,074	-0,276	-0,159
102,787	67,681	-0,247	-0,176
103,801	136,032	-0,269	-0,245
104,816	9,688	-0,221	-0,117
105,830	6,598	-0,214	-0,111
106,845	-13,295	-0,300	-0,136
107,860	-97,390	-0,276	-0,050
108,874	-36,527	-0,191	-0,071
109,889	-45,087	-0,404	-0,139
110,903	-32,132	-0,427	-0,166
111,918	12,910	-0,249	-0,134
112,933	-162,801	-0,411	0,014
113,947	172,356	-0,115	-0,116
114,962	57,348	-0,290	-0,197
115,976	-10,414	-0,284	-0,131
116,991	-15,758	-0,336	-0,149
118,006	-10,953	-0,288	-0,132
119,020	-67,867	-0,299	-0,081
120,035	179,961	-0,190	-0,194
121,049	-35,737	-0,206	-0,077
122,064	274,548	-0,187	-0,231
123,079	100,659	-0,263	-0,213
124,093	-59,977	-0,346	-0,102
125,108	107,525	-0,229	-0,190
126,122	235,209	-0,235	-0,271
127,137	131,460	-0,165	-0,148
128,151	-94,610	-0,162	-0,030
129,166	-37,329	-0,221	-0,082
130,181	8,700	-0,269	-0,141
131,195	-18,453	-0,293	-0,127
132,210	4,606	-0,374	-0,191
133,224	141,727	-0,265	-0,245
134,239	100,898	-0,211	-0,171
135,254	585,006	-0,128	-0,220
136,268	-61,699	-0,383	-0,111
137,283	40,716	-0,240	-0,150
138,297	59,320	-0,326	-0,223
139,312	396,171	-0,168	-0,246
140,327	131,413	-0,202	-0,181
141,341	-19,750	-0,277	-0,119
142,356	-107,653	-0,233	-0,035
143,370	33,556	-0,276	-0,167
144,385	196,112	-0,172	-0,183
145,400	169,234	-0,234	-0,233
146,414	-24,094	-0,203	-0,084
147,429	128,537	-0,181	-0,160
148,443	251,891	-0,200	-0,238
149,458	175,470	-0,248	-0,251
150,473	27,953	-0,231	-0,135
151,487	62,470	-0,226	-0,157
152,502	114,706	-0,308	-0,261
153,516	406,218	-0,215	-0,317
154,531	73,978	-0,256	-0,187
155,546	-61,121	-0,192	-0,056
156,560	47,244	-0,126	-0,082
157,575	-135,279	-0,203	-0,017
158,589	-157,819	-0,298	-0,012
159,604	-127,578	-0,234	-0,023
160,619	800,000	-0,077	-0,210
161,633	76,603	-0,280	-0,206
162,648	78,786	-0,271	-0,201
163,662	253,245	-0,121	-0,144
164,677	-31,977	-0,280	-0,108
165,692	0,844	-0,344	-0,171
166,706	113,179	-0,117	-0,099
167,721	76,469	-0,308	-0,226
168,735	14,343	-0,316	-0,171
169,750	90,675	-0,283	-0,220
170,764	-121,561	-0,135	-0,015
171,779	10,475	-0,200	-0,105
172,794	17,260	-0,149	-0,082
173,808	74,946	-0,185	-0,135
174,823	24,123	-0,196	-0,112
175,837	307,162	-0,247	-0,321
176,852	488,749	-0,116	-0,185
177,867	77,297	-0,217	-0,160
178,881	-24,155	-0,208	-0,086
179,896	26,386	-0,194	-0,112
180,910	800,000	-0,099	-0,277
181,925	17,087	-0,237	-0,130
182,940	78,708	-0,291	-0,216
183,954	389,751	-0,151	-0,218
184,969	178,010	-0,176	-0,178
185,983	389,806	-0,181	-0,262
186,998	312,304	-0,088	-0,115
188,013	-49,325	-0,194	-0,064
189,027	230,418	-0,209	-0,237
190,042	356,971	-0,228	-0,317
191,056	-132,716	-0,223	-0,020
192,071	-137,137	-0,238	-0,019
193,086	69,782	-0,170	-0,121
194,100	140,892	-0,168	-0,154
195,115	26,691	-0,233	-0,135
196,129	-114,044	-0,223	-0,030
197,144	282,603	-0,185	-0,231
198,159	72,202	-0,115	-0,083
199,173	-148,391	-0,171	-0,010
200,188	-34,337	-0,206	0,078
201,202	-48,628	-0,234	-0,078
202,217	74,644	-0,224	-0,163
203,232	407,057	-0,099	-0,145
204,246	-17,781	-0,439	-0,190
205,261	-43,903	-0,237	-0,082
206,275	-95,394	-0,173	0,032
207,290	-200,000	-0,091	-0,313
208,304	78,636	-0,131	-0,097
209,319	336,503	-0,201	-0,271
210,334	-58,245	-0,095	-0,028
211,348	0,934	-0,216	-0,107
212,363	314,014	-0,177	-0,231
213,377	-137,088	-0,198	-0,015
214,392	696,502	-0,158	-0,289
215,407	113,496	-0,219	-0,184
216,421	533,472	-0,073	-0,120
217,436	-123,061	-0,197	-0,022
218,450	-15,708	-0,279	-0,123
219,465	228,329	-0,241	-0,272
220,480	-41,879	-0,176	-0,062
221,494	-23,569	-0,089	-0,037
222,509	61,254	-0,184	-0,126
223,523	-10,368	-0,205	-0,094
224,538	304,974	-0,234	-0,301
225,553	380,700	-0,178	-0,254
226,567	45,005	-0,332	-0,211
227,582	-15,003	-0,226	-0,100
228,596	-200,000	-0,045	-0,204
229,611	632,659	-0,120	-0,210
230,626	-100,165	-0,176	-0,030
231,640	-200,000	-0,042	-0,220
232,655	82,832	-0,154	-0,116
233,669	-45,927	-0,235	-0,080
234,684	96,996	-0,169	-0,134
235,699	325,079	-0,172	-0,228
236,713	-196,083	-0,166	0,001
237,728	-53,705	-0,149	-0,047
238,742	-69,728	-0,098	-0,026
239,757	102,190	-0,209	-0,169
240,772	95,905	-0,182	-0,144
241,786	-200,000	0,001	-0,292
242,801	15,408	-0,164	-0,088
243,815	16,479	-0,169	-0,092
244,830	5,997	-0,087	-0,044
245,844	368,107	-0,137	-0,192
246,859	-57,796	-0,319	-0,096
247,874	95,917	-0,254	-0,200
248,888	134,670	-0,258	-0,231
249,903	344,155	-0,126	-0,171
250,917	85,997	-0,086	-0,065
251,932	-200,000	-0,222	0,000
252,947	129,338	-0,116	-0,102
253,961	287,244	-0,197	-0,247
254,976	159,678	-0,142	-0,136
255,990	218,424	-0,091	-0,100
257,005	97,227	-0,174	-0,138
258,020	160,307	-0,244	-0,234
259,034	12,462	-0,121	-0,064
260,049	200,084	-0,163	-0,172
261,063	8,853	-0,112	-0,058
262,078	800,000	-0,104	-0,263
263,093	219,978	-0,091	-0,101
264,107	91,736	-0,209	-0,162
265,122	191,913	-0,083	-0,086
266,136	796,775	-0,041	0,078
267,151	-90,071	-0,145	0,029
268,166	-111,840	-0,275	0,038
269,180	248,446	-0,162	-0,190
270,195	205,560	-0,160	-0,171
271,209	688,429	-0,156	-0,282
272,224	-96,791	-0,104	-0,019
273,239	64,074	-0,133	-0,092
274,253	133,681	-0,146	-0,130
275,268	-47,468	-0,219	0,073
276,282	348,371	-0,212	-0,289
277,297	560,694	-0,123	-0,206
278,312	203,142	-0,146	-0,156
279,326	533,175	-0,092	-0,151
280,341	67,935	-0,089	-0,063
281,355	277,367	-0,157	-0,192
282,370	-167,285	-0,144	0,004
283,384	54,628	-0,181	-0,120
284,399	800,000	-0,111	-0,260
285,414	-63,925	-0,174	-0,048
286,428	800,000	-0,068	-0,140
287,443	171,764	-0,095	-0,094
288,457	265,062	-0,119	-0,143
289,472	-26,293	-0,259	-0,104
290,487	-91,159	-0,178	-0,035
291,501	-200,000	-0,048	-0,193
292,516	-11,631	-0,205	-0,092
293,530	-200,000	-0,058	-0,182
294,545	199,048	-0,119	-0,126
295,560	-55,148	-0,139	-0,043
296,574	800,000	-0,102	-0,202
297,589	164,363	-0,136	-0,132
298,603	49,219	-0,138	-0,089
299,618	-104,594	-0,200	-0,031
300,633	-111,736	-0,208	-0,029
301,647	-158,337	-0,118	-0,005
302,662	-97,918	-0,133	0,023
303,676	-200,000	-0,009	-0,037
304,691	396,551	-0,170	-0,244
305,706	194,500	-0,176	-0,183
306,720	172,760	-0,144	-0,143
307,735	-112,610	-0,148	-0,020
308,749	-100,203	-0,230	0,039
309,764	-28,758	-0,246	-0,097
310,779	188,247	-0,178	-0,183
311,793	-10,702	-0,317	-0,143
312,808	-200,000	-0,079	-0,343
313,822	163,943	-0,222	-0,214
314,837	-200,000	-0,035	-0,176
315,852	-52,187	-0,172	-0,054
316,866	160,967	-0,133	-0,128
317,881	93,608	-0,105	-0,081
318,895	65,082	-0,130	-0,090
319,910	-56,737	-0,159	-0,048
320,925	19,208	-0,203	-0,111
321,939	-2,179	-0,241	-0,115
322,954	48,657	-0,200	-0,128
323,968	-165,724	-0,133	-0,004
324,983	121,579	-0,135	-0,115
325,997	34,328	-0,195	-0,117
327,012	323,186	-0,084	-0,110
328,027	800,000	-0,065	-0,152
329,041	103,904	-0,126	-0,102
330,056	672,834	-0,073	-0,130
331,070	-174,137	-0,161	0,003
332,085	-146,126	-0,203	-0,012
333,100	33,858	-0,191	-0,113
334,114	65,716	-0,090	0,063
335,129	-198,262	-0,192	-0,001
336,143	-20,909	-0,166	-0,069
337,158	-200,000	0,010	-0,083
338,173	-114,737	-0,142	0,018
339,187	-101,439	-0,105	-0,017
340,202	294,101	-0,103	0,129
341,216	141,360	-0,172	-0,156
342,231	-200,000	-0,035	-0,204
343,246	-136,694	-0,165	-0,013
344,260	3,194	-0,110	-0,055
345,275	-200,000	0,004	-0,105
346,289	800,000	-0,046	-0,117
347,304	639,502	-0,104	-0,181
348,319	197,821	-0,193	-0,202
349,333	617,786	-0,098	-0,170
350,348	263,499	-0,041	-0,048
351,362	-200,000	-0,009	0,028
352,377	-109,901	0,097	-0,014
353,392	323,406	-0,036	-0,048
354,406	-200,000	0,000	-0,067
355,421	207,717	1305,421	1395,007
356,435	159,810	1464,947	1395,477
