DTS Sentinel unit serial number:	SN410029Multiplexer serial number:	ORYXHardware model number:	OX2-SRSoftware version number:	ORYX F/W v4,00 Oryx Data Collector v3.7.2.0data status	okinstallation	B3 Nyhavnadifferential loss correction	single-endedforward channel	channel 1reverse channel	N/Adate	2023/12/02time	01:02:30forward acquisition time	300,00reverse acquisition time	0,00gamma	499,1914k internal	0,3196k external	0,3196temperature offset calibration	1,0000default loss term (dB/km)	0,3820temperature slope calibration	1,0000multiplexer offset coefficient	1,0000multiplexer slope coefficient	1,0000fibre end	0,00T internal ref (°C)	16,38T ext. ref 1 (°C)	1,96T ext. ref 2 (°C)	1,95length (m)	temperature (°C)	Stokes	anti-Stokes-744,400	266,143	-0,201	-0,257
-743,385	-200,000	-0,062	0,458
-742,371	175,254	-0,167	-0,176
-741,356	-200,000	0,116	0,388
-740,342	-14,753	-0,261	-0,122
-739,327	-200,000	0,071	0,422
-738,312	608,543	-0,112	-0,205
-737,298	-200,000	0,046	0,207
-736,283	302,417	-0,131	-0,177
-735,269	800,000	0,124	0,270
-734,254	259,718	-0,170	-0,214
-733,239	-67,984	-0,300	0,085
-732,225	-75,221	-0,190	-0,049
-731,210	800,000	0,103	0,235
-730,196	-200,000	-0,004	-0,110
-729,181	-114,188	-0,136	-0,019
-728,167	-200,000	-0,008	0,172
-727,152	-85,049	0,007	0,002
-726,137	114,393	-0,139	-0,123
-725,123	18,332	-0,044	0,025
-724,108	-200,000	0,014	-0,161
-723,094	-105,699	-0,029	-0,005
-722,079	380,793	-0,040	0,059
-721,064	538,118	-0,067	-0,117
-720,050	800,000	-0,026	0,065
-719,035	562,141	-0,034	0,061
-718,021	-200,000	-0,008	0,030
-717,006	-17,681	-0,114	-0,052
-715,991	800,000	-0,021	-0,046
-714,977	-54,992	0,114	0,037
-713,962	-75,224	-0,134	0,035
-712,948	800,000	0,048	0,107
-711,933	-175,512	-0,023	0,000
-710,918	-43,337	-0,105	-0,039
-709,904	68,413	0,035	-0,026
-708,889	800,000	0,052	-0,106
-707,875	-200,000	0,013	-0,053
-706,860	-89,655	0,095	0,020
-705,845	800,000	0,033	0,091
-704,831	99,867	0,091	0,076
-703,816	49,734	-0,037	0,025
-702,802	-175,141	-0,031	-0,001
-701,787	-31,532	-0,025	-0,010
-700,772	-147,104	-0,015	-0,001
-699,758	800,000	-0,008	0,018
-698,743	-118,258	0,104	0,013
-697,729	-89,286	-0,090	-0,019
-696,714	800,000	-0,050	0,112
-695,699	-74,228	-0,146	0,038
-694,685	540,055	-0,102	-0,177
-693,670	-200,000	-0,012	-0,131
-692,656	308,219	0,100	-0,136
-691,641	-200,000	0,008	-0,048
-690,627	800,000	0,036	-0,112
-689,612	486,191	-0,061	-0,101
-688,597	800,000	-0,050	0,103
-687,583	-177,714	-0,170	-0,003
-686,568	800,000	-0,008	0,018
-685,554	-44,711	-0,142	0,051
-684,539	168,469	0,098	-0,101
-683,524	-200,000	-0,011	-0,168
-682,510	-97,278	-0,091	0,017
-681,495	-27,234	-0,145	-0,061
-680,481	800,000	0,073	0,162
-679,466	79,641	-0,041	0,032
-678,451	196,034	-0,125	0,139
-677,437	97,607	0,084	-0,070
-676,422	-97,296	0,163	0,031
-675,408	-60,946	-0,116	0,035
-674,393	800,000	-0,044	0,126
-673,378	-134,205	-0,142	-0,013
-672,364	800,000	0,011	-0,033
-671,349	-7,903	0,091	0,044
-670,335	367,014	0,043	0,063
-669,320	-95,986	0,021	0,004
-668,305	-200,000	-0,016	0,088
-667,291	800,000	-0,054	-0,156
-666,276	146,407	0,076	-0,075
-665,262	54,673	-0,131	-0,091
-664,247	10,058	-0,108	-0,060
-663,232	800,000	0,053	0,110
-662,218	-4,836	-0,055	-0,027
-661,203	44,460	0,144	-0,096
-660,189	-200,000	0,001	0,038
-659,174	-200,000	-0,043	-0,146
-658,159	-162,684	-0,110	-0,004
-657,145	800,000	-0,040	-0,122
-656,130	-41,393	0,056	0,021
-655,116	-200,000	0,008	0,100
-654,101	-200,000	0,025	0,121
-653,086	-3,187	0,019	0,010
-652,072	40,420	0,019	-0,013
-651,057	-200,000	-0,001	0,119
-650,043	93,842	-0,164	-0,135
-649,028	-77,837	-0,036	-0,009
-648,014	102,813	0,085	0,072
-646,999	-135,891	0,059	0,005
-645,984	800,000	0,049	0,100
-644,970	103,391	-0,020	0,017
-643,955	749,846	-0,104	-0,205
-642,941	-200,000	-0,002	-0,146
-641,926	304,611	-0,093	-0,125
-640,911	-116,398	0,165	-0,022
-639,897	170,738	0,109	-0,113
-638,882	168,516	-0,083	-0,086
-637,868	75,749	0,027	-0,021
-636,853	-200,000	-0,024	-0,127
-635,838	-200,000	-0,002	0,024
-634,824	-200,000	-0,028	-0,120
-633,809	49,988	-0,124	-0,085
-632,795	17,745	0,172	0,099
-631,780	85,259	0,118	-0,094
-630,765	800,000	0,094	0,225
-629,751	-103,377	-0,065	0,011
-628,736	-6,744	0,114	-0,056
-627,722	-84,997	-0,097	-0,022
-626,707	99,903	0,067	0,056
-625,692	-99,029	0,076	0,014
-624,678	588,596	0,051	-0,092
-623,663	-131,374	0,101	-0,010
-622,649	576,474	-0,035	-0,062
-621,634	482,822	0,071	-0,117
-620,619	-200,000	-0,013	-0,144
-619,605	122,329	-0,048	-0,043
-618,590	800,000	-0,028	-0,081
-617,576	-92,239	0,033	-0,007
-616,561	126,369	0,048	-0,044
-615,546	-104,057	-0,046	-0,008
-614,532	-127,814	-0,150	0,015
-613,517	142,786	-0,085	-0,082
-612,503	56,997	0,021	0,015
-611,488	-30,138	0,033	0,014
-610,474	-200,000	-0,030	-0,132
-609,459	437,379	0,101	0,160
-608,444	8,178	-0,068	0,037
-607,430	-47,581	-0,088	-0,031
-606,415	755,273	0,059	-0,117
-605,401	467,460	-0,056	0,091
-604,386	122,418	0,046	-0,042
-603,371	-6,385	-0,053	0,026
-602,357	-200,000	0,022	-0,102
-601,342	190,240	0,042	0,046
-600,328	-81,736	-0,118	0,028
-599,313	6,015	-0,123	-0,066
-598,298	-200,000	0,014	0,047
-597,284	168,739	0,087	-0,090
-596,269	15,365	0,034	-0,019
-595,255	104,314	0,156	-0,133
-594,240	328,455	0,043	-0,060
-593,225	-25,087	-0,095	0,041
-592,211	42,511	-0,036	0,024
-591,196	126,761	-0,035	-0,032
-590,182	215,089	0,046	-0,053
-589,167	257,925	-0,019	0,023
-588,152	800,000	0,032	-0,070
-587,138	-11,052	-0,071	0,034
-586,123	-103,398	-0,051	-0,009
-585,109	-90,987	-0,132	-0,027
-584,094	644,797	0,091	-0,169
-583,079	800,000	-0,045	0,124
-582,065	453,752	0,013	-0,020
-581,050	-93,761	-0,099	-0,020
-580,036	800,000	0,026	-0,076
-579,021	59,630	-0,056	0,040
-578,006	-83,115	0,053	0,012
-576,992	86,435	-0,033	0,026
-575,977	662,761	-0,031	-0,058
-574,963	800,000	-0,037	0,079
-573,948	-200,000	-0,010	0,046
-572,934	129,121	-0,039	-0,036
-571,919	800,000	0,021	0,067
-570,904	800,000	-0,066	-0,149
-569,890	10,754	0,028	-0,016
-568,875	491,820	0,095	0,158
-567,861	37,719	-0,058	0,037
-566,846	-9,866	0,170	0,081
-565,831	434,528	-0,031	0,049
-564,817	-101,142	0,059	-0,010
-563,802	441,375	-0,098	-0,156
-562,788	800,000	-0,073	-0,171
-561,773	151,977	-0,062	0,062
-560,758	-127,783	-0,077	-0,008
-559,744	-200,000	-0,009	-0,048
-558,729	300,151	0,079	-0,106
-557,715	143,457	-0,117	0,113
-556,700	-28,079	-0,066	0,028
-555,685	-108,902	-0,020	-0,003
-554,671	-200,000	-0,018	0,127
-553,656	-86,913	0,078	-0,017
-552,642	-200,000	-0,000	-0,077
-551,627	494,694	0,050	0,084
-550,612	189,567	-0,085	0,092
-549,598	800,000	0,029	0,079
-548,583	213,418	-0,077	-0,088
-547,569	471,963	0,038	0,063
-546,554	-141,096	0,079	-0,006
-545,539	800,000	-0,073	0,151
-544,525	56,148	0,062	0,043
-543,510	-40,862	0,074	-0,027
-542,496	800,000	-0,041	-0,085
-541,481	800,000	-0,004	-0,008
-540,466	-11,349	-0,052	-0,025
-539,452	454,001	0,068	0,109
-538,437	800,000	0,073	0,165
-537,423	24,454	0,093	0,056
-536,408	110,331	0,070	-0,061
-535,393	-33,204	0,093	0,037
-534,379	11,247	0,104	-0,058
-533,364	40,193	-0,072	-0,047
-532,350	-98,547	-0,075	0,014
-531,335	800,000	-0,022	-0,068
-530,321	800,000	0,055	0,139
-529,306	-12,784	0,055	-0,026
-528,291	34,655	-0,013	0,008
-527,277	-15,410	-0,046	0,021
-526,262	529,926	0,032	0,054
-525,248	800,000	-0,049	-0,100
-524,233	800,000	0,061	0,138
-523,218	-200,000	-0,004	0,036
-522,204	200,134	-0,061	-0,068
-521,189	739,612	0,008	0,016
-520,175	-48,918	-0,055	-0,019
-519,160	-200,000	0,024	0,135
-518,145	-200,000	0,000	0,043
-517,131	244,053	0,015	-0,018
-516,116	86,456	-0,087	0,069
-515,102	-65,533	0,075	-0,022
-514,087	-152,728	-0,012	0,001
-513,072	800,000	0,048	-0,134
-512,058	-200,000	-0,007	-0,121
-511,043	-200,000	0,000	-0,039
-510,029	49,644	-0,017	0,011
-509,014	-200,000	0,018	-0,096
-507,999	-200,000	-0,025	-0,138
-506,985	-101,070	0,069	0,012
-505,970	192,474	-0,079	0,086
-504,956	800,000	0,035	0,095
-503,941	548,880	-0,050	-0,087
-502,926	56,122	-0,096	-0,067
-501,912	-200,000	-0,003	0,030
-500,897	50,644	-0,099	-0,067
-499,883	800,000	0,057	-0,175
-498,868	80,332	-0,085	-0,066
-497,853	-77,012	0,053	0,013
-496,839	122,066	0,119	-0,107
-495,824	-200,000	0,007	-0,039
-494,810	-85,437	0,151	0,034
-493,795	603,873	-0,020	0,036
-492,781	-107,746	-0,111	0,017
-491,766	65,336	-0,072	0,052
-490,751	800,000	0,043	-0,099
-489,737	800,000	-0,011	0,033
-488,722	272,509	-0,050	0,064
-487,708	698,020	0,048	0,091
-486,693	-200,000	-0,012	0,073
-485,678	38,589	-0,150	0,096
-484,664	-110,691	-0,075	-0,011
-483,649	800,000	0,035	-0,098
-482,635	-200,000	0,020	-0,074
-481,620	-178,691	0,104	-0,002
-480,605	575,045	0,017	0,029
-479,591	-116,934	0,087	0,011
-478,576	-52,915	0,157	-0,052
-477,562	-152,823	-0,087	0,004
-476,547	-200,000	0,021	0,087
-475,532	351,631	-0,061	-0,088
-474,518	428,703	-0,046	0,072
-473,503	218,899	0,032	0,037
-472,489	697,904	-0,015	0,028
-471,474	526,706	0,049	0,084
-470,459	-112,820	-0,047	0,007
-469,445	181,006	-0,015	0,015
-468,430	290,496	-0,050	-0,066
-467,416	800,000	-0,017	0,039
-466,401	-156,110	0,097	0,004
-465,386	-110,296	-0,058	-0,009
-464,372	-100,192	-0,030	-0,005
-463,357	100,852	-0,079	0,066
-462,343	-44,492	0,120	0,043
-461,328	180,169	-0,139	-0,147
-460,313	-143,802	0,090	-0,006
-459,299	267,115	0,039	0,049
-458,284	-15,184	-0,139	0,064
-457,270	-200,000	-0,005	-0,038
-456,255	-37,495	-0,060	-0,023
-455,241	-133,509	0,056	-0,005
-454,226	18,219	-0,058	0,033
-453,211	-200,000	0,009	0,045
-452,197	800,000	0,026	-0,051
-451,182	-45,429	0,013	-0,005
-450,168	800,000	-0,008	-0,022
-449,153	-54,114	-0,074	0,024
-448,138	-154,583	-0,192	0,009
-447,124	14,984	0,109	0,061
-446,109	800,000	-0,026	0,081
-445,095	-115,949	0,078	-0,010
-444,080	5,621	0,102	0,054
-443,065	25,675	0,095	-0,057
-442,051	-200,000	-0,043	0,167
-441,036	556,579	-0,064	-0,111
-440,022	527,598	-0,076	0,129
-439,007	139,299	0,036	0,034
-437,992	-200,000	-0,003	-0,066
-436,978	-159,812	0,087	0,003
-435,963	-200,000	-0,034	0,143
-434,949	-200,000	0,019	-0,151
-433,934	-36,977	-0,055	-0,021
-432,919	624,726	-0,075	-0,137
-431,905	-114,057	-0,132	-0,018
-430,890	-82,484	0,145	0,034
-429,876	-66,985	0,036	-0,010
-428,861	158,022	-0,043	-0,043
-427,846	-94,268	-0,045	0,009
-426,832	-200,000	0,026	-0,138
-425,817	-109,346	-0,155	-0,023
-424,803	-104,571	0,202	-0,033
-423,788	213,950	-0,108	-0,123
-422,773	-20,597	-0,033	-0,014
-421,759	199,167	0,039	0,043
-420,744	-151,131	-0,031	0,002
-419,730	172,570	-0,091	-0,094
-418,715	-2,707	0,053	-0,027
-417,701	566,315	0,041	-0,073
-416,686	-77,487	-0,045	-0,011
-415,671	-101,867	0,090	0,015
-414,657	-200,000	-0,016	0,063
-413,642	800,000	-0,024	0,055
-412,628	-200,000	0,006	0,022
-411,613	800,000	-0,046	0,106
-410,598	267,370	0,034	-0,043
-409,584	117,115	0,046	0,041
-408,569	-200,000	0,025	0,080
-407,555	74,835	0,050	0,038
-406,540	-200,000	0,008	-0,028
-405,525	80,381	-0,155	0,120
-404,511	-60,525	-0,160	0,049
-403,496	270,688	-0,110	-0,139
-402,482	-123,035	-0,171	-0,020
-401,467	-200,000	0,026	0,101
-400,452	-108,617	-0,150	0,023
-399,438	-129,500	0,032	0,003
-398,423	-41,026	-0,144	-0,053
-397,409	21,149	-0,101	-0,059
-396,394	760,406	0,059	0,115
-395,379	70,834	0,071	0,053
-394,365	800,000	-0,039	0,110
-393,350	-63,575	0,085	-0,025
-392,336	46,876	-0,056	-0,038
-391,321	47,814	-0,056	-0,037
-390,306	-144,426	-0,138	-0,009
-389,292	-143,441	-0,208	-0,014
-388,277	-12,843	0,071	-0,033
-387,263	-57,747	0,025	-0,008
-386,248	-23,851	-0,092	0,039
-385,233	-96,649	0,094	-0,018
-384,219	313,514	-0,029	0,040
-383,204	735,334	-0,057	-0,110
-382,190	399,950	-0,128	-0,194
-381,175	-64,860	0,041	-0,012
-380,160	85,591	-0,044	0,035
-379,146	70,510	0,032	-0,024
-378,131	-102,133	0,130	0,022
-377,117	-43,360	-0,113	-0,041
-376,102	-26,055	0,069	-0,029
-375,088	-41,614	-0,118	-0,043
-374,073	78,409	0,101	-0,077
-373,058	424,260	-0,100	0,154
-372,044	351,204	0,058	-0,083
-371,029	-91,169	0,039	-0,008
-370,015	800,000	0,014	-0,036
-369,000	248,810	0,045	-0,055
-367,985	238,644	0,090	0,107
-366,971	-200,000	0,012	-0,053
-365,956	800,000	0,027	0,067
-364,942	262,428	0,058	-0,072
-363,927	-14,929	0,118	0,054
-362,912	122,151	0,057	0,051
-361,898	-200,000	-0,001	0,041
-360,883	-35,195	-0,064	-0,025
-359,869	-129,280	-0,113	-0,011
-358,854	800,000	-0,035	0,095
-357,839	-151,284	0,179	-0,009
-356,825	318,940	0,087	0,119
-355,810	-200,000	-0,020	0,068
-354,796	800,000	-0,006	0,012
-353,781	141,542	0,077	-0,073
-352,766	-200,000	-0,004	-0,057
-351,752	42,697	0,154	0,100
-350,737	559,002	-0,048	0,084
-349,723	-20,354	0,093	0,041
-348,708	242,942	0,038	-0,046
-347,693	800,000	-0,009	-0,023
-346,679	-200,000	0,006	-0,097
-345,664	-200,000	-0,015	-0,070
-344,650	800,000	0,024	-0,053
-343,635	-126,635	0,075	-0,008
-342,620	-52,378	0,081	0,027
-341,606	-200,000	0,004	0,070
-340,591	-139,627	0,042	0,003
-339,577	-160,797	-0,112	-0,004
-338,562	-26,116	0,117	0,049
-337,548	25,908	-0,120	0,071
-336,533	-200,000	0,025	0,092
-335,518	-200,000	0,006	0,023
-334,504	-104,364	0,110	-0,018
-333,489	-123,285	-0,078	0,009
-332,475	-35,674	0,080	-0,031
-331,460	-123,029	-0,179	0,020
-330,445	77,945	0,124	-0,094
-329,431	-200,000	0,015	-0,065
-328,416	-157,448	0,125	0,005
-327,402	280,886	0,064	0,083
-326,387	122,299	0,103	-0,092
-325,372	-200,000	0,016	-0,123
-324,358	-200,000	0,003	-0,078
-323,343	-200,000	-0,019	0,090
-322,329	800,000	0,022	-0,050
-321,314	800,000	0,021	0,053
-320,299	-154,477	0,119	-0,006
-319,285	800,000	-0,025	-0,062
-318,270	239,545	0,041	0,049
-317,256	-100,091	-0,068	0,012
-316,241	50,275	-0,047	-0,032
-315,226	800,000	0,028	0,059
-314,212	-200,000	-0,049	0,167
-313,197	27,134	0,089	-0,054
-312,183	-200,000	-0,003	0,027
-311,168	-73,683	0,045	0,012
-310,153	264,024	0,026	0,032
-309,139	415,594	-0,080	-0,123
-308,124	800,000	-0,031	0,088
-307,110	-200,000	0,033	0,194
-306,095	800,000	0,025	0,052
-305,080	393,807	0,056	0,084
-304,066	800,000	0,043	-0,092
-303,051	135,620	0,070	-0,066
-302,037	-200,000	-0,014	0,099
-301,022	365,045	-0,067	-0,096
-300,008	63,543	0,125	0,090
-298,993	-200,000	-0,007	0,055
-297,978	-96,548	0,100	-0,019
-296,964	475,918	0,013	-0,021
-295,949	800,000	-0,012	-0,034
-294,935	-200,000	-0,107	0,000
-293,920	87,617	-0,143	0,113
-292,905	-200,000	-0,000	0,185
-291,891	108,880	0,083	0,071
-290,876	-60,690	0,019	-0,006
-289,862	-26,929	0,047	0,020
-288,847	406,975	0,120	-0,181
-287,832	-200,000	0,008	-0,065
-286,818	-164,827	0,036	0,001
-285,803	148,778	0,022	-0,021
-284,789	30,489	0,143	0,088
-283,774	-108,501	-0,204	0,031
-282,759	-80,286	0,039	-0,009
-281,745	-200,000	0,012	-0,069
-280,730	-34,933	-0,079	-0,031
-279,716	-92,882	-0,083	0,017
-278,701	109,716	0,105	0,090
-277,686	800,000	0,041	0,085
-276,672	119,848	0,147	0,131
-275,657	66,223	-0,070	0,051
-274,643	-185,671	-0,119	-0,001
-273,628	58,699	-0,127	-0,089
-272,613	-200,000	0,017	0,073
-271,599	-128,978	0,067	0,007
-270,584	162,146	0,168	0,168
-269,570	-8,800	-0,052	-0,025
-268,555	-200,000	-0,003	0,018
-267,540	67,174	0,079	-0,057
-266,526	77,107	-0,064	-0,048
-265,511	45,774	-0,181	0,120
-264,497	800,000	0,030	0,081
-263,482	293,824	0,010	-0,013
-262,467	800,000	-0,059	-0,121
-261,453	53,590	-0,070	-0,048
-260,438	-4,652	0,095	-0,047
-259,424	-40,741	0,059	-0,022
-258,409	366,925	0,097	-0,140
-257,395	167,335	0,071	0,072
-256,380	-55,090	0,057	0,018
-255,365	-44,873	0,082	0,029
-254,351	-200,000	0,032	0,123
-253,336	270,085	-0,105	0,133
-252,322	-54,877	0,193	-0,062
-251,307	-28,555	-0,058	-0,024
-250,292	-200,000	0,002	0,037
-249,278	268,952	0,107	0,134
-248,263	-24,359	0,071	-0,030
-247,249	513,081	0,080	0,134
-246,234	169,591	0,099	0,101
-245,219	-110,866	-0,242	-0,035
-244,205	170,643	-0,059	0,060
-243,190	800,000	0,055	0,156
-242,176	-52,416	-0,012	-0,004
-241,161	432,301	0,043	0,067
-240,146	438,391	-0,038	0,060
-239,132	-153,846	0,155	-0,007
-238,117	180,211	-0,054	-0,057
-237,103	-200,000	0,036	-0,158
-236,088	-149,423	-0,057	-0,003
-235,073	-61,168	-0,027	-0,008
-234,059	800,000	0,027	0,084
-233,044	28,822	0,075	0,045
-232,030	351,261	-0,027	0,039
-231,015	30,293	-0,172	-0,105
-230,000	199,379	0,084	-0,092
-228,986	-13,892	0,023	-0,011
-227,971	118,532	-0,038	-0,033
-226,957	-175,434	0,080	0,002
-225,942	-200,000	0,000	0,037
-224,927	-9,373	-0,156	0,074
-223,913	-200,000	0,024	-0,077
-222,898	-156,740	-0,062	0,003
-221,884	1,220	-0,077	0,039
-220,869	-111,067	0,095	-0,014
-219,855	-0,774	0,093	0,047
-218,840	-100,208	0,044	-0,008
-217,825	6,389	-0,080	-0,042
-216,811	211,918	0,036	-0,040
-215,796	417,991	-0,088	-0,135
-214,782	8,848	0,035	0,019
-213,767	109,412	0,094	0,081
-212,752	-200,000	0,003	0,105
-211,738	-1,711	0,098	-0,049
-210,723	800,000	0,006	-0,017
-209,709	800,000	0,021	0,058
-208,694	-9,636	-0,104	0,049
-207,679	313,153	-0,015	-0,020
-206,665	461,412	-0,037	-0,059
-205,650	-200,000	-0,030	-0,227
-204,636	88,727	-0,119	0,094
-203,621	12,128	-0,076	-0,042
-202,606	56,387	0,016	0,011
-201,592	72,503	0,048	0,036
-200,577	-200,000	0,007	-0,099
-199,563	231,673	-0,056	-0,065
-198,548	200,663	0,047	0,052
-197,533	-28,365	0,055	0,023
-196,519	73,762	-0,063	-0,047
-195,504	-34,647	0,060	-0,023
-194,490	795,827	-0,008	0,016
-193,475	-200,000	-0,011	-0,091
-192,460	246,150	-0,124	-0,150
-191,446	391,327	0,037	0,055
-190,431	277,406	-0,050	0,064
-189,417	-200,000	-0,001	0,072
-188,402	800,000	0,018	0,046
-187,387	404,539	-0,072	0,109
-186,373	206,479	-0,017	-0,019
-185,358	-20,038	-0,106	-0,047
-184,344	800,000	0,057	-0,171
-183,329	800,000	-0,017	-0,047
-182,315	-200,000	0,001	0,006
-181,300	-35,919	-0,080	0,031
-180,285	6,391	-0,056	-0,029
-179,271	-45,751	-0,100	0,035
-178,256	193,018	-0,008	0,008
-177,242	142,059	-0,041	0,039
-176,227	-109,785	0,069	0,010
-175,212	-200,000	-0,007	0,060
-174,198	360,988	-0,060	0,087
-173,183	73,632	-0,057	0,042
-172,169	14,066	-0,107	0,059
-171,154	121,451	0,060	0,053
-170,139	-200,000	0,009	0,054
-169,125	-12,708	0,071	0,033
-168,110	51,934	0,116	-0,079
-167,096	800,000	0,060	-0,184
-166,081	-200,000	0,006	0,049
-165,066	221,519	0,046	0,052
-164,052	59,144	-0,024	-0,017
-163,037	-200,000	0,007	0,049
-162,023	-140,700	0,013	0,001
-161,008	800,000	-0,072	0,166
-159,993	800,000	-0,004	0,010
-158,979	-101,463	-0,231	-0,040
-157,964	-200,000	-0,009	-0,145
-156,950	662,980	0,012	-0,023
-155,935	21,026	-0,086	-0,050
-154,920	-45,354	0,105	0,037
-153,906	-200,000	0,044	0,164
-152,891	800,000	-0,022	-0,054
-151,877	-43,670	0,039	0,014
-150,862	-200,000	0,014	-0,148
-149,847	95,480	0,033	0,027
-148,833	-65,500	0,117	-0,033
-147,818	-200,000	-0,007	0,106
-146,804	177,527	0,090	0,093
-145,789	407,239	-0,047	0,071
-144,775	800,000	-0,023	-0,072
-143,760	93,198	-0,029	-0,023
-142,745	-69,320	-0,118	0,032
-141,731	-17,591	0,096	0,043
-140,716	260,427	0,075	0,092
-139,702	-85,667	0,054	0,012
-138,687	800,000	0,055	0,123
-137,672	-88,225	-0,086	0,018
-136,658	800,000	0,051	0,115
-135,643	800,000	-0,033	0,096
-134,629	-200,000	-0,001	-0,137
-133,614	402,056	0,041	0,062
-132,599	-200,000	0,023	-0,126
-131,585	-88,608	0,102	-0,021
-130,570	156,440	0,119	0,117
-129,556	693,741	-0,017	0,032
-128,541	4,801	-0,196	0,102
-127,526	-116,452	0,013	0,002
-126,512	125,641	0,195	0,175
-125,497	284,138	-0,083	0,107
-124,483	754,206	-0,038	0,073
-123,468	-98,027	-0,115	0,021
-122,453	577,379	-0,071	-0,124
-121,439	278,338	-0,070	-0,089
-120,424	576,776	0,014	-0,024
-119,410	292,081	0,074	-0,096
-118,395	14,926	-0,127	-0,070
-117,380	-200,000	0,038	0,137
-116,366	-200,000	-0,005	0,023
-115,351	-8,962	-0,094	0,044
-114,337	-85,656	0,038	-0,008
-113,322	-200,000	0,019	-0,072
-112,307	-200,000	0,023	0,098
-111,293	-113,595	0,072	-0,010
-110,278	-109,580	-0,069	0,010
-109,264	621,808	0,019	0,033
-108,249	-69,969	-0,109	-0,029
-107,234	197,498	-0,116	-0,126
-106,220	-200,000	-0,018	-0,133
-105,205	-66,041	0,089	-0,025
-104,191	-33,008	-0,073	0,028
-103,176	-200,000	-0,016	0,055
-102,162	146,768	0,076	0,073
-101,147	-50,583	0,038	0,013
-100,132	-54,413	-0,111	-0,035
-99,118	147,766	0,081	0,078
-98,103	-8,957	0,100	0,047
-97,089	-136,918	-0,034	0,003
-96,074	-200,000	0,024	0,146
-95,059	-1,139	0,070	0,035
-94,045	47,621	-0,088	-0,058
-93,030	-8,041	-0,072	-0,034
-92,016	11,029	-0,151	0,082
-91,001	-83,067	-0,070	0,016
-89,986	-200,000	-0,027	-0,106
-88,972	-200,000	-0,010	-0,104
-87,957	220,100	0,092	0,105
-86,943	-200,000	-0,010	-0,120
-85,928	-83,401	-0,004	0,001
-84,913	-200,000	-0,032	-0,146
-83,899	545,466	-0,043	-0,074
-82,884	96,195	-0,086	0,070
-81,870	-3,308	-0,147	0,073
-80,855	527,478	-0,007	0,011
-79,840	800,000	0,023	0,052
-78,826	-8,630	-0,096	-0,045
-77,811	15,086	-0,184	0,102
-76,797	356,125	-0,120	-0,170
-75,782	-69,759	-0,176	-0,047
-74,767	560,109	-0,064	0,111
-73,753	800,000	0,019	0,056
-72,738	-200,000	-0,004	-0,110
-71,724	-200,000	-0,022	0,093
-70,709	502,600	-0,075	0,123
-69,694	164,789	-0,068	-0,068
-68,680	-200,000	0,027	-0,144
-67,665	-200,000	-0,004	0,027
-66,651	324,631	0,072	0,098
-65,636	-98,336	0,078	-0,014
-64,622	-11,648	-0,058	-0,027
-63,607	800,000	-0,058	0,141
-62,592	800,000	0,040	-0,124
-61,578	-84,093	0,049	-0,011
-60,563	92,489	0,141	0,113
-59,549	130,468	-0,144	0,131
-58,534	-70,255	-1,327	-0,355
-57,519	442,668	-1,564	-2,439
-56,505	-200,000	-0,435	-4,289
-55,490	62,049	0,849	0,599
-54,476	800,000	4,839	11,324
-53,461	-200,000	17,368	271,957
-52,446	800,000	717,121	2190,158
-51,432	553,009	1631,038	2790,468
-50,417	81,141	1656,001	1266,936
-49,403	24,187	1530,317	893,818
-48,388	18,211	1453,714	820,301
-47,373	18,460	1442,891	815,355
-46,359	18,126	1433,785	808,588
-45,344	16,509	1429,342	798,375
-44,330	16,438	1427,351	796,896
-43,315	16,417	1425,598	795,786
-42,300	16,439	1423,991	794,963
-41,286	16,468	1422,721	794,357
-40,271	16,473	1421,319	793,568
-39,257	16,444	1420,146	792,745
-38,242	16,500	1418,763	792,203
-37,227	16,519	1417,666	791,650
-36,213	16,508	1416,402	790,860
-35,198	16,495	1415,060	790,019
-34,184	16,451	1414,416	789,423
-33,169	16,426	1412,959	788,460
-32,154	16,512	1411,838	788,207
-31,140	16,500	1410,803	787,541
-30,125	16,538	1409,499	786,960
-29,111	16,489	1408,333	786,050
-28,096	16,484	1407,338	785,437
-27,082	16,418	1406,136	784,429
-26,067	16,409	1404,917	783,675
-25,052	16,410	1404,071	783,174
-24,038	16,403	1402,865	782,439
-23,023	16,385	1401,931	781,806
-22,009	16,345	1400,969	781,049
-20,994	16,310	1400,058	780,348
-19,979	16,358	1399,129	780,022
-18,965	16,334	1398,105	779,310
-17,950	16,308	1397,309	778,714
-16,936	16,376	1396,236	778,399
-15,921	16,314	1394,982	777,384
-14,906	16,293	1394,164	776,801
-13,892	16,356	1393,071	776,453
-12,877	16,317	1392,369	775,851
-11,863	16,314	1391,378	775,254
-10,848	16,268	1390,526	774,534
-9,833	16,315	1389,555	774,180
-8,819	16,273	1388,557	773,400
-7,804	16,205	1387,809	772,636
-6,790	16,206	1386,629	771,956
-5,775	16,223	1385,530	771,390
-4,760	16,209	1384,552	770,752
-3,746	16,221	1383,946	770,438
-2,731	16,190	1383,093	769,789
-1,717	16,212	1382,067	769,290
-0,702	16,168	1380,386	768,122
0,313	20,081	1302,125	742,572
1,327	36,542	707,857	441,866
2,342	56,580	125,720	86,547
3,356	3,241	16,688	8,577
4,371	4,338	3,127	1,618
5,386	-48,982	0,466	0,157
6,400	252,507	0,038	0,046
7,415	575,242	-0,126	-0,218
8,429	10,638	-0,219	-0,118
9,444	-10,292	-0,429	-0,201
10,459	29,569	-0,404	-0,243
11,473	1,264	-0,402	-0,204
12,488	97,083	-0,223	-0,181
13,502	31,820	-0,298	-0,182
14,517	224,932	-0,230	-0,264
15,531	196,879	-0,377	-0,407
16,546	229,776	-0,231	-0,268
17,561	202,278	-0,320	-0,350
18,575	-116,060	-0,284	-0,037
19,590	66,957	-0,242	-0,174
20,604	-110,045	-0,226	-0,033
21,619	355,989	-0,295	-0,417
22,634	70,469	-0,470	-0,344
23,648	-29,823	-0,424	-0,170
24,663	187,780	-0,335	-0,354
25,677	86,191	-0,315	-0,245
26,692	105,922	-0,304	-0,254
27,707	16,708	-0,405	-0,226
28,721	262,837	-0,278	-0,342
29,736	77,426	-0,376	-0,282
30,750	43,052	-0,343	-0,221
31,765	38,993	-0,425	-0,268
32,780	254,697	-0,279	-0,338
33,794	96,814	-0,304	-0,246
34,809	403,841	-0,219	-0,327
35,823	-22,608	-0,405	-0,172
36,838	-4,196	-0,542	-0,264
37,853	83,246	-0,376	-0,289
38,867	100,738	-0,287	-0,236
39,882	-34,303	-0,343	-0,132
40,896	-33,578	-0,525	-0,204
41,911	18,594	-0,290	-0,163
42,926	147,110	-0,316	-0,300
43,940	101,022	-0,344	-0,283
44,955	139,918	-0,392	-0,365
45,969	-19,636	-0,412	-0,179
46,984	43,553	-0,367	-0,237
47,999	155,002	-0,206	-0,201
49,013	-0,474	-0,391	-0,195
50,028	-9,995	-0,344	-0,161
51,042	153,095	-0,323	-0,312
52,057	400,542	-0,176	-0,261
53,071	58,053	-0,250	-0,173
54,086	51,363	-0,292	-0,195
55,101	26,883	-0,420	-0,248
56,115	-27,539	-0,346	-0,141
57,130	50,330	-0,291	-0,194
58,144	-0,402	-0,413	-0,206
59,159	250,884	-0,241	-0,289
60,174	25,677	-0,537	-0,315
61,188	42,830	-0,336	-0,216
62,203	78,476	-0,274	-0,206
63,217	23,250	-0,291	-0,168
64,232	57,716	-0,373	-0,256
65,247	23,317	-0,430	-0,249
66,261	132,057	-0,372	-0,337
67,276	94,749	-0,276	-0,221
68,290	54,300	-0,432	-0,292
69,305	-19,155	-0,371	-0,162
70,320	57,780	-0,367	-0,253
71,334	3,785	-0,318	-0,163
72,349	28,812	-0,365	-0,217
73,363	133,690	-0,327	-0,298
74,378	-8,508	-0,331	-0,156
75,393	-24,805	-0,442	-0,184
76,407	27,794	-0,336	-0,199
77,422	-8,184	-0,297	-0,140
78,436	-20,333	-0,268	-0,115
79,451	88,947	-0,297	-0,233
80,466	41,799	-0,335	-0,213
81,480	159,595	-0,296	-0,291
82,495	-15,542	-0,387	-0,173
83,509	94,899	-0,253	-0,202
84,524	13,090	-0,305	-0,166
85,539	-69,028	-0,265	-0,071
86,553	-111,811	-0,237	-0,033
87,568	77,147	-0,292	-0,218
88,582	31,970	-0,345	-0,208
89,597	48,118	-0,301	-0,198
90,611	94,923	-0,329	-0,263
91,626	-69,569	-0,377	-0,101
92,641	127,033	-0,326	-0,291
93,655	97,793	-0,275	-0,223
94,670	118,834	-0,249	-0,217
95,684	-42,172	-0,284	-0,101
96,699	248,273	-0,260	-0,309
97,714	7,039	-0,276	-0,144
98,728	-167,821	-0,125	0,003
99,743	18,440	-0,329	-0,184
100,757	42,412	-0,255	-0,163
101,772	-101,588	-0,294	-0,050
102,787	-23,533	-0,383	-0,161
103,801	48,242	-0,364	-0,239
104,816	-12,811	-0,332	-0,151
105,830	-72,499	-0,297	-0,077
106,845	53,323	-0,260	-0,175
107,860	127,081	-0,223	-0,199
108,874	619,127	-0,143	-0,254
109,889	-45,957	-0,284	-0,098
110,903	-71,688	-0,297	-0,077
111,918	20,773	-0,394	-0,223
112,933	249,413	-0,114	-0,136
113,947	153,487	-0,302	-0,291
114,962	-67,984	-0,231	-0,063
115,976	279,739	-0,237	-0,298
116,991	156,743	-0,353	-0,343
118,006	-143,649	-0,283	0,019
119,020	78,623	-0,280	-0,210
120,035	15,087	-0,234	-0,128
121,049	138,473	-0,155	-0,142
122,064	20,461	-0,298	-0,168
123,079	109,039	-0,232	-0,195
124,093	149,345	-0,202	-0,191
125,108	114,214	-0,281	-0,240
126,122	-86,654	-0,339	-0,072
127,137	-66,623	-0,225	-0,062
128,151	325,685	-0,149	-0,200
129,166	30,532	-0,179	-0,107
130,181	-2,783	-0,229	-0,112
131,195	32,483	-0,366	-0,221
132,210	256,663	-0,241	-0,291
133,224	-40,994	-0,344	-0,124
134,239	130,619	-0,148	-0,133
135,254	112,150	-0,200	-0,169
136,268	93,105	-0,253	-0,200
137,283	34,845	-0,224	-0,137
138,297	39,183	-0,273	-0,171
139,312	348,916	-0,289	-0,401
140,327	260,652	-0,196	-0,238
141,341	174,156	-0,211	-0,214
142,356	29,025	-0,116	-0,069
143,370	14,216	-0,222	-0,121
144,385	54,885	-0,311	-0,210
145,400	-64,301	-0,311	-0,088
146,414	200,769	-0,218	-0,235
147,429	174,016	-0,238	-0,240
148,443	57,289	-0,283	-0,193
149,458	-103,647	-0,274	-0,044
150,473	67,092	-0,172	-0,123
151,487	61,965	-0,270	-0,188
152,502	83,978	-0,309	-0,236
153,516	109,996	-0,171	-0,143
154,531	210,590	-0,184	-0,202
155,546	-97,697	-0,314	-0,056
156,560	-137,635	-0,121	0,009
157,575	20,826	-0,198	-0,112
158,589	14,496	-0,209	-0,114
159,604	101,208	-0,232	-0,189
160,619	49,004	-0,365	-0,239
161,633	133,521	-0,314	-0,283
162,648	573,576	-0,133	-0,227
163,662	-75,009	-0,258	-0,064
164,677	680,741	-0,126	-0,230
165,692	106,180	-0,186	-0,154
166,706	32,629	-0,197	-0,119
167,721	214,999	-0,195	-0,216
168,735	-33,514	-0,249	-0,095
169,750	-77,120	-0,339	-0,082
170,764	-51,421	-0,146	-0,047
171,779	-44,235	-0,194	-0,067
172,794	302,897	-0,163	-0,212
173,808	-124,216	-0,206	-0,022
174,823	188,817	-0,169	-0,176
175,837	612,013	-0,145	-0,254
176,852	2,229	-0,279	-0,141
177,867	182,591	-0,253	-0,260
178,881	-200,000	-0,063	-0,204
179,896	-17,719	-0,105	-0,046
180,910	12,235	-0,199	-0,107
181,925	103,734	-0,272	-0,223
182,940	-4,269	-0,354	-0,170
183,954	-100,261	-0,193	-0,033
184,969	-29,756	-0,249	-0,099
185,983	72,938	-0,227	-0,165
186,998	377,162	-0,131	-0,187
188,013	-11,085	-0,228	-0,105
189,027	34,617	-0,315	-0,191
190,042	148,823	-0,240	-0,226
191,056	5,019	-0,214	-0,109
192,071	-38,718	-0,191	-0,070
193,086	-125,525	-0,124	-0,013
194,100	49,044	-0,151	-0,099
195,115	727,158	-0,179	-0,334
196,129	323,525	-0,186	-0,248
197,144	32,597	-0,209	-0,125
198,159	140,130	-0,224	-0,205
199,173	214,239	-0,100	-0,111
200,188	151,708	-0,081	-0,077
201,202	28,718	-0,212	-0,125
202,217	-99,845	-0,248	-0,043
203,232	256,052	-0,141	-0,169
204,246	769,757	-0,152	-0,289
205,261	-65,622	-0,308	-0,085
206,275	83,224	-0,127	-0,096
207,290	108,671	-0,156	-0,130
208,304	59,772	-0,191	-0,131
209,319	800,000	-0,080	-0,207
210,334	291,035	-0,131	-0,167
211,348	45,649	-0,251	-0,161
212,363	117,645	-0,218	-0,186
213,377	185,593	-0,129	-0,134
214,392	551,733	-0,064	-0,108
215,407	-2,529	-0,192	-0,093
216,421	155,977	-0,211	-0,202
217,436	-198,420	-0,251	-0,001
218,450	-120,296	-0,227	-0,027
219,465	31,074	-0,271	-0,161
220,480	152,366	-0,131	-0,125
221,494	-53,950	-0,189	-0,060
222,509	159,029	-0,113	-0,109
223,523	268,905	-0,176	-0,215
224,538	360,310	-0,153	-0,214
225,553	62,767	-0,253	-0,176
226,567	391,139	-0,087	-0,126
227,582	-56,280	-0,319	-0,098
228,596	-110,019	-0,055	-0,008
229,611	-142,918	-0,226	-0,015
230,626	800,000	-0,061	-0,165
231,640	590,271	-0,099	-0,170
232,655	134,166	-0,238	-0,215
233,669	68,772	-0,308	-0,220
234,684	-19,670	-0,337	-0,144
235,699	72,747	-0,113	-0,082
236,713	595,232	-0,180	-0,311
237,728	-18,766	-0,194	-0,083
238,742	54,891	-0,279	-0,187
239,757	60,655	-0,243	-0,167
240,772	27,567	-0,240	-0,140
241,786	74,812	-0,200	-0,146
242,801	75,326	-0,252	-0,184
243,815	-1,715	-0,235	-0,114
244,830	-200,000	-0,066	-0,276
245,844	225,788	-0,160	-0,180
246,859	70,456	-0,242	-0,173
247,874	141,925	-0,259	-0,238
248,888	88,918	-0,216	-0,167
249,903	104,524	-0,157	-0,128
250,917	-68,826	-0,207	-0,055
251,932	-200,000	-0,039	-0,200
252,947	800,000	-0,048	-0,135
253,961	69,294	-0,208	-0,148
254,976	44,994	-0,204	-0,130
255,990	50,169	-0,237	-0,155
257,005	-155,575	-0,201	-0,009
258,020	631,195	-0,122	-0,214
259,034	-35,870	-0,149	0,055
260,049	-168,184	-0,234	-0,006
261,063	99,924	-0,168	-0,135
262,078	488,416	-0,172	-0,273
263,093	459,024	-0,126	-0,195
264,107	34,346	-0,163	-0,098
265,122	719,547	-0,141	-0,261
266,136	-61,920	-0,124	-0,036
267,151	-36,022	-0,231	-0,086
268,166	27,952	-0,147	-0,085
269,180	-37,008	-0,251	-0,093
270,195	12,778	-0,132	-0,071
271,209	-21,049	-0,187	-0,079
272,224	5,263	-0,130	-0,066
273,239	-191,069	-0,226	-0,002
274,253	50,951	-0,208	-0,136
275,268	278,165	-0,142	-0,175
276,282	-10,786	-0,183	-0,083
277,297	-58,934	-0,229	-0,068
278,312	-96,764	-0,253	-0,046
279,326	-124,724	-0,161	-0,017
280,341	-122,882	-0,021	0,002
281,355	-200,000	-0,063	-0,275
282,370	326,409	-0,088	-0,117
283,384	184,778	-0,205	-0,211
284,399	-13,190	-0,242	-0,108
285,414	101,291	-0,165	-0,133
286,428	-6,126	-0,080	0,038
287,443	110,745	-0,182	-0,152
288,457	440,552	-0,127	-0,193
289,472	-200,000	0,021	-0,177
290,487	-5,602	-0,156	-0,074
291,501	-99,134	-0,227	0,039
292,516	-137,844	-0,162	-0,012
293,530	-174,538	-0,132	-0,003
294,545	166,502	-0,146	-0,143
295,560	-156,594	-0,102	-0,004
296,574	35,701	-0,141	-0,085
297,589	376,048	-0,071	-0,100
298,603	18,114	-0,190	-0,105
299,618	-93,196	-0,183	-0,035
300,633	114,885	-0,085	0,071
301,647	-56,908	-0,055	-0,017
302,662	800,000	-0,022	-0,050
303,676	29,884	-0,177	-0,104
304,691	516,323	-0,099	-0,160
305,706	800,000	-0,096	-0,187
306,720	412,868	-0,261	-0,384
307,735	212,474	-0,147	-0,160
308,749	71,237	0,042	-0,030
309,764	-131,868	-0,117	0,010
310,779	-72,970	-0,049	-0,012
311,793	-76,622	-0,171	-0,041
312,808	-18,830	-0,163	-0,070
313,822	257,197	-0,123	-0,146
314,837	764,016	-0,129	-0,242
315,852	-69,230	-0,169	-0,044
316,866	-82,083	-0,171	-0,038
317,881	-94,692	-0,162	-0,030
318,895	-73,114	-0,081	-0,020
319,910	116,920	-0,252	-0,213
320,925	-6,398	-0,182	-0,085
321,939	275,120	-0,059	-0,072
322,954	-69,083	-0,279	-0,073
323,968	64,978	-0,146	-0,101
324,983	19,626	-0,161	-0,089
325,997	-200,000	-0,007	-0,123
327,012	800,000	-0,047	-0,115
328,027	221,155	-0,139	-0,153
329,041	242,748	-0,142	-0,164
330,056	31,598	-0,153	-0,090
331,070	-172,132	-0,169	-0,004
332,085	78,657	-0,111	-0,082
333,100	-9,552	-0,085	-0,039
334,114	675,827	-0,097	-0,174
335,129	42,398	-0,152	-0,095
336,143	293,616	-0,079	-0,099
337,158	83,368	-0,036	-0,027
338,173	-24,515	-0,126	-0,051
339,187	-164,591	-0,127	-0,004
340,202	-37,144	-0,145	0,053
341,216	308,178	-0,076	-0,098
342,231	51,397	-0,175	-0,114
343,246	-162,525	-0,292	-0,010
344,260	800,000	-0,112	-0,275
345,275	-199,768	-0,225	0,001
346,289	-200,000	-0,019	-0,071
347,304	-94,370	-0,237	-0,044
348,319	800,000	0,040	-0,084
349,333	703,462	-0,062	-0,113
350,348	-73,174	-0,162	0,040
351,362	800,000	-0,127	-0,258
352,377	-127,341	-0,119	-0,012
353,392	-14,767	-0,168	-0,074
354,406	-111,162	-0,107	0,015
355,421	209,501	1311,624	1414,124
356,435	161,244	1472,005	1414,651
