DTS Sentinel unit serial number:	SN410029Multiplexer serial number:	ORYXHardware model number:	OX2-SRSoftware version number:	ORYX F/W v4,00 Oryx Data Collector v3.7.2.0data status	okinstallation	B3 Nyhavnadifferential loss correction	single-endedforward channel	channel 1reverse channel	N/Adate	2023/12/03time	09:17:30forward acquisition time	300,00reverse acquisition time	0,00gamma	499,1914k internal	0,3201k external	0,3201temperature offset calibration	1,0000default loss term (dB/km)	0,3820temperature slope calibration	1,0000multiplexer offset coefficient	1,0000multiplexer slope coefficient	1,0000fibre end	0,00T internal ref (°C)	13,35T ext. ref 1 (°C)	-1,65T ext. ref 2 (°C)	-1,66length (m)	temperature (°C)	Stokes	anti-Stokes-744,400	214,149	-0,238	-0,275
-743,385	-200,000	0,045	0,358
-742,371	335,796	-0,108	-0,152
-741,356	-200,000	0,017	0,376
-740,342	56,150	-0,209	-0,147
-739,327	-200,000	-0,045	0,406
-738,312	149,395	-0,237	-0,234
-737,298	-200,000	-0,034	0,233
-736,283	264,036	-0,208	-0,263
-735,269	-200,000	0,080	0,338
-734,254	-9,469	-0,343	-0,166
-733,239	800,000	-0,065	0,206
-732,225	-200,000	0,007	-0,162
-731,210	392,321	0,123	0,187
-730,196	800,000	0,057	0,138
-729,181	90,304	-0,124	-0,101
-728,167	-160,487	-0,036	0,001
-727,152	-200,000	0,027	-0,102
-726,137	19,423	0,067	0,039
-725,123	128,150	-0,111	0,102
-724,108	-200,000	-0,002	-0,011
-723,094	225,416	-0,075	-0,089
-722,079	421,420	-0,089	-0,139
-721,064	157,339	0,017	0,017
-720,050	800,000	-0,039	0,120
-719,035	226,562	0,061	0,072
-718,021	-162,105	0,028	-0,001
-717,006	-200,000	-0,052	-0,196
-715,991	247,510	-0,064	-0,078
-714,977	154,738	-0,077	0,077
-713,962	-200,000	-0,011	-0,091
-712,948	8,116	0,093	-0,051
-711,933	-134,761	0,062	-0,005
-710,918	-58,182	-0,091	0,029
-709,904	800,000	-0,091	-0,184
-708,889	-54,991	-0,051	-0,017
-707,875	113,776	-0,090	0,079
-706,860	775,879	-0,072	-0,144
-705,845	-169,855	0,160	0,004
-704,831	-192,939	-0,088	0,001
-703,816	-200,000	-0,014	0,051
-702,802	119,475	-0,028	0,025
-701,787	-95,999	-0,100	-0,019
-700,772	-200,000	0,003	-0,185
-699,758	-55,837	-0,157	-0,051
-698,743	-42,037	-0,046	-0,017
-697,729	406,682	-0,103	0,158
-696,714	-148,100	0,115	0,007
-695,699	-200,000	0,011	0,166
-694,685	-200,000	-0,014	-0,113
-693,670	-48,130	-0,056	0,019
-692,656	-118,140	-0,102	-0,013
-691,641	-46,238	-0,039	0,014
-690,627	-200,000	-0,025	0,119
-689,612	468,491	-0,080	0,130
-688,597	-13,033	-0,139	0,065
-687,583	-160,614	0,085	0,003
-686,568	232,414	-0,098	-0,117
-685,554	-26,116	-0,029	0,013
-684,539	-200,000	0,006	-0,086
-683,524	42,551	0,071	0,047
-682,510	128,611	0,024	0,023
-681,495	53,822	-0,131	-0,091
-680,481	-121,559	-0,111	-0,013
-679,466	135,285	-0,084	0,079
-678,451	-200,000	0,009	0,030
-677,437	73,907	0,070	0,053
-676,422	794,120	-0,024	0,048
-675,408	187,878	-0,030	-0,033
-674,393	85,004	-0,085	0,068
-673,378	13,879	-0,035	-0,020
-672,364	-9,473	-0,113	-0,055
-671,349	799,691	-0,032	-0,064
-670,335	523,124	0,058	0,100
-669,320	-200,000	0,022	-0,088
-668,305	-200,000	0,014	-0,049
-667,291	800,000	0,005	-0,009
-666,276	-82,214	-0,103	-0,024
-665,262	-200,000	-0,006	-0,082
-664,247	800,000	-0,028	-0,084
-663,232	800,000	-0,035	-0,102
-662,218	360,657	0,088	0,129
-661,203	800,000	-0,027	0,076
-660,189	53,427	0,105	0,073
-659,174	-188,657	-0,028	-0,000
-658,159	800,000	-0,045	-0,122
-657,145	-133,437	-0,068	0,006
-656,130	-200,000	-0,025	-0,182
-655,116	-200,000	-0,052	0,217
-654,101	70,587	-0,025	0,019
-653,086	340,805	-0,080	-0,114
-652,072	187,569	0,027	-0,029
-651,057	114,686	-0,047	-0,042
-650,043	180,164	-0,086	-0,092
-649,028	-200,000	-0,001	-0,103
-648,014	134,745	-0,073	-0,069
-646,999	-200,000	0,040	0,135
-645,984	-200,000	-0,017	-0,082
-644,970	540,242	-0,039	-0,068
-643,955	424,122	-0,111	-0,174
-642,941	246,175	0,127	-0,156
-641,926	-200,000	-0,013	0,056
-640,911	-65,788	0,086	0,025
-639,897	54,571	0,042	0,030
-638,882	75,237	-0,048	-0,037
-637,868	463,078	0,032	-0,052
-636,853	678,283	0,037	-0,070
-635,838	-31,355	-0,200	-0,081
-634,824	-120,724	0,141	-0,017
-633,809	215,881	0,101	0,117
-632,795	75,887	0,040	-0,031
-631,780	-14,243	0,104	-0,048
-630,765	-200,000	0,001	-0,037
-629,751	250,738	-0,135	-0,167
-628,736	800,000	-0,033	-0,075
-627,722	66,306	-0,080	-0,059
-626,707	800,000	0,050	-0,103
-625,692	412,241	0,015	-0,024
-624,678	-103,936	0,029	-0,005
-623,663	-94,139	-0,173	0,034
-622,649	68,494	-0,116	-0,086
-621,634	39,146	-0,091	-0,059
-620,619	-68,144	0,068	-0,019
-619,605	800,000	-0,055	-0,121
-618,590	-200,000	-0,040	-0,138
-617,576	367,204	-0,096	0,141
-616,561	-118,374	0,076	0,010
-615,546	-53,627	-0,051	-0,017
-614,532	39,931	-0,175	-0,114
-613,517	504,529	0,023	-0,039
-612,503	-47,055	0,113	-0,040
-611,488	185,295	0,023	0,025
-610,474	-200,000	0,016	0,056
-609,459	-200,000	0,016	0,112
-608,444	127,487	0,032	-0,030
-607,430	66,291	-0,109	-0,080
-606,415	576,499	-0,033	0,058
-605,401	784,825	-0,028	-0,056
-604,386	-54,108	0,039	-0,013
-603,371	26,145	0,071	0,043
-602,357	-147,649	-0,120	-0,007
-601,342	-110,062	0,170	-0,025
-600,328	-96,830	-0,174	0,033
-599,313	800,000	-0,039	-0,101
-598,298	686,967	0,037	-0,070
-597,284	-81,289	-0,190	0,045
-596,269	-23,507	0,161	-0,070
-595,255	-200,000	-0,008	0,037
-594,240	800,000	0,058	0,118
-593,225	-105,134	0,042	0,007
-592,211	-87,331	-0,108	-0,024
-591,196	-20,073	-0,110	0,049
-590,182	-200,000	-0,015	0,059
-589,167	112,504	-0,088	0,077
-588,152	319,742	0,039	0,053
-587,138	-66,180	-0,144	-0,041
-586,123	-51,949	-0,075	0,025
-585,109	330,891	-0,086	-0,121
-584,094	130,261	-0,078	-0,072
-583,079	-200,000	0,046	0,156
-582,065	800,000	-0,062	0,137
-581,050	800,000	0,039	0,119
-580,036	-200,000	-0,017	0,062
-579,021	-140,602	-0,092	-0,007
-578,006	242,613	-0,067	0,081
-576,992	-137,043	-0,038	-0,003
-575,977	800,000	0,027	0,071
-574,963	-66,351	-0,030	0,009
-573,948	317,288	-0,022	0,030
-572,934	-200,000	-0,002	0,098
-571,919	-38,051	0,009	-0,003
-570,904	107,761	0,040	0,035
-569,890	800,000	0,028	-0,077
-568,875	-200,000	0,004	0,181
-567,861	723,736	0,054	0,104
-566,846	800,000	0,017	0,051
-565,831	-200,000	0,003	0,215
-564,817	-39,513	0,082	-0,031
-563,802	493,094	-0,048	-0,080
-562,788	800,000	-0,056	-0,148
-561,773	2,045	0,057	-0,030
-560,758	-28,279	0,074	-0,031
-559,744	-70,173	0,137	-0,037
-558,729	-200,000	-0,040	0,148
-557,715	-122,429	0,016	-0,002
-556,700	643,353	-0,046	-0,085
-555,685	-131,373	-0,168	0,016
-554,671	128,967	0,139	-0,128
-553,656	589,882	0,111	0,199
-552,642	-200,000	-0,023	0,141
-551,627	-61,567	-0,200	0,060
-550,612	168,768	0,045	-0,047
-549,598	376,009	-0,083	-0,123
-548,583	22,847	-0,018	-0,011
-547,569	223,395	0,049	-0,057
-546,554	-200,000	0,007	0,105
-545,539	288,296	0,026	0,034
-544,525	-78,269	-0,158	-0,039
-543,510	-200,000	0,012	-0,053
-542,496	-168,021	-0,051	0,001
-541,481	313,921	0,037	-0,050
-540,466	-107,130	-0,063	-0,010
-539,452	315,580	0,099	0,135
-538,437	45,473	0,084	0,056
-537,423	-167,718	0,082	-0,002
-536,408	-39,751	0,090	0,034
-535,393	147,245	0,020	-0,019
-534,379	641,205	-0,022	0,041
-533,364	-39,128	-0,111	-0,042
-532,350	-46,257	-0,136	-0,048
-531,335	70,361	0,116	0,087
-530,321	-200,000	-0,021	0,139
-529,306	-78,475	0,109	-0,027
-528,291	-20,115	0,040	0,018
-527,277	-102,257	-0,106	0,018
-526,262	-173,919	-0,177	0,004
-525,248	800,000	0,008	-0,018
-524,233	307,397	0,053	0,071
-523,218	-200,000	0,017	-0,130
-522,204	90,774	0,063	-0,051
-521,189	88,152	-0,083	0,066
-520,175	319,857	-0,057	-0,078
-519,160	-200,000	0,006	-0,026
-518,145	-71,431	-0,059	-0,016
-517,131	800,000	-0,054	0,128
-516,116	-66,561	-0,046	-0,013
-515,102	-200,000	-0,010	0,060
-514,087	800,000	0,041	-0,126
-513,072	23,621	-0,057	-0,034
-512,058	793,817	-0,081	-0,161
-511,043	78,443	-0,151	0,116
-510,029	372,299	0,031	0,046
-509,014	800,000	0,036	0,102
-507,999	334,743	0,060	0,085
-506,985	-200,000	0,015	-0,107
-505,970	-200,000	-0,020	-0,217
-504,956	-127,446	-0,044	0,005
-503,941	331,670	0,026	0,036
-502,926	215,762	0,110	0,126
-501,912	800,000	-0,029	0,074
-500,897	-200,000	0,006	-0,058
-499,883	800,000	-0,019	-0,049
-498,868	230,226	-0,024	-0,029
-497,853	800,000	0,004	0,013
-496,839	-134,110	0,174	-0,015
-495,824	123,123	0,078	-0,070
-494,810	800,000	-0,029	0,080
-493,795	335,391	-0,056	0,078
-492,781	321,081	-0,112	0,154
-491,766	-107,937	-0,075	-0,012
-490,751	311,317	0,065	-0,088
-489,737	175,639	0,070	-0,074
-488,722	519,471	0,027	0,046
-487,708	-31,846	-0,162	0,065
-486,693	-200,000	-0,003	0,009
-485,678	208,073	-0,106	-0,119
-484,664	407,887	-0,035	-0,054
-483,649	33,352	-0,038	-0,024
-482,635	158,048	0,026	-0,026
-481,620	-19,840	-0,135	-0,060
-480,605	800,000	0,009	-0,030
-479,591	57,570	-0,106	0,074
-478,576	373,032	-0,076	-0,111
-477,562	-80,804	-0,033	-0,008
-476,547	-41,252	-0,085	-0,032
-475,532	121,893	-0,131	-0,117
-474,518	125,229	0,066	0,060
-473,503	-200,000	0,018	0,117
-472,489	492,297	-0,023	0,038
-471,474	266,803	-0,016	0,021
-470,459	187,146	-0,025	0,027
-469,445	338,808	-0,091	0,128
-468,430	601,445	-0,056	0,100
-467,416	-108,808	0,045	0,007
-466,401	87,030	0,069	0,055
-465,386	441,152	-0,067	0,106
-464,372	-163,611	0,177	0,006
-463,357	184,581	-0,028	0,030
-462,343	638,584	0,040	-0,074
-461,328	-200,000	-0,001	-0,094
-460,313	51,515	-0,140	-0,095
-459,299	-125,417	0,108	-0,012
-458,284	-200,000	-0,001	-0,023
-457,270	-200,000	-0,025	-0,100
-456,255	-90,941	-0,064	0,013
-455,241	-200,000	-0,006	0,041
-454,226	58,462	0,027	0,019
-453,211	531,191	-0,052	0,088
-452,197	800,000	0,050	0,138
-451,182	276,090	0,080	0,103
-450,168	800,000	-0,006	-0,015
-449,153	-200,000	0,041	0,132
-448,138	800,000	-0,072	0,201
-447,124	742,661	0,040	-0,078
-446,109	203,169	-0,112	-0,124
-445,095	445,930	0,107	0,169
-444,080	121,338	-0,070	0,063
-443,065	-140,427	0,108	-0,008
-442,051	-48,809	-0,007	0,002
-441,036	-48,943	0,166	-0,057
-440,022	800,000	0,087	-0,185
-439,007	-200,000	-0,000	-0,001
-437,992	218,343	0,091	0,104
-436,978	-21,081	0,063	0,028
-435,963	783,378	-0,056	0,111
-434,949	-106,768	0,044	-0,007
-433,934	118,325	0,058	0,051
-432,919	0,159	-0,143	0,073
-431,905	133,823	0,035	-0,032
-430,890	-49,080	0,140	0,048
-429,876	102,701	0,069	0,058
-428,861	-64,469	0,090	-0,026
-427,846	800,000	-0,041	-0,088
-426,832	180,947	-0,022	0,023
-425,817	-200,000	0,013	0,056
-424,803	179,662	-0,008	-0,009
-423,788	-38,275	0,031	0,012
-422,773	-36,387	0,048	-0,019
-421,759	701,084	0,075	0,142
-420,744	-200,000	0,025	0,113
-419,730	-200,000	-0,003	0,046
-418,715	-200,000	-0,015	-0,086
-417,701	240,953	0,126	-0,151
-416,686	171,846	0,030	0,031
-415,671	800,000	-0,025	-0,065
-414,657	-200,000	0,009	0,157
-413,642	-63,007	-0,052	0,015
-412,628	84,475	-0,059	0,046
-411,613	29,462	0,022	0,013
-410,598	-200,000	0,036	0,132
-409,584	523,341	-0,038	0,065
-408,569	-10,844	0,134	0,063
-407,555	122,551	0,044	0,040
-406,540	-6,532	0,021	0,010
-405,525	-200,000	-0,091	-0,000
-404,511	-200,000	0,015	-0,071
-403,496	800,000	-0,016	0,033
-402,482	148,554	-0,115	0,111
-401,467	-160,342	-0,046	-0,002
-400,452	-200,000	-0,011	-0,078
-399,438	181,927	0,069	0,073
-398,423	-200,000	0,026	0,130
-397,409	-124,845	-0,191	-0,021
-396,394	800,000	0,043	-0,123
-395,379	-62,833	0,049	-0,014
-394,365	-168,240	0,087	-0,002
-393,350	-1,748	0,062	0,031
-392,336	9,621	-0,082	-0,044
-391,321	103,964	-0,031	0,027
-390,306	615,846	0,003	-0,005
-389,292	-200,000	-0,010	0,056
-388,277	-106,571	-0,029	0,005
-387,263	800,000	0,026	0,059
-386,248	-51,183	0,058	-0,019
-385,233	800,000	-0,041	-0,088
-384,219	284,057	-0,029	0,038
-383,204	-10,893	-0,270	0,128
-382,190	-146,644	-0,111	0,007
-381,175	-200,000	-0,005	-0,046
-380,160	-200,000	0,000	0,028
-379,146	-200,000	0,014	0,108
-378,131	-18,649	0,094	0,042
-377,117	-127,447	0,103	0,011
-376,102	12,109	0,021	0,011
-375,088	82,687	-0,036	-0,028
-374,073	493,737	0,054	-0,089
-373,058	-200,000	0,003	-0,071
-372,044	-62,464	-0,063	0,019
-371,029	-120,506	0,047	-0,006
-370,015	109,154	-0,053	-0,046
-369,000	437,384	-0,072	-0,113
-367,985	410,380	-0,020	-0,030
-366,971	-19,728	0,081	0,036
-365,956	-127,707	-0,064	-0,007
-364,942	-200,000	0,023	0,076
-363,927	220,247	0,093	0,107
-362,912	800,000	-0,023	0,054
-361,898	800,000	0,053	-0,140
-360,883	-61,077	0,093	-0,028
-359,869	37,928	-0,078	-0,050
-358,854	4,660	0,024	-0,013
-357,839	483,357	-0,023	0,037
-356,825	188,763	0,054	-0,058
-355,810	800,000	0,075	0,157
-354,796	218,642	-0,015	0,017
-353,781	-200,000	-0,009	-0,134
-352,766	17,999	-0,085	0,048
-351,752	7,210	0,082	0,044
-350,737	800,000	-0,044	0,124
-349,723	-200,000	0,013	0,042
-348,708	-157,148	0,116	0,005
-347,693	8,419	-0,049	-0,026
-346,679	-200,000	-0,005	-0,147
-345,664	7,782	-0,059	-0,031
-344,650	470,569	0,055	-0,089
-343,635	-38,428	0,129	0,049
-342,620	-178,640	-0,076	-0,001
-341,606	800,000	-0,027	0,059
-340,591	800,000	-0,022	0,047
-339,577	225,001	0,033	-0,038
-338,562	-44,015	-0,076	0,027
-337,548	378,578	0,013	0,019
-336,533	409,444	0,002	-0,004
-335,518	800,000	0,028	0,080
-334,504	106,991	0,046	0,039
-333,489	-5,550	-0,099	0,048
-332,475	478,551	0,076	-0,123
-331,460	-200,000	-0,010	0,092
-330,445	-200,000	-0,027	-0,114
-329,431	-105,809	0,152	0,024
-328,416	142,480	-0,042	-0,040
-327,402	-88,886	-0,034	-0,007
-326,387	-200,000	0,012	-0,041
-325,372	642,090	-0,020	0,037
-324,358	207,344	-0,090	-0,101
-323,343	-200,000	-0,017	-0,064
-322,329	-200,000	-0,026	0,082
-321,314	800,000	0,032	-0,067
-320,299	-200,000	0,031	0,140
-319,285	-200,000	0,001	0,053
-318,270	-69,701	-0,028	0,008
-317,256	137,287	-0,050	0,047
-316,241	-200,000	0,013	-0,047
-315,226	-200,000	0,003	0,021
-314,212	800,000	0,036	-0,074
-313,197	800,000	0,040	0,087
-312,183	76,664	0,093	0,070
-311,168	-200,000	0,003	-0,058
-310,153	-52,334	-0,069	-0,023
-309,139	155,411	0,068	-0,067
-308,124	153,076	0,062	-0,061
-307,110	-14,549	0,078	-0,036
-306,095	6,676	0,048	0,025
-305,080	-200,000	0,006	0,064
-304,066	164,080	0,037	-0,038
-303,051	-24,418	0,031	-0,013
-302,037	36,445	-0,029	0,018
-301,022	-200,000	-0,007	-0,035
-300,008	71,728	0,047	-0,035
-298,993	-200,000	-0,008	0,095
-297,978	129,345	0,114	0,104
-296,964	260,162	0,087	-0,108
-295,949	800,000	-0,037	0,106
-294,935	60,346	-0,038	-0,027
-293,920	-200,000	-0,005	0,020
-292,905	232,725	0,117	-0,138
-291,891	-200,000	0,044	0,181
-290,876	-62,648	-0,044	-0,013
-289,862	-200,000	0,003	-0,077
-288,847	-13,232	-0,030	-0,014
-287,832	-14,917	-0,102	-0,046
-286,818	214,159	-0,030	0,033
-285,803	503,085	0,045	0,074
-284,789	129,578	-0,041	-0,038
-283,774	-0,442	-0,028	0,014
-282,759	-200,000	0,023	0,105
-281,745	-90,349	0,143	-0,029
-280,730	183,169	-0,092	-0,097
-279,716	800,000	-0,027	-0,061
-278,701	580,280	0,058	-0,101
-277,686	265,711	0,127	-0,158
-276,672	376,416	0,065	0,095
-275,657	-200,000	0,000	-0,004
-274,643	-53,095	0,141	-0,046
-273,628	-56,225	-0,115	0,036
-272,613	-111,565	0,153	0,022
-271,599	329,877	0,044	-0,061
-270,584	-92,871	0,099	0,020
-269,570	8,937	0,013	0,007
-268,555	-200,000	0,026	-0,085
-267,540	416,662	-0,047	-0,072
-266,526	800,000	-0,027	0,080
-265,511	-121,410	0,191	-0,022
-264,497	-65,616	0,090	-0,025
-263,482	609,256	-0,089	0,160
-262,467	32,891	-0,017	-0,011
-261,453	-200,000	0,010	0,140
-260,438	-200,000	0,003	-0,041
-259,424	54,232	-0,106	-0,073
-258,409	-178,617	-0,028	0,000
-257,395	-200,000	-0,003	-0,172
-256,380	147,524	0,102	0,098
-255,365	-200,000	0,009	-0,072
-254,351	-23,853	0,021	0,009
-253,336	138,891	-0,065	-0,061
-252,322	-129,777	0,041	-0,004
-251,307	-148,703	-0,104	0,006
-250,292	800,000	-0,044	-0,113
-249,278	-200,000	0,019	-0,067
-248,263	800,000	0,025	0,050
-247,249	-200,000	-0,007	0,092
-246,234	-200,000	-0,065	-0,218
-245,219	-3,198	0,124	-0,062
-244,205	788,878	0,024	0,048
-243,190	-85,371	-0,081	-0,018
-242,176	-200,000	0,005	0,017
-241,161	267,155	0,085	0,106
-240,146	790,546	-0,010	-0,020
-239,132	-200,000	-0,003	-0,027
-238,117	35,889	0,073	-0,046
-237,103	-119,309	0,020	-0,003
-236,088	-200,000	-0,016	0,071
-235,073	-74,807	0,167	-0,042
-234,059	592,062	0,087	-0,154
-233,044	95,040	0,048	-0,039
-232,030	-200,000	0,003	0,078
-231,015	-200,000	-0,019	-0,064
-230,000	54,862	-0,084	-0,058
-228,986	-105,457	-0,083	-0,013
-227,971	-168,662	0,024	-0,001
-226,957	800,000	0,012	-0,026
-225,942	-37,268	0,087	0,033
-224,927	-200,000	0,003	0,028
-223,913	426,016	0,037	-0,057
-222,898	94,906	-0,075	-0,061
-221,884	800,000	0,024	-0,067
-220,869	-106,594	-0,068	0,011
-219,855	-75,218	0,056	0,014
-218,840	-26,325	-0,076	0,032
-217,825	321,161	-0,061	-0,082
-216,811	-161,508	-0,103	-0,004
-215,796	-200,000	0,007	0,044
-214,782	156,114	-0,099	-0,097
-213,767	-200,000	-0,005	-0,088
-212,752	-47,672	0,169	0,058
-211,738	-25,733	-0,133	-0,056
-210,723	64,544	0,132	0,094
-209,709	371,223	-0,034	0,050
-208,694	-119,796	-0,160	-0,019
-207,679	66,153	-0,008	0,006
-206,665	-100,002	-0,039	0,007
-205,650	604,128	0,069	-0,123
-204,636	-114,288	-0,172	-0,023
-203,621	800,000	-0,037	0,094
-202,606	59,093	0,018	0,012
-201,592	800,000	0,016	-0,045
-200,577	-200,000	-0,011	0,097
-199,563	-200,000	-0,018	0,101
-198,548	35,966	0,087	0,054
-197,533	342,911	0,049	0,069
-196,519	577,119	-0,040	0,070
-195,504	-49,024	0,047	-0,016
-194,490	-149,633	-0,053	-0,003
-193,475	-134,368	0,067	0,006
-192,460	-200,000	-0,013	0,070
-191,446	-118,689	0,068	-0,008
-190,431	-200,000	0,002	-0,019
-189,417	-200,000	0,032	-0,155
-188,402	-100,568	-0,105	-0,018
-187,387	102,578	0,014	0,011
-186,373	-125,881	0,080	-0,008
-185,358	310,580	-0,066	0,088
-184,344	23,809	0,102	0,060
-183,329	-200,000	0,014	0,163
-182,315	757,638	0,016	-0,032
-181,300	8,206	-0,004	0,002
-180,285	-200,000	0,016	-0,085
-179,271	49,531	0,003	0,002
-178,256	800,000	-0,047	-0,132
-177,242	737,063	-0,023	0,043
-176,227	800,000	-0,036	0,092
-175,212	-200,000	-0,007	-0,023
-174,198	289,800	-0,130	-0,169
-173,183	800,000	-0,065	-0,136
-172,169	800,000	-0,033	-0,083
-171,154	-200,000	-0,025	-0,114
-170,139	800,000	0,026	-0,071
-169,125	673,454	0,084	0,156
-168,110	420,692	0,062	0,096
-167,096	-87,108	0,176	-0,038
-166,081	800,000	-0,049	0,119
-165,066	-74,152	-0,038	0,010
-164,052	324,809	0,101	-0,138
-163,037	-76,101	0,177	-0,044
-162,023	418,634	-0,046	-0,071
-161,008	-189,669	-0,043	0,000
-159,993	-200,000	0,008	0,081
-158,979	-200,000	-0,017	-0,067
-157,964	-103,798	-0,027	0,005
-156,950	613,852	-0,033	-0,059
-155,935	188,549	0,110	-0,117
-154,920	-59,275	0,044	-0,013
-153,906	800,000	0,027	-0,079
-152,891	-200,000	0,011	0,037
-151,877	-200,000	0,008	-0,137
-150,862	-116,005	-0,136	-0,018
-149,847	285,311	0,096	-0,123
-148,833	-200,000	-0,013	0,131
-147,818	-200,000	0,006	0,173
-146,804	70,662	0,075	0,055
-145,789	61,150	-0,054	0,038
-144,775	-190,579	-0,056	-0,000
-143,760	800,000	-0,017	0,038
-142,745	331,581	0,021	0,029
-141,731	-200,000	0,018	0,110
-140,716	34,802	-0,002	0,002
-139,702	46,444	0,044	0,029
-138,687	434,807	0,076	-0,118
-137,672	77,077	0,049	-0,037
-136,658	-28,175	-0,102	-0,042
-135,643	800,000	-0,041	0,112
-134,629	133,290	-0,042	-0,039
-133,614	800,000	-0,063	-0,139
-132,599	800,000	-0,041	-0,102
-131,585	800,000	-0,054	0,110
-130,570	158,220	0,138	-0,136
-129,556	-166,396	-0,128	0,004
-128,541	546,792	0,015	0,026
-127,526	-32,192	-0,159	0,063
-126,512	-25,410	0,104	-0,044
-125,497	-178,262	0,091	0,001
-124,483	-111,119	0,052	-0,007
-123,468	-27,866	0,047	0,019
-122,453	53,351	-0,081	-0,055
-121,439	37,843	0,078	-0,049
-120,424	800,000	-0,059	-0,143
-119,410	-163,609	0,131	0,004
-118,395	-200,000	0,009	0,090
-117,380	-9,520	-0,031	0,014
-116,366	56,977	0,069	0,048
-115,351	-200,000	-0,003	0,018
-114,337	21,238	-0,081	-0,047
-113,322	301,499	0,061	0,080
-112,307	708,556	0,043	0,081
-111,293	800,000	-0,044	0,133
-110,278	-116,189	0,065	0,008
-109,264	19,684	0,151	-0,086
-108,249	340,728	-0,081	0,112
-107,234	-133,697	-0,046	-0,004
-106,220	-200,000	0,000	0,015
-105,205	800,000	0,045	0,096
-104,191	221,782	0,041	0,047
-103,176	-109,688	0,052	0,008
-102,162	275,656	0,064	0,081
-101,147	-75,230	-0,065	0,016
-100,132	-200,000	-0,002	0,108
-99,118	428,369	0,062	-0,096
-98,103	-200,000	-0,020	-0,065
-97,089	-159,879	-0,090	0,003
-96,074	-87,490	0,094	-0,020
-95,059	-200,000	0,003	-0,046
-94,045	32,598	-0,064	0,039
-93,030	800,000	0,024	-0,052
-92,016	-200,000	0,001	0,058
-91,001	800,000	-0,057	0,114
-89,986	475,823	-0,038	-0,061
-88,972	-92,850	0,035	0,007
-87,957	19,631	0,082	-0,047
-86,943	-94,886	-0,037	0,007
-85,928	-16,266	-0,096	0,043
-84,913	79,360	0,038	0,029
-83,899	-200,000	0,011	0,161
-82,884	-200,000	-0,001	0,051
-81,870	133,898	0,046	0,042
-80,855	800,000	0,010	-0,023
-79,840	-74,333	-0,071	0,018
-78,826	-25,861	0,042	0,018
-77,811	800,000	0,035	-0,097
-76,797	181,685	-0,025	0,026
-75,782	-200,000	0,024	0,102
-74,767	254,346	-0,057	0,069
-73,753	-200,000	0,008	-0,043
-72,738	289,599	0,023	-0,029
-71,724	-200,000	-0,000	-0,107
-70,709	-33,501	-0,088	0,034
-69,694	35,608	0,086	-0,053
-68,680	-94,734	-0,101	0,019
-67,665	-129,679	-0,086	-0,008
-66,651	-22,173	0,046	-0,020
-65,636	800,000	-0,024	0,074
-64,622	87,229	-0,117	0,091
-63,607	339,405	-0,039	0,054
-62,592	-119,373	0,081	0,010
-61,578	77,603	-0,079	0,060
-60,563	203,229	-0,041	0,044
-59,549	160,963	-0,062	0,062
-58,534	-10,383	-1,591	-0,744
-57,519	355,863	-1,400	-1,979
-56,505	-200,000	-0,419	-4,500
-55,490	303,216	0,994	1,306
-54,476	800,000	4,900	11,084
-53,461	-200,000	19,094	320,999
-52,446	-200,000	740,597	2337,030
-51,432	573,878	1655,919	2871,202
-50,417	78,349	1671,520	1262,677
-49,403	21,342	1544,231	886,098
-48,388	15,241	1466,760	811,967
-47,373	17,994	1457,218	819,965
-46,359	16,779	1446,787	808,234
-45,344	13,426	1442,397	789,679
-44,330	13,402	1440,265	788,364
-43,315	13,385	1438,606	787,344
-42,300	13,425	1436,865	786,554
-41,286	13,422	1435,703	785,871
-40,271	13,409	1434,289	785,004
-39,257	13,408	1433,027	784,278
-38,242	13,428	1431,798	783,669
-37,227	13,486	1430,430	783,166
-36,213	13,451	1429,265	782,327
-35,198	13,437	1428,268	781,687
-34,184	13,499	1427,188	781,360
-33,169	13,434	1425,635	780,167
-32,154	13,452	1424,858	779,797
-31,140	13,449	1423,453	778,985
-30,125	13,506	1422,352	778,620
-29,111	13,444	1421,228	777,679
-28,096	13,396	1420,269	776,898
-27,082	13,361	1419,256	776,147
-26,067	13,390	1417,885	775,502
-25,052	13,397	1416,717	774,866
-24,038	13,354	1415,952	774,216
-23,023	13,381	1414,946	773,760
-22,009	13,385	1413,666	773,051
-20,994	13,359	1412,943	772,500
-19,979	13,382	1412,058	772,094
-18,965	13,325	1411,194	771,327
-17,950	13,306	1410,319	770,728
-16,936	13,326	1409,254	770,208
-15,921	13,282	1408,124	769,354
-14,906	13,304	1407,279	768,965
-13,892	13,334	1406,113	768,435
-12,877	13,288	1405,605	767,916
-11,863	13,241	1404,700	767,171
-10,848	13,270	1403,799	766,784
-9,833	13,261	1402,785	766,154
-8,819	13,206	1402,034	765,457
-7,804	13,193	1401,156	764,887
-6,790	13,222	1400,054	764,393
-5,775	13,195	1398,891	763,602
-4,760	13,243	1398,032	763,325
-3,746	13,183	1397,198	762,560
-2,731	13,166	1396,220	761,916
-1,717	13,158	1395,352	761,377
-0,702	13,174	1393,518	760,418
0,313	17,006	1310,540	732,904
1,327	33,221	704,121	431,271
2,342	51,037	123,378	82,640
3,356	3,740	16,658	8,576
4,371	-4,400	3,327	1,622
5,386	2,758	0,458	0,234
6,400	492,379	0,224	0,364
7,415	-84,043	-0,354	-0,079
8,429	-58,933	-0,326	-0,099
9,444	132,989	-0,273	-0,249
10,459	67,864	-0,350	-0,253
11,473	-27,800	-0,477	-0,195
12,488	-57,459	-0,207	-0,064
13,502	-36,622	-0,390	-0,148
14,517	-88,987	-0,349	-0,072
15,531	124,796	-0,313	-0,279
16,546	69,615	-0,259	-0,189
17,561	436,581	-0,204	-0,316
18,575	-8,782	-0,282	-0,133
19,590	33,903	-0,276	-0,169
20,604	-131,445	-0,316	0,029
21,619	195,013	-0,316	-0,340
22,634	130,384	-0,445	-0,402
23,648	111,826	-0,443	-0,378
24,663	115,807	-0,393	-0,340
25,677	-19,211	-0,455	-0,198
26,692	183,128	-0,353	-0,369
27,707	200,214	-0,353	-0,383
28,721	51,100	-0,378	-0,252
29,736	149,555	-0,389	-0,372
30,750	66,994	-0,362	-0,260
31,765	132,856	-0,266	-0,242
32,780	98,358	-0,402	-0,327
33,794	13,832	-0,328	-0,179
34,809	49,135	-0,336	-0,222
35,823	101,687	-0,297	-0,244
36,838	87,420	-0,408	-0,318
37,853	152,147	-0,447	-0,431
38,867	-6,008	-0,551	-0,265
39,882	28,413	-0,426	-0,253
40,896	481,190	-0,155	-0,249
41,911	28,802	-0,392	-0,233
42,926	42,407	-0,453	-0,290
43,940	241,408	-0,357	-0,421
44,955	302,068	-0,246	-0,322
45,969	52,138	-0,408	-0,274
46,984	2,276	-0,317	-0,161
47,999	-17,167	-0,475	-0,210
49,013	105,276	-0,237	-0,197
50,028	-27,483	-0,312	-0,127
51,042	42,009	-0,394	-0,251
52,057	-21,772	-0,421	-0,180
53,071	27,098	-0,244	-0,144
54,086	-71,946	-0,418	-0,109
55,101	-35,534	-0,358	-0,136
56,115	95,604	-0,248	-0,199
57,130	65,107	-0,363	-0,258
58,144	82,714	-0,425	-0,325
59,159	97,697	-0,336	-0,272
60,174	76,424	-0,425	-0,317
61,188	-51,262	-0,383	-0,126
62,203	207,731	-0,276	-0,304
63,217	190,761	-0,264	-0,280
64,232	-19,702	-0,309	-0,134
65,247	87,009	-0,362	-0,281
66,261	150,515	-0,294	-0,281
67,276	281,148	-0,293	-0,370
68,290	20,622	-0,262	-0,149
69,305	-14,187	-0,285	-0,129
70,320	3,620	-0,323	-0,165
71,334	-83,256	-0,394	-0,088
72,349	36,084	-0,289	-0,178
73,363	59,502	-0,260	-0,180
74,378	28,361	-0,350	-0,207
75,393	122,367	-0,319	-0,281
76,407	37,950	-0,329	-0,205
77,422	349,783	-0,176	-0,245
78,436	200,405	-0,224	-0,243
79,451	111,543	-0,293	-0,248
80,466	137,543	-0,304	-0,280
81,480	74,446	-0,349	-0,257
82,495	-70,855	-0,365	-0,096
83,509	459,692	-0,130	-0,204
84,524	52,891	-0,280	-0,188
85,539	-150,728	-0,323	-0,017
86,553	-73,392	-0,353	-0,090
87,568	-34,346	-0,385	-0,148
88,582	91,813	-0,319	-0,252
89,597	261,710	-0,259	-0,315
90,611	-90,226	-0,438	-0,089
91,626	180,198	-0,218	-0,225
92,641	235,403	-0,129	-0,150
93,655	280,574	-0,190	-0,239
94,670	-31,766	-0,380	-0,149
95,684	186,942	-0,245	-0,256
96,699	25,986	-0,411	-0,240
97,714	362,460	-0,168	-0,237
98,728	-5,771	-0,177	-0,085
99,743	-50,299	-0,196	-0,065
100,757	79,569	-0,329	-0,247
101,772	64,940	-0,245	-0,173
102,787	566,400	-0,207	-0,354
103,801	107,120	-0,267	-0,223
104,816	92,840	-0,248	-0,197
105,830	19,419	-0,247	-0,139
106,845	-104,663	-0,249	0,040
107,860	85,119	-0,302	-0,232
108,874	-41,159	-0,412	-0,148
109,889	47,509	-0,314	-0,205
110,903	-17,581	-0,297	-0,130
111,918	46,767	-0,194	-0,126
112,933	-129,753	-0,208	0,020
113,947	-1,240	-0,196	-0,097
114,962	-37,280	-0,345	-0,129
115,976	68,403	-0,287	-0,206
116,991	48,690	-0,357	-0,234
118,006	127,758	-0,187	-0,167
119,020	164,430	-0,167	-0,165
120,035	-76,315	-0,334	-0,082
121,049	706,451	-0,119	-0,221
122,064	-99,453	-0,147	-0,026
123,079	204,455	-0,258	-0,281
124,093	487,825	-0,150	-0,240
125,108	121,901	-0,269	-0,235
126,122	-35,230	-0,306	-0,116
127,137	-84,355	-0,198	-0,043
128,151	-25,109	-0,199	-0,082
129,166	326,525	-0,146	-0,197
130,181	-89,992	-0,305	-0,062
131,195	-48,631	-0,236	-0,079
132,210	59,091	-0,244	-0,168
133,224	60,181	-0,189	-0,130
134,239	11,166	-0,222	-0,118
135,254	244,727	-0,165	-0,194
136,268	800,000	-0,091	-0,187
137,283	85,926	-0,233	-0,179
138,297	248,123	-0,173	-0,205
139,312	11,280	-0,228	-0,122
140,327	82,331	-0,332	-0,252
141,341	57,106	-0,222	-0,151
142,356	120,818	-0,241	-0,209
143,370	70,668	-0,205	-0,148
144,385	4,713	-0,416	-0,213
145,400	164,587	-0,226	-0,223
146,414	88,026	-0,330	-0,256
147,429	113,712	-0,255	-0,216
148,443	202,403	-0,211	-0,228
149,458	-45,268	-0,197	-0,068
150,473	-34,425	-0,294	-0,112
151,487	69,572	-0,214	-0,154
152,502	67,673	-0,290	-0,207
153,516	4,668	-0,286	-0,146
154,531	131,304	-0,201	-0,180
155,546	91,386	-0,248	-0,194
156,560	99,205	-0,170	-0,137
157,575	-25,094	-0,281	-0,116
158,589	-61,720	-0,362	-0,105
159,604	39,343	-0,215	-0,134
160,619	436,958	-0,222	-0,339
161,633	25,640	-0,220	-0,128
162,648	71,046	-0,143	-0,103
163,662	124,896	-0,152	-0,134
164,677	27,414	-0,199	-0,116
165,692	227,395	-0,141	-0,160
166,706	220,048	-0,227	-0,254
167,721	2,989	-0,152	-0,077
168,735	617,171	-0,125	-0,219
169,750	205,749	-0,174	-0,188
170,764	800,000	-0,072	-0,162
171,779	74,231	-0,149	-0,109
172,794	268,027	-0,191	-0,233
173,808	104,748	-0,177	-0,145
174,823	12,129	-0,196	-0,105
175,837	50,469	-0,287	-0,189
176,852	80,030	-0,201	-0,151
177,867	68,366	-0,213	-0,152
178,881	800,000	-0,062	-0,129
179,896	-22,665	-0,289	-0,121
180,910	90,490	-0,156	-0,122
181,925	-20,184	-0,295	-0,126
182,940	303,280	-0,163	-0,210
183,954	-33,209	-0,263	-0,101
184,969	800,000	-0,077	-0,218
185,983	23,902	-0,157	-0,090
186,998	83,987	-0,094	-0,072
188,013	-87,132	-0,280	-0,059
189,027	122,613	-0,265	-0,230
190,042	178,197	-0,293	-0,298
191,056	106,217	-0,226	-0,186
192,071	61,457	-0,225	-0,156
193,086	35,012	-0,193	-0,117
194,100	30,729	-0,085	-0,050
195,115	-5,822	-0,257	-0,122
196,129	193,855	-0,175	-0,184
197,144	-45,173	-0,277	-0,095
198,159	180,950	-0,147	-0,150
199,173	165,267	-0,134	-0,132
200,188	106,366	-0,193	-0,159
201,202	39,849	-0,198	-0,123
202,217	-11,956	-0,225	-0,102
203,232	47,843	-0,330	-0,214
204,246	137,388	-0,312	-0,284
205,261	27,025	-0,325	-0,189
206,275	-7,280	-0,215	-0,101
207,290	136,882	-0,110	-0,100
208,304	133,996	-0,109	-0,098
209,319	-15,784	-0,261	-0,115
210,334	158,440	-0,113	-0,109
211,348	84,958	-0,277	-0,210
212,363	159,485	-0,158	-0,153
213,377	39,440	-0,199	-0,124
214,392	524,478	-0,052	-0,085
215,407	24,358	-0,135	-0,078
216,421	-31,131	-0,156	0,061
217,436	41,721	-0,249	-0,156
218,450	628,469	-0,167	-0,295
219,465	151,068	-0,188	-0,178
220,480	538,732	-0,138	-0,228
221,494	-79,581	-0,219	0,051
222,509	543,776	-0,092	-0,153
223,523	13,415	-0,190	-0,102
224,538	-40,219	-0,289	-0,104
225,553	-7,644	-0,141	-0,066
226,567	800,000	-0,076	-0,209
227,582	332,538	-0,105	-0,141
228,596	13,922	-0,159	-0,085
229,611	-145,878	-0,182	-0,011
230,626	800,000	-0,041	-0,085
231,640	-98,276	-0,199	-0,035
232,655	234,787	-0,181	-0,208
233,669	15,955	-0,263	-0,143
234,684	49,897	-0,190	-0,124
235,699	-5,086	-0,071	0,034
236,713	215,192	-0,112	-0,123
237,728	-82,220	-0,173	-0,039
238,742	27,297	-0,235	-0,136
239,757	16,386	-0,157	-0,086
240,772	-56,147	-0,223	-0,068
241,786	-6,088	-0,258	-0,122
242,801	456,579	-0,122	-0,189
243,815	-118,382	-0,180	0,022
244,830	465,453	-0,184	-0,287
245,844	33,055	-0,197	-0,118
246,859	-14,530	-0,254	-0,113
247,874	-59,217	-0,149	-0,044
248,888	-19,957	-0,233	-0,099
249,903	-72,681	-0,168	-0,043
250,917	55,722	-0,175	-0,117
251,932	-188,463	-0,209	-0,002
252,947	-105,612	-0,224	-0,035
253,961	510,975	-0,138	-0,223
254,976	800,000	-0,083	-0,159
255,990	-145,942	-0,204	0,012
257,005	800,000	-0,087	-0,220
258,020	342,906	-0,125	-0,170
259,034	-15,746	-0,212	-0,093
260,049	-69,001	-0,214	-0,057
261,063	-182,204	-0,153	-0,002
262,078	-136,870	-0,216	0,017
263,093	-44,475	-0,190	-0,065
264,107	-67,676	-0,232	-0,062
265,122	45,773	-0,191	-0,122
266,136	233,322	-0,115	-0,131
267,151	190,855	-0,217	-0,226
268,166	224,990	-0,206	-0,231
269,180	26,998	-0,221	-0,128
270,195	24,131	-0,265	-0,151
271,209	-89,181	-0,169	-0,034
272,224	-17,889	-0,067	0,029
273,239	148,143	-0,171	-0,159
274,253	800,000	0,006	0,013
275,268	132,372	-0,216	-0,192
276,282	-45,485	-0,262	-0,089
277,297	392,356	-0,119	-0,171
278,312	-66,058	-0,133	-0,037
279,326	-44,912	-0,163	-0,056
280,341	75,984	-0,162	-0,118
281,355	138,589	-0,088	-0,080
282,370	-107,899	-0,357	-0,053
283,384	138,111	-0,204	-0,184
284,399	-100,193	-0,273	-0,046
285,414	110,621	-0,245	-0,203
286,428	7,108	-0,188	-0,096
287,443	232,119	-0,199	-0,226
288,457	452,043	-0,057	-0,087
289,472	-72,367	-0,174	0,044
290,487	-168,394	-0,232	0,006
291,501	62,233	-0,164	-0,113
292,516	326,933	-0,100	-0,133
293,530	-89,421	-0,143	0,029
294,545	-101,704	-0,092	-0,015
295,560	62,086	-0,158	-0,109
296,574	96,725	-0,050	-0,039
297,589	-31,212	-0,202	-0,078
298,603	-78,398	-0,170	-0,040
299,618	270,742	-0,105	-0,128
300,633	264,298	-0,125	-0,150
301,647	-22,398	-0,107	0,044
302,662	-71,368	-0,213	-0,055
303,676	-7,139	-0,113	-0,053
304,691	734,931	0,048	-0,089
305,706	100,882	-0,193	-0,154
306,720	572,718	-0,126	-0,213
307,735	-113,919	-0,160	0,021
308,749	-46,835	-0,147	-0,049
309,764	160,718	-0,196	-0,189
310,779	184,021	-0,153	-0,156
311,793	-200,000	-0,000	-0,098
312,808	-139,832	-0,116	-0,008
313,822	117,880	-0,160	-0,135
314,837	-51,607	-0,131	-0,042
315,852	75,170	-0,172	-0,125
316,866	52,121	-0,113	-0,074
317,881	148,137	-0,049	0,046
318,895	-7,166	-0,200	-0,093
319,910	42,184	-0,210	-0,131
320,925	-58,821	-0,135	0,040
321,939	22,672	-0,239	-0,134
322,954	-163,083	-0,153	-0,005
323,968	-126,722	-0,108	-0,011
324,983	235,864	-0,094	-0,107
325,997	339,160	-0,127	-0,171
327,012	190,305	-0,135	-0,139
328,027	28,485	-0,202	-0,117
329,041	-112,940	-0,070	0,009
330,056	56,370	-0,196	-0,131
331,070	31,301	-0,124	-0,073
332,085	-55,189	-0,138	-0,043
333,100	59,943	-0,142	-0,096
334,114	-185,245	-0,207	-0,002
335,129	37,518	-0,154	-0,094
336,143	68,132	-0,125	-0,088
337,158	-62,964	-0,172	-0,048
338,173	32,103	-0,062	-0,037
339,187	109,750	-0,127	-0,105
340,202	-91,207	-0,199	-0,039
341,216	404,957	-0,166	-0,241
342,231	43,199	-0,124	-0,077
343,246	800,000	-0,095	-0,195
344,260	194,192	-0,128	-0,133
345,275	333,271	-0,056	0,075
346,289	-125,887	-0,290	-0,030
347,304	-200,000	0,028	-0,111
348,319	800,000	-0,118	-0,248
349,333	226,909	-0,184	-0,206
350,348	800,000	-0,041	-0,080
351,362	-89,942	-0,096	0,019
352,377	22,524	-0,169	-0,094
353,392	547,377	-0,081	-0,134
354,406	256,528	-0,080	-0,095
355,421	209,247	1314,811	1414,658
356,435	161,039	1475,544	1415,153
