DTS Sentinel unit serial number:	SN410029Multiplexer serial number:	ORYXHardware model number:	OX2-SRSoftware version number:	ORYX F/W v4,00 Oryx Data Collector v3.7.2.0data status	okinstallation	B3 Nyhavnadifferential loss correction	single-endedforward channel	channel 1reverse channel	N/Adate	2023/12/01time	07:12:30forward acquisition time	300,00reverse acquisition time	0,00gamma	499,1914k internal	0,3213k external	0,3213temperature offset calibration	1,0000default loss term (dB/km)	0,3820temperature slope calibration	1,0000multiplexer offset coefficient	1,0000multiplexer slope coefficient	1,0000fibre end	0,00T internal ref (°C)	8,00T ext. ref 1 (°C)	-6,19T ext. ref 2 (°C)	-6,36length (m)	temperature (°C)	Stokes	anti-Stokes-744,400	-44,010	-0,313	-0,113
-743,385	367,736	0,132	0,193
-742,371	298,351	-0,131	-0,175
-741,356	-200,000	-0,019	0,258
-740,342	19,228	-0,198	-0,115
-739,327	-200,000	-0,053	0,332
-738,312	292,383	-0,193	-0,256
-737,298	771,500	-0,130	0,258
-736,283	212,512	-0,188	-0,215
-735,269	-200,000	0,008	0,236
-734,254	284,755	-0,150	-0,197
-733,239	-90,438	-0,268	0,056
-732,225	800,000	-0,137	-0,317
-731,210	800,000	0,027	0,059
-730,196	-200,000	-0,003	-0,089
-729,181	244,622	0,023	-0,027
-728,167	-35,848	-0,063	-0,025
-727,152	77,752	-0,044	0,034
-726,137	800,000	0,013	-0,033
-725,123	-85,846	-0,097	-0,022
-724,108	182,224	-0,215	-0,229
-723,094	-154,896	-0,100	-0,005
-722,079	-64,711	-0,178	-0,052
-721,064	-55,620	0,051	-0,017
-720,050	354,388	0,052	-0,075
-719,035	-45,377	-0,165	0,059
-718,021	30,462	-0,081	-0,050
-717,006	-69,708	-0,057	0,016
-715,991	800,000	0,042	-0,110
-714,977	-200,000	0,009	-0,046
-713,962	20,292	-0,116	-0,068
-712,948	800,000	0,023	-0,052
-711,933	-200,000	-0,001	-0,046
-710,918	747,757	0,056	-0,110
-709,904	-200,000	0,011	-0,088
-708,889	436,631	-0,081	-0,129
-707,875	326,008	-0,068	-0,095
-706,860	497,277	0,030	-0,049
-705,845	-94,629	0,148	-0,029
-704,831	117,828	0,016	-0,014
-703,816	-200,000	0,002	-0,007
-702,802	-200,000	0,005	-0,124
-701,787	424,011	-0,040	-0,062
-700,772	-170,773	-0,145	-0,004
-699,758	-83,658	-0,092	0,021
-698,743	154,806	0,111	0,110
-697,729	-179,065	-0,152	0,002
-696,714	89,317	0,064	0,052
-695,699	755,648	-0,015	-0,029
-694,685	-200,000	-0,008	-0,101
-693,670	142,336	-0,080	-0,077
-692,656	5,339	-0,048	-0,025
-691,641	107,297	0,045	0,039
-690,627	14,541	0,116	0,065
-689,612	432,914	0,034	0,053
-688,597	565,304	0,034	-0,059
-687,583	-102,154	0,055	0,009
-686,568	-200,000	0,004	-0,128
-685,554	-75,313	0,065	0,017
-684,539	44,997	0,069	-0,046
-683,524	-200,000	-0,007	0,034
-682,510	-200,000	0,003	0,076
-681,495	11,868	-0,028	0,015
-680,481	800,000	0,039	0,086
-679,466	-141,009	-0,223	-0,016
-678,451	371,782	-0,029	-0,043
-677,437	-151,674	-0,050	0,003
-676,422	-27,614	0,134	0,056
-675,408	-52,485	-0,037	-0,012
-674,393	-200,000	0,012	-0,064
-673,378	-200,000	0,005	-0,116
-672,364	-102,361	-0,060	-0,010
-671,349	130,340	-0,061	0,056
-670,335	271,011	0,046	-0,059
-669,320	800,000	0,016	-0,051
-668,305	73,480	0,072	0,055
-667,291	-27,318	-0,046	-0,019
-666,276	697,090	-0,043	-0,081
-665,262	-200,000	-0,065	-0,259
-664,247	-200,000	0,020	-0,093
-663,232	147,644	0,079	-0,077
-662,218	800,000	-0,031	0,083
-661,203	-4,417	-0,081	0,040
-660,189	-159,573	-0,086	0,003
-659,174	-31,735	0,078	-0,031
-658,159	96,150	0,045	-0,037
-657,145	-200,000	0,006	-0,032
-656,130	-126,627	0,080	-0,008
-655,116	-200,000	0,009	0,035
-654,101	50,183	0,119	0,081
-653,086	800,000	-0,012	-0,036
-652,072	-200,000	-0,003	-0,102
-651,057	166,219	0,069	-0,070
-650,043	-138,903	-0,124	-0,010
-649,028	-200,000	0,020	-0,115
-648,014	127,420	0,102	0,093
-646,999	-92,128	-0,024	0,005
-645,984	413,132	0,017	0,026
-644,970	-156,650	-0,162	-0,007
-643,955	661,190	-0,084	-0,157
-642,941	10,809	-0,189	-0,104
-641,926	-200,000	0,014	-0,059
-640,911	-83,569	-0,070	0,016
-639,897	-200,000	0,030	0,202
-638,882	-200,000	-0,002	0,098
-637,868	80,423	-0,069	-0,054
-636,853	800,000	-0,035	-0,078
-635,838	-128,908	-0,176	0,018
-634,824	-200,000	-0,007	-0,175
-633,809	744,675	0,018	-0,034
-632,795	25,326	-0,072	-0,043
-631,780	-129,977	0,055	-0,005
-630,765	800,000	0,014	0,034
-629,751	41,446	-0,096	0,063
-628,736	151,975	0,072	0,071
-627,722	-77,499	0,071	-0,018
-626,707	-200,000	0,030	0,111
-625,692	800,000	-0,054	0,126
-624,678	-158,876	-0,046	0,002
-623,663	800,000	-0,036	0,109
-622,649	800,000	-0,013	0,033
-621,634	24,723	-0,034	-0,020
-620,619	-89,535	-0,108	-0,023
-619,605	-200,000	-0,018	0,088
-618,590	-200,000	0,007	0,133
-617,576	49,886	0,061	0,041
-616,561	174,120	-0,062	-0,065
-615,546	-93,949	-0,049	-0,010
-614,532	356,376	-0,030	-0,043
-613,517	800,000	-0,054	-0,123
-612,503	717,154	0,047	0,089
-611,488	173,511	0,125	0,131
-610,474	800,000	0,037	0,116
-609,459	-28,039	-0,042	-0,017
-608,444	45,219	-0,015	-0,010
-607,430	800,000	0,013	0,029
-606,415	224,735	0,087	-0,101
-605,401	800,000	-0,051	-0,134
-604,386	0,654	0,049	-0,025
-603,371	53,474	-0,073	0,051
-602,357	28,326	-0,057	-0,035
-601,342	319,498	-0,044	-0,060
-600,328	296,721	0,086	-0,114
-599,313	154,256	-0,047	-0,046
-598,298	-200,000	0,003	0,155
-597,284	-65,554	0,154	0,044
-596,269	107,578	-0,018	0,015
-595,255	-200,000	0,014	0,124
-594,240	-8,404	-0,121	-0,058
-593,225	-200,000	0,017	-0,138
-592,211	41,177	0,072	-0,047
-591,196	800,000	0,021	0,054
-590,182	-200,000	-0,019	0,066
-589,167	-149,808	-0,051	0,003
-588,152	160,907	-0,082	0,082
-587,138	-200,000	-0,003	0,089
-586,123	95,438	-0,081	-0,066
-585,109	-200,000	0,009	-0,035
-584,094	-99,391	-0,047	-0,008
-583,079	-10,000	0,051	-0,024
-582,065	59,724	-0,098	0,069
-581,050	110,893	0,076	0,065
-580,036	-9,794	-0,009	-0,004
-579,021	133,236	-0,049	0,046
-578,006	175,287	-0,110	0,115
-576,992	330,505	0,068	0,094
-575,977	219,079	0,036	-0,041
-574,963	133,407	-0,072	0,067
-573,948	10,172	-0,089	-0,048
-572,934	-32,535	-0,035	-0,014
-571,919	327,166	-0,034	-0,047
-570,904	-51,090	0,095	-0,032
-569,890	-22,765	-0,093	-0,040
-568,875	-200,000	0,001	-0,058
-567,861	19,677	0,160	0,092
-566,846	69,993	-0,049	0,036
-565,831	-200,000	-0,023	-0,126
-564,817	-200,000	0,015	-0,075
-563,802	142,181	-0,097	-0,093
-562,788	-200,000	0,009	-0,101
-561,773	406,293	0,044	0,067
-560,758	-127,506	0,094	0,010
-559,744	14,848	0,099	0,055
-558,729	-200,000	0,020	0,076
-557,715	-10,715	-0,093	0,044
-556,700	219,876	0,064	0,073
-555,685	800,000	-0,053	-0,163
-554,671	102,625	0,124	0,104
-553,656	-99,918	0,128	-0,023
-552,642	662,491	-0,042	0,077
-551,627	787,472	-0,062	-0,124
-550,612	800,000	0,047	-0,104
-549,598	-200,000	-0,033	-0,139
-548,583	-200,000	0,039	-0,159
-547,569	-200,000	-0,020	-0,085
-546,554	763,941	-0,019	-0,038
-545,539	645,436	-0,010	0,019
-544,525	697,015	0,056	-0,106
-543,510	-200,000	-0,010	-0,147
-542,496	131,612	-0,028	-0,026
-541,481	256,797	-0,088	-0,109
-540,466	-200,000	0,026	-0,087
-539,452	656,614	-0,042	0,078
-538,437	-200,000	-0,002	0,024
-537,423	84,828	-0,041	0,033
-536,408	-92,472	0,172	-0,035
-535,393	-176,565	-0,098	0,002
-534,379	800,000	-0,067	-0,150
-533,364	-4,338	-0,057	-0,028
-532,350	-200,000	-0,000	-0,061
-531,335	51,819	0,052	0,035
-530,321	-200,000	-0,007	0,130
-529,306	-76,550	-0,133	0,033
-528,291	-1,332	-0,068	-0,034
-527,277	760,108	0,057	-0,112
-526,262	612,275	0,011	0,020
-525,248	-169,978	-0,136	-0,003
-524,233	136,726	0,076	0,071
-523,218	793,301	0,018	0,036
-522,204	-200,000	0,007	0,187
-521,189	-55,538	-0,065	0,021
-520,175	800,000	0,024	0,049
-519,160	-71,998	-0,084	0,022
-518,145	-200,000	0,003	0,114
-517,131	800,000	-0,020	-0,056
-516,116	-103,795	0,202	0,034
-515,102	800,000	0,031	-0,071
-514,087	-200,000	-0,016	-0,101
-513,072	336,192	-0,024	-0,034
-512,058	132,350	-0,051	0,047
-511,043	-146,191	-0,080	0,005
-510,029	-15,188	0,183	0,084
-509,014	-200,000	0,014	-0,082
-507,999	-120,858	-0,079	0,009
-506,985	-101,721	-0,183	0,032
-505,970	800,000	-0,052	-0,128
-504,956	-0,532	-0,044	0,022
-503,941	-135,805	0,167	0,014
-502,926	-200,000	-0,022	0,111
-501,912	-199,728	0,141	-0,000
-500,897	-17,915	0,081	0,036
-499,883	-120,392	-0,146	-0,018
-498,868	-200,000	-0,010	0,039
-497,853	-177,812	0,029	-0,000
-496,839	41,224	0,037	-0,024
-495,824	64,440	0,068	0,049
-494,810	-91,910	0,062	0,012
-493,795	-33,156	-0,063	0,025
-492,781	77,338	0,109	-0,083
-491,766	76,958	-0,076	-0,058
-490,751	-200,000	0,000	-0,052
-489,737	-155,728	-0,006	0,000
-488,722	-20,204	0,046	0,020
-487,708	6,202	-0,091	-0,048
-486,693	-200,000	-0,004	-0,074
-485,678	74,182	0,111	0,084
-484,664	-71,404	-0,162	0,043
-483,649	-46,447	-0,018	-0,006
-482,635	-33,688	0,070	0,027
-481,620	101,891	-0,084	0,071
-480,605	-134,945	0,088	0,007
-479,591	800,000	-0,042	-0,092
-478,576	-200,000	-0,012	0,072
-477,562	-103,778	-0,063	0,011
-476,547	-157,545	0,206	0,009
-475,532	-200,000	-0,055	-0,221
-474,518	47,315	0,157	-0,105
-473,503	245,832	0,099	0,120
-472,489	130,149	0,049	0,045
-471,474	800,000	0,084	-0,213
-470,459	-101,200	-0,145	-0,025
-469,445	737,452	0,054	0,104
-468,430	322,498	-0,053	0,072
-467,416	-30,959	0,062	-0,025
-466,401	-60,193	0,070	-0,021
-465,386	-59,233	0,075	0,023
-464,372	214,742	0,028	-0,032
-463,357	91,057	-0,086	-0,069
-462,343	800,000	-0,037	-0,101
-461,328	800,000	-0,019	-0,047
-460,313	800,000	0,041	-0,084
-459,299	-200,000	-0,002	0,032
-458,284	52,537	0,031	0,021
-457,270	-200,000	-0,016	0,118
-456,255	34,023	-0,041	-0,025
-455,241	-40,542	-0,125	-0,046
-454,226	-155,156	-0,196	0,009
-453,211	172,190	-0,133	-0,138
-452,197	-16,623	0,071	0,032
-451,182	203,243	0,102	0,114
-450,168	-131,060	-0,136	-0,013
-449,153	261,784	-0,081	-0,101
-448,138	-200,000	-0,003	-0,106
-447,124	424,086	-0,085	-0,131
-446,109	247,983	0,069	0,084
-445,095	174,173	0,110	0,114
-444,080	80,087	0,108	-0,083
-443,065	631,656	0,041	0,074
-442,051	-200,000	0,005	0,064
-441,036	-200,000	-0,011	-0,109
-440,022	-53,559	-0,167	-0,054
-439,007	-114,874	0,087	-0,012
-437,992	112,242	0,053	0,046
-436,978	-120,203	0,061	0,007
-435,963	800,000	0,068	0,151
-434,949	-110,205	-0,229	0,034
-433,934	-200,000	0,008	-0,109
-432,919	237,485	-0,030	0,035
-431,905	-200,000	0,010	0,039
-430,890	-152,557	0,205	0,010
-429,876	-65,749	-0,079	0,023
-428,861	-200,000	-0,011	0,108
-427,846	52,614	0,017	0,011
-426,832	102,893	-0,047	-0,039
-425,817	-74,163	-0,150	-0,039
-424,803	723,342	-0,030	-0,058
-423,788	221,259	-0,027	-0,031
-422,773	532,393	0,022	-0,038
-421,759	-25,781	-0,052	0,022
-420,744	-28,126	0,146	-0,060
-419,730	398,876	-0,015	-0,023
-418,715	5,339	0,067	-0,035
-417,701	800,000	-0,053	0,110
-416,686	-200,000	-0,012	0,140
-415,671	-5,019	-0,127	0,062
-414,657	87,056	-0,008	-0,006
-413,642	132,193	0,079	-0,073
-412,628	-119,819	0,148	0,018
-411,613	6,561	0,089	-0,047
-410,598	-200,000	0,001	-0,131
-409,584	-95,038	-0,055	0,011
-408,569	-200,000	0,004	-0,048
-407,555	309,441	0,065	0,087
-406,540	-114,707	-0,083	-0,011
-405,525	-200,000	-0,002	-0,112
-404,511	-102,455	-0,065	0,011
-403,496	78,940	0,105	-0,080
-402,482	-33,945	-0,102	-0,040
-401,467	-59,724	-0,100	0,030
-400,452	-91,975	0,154	-0,031
-399,438	-125,057	-0,045	-0,005
-398,423	317,850	0,053	0,072
-397,409	621,091	0,032	-0,058
-396,394	-200,000	0,014	-0,048
-395,379	-134,148	0,098	0,009
-394,365	102,475	0,095	-0,080
-393,350	-200,000	0,011	0,043
-392,336	-73,138	-0,012	0,003
-391,321	193,756	-0,069	0,075
-390,306	800,000	-0,047	-0,114
-389,292	-78,048	-0,032	0,008
-388,277	-168,227	0,114	-0,003
-387,263	137,692	0,063	-0,059
-386,248	-137,816	0,065	0,005
-385,233	489,689	0,023	0,038
-384,219	592,945	0,044	-0,078
-383,204	800,000	0,027	-0,067
-382,190	-116,188	-0,119	0,016
-381,175	-118,207	0,044	-0,006
-380,160	41,819	-0,091	0,059
-379,146	-200,000	-0,010	0,067
-378,131	-200,000	0,000	-0,017
-377,117	-46,098	0,092	-0,032
-376,102	-180,164	0,004	0,000
-375,088	151,452	-0,119	-0,116
-374,073	320,653	0,045	0,061
-373,058	121,205	0,088	0,078
-372,044	193,800	-0,100	0,108
-371,029	800,000	0,029	0,067
-370,015	-85,655	-0,037	0,008
-369,000	-26,697	-0,135	0,056
-367,985	277,027	-0,083	-0,105
-366,971	-81,244	0,074	-0,017
-365,956	-200,000	0,003	0,107
-364,942	153,623	-0,033	-0,032
-363,927	223,732	0,093	0,107
-362,912	-200,000	-0,008	0,096
-361,898	-200,000	0,043	-0,147
-360,883	-6,492	0,103	0,050
-359,869	88,421	0,063	-0,050
-358,854	708,388	0,037	-0,070
-357,839	800,000	0,040	0,099
-356,825	46,142	-0,023	0,015
-355,810	259,122	0,084	0,104
-354,796	-200,000	0,010	0,039
-353,781	121,167	-0,099	0,088
-352,766	-141,409	-0,071	-0,005
-351,752	-31,409	0,127	0,051
-350,737	-45,074	0,105	-0,037
-349,723	-12,171	0,023	0,011
-348,708	-73,266	0,130	0,034
-347,693	-29,947	0,171	-0,069
-346,679	-200,000	-0,038	-0,148
-345,664	-6,051	-0,069	-0,034
-344,650	-74,159	0,057	0,015
-343,635	94,709	0,068	0,055
-342,620	-111,090	0,037	0,005
-341,606	183,201	-0,032	0,034
-340,591	433,503	0,158	0,245
-339,577	800,000	-0,055	-0,114
-338,562	-37,962	0,080	-0,030
-337,548	-73,596	-0,051	-0,013
-336,533	72,779	0,122	0,090
-335,518	122,485	-0,068	0,061
-334,504	-200,000	-0,032	0,128
-333,489	-200,000	-0,061	-0,209
-332,475	-200,000	0,042	-0,158
-331,460	-11,669	-0,026	-0,012
-330,445	800,000	-0,039	-0,094
-329,431	-3,811	0,080	0,040
-328,416	336,939	0,050	0,070
-327,402	238,436	0,052	0,062
-326,387	685,665	0,062	0,115
-325,372	-153,965	-0,089	0,004
-324,358	142,519	0,080	-0,076
-323,343	-168,731	-0,052	-0,001
-322,329	-89,893	0,193	0,040
-321,314	102,950	-0,053	0,044
-320,299	-200,000	0,035	0,114
-319,285	-200,000	0,004	0,027
-318,270	-123,070	-0,029	0,003
-317,256	-162,244	-0,072	0,003
-316,241	124,276	0,028	-0,025
-315,226	-133,100	0,034	0,003
-314,212	-200,000	0,001	0,160
-313,197	-88,064	0,058	0,012
-312,183	-155,163	-0,084	-0,004
-311,168	-200,000	-0,009	0,056
-310,153	-200,000	0,011	0,080
-309,139	800,000	0,006	0,015
-308,124	-141,276	0,091	0,007
-307,110	-200,000	0,024	0,112
-306,095	-200,000	-0,018	0,156
-305,080	-83,163	-0,103	-0,023
-304,066	800,000	-0,050	-0,113
-303,051	135,827	-0,070	0,065
-302,037	13,983	-0,037	-0,020
-301,022	-51,880	0,052	0,017
-300,008	800,000	0,013	-0,033
-298,993	30,110	-0,040	0,024
-297,978	-65,628	0,040	0,011
-296,964	-36,458	0,053	0,020
-295,949	695,371	-0,010	0,018
-294,935	-111,763	0,059	0,008
-293,920	-69,888	0,058	-0,016
-292,905	-200,000	-0,019	-0,115
-291,891	-14,565	0,110	-0,050
-290,876	-200,000	0,015	0,072
-289,862	800,000	-0,027	-0,079
-288,847	-167,540	-0,126	0,003
-287,832	-200,000	-0,018	0,083
-286,818	67,238	-0,075	-0,054
-285,803	2,883	0,059	-0,031
-284,789	-32,977	0,059	-0,023
-283,774	-200,000	-0,021	0,069
-282,759	19,758	0,063	0,036
-281,745	-92,405	-0,083	-0,016
-280,730	-135,255	0,150	-0,013
-279,716	127,797	-0,153	-0,139
-278,701	800,000	-0,041	0,084
-277,686	-200,000	-0,026	0,142
-276,672	205,476	0,066	0,073
-275,657	-94,549	-0,064	-0,012
-274,643	-156,670	-0,124	-0,005
-273,628	568,188	-0,033	0,057
-272,613	-200,000	-0,034	0,135
-271,599	241,540	-0,048	0,057
-270,584	-10,687	0,182	0,085
-269,570	800,000	0,069	0,163
-268,555	-90,993	0,058	-0,012
-267,540	177,551	-0,090	0,093
-266,526	151,370	-0,092	-0,089
-265,511	-200,000	0,010	-0,058
-264,497	800,000	0,068	0,166
-263,482	-65,657	-0,046	-0,013
-262,467	-33,940	-0,131	-0,051
-261,453	-49,096	0,111	-0,038
-260,438	-93,984	-0,128	0,025
-259,424	800,000	-0,040	-0,119
-258,409	-145,321	0,083	-0,005
-257,395	39,594	0,064	-0,041
-256,380	-200,000	-0,009	0,049
-255,365	-61,965	0,031	-0,009
-254,351	-22,699	0,039	-0,016
-253,336	-200,000	-0,011	-0,052
-252,322	-59,107	0,036	0,011
-251,307	-151,817	0,020	-0,001
-250,292	391,290	-0,111	-0,165
-249,278	2,000	-0,025	-0,013
-248,263	-35,291	-0,054	-0,021
-247,249	800,000	0,019	-0,042
-246,234	107,090	-0,064	-0,054
-245,219	-200,000	-0,015	0,051
-244,205	553,056	0,021	-0,036
-243,190	290,149	-0,017	-0,022
-242,176	-200,000	0,006	0,026
-241,161	32,104	0,168	0,103
-240,146	-22,503	-0,090	0,038
-239,132	-36,919	0,073	-0,028
-238,117	37,205	-0,188	-0,118
-237,103	264,688	-0,097	0,120
-236,088	800,000	0,029	0,085
-235,073	-118,898	0,145	-0,018
-234,059	800,000	-0,034	0,075
-233,044	-132,357	0,053	0,005
-232,030	-200,000	-0,019	0,065
-231,015	36,500	-0,106	0,066
-230,000	294,534	0,063	0,082
-228,986	-151,910	-0,077	0,004
-227,971	599,671	0,037	-0,065
-226,957	45,979	0,022	-0,015
-225,942	-200,000	0,005	0,102
-224,927	-16,233	0,081	-0,036
-223,913	150,027	-0,123	-0,119
-222,898	-200,000	0,007	0,091
-221,884	-200,000	0,024	-0,094
-220,869	800,000	0,067	-0,147
-219,855	-200,000	0,006	0,155
-218,840	-200,000	0,019	0,069
-217,825	472,873	0,040	-0,064
-216,811	518,149	0,033	-0,055
-215,796	-200,000	-0,025	-0,130
-214,782	800,000	0,031	-0,063
-213,767	800,000	-0,033	0,083
-212,752	-34,441	0,050	0,019
-211,738	-200,000	0,043	-0,151
-210,723	-200,000	-0,015	-0,101
-209,709	87,389	-0,125	-0,098
-208,694	235,488	0,087	-0,103
-207,679	-200,000	0,035	-0,127
-206,665	-56,516	-0,088	-0,027
-205,650	800,000	0,001	0,002
-204,636	-93,169	0,133	0,026
-203,621	-55,750	0,068	-0,021
-202,606	121,740	-0,134	0,119
-201,592	769,805	-0,047	0,092
-200,577	-93,837	0,034	0,007
-199,563	800,000	-0,053	-0,120
-198,548	-127,779	0,126	-0,013
-197,533	376,400	0,039	0,057
-196,519	-78,809	-0,034	-0,008
-195,504	459,663	0,041	0,065
-194,490	18,271	-0,042	0,024
-193,475	183,561	-0,084	-0,088
-192,460	-200,000	0,031	0,103
-191,446	47,434	0,041	-0,027
-190,431	123,777	0,099	0,088
-189,417	-51,396	0,097	-0,032
-188,402	800,000	-0,053	0,123
-187,387	-200,000	-0,017	-0,076
-186,373	266,821	0,091	-0,113
-185,358	-182,501	-0,124	-0,002
-184,344	-21,369	0,175	0,076
-183,329	39,904	0,118	0,075
-182,315	-200,000	0,015	0,126
-181,300	-200,000	0,001	0,043
-180,285	-100,959	0,057	0,010
-179,271	39,151	-0,071	-0,045
-178,256	184,394	-0,126	-0,132
-177,242	-200,000	0,013	0,060
-176,227	386,567	0,093	0,137
-175,212	145,630	0,057	0,054
-174,198	800,000	-0,040	-0,083
-173,183	-103,028	0,023	0,004
-172,169	272,528	-0,148	-0,186
-171,154	-29,490	-0,057	-0,023
-170,139	10,968	0,039	0,021
-169,125	800,000	0,022	0,060
-168,110	-200,000	0,007	-0,066
-167,096	-200,000	0,011	-0,046
-166,081	483,829	-0,069	0,112
-165,066	358,364	-0,077	-0,109
-164,052	496,848	-0,030	0,049
-163,037	138,942	-0,119	0,111
-162,023	204,505	0,073	0,080
-161,008	304,271	-0,074	-0,097
-159,993	-167,659	-0,136	-0,004
-158,979	691,558	0,039	-0,072
-157,964	-200,000	0,012	-0,073
-156,950	4,931	-0,262	-0,136
-155,935	800,000	-0,031	-0,083
-154,920	-200,000	-0,004	0,086
-153,906	-61,639	0,237	0,070
-152,891	800,000	0,018	-0,035
-151,877	80,285	-0,078	0,059
-150,862	64,965	0,029	0,021
-149,847	144,241	0,088	0,083
-148,833	-88,378	-0,044	-0,009
-147,818	155,344	0,134	-0,131
-146,804	-200,000	0,015	0,053
-145,789	69,027	-0,059	0,043
-144,775	16,380	-0,114	-0,064
-143,760	-200,000	-0,011	0,072
-142,745	-200,000	0,001	-0,020
-141,731	17,343	-0,067	0,037
-140,716	209,677	-0,130	0,145
-139,702	-200,000	0,027	0,120
-138,687	-200,000	0,020	-0,078
-137,672	800,000	0,007	0,017
-136,658	88,608	-0,131	0,103
-135,643	800,000	-0,029	-0,079
-134,629	66,112	-0,046	0,033
-133,614	-94,425	-0,083	0,016
-132,599	218,119	0,061	0,069
-131,585	-29,167	-0,053	-0,021
-130,570	504,439	-0,066	-0,109
-129,556	-47,048	0,044	0,015
-128,541	-200,000	-0,001	0,017
-127,526	-200,000	-0,005	-0,018
-126,512	800,000	0,025	-0,066
-125,497	-108,133	0,167	-0,025
-124,483	-146,747	0,044	-0,003
-123,468	255,163	-0,026	0,031
-122,453	-108,217	0,065	0,010
-121,439	1,123	-0,112	-0,057
-120,424	125,092	-0,129	-0,115
-119,410	47,264	0,099	-0,065
-118,395	-113,555	-0,127	-0,017
-117,380	318,616	-0,038	0,052
-116,366	199,786	0,102	-0,111
-115,351	-200,000	-0,004	0,055
-114,337	-200,000	0,011	-0,074
-113,322	800,000	-0,063	0,130
-112,307	-200,000	-0,003	0,065
-111,293	154,935	0,024	-0,023
-110,278	800,000	0,015	-0,042
-109,264	-200,000	-0,033	0,137
-108,249	367,547	-0,092	0,131
-107,234	29,421	-0,041	-0,024
-106,220	59,130	0,135	0,093
-105,205	800,000	-0,039	-0,102
-104,191	79,868	0,109	0,083
-103,176	-37,199	0,024	-0,009
-102,162	610,348	0,030	0,053
-101,147	-200,000	0,004	-0,143
-100,132	800,000	-0,095	-0,204
-99,118	-95,439	-0,140	-0,026
-98,103	146,046	0,140	-0,133
-97,089	-56,261	-0,021	0,007
-96,074	-200,000	-0,059	0,216
-95,059	-81,325	-0,084	0,019
-94,045	-200,000	-0,019	0,141
-93,030	0,556	-0,051	-0,025
-92,016	800,000	-0,066	-0,178
-91,001	800,000	-0,085	-0,198
-89,986	800,000	0,054	-0,159
-88,972	-200,000	0,009	-0,050
-87,957	629,023	-0,121	0,216
-86,943	259,707	-0,100	-0,122
-85,928	-200,000	0,016	-0,051
-84,913	771,093	0,049	0,095
-83,899	85,268	0,167	0,130
-82,884	481,204	0,051	0,082
-81,870	-115,266	-0,063	-0,008
-80,855	14,013	0,127	0,069
-79,840	249,235	-0,093	-0,112
-78,826	-128,791	0,069	0,007
-77,811	-141,950	0,085	-0,006
-76,797	-200,000	-0,007	0,185
-75,782	135,077	0,059	0,055
-74,767	9,081	0,063	0,034
-73,753	105,048	0,040	0,034
-72,738	36,366	-0,156	0,097
-71,724	331,679	-0,083	-0,113
-70,709	8,278	-0,052	0,027
-69,694	73,433	-0,120	-0,088
-68,680	-47,798	0,049	-0,017
-67,665	62,245	0,030	0,021
-66,651	-200,000	-0,007	-0,060
-65,636	-94,895	0,040	-0,008
-64,622	-200,000	-0,026	-0,192
-63,607	260,523	-0,057	-0,069
-62,592	800,000	0,075	-0,149
-61,578	-200,000	0,017	0,069
-60,563	800,000	0,028	0,071
-59,549	199,392	-0,128	0,138
-58,534	82,475	-2,109	-1,614
-57,519	512,454	-1,115	-1,839
-56,505	-200,000	-0,495	-4,534
-55,490	682,762	0,894	1,651
-54,476	800,000	5,265	11,447
-53,461	-200,000	22,486	346,154
-52,446	800,000	757,598	2295,634
-51,432	534,174	1644,824	2759,714
-50,417	68,063	1643,500	1184,853
-49,403	15,648	1520,840	840,710
-48,388	9,848	1446,869	771,951
-47,373	19,187	1439,257	812,369
-46,359	13,344	1427,739	778,256
-45,344	8,155	1423,805	751,534
-44,330	8,112	1421,826	750,258
-43,315	8,092	1419,848	749,090
-42,300	8,078	1418,342	748,196
-41,286	8,118	1416,910	747,601
-40,271	8,070	1415,829	746,773
-39,257	8,062	1414,621	746,070
-38,242	8,152	1413,221	745,725
-37,227	8,115	1412,271	745,023
-36,213	8,117	1410,908	744,284
-35,198	8,090	1409,865	743,577
-34,184	8,130	1408,945	743,250
-33,169	8,023	1407,433	741,922
-32,154	8,111	1406,582	741,856
-31,140	8,070	1405,426	741,024
-30,125	8,099	1404,106	740,436
-29,111	8,077	1403,068	739,756
-28,096	8,070	1402,008	739,135
-27,082	8,018	1400,675	738,156
-26,067	7,996	1399,743	737,537
-25,052	8,035	1398,384	736,974
-24,038	8,051	1397,483	736,542
-23,023	8,005	1396,586	735,829
-22,009	8,039	1395,479	735,373
-20,994	8,033	1394,428	734,762
-19,979	8,033	1393,599	734,296
-18,965	7,996	1392,850	733,698
-17,950	7,967	1391,839	733,004
-16,936	7,919	1391,042	732,331
-15,921	7,949	1389,797	731,785
-14,906	7,964	1388,872	731,339
-13,892	8,018	1387,953	731,075
-12,877	7,923	1387,432	730,334
-11,863	7,938	1386,349	729,805
-10,848	7,912	1385,683	729,305
-9,833	7,863	1384,572	728,465
-8,819	7,901	1383,707	728,159
-7,804	7,814	1382,811	727,255
-6,790	7,798	1381,901	726,677
-5,775	7,853	1380,882	726,365
-4,760	7,869	1379,694	725,784
-3,746	7,933	1378,603	725,475
-2,731	7,869	1378,005	724,838
-1,717	7,837	1377,278	724,277
-0,702	7,830	1375,529	723,297
0,313	11,817	1286,026	694,303
1,327	27,562	677,831	401,065
2,342	42,762	116,616	74,731
3,356	1,142	16,562	8,350
4,371	3,188	3,990	2,039
5,386	3,693	1,336	0,685
6,400	800,000	0,271	0,597
7,415	80,067	-0,165	-0,125
8,429	-68,952	-0,245	-0,066
9,444	285,186	-0,163	-0,207
10,459	184,771	-0,218	-0,228
11,473	-72,038	-0,346	-0,090
12,488	-111,866	-0,413	-0,058
13,502	85,129	-0,298	-0,230
14,517	276,004	-0,199	-0,249
15,531	-34,193	-0,387	-0,149
16,546	-10,802	-0,326	-0,151
17,561	307,221	-0,291	-0,383
18,575	-54,997	-0,219	-0,069
19,590	90,160	-0,224	-0,176
20,604	-200,000	-0,220	-0,000
21,619	-10,884	-0,502	-0,232
22,634	505,024	-0,340	-0,555
23,648	193,368	-0,344	-0,366
24,663	42,548	-0,391	-0,250
25,677	173,911	-0,300	-0,305
26,692	88,357	-0,288	-0,225
27,707	144,372	-0,294	-0,276
28,721	18,247	-0,488	-0,273
29,736	-11,914	-0,343	-0,158
30,750	100,924	-0,384	-0,314
31,765	111,895	-0,274	-0,232
32,780	114,775	-0,232	-0,199
33,794	-19,995	-0,512	-0,221
34,809	16,929	-0,326	-0,181
35,823	-62,673	-0,435	-0,126
36,838	-5,872	-0,437	-0,209
37,853	-51,216	-0,256	-0,084
38,867	61,310	-0,279	-0,195
39,882	99,095	-0,289	-0,235
40,896	42,038	-0,353	-0,225
41,911	89,089	-0,243	-0,190
42,926	64,995	-0,423	-0,300
43,940	14,522	-0,363	-0,198
44,955	40,735	-0,363	-0,230
45,969	110,738	-0,327	-0,277
46,984	-13,225	-0,368	-0,167
47,999	-73,798	-0,329	-0,083
49,013	129,266	-0,260	-0,233
50,028	-39,775	-0,467	-0,170
51,042	39,672	-0,398	-0,250
52,057	111,975	-0,328	-0,278
53,071	63,941	-0,373	-0,263
54,086	138,132	-0,303	-0,279
55,101	-51,974	-0,315	-0,102
56,115	60,620	-0,306	-0,213
57,130	-91,009	-0,355	-0,071
58,144	-114,135	-0,323	-0,043
59,159	37,082	-0,369	-0,229
60,174	-60,576	-0,549	-0,162
61,188	-9,107	-0,384	-0,180
62,203	194,037	-0,325	-0,346
63,217	-50,009	-0,356	-0,118
64,232	-58,038	-0,363	-0,110
65,247	-2,587	-0,333	-0,163
66,261	200,561	-0,284	-0,306
67,276	-35,228	-0,426	-0,162
68,290	-69,987	-0,322	-0,085
69,305	25,182	-0,273	-0,158
70,320	563,128	-0,174	-0,296
71,334	6,080	-0,263	-0,136
72,349	58,400	-0,339	-0,233
73,363	-5,334	-0,439	-0,210
74,378	-29,461	-0,372	-0,148
75,393	86,325	-0,252	-0,194
76,407	-23,998	-0,221	-0,092
77,422	-15,539	-0,399	-0,178
78,436	-165,919	-0,193	-0,006
79,451	62,457	-0,300	-0,209
80,466	189,501	-0,312	-0,328
81,480	158,005	-0,179	-0,174
82,495	32,827	-0,256	-0,155
83,509	321,551	-0,212	-0,284
84,524	-105,046	-0,301	-0,048
85,539	0,008	-0,301	-0,150
86,553	-105,204	-0,324	-0,051
87,568	44,568	-0,402	-0,258
88,582	23,852	-0,376	-0,217
89,597	98,341	-0,143	-0,115
90,611	-85,929	-0,238	-0,051
91,626	-82,494	-0,324	-0,073
92,641	-11,587	-0,212	-0,097
93,655	147,756	-0,290	-0,273
94,670	270,603	-0,242	-0,298
95,684	119,298	-0,225	-0,195
96,699	-93,171	-0,223	-0,043
97,714	11,531	-0,212	-0,113
98,728	84,544	-0,167	-0,128
99,743	153,988	-0,216	-0,207
100,757	120,927	-0,215	-0,187
101,772	62,460	-0,288	-0,201
102,787	10,247	-0,329	-0,174
103,801	194,597	-0,308	-0,327
104,816	466,347	-0,157	-0,246
105,830	87,993	-0,309	-0,240
106,845	-45,379	-0,362	-0,125
107,860	-8,548	-0,215	-0,101
108,874	-5,988	-0,330	-0,157
109,889	277,522	-0,223	-0,278
110,903	131,988	-0,252	-0,226
111,918	58,609	-0,327	-0,224
112,933	86,889	-0,199	-0,153
113,947	-60,375	-0,177	-0,052
114,962	-2,039	-0,247	-0,121
115,976	101,290	-0,198	-0,161
116,991	36,289	-0,309	-0,190
118,006	91,738	-0,151	-0,118
119,020	78,734	-0,140	-0,104
120,035	800,000	-0,112	-0,219
121,049	42,594	-0,146	-0,093
122,064	-66,229	-0,328	-0,090
123,079	-82,785	-0,289	-0,065
124,093	800,000	-0,125	-0,295
125,108	45,889	-0,278	-0,179
126,122	7,615	-0,268	-0,139
127,137	-163,619	-0,176	-0,006
128,151	45,157	-0,265	-0,170
129,166	-57,455	-0,253	-0,077
130,181	101,204	-0,161	-0,131
131,195	-27,254	-0,248	-0,100
132,210	89,436	-0,250	-0,194
133,224	187,507	-0,174	-0,182
134,239	43,527	-0,126	-0,080
135,254	22,939	-0,154	-0,088
136,268	-1,020	-0,174	-0,086
137,283	19,874	-0,226	-0,127
138,297	83,663	-0,206	-0,156
139,312	215,558	-0,202	-0,223
140,327	233,669	-0,217	-0,249
141,341	-59,456	-0,223	-0,066
142,356	31,608	-0,255	-0,153
143,370	100,821	-0,185	-0,149
144,385	99,873	-0,277	-0,224
145,400	350,198	-0,188	-0,259
146,414	254,367	-0,235	-0,280
147,429	800,000	-0,134	-0,268
148,443	185,348	-0,216	-0,223
149,458	-58,744	-0,283	-0,085
150,473	-56,733	-0,346	-0,106
151,487	105,714	-0,209	-0,172
152,502	231,703	-0,158	-0,180
153,516	93,514	-0,306	-0,240
154,531	265,724	-0,166	-0,202
155,546	78,862	-0,240	-0,178
156,560	-79,203	-0,137	-0,032
157,575	213,685	-0,173	-0,190
158,589	-120,481	-0,226	0,026
159,604	316,953	-0,170	-0,224
160,619	101,956	-0,302	-0,245
161,633	238,209	-0,255	-0,295
162,648	704,703	-0,127	-0,235
163,662	-48,932	-0,221	-0,073
164,677	-43,904	-0,149	-0,052
165,692	26,020	-0,269	-0,155
166,706	-87,526	-0,248	-0,052
167,721	-32,917	-0,205	-0,079
168,735	40,604	-0,272	-0,170
169,750	-92,675	-0,186	-0,036
170,764	51,275	-0,170	-0,112
171,779	48,773	-0,246	-0,160
172,794	-135,369	-0,333	-0,027
173,808	-111,423	-0,200	-0,028
174,823	16,095	-0,345	-0,188
175,837	35,536	-0,196	-0,119
176,852	341,004	-0,147	-0,200
177,867	2,573	-0,086	0,043
178,881	-8,537	-0,272	-0,126
179,896	-18,045	-0,388	-0,168
180,910	119,500	-0,267	-0,229
181,925	113,210	-0,270	-0,227
182,940	158,386	-0,303	-0,292
183,954	134,815	-0,178	-0,160
184,969	673,028	-0,103	-0,187
185,983	800,000	-0,135	-0,290
186,998	52,302	-0,205	-0,135
188,013	25,788	-0,282	-0,163
189,027	285,233	-0,235	-0,295
190,042	99,376	-0,104	-0,083
191,056	-18,905	-0,159	-0,068
192,071	349,690	-0,163	-0,224
193,086	-149,305	-0,202	-0,011
194,100	-29,549	-0,218	-0,086
195,115	-6,087	-0,221	-0,104
196,129	217,018	-0,213	-0,236
197,144	16,970	-0,261	-0,143
198,159	-26,958	-0,230	-0,093
199,173	320,065	-0,080	-0,106
200,188	-61,223	-0,294	-0,085
201,202	270,256	-0,149	-0,182
202,217	800,000	-0,054	-0,121
203,232	-4,565	-0,158	-0,075
204,246	251,325	-0,321	-0,379
205,261	158,093	-0,219	-0,211
206,275	54,484	-0,114	-0,076
207,290	-17,058	-0,280	-0,122
208,304	220,465	-0,173	-0,192
209,319	16,036	-0,218	-0,118
210,334	95,172	-0,222	-0,175
211,348	137,665	-0,226	-0,205
212,363	-102,982	-0,279	-0,045
213,377	245,195	-0,222	-0,259
214,392	201,396	-0,094	-0,101
215,407	3,612	-0,155	-0,078
216,421	223,998	-0,183	-0,205
217,436	91,801	-0,175	-0,136
218,450	170,335	-0,238	-0,235
219,465	115,812	-0,175	-0,148
220,480	-24,314	-0,143	-0,059
221,494	800,000	-0,070	-0,197
222,509	-75,936	-0,143	-0,035
223,523	-112,054	-0,288	-0,040
224,538	-113,428	-0,061	0,008
225,553	87,798	-0,236	-0,181
226,567	403,939	-0,249	-0,364
227,582	-42,584	-0,206	-0,072
228,596	143,626	-0,206	-0,190
229,611	20,374	-0,126	-0,070
230,626	3,314	-0,179	-0,090
231,640	-80,805	-0,219	-0,050
232,655	273,681	-0,218	-0,267
233,669	106,852	-0,209	-0,171
234,684	207,925	-0,129	-0,139
235,699	145,560	-0,210	-0,194
236,713	22,790	-0,192	-0,109
237,728	40,353	-0,164	-0,102
238,742	128,546	-0,114	-0,101
239,757	93,129	-0,168	-0,131
240,772	-81,065	-0,171	0,039
241,786	13,534	-0,241	-0,129
242,801	-19,483	-0,221	-0,094
243,815	44,470	-0,174	-0,110
244,830	0,223	-0,163	-0,080
245,844	-169,774	-0,256	-0,006
246,859	800,000	-0,070	-0,153
247,874	-110,858	-0,191	-0,027
248,888	326,707	-0,218	-0,289
249,903	139,646	-0,145	-0,132
250,917	-200,000	-0,021	-0,119
251,932	-200,000	-0,023	-0,089
252,947	281,950	-0,200	-0,248
253,961	800,000	-0,133	-0,255
254,976	-122,530	-0,162	-0,018
255,990	199,399	-0,165	-0,175
257,005	-108,451	-0,209	-0,031
258,020	433,212	-0,078	-0,117
259,034	-0,848	-0,120	-0,058
260,049	342,389	-0,184	-0,248
261,063	5,593	-0,134	-0,068
262,078	273,670	-0,182	-0,222
263,093	800,000	-0,130	-0,303
264,107	295,898	-0,109	-0,138
265,122	-200,000	-0,060	-0,244
266,136	112,188	-0,114	-0,095
267,151	96,018	-0,179	-0,141
268,166	186,549	-0,123	-0,126
269,180	800,000	-0,063	-0,136
270,195	348,682	-0,118	-0,161
271,209	-12,765	-0,180	-0,081
272,224	-162,636	-0,106	-0,004
273,239	198,234	-0,116	-0,123
274,253	31,745	-0,125	-0,074
275,268	-41,630	-0,142	-0,050
276,282	326,118	-0,148	-0,196
277,297	-10,902	-0,312	-0,141
278,312	235,299	-0,159	-0,181
279,326	-89,920	-0,039	0,008
280,341	-4,102	-0,138	-0,066
281,355	33,096	-0,143	-0,085
282,370	98,351	-0,127	-0,100
283,384	-1,505	-0,318	-0,154
284,399	27,044	-0,247	-0,142
285,414	429,830	-0,070	-0,104
286,428	17,434	-0,217	-0,118
287,443	322,367	-0,061	-0,080
288,457	53,330	-0,168	-0,110
289,472	38,856	-0,170	-0,104
290,487	91,580	-0,227	-0,175
291,501	32,578	-0,283	-0,168
292,516	73,686	-0,176	-0,126
293,530	271,810	-0,040	-0,049
294,545	800,000	-0,087	-0,174
295,560	800,000	-0,027	0,055
296,574	6,475	-0,126	-0,064
297,589	327,376	-0,073	-0,097
298,603	177,262	-0,141	-0,142
299,618	91,216	-0,107	-0,082
300,633	332,662	-0,149	-0,198
301,647	582,176	0,003	0,006
302,662	95,719	-0,097	-0,076
303,676	-51,608	-0,190	-0,061
304,691	800,000	-0,102	-0,199
305,706	194,918	-0,136	-0,142
306,720	-100,404	-0,199	-0,033
307,735	-200,000	-0,014	-0,100
308,749	-141,517	-0,137	0,009
309,764	132,195	-0,065	-0,058
310,779	464,263	-0,026	0,040
311,793	-200,000	-0,024	-0,104
312,808	-88,484	-0,155	0,031
313,822	520,882	-0,091	-0,147
314,837	800,000	-0,098	-0,219
315,852	163,830	-0,066	0,064
316,866	262,865	-0,060	-0,071
317,881	-135,306	-0,161	-0,013
318,895	422,002	-0,057	-0,084
319,910	-24,089	-0,251	-0,102
320,925	209,058	-0,180	-0,193
321,939	-177,032	-0,221	0,004
322,954	321,847	-0,183	-0,239
323,968	191,991	-0,045	-0,047
324,983	-200,000	-0,049	-0,151
325,997	-41,321	-0,156	-0,055
327,012	326,811	-0,082	-0,108
328,027	-63,706	-0,176	-0,049
329,041	585,457	-0,116	-0,197
330,056	-23,913	-0,162	-0,066
331,070	800,000	-0,080	-0,194
332,085	-161,230	-0,240	-0,008
333,100	-200,000	-0,041	-0,181
334,114	84,310	-0,225	-0,168
335,129	-72,159	-0,164	-0,041
336,143	-107,162	-0,194	-0,029
337,158	800,000	-0,040	-0,094
338,173	-63,418	-0,144	-0,040
339,187	-119,714	-0,133	-0,016
340,202	-80,535	-0,214	-0,048
341,216	-121,959	-0,200	-0,022
342,231	-95,849	-0,100	-0,018
343,246	94,092	-0,138	-0,107
344,260	150,081	-0,109	-0,101
345,275	800,000	-0,030	-0,080
346,289	-168,672	-0,142	0,004
347,304	425,273	-0,069	0,101
348,319	269,829	-0,125	-0,150
349,333	5,939	-0,237	-0,120
350,348	3,920	-0,311	-0,155
351,362	246,868	0,037	-0,043
352,377	-87,440	-0,121	-0,025
353,392	537,576	-0,065	-0,106
354,406	-186,637	-0,108	0,001
355,421	206,719	1309,743	1396,095
356,435	158,991	1469,796	1396,528
