DTS Sentinel unit serial number:	SN410029Multiplexer serial number:	ORYXHardware model number:	OX2-SRSoftware version number:	ORYX F/W v4,00 Oryx Data Collector v3.7.2.0data status	okinstallation	B3 Nyhavnadifferential loss correction	single-endedforward channel	channel 1reverse channel	N/Adate	2023/12/04time	20:12:30forward acquisition time	300,00reverse acquisition time	0,00gamma	499,1914k internal	0,3200k external	0,3200temperature offset calibration	1,0000default loss term (dB/km)	0,3820temperature slope calibration	1,0000multiplexer offset coefficient	1,0000multiplexer slope coefficient	1,0000fibre end	0,00T internal ref (°C)	14,46T ext. ref 1 (°C)	-0,64T ext. ref 2 (°C)	-0,67length (m)	temperature (°C)	Stokes	anti-Stokes-744,400	267,222	-0,246	-0,313
-743,385	584,577	-0,191	0,342
-742,371	-39,673	-0,331	-0,125
-741,356	-200,000	-0,035	0,444
-740,342	60,578	-0,219	-0,158
-739,327	-200,000	0,086	0,307
-738,312	405,711	-0,187	-0,289
-737,298	-200,000	-0,047	0,346
-736,283	149,231	-0,214	-0,210
-735,269	-200,000	0,019	0,378
-734,254	127,553	-0,204	-0,188
-733,239	100,147	-0,135	0,114
-732,225	714,160	-0,096	-0,186
-731,210	-200,000	0,011	0,072
-730,196	239,723	0,036	0,044
-729,181	-196,276	-0,165	0,001
-728,167	-29,616	-0,159	0,066
-727,152	641,468	-0,021	-0,039
-726,137	-200,000	-0,018	-0,081
-725,123	4,969	-0,022	-0,012
-724,108	70,969	0,142	-0,107
-723,094	217,267	-0,109	-0,126
-722,079	157,361	-0,117	-0,118
-721,064	-64,308	0,057	0,017
-720,050	-200,000	0,004	-0,072
-719,035	-90,330	-0,114	0,024
-718,021	-200,000	-0,022	0,077
-717,006	-200,000	-0,028	-0,118
-715,991	294,589	-0,102	-0,136
-714,977	-200,000	-0,007	-0,109
-713,962	-46,354	-0,049	-0,017
-712,948	800,000	0,017	-0,038
-711,933	310,560	-0,051	0,069
-710,918	-168,316	-0,100	0,003
-709,904	-71,905	-0,090	0,024
-708,889	-200,000	0,038	-0,136
-707,875	125,615	-0,089	-0,081
-706,860	800,000	-0,054	-0,140
-705,845	-9,239	0,153	-0,074
-704,831	-156,816	-0,043	0,002
-703,816	457,491	0,073	-0,119
-702,802	-133,626	-0,113	0,010
-701,787	16,267	0,087	0,050
-700,772	-103,354	0,045	0,008
-699,758	18,281	-0,049	-0,028
-698,743	-37,420	0,107	0,041
-697,729	800,000	0,036	-0,072
-696,714	549,838	0,037	-0,064
-695,699	-200,000	-0,017	-0,106
-694,685	-92,851	-0,063	0,013
-693,670	800,000	-0,047	-0,122
-692,656	244,283	0,056	-0,069
-691,641	134,829	-0,092	0,086
-690,627	-118,321	0,108	-0,014
-689,612	6,041	-0,085	-0,045
-688,597	-0,014	-0,142	-0,073
-687,583	381,501	-0,014	-0,022
-686,568	800,000	-0,047	-0,131
-685,554	-158,479	0,083	-0,003
-684,539	800,000	-0,037	0,083
-683,524	-200,000	-0,003	-0,082
-682,510	-119,705	-0,036	-0,004
-681,495	-7,980	-0,062	0,030
-680,481	69,959	-0,011	-0,008
-679,466	-200,000	0,007	0,033
-678,451	-59,292	-0,066	-0,020
-677,437	-200,000	0,014	-0,081
-676,422	-137,414	0,013	-0,001
-675,408	203,693	-0,092	0,103
-674,393	250,566	0,056	-0,069
-673,378	156,553	-0,030	0,030
-672,364	167,021	-0,088	-0,091
-671,349	65,115	0,069	0,050
-670,335	800,000	-0,028	-0,061
-669,320	-159,023	-0,089	0,004
-668,305	58,229	-0,009	-0,007
-667,291	131,209	0,013	0,012
-666,276	630,836	-0,038	0,070
-665,262	-200,000	-0,011	-0,110
-664,247	-36,870	-0,110	-0,043
-663,232	319,586	0,086	0,119
-662,218	-77,005	-0,063	0,016
-661,203	-200,000	0,018	-0,158
-660,189	229,406	-0,040	-0,047
-659,174	15,906	-0,061	0,035
-658,159	-57,101	-0,099	0,032
-657,145	-90,794	-0,105	-0,022
-656,130	800,000	-0,029	-0,091
-655,116	-200,000	-0,015	0,104
-654,101	-11,966	0,047	-0,022
-653,086	44,685	-0,134	0,089
-652,072	-200,000	0,016	-0,151
-651,057	800,000	0,039	-0,105
-650,043	7,804	-0,093	-0,050
-649,028	-200,000	0,027	0,152
-648,014	-200,000	0,003	-0,080
-646,999	538,410	-0,053	-0,091
-645,984	800,000	0,051	-0,108
-644,970	-200,000	0,002	-0,126
-643,955	-57,480	-0,027	-0,009
-642,941	55,266	-0,039	-0,027
-641,926	11,643	-0,056	-0,031
-640,911	49,256	0,051	0,034
-639,897	-27,992	-0,105	0,044
-638,882	-200,000	-0,011	0,061
-637,868	-105,832	-0,080	-0,013
-636,853	-26,480	-0,084	-0,035
-635,838	-200,000	0,008	-0,160
-634,824	800,000	0,010	0,020
-633,809	-67,536	-0,028	0,008
-632,795	191,747	-0,025	-0,027
-631,780	21,008	0,014	-0,008
-630,765	-185,787	-0,126	0,001
-629,751	7,581	-0,081	0,044
-628,736	-4,163	-0,061	-0,030
-627,722	-200,000	-0,011	-0,083
-626,707	-81,651	0,146	-0,035
-625,692	357,137	0,060	-0,087
-624,678	-56,191	0,073	0,023
-623,663	-200,000	-0,023	0,097
-622,649	-101,510	-0,178	0,031
-621,634	343,281	-0,048	0,069
-620,619	52,606	0,080	0,055
-619,605	800,000	-0,032	-0,086
-618,590	58,323	0,047	0,033
-617,576	-200,000	-0,011	-0,060
-616,561	69,363	-0,092	-0,068
-615,546	-12,259	-0,077	-0,036
-614,532	35,726	-0,182	0,115
-613,517	647,760	-0,041	-0,076
-612,503	800,000	-0,018	0,056
-611,488	-81,127	0,279	-0,066
-610,474	-91,264	0,009	-0,002
-609,459	800,000	-0,028	0,058
-608,444	61,731	0,087	-0,062
-607,430	105,842	-0,042	-0,036
-606,415	108,865	-0,095	-0,082
-605,401	-38,962	0,085	0,032
-604,386	87,577	0,095	0,076
-603,371	342,737	-0,063	0,089
-602,357	-164,759	0,097	-0,003
-601,342	-58,527	-0,123	0,038
-600,328	-178,061	0,040	0,001
-599,313	294,800	-0,072	-0,095
-598,298	-200,000	-0,022	-0,109
-597,284	171,174	-0,075	-0,078
-596,269	800,000	0,027	-0,071
-595,255	17,268	-0,102	0,058
-594,240	800,000	0,016	0,042
-593,225	-71,051	-0,077	0,021
-592,211	-200,000	-0,007	-0,048
-591,196	800,000	-0,026	-0,057
-590,182	-131,609	0,108	0,010
-589,167	-46,935	0,122	0,043
-588,152	-188,984	0,188	-0,002
-587,138	-78,356	0,077	-0,019
-586,123	3,640	-0,050	-0,026
-585,109	-200,000	0,010	-0,080
-584,094	-85,575	0,042	-0,009
-583,079	73,614	-0,068	0,051
-582,065	800,000	0,016	-0,046
-581,050	-200,000	0,016	-0,057
-580,036	-200,000	0,019	-0,082
-579,021	-200,000	-0,002	-0,121
-578,006	438,770	-0,150	-0,238
-576,992	110,309	-0,158	-0,137
-575,977	322,819	0,038	0,052
-574,963	800,000	0,027	-0,083
-573,948	194,582	-0,102	0,111
-572,934	-83,317	-0,056	0,013
-571,919	800,000	-0,032	0,086
-570,904	522,542	-0,020	0,034
-569,890	447,169	0,064	-0,102
-568,875	42,260	0,106	0,069
-567,861	800,000	-0,022	0,053
-566,846	800,000	0,036	0,098
-565,831	-131,296	-0,108	0,010
-564,817	-15,830	-0,171	0,078
-563,802	800,000	-0,029	0,070
-562,788	-122,602	-0,173	-0,020
-561,773	800,000	0,024	-0,065
-560,758	218,320	0,033	0,038
-559,744	800,000	-0,022	0,051
-558,729	-63,634	0,061	-0,018
-557,715	-67,620	-0,100	0,028
-556,700	433,889	-0,043	0,067
-555,685	-145,666	-0,045	0,003
-554,671	-112,454	0,133	-0,019
-553,656	-200,000	0,005	0,096
-552,642	-200,000	0,020	0,207
-551,627	800,000	0,042	0,118
-550,612	114,978	-0,054	-0,047
-549,598	-200,000	-0,011	-0,097
-548,583	53,025	-0,095	-0,065
-547,569	-6,953	0,033	0,016
-546,554	-127,012	0,066	-0,007
-545,539	247,241	-0,038	-0,046
-544,525	154,781	-0,075	-0,075
-543,510	800,000	0,007	-0,019
-542,496	-12,422	-0,113	-0,053
-541,481	-200,000	-0,011	-0,060
-540,466	422,931	0,056	0,088
-539,452	-51,554	-0,058	-0,019
-538,437	-200,000	-0,020	0,136
-537,423	88,970	0,130	0,104
-536,408	294,819	-0,091	-0,121
-535,393	-110,185	0,088	-0,013
-534,379	637,724	-0,035	-0,065
-533,364	189,544	0,136	-0,147
-532,350	-200,000	0,002	-0,086
-531,335	47,906	-0,167	0,112
-530,321	-118,113	0,100	0,013
-529,306	1,342	-0,051	-0,026
-528,291	-200,000	-0,029	-0,138
-527,277	-110,029	-0,188	-0,028
-526,262	-134,781	-0,087	-0,008
-525,248	-200,000	0,024	-0,107
-524,233	-28,258	0,058	0,024
-523,218	397,123	0,014	-0,021
-522,204	4,218	0,066	0,035
-521,189	-200,000	0,001	-0,023
-520,175	59,886	-0,120	-0,085
-519,160	18,940	0,072	-0,042
-518,145	-66,552	-0,025	0,007
-517,131	-200,000	-0,018	0,156
-516,116	472,067	0,034	0,055
-515,102	348,115	0,040	0,057
-514,087	-200,000	-0,006	-0,140
-513,072	-21,341	-0,068	-0,030
-512,058	-200,000	-0,002	-0,079
-511,043	180,634	-0,012	0,013
-510,029	-8,045	0,048	-0,023
-509,014	12,930	-0,095	0,053
-507,999	190,179	0,080	0,087
-506,985	-1,005	-0,078	0,039
-505,970	800,000	-0,043	-0,116
-504,956	531,134	0,034	-0,059
-503,941	800,000	-0,052	-0,121
-502,926	-101,393	-0,024	-0,004
-501,912	202,920	0,035	-0,039
-500,897	-200,000	0,137	0,000
-499,883	-125,073	-0,076	-0,008
-498,868	-142,564	-0,139	-0,010
-497,853	15,367	-0,110	-0,062
-496,839	-200,000	0,019	-0,119
-495,824	-111,734	0,089	-0,013
-494,810	800,000	0,050	0,150
-493,795	-73,444	0,039	-0,010
-492,781	-73,016	-0,096	0,025
-491,766	-200,000	-0,019	-0,080
-490,751	-46,132	-0,136	-0,048
-489,737	-200,000	-0,045	-0,164
-488,722	-200,000	0,027	-0,131
-487,708	800,000	0,042	0,118
-486,693	-140,047	0,080	-0,006
-485,678	-106,914	-0,168	0,027
-484,664	-90,841	0,073	-0,015
-483,649	-112,772	-0,052	0,007
-482,635	267,805	-0,034	0,043
-481,620	-171,364	-0,066	0,002
-480,605	-125,373	-0,091	0,010
-479,591	183,375	0,139	0,149
-478,576	-40,674	-0,097	0,036
-477,562	-61,927	0,146	0,044
-476,547	201,683	-0,076	-0,085
-475,532	-200,000	0,009	0,038
-474,518	-144,977	0,075	-0,005
-473,503	326,609	0,036	-0,050
-472,489	152,788	0,077	0,076
-471,474	434,302	0,023	0,035
-470,459	70,297	-0,056	-0,042
-469,445	-200,000	0,009	-0,060
-468,430	506,073	-0,052	-0,086
-467,416	62,130	0,080	-0,057
-466,401	-118,166	-0,130	0,016
-465,386	378,154	-0,097	0,143
-464,372	-200,000	-0,028	0,136
-463,357	662,585	-0,028	0,052
-462,343	-200,000	0,006	-0,080
-461,328	45,595	-0,093	0,062
-460,313	119,484	-0,017	0,015
-459,299	800,000	0,059	0,134
-458,284	-200,000	0,022	0,199
-457,270	-24,280	-0,054	0,023
-456,255	491,285	-0,016	0,027
-455,241	186,825	-0,136	-0,146
-454,226	800,000	-0,013	-0,033
-453,211	-166,417	0,075	-0,002
-452,197	33,813	-0,082	0,051
-451,182	68,520	0,082	0,060
-450,168	18,037	-0,027	-0,015
-449,153	-167,494	0,067	0,002
-448,138	15,151	0,034	-0,019
-447,124	615,430	0,045	0,082
-446,109	-200,000	-0,016	-0,083
-445,095	-200,000	-0,000	0,066
-444,080	800,000	0,024	0,059
-443,065	800,000	0,049	0,110
-442,051	47,677	0,085	-0,057
-441,036	317,790	-0,019	-0,025
-440,022	80,482	-0,166	-0,129
-439,007	-200,000	0,011	-0,057
-437,992	-84,432	0,176	0,040
-436,978	190,862	0,032	-0,035
-435,963	376,770	-0,004	0,006
-434,949	139,041	-0,056	0,053
-433,934	502,624	0,047	-0,078
-432,919	292,578	-0,017	0,023
-431,905	110,465	0,159	0,138
-430,890	-200,000	-0,023	0,145
-429,876	800,000	0,005	0,014
-428,861	-200,000	-0,009	0,181
-427,846	31,196	0,071	0,044
-426,832	25,035	-0,091	0,054
-425,817	85,838	-0,067	-0,053
-424,803	-87,050	0,112	0,024
-423,788	-200,000	0,013	0,221
-422,773	27,220	-0,054	0,033
-421,759	-51,632	0,048	-0,016
-420,744	-81,218	-0,078	-0,018
-419,730	336,364	0,044	0,062
-418,715	-60,309	-0,131	0,040
-417,701	413,867	0,092	-0,141
-416,686	-16,368	-0,240	0,109
-415,671	-113,238	0,043	0,006
-414,657	56,036	0,070	0,048
-413,642	800,000	-0,020	-0,047
-412,628	-73,448	-0,155	-0,040
-411,613	-177,280	0,170	0,003
-410,598	-200,000	-0,007	0,035
-409,584	800,000	0,059	-0,126
-408,569	-200,000	-0,004	0,060
-407,555	-200,000	0,012	0,121
-406,540	697,680	0,027	0,051
-405,525	484,811	-0,033	0,055
-404,511	573,835	-0,044	-0,077
-403,496	-200,000	-0,002	-0,017
-402,482	800,000	0,016	-0,040
-401,467	-200,000	-0,035	-0,116
-400,452	-152,150	0,096	-0,005
-399,438	-200,000	0,067	0,000
-398,423	70,660	-0,103	-0,076
-397,409	99,627	-0,109	0,091
-396,394	167,734	-0,106	-0,108
-395,379	-82,195	0,067	-0,016
-394,365	3,851	-0,058	0,030
-393,350	-4,838	0,114	0,056
-392,336	-107,025	0,091	-0,014
-391,321	800,000	0,017	-0,053
-390,306	800,000	0,032	0,082
-389,292	-200,000	-0,011	0,038
-388,277	-64,840	0,134	0,039
-387,263	346,356	0,072	0,102
-386,248	-86,527	0,047	-0,010
-385,233	-200,000	0,002	0,064
-384,219	83,664	0,061	-0,047
-383,204	-138,917	-0,097	0,007
-382,190	316,269	-0,028	-0,038
-381,175	234,483	-0,109	-0,129
-380,160	-200,000	0,007	-0,077
-379,146	800,000	-0,019	0,052
-378,131	-1,046	0,082	0,042
-377,117	-108,045	0,046	0,007
-376,102	537,811	-0,062	0,105
-375,088	-95,845	-0,139	-0,026
-374,073	-40,162	-0,120	0,045
-373,058	77,931	0,082	0,063
-372,044	-200,000	0,003	-0,084
-371,029	563,536	-0,039	0,069
-370,015	250,698	0,070	0,085
-369,000	353,464	0,062	-0,089
-367,985	544,386	-0,063	-0,108
-366,971	-111,611	0,077	-0,011
-365,956	-106,658	0,091	0,014
-364,942	-200,000	0,052	0,000
-363,927	-106,783	0,133	-0,021
-362,912	-91,704	0,052	0,011
-361,898	-105,865	0,079	-0,013
-360,883	238,409	-0,087	-0,104
-359,869	-200,000	0,005	-0,062
-358,854	-124,980	0,082	0,009
-357,839	101,503	-0,035	-0,030
-356,825	-70,349	-0,044	0,012
-355,810	17,592	-0,101	0,058
-354,796	249,082	-0,030	0,037
-353,781	198,591	-0,047	0,052
-352,766	114,152	-0,076	-0,066
-351,752	101,515	-0,012	-0,010
-350,737	800,000	0,009	-0,023
-349,723	322,842	-0,049	-0,066
-348,708	800,000	-0,011	0,028
-347,693	150,328	-0,033	0,032
-346,679	-17,162	0,162	0,073
-345,664	789,729	-0,028	-0,055
-344,650	366,643	0,050	-0,072
-343,635	800,000	0,022	0,065
-342,620	800,000	0,041	0,093
-341,606	-200,000	-0,032	-0,113
-340,591	556,179	-0,051	0,088
-339,577	-200,000	-0,006	0,073
-338,562	-128,045	-0,085	-0,009
-337,548	-136,472	0,041	0,003
-336,533	229,556	0,047	0,055
-335,518	800,000	0,063	0,185
-334,504	413,811	-0,077	-0,118
-333,489	-51,595	0,030	0,010
-332,475	800,000	-0,024	0,056
-331,460	-10,726	-0,075	-0,036
-330,445	-15,543	-0,123	-0,056
-329,431	622,116	-0,028	-0,050
-328,416	-123,899	-0,030	0,003
-327,402	138,837	0,135	0,127
-326,387	-53,834	-0,137	0,045
-325,372	-200,000	-0,015	0,081
-324,358	-200,000	0,013	-0,051
-323,343	800,000	0,023	0,047
-322,329	-165,254	0,076	-0,002
-321,314	55,673	0,054	0,038
-320,299	356,039	-0,004	0,006
-319,285	122,471	0,042	0,037
-318,270	276,681	-0,081	-0,103
-317,256	-126,112	0,086	-0,009
-316,241	-200,000	0,042	0,167
-315,226	-200,000	0,034	-0,132
-314,212	366,751	0,088	0,127
-313,197	-200,000	0,048	0,179
-312,183	-189,874	-0,182	0,001
-311,168	-144,127	0,148	0,010
-310,153	-200,000	-0,024	-0,178
-309,139	55,579	0,131	-0,091
-308,124	-111,617	-0,126	0,018
-307,110	-123,377	0,111	0,012
-306,095	-200,000	0,011	0,055
-305,080	-26,655	-0,104	-0,043
-304,066	693,959	0,046	-0,086
-303,051	-117,119	0,029	0,004
-302,037	-200,000	-0,002	-0,064
-301,022	-200,000	0,007	0,049
-300,008	-22,193	0,032	-0,014
-298,993	800,000	0,038	0,086
-297,978	-200,000	-0,000	-0,132
-296,964	-200,000	0,013	0,049
-295,949	800,000	0,010	0,030
-294,935	-103,999	0,030	0,005
-293,920	800,000	0,028	-0,062
-292,905	785,912	-0,064	-0,126
-291,891	84,469	0,028	0,022
-290,876	-2,560	0,049	-0,024
-289,862	223,388	-0,049	0,056
-288,847	63,660	-0,033	0,024
-287,832	-23,325	-0,117	0,050
-286,818	-4,365	0,175	-0,086
-285,803	350,538	-0,056	-0,080
-284,789	0,984	0,124	0,063
-283,774	800,000	0,044	0,131
-282,759	310,455	-0,048	0,064
-281,745	-8,568	0,007	0,003
-280,730	-41,423	-0,059	-0,021
-279,716	-200,000	0,009	0,113
-278,701	-200,000	-0,048	0,177
-277,686	126,137	0,087	0,079
-276,672	13,744	-0,133	0,074
-275,657	-200,000	0,001	0,115
-274,643	114,426	-0,091	-0,079
-273,628	320,722	0,060	-0,082
-272,613	-139,297	-0,042	-0,003
-271,599	-120,201	0,079	-0,009
-270,584	-142,459	-0,081	-0,006
-269,570	-200,000	-0,012	0,084
-268,555	241,958	-0,031	0,037
-267,540	257,690	-0,051	-0,063
-266,526	-200,000	-0,015	-0,165
-265,511	245,442	-0,131	-0,158
-264,497	-95,718	0,216	-0,041
-263,482	123,470	0,100	-0,089
-262,467	29,386	0,081	-0,049
-261,453	230,809	-0,084	-0,098
-260,438	-72,813	-0,031	-0,008
-259,424	58,033	-0,162	-0,113
-258,409	-97,133	-0,155	0,029
-257,395	34,717	0,081	-0,050
-256,380	144,899	-0,094	0,090
-255,365	32,846	0,085	0,052
-254,351	-49,233	0,107	0,036
-253,336	-77,806	-0,094	0,023
-252,322	-200,000	0,015	-0,071
-251,307	-200,000	-0,026	-0,125
-250,292	49,086	0,106	0,071
-249,278	800,000	0,022	0,063
-248,263	-75,658	0,094	0,024
-247,249	562,727	-0,080	-0,139
-246,234	270,318	0,037	-0,047
-245,219	102,511	-0,082	-0,068
-244,205	3,549	0,104	-0,054
-243,190	77,492	0,100	-0,076
-242,176	-200,000	0,015	-0,062
-241,161	334,810	0,041	0,057
-240,146	-200,000	0,003	-0,042
-239,132	240,971	0,074	-0,088
-238,117	53,989	-0,066	-0,046
-237,103	2,492	0,084	-0,043
-236,088	395,262	0,067	-0,099
-235,073	-200,000	0,003	-0,050
-234,059	-84,252	0,098	0,022
-233,044	391,088	0,038	0,057
-232,030	800,000	0,045	0,101
-231,015	-200,000	-0,004	0,077
-230,000	200,279	-0,036	0,040
-228,986	256,654	0,002	0,003
-227,971	12,451	0,049	-0,027
-226,957	744,240	0,045	0,087
-225,942	-1,209	0,153	-0,077
-224,927	182,012	0,069	0,073
-223,913	-95,935	-0,098	-0,019
-222,898	-56,734	-0,075	-0,024
-221,884	-145,021	0,122	0,008
-220,869	132,184	0,070	0,065
-219,855	-200,000	0,011	0,100
-218,840	800,000	0,033	0,078
-217,825	231,587	-0,031	-0,036
-216,811	800,000	-0,017	-0,049
-215,796	-96,219	0,048	-0,009
-214,782	800,000	0,065	-0,129
-213,767	359,528	0,048	0,069
-212,752	169,130	0,042	0,043
-211,738	348,108	0,061	0,086
-210,723	-6,009	-0,038	-0,018
-209,709	727,858	-0,117	-0,223
-208,694	141,081	0,088	-0,083
-207,679	-200,000	0,030	-0,136
-206,665	197,307	0,119	0,130
-205,650	151,030	0,027	-0,026
-204,636	-70,558	-0,090	0,024
-203,621	-200,000	-0,004	0,015
-202,606	-117,349	0,083	-0,011
-201,592	651,054	-0,026	0,047
-200,577	-122,939	0,120	0,014
-199,563	274,898	0,056	0,071
-198,548	197,052	0,047	0,051
-197,533	-8,607	-0,101	0,048
-196,519	800,000	0,044	-0,138
-195,504	134,423	-0,097	0,089
-194,490	172,949	-0,055	0,057
-193,475	-109,411	-0,103	-0,015
-192,460	224,183	-0,064	0,073
-191,446	-200,000	0,032	0,199
-190,431	-200,000	0,034	0,170
-189,417	-200,000	0,008	0,055
-188,402	192,685	0,095	-0,102
-187,387	169,011	-0,052	-0,053
-186,373	-200,000	0,017	-0,090
-185,358	-158,660	0,203	-0,008
-184,344	-200,000	-0,008	0,070
-183,329	800,000	0,027	0,065
-182,315	-1,583	-0,034	0,017
-181,300	800,000	0,039	0,109
-180,285	800,000	-0,013	-0,026
-179,271	66,515	0,095	-0,069
-178,256	-200,000	0,025	-0,123
-177,242	-200,000	-0,015	-0,058
-176,227	-35,996	-0,090	-0,034
-175,212	-200,000	-0,007	-0,031
-174,198	-200,000	0,032	0,133
-173,183	-200,000	0,014	-0,100
-172,169	114,596	0,026	0,023
-171,154	141,271	0,051	-0,048
-170,139	-200,000	-0,005	0,135
-169,125	-200,000	0,008	-0,039
-168,110	-25,883	-0,259	0,108
-167,096	-200,000	-0,026	-0,104
-166,081	44,388	0,156	-0,102
-165,066	78,499	0,025	-0,019
-164,052	-73,144	0,201	0,052
-163,037	126,111	-0,104	0,094
-162,023	-101,441	0,026	-0,004
-161,008	-38,784	0,104	0,039
-159,993	-200,000	0,002	0,068
-158,979	800,000	0,033	0,082
-157,964	-3,424	-0,120	0,059
-156,950	-115,215	0,082	-0,011
-155,935	-200,000	0,004	-0,052
-154,920	101,292	-0,028	0,023
-153,906	-33,644	0,023	-0,009
-152,891	87,295	-0,038	-0,030
-151,877	-200,000	0,008	-0,083
-150,862	122,858	0,057	-0,051
-149,847	164,815	-0,032	-0,032
-148,833	-200,000	-0,035	0,150
-147,818	-111,965	0,077	-0,011
-146,804	-48,822	0,041	-0,014
-145,789	-200,000	-0,009	0,105
-144,775	-101,982	-0,084	-0,014
-143,760	-200,000	-0,009	-0,037
-142,745	800,000	-0,046	-0,113
-141,731	520,412	0,038	-0,063
-140,716	97,207	-0,013	-0,011
-139,702	534,109	-0,031	-0,052
-138,687	-52,355	0,069	0,023
-137,672	-13,949	0,055	-0,025
-136,658	-200,000	0,018	-0,079
-135,643	-200,000	0,007	-0,090
-134,629	410,968	-0,030	0,046
-133,614	17,139	-0,047	0,026
-132,599	132,251	-0,044	0,040
-131,585	217,636	0,113	0,129
-130,570	458,337	-0,054	-0,086
-129,556	-200,000	-0,033	-0,114
-128,541	-70,788	-0,129	0,034
-127,526	800,000	-0,075	0,185
-126,512	-125,346	-0,105	-0,011
-125,497	-200,000	0,005	0,125
-124,483	-101,966	0,060	-0,010
-123,468	-200,000	-0,011	-0,061
-122,453	83,576	-0,068	-0,052
-121,439	-59,239	0,110	0,033
-120,424	115,223	-0,121	-0,105
-119,410	-81,371	0,130	0,030
-118,395	-178,441	0,031	-0,000
-117,380	46,206	0,103	0,068
-116,366	55,008	-0,119	-0,081
-115,351	800,000	0,023	-0,067
-114,337	-200,000	-0,039	-0,165
-113,322	-9,091	0,006	0,003
-112,307	208,237	0,042	-0,047
-111,293	195,015	0,016	0,018
-110,278	-200,000	-0,007	0,051
-109,264	-200,000	-0,004	0,037
-108,249	543,091	-0,066	-0,113
-107,234	-200,000	-0,004	0,018
-106,220	384,127	0,042	-0,062
-105,205	-200,000	-0,008	-0,043
-104,191	-158,145	-0,073	-0,003
-103,176	-200,000	0,004	-0,053
-102,162	-159,304	0,090	0,004
-101,147	38,576	0,089	0,056
-100,132	-182,887	-0,099	0,001
-99,118	800,000	-0,027	0,064
-98,103	-132,882	0,101	-0,009
-97,089	271,944	0,097	0,121
-96,074	-16,769	-0,059	0,026
-95,059	800,000	0,027	0,080
-94,045	130,611	0,039	-0,035
-93,030	57,635	-0,191	-0,132
-92,016	9,829	0,079	0,042
-91,001	-200,000	0,014	-0,050
-89,986	-139,026	0,075	-0,006
-88,972	231,071	0,039	0,045
-87,957	-82,466	-0,168	0,038
-86,943	-158,064	0,173	-0,007
-85,928	43,147	-0,097	-0,062
-84,913	800,000	0,020	0,041
-83,899	-68,115	0,148	-0,041
-82,884	-200,000	0,008	0,056
-81,870	-5,848	0,130	0,063
-80,855	800,000	0,057	0,117
-79,840	102,917	-0,085	-0,070
-78,826	294,282	0,039	0,051
-77,811	-200,000	0,009	-0,054
-76,797	-64,737	0,059	-0,017
-75,782	510,115	0,050	0,083
-74,767	178,651	-0,021	-0,022
-73,753	800,000	0,019	-0,055
-72,738	800,000	0,026	0,069
-71,724	-44,644	-0,054	-0,019
-70,709	-124,732	-0,111	-0,012
-69,694	-200,000	0,026	0,106
-68,680	166,886	0,104	0,105
-67,665	-200,000	-0,004	0,141
-66,651	-200,000	0,014	-0,137
-65,636	800,000	-0,035	-0,092
-64,622	31,188	-0,077	0,047
-63,607	0,286	-0,088	-0,045
-62,592	-44,383	0,038	0,013
-61,578	-199,683	-0,080	-0,000
-60,563	193,272	-0,055	0,059
-59,549	-122,161	0,143	-0,016
-58,534	-59,025	-1,433	-0,435
-57,519	463,751	-1,379	-2,191
-56,505	-200,000	-0,614	-4,653
-55,490	137,375	0,910	0,844
-54,476	800,000	4,888	11,393
-53,461	-200,000	18,508	297,923
-52,446	800,000	732,282	2261,831
-51,432	559,891	1648,458	2830,433
-50,417	78,866	1668,660	1263,289
-49,403	22,431	1541,548	890,197
-48,388	16,353	1464,471	816,196
-47,373	17,732	1454,584	817,307
-46,359	17,045	1444,877	808,529
-45,344	14,612	1440,218	794,254
-44,330	14,527	1438,219	792,713
-43,315	14,537	1436,412	791,737
-42,300	14,520	1434,988	790,838
-41,286	14,590	1433,706	790,431
-40,271	14,538	1432,388	789,429
-39,257	14,526	1431,155	788,659
-38,242	14,584	1429,877	788,198
-37,227	14,581	1428,558	787,428
-36,213	14,556	1427,312	786,591
-35,198	14,581	1426,145	786,032
-34,184	14,627	1425,241	785,723
-33,169	14,549	1423,877	784,572
-32,154	14,576	1422,928	784,142
-31,140	14,565	1421,447	783,244
-30,125	14,583	1420,557	782,810
-29,111	14,564	1419,389	782,045
-28,096	14,557	1418,252	781,355
-27,082	14,477	1417,261	780,401
-26,067	14,481	1416,064	779,726
-25,052	14,477	1414,959	779,069
-24,038	14,515	1414,114	778,755
-23,023	14,472	1413,051	777,935
-22,009	14,479	1412,183	777,459
-20,994	14,430	1411,178	776,644
-19,979	14,417	1410,388	776,119
-18,965	14,412	1409,408	775,526
-17,950	14,413	1408,380	774,931
-16,936	14,420	1407,365	774,378
-15,921	14,417	1406,337	773,765
-14,906	14,445	1405,236	773,258
-13,892	14,418	1404,476	772,684
-12,877	14,359	1403,774	771,992
-11,863	14,377	1402,821	771,522
-10,848	14,429	1401,717	771,125
-9,833	14,365	1400,961	770,383
-8,819	14,341	1400,179	769,810
-7,804	14,283	1399,322	769,042
-6,790	14,277	1398,145	768,334
-5,775	14,313	1397,018	767,853
-4,760	14,288	1396,033	767,165
-3,746	14,262	1395,402	766,667
-2,731	14,306	1394,537	766,366
-1,717	14,270	1393,690	765,701
-0,702	14,288	1391,839	764,739
0,313	18,135	1310,138	737,664
1,327	34,545	706,037	435,534
2,342	53,182	124,122	83,993
3,356	1,530	16,652	8,451
4,371	-3,791	3,209	1,571
5,386	2,576	0,535	0,274
6,400	800,000	0,063	0,173
7,415	17,701	-0,287	-0,161
8,429	61,954	-0,324	-0,228
9,444	136,581	-0,281	-0,260
10,459	-101,372	-0,398	-0,068
11,473	-36,597	-0,427	-0,162
12,488	32,903	-0,213	-0,130
13,502	52,235	-0,363	-0,244
14,517	-200,000	-0,077	-0,324
15,531	116,757	-0,288	-0,250
16,546	26,884	-0,257	-0,152
17,561	99,678	-0,344	-0,281
18,575	0,391	-0,177	-0,089
19,590	339,128	-0,157	-0,217
20,604	-63,247	-0,323	-0,093
21,619	18,020	-0,506	-0,284
22,634	226,466	-0,366	-0,421
23,648	4,250	-0,432	-0,223
24,663	18,170	-0,395	-0,222
25,677	11,857	-0,357	-0,193
26,692	12,538	-0,251	-0,136
27,707	134,651	-0,368	-0,337
28,721	100,587	-0,323	-0,265
29,736	190,289	-0,387	-0,411
30,750	506,603	-0,310	-0,509
31,765	15,573	-0,542	-0,300
32,780	139,026	-0,333	-0,309
33,794	149,334	-0,331	-0,317
34,809	82,962	-0,273	-0,209
35,823	54,975	-0,454	-0,309
36,838	173,098	-0,326	-0,331
37,853	116,820	-0,383	-0,331
38,867	132,500	-0,329	-0,300
39,882	87,763	-0,423	-0,330
40,896	29,542	-0,286	-0,171
41,911	39,884	-0,352	-0,222
42,926	72,818	-0,362	-0,266
43,940	155,875	-0,345	-0,335
44,955	141,191	-0,332	-0,310
45,969	28,943	-0,392	-0,234
46,984	-68,099	-0,458	-0,125
47,999	203,775	-0,332	-0,363
49,013	132,759	-0,183	-0,167
50,028	-9,465	-0,387	-0,181
51,042	193,682	-0,288	-0,307
52,057	195,421	-0,283	-0,303
53,071	350,643	-0,292	-0,407
54,086	33,853	-0,435	-0,266
55,101	103,621	-0,232	-0,191
56,115	27,181	-0,425	-0,250
57,130	23,361	-0,321	-0,185
58,144	72,653	-0,429	-0,315
59,159	39,305	-0,439	-0,276
60,174	102,212	-0,332	-0,273
61,188	213,535	-0,337	-0,375
62,203	25,653	-0,378	-0,221
63,217	22,815	-0,409	-0,235
64,232	-7,760	-0,410	-0,194
65,247	69,231	-0,305	-0,220
66,261	53,977	-0,321	-0,217
67,276	104,390	-0,277	-0,229
68,290	60,854	-0,373	-0,260
69,305	174,838	-0,343	-0,349
70,320	214,794	-0,251	-0,280
71,334	241,609	-0,243	-0,286
72,349	29,210	-0,317	-0,189
73,363	117,758	-0,364	-0,315
74,378	54,240	-0,319	-0,216
75,393	106,794	-0,204	-0,170
76,407	169,685	-0,297	-0,299
77,422	70,271	-0,241	-0,175
78,436	0,741	-0,240	-0,120
79,451	117,321	-0,202	-0,175
80,466	192,773	-0,317	-0,337
81,480	17,704	-0,374	-0,208
82,495	-0,883	-0,343	-0,170
83,509	23,839	-0,278	-0,161
84,524	103,107	-0,171	-0,141
85,539	101,804	-0,317	-0,260
86,553	34,252	-0,320	-0,196
87,568	202,180	-0,230	-0,250
88,582	72,233	-0,252	-0,184
89,597	83,228	-0,357	-0,273
90,611	31,582	-0,333	-0,201
91,626	98,946	-0,300	-0,243
92,641	4,541	-0,370	-0,190
93,655	32,980	-0,286	-0,174
94,670	-45,075	-0,462	-0,160
95,684	29,979	-0,325	-0,194
96,699	149,189	-0,220	-0,209
97,714	121,511	-0,238	-0,208
98,728	185,783	-0,211	-0,221
99,743	403,489	-0,111	-0,164
100,757	52,135	-0,246	-0,164
101,772	37,232	-0,317	-0,197
102,787	113,614	-0,288	-0,245
103,801	9,983	-0,332	-0,177
104,816	-61,014	-0,237	-0,070
105,830	243,582	-0,107	-0,126
106,845	45,581	-0,224	-0,145
107,860	70,138	-0,188	-0,136
108,874	-0,587	-0,267	-0,132
109,889	250,046	-0,174	-0,207
110,903	6,427	-0,397	-0,206
111,918	106,953	-0,278	-0,231
112,933	-23,252	-0,204	-0,086
113,947	-79,508	-0,327	-0,077
114,962	-0,471	-0,192	-0,095
115,976	144,034	-0,298	-0,278
116,991	103,274	-0,247	-0,203
118,006	85,156	-0,256	-0,196
119,020	-8,789	-0,344	-0,161
120,035	671,788	-0,135	-0,246
121,049	8,985	-0,269	-0,142
122,064	35,121	-0,253	-0,155
123,079	99,150	-0,340	-0,275
124,093	-10,919	-0,247	-0,114
125,108	174,898	-0,293	-0,297
126,122	800,000	-0,121	-0,287
127,137	183,500	-0,159	-0,165
128,151	15,624	-0,170	-0,093
129,166	15,063	-0,270	-0,148
130,181	52,142	-0,272	-0,181
131,195	160,435	-0,218	-0,213
132,210	141,542	-0,205	-0,190
133,224	30,389	-0,227	-0,135
134,239	-46,857	-0,281	-0,096
135,254	-41,272	-0,224	-0,080
136,268	57,795	-0,203	-0,139
137,283	64,623	-0,245	-0,172
138,297	32,244	-0,367	-0,221
139,312	82,670	-0,305	-0,232
140,327	364,987	-0,138	-0,194
141,341	148,241	-0,213	-0,201
142,356	4,274	-0,336	-0,171
143,370	34,159	-0,264	-0,161
144,385	12,035	-0,284	-0,152
145,400	-52,304	-0,265	-0,085
146,414	97,754	-0,330	-0,265
147,429	6,219	-0,261	-0,135
148,443	-7,058	-0,233	-0,110
149,458	82,020	-0,207	-0,157
150,473	185,484	-0,219	-0,227
151,487	31,357	-0,299	-0,179
152,502	800,000	-0,148	-0,428
153,516	-37,868	-0,414	-0,153
154,531	162,183	-0,181	-0,177
155,546	-71,149	-0,296	-0,077
156,560	-177,334	-0,274	-0,005
157,575	41,833	-0,218	-0,138
158,589	202,623	-0,189	-0,204
159,604	328,670	-0,193	-0,259
160,619	253,165	-0,206	-0,246
161,633	166,851	-0,269	-0,267
162,648	32,467	-0,257	-0,154
163,662	-11,890	-0,221	-0,101
164,677	800,000	-0,074	-0,191
165,692	-56,811	-0,240	-0,073
166,706	-72,953	-0,374	-0,095
167,721	381,243	-0,128	-0,184
168,735	91,075	-0,230	-0,180
169,750	41,010	-0,295	-0,186
170,764	255,605	-0,275	-0,329
171,779	225,346	-0,183	-0,207
172,794	85,259	-0,078	-0,059
173,808	162,323	-0,122	-0,120
174,823	738,560	-0,133	-0,249
175,837	105,567	-0,214	-0,177
176,852	591,093	-0,132	-0,227
177,867	194,237	-0,282	-0,298
178,881	-29,335	-0,190	-0,076
179,896	64,392	-0,193	-0,135
180,910	264,394	-0,236	-0,287
181,925	-3,813	-0,414	-0,199
182,940	52,951	-0,288	-0,192
183,954	7,972	-0,308	-0,160
184,969	66,458	-0,156	-0,110
185,983	-42,684	-0,275	-0,097
186,998	-56,522	-0,257	-0,079
188,013	-77,657	-0,287	-0,069
189,027	-20,241	-0,388	-0,166
190,042	-200,000	-0,061	-0,194
191,056	300,855	-0,161	-0,207
192,071	251,853	-0,221	-0,263
193,086	188,100	-0,092	-0,096
194,100	145,167	-0,204	-0,190
195,115	11,532	-0,197	-0,105
196,129	800,000	-0,101	-0,203
197,144	49,823	-0,161	-0,106
198,159	188,002	-0,222	-0,231
199,173	44,911	-0,125	-0,080
200,188	14,316	-0,253	-0,137
201,202	800,000	-0,127	-0,330
202,217	-158,320	-0,224	-0,009
203,232	141,197	-0,201	-0,185
204,246	-109,043	-0,153	-0,022
205,261	80,235	-0,304	-0,227
206,275	-149,868	-0,158	0,008
207,290	174,508	-0,202	-0,203
208,304	-36,634	-0,313	-0,116
209,319	-11,900	-0,136	-0,062
210,334	-49,783	-0,229	-0,075
211,348	-200,000	0,044	-0,245
212,363	14,498	-0,121	-0,066
213,377	-152,468	-0,222	-0,011
214,392	55,452	-0,254	-0,170
215,407	10,069	-0,318	-0,167
216,421	-114,283	-0,181	-0,024
217,436	14,001	-0,369	-0,199
218,450	-15,206	-0,259	-0,115
219,465	447,081	-0,074	-0,113
220,480	-50,996	-0,211	-0,068
221,494	7,655	-0,195	-0,101
222,509	32,341	-0,095	-0,057
223,523	157,813	-0,163	-0,157
224,538	147,699	-0,154	-0,144
225,553	86,611	-0,173	-0,133
226,567	420,548	-0,177	-0,265
227,582	274,864	-0,202	-0,249
228,596	-17,685	-0,132	-0,057
229,611	-19,769	-0,113	-0,048
230,626	97,367	-0,143	-0,114
231,640	233,052	-0,165	-0,188
232,655	153,842	-0,136	-0,129
233,669	-21,707	-0,184	-0,077
234,684	255,311	-0,117	-0,139
235,699	-61,819	-0,221	-0,064
236,713	-100,518	-0,196	-0,033
237,728	800,000	-0,008	0,019
238,742	14,023	-0,127	-0,068
239,757	422,352	-0,179	-0,266
240,772	60,225	-0,242	-0,165
241,786	-200,000	-0,042	-0,202
242,801	800,000	-0,071	-0,185
243,815	58,204	-0,193	-0,131
244,830	29,186	-0,267	-0,157
245,844	9,113	-0,171	-0,089
246,859	80,816	-0,272	-0,203
247,874	112,379	-0,132	-0,111
248,888	-107,532	-0,293	-0,044
249,903	-32,681	-0,133	-0,051
250,917	159,248	-0,068	-0,066
251,932	-27,684	-0,145	-0,058
252,947	24,621	-0,172	-0,098
253,961	406,682	-0,202	-0,297
254,976	331,185	-0,198	-0,265
255,990	44,082	-0,188	-0,119
257,005	6,307	-0,192	-0,098
258,020	11,588	-0,223	-0,118
259,034	-95,820	-0,220	-0,040
260,049	42,120	-0,266	-0,167
261,063	70,034	-0,226	-0,161
262,078	-89,368	-0,150	-0,030
263,093	76,585	-0,175	-0,128
264,107	239,588	-0,030	-0,034
265,122	207,862	-0,145	-0,157
266,136	800,000	-0,136	-0,281
267,151	39,144	-0,211	-0,131
268,166	-20,865	-0,114	-0,048
269,180	269,448	-0,211	-0,256
270,195	65,046	-0,198	-0,138
271,209	195,196	-0,115	-0,120
272,224	-107,404	-0,105	0,016
273,239	-16,773	-0,212	-0,092
274,253	-169,866	-0,194	-0,005
275,268	15,349	-0,130	-0,070
276,282	332,829	-0,138	-0,184
277,297	350,551	-0,124	-0,170
278,312	323,633	-0,118	-0,156
279,326	-178,496	-0,115	-0,002
280,341	211,844	-0,118	-0,129
281,355	104,258	-0,161	-0,130
282,370	-6,108	-0,135	-0,063
283,384	283,294	-0,166	-0,206
284,399	39,315	-0,209	-0,129
285,414	172,433	-0,222	-0,221
286,428	-22,202	-0,101	-0,042
287,443	-200,000	0,011	-0,179
288,457	52,203	-0,155	-0,102
289,472	23,948	-0,240	-0,136
290,487	-40,157	-0,159	-0,057
291,501	800,000	-0,112	-0,240
292,516	601,365	-0,081	-0,139
293,530	479,010	-0,097	-0,152
294,545	235,086	-0,066	-0,076
295,560	-124,924	-0,189	-0,020
296,574	-39,458	-0,227	-0,082
297,589	10,684	-0,314	-0,164
298,603	81,377	-0,053	-0,039
299,618	64,511	-0,211	-0,146
300,633	-51,162	-0,085	-0,027
301,647	-133,456	-0,222	0,019
302,662	347,320	-0,123	-0,167
303,676	-200,000	-0,035	-0,207
304,691	-23,187	-0,223	-0,092
305,706	32,614	-0,189	-0,113
306,720	16,780	-0,148	-0,080
307,735	55,721	-0,203	-0,135
308,749	296,421	-0,100	-0,126
309,764	-29,401	-0,159	-0,062
310,779	87,408	-0,117	-0,089
311,793	24,461	-0,143	-0,081
312,808	800,000	-0,104	-0,208
313,822	22,977	-0,168	-0,095
314,837	-51,363	-0,110	-0,035
315,852	-17,480	-0,212	-0,092
316,866	675,234	-0,065	-0,116
317,881	150,890	-0,099	-0,093
318,895	15,860	-0,232	-0,126
319,910	-69,002	-0,183	-0,048
320,925	83,373	-0,215	-0,161
321,939	-157,801	-0,177	-0,007
322,954	-8,300	-0,160	-0,074
323,968	8,287	-0,171	-0,088
324,983	44,423	-0,184	-0,116
325,997	67,822	-0,153	-0,107
327,012	5,711	-0,134	-0,068
328,027	-27,406	-0,173	-0,069
329,041	40,541	-0,198	-0,122
330,056	800,000	0,039	-0,098
331,070	-200,000	0,014	-0,131
332,085	-76,942	-0,216	-0,051
333,100	113,467	-0,218	-0,182
334,114	-25,197	-0,118	-0,048
335,129	299,309	-0,206	-0,262
336,143	800,000	-0,066	-0,169
337,158	285,866	-0,075	-0,093
338,173	-41,092	-0,100	-0,035
339,187	800,000	-0,090	-0,177
340,202	181,148	-0,047	-0,047
341,216	76,705	-0,116	-0,084
342,231	197,648	-0,184	-0,193
343,246	333,898	-0,095	-0,127
344,260	314,966	-0,110	-0,143
345,275	-86,260	-0,112	0,023
346,289	-121,772	-0,092	0,010
347,304	-111,764	-0,140	0,019
348,319	-153,616	-0,182	0,008
349,333	91,035	-0,115	-0,089
350,348	133,995	-0,134	-0,119
351,362	98,615	-0,190	-0,150
352,377	130,314	-0,129	-0,113
353,392	96,216	-0,079	-0,062
354,406	800,000	-0,031	-0,074
355,421	208,811	1316,774	1415,600
356,435	160,688	1477,736	1416,092
