DTS Sentinel unit serial number:	SN410029Multiplexer serial number:	ORYXHardware model number:	OX2-SRSoftware version number:	ORYX F/W v4,00 Oryx Data Collector v3.7.2.0data status	okinstallation	B3 Nyhavnadifferential loss correction	single-endedforward channel	channel 1reverse channel	N/Adate	2023/12/02time	03:12:30forward acquisition time	300,00reverse acquisition time	0,00gamma	499,1914k internal	0,3194k external	0,3194temperature offset calibration	1,0000default loss term (dB/km)	0,3820temperature slope calibration	1,0000multiplexer offset coefficient	1,0000multiplexer slope coefficient	1,0000fibre end	0,00T internal ref (°C)	16,66T ext. ref 1 (°C)	1,73T ext. ref 2 (°C)	1,72length (m)	temperature (°C)	Stokes	anti-Stokes-744,400	114,984	-0,308	-0,274
-743,385	800,000	0,116	0,354
-742,371	-19,180	-0,167	-0,075
-741,356	-200,000	0,062	0,280
-740,342	-200,000	-0,019	-0,255
-739,327	800,000	0,101	0,262
-738,312	156,894	-0,221	-0,223
-737,298	800,000	0,092	0,227
-736,283	63,060	-0,278	-0,203
-735,269	-200,000	0,066	0,252
-734,254	448,402	-0,184	-0,296
-733,239	39,329	-0,241	0,157
-732,225	800,000	-0,101	-0,225
-731,210	8,765	0,142	0,078
-730,196	453,030	0,040	0,065
-729,181	-200,000	0,026	0,087
-728,167	86,675	0,058	0,047
-727,152	-106,894	0,044	-0,007
-726,137	84,261	-0,101	-0,080
-725,123	-132,217	-0,141	-0,013
-724,108	-200,000	0,024	-0,132
-723,094	298,369	0,019	0,026
-722,079	-200,000	-0,005	-0,072
-721,064	-126,257	-0,103	-0,011
-720,050	800,000	-0,040	0,093
-719,035	800,000	-0,039	0,099
-718,021	800,000	-0,047	0,129
-717,006	-6,156	-0,133	0,066
-715,991	182,607	-0,058	-0,062
-714,977	-46,724	-0,093	-0,033
-713,962	-200,000	-0,012	-0,057
-712,948	39,908	-0,109	0,071
-711,933	124,050	-0,034	-0,031
-710,918	-166,068	-0,187	0,006
-709,904	94,962	0,077	-0,064
-708,889	463,830	-0,136	-0,222
-707,875	800,000	0,014	-0,039
-706,860	800,000	0,025	0,058
-705,845	-63,189	-0,022	0,007
-704,831	-200,000	0,024	-0,090
-703,816	-200,000	-0,016	-0,077
-702,802	74,882	0,030	-0,023
-701,787	485,315	0,070	-0,117
-700,772	-200,000	-0,002	-0,013
-699,758	-200,000	-0,007	-0,029
-698,743	800,000	0,037	0,081
-697,729	-43,324	0,064	-0,024
-696,714	87,153	-0,038	-0,031
-695,699	511,801	0,032	-0,055
-694,685	800,000	-0,032	-0,091
-693,670	-200,000	-0,008	-0,267
-692,656	-200,000	-0,001	-0,058
-691,641	88,412	0,091	-0,074
-690,627	309,947	-0,024	-0,033
-689,612	800,000	-0,053	0,119
-688,597	150,671	0,056	-0,055
-687,583	-65,558	-0,107	-0,031
-686,568	-200,000	0,028	-0,112
-685,554	232,167	0,017	-0,020
-684,539	-200,000	0,003	-0,107
-683,524	-73,162	0,132	0,035
-682,510	296,107	-0,029	0,039
-681,495	-72,630	0,085	0,023
-680,481	800,000	-0,097	-0,220
-679,466	-200,000	-0,025	-0,131
-678,451	59,424	-0,147	-0,105
-677,437	800,000	-0,022	0,045
-676,422	800,000	-0,019	0,042
-675,408	-200,000	-0,035	0,139
-674,393	32,649	0,060	-0,038
-673,378	-200,000	-0,017	-0,153
-672,364	255,717	-0,106	-0,133
-671,349	-111,643	-0,098	-0,014
-670,335	-110,217	0,025	-0,004
-669,320	84,574	-0,076	0,060
-668,305	49,849	-0,074	-0,051
-667,291	-130,794	0,121	0,012
-666,276	89,176	0,071	-0,057
-665,262	-101,437	0,131	0,023
-664,247	31,807	-0,100	-0,063
-663,232	-200,000	-0,015	-0,065
-662,218	-170,497	0,121	0,003
-661,203	-75,006	-0,147	0,038
-660,189	-115,833	-0,117	-0,016
-659,174	800,000	-0,027	-0,069
-658,159	148,242	-0,101	-0,099
-657,145	108,785	0,033	-0,028
-656,130	43,939	0,097	-0,064
-655,116	800,000	-0,016	0,046
-654,101	-200,000	0,026	0,090
-653,086	-200,000	-0,028	0,106
-652,072	106,329	-0,114	-0,098
-651,057	-28,248	-0,076	-0,032
-650,043	800,000	-0,055	-0,146
-649,028	107,162	0,121	0,104
-648,014	-200,000	0,008	0,117
-646,999	-74,941	0,152	0,039
-645,984	113,879	0,121	0,107
-644,970	220,797	0,094	0,110
-643,955	-26,576	0,105	0,044
-642,941	-200,000	-0,013	-0,089
-641,926	202,478	0,069	0,077
-640,911	-23,154	-0,129	-0,056
-639,897	85,953	0,072	0,058
-638,882	113,906	-0,085	-0,075
-637,868	-64,277	-0,144	-0,042
-636,853	8,658	-0,089	-0,049
-635,838	-139,174	-0,110	0,008
-634,824	-52,473	0,049	-0,016
-633,809	-169,922	-0,044	-0,001
-632,795	-167,694	-0,091	0,003
-631,780	485,373	-0,053	-0,089
-630,765	28,436	-0,086	0,052
-629,751	-200,000	0,029	-0,168
-628,736	-73,712	-0,019	-0,005
-627,722	-200,000	0,044	0,152
-626,707	20,239	0,054	0,032
-625,692	64,964	-0,044	-0,032
-624,678	63,143	0,058	0,042
-623,663	71,913	0,115	0,086
-622,649	-200,000	-0,014	-0,107
-621,634	711,842	-0,038	-0,073
-620,619	592,581	0,053	-0,095
-619,605	269,107	0,021	0,026
-618,590	-122,602	0,094	0,011
-617,576	-23,624	0,072	0,031
-616,561	-200,000	0,009	-0,052
-615,546	-200,000	-0,006	-0,038
-614,532	-200,000	-0,006	-0,078
-613,517	580,832	0,052	-0,092
-612,503	465,865	-0,129	-0,210
-611,488	800,000	0,075	0,157
-610,474	-47,270	0,061	0,021
-609,459	285,657	-0,003	0,004
-608,444	5,109	-0,049	0,026
-607,430	167,431	-0,041	0,042
-606,415	-101,593	-0,090	0,016
-605,401	-200,000	-0,016	-0,053
-604,386	328,404	-0,025	0,035
-603,371	-200,000	-0,007	-0,035
-602,357	12,906	0,082	0,046
-601,342	-200,000	0,032	-0,108
-600,328	241,949	-0,065	0,079
-599,313	118,022	-0,114	0,101
-598,298	177,532	-0,036	0,038
-597,284	554,968	0,046	-0,080
-596,269	6,757	0,058	0,031
-595,255	17,955	-0,091	0,053
-594,240	344,516	-0,013	-0,019
-593,225	800,000	-0,020	-0,050
-592,211	-200,000	0,031	0,000
-591,196	-28,620	-0,092	-0,038
-590,182	-155,159	0,253	0,012
-589,167	-200,000	-0,003	0,039
-588,152	-200,000	0,018	0,088
-587,138	145,228	-0,095	0,092
-586,123	72,470	0,063	-0,047
-585,109	550,491	-0,075	-0,130
-584,094	-20,052	-0,061	-0,027
-583,079	-200,000	0,033	-0,155
-582,065	344,274	-0,103	0,147
-581,050	-200,000	0,013	0,045
-580,036	800,000	0,011	-0,032
-579,021	248,915	0,091	0,112
-578,006	22,119	-0,142	-0,084
-576,992	-200,000	-0,023	0,088
-575,977	157,275	0,090	-0,091
-574,963	-34,847	0,065	-0,026
-573,948	-200,000	0,037	0,132
-572,934	-62,688	-0,124	-0,037
-571,919	-88,053	0,096	0,021
-570,904	190,628	-0,018	0,019
-569,890	207,220	0,049	0,056
-568,875	-139,164	-0,060	0,005
-567,861	324,448	-0,087	-0,120
-566,846	666,789	0,076	0,143
-565,831	-43,434	-0,127	0,046
-564,817	15,480	0,086	0,049
-563,802	-200,000	-0,039	0,137
-562,788	40,597	-0,041	0,027
-561,773	-52,579	-0,015	-0,005
-560,758	4,858	-0,123	-0,065
-559,744	-54,582	0,044	-0,014
-558,729	-200,000	0,015	0,098
-557,715	-25,236	-0,079	0,034
-556,700	-58,204	0,132	-0,041
-555,685	-151,847	-0,076	0,004
-554,671	-34,804	0,113	-0,044
-553,656	-200,000	0,034	0,113
-552,642	311,641	0,106	0,145
-551,627	88,117	-0,022	0,018
-550,612	-40,420	0,087	0,032
-549,598	596,781	0,053	-0,096
-548,583	376,883	0,013	-0,019
-547,569	73,098	0,078	-0,059
-546,554	83,397	0,141	-0,111
-545,539	800,000	0,028	0,069
-544,525	736,152	0,013	0,025
-543,510	-33,749	0,063	0,025
-542,496	-40,196	-0,150	-0,056
-541,481	-21,097	-0,041	-0,018
-540,466	60,134	-0,089	-0,064
-539,452	-52,936	0,037	-0,012
-538,437	-88,058	0,113	-0,024
-537,423	-91,449	0,140	0,029
-536,408	800,000	0,056	-0,149
-535,393	-200,000	0,026	-0,122
-534,379	127,525	-0,124	-0,114
-533,364	67,526	0,030	0,022
-532,350	-200,000	-0,022	0,075
-531,335	144,190	0,081	0,078
-530,321	-0,649	0,116	-0,059
-529,306	-200,000	-0,015	0,050
-528,291	-175,813	-0,167	-0,003
-527,277	709,912	-0,102	-0,195
-526,262	800,000	0,015	-0,044
-525,248	800,000	0,049	-0,139
-524,233	408,376	-0,088	0,135
-523,218	135,734	0,046	0,044
-522,204	3,768	-0,028	-0,015
-521,189	-95,263	-0,042	-0,008
-520,175	44,392	-0,067	-0,044
-519,160	316,663	-0,029	-0,040
-518,145	41,841	-0,065	0,043
-517,131	-172,026	-0,093	0,002
-516,116	-55,529	0,028	0,009
-515,102	97,045	0,071	0,059
-514,087	600,759	0,073	-0,132
-513,072	-26,177	0,145	0,061
-512,058	-200,000	-0,016	-0,110
-511,043	-200,000	-0,003	-0,172
-510,029	-10,357	-0,072	-0,034
-509,014	40,933	0,053	-0,035
-507,999	189,488	0,011	0,012
-506,985	-158,245	-0,088	0,004
-505,970	7,631	-0,057	0,031
-504,956	-28,551	0,100	-0,041
-503,941	443,649	-0,044	-0,069
-502,926	722,120	0,023	-0,045
-501,912	-169,981	0,113	-0,003
-500,897	-84,101	-0,016	-0,004
-499,883	-200,000	0,011	-0,087
-498,868	31,085	-0,171	-0,105
-497,853	800,000	-0,055	-0,133
-496,839	-118,458	-0,033	-0,004
-495,824	-200,000	-0,036	0,125
-494,810	130,059	0,118	0,109
-493,795	800,000	-0,015	0,034
-492,781	456,988	0,012	-0,019
-491,766	23,082	-0,044	0,026
-490,751	485,478	-0,102	-0,168
-489,737	-126,787	0,102	-0,011
-488,722	-200,000	-0,013	0,144
-487,708	453,138	0,063	0,101
-486,693	-44,955	0,102	0,036
-485,678	202,841	0,110	-0,123
-484,664	800,000	-0,026	-0,061
-483,649	690,172	-0,042	0,081
-482,635	-200,000	0,009	-0,130
-481,620	-200,000	0,023	-0,079
-480,605	-54,449	0,136	0,044
-479,591	-200,000	-0,002	-0,051
-478,576	-200,000	0,005	0,096
-477,562	800,000	-0,038	-0,080
-476,547	342,804	-0,063	-0,089
-475,532	-200,000	-0,005	-0,100
-474,518	-200,000	-0,014	-0,126
-473,503	-41,354	-0,079	0,029
-472,489	-200,000	-0,035	0,221
-471,474	-84,554	0,174	0,039
-470,459	-136,880	0,118	-0,010
-469,445	-36,584	-0,094	-0,036
-468,430	-200,000	0,002	-0,075
-467,416	-52,540	-0,053	-0,018
-466,401	521,208	0,041	0,070
-465,386	209,957	0,046	-0,052
-464,372	142,830	0,074	0,071
-463,357	-168,849	0,018	-0,000
-462,343	-116,562	-0,067	0,009
-461,328	33,878	-0,096	-0,060
-460,313	177,559	0,032	-0,033
-459,299	800,000	0,022	0,066
-458,284	43,415	0,081	-0,053
-457,270	43,585	-0,076	0,050
-456,255	646,994	0,037	-0,068
-455,241	-27,326	-0,118	-0,049
-454,226	-200,000	0,038	-0,142
-453,211	-200,000	0,045	-0,237
-452,197	-200,000	-0,011	0,050
-451,182	447,635	0,050	0,079
-450,168	-200,000	0,007	-0,059
-449,153	-200,000	-0,041	0,000
-448,138	237,273	-0,089	-0,107
-447,124	800,000	0,051	-0,103
-446,109	294,891	-0,068	-0,090
-445,095	363,857	0,010	-0,014
-444,080	449,556	0,024	0,038
-443,065	-200,000	0,010	-0,034
-442,051	5,521	0,047	-0,025
-441,036	211,881	-0,039	0,044
-440,022	800,000	0,032	-0,098
-439,007	-200,000	0,018	-0,097
-437,992	-28,716	0,105	0,043
-436,978	-60,293	0,088	0,027
-435,963	32,456	0,088	-0,054
-434,949	-200,000	-0,026	-0,203
-433,934	-175,109	-0,084	-0,002
-432,919	39,704	0,140	-0,090
-431,905	800,000	0,041	0,087
-430,890	-200,000	-0,010	0,046
-429,876	-200,000	0,042	0,157
-428,861	485,586	0,034	0,056
-427,846	-4,482	0,083	0,041
-426,832	44,495	-0,085	0,056
-425,817	-52,995	0,057	-0,019
-424,803	-200,000	-0,003	0,015
-423,788	17,886	0,124	0,071
-422,773	99,742	0,027	0,023
-421,759	130,561	-0,106	-0,098
-420,744	800,000	0,035	0,085
-419,730	-78,810	-0,051	-0,012
-418,715	792,141	-0,103	-0,206
-417,701	-84,987	-0,140	-0,031
-416,686	-200,000	-0,009	0,080
-415,671	-200,000	0,020	0,217
-414,657	-81,179	-0,122	-0,029
-413,642	703,975	0,019	-0,037
-412,628	-54,482	-0,135	0,044
-411,613	-36,847	-0,105	-0,040
-410,598	-200,000	0,004	-0,020
-409,584	565,217	0,040	0,069
-408,569	-200,000	0,006	0,053
-407,555	800,000	0,073	0,166
-406,540	800,000	-0,102	0,246
-405,525	59,607	0,093	0,066
-404,511	183,820	-0,055	-0,059
-403,496	702,607	-0,024	0,045
-402,482	1,393	0,165	0,085
-401,467	-200,000	-0,015	0,080
-400,452	102,806	0,021	0,018
-399,438	-200,000	0,003	0,057
-398,423	-200,000	0,026	0,143
-397,409	-200,000	-0,026	-0,172
-396,394	55,555	-0,119	-0,083
-395,379	45,164	0,084	0,056
-394,365	207,354	0,089	0,100
-393,350	249,856	-0,033	-0,041
-392,336	640,684	-0,018	-0,034
-391,321	800,000	0,012	-0,034
-390,306	24,358	-0,107	0,064
-389,292	-69,132	-0,148	0,041
-388,277	-200,000	-0,005	0,070
-387,263	-200,000	0,014	0,052
-386,248	800,000	-0,021	0,046
-385,233	-200,000	0,012	-0,093
-384,219	784,692	0,007	0,014
-383,204	632,737	-0,063	-0,115
-382,190	-76,595	0,025	-0,006
-381,175	5,270	-0,020	0,011
-380,160	-189,663	-0,125	-0,001
-379,146	-181,806	0,106	-0,001
-378,131	800,000	-0,051	0,103
-377,117	62,820	0,027	0,019
-376,102	268,170	-0,057	-0,072
-375,088	-200,000	-0,003	0,035
-374,073	-28,769	0,109	0,045
-373,058	-51,635	-0,080	-0,027
-372,044	414,569	-0,061	0,093
-371,029	-200,000	0,003	0,131
-370,015	-76,730	-0,080	-0,020
-369,000	-200,000	-0,000	-0,112
-367,985	-122,365	-0,161	-0,019
-366,971	117,116	0,056	-0,049
-365,956	-200,000	-0,013	-0,054
-364,942	800,000	-0,011	-0,026
-363,927	-115,232	0,219	0,029
-362,912	444,016	-0,076	0,120
-361,898	-200,000	-0,000	-0,175
-360,883	-105,823	-0,038	0,006
-359,869	-200,000	0,019	-0,064
-358,854	-200,000	0,005	-0,030
-357,839	-200,000	-0,021	-0,094
-356,825	-11,909	-0,105	0,049
-355,810	43,610	0,010	0,006
-354,796	-75,521	-0,082	-0,021
-353,781	800,000	0,024	0,065
-352,766	199,767	-0,052	-0,057
-351,752	212,941	-0,077	0,087
-350,737	185,731	0,013	-0,014
-349,723	118,084	0,044	-0,039
-348,708	74,051	0,092	-0,070
-347,693	-65,751	-0,190	-0,054
-346,679	-91,847	-0,183	0,037
-345,664	101,334	0,090	-0,075
-344,650	-46,947	-0,112	-0,039
-343,635	-200,000	-0,032	0,112
-342,620	-200,000	-0,038	-0,193
-341,606	800,000	-0,039	-0,112
-340,591	76,730	-0,160	-0,122
-339,577	81,575	-0,123	-0,095
-338,562	189,248	-0,036	-0,038
-337,548	800,000	-0,085	0,188
-336,533	748,931	0,085	0,165
-335,518	-71,001	0,221	0,059
-334,504	707,802	-0,032	0,060
-333,489	-200,000	0,014	0,202
-332,475	-37,364	-0,151	-0,057
-331,460	-200,000	0,011	-0,161
-330,445	588,810	-0,059	-0,105
-329,431	-45,976	0,037	0,013
-328,416	390,252	0,099	0,147
-327,402	287,462	-0,083	0,108
-326,387	49,929	0,060	-0,041
-325,372	660,488	-0,029	0,053
-324,358	362,531	0,091	-0,131
-323,343	-163,749	0,081	0,003
-322,329	164,144	0,027	0,028
-321,314	-112,117	-0,108	-0,015
-320,299	-200,000	0,025	0,081
-319,285	168,346	0,077	0,079
-318,270	6,730	-0,042	0,022
-317,256	158,514	-0,042	-0,042
-316,241	-200,000	-0,014	-0,051
-315,226	-16,300	-0,063	0,029
-314,212	-15,036	-0,034	-0,015
-313,197	83,533	0,129	0,100
-312,183	51,593	-0,094	0,064
-311,168	210,032	-0,055	-0,062
-310,153	-200,000	-0,002	-0,084
-309,139	800,000	0,017	0,047
-308,124	-200,000	0,029	0,130
-307,110	-96,092	0,108	-0,020
-306,095	73,963	0,085	0,064
-305,080	58,435	-0,118	-0,083
-304,066	-76,791	0,096	0,024
-303,051	-200,000	0,007	0,021
-302,037	800,000	0,050	-0,130
-301,022	-148,942	0,037	0,002
-300,008	-200,000	-0,012	-0,055
-298,993	-200,000	-0,006	-0,053
-297,978	-46,104	0,105	0,037
-296,964	284,451	0,009	0,011
-295,949	-62,848	-0,154	-0,045
-294,935	-7,417	-0,082	-0,039
-293,920	126,953	0,117	0,106
-292,905	-200,000	-0,004	-0,070
-291,891	6,201	0,131	0,069
-290,876	-148,761	0,139	-0,008
-289,862	-200,000	-0,067	-0,214
-288,847	202,094	0,033	-0,036
-287,832	-9,463	-0,051	-0,024
-286,818	327,717	0,064	-0,088
-285,803	52,361	0,059	0,040
-284,789	-110,710	0,028	-0,004
-283,774	-129,807	-0,041	0,004
-282,759	-71,805	-0,085	0,022
-281,745	258,745	0,101	-0,125
-280,730	130,696	-0,088	-0,081
-279,716	63,323	-0,129	-0,092
-278,701	215,342	-0,078	0,088
-277,686	800,000	0,035	-0,078
-276,672	-163,039	-0,093	-0,003
-275,657	-200,000	0,000	-0,056
-274,643	-78,016	-0,048	0,012
-273,628	-111,208	0,072	-0,010
-272,613	-135,213	-0,072	0,006
-271,599	342,232	0,060	0,085
-270,584	47,005	0,112	0,075
-269,570	-190,533	0,069	0,001
-268,555	800,000	0,062	0,158
-267,540	117,529	-0,053	-0,047
-266,526	800,000	-0,042	-0,133
-265,511	-21,829	0,047	0,020
-264,497	-132,134	0,062	-0,006
-263,482	39,739	0,078	-0,050
-262,467	-19,162	-0,055	-0,024
-261,453	175,804	-0,042	-0,044
-260,438	347,480	-0,045	-0,063
-259,424	2,748	-0,087	0,045
-258,409	87,893	-0,061	0,048
-257,395	-200,000	0,005	0,074
-256,380	720,492	-0,081	0,155
-255,365	-68,821	0,119	0,033
-254,351	-167,776	-0,029	-0,001
-253,336	-70,912	-0,107	0,029
-252,322	-200,000	0,016	-0,049
-251,307	-200,000	-0,022	-0,105
-250,292	13,757	0,077	-0,043
-249,278	468,488	0,045	-0,073
-248,263	-141,113	0,200	-0,014
-247,249	206,012	-0,060	0,066
-246,234	16,322	0,130	-0,073
-245,219	-200,000	-0,012	-0,038
-244,205	-109,248	-0,075	-0,011
-243,190	-22,858	0,176	0,075
-242,176	-15,548	0,079	-0,036
-241,161	329,568	-0,058	0,080
-240,146	31,599	-0,009	0,005
-239,132	63,333	-0,072	0,052
-238,117	-200,000	0,028	0,109
-237,103	-60,754	-0,095	0,028
-236,088	532,741	0,016	0,027
-235,073	-200,000	0,004	0,153
-234,059	-200,000	0,013	-0,098
-233,044	-200,000	-0,016	0,070
-232,030	-200,000	0,049	0,197
-231,015	-122,139	0,095	0,011
-230,000	128,926	0,035	0,031
-228,986	-200,000	-0,019	-0,082
-227,971	-200,000	-0,008	0,032
-226,957	89,490	0,041	-0,033
-225,942	-200,000	0,025	0,104
-224,927	-200,000	0,003	-0,014
-223,913	800,000	-0,059	-0,154
-222,898	-115,466	0,075	-0,010
-221,884	-101,711	0,086	0,015
-220,869	179,218	-0,058	0,061
-219,855	394,163	-0,096	0,143
-218,840	800,000	0,039	0,087
-217,825	-44,525	-0,087	-0,031
-216,811	-31,544	-0,034	-0,013
-215,796	237,950	-0,042	-0,050
-214,782	90,577	-0,096	-0,076
-213,767	-200,000	0,005	-0,025
-212,752	-107,419	0,120	0,019
-211,738	800,000	0,065	0,149
-210,723	345,621	-0,033	-0,046
-209,709	-21,458	-0,103	-0,045
-208,694	800,000	0,044	0,088
-207,679	-56,497	0,081	-0,026
-206,665	178,104	0,119	0,124
-205,650	-114,381	0,040	0,005
-204,636	-68,300	-0,200	0,055
-203,621	-200,000	0,019	0,099
-202,606	211,857	-0,068	-0,077
-201,592	131,968	-0,064	0,059
-200,577	-200,000	-0,001	0,040
-199,563	-123,801	0,090	-0,010
-198,548	-67,681	-0,045	0,013
-197,533	-200,000	0,002	0,054
-196,519	-16,893	0,060	0,027
-195,504	-16,908	0,107	-0,048
-194,490	-128,127	-0,098	0,010
-193,475	-133,872	0,081	0,007
-192,460	227,547	-0,052	0,060
-191,446	79,251	-0,084	-0,064
-190,431	-200,000	-0,021	0,076
-189,417	40,752	0,101	-0,065
-188,402	-62,825	0,029	0,009
-187,387	-104,991	0,081	0,013
-186,373	80,368	-0,083	-0,064
-185,358	6,194	-0,043	-0,023
-184,344	282,073	-0,056	0,072
-183,329	-86,052	0,080	0,017
-182,315	294,899	0,007	0,009
-181,300	81,769	-0,043	0,033
-180,285	-164,376	-0,092	-0,003
-179,271	800,000	0,052	-0,136
-178,256	-75,226	-0,062	0,016
-177,242	236,763	0,098	0,116
-176,227	81,173	-0,050	-0,038
-175,212	-24,860	0,056	0,023
-174,198	276,164	-0,113	0,143
-173,183	-200,000	-0,003	0,049
-172,169	-200,000	-0,011	0,035
-171,154	166,940	-0,091	-0,092
-170,139	-112,451	0,018	0,003
-169,125	-119,242	0,101	-0,012
-168,110	-200,000	-0,133	-0,000
-167,096	-200,000	-0,014	0,104
-166,081	0,268	0,067	0,034
-165,066	150,599	-0,144	-0,139
-164,052	317,226	-0,072	-0,097
-163,037	-87,155	0,127	-0,027
-162,023	-200,000	-0,015	0,055
-161,008	-41,766	-0,044	0,016
-159,993	800,000	0,009	0,027
-158,979	-161,732	0,140	-0,005
-157,964	-200,000	-0,012	0,073
-156,950	51,706	-0,073	0,049
-155,935	-101,920	0,095	0,016
-154,920	-116,300	0,095	0,012
-153,906	-156,542	0,082	-0,004
-152,891	217,919	-0,033	-0,038
-151,877	-2,226	-0,069	0,034
-150,862	67,570	-0,133	0,096
-149,847	-200,000	-0,005	0,031
-148,833	76,411	0,050	-0,038
-147,818	-112,698	0,068	0,010
-146,804	-63,969	0,096	-0,028
-145,789	-134,234	-0,031	0,003
-144,775	674,618	0,025	-0,047
-143,760	800,000	-0,097	-0,216
-142,745	456,971	-0,116	-0,183
-141,731	-40,913	-0,033	-0,012
-140,716	-200,000	0,001	-0,039
-139,702	290,718	0,061	-0,079
-138,687	-200,000	0,002	0,214
-137,672	-88,219	-0,052	0,011
-136,658	76,930	-0,085	-0,064
-135,643	233,792	-0,045	-0,053
-134,629	-200,000	0,002	-0,024
-133,614	-200,000	0,031	0,187
-132,599	800,000	-0,016	0,033
-131,585	87,310	-0,071	0,056
-130,570	-6,452	0,090	0,044
-129,556	434,698	-0,003	-0,004
-128,541	515,380	0,045	-0,075
-127,526	-180,312	0,053	-0,001
-126,512	-76,604	-0,033	-0,008
-125,497	-200,000	0,022	0,166
-124,483	25,203	-0,029	-0,017
-123,468	-107,914	0,077	-0,012
-122,453	-126,829	-0,189	-0,020
-121,439	-200,000	0,000	-0,011
-120,424	212,117	0,047	0,053
-119,410	800,000	0,065	0,193
-118,395	-108,190	0,117	0,018
-117,380	-169,250	0,072	-0,002
-116,366	28,475	-0,091	0,055
-115,351	91,911	-0,147	-0,118
-114,337	800,000	-0,021	-0,052
-113,322	70,882	-0,120	-0,088
-112,307	-200,000	0,002	0,051
-111,293	-42,174	0,105	0,038
-110,278	800,000	0,061	0,134
-109,264	-200,000	-0,000	0,081
-108,249	20,309	-0,060	0,035
-107,234	-200,000	-0,004	0,028
-106,220	24,491	-0,109	-0,064
-105,205	800,000	0,026	0,067
-104,191	800,000	0,015	0,034
-103,176	-167,037	0,117	0,003
-102,162	-200,000	-0,008	-0,084
-101,147	800,000	-0,064	0,134
-100,132	-154,633	0,060	0,003
-99,118	452,086	-0,049	-0,077
-98,103	-67,259	-0,042	-0,012
-97,089	800,000	0,027	-0,068
-96,074	328,063	0,041	-0,056
-95,059	800,000	0,061	0,142
-94,045	-51,042	-0,139	0,046
-93,030	800,000	-0,042	0,125
-92,016	298,585	0,024	0,031
-91,001	800,000	0,027	0,080
-89,986	-121,352	0,099	-0,012
-88,972	-200,000	-0,057	0,209
-87,957	800,000	0,029	0,076
-86,943	290,529	0,043	0,055
-85,928	110,802	-0,048	-0,041
-84,913	-132,730	0,071	0,006
-83,899	27,343	-0,149	-0,089
-82,884	324,815	-0,065	0,088
-81,870	626,054	0,048	0,086
-80,855	-154,983	-0,092	-0,004
-79,840	-128,564	0,020	0,002
-78,826	-200,000	-0,028	0,097
-77,811	-159,383	-0,127	0,005
-76,797	240,456	-0,047	0,056
-75,782	-200,000	0,001	0,026
-74,767	800,000	-0,015	0,033
-73,753	-200,000	0,029	0,098
-72,738	475,042	0,076	0,123
-71,724	800,000	-0,027	-0,069
-70,709	9,876	0,063	-0,034
-69,694	-200,000	-0,045	0,175
-68,680	457,226	0,053	0,084
-67,665	88,634	-0,025	-0,020
-66,651	800,000	0,024	0,064
-65,636	129,038	-0,074	-0,067
-64,622	-14,139	-0,075	0,034
-63,607	132,442	-0,091	-0,084
-62,592	58,573	-0,124	0,086
-61,578	96,065	-0,066	-0,053
-60,563	-120,159	0,143	0,017
-59,549	38,920	-0,066	0,042
-58,534	-79,829	-1,321	-0,313
-57,519	303,131	-1,611	-2,123
-56,505	-200,000	-0,632	-4,377
-55,490	103,797	0,895	0,746
-54,476	800,000	4,575	11,339
-53,461	-200,000	17,197	267,908
-52,446	800,000	714,376	2178,574
-51,432	552,289	1628,911	2786,947
-50,417	81,455	1655,088	1268,543
-49,403	24,499	1529,479	895,408
-48,388	18,502	1452,729	821,614
-47,373	18,570	1442,297	816,012
-46,359	18,333	1433,245	809,727
-45,344	16,787	1428,521	799,691
-44,330	16,755	1426,536	798,395
-43,315	16,759	1424,818	797,423
-42,300	16,753	1423,220	796,470
-41,286	16,773	1422,203	795,963
-40,271	16,788	1420,635	795,125
-39,257	16,740	1419,492	794,225
-38,242	16,763	1418,271	793,620
-37,227	16,780	1417,107	793,018
-36,213	16,763	1415,824	792,187
-35,198	16,806	1414,512	791,623
-34,184	16,822	1413,542	791,123
-33,169	16,708	1412,442	789,943
-32,154	16,759	1411,313	789,521
-31,140	16,762	1410,009	788,772
-30,125	16,791	1408,952	788,284
-29,111	16,740	1408,078	787,525
-28,096	16,734	1406,760	786,730
-27,082	16,676	1405,748	785,863
-26,067	16,705	1404,289	785,151
-25,052	16,691	1403,346	784,527
-24,038	16,722	1402,240	784,022
-23,023	16,688	1401,235	783,271
-22,009	16,601	1400,415	782,378
-20,994	16,597	1399,457	781,794
-19,979	16,632	1398,526	781,403
-18,965	16,603	1397,643	780,744
-17,950	16,605	1396,519	780,096
-16,936	16,648	1395,516	779,705
-15,921	16,585	1394,534	778,830
-14,906	16,589	1393,535	778,261
-13,892	16,633	1392,750	777,994
-12,877	16,651	1391,673	777,444
-11,863	16,607	1390,848	776,752
-10,848	16,572	1389,948	776,056
-9,833	16,577	1388,931	775,480
-8,819	16,584	1388,097	775,017
-7,804	16,491	1387,147	774,025
-6,790	16,486	1386,143	773,412
-5,775	16,455	1385,178	772,704
-4,760	16,442	1384,543	772,257
-3,746	16,459	1383,450	771,693
-2,731	16,457	1382,719	771,245
-1,717	16,444	1381,638	770,555
-0,702	16,461	1379,815	769,586
0,313	20,289	1301,629	743,610
1,327	36,670	707,978	442,487
2,342	56,368	125,807	86,572
3,356	5,626	16,575	8,657
4,371	5,840	3,147	1,646
5,386	-17,764	0,507	0,225
6,400	501,503	-0,082	0,135
7,415	-7,409	-0,308	-0,147
8,429	380,819	-0,200	-0,292
9,444	-29,283	-0,352	-0,142
10,459	2,105	-0,221	-0,113
11,473	113,553	-0,212	-0,183
12,488	-24,715	-0,272	-0,114
13,502	20,718	-0,212	-0,121
14,517	319,648	-0,293	-0,395
15,531	69,095	-0,421	-0,306
16,546	64,492	-0,445	-0,317
17,561	285,016	-0,214	-0,274
18,575	-103,467	-0,202	0,033
19,590	329,101	-0,241	-0,329
20,604	-59,429	-0,295	-0,089
21,619	62,186	-0,484	-0,342
22,634	272,892	-0,358	-0,448
23,648	95,247	-0,425	-0,343
24,663	93,238	-0,422	-0,338
25,677	18,613	-0,359	-0,203
26,692	290,419	-0,272	-0,351
27,707	-21,981	-0,436	-0,187
28,721	-32,984	-0,423	-0,165
29,736	63,956	-0,449	-0,319
30,750	101,792	-0,355	-0,293
31,765	363,783	-0,266	-0,379
32,780	78,778	-0,236	-0,178
33,794	125,118	-0,341	-0,304
34,809	31,269	-0,404	-0,244
35,823	105,136	-0,373	-0,311
36,838	110,027	-0,330	-0,280
37,853	39,431	-0,433	-0,273
38,867	106,536	-0,337	-0,283
39,882	72,899	-0,341	-0,251
40,896	208,058	-0,357	-0,395
41,911	19,450	-0,316	-0,179
42,926	125,336	-0,455	-0,406
43,940	249,718	-0,343	-0,412
44,955	531,075	-0,259	-0,434
45,969	29,995	-0,451	-0,271
46,984	256,375	-0,232	-0,282
47,999	28,085	-0,376	-0,223
49,013	84,152	-0,250	-0,193
50,028	-13,310	-0,344	-0,157
51,042	70,800	-0,350	-0,256
52,057	88,911	-0,317	-0,249
53,071	202,419	-0,314	-0,343
54,086	282,023	-0,245	-0,310
55,101	-19,884	-0,304	-0,132
56,115	17,710	-0,354	-0,198
57,130	83,528	-0,324	-0,249
58,144	194,079	-0,330	-0,353
59,159	54,438	-0,419	-0,284
60,174	-1,734	-0,465	-0,230
61,188	47,377	-0,464	-0,305
62,203	85,991	-0,279	-0,216
63,217	24,350	-0,254	-0,148
64,232	-66,557	-0,341	-0,095
65,247	195,046	-0,367	-0,393
66,261	19,738	-0,421	-0,238
67,276	-39,644	-0,382	-0,140
68,290	87,276	-0,294	-0,229
69,305	1,818	-0,364	-0,184
70,320	31,706	-0,441	-0,267
71,334	-39,056	-0,485	-0,179
72,349	53,723	-0,337	-0,228
73,363	-92,224	-0,194	-0,038
74,378	17,754	-0,421	-0,235
75,393	96,432	-0,251	-0,202
76,407	24,815	-0,351	-0,205
77,422	270,610	-0,166	-0,206
78,436	18,570	-0,252	-0,141
79,451	105,274	-0,343	-0,285
80,466	-93,601	-0,407	-0,079
81,480	-45,250	-0,295	-0,102
82,495	119,800	-0,338	-0,295
83,509	-51,915	-0,319	-0,104
84,524	15,018	-0,247	-0,136
85,539	7,238	-0,248	-0,130
86,553	68,358	-0,202	-0,145
87,568	-93,949	-0,367	-0,070
88,582	169,158	-0,237	-0,239
89,597	270,397	-0,191	-0,237
90,611	177,259	-0,251	-0,257
91,626	167,725	-0,226	-0,226
92,641	-11,521	-0,351	-0,162
93,655	-200,000	-0,262	0,000
94,670	34,550	-0,316	-0,194
95,684	49,198	-0,257	-0,169
96,699	18,819	-0,404	-0,227
97,714	11,966	-0,220	-0,119
98,728	250,837	-0,197	-0,236
99,743	46,201	-0,232	-0,151
100,757	59,632	-0,271	-0,188
101,772	-15,824	-0,368	-0,164
102,787	27,497	-0,330	-0,195
103,801	224,517	-0,311	-0,354
104,816	9,180	-0,300	-0,159
105,830	165,051	-0,184	-0,182
106,845	-101,042	-0,276	0,047
107,860	-69,745	-0,215	-0,057
108,874	2,451	-0,289	-0,147
109,889	83,812	-0,321	-0,246
110,903	117,700	-0,237	-0,205
111,918	63,166	-0,246	-0,173
112,933	113,986	-0,198	-0,169
113,947	109,995	-0,245	-0,207
114,962	453,799	-0,115	-0,179
115,976	100,103	-0,202	-0,164
116,991	-24,182	-0,275	-0,115
118,006	156,103	-0,208	-0,202
119,020	16,349	-0,259	-0,143
120,035	271,767	-0,116	-0,144
121,049	-131,605	-0,345	-0,031
122,064	-186,687	-0,267	0,003
123,079	-156,106	-0,202	-0,009
124,093	190,705	-0,192	-0,203
125,108	-0,367	-0,301	-0,149
126,122	174,183	-0,217	-0,220
127,137	23,899	-0,273	-0,157
128,151	162,182	-0,220	-0,217
129,166	-3,947	-0,220	-0,106
130,181	-1,359	-0,243	-0,120
131,195	302,870	-0,244	-0,317
132,210	146,669	-0,288	-0,271
133,224	655,515	-0,174	-0,314
134,239	29,585	-0,329	-0,195
135,254	-39,072	-0,219	-0,080
136,268	-24,801	-0,207	-0,086
137,283	50,183	-0,288	-0,191
138,297	17,584	-0,224	-0,124
139,312	-71,246	-0,329	-0,086
140,327	47,150	-0,262	-0,170
141,341	47,709	-0,304	-0,198
142,356	-35,805	-0,262	-0,099
143,370	142,942	-0,237	-0,221
144,385	101,840	-0,205	-0,167
145,400	299,218	-0,165	-0,213
146,414	168,819	-0,311	-0,311
147,429	206,852	-0,200	-0,218
148,443	-40,811	-0,245	-0,088
149,458	685,066	-0,168	-0,309
150,473	-3,989	-0,250	-0,121
151,487	222,101	-0,175	-0,197
152,502	183,456	-0,206	-0,213
153,516	99,766	-0,281	-0,227
154,531	167,838	-0,191	-0,190
155,546	-78,635	-0,159	-0,038
156,560	-22,076	-0,182	-0,077
157,575	173,296	-0,230	-0,232
158,589	-76,702	-0,319	-0,078
159,604	7,750	-0,291	-0,152
160,619	132,065	-0,250	-0,225
161,633	364,713	-0,137	-0,194
162,648	318,288	-0,078	-0,103
163,662	122,580	-0,209	-0,183
164,677	-9,453	-0,173	-0,080
165,692	222,588	-0,223	-0,251
166,706	-27,647	-0,220	-0,089
167,721	198,570	-0,160	-0,171
168,735	150,851	-0,226	-0,215
169,750	800,000	-0,094	-0,256
170,764	800,000	-0,203	-0,399
171,779	-4,072	-0,202	-0,098
172,794	-20,470	-0,251	-0,107
173,808	20,642	-0,255	-0,144
174,823	550,618	-0,149	-0,250
175,837	56,852	-0,209	-0,142
176,852	-87,495	-0,323	-0,068
177,867	267,206	-0,122	-0,149
178,881	78,015	-0,268	-0,200
179,896	-1,128	-0,187	-0,092
180,910	800,000	-0,133	-0,271
181,925	98,031	-0,226	-0,182
182,940	208,118	-0,271	-0,296
183,954	-71,676	-0,250	-0,065
184,969	-81,007	-0,185	-0,042
185,983	302,185	-0,093	-0,121
186,998	51,845	-0,075	-0,050
188,013	14,164	-0,258	-0,140
189,027	69,105	-0,276	-0,197
190,042	-132,377	-0,348	-0,031
191,056	800,000	-0,076	-0,180
192,071	249,031	-0,145	-0,172
193,086	189,728	-0,211	-0,221
194,100	-93,661	-0,122	-0,023
195,115	356,128	-0,111	-0,154
196,129	40,380	-0,181	-0,113
197,144	30,507	-0,255	-0,152
198,159	68,123	-0,187	-0,133
199,173	115,185	-0,199	-0,169
200,188	140,887	-0,141	-0,130
201,202	54,094	-0,222	-0,149
202,217	-102,196	-0,183	0,030
203,232	-18,469	-0,126	-0,055
204,246	169,598	-0,221	-0,220
205,261	312,576	-0,170	-0,222
206,275	-40,404	-0,248	-0,089
207,290	174,451	-0,257	-0,259
208,304	160,333	-0,194	-0,189
209,319	-67,308	-0,112	-0,030
210,334	117,054	-0,192	-0,164
211,348	-12,896	-0,240	-0,108
212,363	-131,837	-0,225	-0,020
213,377	79,429	-0,228	-0,170
214,392	-130,856	-0,163	-0,015
215,407	82,443	-0,147	-0,111
216,421	-125,293	-0,336	-0,035
217,436	59,090	-0,193	-0,132
218,450	37,602	-0,228	-0,140
219,465	260,818	-0,192	-0,231
220,480	266,581	-0,169	-0,206
221,494	-31,146	-0,152	-0,059
222,509	-85,864	-0,200	-0,043
223,523	38,471	-0,220	-0,136
224,538	445,975	-0,209	-0,321
225,553	494,397	-0,156	-0,250
226,567	209,840	-0,190	-0,208
227,582	290,483	-0,141	-0,179
228,596	-48,570	-0,235	-0,078
229,611	618,991	-0,141	-0,248
230,626	-52,574	-0,314	-0,100
231,640	-200,000	-0,015	-0,126
232,655	-200,000	0,020	-0,143
233,669	230,567	-0,141	-0,160
234,684	51,452	-0,193	-0,127
235,699	134,070	-0,142	0,128
236,713	20,505	-0,131	-0,074
237,728	132,662	-0,269	-0,241
238,742	85,019	-0,136	-0,104
239,757	103,542	-0,204	-0,166
240,772	800,000	-0,124	-0,304
241,786	185,369	-0,194	-0,200
242,801	677,313	-0,088	-0,159
243,815	-50,575	-0,206	-0,067
244,830	285,872	-0,113	-0,142
245,844	187,577	-0,225	-0,233
246,859	224,148	-0,160	-0,180
247,874	136,550	-0,099	-0,090
248,888	85,344	-0,336	-0,255
249,903	52,398	-0,111	0,073
250,917	-120,969	-0,269	-0,031
251,932	-23,209	-0,158	-0,066
252,947	136,644	-0,115	-0,104
253,961	145,071	-0,260	-0,241
254,976	-24,619	-0,327	-0,134
255,990	80,438	-0,152	-0,114
257,005	92,100	-0,097	-0,076
258,020	84,115	-0,076	-0,058
259,034	34,902	-0,187	-0,113
260,049	-29,638	-0,251	-0,099
261,063	102,814	-0,226	-0,183
262,078	134,534	-0,203	-0,183
263,093	3,610	-0,252	-0,127
264,107	153,930	-0,219	-0,208
265,122	705,515	-0,084	-0,154
266,136	528,228	-0,053	-0,087
267,151	-27,041	-0,202	-0,081
268,166	-126,356	-0,283	-0,029
269,180	156,269	-0,252	-0,241
270,195	649,134	-0,151	-0,268
271,209	20,458	-0,159	-0,089
272,224	56,454	-0,151	-0,102
273,239	-200,000	-0,020	-0,133
274,253	-7,197	-0,101	-0,047
275,268	-4,289	-0,200	-0,095
276,282	-141,347	-0,099	-0,007
277,297	87,939	-0,212	-0,162
278,312	144,960	-0,176	-0,163
279,326	90,181	-0,194	-0,150
280,341	539,686	-0,049	-0,081
281,355	123,556	-0,117	-0,102
282,370	314,672	-0,085	-0,111
283,384	212,845	-0,136	-0,149
284,399	72,570	-0,220	-0,158
285,414	73,458	-0,176	-0,127
286,428	-119,331	-0,176	0,021
287,443	124,696	-0,163	-0,142
288,457	465,237	-0,070	-0,109
289,472	185,715	-0,143	-0,147
290,487	262,658	-0,185	-0,223
291,501	174,679	-0,091	-0,091
292,516	800,000	-0,045	-0,115
293,530	97,772	-0,087	-0,069
294,545	205,431	-0,130	-0,140
295,560	176,693	-0,124	-0,125
296,574	-158,046	-0,222	-0,009
297,589	-87,888	-0,264	-0,054
298,603	-78,293	-0,283	-0,067
299,618	581,611	-0,152	-0,258
300,633	-200,000	-0,055	-0,240
301,647	-31,096	-0,148	-0,057
302,662	93,708	-0,087	-0,068
303,676	-74,583	-0,100	-0,025
304,691	395,360	-0,068	-0,099
305,706	800,000	-0,077	-0,152
306,720	122,488	-0,168	-0,145
307,735	-200,000	-0,041	-0,163
308,749	-200,000	-0,029	-0,119
309,764	83,282	-0,109	-0,082
310,779	9,949	-0,145	-0,076
311,793	-21,533	-0,206	-0,086
312,808	501,463	-0,099	-0,158
313,822	741,213	-0,152	-0,283
314,837	28,000	-0,142	-0,082
315,852	-146,895	-0,145	-0,008
316,866	2,011	-0,113	-0,056
317,881	131,822	-0,107	-0,095
318,895	-105,555	-0,103	-0,016
319,910	656,355	-0,072	-0,128
320,925	5,752	-0,125	-0,063
321,939	-10,871	-0,129	-0,059
322,954	-200,000	-0,056	-0,197
323,968	11,338	-0,082	-0,043
324,983	56,378	-0,125	-0,084
325,997	-200,000	-0,064	0,000
327,012	37,401	-0,156	-0,095
328,027	-75,223	-0,226	-0,055
329,041	-142,020	-0,117	-0,008
330,056	228,597	-0,172	0,193
331,070	212,890	-0,211	-0,230
332,085	-40,049	-0,182	-0,065
333,100	-30,825	-0,198	-0,077
334,114	71,518	-0,108	-0,077
335,129	-63,864	-0,240	-0,067
336,143	110,698	-0,104	-0,087
337,158	258,582	-0,123	-0,146
338,173	87,680	-0,142	-0,108
339,187	-67,856	-0,238	-0,064
340,202	355,821	-0,064	-0,088
341,216	60,557	-0,185	-0,126
342,231	-82,743	-0,123	-0,027
343,246	511,827	-0,073	-0,118
344,260	-134,740	-0,263	0,022
345,275	-15,856	-0,213	-0,093
346,289	-200,000	-0,062	-0,246
347,304	-176,714	-0,232	0,004
348,319	345,669	-0,038	-0,051
349,333	-76,784	-0,167	-0,040
350,348	-149,042	-0,138	0,008
351,362	48,975	-0,114	-0,074
352,377	85,230	-0,082	0,062
353,392	-82,948	-0,023	0,005
354,406	-44,824	-0,098	0,033
355,421	210,595	1314,734	1421,606
356,435	162,131	1475,500	1422,143
