DTS Sentinel unit serial number:	SN410029Multiplexer serial number:	ORYXHardware model number:	OX2-SRSoftware version number:	ORYX F/W v4,00 Oryx Data Collector v3.7.2.0data status	okinstallation	B3 Nyhavnadifferential loss correction	single-endedforward channel	channel 1reverse channel	N/Adate	2023/11/29time	22:37:30forward acquisition time	300,00reverse acquisition time	0,00gamma	499,1914k internal	0,3210k external	0,3210temperature offset calibration	1,0000default loss term (dB/km)	0,3820temperature slope calibration	1,0000multiplexer offset coefficient	1,0000multiplexer slope coefficient	1,0000fibre end	0,00T internal ref (°C)	10,81T ext. ref 1 (°C)	-4,13T ext. ref 2 (°C)	-4,22length (m)	temperature (°C)	Stokes	anti-Stokes-744,400	232,219	-0,203	-0,243
-743,385	-200,000	-0,049	0,158
-742,371	229,786	-0,085	-0,101
-741,356	-200,000	-0,084	0,327
-740,342	261,218	-0,125	-0,157
-739,327	178,985	-0,180	0,191
-738,312	67,129	-0,298	-0,220
-737,298	800,000	-0,058	0,133
-736,283	544,772	-0,177	-0,308
-735,269	-200,000	0,078	0,300
-734,254	37,965	-0,245	-0,158
-733,239	-32,559	-0,198	0,080
-732,225	-200,000	-0,033	-0,262
-731,210	29,774	0,226	0,139
-730,196	30,502	-0,075	0,046
-729,181	552,572	-0,037	-0,065
-728,167	403,596	0,022	0,033
-727,152	44,164	0,044	-0,029
-726,137	120,516	-0,057	-0,051
-725,123	-200,000	0,000	-0,011
-724,108	-33,770	-0,190	-0,075
-723,094	5,226	0,050	-0,026
-722,079	-159,077	-0,116	0,005
-721,064	-200,000	-0,008	0,055
-720,050	135,652	-0,082	0,077
-719,035	-200,000	-0,022	-0,095
-718,021	102,364	-0,108	0,092
-717,006	106,655	-0,137	-0,117
-715,991	800,000	-0,035	-0,096
-714,977	-200,000	0,013	-0,062
-713,962	507,298	0,043	-0,072
-712,948	-200,000	0,002	-0,041
-711,933	800,000	-0,052	0,108
-710,918	800,000	0,051	-0,105
-709,904	-10,640	-0,080	-0,038
-708,889	-136,813	-0,101	0,008
-707,875	322,923	-0,117	-0,163
-706,860	800,000	-0,035	-0,085
-705,845	-200,000	-0,036	0,172
-704,831	800,000	0,084	0,176
-703,816	162,611	-0,027	0,027
-702,802	-200,000	-0,016	-0,088
-701,787	343,537	-0,067	-0,095
-700,772	800,000	-0,040	-0,117
-699,758	726,391	-0,063	-0,123
-698,743	208,839	-0,045	0,051
-697,729	-45,498	0,107	-0,038
-696,714	590,960	-0,049	-0,088
-695,699	-91,096	0,097	0,020
-694,685	-126,382	0,029	-0,003
-693,670	-15,614	-0,063	-0,029
-692,656	800,000	-0,058	-0,146
-691,641	438,682	0,045	0,071
-690,627	-200,000	-0,003	0,106
-689,612	-142,399	0,054	-0,004
-688,597	-200,000	-0,039	0,153
-687,583	-29,210	-0,070	0,029
-686,568	-114,778	-0,078	0,011
-685,554	800,000	0,019	0,038
-684,539	-200,000	0,018	-0,113
-683,524	-200,000	0,009	0,069
-682,510	-192,882	0,063	0,000
-681,495	-200,000	-0,003	-0,057
-680,481	-200,000	-0,025	-0,109
-679,466	-200,000	0,005	-0,145
-678,451	800,000	0,037	-0,100
-677,437	-119,760	-0,146	-0,018
-676,422	-117,534	0,047	0,006
-675,408	460,169	-0,036	0,058
-674,393	436,832	0,035	0,056
-673,378	211,293	-0,056	0,064
-672,364	800,000	-0,049	0,098
-671,349	116,303	-0,140	-0,124
-670,335	-119,642	-0,186	-0,023
-669,320	249,488	0,085	0,104
-668,305	41,739	0,057	-0,037
-667,291	-115,233	-0,057	0,008
-666,276	596,925	-0,073	-0,131
-665,262	414,793	0,082	-0,127
-664,247	-83,938	-0,079	-0,018
-663,232	102,647	0,038	-0,032
-662,218	185,015	0,021	-0,023
-661,203	-143,871	0,109	-0,007
-660,189	-21,540	-0,049	0,022
-659,174	-34,913	-0,045	0,018
-658,159	800,000	-0,055	-0,134
-657,145	271,547	-0,116	-0,148
-656,130	704,186	0,019	-0,037
-655,116	-200,000	0,039	0,145
-654,101	-128,996	0,024	0,002
-653,086	65,797	-0,101	0,074
-652,072	-148,443	0,051	-0,003
-651,057	213,599	-0,033	-0,038
-650,043	-200,000	0,011	-0,054
-649,028	-3,416	0,109	-0,055
-648,014	58,209	-0,025	0,017
-646,999	36,548	0,066	0,042
-645,984	-200,000	0,053	-0,210
-644,970	322,419	-0,066	-0,091
-643,955	744,296	0,042	-0,082
-642,941	193,527	0,070	-0,076
-641,926	-12,722	-0,069	-0,032
-640,911	53,320	0,067	-0,046
-639,897	800,000	0,064	0,180
-638,882	800,000	0,028	-0,059
-637,868	93,784	-0,070	0,057
-636,853	-200,000	-0,028	0,092
-635,838	467,760	-0,042	0,068
-634,824	127,781	-0,057	-0,052
-633,809	-19,348	-0,062	0,028
-632,795	-200,000	0,037	0,130
-631,780	-58,541	-0,101	-0,031
-630,765	-118,410	-0,053	0,007
-629,751	298,376	-0,124	-0,165
-628,736	87,495	-0,162	-0,129
-627,722	20,309	-0,043	-0,025
-626,707	154,667	0,046	-0,045
-625,692	47,758	0,043	-0,029
-624,678	233,362	0,035	-0,042
-623,663	-49,461	-0,109	0,037
-622,649	-103,311	-0,138	-0,023
-621,634	54,689	0,086	-0,060
-620,619	86,931	-0,038	-0,031
-619,605	337,991	0,024	0,033
-618,590	-94,336	0,038	0,007
-617,576	229,327	-0,010	0,012
-616,561	-200,000	-0,025	-0,087
-615,546	-70,428	0,108	-0,029
-614,532	-101,159	-0,092	-0,016
-613,517	408,724	-0,072	-0,111
-612,503	-124,527	-0,059	-0,007
-611,488	800,000	0,028	0,059
-610,474	-200,000	-0,007	0,026
-609,459	-200,000	-0,030	-0,116
-608,444	152,299	-0,009	-0,009
-607,430	-53,464	-0,131	-0,043
-606,415	7,853	-0,213	-0,115
-605,401	405,673	-0,075	-0,115
-604,386	76,624	0,065	-0,049
-603,371	268,125	0,133	0,169
-602,357	72,872	-0,121	-0,091
-601,342	-143,015	-0,110	-0,008
-600,328	-41,664	-0,084	-0,031
-599,313	-200,000	0,034	-0,136
-598,298	-77,033	-0,038	0,009
-597,284	-200,000	0,015	-0,080
-596,269	-164,789	0,129	-0,004
-595,255	-90,592	-0,085	-0,018
-594,240	-73,193	0,126	-0,033
-593,225	160,207	-0,180	-0,181
-592,211	-147,720	-0,189	0,011
-591,196	-200,000	-0,017	-0,072
-590,182	800,000	-0,008	-0,023
-589,167	-23,619	0,030	-0,013
-588,152	-36,778	0,089	-0,034
-587,138	229,726	-0,054	0,064
-586,123	-200,000	-0,005	-0,036
-585,109	46,257	0,071	-0,047
-584,094	-46,961	0,082	-0,029
-583,079	-200,000	0,030	0,151
-582,065	800,000	-0,068	0,164
-581,050	800,000	0,024	-0,056
-580,036	-200,000	-0,020	0,139
-579,021	339,538	0,076	0,108
-578,006	800,000	0,066	-0,146
-576,992	-66,299	-0,054	-0,015
-575,977	-200,000	0,007	-0,047
-574,963	-73,252	0,066	0,017
-573,948	-200,000	0,018	0,085
-572,934	-200,000	-0,005	-0,095
-571,919	60,096	-0,195	-0,139
-570,904	159,277	-0,085	-0,085
-569,890	442,319	-0,066	-0,105
-568,875	-200,000	0,044	0,150
-567,861	285,667	-0,048	0,063
-566,846	191,030	0,110	0,120
-565,831	217,141	0,073	0,083
-564,817	279,798	-0,019	-0,025
-563,802	800,000	-0,025	-0,052
-562,788	-200,000	0,000	-0,031
-561,773	-200,000	-0,034	-0,127
-560,758	-28,785	0,063	0,026
-559,744	331,091	0,013	-0,018
-558,729	-31,818	0,121	-0,049
-557,715	359,594	-0,059	0,085
-556,700	630,287	-0,042	0,076
-555,685	-200,000	0,025	0,083
-554,671	55,192	-0,115	0,080
-553,656	-123,799	0,167	0,019
-552,642	156,041	-0,057	0,056
-551,627	46,252	-0,075	0,050
-550,612	28,165	-0,038	-0,023
-549,598	-200,000	-0,027	0,118
-548,583	113,096	0,013	0,011
-547,569	-105,868	0,085	-0,014
-546,554	48,170	-0,078	0,052
-545,539	800,000	-0,041	0,098
-544,525	-200,000	-0,022	0,135
-543,510	-43,533	0,145	0,052
-542,496	13,625	-0,098	-0,054
-541,481	209,583	0,017	-0,019
-540,466	557,736	0,024	0,042
-539,452	34,897	0,122	0,076
-538,437	737,314	-0,041	0,080
-537,423	-200,000	0,029	0,222
-536,408	800,000	0,012	-0,024
-535,393	308,581	0,031	-0,042
-534,379	122,659	-0,042	-0,038
-533,364	-200,000	0,006	0,059
-532,350	-200,000	0,011	0,090
-531,335	-42,440	0,079	-0,029
-530,321	-46,337	-0,081	0,028
-529,306	800,000	0,023	-0,050
-528,291	364,132	0,059	-0,086
-527,277	-13,274	-0,137	-0,064
-526,262	-173,522	0,104	-0,002
-525,248	35,075	0,087	0,055
-524,233	-200,000	-0,017	-0,061
-523,218	-200,000	0,002	0,025
-522,204	-200,000	0,021	-0,137
-521,189	32,711	0,068	0,042
-520,175	-200,000	-0,014	-0,092
-519,160	-63,408	0,072	-0,021
-518,145	140,491	0,090	0,086
-517,131	261,418	0,103	0,128
-516,116	-200,000	-0,011	0,063
-515,102	-78,011	-0,047	0,012
-514,087	-33,011	-0,036	0,014
-513,072	-97,471	-0,115	0,021
-512,058	-45,842	-0,051	0,018
-511,043	-29,594	0,080	-0,033
-510,029	88,132	-0,031	0,024
-509,014	106,497	-0,020	0,017
-507,999	800,000	0,020	-0,042
-506,985	-96,868	-0,178	-0,033
-505,970	800,000	0,020	0,060
-504,956	0,591	0,012	-0,006
-503,941	-86,080	-0,067	0,015
-502,926	-32,298	0,025	-0,010
-501,912	-24,452	0,050	0,021
-500,897	-15,313	-0,077	-0,035
-499,883	362,382	-0,085	0,123
-498,868	-200,000	-0,003	-0,030
-497,853	160,582	-0,037	-0,037
-496,839	-87,820	0,077	0,017
-495,824	124,542	-0,029	-0,026
-494,810	800,000	-0,016	-0,047
-493,795	554,105	0,059	-0,103
-492,781	-200,000	-0,014	-0,127
-491,766	800,000	-0,056	-0,166
-490,751	-200,000	-0,045	-0,236
-489,737	91,430	-0,164	-0,132
-488,722	154,729	0,058	0,057
-487,708	800,000	-0,029	0,062
-486,693	528,696	0,017	0,029
-485,678	-200,000	-0,003	0,020
-484,664	-200,000	0,017	-0,063
-483,649	-200,000	0,006	-0,074
-482,635	547,218	-0,040	-0,070
-481,620	225,403	-0,113	0,131
-480,605	110,860	-0,019	0,016
-479,591	123,504	-0,064	0,058
-478,576	800,000	-0,053	0,152
-477,562	-3,757	-0,081	0,040
-476,547	-79,029	-0,080	0,019
-475,532	104,114	0,093	0,078
-474,518	-99,694	0,157	0,028
-473,503	11,684	-0,072	0,039
-472,489	-200,000	0,014	0,172
-471,474	800,000	0,038	0,081
-470,459	145,383	-0,087	-0,083
-469,445	412,641	-0,065	-0,099
-468,430	108,677	0,028	-0,024
-467,416	-135,882	-0,159	0,013
-466,401	-110,036	0,129	-0,019
-465,386	501,341	0,036	0,060
-464,372	800,000	0,016	-0,044
-463,357	76,659	-0,102	-0,078
-462,343	-67,178	-0,106	0,030
-461,328	-200,000	-0,015	-0,075
-460,313	236,871	0,018	0,021
-459,299	0,500	0,047	0,024
-458,284	-62,445	0,085	0,025
-457,270	-30,273	0,109	0,044
-456,255	772,876	0,031	-0,061
-455,241	30,120	-0,039	0,024
-454,226	422,345	0,047	-0,072
-453,211	10,712	-0,097	-0,053
-452,197	-200,000	-0,020	0,114
-451,182	-64,936	0,106	0,031
-450,168	-200,000	-0,023	0,075
-449,153	-200,000	-0,016	0,059
-448,138	71,208	0,055	-0,041
-447,124	280,244	0,016	0,021
-446,109	198,423	-0,064	-0,070
-445,095	800,000	0,053	-0,112
-444,080	-200,000	-0,031	0,107
-443,065	-3,120	-0,026	0,013
-442,051	-200,000	-0,021	0,124
-441,036	92,931	0,070	-0,057
-440,022	-113,707	-0,063	0,009
-439,007	-200,000	-0,020	-0,123
-437,992	-33,887	0,135	0,053
-436,978	-200,000	0,000	0,022
-435,963	-45,759	0,054	0,019
-434,949	-200,000	0,005	-0,170
-433,934	800,000	-0,041	0,113
-432,919	103,931	-0,028	0,023
-431,905	309,322	-0,133	-0,179
-430,890	-103,966	0,149	-0,025
-429,876	-200,000	-0,006	0,093
-428,861	224,034	0,104	-0,121
-427,846	-104,340	0,070	0,012
-426,832	-200,000	0,001	-0,100
-425,817	113,484	-0,081	-0,071
-424,803	15,177	0,079	-0,044
-423,788	-131,230	-0,121	-0,011
-422,773	800,000	0,027	0,058
-421,759	-152,515	0,079	-0,004
-420,744	800,000	0,022	0,056
-419,730	235,930	-0,068	-0,080
-418,715	800,000	0,016	-0,037
-417,701	165,934	0,047	0,047
-416,686	57,012	-0,079	0,055
-415,671	-200,000	-0,005	0,209
-414,657	97,796	0,063	0,052
-413,642	-200,000	-0,024	0,139
-412,628	-200,000	0,001	0,026
-411,613	461,548	-0,030	-0,048
-410,598	12,630	0,064	-0,035
-409,584	-200,000	-0,005	-0,072
-408,569	-100,216	0,170	0,030
-407,555	-200,000	-0,026	-0,091
-406,540	-102,852	0,118	0,020
-405,525	289,795	-0,111	-0,144
-404,511	411,544	0,049	0,074
-403,496	-200,000	0,006	-0,064
-402,482	281,564	-0,033	0,043
-401,467	18,739	0,046	-0,026
-400,452	-200,000	-0,016	0,104
-399,438	-200,000	0,001	0,141
-398,423	174,854	-0,043	0,044
-397,409	-72,111	0,026	-0,007
-396,394	-47,871	0,107	-0,037
-395,379	-5,629	0,085	0,042
-394,365	-157,028	0,125	0,005
-393,350	-200,000	-0,002	0,058
-392,336	326,990	0,034	0,046
-391,321	-13,779	0,037	0,017
-390,306	-200,000	-0,016	-0,053
-389,292	-200,000	0,035	-0,180
-388,277	183,528	0,061	0,064
-387,263	34,607	0,127	-0,079
-386,248	38,999	0,040	0,025
-385,233	148,234	-0,040	0,039
-384,219	-200,000	0,015	0,065
-383,204	-200,000	0,034	-0,156
-382,190	368,820	-0,052	-0,075
-381,175	-5,471	-0,051	-0,025
-380,160	358,115	0,060	-0,086
-379,146	55,659	-0,081	0,056
-378,131	-50,151	-0,064	-0,022
-377,117	-79,265	-0,177	0,042
-376,102	338,380	-0,102	-0,143
-375,088	403,769	0,062	0,094
-374,073	149,122	0,091	0,088
-373,058	93,915	-0,032	0,026
-372,044	-200,000	-0,004	0,074
-371,029	48,977	-0,090	-0,060
-370,015	-114,155	0,046	-0,006
-369,000	143,950	0,053	0,051
-367,985	-200,000	0,035	-0,131
-366,971	120,901	0,083	0,074
-365,956	624,773	0,056	0,102
-364,942	-96,654	0,117	0,022
-363,927	800,000	-0,022	0,069
-362,912	800,000	0,031	-0,061
-361,898	-28,670	-0,057	0,023
-360,883	42,509	0,092	-0,060
-359,869	59,139	-0,059	0,042
-358,854	573,710	0,075	0,131
-357,839	-200,000	-0,004	0,020
-356,825	13,431	0,083	0,046
-355,810	39,978	0,107	0,068
-354,796	-200,000	-0,017	-0,103
-353,781	264,060	-0,021	-0,026
-352,766	800,000	-0,011	0,033
-351,752	225,489	0,061	0,071
-350,737	-53,101	-0,069	-0,022
-349,723	-200,000	-0,005	-0,033
-348,708	-58,453	-0,113	0,035
-347,693	-40,641	0,118	-0,044
-346,679	-93,055	-0,115	-0,023
-345,664	35,566	-0,076	-0,048
-344,650	-103,696	0,130	-0,021
-343,635	136,076	0,117	0,109
-342,620	-160,247	0,112	0,004
-341,606	-83,645	-0,097	0,022
-340,591	-85,423	-0,129	-0,028
-339,577	89,593	-0,056	-0,044
-338,562	-200,000	0,005	-0,063
-337,548	-200,000	-0,011	0,132
-336,533	800,000	0,047	0,107
-335,518	138,302	0,091	0,085
-334,504	-199,798	0,067	0,000
-333,489	-135,085	-0,019	0,002
-332,475	-51,621	0,023	-0,008
-331,460	-200,000	-0,033	-0,126
-330,445	-200,000	-0,006	0,027
-329,431	-200,000	0,008	0,033
-328,416	490,554	0,032	0,052
-327,402	-180,501	0,238	0,003
-326,387	34,116	-0,186	0,115
-325,372	313,261	0,059	0,080
-324,358	-200,000	-0,022	-0,209
-323,343	-180,863	0,087	-0,001
-322,329	-32,101	0,156	-0,062
-321,314	175,939	0,014	0,015
-320,299	-19,092	0,080	-0,035
-319,285	-177,997	-0,030	0,001
-318,270	800,000	0,043	-0,100
-317,256	75,884	-0,024	0,018
-316,241	-200,000	-0,015	-0,126
-315,226	-25,597	-0,054	0,023
-314,212	116,470	0,082	-0,072
-313,197	800,000	0,020	-0,059
-312,183	800,000	0,028	0,057
-311,168	-200,000	-0,006	-0,111
-310,153	-21,184	0,056	0,024
-309,139	39,077	-0,068	0,043
-308,124	-35,121	-0,047	0,018
-307,110	-37,617	0,061	0,023
-306,095	-6,042	-0,048	0,023
-305,080	59,648	-0,052	0,037
-304,066	-6,586	-0,056	0,027
-303,051	800,000	-0,035	-0,089
-302,037	139,295	-0,056	-0,053
-301,022	-200,000	-0,052	0,172
-300,008	-80,027	0,109	0,026
-298,993	47,360	0,016	-0,011
-297,978	-200,000	0,007	-0,186
-296,964	-200,000	-0,005	0,023
-295,949	-109,692	0,037	0,005
-294,935	-71,332	-0,113	0,030
-293,920	800,000	-0,038	-0,090
-292,905	-165,136	0,079	0,002
-291,891	-200,000	0,052	0,173
-290,876	800,000	0,030	0,070
-289,862	-200,000	0,007	0,097
-288,847	141,701	-0,042	-0,040
-287,832	61,392	0,079	-0,056
-286,818	214,538	-0,095	-0,108
-285,803	41,686	-0,117	-0,075
-284,789	37,352	0,103	0,065
-283,774	-200,000	-0,011	-0,042
-282,759	800,000	0,039	-0,105
-281,745	-74,121	-0,211	-0,054
-280,730	-200,000	0,089	0,000
-279,716	269,325	0,015	0,019
-278,701	-119,786	0,152	0,018
-277,686	-200,000	0,017	0,102
-276,672	-200,000	0,003	-0,016
-275,657	-54,830	-0,095	0,030
-274,643	800,000	-0,070	-0,161
-273,628	-200,000	0,013	-0,101
-272,613	181,627	0,023	-0,024
-271,599	352,539	0,035	-0,049
-270,584	85,786	0,126	0,099
-269,570	-200,000	-0,012	0,057
-268,555	508,484	0,046	0,077
-267,540	-28,676	-0,041	-0,017
-266,526	-200,000	-0,004	-0,104
-265,511	6,650	0,036	-0,019
-264,497	146,699	-0,029	0,028
-263,482	80,778	-0,012	-0,009
-262,467	294,632	-0,025	0,032
-261,453	800,000	0,029	0,061
-260,438	800,000	-0,087	-0,176
-259,424	189,782	0,035	0,037
-258,409	-60,474	-0,114	0,034
-257,395	76,036	-0,114	-0,086
-256,380	119,627	-0,106	0,094
-255,365	-200,000	-0,012	0,091
-254,351	-200,000	0,006	0,054
-253,336	-21,495	0,061	0,026
-252,322	17,560	-0,085	-0,048
-251,307	-200,000	-0,017	0,101
-250,292	-49,713	0,276	-0,093
-249,278	-200,000	0,004	0,148
-248,263	-200,000	-0,011	0,038
-247,249	800,000	0,034	0,099
-246,234	531,857	0,032	-0,054
-245,219	473,456	0,082	-0,133
-244,205	800,000	0,076	-0,182
-243,190	48,092	0,045	0,030
-242,176	-127,473	0,119	-0,012
-241,161	-163,130	0,068	0,002
-240,146	-200,000	0,012	-0,065
-239,132	800,000	-0,050	-0,129
-238,117	-180,645	-0,169	-0,002
-237,103	344,584	0,025	-0,035
-236,088	-200,000	-0,029	-0,156
-235,073	212,144	0,120	0,135
-234,059	-200,000	-0,011	-0,045
-233,044	234,488	-0,044	0,051
-232,030	800,000	-0,030	-0,084
-231,015	0,880	-0,030	0,015
-230,000	117,256	0,036	-0,031
-228,986	183,278	-0,040	-0,042
-227,971	521,131	-0,060	0,100
-226,957	33,574	0,108	0,066
-225,942	800,000	0,024	0,075
-224,927	-200,000	-0,002	-0,043
-223,913	-200,000	-0,007	-0,056
-222,898	-135,736	-0,098	0,008
-221,884	-200,000	-0,018	-0,063
-220,869	381,840	0,022	-0,032
-219,855	-171,131	-0,104	0,002
-218,840	-61,888	-0,036	0,010
-217,825	-27,883	-0,055	0,023
-216,811	611,666	0,072	-0,128
-215,796	18,405	-0,083	-0,047
-214,782	44,881	-0,110	-0,072
-213,767	800,000	-0,044	0,135
-212,752	800,000	0,042	0,112
-211,738	-200,000	-0,010	0,158
-210,723	-200,000	0,004	0,038
-209,709	-200,000	0,008	-0,130
-208,694	55,586	-0,129	-0,089
-207,679	18,688	-0,110	-0,062
-206,665	-200,000	-0,029	-0,157
-205,650	185,297	0,047	0,049
-204,636	-13,392	-0,043	0,020
-203,621	800,000	0,042	0,117
-202,606	-60,750	-0,017	-0,005
-201,592	-78,814	0,121	-0,029
-200,577	800,000	0,041	-0,115
-199,563	99,103	-0,026	0,021
-198,548	12,953	0,092	0,051
-197,533	-200,000	-0,071	-0,000
-196,519	710,511	-0,035	-0,065
-195,504	-2,843	-0,076	0,038
-194,490	-50,223	0,093	-0,031
-193,475	-200,000	-0,006	-0,021
-192,460	-200,000	-0,010	0,046
-191,446	99,752	-0,137	0,113
-190,431	800,000	0,062	0,129
-189,417	-200,000	0,022	0,148
-188,402	800,000	-0,070	0,180
-187,387	-200,000	0,015	0,059
-186,373	74,100	-0,036	-0,026
-185,358	-200,000	0,018	0,108
-184,344	35,822	-0,063	0,039
-183,329	-200,000	0,001	-0,040
-182,315	-81,374	0,029	0,007
-181,300	-9,630	0,030	-0,014
-180,285	75,403	0,036	-0,027
-179,271	37,277	-0,108	-0,068
-178,256	-200,000	-0,006	-0,029
-177,242	53,515	0,071	-0,048
-176,227	800,000	0,038	0,091
-175,212	424,483	0,111	0,169
-174,198	100,508	-0,038	0,031
-173,183	130,546	-0,058	0,053
-172,169	690,735	-0,025	-0,047
-171,154	800,000	-0,035	0,104
-170,139	143,841	0,105	0,100
-169,125	800,000	0,035	-0,087
-168,110	800,000	-0,074	0,157
-167,096	312,556	-0,026	0,035
-166,081	800,000	0,048	-0,121
-165,066	-44,510	-0,078	-0,027
-164,052	333,685	0,032	0,044
-163,037	-200,000	-0,005	0,016
-162,023	-40,534	-0,113	-0,041
-161,008	231,249	0,065	0,075
-159,993	-200,000	-0,006	0,027
-158,979	55,809	0,054	0,037
-157,964	233,946	-0,117	0,137
-156,950	-17,889	0,117	-0,052
-155,935	-88,777	0,173	-0,036
-154,920	-15,191	0,072	-0,033
-153,906	800,000	-0,020	0,052
-152,891	-58,543	0,086	-0,026
-151,877	-133,651	-0,083	-0,007
-150,862	-200,000	0,010	-0,104
-149,847	642,466	-0,058	-0,105
-148,833	-200,000	-0,005	0,040
-147,818	764,821	-0,044	-0,086
-146,804	-82,930	0,090	-0,020
-145,789	-200,000	0,001	-0,055
-144,775	98,368	-0,076	-0,062
-143,760	302,187	-0,046	-0,061
-142,745	800,000	-0,056	0,112
-141,731	347,603	0,039	-0,055
-140,716	296,737	0,096	-0,125
-139,702	98,007	0,128	0,104
-138,687	800,000	0,118	0,242
-137,672	-200,000	-0,022	-0,136
-136,658	-46,581	-0,068	0,024
-135,643	57,414	-0,079	-0,054
-134,629	689,424	-0,016	-0,031
-133,614	800,000	0,028	0,087
-132,599	-179,573	0,127	0,002
-131,585	-40,104	-0,048	-0,018
-130,570	80,293	0,031	0,024
-129,556	-114,670	-0,073	0,010
-128,541	-92,372	-0,025	0,005
-127,526	800,000	0,011	-0,028
-126,512	395,503	-0,023	-0,035
-125,497	383,444	0,076	-0,111
-124,483	-200,000	0,005	-0,100
-123,468	-200,000	-0,007	-0,049
-122,453	-90,606	0,095	-0,019
-121,439	748,285	0,021	-0,040
-120,424	597,575	0,041	-0,073
-119,410	-52,075	-0,068	-0,022
-118,395	-200,000	0,011	0,155
-117,380	-52,222	0,149	0,049
-116,366	800,000	0,048	-0,116
-115,351	73,566	-0,064	-0,047
-114,337	9,134	0,006	0,003
-113,322	211,733	0,103	-0,115
-112,307	94,649	-0,052	-0,042
-111,293	-200,000	0,003	-0,023
-110,278	-69,512	-0,153	-0,041
-109,264	-112,798	0,178	0,025
-108,249	800,000	0,015	0,045
-107,234	177,995	0,082	0,085
-106,220	-200,000	0,045	-0,167
-105,205	-200,000	-0,039	-0,193
-104,191	40,310	0,083	-0,053
-103,176	280,832	0,072	0,091
-102,162	516,195	-0,039	-0,064
-101,147	-112,168	-0,021	-0,003
-100,132	-43,065	-0,058	-0,021
-99,118	345,192	0,096	-0,134
-98,103	453,241	-0,063	-0,099
-97,089	-152,270	0,196	0,010
-96,074	-200,000	-0,013	0,056
-95,059	65,002	-0,013	0,010
-94,045	-200,000	0,003	-0,147
-93,030	800,000	-0,038	-0,099
-92,016	-200,000	-0,011	-0,068
-91,001	-102,198	0,054	0,009
-89,986	99,808	0,104	0,085
-88,972	168,485	0,043	0,043
-87,957	-101,459	0,110	-0,019
-86,943	587,809	-0,082	-0,143
-85,928	-158,376	-0,082	0,003
-84,913	-40,592	-0,025	0,009
-83,899	101,569	0,083	0,068
-82,884	510,739	-0,060	-0,099
-81,870	-131,568	0,061	0,006
-80,855	452,032	0,019	0,030
-79,840	-45,331	-0,030	0,010
-78,826	311,693	-0,060	-0,080
-77,811	-14,575	-0,113	-0,051
-76,797	-200,000	0,014	-0,059
-75,782	-53,843	0,151	-0,049
-74,767	695,982	-0,031	0,057
-73,753	328,413	0,051	-0,070
-72,738	-200,000	0,008	-0,104
-71,724	-69,624	-0,034	0,009
-70,709	1,545	-0,069	-0,035
-69,694	-154,189	-0,019	-0,001
-68,680	93,127	0,057	-0,046
-67,665	-60,140	0,004	-0,001
-66,651	-200,000	0,006	-0,063
-65,636	525,078	0,077	0,128
-64,622	-200,000	0,019	-0,148
-63,607	134,811	0,035	0,032
-62,592	-200,000	0,022	0,071
-61,578	-136,341	0,131	-0,011
-60,563	-81,156	0,170	0,039
-59,549	-37,033	-0,086	-0,032
-58,534	34,192	-1,844	-1,133
-57,519	459,496	-1,284	-2,025
-56,505	-200,000	-0,374	-4,443
-55,490	419,249	1,053	1,596
-54,476	800,000	4,971	11,293
-53,461	-200,000	20,765	329,227
-52,446	800,000	757,121	2323,419
-51,432	550,073	1662,238	2825,123
-50,417	73,486	1663,926	1228,520
-49,403	18,623	1537,427	865,813
-48,388	12,658	1459,993	793,331
-47,373	18,957	1450,803	818,564
-46,359	15,823	1440,342	797,709
-45,344	10,935	1435,838	771,896
-44,330	10,858	1434,014	770,516
-43,315	10,898	1432,042	769,617
-42,300	10,855	1430,485	768,545
-41,286	10,861	1429,199	767,850
-40,271	10,880	1427,742	767,129
-39,257	10,847	1426,823	766,450
-38,242	10,875	1425,565	765,873
-37,227	10,866	1424,283	765,112
-36,213	10,917	1423,061	764,665
-35,198	10,857	1422,289	763,941
-34,184	10,928	1421,214	763,667
-33,169	10,899	1419,866	762,775
-32,154	10,956	1418,669	762,371
-31,140	10,911	1417,591	761,547
-30,125	10,953	1416,485	761,124
-29,111	10,937	1415,286	760,375
-28,096	10,925	1414,174	759,687
-27,082	10,868	1412,994	758,758
-26,067	10,832	1412,172	758,117
-25,052	10,884	1411,112	757,761
-24,038	10,842	1410,015	756,945
-23,023	10,826	1408,964	756,274
-22,009	10,852	1407,876	755,785
-20,994	10,822	1406,951	755,115
-19,979	10,815	1406,032	754,559
-18,965	10,804	1405,017	753,934
-17,950	10,787	1404,147	753,359
-16,936	10,768	1403,510	752,898
-15,921	10,749	1402,236	752,098
-14,906	10,758	1401,329	751,621
-13,892	10,787	1400,229	751,139
-12,877	10,753	1399,827	750,734
-11,863	10,744	1398,771	750,094
-10,848	10,730	1397,874	749,520
-9,833	10,711	1397,090	748,983
-8,819	10,642	1396,399	748,262
-7,804	10,646	1395,382	747,705
-6,790	10,603	1394,513	747,012
-5,775	10,663	1393,257	746,587
-4,760	10,688	1392,342	746,183
-3,746	10,662	1391,368	745,508
-2,731	10,633	1390,532	744,899
-1,717	10,608	1389,932	744,434
-0,702	10,656	1387,790	743,478
0,313	14,653	1301,506	715,575
1,327	30,862	692,985	417,884
2,342	48,013	120,316	79,195
3,356	0,683	16,471	8,287
4,371	-3,540	3,381	1,653
5,386	2,062	0,843	0,428
6,400	-200,000	0,039	0,491
7,415	-20,880	-0,164	0,070
8,429	2,191	-0,310	-0,158
9,444	4,111	-0,273	-0,140
10,459	109,484	-0,234	-0,197
11,473	108,751	-0,266	-0,224
12,488	-22,062	-0,238	-0,102
13,502	9,586	-0,436	-0,232
14,517	245,639	-0,227	-0,269
15,531	62,527	-0,304	-0,214
16,546	46,685	-0,436	-0,285
17,561	135,818	-0,354	-0,325
18,575	40,519	-0,150	-0,095
19,590	272,213	-0,129	-0,161
20,604	146,139	-0,128	-0,121
21,619	-47,375	-0,561	-0,191
22,634	92,374	-0,553	-0,439
23,648	123,686	-0,397	-0,351
24,663	-22,740	-0,388	-0,164
25,677	35,874	-0,324	-0,200
26,692	151,311	-0,278	-0,266
27,707	-11,410	-0,346	-0,160
28,721	52,242	-0,397	-0,266
29,736	237,968	-0,349	-0,408
30,750	137,351	-0,342	-0,315
31,765	90,572	-0,341	-0,268
32,780	103,004	-0,362	-0,298
33,794	201,917	-0,266	-0,289
34,809	125,583	-0,188	-0,167
35,823	-2,663	-0,308	-0,151
36,838	67,106	-0,342	-0,245
37,853	82,024	-0,432	-0,329
38,867	-26,785	-0,397	-0,162
39,882	-19,887	-0,325	-0,141
40,896	-4,495	-0,322	-0,156
41,911	88,064	-0,327	-0,255
42,926	131,139	-0,349	-0,315
43,940	171,880	-0,252	-0,254
44,955	67,356	-0,434	-0,311
45,969	-39,138	-0,338	-0,124
46,984	10,392	-0,465	-0,248
47,999	97,340	-0,238	-0,192
49,013	106,170	-0,232	-0,193
50,028	9,248	-0,346	-0,183
51,042	410,119	-0,190	-0,284
52,057	140,746	-0,297	-0,276
53,071	210,042	-0,226	-0,250
54,086	800,000	-0,155	-0,338
55,101	23,972	-0,373	-0,215
56,115	-8,212	-0,393	-0,185
57,130	61,307	-0,336	-0,234
58,144	141,072	-0,294	-0,273
59,159	-82,339	-0,453	-0,103
60,174	-74,643	-0,473	-0,118
61,188	109,970	-0,349	-0,294
62,203	38,009	-0,238	-0,148
63,217	153,902	-0,194	-0,187
64,232	6,327	-0,417	-0,217
65,247	119,309	-0,346	-0,300
66,261	-48,561	-0,469	-0,157
67,276	169,962	-0,318	-0,319
68,290	-19,877	-0,361	-0,156
69,305	-11,014	-0,274	-0,127
70,320	26,866	-0,223	-0,130
71,334	-18,422	-0,325	-0,142
72,349	90,072	-0,228	-0,178
73,363	127,480	-0,248	-0,221
74,378	172,937	-0,234	-0,237
75,393	122,337	-0,279	-0,244
76,407	-58,015	-0,346	-0,105
77,422	42,087	-0,206	-0,131
78,436	-75,553	-0,419	-0,104
79,451	54,612	-0,298	-0,201
80,466	66,047	-0,267	-0,189
81,480	-40,724	-0,405	-0,146
82,495	0,477	-0,220	-0,110
83,509	41,604	-0,314	-0,199
84,524	60,922	-0,335	-0,233
85,539	-3,327	-0,298	-0,145
86,553	124,379	-0,250	-0,220
87,568	108,257	-0,271	-0,226
88,582	48,173	-0,260	-0,170
89,597	-4,719	-0,294	-0,141
90,611	393,834	-0,146	-0,214
91,626	388,744	-0,160	-0,233
92,641	117,362	-0,137	-0,118
93,655	140,230	-0,265	-0,245
94,670	-24,257	-0,312	-0,130
95,684	43,431	-0,300	-0,191
96,699	363,020	-0,210	-0,296
97,714	10,613	-0,300	-0,160
98,728	-4,168	-0,322	-0,155
99,743	-49,247	-0,331	-0,110
100,757	-79,440	-0,313	-0,073
101,772	-0,778	-0,448	-0,221
102,787	50,530	-0,182	-0,120
103,801	-31,747	-0,281	-0,110
104,816	147,260	-0,245	-0,230
105,830	-57,165	-0,178	-0,054
106,845	33,507	-0,171	-0,104
107,860	135,022	-0,279	-0,254
108,874	-159,823	-0,299	-0,011
109,889	124,254	-0,228	-0,201
110,903	319,238	-0,214	-0,284
111,918	-50,727	-0,273	-0,089
112,933	103,604	-0,341	-0,279
113,947	-120,246	-0,159	0,019
114,962	441,576	-0,181	-0,278
115,976	63,636	-0,154	-0,108
116,991	-53,705	-0,220	-0,070
118,006	-5,096	-0,359	-0,172
119,020	-42,331	-0,346	-0,123
120,035	95,151	-0,222	-0,177
121,049	160,039	-0,221	-0,215
122,064	121,894	-0,295	-0,257
123,079	14,757	-0,180	-0,098
124,093	105,654	-0,241	-0,199
125,108	46,081	-0,330	-0,213
126,122	17,055	-0,150	-0,083
127,137	-23,968	-0,255	-0,106
128,151	369,791	-0,225	-0,319
129,166	-45,438	-0,196	-0,068
130,181	25,699	-0,217	-0,126
131,195	52,488	-0,256	-0,170
132,210	7,608	-0,309	-0,161
133,224	582,918	-0,160	-0,274
134,239	-39,704	-0,254	-0,092
135,254	129,130	-0,088	-0,078
136,268	9,541	-0,326	-0,171
137,283	116,698	-0,117	-0,100
138,297	-39,933	-0,243	-0,088
139,312	79,777	-0,210	-0,157
140,327	65,159	-0,366	-0,258
141,341	800,000	-0,116	-0,254
142,356	-37,692	-0,212	-0,078
143,370	-37,721	-0,313	-0,116
144,385	65,741	-0,136	-0,096
145,400	58,262	-0,281	-0,192
146,414	-138,427	-0,314	0,024
147,429	9,864	-0,348	-0,184
148,443	429,904	-0,181	-0,274
149,458	800,000	-0,111	-0,258
150,473	92,632	-0,270	-0,212
151,487	-25,886	-0,252	-0,103
152,502	347,614	-0,162	-0,223
153,516	41,897	-0,287	-0,181
154,531	-19,126	-0,255	-0,110
155,546	93,678	-0,248	-0,195
156,560	111,346	-0,156	-0,131
157,575	256,752	-0,220	-0,263
158,589	53,784	-0,318	-0,212
159,604	486,172	-0,137	-0,217
160,619	800,000	-0,137	-0,263
161,633	48,281	-0,397	-0,258
162,648	31,751	-0,317	-0,190
163,662	-97,041	-0,246	-0,044
164,677	-62,626	-0,261	-0,075
165,692	122,434	-0,220	-0,192
166,706	800,000	-0,081	-0,163
167,721	566,274	-0,211	-0,357
168,735	241,715	-0,275	-0,321
169,750	202,800	-0,100	-0,108
170,764	-154,849	-0,170	-0,008
171,779	291,795	-0,209	-0,265
172,794	800,000	-0,111	-0,216
173,808	83,991	-0,290	-0,220
174,823	105,181	-0,251	-0,206
175,837	308,020	-0,149	-0,194
176,852	77,045	-0,272	-0,200
177,867	-135,994	-0,206	0,017
178,881	-89,688	-0,068	0,014
179,896	70,618	-0,276	-0,198
180,910	-12,862	-0,244	-0,110
181,925	-43,192	-0,259	-0,091
182,940	125,166	-0,237	-0,208
183,954	186,023	-0,194	-0,201
184,969	765,624	-0,132	-0,250
185,983	90,741	-0,158	-0,123
186,998	71,652	-0,133	-0,096
188,013	53,728	-0,218	-0,145
189,027	185,545	-0,202	-0,209
190,042	104,835	-0,246	-0,202
191,056	-29,412	-0,285	-0,113
192,071	249,420	-0,193	-0,228
193,086	121,024	-0,101	-0,088
194,100	-32,310	-0,154	-0,059
195,115	-11,522	-0,185	-0,084
196,129	61,889	-0,293	-0,203
197,144	-66,481	-0,269	-0,074
198,159	88,885	-0,187	-0,144
199,173	-62,715	-0,204	-0,058
200,188	-200,000	-0,045	-0,218
201,202	-200,000	-0,057	-0,393
202,217	-111,363	-0,264	-0,037
203,232	59,909	-0,351	-0,240
204,246	319,871	-0,264	-0,348
205,261	86,583	-0,263	-0,201
206,275	-40,373	-0,150	-0,054
207,290	781,187	-0,075	-0,143
208,304	-56,847	-0,177	-0,054
209,319	335,511	-0,148	-0,199
210,334	-200,000	-0,066	-0,231
211,348	-34,437	-0,336	-0,127
212,363	-5,670	-0,231	-0,109
213,377	-72,005	-0,286	-0,073
214,392	14,391	-0,137	-0,074
215,407	50,633	-0,153	-0,100
216,421	21,167	-0,135	-0,076
217,436	167,847	-0,157	-0,154
218,450	-127,076	-0,184	0,018
219,465	-43,070	-0,157	-0,055
220,480	-52,608	-0,168	-0,053
221,494	218,008	-0,165	-0,183
222,509	292,866	-0,071	-0,090
223,523	-127,382	-0,244	-0,024
224,538	68,508	-0,138	-0,098
225,553	81,543	-0,154	-0,115
226,567	16,706	-0,231	-0,126
227,582	-11,799	-0,192	-0,087
228,596	332,645	-0,155	-0,208
229,611	174,281	-0,191	-0,191
230,626	200,815	-0,164	-0,175
231,640	309,302	-0,175	-0,227
232,655	-19,399	-0,228	-0,097
233,669	178,982	-0,198	-0,200
234,684	-87,926	-0,150	0,031
235,699	-102,350	-0,105	0,017
236,713	-139,418	-0,025	0,002
237,728	39,764	-0,146	-0,090
238,742	67,567	-0,223	-0,157
239,757	-9,717	-0,184	-0,084
240,772	37,788	-0,187	-0,115
241,786	6,025	-0,341	-0,174
242,801	118,526	-0,264	-0,225
243,815	12,760	-0,125	-0,066
244,830	-62,803	-0,171	-0,049
245,844	219,756	-0,125	-0,138
246,859	50,185	-0,229	-0,149
247,874	663,390	-0,149	-0,267
248,888	219,967	-0,074	-0,082
249,903	-41,416	-0,238	-0,084
250,917	-68,632	-0,235	0,062
251,932	59,563	-0,182	-0,124
252,947	4,594	-0,221	-0,112
253,961	144,699	-0,205	-0,189
254,976	160,937	-0,135	-0,130
255,990	187,496	-0,223	-0,230
257,005	-45,643	-0,252	-0,085
258,020	-127,479	-0,166	-0,016
259,034	138,182	-0,164	-0,148
260,049	96,854	-0,179	-0,141
261,063	322,198	-0,209	-0,275
262,078	-5,729	-0,290	-0,136
263,093	-44,521	-0,197	-0,067
264,107	-47,595	-0,240	-0,080
265,122	-62,967	-0,080	0,023
266,136	800,000	-0,040	-0,098
267,151	-49,390	-0,147	0,048
268,166	-79,048	-0,208	-0,048
269,180	-18,271	-0,201	-0,086
270,195	249,106	-0,105	-0,123
271,209	-125,830	-0,194	-0,020
272,224	-80,231	-0,171	0,039
273,239	-133,417	-0,095	-0,008
274,253	52,463	-0,208	-0,137
275,268	61,507	-0,244	-0,167
276,282	173,863	-0,166	-0,165
277,297	800,000	-0,086	-0,199
278,312	179,930	-0,092	-0,093
279,326	694,033	-0,060	-0,109
280,341	-80,255	-0,213	-0,049
281,355	55,985	-0,192	-0,128
282,370	-63,077	-0,110	-0,031
283,384	347,400	-0,183	-0,249
284,399	106,897	-0,287	-0,235
285,414	21,385	-0,227	-0,127
286,428	354,673	-0,106	-0,145
287,443	-129,608	-0,149	0,014
288,457	800,000	-0,100	-0,194
289,472	322,491	-0,108	-0,142
290,487	194,939	-0,023	0,024
291,501	-200,000	-0,041	-0,248
292,516	800,000	-0,108	-0,222
293,530	88,982	-0,170	-0,130
294,545	-103,247	-0,124	-0,020
295,560	33,689	-0,083	-0,049
296,574	-166,453	-0,118	-0,003
297,589	47,768	-0,185	-0,119
298,603	100,591	-0,163	-0,130
299,618	261,349	-0,054	-0,065
300,633	-19,194	-0,128	-0,055
301,647	-88,183	-0,147	0,030
302,662	111,133	-0,152	-0,126
303,676	-62,099	-0,206	-0,059
304,691	800,000	-0,096	-0,236
305,706	-200,000	-0,037	-0,159
306,720	48,557	-0,246	-0,158
307,735	174,789	-0,197	-0,196
308,749	-57,992	-0,154	-0,046
309,764	-0,173	-0,197	-0,096
310,779	23,558	-0,166	-0,093
311,793	62,714	-0,176	-0,121
312,808	573,802	-0,113	-0,191
313,822	5,068	-0,115	-0,058
314,837	263,915	-0,173	-0,207
315,852	800,000	-0,010	-0,023
316,866	-189,298	-0,162	-0,001
317,881	800,000	-0,126	-0,241
318,895	243,662	-0,073	-0,084
319,910	96,344	-0,143	-0,112
320,925	-45,583	-0,102	-0,034
321,939	279,154	-0,143	-0,175
322,954	-53,806	-0,160	-0,050
323,968	800,000	0,014	-0,033
324,983	132,210	-0,183	-0,162
325,997	-200,000	-0,025	-0,144
327,012	126,718	-0,133	-0,116
328,027	120,503	-0,140	-0,119
329,041	155,670	-0,093	-0,088
330,056	-162,928	-0,087	-0,003
331,070	-200,000	0,005	0,078
332,085	-200,000	0,002	-0,050
333,100	252,939	-0,131	-0,153
334,114	56,186	-0,359	-0,238
335,129	-47,744	-0,193	-0,064
336,143	-74,961	-0,198	-0,048
337,158	-64,463	-0,166	0,046
338,173	232,571	-0,098	-0,111
339,187	271,079	-0,128	-0,155
340,202	220,371	-0,064	0,070
341,216	-134,107	-0,093	0,008
342,231	117,715	-0,128	-0,107
343,246	18,145	-0,160	-0,087
344,260	331,359	-0,053	0,070
345,275	52,759	-0,110	-0,072
346,289	97,419	-0,095	-0,075
347,304	-200,000	-0,001	-0,049
348,319	40,392	-0,112	-0,069
349,333	97,378	-0,236	-0,185
350,348	-200,000	-0,016	-0,128
351,362	-70,036	-0,242	-0,063
352,377	614,236	-0,022	0,038
353,392	151,370	-0,094	-0,088
354,406	-130,150	-0,086	-0,008
355,421	206,751	1307,792	1395,437
356,435	159,018	1467,649	1395,914
