DTS Sentinel unit serial number:	SN410029Multiplexer serial number:	ORYXHardware model number:	OX2-SRSoftware version number:	ORYX F/W v4,00 Oryx Data Collector v3.7.2.0data status	okinstallation	B3 Nyhavnadifferential loss correction	single-endedforward channel	channel 1reverse channel	N/Adate	2023/12/03time	21:37:30forward acquisition time	300,00reverse acquisition time	0,00gamma	499,1914k internal	0,3199k external	0,3199temperature offset calibration	1,0000default loss term (dB/km)	0,3820temperature slope calibration	1,0000multiplexer offset coefficient	1,0000multiplexer slope coefficient	1,0000fibre end	0,00T internal ref (°C)	13,50T ext. ref 1 (°C)	-1,97T ext. ref 2 (°C)	-1,99length (m)	temperature (°C)	Stokes	anti-Stokes-744,400	198,594	-0,257	-0,286
-743,385	-200,000	0,067	0,291
-742,371	332,546	-0,264	-0,372
-741,356	-200,000	0,077	0,271
-740,342	416,358	-0,142	-0,220
-739,327	800,000	-0,084	0,264
-738,312	-200,000	0,016	-0,225
-737,298	800,000	0,052	0,115
-736,283	87,376	-0,309	-0,249
-735,269	800,000	0,109	0,237
-734,254	53,336	-0,326	-0,227
-733,239	609,670	-0,180	0,328
-732,225	742,133	-0,060	-0,118
-731,210	-51,851	0,155	0,052
-730,196	-131,083	-0,138	0,013
-729,181	-200,000	0,007	-0,080
-728,167	652,821	0,018	0,034
-727,152	371,150	0,023	-0,033
-726,137	496,277	0,039	-0,065
-725,123	161,556	-0,100	-0,102
-724,108	800,000	-0,022	-0,048
-723,094	-113,726	-0,125	0,017
-722,079	800,000	-0,046	-0,104
-721,064	-200,000	0,032	-0,153
-720,050	800,000	0,027	-0,076
-719,035	178,649	-0,073	0,078
-718,021	-142,745	-0,142	-0,010
-717,006	-87,981	-0,175	-0,038
-715,991	95,462	-0,110	-0,091
-714,977	338,277	-0,104	-0,147
-713,962	-40,075	0,111	-0,042
-712,948	-200,000	-0,008	0,044
-711,933	-200,000	0,005	0,039
-710,918	738,577	0,042	-0,081
-709,904	-119,797	-0,204	0,025
-708,889	-1,689	0,039	-0,020
-707,875	-200,000	0,006	-0,097
-706,860	-44,284	-0,190	0,069
-705,845	-200,000	0,005	-0,104
-704,831	800,000	-0,007	0,015
-703,816	45,055	0,051	-0,034
-702,802	800,000	-0,023	0,052
-701,787	-5,739	-0,116	-0,058
-700,772	800,000	0,011	-0,029
-699,758	361,793	-0,100	0,146
-698,743	-160,189	0,204	0,008
-697,729	321,136	0,080	0,111
-696,714	-58,326	-0,077	0,024
-695,699	671,119	-0,050	-0,095
-694,685	-200,000	-0,003	-0,115
-693,670	24,521	0,034	-0,020
-692,656	800,000	0,037	0,112
-691,641	118,375	0,069	-0,062
-690,627	-200,000	0,053	-0,174
-689,612	55,791	-0,083	-0,058
-688,597	-82,179	-0,106	0,025
-687,583	40,565	-0,026	-0,017
-686,568	-8,213	-0,101	-0,049
-685,554	-137,031	-0,085	-0,007
-684,539	-200,000	-0,007	-0,192
-683,524	230,136	0,056	0,066
-682,510	-200,000	-0,003	-0,069
-681,495	-60,949	-0,081	0,025
-680,481	-13,301	-0,058	-0,027
-679,466	-200,000	0,011	-0,138
-678,451	255,833	0,057	0,071
-677,437	31,654	-0,126	-0,079
-676,422	-200,000	0,001	-0,042
-675,408	89,218	0,082	0,066
-674,393	38,204	-0,135	-0,087
-673,378	-148,878	0,081	0,005
-672,364	184,817	0,014	-0,015
-671,349	350,944	0,124	-0,178
-670,335	800,000	0,052	0,116
-669,320	64,321	0,111	-0,081
-668,305	-144,280	0,076	-0,005
-667,291	235,941	-0,072	-0,086
-666,276	23,510	0,089	0,053
-665,262	101,977	-0,107	-0,091
-664,247	147,169	0,013	-0,013
-663,232	800,000	0,031	-0,073
-662,218	-141,731	-0,065	-0,005
-661,203	-200,000	0,020	-0,067
-660,189	339,828	0,073	-0,103
-659,174	-104,818	0,052	-0,009
-658,159	-26,485	-0,037	-0,016
-657,145	800,000	0,005	0,011
-656,130	800,000	0,018	0,043
-655,116	-69,263	0,065	0,018
-654,101	-200,000	-0,019	0,086
-653,086	-200,000	0,036	-0,153
-652,072	260,665	0,064	-0,080
-651,057	800,000	-0,028	-0,061
-650,043	800,000	-0,008	0,018
-649,028	170,744	-0,040	-0,042
-648,014	-97,273	0,029	0,006
-646,999	-7,942	0,124	-0,060
-645,984	9,477	-0,041	0,022
-644,970	-34,975	-0,062	0,024
-643,955	-64,868	-0,042	-0,012
-642,941	212,860	0,045	0,051
-641,926	-32,404	0,121	-0,049
-640,911	-34,713	0,064	-0,025
-639,897	173,923	0,129	0,135
-638,882	-200,000	0,014	0,098
-637,868	409,117	-0,035	-0,054
-636,853	-143,773	-0,204	-0,014
-635,838	-19,694	-0,109	0,049
-634,824	-98,218	0,099	-0,018
-633,809	-200,000	-0,003	-0,046
-632,795	12,743	0,151	0,084
-631,780	-44,102	-0,081	-0,029
-630,765	-105,320	0,015	-0,002
-629,751	596,836	0,018	0,032
-628,736	800,000	0,049	-0,127
-627,722	-101,155	0,034	0,006
-626,707	-200,000	0,026	0,089
-625,692	13,650	0,037	0,021
-624,678	439,185	0,075	0,118
-623,663	204,538	-0,030	-0,034
-622,649	-200,000	-0,004	-0,068
-621,634	-144,581	-0,028	0,002
-620,619	24,639	-0,121	-0,072
-619,605	84,007	0,099	-0,078
-618,590	-200,000	-0,008	-0,116
-617,576	-45,229	0,034	0,012
-616,561	-86,176	0,111	-0,025
-615,546	-200,000	-0,032	-0,134
-614,532	-200,000	-0,008	0,132
-613,517	-72,996	-0,146	0,039
-612,503	800,000	0,031	-0,084
-611,488	137,803	0,080	0,076
-610,474	-60,853	-0,095	-0,029
-609,459	139,532	0,046	-0,044
-608,444	-200,000	0,004	-0,202
-607,430	-36,792	-0,049	-0,019
-606,415	288,315	-0,114	-0,149
-605,401	-200,000	-0,031	0,102
-604,386	-200,000	-0,019	0,171
-603,371	-200,000	-0,002	-0,226
-602,357	511,882	-0,067	-0,114
-601,342	621,546	-0,086	-0,157
-600,328	38,072	-0,105	-0,068
-599,313	-200,000	0,008	-0,071
-598,298	-200,000	-0,024	0,132
-597,284	-200,000	0,008	0,031
-596,269	-200,000	-0,009	0,044
-595,255	-200,000	0,031	0,109
-594,240	-136,906	-0,109	-0,009
-593,225	-200,000	0,005	-0,048
-592,211	89,192	0,079	0,064
-591,196	16,864	-0,077	-0,044
-590,182	489,139	-0,014	-0,024
-589,167	-80,758	-0,103	-0,025
-588,152	-200,000	0,001	0,018
-587,138	-200,000	-0,013	-0,098
-586,123	-9,659	-0,161	0,077
-585,109	65,735	0,014	-0,010
-584,094	220,528	0,058	-0,068
-583,079	284,622	-0,059	0,077
-582,065	328,001	-0,136	0,189
-581,050	5,253	0,072	0,038
-580,036	9,876	-0,157	0,086
-579,021	-132,584	0,093	0,009
-578,006	-73,541	-0,064	0,017
-576,992	73,365	-0,126	0,095
-575,977	81,640	-0,044	-0,034
-574,963	-120,992	0,161	0,019
-573,948	-11,585	0,057	-0,027
-572,934	-14,152	0,165	-0,077
-571,919	-200,000	0,063	-0,251
-570,904	-98,358	0,184	-0,034
-569,890	89,353	-0,054	0,043
-568,875	-9,328	-0,072	0,035
-567,861	118,351	0,051	0,045
-566,846	115,094	-0,106	0,093
-565,831	800,000	0,091	0,196
-564,817	143,318	-0,124	0,119
-563,802	-200,000	-0,002	-0,129
-562,788	-64,410	-0,189	-0,055
-561,773	3,275	0,019	0,010
-560,758	751,806	-0,009	-0,017
-559,744	-200,000	-0,010	0,059
-558,729	-82,351	0,016	0,004
-557,715	-200,000	0,016	-0,103
-556,700	8,386	-0,010	-0,006
-555,685	204,030	-0,081	-0,090
-554,671	-200,000	0,004	-0,016
-553,656	-151,752	0,119	0,006
-552,642	207,745	-0,089	-0,101
-551,627	-5,038	-0,096	0,047
-550,612	-31,890	-0,035	0,014
-549,598	-122,634	-0,047	0,005
-548,583	-200,000	0,022	-0,104
-547,569	-83,840	0,094	0,021
-546,554	171,278	0,050	-0,052
-545,539	338,577	0,053	0,075
-544,525	800,000	0,038	-0,076
-543,510	-149,987	-0,134	-0,007
-542,496	185,811	-0,051	0,054
-541,481	800,000	-0,056	-0,155
-540,466	800,000	-0,038	-0,106
-539,452	17,683	0,034	-0,020
-538,437	-38,738	0,132	0,050
-537,423	-121,724	-0,173	0,020
-536,408	-200,000	-0,009	-0,201
-535,393	-200,000	0,001	0,077
-534,379	122,673	-0,057	-0,051
-533,364	-102,322	0,090	-0,016
-532,350	639,118	0,057	0,105
-531,335	-9,791	0,042	0,020
-530,321	-29,939	-0,127	-0,052
-529,306	612,874	0,049	-0,089
-528,291	309,972	0,010	-0,014
-527,277	101,183	-0,090	0,076
-526,262	-161,131	0,102	0,004
-525,248	-80,936	0,157	0,037
-524,233	50,433	0,073	-0,050
-523,218	14,782	0,049	-0,028
-522,204	800,000	-0,028	-0,058
-521,189	80,571	-0,138	0,107
-520,175	-200,000	-0,012	0,139
-519,160	-60,355	-0,101	0,031
-518,145	-136,317	0,069	-0,006
-517,131	-79,992	0,083	-0,020
-516,116	-110,547	0,061	-0,009
-515,102	-79,448	-0,042	-0,010
-514,087	22,598	-0,052	-0,031
-513,072	13,541	-0,079	-0,044
-512,058	376,352	-0,035	-0,052
-511,043	140,088	-0,052	0,049
-510,029	-200,000	0,008	0,096
-509,014	113,025	-0,130	0,113
-507,999	282,092	0,123	0,159
-506,985	99,871	-0,092	-0,077
-505,970	-184,841	-0,086	0,001
-504,956	564,905	-0,044	0,076
-503,941	-200,000	0,001	-0,090
-502,926	-46,093	-0,084	0,030
-501,912	-18,220	0,066	0,030
-500,897	-37,828	-0,013	-0,005
-499,883	-51,114	-0,036	0,012
-498,868	800,000	-0,066	-0,143
-497,853	800,000	-0,052	-0,126
-496,839	85,694	0,073	-0,058
-495,824	-93,601	0,026	0,005
-494,810	143,302	-0,124	0,119
-493,795	-200,000	0,043	0,172
-492,781	800,000	0,062	-0,127
-491,766	-14,091	0,059	0,027
-490,751	155,504	0,055	-0,055
-489,737	-200,000	-0,020	-0,155
-488,722	120,721	0,097	-0,087
-487,708	545,812	-0,009	0,016
-486,693	129,499	0,088	0,081
-485,678	218,516	-0,045	0,051
-484,664	52,779	0,028	-0,019
-483,649	800,000	-0,058	0,159
-482,635	-133,045	0,051	0,005
-481,620	800,000	0,049	0,121
-480,605	-200,000	-0,031	0,142
-479,591	432,014	0,037	-0,058
-478,576	-9,096	0,068	-0,033
-477,562	-73,054	-0,188	-0,049
-476,547	496,345	-0,054	-0,090
-475,532	-113,900	-0,057	0,008
-474,518	103,346	0,017	0,014
-473,503	800,000	-0,041	0,107
-472,489	143,975	0,044	0,042
-471,474	-200,000	0,005	0,127
-470,459	-200,000	0,026	-0,117
-469,445	-200,000	-0,009	-0,052
-468,430	145,878	0,037	0,036
-467,416	-200,000	0,003	0,014
-466,401	-200,000	-0,021	0,143
-465,386	-26,337	0,139	0,058
-464,372	133,075	0,100	-0,093
-463,357	-200,000	-0,027	-0,107
-462,343	139,075	-0,037	-0,035
-461,328	289,166	0,098	-0,129
-460,313	-39,040	0,099	-0,037
-459,299	136,006	-0,013	0,012
-458,284	293,466	0,056	0,073
-457,270	174,018	0,075	0,078
-456,255	-200,000	-0,029	0,094
-455,241	64,449	-0,138	-0,100
-454,226	35,604	-0,085	-0,054
-453,211	800,000	0,040	-0,092
-452,197	781,611	0,025	-0,050
-451,182	-139,668	-0,034	0,003
-450,168	494,767	0,045	-0,074
-449,153	-200,000	0,005	0,186
-448,138	-17,938	0,095	0,043
-447,124	-11,014	-0,114	-0,054
-446,109	47,627	0,052	0,035
-445,095	28,426	0,032	0,020
-444,080	9,834	0,069	0,038
-443,065	605,088	0,020	0,036
-442,051	634,902	-0,036	-0,066
-441,036	-200,000	-0,008	-0,056
-440,022	-176,095	-0,148	0,003
-439,007	142,178	-0,143	0,136
-437,992	-44,187	0,154	0,055
-436,978	685,974	0,054	-0,102
-435,963	-200,000	-0,017	0,095
-434,949	800,000	-0,048	-0,150
-433,934	800,000	-0,035	-0,086
-432,919	-61,778	-0,125	0,037
-431,905	169,117	-0,036	-0,037
-430,890	64,029	0,069	0,050
-429,876	345,174	0,072	0,102
-428,861	7,787	-0,059	-0,031
-427,846	-123,160	0,024	0,003
-426,832	159,578	-0,081	-0,081
-425,817	83,273	-0,083	-0,065
-424,803	-200,000	0,021	-0,220
-423,788	145,966	-0,049	0,048
-422,773	-75,224	-0,080	-0,020
-421,759	-60,086	0,042	0,013
-420,744	56,639	-0,081	0,057
-419,730	-200,000	-0,013	0,111
-418,715	-66,961	-0,209	-0,059
-417,701	800,000	0,058	0,151
-416,686	745,746	0,059	0,115
-415,671	464,917	0,023	-0,037
-414,657	-200,000	0,008	-0,097
-413,642	40,017	0,167	-0,107
-412,628	-200,000	-0,039	-0,129
-411,613	93,470	-0,141	-0,114
-410,598	-80,408	-0,076	-0,018
-409,584	448,268	-0,059	0,094
-408,569	-187,801	0,024	-0,000
-407,555	-74,881	-0,159	-0,041
-406,540	205,857	0,134	0,150
-405,525	-76,198	0,115	-0,029
-404,511	280,972	0,051	0,066
-403,496	133,977	0,065	-0,060
-402,482	-161,919	0,042	0,002
-401,467	-183,589	0,138	0,002
-400,452	18,459	-0,119	-0,068
-399,438	207,983	0,055	0,062
-398,423	-17,671	-0,017	0,008
-397,409	349,517	-0,035	-0,050
-396,394	-200,000	-0,004	-0,138
-395,379	-200,000	0,000	-0,020
-394,365	412,962	0,053	-0,081
-393,350	-200,000	-0,001	0,035
-392,336	-200,000	-0,004	0,097
-391,321	158,051	-0,060	0,060
-390,306	-20,483	0,055	0,024
-389,292	800,000	-0,051	-0,121
-388,277	135,378	-0,023	-0,021
-387,263	-102,325	0,151	-0,026
-386,248	261,541	-0,018	0,022
-385,233	198,574	0,030	-0,033
-384,219	-200,000	0,001	0,050
-383,204	101,220	-0,124	0,103
-382,190	-152,081	-0,036	0,002
-381,175	-126,648	-0,040	-0,004
-380,160	-200,000	-0,002	0,049
-379,146	-132,389	0,078	-0,007
-378,131	-76,040	-0,042	0,011
-377,117	-84,223	0,079	-0,018
-376,102	800,000	-0,033	-0,082
-375,088	347,786	-0,126	-0,178
-374,073	122,316	0,094	-0,084
-373,058	-156,975	0,186	0,008
-372,044	-139,429	0,097	0,007
-371,029	-39,249	0,077	0,029
-370,015	-16,643	-0,081	-0,037
-369,000	11,809	0,034	0,018
-367,985	-200,000	-0,007	-0,082
-366,971	129,527	0,106	-0,097
-365,956	-78,355	-0,127	-0,031
-364,942	20,999	0,131	-0,076
-363,927	-56,816	0,104	-0,033
-362,912	110,225	-0,121	-0,104
-361,898	-200,000	-0,004	0,126
-360,883	54,720	-0,014	-0,010
-359,869	514,486	-0,064	-0,107
-358,854	99,734	0,040	-0,033
-357,839	1,186	0,062	0,032
-356,825	68,822	0,070	-0,051
-355,810	-200,000	-0,031	0,152
-354,796	-200,000	-0,023	-0,075
-353,781	-200,000	-0,014	-0,115
-352,766	-97,316	-0,091	-0,017
-351,752	-38,458	0,049	0,019
-350,737	-124,559	0,142	0,016
-349,723	18,319	-0,131	0,075
-348,708	-108,604	0,039	0,006
-347,693	15,079	0,035	-0,019
-346,679	800,000	-0,053	-0,144
-345,664	800,000	-0,017	0,040
-344,650	333,892	0,017	-0,024
-343,635	170,385	0,029	-0,030
-342,620	-200,000	-0,018	0,086
-341,606	-200,000	0,019	-0,066
-340,591	-96,935	-0,130	0,024
-339,577	119,251	-0,034	-0,030
-338,562	-44,138	-0,045	-0,016
-337,548	297,851	0,039	-0,052
-336,533	603,260	0,018	0,033
-335,518	-200,000	-0,006	-0,038
-334,504	-200,000	0,031	0,110
-333,489	-1,307	0,027	0,013
-332,475	57,144	-0,159	-0,111
-331,460	-200,000	-0,009	-0,075
-330,445	-14,755	-0,059	-0,027
-329,431	-136,662	0,054	0,004
-328,416	237,780	-0,090	0,107
-327,402	53,391	0,159	-0,109
-326,387	24,889	-0,025	-0,015
-325,372	-200,000	-0,013	0,045
-324,358	91,671	0,019	-0,015
-323,343	800,000	-0,095	-0,199
-322,329	18,005	0,071	-0,040
-321,314	-200,000	-0,010	0,158
-320,299	78,911	0,038	-0,029
-319,285	-200,000	-0,022	-0,132
-318,270	573,576	-0,078	-0,136
-317,256	87,330	-0,110	0,087
-316,241	-200,000	0,017	0,067
-315,226	800,000	0,029	0,062
-314,212	282,850	0,051	0,065
-313,197	-160,315	-0,066	-0,002
-312,183	-130,631	0,179	0,017
-311,168	16,069	-0,085	0,048
-310,153	800,000	-0,054	-0,111
-309,139	44,952	0,044	0,029
-308,124	90,336	-0,030	-0,024
-307,110	505,338	0,063	0,106
-306,095	-54,258	-0,076	-0,024
-305,080	-200,000	0,040	0,144
-304,066	-184,111	-0,088	0,001
-303,051	800,000	-0,004	-0,009
-302,037	-200,000	-0,006	-0,028
-301,022	-183,645	-0,073	-0,001
-300,008	-200,000	-0,014	0,078
-298,993	-27,767	0,170	-0,070
-297,978	-200,000	-0,029	0,144
-296,964	-36,681	-0,139	-0,053
-295,949	184,109	-0,039	0,042
-294,935	-55,154	0,057	-0,018
-293,920	800,000	-0,029	0,066
-292,905	800,000	0,050	0,107
-291,891	125,608	0,140	0,126
-290,876	-200,000	-0,040	0,132
-289,862	325,473	-0,027	0,037
-288,847	24,874	-0,061	0,036
-287,832	11,027	-0,016	0,009
-286,818	-200,000	0,006	-0,104
-285,803	-163,582	0,080	0,003
-284,789	800,000	0,010	-0,021
-283,774	-144,314	0,065	-0,004
-282,759	32,262	-0,066	0,040
-281,745	175,307	-0,161	-0,167
-280,730	29,905	0,037	0,022
-279,716	-13,690	-0,055	0,025
-278,701	207,138	-0,060	-0,067
-277,686	542,082	0,048	0,082
-276,672	-200,000	0,000	0,060
-275,657	-109,400	-0,119	0,018
-274,643	15,054	0,137	-0,076
-273,628	-24,924	-0,083	-0,035
-272,613	277,893	0,009	0,012
-271,599	-200,000	-0,005	0,039
-270,584	-200,000	-0,004	0,169
-269,570	800,000	-0,039	0,108
-268,555	28,951	0,036	0,022
-267,540	61,693	-0,074	-0,052
-266,526	395,695	0,072	-0,108
-265,511	-168,959	0,060	-0,002
-264,497	13,027	0,129	0,071
-263,482	126,845	0,036	-0,033
-262,467	227,835	-0,032	-0,037
-261,453	396,200	-0,043	0,064
-260,438	-200,000	-0,018	0,073
-259,424	124,588	0,105	-0,095
-258,409	32,360	-0,060	0,037
-257,395	92,308	0,055	0,044
-256,380	-19,188	0,079	0,035
-255,365	-200,000	0,009	0,084
-254,351	696,155	0,093	0,176
-253,336	-106,467	-0,073	-0,012
-252,322	-200,000	0,008	-0,099
-251,307	-21,708	-0,075	-0,033
-250,292	-200,000	0,022	0,158
-249,278	62,529	0,114	0,081
-248,263	245,559	0,133	0,160
-247,249	587,694	-0,088	0,155
-246,234	-172,230	0,096	0,002
-245,219	386,655	0,058	0,086
-244,205	468,228	0,069	-0,111
-243,190	-200,000	-0,022	-0,200
-242,176	-200,000	-0,003	-0,043
-241,161	9,067	0,169	-0,091
-240,146	-200,000	-0,017	-0,080
-239,132	-200,000	-0,006	0,121
-238,117	-99,488	-0,070	-0,012
-237,103	800,000	0,051	-0,145
-236,088	234,360	0,136	-0,160
-235,073	342,371	-0,024	-0,034
-234,059	425,257	0,036	0,055
-233,044	-200,000	-0,010	0,055
-232,030	-200,000	0,015	-0,094
-231,015	237,850	0,031	-0,037
-230,000	-200,000	-0,011	0,040
-228,986	58,167	0,084	0,058
-227,971	-9,546	0,062	0,029
-226,957	145,765	0,044	0,042
-225,942	10,917	0,030	0,016
-224,927	800,000	0,058	0,140
-223,913	-200,000	-0,006	0,065
-222,898	800,000	-0,017	-0,045
-221,884	661,831	-0,071	0,131
-220,869	569,777	0,084	-0,147
-219,855	203,249	0,037	0,041
-218,840	800,000	0,042	0,125
-217,825	-145,911	0,076	-0,005
-216,811	-200,000	-0,012	-0,052
-215,796	45,845	-0,140	-0,092
-214,782	352,975	0,055	0,078
-213,767	-0,887	0,070	0,035
-212,752	400,480	-0,028	-0,041
-211,738	130,472	0,134	0,122
-210,723	-200,000	0,004	-0,037
-209,709	-66,871	-0,169	-0,047
-208,694	224,637	0,044	0,051
-207,679	-200,000	0,007	-0,039
-206,665	345,882	0,024	-0,033
-205,650	800,000	0,056	-0,144
-204,636	800,000	0,045	0,097
-203,621	100,192	0,065	0,053
-202,606	800,000	-0,042	-0,083
-201,592	-23,288	0,120	0,051
-200,577	800,000	-0,007	-0,018
-199,563	-103,821	0,255	0,042
-198,548	172,257	-0,045	0,046
-197,533	283,598	-0,038	0,049
-196,519	-200,000	0,000	0,037
-195,504	-67,684	-0,141	-0,039
-194,490	355,493	-0,033	-0,047
-193,475	35,753	-0,157	0,098
-192,460	703,387	-0,026	-0,050
-191,446	115,740	0,089	-0,077
-190,431	800,000	-0,009	0,026
-189,417	-200,000	0,009	0,071
-188,402	328,828	-0,029	-0,039
-187,387	-69,914	-0,062	-0,017
-186,373	800,000	-0,012	-0,033
-185,358	9,169	-0,136	-0,073
-184,344	-200,000	0,018	0,143
-183,329	-200,000	0,013	0,103
-182,315	8,319	-0,045	0,024
-181,300	581,112	0,068	0,120
-180,285	800,000	-0,049	-0,116
-179,271	-200,000	0,007	0,027
-178,256	800,000	-0,037	0,108
-177,242	800,000	-0,048	0,146
-176,227	800,000	0,041	0,092
-175,212	-200,000	-0,006	0,067
-174,198	-200,000	0,002	0,021
-173,183	186,094	-0,161	-0,171
-172,169	-200,000	0,074	0,000
-171,154	418,322	-0,036	-0,055
-170,139	-200,000	0,018	-0,095
-169,125	-200,000	0,001	-0,022
-168,110	774,179	-0,022	-0,042
-167,096	47,559	-0,085	-0,057
-166,081	-109,911	-0,119	-0,018
-165,066	-163,739	0,194	0,006
-164,052	12,880	0,059	-0,032
-163,037	175,023	0,073	0,075
-162,023	254,506	-0,020	0,024
-161,008	218,510	0,066	0,075
-159,993	-200,000	0,000	0,040
-158,979	187,688	-0,072	0,076
-157,964	334,071	-0,028	-0,038
-156,950	-200,000	0,002	0,021
-155,935	341,049	-0,053	0,074
-154,920	38,364	0,059	0,037
-153,906	44,065	0,135	0,088
-152,891	323,783	-0,019	-0,026
-151,877	10,916	-0,102	-0,055
-150,862	800,000	-0,016	0,042
-149,847	575,928	-0,078	-0,136
-148,833	800,000	-0,044	0,138
-147,818	-200,000	-0,053	0,174
-146,804	-200,000	-0,007	-0,026
-145,789	-31,201	0,186	-0,074
-144,775	-137,788	0,122	-0,010
-143,760	423,362	-0,026	-0,040
-142,745	-200,000	-0,012	-0,048
-141,731	355,305	-0,075	-0,106
-140,716	-113,324	-0,054	0,007
-139,702	-148,525	-0,048	-0,003
-138,687	800,000	0,020	-0,046
-137,672	11,015	0,026	-0,014
-136,658	-9,641	-0,071	-0,034
-135,643	51,573	-0,108	-0,073
-134,629	800,000	0,020	-0,050
-133,614	67,654	-0,057	-0,042
-132,599	-200,000	-0,009	-0,054
-131,585	252,510	0,089	-0,108
-130,570	33,152	-0,044	-0,027
-129,556	624,631	-0,054	-0,096
-128,541	-200,000	0,110	0,000
-127,526	253,128	0,018	0,022
-126,512	188,130	0,093	0,099
-125,497	-200,000	-0,004	0,022
-124,483	190,005	0,040	-0,043
-123,468	800,000	-0,034	-0,092
-122,453	15,993	-0,095	0,053
-121,439	512,109	0,003	-0,005
-120,424	-200,000	0,003	0,081
-119,410	800,000	0,006	-0,018
-118,395	-200,000	-0,004	0,163
-117,380	69,218	0,083	0,061
-116,366	-168,710	-0,074	0,002
-115,351	202,335	-0,099	-0,108
-114,337	-200,000	0,026	-0,106
-113,322	85,177	-0,063	-0,049
-112,307	137,430	-0,093	-0,087
-111,293	-200,000	-0,015	-0,064
-110,278	110,006	0,098	0,083
-109,264	9,282	-0,069	0,037
-108,249	-47,863	-0,075	0,026
-107,234	673,961	-0,028	0,052
-106,220	215,349	0,090	-0,101
-105,205	376,040	-0,109	-0,159
-104,191	54,781	0,095	-0,065
-103,176	52,333	-0,030	0,020
-102,162	314,984	-0,036	-0,049
-101,147	-200,000	0,010	-0,150
-100,132	-200,000	0,019	-0,094
-99,118	86,364	-0,078	0,061
-98,103	5,297	-0,135	-0,070
-97,089	156,523	-0,078	-0,076
-96,074	800,000	0,024	0,060
-95,059	-200,000	0,006	0,041
-94,045	-31,131	-0,132	-0,052
-93,030	-200,000	-0,010	-0,161
-92,016	-200,000	-0,010	-0,166
-91,001	-200,000	0,023	-0,137
-89,986	-101,926	0,040	0,007
-88,972	800,000	-0,030	0,073
-87,957	317,641	-0,068	-0,092
-86,943	-200,000	0,004	0,039
-85,928	-200,000	0,025	-0,093
-84,913	-101,982	0,110	-0,019
-83,899	-128,049	-0,152	0,015
-82,884	-200,000	-0,004	0,155
-81,870	-200,000	0,002	0,118
-80,855	-101,849	0,098	-0,017
-79,840	140,751	-0,054	0,050
-78,826	-200,000	0,036	-0,130
-77,811	151,019	-0,096	-0,092
-76,797	-26,253	-0,023	-0,010
-75,782	800,000	-0,036	0,082
-74,767	-200,000	-0,008	0,067
-73,753	663,047	-0,060	0,109
-72,738	592,475	0,052	0,091
-71,724	-68,636	-0,095	-0,026
-70,709	61,963	-0,131	0,092
-69,694	-145,422	0,045	-0,003
-68,680	28,633	0,040	0,024
-67,665	131,409	-0,010	0,009
-66,651	-22,578	0,060	0,026
-65,636	-72,587	0,111	0,029
-64,622	82,214	-0,058	0,044
-63,607	-141,614	-0,178	-0,013
-62,592	-157,088	-0,119	-0,005
-61,578	130,197	0,064	0,058
-60,563	-200,000	0,015	0,227
-59,549	-200,000	0,015	0,074
-58,534	-23,823	-1,596	-0,674
-57,519	377,455	-1,388	-2,016
-56,505	-200,000	-0,541	-4,478
-55,490	267,230	1,015	1,261
-54,476	800,000	4,778	11,113
-53,461	-200,000	19,111	319,504
-52,446	-200,000	740,688	2336,672
-51,432	574,389	1655,939	2873,507
-50,417	78,527	1671,544	1264,152
-49,403	21,480	1544,516	887,351
-48,388	15,389	1466,851	813,089
-47,373	17,941	1457,186	820,044
-46,359	16,777	1446,886	808,630
-45,344	13,641	1442,448	791,082
-44,330	13,490	1440,440	789,226
-43,315	13,533	1438,865	788,537
-42,300	13,569	1437,005	787,657
-41,286	13,593	1435,879	787,126
-40,271	13,530	1434,552	786,068
-39,257	13,534	1433,220	785,323
-38,242	13,585	1432,003	784,869
-37,227	13,616	1430,800	784,326
-36,213	13,582	1429,604	783,478
-35,198	13,585	1428,289	782,740
-34,184	13,636	1427,436	782,484
-33,169	13,609	1425,925	781,497
-32,154	13,598	1424,858	780,827
-31,140	13,612	1423,622	780,189
-30,125	13,627	1422,528	779,630
-29,111	13,580	1421,450	778,784
-28,096	13,614	1420,182	778,217
-27,082	13,508	1419,376	777,247
-26,067	13,561	1418,215	776,829
-25,052	13,536	1416,916	775,971
-24,038	13,484	1416,330	775,374
-23,023	13,503	1415,034	774,720
-22,009	13,479	1414,103	774,066
-20,994	13,502	1413,118	773,607
-19,979	13,464	1412,471	773,043
-18,965	13,482	1411,370	772,493
-17,950	13,452	1410,521	771,860
-16,936	13,484	1409,508	771,422
-15,921	13,487	1408,257	770,721
-14,906	13,441	1407,501	770,061
-13,892	13,468	1406,365	769,534
-12,877	13,438	1405,811	769,061
-11,863	13,443	1404,774	768,488
-10,848	13,469	1403,703	767,992
-9,833	13,410	1402,898	767,246
-8,819	13,374	1402,124	766,624
-7,804	13,368	1400,990	765,945
-6,790	13,351	1400,071	765,333
-5,775	13,377	1399,051	764,868
-4,760	13,372	1398,255	764,380
-3,746	13,288	1397,546	763,572
-2,731	13,390	1396,326	763,348
-1,717	13,333	1395,416	762,556
-0,702	13,352	1393,546	761,591
0,313	17,151	1310,651	733,916
1,327	33,450	703,819	431,799
2,342	51,549	123,245	82,787
3,356	-1,618	16,736	8,319
4,371	4,744	3,159	1,638
5,386	-96,749	0,531	0,098
6,400	-200,000	0,024	0,132
7,415	22,160	-0,222	-0,128
8,429	-60,518	-0,334	-0,100
9,444	-26,405	-0,293	-0,121
10,459	25,569	-0,360	-0,212
11,473	-106,410	-0,255	-0,040
12,488	108,677	-0,188	-0,158
13,502	361,362	-0,206	-0,292
14,517	-2,505	-0,440	-0,217
15,531	67,661	-0,359	-0,259
16,546	175,511	-0,313	-0,321
17,561	134,039	-0,424	-0,389
18,575	106,737	-0,216	-0,181
19,590	78,246	-0,200	-0,151
20,604	23,918	-0,265	-0,154
21,619	49,546	-0,455	-0,302
22,634	79,191	-0,352	-0,266
23,648	163,750	-0,384	-0,382
24,663	120,569	-0,421	-0,370
25,677	21,948	-0,425	-0,244
26,692	48,930	-0,397	-0,263
27,707	349,591	-0,263	-0,368
28,721	-10,198	-0,460	-0,215
29,736	147,647	-0,298	-0,284
30,750	175,334	-0,279	-0,286
31,765	164,417	-0,367	-0,365
32,780	157,931	-0,387	-0,379
33,794	264,837	-0,239	-0,294
34,809	-8,696	-0,354	-0,167
35,823	17,282	-0,387	-0,216
36,838	69,583	-0,488	-0,355
37,853	89,873	-0,318	-0,251
38,867	51,572	-0,387	-0,259
39,882	70,493	-0,248	-0,180
40,896	42,353	-0,331	-0,212
41,911	40,977	-0,373	-0,237
42,926	281,386	-0,271	-0,343
43,940	-10,644	-0,412	-0,191
44,955	149,264	-0,281	-0,269
45,969	-38,310	-0,344	-0,128
46,984	25,096	-0,280	-0,164
47,999	88,864	-0,226	-0,177
49,013	31,358	-0,347	-0,210
50,028	-35,012	-0,267	-0,102
51,042	3,921	-0,502	-0,258
52,057	178,185	-0,366	-0,377
53,071	146,260	-0,322	-0,305
54,086	249,559	-0,196	-0,234
55,101	79,577	-0,289	-0,218
56,115	200,474	-0,293	-0,317
57,130	28,557	-0,465	-0,276
58,144	86,323	-0,343	-0,266
59,159	233,120	-0,308	-0,358
60,174	3,194	-0,407	-0,208
61,188	99,888	-0,259	-0,211
62,203	182,905	-0,251	-0,262
63,217	331,955	-0,204	-0,279
64,232	42,151	-0,334	-0,213
65,247	256,697	-0,287	-0,348
66,261	130,628	-0,308	-0,278
67,276	210,472	-0,327	-0,361
68,290	64,929	-0,271	-0,192
69,305	36,033	-0,270	-0,167
70,320	30,280	-0,391	-0,235
71,334	110,266	-0,222	-0,188
72,349	26,400	-0,301	-0,177
73,363	226,834	-0,234	-0,268
74,378	22,666	-0,305	-0,175
75,393	4,476	-0,402	-0,207
76,407	156,851	-0,253	-0,246
77,422	38,084	-0,353	-0,220
78,436	55,827	-0,401	-0,273
79,451	-49,396	-0,328	-0,109
80,466	-14,964	-0,275	-0,124
81,480	55,537	-0,286	-0,194
82,495	-21,821	-0,198	-0,084
83,509	130,209	-0,289	-0,260
84,524	188,641	-0,214	-0,226
85,539	123,218	-0,277	-0,244
86,553	196,101	-0,233	-0,249
87,568	139,234	-0,350	-0,323
88,582	-14,510	-0,339	-0,152
89,597	11,379	-0,186	-0,100
90,611	304,752	-0,213	-0,278
91,626	-5,160	-0,286	-0,138
92,641	99,965	-0,193	-0,157
93,655	-24,986	-0,419	-0,174
94,670	50,728	-0,358	-0,237
95,684	289,243	-0,265	-0,338
96,699	-51,255	-0,292	-0,095
97,714	-8,595	-0,270	-0,127
98,728	395,667	-0,153	-0,225
99,743	64,436	-0,270	-0,191
100,757	-36,981	-0,265	-0,099
101,772	-77,214	-0,417	-0,101
102,787	130,110	-0,303	-0,272
103,801	396,513	-0,193	-0,284
104,816	221,366	-0,200	-0,226
105,830	-6,972	-0,350	-0,166
106,845	233,665	-0,179	-0,207
107,860	65,600	-0,257	-0,182
108,874	31,037	-0,193	-0,116
109,889	-75,193	-0,358	-0,089
110,903	-7,270	-0,224	-0,106
111,918	39,177	-0,244	-0,153
112,933	64,465	-0,161	-0,113
113,947	55,341	-0,185	-0,125
114,962	159,630	-0,221	-0,215
115,976	11,043	-0,211	-0,113
116,991	-0,764	-0,252	-0,125
118,006	35,601	-0,246	-0,151
119,020	31,047	-0,313	-0,187
120,035	121,928	-0,299	-0,262
121,049	54,033	-0,195	-0,131
122,064	156,933	-0,111	-0,107
123,079	616,401	-0,139	-0,245
124,093	158,202	-0,317	-0,308
125,108	53,328	-0,189	-0,127
126,122	12,044	-0,284	-0,153
127,137	-160,009	-0,225	-0,008
128,151	197,519	-0,138	-0,147
129,166	800,000	-0,050	-0,122
130,181	235,565	-0,144	-0,167
131,195	102,580	-0,231	-0,189
132,210	288,997	-0,208	-0,265
133,224	304,884	-0,205	-0,267
134,239	800,000	-0,121	-0,305
135,254	-16,159	-0,198	-0,088
136,268	111,642	-0,136	-0,115
137,283	-36,329	-0,217	-0,082
138,297	15,839	-0,331	-0,181
139,312	28,876	-0,300	-0,178
140,327	96,145	-0,206	-0,165
141,341	-33,099	-0,323	-0,125
142,356	17,752	-0,337	-0,187
143,370	36,253	-0,185	-0,114
144,385	49,428	-0,203	-0,133
145,400	412,255	-0,146	-0,218
146,414	-12,242	-0,258	-0,118
147,429	196,405	-0,184	-0,196
148,443	171,655	-0,242	-0,243
149,458	151,204	-0,229	-0,218
150,473	235,773	-0,188	-0,217
151,487	800,000	-0,172	-0,362
152,502	427,630	-0,195	-0,295
153,516	46,441	-0,311	-0,201
154,531	86,712	-0,454	-0,350
155,546	-28,858	-0,207	-0,083
156,560	76,245	-0,228	-0,168
157,575	-22,208	-0,346	-0,146
158,589	-17,234	-0,352	-0,154
159,604	-118,201	-0,199	-0,025
160,619	241,294	-0,249	-0,291
161,633	800,000	-0,106	-0,215
162,648	8,342	-0,192	-0,100
163,662	800,000	-0,131	-0,325
164,677	0,105	-0,225	-0,112
165,692	112,509	-0,268	-0,226
166,706	25,680	-0,253	-0,147
167,721	267,076	-0,128	-0,157
168,735	189,114	-0,175	-0,183
169,750	14,837	-0,282	-0,154
170,764	10,841	-0,144	-0,076
171,779	512,259	-0,152	-0,249
172,794	14,029	-0,332	-0,180
173,808	144,324	-0,177	-0,164
174,823	-72,104	-0,338	-0,087
175,837	5,321	-0,442	-0,227
176,852	800,000	-0,151	-0,308
177,867	-200,000	-0,034	-0,122
178,881	483,507	-0,144	-0,229
179,896	-122,883	-0,264	0,029
180,910	-3,986	-0,239	-0,115
181,925	-0,037	-0,288	-0,142
182,940	119,523	-0,220	-0,190
183,954	117,211	-0,267	-0,228
184,969	-26,480	-0,258	-0,105
185,983	-99,290	-0,207	-0,036
186,998	11,174	-0,254	-0,135
188,013	181,428	-0,151	-0,155
189,027	-23,343	-0,258	-0,108
190,042	71,668	-0,263	-0,190
191,056	35,613	-0,202	-0,123
192,071	26,153	-0,218	-0,126
193,086	-21,415	-0,160	-0,068
194,100	76,415	-0,119	-0,088
195,115	-87,358	-0,203	-0,042
196,129	40,714	-0,188	-0,118
197,144	7,196	-0,235	-0,122
198,159	101,736	-0,217	-0,176
199,173	70,511	-0,312	-0,224
200,188	800,000	-0,087	-0,243
201,202	-52,991	-0,177	0,056
202,217	122,017	-0,140	-0,121
203,232	31,232	-0,205	-0,122
204,246	-94,006	-0,273	-0,052
205,261	94,601	-0,270	-0,213
206,275	-61,696	-0,171	-0,049
207,290	59,377	-0,203	-0,139
208,304	250,237	-0,212	-0,250
209,319	800,000	-0,053	-0,154
210,334	231,968	-0,166	-0,189
211,348	54,892	-0,164	-0,110
212,363	61,458	-0,260	-0,180
213,377	-42,920	-0,142	-0,050
214,392	62,070	-0,157	-0,109
215,407	347,234	-0,113	-0,154
216,421	183,007	-0,064	-0,066
217,436	-14,392	-0,205	-0,092
218,450	63,338	-0,203	-0,141
219,465	800,000	-0,086	-0,217
220,480	589,988	-0,099	-0,171
221,494	253,306	-0,181	-0,214
222,509	24,250	-0,224	-0,128
223,523	164,994	-0,147	-0,144
224,538	60,904	-0,210	-0,145
225,553	131,782	-0,127	-0,113
226,567	6,220	-0,248	-0,127
227,582	514,634	-0,129	-0,209
228,596	-68,243	-0,105	-0,028
229,611	-43,731	-0,302	-0,105
230,626	-57,016	-0,235	-0,072
231,640	45,934	-0,036	-0,023
232,655	343,676	-0,181	-0,246
233,669	100,935	-0,268	-0,216
234,684	24,979	-0,355	-0,204
235,699	35,647	-0,184	-0,112
236,713	800,000	-0,034	-0,097
237,728	138,617	-0,147	-0,134
238,742	34,192	-0,252	0,152
239,757	-143,005	-0,094	0,006
240,772	299,356	-0,226	-0,290
241,786	144,467	-0,198	-0,183
242,801	38,109	-0,210	-0,129
243,815	-26,827	-0,208	-0,084
244,830	-121,645	-0,172	-0,020
245,844	-65,565	-0,171	-0,047
246,859	-49,480	-0,096	0,031
247,874	716,291	-0,134	-0,248
248,888	-75,142	-0,199	-0,049
249,903	71,055	-0,114	-0,082
250,917	-12,577	-0,090	-0,041
251,932	-44,249	-0,224	-0,077
252,947	-16,900	-0,274	-0,120
253,961	187,977	-0,276	-0,286
254,976	118,725	-0,140	-0,120
255,990	551,963	-0,177	-0,295
257,005	49,516	-0,179	-0,116
258,020	-154,756	-0,130	0,006
259,034	63,249	-0,039	0,027
260,049	114,806	-0,126	-0,106
261,063	-200,000	-0,049	-0,185
262,078	-118,275	-0,202	-0,025
263,093	238,731	-0,122	-0,140
264,107	292,915	-0,119	-0,151
265,122	172,482	-0,164	-0,163
266,136	-195,601	-0,079	-0,000
267,151	494,477	-0,104	-0,166
268,166	-13,090	-0,203	-0,091
269,180	309,306	-0,228	-0,296
270,195	106,642	-0,179	-0,147
271,209	98,934	-0,178	-0,142
272,224	130,637	-0,089	-0,079
273,239	-18,866	-0,233	-0,100
274,253	800,000	-0,037	-0,075
275,268	382,528	-0,078	-0,112
276,282	-200,000	-0,226	-0,000
277,297	-7,805	-0,311	-0,144
278,312	48,865	-0,211	-0,137
279,326	-12,767	-0,191	-0,086
280,341	-200,000	0,031	-0,141
281,355	347,403	-0,108	-0,147
282,370	100,762	-0,123	-0,099
283,384	2,884	-0,282	-0,141
284,399	163,553	-0,138	-0,134
285,414	52,939	-0,216	-0,142
286,428	-200,000	-0,042	-0,197
287,443	-64,419	-0,215	-0,060
288,457	21,087	-0,119	-0,066
289,472	159,604	-0,110	-0,106
290,487	-104,843	-0,151	-0,024
291,501	373,455	-0,149	-0,209
292,516	415,932	-0,094	-0,139
293,530	-33,648	-0,190	-0,072
294,545	366,840	-0,105	-0,147
295,560	250,240	-0,095	-0,112
296,574	-56,726	-0,069	-0,021
297,589	-70,997	-0,164	-0,042
298,603	161,642	-0,168	-0,162
299,618	282,563	-0,147	-0,183
300,633	542,295	-0,148	-0,245
301,647	-127,191	-0,058	-0,006
302,662	-86,580	-0,266	-0,056
303,676	51,839	-0,148	-0,097
304,691	209,196	-0,173	-0,187
305,706	-6,006	-0,162	-0,076
306,720	40,250	-0,191	-0,118
307,735	260,170	-0,118	-0,141
308,749	157,721	-0,104	-0,099
309,764	160,812	-0,179	-0,172
310,779	800,000	-0,068	-0,171
311,793	800,000	-0,094	-0,191
312,808	800,000	-0,077	-0,230
313,822	-200,000	-0,055	-0,219
314,837	-155,851	-0,074	-0,003
315,852	47,663	-0,291	-0,187
316,866	356,895	-0,167	-0,231
317,881	-200,000	-0,016	-0,165
318,895	800,000	-0,077	-0,197
319,910	188,558	-0,107	-0,110
320,925	61,838	-0,172	-0,118
321,939	0,415	-0,104	-0,051
322,954	330,714	-0,139	-0,185
323,968	263,332	-0,032	-0,038
324,983	-200,000	-0,040	-0,237
325,997	31,047	-0,074	-0,044
327,012	-200,000	-0,040	-0,129
328,027	124,139	-0,185	-0,160
329,041	800,000	-0,083	-0,216
330,056	-200,000	0,018	-0,098
331,070	-35,946	-0,144	-0,053
332,085	385,224	-0,069	-0,098
333,100	466,093	-0,046	-0,071
334,114	380,111	-0,114	-0,161
335,129	-200,000	-0,031	-0,114
336,143	-200,000	-0,030	-0,175
337,158	-35,635	-0,029	-0,011
338,173	800,000	-0,010	-0,026
339,187	800,000	-0,096	-0,224
340,202	100,588	-0,103	-0,082
341,216	698,568	-0,139	-0,252
342,231	353,339	-0,108	-0,147
343,246	284,141	-0,104	-0,129
344,260	475,429	-0,037	-0,057
345,275	18,795	-0,077	0,042
346,289	-32,572	-0,059	-0,022
347,304	27,954	-0,266	-0,154
348,319	106,707	-0,199	-0,162
349,333	800,000	-0,091	-0,180
350,348	-92,343	-0,234	-0,045
351,362	24,153	-0,088	-0,050
352,377	-200,000	-0,036	-0,256
353,392	125,567	-0,124	-0,107
354,406	741,914	-0,055	-0,102
355,421	208,534	1315,126	1413,447
356,435	160,462	1475,898	1413,943
