DTS Sentinel unit serial number:	SN410029Multiplexer serial number:	ORYXHardware model number:	OX2-SRSoftware version number:	ORYX F/W v4,00 Oryx Data Collector v3.7.2.0data status	okinstallation	B3 Nyhavnadifferential loss correction	single-endedforward channel	channel 1reverse channel	N/Adate	2023/11/30time	20:47:30forward acquisition time	300,00reverse acquisition time	0,00gamma	499,1914k internal	0,3209k external	0,3209temperature offset calibration	1,0000default loss term (dB/km)	0,3820temperature slope calibration	1,0000multiplexer offset coefficient	1,0000multiplexer slope coefficient	1,0000fibre end	0,00T internal ref (°C)	11,04T ext. ref 1 (°C)	-4,34T ext. ref 2 (°C)	-4,46length (m)	temperature (°C)	Stokes	anti-Stokes-744,400	136,792	-0,264	-0,250
-743,385	800,000	0,060	0,177
-742,371	563,120	-0,102	-0,179
-741,356	-200,000	-0,005	0,315
-740,342	3,437	-0,208	-0,110
-739,327	-200,000	-0,020	0,249
-738,312	286,756	-0,132	-0,173
-737,298	800,000	-0,149	0,317
-736,283	77,611	-0,183	-0,141
-735,269	-200,000	0,002	0,248
-734,254	240,004	-0,120	-0,146
-733,239	-20,059	-0,234	0,104
-732,225	-200,000	-0,017	-0,249
-731,210	594,189	0,099	0,179
-730,196	594,018	0,012	0,021
-729,181	28,526	0,046	-0,028
-728,167	-200,000	0,035	-0,162
-727,152	-111,717	0,046	-0,007
-726,137	-117,054	-0,189	0,025
-725,123	-24,326	-0,052	-0,023
-724,108	800,000	-0,034	-0,081
-723,094	34,907	-0,137	-0,087
-722,079	-200,000	0,010	-0,079
-721,064	-103,782	-0,231	0,039
-720,050	464,977	-0,059	-0,095
-719,035	-76,470	-0,058	0,015
-718,021	-200,000	-0,030	0,095
-717,006	665,344	0,031	0,058
-715,991	44,592	-0,047	-0,031
-714,977	103,110	-0,100	-0,085
-713,962	78,863	0,048	-0,037
-712,948	308,250	0,051	0,069
-711,933	142,394	-0,079	0,076
-710,918	52,940	-0,038	-0,026
-709,904	-200,000	0,033	-0,107
-708,889	-200,000	-0,005	0,030
-707,875	-81,885	-0,240	0,056
-706,860	-56,168	0,109	0,035
-705,845	-200,000	0,029	0,000
-704,831	-125,383	-0,119	-0,013
-703,816	137,575	0,111	0,106
-702,802	520,167	-0,058	-0,098
-701,787	800,000	-0,057	-0,122
-700,772	-61,041	-0,040	-0,012
-699,758	-43,840	-0,113	-0,041
-698,743	-200,000	0,028	0,160
-697,729	-140,256	0,103	-0,008
-696,714	295,546	-0,039	0,052
-695,699	-200,000	-0,014	-0,121
-694,685	129,125	0,058	-0,054
-693,670	-16,592	0,032	-0,015
-692,656	328,720	0,067	-0,094
-691,641	800,000	-0,039	-0,087
-690,627	-142,350	0,122	-0,009
-689,612	800,000	0,029	0,068
-688,597	-94,890	-0,060	-0,012
-687,583	800,000	-0,026	-0,065
-686,568	-72,177	-0,164	-0,044
-685,554	49,967	-0,057	0,039
-684,539	-200,000	0,014	-0,051
-683,524	21,470	-0,100	0,059
-682,510	800,000	-0,016	-0,048
-681,495	-200,000	-0,026	-0,130
-680,481	-38,670	-0,040	0,015
-679,466	-97,465	-0,074	-0,014
-678,451	-21,444	-0,146	-0,064
-677,437	-200,000	-0,015	0,053
-676,422	59,045	-0,072	0,051
-675,408	-200,000	-0,024	0,091
-674,393	128,359	-0,055	-0,050
-673,378	-89,512	-0,092	0,019
-672,364	-200,000	0,014	-0,157
-671,349	152,185	-0,126	-0,124
-670,335	544,802	-0,019	0,033
-669,320	227,202	0,064	0,075
-668,305	-95,142	0,086	0,017
-667,291	800,000	0,027	-0,064
-666,276	-63,543	-0,063	-0,019
-665,262	-112,287	-0,160	0,023
-664,247	786,324	-0,018	0,036
-663,232	189,094	0,023	0,025
-662,218	255,891	-0,067	0,084
-661,203	-18,094	-0,033	-0,015
-660,189	62,231	0,081	-0,058
-659,174	457,021	0,009	0,015
-658,159	-200,000	0,034	0,112
-657,145	-105,128	-0,050	-0,008
-656,130	25,793	0,031	0,019
-655,116	-200,000	0,013	0,244
-654,101	117,400	0,074	0,066
-653,086	-200,000	0,001	-0,024
-652,072	356,157	-0,097	-0,140
-651,057	-51,333	-0,160	-0,054
-650,043	-150,149	0,089	-0,005
-649,028	440,383	-0,036	-0,058
-648,014	48,033	-0,172	-0,116
-646,999	-200,000	-0,002	-0,016
-645,984	-28,219	-0,134	0,056
-644,970	-200,000	-0,008	0,189
-643,955	-200,000	0,000	-0,082
-642,941	-66,155	-0,058	0,017
-641,926	154,501	-0,049	0,048
-640,911	197,259	-0,011	0,012
-639,897	98,220	-0,092	0,077
-638,882	800,000	-0,055	0,145
-637,868	533,238	0,044	-0,076
-636,853	57,115	-0,044	0,031
-635,838	-25,796	0,076	-0,032
-634,824	800,000	-0,031	0,071
-633,809	219,325	-0,016	-0,018
-632,795	29,275	-0,021	-0,013
-631,780	152,498	0,070	0,069
-630,765	-84,610	0,084	-0,019
-629,751	-53,863	-0,082	0,027
-628,736	-200,000	0,007	-0,161
-627,722	-200,000	-0,030	-0,114
-626,707	111,002	-0,111	0,097
-625,692	-17,056	0,136	0,062
-624,678	800,000	0,013	0,029
-623,663	800,000	-0,046	0,123
-622,649	-200,000	-0,027	-0,166
-621,634	-133,751	-0,109	-0,010
-620,619	-120,434	0,073	0,009
-619,605	-200,000	-0,007	-0,070
-618,590	-24,992	0,122	-0,052
-617,576	-200,000	-0,009	0,046
-616,561	30,371	0,084	0,051
-615,546	-79,784	0,019	-0,005
-614,532	100,862	-0,075	0,063
-613,517	800,000	0,014	0,044
-612,503	2,168	0,076	0,039
-611,488	119,400	-0,035	-0,031
-610,474	429,664	-0,008	-0,012
-609,459	-29,171	0,058	-0,024
-608,444	564,501	-0,111	-0,195
-607,430	-57,327	-0,133	0,042
-606,415	761,265	0,012	0,024
-605,401	-86,081	0,071	0,016
-604,386	-140,560	0,017	0,001
-603,371	-200,000	-0,004	-0,016
-602,357	-82,034	-0,106	-0,025
-601,342	-92,343	-0,062	-0,013
-600,328	-113,234	-0,124	-0,017
-599,313	-2,369	-0,047	0,024
-598,298	800,000	-0,066	-0,151
-597,284	-200,000	-0,018	0,183
-596,269	672,816	0,033	-0,063
-595,255	105,760	-0,007	-0,006
-594,240	208,855	0,036	0,040
-593,225	110,123	-0,076	-0,066
-592,211	-200,000	-0,008	0,082
-591,196	390,846	0,039	-0,059
-590,182	-99,868	0,117	0,021
-589,167	28,255	0,068	0,042
-588,152	667,765	-0,057	-0,106
-587,138	446,649	0,025	0,040
-586,123	-200,000	0,009	0,030
-585,109	0,097	-0,156	-0,080
-584,094	800,000	0,034	-0,102
-583,079	736,665	-0,040	-0,078
-582,065	76,787	-0,033	0,025
-581,050	331,864	-0,100	0,140
-580,036	-111,583	-0,090	0,013
-579,021	-84,726	-0,043	-0,010
-578,006	346,131	0,052	0,074
-576,992	-87,513	-0,142	-0,031
-575,977	-72,721	0,117	0,031
-574,963	105,055	0,038	0,033
-573,948	800,000	-0,052	0,118
-572,934	-200,000	0,010	0,094
-571,919	800,000	-0,064	-0,131
-570,904	-200,000	0,020	0,069
-569,890	-10,280	0,072	-0,034
-568,875	-68,563	-0,061	-0,017
-567,861	215,587	-0,109	0,125
-566,846	-13,280	0,047	-0,022
-565,831	88,888	-0,110	-0,088
-564,817	236,998	-0,068	-0,081
-563,802	-200,000	-0,000	-0,052
-562,788	153,566	0,042	-0,041
-561,773	800,000	0,022	-0,059
-560,758	5,587	0,048	-0,026
-559,744	-90,275	0,082	0,017
-558,729	800,000	-0,028	-0,082
-557,715	-200,000	0,001	0,050
-556,700	-200,000	-0,003	-0,093
-555,685	-108,987	-0,129	-0,020
-554,671	34,785	0,035	-0,022
-553,656	438,092	0,066	-0,104
-552,642	-17,873	-0,053	0,024
-551,627	-70,980	0,071	0,019
-550,612	-157,349	-0,048	0,002
-549,598	-200,000	0,004	-0,019
-548,583	-131,197	-0,130	0,012
-547,569	-132,232	0,121	-0,011
-546,554	800,000	0,076	-0,161
-545,539	79,099	0,116	-0,089
-544,525	800,000	-0,056	0,119
-543,510	-200,000	0,010	-0,046
-542,496	237,634	0,087	-0,104
-541,481	800,000	-0,018	0,050
-540,466	-200,000	0,026	-0,096
-539,452	-200,000	0,011	0,066
-538,437	128,170	0,072	-0,066
-537,423	-200,000	-0,024	-0,179
-536,408	-200,000	-0,006	-0,058
-535,393	-21,517	-0,102	-0,045
-534,379	-108,022	-0,023	-0,004
-533,364	216,799	0,036	0,041
-532,350	800,000	0,069	0,139
-531,335	-200,000	0,009	-0,160
-530,321	772,822	-0,029	-0,056
-529,306	-105,336	-0,081	0,013
-528,291	125,705	-0,077	-0,070
-527,277	-123,107	-0,096	0,011
-526,262	800,000	0,019	-0,042
-525,248	697,860	-0,056	-0,107
-524,233	4,304	-0,173	-0,091
-523,218	10,381	0,059	0,032
-522,204	-106,344	0,018	0,003
-521,189	56,907	-0,117	-0,082
-520,175	270,109	-0,021	-0,027
-519,160	99,804	0,071	-0,060
-518,145	27,338	0,191	-0,115
-517,131	800,000	-0,034	0,070
-516,116	-110,029	0,102	-0,015
-515,102	-124,695	-0,102	0,011
-514,087	-29,458	0,057	0,023
-513,072	-200,000	-0,011	-0,079
-512,058	208,485	0,088	0,099
-511,043	-122,673	-0,097	-0,011
-510,029	-200,000	0,020	0,065
-509,014	800,000	0,016	0,035
-507,999	83,168	-0,067	0,052
-506,985	800,000	0,034	0,082
-505,970	513,437	-0,049	0,082
-504,956	165,888	0,014	-0,014
-503,941	799,395	-0,068	-0,136
-502,926	482,077	0,090	0,148
-501,912	800,000	0,025	-0,055
-500,897	800,000	0,044	0,097
-499,883	-122,152	-0,106	0,012
-498,868	-200,000	-0,008	-0,027
-497,853	-140,876	-0,075	0,005
-496,839	107,582	0,091	-0,078
-495,824	800,000	-0,053	0,109
-494,810	-200,000	-0,029	0,100
-493,795	45,450	-0,123	0,081
-492,781	191,932	-0,117	0,127
-491,766	-200,000	-0,003	-0,042
-490,751	178,601	-0,094	-0,098
-489,737	-200,000	0,022	-0,101
-488,722	-19,987	0,121	0,053
-487,708	370,093	-0,042	0,061
-486,693	249,631	0,013	0,016
-485,678	271,414	-0,066	0,084
-484,664	800,000	-0,022	-0,050
-483,649	37,064	-0,045	-0,028
-482,635	-200,000	0,004	-0,094
-481,620	72,878	0,047	0,035
-480,605	-106,062	0,076	-0,012
-479,591	516,446	-0,041	0,069
-478,576	800,000	0,073	-0,148
-477,562	-62,032	-0,095	-0,028
-476,547	22,784	-0,089	0,052
-475,532	800,000	-0,037	0,106
-474,518	18,343	-0,095	-0,055
-473,503	457,459	0,033	0,053
-472,489	218,865	-0,061	-0,070
-471,474	-16,492	-0,084	0,038
-470,459	-145,727	0,041	-0,003
-469,445	800,000	-0,008	0,022
-468,430	100,920	-0,074	-0,062
-467,416	515,424	-0,036	-0,060
-466,401	-161,063	0,108	0,004
-465,386	-2,919	-0,070	-0,035
-464,372	99,536	0,041	-0,034
-463,357	28,518	0,060	-0,037
-462,343	-200,000	-0,036	-0,142
-461,328	-73,709	0,090	0,023
-460,313	-200,000	0,009	0,040
-459,299	-17,909	0,163	0,073
-458,284	800,000	-0,070	0,166
-457,270	15,446	-0,093	0,052
-456,255	800,000	0,045	-0,130
-455,241	-200,000	0,015	0,076
-454,226	275,063	-0,134	0,170
-453,211	562,298	-0,060	0,105
-452,197	45,917	0,105	0,070
-451,182	800,000	-0,011	0,031
-450,168	800,000	0,058	0,138
-449,153	800,000	0,032	0,100
-448,138	-200,000	-0,029	-0,197
-447,124	-200,000	0,032	-0,111
-446,109	130,009	0,072	0,066
-445,095	70,622	-0,076	0,056
-444,080	-200,000	0,005	0,072
-443,065	-111,122	-0,114	-0,017
-442,051	-200,000	0,011	0,041
-441,036	-200,000	0,024	-0,082
-440,022	-55,984	0,078	-0,025
-439,007	-90,528	0,147	-0,030
-437,992	180,780	0,064	0,068
-436,978	-85,619	0,109	-0,024
-435,963	-47,909	0,186	0,064
-434,949	-200,000	0,013	-0,108
-433,934	205,788	-0,064	-0,072
-432,919	-92,634	-0,109	-0,022
-431,905	-200,000	0,003	0,019
-430,890	230,163	0,012	-0,014
-429,876	121,249	0,113	0,101
-428,861	-200,000	0,006	0,062
-427,846	-114,018	-0,065	0,009
-426,832	-118,454	-0,046	-0,006
-425,817	51,610	0,060	-0,041
-424,803	800,000	0,061	-0,152
-423,788	800,000	-0,007	0,016
-422,773	-200,000	0,004	0,092
-421,759	-200,000	0,015	-0,072
-420,744	354,915	-0,019	0,027
-419,730	318,861	0,021	0,029
-418,715	103,131	-0,245	-0,206
-417,701	800,000	-0,047	-0,102
-416,686	-200,000	-0,003	-0,029
-415,671	-200,000	-0,037	-0,154
-414,657	-90,319	-0,043	-0,009
-413,642	800,000	0,031	0,068
-412,628	-160,651	0,074	0,003
-411,613	-200,000	-0,002	0,160
-410,598	800,000	0,055	-0,172
-409,584	284,282	-0,109	0,141
-408,569	-200,000	0,005	-0,077
-407,555	101,759	-0,018	-0,015
-406,540	390,465	-0,040	-0,060
-405,525	800,000	-0,048	-0,096
-404,511	3,911	0,093	0,049
-403,496	-30,769	-0,099	-0,040
-402,482	-10,872	0,123	-0,058
-401,467	148,315	0,022	-0,021
-400,452	-164,710	-0,164	-0,005
-399,438	800,000	-0,016	0,045
-398,423	-200,000	0,021	-0,115
-397,409	378,043	-0,079	-0,116
-396,394	532,935	0,018	0,030
-395,379	136,460	-0,063	-0,058
-394,365	-200,000	0,017	0,060
-393,350	191,599	-0,053	0,057
-392,336	19,027	0,018	0,010
-391,321	-68,747	-0,103	-0,028
-390,306	-26,959	0,047	-0,020
-389,292	161,105	-0,078	0,078
-388,277	-114,208	0,081	0,011
-387,263	-51,265	-0,111	-0,037
-386,248	-200,000	-0,011	0,184
-385,233	40,901	0,047	0,030
-384,219	-200,000	-0,005	-0,101
-383,204	800,000	-0,019	0,061
-382,190	183,425	-0,063	-0,067
-381,175	-200,000	-0,005	-0,028
-380,160	-82,231	0,079	0,018
-379,146	114,912	0,052	0,046
-378,131	54,625	0,082	0,056
-377,117	59,916	0,063	0,044
-376,102	215,936	0,038	-0,044
-375,088	352,351	0,100	-0,142
-374,073	-200,000	-0,007	-0,078
-373,058	182,908	-0,089	-0,094
-372,044	-27,370	0,077	-0,032
-371,029	-88,530	0,077	0,016
-370,015	-200,000	0,017	0,083
-369,000	800,000	0,058	-0,118
-367,985	-200,000	0,013	-0,074
-366,971	68,616	-0,070	-0,052
-365,956	-200,000	0,030	0,119
-364,942	-160,526	-0,060	0,002
-363,927	24,483	0,155	0,092
-362,912	800,000	-0,060	0,122
-361,898	210,816	-0,100	0,113
-360,883	25,820	-0,068	-0,041
-359,869	-200,000	0,011	0,091
-358,854	268,887	0,048	0,061
-357,839	-37,211	-0,146	0,056
-356,825	800,000	0,041	0,091
-355,810	368,877	0,085	0,123
-354,796	-124,823	-0,068	-0,007
-353,781	-135,262	0,036	-0,003
-352,766	-200,000	0,023	-0,101
-351,752	-200,000	-0,011	-0,118
-350,737	-31,951	0,211	0,084
-349,723	22,687	-0,072	-0,042
-348,708	213,335	-0,041	0,046
-347,693	119,312	-0,018	-0,016
-346,679	190,585	0,070	-0,075
-345,664	-200,000	0,017	-0,141
-344,650	-53,432	0,090	-0,029
-343,635	-178,925	0,129	0,002
-342,620	-72,970	-0,070	0,018
-341,606	-158,017	0,032	-0,001
-340,591	-44,800	0,044	-0,016
-339,577	591,435	0,007	-0,012
-338,562	161,627	0,128	-0,128
-337,548	-200,000	0,003	0,014
-336,533	-22,509	0,078	0,034
-335,518	-86,938	0,062	-0,013
-334,504	800,000	0,059	0,163
-333,489	800,000	-0,044	0,104
-332,475	-109,041	-0,028	0,004
-331,460	-57,772	-0,007	0,002
-330,445	-81,501	0,040	0,009
-329,431	-149,547	0,070	0,004
-328,416	-40,130	0,093	0,034
-327,402	169,481	0,109	0,112
-326,387	684,392	0,047	-0,087
-325,372	-200,000	-0,011	-0,044
-324,358	285,511	0,055	-0,071
-323,343	-67,665	0,137	-0,038
-322,329	-160,003	-0,051	-0,002
-321,314	800,000	-0,057	0,152
-320,299	-160,896	0,103	-0,004
-319,285	274,155	-0,063	0,080
-318,270	-73,145	-0,045	-0,012
-317,256	-45,118	-0,083	0,029
-316,241	-200,000	-0,010	0,035
-315,226	-71,437	0,167	0,044
-314,212	800,000	0,027	0,084
-313,197	357,225	0,043	0,062
-312,183	-200,000	0,020	0,079
-311,168	-200,000	0,018	0,115
-310,153	-200,000	0,002	0,058
-309,139	2,732	0,104	0,054
-308,124	-200,000	0,002	0,032
-307,110	238,417	0,134	0,159
-306,095	15,708	0,095	0,053
-305,080	-18,259	-0,047	0,021
-304,066	51,265	0,051	0,034
-303,051	-70,356	-0,077	-0,021
-302,037	200,448	0,060	-0,066
-301,022	15,923	0,070	-0,039
-300,008	-127,910	0,102	0,010
-298,993	-127,848	0,140	-0,014
-297,978	-124,543	0,180	0,020
-296,964	-200,000	0,029	0,115
-295,949	170,664	-0,081	0,083
-294,935	-116,212	0,084	0,011
-293,920	-200,000	0,029	-0,093
-292,905	606,525	0,085	0,152
-291,891	327,539	0,061	0,083
-290,876	-200,000	-0,021	0,091
-289,862	-132,967	-0,077	-0,007
-288,847	-36,252	0,106	0,041
-287,832	29,662	-0,121	0,073
-286,818	-200,000	-0,003	0,031
-285,803	-31,762	0,094	0,037
-284,789	374,213	-0,050	0,072
-283,774	-200,000	-0,030	0,096
-282,759	276,775	0,026	-0,033
-281,745	62,156	-0,086	0,061
-280,730	-65,082	-0,060	-0,017
-279,716	441,970	0,082	0,129
-278,701	269,243	-0,110	-0,138
-277,686	-200,000	0,008	0,074
-276,672	-200,000	0,014	-0,089
-275,657	600,395	0,035	-0,062
-274,643	-112,743	-0,208	0,029
-273,628	-200,000	0,002	0,011
-272,613	-177,703	0,046	-0,001
-271,599	32,395	0,188	0,116
-270,584	-200,000	0,006	0,139
-269,570	-108,832	0,082	-0,012
-268,555	-200,000	-0,007	0,032
-267,540	92,781	-0,072	0,058
-266,526	-200,000	-0,013	-0,079
-265,511	-79,078	-0,068	-0,016
-264,497	-200,000	0,013	-0,101
-263,482	-57,440	-0,067	-0,021
-262,467	-200,000	-0,013	0,066
-261,453	221,218	0,067	-0,077
-260,438	-200,000	0,018	0,066
-259,424	-16,266	-0,052	-0,023
-258,409	-84,022	0,096	0,022
-257,395	-106,251	0,055	0,009
-256,380	187,630	-0,051	0,054
-255,365	-200,000	0,019	0,093
-254,351	-113,736	-0,042	-0,006
-253,336	199,667	0,016	0,018
-252,322	598,560	-0,043	-0,075
-251,307	-200,000	0,006	-0,051
-250,292	-24,537	-0,061	0,026
-249,278	-41,670	0,217	-0,079
-248,263	459,031	0,043	-0,068
-247,249	800,000	0,009	-0,019
-246,234	-156,929	-0,079	-0,003
-245,219	800,000	0,011	0,023
-244,205	13,044	-0,027	-0,015
-243,190	-200,000	-0,024	0,118
-242,176	800,000	-0,038	0,105
-241,161	-200,000	-0,003	0,073
-240,146	5,915	0,070	0,037
-239,132	117,829	-0,028	0,025
-238,117	-110,119	-0,126	-0,018
-237,103	-156,092	-0,088	-0,004
-236,088	-200,000	0,010	0,102
-235,073	161,570	-0,058	-0,058
-234,059	-200,000	0,033	0,109
-233,044	-27,818	-0,145	-0,059
-232,030	800,000	-0,030	-0,082
-231,015	17,127	-0,106	-0,060
-230,000	-200,000	-0,050	-0,195
-228,986	-200,000	0,020	-0,137
-227,971	800,000	0,014	-0,034
-226,957	-200,000	-0,027	0,160
-225,942	9,385	-0,035	-0,019
-224,927	441,700	0,026	0,040
-223,913	294,572	-0,102	-0,133
-222,898	46,625	-0,032	0,021
-221,884	493,803	0,055	-0,090
-220,869	-200,000	0,002	0,068
-219,855	-63,231	0,246	0,072
-218,840	340,903	0,088	0,122
-217,825	709,261	-0,007	-0,014
-216,811	317,486	-0,036	-0,049
-215,796	800,000	0,056	-0,160
-214,782	-200,000	-0,016	-0,154
-213,767	64,602	0,096	-0,068
-212,752	-200,000	-0,026	-0,091
-211,738	-34,706	-0,037	-0,014
-210,723	-103,021	-0,060	-0,010
-209,709	-131,729	-0,061	-0,006
-208,694	4,251	0,094	0,049
-207,679	800,000	-0,062	-0,129
-206,665	800,000	-0,022	-0,059
-205,650	120,537	0,066	0,058
-204,636	-79,140	-0,121	-0,029
-203,621	-53,220	-0,049	0,016
-202,606	22,884	-0,063	-0,037
-201,592	-105,959	-0,097	-0,015
-200,577	-166,450	0,063	0,002
-199,563	133,642	0,079	0,073
-198,548	-60,489	-0,085	0,025
-197,533	201,417	0,014	0,016
-196,519	-200,000	0,016	-0,098
-195,504	-34,942	0,044	0,017
-194,490	5,450	-0,158	-0,083
-193,475	165,498	-0,110	0,111
-192,460	364,189	-0,026	0,038
-191,446	800,000	0,031	-0,076
-190,431	114,701	0,133	0,115
-189,417	800,000	0,030	0,069
-188,402	48,476	-0,145	0,096
-187,387	800,000	0,058	-0,176
-186,373	773,478	0,017	-0,033
-185,358	63,127	0,106	0,075
-184,344	-65,775	0,093	0,026
-183,329	269,967	0,129	0,162
-182,315	364,762	0,032	-0,045
-181,300	800,000	-0,020	-0,063
-180,285	-134,137	-0,089	-0,008
-179,271	800,000	-0,024	-0,060
-178,256	-200,000	-0,028	-0,161
-177,242	69,101	0,065	0,047
-176,227	-26,404	0,135	0,056
-175,212	-135,428	0,010	0,001
-174,198	306,337	-0,082	-0,109
-173,183	800,000	-0,070	-0,160
-172,169	484,935	0,033	0,054
-171,154	688,698	0,044	-0,082
-170,139	-71,225	0,099	-0,026
-169,125	-181,472	0,066	-0,001
-168,110	800,000	0,014	0,034
-167,096	202,557	0,031	0,034
-166,081	-1,083	-0,121	-0,060
-165,066	800,000	-0,016	-0,045
-164,052	-200,000	-0,028	-0,124
-163,037	-30,158	-0,066	-0,026
-162,023	800,000	0,024	0,070
-161,008	14,515	0,084	0,047
-159,993	521,196	-0,044	0,074
-158,979	-120,276	0,045	-0,005
-157,964	-87,663	-0,122	-0,026
-156,950	-200,000	0,013	-0,120
-155,935	-200,000	0,005	0,115
-154,920	108,362	-0,067	0,056
-153,906	-60,939	0,024	0,007
-152,891	18,390	0,094	-0,053
-151,877	74,695	0,057	0,042
-150,862	800,000	-0,027	-0,071
-149,847	-129,354	0,100	-0,010
-148,833	-200,000	0,006	0,029
-147,818	140,441	0,044	0,041
-146,804	800,000	0,005	-0,010
-145,789	800,000	0,056	0,121
-144,775	336,878	-0,081	-0,111
-143,760	48,731	0,047	0,031
-142,745	-200,000	-0,001	-0,080
-141,731	800,000	-0,028	0,083
-140,716	76,519	-0,146	-0,110
-139,702	800,000	0,026	-0,077
-138,687	800,000	-0,051	0,139
-137,672	-153,527	-0,071	0,003
-136,658	-200,000	-0,022	-0,089
-135,643	-200,000	-0,008	-0,050
-134,629	241,161	0,083	-0,099
-133,614	160,337	0,077	0,076
-132,599	-200,000	-0,021	-0,072
-131,585	-200,000	0,059	0,192
-130,570	61,748	-0,169	0,119
-129,556	-49,479	0,116	-0,039
-128,541	352,017	0,080	-0,113
-127,526	-200,000	0,010	-0,080
-126,512	-200,000	-0,037	-0,133
-125,497	112,993	0,161	0,138
-124,483	-8,261	-0,092	-0,044
-123,468	-200,000	0,009	-0,065
-122,453	-45,657	-0,051	0,018
-121,439	-200,000	0,010	0,085
-120,424	-200,000	-0,001	-0,098
-119,410	495,899	0,058	0,095
-118,395	599,872	0,034	0,059
-117,380	108,063	0,128	0,108
-116,366	-183,907	-0,095	-0,001
-115,351	-200,000	0,018	-0,075
-114,337	-55,648	0,045	0,014
-113,322	-147,576	-0,199	0,012
-112,307	107,888	0,029	-0,024
-111,293	6,633	-0,041	-0,022
-110,278	44,826	0,028	0,018
-109,264	151,939	-0,010	-0,009
-108,249	-145,722	0,030	-0,002
-107,234	-13,152	-0,099	-0,045
-106,220	340,651	-0,069	-0,096
-105,205	-200,000	-0,007	-0,032
-104,191	-34,206	0,113	0,044
-103,176	99,891	0,052	0,043
-102,162	800,000	-0,027	-0,067
-101,147	406,722	-0,026	-0,039
-100,132	-81,081	-0,096	-0,022
-99,118	-200,000	-0,016	-0,061
-98,103	800,000	0,028	-0,083
-97,089	6,548	0,126	-0,066
-96,074	-200,000	0,013	0,056
-95,059	-200,000	0,005	0,207
-94,045	-40,599	-0,138	0,050
-93,030	-68,532	-0,029	-0,008
-92,016	-113,199	-0,077	0,011
-91,001	-200,000	-0,018	0,057
-89,986	-200,000	0,011	-0,082
-88,972	49,157	-0,091	0,060
-87,957	-38,809	0,102	0,038
-86,943	-145,985	-0,130	-0,008
-85,928	-186,292	-0,046	-0,000
-84,913	37,735	0,100	0,063
-83,899	-200,000	0,022	0,070
-82,884	-200,000	-0,003	0,071
-81,870	-29,798	-0,081	0,032
-80,855	-200,000	0,075	-0,000
-79,840	-200,000	-0,002	-0,068
-78,826	21,832	0,086	0,049
-77,811	-18,288	-0,082	-0,036
-76,797	123,284	-0,036	-0,032
-75,782	-200,000	0,006	0,027
-74,767	-200,000	0,018	0,075
-73,753	125,621	-0,106	0,094
-72,738	313,660	-0,023	0,031
-71,724	-47,447	0,044	0,015
-70,709	-83,504	0,064	-0,014
-69,694	-200,000	0,000	0,045
-68,680	374,323	-0,122	0,176
-67,665	528,881	0,060	0,101
-66,651	-200,000	0,007	0,103
-65,636	629,238	-0,050	0,089
-64,622	-79,292	-0,028	0,007
-63,607	138,416	-0,095	-0,088
-62,592	800,000	-0,046	0,090
-61,578	-200,000	-0,025	-0,098
-60,563	442,086	0,074	0,115
-59,549	-63,715	-0,052	0,015
-58,534	25,248	-1,888	-1,105
-57,519	453,547	-1,316	-2,065
-56,505	-200,000	-0,422	-4,543
-55,490	454,391	0,820	1,287
-54,476	800,000	5,125	11,447
-53,461	-200,000	21,024	331,333
-52,446	800,000	757,765	2326,837
-51,432	550,532	1664,154	2830,575
-50,417	73,717	1666,805	1232,369
-49,403	18,889	1539,976	868,983
-48,388	12,835	1462,705	796,017
-47,373	19,199	1453,502	821,608
-46,359	16,045	1442,988	800,584
-45,344	11,179	1438,746	774,966
-44,330	11,110	1436,674	773,488
-43,315	11,059	1434,968	772,296
-42,300	11,061	1433,255	771,352
-41,286	11,077	1432,060	770,755
-40,271	11,089	1430,543	769,966
-39,257	11,063	1429,540	769,272
-38,242	11,127	1428,194	768,822
-37,227	11,064	1427,437	768,086
-36,213	11,092	1425,837	767,325
-35,198	11,127	1424,673	766,835
-34,184	11,157	1423,868	766,511
-33,169	11,097	1422,510	765,469
-32,154	11,140	1421,662	765,183
-31,140	11,159	1420,187	764,449
-30,125	11,210	1419,086	764,066
-29,111	11,191	1417,962	763,340
-28,096	11,149	1416,998	762,596
-27,082	11,038	1415,800	761,398
-26,067	11,045	1414,688	760,802
-25,052	11,151	1413,507	760,635
-24,038	11,080	1412,629	759,799
-23,023	11,060	1411,543	759,092
-22,009	11,086	1410,493	758,619
-20,994	11,095	1409,429	758,059
-19,979	11,070	1408,643	757,487
-18,965	10,983	1407,763	756,576
-17,950	11,025	1406,927	756,295
-16,936	11,002	1406,136	755,734
-15,921	10,928	1405,166	754,834
-14,906	10,964	1404,241	754,477
-13,892	10,974	1403,287	753,981
-12,877	10,973	1402,268	753,397
-11,863	10,979	1401,418	752,938
-10,848	10,983	1400,399	752,382
-9,833	10,937	1399,558	751,683
-8,819	10,896	1398,879	751,098
-7,804	10,852	1397,927	750,354
-6,790	10,865	1397,031	749,902
-5,775	10,852	1396,167	749,350
-4,760	10,920	1394,982	748,998
-3,746	10,900	1394,077	748,392
-2,731	10,841	1393,106	747,566
-1,717	10,810	1392,500	747,069
-0,702	10,858	1390,421	746,145
0,313	14,758	1303,836	717,626
1,327	30,768	694,266	418,629
2,342	47,674	120,611	79,294
3,356	1,347	16,455	8,319
4,371	15,017	3,254	1,793
5,386	-28,108	0,830	0,337
6,400	763,313	0,197	0,380
7,415	-51,266	-0,118	-0,039
8,429	37,202	-0,310	-0,193
9,444	-10,716	-0,355	-0,165
10,459	121,265	-0,242	-0,213
11,473	163,888	-0,233	-0,231
12,488	115,416	-0,274	-0,236
13,502	31,966	-0,298	-0,181
14,517	-93,177	-0,396	-0,077
15,531	-56,943	-0,354	-0,110
16,546	143,465	-0,270	-0,254
17,561	31,670	-0,250	-0,151
18,575	-47,663	-0,209	-0,071
19,590	254,350	-0,244	-0,295
20,604	-132,720	-0,301	-0,027
21,619	2,100	-0,400	-0,203
22,634	67,106	-0,391	-0,281
23,648	9,041	-0,548	-0,291
24,663	108,006	-0,286	-0,240
25,677	14,040	-0,278	-0,152
26,692	121,989	-0,185	-0,163
27,707	-64,587	-0,389	-0,110
28,721	93,992	-0,255	-0,204
29,736	77,312	-0,505	-0,378
30,750	153,041	-0,480	-0,463
31,765	88,901	-0,388	-0,303
32,780	235,064	-0,292	-0,340
33,794	37,206	-0,371	-0,231
34,809	218,710	-0,230	-0,259
35,823	40,225	-0,378	-0,239
36,838	68,617	-0,367	-0,265
37,853	88,715	-0,371	-0,290
38,867	-49,882	-0,399	-0,133
39,882	-48,159	-0,304	-0,103
40,896	-46,284	-0,389	-0,134
41,911	61,173	-0,389	-0,272
42,926	64,773	-0,344	-0,244
43,940	55,049	-0,344	-0,233
44,955	54,581	-0,429	-0,291
45,969	89,550	-0,359	-0,282
46,984	34,823	-0,306	-0,188
47,999	150,509	-0,191	-0,182
49,013	616,207	-0,243	-0,429
50,028	96,873	-0,309	-0,249
51,042	183,858	-0,281	-0,293
52,057	0,359	-0,337	-0,169
53,071	63,354	-0,361	-0,254
54,086	47,705	-0,345	-0,226
55,101	17,284	-0,396	-0,220
56,115	-161,037	-0,368	-0,013
57,130	-3,427	-0,434	-0,211
58,144	21,672	-0,405	-0,231
59,159	16,560	-0,453	-0,251
60,174	107,450	-0,339	-0,283
61,188	-2,519	-0,368	-0,180
62,203	48,430	-0,351	-0,231
63,217	38,993	-0,399	-0,250
64,232	-128,567	-0,433	-0,042
65,247	146,552	-0,319	-0,301
66,261	199,448	-0,332	-0,358
67,276	-0,668	-0,418	-0,207
68,290	83,363	-0,246	-0,188
69,305	53,821	-0,404	-0,272
70,320	44,463	-0,290	-0,187
71,334	-52,947	-0,323	-0,104
72,349	105,688	-0,219	-0,182
73,363	126,417	-0,283	-0,251
74,378	60,352	-0,359	-0,249
75,393	65,131	-0,294	-0,208
76,407	69,938	-0,339	-0,245
77,422	-21,956	-0,269	-0,114
78,436	62,599	-0,281	-0,197
79,451	124,671	-0,355	-0,313
80,466	79,776	-0,346	-0,260
81,480	53,257	-0,371	-0,249
82,495	115,810	-0,201	-0,172
83,509	-103,770	-0,347	-0,056
84,524	450,258	-0,137	-0,213
85,539	-14,647	-0,275	-0,123
86,553	37,016	-0,277	-0,172
87,568	65,833	-0,273	-0,194
88,582	-79,446	-0,344	-0,081
89,597	132,163	-0,283	-0,255
90,611	66,286	-0,249	-0,177
91,626	28,991	-0,315	-0,187
92,641	336,714	-0,224	-0,306
93,655	25,880	-0,310	-0,181
94,670	77,600	-0,302	-0,225
95,684	121,172	-0,372	-0,324
96,699	163,227	-0,302	-0,298
97,714	47,351	-0,388	-0,252
98,728	116,899	-0,168	-0,144
99,743	139,598	-0,239	-0,221
100,757	38,832	-0,158	-0,099
101,772	44,557	-0,311	-0,200
102,787	40,321	-0,281	-0,177
103,801	-74,917	-0,297	-0,074
104,816	-66,098	-0,379	-0,105
105,830	8,627	-0,299	-0,157
106,845	166,628	-0,253	-0,252
107,860	0,464	-0,257	-0,128
108,874	228,622	-0,297	-0,338
109,889	94,577	-0,323	-0,257
110,903	111,370	-0,364	-0,307
111,918	-1,024	-0,166	-0,082
112,933	265,893	-0,166	-0,203
113,947	40,118	-0,244	-0,153
114,962	99,927	-0,284	-0,230
115,976	-44,810	-0,363	-0,126
116,991	-69,114	-0,216	-0,058
118,006	155,646	-0,319	-0,307
119,020	134,807	-0,192	-0,174
120,035	61,893	-0,160	-0,111
121,049	-48,963	-0,275	-0,091
122,064	131,419	-0,224	-0,201
123,079	18,110	-0,241	-0,134
124,093	341,447	-0,180	-0,246
125,108	135,576	-0,073	-0,066
126,122	-90,845	-0,173	0,035
127,137	-3,759	-0,371	-0,179
128,151	34,244	-0,248	-0,151
129,166	44,321	-0,281	-0,179
130,181	258,091	-0,239	-0,288
131,195	-86,636	-0,247	-0,052
132,210	24,122	-0,249	-0,143
133,224	153,672	-0,188	-0,180
134,239	185,657	-0,248	-0,257
135,254	800,000	-0,105	-0,237
136,268	212,538	-0,234	-0,258
137,283	43,649	-0,267	-0,170
138,297	170,116	-0,261	-0,261
139,312	37,101	-0,229	-0,141
140,327	101,870	-0,279	-0,227
141,341	265,590	-0,128	-0,155
142,356	268,483	-0,146	-0,179
143,370	117,494	-0,160	-0,137
144,385	-54,580	-0,398	-0,125
145,400	138,025	-0,266	-0,243
146,414	32,752	-0,445	-0,268
147,429	-15,440	-0,213	-0,095
148,443	526,936	-0,161	-0,266
149,458	-64,680	-0,273	-0,077
150,473	197,592	-0,120	-0,128
151,487	61,086	-0,252	-0,174
152,502	123,452	-0,222	-0,194
153,516	26,671	-0,185	-0,108
154,531	80,244	-0,308	-0,231
155,546	47,732	-0,238	-0,154
156,560	114,040	-0,112	-0,095
157,575	-136,803	-0,356	-0,028
158,589	-58,037	-0,207	-0,063
159,604	219,984	-0,231	-0,258
160,619	338,786	-0,192	-0,262
161,633	25,073	-0,268	-0,155
162,648	13,837	-0,243	-0,131
163,662	-29,131	-0,302	-0,120
164,677	-20,988	-0,235	-0,100
165,692	-26,234	-0,243	-0,099
166,706	47,810	-0,291	-0,189
167,721	-51,928	-0,320	-0,103
168,735	44,224	-0,173	-0,110
169,750	336,397	-0,259	-0,350
170,764	-63,779	-0,270	-0,076
171,779	59,707	-0,108	-0,074
172,794	94,217	-0,192	-0,152
173,808	-117,413	-0,267	-0,033
174,823	16,605	-0,252	-0,138
175,837	27,186	-0,252	-0,147
176,852	100,480	-0,078	-0,063
177,867	-55,305	-0,210	0,065
178,881	16,421	-0,118	-0,064
179,896	6,154	-0,123	-0,063
180,910	-24,829	-0,296	-0,122
181,925	103,262	-0,217	-0,176
182,940	338,528	-0,179	-0,243
183,954	52,646	-0,249	-0,165
184,969	135,019	-0,298	-0,269
185,983	-2,763	-0,223	-0,108
186,998	42,807	-0,263	-0,166
188,013	44,602	-0,266	-0,170
189,027	-32,467	-0,186	-0,072
190,042	87,648	-0,264	-0,203
191,056	97,934	-0,203	-0,162
192,071	96,657	-0,233	-0,185
193,086	87,803	-0,223	-0,171
194,100	-97,386	-0,181	0,032
195,115	800,000	-0,083	-0,160
196,129	160,262	-0,255	-0,247
197,144	-91,157	-0,236	-0,047
198,159	130,411	-0,215	-0,191
199,173	202,354	-0,227	-0,244
200,188	-44,566	-0,274	-0,095
201,202	108,531	-0,189	-0,157
202,217	258,904	-0,111	-0,133
203,232	479,371	-0,202	-0,319
204,246	32,163	-0,203	-0,121
205,261	100,786	-0,255	-0,206
206,275	45,776	-0,134	-0,086
207,290	-28,259	-0,308	-0,123
208,304	172,310	-0,079	-0,079
209,319	43,762	-0,127	-0,081
210,334	288,023	-0,152	-0,191
211,348	96,554	-0,186	-0,148
212,363	25,589	-0,189	-0,109
213,377	-75,041	-0,331	-0,082
214,392	365,307	-0,113	-0,158
215,407	345,511	-0,144	-0,197
216,421	-160,581	-0,170	-0,006
217,436	197,362	-0,150	-0,159
218,450	179,033	-0,221	-0,224
219,465	92,803	-0,210	-0,164
220,480	136,480	-0,212	-0,192
221,494	-73,845	-0,163	-0,041
222,509	-85,585	-0,215	-0,046
223,523	-122,491	-0,193	-0,022
224,538	131,536	-0,167	-0,148
225,553	1,974	-0,207	-0,103
226,567	79,450	-0,258	-0,191
227,582	20,460	-0,195	-0,109
228,596	90,919	-0,150	-0,116
229,611	47,508	-0,184	-0,119
230,626	128,091	-0,240	-0,211
231,640	46,635	-0,135	-0,087
232,655	-95,055	-0,235	-0,044
233,669	49,942	-0,224	-0,146
234,684	572,711	-0,052	-0,088
235,699	-52,841	-0,142	-0,045
236,713	-11,753	-0,089	-0,040
237,728	-200,000	-0,033	-0,141
238,742	178,753	-0,152	-0,154
239,757	257,524	-0,194	-0,231
240,772	96,001	-0,106	-0,084
241,786	800,000	-0,044	-0,088
242,801	465,229	-0,120	-0,187
243,815	-49,860	-0,140	-0,046
244,830	-5,580	-0,295	-0,139
245,844	-28,066	-0,227	-0,090
246,859	-102,478	-0,142	0,023
247,874	-108,760	-0,345	-0,050
248,888	27,383	-0,222	-0,129
249,903	58,826	-0,136	-0,092
250,917	123,070	-0,167	-0,144
251,932	242,647	-0,185	-0,214
252,947	41,074	-0,165	0,103
253,961	-5,654	-0,250	-0,118
254,976	1,642	-0,240	-0,119
255,990	230,372	-0,203	-0,230
257,005	9,682	-0,186	-0,097
258,020	0,133	-0,164	-0,080
259,034	-77,723	-0,244	-0,058
260,049	-118,856	-0,220	-0,026
261,063	26,267	-0,247	-0,142
262,078	643,571	-0,121	-0,215
263,093	228,834	-0,174	-0,196
264,107	284,791	-0,117	-0,146
265,122	-28,185	-0,120	-0,048
266,136	323,867	-0,203	-0,267
267,151	79,393	-0,219	-0,162
268,166	642,125	-0,067	-0,119
269,180	181,142	-0,119	-0,121
270,195	246,106	-0,193	-0,225
271,209	137,870	-0,069	-0,062
272,224	25,614	-0,231	-0,132
273,239	800,000	-0,110	-0,221
274,253	800,000	-0,058	-0,117
275,268	105,081	-0,121	-0,099
276,282	59,458	-0,193	-0,131
277,297	-73,117	-0,171	-0,043
278,312	-141,295	-0,129	-0,009
279,326	-14,844	-0,214	-0,094
280,341	4,680	-0,157	-0,079
281,355	-47,812	-0,164	-0,054
282,370	-32,674	-0,319	-0,122
283,384	118,905	-0,155	-0,132
284,399	-61,262	-0,304	-0,088
285,414	-12,645	-0,185	-0,083
286,428	196,814	-0,100	-0,105
287,443	-158,060	-0,173	0,007
288,457	39,007	-0,066	-0,040
289,472	130,244	-0,053	-0,047
290,487	-62,468	-0,253	-0,072
291,501	316,746	-0,091	-0,118
292,516	-200,000	-0,004	-0,062
293,530	-5,490	-0,081	-0,038
294,545	-91,672	-0,176	0,034
295,560	272,839	-0,132	-0,160
296,574	244,180	-0,079	0,092
297,589	-129,675	-0,226	0,021
298,603	-26,708	-0,196	-0,079
299,618	800,000	-0,060	-0,123
300,633	45,270	-0,210	-0,133
301,647	-92,157	-0,094	0,018
302,662	194,782	-0,124	-0,129
303,676	537,796	-0,065	-0,107
304,691	343,721	-0,106	-0,144
305,706	108,521	-0,140	-0,114
306,720	-200,000	-0,019	-0,132
307,735	800,000	-0,035	-0,081
308,749	325,430	-0,096	-0,126
309,764	800,000	-0,071	-0,171
310,779	-2,028	-0,213	-0,103
311,793	115,492	-0,148	-0,125
312,808	9,392	-0,146	-0,075
313,822	-200,000	-0,026	-0,191
314,837	-114,371	-0,186	-0,024
315,852	578,627	-0,055	-0,092
316,866	-154,980	-0,090	0,004
317,881	-122,472	-0,130	-0,014
318,895	136,354	-0,142	-0,128
319,910	-102,560	-0,127	-0,021
320,925	263,296	-0,089	-0,106
321,939	111,456	-0,075	-0,062
322,954	592,015	-0,049	-0,083
323,968	-200,000	-0,026	-0,085
324,983	-40,269	-0,131	0,047
325,997	286,943	-0,108	-0,134
327,012	271,825	-0,134	-0,163
328,027	196,287	-0,155	-0,162
329,041	-41,471	-0,185	-0,065
330,056	-12,152	-0,162	-0,073
331,070	64,830	-0,110	-0,076
332,085	-200,000	0,000	-0,076
333,100	-103,307	-0,166	-0,027
334,114	-37,985	-0,229	-0,083
335,129	-38,953	-0,110	-0,039
336,143	-21,178	-0,273	-0,114
337,158	-165,154	-0,175	-0,005
338,173	136,747	-0,128	-0,114
339,187	-0,315	-0,160	-0,078
340,202	181,445	-0,137	-0,138
341,216	-74,787	-0,161	0,039
342,231	-72,310	-0,270	-0,068
343,246	408,837	-0,136	-0,198
344,260	311,004	-0,143	-0,184
345,275	-89,705	-0,072	0,014
346,289	800,000	-0,061	-0,164
347,304	-72,551	-0,145	-0,037
348,319	59,015	-0,117	-0,079
349,333	478,806	-0,126	-0,196
350,348	-43,456	-0,123	-0,042
351,362	232,529	-0,090	-0,101
352,377	17,010	-0,142	-0,077
353,392	800,000	-0,054	-0,130
354,406	-3,624	-0,071	-0,034
355,421	207,576	1312,075	1403,123
356,435	159,687	1472,449	1403,600
