DTS Sentinel unit serial number:	SN410029Multiplexer serial number:	ORYXHardware model number:	OX2-SRSoftware version number:	ORYX F/W v4,00 Oryx Data Collector v3.7.2.0data status	okinstallation	B3 Nyhavnadifferential loss correction	single-endedforward channel	channel 1reverse channel	N/Adate	2023/12/04time	04:07:30forward acquisition time	300,00reverse acquisition time	0,00gamma	499,1914k internal	0,3205k external	0,3205temperature offset calibration	1,0000default loss term (dB/km)	0,3820temperature slope calibration	1,0000multiplexer offset coefficient	1,0000multiplexer slope coefficient	1,0000fibre end	0,00T internal ref (°C)	12,01T ext. ref 1 (°C)	-3,08T ext. ref 2 (°C)	-3,10length (m)	temperature (°C)	Stokes	anti-Stokes-744,400	800,000	-0,105	-0,254
-743,385	-200,000	0,055	0,253
-742,371	225,432	-0,159	-0,187
-741,356	-200,000	-0,037	0,279
-740,342	122,541	-0,239	-0,217
-739,327	-200,000	-0,063	0,241
-738,312	44,941	-0,048	-0,032
-737,298	-200,000	-0,028	0,211
-736,283	800,000	-0,118	-0,267
-735,269	-200,000	0,086	0,291
-734,254	274,433	-0,131	-0,169
-733,239	-41,605	-0,252	0,093
-732,225	800,000	-0,113	-0,250
-731,210	-2,311	0,085	0,043
-730,196	-200,000	0,020	0,122
-729,181	360,044	-0,031	0,045
-728,167	555,550	0,072	-0,127
-727,152	-200,000	-0,008	-0,080
-726,137	-200,000	-0,001	-0,047
-725,123	445,996	0,017	-0,027
-724,108	-200,000	0,009	-0,056
-723,094	-78,062	-0,085	-0,021
-722,079	-136,645	-0,145	-0,012
-721,064	91,611	0,044	-0,036
-720,050	67,566	-0,051	-0,038
-719,035	19,880	0,079	0,046
-718,021	35,550	-0,040	-0,025
-717,006	573,932	0,029	0,051
-715,991	-92,648	0,071	0,014
-714,977	125,945	-0,119	0,109
-713,962	98,160	0,037	-0,030
-712,948	-200,000	0,016	-0,085
-711,933	449,381	-0,022	-0,035
-710,918	-200,000	0,040	0,000
-709,904	800,000	0,051	-0,124
-708,889	-155,637	-0,124	0,006
-707,875	74,613	-0,193	-0,147
-706,860	73,913	-0,030	-0,023
-705,845	800,000	0,020	0,055
-704,831	-37,256	0,083	0,032
-703,816	328,296	0,051	-0,072
-702,802	800,000	-0,018	-0,039
-701,787	-200,000	0,010	-0,099
-700,772	30,464	-0,053	0,032
-699,758	560,213	-0,066	0,116
-698,743	300,564	-0,091	-0,123
-697,729	-200,000	0,013	-0,041
-696,714	138,308	0,005	-0,005
-695,699	-200,000	-0,009	0,052
-694,685	194,651	-0,113	-0,125
-693,670	-85,754	-0,224	-0,050
-692,656	-121,725	-0,038	-0,004
-691,641	-200,000	0,001	0,023
-690,627	-104,357	-0,080	0,013
-689,612	-200,000	-0,006	-0,037
-688,597	-200,000	0,004	-0,045
-687,583	-53,436	-0,105	-0,035
-686,568	-116,349	-0,158	0,021
-685,554	266,188	-0,009	0,012
-684,539	800,000	0,039	0,098
-683,524	-91,255	0,176	0,036
-682,510	-145,984	-0,029	0,002
-681,495	-82,925	-0,059	0,014
-680,481	-200,000	0,006	-0,105
-679,466	-200,000	0,020	-0,107
-678,451	174,736	-0,027	0,029
-677,437	242,183	0,099	0,120
-676,422	179,395	-0,031	0,033
-675,408	319,441	-0,067	0,093
-674,393	800,000	0,045	0,102
-673,378	-200,000	-0,036	-0,179
-672,364	-200,000	0,003	0,025
-671,349	-200,000	-0,006	-0,064
-670,335	346,851	0,053	0,076
-669,320	610,988	0,013	-0,024
-668,305	-60,574	0,094	0,029
-667,291	288,730	-0,065	-0,085
-666,276	151,131	-0,054	-0,053
-665,262	800,000	0,059	-0,181
-664,247	-25,977	0,051	-0,022
-663,232	-200,000	0,033	-0,138
-662,218	-200,000	-0,011	0,044
-661,203	-200,000	-0,024	0,113
-660,189	319,081	-0,069	-0,095
-659,174	-43,234	-0,076	0,028
-658,159	-44,272	-0,110	-0,040
-657,145	-15,224	-0,090	-0,042
-656,130	274,310	0,073	-0,094
-655,116	105,732	-0,114	0,098
-654,101	323,753	-0,040	0,055
-653,086	-200,000	0,020	-0,128
-652,072	25,728	-0,068	-0,041
-651,057	152,009	-0,032	-0,031
-650,043	29,270	-0,077	-0,047
-649,028	-49,479	-0,071	-0,024
-648,014	800,000	-0,007	-0,019
-646,999	-30,205	-0,053	-0,022
-645,984	219,282	0,076	-0,088
-644,970	-6,087	-0,166	-0,082
-643,955	387,916	0,060	-0,090
-642,941	52,466	-0,137	-0,094
-641,926	-200,000	0,005	-0,122
-640,911	485,147	-0,018	0,030
-639,897	-200,000	0,010	0,112
-638,882	-3,793	-0,070	-0,035
-637,868	-200,000	-0,017	-0,119
-636,853	47,176	0,032	0,022
-635,838	95,712	0,031	0,025
-634,824	-200,000	-0,011	-0,097
-633,809	-27,713	0,170	-0,071
-632,795	152,858	-0,053	0,052
-631,780	-122,523	-0,225	-0,026
-630,765	514,592	0,095	-0,161
-629,751	-200,000	-0,020	-0,104
-628,736	401,736	0,057	0,087
-627,722	-144,070	-0,177	-0,012
-626,707	-77,496	0,119	-0,030
-625,692	-200,000	-0,014	0,105
-624,678	28,241	-0,061	-0,037
-623,663	55,874	0,079	-0,055
-622,649	101,155	-0,126	-0,106
-621,634	156,144	0,046	0,046
-620,619	526,975	-0,026	-0,044
-619,605	346,480	-0,045	0,064
-618,590	16,147	0,111	0,063
-617,576	-200,000	-0,002	0,082
-616,561	693,332	-0,028	-0,052
-615,546	-200,000	-0,014	-0,133
-614,532	-200,000	-0,022	-0,073
-613,517	800,000	0,039	0,112
-612,503	800,000	-0,065	0,137
-611,488	184,480	-0,047	0,051
-610,474	778,626	0,006	-0,012
-609,459	-200,000	-0,011	0,042
-608,444	-69,284	0,031	0,009
-607,430	643,286	-0,012	0,022
-606,415	-200,000	-0,021	-0,089
-605,401	-200,000	-0,002	-0,008
-604,386	97,379	0,054	-0,044
-603,371	-200,000	-0,029	-0,092
-602,357	284,475	-0,022	0,029
-601,342	-5,638	0,084	-0,042
-600,328	-103,408	-0,022	0,004
-599,313	-200,000	-0,009	-0,047
-598,298	550,953	-0,026	0,046
-597,284	125,846	0,047	-0,043
-596,269	-200,000	-0,006	-0,161
-595,255	157,741	0,112	0,112
-594,240	529,631	-0,081	0,139
-593,225	800,000	-0,031	-0,076
-592,211	343,571	-0,119	-0,169
-591,196	-62,714	-0,075	0,022
-590,182	-36,730	-0,080	-0,031
-589,167	-128,827	0,171	0,017
-588,152	-121,318	-0,091	-0,011
-587,138	-200,000	-0,006	-0,058
-586,123	-200,000	-0,022	-0,151
-585,109	304,240	-0,077	-0,103
-584,094	-200,000	0,003	-0,012
-583,079	52,360	0,136	-0,094
-582,065	-200,000	-0,018	0,098
-581,050	800,000	-0,064	0,132
-580,036	-17,089	0,069	0,031
-579,021	717,422	-0,070	-0,134
-578,006	207,198	-0,008	-0,009
-576,992	-200,000	0,010	0,043
-575,977	72,277	0,098	0,073
-574,963	-77,839	-0,093	0,023
-573,948	-95,884	-0,119	0,023
-572,934	-200,000	0,001	0,031
-571,919	262,440	-0,017	-0,021
-570,904	-164,714	-0,113	-0,004
-569,890	-71,069	0,159	-0,043
-568,875	800,000	-0,017	-0,048
-567,861	351,785	0,041	-0,059
-566,846	-66,915	-0,066	0,019
-565,831	-200,000	0,009	-0,046
-564,817	102,477	0,110	0,093
-563,802	16,751	0,128	-0,073
-562,788	800,000	-0,043	0,092
-561,773	-200,000	0,079	0,274
-560,758	127,807	0,065	0,059
-559,744	381,810	0,040	-0,060
-558,729	370,543	0,011	-0,015
-557,715	800,000	-0,040	-0,083
-556,700	800,000	-0,033	-0,079
-555,685	56,451	-0,108	-0,076
-554,671	51,923	0,130	0,089
-553,656	307,899	0,058	0,078
-552,642	-23,609	-0,041	0,018
-551,627	-200,000	-0,010	0,233
-550,612	58,673	0,011	0,008
-549,598	-8,233	0,090	-0,044
-548,583	-16,753	-0,006	0,003
-547,569	-39,036	-0,097	0,036
-546,554	-200,000	-0,001	0,050
-545,539	-200,000	0,004	-0,051
-544,525	-120,543	-0,101	0,012
-543,510	-200,000	0,010	-0,037
-542,496	-200,000	0,003	-0,113
-541,481	800,000	-0,123	-0,255
-540,466	-159,735	-0,055	0,002
-539,452	-200,000	-0,031	-0,160
-538,437	244,607	0,067	0,081
-537,423	-29,543	0,014	-0,006
-536,408	-147,262	-0,115	-0,007
-535,393	-149,594	0,092	0,005
-534,379	-4,266	-0,204	-0,101
-533,364	-200,000	-0,008	-0,155
-532,350	162,449	0,039	0,040
-531,335	200,578	0,015	-0,017
-530,321	-103,203	0,026	-0,004
-529,306	267,100	0,032	0,040
-528,291	25,430	-0,048	-0,029
-527,277	221,396	0,048	-0,055
-526,262	800,000	-0,031	-0,091
-525,248	-200,000	0,015	0,194
-524,233	-200,000	-0,002	-0,016
-523,218	611,605	0,056	0,100
-522,204	85,239	0,049	-0,039
-521,189	719,349	-0,061	-0,117
-520,175	233,715	0,064	0,076
-519,160	-200,000	-0,018	-0,058
-518,145	388,113	-0,022	0,033
-517,131	800,000	-0,043	-0,131
-516,116	734,359	0,031	-0,060
-515,102	-24,015	0,040	-0,017
-514,087	800,000	-0,035	-0,076
-513,072	-52,079	-0,034	-0,011
-512,058	75,850	-0,032	-0,024
-511,043	571,591	0,071	0,125
-510,029	800,000	-0,005	-0,013
-509,014	154,143	-0,074	0,073
-507,999	69,797	-0,055	-0,041
-506,985	-131,057	0,053	-0,005
-505,970	-137,772	-0,117	-0,009
-504,956	123,131	-0,099	0,089
-503,941	155,282	0,052	-0,052
-502,926	639,054	-0,015	0,028
-501,912	-63,143	-0,077	0,023
-500,897	-200,000	0,025	0,115
-499,883	-177,564	-0,115	-0,002
-498,868	800,000	-0,022	0,053
-497,853	-11,818	0,095	0,045
-496,839	-200,000	-0,002	-0,055
-495,824	-115,893	0,135	-0,018
-494,810	-200,000	-0,010	0,119
-493,795	-5,273	-0,086	-0,043
-492,781	-200,000	-0,035	-0,148
-491,766	-200,000	-0,020	-0,115
-490,751	-1,618	-0,050	-0,025
-489,737	519,783	0,045	-0,075
-488,722	189,264	-0,068	0,074
-487,708	109,989	0,103	-0,089
-486,693	800,000	0,034	-0,068
-485,678	800,000	-0,020	0,061
-484,664	216,809	-0,110	-0,126
-483,649	391,038	-0,120	-0,179
-482,635	-1,176	0,095	0,048
-481,620	-47,807	0,070	0,024
-480,605	-12,677	-0,042	0,020
-479,591	-141,639	0,077	0,005
-478,576	454,250	-0,040	0,064
-477,562	248,657	-0,020	-0,024
-476,547	-200,000	-0,005	-0,016
-475,532	247,058	-0,016	-0,019
-474,518	446,398	-0,033	0,053
-473,503	-200,000	-0,002	0,074
-472,489	12,540	0,119	-0,066
-471,474	-200,000	0,028	-0,174
-470,459	-200,000	0,038	0,121
-469,445	-96,157	0,127	-0,024
-468,430	-68,918	0,035	0,010
-467,416	-116,077	0,066	-0,009
-466,401	-83,092	-0,086	-0,020
-465,386	219,154	0,095	0,109
-464,372	-16,134	-0,105	-0,048
-463,357	-200,000	0,006	0,070
-462,343	784,661	-0,071	0,141
-461,328	-81,913	0,072	0,017
-460,313	104,986	0,138	0,117
-459,299	800,000	-0,068	0,158
-458,284	705,612	0,031	0,059
-457,270	800,000	-0,029	0,079
-456,255	800,000	0,013	-0,033
-455,241	190,120	-0,105	-0,113
-454,226	-106,567	-0,026	0,004
-453,211	184,612	-0,072	-0,077
-452,197	-20,731	-0,066	-0,029
-451,182	-26,727	-0,070	-0,029
-450,168	800,000	-0,024	0,051
-449,153	-200,000	0,005	0,134
-448,138	-200,000	-0,005	-0,019
-447,124	113,552	-0,034	-0,029
-446,109	-200,000	-0,004	-0,063
-445,095	10,149	0,102	0,056
-444,080	-13,673	0,088	0,041
-443,065	291,425	0,082	-0,107
-442,051	-113,146	-0,047	-0,007
-441,036	800,000	-0,066	-0,157
-440,022	-200,000	0,018	-0,209
-439,007	610,897	-0,028	0,050
-437,992	-3,892	-0,023	0,011
-436,978	637,072	0,034	0,063
-435,963	-35,623	0,059	-0,023
-434,949	800,000	0,014	0,034
-433,934	-34,426	0,098	0,038
-432,919	-77,481	-0,104	-0,026
-431,905	-200,000	-0,025	-0,188
-430,890	-200,000	-0,004	-0,026
-429,876	174,739	-0,012	-0,013
-428,861	-200,000	0,015	0,051
-427,846	61,892	0,093	-0,066
-426,832	188,646	0,141	-0,152
-425,817	276,136	-0,155	-0,198
-424,803	800,000	-0,055	-0,164
-423,788	223,296	-0,028	0,032
-422,773	227,739	-0,058	-0,068
-421,759	800,000	0,047	-0,095
-420,744	-200,000	-0,022	0,107
-419,730	0,557	-0,028	-0,014
-418,715	176,836	0,070	-0,073
-417,701	-68,488	0,088	-0,024
-416,686	-60,889	0,155	0,047
-415,671	388,243	0,069	0,103
-414,657	11,528	0,066	-0,036
-413,642	800,000	-0,044	0,106
-412,628	164,172	-0,034	0,035
-411,613	373,030	0,049	-0,072
-410,598	-99,156	0,216	-0,039
-409,584	-24,456	-0,065	0,028
-408,569	735,687	0,101	0,195
-407,555	418,511	0,053	-0,082
-406,540	198,446	-0,027	0,030
-405,525	800,000	0,012	0,027
-404,511	-122,879	-0,126	0,014
-403,496	449,803	-0,038	-0,060
-402,482	800,000	0,024	-0,072
-401,467	249,734	0,108	0,131
-400,452	-68,552	-0,095	-0,026
-399,438	298,003	0,025	0,034
-398,423	-3,056	0,040	0,020
-397,409	-200,000	0,003	0,029
-396,394	-25,571	0,034	-0,014
-395,379	310,984	-0,030	0,040
-394,365	-200,000	-0,019	0,091
-393,350	-64,357	-0,020	0,006
-392,336	-68,733	0,114	0,031
-391,321	-200,000	0,003	-0,074
-390,306	-200,000	-0,019	-0,072
-389,292	-117,963	-0,087	0,011
-388,277	-80,070	-0,137	-0,033
-387,263	-33,689	0,147	0,058
-386,248	34,710	0,080	0,050
-385,233	747,927	-0,043	0,084
-384,219	-154,808	-0,125	0,006
-383,204	49,588	-0,060	-0,040
-382,190	49,527	-0,082	0,055
-381,175	-66,997	-0,008	-0,002
-380,160	-3,270	0,044	-0,022
-379,146	-200,000	0,030	0,182
-378,131	-93,201	0,056	0,011
-377,117	-28,896	-0,133	-0,055
-376,102	-142,074	0,084	0,006
-375,088	-36,316	-0,182	-0,070
-374,073	-74,574	0,033	-0,009
-373,058	-56,731	0,107	0,034
-372,044	-200,000	0,011	0,149
-371,029	751,503	0,053	0,102
-370,015	800,000	0,031	0,064
-369,000	-200,000	-0,011	-0,086
-367,985	578,497	-0,029	0,050
-366,971	-180,537	-0,025	-0,000
-365,956	-5,348	0,039	-0,019
-364,942	-55,819	0,053	0,017
-363,927	-86,916	-0,012	0,003
-362,912	800,000	0,043	0,127
-361,898	800,000	-0,026	-0,072
-360,883	442,174	0,047	-0,073
-359,869	5,531	-0,085	-0,045
-358,854	-33,116	-0,072	0,028
-357,839	-86,510	0,121	-0,026
-356,825	36,606	0,063	0,039
-355,810	713,704	0,079	0,150
-354,796	554,253	0,052	0,089
-353,781	-140,557	-0,107	-0,008
-352,766	498,803	0,085	0,141
-351,752	-200,000	0,015	0,165
-350,737	-200,000	0,000	0,134
-349,723	77,986	0,047	0,036
-348,708	800,000	0,025	0,059
-347,693	349,603	-0,073	0,103
-346,679	-86,406	-0,081	0,018
-345,664	333,561	0,015	0,021
-344,650	51,808	0,126	0,086
-343,635	-90,150	-0,071	-0,015
-342,620	-42,151	0,019	-0,007
-341,606	22,254	-0,084	0,049
-340,591	235,600	0,062	0,074
-339,577	800,000	-0,069	-0,145
-338,562	126,835	-0,082	0,074
-337,548	325,389	0,067	-0,092
-336,533	665,432	0,056	0,104
-335,518	-200,000	0,140	-0,000
-334,504	261,512	-0,043	0,053
-333,489	137,012	0,057	-0,053
-332,475	65,669	-0,105	-0,076
-331,460	-63,068	-0,048	-0,014
-330,445	800,000	-0,009	-0,027
-329,431	-200,000	0,007	-0,070
-328,416	-200,000	-0,010	0,139
-327,402	-22,372	0,094	0,041
-326,387	130,726	0,101	-0,092
-325,372	572,747	0,057	-0,100
-324,358	759,406	0,045	-0,088
-323,343	-105,936	0,085	0,013
-322,329	194,687	-0,046	-0,050
-321,314	-200,000	0,035	0,270
-320,299	-200,000	0,027	0,139
-319,285	295,676	-0,019	-0,025
-318,270	-124,265	-0,043	0,005
-317,256	84,518	0,064	0,050
-316,241	-200,000	-0,004	-0,040
-315,226	106,788	0,028	0,023
-314,212	-200,000	-0,008	-0,048
-313,197	800,000	0,073	0,148
-312,183	87,344	0,082	-0,065
-311,168	675,490	0,049	-0,091
-310,153	79,962	-0,070	0,054
-309,139	-31,041	-0,023	0,009
-308,124	444,498	0,014	0,021
-307,110	636,983	0,025	0,046
-306,095	45,082	-0,017	0,011
-305,080	508,720	0,063	0,105
-304,066	-22,555	-0,164	-0,070
-303,051	-136,541	-0,084	-0,007
-302,037	-119,602	0,165	-0,020
-301,022	25,222	0,099	-0,059
-300,008	207,887	-0,046	-0,051
-298,993	-48,932	0,093	0,032
-297,978	13,986	-0,018	0,010
-296,964	38,517	-0,131	0,083
-295,949	319,795	0,032	-0,043
-294,935	800,000	-0,044	-0,100
-293,920	-38,983	-0,126	0,047
-292,905	246,165	0,076	0,092
-291,891	-200,000	-0,014	-0,057
-290,876	394,475	0,062	-0,093
-289,862	-52,259	-0,063	-0,021
-288,847	-21,704	-0,073	0,032
-287,832	-95,953	-0,027	0,005
-286,818	800,000	0,040	-0,118
-285,803	-200,000	-0,030	-0,097
-284,789	800,000	0,042	0,119
-283,774	-38,308	0,133	0,050
-282,759	-125,129	-0,077	0,008
-281,745	-200,000	-0,002	-0,099
-280,730	800,000	-0,037	-0,074
-279,716	-30,828	0,070	-0,028
-278,701	-114,171	-0,035	0,005
-277,686	195,955	0,041	0,044
-276,672	-200,000	-0,008	0,174
-275,657	528,536	-0,012	-0,020
-274,643	-200,000	0,001	0,088
-273,628	317,574	-0,055	-0,075
-272,613	76,849	-0,014	0,010
-271,599	800,000	0,004	-0,010
-270,584	724,388	0,045	-0,086
-269,570	-200,000	0,065	-0,218
-268,555	28,688	0,083	0,050
-267,540	-200,000	-0,004	0,016
-266,526	-63,793	-0,033	-0,010
-265,511	-130,721	0,044	-0,004
-264,497	204,234	0,031	-0,034
-263,482	-200,000	0,014	0,129
-262,467	-78,223	0,049	-0,012
-261,453	-200,000	-0,012	-0,088
-260,438	-84,337	-0,030	-0,007
-259,424	74,653	0,014	0,011
-258,409	33,888	-0,074	-0,046
-257,395	-5,524	-0,107	-0,052
-256,380	-78,963	-0,064	-0,015
-255,365	507,252	0,062	0,103
-254,351	-200,000	-0,002	-0,214
-253,336	-200,000	-0,004	-0,117
-252,322	-84,855	-0,017	-0,004
-251,307	317,445	-0,027	0,037
-250,292	-193,335	0,067	0,000
-249,278	-110,886	-0,062	0,009
-248,263	800,000	0,057	0,134
-247,249	310,528	0,080	0,107
-246,234	342,505	-0,056	0,078
-245,219	698,659	-0,071	-0,133
-244,205	-96,262	-0,105	-0,020
-243,190	300,873	0,026	0,035
-242,176	-200,000	-0,002	-0,056
-241,161	205,180	0,019	-0,021
-240,146	453,562	0,065	0,102
-239,132	-152,800	-0,086	0,004
-238,117	135,433	0,065	-0,061
-237,103	31,573	0,054	-0,033
-236,088	129,775	-0,049	0,045
-235,073	-169,749	0,235	0,006
-234,059	-123,001	0,021	-0,002
-233,044	349,900	-0,028	0,040
-232,030	18,653	-0,088	0,050
-231,015	85,287	-0,090	0,070
-230,000	800,000	-0,061	-0,136
-228,986	32,469	0,059	0,036
-227,971	392,527	0,062	0,093
-226,957	-97,003	0,079	-0,015
-225,942	-200,000	-0,017	0,069
-224,927	-94,491	-0,073	-0,014
-223,913	800,000	-0,041	-0,090
-222,898	800,000	0,067	-0,151
-221,884	-200,000	-0,040	0,167
-220,869	574,510	-0,049	0,086
-219,855	800,000	-0,051	-0,124
-218,840	57,304	-0,055	0,038
-217,825	800,000	0,039	-0,118
-216,811	80,690	0,078	-0,059
-215,796	472,399	-0,077	-0,123
-214,782	619,113	0,024	0,043
-213,767	123,379	0,043	0,038
-212,752	206,430	0,104	0,116
-211,738	800,000	-0,061	0,148
-210,723	57,734	-0,135	0,094
-209,709	98,308	-0,071	-0,058
-208,694	351,687	0,033	-0,046
-207,679	523,684	-0,076	0,127
-206,665	263,990	0,131	0,163
-205,650	-200,000	-0,012	0,082
-204,636	308,984	0,037	-0,050
-203,621	-200,000	-0,007	0,029
-202,606	-200,000	0,014	0,046
-201,592	-5,951	0,033	-0,016
-200,577	-68,514	-0,107	-0,029
-199,563	800,000	0,024	0,049
-198,548	-200,000	-0,007	0,129
-197,533	251,393	-0,099	0,120
-196,519	800,000	-0,017	0,052
-195,504	-22,350	-0,043	-0,018
-194,490	108,325	0,074	-0,063
-193,475	86,774	-0,097	-0,076
-192,460	94,720	0,161	-0,130
-191,446	-24,806	0,145	-0,061
-190,431	98,861	0,028	-0,023
-189,417	-200,000	0,012	0,051
-188,402	203,804	-0,101	-0,111
-187,387	630,752	-0,116	-0,209
-186,373	-200,000	-0,044	0,152
-185,358	50,523	-0,058	-0,039
-184,344	101,847	0,062	-0,051
-183,329	352,614	0,036	0,051
-182,315	50,780	-0,085	0,057
-181,300	294,276	-0,110	0,143
-180,285	-200,000	0,017	0,058
-179,271	-200,000	-0,049	-0,168
-178,256	303,007	0,021	0,027
-177,242	-200,000	-0,011	0,048
-176,227	-200,000	-0,008	0,036
-175,212	109,378	-0,064	0,054
-174,198	-97,376	-0,101	0,019
-173,183	212,606	0,071	0,079
-172,169	-200,000	0,014	-0,111
-171,154	800,000	-0,032	-0,097
-170,139	-67,422	0,128	-0,035
-169,125	363,274	0,052	-0,075
-168,110	18,014	0,024	0,013
-167,096	-114,083	0,090	0,012
-166,081	127,512	0,057	0,051
-165,066	701,250	-0,040	0,075
-164,052	-200,000	-0,018	0,207
-163,037	-28,308	0,094	0,038
-162,023	800,000	-0,021	-0,060
-161,008	-103,081	0,139	0,023
-159,993	582,974	-0,048	0,084
-158,979	309,261	-0,022	0,029
-157,964	7,284	-0,033	0,017
-156,950	18,695	-0,118	0,067
-155,935	-200,000	0,011	0,055
-154,920	17,885	0,062	0,035
-153,906	-129,051	0,142	0,014
-152,891	-97,172	-0,090	-0,017
-151,877	-200,000	-0,020	0,124
-150,862	-200,000	-0,006	-0,116
-149,847	-67,476	-0,090	-0,025
-148,833	67,655	0,052	0,038
-147,818	-200,000	0,011	0,106
-146,804	-100,789	0,138	0,024
-145,789	-200,000	-0,005	0,058
-144,775	-78,734	0,086	0,021
-143,760	-106,859	-0,032	0,005
-142,745	-11,810	-0,098	-0,045
-141,731	28,638	-0,075	-0,045
-140,716	-42,850	-0,012	-0,004
-139,702	27,424	0,082	0,049
-138,687	-200,000	-0,008	0,162
-137,672	386,704	0,012	-0,017
-136,658	52,137	-0,113	-0,076
-135,643	126,112	0,028	0,025
-134,629	-200,000	0,001	-0,018
-133,614	-131,946	0,118	0,011
-132,599	800,000	0,065	0,141
-131,585	694,634	-0,062	0,116
-130,570	-200,000	0,022	-0,080
-129,556	-200,000	-0,010	-0,054
-128,541	526,529	-0,008	-0,014
-127,526	5,970	-0,135	-0,071
-126,512	68,377	0,066	-0,048
-125,497	-77,686	0,163	0,040
-124,483	688,764	-0,047	0,088
-123,468	125,152	-0,060	-0,053
-122,453	-117,792	-0,041	-0,005
-121,439	-61,836	0,071	-0,021
-120,424	288,967	-0,025	-0,032
-119,410	624,878	0,061	-0,110
-118,395	194,478	0,094	0,101
-117,380	-6,056	-0,023	-0,011
-116,366	-53,300	0,102	-0,033
-115,351	-200,000	0,004	0,014
-114,337	113,621	-0,054	0,046
-113,322	65,761	-0,065	-0,046
-112,307	261,021	-0,073	0,090
-111,293	277,183	0,102	0,129
-110,278	440,751	0,038	-0,059
-109,264	-200,000	-0,012	-0,138
-108,249	800,000	-0,015	-0,042
-107,234	42,343	0,153	-0,098
-106,220	-200,000	-0,004	-0,051
-105,205	116,097	-0,058	-0,050
-104,191	-7,004	0,163	0,078
-103,176	-27,325	0,075	-0,031
-102,162	-47,207	-0,061	0,021
-101,147	-169,994	-0,112	0,003
-100,132	-78,043	-0,066	0,016
-99,118	-26,275	-0,063	-0,026
-98,103	-185,260	-0,104	-0,001
-97,089	262,573	0,093	0,114
-96,074	118,307	-0,054	0,047
-95,059	-58,175	0,065	0,020
-94,045	243,010	-0,072	0,085
-93,030	22,260	-0,141	-0,081
-92,016	800,000	0,027	-0,064
-91,001	49,930	-0,040	-0,027
-89,986	800,000	-0,049	0,141
-88,972	800,000	0,009	-0,021
-87,957	-177,633	-0,063	0,001
-86,943	193,562	-0,026	0,028
-85,928	150,222	-0,113	0,109
-84,913	267,033	-0,037	-0,046
-83,899	-200,000	0,028	0,118
-82,884	800,000	-0,044	0,108
-81,870	-188,422	0,053	-0,000
-80,855	800,000	-0,036	0,086
-79,840	140,831	-0,030	-0,028
-78,826	-200,000	-0,018	-0,134
-77,811	93,483	-0,051	0,041
-76,797	93,879	-0,046	-0,037
-75,782	162,015	-0,035	0,034
-74,767	800,000	0,083	0,167
-73,753	599,470	0,010	0,018
-72,738	-200,000	0,006	0,063
-71,724	107,023	0,028	0,024
-70,709	-65,541	-0,067	-0,019
-69,694	35,961	-0,143	-0,089
-68,680	120,707	-0,037	-0,033
-67,665	-146,632	0,192	-0,012
-66,651	-200,000	0,018	0,144
-65,636	-200,000	-0,039	0,161
-64,622	-200,000	0,032	-0,165
-63,607	-74,045	-0,076	-0,019
-62,592	-50,283	-0,119	0,040
-61,578	76,112	0,026	0,020
-60,563	-154,758	0,170	-0,008
-59,549	-200,000	-0,034	0,212
-58,534	-0,176	-1,790	-0,898
-57,519	420,304	-1,369	-2,081
-56,505	-200,000	-0,412	-4,700
-55,490	398,870	1,014	1,505
-54,476	800,000	4,893	11,157
-53,461	-200,000	20,424	324,270
-52,446	800,000	752,440	2311,576
-51,432	548,943	1663,078	2828,281
-50,417	74,790	1671,653	1242,701
-49,403	19,854	1544,813	877,519
-48,388	13,879	1467,301	804,411
-47,373	18,416	1457,269	820,796
-46,359	16,289	1446,879	804,723
-45,344	12,165	1442,447	782,474
-44,330	12,059	1440,543	780,906
-43,315	12,030	1438,864	779,824
-42,300	12,092	1436,981	779,067
-41,286	12,070	1436,133	778,470
-40,271	12,030	1434,452	777,340
-39,257	12,048	1433,335	776,789
-38,242	12,104	1432,185	776,403
-37,227	12,059	1431,103	775,568
-36,213	12,056	1429,663	774,745
-35,198	12,064	1428,533	774,142
-34,184	12,121	1427,625	773,888
-33,169	12,079	1426,089	772,824
-32,154	12,145	1424,849	772,433
-31,140	12,166	1423,595	771,826
-30,125	12,171	1422,669	771,314
-29,111	12,114	1421,587	770,428
-28,096	12,119	1420,248	769,695
-27,082	12,060	1419,332	768,889
-26,067	12,069	1418,155	768,265
-25,052	12,076	1416,960	767,618
-24,038	12,030	1416,128	766,921
-23,023	12,050	1415,066	766,409
-22,009	11,994	1414,142	765,615
-20,994	11,977	1413,246	765,024
-19,979	12,032	1412,224	764,695
-18,965	11,957	1411,446	763,891
-17,950	12,014	1410,387	763,557
-16,936	11,982	1409,613	762,956
-15,921	11,920	1408,534	762,054
-14,906	11,982	1407,663	761,841
-13,892	11,966	1406,667	761,195
-12,877	11,952	1405,950	760,714
-11,863	11,934	1404,825	759,992
-10,848	11,913	1404,194	759,522
-9,833	11,900	1403,139	758,859
-8,819	11,857	1402,415	758,237
-7,804	11,875	1401,567	757,833
-6,790	11,823	1400,411	756,936
-5,775	11,858	1399,237	756,436
-4,760	11,882	1398,239	755,975
-3,746	11,830	1397,573	755,345
-2,731	11,864	1396,668	754,983
-1,717	11,804	1395,964	754,292
-0,702	11,824	1394,176	753,391
0,313	15,777	1308,704	725,450
1,327	32,077	699,587	425,246
2,342	49,873	121,849	81,043
3,356	-1,165	16,589	8,255
4,371	-7,202	3,226	1,540
5,386	2,421	0,566	0,288
6,400	-200,000	0,047	0,326
7,415	-117,534	-0,107	-0,014
8,429	20,395	-0,404	-0,230
9,444	49,985	-0,317	-0,211
10,459	10,406	-0,320	-0,172
11,473	87,621	-0,338	-0,264
12,488	88,085	-0,240	-0,188
13,502	47,649	-0,368	-0,242
14,517	26,413	-0,352	-0,207
15,531	142,366	-0,318	-0,298
16,546	120,716	-0,286	-0,251
17,561	599,160	-0,243	-0,426
18,575	21,812	-0,199	-0,114
19,590	789,270	-0,215	-0,419
20,604	-40,339	-0,253	-0,092
21,619	147,759	-0,326	-0,310
22,634	146,918	-0,348	-0,330
23,648	63,854	-0,356	-0,252
24,663	52,903	-0,375	-0,252
25,677	55,873	-0,414	-0,283
26,692	121,931	-0,352	-0,310
27,707	-26,513	-0,488	-0,201
28,721	97,476	-0,338	-0,274
29,736	-25,620	-0,357	-0,148
30,750	395,620	-0,336	-0,495
31,765	-7,215	-0,481	-0,229
32,780	488,540	-0,296	-0,477
33,794	124,888	-0,358	-0,317
34,809	116,298	-0,325	-0,280
35,823	125,915	-0,336	-0,299
36,838	159,281	-0,411	-0,403
37,853	90,544	-0,269	-0,212
38,867	274,493	-0,266	-0,332
39,882	100,893	-0,331	-0,271
40,896	79,110	-0,361	-0,272
41,911	41,131	-0,339	-0,215
42,926	41,459	-0,307	-0,195
43,940	91,146	-0,334	-0,264
44,955	114,602	-0,385	-0,330
45,969	262,796	-0,292	-0,358
46,984	57,100	-0,315	-0,216
47,999	19,106	-0,256	-0,144
49,013	20,376	-0,326	-0,185
50,028	-12,764	-0,349	-0,160
51,042	85,265	-0,451	-0,348
52,057	158,759	-0,236	-0,231
53,071	33,653	-0,349	-0,213
54,086	77,450	-0,319	-0,238
55,101	193,831	-0,268	-0,286
56,115	274,753	-0,172	-0,214
57,130	18,406	-0,437	-0,245
58,144	173,949	-0,308	-0,314
59,159	81,428	-0,348	-0,264
60,174	21,543	-0,332	-0,189
61,188	66,593	-0,326	-0,233
62,203	117,622	-0,271	-0,234
63,217	-20,759	-0,453	-0,194
64,232	-24,878	-0,304	-0,126
65,247	108,553	-0,231	-0,193
66,261	-148,619	-0,480	-0,027
67,276	94,514	-0,319	-0,254
68,290	1,150	-0,345	-0,173
69,305	-9,750	-0,323	-0,151
70,320	-58,950	-0,219	-0,066
71,334	29,150	-0,320	-0,190
72,349	-26,424	-0,255	-0,104
73,363	100,737	-0,391	-0,319
74,378	17,636	-0,433	-0,241
75,393	58,983	-0,302	-0,208
76,407	133,265	-0,273	-0,248
77,422	103,797	-0,238	-0,196
78,436	-59,726	-0,390	-0,117
79,451	179,167	-0,149	-0,153
80,466	-44,022	-0,361	-0,126
81,480	-80,930	-0,271	-0,063
82,495	44,922	-0,254	-0,164
83,509	57,184	-0,333	-0,228
84,524	118,303	-0,276	-0,239
85,539	307,247	-0,219	-0,287
86,553	118,532	-0,267	-0,231
87,568	65,890	-0,339	-0,241
88,582	-1,985	-0,361	-0,177
89,597	58,094	-0,308	-0,211
90,611	73,857	-0,209	-0,154
91,626	53,839	-0,364	-0,245
92,641	-41,547	-0,267	-0,096
93,655	-16,456	-0,247	-0,109
94,670	156,649	-0,329	-0,318
95,684	7,199	-0,337	-0,176
96,699	112,664	-0,317	-0,269
97,714	800,000	-0,084	-0,212
98,728	-87,815	-0,210	-0,044
99,743	39,047	-0,259	-0,162
100,757	18,457	-0,341	-0,191
101,772	167,291	-0,170	-0,169
102,787	66,771	-0,419	-0,299
103,801	30,008	-0,304	-0,181
104,816	-44,459	-0,383	-0,133
105,830	-38,913	-0,310	-0,114
106,845	72,569	-0,288	-0,210
107,860	28,323	-0,244	-0,144
108,874	111,665	-0,267	-0,226
109,889	253,527	-0,147	-0,177
110,903	56,151	-0,269	-0,182
111,918	126,138	-0,174	-0,154
112,933	21,638	-0,266	-0,151
113,947	-49,608	-0,415	-0,137
114,962	2,427	-0,224	-0,113
115,976	143,971	-0,269	-0,251
116,991	10,039	-0,206	-0,109
118,006	166,546	-0,302	-0,300
119,020	-172,320	-0,209	-0,005
120,035	24,307	-0,289	-0,166
121,049	164,968	-0,159	-0,157
122,064	-31,075	-0,189	-0,074
123,079	-32,349	-0,237	-0,092
124,093	58,064	-0,308	-0,211
125,108	56,950	-0,281	-0,191
126,122	98,225	-0,209	-0,168
127,137	-135,007	-0,243	-0,020
128,151	272,694	-0,177	-0,219
129,166	45,982	-0,182	-0,117
130,181	227,347	-0,292	-0,333
131,195	441,547	-0,165	-0,253
132,210	-6,691	-0,247	-0,117
133,224	-35,509	-0,373	-0,141
134,239	800,000	-0,125	-0,257
135,254	59,024	-0,216	-0,148
136,268	-73,418	-0,192	-0,049
137,283	99,348	-0,288	-0,232
138,297	159,219	-0,273	-0,266
139,312	-200,000	-0,053	-0,269
140,327	3,194	-0,249	-0,126
141,341	221,110	-0,250	-0,280
142,356	141,005	-0,170	-0,157
143,370	103,468	-0,191	-0,156
144,385	215,682	-0,275	-0,305
145,400	100,075	-0,257	-0,207
146,414	332,878	-0,145	-0,197
147,429	117,885	-0,267	-0,229
148,443	144,842	-0,252	-0,235
149,458	59,176	-0,285	-0,195
150,473	34,512	-0,197	-0,120
151,487	10,352	-0,247	-0,131
152,502	123,436	-0,248	-0,217
153,516	-13,862	-0,360	-0,162
154,531	274,789	-0,193	-0,239
155,546	-59,375	-0,366	-0,109
156,560	345,574	-0,207	-0,285
157,575	110,478	-0,198	-0,166
158,589	57,380	-0,200	-0,136
159,604	-82,893	-0,294	-0,066
160,619	83,556	-0,316	-0,240
161,633	22,045	-0,282	-0,160
162,648	800,000	-0,114	-0,253
163,662	-67,670	-0,239	-0,065
164,677	151,649	-0,230	-0,218
165,692	307,367	-0,160	-0,208
166,706	72,977	-0,236	-0,172
167,721	69,889	-0,315	-0,226
168,735	223,817	-0,205	-0,231
169,750	238,905	-0,131	-0,152
170,764	35,455	-0,195	-0,119
171,779	196,111	-0,187	-0,199
172,794	-108,730	-0,269	-0,040
173,808	15,360	-0,283	-0,154
174,823	-59,655	-0,193	-0,057
175,837	84,259	-0,194	-0,147
176,852	-90,539	-0,281	-0,056
177,867	526,765	-0,179	-0,295
178,881	58,136	-0,247	-0,168
179,896	14,183	-0,083	-0,045
180,910	-31,255	-0,345	-0,134
181,925	144,004	-0,220	-0,204
182,940	142,792	-0,206	-0,191
183,954	85,438	-0,220	-0,168
184,969	315,085	-0,186	-0,245
185,983	800,000	-0,107	-0,306
186,998	289,346	-0,166	-0,210
188,013	-39,190	-0,339	-0,123
189,027	231,522	-0,164	-0,187
190,042	140,443	-0,244	-0,224
191,056	100,581	-0,189	-0,153
192,071	-68,314	-0,189	-0,051
193,086	-144,503	-0,129	0,008
194,100	593,057	-0,142	-0,245
195,115	800,000	-0,087	-0,174
196,129	102,634	-0,151	-0,123
197,144	503,693	-0,185	-0,298
198,159	426,002	-0,141	-0,211
199,173	59,070	-0,197	-0,134
200,188	-29,751	-0,352	-0,139
201,202	15,598	-0,195	-0,106
202,217	-25,767	-0,110	0,045
203,232	266,606	-0,166	-0,202
204,246	66,134	-0,180	-0,126
205,261	800,000	-0,089	-0,236
206,275	94,178	-0,271	-0,213
207,290	47,564	-0,069	-0,045
208,304	12,913	-0,232	-0,124
209,319	120,324	-0,106	-0,091
210,334	267,139	-0,224	-0,272
211,348	102,011	-0,335	-0,271
212,363	52,087	-0,303	-0,200
213,377	439,022	-0,090	-0,137
214,392	-8,873	-0,083	-0,039
215,407	-93,374	-0,170	-0,032
216,421	115,598	-0,142	-0,120
217,436	307,846	-0,134	-0,173
218,450	157,207	-0,255	-0,245
219,465	74,519	-0,192	-0,140
220,480	109,430	-0,364	-0,302
221,494	-101,103	-0,301	-0,051
222,509	372,696	-0,188	-0,266
223,523	-30,542	-0,120	-0,047
224,538	800,000	-0,030	-0,071
225,553	105,839	-0,220	-0,180
226,567	145,027	-0,260	-0,241
227,582	18,229	-0,246	-0,136
228,596	232,495	-0,091	-0,104
229,611	536,598	-0,102	-0,168
230,626	13,828	-0,101	-0,054
231,640	94,880	-0,204	-0,160
232,655	88,716	-0,210	-0,162
233,669	109,400	-0,239	-0,198
234,684	378,231	-0,077	-0,110
235,699	257,876	-0,178	-0,213
236,713	274,642	-0,153	-0,188
237,728	266,457	-0,122	-0,147
238,742	-49,354	-0,180	-0,059
239,757	-200,000	-0,027	-0,086
240,772	-3,259	-0,220	-0,106
241,786	-161,128	-0,226	-0,008
242,801	-95,691	-0,201	-0,037
243,815	-67,421	-0,029	-0,008
244,830	-46,079	-0,177	-0,060
245,844	-78,270	-0,184	-0,043
246,859	-121,414	-0,189	0,021
247,874	285,687	-0,124	-0,154
248,888	-10,674	-0,172	-0,078
249,903	171,174	-0,151	-0,149
250,917	128,093	-0,103	-0,091
251,932	192,232	-0,155	-0,161
252,947	371,203	-0,115	-0,162
253,961	144,493	-0,222	-0,205
254,976	133,762	-0,221	-0,197
255,990	404,203	-0,097	-0,142
257,005	-49,765	-0,190	-0,062
258,020	-28,848	-0,197	-0,078
259,034	386,456	-0,104	-0,148
260,049	-49,518	-0,180	-0,059
261,063	67,342	-0,225	-0,159
262,078	325,596	-0,172	-0,228
263,093	800,000	-0,085	-0,222
264,107	48,713	-0,203	-0,131
265,122	-75,088	-0,154	-0,038
266,136	172,096	-0,112	-0,111
267,151	121,727	-0,092	-0,079
268,166	326,198	-0,189	-0,251
269,180	514,440	-0,177	-0,286
270,195	330,609	-0,126	-0,168
271,209	800,000	-0,108	-0,230
272,224	236,509	-0,115	-0,131
273,239	384,929	-0,066	-0,094
274,253	-180,098	-0,043	0,001
275,268	-79,246	-0,187	-0,043
276,282	171,788	-0,216	-0,214
277,297	66,449	-0,258	-0,181
278,312	800,000	-0,090	-0,250
279,326	399,944	-0,177	-0,257
280,341	216,066	-0,155	-0,170
281,355	-89,449	-0,174	-0,035
282,370	-86,323	-0,126	-0,026
283,384	360,638	-0,160	-0,222
284,399	149,386	-0,175	-0,163
285,414	-114,598	-0,228	-0,030
286,428	702,554	-0,106	-0,193
287,443	87,550	-0,119	-0,091
288,457	315,121	-0,120	-0,157
289,472	-101,013	-0,142	0,024
290,487	232,072	-0,168	-0,191
291,501	-200,000	-0,056	-0,229
292,516	87,654	-0,225	-0,172
293,530	-12,705	-0,210	-0,094
294,545	78,056	-0,170	-0,125
295,560	488,649	-0,077	-0,122
296,574	-173,513	-0,131	0,003
297,589	215,084	-0,107	-0,117
298,603	437,302	-0,079	-0,119
299,618	-171,985	-0,228	-0,005
300,633	-200,000	0,009	-0,156
301,647	161,233	-0,078	-0,075
302,662	-147,110	-0,078	0,005
303,676	9,332	-0,121	-0,063
304,691	800,000	-0,047	-0,132
305,706	-200,000	-0,015	-0,274
306,720	-96,839	-0,231	-0,041
307,735	800,000	0,006	-0,016
308,749	436,068	-0,065	-0,097
309,764	27,633	-0,164	-0,095
310,779	22,032	-0,218	-0,122
311,793	-159,314	-0,199	0,008
312,808	38,718	-0,169	-0,104
313,822	536,333	-0,086	-0,141
314,837	85,531	-0,203	-0,153
315,852	215,721	-0,122	0,134
316,866	-60,367	-0,121	-0,035
317,881	12,237	-0,122	-0,064
318,895	-11,259	-0,247	-0,111
319,910	-127,452	-0,282	-0,028
320,925	220,056	-0,138	-0,152
321,939	214,957	-0,223	-0,243
322,954	-20,716	-0,164	-0,069
323,968	9,901	-0,187	-0,097
324,983	388,273	-0,112	-0,160
325,997	520,427	-0,040	0,065
327,012	56,405	-0,069	0,046
328,027	191,511	-0,107	-0,111
329,041	800,000	-0,088	-0,233
330,056	-42,395	-0,147	-0,051
331,070	-5,863	-0,240	-0,112
332,085	251,875	-0,165	-0,193
333,100	140,240	-0,239	-0,217
334,114	-68,015	-0,148	-0,039
335,129	399,312	-0,079	-0,114
336,143	-135,739	-0,106	-0,008
337,158	146,978	-0,139	-0,129
338,173	56,998	-0,139	0,093
339,187	-74,965	-0,119	-0,029
340,202	145,373	-0,108	0,099
341,216	245,791	-0,138	-0,159
342,231	181,269	-0,147	-0,149
343,246	207,715	-0,254	-0,272
344,260	319,790	-0,043	-0,056
345,275	-200,000	-0,036	-0,210
346,289	390,242	-0,106	-0,151
347,304	299,208	-0,120	-0,151
348,319	208,661	-0,181	-0,195
349,333	61,689	-0,118	-0,080
350,348	-28,379	-0,163	0,064
351,362	-200,000	-0,041	-0,134
352,377	62,655	-0,107	-0,073
353,392	-134,781	-0,021	-0,002
354,406	77,194	-0,106	-0,077
355,421	208,201	1315,341	1409,934
356,435	160,193	1476,121	1410,414
