DTS Sentinel unit serial number:	SN410029Multiplexer serial number:	ORYXHardware model number:	OX2-SRSoftware version number:	ORYX F/W v4,00 Oryx Data Collector v3.7.2.0data status	okinstallation	B3 Nyhavnadifferential loss correction	single-endedforward channel	channel 1reverse channel	N/Adate	2023/12/05time	08:12:30forward acquisition time	300,00reverse acquisition time	0,00gamma	499,1914k internal	0,3200k external	0,3200temperature offset calibration	1,0000default loss term (dB/km)	0,3820temperature slope calibration	1,0000multiplexer offset coefficient	1,0000multiplexer slope coefficient	1,0000fibre end	0,00T internal ref (°C)	13,41T ext. ref 1 (°C)	-1,91T ext. ref 2 (°C)	-1,99length (m)	temperature (°C)	Stokes	anti-Stokes-744,400	81,521	-0,304	-0,239
-743,385	-200,000	0,037	0,318
-742,371	166,848	-0,304	-0,314
-741,356	800,000	0,095	0,287
-740,342	143,160	-0,202	-0,195
-739,327	800,000	0,160	0,325
-738,312	292,308	-0,211	-0,281
-737,298	-200,000	0,066	0,377
-736,283	-200,000	0,015	-0,289
-735,269	800,000	-0,087	0,246
-734,254	37,881	-0,273	-0,176
-733,239	59,869	-0,217	0,156
-732,225	-200,000	-0,010	-0,384
-731,210	-90,792	0,077	0,016
-730,196	800,000	0,086	-0,189
-729,181	-166,648	0,039	-0,001
-728,167	-46,340	0,062	-0,022
-727,152	124,937	-0,030	0,027
-726,137	704,291	-0,063	-0,122
-725,123	88,075	0,041	0,033
-724,108	-200,000	0,004	-0,046
-723,094	-39,402	-0,174	-0,066
-722,079	-200,000	0,025	-0,104
-721,064	800,000	-0,046	-0,121
-720,050	765,395	0,072	-0,143
-719,035	71,280	0,044	-0,033
-718,021	60,210	-0,048	0,034
-717,006	800,000	-0,021	-0,042
-715,991	-45,298	-0,169	-0,061
-714,977	800,000	-0,016	-0,045
-713,962	-119,447	-0,076	0,010
-712,948	238,495	0,044	0,053
-711,933	-26,814	-0,041	-0,017
-710,918	-35,451	-0,089	-0,035
-709,904	199,885	0,041	-0,045
-708,889	-156,525	-0,132	0,006
-707,875	624,623	-0,075	-0,138
-706,860	-200,000	0,008	0,050
-705,845	800,000	0,021	0,046
-704,831	800,000	-0,023	-0,051
-703,816	-109,767	0,047	0,007
-702,802	-200,000	0,006	-0,020
-701,787	-13,995	-0,096	-0,045
-700,772	6,371	0,118	0,063
-699,758	-184,364	-0,046	-0,001
-698,743	-200,000	-0,003	0,022
-697,729	210,665	0,053	0,060
-696,714	472,727	0,030	-0,049
-695,699	-127,292	-0,075	0,008
-694,685	290,526	-0,104	-0,137
-693,670	123,130	-0,054	-0,049
-692,656	-21,794	0,176	-0,077
-691,641	270,424	0,079	0,101
-690,627	204,532	0,075	0,085
-689,612	190,069	0,083	0,090
-688,597	-200,000	-0,002	-0,024
-687,583	548,865	0,058	-0,101
-686,568	800,000	-0,042	-0,108
-685,554	82,785	-0,019	-0,015
-684,539	-111,316	0,067	0,010
-683,524	0,603	0,123	-0,064
-682,510	788,108	0,035	-0,071
-681,495	182,706	-0,010	-0,011
-680,481	-9,444	-0,188	-0,091
-679,466	-200,000	-0,028	-0,110
-678,451	-38,954	-0,025	0,009
-677,437	-200,000	0,002	-0,023
-676,422	800,000	-0,005	0,013
-675,408	66,853	-0,084	-0,062
-674,393	800,000	0,017	0,034
-673,378	638,497	-0,044	-0,082
-672,364	800,000	-0,028	0,059
-671,349	800,000	0,060	-0,128
-670,335	-171,764	0,096	-0,002
-669,320	-200,000	0,011	0,098
-668,305	124,210	0,051	-0,047
-667,291	-94,259	0,085	-0,017
-666,276	-200,000	0,016	0,075
-665,262	-11,936	-0,031	-0,015
-664,247	-200,000	0,009	-0,036
-663,232	-167,846	0,081	0,002
-662,218	-25,779	-0,126	-0,054
-661,203	202,556	-0,061	0,068
-660,189	-47,968	-0,084	0,029
-659,174	625,042	0,056	0,103
-658,159	24,683	-0,121	-0,072
-657,145	-115,701	0,155	0,021
-656,130	-200,000	-0,005	0,051
-655,116	-200,000	-0,007	-0,091
-654,101	119,354	-0,063	0,057
-653,086	-55,726	-0,029	0,009
-652,072	-200,000	0,011	-0,104
-651,057	-59,295	-0,172	-0,053
-650,043	800,000	-0,057	-0,143
-649,028	-200,000	-0,148	0,000
-648,014	63,299	0,070	0,051
-646,999	270,052	-0,016	0,021
-645,984	-0,691	-0,044	-0,022
-644,970	61,795	0,089	-0,064
-643,955	-30,907	-0,058	-0,024
-642,941	-200,000	-0,042	-0,163
-641,926	-11,762	0,010	-0,005
-640,911	-171,322	0,105	0,002
-639,897	800,000	-0,043	0,098
-638,882	22,669	0,069	0,041
-637,868	13,065	0,026	-0,015
-636,853	-16,355	-0,077	-0,035
-635,838	-168,679	0,029	0,001
-634,824	37,187	-0,094	0,060
-633,809	341,397	-0,032	0,046
-632,795	800,000	0,043	0,101
-631,780	-171,034	-0,055	0,001
-630,765	216,888	0,047	0,055
-629,751	213,159	-0,081	-0,093
-628,736	-132,897	0,114	0,010
-627,722	-93,204	-0,161	0,032
-626,707	566,616	-0,015	0,027
-625,692	800,000	-0,025	-0,066
-624,678	800,000	-0,015	0,031
-623,663	126,030	-0,134	-0,123
-622,649	-120,168	-0,029	0,004
-621,634	55,943	-0,076	-0,053
-620,619	28,957	0,071	0,043
-619,605	4,585	-0,061	-0,032
-618,590	386,398	0,051	-0,076
-617,576	-200,000	0,007	0,082
-616,561	341,332	-0,100	-0,142
-615,546	132,149	-0,062	-0,058
-614,532	-137,390	-0,140	-0,011
-613,517	-200,000	-0,015	-0,053
-612,503	511,981	0,111	-0,188
-611,488	347,089	0,056	0,080
-610,474	384,467	0,041	0,061
-609,459	20,835	-0,135	-0,079
-608,444	28,558	-0,079	0,048
-607,430	-200,000	0,032	-0,128
-606,415	-200,000	-0,005	-0,034
-605,401	399,627	-0,045	-0,068
-604,386	25,420	0,138	0,083
-603,371	234,585	-0,036	0,043
-602,357	-2,699	-0,097	0,049
-601,342	61,038	0,038	0,027
-600,328	-72,094	-0,044	0,012
-599,313	-30,985	-0,087	-0,035
-598,298	-200,000	-0,004	-0,120
-597,284	52,344	0,057	0,040
-596,269	-200,000	0,010	0,121
-595,255	185,180	-0,102	0,110
-594,240	-91,735	0,023	0,005
-593,225	-200,000	-0,004	-0,081
-592,211	-35,788	-0,015	-0,006
-591,196	-174,266	0,117	0,002
-590,182	151,848	-0,040	0,039
-589,167	-200,000	0,006	0,093
-588,152	623,223	0,084	0,153
-587,138	76,890	0,036	0,027
-586,123	278,433	-0,013	-0,017
-585,109	8,097	-0,023	-0,013
-584,094	-75,812	-0,121	-0,031
-583,079	800,000	0,051	0,131
-582,065	800,000	0,034	0,080
-581,050	800,000	-0,022	-0,061
-580,036	800,000	-0,063	-0,130
-579,021	800,000	-0,009	0,024
-578,006	-181,813	-0,040	0,001
-576,992	-16,358	0,088	0,040
-575,977	-200,000	-0,016	-0,156
-574,963	-123,563	0,083	0,009
-573,948	7,186	0,114	-0,061
-572,934	-34,605	0,125	0,049
-571,919	100,000	-0,035	-0,029
-570,904	-200,000	0,049	0,000
-569,890	-105,510	0,055	0,009
-568,875	73,858	0,090	0,068
-567,861	800,000	0,025	0,067
-566,846	6,286	-0,037	-0,020
-565,831	218,466	0,040	0,046
-564,817	800,000	-0,046	-0,094
-563,802	38,181	-0,058	0,037
-562,788	132,556	-0,070	-0,065
-561,773	53,124	-0,097	-0,067
-560,758	800,000	0,038	0,115
-559,744	225,148	-0,095	0,111
-558,729	199,480	0,033	0,037
-557,715	-200,000	0,005	-0,052
-556,700	476,578	-0,086	-0,141
-555,685	198,564	-0,155	-0,171
-554,671	313,369	-0,149	-0,203
-553,656	-81,962	0,115	-0,027
-552,642	-70,206	0,146	0,040
-551,627	800,000	0,010	-0,029
-550,612	-200,000	-0,025	0,184
-549,598	70,230	0,051	-0,038
-548,583	800,000	0,051	-0,104
-547,569	800,000	0,025	0,081
-546,554	359,005	0,064	-0,092
-545,539	-200,000	0,004	0,023
-544,525	-45,037	-0,053	-0,019
-543,510	800,000	0,017	-0,037
-542,496	-131,667	0,005	-0,001
-541,481	-200,000	0,014	0,051
-540,466	-142,479	0,156	-0,011
-539,452	-43,577	0,122	0,044
-538,437	227,777	0,061	0,072
-537,423	654,591	-0,043	-0,081
-536,408	-200,000	0,001	-0,067
-535,393	-200,000	0,010	-0,120
-534,379	238,195	-0,069	-0,083
-533,364	268,882	0,066	-0,084
-532,350	90,442	-0,013	-0,011
-531,335	0,058	0,086	0,044
-530,321	-200,000	0,022	0,200
-529,306	708,549	0,055	0,106
-528,291	-54,767	-0,118	0,038
-527,277	212,325	0,058	-0,066
-526,262	-200,000	0,029	-0,115
-525,248	-139,453	0,122	-0,009
-524,233	800,000	-0,016	-0,045
-523,218	-29,891	0,054	-0,022
-522,204	-200,000	-0,129	0,000
-521,189	130,913	0,051	-0,047
-520,175	-146,422	0,081	0,005
-519,160	800,000	-0,031	-0,097
-518,145	-200,000	-0,015	-0,074
-517,131	418,111	-0,031	0,049
-516,116	14,491	-0,047	0,026
-515,102	-200,000	0,002	-0,059
-514,087	-200,000	0,024	0,092
-513,072	-130,095	0,082	0,008
-512,058	94,537	-0,125	-0,103
-511,043	382,347	0,121	-0,180
-510,029	-85,909	0,101	0,022
-509,014	95,252	0,071	-0,059
-507,999	800,000	0,041	-0,107
-506,985	-200,000	-0,000	-0,009
-505,970	-119,255	-0,022	0,003
-504,956	115,365	0,089	0,078
-503,941	196,413	-0,009	-0,010
-502,926	-28,257	0,089	-0,037
-501,912	399,965	0,085	0,129
-500,897	347,383	0,077	0,110
-499,883	120,319	-0,132	0,118
-498,868	64,140	-0,011	0,008
-497,853	122,002	-0,083	0,075
-496,839	106,930	-0,163	-0,140
-495,824	-200,000	-0,023	-0,079
-494,810	-200,000	0,023	0,140
-493,795	301,964	0,129	0,172
-492,781	800,000	0,051	-0,138
-491,766	73,325	0,116	-0,088
-490,751	23,272	-0,054	0,032
-489,737	-91,409	-0,096	0,020
-488,722	31,151	0,045	-0,028
-487,708	-200,000	-0,013	0,052
-486,693	-52,777	-0,055	0,018
-485,678	168,661	0,038	0,040
-484,664	95,815	-0,030	0,024
-483,649	-109,936	0,113	-0,017
-482,635	-200,000	0,005	-0,060
-481,620	-27,321	0,064	0,027
-480,605	-200,000	-0,004	0,057
-479,591	182,436	-0,092	0,098
-478,576	-3,327	0,060	-0,030
-477,562	-51,574	-0,119	-0,040
-476,547	252,519	-0,045	-0,055
-475,532	96,181	-0,104	-0,085
-474,518	171,336	0,025	0,026
-473,503	-200,000	-0,001	-0,026
-472,489	-131,503	0,058	0,005
-471,474	-200,000	-0,012	0,060
-470,459	142,385	0,027	-0,026
-469,445	-200,000	-0,016	0,079
-468,430	-125,806	-0,090	-0,010
-467,416	-116,739	-0,147	0,019
-466,401	52,691	-0,029	0,020
-465,386	-200,000	0,004	-0,038
-464,372	22,481	-0,076	-0,045
-463,357	-200,000	0,011	0,096
-462,343	-36,705	-0,095	-0,037
-461,328	-8,316	-0,031	-0,015
-460,313	800,000	-0,071	0,171
-459,299	63,862	0,087	0,063
-458,284	-129,902	0,044	0,004
-457,270	-150,565	-0,044	0,002
-456,255	-45,885	-0,107	0,038
-455,241	225,764	-0,105	-0,123
-454,226	-192,842	0,035	0,000
-453,211	-200,000	0,008	-0,039
-452,197	71,612	-0,038	0,028
-451,182	-101,051	0,142	0,025
-450,168	16,442	-0,136	0,077
-449,153	-41,069	0,104	-0,038
-448,138	-144,429	-0,191	0,013
-447,124	11,685	0,166	-0,091
-446,109	153,764	-0,024	-0,023
-445,095	800,000	-0,079	0,183
-444,080	83,467	0,181	-0,142
-443,065	345,132	0,031	0,044
-442,051	27,608	-0,069	0,042
-441,036	48,667	-0,135	-0,091
-440,022	-158,961	-0,135	-0,005
-439,007	-200,000	0,006	-0,032
-437,992	335,383	0,075	0,106
-436,978	-86,753	0,093	-0,020
-435,963	-56,514	0,068	-0,022
-434,949	478,259	-0,053	-0,086
-433,934	132,968	0,097	-0,090
-432,919	33,025	-0,063	-0,039
-431,905	-200,000	0,011	0,065
-430,890	800,000	0,021	0,046
-429,876	800,000	-0,043	0,112
-428,861	-2,977	0,035	0,017
-427,846	-47,398	0,065	-0,023
-426,832	50,775	-0,137	-0,093
-425,817	-200,000	0,007	-0,111
-424,803	58,319	-0,062	-0,044
-423,788	800,000	-0,047	-0,118
-422,773	800,000	0,016	-0,044
-421,759	50,001	0,084	-0,057
-420,744	59,117	-0,053	0,037
-419,730	278,803	0,061	-0,078
-418,715	-51,697	-0,034	-0,011
-417,701	-200,000	0,024	-0,132
-416,686	69,801	-0,033	0,025
-415,671	-163,044	0,063	-0,002
-414,657	-114,775	0,057	0,008
-413,642	243,880	0,048	0,058
-412,628	650,263	0,031	-0,056
-411,613	-0,592	-0,069	0,035
-410,598	632,897	0,034	0,063
-409,584	337,630	0,057	0,080
-408,569	-40,863	-0,060	0,022
-407,555	-121,696	0,094	0,011
-406,540	-200,000	-0,043	-0,138
-405,525	-53,536	-0,064	-0,021
-404,511	-50,711	0,083	0,028
-403,496	-42,340	0,075	0,027
-402,482	-200,000	-0,012	-0,072
-401,467	462,645	0,025	0,041
-400,452	-148,849	0,104	0,006
-399,438	-63,158	-0,142	-0,042
-398,423	223,915	-0,069	-0,080
-397,409	800,000	-0,031	-0,091
-396,394	60,356	0,058	-0,041
-395,379	386,493	0,062	0,092
-394,365	-109,931	-0,185	-0,028
-393,350	-200,000	-0,013	0,075
-392,336	-200,000	-0,030	0,102
-391,321	-27,086	0,070	0,029
-390,306	662,111	-0,085	-0,159
-389,292	70,488	0,058	0,043
-388,277	71,024	0,039	0,029
-387,263	800,000	-0,045	0,115
-386,248	289,576	0,124	0,161
-385,233	-70,650	0,203	0,055
-384,219	184,433	-0,147	-0,156
-383,204	-200,000	-0,012	-0,097
-382,190	-56,929	0,006	-0,002
-381,175	113,675	0,023	0,020
-380,160	800,000	0,018	0,046
-379,146	252,613	0,084	-0,103
-378,131	800,000	-0,016	0,045
-377,117	227,405	-0,069	-0,080
-376,102	-200,000	-0,015	0,145
-375,088	197,151	-0,040	0,043
-374,073	36,346	0,171	-0,108
-373,058	800,000	0,046	0,130
-372,044	-200,000	-0,015	0,062
-371,029	115,577	0,058	0,051
-370,015	-90,834	0,108	-0,022
-369,000	176,248	-0,086	0,090
-367,985	-89,951	-0,115	-0,024
-366,971	157,182	0,058	-0,057
-365,956	-200,000	-0,002	0,011
-364,942	-30,050	-0,079	0,032
-363,927	69,788	0,066	-0,049
-362,912	96,272	0,083	0,068
-361,898	244,859	0,052	-0,062
-360,883	22,406	0,024	-0,014
-359,869	19,838	0,045	-0,026
-358,854	800,000	0,044	0,106
-357,839	342,559	0,065	-0,092
-356,825	-200,000	0,016	0,059
-355,810	3,932	0,039	-0,020
-354,796	140,133	0,079	-0,075
-353,781	8,643	-0,088	-0,047
-352,766	-131,212	-0,095	0,009
-351,752	-97,830	0,123	0,023
-350,737	800,000	-0,052	0,119
-349,723	-200,000	-0,059	0,201
-348,708	371,008	0,104	-0,152
-347,693	-200,000	-0,001	0,009
-346,679	-200,000	0,001	-0,155
-345,664	-41,120	0,099	-0,036
-344,650	125,436	0,057	-0,052
-343,635	601,288	-0,088	0,157
-342,620	591,673	0,063	-0,111
-341,606	153,977	0,042	-0,042
-340,591	-170,593	-0,062	0,002
-339,577	394,798	-0,051	-0,076
-338,562	201,916	-0,051	-0,056
-337,548	-1,163	-0,094	-0,048
-336,533	800,000	0,051	-0,146
-335,518	-200,000	0,024	-0,096
-334,504	92,549	0,038	0,031
-333,489	-200,000	0,013	-0,089
-332,475	200,820	-0,145	-0,160
-331,460	-33,190	0,052	0,021
-330,445	16,451	-0,055	0,031
-329,431	289,254	0,028	-0,036
-328,416	315,532	0,039	0,052
-327,402	-200,000	0,005	0,056
-326,387	-200,000	0,021	0,199
-325,372	800,000	-0,036	0,087
-324,358	35,923	-0,196	-0,123
-323,343	147,884	-0,065	-0,063
-322,329	-100,248	-0,104	-0,018
-321,314	285,204	0,041	0,052
-320,299	237,349	0,113	-0,135
-319,285	-200,000	0,012	0,054
-318,270	800,000	-0,028	-0,089
-317,256	-200,000	0,007	-0,086
-316,241	800,000	0,071	0,149
-315,226	-200,000	0,006	-0,027
-314,212	611,374	0,042	-0,075
-313,197	-98,771	0,049	0,009
-312,183	683,065	-0,021	0,040
-311,168	800,000	0,029	-0,058
-310,153	800,000	-0,058	-0,147
-309,139	800,000	0,018	0,048
-308,124	-78,095	0,090	0,022
-307,110	-78,363	0,093	-0,023
-306,095	-144,485	-0,058	-0,004
-305,080	-200,000	-0,003	-0,055
-304,066	-117,192	-0,085	-0,011
-303,051	800,000	-0,010	-0,023
-302,037	343,509	0,060	0,084
-301,022	167,044	0,049	-0,050
-300,008	-150,524	0,088	-0,005
-298,993	-9,400	-0,069	0,033
-297,978	800,000	-0,008	-0,022
-296,964	503,746	-0,078	-0,130
-295,949	239,679	-0,118	-0,140
-294,935	212,435	-0,037	0,041
-293,920	-72,046	0,068	-0,018
-292,905	-79,784	-0,112	-0,027
-291,891	800,000	0,033	0,067
-290,876	-200,000	-0,000	0,035
-289,862	20,040	-0,127	-0,073
-288,847	-198,310	-0,181	-0,001
-287,832	800,000	0,016	0,034
-286,818	-200,000	-0,013	0,142
-285,803	-105,367	-0,099	0,016
-284,789	168,520	-0,041	-0,041
-283,774	140,512	0,054	-0,051
-282,759	422,394	-0,073	0,112
-281,745	-200,000	-0,038	0,124
-280,730	140,998	0,102	-0,096
-279,716	-200,000	-0,024	-0,081
-278,701	-69,908	0,098	-0,026
-277,686	-46,695	0,015	0,005
-276,672	-55,988	0,099	0,031
-275,657	640,404	-0,031	-0,057
-274,643	-200,000	0,008	-0,033
-273,628	103,663	-0,113	-0,095
-272,613	-3,627	0,052	0,026
-271,599	244,878	-0,063	0,075
-270,584	40,184	0,142	0,091
-269,570	800,000	0,031	0,093
-268,555	1,055	0,071	-0,036
-267,540	-200,000	0,008	0,059
-266,526	800,000	-0,042	-0,093
-265,511	2,311	-0,142	0,073
-264,497	329,467	0,071	0,097
-263,482	-167,932	-0,032	0,001
-262,467	613,111	0,099	0,178
-261,453	800,000	-0,022	0,048
-260,438	84,790	-0,075	0,058
-259,424	800,000	-0,051	0,120
-258,409	-181,790	-0,156	0,002
-257,395	226,434	0,108	0,126
-256,380	-51,387	0,065	0,022
-255,365	137,031	-0,071	0,066
-254,351	-59,519	0,111	0,034
-253,336	-48,574	-0,103	-0,035
-252,322	-89,283	-0,042	0,009
-251,307	-200,000	-0,002	-0,029
-250,292	151,006	0,121	0,118
-249,278	-45,414	-0,009	-0,003
-248,263	-200,000	0,016	0,147
-247,249	777,890	0,046	-0,090
-246,234	11,758	-0,084	-0,046
-245,219	800,000	-0,024	-0,075
-244,205	10,418	0,037	-0,020
-243,190	800,000	-0,060	0,134
-242,176	7,805	0,059	-0,031
-241,161	-200,000	0,011	-0,089
-240,146	-200,000	-0,028	-0,100
-239,132	595,511	-0,035	-0,062
-238,117	-90,002	0,045	-0,009
-237,103	-200,000	-0,012	0,155
-236,088	147,182	-0,061	0,058
-235,073	800,000	0,030	0,076
-234,059	87,736	-0,052	0,041
-233,044	184,533	0,132	0,140
-232,030	170,181	0,092	-0,094
-231,015	-63,332	-0,047	0,014
-230,000	-7,491	-0,060	-0,029
-228,986	241,214	-0,005	0,006
-227,971	-21,172	0,080	0,035
-226,957	526,695	0,036	0,060
-225,942	223,020	0,060	0,069
-224,927	-59,738	0,105	0,032
-223,913	-49,549	-0,061	0,021
-222,898	42,186	-0,062	-0,040
-221,884	215,043	-0,039	-0,045
-220,869	-200,000	0,029	0,106
-219,855	800,000	-0,054	-0,129
-218,840	736,635	-0,058	0,111
-217,825	70,117	0,123	-0,090
-216,811	160,465	-0,067	0,067
-215,796	255,771	-0,023	0,028
-214,782	159,931	-0,035	-0,035
-213,767	-27,836	0,063	-0,026
-212,752	-51,618	0,141	0,047
-211,738	-200,000	0,044	0,155
-210,723	-200,000	-0,009	0,075
-209,709	-72,687	-0,116	-0,030
-208,694	369,422	0,022	-0,033
-207,679	-200,000	0,000	0,052
-206,665	109,657	0,047	0,040
-205,650	421,925	0,022	-0,034
-204,636	138,366	-0,003	-0,003
-203,621	-200,000	-0,028	0,120
-202,606	301,142	-0,103	0,136
-201,592	26,813	-0,126	-0,075
-200,577	-3,527	0,027	-0,013
-199,563	684,236	0,031	0,057
-198,548	-200,000	-0,000	0,040
-197,533	109,188	-0,117	0,100
-196,519	237,236	0,015	0,017
-195,504	31,505	-0,092	-0,056
-194,490	709,784	-0,022	-0,042
-193,475	76,178	0,057	0,043
-192,460	-57,784	-0,020	0,006
-191,446	75,913	-0,087	0,066
-190,431	800,000	0,053	0,113
-189,417	439,807	-0,045	0,071
-188,402	122,374	-0,100	-0,089
-187,387	327,542	-0,050	-0,069
-186,373	-200,000	-0,044	-0,168
-185,358	-85,998	0,108	0,023
-184,344	-200,000	0,029	0,160
-183,329	1,940	0,018	0,009
-182,315	319,710	0,038	0,052
-181,300	-25,203	0,072	-0,030
-180,285	-200,000	-0,008	-0,154
-179,271	356,527	0,080	-0,114
-178,256	-36,788	-0,071	0,027
-177,242	103,404	0,045	0,038
-176,227	-200,000	-0,005	0,084
-175,212	0,024	0,203	0,103
-174,198	-64,519	-0,075	-0,021
-173,183	-96,203	0,060	0,011
-172,169	1,919	-0,093	0,048
-171,154	-119,599	0,068	-0,008
-170,139	-115,875	0,119	-0,016
-169,125	-200,000	0,026	0,179
-168,110	490,323	-0,041	-0,067
-167,096	290,005	-0,043	-0,055
-166,081	-200,000	-0,020	-0,066
-165,066	71,708	-0,044	-0,033
-164,052	185,436	0,052	-0,056
-163,037	427,673	-0,077	-0,119
-162,023	82,995	-0,076	0,059
-161,008	-177,358	0,241	0,004
-159,993	-200,000	-0,010	-0,073
-158,979	-19,697	-0,054	0,024
-157,964	-200,000	-0,018	0,112
-156,950	540,193	-0,050	-0,085
-155,935	106,279	0,110	0,092
-154,920	-200,000	0,021	0,091
-153,906	86,051	-0,087	-0,068
-152,891	395,946	0,014	-0,021
-151,877	-200,000	-0,013	0,133
-150,862	-45,998	0,067	0,023
-149,847	-127,590	0,090	0,009
-148,833	-200,000	-0,021	0,117
-147,818	-25,986	0,088	0,037
-146,804	-169,598	0,076	-0,002
-145,789	-56,613	0,018	-0,006
-144,775	-200,000	-0,031	0,109
-143,760	800,000	0,061	-0,121
-142,745	-3,729	-0,116	-0,057
-141,731	2,350	-0,133	-0,068
-140,716	-30,599	0,241	-0,097
-139,702	24,837	-0,071	-0,042
-138,687	-200,000	-0,001	0,025
-137,672	-200,000	0,016	0,073
-136,658	-55,338	-0,030	0,010
-135,643	-200,000	-0,008	0,033
-134,629	223,284	-0,073	0,084
-133,614	217,182	-0,041	0,047
-132,599	173,000	-0,025	0,026
-131,585	88,551	-0,049	0,038
-130,570	-200,000	-0,001	-0,088
-129,556	82,558	-0,040	0,031
-128,541	-76,161	-0,105	-0,026
-127,526	-200,000	-0,022	-0,088
-126,512	59,212	-0,100	0,070
-125,497	57,591	0,101	-0,070
-124,483	70,101	-0,021	0,015
-123,468	-138,120	-0,054	0,004
-122,453	-90,443	0,091	-0,019
-121,439	-66,112	-0,078	-0,022
-120,424	800,000	-0,027	0,063
-119,410	55,103	0,058	-0,040
-118,395	164,558	0,062	-0,062
-117,380	257,267	-0,081	0,099
-116,366	89,570	-0,035	0,028
-115,351	291,211	-0,065	0,085
-114,337	800,000	-0,008	0,020
-113,322	-200,000	0,004	0,110
-112,307	-70,431	-0,017	0,004
-111,293	-2,469	0,174	0,086
-110,278	150,791	0,009	-0,008
-109,264	-61,603	-0,036	-0,011
-108,249	157,914	-0,022	0,022
-107,234	440,432	0,056	0,087
-106,220	-151,530	-0,047	-0,002
-105,205	63,011	0,066	-0,047
-104,191	-200,000	0,011	0,072
-103,176	-70,128	0,062	0,017
-102,162	800,000	-0,039	-0,094
-101,147	-66,793	-0,059	-0,016
-100,132	156,126	-0,132	0,129
-99,118	225,406	0,075	-0,086
-98,103	-134,600	-0,048	0,004
-97,089	-74,913	0,131	0,033
-96,074	-82,540	0,153	0,035
-95,059	-16,487	0,032	0,014
-94,045	433,012	0,071	-0,110
-93,030	-200,000	0,003	0,051
-92,016	61,436	-0,106	-0,075
-91,001	800,000	-0,023	-0,052
-89,986	29,324	0,018	0,011
-88,972	-121,156	0,147	0,017
-87,957	391,530	-0,068	-0,100
-86,943	-71,004	0,093	-0,025
-85,928	800,000	-0,030	-0,070
-84,913	-115,024	-0,039	-0,005
-83,899	800,000	0,029	0,057
-82,884	175,825	0,079	-0,082
-81,870	-2,561	0,072	0,035
-80,855	800,000	0,032	0,089
-79,840	-3,087	-0,147	-0,072
-78,826	196,085	0,059	-0,064
-77,811	9,877	-0,086	-0,046
-76,797	-200,000	0,000	0,059
-75,782	800,000	0,043	-0,112
-74,767	-120,776	0,102	-0,012
-73,753	800,000	0,048	-0,103
-72,738	-200,000	0,000	0,011
-71,724	800,000	0,017	-0,044
-70,709	-200,000	-0,027	-0,133
-69,694	-200,000	0,027	-0,085
-68,680	-200,000	-0,010	0,033
-67,665	-200,000	-0,009	-0,044
-66,651	201,228	0,125	0,137
-65,636	-200,000	0,009	-0,081
-64,622	426,344	0,035	0,053
-63,607	-200,000	0,008	0,119
-62,592	-118,997	0,162	-0,020
-61,578	511,621	0,052	0,086
-60,563	773,884	0,035	-0,069
-59,549	-200,000	-0,011	0,040
-58,534	-0,484	-1,577	-0,791
-57,519	407,799	-1,341	-2,015
-56,505	-200,000	-0,554	-4,559
-55,490	133,167	1,076	0,985
-54,476	800,000	4,997	11,625
-53,461	-200,000	19,317	320,622
-52,446	-200,000	740,820	2336,151
-51,432	573,920	1656,460	2873,090
-50,417	78,416	1672,724	1264,312
-49,403	21,393	1545,522	887,365
-48,388	15,249	1467,926	812,893
-47,373	17,906	1458,215	820,348
-46,359	16,709	1448,287	808,976
-45,344	13,555	1443,368	791,066
-44,330	13,423	1441,662	789,470
-43,315	13,462	1439,771	788,589
-42,300	13,444	1438,062	787,534
-41,286	13,486	1436,908	787,073
-40,271	13,414	1435,649	786,010
-39,257	13,416	1434,300	785,247
-38,242	13,485	1432,903	784,783
-37,227	13,559	1431,672	784,428
-36,213	13,521	1430,403	783,521
-35,198	13,484	1429,288	782,703
-34,184	13,558	1428,275	782,470
-33,169	13,502	1426,957	781,448
-32,154	13,506	1425,909	780,864
-31,140	13,508	1424,723	780,193
-30,125	13,538	1423,542	779,655
-29,111	13,520	1422,445	778,939
-28,096	13,551	1421,098	778,320
-27,082	13,461	1420,226	777,384
-26,067	13,478	1418,908	776,710
-25,052	13,425	1417,858	775,857
-24,038	13,420	1416,983	775,326
-23,023	13,425	1416,211	774,897
-22,009	13,421	1414,959	774,160
-20,994	13,398	1414,142	773,573
-19,979	13,422	1413,175	773,129
-18,965	13,335	1412,329	772,224
-17,950	13,396	1411,329	771,931
-16,936	13,434	1410,218	771,472
-15,921	13,316	1409,479	770,487
-14,906	13,325	1408,449	769,934
-13,892	13,362	1407,523	769,569
-12,877	13,341	1406,772	769,032
-11,863	13,367	1405,630	768,499
-10,848	13,321	1404,966	767,889
-9,833	13,284	1404,106	767,214
-8,819	13,282	1403,139	766,646
-7,804	13,249	1402,193	765,947
-6,790	13,252	1401,260	765,423
-5,775	13,305	1399,712	764,794
-4,760	13,282	1399,121	764,333
-3,746	13,232	1398,484	763,720
-2,731	13,204	1397,478	763,011
-1,717	13,207	1396,645	762,541
-0,702	13,203	1394,710	761,433
0,313	16,964	1311,356	733,397
1,327	33,211	704,434	431,570
2,342	51,210	123,323	82,696
3,356	1,452	16,626	8,435
4,371	-3,179	3,223	1,585
5,386	23,594	0,640	0,372
6,400	579,713	0,139	0,242
7,415	19,480	-0,269	-0,153
8,429	132,369	-0,314	-0,286
9,444	-55,305	-0,350	-0,111
10,459	157,734	-0,263	-0,258
11,473	-67,740	-0,296	-0,081
12,488	-60,842	-0,287	-0,085
13,502	-106,183	-0,322	-0,051
14,517	134,483	-0,199	-0,183
15,531	65,270	-0,324	-0,232
16,546	-51,643	-0,438	-0,143
17,561	62,002	-0,281	-0,198
18,575	-61,370	-0,219	-0,065
19,590	25,729	-0,143	-0,084
20,604	-40,687	-0,230	-0,084
21,619	-86,594	-0,432	-0,093
22,634	51,815	-0,528	-0,354
23,648	107,610	-0,366	-0,307
24,663	159,516	-0,341	-0,335
25,677	19,854	-0,405	-0,230
26,692	68,915	-0,367	-0,266
27,707	-6,188	-0,329	-0,158
28,721	-19,656	-0,417	-0,182
29,736	-10,291	-0,466	-0,217
30,750	414,820	-0,248	-0,374
31,765	28,592	-0,441	-0,263
32,780	85,670	-0,306	-0,237
33,794	129,408	-0,307	-0,277
34,809	76,924	-0,407	-0,305
35,823	50,062	-0,481	-0,320
36,838	62,416	-0,438	-0,308
37,853	98,266	-0,428	-0,348
38,867	265,587	-0,213	-0,263
39,882	-37,113	-0,292	-0,110
40,896	-28,067	-0,354	-0,144
41,911	81,767	-0,311	-0,237
42,926	54,864	-0,381	-0,259
43,940	-81,309	-0,456	-0,105
44,955	-20,909	-0,364	-0,157
45,969	84,082	-0,334	-0,257
46,984	199,744	-0,272	-0,295
47,999	22,197	-0,296	-0,170
49,013	5,226	-0,305	-0,158
50,028	-33,639	-0,350	-0,136
51,042	275,202	-0,235	-0,295
52,057	322,615	-0,303	-0,408
53,071	168,318	-0,273	-0,274
54,086	65,829	-0,257	-0,183
55,101	115,721	-0,260	-0,224
56,115	46,523	-0,347	-0,227
57,130	-33,368	-0,408	-0,158
58,144	104,814	-0,291	-0,242
59,159	50,394	-0,374	-0,248
60,174	12,852	-0,378	-0,205
61,188	-70,305	-0,360	-0,096
62,203	27,060	-0,233	-0,137
63,217	23,068	-0,374	-0,216
64,232	119,445	-0,273	-0,238
65,247	79,440	-0,356	-0,268
66,261	199,853	-0,289	-0,312
67,276	157,973	-0,303	-0,295
68,290	49,031	-0,289	-0,191
69,305	46,105	-0,278	-0,181
70,320	34,398	-0,254	-0,156
71,334	-24,449	-0,394	-0,164
72,349	50,083	-0,334	-0,222
73,363	-9,572	-0,367	-0,171
74,378	15,647	-0,394	-0,217
75,393	203,140	-0,251	-0,273
76,407	14,766	-0,223	-0,122
77,422	-53,429	-0,341	-0,109
78,436	-77,602	-0,322	-0,078
79,451	-58,643	-0,407	-0,123
80,466	68,338	-0,249	-0,179
81,480	-29,957	-0,262	-0,104
82,495	95,772	-0,254	-0,204
83,509	99,715	-0,230	-0,187
84,524	21,238	-0,184	-0,105
85,539	-38,304	-0,167	-0,062
86,553	-25,500	-0,469	-0,194
87,568	10,017	-0,275	-0,146
88,582	29,954	-0,326	-0,194
89,597	143,428	-0,304	-0,285
90,611	636,724	-0,138	-0,248
91,626	-12,987	-0,306	-0,139
92,641	615,679	-0,184	-0,326
93,655	-52,596	-0,321	-0,104
94,670	-18,008	-0,369	-0,162
95,684	162,925	-0,208	-0,205
96,699	249,707	-0,220	-0,262
97,714	135,262	-0,217	-0,198
98,728	71,120	-0,305	-0,222
99,743	1,795	-0,287	-0,145
100,757	-6,758	-0,306	-0,145
101,772	489,207	-0,139	-0,223
102,787	62,378	-0,313	-0,219
103,801	8,355	-0,221	-0,116
104,816	27,474	-0,225	-0,133
105,830	190,532	-0,203	-0,214
106,845	-19,070	-0,281	-0,122
107,860	107,104	-0,281	-0,234
108,874	3,150	-0,251	-0,128
109,889	49,774	-0,311	-0,205
110,903	-3,950	-0,294	-0,143
111,918	175,371	-0,256	-0,260
112,933	424,123	-0,109	-0,166
113,947	-69,931	-0,224	-0,059
114,962	800,000	-0,104	-0,316
115,976	-78,076	-0,154	-0,037
116,991	92,274	-0,280	-0,221
118,006	92,304	-0,278	-0,219
119,020	89,139	-0,284	-0,222
120,035	234,178	-0,133	-0,154
121,049	161,508	-0,177	-0,174
122,064	47,065	-0,176	-0,114
123,079	-25,584	-0,232	-0,096
124,093	41,935	-0,301	-0,191
125,108	357,158	-0,185	-0,259
126,122	142,990	-0,179	-0,167
127,137	-63,546	-0,254	-0,073
128,151	-76,380	-0,318	-0,078
129,166	252,784	-0,163	-0,195
130,181	110,715	-0,129	-0,109
131,195	114,761	-0,257	-0,219
132,210	59,939	-0,304	-0,210
133,224	44,096	-0,310	-0,199
134,239	-41,818	-0,130	-0,046
135,254	-180,264	-0,285	-0,004
136,268	17,664	-0,245	-0,136
137,283	208,702	-0,151	-0,165
138,297	180,537	-0,221	-0,227
139,312	15,917	-0,341	-0,187
140,327	199,039	-0,220	-0,236
141,341	-75,200	-0,337	-0,084
142,356	459,120	-0,156	-0,244
143,370	31,655	-0,226	-0,136
144,385	34,428	-0,145	-0,088
145,400	283,402	-0,212	-0,266
146,414	182,692	-0,229	-0,237
147,429	120,307	-0,284	-0,247
148,443	23,845	-0,195	-0,112
149,458	-132,017	-0,210	-0,019
150,473	156,363	-0,196	-0,189
151,487	-90,941	-0,270	-0,054
152,502	79,287	-0,186	-0,139
153,516	156,245	-0,231	-0,223
154,531	371,415	-0,202	-0,286
155,546	-58,325	-0,362	-0,109
156,560	644,991	-0,126	-0,225
157,575	60,080	-0,151	-0,104
158,589	-85,115	-0,216	-0,047
159,604	2,949	-0,321	-0,162
160,619	-14,913	-0,278	-0,124
161,633	132,326	-0,191	-0,172
162,648	800,000	-0,079	-0,176
163,662	44,245	-0,359	-0,229
164,677	465,293	-0,186	-0,291
165,692	201,850	-0,184	-0,198
166,706	538,335	-0,107	-0,179
167,721	60,883	-0,195	-0,134
168,735	-61,686	-0,170	-0,049
169,750	-165,893	-0,222	0,007
170,764	-68,108	-0,201	-0,054
171,779	207,667	-0,227	-0,247
172,794	160,948	-0,214	-0,209
173,808	446,911	-0,194	-0,298
174,823	49,953	-0,351	-0,230
175,837	12,767	-0,276	-0,148
176,852	52,769	-0,331	-0,220
177,867	-148,798	-0,147	-0,008
178,881	433,941	-0,181	-0,274
179,896	-3,993	-0,246	-0,118
180,910	800,000	-0,145	-0,300
181,925	147,184	-0,164	-0,153
182,940	79,769	-0,172	-0,129
183,954	-14,191	-0,348	-0,156
184,969	135,540	-0,198	-0,179
185,983	225,954	-0,147	-0,166
186,998	79,142	-0,105	-0,078
188,013	14,637	-0,262	-0,142
189,027	10,334	-0,223	-0,118
190,042	84,025	-0,232	-0,176
191,056	258,260	-0,190	-0,229
192,071	800,000	-0,098	-0,211
193,086	-165,318	-0,183	-0,006
194,100	-172,375	-0,238	-0,005
195,115	55,108	-0,299	-0,201
196,129	288,248	-0,113	-0,143
197,144	219,170	-0,219	-0,244
198,159	82,329	-0,154	-0,116
199,173	315,293	-0,165	-0,217
200,188	-4,238	-0,270	-0,129
201,202	92,705	-0,212	-0,166
202,217	26,787	-0,337	-0,196
203,232	27,337	-0,250	-0,146
204,246	49,796	-0,276	-0,181
205,261	254,730	-0,198	-0,236
206,275	9,691	-0,126	-0,066
207,290	56,419	-0,169	-0,114
208,304	72,126	-0,202	-0,146
209,319	113,355	-0,261	-0,220
210,334	312,940	-0,135	-0,177
211,348	374,694	-0,185	-0,262
212,363	135,832	-0,193	-0,175
213,377	124,806	-0,108	-0,094
214,392	-113,743	-0,213	0,029
215,407	-200,000	0,002	-0,152
216,421	-14,686	-0,134	-0,060
217,436	-29,480	-0,189	-0,075
218,450	128,294	-0,251	-0,222
219,465	-73,475	-0,159	-0,040
220,480	-20,019	-0,126	-0,054
221,494	54,371	-0,252	-0,168
222,509	-200,000	-0,046	-0,197
223,523	512,412	-0,122	-0,198
224,538	-94,530	-0,172	-0,032
225,553	58,517	-0,289	-0,196
226,567	12,166	-0,205	-0,109
227,582	58,840	-0,179	-0,122
228,596	-59,536	-0,183	-0,054
229,611	88,605	-0,156	-0,121
230,626	162,356	-0,143	-0,139
231,640	800,000	-0,131	-0,294
232,655	256,980	-0,164	-0,196
233,669	16,800	-0,216	-0,118
234,684	-16,331	-0,261	-0,115
235,699	301,014	-0,141	-0,181
236,713	430,585	-0,114	-0,171
237,728	143,931	-0,135	-0,124
238,742	239,928	-0,143	-0,165
239,757	40,632	-0,203	-0,127
240,772	546,413	-0,122	-0,204
241,786	-64,527	-0,258	-0,072
242,801	-86,085	-0,289	-0,061
243,815	615,759	-0,111	-0,194
244,830	-131,613	-0,288	-0,026
245,844	245,659	-0,119	-0,139
246,859	800,000	-0,112	-0,248
247,874	-200,000	-0,041	-0,198
248,888	-6,252	-0,109	-0,051
249,903	312,232	-0,135	-0,176
250,917	-13,152	-0,242	-0,108
251,932	18,773	-0,157	-0,087
252,947	-72,969	-0,124	0,031
253,961	58,297	-0,178	-0,121
254,976	-182,368	-0,218	0,003
255,990	-20,959	-0,242	-0,102
257,005	18,119	-0,149	-0,082
258,020	295,863	-0,113	-0,143
259,034	5,495	-0,184	-0,094
260,049	384,563	-0,165	-0,236
261,063	-161,901	-0,227	0,008
262,078	800,000	-0,072	-0,204
263,093	-200,000	-0,028	-0,225
264,107	800,000	-0,057	-0,122
265,122	338,365	-0,124	-0,167
266,136	631,368	-0,088	-0,155
267,151	116,018	-0,228	-0,193
268,166	77,762	-0,142	-0,104
269,180	34,024	-0,215	-0,129
270,195	515,294	-0,189	-0,306
271,209	-156,333	-0,272	0,012
272,224	800,000	0,041	-0,102
273,239	800,000	-0,055	-0,162
274,253	37,738	-0,110	-0,067
275,268	373,678	-0,121	-0,171
276,282	762,187	-0,074	-0,139
277,297	183,010	-0,173	-0,176
278,312	-17,681	-0,204	-0,088
279,326	-106,840	-0,212	-0,032
280,341	129,483	-0,109	-0,096
281,355	-200,000	-0,029	0,000
282,370	800,000	-0,106	-0,206
283,384	-64,614	-0,154	0,043
284,399	24,310	-0,138	-0,078
285,414	121,434	-0,196	-0,169
286,428	-64,964	-0,274	-0,076
287,443	-200,000	-0,047	-0,210
288,457	-121,607	-0,174	0,020
289,472	8,202	-0,166	-0,086
290,487	-58,966	-0,151	-0,045
291,501	-20,959	-0,263	-0,111
292,516	184,521	-0,089	-0,091
293,530	141,935	-0,126	-0,115
294,545	-200,000	-0,087	-0,285
295,560	-16,820	-0,189	-0,082
296,574	65,321	-0,132	-0,092
297,589	-108,737	-0,249	-0,036
298,603	-200,000	-0,034	-0,149
299,618	99,466	-0,094	-0,075
300,633	-4,031	-0,129	-0,062
301,647	-129,202	-0,094	0,009
302,662	329,442	-0,104	-0,138
303,676	371,809	-0,165	-0,231
304,691	545,850	-0,172	-0,284
305,706	46,078	-0,153	-0,097
306,720	197,285	-0,116	-0,122
307,735	48,942	-0,178	-0,115
308,749	-55,540	-0,093	0,029
309,764	56,399	-0,124	-0,083
310,779	244,360	-0,092	-0,106
311,793	416,472	-0,137	-0,201
312,808	800,000	-0,071	-0,206
313,822	62,736	-0,278	-0,191
314,837	-114,987	-0,235	0,030
315,852	768,500	-0,059	-0,111
316,866	241,799	-0,124	-0,143
317,881	134,311	-0,177	-0,158
318,895	124,998	-0,128	-0,111
319,910	51,212	-0,294	-0,192
320,925	-17,612	-0,175	-0,075
321,939	74,574	-0,125	-0,091
322,954	-106,792	-0,036	-0,005
323,968	48,413	-0,054	0,035
324,983	182,426	-0,091	-0,092
325,997	95,429	-0,084	-0,066
327,012	-186,427	-0,113	0,001
328,027	678,787	-0,058	-0,105
329,041	800,000	-0,085	-0,225
330,056	-70,164	-0,144	-0,037
331,070	-71,552	-0,044	-0,011
332,085	-111,593	-0,099	-0,014
333,100	-142,514	-0,169	-0,011
334,114	78,055	-0,143	-0,105
335,129	22,680	-0,203	-0,114
336,143	-145,411	-0,239	-0,015
337,158	120,646	-0,202	-0,173
338,173	6,139	-0,067	0,034
339,187	-12,611	0,038	0,017
340,202	-102,526	-0,092	0,015
341,216	308,217	0,004	0,005
342,231	8,200	-0,153	-0,079
343,246	800,000	-0,034	-0,066
344,260	800,000	-0,091	-0,189
345,275	800,000	-0,040	-0,082
346,289	10,935	-0,090	-0,047
347,304	800,000	-0,063	-0,143
348,319	-24,012	-0,130	0,053
349,333	117,103	-0,109	-0,092
350,348	21,465	-0,189	-0,105
351,362	-85,443	-0,124	0,026
352,377	194,593	-0,133	-0,138
353,392	-41,179	-0,128	-0,045
354,406	-12,776	-0,108	-0,048
355,421	210,061	1315,095	1417,861
356,435	161,700	1475,851	1418,350
