DTS Sentinel unit serial number:	SN410029Multiplexer serial number:	ORYXHardware model number:	OX2-SRSoftware version number:	ORYX F/W v4,00 Oryx Data Collector v3.7.2.0data status	okinstallation	B3 Nyhavnadifferential loss correction	single-endedforward channel	channel 1reverse channel	N/Adate	2023/12/01time	04:07:30forward acquisition time	300,00reverse acquisition time	0,00gamma	499,1914k internal	0,3212k external	0,3212temperature offset calibration	1,0000default loss term (dB/km)	0,3820temperature slope calibration	1,0000multiplexer offset coefficient	1,0000multiplexer slope coefficient	1,0000fibre end	0,00T internal ref (°C)	8,15T ext. ref 1 (°C)	-7,00T ext. ref 2 (°C)	-7,13length (m)	temperature (°C)	Stokes	anti-Stokes-744,400	187,038	-0,237	-0,257
-743,385	-200,000	-0,037	0,142
-742,371	75,023	-0,085	-0,065
-741,356	800,000	-0,139	0,316
-740,342	142,148	-0,076	-0,073
-739,327	-200,000	0,036	0,281
-738,312	130,663	-0,305	-0,284
-737,298	512,723	-0,101	0,171
-736,283	800,000	-0,159	-0,345
-735,269	-200,000	0,033	0,274
-734,254	48,820	-0,217	-0,147
-733,239	-5,273	-0,227	0,113
-732,225	365,218	-0,153	-0,224
-731,210	330,423	0,107	0,149
-730,196	800,000	0,048	0,101
-729,181	-178,452	-0,170	0,003
-728,167	-89,062	0,020	-0,004
-727,152	127,672	-0,054	0,050
-726,137	53,595	-0,073	-0,050
-725,123	131,794	-0,086	0,080
-724,108	37,047	-0,107	0,068
-723,094	478,014	-0,053	-0,087
-722,079	478,013	-0,048	-0,079
-721,064	-68,264	-0,107	-0,030
-720,050	-93,653	0,110	0,022
-719,035	-49,723	-0,032	-0,011
-718,021	-200,000	0,002	-0,081
-717,006	3,546	-0,094	-0,050
-715,991	-97,483	-0,195	-0,036
-714,977	84,248	-0,037	0,029
-713,962	-200,000	0,000	-0,019
-712,948	102,872	0,040	0,034
-711,933	466,209	-0,056	-0,091
-710,918	-44,629	-0,183	-0,066
-709,904	132,997	-0,086	-0,080
-708,889	-133,588	-0,186	-0,017
-707,875	-200,000	0,013	0,070
-706,860	128,177	0,052	-0,048
-705,845	-200,000	0,005	-0,178
-704,831	-165,669	0,056	0,002
-703,816	131,232	-0,057	0,053
-702,802	-100,880	-0,147	-0,026
-701,787	109,229	-0,044	-0,038
-700,772	-44,709	-0,264	-0,095
-699,758	800,000	-0,033	0,098
-698,743	800,000	-0,040	-0,098
-697,729	-174,539	0,205	0,004
-696,714	-200,000	0,010	0,090
-695,699	335,901	-0,055	-0,078
-694,685	-25,053	-0,086	-0,037
-693,670	800,000	0,044	-0,117
-692,656	-133,390	0,027	-0,002
-691,641	455,874	0,031	-0,051
-690,627	-20,803	0,083	0,037
-689,612	-69,090	0,068	-0,019
-688,597	-200,000	-0,050	-0,177
-687,583	196,846	-0,034	-0,037
-686,568	-200,000	-0,019	-0,115
-685,554	663,457	-0,035	-0,066
-684,539	92,125	0,114	-0,093
-683,524	-200,000	-0,013	-0,044
-682,510	1,913	0,144	-0,075
-681,495	800,000	-0,045	-0,104
-680,481	58,701	0,016	-0,011
-679,466	151,631	-0,110	-0,109
-678,451	800,000	-0,074	-0,159
-677,437	118,914	-0,056	0,050
-676,422	-32,810	-0,066	0,026
-675,408	-82,704	0,074	0,017
-674,393	-138,950	-0,095	-0,007
-673,378	-3,924	-0,031	-0,015
-672,364	23,889	-0,107	-0,064
-671,349	139,795	-0,136	-0,130
-670,335	800,000	-0,014	-0,036
-669,320	134,484	0,102	-0,096
-668,305	268,372	0,013	0,017
-667,291	-134,065	-0,056	0,005
-666,276	15,544	-0,095	-0,054
-665,262	-57,484	-0,140	-0,044
-664,247	37,927	-0,132	0,084
-663,232	-15,908	0,201	0,092
-662,218	-33,735	-0,119	-0,047
-661,203	800,000	0,012	0,026
-660,189	293,991	0,088	0,116
-659,174	-200,000	-0,021	-0,069
-658,159	-58,152	-0,213	0,067
-657,145	203,278	0,078	-0,088
-656,130	-14,513	-0,082	-0,038
-655,116	-26,653	-0,052	0,022
-654,101	-50,625	-0,034	0,012
-653,086	-104,877	-0,099	0,016
-652,072	116,852	0,114	0,101
-651,057	-39,143	-0,059	-0,022
-650,043	-37,839	-0,100	-0,038
-649,028	-53,027	0,110	-0,036
-648,014	105,582	0,062	-0,053
-646,999	-44,842	0,096	-0,035
-645,984	429,818	0,101	0,159
-644,970	82,821	0,042	0,033
-643,955	21,830	-0,023	-0,013
-642,941	-200,000	-0,022	-0,145
-641,926	-200,000	0,002	-0,095
-640,911	609,101	-0,052	-0,094
-639,897	-200,000	-0,008	-0,091
-638,882	679,003	0,021	0,039
-637,868	-138,053	0,030	0,002
-636,853	59,967	-0,027	0,019
-635,838	153,936	0,039	0,038
-634,824	-91,244	-0,039	0,008
-633,809	-57,646	0,052	-0,016
-632,795	-200,000	-0,021	-0,136
-631,780	-53,771	0,083	-0,027
-630,765	31,185	0,056	0,035
-629,751	800,000	-0,017	-0,048
-628,736	800,000	0,022	0,067
-627,722	-200,000	0,013	0,086
-626,707	-80,952	-0,127	-0,030
-625,692	-26,896	-0,101	-0,043
-624,678	650,587	0,020	0,037
-623,663	2,283	-0,086	-0,045
-622,649	107,771	-0,008	-0,007
-621,634	-176,457	0,131	-0,002
-620,619	-184,019	-0,088	-0,001
-619,605	53,844	-0,123	0,085
-618,590	43,540	0,076	-0,050
-617,576	-200,000	0,021	0,169
-616,561	-63,869	-0,075	0,022
-615,546	368,661	-0,028	-0,041
-614,532	-200,000	-0,005	-0,219
-613,517	207,791	0,061	-0,069
-612,503	-127,942	-0,130	0,013
-611,488	-87,771	0,092	0,020
-610,474	-88,977	-0,108	0,023
-609,459	-200,000	0,035	-0,117
-608,444	800,000	0,011	-0,028
-607,430	38,115	-0,144	0,092
-606,415	-51,895	0,075	-0,025
-605,401	-200,000	-0,010	0,129
-604,386	-200,000	0,007	0,185
-603,371	325,415	0,039	0,054
-602,357	-200,000	-0,001	0,032
-601,342	800,000	-0,049	0,134
-600,328	440,078	-0,075	-0,119
-599,313	-155,383	0,123	-0,006
-598,298	423,564	0,048	-0,075
-597,284	-135,923	-0,159	-0,013
-596,269	-98,180	0,126	0,023
-595,255	-29,067	0,128	0,053
-594,240	88,014	-0,051	0,041
-593,225	382,111	-0,006	-0,008
-592,211	-200,000	0,013	-0,055
-591,196	800,000	-0,053	0,142
-590,182	8,138	0,062	0,034
-589,167	-81,714	0,126	-0,030
-588,152	-64,900	0,032	0,009
-587,138	-200,000	0,023	0,079
-586,123	205,255	-0,088	-0,099
-585,109	56,799	-0,058	-0,041
-584,094	-200,000	0,006	-0,085
-583,079	-51,482	0,065	0,022
-582,065	-90,269	0,093	-0,019
-581,050	114,089	0,067	0,058
-580,036	800,000	0,024	-0,064
-579,021	-200,000	-0,022	-0,212
-578,006	-101,776	-0,015	-0,003
-576,992	800,000	-0,067	0,196
-575,977	800,000	-0,032	-0,096
-574,963	-200,000	-0,008	0,037
-573,948	800,000	0,121	0,250
-572,934	-105,412	-0,015	0,002
-571,919	800,000	0,034	0,086
-570,904	800,000	-0,040	-0,081
-569,890	-200,000	-0,012	-0,046
-568,875	53,879	0,031	-0,022
-567,861	171,622	0,028	-0,029
-566,846	-200,000	0,002	0,020
-565,831	762,245	0,056	-0,110
-564,817	-58,591	0,093	-0,029
-563,802	-112,727	-0,092	-0,013
-562,788	-75,093	0,124	-0,032
-561,773	740,580	-0,065	-0,126
-560,758	-142,002	0,107	0,008
-559,744	80,267	-0,110	-0,085
-558,729	800,000	0,041	-0,092
-557,715	-200,000	0,004	-0,060
-556,700	800,000	0,056	-0,112
-555,685	-200,000	-0,012	-0,106
-554,671	-114,251	0,134	0,018
-553,656	-200,000	0,003	-0,032
-552,642	-200,000	0,010	0,056
-551,627	27,166	0,017	-0,010
-550,612	519,177	0,059	0,101
-549,598	111,636	-0,078	-0,068
-548,583	-200,000	-0,005	0,087
-547,569	295,666	-0,046	-0,061
-546,554	-8,773	-0,100	0,048
-545,539	-153,969	0,091	-0,004
-544,525	58,440	-0,041	0,029
-543,510	53,282	0,031	-0,021
-542,496	800,000	-0,044	-0,115
-541,481	-200,000	-0,016	-0,056
-540,466	134,754	0,096	-0,090
-539,452	-200,000	-0,010	-0,085
-538,437	-87,533	0,069	-0,015
-537,423	-116,772	0,060	-0,008
-536,408	-200,000	0,006	0,072
-535,393	136,459	0,126	-0,118
-534,379	292,680	0,056	-0,073
-533,364	-6,939	-0,077	-0,038
-532,350	-49,579	0,202	0,069
-531,335	106,005	-0,040	-0,034
-530,321	-123,409	0,102	-0,012
-529,306	-82,564	-0,030	-0,007
-528,291	59,098	0,024	-0,017
-527,277	-200,000	0,011	-0,049
-526,262	-200,000	0,005	-0,091
-525,248	34,874	-0,060	-0,037
-524,233	800,000	0,034	0,070
-523,218	297,857	0,027	0,035
-522,204	-200,000	-0,069	-0,000
-521,189	211,159	0,085	-0,097
-520,175	-149,339	-0,058	-0,003
-519,160	-200,000	-0,002	0,115
-518,145	800,000	-0,036	-0,093
-517,131	762,956	0,026	0,051
-516,116	373,941	0,030	-0,044
-515,102	-200,000	0,010	-0,114
-514,087	-196,071	0,093	-0,000
-513,072	326,743	-0,050	-0,069
-512,058	-200,000	-0,028	-0,099
-511,043	-200,000	0,024	0,106
-510,029	-200,000	0,028	0,159
-509,014	-123,210	0,125	-0,014
-507,999	-200,000	-0,042	0,146
-506,985	800,000	-0,014	-0,036
-505,970	-53,864	-0,074	0,024
-504,956	610,056	-0,029	0,052
-503,941	323,441	0,007	-0,010
-502,926	-69,594	0,099	0,027
-501,912	-23,858	-0,129	0,055
-500,897	180,734	0,072	0,076
-499,883	48,296	-0,127	-0,085
-498,868	54,508	-0,109	-0,075
-497,853	-200,000	0,004	-0,055
-496,839	800,000	-0,050	-0,105
-495,824	-200,000	-0,023	0,109
-494,810	313,756	0,065	0,088
-493,795	-118,898	0,148	-0,018
-492,781	69,726	-0,067	0,049
-491,766	73,108	-0,152	-0,114
-490,751	-57,977	-0,057	-0,018
-489,737	-46,963	-0,091	0,032
-488,722	800,000	-0,037	-0,087
-487,708	-200,000	-0,001	0,010
-486,693	266,468	0,038	0,048
-485,678	-200,000	0,012	-0,051
-484,664	-77,952	-0,090	-0,022
-483,649	800,000	0,021	-0,061
-482,635	-26,202	0,027	0,011
-481,620	-200,000	0,017	0,116
-480,605	800,000	0,062	0,127
-479,591	275,583	0,164	0,209
-478,576	441,458	0,041	-0,064
-477,562	800,000	-0,028	-0,072
-476,547	800,000	-0,051	-0,104
-475,532	78,706	-0,046	-0,035
-474,518	-200,000	-0,015	-0,131
-473,503	800,000	-0,052	-0,137
-472,489	-131,765	-0,061	0,006
-471,474	344,761	0,060	0,085
-470,459	336,267	-0,090	-0,125
-469,445	-200,000	0,016	-0,167
-468,430	800,000	-0,049	-0,130
-467,416	292,143	-0,087	0,114
-466,401	304,666	-0,013	-0,018
-465,386	-148,425	-0,150	-0,009
-464,372	800,000	0,040	-0,081
-463,357	88,917	-0,099	0,079
-462,343	-129,776	-0,119	-0,012
-461,328	-200,000	0,017	-0,119
-460,313	9,115	-0,019	-0,010
-459,299	-174,967	-0,100	-0,002
-458,284	127,042	0,140	0,127
-457,270	-93,373	0,038	0,007
-456,255	800,000	-0,029	-0,071
-455,241	-165,254	-0,123	-0,004
-454,226	-78,438	0,082	-0,020
-453,211	324,263	0,052	0,072
-452,197	-97,955	0,130	-0,024
-451,182	-118,052	0,043	0,005
-450,168	-128,672	-0,060	-0,006
-449,153	306,927	0,008	0,011
-448,138	71,267	-0,151	0,112
-447,124	361,670	0,047	-0,068
-446,109	-200,000	0,000	0,088
-445,095	225,519	0,025	-0,029
-444,080	456,925	-0,050	0,080
-443,065	70,681	-0,047	0,035
-442,051	-200,000	-0,007	-0,069
-441,036	-144,272	-0,067	0,004
-440,022	-91,706	-0,088	0,018
-439,007	302,622	0,054	0,071
-437,992	80,047	-0,073	-0,056
-436,978	-74,950	0,147	0,038
-435,963	-200,000	-0,015	-0,197
-434,949	-200,000	0,033	0,109
-433,934	-68,523	0,119	0,033
-432,919	-69,033	-0,142	-0,039
-431,905	405,745	0,033	-0,050
-430,890	56,690	0,082	0,057
-429,876	800,000	0,071	0,144
-428,861	-200,000	-0,016	0,062
-427,846	605,417	0,036	0,065
-426,832	800,000	-0,038	-0,077
-425,817	77,521	-0,115	0,087
-424,803	-111,553	-0,043	0,006
-423,788	37,462	0,061	0,038
-422,773	800,000	-0,038	0,094
-421,759	-200,000	-0,055	0,192
-420,744	760,853	0,004	0,008
-419,730	-200,000	-0,029	-0,127
-418,715	69,166	0,123	-0,090
-417,701	-200,000	0,024	0,101
-416,686	-123,053	-0,091	0,010
-415,671	-44,629	0,220	0,078
-414,657	-123,898	0,033	0,004
-413,642	-26,591	0,059	0,025
-412,628	800,000	0,040	-0,090
-411,613	-200,000	0,017	-0,077
-410,598	-112,933	-0,184	-0,026
-409,584	21,416	-0,149	0,087
-408,569	-89,595	-0,112	0,023
-407,555	18,827	0,132	0,075
-406,540	-200,000	0,025	0,092
-405,525	68,165	-0,055	-0,040
-404,511	800,000	0,045	-0,097
-403,496	-31,145	0,075	-0,030
-402,482	5,541	-0,087	-0,046
-401,467	-49,306	-0,084	-0,029
-400,452	158,157	0,106	0,105
-399,438	-115,969	-0,062	-0,008
-398,423	302,082	-0,028	-0,037
-397,409	-114,701	-0,144	0,019
-396,394	46,982	0,138	-0,091
-395,379	209,049	-0,032	-0,036
-394,365	100,407	-0,067	-0,055
-393,350	11,865	0,034	0,019
-392,336	800,000	0,021	-0,057
-391,321	48,043	0,043	-0,029
-390,306	136,902	-0,042	-0,039
-389,292	-105,047	0,066	-0,011
-388,277	-200,000	-0,033	0,121
-387,263	594,129	0,051	0,090
-386,248	684,114	0,027	0,051
-385,233	-89,372	-0,049	-0,010
-384,219	-105,039	-0,122	0,020
-383,204	-50,817	0,005	-0,002
-382,190	-39,692	-0,041	0,015
-381,175	-200,000	0,009	-0,029
-380,160	-90,485	0,120	0,025
-379,146	48,837	0,102	-0,068
-378,131	102,822	-0,022	0,019
-377,117	202,842	0,027	-0,029
-376,102	-200,000	-0,029	-0,196
-375,088	513,002	-0,060	-0,100
-374,073	-200,000	-0,006	-0,056
-373,058	800,000	0,037	0,105
-372,044	618,644	-0,060	0,109
-371,029	-200,000	-0,020	0,083
-370,015	-69,765	0,059	-0,016
-369,000	743,427	0,026	-0,050
-367,985	800,000	-0,025	-0,050
-366,971	800,000	-0,015	-0,031
-365,956	39,358	-0,082	-0,052
-364,942	800,000	0,065	0,175
-363,927	-110,919	-0,048	-0,007
-362,912	401,408	0,065	0,098
-361,898	422,503	0,105	-0,162
-360,883	109,237	0,072	-0,062
-359,869	171,177	-0,059	-0,060
-358,854	117,333	-0,038	0,033
-357,839	800,000	0,114	0,255
-356,825	-82,877	0,150	0,034
-355,810	168,556	0,039	0,040
-354,796	-200,000	0,020	0,106
-353,781	-121,285	-0,082	0,010
-352,766	-97,875	-0,106	0,019
-351,752	-134,376	-0,015	0,001
-350,737	-113,609	0,089	-0,012
-349,723	800,000	-0,016	0,039
-348,708	-92,604	-0,073	0,015
-347,693	800,000	0,041	-0,112
-346,679	15,902	-0,091	-0,051
-345,664	58,299	-0,054	0,038
-344,650	-14,378	0,048	0,022
-343,635	95,604	-0,047	-0,038
-342,620	12,130	-0,088	-0,048
-341,606	-118,267	-0,078	0,010
-340,591	225,709	0,076	0,088
-339,577	-200,000	0,034	-0,158
-338,562	-200,000	-0,002	-0,104
-337,548	-58,969	0,084	0,026
-336,533	358,386	0,114	0,162
-335,518	95,533	-0,103	-0,083
-334,504	471,520	0,098	0,158
-333,489	241,597	-0,085	-0,102
-332,475	202,752	-0,040	0,044
-331,460	-92,634	-0,069	0,014
-330,445	-200,000	0,017	-0,148
-329,431	-118,057	-0,080	0,010
-328,416	-119,944	0,158	-0,019
-327,402	158,487	-0,083	-0,083
-326,387	-118,657	0,072	0,009
-325,372	-40,737	-0,121	0,044
-324,358	207,569	-0,025	-0,028
-323,343	800,000	-0,048	0,102
-322,329	-65,662	0,120	0,034
-321,314	-200,000	-0,005	0,021
-320,299	800,000	0,035	0,100
-319,285	67,072	0,005	0,004
-318,270	332,923	0,023	0,032
-317,256	-73,788	0,040	0,010
-316,241	32,771	0,035	0,022
-315,226	-7,407	-0,059	0,029
-314,212	81,869	0,118	0,091
-313,197	-108,335	-0,015	0,002
-312,183	-170,974	-0,053	-0,001
-311,168	-128,084	-0,104	0,010
-310,153	37,620	-0,157	-0,099
-309,139	306,979	-0,027	-0,035
-308,124	-200,000	-0,017	0,196
-307,110	32,664	-0,147	0,090
-306,095	-200,000	0,004	0,018
-305,080	-200,000	0,006	0,076
-304,066	41,612	-0,164	0,106
-303,051	-132,053	0,090	-0,008
-302,037	135,180	-0,030	-0,028
-301,022	-105,346	0,205	0,033
-300,008	92,082	0,110	0,088
-298,993	608,903	0,081	0,145
-297,978	800,000	0,019	0,058
-296,964	-74,775	0,134	-0,034
-295,949	-200,000	0,015	-0,061
-294,935	-200,000	0,023	-0,086
-293,920	-200,000	0,036	0,122
-292,905	800,000	-0,035	0,079
-291,891	800,000	-0,017	0,036
-290,876	-9,099	0,151	0,072
-289,862	-55,154	-0,175	-0,056
-288,847	800,000	0,041	-0,098
-287,832	736,409	0,052	0,100
-286,818	102,914	-0,084	0,070
-285,803	800,000	0,041	-0,097
-284,789	8,883	0,026	-0,014
-283,774	253,308	-0,097	0,118
-282,759	447,409	0,023	-0,036
-281,745	-54,087	-0,082	0,026
-280,730	16,633	0,083	-0,047
-279,716	-72,713	-0,084	0,022
-278,701	139,654	-0,124	0,117
-277,686	19,570	0,137	-0,078
-276,672	-133,432	-0,024	-0,002
-275,657	-91,758	-0,084	0,017
-274,643	-42,736	-0,105	-0,038
-273,628	-200,000	0,003	-0,053
-272,613	-200,000	0,017	-0,080
-271,599	-9,729	-0,064	-0,030
-270,584	94,310	0,060	-0,049
-269,570	-200,000	0,030	0,116
-268,555	800,000	0,017	0,036
-267,540	-3,633	0,041	-0,020
-266,526	41,604	-0,121	-0,078
-265,511	51,243	0,036	-0,025
-264,497	800,000	0,031	-0,061
-263,482	313,792	-0,096	0,129
-262,467	56,419	0,038	-0,026
-261,453	69,740	-0,025	0,018
-260,438	-35,846	-0,094	0,036
-259,424	-155,814	0,122	0,005
-258,409	-200,000	0,038	-0,118
-257,395	418,781	0,055	-0,083
-256,380	800,000	0,055	-0,128
-255,365	297,744	0,018	-0,023
-254,351	-200,000	0,002	0,117
-253,336	800,000	-0,065	0,130
-252,322	587,754	0,064	-0,113
-251,307	549,973	-0,029	-0,049
-250,292	-59,676	0,107	0,032
-249,278	-36,333	0,032	-0,012
-248,263	800,000	-0,031	0,071
-247,249	75,863	0,094	0,070
-246,234	757,583	0,058	0,113
-245,219	-200,000	0,011	0,071
-244,205	426,523	0,032	-0,050
-243,190	-76,530	-0,044	0,011
-242,176	-124,415	-0,013	-0,001
-241,161	408,927	-0,052	0,078
-240,146	-87,673	-0,053	-0,011
-239,132	800,000	-0,010	-0,027
-238,117	-200,000	0,043	-0,228
-237,103	800,000	-0,042	-0,108
-236,088	-200,000	-0,004	-0,029
-235,073	-39,863	0,053	-0,020
-234,059	800,000	0,049	0,140
-233,044	800,000	0,039	0,096
-232,030	800,000	-0,058	-0,132
-231,015	-34,014	0,020	-0,008
-230,000	194,519	-0,043	-0,047
-228,986	-144,411	0,117	0,008
-227,971	26,706	0,171	0,101
-226,957	210,200	-0,084	0,094
-225,942	-200,000	-0,004	-0,067
-224,927	800,000	-0,009	-0,029
-223,913	-200,000	-0,009	-0,055
-222,898	-200,000	0,012	-0,109
-221,884	531,816	-0,032	-0,053
-220,869	-64,354	0,103	-0,030
-219,855	11,814	-0,060	0,033
-218,840	-200,000	-0,051	0,188
-217,825	141,735	-0,019	-0,018
-216,811	125,236	-0,038	-0,034
-215,796	83,970	0,067	-0,052
-214,782	-200,000	0,018	-0,098
-213,767	-200,000	-0,001	-0,041
-212,752	-200,000	-0,012	0,046
-211,738	136,355	0,018	-0,016
-210,723	-200,000	0,020	0,129
-209,709	-38,974	-0,078	0,029
-208,694	57,233	-0,064	-0,044
-207,679	-200,000	-0,034	-0,162
-206,665	133,813	-0,064	0,059
-205,650	-96,977	-0,063	0,012
-204,636	-50,018	0,067	-0,022
-203,621	66,325	0,040	0,029
-202,606	618,250	-0,042	-0,074
-201,592	181,480	-0,109	0,114
-200,577	8,698	-0,209	0,111
-199,563	800,000	-0,045	0,108
-198,548	494,481	0,053	0,086
-197,533	-47,944	0,033	-0,011
-196,519	-95,979	-0,108	-0,020
-195,504	285,941	0,097	0,124
-194,490	108,354	-0,026	0,022
-193,475	84,841	-0,078	-0,061
-192,460	307,401	-0,075	-0,100
-191,446	-107,404	0,207	0,032
-190,431	674,393	-0,024	-0,044
-189,417	157,878	0,053	-0,052
-188,402	-37,281	-0,177	-0,067
-187,387	8,248	-0,045	-0,024
-186,373	-125,198	-0,137	-0,015
-185,358	126,154	-0,057	0,051
-184,344	3,677	0,135	-0,070
-183,329	358,494	0,007	0,010
-182,315	-33,186	-0,104	0,041
-181,300	-200,000	0,007	0,031
-180,285	800,000	0,036	-0,076
-179,271	-200,000	-0,013	0,109
-178,256	-200,000	0,016	0,063
-177,242	-47,493	0,113	0,039
-176,227	-11,493	0,099	-0,046
-175,212	-200,000	-0,005	0,040
-174,198	-200,000	0,004	0,045
-173,183	387,240	0,033	-0,048
-172,169	-94,024	0,050	-0,010
-171,154	8,269	-0,058	0,031
-170,139	235,580	-0,056	0,065
-169,125	-200,000	0,011	-0,074
-168,110	609,594	0,058	0,102
-167,096	35,555	-0,102	-0,063
-166,081	-200,000	-0,012	-0,041
-165,066	375,215	0,050	0,072
-164,052	178,577	0,057	-0,059
-163,037	29,435	-0,125	0,075
-162,023	-200,000	-0,003	0,084
-161,008	161,279	0,031	0,031
-159,993	-84,487	-0,100	0,022
-158,979	-200,000	0,018	-0,076
-157,964	68,146	-0,089	-0,065
-156,950	-76,533	-0,135	0,033
-155,935	-95,851	0,113	-0,021
-154,920	-200,000	0,009	0,061
-153,906	800,000	0,046	0,107
-152,891	-200,000	0,018	-0,138
-151,877	-126,189	0,043	0,004
-150,862	193,030	-0,070	-0,075
-149,847	-48,686	0,034	0,011
-148,833	-149,104	0,041	-0,002
-147,818	-146,954	0,145	0,009
-146,804	-200,000	0,037	0,135
-145,789	-200,000	0,038	0,231
-144,775	-41,488	0,100	-0,036
-143,760	84,041	0,046	0,036
-142,745	334,403	-0,069	-0,095
-141,731	-55,506	-0,106	0,034
-140,716	133,438	0,040	0,037
-139,702	-200,000	0,013	0,081
-138,687	-200,000	-0,060	0,196
-137,672	-4,118	0,061	0,030
-136,658	-29,574	0,011	0,005
-135,643	48,340	0,034	0,023
-134,629	-200,000	0,027	-0,096
-133,614	-200,000	0,039	-0,126
-132,599	-37,318	0,015	0,006
-131,585	-200,000	-0,026	0,089
-130,570	800,000	0,033	-0,069
-129,556	284,769	0,043	-0,054
-128,541	800,000	-0,028	-0,061
-127,526	348,555	0,056	-0,079
-126,512	800,000	-0,010	-0,024
-125,497	352,249	0,034	-0,048
-124,483	-95,081	0,091	-0,017
-123,468	-75,743	-0,061	-0,015
-122,453	136,434	-0,084	0,078
-121,439	-3,245	0,015	-0,008
-120,424	237,055	0,042	-0,049
-119,410	-200,000	0,014	-0,087
-118,395	56,292	0,109	-0,075
-117,380	23,151	0,098	0,057
-116,366	-200,000	-0,215	-0,001
-115,351	-200,000	-0,010	0,068
-114,337	800,000	-0,013	-0,026
-113,322	-48,110	-0,082	-0,028
-112,307	800,000	-0,020	0,061
-111,293	-72,209	0,134	0,035
-110,278	-24,877	-0,113	0,047
-109,264	-54,267	0,058	-0,018
-108,249	800,000	0,034	-0,078
-107,234	-200,000	-0,023	-0,118
-106,220	-160,072	-0,098	-0,004
-105,205	179,102	-0,053	-0,055
-104,191	301,148	0,094	0,123
-103,176	3,759	0,087	0,045
-102,162	-200,000	0,000	-0,035
-101,147	-200,000	-0,008	-0,064
-100,132	-62,631	-0,102	-0,030
-99,118	-200,000	0,001	-0,209
-98,103	341,354	0,051	-0,071
-97,089	-47,470	-0,109	0,037
-96,074	800,000	0,007	0,020
-95,059	379,946	-0,062	0,090
-94,045	800,000	-0,060	-0,140
-93,030	800,000	-0,081	-0,163
-92,016	492,615	-0,084	-0,137
-91,001	800,000	-0,026	0,062
-89,986	-0,080	-0,072	-0,036
-88,972	219,740	-0,018	-0,020
-87,957	-200,000	-0,002	0,026
-86,943	-200,000	0,002	0,115
-85,928	-84,375	-0,046	-0,010
-84,913	118,937	-0,079	-0,069
-83,899	-200,000	0,020	0,093
-82,884	125,446	0,052	-0,046
-81,870	221,299	0,016	0,018
-80,855	147,656	-0,056	0,054
-79,840	-123,587	-0,210	0,023
-78,826	-200,000	-0,030	-0,131
-77,811	-200,000	0,005	0,073
-76,797	800,000	-0,018	0,039
-75,782	-200,000	0,003	-0,080
-74,767	-65,469	0,141	-0,040
-73,753	142,324	0,110	0,103
-72,738	-69,353	-0,096	0,026
-71,724	103,256	0,063	-0,052
-70,709	-93,662	-0,155	-0,030
-69,694	-125,679	-0,134	-0,014
-68,680	800,000	-0,007	-0,016
-67,665	-158,753	-0,062	0,002
-66,651	84,727	0,039	0,031
-65,636	15,497	-0,137	0,076
-64,622	-200,000	-0,003	0,097
-63,607	570,904	-0,024	-0,042
-62,592	-200,000	-0,041	-0,143
-61,578	800,000	0,066	0,151
-60,563	-43,109	-0,048	0,017
-59,549	418,847	-0,051	0,078
-58,534	58,836	-2,073	-1,436
-57,519	537,739	-1,108	-1,864
-56,505	-200,000	-0,490	-4,521
-55,490	535,770	0,940	1,580
-54,476	800,000	5,358	11,867
-53,461	-200,000	22,426	346,667
-52,446	800,000	756,981	2298,422
-51,432	535,877	1644,058	2762,520
-50,417	68,322	1643,191	1186,160
-49,403	15,789	1520,552	841,410
-48,388	9,996	1446,398	772,549
-47,373	19,245	1438,859	812,569
-46,359	13,465	1427,365	778,767
-45,344	8,328	1423,256	752,198
-44,330	8,262	1421,346	750,846
-43,315	8,215	1419,560	749,655
-42,300	8,230	1417,833	748,782
-41,286	8,277	1416,452	748,246
-40,271	8,217	1415,328	747,340
-39,257	8,223	1414,273	746,779
-38,242	8,245	1413,160	746,267
-37,227	8,316	1411,938	745,925
-36,213	8,263	1410,564	744,922
-35,198	8,239	1409,315	744,117
-34,184	8,224	1408,705	743,695
-33,169	8,196	1407,279	742,783
-32,154	8,239	1406,073	742,316
-31,140	8,218	1404,996	741,623
-30,125	8,272	1403,737	741,182
-29,111	8,229	1402,530	740,312
-28,096	8,231	1401,548	739,774
-27,082	8,210	1400,242	738,960
-26,067	8,152	1399,133	738,072
-25,052	8,243	1397,905	737,820
-24,038	8,197	1397,156	737,179
-23,023	8,177	1396,083	736,494
-22,009	8,177	1394,962	735,871
-20,994	8,150	1394,100	735,265
-19,979	8,160	1393,217	734,815
-18,965	8,095	1392,548	734,131
-17,950	8,153	1391,273	733,700
-16,936	8,121	1390,364	733,041
-15,921	8,034	1389,664	732,243
-14,906	8,091	1388,542	731,887
-13,892	8,121	1387,682	731,540
-12,877	8,085	1387,054	731,015
-11,863	8,081	1386,138	730,483
-10,848	8,066	1385,267	729,925
-9,833	7,996	1384,466	729,153
-8,819	7,997	1383,373	728,554
-7,804	7,998	1382,428	728,033
-6,790	8,017	1381,310	727,502
-5,775	8,022	1380,373	727,002
-4,760	8,027	1379,332	726,446
-3,746	8,056	1378,491	726,109
-2,731	8,043	1377,368	725,431
-1,717	8,036	1376,719	725,026
-0,702	8,018	1374,954	723,987
0,313	11,939	1285,522	694,675
1,327	27,773	677,559	401,444
2,342	42,776	116,540	74,701
3,356	1,067	16,472	8,302
4,371	9,127	3,832	2,034
5,386	18,538	1,349	0,758
6,400	800,000	0,275	0,751
7,415	-14,892	-0,249	-0,112
8,429	-119,286	-0,365	-0,044
9,444	111,256	-0,190	-0,161
10,459	753,981	-0,164	-0,314
11,473	75,273	-0,281	-0,209
12,488	150,381	-0,140	-0,134
13,502	-104,912	-0,402	-0,064
14,517	135,505	-0,231	-0,211
15,531	9,899	-0,216	-0,115
16,546	152,190	-0,335	-0,322
17,561	287,362	-0,336	-0,429
18,575	-73,845	-0,243	-0,062
19,590	12,821	-0,318	-0,172
20,604	121,259	-0,132	-0,116
21,619	31,680	-0,545	-0,329
22,634	116,993	-0,361	-0,312
23,648	55,582	-0,417	-0,284
24,663	258,885	-0,334	-0,406
25,677	102,073	-0,323	-0,265
26,692	5,576	-0,294	-0,152
27,707	68,899	-0,302	-0,218
28,721	141,419	-0,410	-0,382
29,736	23,190	-0,506	-0,291
30,750	130,130	-0,372	-0,335
31,765	800,000	-0,177	-0,369
32,780	66,090	-0,447	-0,319
33,794	57,551	-0,354	-0,243
34,809	41,537	-0,398	-0,253
35,823	17,682	-0,402	-0,224
36,838	26,282	-0,302	-0,177
37,853	22,103	-0,514	-0,294
38,867	482,263	-0,221	-0,355
39,882	59,339	-0,352	-0,243
40,896	21,145	-0,369	-0,210
41,911	86,598	-0,352	-0,273
42,926	24,026	-0,324	-0,188
43,940	36,403	-0,371	-0,229
44,955	29,164	-0,410	-0,244
45,969	-61,143	-0,203	-0,060
46,984	-53,158	-0,427	-0,137
47,999	41,645	-0,323	-0,205
49,013	88,450	-0,285	-0,222
50,028	78,559	-0,431	-0,323
51,042	140,038	-0,283	-0,262
52,057	103,414	-0,266	-0,219
53,071	169,783	-0,284	-0,285
54,086	-15,749	-0,374	-0,166
55,101	157,577	-0,287	-0,279
56,115	189,486	-0,247	-0,260
57,130	44,094	-0,370	-0,238
58,144	-8,556	-0,501	-0,235
59,159	130,921	-0,354	-0,319
60,174	-21,347	-0,409	-0,174
61,188	57,615	-0,369	-0,252
62,203	157,359	-0,288	-0,280
63,217	-41,105	-0,401	-0,144
64,232	307,081	-0,204	-0,267
65,247	101,850	-0,321	-0,262
66,261	150,801	-0,256	-0,244
67,276	124,598	-0,280	-0,247
68,290	12,370	-0,328	-0,176
69,305	55,309	-0,323	-0,219
70,320	52,274	-0,303	-0,202
71,334	-76,788	-0,191	-0,046
72,349	-23,414	-0,462	-0,194
73,363	128,503	-0,437	-0,390
74,378	32,129	-0,400	-0,241
75,393	16,174	-0,423	-0,233
76,407	196,816	-0,265	-0,284
77,422	9,424	-0,260	-0,137
78,436	-108,165	-0,408	-0,061
79,451	97,494	-0,363	-0,292
80,466	-25,780	-0,326	-0,134
81,480	42,358	-0,362	-0,230
82,495	64,906	-0,297	-0,210
83,509	11,678	-0,390	-0,209
84,524	149,429	-0,262	-0,249
85,539	20,133	-0,339	-0,191
86,553	-11,202	-0,257	-0,118
87,568	124,225	-0,339	-0,298
88,582	137,170	-0,278	-0,254
89,597	119,501	-0,272	-0,236
90,611	114,183	-0,256	-0,218
91,626	181,637	-0,205	-0,212
92,641	-95,824	-0,283	-0,052
93,655	-45,009	-0,326	-0,113
94,670	-96,987	-0,470	-0,085
95,684	203,620	-0,202	-0,218
96,699	40,966	-0,303	-0,191
97,714	57,348	-0,263	-0,179
98,728	-42,345	-0,222	-0,079
99,743	-40,959	-0,180	-0,065
100,757	105,802	-0,195	-0,161
101,772	-32,692	-0,381	-0,148
102,787	167,041	-0,179	-0,178
103,801	20,380	-0,375	-0,211
104,816	800,000	-0,157	-0,336
105,830	87,707	-0,249	-0,192
106,845	-1,177	-0,335	-0,165
107,860	38,361	-0,255	-0,158
108,874	-17,244	-0,305	-0,134
109,889	52,054	-0,268	-0,178
110,903	266,389	-0,222	-0,271
111,918	104,087	-0,178	-0,146
112,933	211,512	-0,210	-0,231
113,947	-8,504	-0,125	-0,058
114,962	-182,153	-0,252	0,003
115,976	41,837	-0,276	-0,175
116,991	88,479	-0,272	-0,211
118,006	2,406	-0,254	-0,128
119,020	116,975	-0,282	-0,242
120,035	179,804	-0,114	-0,116
121,049	56,722	-0,177	-0,120
122,064	-23,871	-0,174	-0,072
123,079	-82,185	-0,211	-0,048
124,093	142,396	-0,332	-0,308
125,108	800,000	-0,072	-0,219
126,122	89,779	-0,184	-0,143
127,137	312,025	-0,164	-0,216
128,151	186,422	-0,212	-0,220
129,166	-50,178	-0,233	-0,076
130,181	306,776	-0,208	-0,271
131,195	198,400	-0,147	-0,157
132,210	43,597	-0,266	-0,169
133,224	107,155	-0,273	-0,226
134,239	-5,863	-0,267	-0,127
135,254	205,813	-0,133	-0,144
136,268	-52,170	-0,169	-0,054
137,283	-3,220	-0,310	-0,150
138,297	35,170	-0,239	-0,145
139,312	-35,575	-0,283	-0,106
140,327	89,539	-0,228	-0,177
141,341	23,566	-0,268	-0,153
142,356	89,563	-0,098	-0,076
143,370	-50,794	-0,233	-0,076
144,385	155,363	-0,131	-0,126
145,400	-66,640	-0,333	-0,091
146,414	6,884	-0,179	-0,092
147,429	687,932	-0,167	-0,306
148,443	87,989	-0,255	-0,197
149,458	800,000	-0,096	-0,261
150,473	106,316	-0,189	-0,156
151,487	-64,801	-0,298	-0,084
152,502	-58,799	-0,246	-0,074
153,516	30,844	-0,194	-0,115
154,531	133,154	-0,216	-0,194
155,546	-32,133	-0,260	-0,101
156,560	50,671	-0,206	-0,135
157,575	800,000	-0,121	-0,253
158,589	123,517	-0,288	-0,251
159,604	-41,200	-0,243	-0,087
160,619	20,206	-0,266	-0,149
161,633	36,215	-0,269	-0,164
162,648	-57,401	-0,331	-0,100
163,662	-82,103	-0,267	-0,060
164,677	77,604	-0,220	-0,163
165,692	-139,513	-0,276	-0,020
166,706	96,300	-0,207	-0,165
167,721	86,822	-0,311	-0,238
168,735	78,802	-0,235	-0,175
169,750	253,654	-0,206	-0,245
170,764	264,820	-0,196	-0,237
171,779	-132,601	-0,205	-0,018
172,794	-176,801	-0,179	-0,003
173,808	5,298	-0,268	-0,137
174,823	-31,517	-0,217	-0,084
175,837	215,770	-0,361	-0,398
176,852	-115,073	-0,380	-0,050
177,867	69,398	-0,289	-0,206
178,881	95,884	-0,168	-0,133
179,896	800,000	-0,061	-0,136
180,910	-21,543	-0,316	-0,133
181,925	28,535	-0,324	-0,190
182,940	70,229	-0,278	-0,199
183,954	93,992	-0,196	-0,154
184,969	800,000	-0,130	-0,252
185,983	-18,962	-0,237	-0,102
186,998	-101,859	-0,266	0,044
188,013	220,672	-0,245	-0,273
189,027	198,230	-0,199	-0,212
190,042	62,959	-0,330	-0,229
191,056	-21,148	-0,209	-0,088
192,071	176,056	-0,137	-0,138
193,086	2,875	-0,259	-0,130
194,100	129,801	-0,141	-0,125
195,115	-1,207	-0,264	-0,129
196,129	-17,955	-0,263	-0,114
197,144	60,483	-0,368	-0,252
198,159	800,000	-0,051	-0,113
199,173	83,287	-0,171	-0,129
200,188	112,128	-0,138	-0,115
201,202	15,752	-0,164	-0,089
202,217	-103,315	-0,142	-0,023
203,232	11,503	-0,191	-0,101
204,246	321,059	-0,158	-0,209
205,261	289,526	-0,120	-0,151
206,275	-59,648	-0,281	-0,083
207,290	279,927	-0,184	-0,228
208,304	-27,804	-0,154	-0,061
209,319	95,760	-0,172	-0,136
210,334	315,992	-0,230	-0,301
211,348	324,844	-0,146	-0,193
212,363	-41,705	-0,192	-0,068
213,377	64,929	-0,276	-0,192
214,392	-50,489	-0,150	-0,049
215,407	-20,683	-0,291	-0,123
216,421	800,000	-0,070	-0,146
217,436	-40,142	-0,163	-0,059
218,450	291,188	-0,113	-0,142
219,465	-65,595	-0,342	-0,094
220,480	207,613	-0,192	-0,207
221,494	65,364	-0,084	-0,059
222,509	142,646	-0,209	-0,192
223,523	77,360	-0,150	-0,110
224,538	800,000	-0,160	-0,322
225,553	133,894	-0,264	-0,236
226,567	609,100	-0,171	-0,297
227,582	381,057	-0,075	-0,107
228,596	112,386	-0,117	-0,098
229,611	160,879	-0,170	-0,164
230,626	331,561	-0,210	-0,280
231,640	37,243	-0,188	-0,115
232,655	800,000	-0,132	-0,259
233,669	20,874	-0,196	-0,110
234,684	-29,890	-0,182	-0,071
235,699	79,331	-0,208	-0,154
236,713	66,844	-0,195	-0,137
237,728	-82,059	-0,191	-0,043
238,742	-67,811	-0,219	0,059
239,757	37,328	-0,165	-0,101
240,772	71,207	-0,148	-0,106
241,786	60,907	-0,162	-0,111
242,801	103,040	-0,171	-0,138
243,815	311,465	-0,129	-0,167
244,830	-200,000	-0,004	0,021
245,844	-23,915	-0,238	-0,098
246,859	4,220	-0,240	-0,121
247,874	50,320	-0,164	-0,107
248,888	171,619	-0,185	-0,183
249,903	-24,368	-0,174	-0,071
250,917	-193,961	-0,209	0,001
251,932	67,398	-0,134	-0,094
252,947	-147,862	-0,180	-0,010
253,961	112,167	-0,092	-0,077
254,976	187,387	-0,171	-0,176
255,990	332,387	-0,146	-0,194
257,005	56,864	-0,140	-0,094
258,020	69,582	-0,134	-0,095
259,034	-168,146	-0,180	0,005
260,049	41,251	-0,181	-0,113
261,063	-131,658	-0,196	-0,018
262,078	-62,967	-0,297	-0,084
263,093	140,247	-0,155	-0,141
264,107	-119,321	-0,213	-0,025
265,122	0,285	-0,049	0,024
266,136	800,000	0,018	-0,046
267,151	651,000	-0,134	-0,237
268,166	72,473	-0,218	-0,156
269,180	607,180	-0,158	-0,273
270,195	213,778	-0,132	-0,144
271,209	108,095	-0,183	-0,150
272,224	194,483	-0,191	-0,200
273,239	34,083	-0,141	-0,084
274,253	152,935	-0,161	-0,152
275,268	-96,327	-0,110	0,020
276,282	159,353	-0,188	-0,181
277,297	-2,059	-0,301	-0,145
278,312	210,257	-0,155	-0,168
279,326	53,967	-0,174	-0,115
280,341	246,230	-0,110	-0,127
281,355	120,580	-0,138	-0,118
282,370	526,518	-0,156	-0,253
283,384	800,000	-0,066	-0,128
284,399	800,000	-0,098	-0,192
285,414	-67,071	-0,165	-0,044
286,428	557,546	-0,094	-0,156
287,443	449,257	-0,117	-0,178
288,457	191,497	-0,168	-0,174
289,472	51,822	-0,064	-0,041
290,487	77,864	-0,205	-0,150
291,501	800,000	-0,089	-0,261
292,516	-124,983	-0,084	0,009
293,530	-69,370	-0,133	-0,035
294,545	434,988	-0,087	-0,130
295,560	31,357	-0,125	0,073
296,574	255,756	-0,101	-0,119
297,589	800,000	-0,097	-0,220
298,603	-54,745	-0,160	-0,049
299,618	-45,664	-0,192	-0,065
300,633	235,039	-0,142	-0,161
301,647	504,011	0,037	0,059
302,662	57,893	-0,105	0,071
303,676	103,505	-0,088	-0,071
304,691	-117,321	-0,244	-0,030
305,706	420,839	-0,108	-0,159
306,720	-200,000	0,004	-0,156
307,735	481,753	-0,107	-0,167
308,749	83,535	-0,128	-0,096
309,764	-81,511	-0,203	-0,045
310,779	142,609	-0,142	-0,129
311,793	-100,877	-0,284	-0,047
312,808	162,368	-0,164	-0,158
313,822	54,687	-0,218	-0,144
314,837	275,669	-0,091	-0,111
315,852	139,280	-0,169	-0,153
316,866	-33,218	-0,083	-0,031
317,881	14,579	-0,124	-0,066
318,895	264,648	-0,097	-0,117
319,910	368,202	-0,120	-0,167
320,925	641,783	-0,061	-0,108
321,939	-83,168	-0,108	-0,024
322,954	35,569	-0,162	-0,097
323,968	-46,636	-0,087	-0,029
324,983	-30,047	-0,233	-0,090
325,997	309,222	-0,150	-0,193
327,012	282,285	-0,076	-0,093
328,027	34,849	-0,156	-0,093
329,041	131,760	-0,220	-0,194
330,056	49,348	-0,150	-0,096
331,070	204,445	-0,126	-0,134
332,085	8,860	-0,191	-0,098
333,100	625,268	-0,130	-0,225
334,114	15,528	-0,127	-0,068
335,129	786,377	-0,100	-0,189
336,143	665,635	-0,139	-0,246
337,158	-200,000	-0,025	-0,079
338,173	-55,994	-0,216	0,066
339,187	105,232	-0,205	-0,165
340,202	338,127	-0,116	-0,155
341,216	44,363	-0,224	-0,141
342,231	79,165	-0,134	-0,098
343,246	91,603	-0,233	-0,179
344,260	298,489	-0,203	-0,256
345,275	-200,000	-0,061	-0,239
346,289	-43,812	-0,227	-0,078
347,304	182,629	-0,112	0,113
348,319	95,833	-0,145	-0,114
349,333	-46,257	-0,256	-0,086
350,348	-172,561	-0,057	-0,001
351,362	221,330	-0,110	-0,121
352,377	-77,091	-0,130	-0,031
353,392	-89,130	-0,123	0,025
354,406	12,696	-0,089	-0,047
355,421	207,283	1309,504	1397,795
356,435	159,455	1469,515	1398,242
