DTS Sentinel unit serial number:	SN410029Multiplexer serial number:	ORYXHardware model number:	OX2-SRSoftware version number:	ORYX F/W v4,00 Oryx Data Collector v3.7.2.0data status	okinstallation	B3 Nyhavnadifferential loss correction	single-endedforward channel	channel 1reverse channel	N/Adate	2023/12/03time	00:47:30forward acquisition time	300,00reverse acquisition time	0,00gamma	499,1914k internal	0,3201k external	0,3201temperature offset calibration	1,0000default loss term (dB/km)	0,3820temperature slope calibration	1,0000multiplexer offset coefficient	1,0000multiplexer slope coefficient	1,0000fibre end	0,00T internal ref (°C)	13,32T ext. ref 1 (°C)	-1,63T ext. ref 2 (°C)	-1,64length (m)	temperature (°C)	Stokes	anti-Stokes-744,400	211,255	-0,163	-0,187
-743,385	-200,000	-0,018	0,267
-742,371	800,000	-0,101	-0,213
-741,356	-200,000	0,076	0,336
-740,342	94,286	-0,170	-0,140
-739,327	281,530	-0,083	0,109
-738,312	313,018	-0,227	-0,311
-737,298	-200,000	0,036	0,298
-736,283	127,956	-0,221	-0,205
-735,269	-200,000	-0,078	0,339
-734,254	215,223	-0,189	-0,219
-733,239	19,982	-0,168	0,098
-732,225	54,572	-0,212	-0,148
-731,210	130,974	0,189	0,176
-730,196	-16,065	-0,105	-0,048
-729,181	800,000	-0,050	-0,110
-728,167	-25,998	-0,022	-0,009
-727,152	-158,908	0,087	0,004
-726,137	-200,000	-0,035	-0,117
-725,123	-66,548	-0,103	-0,030
-724,108	517,059	-0,030	0,051
-723,094	-200,000	-0,006	-0,152
-722,079	-200,000	-0,059	-0,199
-721,064	79,177	-0,003	0,002
-720,050	329,037	0,049	-0,069
-719,035	370,889	0,036	0,054
-718,021	-141,235	-0,215	0,016
-717,006	247,185	-0,086	-0,106
-715,991	468,542	-0,075	-0,122
-714,977	-31,613	0,109	0,044
-713,962	-200,000	-0,013	-0,094
-712,948	-200,000	-0,011	-0,039
-711,933	-200,000	-0,006	0,054
-710,918	670,022	0,015	0,028
-709,904	-112,584	-0,134	-0,019
-708,889	-55,625	-0,102	-0,033
-707,875	-200,000	-0,047	-0,215
-706,860	-144,120	-0,133	0,009
-705,845	-200,000	-0,001	-0,063
-704,831	178,167	0,100	0,106
-703,816	-143,119	0,036	-0,002
-702,802	800,000	0,009	-0,022
-701,787	-200,000	0,146	0,000
-700,772	-41,380	-0,130	-0,049
-699,758	800,000	0,043	-0,105
-698,743	-42,047	0,014	-0,005
-697,729	26,399	0,033	-0,020
-696,714	-27,956	0,117	-0,049
-695,699	800,000	-0,030	-0,087
-694,685	-200,000	-0,018	-0,188
-693,670	-200,000	0,012	-0,048
-692,656	178,414	-0,105	-0,111
-691,641	693,851	-0,087	0,167
-690,627	-200,000	-0,006	0,166
-689,612	570,381	-0,048	0,086
-688,597	-103,086	-0,079	-0,013
-687,583	-55,176	-0,133	0,043
-686,568	76,728	0,068	0,052
-685,554	118,063	-0,037	0,033
-684,539	-135,357	-0,004	-0,000
-683,524	800,000	0,022	0,062
-682,510	-6,248	-0,067	0,033
-681,495	210,526	0,072	-0,082
-680,481	-147,508	-0,109	0,007
-679,466	-200,000	-0,003	-0,082
-678,451	-127,764	0,033	-0,003
-677,437	-32,396	0,099	0,040
-676,422	697,966	0,058	-0,112
-675,408	800,000	-0,009	-0,028
-674,393	-200,000	0,005	0,050
-673,378	-40,721	-0,085	-0,032
-672,364	734,451	-0,068	-0,133
-671,349	264,395	-0,019	0,024
-670,335	-143,779	0,092	-0,006
-669,320	800,000	0,053	-0,110
-668,305	-46,205	-0,112	-0,040
-667,291	125,247	0,019	-0,017
-666,276	-200,000	0,003	0,027
-665,262	-200,000	0,004	-0,102
-664,247	-6,589	-0,124	-0,061
-663,232	-200,000	-0,008	0,122
-662,218	-34,432	0,097	0,038
-661,203	-20,728	0,087	0,039
-660,189	-200,000	-0,035	-0,134
-659,174	-200,000	0,035	0,130
-658,159	-83,480	-0,109	0,025
-657,145	-200,000	-0,001	0,030
-656,130	-115,361	0,143	0,019
-655,116	557,626	-0,049	0,086
-654,101	-200,000	0,012	0,151
-653,086	-200,000	-0,010	0,078
-652,072	-6,827	-0,121	-0,060
-651,057	-109,968	-0,124	-0,019
-650,043	68,643	0,038	-0,028
-649,028	107,205	-0,040	-0,034
-648,014	-159,691	-0,045	-0,002
-646,999	-46,213	0,083	0,029
-645,984	170,003	-0,132	-0,137
-644,970	-200,000	0,043	-0,157
-643,955	-13,117	-0,130	-0,061
-642,941	58,953	-0,064	0,045
-641,926	54,722	0,058	-0,041
-640,911	-35,764	-0,061	0,024
-639,897	791,631	-0,042	0,083
-638,882	-200,000	0,016	-0,134
-637,868	-84,189	-0,047	-0,011
-636,853	477,579	0,024	0,039
-635,838	145,326	-0,121	-0,118
-634,824	92,797	0,101	-0,083
-633,809	-69,569	0,081	-0,022
-632,795	-132,186	0,051	0,005
-631,780	-200,000	-0,008	0,054
-630,765	800,000	0,025	-0,078
-629,751	-94,006	-0,109	-0,022
-628,736	-62,301	-0,079	-0,024
-627,722	800,000	-0,060	-0,138
-626,707	800,000	-0,058	-0,159
-625,692	-132,543	-0,081	0,007
-624,678	-200,000	0,006	-0,038
-623,663	291,072	-0,125	-0,165
-622,649	-200,000	-0,013	-0,238
-621,634	-6,061	-0,069	0,034
-620,619	37,993	-0,083	-0,053
-619,605	757,366	0,036	0,071
-618,590	-200,000	0,020	0,096
-617,576	-148,605	0,114	-0,007
-616,561	-200,000	0,014	0,106
-615,546	119,310	-0,089	-0,079
-614,532	603,387	-0,005	-0,009
-613,517	184,420	-0,071	-0,077
-612,503	-200,000	0,007	-0,028
-611,488	800,000	-0,054	0,109
-610,474	274,928	0,041	-0,053
-609,459	-200,000	-0,015	-0,117
-608,444	-1,720	0,048	0,024
-607,430	-16,503	0,042	0,019
-606,415	-110,405	-0,030	0,004
-605,401	-200,000	0,007	0,072
-604,386	295,875	0,070	-0,093
-603,371	-128,553	-0,021	-0,002
-602,357	-72,178	0,138	-0,037
-601,342	-91,960	0,020	0,004
-600,328	800,000	0,014	-0,039
-599,313	-200,000	0,018	-0,090
-598,298	800,000	0,037	0,114
-597,284	800,000	0,021	0,061
-596,269	-27,060	-0,148	0,062
-595,255	-121,628	0,085	-0,010
-594,240	510,449	-0,037	-0,063
-593,225	-200,000	-0,013	-0,091
-592,211	291,445	0,043	0,056
-591,196	60,838	-0,066	0,047
-590,182	-200,000	-0,017	0,125
-589,167	-200,000	0,009	0,085
-588,152	47,204	-0,022	0,015
-587,138	450,348	0,069	-0,111
-586,123	281,033	-0,087	-0,113
-585,109	202,911	-0,055	-0,062
-584,094	191,454	-0,042	0,046
-583,079	800,000	-0,014	0,035
-582,065	-99,729	-0,088	0,016
-581,050	-71,132	0,163	-0,044
-580,036	31,850	-0,079	0,049
-579,021	108,626	0,029	-0,025
-578,006	240,139	-0,055	-0,066
-576,992	5,001	-0,048	-0,025
-575,977	200,619	0,030	0,033
-574,963	-30,441	0,168	0,069
-573,948	203,697	-0,103	0,115
-572,934	-54,323	0,091	-0,030
-571,919	681,088	0,115	-0,217
-570,904	-121,238	0,039	-0,005
-569,890	-4,621	-0,107	0,053
-568,875	-74,692	0,118	0,031
-567,861	-55,195	0,138	0,044
-566,846	-200,000	-0,013	0,090
-565,831	-102,901	-0,100	0,017
-564,817	80,130	-0,073	-0,056
-563,802	348,643	-0,106	-0,151
-562,788	-106,397	-0,268	-0,043
-561,773	66,903	0,031	-0,022
-560,758	394,391	0,034	-0,051
-559,744	-200,000	-0,006	0,073
-558,729	102,701	0,130	0,110
-557,715	-83,886	-0,202	0,046
-556,700	152,877	0,023	-0,022
-555,685	-200,000	-0,010	-0,033
-554,671	-4,633	0,084	-0,042
-553,656	-200,000	0,018	-0,072
-552,642	553,403	-0,059	-0,103
-551,627	-132,044	-0,049	-0,005
-550,612	-186,024	0,121	0,001
-549,598	29,410	-0,105	0,065
-548,583	-200,000	-0,004	-0,098
-547,569	724,343	-0,022	0,042
-546,554	41,128	0,051	0,033
-545,539	88,289	-0,095	0,076
-544,525	285,296	-0,045	0,059
-543,510	152,162	-0,065	0,064
-542,496	-200,000	-0,009	-0,051
-541,481	-200,000	-0,021	0,145
-540,466	268,400	-0,057	-0,072
-539,452	80,089	0,039	-0,030
-538,437	-200,000	-0,009	0,056
-537,423	800,000	0,035	0,081
-536,408	140,195	0,051	0,048
-535,393	416,345	0,013	0,020
-534,379	40,627	-0,103	-0,067
-533,364	94,604	0,117	0,096
-532,350	-117,691	0,109	-0,014
-531,335	-200,000	-0,052	0,204
-530,321	19,108	0,157	0,091
-529,306	-80,276	0,074	0,018
-528,291	255,632	-0,070	0,087
-527,277	-138,428	-0,167	-0,013
-526,262	-200,000	0,033	-0,118
-525,248	45,186	-0,069	0,046
-524,233	-17,825	-0,042	-0,019
-523,218	-200,000	0,017	-0,142
-522,204	-69,051	-0,088	0,024
-521,189	237,535	-0,023	0,028
-520,175	-140,585	-0,125	0,009
-519,160	344,162	-0,035	-0,050
-518,145	800,000	-0,064	0,156
-517,131	-55,397	-0,043	-0,014
-516,116	-200,000	-0,001	0,116
-515,102	-200,000	-0,012	0,081
-514,087	125,071	-0,141	-0,128
-513,072	631,466	-0,115	-0,211
-512,058	-160,261	0,069	-0,003
-511,043	172,821	0,027	0,029
-510,029	-10,567	0,026	0,012
-509,014	636,656	0,050	0,092
-507,999	494,999	0,049	0,081
-506,985	-119,517	-0,086	0,011
-505,970	80,576	-0,088	-0,069
-504,956	58,595	-0,141	-0,100
-503,941	425,860	0,103	0,161
-502,926	-99,199	0,045	-0,008
-501,912	236,928	-0,035	0,042
-500,897	-135,210	-0,142	-0,012
-499,883	21,699	0,108	0,063
-498,868	800,000	-0,020	-0,041
-497,853	643,290	-0,051	-0,093
-496,839	800,000	0,064	-0,129
-495,824	-20,460	0,101	-0,045
-494,810	-200,000	0,008	0,054
-493,795	-200,000	-0,006	0,030
-492,781	-123,170	0,102	-0,012
-491,766	800,000	-0,057	-0,153
-490,751	582,850	0,023	-0,041
-489,737	800,000	-0,005	0,014
-488,722	-200,000	-0,010	0,069
-487,708	-6,469	0,118	0,058
-486,693	800,000	-0,043	0,107
-485,678	-200,000	-0,007	0,039
-484,664	343,433	-0,051	-0,071
-483,649	169,619	-0,090	0,092
-482,635	800,000	-0,034	0,090
-481,620	10,452	0,058	-0,031
-480,605	-2,765	0,126	0,063
-479,591	711,312	-0,080	0,153
-478,576	-104,358	0,035	0,006
-477,562	74,022	-0,057	-0,043
-476,547	32,576	0,085	-0,053
-475,532	800,000	0,043	-0,091
-474,518	800,000	0,006	-0,017
-473,503	-76,994	0,120	0,030
-472,489	-170,999	0,031	-0,001
-471,474	583,470	0,038	0,068
-470,459	-200,000	-0,012	-0,090
-469,445	-116,759	0,069	-0,009
-468,430	398,152	-0,038	0,058
-467,416	800,000	0,020	-0,053
-466,401	-175,407	0,118	0,002
-465,386	9,469	0,155	-0,084
-464,372	-91,244	0,107	0,022
-463,357	176,025	-0,110	-0,115
-462,343	67,266	-0,156	0,114
-461,328	84,369	0,072	0,057
-460,313	-141,763	-0,027	-0,002
-459,299	-6,586	0,106	-0,052
-458,284	126,125	-0,021	0,019
-457,270	-18,209	0,102	-0,046
-456,255	-58,782	-0,141	0,044
-455,241	43,639	-0,120	-0,079
-454,226	-200,000	0,031	-0,181
-453,211	-200,000	0,006	-0,078
-452,197	99,756	-0,115	0,096
-451,182	-18,593	0,074	0,033
-450,168	-39,323	-0,124	-0,047
-449,153	-200,000	0,034	0,237
-448,138	-69,480	0,077	-0,021
-447,124	-30,537	-0,034	0,014
-446,109	-200,000	-0,007	-0,043
-445,095	-200,000	-0,005	0,093
-444,080	119,681	0,102	0,091
-443,065	470,188	0,092	0,149
-442,051	-141,549	-0,116	-0,008
-441,036	-195,180	-0,091	-0,000
-440,022	-200,000	-0,033	-0,122
-439,007	561,314	0,021	-0,037
-437,992	-200,000	0,016	0,158
-436,978	116,826	0,086	0,076
-435,963	-77,224	-0,047	-0,012
-434,949	800,000	0,033	-0,099
-433,934	-200,000	-0,007	0,184
-432,919	-160,471	0,056	-0,002
-431,905	800,000	-0,021	-0,044
-430,890	800,000	-0,016	-0,044
-429,876	357,326	0,077	-0,110
-428,861	-200,000	-0,012	0,073
-427,846	-84,051	0,129	0,029
-426,832	-200,000	0,007	-0,082
-425,817	-56,461	0,022	-0,007
-424,803	-200,000	0,003	-0,113
-423,788	632,599	0,078	-0,142
-422,773	232,552	0,127	-0,150
-421,759	800,000	-0,023	0,053
-420,744	800,000	-0,031	-0,087
-419,730	-36,404	0,133	-0,051
-418,715	-92,069	0,030	0,006
-417,701	-82,625	0,156	0,036
-416,686	800,000	-0,048	-0,097
-415,671	297,115	0,019	0,025
-414,657	800,000	0,078	0,215
-413,642	-200,000	-0,005	0,061
-412,628	17,803	-0,048	-0,027
-411,613	212,761	-0,099	-0,113
-410,598	-82,792	-0,100	-0,023
-409,584	-200,000	-0,009	-0,034
-408,569	-170,786	0,225	-0,005
-407,555	43,205	0,084	0,055
-406,540	271,461	-0,035	0,044
-405,525	557,820	0,033	0,057
-404,511	97,179	-0,044	-0,036
-403,496	84,414	-0,060	-0,047
-402,482	-200,000	0,017	-0,111
-401,467	800,000	0,031	0,078
-400,452	-200,000	0,005	0,179
-399,438	-4,214	0,079	-0,039
-398,423	271,070	-0,022	0,028
-397,409	800,000	0,036	-0,115
-396,394	24,890	-0,106	0,063
-395,379	-200,000	-0,035	0,127
-394,365	-9,831	0,067	0,032
-393,350	800,000	0,061	0,127
-392,336	689,021	0,009	0,017
-391,321	-61,110	0,025	0,008
-390,306	22,550	0,054	0,031
-389,292	-200,000	-0,003	-0,031
-388,277	-45,858	0,124	-0,044
-387,263	800,000	0,014	-0,037
-386,248	800,000	-0,038	0,098
-385,233	0,216	-0,082	0,042
-384,219	-129,903	0,081	-0,008
-383,204	800,000	0,047	-0,115
-382,190	487,299	0,042	-0,070
-381,175	126,989	0,147	0,133
-380,160	725,391	-0,058	0,111
-379,146	-200,000	0,006	0,068
-378,131	-31,280	0,046	-0,019
-377,117	-20,249	-0,086	0,038
-376,102	-200,000	0,005	0,140
-375,088	-80,351	-0,037	0,009
-374,073	379,207	-0,079	0,116
-373,058	-200,000	0,002	0,085
-372,044	-200,000	0,001	-0,034
-371,029	219,344	0,038	-0,043
-370,015	373,680	-0,054	0,078
-369,000	-200,000	0,004	0,019
-367,985	-200,000	0,001	0,021
-366,971	698,808	0,014	0,027
-365,956	-14,826	-0,011	0,005
-364,942	-40,337	0,083	0,031
-363,927	800,000	0,061	-0,160
-362,912	52,031	-0,025	0,017
-361,898	-146,319	0,058	-0,004
-360,883	-200,000	-0,002	-0,065
-359,869	-200,000	-0,005	-0,124
-358,854	800,000	-0,051	-0,101
-357,839	-94,632	0,131	-0,025
-356,825	58,100	0,103	0,072
-355,810	-16,516	0,070	0,032
-354,796	-28,804	-0,078	0,032
-353,781	330,554	0,095	-0,131
-352,766	164,533	0,048	-0,049
-351,752	800,000	0,029	-0,083
-350,737	-200,000	0,012	-0,079
-349,723	-11,235	0,081	0,038
-348,708	-200,000	0,005	0,152
-347,693	42,258	0,053	0,035
-346,679	85,327	-0,064	-0,050
-345,664	733,863	-0,040	-0,078
-344,650	566,745	-0,051	-0,089
-343,635	277,675	-0,026	-0,034
-342,620	-94,142	-0,051	-0,010
-341,606	-76,074	0,133	0,033
-340,591	-200,000	0,018	-0,150
-339,577	-200,000	-0,014	0,078
-338,562	457,098	-0,035	0,056
-337,548	800,000	-0,071	-0,159
-336,533	-143,888	0,101	0,007
-335,518	800,000	0,041	0,120
-334,504	-105,151	0,034	0,006
-333,489	-100,945	0,059	0,010
-332,475	-53,941	-0,023	-0,008
-331,460	62,301	-0,063	0,045
-330,445	-200,000	-0,018	0,195
-329,431	800,000	-0,035	0,090
-328,416	86,795	0,052	-0,041
-327,402	54,943	0,102	-0,071
-326,387	24,572	0,073	0,043
-325,372	53,783	-0,050	-0,034
-324,358	800,000	-0,011	-0,024
-323,343	216,653	0,061	0,069
-322,329	-85,109	0,056	-0,013
-321,314	-85,642	-0,026	0,006
-320,299	-200,000	0,024	0,103
-319,285	328,852	-0,049	-0,067
-318,270	-200,000	-0,022	-0,208
-317,256	-46,053	-0,111	-0,039
-316,241	64,116	-0,025	-0,018
-315,226	290,003	0,070	0,092
-314,212	118,204	0,034	0,030
-313,197	-200,000	-0,018	0,087
-312,183	800,000	0,044	-0,095
-311,168	800,000	-0,021	-0,049
-310,153	-75,251	-0,136	0,034
-309,139	104,528	-0,049	-0,041
-308,124	77,305	0,087	-0,066
-307,110	107,264	0,021	-0,018
-306,095	800,000	-0,073	0,181
-305,080	-67,442	0,038	-0,011
-304,066	-99,240	-0,068	-0,012
-303,051	553,210	-0,098	-0,169
-302,037	-109,707	-0,067	0,010
-301,022	171,545	-0,061	-0,063
-300,008	-59,495	0,121	-0,037
-298,993	800,000	0,029	0,074
-297,978	252,965	-0,097	-0,118
-296,964	57,800	-0,021	0,015
-295,949	138,490	-0,049	-0,046
-294,935	-200,000	0,016	-0,063
-293,920	28,725	0,117	-0,071
-292,905	-67,244	-0,032	0,009
-291,891	349,028	0,038	0,054
-290,876	638,893	0,049	-0,090
-289,862	-200,000	0,001	0,011
-288,847	-200,000	0,042	0,141
-287,832	-63,742	-0,054	-0,016
-286,818	60,443	-0,043	0,031
-285,803	-51,556	0,082	0,027
-284,789	-200,000	-0,010	0,130
-283,774	524,763	0,060	-0,101
-282,759	71,092	-0,089	0,066
-281,745	-147,524	0,095	0,006
-280,730	-200,000	-0,000	-0,063
-279,716	80,951	0,088	-0,068
-278,701	34,513	0,078	0,048
-277,686	-200,000	0,012	0,176
-276,672	-200,000	-0,032	0,105
-275,657	270,167	0,071	-0,089
-274,643	53,584	-0,168	-0,115
-273,628	109,283	-0,061	-0,052
-272,613	674,774	-0,040	0,075
-271,599	800,000	0,054	0,152
-270,584	-200,000	-0,002	0,023
-269,570	-200,000	0,011	0,074
-268,555	409,494	0,070	0,106
-267,540	-36,404	0,087	-0,033
-266,526	148,033	-0,079	-0,076
-265,511	41,442	0,007	-0,005
-264,497	239,855	0,122	0,145
-263,482	-200,000	-0,014	-0,074
-262,467	-139,319	0,123	-0,009
-261,453	16,958	-0,178	0,100
-260,438	51,048	0,057	-0,038
-259,424	-196,534	-0,093	0,000
-258,409	-77,934	0,140	0,034
-257,395	-68,498	0,097	0,027
-256,380	26,350	-0,008	-0,005
-255,365	-176,186	-0,036	0,001
-254,351	400,781	0,108	0,162
-253,336	-134,695	-0,092	0,008
-252,322	-200,000	0,001	-0,045
-251,307	800,000	0,045	0,108
-250,292	109,073	0,081	0,069
-249,278	16,107	0,098	0,055
-248,263	-94,356	-0,096	-0,019
-247,249	153,654	0,064	0,063
-246,234	-200,000	-0,013	0,045
-245,219	-14,592	-0,225	-0,103
-244,205	-15,233	-0,076	-0,035
-243,190	50,480	-0,107	0,072
-242,176	-200,000	-0,009	0,056
-241,161	-194,675	0,080	0,000
-240,146	120,611	0,046	-0,041
-239,132	-68,934	-0,041	-0,011
-238,117	431,632	-0,035	-0,054
-237,103	222,142	-0,026	-0,030
-236,088	243,937	-0,063	-0,076
-235,073	767,687	0,062	0,120
-234,059	-198,137	0,065	-0,000
-233,044	297,110	0,044	0,058
-232,030	-15,374	0,162	-0,073
-231,015	-113,415	-0,041	-0,006
-230,000	-200,000	-0,046	-0,000
-228,986	62,274	0,043	0,031
-227,971	721,417	0,047	0,090
-226,957	-121,403	0,098	-0,012
-225,942	800,000	-0,057	0,128
-224,927	10,555	-0,118	-0,064
-223,913	-200,000	0,030	-0,127
-222,898	145,857	0,067	-0,064
-221,884	256,858	-0,021	0,025
-220,869	67,082	0,068	0,050
-219,855	-123,087	-0,026	0,003
-218,840	43,474	0,092	0,060
-217,825	-121,380	-0,097	0,011
-216,811	800,000	0,007	0,016
-215,796	-9,159	-0,281	-0,133
-214,782	-99,308	0,087	0,015
-213,767	-197,360	-0,060	-0,000
-212,752	-200,000	-0,005	0,129
-211,738	150,194	0,044	0,043
-210,723	-110,791	-0,068	-0,010
-209,709	-200,000	-0,002	0,088
-208,694	11,556	-0,121	-0,066
-207,679	-25,577	0,075	0,031
-206,665	123,977	-0,059	-0,053
-205,650	441,833	-0,077	-0,120
-204,636	39,730	0,090	0,057
-203,621	-200,000	0,013	-0,056
-202,606	-132,697	-0,037	0,003
-201,592	-118,668	0,145	-0,018
-200,577	387,435	0,068	-0,100
-199,563	153,864	-0,058	-0,057
-198,548	800,000	0,046	-0,123
-197,533	552,545	0,011	-0,019
-196,519	167,553	-0,052	0,053
-195,504	-200,000	-0,036	-0,119
-194,490	67,775	-0,161	-0,117
-193,475	8,629	-0,092	-0,049
-192,460	28,163	0,069	-0,041
-191,446	-128,458	0,057	0,006
-190,431	-141,693	0,089	0,006
-189,417	149,213	-0,067	0,065
-188,402	165,320	-0,052	0,052
-187,387	800,000	-0,049	-0,126
-186,373	-200,000	0,064	-0,220
-185,358	-84,488	-0,021	0,005
-184,344	88,378	0,050	-0,039
-183,329	800,000	0,040	0,118
-182,315	438,574	0,069	0,107
-181,300	18,900	0,032	0,018
-180,285	-200,000	-0,002	-0,137
-179,271	-115,650	-0,226	0,030
-178,256	-53,285	0,085	0,027
-177,242	133,102	0,109	0,100
-176,227	286,513	0,079	0,101
-175,212	-200,000	0,017	0,066
-174,198	800,000	0,015	0,044
-173,183	51,212	-0,174	-0,117
-172,169	230,145	0,015	0,017
-171,154	150,359	0,053	-0,051
-170,139	-200,000	-0,001	-0,085
-169,125	-200,000	-0,031	0,000
-168,110	-200,000	-0,005	0,083
-167,096	-200,000	-0,044	0,156
-166,081	134,404	-0,040	-0,037
-165,066	172,871	-0,020	0,020
-164,052	-5,374	-0,072	0,035
-163,037	53,198	-0,055	-0,037
-162,023	-200,000	-0,011	-0,037
-161,008	65,395	-0,011	-0,008
-159,993	-48,324	0,014	0,005
-158,979	770,340	-0,039	-0,075
-157,964	-37,708	-0,151	0,057
-156,950	60,306	-0,192	0,135
-155,935	-200,000	-0,007	-0,138
-154,920	13,583	-0,041	0,023
-153,906	-63,585	0,201	0,058
-152,891	259,829	-0,104	0,127
-151,877	-45,834	0,100	-0,035
-150,862	-66,153	-0,060	0,017
-149,847	-48,050	0,074	0,025
-148,833	-200,000	0,003	0,061
-147,818	-64,904	0,076	-0,022
-146,804	-107,976	0,173	0,026
-145,789	-77,315	-0,017	-0,004
-144,775	800,000	0,045	0,105
-143,760	-200,000	-0,019	0,072
-142,745	185,115	-0,067	0,071
-141,731	52,252	0,080	0,054
-140,716	800,000	-0,027	0,075
-139,702	-200,000	-0,006	0,087
-138,687	310,008	-0,056	0,075
-137,672	-79,990	0,083	-0,020
-136,658	-139,031	-0,197	0,015
-135,643	101,274	-0,078	-0,064
-134,629	-200,000	0,012	0,050
-133,614	-200,000	0,007	0,071
-132,599	800,000	0,052	0,124
-131,585	43,202	0,092	0,060
-130,570	-200,000	0,001	-0,055
-129,556	-200,000	0,001	-0,091
-128,541	543,088	0,021	-0,037
-127,526	-200,000	-0,006	-0,199
-126,512	-41,776	-0,177	0,064
-125,497	17,476	-0,028	-0,016
-124,483	-200,000	-0,004	0,175
-123,468	-200,000	0,023	0,077
-122,453	-200,000	-0,004	-0,061
-121,439	-53,563	0,055	-0,018
-120,424	800,000	-0,035	-0,080
-119,410	321,597	0,064	-0,087
-118,395	800,000	0,037	0,098
-117,380	682,256	0,070	0,131
-116,366	316,826	-0,097	-0,130
-115,351	-200,000	-0,023	0,089
-114,337	548,932	-0,051	-0,087
-113,322	800,000	0,022	-0,047
-112,307	87,820	-0,106	0,083
-111,293	-40,052	0,020	0,007
-110,278	800,000	0,068	0,144
-109,264	406,957	-0,077	-0,116
-108,249	-62,655	0,148	0,043
-107,234	-200,000	0,042	-0,134
-106,220	-200,000	-0,005	-0,163
-105,205	-200,000	-0,006	-0,101
-104,191	-83,166	0,064	-0,015
-103,176	32,906	0,189	-0,116
-102,162	-72,415	-0,053	-0,014
-101,147	26,230	-0,028	-0,017
-100,132	339,761	-0,030	-0,041
-99,118	-200,000	0,002	-0,049
-98,103	229,704	0,044	0,051
-97,089	-200,000	0,038	0,157
-96,074	546,607	0,106	0,180
-95,059	252,890	0,141	0,171
-94,045	800,000	-0,016	0,034
-93,030	-20,921	-0,062	0,027
-92,016	-48,091	-0,136	0,046
-91,001	168,313	0,061	0,062
-89,986	-83,130	-0,048	0,011
-88,972	-85,462	0,219	-0,048
-87,957	20,574	-0,046	0,026
-86,943	-42,276	0,063	0,023
-85,928	250,063	-0,034	0,042
-84,913	-29,940	-0,172	-0,069
-83,899	-23,517	-0,110	0,047
-82,884	80,417	0,108	-0,083
-81,870	800,000	-0,090	0,200
-80,855	800,000	0,026	0,076
-79,840	166,924	0,108	-0,109
-78,826	-200,000	0,025	-0,092
-77,811	-200,000	0,010	-0,075
-76,797	3,761	0,079	0,040
-75,782	-66,054	0,175	0,049
-74,767	-200,000	-0,013	-0,057
-73,753	800,000	-0,056	0,116
-72,738	-200,000	-0,017	0,136
-71,724	-200,000	0,012	0,042
-70,709	182,498	-0,047	0,050
-69,694	-200,000	0,003	-0,054
-68,680	-128,439	-0,125	0,012
-67,665	287,131	0,083	0,106
-66,651	83,609	0,039	0,030
-65,636	-126,005	-0,058	0,006
-64,622	83,199	-0,044	-0,034
-63,607	-2,303	-0,146	-0,072
-62,592	-160,180	-0,097	-0,004
-61,578	-61,113	0,122	-0,036
-60,563	-83,820	0,041	-0,009
-59,549	800,000	-0,069	0,176
-58,534	-5,862	-1,574	-0,760
-57,519	432,098	-1,393	-2,146
-56,505	-200,000	-0,516	-4,610
-55,490	188,605	0,997	1,058
-54,476	800,000	4,892	11,422
-53,461	-200,000	19,289	320,511
-52,446	-200,000	740,844	2335,070
-51,432	573,602	1655,415	2869,539
-50,417	78,277	1671,046	1261,847
-49,403	21,330	1543,939	885,796
-48,388	15,205	1466,112	811,363
-47,373	17,972	1456,433	819,347
-46,359	16,675	1446,393	807,448
-45,344	13,464	1441,758	789,446
-44,330	13,375	1439,715	787,868
-43,315	13,401	1438,002	787,026
-42,300	13,349	1436,690	786,029
-41,286	13,414	1435,158	785,466
-40,271	13,341	1433,685	784,284
-39,257	13,340	1432,484	783,587
-38,242	13,404	1431,243	783,184
-37,227	13,415	1430,119	782,591
-36,213	13,414	1428,749	781,803
-35,198	13,412	1427,397	781,025
-34,184	13,447	1426,823	780,845
-33,169	13,395	1425,269	779,718
-32,154	13,431	1424,124	779,231
-31,140	13,460	1423,002	778,725
-30,125	13,494	1421,682	778,130
-29,111	13,400	1420,758	777,150
-28,096	13,432	1419,649	776,664
-27,082	13,342	1418,464	775,558
-26,067	13,348	1417,375	774,962
-25,052	13,328	1416,493	774,355
-24,038	13,307	1415,315	773,582
-23,023	13,346	1414,252	773,154
-22,009	13,320	1413,274	772,467
-20,994	13,280	1412,553	771,855
-19,979	13,298	1411,738	771,461
-18,965	13,368	1410,550	771,108
-17,950	13,301	1409,661	770,279
-16,936	13,305	1408,693	769,740
-15,921	13,246	1407,809	768,947
-14,906	13,261	1406,724	768,398
-13,892	13,244	1405,893	767,833
-12,877	13,257	1405,078	767,416
-11,863	13,284	1404,016	766,932
-10,848	13,273	1403,226	766,418
-9,833	13,218	1402,193	765,569
-8,819	13,211	1401,659	765,213
-7,804	13,179	1400,490	764,398
-6,790	13,155	1399,473	763,701
-5,775	13,166	1398,429	763,152
-4,760	13,207	1397,345	762,718
-3,746	13,139	1396,450	761,887
-2,731	13,138	1395,741	761,464
-1,717	13,134	1394,979	761,000
-0,702	13,108	1393,092	759,820
0,313	17,040	1309,834	732,597
1,327	33,257	703,612	431,006
2,342	51,245	123,208	82,600
3,356	1,391	16,648	8,439
4,371	-3,635	3,289	1,611
5,386	52,994	0,593	0,401
6,400	560,559	0,054	0,092
7,415	99,846	-0,221	-0,181
8,429	-72,698	-0,324	-0,084
9,444	103,410	-0,309	-0,256
10,459	-0,309	-0,366	-0,184
11,473	30,926	-0,371	-0,225
12,488	58,834	-0,255	-0,177
13,502	-66,242	-0,388	-0,108
14,517	37,120	-0,289	-0,180
15,531	23,403	-0,275	-0,160
16,546	34,580	-0,396	-0,244
17,561	118,560	-0,357	-0,312
18,575	689,710	-0,081	-0,150
19,590	-58,002	-0,238	-0,073
20,604	302,623	-0,180	-0,236
21,619	61,035	-0,390	-0,273
22,634	35,077	-0,529	-0,327
23,648	279,619	-0,338	-0,428
24,663	-11,379	-0,444	-0,205
25,677	297,589	-0,347	-0,451
26,692	191,990	-0,314	-0,334
27,707	-38,962	-0,414	-0,153
28,721	127,161	-0,370	-0,331
29,736	437,376	-0,288	-0,444
30,750	389,307	-0,231	-0,338
31,765	-30,332	-0,377	-0,150
32,780	17,771	-0,268	-0,150
33,794	89,165	-0,269	-0,211
34,809	87,510	-0,386	-0,302
35,823	49,054	-0,331	-0,219
36,838	62,032	-0,349	-0,245
37,853	81,030	-0,379	-0,288
38,867	83,370	-0,300	-0,231
39,882	102,796	-0,351	-0,290
40,896	318,965	-0,235	-0,315
41,911	-14,158	-0,313	-0,142
42,926	37,842	-0,386	-0,241
43,940	60,699	-0,302	-0,211
44,955	185,909	-0,383	-0,402
45,969	52,844	-0,292	-0,197
46,984	387,493	-0,235	-0,344
47,999	123,400	-0,231	-0,204
49,013	88,469	-0,283	-0,222
50,028	57,713	-0,318	-0,219
51,042	62,749	-0,361	-0,254
52,057	138,546	-0,297	-0,274
53,071	244,671	-0,301	-0,357
54,086	5,677	-0,386	-0,201
55,101	33,190	-0,431	-0,263
56,115	-57,201	-0,326	-0,101
57,130	122,385	-0,253	-0,223
58,144	52,767	-0,392	-0,263
59,159	84,969	-0,371	-0,286
60,174	23,693	-0,375	-0,217
61,188	-6,929	-0,296	-0,141
62,203	65,041	-0,388	-0,276
63,217	88,968	-0,252	-0,197
64,232	56,994	-0,425	-0,291
65,247	95,657	-0,326	-0,262
66,261	14,486	-0,254	-0,139
67,276	39,426	-0,397	-0,250
68,290	187,183	-0,250	-0,262
69,305	-3,033	-0,458	-0,224
70,320	188,100	-0,252	-0,265
71,334	134,623	-0,224	-0,204
72,349	263,921	-0,215	-0,263
73,363	100,575	-0,374	-0,305
74,378	111,976	-0,177	-0,150
75,393	-71,636	-0,261	-0,068
76,407	-29,530	-0,371	-0,148
77,422	-16,777	-0,271	-0,120
78,436	177,625	-0,208	-0,213
79,451	-39,447	-0,291	-0,107
80,466	110,789	-0,219	-0,185
81,480	284,660	-0,204	-0,258
82,495	71,504	-0,375	-0,274
83,509	76,694	-0,343	-0,256
84,524	1,789	-0,303	-0,153
85,539	-39,866	-0,223	-0,081
86,553	-156,899	-0,256	-0,011
87,568	6,887	-0,247	-0,129
88,582	-0,221	-0,381	-0,189
89,597	-37,236	-0,314	-0,117
90,611	294,328	-0,179	-0,230
91,626	109,491	-0,313	-0,263
92,641	-16,154	-0,214	-0,095
93,655	-73,009	-0,312	-0,080
94,670	-25,790	-0,321	-0,132
95,684	-43,900	-0,284	-0,100
96,699	2,431	-0,293	-0,148
97,714	-46,731	-0,327	-0,112
98,728	-106,932	-0,252	-0,039
99,743	64,973	-0,299	-0,212
100,757	800,000	-0,141	-0,306
101,772	79,391	-0,252	-0,189
102,787	166,397	-0,151	-0,150
103,801	-24,702	-0,418	-0,174
104,816	3,097	-0,261	-0,132
105,830	-31,282	-0,272	-0,107
106,845	259,761	-0,189	-0,229
107,860	5,064	-0,211	-0,109
108,874	58,478	-0,273	-0,187
109,889	6,774	-0,368	-0,191
110,903	120,419	-0,337	-0,294
111,918	31,238	-0,336	-0,202
112,933	66,060	-0,296	-0,210
113,947	-74,199	-0,359	-0,090
114,962	135,457	-0,203	-0,185
115,976	63,488	-0,179	-0,126
116,991	105,677	-0,154	-0,128
118,006	-30,130	-0,366	-0,145
119,020	61,200	-0,366	-0,254
120,035	622,099	-0,126	-0,223
121,049	-18,088	-0,225	-0,098
122,064	-22,318	-0,215	-0,091
123,079	430,260	-0,135	-0,205
124,093	-42,427	-0,299	-0,106
125,108	-55,977	-0,326	-0,101
126,122	272,375	-0,225	-0,278
127,137	28,387	-0,306	-0,180
128,151	-14,337	-0,243	-0,109
129,166	69,544	-0,212	-0,153
130,181	145,112	-0,307	-0,288
131,195	-31,572	-0,197	-0,077
132,210	86,810	-0,341	-0,263
133,224	277,833	-0,159	-0,199
134,239	800,000	-0,108	-0,267
135,254	85,825	-0,235	-0,180
136,268	324,908	-0,162	-0,217
137,283	411,607	-0,210	-0,312
138,297	346,004	-0,099	-0,136
139,312	56,888	-0,314	-0,214
140,327	50,163	-0,274	-0,181
141,341	7,152	-0,237	-0,123
142,356	267,768	-0,243	-0,298
143,370	-12,944	-0,318	-0,144
144,385	-22,602	-0,243	-0,102
145,400	117,696	-0,303	-0,261
146,414	138,092	-0,307	-0,281
147,429	32,194	-0,288	-0,173
148,443	-40,689	-0,224	-0,081
149,458	78,825	-0,209	-0,156
150,473	82,829	-0,151	-0,114
151,487	133,245	-0,248	-0,223
152,502	229,872	-0,177	-0,203
153,516	189,590	-0,243	-0,254
154,531	80,892	-0,262	-0,197
155,546	-51,783	-0,247	-0,080
156,560	56,914	-0,184	-0,125
157,575	-23,512	-0,141	-0,059
158,589	-60,684	-0,197	-0,058
159,604	-87,001	-0,276	-0,058
160,619	54,621	-0,239	-0,161
161,633	-9,772	-0,190	-0,088
162,648	-114,719	-0,262	-0,035
163,662	-18,922	-0,105	0,045
164,677	128,935	-0,275	-0,244
165,692	-31,395	-0,147	-0,057
166,706	-89,780	-0,269	-0,055
167,721	31,231	-0,273	-0,163
168,735	20,806	-0,199	-0,112
169,750	58,047	-0,209	-0,143
170,764	-5,208	-0,356	-0,170
171,779	800,000	-0,135	-0,288
172,794	87,042	-0,223	-0,171
173,808	490,676	-0,124	-0,198
174,823	450,682	-0,186	-0,286
175,837	299,794	-0,244	-0,314
176,852	95,920	-0,300	-0,239
177,867	78,248	-0,222	-0,165
178,881	800,000	-0,135	-0,269
179,896	-82,110	-0,141	-0,032
180,910	-24,513	-0,267	-0,110
181,925	78,797	-0,290	-0,216
182,940	244,060	-0,303	-0,355
183,954	73,197	-0,198	-0,144
184,969	135,687	-0,234	-0,213
185,983	-27,600	-0,286	-0,115
186,998	-9,079	-0,228	-0,106
188,013	-29,133	-0,134	-0,053
189,027	478,670	-0,139	-0,220
190,042	157,175	-0,207	-0,199
191,056	63,406	-0,262	-0,183
192,071	477,512	-0,163	-0,258
193,086	3,538	-0,252	-0,127
194,100	155,149	-0,127	-0,122
195,115	355,143	-0,221	-0,306
196,129	800,000	-0,082	-0,202
197,144	10,134	-0,147	-0,077
198,159	-127,593	-0,256	-0,025
199,173	60,488	-0,232	-0,160
200,188	423,625	-0,144	-0,216
201,202	247,724	-0,136	-0,160
202,217	-66,352	-0,269	-0,074
203,232	-99,294	-0,250	-0,044
204,246	705,615	-0,124	-0,228
205,261	-52,343	-0,210	-0,067
206,275	800,000	-0,138	-0,274
207,290	121,065	-0,215	-0,186
208,304	-20,372	-0,215	-0,092
209,319	-40,901	-0,214	-0,076
210,334	-200,000	-0,080	-0,259
211,348	-15,168	-0,287	-0,127
212,363	65,375	-0,296	-0,208
213,377	178,133	-0,112	-0,113
214,392	800,000	-0,132	-0,282
215,407	800,000	-0,067	-0,155
216,421	-23,907	-0,218	-0,090
217,436	248,942	-0,217	-0,255
218,450	161,319	-0,239	-0,233
219,465	134,804	-0,236	-0,212
220,480	52,246	-0,230	-0,152
221,494	35,312	-0,147	-0,089
222,509	21,503	-0,180	-0,101
223,523	-45,376	-0,285	-0,097
224,538	-58,362	-0,192	0,058
225,553	800,000	-0,121	-0,257
226,567	800,000	-0,102	-0,213
227,582	54,709	-0,256	-0,171
228,596	-31,006	-0,199	-0,077
229,611	153,597	-0,237	-0,225
230,626	-36,281	-0,246	-0,092
231,640	794,816	-0,180	-0,345
232,655	397,757	-0,147	-0,214
233,669	52,736	-0,285	-0,188
234,684	-120,765	-0,242	-0,028
235,699	800,000	-0,072	-0,204
236,713	191,056	-0,103	-0,108
237,728	26,686	-0,218	-0,126
238,742	74,198	-0,292	-0,213
239,757	158,312	-0,196	-0,189
240,772	232,445	-0,191	-0,218
241,786	107,520	-0,179	-0,147
242,801	6,655	-0,046	0,024
243,815	143,456	-0,166	-0,154
244,830	204,338	-0,119	-0,127
245,844	-74,285	-0,170	0,042
246,859	-10,995	-0,205	-0,093
247,874	307,432	-0,076	-0,098
248,888	49,182	-0,132	-0,086
249,903	125,021	-0,223	-0,194
250,917	123,710	-0,120	-0,104
251,932	309,957	-0,059	0,077
252,947	-156,409	-0,197	0,008
253,961	-47,453	-0,177	-0,059
254,976	105,781	-0,178	-0,145
255,990	-26,561	-0,187	-0,076
257,005	30,355	-0,197	-0,116
258,020	225,592	-0,163	-0,183
259,034	800,000	-0,053	-0,140
260,049	-56,499	-0,195	0,059
261,063	800,000	-0,144	-0,285
262,078	-200,000	-0,024	-0,155
263,093	-69,980	-0,143	-0,037
264,107	160,451	-0,214	-0,207
265,122	97,263	-0,254	-0,201
266,136	167,334	-0,081	-0,080
267,151	-109,229	-0,269	-0,039
268,166	143,812	-0,200	-0,184
269,180	800,000	-0,123	-0,260
270,195	341,501	-0,185	-0,250
271,209	8,890	-0,203	-0,105
272,224	120,737	-0,097	-0,084
273,239	292,974	-0,121	-0,152
274,253	324,501	-0,155	-0,205
275,268	-37,143	-0,148	-0,055
276,282	249,435	-0,091	-0,107
277,297	-5,171	-0,168	-0,080
278,312	178,316	-0,151	-0,153
279,326	380,701	-0,097	-0,137
280,341	94,029	-0,098	0,077
281,355	303,628	-0,162	-0,208
282,370	-102,299	-0,301	-0,049
283,384	147,440	-0,156	-0,145
284,399	800,000	-0,096	-0,197
285,414	-200,000	-0,061	-0,295
286,428	800,000	-0,051	-0,116
287,443	-107,010	-0,128	0,019
288,457	763,994	-0,102	-0,193
289,472	-12,871	-0,151	-0,068
290,487	680,718	-0,132	-0,238
291,501	748,620	-0,104	-0,194
292,516	148,148	-0,143	-0,133
293,530	309,673	-0,110	-0,142
294,545	-58,997	-0,044	0,013
295,560	-28,200	-0,203	-0,081
296,574	113,328	-0,083	-0,069
297,589	130,201	-0,129	-0,114
298,603	590,421	-0,090	-0,154
299,618	800,000	-0,041	-0,106
300,633	-56,400	-0,225	-0,068
301,647	598,041	-0,092	-0,158
302,662	-25,585	-0,190	0,077
303,676	16,443	-0,175	-0,095
304,691	12,011	-0,039	-0,021
305,706	800,000	-0,081	-0,165
306,720	-79,907	-0,190	0,044
307,735	577,983	-0,091	-0,154
308,749	-200,000	-0,004	0,020
309,764	-94,241	-0,086	-0,016
310,779	-40,597	-0,081	-0,029
311,793	-29,481	-0,084	-0,033
312,808	-140,144	-0,194	-0,014
313,822	24,354	-0,170	-0,097
314,837	481,866	-0,064	-0,101
315,852	110,236	-0,116	-0,096
316,866	72,169	-0,116	-0,083
317,881	-33,516	-0,157	-0,060
318,895	-153,087	-0,123	-0,006
319,910	701,428	-0,045	-0,082
320,925	387,897	-0,140	-0,200
321,939	-200,000	-0,060	-0,209
322,954	516,711	-0,079	-0,128
323,968	287,567	-0,048	-0,060
324,983	800,000	-0,073	-0,159
325,997	800,000	-0,048	-0,102
327,012	800,000	-0,048	-0,118
328,027	14,484	-0,137	-0,073
329,041	-8,722	-0,141	-0,065
330,056	-93,339	-0,300	-0,057
331,070	800,000	-0,047	-0,100
332,085	74,307	-0,193	-0,139
333,100	288,028	-0,172	-0,215
334,114	533,564	-0,114	-0,186
335,129	28,901	-0,222	-0,129
336,143	800,000	-0,123	-0,255
337,158	-200,000	-0,010	-0,052
338,173	-85,966	-0,177	-0,037
339,187	-64,510	-0,069	-0,019
340,202	-12,709	-0,132	-0,059
341,216	81,031	-0,073	-0,054
342,231	671,450	-0,120	-0,214
343,246	-35,269	-0,259	-0,096
344,260	-19,812	-0,098	-0,041
345,275	-47,483	-0,039	0,013
346,289	-200,000	-0,042	-0,143
347,304	-33,650	-0,117	-0,044
348,319	-112,817	-0,248	-0,033
349,333	-2,889	-0,214	-0,102
350,348	-67,410	-0,197	-0,053
351,362	800,000	-0,040	-0,086
352,377	-200,000	0,009	-0,267
353,392	-200,000	0,001	-0,056
354,406	73,393	-0,113	0,081
355,421	210,435	1312,327	1415,463
356,435	161,999	1472,765	1415,958
