DTS Sentinel unit serial number:	SN410029Multiplexer serial number:	ORYXHardware model number:	OX2-SRSoftware version number:	ORYX F/W v4,00 Oryx Data Collector v3.7.2.0data status	okinstallation	B3 Nyhavnadifferential loss correction	single-endedforward channel	channel 1reverse channel	N/Adate	2023/11/29time	02:32:30forward acquisition time	300,00reverse acquisition time	0,00gamma	499,1914k internal	0,3211k external	0,3211temperature offset calibration	1,0000default loss term (dB/km)	0,3820temperature slope calibration	1,0000multiplexer offset coefficient	1,0000multiplexer slope coefficient	1,0000fibre end	0,00T internal ref (°C)	9,60T ext. ref 1 (°C)	-5,63T ext. ref 2 (°C)	-5,77length (m)	temperature (°C)	Stokes	anti-Stokes-744,400	452,425	-0,179	-0,288
-743,385	800,000	0,063	0,190
-742,371	114,542	-0,154	-0,136
-741,356	-200,000	0,065	0,268
-740,342	104,837	-0,254	-0,217
-739,327	800,000	-0,119	0,266
-738,312	800,000	-0,157	-0,329
-737,298	-200,000	-0,038	0,226
-736,283	117,118	-0,190	-0,169
-735,269	-200,000	0,047	0,284
-734,254	215,358	-0,130	-0,150
-733,239	-35,988	-0,210	-0,082
-732,225	-200,000	-0,088	-0,322
-731,210	311,028	0,095	0,129
-730,196	567,810	-0,018	0,031
-729,181	37,252	0,024	0,015
-728,167	-154,951	-0,104	-0,005
-727,152	-127,109	-0,152	0,016
-726,137	-17,408	-0,052	-0,024
-725,123	-6,505	-0,123	-0,061
-724,108	322,292	-0,107	-0,147
-723,094	257,558	0,017	0,021
-722,079	-200,000	-0,004	-0,095
-721,064	44,931	-0,060	0,040
-720,050	429,278	-0,022	-0,035
-719,035	467,929	0,076	-0,124
-718,021	-128,009	-0,095	0,010
-717,006	-12,534	-0,058	-0,027
-715,991	-200,000	0,017	-0,193
-714,977	-200,000	0,006	-0,068
-713,962	31,468	-0,056	-0,035
-712,948	93,505	-0,063	0,051
-711,933	-125,263	0,088	-0,010
-710,918	800,000	-0,025	-0,067
-709,904	-200,000	-0,047	-0,202
-708,889	800,000	-0,089	-0,201
-707,875	-97,049	-0,170	-0,032
-706,860	800,000	0,015	0,042
-705,845	-36,537	-0,133	0,052
-704,831	61,024	0,053	-0,038
-703,816	86,544	-0,014	0,011
-702,802	-173,528	-0,143	-0,003
-701,787	397,636	-0,125	-0,189
-700,772	800,000	-0,060	-0,127
-699,758	5,163	-0,092	-0,049
-698,743	97,538	0,099	-0,082
-697,729	-28,585	-0,135	0,056
-696,714	82,112	0,124	0,097
-695,699	-122,484	-0,058	-0,007
-694,685	139,858	0,032	0,030
-693,670	388,743	-0,088	-0,132
-692,656	-48,323	-0,191	-0,066
-691,641	-185,417	0,130	-0,001
-690,627	277,378	-0,040	0,052
-689,612	-49,274	0,018	-0,006
-688,597	-40,698	-0,114	-0,043
-687,583	20,006	0,083	0,048
-686,568	-200,000	0,018	-0,166
-685,554	800,000	-0,012	-0,038
-684,539	167,438	-0,069	0,071
-683,524	231,943	-0,051	0,060
-682,510	-200,000	0,000	-0,016
-681,495	103,189	-0,096	0,082
-680,481	362,609	-0,024	0,036
-679,466	-116,442	-0,155	0,020
-678,451	17,487	-0,139	-0,080
-677,437	-36,900	0,164	0,063
-676,422	800,000	0,018	0,036
-675,408	707,764	0,089	0,172
-674,393	-52,719	-0,130	-0,043
-673,378	3,188	-0,142	-0,074
-672,364	-100,709	-0,091	-0,016
-671,349	-159,451	-0,041	-0,002
-670,335	-80,028	-0,049	0,012
-669,320	-200,000	-0,022	0,102
-668,305	753,684	-0,021	0,041
-667,291	-72,149	-0,097	-0,026
-666,276	26,451	-0,028	-0,017
-665,262	203,021	-0,076	-0,085
-664,247	-40,838	-0,103	0,038
-663,232	68,008	0,107	0,079
-662,218	-1,111	0,039	-0,020
-661,203	33,598	-0,099	-0,062
-660,189	-69,135	-0,152	0,042
-659,174	-200,000	0,016	-0,143
-658,159	800,000	0,026	-0,058
-657,145	355,080	-0,051	-0,073
-656,130	800,000	-0,014	0,041
-655,116	-200,000	-0,001	0,024
-654,101	800,000	0,030	0,091
-653,086	630,705	-0,025	-0,045
-652,072	-200,000	0,012	-0,061
-651,057	-200,000	0,022	0,088
-650,043	294,491	-0,020	0,027
-649,028	-59,495	-0,074	-0,023
-648,014	-200,000	-0,006	0,022
-646,999	83,758	-0,039	-0,030
-645,984	-98,493	0,053	-0,010
-644,970	112,553	-0,130	-0,114
-643,955	108,084	0,022	0,019
-642,941	405,253	0,147	-0,224
-641,926	104,471	-0,054	-0,046
-640,911	-137,812	0,098	-0,008
-639,897	-200,000	0,024	0,079
-638,882	-200,000	0,004	0,066
-637,868	-200,000	0,015	-0,057
-636,853	800,000	0,056	-0,147
-635,838	101,740	-0,092	-0,077
-634,824	-154,030	-0,105	-0,005
-633,809	-76,193	-0,145	-0,037
-632,795	800,000	0,020	0,060
-631,780	-73,583	-0,074	0,019
-630,765	277,593	-0,086	-0,111
-629,751	-200,000	-0,033	-0,165
-628,736	99,555	-0,092	-0,077
-627,722	-200,000	-0,006	0,056
-626,707	134,490	0,083	0,078
-625,692	-200,000	-0,012	0,144
-624,678	85,718	-0,089	-0,070
-623,663	-10,856	-0,129	0,061
-622,649	-113,674	0,068	-0,010
-621,634	-200,000	-0,003	-0,037
-620,619	-92,224	0,060	0,012
-619,605	-30,821	0,109	0,044
-618,590	640,263	-0,062	0,114
-617,576	46,681	0,056	-0,037
-616,561	232,553	-0,026	-0,031
-615,546	672,914	0,060	-0,112
-614,532	-109,583	-0,104	-0,016
-613,517	-200,000	-0,014	-0,052
-612,503	-200,000	0,034	-0,143
-611,488	208,522	0,039	-0,044
-610,474	502,890	0,038	0,064
-609,459	85,243	-0,080	-0,063
-608,444	229,689	-0,119	-0,141
-607,430	350,903	-0,057	-0,081
-606,415	612,677	0,009	-0,015
-605,401	249,350	-0,072	-0,088
-604,386	800,000	0,031	0,075
-603,371	91,790	0,076	0,061
-602,357	-200,000	0,024	0,085
-601,342	23,942	0,060	-0,035
-600,328	-150,290	-0,037	-0,002
-599,313	62,731	-0,106	-0,076
-598,298	-200,000	-0,044	-0,238
-597,284	800,000	-0,015	-0,043
-596,269	-111,440	-0,019	0,003
-595,255	93,929	-0,029	-0,023
-594,240	-10,903	0,033	0,016
-593,225	-132,999	-0,134	0,012
-592,211	14,378	0,038	-0,021
-591,196	-100,789	-0,085	0,015
-590,182	800,000	-0,008	0,018
-589,167	-200,000	-0,016	-0,056
-588,152	128,679	-0,081	-0,075
-587,138	-57,326	-0,026	-0,008
-586,123	-70,757	0,088	-0,024
-585,109	-200,000	-0,010	-0,069
-584,094	-147,323	-0,018	0,001
-583,079	800,000	0,033	0,074
-582,065	800,000	0,032	0,100
-581,050	4,684	0,071	0,038
-580,036	604,154	0,031	-0,055
-579,021	627,310	-0,029	-0,054
-578,006	800,000	-0,072	-0,148
-576,992	800,000	0,020	-0,051
-575,977	-94,073	-0,031	0,006
-574,963	67,616	-0,058	-0,042
-573,948	-200,000	-0,012	0,117
-572,934	797,130	-0,043	0,087
-571,919	304,074	-0,047	-0,064
-570,904	120,283	-0,063	-0,056
-569,890	-71,657	-0,068	0,018
-568,875	-65,681	-0,060	-0,017
-567,861	71,493	0,103	0,077
-566,846	-200,000	0,027	0,162
-565,831	800,000	0,019	0,058
-564,817	87,618	-0,092	-0,073
-563,802	65,604	0,048	0,035
-562,788	520,073	-0,036	-0,062
-561,773	181,110	-0,038	-0,040
-560,758	313,600	0,039	0,052
-559,744	-86,808	0,126	-0,028
-558,729	27,681	-0,194	0,117
-557,715	-200,000	0,011	-0,116
-556,700	800,000	0,019	0,055
-555,685	-77,474	-0,064	-0,016
-554,671	100,588	0,100	0,084
-553,656	-136,816	0,111	-0,009
-552,642	349,120	0,025	0,035
-551,627	396,943	-0,101	-0,152
-550,612	-55,319	0,059	0,019
-549,598	-131,679	0,005	0,000
-548,583	181,412	-0,088	-0,094
-547,569	439,585	0,040	0,062
-546,554	-65,224	0,110	-0,032
-545,539	12,912	0,213	0,118
-544,525	288,548	0,080	-0,104
-543,510	-126,080	-0,075	0,008
-542,496	299,135	-0,081	-0,107
-541,481	55,359	-0,095	-0,066
-540,466	-139,885	0,035	-0,003
-539,452	800,000	0,021	0,051
-538,437	-200,000	0,004	0,037
-537,423	-200,000	-0,031	-0,122
-536,408	94,556	-0,032	0,026
-535,393	-27,023	-0,109	-0,046
-534,379	-123,989	-0,118	0,013
-533,364	-113,564	-0,135	0,019
-532,350	39,605	-0,105	0,067
-531,335	-36,058	0,153	0,059
-530,321	122,148	0,044	0,040
-529,306	-200,000	-0,113	-0,000
-528,291	-69,882	-0,010	-0,003
-527,277	85,543	-0,075	-0,060
-526,262	367,713	-0,088	0,128
-525,248	800,000	-0,012	0,029
-524,233	800,000	-0,036	0,093
-523,218	800,000	0,014	-0,045
-522,204	57,576	0,084	-0,059
-521,189	-46,173	-0,087	0,031
-520,175	-96,396	-0,076	0,014
-519,160	67,100	0,044	0,032
-518,145	36,690	0,127	0,081
-517,131	-128,061	0,052	0,005
-516,116	50,642	0,091	-0,062
-515,102	216,816	0,041	0,047
-514,087	-200,000	0,044	-0,209
-513,072	-200,000	-0,009	-0,147
-512,058	-2,179	0,026	0,013
-511,043	800,000	0,050	0,127
-510,029	-200,000	0,043	0,192
-509,014	800,000	-0,026	0,077
-507,999	346,629	-0,029	0,042
-506,985	-187,058	0,034	0,000
-505,970	-200,000	0,009	-0,056
-504,956	678,480	0,045	-0,085
-503,941	-200,000	0,023	0,152
-502,926	800,000	-0,035	-0,080
-501,912	-200,000	0,007	0,029
-500,897	662,769	0,001	0,003
-499,883	-17,437	0,067	-0,030
-498,868	-200,000	0,026	-0,151
-497,853	119,605	-0,091	-0,081
-496,839	176,824	0,024	0,025
-495,824	14,793	0,096	-0,054
-494,810	800,000	0,050	0,111
-493,795	800,000	0,048	-0,139
-492,781	390,510	0,071	-0,106
-491,766	-84,197	-0,017	0,004
-490,751	-98,126	-0,102	0,019
-489,737	22,493	0,189	0,111
-488,722	17,085	0,074	-0,042
-487,708	628,683	-0,050	0,092
-486,693	-200,000	-0,002	-0,131
-485,678	-200,000	0,030	-0,107
-484,664	-92,361	0,072	-0,014
-483,649	-83,891	-0,132	0,030
-482,635	-200,000	0,009	-0,067
-481,620	800,000	-0,021	0,062
-480,605	187,615	-0,030	0,032
-479,591	143,032	0,049	-0,046
-478,576	378,374	-0,018	0,027
-477,562	800,000	-0,060	-0,163
-476,547	-133,079	-0,111	0,010
-475,532	-200,000	0,019	-0,120
-474,518	-200,000	0,017	-0,099
-473,503	-29,923	0,068	0,028
-472,489	-61,707	-0,129	-0,039
-471,474	359,467	0,002	0,003
-470,459	41,608	-0,044	0,029
-469,445	-200,000	-0,036	0,141
-468,430	147,488	-0,039	-0,038
-467,416	-200,000	-0,002	-0,110
-466,401	143,534	0,022	-0,021
-465,386	346,013	-0,078	0,111
-464,372	-200,000	0,004	-0,043
-463,357	-200,000	0,005	-0,076
-462,343	57,394	-0,102	-0,072
-461,328	800,000	-0,024	-0,051
-460,313	800,000	-0,058	0,120
-459,299	-29,327	0,146	0,060
-458,284	22,858	-0,051	0,030
-457,270	800,000	-0,010	0,021
-456,255	282,877	-0,042	0,054
-455,241	-107,762	-0,052	0,008
-454,226	800,000	-0,009	-0,019
-453,211	-5,924	0,064	-0,031
-452,197	53,349	0,075	0,051
-451,182	382,911	0,014	0,021
-450,168	31,229	0,018	0,011
-449,153	-200,000	0,002	0,017
-448,138	473,581	0,036	-0,058
-447,124	-200,000	-0,020	-0,065
-446,109	77,563	0,095	0,073
-445,095	-83,098	0,094	-0,022
-444,080	800,000	-0,002	-0,006
-443,065	-50,546	-0,057	0,019
-442,051	5,148	0,078	0,041
-441,036	-200,000	0,011	0,043
-440,022	800,000	-0,016	0,037
-439,007	-53,615	-0,056	-0,018
-437,992	-60,736	-0,097	-0,029
-436,978	49,469	0,108	-0,072
-435,963	-39,767	0,015	0,006
-434,949	179,552	0,012	0,012
-433,934	-145,385	-0,107	0,007
-432,919	339,763	0,044	-0,061
-431,905	-200,000	-0,002	0,187
-430,890	-48,742	-0,047	0,016
-429,876	-100,211	-0,070	-0,012
-428,861	-200,000	0,019	0,117
-427,846	-8,924	-0,103	-0,049
-426,832	-200,000	-0,014	0,096
-425,817	225,129	0,017	-0,020
-424,803	-200,000	0,000	-0,033
-423,788	526,246	-0,125	0,211
-422,773	10,372	0,142	0,077
-421,759	588,009	0,060	0,106
-420,744	49,452	-0,062	-0,041
-419,730	474,571	0,050	0,082
-418,715	-32,858	0,108	0,043
-417,701	293,646	-0,033	0,043
-416,686	800,000	0,055	-0,121
-415,671	376,596	0,033	0,048
-414,657	-196,291	0,025	-0,000
-413,642	44,211	0,083	-0,055
-412,628	-70,803	-0,083	-0,022
-411,613	-200,000	-0,034	-0,107
-410,598	-49,359	-0,022	-0,007
-409,584	86,875	0,081	0,064
-408,569	-200,000	0,031	0,116
-407,555	99,829	-0,090	0,074
-406,540	800,000	0,055	0,124
-405,525	-200,000	0,014	0,051
-404,511	20,429	0,025	-0,014
-403,496	-143,302	0,125	-0,008
-402,482	-119,136	-0,109	-0,014
-401,467	-121,424	0,079	0,009
-400,452	-200,000	-0,032	0,123
-399,438	243,774	-0,065	-0,078
-398,423	-200,000	0,007	-0,054
-397,409	800,000	0,069	-0,175
-396,394	631,215	0,058	0,105
-395,379	457,757	0,098	-0,156
-394,365	-200,000	0,000	-0,012
-393,350	270,278	0,145	0,183
-392,336	308,193	0,054	0,072
-391,321	239,812	-0,084	0,100
-390,306	84,037	0,106	0,082
-389,292	361,540	-0,070	-0,100
-388,277	-46,911	-0,150	0,052
-387,263	-116,603	0,058	0,008
-386,248	104,797	-0,083	0,070
-385,233	269,779	-0,051	0,065
-384,219	422,264	0,045	0,070
-383,204	-169,382	0,050	-0,001
-382,190	272,626	-0,096	0,121
-381,175	46,468	0,029	0,019
-380,160	-49,741	-0,097	0,033
-379,146	564,828	0,044	0,077
-378,131	231,705	-0,116	0,137
-377,117	41,099	-0,111	0,071
-376,102	-71,505	-0,033	0,009
-375,088	-90,755	-0,059	-0,012
-374,073	84,602	0,103	-0,081
-373,058	-200,000	-0,039	0,191
-372,044	11,857	-0,082	0,045
-371,029	-181,421	0,079	-0,001
-370,015	-15,718	-0,023	0,010
-369,000	-126,378	-0,123	-0,013
-367,985	141,954	-0,028	-0,026
-366,971	-200,000	-0,007	0,069
-365,956	-200,000	0,007	0,084
-364,942	314,962	0,007	0,010
-363,927	191,897	0,128	0,138
-362,912	95,553	-0,104	0,085
-361,898	123,277	0,044	-0,039
-360,883	-200,000	-0,003	-0,105
-359,869	59,466	0,044	0,031
-358,854	-200,000	0,015	0,135
-357,839	527,780	0,047	0,079
-356,825	215,141	-0,023	0,026
-355,810	55,938	0,054	0,037
-354,796	-200,000	-0,012	-0,169
-353,781	132,684	0,048	0,044
-352,766	-36,414	-0,113	0,043
-351,752	204,695	-0,043	-0,048
-350,737	800,000	-0,044	0,104
-349,723	-77,617	0,052	0,013
-348,708	245,683	0,097	0,117
-347,693	734,313	0,048	0,091
-346,679	23,968	-0,095	-0,056
-345,664	-63,999	0,182	0,053
-344,650	265,524	0,051	0,063
-343,635	-34,624	0,043	-0,017
-342,620	-27,328	0,054	0,022
-341,606	-200,000	0,004	0,063
-340,591	510,074	0,026	-0,044
-339,577	-200,000	-0,035	-0,115
-338,562	-121,895	-0,061	0,007
-337,548	483,265	-0,077	0,125
-336,533	190,283	-0,047	0,051
-335,518	45,485	0,033	0,022
-334,504	599,597	0,021	0,037
-333,489	142,436	-0,088	-0,083
-332,475	-200,000	0,003	0,029
-331,460	575,593	-0,012	-0,020
-330,445	-25,027	0,130	0,055
-329,431	-200,000	-0,009	-0,038
-328,416	-200,000	0,000	0,140
-327,402	-55,519	0,143	0,045
-326,387	800,000	0,061	0,136
-325,372	206,433	-0,067	0,074
-324,358	800,000	-0,062	-0,127
-323,343	800,000	0,023	-0,052
-322,329	273,169	-0,020	0,025
-321,314	727,975	0,086	-0,165
-320,299	-200,000	0,014	0,121
-319,285	396,717	0,093	0,139
-318,270	-3,414	-0,083	0,041
-317,256	-200,000	0,040	-0,142
-316,241	-147,570	0,090	0,005
-315,226	-52,444	0,147	-0,048
-314,212	-45,244	0,054	0,019
-313,197	-200,000	0,023	0,088
-312,183	800,000	-0,034	-0,090
-311,168	800,000	-0,023	-0,058
-310,153	307,684	-0,068	-0,091
-309,139	-197,168	-0,095	0,000
-308,124	-58,753	-0,096	0,029
-307,110	373,318	-0,020	-0,030
-306,095	-100,370	0,127	0,022
-305,080	800,000	0,036	-0,092
-304,066	169,723	-0,133	0,136
-303,051	-200,000	0,030	-0,183
-302,037	183,006	0,035	-0,037
-301,022	-200,000	-0,030	0,108
-300,008	-65,683	-0,039	-0,011
-298,993	704,992	-0,032	0,061
-297,978	800,000	0,016	-0,047
-296,964	36,512	-0,060	-0,038
-295,949	-200,000	0,011	-0,117
-294,935	-3,366	0,074	0,037
-293,920	-200,000	-0,005	-0,052
-292,905	800,000	0,022	0,056
-291,891	186,481	0,086	0,091
-290,876	800,000	-0,054	0,130
-289,862	19,722	0,041	0,023
-288,847	800,000	0,020	-0,062
-287,832	343,227	-0,040	-0,056
-286,818	800,000	-0,012	-0,026
-285,803	800,000	-0,033	0,087
-284,789	-200,000	-0,019	-0,112
-283,774	-33,260	0,082	-0,032
-282,759	640,362	-0,029	-0,054
-281,745	-200,000	0,007	0,083
-280,730	-146,525	-0,071	-0,004
-279,716	-141,120	-0,119	0,009
-278,701	-44,226	0,134	0,048
-277,686	-83,228	0,123	-0,028
-276,672	126,505	-0,146	0,132
-275,657	218,615	0,080	0,091
-274,643	490,430	0,099	-0,162
-273,628	522,159	-0,057	-0,095
-272,613	-200,000	-0,002	-0,104
-271,599	-130,997	0,085	0,008
-270,584	-124,676	0,090	-0,010
-269,570	44,911	-0,138	0,090
-268,555	310,668	-0,055	0,074
-267,540	-3,465	0,125	-0,062
-266,526	140,529	0,035	0,033
-265,511	123,678	-0,056	-0,050
-264,497	-97,815	-0,016	0,003
-263,482	38,880	0,172	-0,109
-262,467	-66,673	-0,076	-0,021
-261,453	-143,139	0,173	0,012
-260,438	537,831	-0,021	0,036
-259,424	136,440	-0,035	-0,032
-258,409	157,717	-0,065	-0,064
-257,395	214,027	-0,036	-0,040
-256,380	366,036	0,100	0,144
-255,365	800,000	-0,014	0,029
-254,351	-200,000	0,004	0,021
-253,336	136,882	0,150	-0,139
-252,322	-200,000	-0,078	-0,272
-251,307	-200,000	-0,010	-0,098
-250,292	691,943	-0,017	0,032
-249,278	-76,489	0,095	0,024
-248,263	-39,525	0,069	0,025
-247,249	-89,510	0,021	-0,004
-246,234	-40,188	0,029	0,011
-245,219	-63,264	0,099	-0,029
-244,205	-200,000	0,019	-0,107
-243,190	106,100	-0,053	-0,044
-242,176	800,000	0,050	-0,113
-241,161	-200,000	0,019	0,079
-240,146	800,000	-0,028	-0,086
-239,132	-115,553	-0,007	0,001
-238,117	800,000	-0,047	-0,141
-237,103	183,533	-0,098	-0,103
-236,088	251,732	-0,056	0,068
-235,073	-200,000	-0,049	0,266
-234,059	65,249	0,197	0,141
-233,044	800,000	0,011	0,028
-232,030	-75,998	-0,097	0,024
-231,015	33,886	-0,040	-0,024
-230,000	296,987	-0,074	-0,097
-228,986	-76,865	0,080	0,020
-227,971	-200,000	0,012	0,081
-226,957	800,000	-0,011	-0,026
-225,942	192,010	-0,048	0,052
-224,927	-59,540	-0,093	0,028
-223,913	255,957	0,044	0,053
-222,898	-38,776	-0,045	0,017
-221,884	800,000	0,031	-0,079
-220,869	-200,000	-0,003	0,036
-219,855	-82,201	0,036	0,008
-218,840	112,528	-0,066	-0,057
-217,825	-200,000	0,004	0,056
-216,811	-49,955	-0,085	0,028
-215,796	-200,000	0,002	-0,098
-214,782	31,643	-0,056	-0,034
-213,767	-60,578	0,076	-0,023
-212,752	-200,000	0,019	0,060
-211,738	12,863	0,036	0,020
-210,723	427,845	-0,145	0,224
-209,709	40,095	-0,130	-0,083
-208,694	417,185	-0,012	0,018
-207,679	-41,744	-0,172	0,062
-206,665	45,099	0,079	0,052
-205,650	-10,356	-0,041	0,019
-204,636	-84,409	0,103	-0,023
-203,621	-95,993	0,081	0,015
-202,606	130,179	0,055	-0,050
-201,592	-200,000	-0,041	-0,161
-200,577	9,177	0,058	0,031
-199,563	69,864	0,076	-0,056
-198,548	-102,252	0,166	0,028
-197,533	-49,274	-0,047	-0,016
-196,519	-120,664	-0,075	0,009
-195,504	30,331	-0,089	0,054
-194,490	424,757	-0,128	-0,196
-193,475	470,681	0,057	-0,092
-192,460	10,942	-0,065	-0,035
-191,446	-94,492	-0,034	0,006
-190,431	-20,859	0,161	-0,070
-189,417	-12,999	0,110	-0,051
-188,402	87,026	0,036	-0,028
-187,387	-200,000	-0,017	-0,054
-186,373	-9,144	-0,145	-0,069
-185,358	454,273	0,085	0,134
-184,344	-200,000	0,005	-0,113
-183,329	-200,000	0,021	-0,090
-182,315	800,000	-0,032	0,083
-181,300	-62,007	-0,106	-0,031
-180,285	-200,000	-0,001	0,043
-179,271	86,444	-0,099	-0,077
-178,256	-184,928	0,069	-0,001
-177,242	-39,622	0,118	0,044
-176,227	5,712	0,045	0,024
-175,212	-200,000	0,022	0,078
-174,198	800,000	0,026	0,079
-173,183	-200,000	-0,092	-0,000
-172,169	-200,000	-0,008	-0,080
-171,154	800,000	-0,015	0,046
-170,139	197,040	0,128	-0,139
-169,125	-71,637	0,042	-0,011
-168,110	-158,992	0,150	-0,006
-167,096	137,762	0,049	-0,046
-166,081	-200,000	0,010	0,155
-165,066	-19,345	-0,053	0,023
-164,052	5,357	-0,117	-0,061
-163,037	54,952	0,145	-0,099
-162,023	434,281	0,080	-0,124
-161,008	-115,117	0,114	0,015
-159,993	57,590	-0,079	0,055
-158,979	15,794	-0,090	-0,050
-157,964	345,468	-0,031	-0,044
-156,950	273,425	0,043	0,054
-155,935	-200,000	0,027	0,105
-154,920	239,416	-0,038	0,045
-153,906	78,682	0,113	0,085
-152,891	-88,416	-0,157	0,033
-151,877	116,583	0,121	0,105
-150,862	-75,205	0,047	0,012
-149,847	-200,000	0,034	-0,171
-148,833	800,000	0,029	-0,073
-147,818	221,068	-0,051	0,058
-146,804	308,943	0,060	0,079
-145,789	-200,000	0,014	0,158
-144,775	-200,000	0,012	0,042
-143,760	-109,283	-0,120	-0,018
-142,745	21,567	-0,021	-0,012
-141,731	-123,560	0,073	0,008
-140,716	12,177	-0,044	0,024
-139,702	369,810	0,088	0,127
-138,687	29,074	-0,105	-0,063
-137,672	118,185	0,071	-0,062
-136,658	113,598	0,067	-0,058
-135,643	482,610	-0,060	-0,097
-134,629	243,762	-0,058	-0,069
-133,614	800,000	0,045	0,120
-132,599	-200,000	0,045	0,145
-131,585	296,080	-0,088	0,114
-130,570	44,208	-0,005	-0,003
-129,556	-200,000	0,014	-0,062
-128,541	257,911	-0,032	-0,039
-127,526	59,904	-0,145	0,101
-126,512	130,739	0,008	0,007
-125,497	800,000	0,051	0,124
-124,483	191,127	-0,064	0,068
-123,468	800,000	-0,016	0,042
-122,453	-131,626	-0,040	-0,004
-121,439	507,914	0,031	0,052
-120,424	-84,146	-0,104	0,023
-119,410	241,701	0,088	0,105
-118,395	332,187	0,102	0,140
-117,380	-200,000	-0,004	0,025
-116,366	800,000	-0,032	0,092
-115,351	51,198	0,083	0,055
-114,337	553,868	-0,026	-0,044
-113,322	800,000	0,013	-0,029
-112,307	800,000	-0,030	0,086
-111,293	38,881	-0,025	0,016
-110,278	775,601	0,015	0,028
-109,264	348,134	-0,095	0,133
-108,249	483,189	-0,083	-0,134
-107,234	800,000	0,029	-0,060
-106,220	-144,239	0,080	-0,005
-105,205	-94,412	0,079	0,015
-104,191	-18,624	-0,026	0,011
-103,176	-26,735	0,120	0,049
-102,162	-31,170	-0,122	-0,048
-101,147	316,494	0,062	0,082
-100,132	-120,599	0,098	0,012
-99,118	800,000	-0,039	0,121
-98,103	-23,200	0,060	0,025
-97,089	-39,305	0,020	-0,007
-96,074	91,924	0,033	-0,026
-95,059	94,133	-0,033	-0,026
-94,045	455,100	-0,014	-0,022
-93,030	-200,000	0,021	-0,077
-92,016	667,355	-0,022	0,040
-91,001	85,459	-0,101	-0,078
-89,986	740,525	-0,074	0,142
-88,972	155,189	0,135	0,131
-87,957	-200,000	-0,014	-0,046
-86,943	677,898	0,019	0,035
-85,928	243,940	-0,052	0,062
-84,913	-146,598	-0,113	0,007
-83,899	-200,000	-0,001	-0,033
-82,884	-200,000	0,020	0,186
-81,870	172,134	-0,080	0,081
-80,855	-77,720	0,111	0,027
-79,840	-200,000	0,016	-0,115
-78,826	800,000	0,024	0,064
-77,811	222,884	-0,098	-0,111
-76,797	602,408	-0,021	-0,036
-75,782	258,989	0,030	-0,037
-74,767	89,375	0,084	0,066
-73,753	152,990	0,078	-0,076
-72,738	800,000	-0,016	-0,048
-71,724	-200,000	0,017	-0,116
-70,709	777,906	-0,061	-0,118
-69,694	-200,000	0,018	-0,078
-68,680	272,903	0,054	0,067
-67,665	-200,000	0,035	0,164
-66,651	-200,000	0,001	-0,048
-65,636	27,880	-0,121	-0,072
-64,622	-100,565	-0,032	0,006
-63,607	132,496	0,103	-0,094
-62,592	-200,000	-0,032	-0,138
-61,578	603,731	0,070	-0,123
-60,563	800,000	0,046	0,109
-59,549	111,853	-0,035	0,030
-58,534	42,629	-1,968	-1,262
-57,519	629,812	-1,181	-2,118
-56,505	-200,000	-0,310	-4,268
-55,490	800,000	0,824	1,747
-54,476	800,000	5,128	11,203
-53,461	-200,000	21,588	343,441
-52,446	800,000	762,585	2353,698
-51,432	551,613	1662,525	2827,883
-50,417	72,061	1658,546	1216,892
-49,403	17,462	1531,711	856,435
-48,388	11,414	1455,958	784,866
-47,373	19,391	1447,233	818,356
-46,359	14,918	1436,462	790,992
-45,344	9,683	1432,453	763,855
-44,330	9,657	1430,584	762,705
-43,315	9,636	1428,802	761,625
-42,300	9,647	1426,893	760,632
-41,286	9,682	1425,639	760,099
-40,271	9,623	1424,378	759,116
-39,257	9,649	1423,150	758,557
-38,242	9,692	1422,093	758,166
-37,227	9,690	1420,913	757,497
-36,213	9,672	1419,738	756,756
-35,198	9,647	1418,598	756,001
-34,184	9,728	1417,456	755,741
-33,169	9,616	1416,245	754,539
-32,154	9,667	1415,356	754,276
-31,140	9,717	1413,864	753,684
-30,125	9,704	1412,931	753,097
-29,111	9,690	1411,537	752,259
-28,096	9,660	1410,427	751,496
-27,082	9,621	1409,358	750,713
-26,067	9,599	1408,379	750,061
-25,052	9,631	1407,294	749,605
-24,038	9,679	1406,270	749,251
-23,023	9,659	1405,354	748,642
-22,009	9,599	1404,479	747,863
-20,994	9,597	1403,365	747,232
-19,979	9,652	1402,391	746,938
-18,965	9,631	1401,526	746,350
-17,950	9,589	1400,623	745,645
-16,936	9,544	1399,711	744,923
-15,921	9,553	1398,717	744,404
-14,906	9,548	1397,791	743,858
-13,892	9,594	1396,856	743,546
-12,877	9,532	1396,297	742,930
-11,863	9,523	1395,252	742,302
-10,848	9,510	1394,185	741,648
-9,833	9,517	1393,314	741,188
-8,819	9,426	1392,541	740,325
-7,804	9,447	1391,838	740,016
-6,790	9,413	1390,639	739,192
-5,775	9,439	1389,427	738,639
-4,760	9,448	1388,615	738,220
-3,746	9,498	1387,491	737,826
-2,731	9,433	1386,814	737,138
-1,717	9,421	1385,932	736,584
-0,702	9,415	1384,092	735,547
0,313	13,375	1296,901	707,314
1,327	29,296	687,606	410,995
2,342	46,230	118,589	77,358
3,356	0,608	16,443	8,266
4,371	-6,511	3,633	1,739
5,386	-24,960	1,101	0,459
6,400	800,000	0,210	0,585
7,415	120,777	-0,144	-0,127
8,429	-148,586	-0,365	-0,021
9,444	10,818	-0,343	-0,184
10,459	-70,439	-0,404	-0,107
11,473	177,958	-0,231	-0,238
12,488	-13,797	-0,359	-0,163
13,502	-34,121	-0,317	-0,122
14,517	35,555	-0,365	-0,226
15,531	-128,437	-0,387	-0,038
16,546	-24,155	-0,347	-0,145
17,561	606,677	-0,211	-0,372
18,575	519,926	-0,148	-0,245
19,590	156,948	-0,239	-0,233
20,604	-161,507	-0,307	0,011
21,619	28,328	-0,431	-0,256
22,634	175,139	-0,449	-0,458
23,648	34,653	-0,498	-0,306
24,663	81,696	-0,400	-0,305
25,677	52,818	-0,332	-0,223
26,692	505,859	-0,199	-0,325
27,707	99,569	-0,338	-0,275
28,721	-24,983	-0,481	-0,200
29,736	12,331	-0,419	-0,226
30,750	273,295	-0,260	-0,324
31,765	126,092	-0,289	-0,257
32,780	206,512	-0,243	-0,267
33,794	117,741	-0,369	-0,319
34,809	-19,825	-0,386	-0,167
35,823	-0,423	-0,491	-0,245
36,838	-34,244	-0,402	-0,154
37,853	109,215	-0,348	-0,293
38,867	86,838	-0,253	-0,196
39,882	96,519	-0,460	-0,370
40,896	15,002	-0,365	-0,200
41,911	438,412	-0,279	-0,429
42,926	120,346	-0,375	-0,328
43,940	55,503	-0,312	-0,212
44,955	150,841	-0,369	-0,353
45,969	34,205	-0,463	-0,283
46,984	182,704	-0,227	-0,236
47,999	125,578	-0,249	-0,221
49,013	113,301	-0,299	-0,255
50,028	15,189	-0,335	-0,184
51,042	65,269	-0,406	-0,288
52,057	44,939	-0,321	-0,207
53,071	126,552	-0,222	-0,197
54,086	53,742	-0,415	-0,279
55,101	-32,257	-0,356	-0,139
56,115	34,623	-0,462	-0,283
57,130	38,450	-0,479	-0,299
58,144	-18,855	-0,368	-0,160
59,159	5,804	-0,328	-0,170
60,174	68,924	-0,403	-0,290
61,188	10,425	-0,381	-0,203
62,203	-9,851	-0,374	-0,174
63,217	45,011	-0,347	-0,224
64,232	63,764	-0,327	-0,230
65,247	111,377	-0,355	-0,300
66,261	122,622	-0,301	-0,264
67,276	1,193	-0,406	-0,204
68,290	67,837	-0,383	-0,274
69,305	303,991	-0,284	-0,370
70,320	-29,848	-0,317	-0,126
71,334	76,388	-0,296	-0,220
72,349	234,252	-0,246	-0,285
73,363	-23,865	-0,404	-0,169
74,378	-54,261	-0,320	-0,101
75,393	370,714	-0,153	-0,218
76,407	-22,922	-0,323	-0,136
77,422	-0,262	-0,311	-0,155
78,436	65,639	-0,264	-0,187
79,451	213,225	-0,287	-0,318
80,466	-9,990	-0,209	-0,097
81,480	12,650	-0,399	-0,215
82,495	208,616	-0,281	-0,308
83,509	31,492	-0,248	-0,149
84,524	-0,499	-0,228	-0,113
85,539	16,696	-0,223	-0,123
86,553	-42,772	-0,397	-0,141
87,568	170,143	-0,322	-0,323
88,582	-22,906	-0,257	-0,108
89,597	-74,800	-0,257	-0,064
90,611	-37,825	-0,244	-0,090
91,626	22,324	-0,279	-0,159
92,641	83,682	-0,207	-0,158
93,655	3,471	-0,281	-0,143
94,670	324,526	-0,183	-0,246
95,684	21,596	-0,385	-0,219
96,699	41,653	-0,366	-0,232
97,714	14,266	-0,260	-0,141
98,728	93,599	-0,225	-0,178
99,743	-39,865	-0,289	-0,105
100,757	-18,460	-0,312	-0,136
101,772	194,326	-0,267	-0,283
102,787	125,772	-0,294	-0,260
103,801	100,659	-0,326	-0,265
104,816	257,025	-0,291	-0,350
105,830	-14,173	-0,278	-0,125
106,845	-26,006	-0,214	-0,088
107,860	121,264	-0,170	-0,148
108,874	-15,022	-0,337	-0,150
109,889	330,148	-0,141	-0,190
110,903	285,657	-0,190	-0,240
111,918	37,489	-0,289	-0,179
112,933	116,061	-0,178	-0,152
113,947	-20,513	-0,240	-0,102
114,962	-15,864	-0,235	-0,104
115,976	-42,074	-0,275	-0,098
116,991	294,330	-0,210	-0,268
118,006	800,000	-0,141	-0,304
119,020	70,354	-0,261	-0,188
120,035	241,960	-0,184	-0,215
121,049	146,875	-0,131	-0,123
122,064	9,530	-0,292	-0,154
123,079	337,043	-0,128	-0,174
124,093	-49,059	-0,335	-0,111
125,108	143,954	-0,166	-0,154
126,122	394,544	-0,168	-0,245
127,137	40,793	-0,172	-0,108
128,151	57,207	-0,222	-0,151
129,166	118,548	-0,257	-0,221
130,181	111,056	-0,253	-0,212
131,195	-41,381	-0,339	-0,121
132,210	437,273	-0,207	-0,316
133,224	149,755	-0,274	-0,259
134,239	-128,183	-0,279	-0,027
135,254	-23,577	-0,314	-0,131
136,268	-62,683	-0,145	-0,042
137,283	-57,453	-0,277	-0,084
138,297	147,706	-0,230	-0,216
139,312	145,602	-0,234	-0,218
140,327	800,000	-0,138	-0,282
141,341	-4,964	-0,221	-0,106
142,356	212,841	-0,143	-0,157
143,370	-9,477	-0,295	-0,136
144,385	800,000	-0,142	-0,283
145,400	659,433	-0,207	-0,373
146,414	-0,802	-0,362	-0,178
147,429	122,436	-0,262	-0,228
148,443	53,639	-0,248	-0,165
149,458	-50,044	-0,186	-0,061
150,473	11,593	-0,259	-0,138
151,487	-54,608	-0,262	-0,082
152,502	45,051	-0,240	-0,154
153,516	197,849	-0,198	-0,211
154,531	109,345	-0,281	-0,234
155,546	310,551	-0,179	-0,233
156,560	-75,731	-0,170	-0,042
157,575	-24,825	-0,189	-0,078
158,589	21,993	-0,323	-0,183
159,604	-94,018	-0,335	-0,063
160,619	11,942	-0,291	-0,155
161,633	9,423	-0,265	-0,139
162,648	654,060	-0,149	-0,268
163,662	223,221	-0,077	-0,086
164,677	7,519	-0,299	-0,155
165,692	249,463	-0,126	-0,148
166,706	61,707	-0,239	-0,165
167,721	63,187	-0,179	-0,124
168,735	83,177	-0,197	-0,149
169,750	115,853	-0,221	-0,188
170,764	29,290	-0,173	-0,102
171,779	42,233	-0,159	-0,100
172,794	21,594	-0,154	-0,087
173,808	157,774	-0,268	-0,258
174,823	-15,817	-0,134	-0,059
175,837	-72,550	-0,278	-0,071
176,852	365,276	-0,145	-0,204
177,867	235,398	-0,195	-0,223
178,881	245,508	-0,136	-0,159
179,896	419,912	-0,094	-0,141
180,910	-200,000	-0,087	-0,285
181,925	184,463	-0,198	-0,204
182,940	61,528	-0,281	-0,194
183,954	245,058	-0,347	-0,406
184,969	220,641	-0,244	-0,272
185,983	312,203	-0,126	-0,165
186,998	800,000	-0,049	-0,118
188,013	-42,189	-0,259	-0,091
189,027	-31,253	-0,126	-0,049
190,042	800,000	-0,190	-0,379
191,056	800,000	-0,089	-0,250
192,071	262,151	-0,197	-0,238
193,086	-52,206	-0,172	0,055
194,100	-66,411	-0,153	-0,042
195,115	169,773	-0,210	-0,208
196,129	-50,178	-0,197	-0,064
197,144	370,867	-0,132	-0,186
198,159	211,057	-0,240	-0,262
199,173	99,944	-0,254	-0,204
200,188	215,833	-0,131	-0,144
201,202	21,906	-0,159	-0,090
202,217	98,692	-0,164	-0,131
203,232	800,000	-0,132	-0,273
204,246	49,269	-0,263	-0,171
205,261	800,000	-0,135	-0,269
206,275	-26,272	-0,204	-0,083
207,290	150,885	-0,220	-0,208
208,304	102,829	-0,227	-0,184
209,319	-44,908	-0,202	-0,069
210,334	194,689	-0,216	-0,227
211,348	85,168	-0,343	-0,260
212,363	172,743	-0,220	-0,220
213,377	166,079	-0,262	-0,257
214,392	253,668	-0,126	-0,150
215,407	194,403	-0,129	-0,136
216,421	-103,962	-0,264	-0,042
217,436	494,954	-0,133	-0,212
218,450	-15,227	-0,079	-0,035
219,465	67,777	-0,168	-0,118
220,480	43,970	-0,105	-0,066
221,494	-14,418	-0,179	-0,079
222,509	340,869	-0,155	-0,210
223,523	-30,143	-0,158	-0,062
224,538	43,114	-0,191	-0,121
225,553	322,148	-0,152	-0,201
226,567	-84,520	-0,240	-0,052
227,582	101,096	-0,129	-0,103
228,596	-77,666	-0,237	-0,056
229,611	305,310	-0,178	-0,229
230,626	6,351	-0,198	-0,101
231,640	-27,507	-0,177	-0,071
232,655	800,000	-0,141	-0,276
233,669	-200,000	-0,080	-0,245
234,684	150,380	-0,215	-0,202
235,699	50,668	-0,203	-0,133
236,713	-200,000	0,010	-0,032
237,728	-51,776	-0,224	-0,072
238,742	-50,607	-0,289	-0,094
239,757	32,118	-0,173	-0,103
240,772	-111,554	-0,184	-0,026
241,786	139,545	-0,240	-0,218
242,801	192,346	-0,099	-0,103
243,815	138,295	-0,222	-0,201
244,830	-120,202	-0,245	-0,029
245,844	-32,785	-0,088	-0,033
246,859	-44,713	-0,130	-0,045
247,874	119,379	-0,223	-0,190
248,888	-70,978	-0,237	-0,061
249,903	45,082	-0,119	-0,075
250,917	24,347	-0,225	-0,128
251,932	11,357	-0,226	-0,119
252,947	800,000	-0,072	-0,193
253,961	256,885	-0,208	-0,246
254,976	50,479	-0,174	-0,113
255,990	-200,000	-0,063	-0,206
257,005	-162,817	-0,213	-0,007
258,020	-80,699	-0,246	-0,056
259,034	37,482	-0,138	-0,084
260,049	-1,573	-0,196	-0,095
261,063	310,462	-0,108	-0,139
262,078	92,795	-0,175	-0,136
263,093	76,130	-0,195	-0,142
264,107	-66,792	-0,119	-0,032
265,122	-10,423	-0,121	0,055
266,136	7,163	-0,196	-0,101
267,151	-148,184	-0,253	-0,014
268,166	-15,506	-0,250	-0,110
269,180	143,314	-0,209	-0,192
270,195	58,966	-0,269	-0,182
271,209	106,214	-0,136	-0,111
272,224	374,031	-0,186	-0,262
273,239	36,194	-0,190	-0,115
274,253	-18,342	-0,289	-0,124
275,268	-98,863	-0,297	-0,052
276,282	-26,921	-0,139	-0,056
277,297	115,592	-0,148	-0,124
278,312	800,000	-0,070	-0,154
279,326	-200,000	-0,026	-0,139
280,341	19,911	-0,145	-0,080
281,355	-44,815	-0,132	0,045
282,370	800,000	-0,121	-0,240
283,384	-14,994	-0,303	-0,133
284,399	13,044	-0,283	-0,150
285,414	-2,677	-0,177	-0,085
286,428	-200,000	0,013	-0,164
287,443	36,036	-0,144	-0,087
288,457	-116,966	-0,156	-0,019
289,472	102,243	-0,064	-0,051
290,487	129,045	-0,237	-0,208
291,501	463,482	-0,161	-0,248
292,516	99,276	-0,123	-0,097
293,530	369,989	-0,119	-0,166
294,545	244,709	-0,129	-0,149
295,560	-26,564	-0,104	0,042
296,574	123,343	-0,134	-0,115
297,589	800,000	-0,086	-0,234
298,603	177,303	-0,180	-0,180
299,618	-200,000	-0,019	-0,064
300,633	100,451	-0,069	-0,055
301,647	800,000	-0,047	-0,121
302,662	-113,123	-0,071	-0,010
303,676	800,000	-0,030	-0,078
304,691	134,965	-0,182	-0,163
305,706	-39,964	-0,203	-0,072
306,720	1,638	-0,308	-0,152
307,735	-5,858	-0,147	-0,069
308,749	-77,056	-0,040	0,010
309,764	75,195	-0,162	-0,117
310,779	-200,000	0,004	-0,023
311,793	117,345	-0,121	-0,102
312,808	-117,601	-0,096	0,012
313,822	470,927	-0,075	-0,116
314,837	189,010	-0,253	-0,260
315,852	-145,374	-0,208	-0,013
316,866	-141,400	-0,181	0,012
317,881	11,195	-0,141	-0,074
318,895	146,596	-0,110	-0,102
319,910	210,754	-0,158	-0,170
320,925	165,866	-0,153	-0,149
321,939	108,938	-0,243	-0,199
322,954	-153,382	-0,177	0,008
323,968	451,513	-0,091	-0,138
324,983	-83,098	-0,082	-0,018
325,997	-74,280	-0,324	-0,080
327,012	80,242	-0,243	-0,179
328,027	483,623	-0,134	-0,209
329,041	42,326	-0,158	-0,098
330,056	-125,058	-0,182	0,019
331,070	74,234	-0,196	-0,141
332,085	-118,251	-0,165	0,020
333,100	-21,609	-0,218	-0,091
334,114	41,349	-0,253	-0,156
335,129	572,739	-0,119	-0,199
336,143	-38,221	-0,256	-0,092
337,158	162,711	0,017	-0,016
338,173	69,587	-0,143	-0,101
339,187	259,704	-0,058	0,068
340,202	243,309	-0,032	0,036
341,216	-145,292	-0,184	0,011
342,231	193,508	-0,079	-0,082
343,246	93,658	-0,076	-0,059
344,260	93,877	-0,131	-0,102
345,275	63,918	-0,086	-0,059
346,289	90,594	-0,165	-0,126
347,304	337,478	-0,161	-0,215
348,319	96,405	-0,126	-0,099
349,333	-69,711	-0,101	-0,026
350,348	106,566	-0,158	-0,128
351,362	67,692	-0,167	-0,117
352,377	51,860	-0,152	-0,099
353,392	800,000	-0,024	-0,061
354,406	-131,844	-0,086	0,008
355,421	207,465	1306,956	1396,242
356,435	159,603	1466,691	1396,724
