DTS Sentinel unit serial number:	SN410029Multiplexer serial number:	ORYXHardware model number:	OX2-SRSoftware version number:	ORYX F/W v4,00 Oryx Data Collector v3.7.2.0data status	okinstallation	B3 Nyhavnadifferential loss correction	single-endedforward channel	channel 1reverse channel	N/Adate	2023/12/02time	05:22:30forward acquisition time	300,00reverse acquisition time	0,00gamma	499,1914k internal	0,3194k external	0,3194temperature offset calibration	1,0000default loss term (dB/km)	0,3820temperature slope calibration	1,0000multiplexer offset coefficient	1,0000multiplexer slope coefficient	1,0000fibre end	0,00T internal ref (°C)	16,27T ext. ref 1 (°C)	1,01T ext. ref 2 (°C)	0,99length (m)	temperature (°C)	Stokes	anti-Stokes-744,400	187,830	-0,184	-0,200
-743,385	-200,000	0,072	0,376
-742,371	227,380	-0,137	-0,162
-741,356	-200,000	0,098	0,355
-740,342	479,853	-0,190	-0,314
-739,327	-200,000	0,091	0,456
-738,312	78,816	-0,270	-0,211
-737,298	-200,000	-0,061	0,321
-736,283	404,241	-0,202	-0,311
-735,269	-200,000	-0,019	0,349
-734,254	281,858	-0,213	-0,279
-733,239	800,000	-0,075	0,166
-732,225	373,997	-0,194	-0,288
-731,210	-46,890	0,138	-0,049
-730,196	-118,223	-0,042	0,005
-729,181	-200,000	-0,040	0,167
-728,167	390,665	0,050	-0,075
-727,152	-200,000	0,022	-0,082
-726,137	-172,067	-0,078	0,002
-725,123	123,176	-0,051	-0,047
-724,108	378,793	-0,034	-0,051
-723,094	318,084	-0,063	0,087
-722,079	9,802	0,049	-0,027
-721,064	-84,228	-0,052	-0,012
-720,050	-16,803	-0,106	-0,049
-719,035	-200,000	0,026	0,141
-718,021	163,759	-0,106	0,109
-717,006	-101,851	-0,139	-0,024
-715,991	133,876	-0,087	0,082
-714,977	800,000	0,022	-0,052
-713,962	800,000	-0,039	-0,090
-712,948	377,557	-0,033	-0,049
-711,933	-88,503	0,106	-0,023
-710,918	-53,859	-0,115	-0,038
-709,904	-200,000	0,006	-0,072
-708,889	-200,000	0,016	-0,139
-707,875	67,514	-0,094	-0,069
-706,860	-200,000	-0,014	-0,056
-705,845	-171,493	0,216	-0,005
-704,831	189,972	0,082	0,090
-703,816	-89,414	0,049	-0,010
-702,802	-200,000	-0,001	-0,059
-701,787	99,124	-0,177	-0,149
-700,772	800,000	0,075	-0,175
-699,758	637,469	-0,059	-0,109
-698,743	-4,784	0,117	-0,058
-697,729	-47,287	0,082	0,029
-696,714	48,233	0,131	0,089
-695,699	-120,222	-0,056	-0,007
-694,685	31,159	-0,107	-0,067
-693,670	236,295	-0,111	0,134
-692,656	347,369	0,031	0,045
-691,641	-200,000	0,038	-0,157
-690,627	-200,000	-0,009	0,095
-689,612	800,000	0,030	0,078
-688,597	64,846	-0,085	-0,063
-687,583	-200,000	0,033	-0,107
-686,568	-68,869	-0,129	0,036
-685,554	527,270	-0,025	-0,044
-684,539	270,462	0,027	0,034
-683,524	-200,000	0,015	-0,102
-682,510	-200,000	0,043	0,000
-681,495	97,128	0,041	-0,034
-680,481	286,593	-0,091	-0,120
-679,466	245,359	-0,098	0,120
-678,451	-37,366	-0,047	0,018
-677,437	565,507	-0,057	-0,101
-676,422	-171,964	0,088	-0,002
-675,408	151,929	-0,056	-0,056
-674,393	-53,044	-0,004	0,001
-673,378	800,000	0,045	-0,118
-672,364	3,928	-0,263	-0,139
-671,349	13,790	-0,044	-0,025
-670,335	-69,014	0,152	-0,042
-669,320	-101,081	-0,023	-0,004
-668,305	-200,000	0,012	0,101
-667,291	-116,097	-0,103	0,014
-666,276	800,000	-0,036	-0,107
-665,262	-59,452	0,091	0,028
-664,247	164,687	-0,118	-0,121
-663,232	125,917	-0,099	0,091
-662,218	702,299	0,042	0,081
-661,203	-25,820	-0,050	-0,021
-660,189	157,411	-0,029	0,029
-659,174	800,000	0,039	-0,119
-658,159	107,870	-0,134	-0,116
-657,145	-200,000	-0,013	-0,151
-656,130	67,844	0,031	-0,023
-655,116	800,000	0,039	-0,122
-654,101	-28,883	0,127	-0,053
-653,086	25,618	0,046	0,028
-652,072	800,000	0,044	-0,117
-651,057	791,518	-0,055	-0,110
-650,043	-200,000	-0,049	-0,169
-649,028	43,277	-0,095	-0,063
-648,014	458,654	-0,046	0,074
-646,999	-200,000	-0,002	-0,070
-645,984	-200,000	-0,003	-0,111
-644,970	800,000	0,021	-0,058
-643,955	72,910	-0,075	-0,057
-642,941	250,509	-0,052	-0,064
-641,926	-200,000	-0,015	0,080
-640,911	-200,000	0,008	0,054
-639,897	-86,036	0,096	-0,021
-638,882	-70,520	-0,125	-0,034
-637,868	423,980	-0,040	-0,062
-636,853	43,118	-0,052	0,035
-635,838	-65,693	-0,105	0,030
-634,824	109,517	-0,041	0,036
-633,809	-119,023	0,116	-0,015
-632,795	-0,604	0,049	-0,025
-631,780	14,584	0,118	0,067
-630,765	-90,319	0,165	0,034
-629,751	-80,587	-0,113	-0,027
-628,736	-200,000	0,020	-0,087
-627,722	-200,000	0,041	0,140
-626,707	209,062	0,068	0,078
-625,692	800,000	0,059	0,184
-624,678	47,606	-0,024	-0,016
-623,663	800,000	-0,025	-0,057
-622,649	215,838	0,074	-0,086
-621,634	151,216	-0,058	-0,057
-620,619	-200,000	-0,005	-0,073
-619,605	210,606	0,069	0,079
-618,590	-74,635	0,056	-0,014
-617,576	-0,621	0,195	0,100
-616,561	-141,557	-0,127	0,009
-615,546	70,321	0,044	-0,033
-614,532	5,987	-0,064	-0,034
-613,517	654,266	0,066	-0,122
-612,503	-149,478	-0,054	-0,003
-611,488	800,000	0,020	0,060
-610,474	244,979	0,056	0,069
-609,459	321,858	0,058	-0,080
-608,444	-106,708	-0,176	-0,028
-607,430	-97,181	-0,065	0,012
-606,415	85,967	0,085	-0,068
-605,401	-130,251	-0,102	0,010
-604,386	-91,553	0,102	0,021
-603,371	325,874	0,069	-0,097
-602,357	-151,278	0,143	0,008
-601,342	-30,150	0,066	0,027
-600,328	140,756	-0,075	-0,072
-599,313	-116,323	-0,124	-0,017
-598,298	262,948	0,029	0,037
-597,284	-26,049	-0,104	-0,044
-596,269	379,113	0,072	0,107
-595,255	158,623	0,070	0,070
-594,240	-200,000	0,009	-0,125
-593,225	200,658	-0,068	0,076
-592,211	-200,000	0,017	-0,065
-591,196	800,000	0,038	0,076
-590,182	800,000	-0,040	0,100
-589,167	1,079	0,130	0,067
-588,152	-200,000	-0,006	0,035
-587,138	-143,081	0,058	-0,004
-586,123	-74,936	-0,109	0,028
-585,109	632,144	-0,036	0,067
-584,094	-5,539	-0,101	-0,050
-583,079	94,998	-0,064	0,053
-582,065	-135,307	0,053	0,005
-581,050	174,275	-0,089	0,094
-580,036	-167,338	0,043	-0,001
-579,021	-200,000	0,030	-0,140
-578,006	293,694	0,037	-0,050
-576,992	800,000	0,053	0,118
-575,977	45,222	-0,028	-0,018
-574,963	-200,000	-0,017	0,114
-573,948	-200,000	-0,050	0,183
-572,934	-2,893	0,060	0,030
-571,919	262,750	-0,068	-0,085
-570,904	-200,000	0,028	-0,138
-569,890	-74,296	-0,016	-0,004
-568,875	527,400	0,090	-0,154
-567,861	71,166	0,142	-0,106
-566,846	-137,810	-0,020	-0,002
-565,831	10,971	-0,089	-0,049
-564,817	-200,000	0,022	-0,094
-563,802	139,594	-0,048	0,046
-562,788	-90,500	-0,139	0,029
-561,773	800,000	-0,048	0,117
-560,758	274,241	0,029	0,037
-559,744	-200,000	-0,011	0,041
-558,729	-66,067	0,114	-0,033
-557,715	27,659	0,061	0,037
-556,700	343,043	0,058	-0,082
-555,685	-121,572	-0,032	0,004
-554,671	-200,000	-0,016	0,087
-553,656	13,531	0,102	0,057
-552,642	-200,000	0,017	0,095
-551,627	-50,630	0,125	-0,042
-550,612	267,055	-0,017	0,022
-549,598	-200,000	-0,003	0,108
-548,583	23,319	-0,101	0,060
-547,569	133,006	0,068	-0,063
-546,554	800,000	0,049	-0,145
-545,539	-200,000	-0,002	0,063
-544,525	-20,668	0,152	0,067
-543,510	34,970	-0,053	-0,033
-542,496	58,029	-0,139	-0,098
-541,481	5,163	0,187	-0,099
-540,466	120,205	-0,196	0,176
-539,452	316,037	-0,037	-0,050
-538,437	202,482	0,049	-0,055
-537,423	17,858	0,117	-0,067
-536,408	-200,000	0,051	0,189
-535,393	-200,000	-0,005	-0,043
-534,379	-111,552	-0,166	0,024
-533,364	-200,000	-0,019	-0,121
-532,350	-78,711	-0,038	0,009
-531,335	-200,000	0,018	0,141
-530,321	26,965	0,097	0,058
-529,306	119,012	-0,043	0,039
-528,291	800,000	-0,054	-0,116
-527,277	800,000	-0,061	-0,128
-526,262	800,000	0,042	-0,127
-525,248	26,973	0,149	0,090
-524,233	476,851	-0,042	0,068
-523,218	17,000	0,057	0,032
-522,204	-139,199	0,063	-0,005
-521,189	429,672	0,013	0,021
-520,175	-200,000	-0,014	-0,090
-519,160	264,749	-0,127	-0,160
-518,145	-56,194	-0,058	0,018
-517,131	-96,685	-0,157	0,030
-516,116	399,111	0,034	0,052
-515,102	-44,287	0,107	-0,038
-514,087	-9,004	-0,037	0,018
-513,072	-97,970	0,022	-0,004
-512,058	-104,500	-0,115	0,019
-511,043	-200,000	0,036	0,127
-510,029	-43,807	0,023	-0,008
-509,014	-200,000	0,013	0,045
-507,999	-104,769	0,091	0,015
-506,985	776,659	-0,026	0,051
-505,970	800,000	-0,019	0,050
-504,956	-200,000	0,014	0,077
-503,941	-200,000	0,009	0,058
-502,926	-200,000	0,003	0,099
-501,912	56,732	0,047	-0,033
-500,897	-200,000	0,013	0,053
-499,883	-200,000	0,021	-0,104
-498,868	800,000	0,023	-0,063
-497,853	740,121	-0,018	-0,036
-496,839	-9,673	0,107	0,051
-495,824	-17,320	0,114	0,052
-494,810	169,190	0,046	0,047
-493,795	612,585	0,073	0,132
-492,781	-80,956	0,050	-0,012
-491,766	-125,456	-0,034	-0,004
-490,751	-185,206	-0,135	0,001
-489,737	199,990	0,090	0,100
-488,722	-200,000	-0,000	0,060
-487,708	-200,000	-0,008	-0,156
-486,693	-200,000	-0,020	0,078
-485,678	-90,354	0,090	-0,019
-484,664	299,901	-0,073	-0,098
-483,649	124,635	-0,076	-0,069
-482,635	83,241	-0,025	-0,020
-481,620	-200,000	-0,012	-0,058
-480,605	-103,310	0,080	-0,013
-479,591	162,194	-0,058	-0,059
-478,576	-93,919	-0,019	-0,004
-477,562	-200,000	-0,007	-0,025
-476,547	99,245	0,091	-0,076
-475,532	100,635	0,092	-0,077
-474,518	800,000	-0,041	-0,098
-473,503	186,614	0,043	-0,047
-472,489	800,000	-0,028	0,070
-471,474	98,047	0,043	0,036
-470,459	-106,275	-0,203	0,032
-469,445	182,655	0,092	-0,098
-468,430	245,952	0,064	-0,077
-467,416	53,217	0,042	0,029
-466,401	561,569	0,044	0,078
-465,386	800,000	-0,037	0,110
-464,372	395,071	-0,034	-0,051
-463,357	800,000	0,020	0,054
-462,343	800,000	-0,050	-0,118
-461,328	154,126	-0,078	-0,077
-460,313	800,000	0,029	-0,066
-459,299	192,368	-0,011	0,011
-458,284	-200,000	0,031	-0,113
-457,270	-200,000	0,091	0,000
-456,255	-95,913	-0,069	-0,013
-455,241	-200,000	-0,014	-0,063
-454,226	79,371	0,060	-0,047
-453,211	119,061	0,123	-0,109
-452,197	395,495	0,065	0,097
-451,182	172,919	0,079	0,082
-450,168	-134,478	-0,045	-0,004
-449,153	800,000	-0,040	0,086
-448,138	-4,777	0,044	-0,022
-447,124	295,969	-0,094	-0,124
-446,109	-79,959	-0,021	0,005
-445,095	61,194	0,090	0,064
-444,080	114,461	-0,097	-0,085
-443,065	-63,127	0,092	-0,027
-442,051	173,818	0,068	-0,071
-441,036	-200,000	0,005	-0,100
-440,022	-200,000	0,007	0,098
-439,007	-200,000	0,003	0,059
-437,992	800,000	-0,023	0,062
-436,978	237,264	0,037	-0,044
-435,963	53,282	0,085	-0,058
-434,949	-200,000	0,007	-0,171
-433,934	16,748	0,068	-0,039
-432,919	236,841	-0,070	-0,083
-431,905	-200,000	-0,005	-0,022
-430,890	-200,000	-0,022	0,115
-429,876	187,686	0,122	0,131
-428,861	95,262	-0,086	0,071
-427,846	107,830	-0,008	-0,007
-426,832	-55,565	-0,269	-0,086
-425,817	-200,000	-0,038	0,136
-424,803	86,132	-0,130	0,103
-423,788	-116,073	0,085	0,011
-422,773	-200,000	0,036	0,149
-421,759	-111,752	0,189	0,027
-420,744	-116,393	-0,091	0,012
-419,730	73,364	-0,052	-0,039
-418,715	504,870	0,039	-0,065
-417,701	-200,000	-0,002	-0,013
-416,686	163,384	-0,014	0,015
-415,671	115,941	0,136	-0,120
-414,657	-60,824	-0,067	0,020
-413,642	-20,409	0,031	-0,014
-412,628	800,000	-0,019	0,061
-411,613	-19,412	-0,067	-0,030
-410,598	-200,000	-0,011	-0,075
-409,584	-200,000	-0,007	-0,121
-408,569	-25,184	0,034	-0,014
-407,555	245,933	-0,042	0,051
-406,540	323,810	0,063	-0,087
-405,525	4,340	-0,088	0,047
-404,511	800,000	-0,029	-0,070
-403,496	-22,190	0,074	-0,032
-402,482	735,701	-0,044	0,084
-401,467	-42,867	0,077	-0,028
-400,452	297,745	-0,078	-0,103
-399,438	587,119	-0,017	0,030
-398,423	356,406	-0,088	-0,126
-397,409	183,317	-0,081	-0,086
-396,394	-34,615	-0,099	-0,039
-395,379	-200,000	-0,010	-0,081
-394,365	-127,052	0,042	-0,004
-393,350	234,311	-0,083	0,098
-392,336	107,311	-0,116	0,099
-391,321	21,621	-0,121	0,070
-390,306	138,789	0,083	0,079
-389,292	258,693	0,093	0,116
-388,277	34,732	0,135	0,085
-387,263	-200,000	-0,018	0,076
-386,248	-151,677	0,101	-0,005
-385,233	191,550	-0,094	0,102
-384,219	-200,000	0,016	-0,062
-383,204	-200,000	0,000	0,036
-382,190	-200,000	0,030	-0,109
-381,175	-200,000	0,019	-0,132
-380,160	800,000	0,062	-0,193
-379,146	44,227	-0,021	0,014
-378,131	-113,343	0,141	0,020
-377,117	-164,216	-0,194	-0,006
-376,102	571,483	-0,031	-0,054
-375,088	-200,000	0,032	-0,107
-374,073	-173,429	0,168	0,004
-373,058	-19,429	0,111	0,049
-372,044	-200,000	-0,005	0,144
-371,029	166,213	0,089	0,091
-370,015	800,000	-0,038	0,083
-369,000	39,643	-0,029	0,018
-367,985	-96,208	-0,058	-0,011
-366,971	-200,000	-0,000	-0,051
-365,956	-180,981	-0,091	-0,001
-364,942	800,000	-0,033	0,094
-363,927	-200,000	0,115	-0,000
-362,912	800,000	-0,041	0,095
-361,898	-123,233	-0,068	-0,008
-360,883	72,654	-0,068	0,051
-359,869	-60,640	-0,092	-0,028
-358,854	-99,025	0,149	-0,027
-357,839	78,592	0,092	0,071
-356,825	800,000	0,082	0,209
-355,810	52,716	0,040	-0,027
-354,796	188,287	0,091	-0,098
-353,781	107,257	-0,076	0,065
-352,766	-200,000	-0,009	0,045
-351,752	-200,000	-0,015	-0,061
-350,737	133,239	-0,088	0,082
-349,723	-200,000	0,015	-0,059
-348,708	-200,000	0,008	0,040
-347,693	-52,475	0,031	-0,010
-346,679	-43,175	-0,087	0,032
-345,664	-200,000	0,001	0,023
-344,650	-200,000	0,008	0,039
-343,635	-119,401	-0,241	-0,030
-342,620	-200,000	-0,002	0,022
-341,606	-200,000	-0,002	0,289
-340,591	-200,000	-0,011	0,056
-339,577	-88,966	-0,091	0,019
-338,562	158,160	-0,030	-0,030
-337,548	169,298	0,054	0,055
-336,533	-200,000	-0,019	0,078
-335,518	413,325	0,067	0,103
-334,504	47,672	0,110	-0,074
-333,489	-79,235	0,129	0,031
-332,475	-200,000	0,008	-0,037
-331,460	800,000	0,036	-0,090
-330,445	-200,000	-0,002	-0,119
-329,431	-200,000	-0,002	0,077
-328,416	-200,000	-0,001	-0,021
-327,402	117,721	-0,104	0,091
-326,387	-33,050	-0,029	-0,011
-325,372	246,693	-0,122	-0,148
-324,358	-70,077	-0,164	-0,045
-323,343	-200,000	0,003	-0,061
-322,329	13,865	0,048	-0,027
-321,314	179,528	-0,069	0,073
-320,299	-36,097	-0,058	-0,022
-319,285	14,694	-0,033	-0,019
-318,270	17,148	-0,084	-0,048
-317,256	800,000	0,059	-0,177
-316,241	-98,680	-0,136	-0,025
-315,226	-23,878	0,138	0,059
-314,212	165,050	-0,068	0,069
-313,197	-161,293	-0,086	0,003
-312,183	800,000	0,024	-0,062
-311,168	763,178	-0,060	-0,116
-310,153	-67,478	-0,042	0,012
-309,139	81,678	0,095	0,073
-308,124	-192,950	0,046	0,000
-307,110	211,795	0,004	0,004
-306,095	274,004	0,038	0,049
-305,080	84,757	0,127	-0,100
-304,066	800,000	-0,034	0,085
-303,051	17,122	-0,080	0,045
-302,037	800,000	0,041	-0,087
-301,022	-200,000	-0,012	0,042
-300,008	158,355	0,065	-0,065
-298,993	143,270	0,032	-0,031
-297,978	-200,000	0,029	-0,109
-296,964	-121,014	-0,086	-0,010
-295,949	-31,469	-0,087	0,035
-294,935	-200,000	0,027	0,105
-293,920	-112,402	-0,061	0,009
-292,905	-200,000	-0,007	0,031
-291,891	310,724	0,113	0,152
-290,876	-16,120	0,121	-0,055
-289,862	-53,139	-0,163	-0,053
-288,847	296,047	-0,066	-0,087
-287,832	-24,557	0,047	0,020
-286,818	-200,000	-0,010	-0,056
-285,803	-200,000	-0,019	0,122
-284,789	-200,000	-0,015	0,074
-283,774	160,054	0,093	-0,093
-282,759	-3,909	-0,056	0,028
-281,745	119,006	-0,148	-0,131
-280,730	-10,630	-0,183	-0,086
-279,716	-200,000	-0,008	0,033
-278,701	9,858	0,007	-0,004
-277,686	487,083	0,047	0,078
-276,672	8,126	-0,147	-0,079
-275,657	-22,837	0,122	0,053
-274,643	-144,404	0,041	-0,003
-273,628	800,000	0,018	-0,055
-272,613	-84,954	0,077	-0,017
-271,599	-107,652	-0,145	-0,022
-270,584	-64,940	0,091	0,026
-269,570	67,547	-0,096	0,070
-268,555	243,286	0,116	-0,139
-267,540	-114,144	-0,090	-0,012
-266,526	-183,569	-0,080	-0,001
-265,511	322,498	0,100	-0,137
-264,497	70,922	0,154	0,114
-263,482	-200,000	0,007	-0,050
-262,467	-65,531	-0,076	0,022
-261,453	96,346	0,094	-0,077
-260,438	-77,123	-0,188	-0,047
-259,424	800,000	-0,032	0,070
-258,409	608,929	-0,067	0,121
-257,395	-6,487	-0,042	0,020
-256,380	90,624	-0,032	0,025
-255,365	-58,321	0,072	-0,022
-254,351	25,799	0,099	-0,059
-253,336	-200,000	-0,025	-0,148
-252,322	229,825	-0,174	-0,204
-251,307	-200,000	0,015	-0,146
-250,292	3,899	0,019	-0,010
-249,278	206,244	-0,072	0,080
-248,263	67,143	0,083	0,060
-247,249	-200,000	0,007	0,078
-246,234	396,135	0,115	-0,172
-245,219	-131,375	-0,049	0,005
-244,205	-200,000	0,008	-0,084
-243,190	8,596	-0,043	-0,023
-242,176	444,138	0,042	-0,066
-241,161	-200,000	0,024	0,113
-240,146	800,000	0,020	0,044
-239,132	-37,413	-0,063	-0,024
-238,117	-84,899	-0,084	-0,019
-237,103	95,947	-0,039	0,031
-236,088	196,055	0,082	0,089
-235,073	-83,825	0,040	0,009
-234,059	765,286	0,077	0,150
-233,044	192,370	-0,084	-0,091
-232,030	2,674	0,093	-0,048
-231,015	42,304	-0,119	-0,077
-230,000	8,345	0,085	-0,046
-228,986	-200,000	0,003	-0,103
-227,971	-26,898	-0,043	0,018
-226,957	-200,000	0,024	0,151
-225,942	-200,000	-0,031	0,162
-224,927	-45,489	-0,055	0,019
-223,913	163,504	0,067	-0,067
-222,898	1,179	-0,093	-0,047
-221,884	-49,063	-0,101	-0,034
-220,869	800,000	0,097	-0,247
-219,855	-200,000	0,003	0,041
-218,840	-45,429	0,120	0,042
-217,825	-200,000	-0,023	-0,130
-216,811	49,245	-0,069	-0,047
-215,796	-31,181	0,119	-0,048
-214,782	-200,000	-0,000	-0,064
-213,767	-71,620	0,130	-0,034
-212,752	-200,000	-0,024	0,140
-211,738	-39,516	-0,063	0,023
-210,723	-200,000	-0,034	-0,154
-209,709	114,570	0,018	-0,016
-208,694	-44,708	-0,052	-0,018
-207,679	-119,982	-0,178	0,022
-206,665	89,551	0,085	0,068
-205,650	800,000	-0,035	0,087
-204,636	-200,000	0,020	0,096
-203,621	800,000	0,015	-0,034
-202,606	-200,000	-0,026	0,104
-201,592	101,679	0,066	0,055
-200,577	800,000	0,023	0,064
-199,563	21,653	-0,042	-0,024
-198,548	800,000	-0,058	0,122
-197,533	-54,916	0,193	0,062
-196,519	564,382	-0,037	0,065
-195,504	702,111	-0,064	-0,120
-194,490	-200,000	-0,001	0,019
-193,475	37,478	0,091	0,057
-192,460	-200,000	-0,004	0,047
-191,446	-200,000	0,002	0,036
-190,431	239,057	0,065	0,077
-189,417	20,257	-0,102	-0,058
-188,402	-200,000	0,001	0,074
-187,387	215,511	-0,053	-0,060
-186,373	-44,402	-0,118	-0,042
-185,358	794,953	0,041	0,080
-184,344	-154,589	0,173	0,008
-183,329	-200,000	-0,018	0,075
-182,315	525,438	0,026	-0,044
-181,300	482,223	-0,044	-0,072
-180,285	-200,000	-0,007	0,056
-179,271	-140,626	-0,095	0,007
-178,256	78,173	-0,038	0,029
-177,242	-147,231	-0,105	0,006
-176,227	65,736	-0,071	0,051
-175,212	-38,932	-0,108	0,040
-174,198	178,283	-0,033	-0,035
-173,183	73,418	0,061	0,046
-172,169	35,075	0,094	-0,059
-171,154	-64,878	-0,121	-0,035
-170,139	-118,620	0,119	0,015
-169,125	-200,000	0,021	0,076
-168,110	799,876	-0,019	0,038
-167,096	454,518	0,085	0,134
-166,081	15,473	0,100	-0,056
-165,066	339,791	-0,058	-0,081
-164,052	-200,000	0,011	0,046
-163,037	800,000	0,053	0,104
-162,023	32,526	0,106	0,065
-161,008	-200,000	-0,017	-0,143
-159,993	-149,074	0,049	0,003
-158,979	-18,206	-0,137	-0,061
-157,964	-200,000	-0,023	-0,076
-156,950	-200,000	-0,004	-0,018
-155,935	-200,000	-0,003	-0,091
-154,920	-200,000	0,043	0,157
-153,906	177,665	0,047	0,049
-152,891	708,495	0,014	0,026
-151,877	-0,775	-0,037	-0,019
-150,862	143,762	0,085	-0,081
-149,847	125,894	0,062	0,056
-148,833	249,451	0,013	0,016
-147,818	-200,000	0,012	0,053
-146,804	-123,275	-0,051	-0,006
-145,789	800,000	0,030	0,082
-144,775	-200,000	-0,016	0,065
-143,760	455,752	-0,073	-0,115
-142,745	-200,000	0,007	0,056
-141,731	-18,866	0,061	-0,027
-140,716	282,565	-0,067	0,086
-139,702	-200,000	-0,002	0,092
-138,687	53,248	-0,154	0,105
-137,672	-54,273	-0,043	0,014
-136,658	31,461	-0,148	-0,090
-135,643	306,334	-0,027	-0,036
-134,629	800,000	0,043	0,113
-133,614	100,067	-0,107	0,088
-132,599	444,320	0,017	0,027
-131,585	297,650	0,063	0,083
-130,570	-200,000	-0,001	0,029
-129,556	429,821	-0,068	-0,105
-128,541	-200,000	0,002	-0,086
-127,526	800,000	-0,056	0,132
-126,512	-200,000	-0,035	0,146
-125,497	800,000	0,016	-0,046
-124,483	800,000	-0,027	-0,063
-123,468	-200,000	-0,006	0,054
-122,453	-200,000	0,008	-0,136
-121,439	-98,627	-0,056	0,010
-120,424	-200,000	0,001	-0,050
-119,410	-30,543	-0,077	0,031
-118,395	800,000	0,074	0,154
-117,380	651,115	-0,051	-0,094
-116,366	586,981	0,104	-0,182
-115,351	-71,695	0,157	-0,041
-114,337	-200,000	-0,025	-0,137
-113,322	-200,000	-0,034	-0,200
-112,307	98,312	0,056	0,046
-111,293	153,073	0,076	0,074
-110,278	-64,063	0,178	-0,051
-109,264	800,000	-0,024	0,070
-108,249	-147,280	-0,141	-0,008
-107,234	-200,000	-0,018	-0,147
-106,220	-162,080	-0,043	-0,002
-105,205	321,232	0,065	0,089
-104,191	445,382	-0,055	0,086
-103,176	218,852	0,038	0,044
-102,162	-82,372	0,120	0,028
-101,147	98,392	-0,068	-0,056
-100,132	-200,000	-0,018	-0,137
-99,118	-77,742	-0,090	-0,022
-98,103	800,000	0,048	-0,129
-97,089	-200,000	0,023	0,088
-96,074	782,705	0,103	0,201
-95,059	421,045	0,021	-0,032
-94,045	-81,781	-0,113	0,026
-93,030	800,000	-0,029	-0,071
-92,016	-200,000	-0,002	-0,011
-91,001	-200,000	0,018	-0,070
-89,986	-21,591	-0,035	-0,015
-88,972	663,402	-0,082	0,152
-87,957	-200,000	0,016	0,123
-86,943	668,153	-0,055	0,101
-85,928	-95,993	-0,101	-0,019
-84,913	119,082	0,042	-0,037
-83,899	283,148	0,050	-0,064
-82,884	-200,000	-0,003	0,024
-81,870	800,000	0,019	0,048
-80,855	87,776	0,099	-0,078
-79,840	175,949	-0,067	0,069
-78,826	391,152	-0,041	-0,061
-77,811	39,840	0,046	-0,029
-76,797	-88,967	0,060	0,013
-75,782	-18,673	-0,102	0,045
-74,767	-68,183	0,048	-0,013
-73,753	135,181	0,129	0,119
-72,738	-12,999	0,114	0,052
-71,724	-129,484	-0,106	0,010
-70,709	-85,599	-0,079	0,017
-69,694	800,000	0,018	-0,048
-68,680	395,753	0,004	0,007
-67,665	-3,178	0,084	0,041
-66,651	800,000	-0,051	0,131
-65,636	721,569	-0,116	0,219
-64,622	-200,000	0,022	0,152
-63,607	800,000	-0,028	0,068
-62,592	78,242	0,083	-0,063
-61,578	-137,296	0,048	0,004
-60,563	506,691	0,043	0,071
-59,549	-200,000	-0,014	0,223
-58,534	-60,435	-1,325	-0,397
-57,519	360,126	-1,672	-2,382
-56,505	-200,000	-0,549	-4,526
-55,490	52,769	0,909	0,615
-54,476	800,000	4,850	11,340
-53,461	-200,000	17,466	276,779
-52,446	800,000	718,845	2210,277
-51,432	559,942	1632,702	2809,075
-50,417	81,323	1657,146	1269,490
-49,403	24,100	1531,472	894,587
-48,388	18,072	1454,910	820,798
-47,373	18,424	1444,094	816,349
-46,359	18,042	1434,977	809,344
-45,344	16,407	1430,261	798,882
-44,330	16,369	1428,304	797,576
-43,315	16,392	1426,472	796,633
-42,300	16,372	1424,884	795,618
-41,286	16,408	1423,737	795,118
-40,271	16,395	1422,350	794,247
-39,257	16,360	1421,092	793,349
-38,242	16,396	1419,833	792,785
-37,227	16,408	1418,599	792,121
-36,213	16,359	1417,290	791,128
-35,198	16,376	1416,168	790,549
-34,184	16,388	1415,238	790,054
-33,169	16,284	1414,033	788,863
-32,154	16,373	1412,931	788,635
-31,140	16,342	1411,706	787,773
-30,125	16,427	1410,433	787,431
-29,111	16,350	1409,434	786,480
-28,096	16,342	1408,215	785,731
-27,082	16,306	1407,059	784,888
-26,067	16,279	1406,136	784,215
-25,052	16,319	1404,837	783,648
-24,038	16,277	1403,980	782,942
-23,023	16,318	1402,970	782,537
-22,009	16,277	1402,018	781,783
-20,994	16,236	1401,134	781,073
-19,979	16,245	1400,063	780,485
-18,965	16,225	1399,385	779,983
-17,950	16,195	1398,231	779,169
-16,936	16,216	1397,196	778,661
-15,921	16,223	1395,748	777,853
-14,906	16,202	1395,157	777,396
-13,892	16,250	1393,942	776,910
-12,877	16,192	1393,338	776,277
-11,863	16,207	1392,417	775,799
-10,848	16,162	1391,527	775,065
-9,833	16,233	1390,373	774,721
-8,819	16,154	1389,364	773,763
-7,804	16,136	1388,585	773,213
-6,790	16,117	1387,397	772,436
-5,775	16,114	1386,427	771,849
-4,760	16,078	1385,756	771,281
-3,746	16,070	1384,947	770,763
-2,731	16,077	1384,258	770,380
-1,717	16,066	1383,178	769,698
-0,702	16,119	1381,316	768,877
0,313	19,979	1302,595	742,844
1,327	36,610	707,400	442,000
2,342	56,639	125,618	86,552
3,356	3,470	16,646	8,573
4,371	0,686	3,188	1,612
5,386	-31,501	0,470	0,186
6,400	-136,695	0,138	-0,011
7,415	269,363	-0,245	-0,305
8,429	197,640	-0,240	-0,261
9,444	66,926	-0,282	-0,204
10,459	41,841	-0,274	-0,175
11,473	76,553	-0,258	-0,194
12,488	-94,004	-0,336	-0,065
13,502	136,149	-0,216	-0,199
14,517	119,522	-0,300	-0,263
15,531	37,396	-0,385	-0,241
16,546	-15,053	-0,353	-0,160
17,561	137,977	-0,467	-0,434
18,575	-106,688	-0,232	-0,036
19,590	116,209	-0,252	-0,218
20,604	-88,214	-0,328	-0,069
21,619	8,450	-0,521	-0,277
22,634	130,817	-0,400	-0,363
23,648	147,144	-0,395	-0,376
24,663	-48,617	-0,485	-0,164
25,677	-3,895	-0,327	-0,160
26,692	75,787	-0,454	-0,339
27,707	106,505	-0,290	-0,243
28,721	-3,147	-0,371	-0,183
29,736	9,559	-0,366	-0,196
30,750	428,432	-0,305	-0,467
31,765	29,374	-0,358	-0,215
32,780	266,925	-0,236	-0,292
33,794	246,126	-0,294	-0,351
34,809	72,888	-0,314	-0,232
35,823	5,676	-0,499	-0,260
36,838	50,678	-0,451	-0,301
37,853	23,033	-0,413	-0,239
38,867	-38,741	-0,432	-0,160
39,882	48,820	-0,315	-0,209
40,896	82,434	-0,249	-0,191
41,911	42,291	-0,345	-0,221
42,926	180,071	-0,331	-0,343
43,940	147,655	-0,320	-0,305
44,955	123,871	-0,380	-0,337
45,969	64,254	-0,438	-0,311
46,984	66,669	-0,308	-0,221
47,999	579,352	-0,184	-0,320
49,013	91,008	-0,232	-0,184
50,028	207,057	-0,248	-0,274
51,042	145,327	-0,359	-0,340
52,057	12,259	-0,478	-0,259
53,071	87,817	-0,391	-0,306
54,086	120,148	-0,385	-0,338
55,101	146,077	-0,229	-0,217
56,115	9,712	-0,345	-0,184
57,130	16,436	-0,321	-0,179
58,144	156,421	-0,342	-0,333
59,159	64,750	-0,412	-0,293
60,174	-82,506	-0,414	-0,094
61,188	-4,689	-0,351	-0,170
62,203	51,174	-0,351	-0,235
63,217	241,591	-0,196	-0,232
64,232	29,058	-0,326	-0,194
65,247	44,678	-0,386	-0,250
66,261	67,341	-0,319	-0,229
67,276	198,839	-0,270	-0,292
68,290	260,336	-0,263	-0,321
69,305	247,404	-0,293	-0,350
70,320	-27,584	-0,380	-0,155
71,334	52,743	-0,280	-0,188
72,349	52,433	-0,375	-0,251
73,363	86,480	-0,365	-0,283
74,378	-31,281	-0,370	-0,146
75,393	-20,975	-0,450	-0,193
76,407	98,970	-0,205	-0,167
77,422	14,973	-0,305	-0,168
78,436	97,419	-0,348	-0,281
79,451	12,063	-0,387	-0,209
80,466	44,155	-0,340	-0,219
81,480	68,800	-0,381	-0,275
82,495	34,327	-0,364	-0,223
83,509	19,677	-0,328	-0,185
84,524	-98,095	-0,233	-0,042
85,539	-70,329	-0,416	-0,110
86,553	-29,768	-0,250	-0,100
87,568	226,053	-0,303	-0,346
88,582	69,241	-0,344	-0,248
89,597	-0,521	-0,367	-0,183
90,611	-12,234	-0,322	-0,148
91,626	-49,722	-0,291	-0,097
92,641	-77,007	-0,317	-0,077
93,655	9,040	-0,298	-0,158
94,670	148,346	-0,262	-0,249
95,684	117,410	-0,261	-0,226
96,699	345,468	-0,243	-0,337
97,714	12,335	-0,400	-0,216
98,728	-89,290	-0,209	0,043
99,743	-3,015	-0,240	-0,117
100,757	294,971	-0,197	-0,254
101,772	174,095	-0,224	-0,227
102,787	62,723	-0,295	-0,207
103,801	107,029	-0,249	-0,208
104,816	79,475	-0,246	-0,185
105,830	60,024	-0,306	-0,212
106,845	-76,408	-0,350	-0,086
107,860	143,913	-0,294	-0,276
108,874	-27,291	-0,286	-0,116
109,889	219,297	-0,192	-0,216
110,903	158,839	-0,254	-0,248
111,918	185,958	-0,211	-0,221
112,933	66,771	-0,312	-0,223
113,947	800,000	-0,110	-0,301
114,962	12,333	-0,265	-0,143
115,976	247,145	-0,236	-0,280
116,991	-82,544	-0,338	-0,076
118,006	151,388	-0,283	-0,270
119,020	151,279	-0,187	-0,179
120,035	38,213	-0,315	-0,197
121,049	226,211	-0,226	-0,258
122,064	-55,939	-0,209	-0,065
123,079	177,616	-0,191	-0,195
124,093	282,212	-0,196	-0,247
125,108	79,242	-0,176	-0,132
126,122	87,377	-0,215	-0,166
127,137	-70,760	-0,150	-0,039
128,151	453,880	-0,216	-0,337
129,166	-126,642	-0,172	-0,018
130,181	71,362	-0,250	-0,182
131,195	68,444	-0,303	-0,218
132,210	7,961	-0,258	-0,135
133,224	419,651	-0,288	-0,433
134,239	63,278	-0,333	-0,234
135,254	16,185	-0,245	-0,135
136,268	205,253	-0,167	-0,181
137,283	39,096	-0,181	-0,113
138,297	577,023	-0,193	-0,332
139,312	67,965	-0,345	-0,247
140,327	47,138	-0,306	-0,199
141,341	689,899	-0,146	-0,269
142,356	150,118	-0,220	-0,209
143,370	209,738	-0,252	-0,277
144,385	132,634	-0,071	-0,064
145,400	165,582	-0,306	-0,303
146,414	94,266	-0,258	-0,205
147,429	6,883	-0,198	-0,103
148,443	20,799	-0,336	-0,190
149,458	-51,836	-0,204	-0,066
150,473	-8,443	-0,344	-0,161
151,487	64,245	-0,291	-0,205
152,502	-1,309	-0,275	-0,135
153,516	-5,637	-0,380	-0,182
154,531	34,116	-0,288	-0,176
155,546	124,672	-0,269	-0,237
156,560	367,563	-0,184	-0,261
157,575	-48,406	-0,193	-0,065
158,589	219,173	-0,221	-0,247
159,604	-5,131	-0,151	-0,072
160,619	-4,752	-0,313	-0,150
161,633	-26,942	-0,380	-0,154
162,648	-22,353	-0,238	-0,101
163,662	513,435	-0,211	-0,345
164,677	800,000	-0,096	-0,198
165,692	-183,382	-0,256	0,003
166,706	112,169	-0,169	-0,143
167,721	342,668	-0,205	-0,281
168,735	250,507	-0,152	-0,181
169,750	653,113	-0,165	-0,297
170,764	39,393	-0,199	-0,124
171,779	-14,639	-0,251	-0,112
172,794	46,863	-0,200	-0,129
173,808	167,067	-0,201	-0,199
174,823	46,342	-0,253	-0,164
175,837	151,867	-0,260	-0,248
176,852	92,983	-0,312	-0,246
177,867	51,492	-0,129	-0,085
178,881	-200,000	-0,013	-0,078
179,896	243,096	-0,224	-0,263
180,910	191,441	-0,222	-0,234
181,925	14,418	-0,260	-0,141
182,940	233,145	-0,207	-0,238
183,954	-200,000	-0,076	-0,241
184,969	218,256	-0,188	-0,210
185,983	187,789	-0,160	-0,167
186,998	68,398	-0,202	-0,144
188,013	81,636	-0,280	-0,212
189,027	553,457	-0,129	-0,217
190,042	184,775	-0,252	-0,260
191,056	465,086	-0,198	-0,311
192,071	-86,127	-0,276	-0,059
193,086	80,180	-0,151	-0,113
194,100	165,246	-0,193	-0,191
195,115	110,940	-0,259	-0,217
196,129	187,195	-0,229	-0,238
197,144	800,000	-0,076	-0,179
198,159	481,042	-0,108	-0,171
199,173	71,907	-0,282	-0,204
200,188	42,196	-0,251	-0,159
201,202	294,102	-0,111	-0,142
202,217	122,826	-0,216	-0,188
203,232	40,681	-0,204	-0,128
204,246	124,288	-0,194	-0,170
205,261	36,550	-0,349	-0,214
206,275	33,863	-0,164	-0,099
207,290	59,340	-0,159	-0,109
208,304	-37,304	-0,162	-0,060
209,319	-64,267	-0,227	-0,064
210,334	47,215	-0,233	-0,151
211,348	-21,126	-0,236	-0,100
212,363	-12,378	-0,092	-0,042
213,377	549,642	-0,173	-0,289
214,392	533,068	-0,136	-0,225
215,407	-200,000	-0,068	-0,256
216,421	-7,536	-0,129	-0,060
217,436	408,985	-0,063	-0,093
218,450	-33,128	-0,227	-0,087
219,465	192,633	-0,168	-0,177
220,480	208,368	-0,167	-0,182
221,494	-200,000	-0,038	-0,219
222,509	215,712	-0,137	-0,152
223,523	-69,251	-0,175	0,046
224,538	800,000	-0,120	-0,291
225,553	-21,761	-0,300	-0,126
226,567	284,470	-0,153	-0,192
227,582	800,000	-0,041	-0,125
228,596	153,783	-0,107	-0,102
229,611	126,621	-0,141	-0,124
230,626	152,640	-0,216	-0,205
231,640	237,109	-0,181	-0,209
232,655	-14,942	-0,193	-0,086
233,669	-68,523	-0,190	0,051
234,684	197,526	-0,144	-0,153
235,699	-54,710	-0,154	-0,048
236,713	355,909	-0,101	-0,140
237,728	2,448	-0,259	-0,130
238,742	397,525	-0,173	-0,252
239,757	59,759	-0,258	-0,176
240,772	91,619	-0,161	-0,126
241,786	20,683	-0,159	-0,089
242,801	77,405	-0,131	-0,096
243,815	-200,000	-0,049	-0,255
244,830	16,146	-0,138	-0,075
245,844	-14,393	-0,292	-0,130
246,859	-50,146	-0,076	-0,025
247,874	-97,486	-0,224	-0,040
248,888	252,277	-0,166	-0,196
249,903	-75,956	-0,227	-0,055
250,917	177,974	-0,108	-0,109
251,932	-12,653	-0,124	-0,056
252,947	37,289	-0,228	-0,140
253,961	-25,772	-0,234	-0,095
254,976	223,781	-0,123	-0,138
255,990	27,271	-0,186	-0,108
257,005	-200,000	-0,035	-0,201
258,020	-13,715	-0,183	-0,082
259,034	28,505	-0,085	-0,049
260,049	309,230	-0,168	-0,218
261,063	608,877	-0,111	-0,194
262,078	349,947	-0,186	-0,255
263,093	572,958	-0,134	-0,228
264,107	-200,000	-0,136	-0,000
265,122	33,414	-0,201	-0,121
266,136	-83,087	-0,268	-0,059
267,151	42,039	-0,168	-0,105
268,166	-97,764	-0,202	-0,036
269,180	-13,352	-0,165	-0,074
270,195	146,475	-0,150	-0,139
271,209	282,999	-0,119	-0,149
272,224	0,265	-0,193	-0,095
273,239	86,027	-0,122	-0,093
274,253	800,000	-0,072	-0,144
275,268	-5,288	-0,187	-0,089
276,282	-137,858	-0,139	-0,011
277,297	50,849	-0,210	-0,138
278,312	363,640	-0,158	-0,220
279,326	800,000	-0,061	-0,142
280,341	-8,969	-0,104	-0,048
281,355	61,017	-0,132	-0,090
282,370	11,026	-0,116	-0,061
283,384	-80,536	-0,156	-0,036
284,399	123,653	-0,238	-0,206
285,414	335,762	-0,216	-0,290
286,428	19,789	-0,171	-0,095
287,443	-138,360	-0,098	0,007
288,457	-62,516	-0,124	-0,035
289,472	56,687	-0,167	-0,112
290,487	117,010	-0,316	-0,268
291,501	55,907	-0,138	-0,093
292,516	62,008	-0,224	-0,154
293,530	-200,000	-0,051	-0,307
294,545	55,434	-0,140	-0,094
295,560	-14,996	-0,093	-0,041
296,574	-128,021	-0,062	-0,006
297,589	-96,912	-0,272	-0,049
298,603	148,984	-0,114	-0,107
299,618	-29,849	-0,160	-0,063
300,633	107,756	-0,148	-0,122
301,647	627,493	-0,043	-0,075
302,662	265,668	-0,065	0,078
303,676	-79,212	-0,118	-0,027
304,691	-19,762	-0,154	-0,066
305,706	-124,217	-0,095	-0,010
306,720	-83,714	-0,177	-0,039
307,735	-78,035	-0,114	0,027
308,749	80,785	-0,085	-0,064
309,764	653,233	-0,090	-0,160
310,779	509,297	-0,131	-0,211
311,793	703,462	-0,088	-0,161
312,808	-74,020	-0,260	0,065
313,822	106,028	-0,201	-0,164
314,837	800,000	-0,066	-0,173
315,852	800,000	0,039	-0,075
316,866	-44,718	-0,168	-0,057
317,881	14,408	-0,109	-0,058
318,895	-200,000	0,007	0,079
319,910	-146,939	-0,298	-0,017
320,925	79,520	-0,249	-0,184
321,939	59,435	-0,179	-0,121
322,954	2,347	-0,161	-0,080
323,968	314,280	-0,066	-0,086
324,983	43,421	-0,174	-0,109
325,997	47,690	-0,201	-0,129
327,012	800,000	-0,035	-0,102
328,027	-36,759	-0,110	-0,040
329,041	327,483	-0,135	-0,179
330,056	-58,461	-0,079	-0,023
331,070	122,340	-0,087	0,075
332,085	716,106	0,060	-0,110
333,100	-31,392	-0,125	-0,048
334,114	268,293	-0,186	-0,225
335,129	248,026	-0,152	-0,177
336,143	161,824	-0,118	-0,114
337,158	21,610	0,016	0,009
338,173	109,581	-0,173	-0,143
339,187	628,426	-0,054	-0,094
340,202	148,469	-0,136	-0,126
341,216	148,241	-0,112	-0,104
342,231	-9,898	-0,232	-0,106
343,246	12,691	-0,159	-0,084
344,260	358,572	-0,106	-0,146
345,275	10,186	-0,143	-0,075
346,289	18,147	-0,185	-0,101
347,304	15,718	-0,160	-0,086
348,319	-200,000	-0,061	-0,186
349,333	800,000	-0,117	-0,271
350,348	165,270	-0,132	-0,129
351,362	255,944	-0,133	-0,157
352,377	292,702	-0,084	-0,105
353,392	-1,109	-0,108	-0,052
354,406	800,000	-0,069	-0,161
355,421	210,133	1313,256	1418,649
356,435	161,755	1473,837	1419,174
