DTS Sentinel unit serial number:	SN410029Multiplexer serial number:	ORYXHardware model number:	OX2-SRSoftware version number:	ORYX F/W v4,00 Oryx Data Collector v3.7.2.0data status	okinstallation	B3 Nyhavnadifferential loss correction	single-endedforward channel	channel 1reverse channel	N/Adate	2023/12/04time	07:52:30forward acquisition time	300,00reverse acquisition time	0,00gamma	499,1914k internal	0,3205k external	0,3205temperature offset calibration	1,0000default loss term (dB/km)	0,3820temperature slope calibration	1,0000multiplexer offset coefficient	1,0000multiplexer slope coefficient	1,0000fibre end	0,00T internal ref (°C)	12,43T ext. ref 1 (°C)	-1,95T ext. ref 2 (°C)	-1,99length (m)	temperature (°C)	Stokes	anti-Stokes-744,400	728,395	-0,101	-0,198
-743,385	-200,000	-0,060	0,292
-742,371	121,274	-0,289	-0,261
-741,356	-200,000	-0,013	0,405
-740,342	-105,794	-0,192	-0,031
-739,327	-200,000	-0,031	0,280
-738,312	18,937	-0,253	-0,147
-737,298	-200,000	-0,069	0,284
-736,283	800,000	-0,143	-0,326
-735,269	-200,000	0,066	0,258
-734,254	278,061	-0,208	-0,269
-733,239	-200,000	-0,049	0,171
-732,225	679,587	-0,095	-0,181
-731,210	15,012	0,136	0,077
-730,196	800,000	0,059	-0,123
-729,181	-39,299	0,037	0,014
-728,167	13,661	-0,102	-0,057
-727,152	800,000	-0,075	-0,206
-726,137	-141,071	-0,026	-0,002
-725,123	-200,000	-0,014	-0,046
-724,108	-80,070	-0,124	-0,030
-723,094	-20,181	-0,112	-0,050
-722,079	-137,801	0,083	-0,007
-721,064	630,106	-0,031	-0,057
-720,050	569,921	0,020	0,035
-719,035	-95,220	0,047	-0,009
-718,021	-200,000	0,014	-0,049
-717,006	273,382	-0,119	-0,153
-715,991	-200,000	0,018	-0,071
-714,977	228,856	-0,039	0,047
-713,962	-200,000	-0,015	-0,152
-712,948	167,668	0,186	0,192
-711,933	-200,000	-0,019	0,073
-710,918	251,819	-0,056	0,069
-709,904	-76,166	-0,053	0,014
-708,889	57,617	-0,030	-0,021
-707,875	258,916	-0,101	-0,127
-706,860	4,753	0,043	0,023
-705,845	53,621	0,116	0,081
-704,831	624,137	-0,049	0,090
-703,816	-44,332	-0,144	0,052
-702,802	190,897	-0,080	-0,088
-701,787	668,183	0,042	-0,079
-700,772	635,028	-0,068	0,126
-699,758	800,000	0,050	-0,157
-698,743	-200,000	0,001	0,049
-697,729	467,060	0,077	0,125
-696,714	-101,082	-0,010	-0,002
-695,699	364,145	0,029	-0,042
-694,685	800,000	0,034	-0,081
-693,670	407,221	-0,022	0,034
-692,656	800,000	0,017	-0,051
-691,641	61,670	-0,018	-0,013
-690,627	-190,138	0,103	-0,001
-689,612	-200,000	0,010	0,117
-688,597	-6,212	-0,104	-0,051
-687,583	800,000	-0,037	-0,085
-686,568	109,250	-0,081	-0,070
-685,554	-200,000	0,000	0,018
-684,539	407,757	-0,074	0,113
-683,524	-11,163	0,051	-0,024
-682,510	-174,666	0,051	-0,001
-681,495	262,247	0,054	-0,068
-680,481	-200,000	-0,032	-0,122
-679,466	800,000	-0,037	-0,107
-678,451	800,000	0,084	-0,179
-677,437	-8,465	0,072	-0,035
-676,422	-200,000	-0,014	-0,132
-675,408	-166,584	-0,144	-0,004
-674,393	-100,018	-0,126	0,023
-673,378	800,000	-0,042	-0,107
-672,364	420,039	-0,099	-0,154
-671,349	478,779	0,039	-0,064
-670,335	-93,627	0,080	-0,016
-669,320	800,000	0,018	-0,042
-668,305	-200,000	0,026	-0,103
-667,291	-200,000	-0,004	-0,138
-666,276	556,079	-0,068	-0,120
-665,262	96,890	-0,108	-0,090
-664,247	67,447	0,036	0,027
-663,232	800,000	-0,032	-0,086
-662,218	-10,938	0,094	0,045
-661,203	25,672	0,078	0,047
-660,189	-200,000	0,015	-0,082
-659,174	142,168	-0,104	0,100
-658,159	800,000	-0,047	-0,104
-657,145	-110,309	-0,050	0,007
-656,130	-200,000	0,016	-0,108
-655,116	-200,000	0,053	0,174
-654,101	-118,225	-0,067	0,008
-653,086	-130,718	-0,148	0,014
-652,072	-31,565	-0,079	-0,032
-651,057	-169,284	-0,035	-0,001
-650,043	-139,768	0,016	0,001
-649,028	-18,552	0,068	-0,030
-648,014	55,163	0,039	0,027
-646,999	-65,687	0,060	0,017
-645,984	75,571	-0,054	-0,041
-644,970	98,009	-0,116	-0,097
-643,955	800,000	-0,009	-0,018
-642,941	47,387	0,084	-0,057
-641,926	-97,960	-0,027	-0,005
-640,911	72,871	-0,108	0,081
-639,897	-14,528	0,078	-0,036
-638,882	602,699	0,012	-0,022
-637,868	-200,000	0,005	-0,032
-636,853	800,000	-0,003	0,007
-635,838	180,876	-0,114	-0,122
-634,824	372,611	0,063	-0,093
-633,809	236,983	-0,077	0,093
-632,795	70,421	-0,161	0,120
-631,780	-112,969	-0,052	0,007
-630,765	415,862	-0,017	-0,026
-629,751	76,355	-0,084	-0,064
-628,736	-192,966	-0,058	-0,000
-627,722	-200,000	0,001	-0,063
-626,707	330,337	-0,021	0,029
-625,692	-200,000	0,013	0,059
-624,678	-18,565	-0,118	0,053
-623,663	55,168	-0,013	-0,009
-622,649	-200,000	0,010	-0,078
-621,634	133,062	0,091	-0,085
-620,619	82,326	-0,096	0,075
-619,605	800,000	0,006	0,017
-618,590	-52,477	0,052	-0,017
-617,576	800,000	-0,093	0,196
-616,561	429,243	0,101	0,158
-615,546	800,000	-0,036	-0,107
-614,532	-200,000	-0,065	-0,246
-613,517	301,197	0,122	-0,164
-612,503	280,052	0,033	-0,043
-611,488	-33,954	-0,050	-0,020
-610,474	64,732	0,114	-0,083
-609,459	-200,000	-0,001	-0,022
-608,444	81,141	-0,085	-0,066
-607,430	174,373	-0,032	0,033
-606,415	-101,540	-0,124	0,022
-605,401	-52,199	0,068	-0,023
-604,386	-156,787	-0,082	-0,004
-603,371	-13,420	0,177	0,082
-602,357	-200,000	0,013	0,077
-601,342	-200,000	-0,013	-0,093
-600,328	57,095	0,059	-0,041
-599,313	54,139	-0,100	-0,069
-598,298	-97,608	0,089	0,017
-597,284	-88,481	-0,074	0,016
-596,269	-77,825	0,079	0,020
-595,255	272,646	0,074	0,094
-594,240	-130,898	-0,157	-0,015
-593,225	158,553	-0,115	-0,116
-592,211	-164,604	0,079	-0,003
-591,196	-163,036	-0,090	0,003
-590,182	-175,594	0,155	-0,003
-589,167	800,000	-0,020	0,041
-588,152	-27,045	-0,145	0,061
-587,138	415,233	0,032	-0,050
-586,123	-200,000	-0,021	0,072
-585,109	800,000	-0,057	-0,174
-584,094	183,730	-0,046	0,049
-583,079	343,646	0,023	0,033
-582,065	-200,000	0,003	0,112
-581,050	319,347	-0,045	-0,062
-580,036	-52,275	-0,157	0,052
-579,021	-139,903	-0,149	0,011
-578,006	800,000	0,048	0,129
-576,992	-200,000	0,015	-0,097
-575,977	167,542	-0,045	-0,046
-574,963	155,555	-0,088	-0,088
-573,948	-200,000	-0,002	0,074
-572,934	-105,919	0,063	-0,010
-571,919	-200,000	0,014	-0,098
-570,904	-62,565	-0,056	0,017
-569,890	-17,819	0,054	0,024
-568,875	-96,789	0,110	-0,021
-567,861	342,647	0,022	0,031
-566,846	-92,780	0,197	0,039
-565,831	-158,744	0,092	0,004
-564,817	-100,127	-0,051	0,009
-563,802	-79,536	-0,104	-0,025
-562,788	-200,000	0,010	-0,081
-561,773	134,677	-0,056	0,052
-560,758	-46,163	-0,110	0,039
-559,744	687,538	-0,062	0,118
-558,729	-200,000	0,014	0,079
-557,715	310,385	-0,058	-0,079
-556,700	-200,000	0,018	-0,124
-555,685	800,000	-0,043	-0,109
-554,671	301,282	-0,024	-0,032
-553,656	54,542	0,117	0,081
-552,642	800,000	0,056	0,113
-551,627	-200,000	0,026	0,104
-550,612	-92,845	0,202	-0,040
-549,598	76,401	-0,078	-0,060
-548,583	-99,094	-0,116	-0,021
-547,569	171,171	0,081	0,084
-546,554	-93,974	0,066	0,013
-545,539	-137,785	0,184	-0,015
-544,525	221,066	0,022	-0,026
-543,510	291,895	-0,031	-0,041
-542,496	705,314	-0,083	-0,158
-541,481	-37,423	0,125	0,048
-540,466	120,519	-0,032	0,028
-539,452	800,000	0,015	0,042
-538,437	-200,000	-0,015	0,193
-537,423	123,178	0,070	-0,063
-536,408	-200,000	0,010	-0,034
-535,393	-200,000	-0,016	-0,097
-534,379	-200,000	-0,026	-0,086
-533,364	-127,297	-0,096	0,010
-532,350	228,935	0,073	0,086
-531,335	-200,000	0,001	-0,075
-530,321	-73,371	0,208	0,054
-529,306	216,908	0,132	0,152
-528,291	793,266	-0,008	-0,017
-527,277	127,558	-0,054	0,050
-526,262	127,124	0,016	0,014
-525,248	-34,377	-0,036	0,014
-524,233	51,353	0,088	0,060
-523,218	-7,824	-0,058	-0,028
-522,204	-200,000	-0,006	-0,024
-521,189	650,542	0,043	0,079
-520,175	42,353	-0,062	-0,040
-519,160	-46,781	-0,132	-0,046
-518,145	259,920	-0,032	-0,040
-517,131	-200,000	0,009	0,052
-516,116	800,000	0,066	0,166
-515,102	-200,000	0,008	-0,120
-514,087	39,114	-0,058	-0,037
-513,072	-20,353	-0,159	-0,070
-512,058	-0,525	-0,040	0,020
-511,043	800,000	0,020	-0,046
-510,029	3,836	0,036	0,019
-509,014	-200,000	0,014	0,052
-507,999	470,185	0,028	0,045
-506,985	800,000	0,028	-0,077
-505,970	800,000	-0,019	-0,039
-504,956	138,123	0,060	-0,057
-503,941	-59,299	0,060	0,018
-502,926	740,644	0,046	-0,089
-501,912	215,795	-0,035	-0,041
-500,897	-200,000	-0,002	-0,023
-499,883	-108,105	-0,093	0,014
-498,868	-200,000	-0,018	-0,072
-497,853	-158,034	0,121	0,005
-496,839	627,042	-0,030	0,054
-495,824	-116,285	0,076	0,010
-494,810	344,780	-0,034	0,048
-493,795	122,230	0,017	-0,016
-492,781	-119,606	0,166	-0,020
-491,766	587,868	-0,068	-0,120
-490,751	800,000	-0,022	0,062
-489,737	92,366	0,035	-0,028
-488,722	800,000	0,036	-0,098
-487,708	-58,319	0,075	0,023
-486,693	-97,831	0,121	0,022
-485,678	16,083	-0,089	-0,050
-484,664	78,712	-0,103	-0,079
-483,649	-91,549	-0,077	0,016
-482,635	542,675	-0,024	-0,042
-481,620	-30,613	0,051	-0,021
-480,605	-200,000	-0,002	0,054
-479,591	800,000	-0,007	0,020
-478,576	-47,963	-0,062	0,021
-477,562	56,555	-0,088	-0,061
-476,547	-68,121	0,090	-0,025
-475,532	87,365	-0,102	-0,081
-474,518	800,000	-0,013	0,034
-473,503	358,564	0,060	0,086
-472,489	215,205	0,034	0,038
-471,474	-200,000	-0,038	0,137
-470,459	-200,000	-0,020	-0,087
-469,445	550,849	0,029	-0,051
-468,430	613,773	-0,040	0,072
-467,416	100,151	-0,095	0,080
-466,401	70,608	-0,130	0,097
-465,386	256,736	0,060	0,074
-464,372	183,727	0,077	-0,082
-463,357	-200,000	0,014	-0,148
-462,343	143,439	-0,062	0,060
-461,328	276,141	0,041	0,053
-460,313	43,569	-0,049	-0,032
-459,299	-200,000	-0,011	0,081
-458,284	245,370	0,038	-0,046
-457,270	800,000	-0,023	-0,052
-456,255	-200,000	0,026	-0,086
-455,241	58,697	-0,032	-0,022
-454,226	-129,251	-0,072	0,007
-453,211	127,876	0,095	-0,087
-452,197	-15,312	-0,034	-0,015
-451,182	-52,084	0,067	-0,022
-450,168	-200,000	-0,023	0,087
-449,153	0,486	0,113	-0,058
-448,138	-92,106	0,064	0,013
-447,124	800,000	0,052	-0,104
-446,109	-189,885	-0,128	-0,001
-445,095	800,000	0,055	0,166
-444,080	-94,998	0,135	-0,026
-443,065	-101,657	0,129	-0,022
-442,051	605,014	0,047	-0,085
-441,036	457,848	0,083	-0,134
-440,022	21,996	-0,021	-0,012
-439,007	-47,591	0,037	0,013
-437,992	484,421	-0,048	0,079
-436,978	179,585	0,053	-0,056
-435,963	124,955	0,144	0,131
-434,949	-90,005	-0,084	-0,017
-433,934	527,101	0,021	0,035
-432,919	-162,707	0,089	-0,003
-431,905	33,975	-0,071	-0,044
-430,890	-65,584	0,208	-0,059
-429,876	58,767	0,058	0,041
-428,861	84,153	-0,082	0,064
-427,846	1,898	-0,061	0,031
-426,832	800,000	-0,069	0,188
-425,817	10,081	-0,103	-0,056
-424,803	-77,291	0,125	0,031
-423,788	107,170	0,026	-0,022
-422,773	344,326	-0,046	0,065
-421,759	-145,048	0,128	-0,008
-420,744	282,269	0,068	-0,087
-419,730	287,900	-0,058	-0,076
-418,715	-15,918	-0,128	-0,058
-417,701	242,242	0,065	-0,078
-416,686	-200,000	0,000	-0,033
-415,671	-172,137	0,108	0,002
-414,657	-119,483	0,137	0,017
-413,642	800,000	0,019	-0,046
-412,628	-200,000	0,013	-0,060
-411,613	-100,833	-0,029	-0,005
-410,598	800,000	0,038	-0,095
-409,584	800,000	-0,048	-0,126
-408,569	-200,000	-0,026	0,206
-407,555	-200,000	0,020	0,104
-406,540	-89,117	-0,123	0,026
-405,525	-51,410	-0,129	0,043
-404,511	-200,000	-0,015	0,075
-403,496	255,975	-0,049	0,060
-402,482	-64,693	0,120	-0,035
-401,467	7,397	0,116	-0,062
-400,452	800,000	-0,014	0,031
-399,438	-200,000	0,020	-0,108
-398,423	-8,627	-0,060	-0,029
-397,409	118,873	-0,061	-0,054
-396,394	800,000	-0,007	-0,020
-395,379	140,322	-0,052	0,049
-394,365	-200,000	0,004	-0,069
-393,350	-83,896	0,120	0,027
-392,336	-200,000	-0,026	0,122
-391,321	108,722	-0,048	-0,041
-390,306	617,263	0,069	0,125
-389,292	512,223	-0,072	-0,121
-388,277	-200,000	0,016	-0,078
-387,263	-114,019	0,122	-0,017
-386,248	800,000	0,039	-0,090
-385,233	32,446	-0,090	-0,055
-384,219	-185,391	-0,086	0,001
-383,204	-200,000	0,017	-0,110
-382,190	251,753	-0,055	0,067
-381,175	-42,099	-0,146	-0,053
-380,160	-81,330	0,127	0,030
-379,146	-200,000	0,039	0,158
-378,131	494,529	-0,067	0,111
-377,117	111,695	0,091	0,078
-376,102	-26,115	-0,167	0,070
-375,088	-58,342	0,078	-0,024
-374,073	81,190	-0,116	0,090
-373,058	-200,000	-0,025	0,123
-372,044	463,695	0,032	-0,052
-371,029	2,138	-0,111	0,057
-370,015	8,909	0,133	0,072
-369,000	26,526	-0,081	-0,048
-367,985	161,170	-0,033	-0,034
-366,971	124,977	-0,022	-0,020
-365,956	-55,541	0,048	-0,015
-364,942	699,436	0,054	-0,103
-363,927	-200,000	0,004	0,089
-362,912	93,849	0,185	-0,150
-361,898	-154,210	-0,135	0,006
-360,883	393,555	0,114	-0,171
-359,869	98,163	-0,070	-0,057
-358,854	324,132	0,062	0,085
-357,839	-200,000	-0,005	-0,105
-356,825	800,000	0,009	0,027
-355,810	-78,037	-0,105	-0,026
-354,796	135,014	0,157	0,146
-353,781	800,000	-0,038	-0,085
-352,766	-6,414	-0,092	-0,045
-351,752	-200,000	-0,010	-0,081
-350,737	43,072	0,026	-0,017
-349,723	-137,964	0,175	-0,014
-348,708	43,938	0,069	-0,045
-347,693	670,918	-0,029	-0,054
-346,679	-93,815	0,092	0,018
-345,664	711,068	-0,047	-0,089
-344,650	510,549	0,043	0,071
-343,635	-200,000	0,032	0,151
-342,620	-109,092	0,078	-0,012
-341,606	366,104	0,052	-0,075
-340,591	800,000	0,042	0,087
-339,577	-191,366	-0,145	0,001
-338,562	56,474	0,057	-0,040
-337,548	-200,000	0,002	0,019
-336,533	508,386	-0,054	0,090
-335,518	-120,161	0,084	0,010
-334,504	-200,000	-0,010	-0,108
-333,489	-200,000	0,042	-0,155
-332,475	-39,302	-0,113	-0,042
-331,460	-108,288	-0,092	-0,014
-330,445	800,000	-0,010	0,030
-329,431	-32,338	0,082	0,033
-328,416	712,068	0,056	0,107
-327,402	283,202	0,116	0,149
-326,387	-200,000	0,000	-0,052
-325,372	-53,849	0,143	-0,046
-324,358	-38,526	-0,127	0,048
-323,343	-200,000	0,011	0,043
-322,329	47,025	-0,080	0,053
-321,314	-113,388	-0,072	-0,010
-320,299	-200,000	0,009	-0,062
-319,285	800,000	0,025	-0,064
-318,270	633,173	-0,073	-0,132
-317,256	800,000	-0,034	-0,090
-316,241	800,000	0,043	-0,116
-315,226	401,263	0,039	0,059
-314,212	-12,003	-0,044	-0,021
-313,197	-200,000	-0,021	0,088
-312,183	-56,635	0,011	0,003
-311,168	270,334	0,045	-0,057
-310,153	141,293	0,047	0,045
-309,139	-200,000	-0,007	-0,095
-308,124	70,521	0,089	-0,065
-307,110	694,853	0,036	0,068
-306,095	279,736	-0,096	0,123
-305,080	72,794	0,065	-0,049
-304,066	-180,627	-0,103	0,001
-303,051	800,000	-0,052	-0,131
-302,037	800,000	-0,031	-0,063
-301,022	34,347	0,202	0,126
-300,008	800,000	0,036	-0,077
-298,993	-200,000	0,014	-0,070
-297,978	-109,038	0,214	-0,032
-296,964	-117,943	-0,145	0,018
-295,949	38,019	0,102	-0,065
-294,935	107,695	-0,056	0,047
-293,920	372,093	-0,019	-0,028
-292,905	9,589	0,099	-0,054
-291,891	485,550	0,044	0,071
-290,876	431,472	0,016	-0,025
-289,862	-200,000	0,002	-0,080
-288,847	-200,000	0,008	-0,072
-287,832	204,965	0,070	0,078
-286,818	-81,590	-0,132	-0,031
-285,803	-38,014	-0,019	0,007
-284,789	-136,497	0,137	0,011
-283,774	282,679	0,095	0,122
-282,759	136,832	-0,079	0,074
-281,745	359,467	-0,072	-0,103
-280,730	800,000	-0,054	0,146
-279,716	-14,239	0,037	-0,017
-278,701	-200,000	0,002	0,009
-277,686	257,800	-0,049	-0,061
-276,672	164,345	-0,043	0,043
-275,657	-117,037	-0,098	0,013
-274,643	338,976	-0,013	0,018
-273,628	420,314	0,046	-0,070
-272,613	290,829	0,031	0,040
-271,599	384,831	0,066	0,098
-270,584	98,416	0,036	0,030
-269,570	-22,286	0,089	0,039
-268,555	-200,000	0,037	0,143
-267,540	220,148	-0,063	0,072
-266,526	-200,000	-0,047	-0,186
-265,511	-200,000	0,008	0,072
-264,497	-57,177	0,148	-0,046
-263,482	107,250	-0,080	-0,068
-262,467	-178,063	0,095	0,002
-261,453	-200,000	0,000	0,062
-260,438	-71,732	-0,077	0,020
-259,424	-54,493	0,060	0,019
-258,409	131,468	-0,091	0,084
-257,395	800,000	0,052	0,110
-256,380	317,750	0,073	0,099
-255,365	490,199	0,030	0,048
-254,351	-144,605	-0,006	0,000
-253,336	800,000	0,041	-0,089
-252,322	-16,284	-0,012	0,005
-251,307	-7,032	-0,211	0,102
-250,292	36,413	-0,046	-0,029
-249,278	680,892	-0,029	-0,054
-248,263	-176,919	-0,101	0,002
-247,249	-70,879	0,093	-0,025
-246,234	125,988	-0,082	0,074
-245,219	-38,400	0,037	-0,014
-244,205	128,214	0,049	0,045
-243,190	800,000	0,019	-0,040
-242,176	-137,290	-0,033	-0,003
-241,161	800,000	0,047	0,099
-240,146	800,000	-0,013	0,036
-239,132	-200,000	0,010	0,051
-238,117	-151,943	-0,060	-0,003
-237,103	-200,000	-0,019	-0,083
-236,088	726,464	0,052	0,100
-235,073	625,061	-0,038	-0,068
-234,059	-200,000	-0,042	0,141
-233,044	501,144	0,043	-0,070
-232,030	101,114	0,063	0,052
-231,015	222,288	-0,073	0,084
-230,000	-41,428	0,059	-0,022
-228,986	3,282	0,139	0,072
-227,971	454,165	-0,039	0,062
-226,957	-200,000	0,008	0,092
-225,942	-200,000	0,010	-0,127
-224,927	277,337	-0,013	0,017
-223,913	-200,000	0,002	-0,129
-222,898	800,000	-0,044	0,119
-221,884	-61,829	0,122	0,036
-220,869	192,362	-0,019	0,020
-219,855	-200,000	-0,024	0,093
-218,840	-70,222	0,101	0,027
-217,825	310,761	0,058	0,078
-216,811	493,119	-0,096	-0,157
-215,796	800,000	0,072	-0,187
-214,782	134,036	-0,081	0,075
-213,767	-200,000	0,000	0,090
-212,752	-200,000	-0,013	-0,119
-211,738	576,054	0,067	0,117
-210,723	-200,000	-0,005	0,050
-209,709	157,785	0,097	-0,096
-208,694	-27,676	-0,022	-0,009
-207,679	470,361	-0,062	0,099
-206,665	111,414	-0,110	0,094
-205,650	-24,605	-0,058	-0,024
-204,636	507,755	-0,076	0,126
-203,621	287,893	-0,126	0,163
-202,606	-97,300	-0,080	-0,015
-201,592	800,000	-0,022	0,068
-200,577	155,651	-0,032	0,031
-199,563	-200,000	0,058	-0,186
-198,548	-152,749	0,036	0,002
-197,533	259,029	-0,062	0,076
-196,519	-200,000	0,000	-0,031
-195,504	57,142	-0,028	-0,020
-194,490	800,000	0,057	-0,140
-193,475	-149,182	-0,215	0,012
-192,460	-149,591	0,089	-0,005
-191,446	201,938	0,070	-0,077
-190,431	359,159	0,047	0,067
-189,417	-200,000	-0,012	0,107
-188,402	-98,528	-0,132	0,024
-187,387	800,000	-0,041	-0,084
-186,373	72,170	-0,101	-0,074
-185,358	800,000	-0,019	0,056
-184,344	-52,890	-0,105	-0,034
-183,329	-200,000	0,001	-0,009
-182,315	-137,018	0,054	-0,004
-181,300	338,174	-0,129	0,178
-180,285	-200,000	0,019	-0,096
-179,271	-121,418	-0,080	-0,009
-178,256	-15,636	-0,090	0,041
-177,242	-119,085	0,137	0,017
-176,227	-138,854	0,105	-0,008
-175,212	178,314	-0,044	-0,045
-174,198	-200,000	-0,001	-0,037
-173,183	-200,000	-0,036	-0,141
-172,169	-200,000	-0,001	0,038
-171,154	9,380	-0,116	-0,062
-170,139	-200,000	0,024	0,084
-169,125	800,000	0,025	0,064
-168,110	334,178	0,010	-0,014
-167,096	-29,189	-0,101	-0,041
-166,081	49,279	-0,049	0,033
-165,066	-200,000	-0,011	-0,052
-164,052	800,000	0,017	0,044
-163,037	402,765	0,048	0,071
-162,023	187,822	0,149	0,158
-161,008	800,000	-0,038	0,085
-159,993	-4,951	-0,048	0,023
-158,979	368,486	-0,035	0,051
-157,964	288,629	-0,114	0,147
-156,950	800,000	0,036	-0,094
-155,935	179,419	0,011	0,011
-154,920	-200,000	-0,017	0,100
-153,906	-200,000	-0,023	-0,186
-152,891	-92,986	-0,095	0,019
-151,877	149,476	-0,048	-0,046
-150,862	-105,689	0,080	0,013
-149,847	-200,000	-0,014	-0,099
-148,833	-50,271	-0,045	-0,015
-147,818	382,662	-0,049	0,072
-146,804	-1,313	0,177	0,088
-145,789	-200,000	-0,010	0,049
-144,775	132,353	-0,081	-0,074
-143,760	218,356	-0,026	-0,029
-142,745	-200,000	0,013	-0,076
-141,731	-11,580	-0,140	-0,065
-140,716	36,350	0,151	0,094
-139,702	-200,000	-0,004	0,027
-138,687	-27,726	0,037	0,015
-137,672	759,790	-0,024	-0,047
-136,658	146,262	-0,092	-0,088
-135,643	358,071	0,094	-0,134
-134,629	46,885	0,082	0,054
-133,614	-82,633	-0,163	-0,037
-132,599	152,666	0,058	-0,057
-131,585	-200,000	0,004	-0,026
-130,570	312,168	-0,067	-0,089
-129,556	475,740	-0,027	-0,043
-128,541	-170,487	-0,096	-0,002
-127,526	-200,000	0,005	0,100
-126,512	-84,570	0,040	0,009
-125,497	-32,281	-0,080	-0,031
-124,483	409,171	0,046	0,069
-123,468	174,479	-0,042	0,043
-122,453	-200,000	0,041	-0,172
-121,439	-200,000	-0,026	-0,111
-120,424	-62,252	-0,098	-0,029
-119,410	-95,179	0,225	-0,043
-118,395	-19,862	0,012	-0,005
-117,380	125,264	-0,061	-0,055
-116,366	325,185	0,061	-0,082
-115,351	34,886	0,033	-0,021
-114,337	462,537	0,024	-0,038
-113,322	-79,511	-0,063	-0,015
-112,307	-131,758	-0,085	-0,008
-111,293	-200,000	0,008	-0,085
-110,278	42,922	-0,079	0,051
-109,264	800,000	-0,060	0,140
-108,249	-200,000	0,029	-0,095
-107,234	-152,818	-0,124	0,006
-106,220	-200,000	-0,033	-0,110
-105,205	156,886	-0,036	0,036
-104,191	354,379	-0,051	0,072
-103,176	579,621	0,068	0,119
-102,162	323,448	0,049	-0,066
-101,147	-114,316	-0,043	-0,006
-100,132	-200,000	-0,009	0,052
-99,118	-200,000	0,010	0,042
-98,103	-86,247	0,019	-0,004
-97,089	-55,773	0,041	-0,013
-96,074	-200,000	0,023	0,086
-95,059	-200,000	0,003	0,097
-94,045	254,362	0,112	0,136
-93,030	607,950	0,061	0,107
-92,016	-200,000	0,015	0,061
-91,001	120,260	-0,011	0,009
-89,986	800,000	-0,041	0,101
-88,972	21,254	0,100	0,057
-87,957	17,383	-0,042	0,023
-86,943	26,381	0,099	-0,059
-85,928	-36,729	-0,134	-0,051
-84,913	403,066	-0,013	-0,020
-83,899	-44,361	0,042	0,015
-82,884	791,177	0,059	0,116
-81,870	-31,914	0,074	0,029
-80,855	797,075	-0,058	0,113
-79,840	399,975	0,032	-0,048
-78,826	482,424	-0,035	-0,056
-77,811	-61,757	0,050	-0,015
-76,797	-51,575	0,054	-0,018
-75,782	-200,000	0,015	0,061
-74,767	800,000	0,030	0,071
-73,753	-200,000	0,014	0,125
-72,738	-31,270	0,021	-0,008
-71,724	90,664	-0,060	0,048
-70,709	639,155	0,032	0,057
-69,694	-36,848	-0,189	-0,071
-68,680	800,000	0,022	0,067
-67,665	217,929	0,056	0,063
-66,651	-31,542	0,139	0,055
-65,636	800,000	0,065	0,158
-64,622	171,943	-0,117	-0,119
-63,607	-37,517	-0,090	0,034
-62,592	-109,506	0,080	0,012
-61,578	110,823	0,040	-0,034
-60,563	-200,000	-0,009	0,033
-59,549	-55,107	0,105	0,033
-58,534	16,936	-1,682	-0,940
-57,519	456,941	-1,278	-2,014
-56,505	-200,000	-0,542	-4,438
-55,490	265,158	1,073	1,325
-54,476	800,000	5,010	11,027
-53,461	-200,000	19,922	325,162
-52,446	800,000	748,615	2322,419
-51,432	558,389	1659,696	2842,334
-50,417	76,090	1671,039	1249,014
-49,403	20,361	1544,131	879,797
-48,388	14,273	1466,713	806,085
-47,373	18,318	1456,757	820,112
-46,359	16,491	1446,432	805,521
-45,344	12,594	1441,718	784,212
-44,330	12,412	1440,083	782,420
-43,315	12,498	1437,980	781,658
-42,300	12,495	1436,561	780,839
-41,286	12,486	1435,306	780,082
-40,271	12,468	1433,810	779,154
-39,257	12,457	1432,530	778,376
-38,242	12,525	1431,242	777,967
-37,227	12,480	1430,328	777,228
-36,213	12,496	1428,905	776,497
-35,198	12,550	1427,596	776,011
-34,184	12,550	1426,807	775,553
-33,169	12,504	1425,376	774,525
-32,154	12,550	1424,207	774,076
-31,140	12,527	1423,230	773,408
-30,125	12,579	1421,777	772,834
-29,111	12,515	1421,013	772,082
-28,096	12,518	1419,925	771,478
-27,082	12,498	1418,405	770,526
-26,067	12,455	1417,506	769,805
-25,052	12,488	1416,394	769,326
-24,038	12,463	1415,463	768,669
-23,023	12,475	1414,173	767,995
-22,009	12,483	1413,294	767,528
-20,994	12,432	1412,411	766,779
-19,979	12,461	1411,578	766,428
-18,965	12,424	1410,775	765,790
-17,950	12,427	1409,670	765,174
-16,936	12,407	1408,972	764,672
-15,921	12,345	1407,835	763,735
-14,906	12,382	1407,049	763,452
-13,892	12,381	1405,831	762,755
-12,877	12,389	1405,054	762,341
-11,863	12,385	1404,099	761,774
-10,848	12,327	1403,349	761,063
-9,833	12,292	1402,478	760,400
-8,819	12,283	1401,690	759,900
-7,804	12,279	1400,766	759,352
-6,790	12,283	1399,666	758,744
-5,775	12,293	1398,533	758,145
-4,760	12,333	1397,357	757,663
-3,746	12,277	1396,475	756,897
-2,731	12,280	1395,873	756,554
-1,717	12,246	1394,910	755,843
-0,702	12,240	1393,402	754,967
0,313	16,239	1308,712	727,529
1,327	32,573	701,170	427,382
2,342	50,436	122,410	81,643
3,356	4,042	16,576	8,539
4,371	15,070	3,113	1,718
5,386	19,473	0,612	0,347
6,400	800,000	0,153	0,326
7,415	30,018	-0,314	-0,189
8,429	-17,729	-0,239	-0,106
9,444	5,305	-0,298	-0,155
10,459	68,164	-0,252	-0,182
11,473	-156,282	-0,401	-0,017
12,488	275,372	-0,166	-0,208
13,502	-60,825	-0,297	-0,088
14,517	156,527	-0,307	-0,300
15,531	-53,936	-0,350	-0,112
16,546	-37,666	-0,364	-0,136
17,561	20,659	-0,392	-0,223
18,575	88,538	-0,189	-0,148
19,590	-86,142	-0,357	-0,077
20,604	1,490	-0,248	-0,125
21,619	44,916	-0,373	-0,242
22,634	171,730	-0,399	-0,404
23,648	45,264	-0,348	-0,226
24,663	86,818	-0,380	-0,296
25,677	32,028	-0,273	-0,166
26,692	-80,524	-0,392	-0,092
27,707	76,347	-0,301	-0,225
28,721	211,074	-0,298	-0,331
29,736	222,654	-0,322	-0,366
30,750	800,000	-0,238	-0,472
31,765	87,086	-0,460	-0,358
32,780	54,431	-0,439	-0,297
33,794	331,327	-0,209	-0,285
34,809	120,640	-0,310	-0,271
35,823	-34,203	-0,484	-0,186
36,838	1,477	-0,438	-0,221
37,853	207,976	-0,370	-0,408
38,867	100,628	-0,364	-0,297
39,882	53,242	-0,396	-0,267
40,896	7,124	-0,372	-0,195
41,911	49,343	-0,430	-0,284
42,926	-10,980	-0,427	-0,198
43,940	224,817	-0,357	-0,408
44,955	37,814	-0,370	-0,231
45,969	27,256	-0,419	-0,247
46,984	25,971	-0,399	-0,233
47,999	3,444	-0,298	-0,152
49,013	78,671	-0,339	-0,255
50,028	13,903	-0,285	-0,155
51,042	175,259	-0,288	-0,294
52,057	-57,939	-0,317	-0,097
53,071	77,814	-0,340	-0,254
54,086	-16,228	-0,241	-0,107
55,101	12,988	-0,314	-0,170
56,115	64,544	-0,334	-0,236
57,130	278,599	-0,327	-0,410
58,144	92,115	-0,326	-0,258
59,159	28,784	-0,389	-0,231
60,174	14,284	-0,481	-0,263
61,188	-50,142	-0,326	-0,108
62,203	47,152	-0,319	-0,208
63,217	110,646	-0,239	-0,202
64,232	127,050	-0,264	-0,235
65,247	35,678	-0,350	-0,216
66,261	9,149	-0,264	-0,140
67,276	12,036	-0,382	-0,206
68,290	149,174	-0,338	-0,322
69,305	44,240	-0,391	-0,252
70,320	186,600	-0,208	-0,218
71,334	82,502	-0,342	-0,260
72,349	492,636	-0,143	-0,231
73,363	-24,521	-0,283	-0,118
74,378	76,967	-0,321	-0,239
75,393	253,494	-0,201	-0,241
76,407	-31,286	-0,279	-0,110
77,422	53,778	-0,257	-0,173
78,436	-24,891	-0,366	-0,152
79,451	215,298	-0,269	-0,300
80,466	-181,682	-0,364	0,005
81,480	27,824	-0,383	-0,226
82,495	-10,971	-0,307	-0,142
83,509	155,098	-0,186	-0,179
84,524	125,210	-0,151	-0,133
85,539	112,050	-0,226	-0,192
86,553	-18,691	-0,285	-0,124
87,568	53,543	-0,432	-0,290
88,582	67,737	-0,403	-0,289
89,597	105,859	-0,311	-0,258
90,611	85,211	-0,256	-0,197
91,626	46,831	-0,250	-0,163
92,641	-68,248	-0,244	-0,066
93,655	50,190	-0,226	-0,149
94,670	51,356	-0,346	-0,230
95,684	105,987	-0,312	-0,259
96,699	139,551	-0,306	-0,282
97,714	84,050	-0,319	-0,244
98,728	120,019	-0,247	-0,215
99,743	250,655	-0,225	-0,268
100,757	218,959	-0,244	-0,274
101,772	402,049	-0,209	-0,308
102,787	-25,704	-0,504	-0,207
103,801	61,232	-0,275	-0,191
104,816	9,742	-0,256	-0,135
105,830	210,905	-0,226	-0,250
106,845	108,024	-0,146	-0,122
107,860	416,593	-0,174	-0,260
108,874	104,345	-0,199	-0,164
109,889	87,149	-0,204	-0,158
110,903	-82,160	-0,397	-0,090
111,918	232,781	-0,202	-0,233
112,933	45,996	-0,212	-0,137
113,947	800,000	-0,139	-0,324
114,962	42,554	-0,173	-0,110
115,976	63,657	-0,307	-0,215
116,991	40,604	-0,331	-0,208
118,006	7,469	-0,235	-0,123
119,020	372,256	-0,116	-0,166
120,035	-61,602	-0,260	-0,076
121,049	254,777	-0,207	-0,249
122,064	157,067	-0,160	-0,154
123,079	-25,303	-0,274	-0,113
124,093	312,516	-0,181	-0,238
125,108	57,070	-0,295	-0,201
126,122	-162,861	-0,205	-0,007
127,137	-50,752	-0,176	-0,057
128,151	691,440	-0,115	-0,211
129,166	20,388	-0,242	-0,136
130,181	42,225	-0,329	-0,208
131,195	177,956	-0,306	-0,312
132,210	-18,931	-0,357	-0,154
133,224	-35,622	-0,302	-0,114
134,239	111,092	-0,270	-0,227
135,254	-156,088	-0,215	-0,009
136,268	-37,330	-0,184	-0,068
137,283	274,288	-0,158	-0,196
138,297	302,445	-0,194	-0,252
139,312	191,094	-0,262	-0,276
140,327	76,185	-0,192	-0,141
141,341	289,151	-0,196	-0,248
142,356	88,665	-0,220	-0,170
143,370	204,323	-0,273	-0,296
144,385	-19,889	-0,234	-0,100
145,400	21,679	-0,338	-0,191
146,414	44,340	-0,158	-0,101
147,429	14,167	-0,379	-0,205
148,443	95,820	-0,139	-0,111
149,458	98,728	-0,191	-0,154
150,473	148,834	-0,210	-0,198
151,487	17,532	-0,280	-0,155
152,502	52,824	-0,344	-0,229
153,516	25,415	-0,282	-0,163
154,531	41,015	-0,214	-0,135
155,546	-19,535	-0,272	-0,117
156,560	225,905	-0,129	-0,146
157,575	-146,475	-0,194	-0,012
158,589	24,235	-0,218	-0,125
159,604	-3,419	-0,319	-0,154
160,619	-139,630	-0,191	-0,014
161,633	-4,862	-0,286	-0,137
162,648	158,244	-0,221	-0,214
163,662	-114,056	-0,330	-0,044
164,677	-160,506	-0,182	0,007
165,692	-149,782	-0,312	-0,017
166,706	119,761	-0,252	-0,218
167,721	210,091	-0,177	-0,194
168,735	-85,075	-0,337	-0,073
169,750	116,284	-0,185	-0,158
170,764	8,565	-0,279	-0,146
171,779	505,587	-0,068	-0,110
172,794	20,051	-0,310	-0,173
173,808	-39,853	-0,181	-0,065
174,823	306,302	-0,169	-0,219
175,837	467,115	-0,151	-0,236
176,852	53,395	-0,310	-0,206
177,867	690,560	-0,166	-0,305
178,881	261,977	-0,147	-0,177
179,896	229,533	-0,169	-0,192
180,910	295,729	-0,178	-0,227
181,925	50,378	-0,269	-0,177
182,940	342,222	-0,219	-0,298
183,954	462,207	-0,139	-0,217
184,969	121,322	-0,159	-0,138
185,983	40,528	-0,284	-0,177
186,998	155,281	-0,165	-0,158
188,013	36,140	-0,206	-0,126
189,027	48,665	-0,204	-0,132
190,042	74,913	-0,254	-0,186
191,056	-13,350	-0,209	-0,094
192,071	219,116	-0,242	-0,270
193,086	650,369	-0,145	-0,259
194,100	10,423	-0,219	-0,116
195,115	66,902	-0,264	-0,187
196,129	108,838	-0,209	-0,174
197,144	78,979	-0,270	-0,201
198,159	-53,745	-0,265	-0,084
199,173	-118,003	-0,103	-0,013
200,188	-118,292	-0,132	0,016
201,202	104,347	-0,146	-0,119
202,217	415,427	-0,102	-0,151
203,232	-15,290	-0,235	-0,104
204,246	800,000	-0,072	-0,141
205,261	-6,180	-0,333	-0,157
206,275	-87,866	-0,222	-0,046
207,290	31,263	-0,095	-0,056
208,304	33,431	-0,153	-0,092
209,319	-3,720	-0,204	-0,098
210,334	361,125	-0,212	-0,295
211,348	139,015	-0,197	-0,180
212,363	-154,319	-0,270	0,012
213,377	-83,122	-0,275	-0,061
214,392	-143,074	-0,145	-0,010
215,407	155,188	-0,176	-0,168
216,421	82,181	-0,237	-0,178
217,436	7,192	-0,200	-0,103
218,450	97,062	-0,192	-0,152
219,465	-126,748	-0,110	-0,011
220,480	-81,565	-0,184	-0,042
221,494	-25,699	-0,182	-0,074
222,509	249,582	-0,118	-0,139
223,523	44,409	-0,203	-0,129
224,538	-161,924	-0,140	0,005
225,553	-77,863	-0,241	-0,057
226,567	-200,000	-0,050	-0,186
227,582	203,083	-0,169	-0,181
228,596	-101,389	-0,184	-0,031
229,611	210,316	-0,154	-0,168
230,626	48,317	-0,195	-0,126
231,640	175,780	-0,160	-0,160
232,655	-1,525	-0,236	-0,115
233,669	97,296	-0,206	-0,164
234,684	213,949	-0,229	-0,251
235,699	264,764	-0,079	-0,095
236,713	-17,786	-0,156	-0,068
237,728	7,465	-0,168	-0,086
238,742	800,000	-0,106	-0,208
239,757	125,506	-0,176	-0,154
240,772	61,058	-0,217	-0,149
241,786	215,104	-0,140	-0,154
242,801	-95,966	-0,130	-0,024
243,815	-200,000	-0,057	-0,252
244,830	-26,103	-0,194	-0,078
245,844	47,473	-0,171	-0,110
246,859	800,000	-0,095	-0,205
247,874	245,878	-0,217	-0,253
248,888	192,360	-0,159	-0,166
249,903	431,497	-0,093	-0,140
250,917	-139,731	-0,156	0,011
251,932	50,866	-0,142	-0,093
252,947	54,926	-0,336	-0,224
253,961	270,511	-0,165	-0,201
254,976	-36,756	-0,145	-0,054
255,990	134,285	-0,154	-0,138
257,005	163,403	-0,194	-0,189
258,020	-104,996	-0,162	0,025
259,034	-35,541	-0,107	-0,040
260,049	66,007	-0,105	0,073
261,063	390,809	-0,127	-0,183
262,078	592,408	-0,059	-0,102
263,093	-162,771	-0,295	-0,010
264,107	-47,235	-0,202	-0,067
265,122	-43,665	-0,271	-0,094
266,136	-200,000	-0,001	-0,059
267,151	-13,370	-0,102	0,045
268,166	23,456	-0,203	-0,115
269,180	342,186	-0,138	-0,187
270,195	46,993	-0,092	-0,059
271,209	-30,963	-0,168	-0,065
272,224	-13,845	-0,149	-0,066
273,239	-200,000	0,028	-0,091
274,253	77,109	-0,144	-0,106
275,268	800,000	-0,076	-0,157
276,282	96,403	-0,197	-0,155
277,297	170,046	-0,149	-0,147
278,312	800,000	-0,116	-0,281
279,326	63,228	-0,137	-0,094
280,341	-59,535	-0,100	-0,030
281,355	-3,045	-0,067	0,032
282,370	-128,338	-0,194	-0,019
283,384	-3,903	-0,266	-0,127
284,399	139,480	-0,196	-0,178
285,414	137,220	-0,243	-0,220
286,428	-55,264	-0,252	-0,077
287,443	-108,774	-0,156	-0,023
288,457	-95,085	-0,178	0,033
289,472	-121,608	-0,275	0,031
290,487	213,254	-0,183	-0,199
291,501	34,766	-0,258	-0,155
292,516	6,832	-0,150	-0,077
293,530	501,778	-0,054	-0,086
294,545	-42,701	-0,130	-0,045
295,560	-51,191	-0,109	0,035
296,574	-50,351	-0,146	-0,047
297,589	408,468	-0,132	-0,194
298,603	99,364	-0,291	-0,231
299,618	72,018	-0,234	-0,168
300,633	-63,534	-0,268	-0,075
301,647	-183,989	-0,206	-0,002
302,662	800,000	-0,039	0,077
303,676	-95,904	-0,145	-0,026
304,691	800,000	-0,094	-0,214
305,706	158,579	-0,138	-0,132
306,720	800,000	-0,084	-0,193
307,735	800,000	-0,040	-0,082
308,749	203,951	-0,048	-0,051
309,764	-50,119	-0,196	-0,063
310,779	-179,740	-0,079	0,001
311,793	59,360	-0,192	-0,130
312,808	-1,676	-0,174	-0,084
313,822	147,984	-0,079	-0,073
314,837	16,798	-0,205	-0,111
315,852	70,811	-0,123	-0,087
316,866	-200,000	-0,001	-0,127
317,881	800,000	-0,060	-0,157
318,895	174,430	-0,096	-0,095
319,910	-69,503	-0,154	-0,040
320,925	104,840	-0,307	-0,248
321,939	69,086	-0,098	-0,069
322,954	-200,000	-0,041	-0,159
323,968	477,332	-0,076	-0,119
324,983	24,631	-0,106	-0,060
325,997	166,686	-0,156	-0,152
327,012	95,072	-0,144	-0,112
328,027	283,504	-0,136	-0,168
329,041	-27,195	-0,212	-0,085
330,056	195,068	-0,068	-0,071
331,070	-6,895	-0,052	0,024
332,085	397,610	-0,032	-0,045
333,100	263,621	-0,110	-0,131
334,114	-71,371	-0,179	-0,046
335,129	-103,885	-0,104	0,016
336,143	800,000	-0,032	-0,063
337,158	22,561	-0,166	-0,093
338,173	-100,181	-0,113	-0,019
339,187	231,581	-0,101	-0,114
340,202	-27,876	-0,123	-0,049
341,216	-20,578	-0,233	-0,098
342,231	323,227	-0,065	-0,085
343,246	-13,787	-0,168	-0,074
344,260	191,966	-0,157	-0,162
345,275	-57,808	-0,201	-0,060
346,289	-1,604	-0,154	-0,074
347,304	-37,085	-0,179	-0,065
348,319	103,228	-0,092	-0,074
349,333	-73,225	-0,205	-0,051
350,348	646,393	-0,100	-0,175
351,362	166,976	-0,283	-0,276
352,377	-61,638	-0,216	-0,062
353,392	-49,510	-0,137	-0,044
354,406	12,886	-0,105	-0,055
355,421	208,667	1316,599	1412,832
356,435	160,567	1477,546	1413,311
