DTS Sentinel unit serial number:	SN410029Multiplexer serial number:	ORYXHardware model number:	OX2-SRSoftware version number:	ORYX F/W v4,00 Oryx Data Collector v3.7.2.0data status	okinstallation	B3 Nyhavnadifferential loss correction	single-endedforward channel	channel 1reverse channel	N/Adate	2023/12/01time	07:07:30forward acquisition time	300,00reverse acquisition time	0,00gamma	499,1914k internal	0,3213k external	0,3213temperature offset calibration	1,0000default loss term (dB/km)	0,3820temperature slope calibration	1,0000multiplexer offset coefficient	1,0000multiplexer slope coefficient	1,0000fibre end	0,00T internal ref (°C)	7,95T ext. ref 1 (°C)	-6,24T ext. ref 2 (°C)	-6,40length (m)	temperature (°C)	Stokes	anti-Stokes-744,400	123,760	-0,203	-0,185
-743,385	-200,000	0,042	0,226
-742,371	62,654	-0,217	-0,157
-741,356	800,000	-0,063	0,161
-740,342	-40,115	-0,314	-0,118
-739,327	800,000	-0,090	0,217
-738,312	183,597	-0,212	-0,228
-737,298	-200,000	-0,009	0,192
-736,283	26,642	-0,281	-0,170
-735,269	-200,000	-0,061	0,230
-734,254	116,166	-0,211	-0,187
-733,239	-40,597	-0,213	0,080
-732,225	-200,000	0,040	-0,172
-731,210	800,000	0,058	0,181
-730,196	667,413	0,006	0,011
-729,181	-200,000	-0,024	-0,093
-728,167	-40,071	-0,028	0,010
-727,152	-112,965	-0,133	-0,019
-726,137	-108,291	-0,192	-0,030
-725,123	122,043	-0,025	-0,023
-724,108	800,000	-0,021	-0,060
-723,094	-101,290	-0,077	0,013
-722,079	-175,178	-0,216	-0,004
-721,064	-53,978	0,114	-0,037
-720,050	247,924	-0,097	0,119
-719,035	800,000	0,064	0,197
-718,021	0,461	-0,137	-0,070
-717,006	-200,000	-0,069	-0,256
-715,991	448,190	-0,121	-0,194
-714,977	160,063	-0,109	-0,110
-713,962	366,757	0,048	-0,071
-712,948	641,581	0,038	0,070
-711,933	559,569	0,052	-0,091
-710,918	89,218	0,046	-0,037
-709,904	102,323	0,038	-0,032
-708,889	17,713	0,046	0,026
-707,875	-83,412	-0,145	-0,033
-706,860	331,218	-0,029	-0,041
-705,845	-15,572	-0,055	0,025
-704,831	535,625	0,020	0,035
-703,816	-2,576	-0,028	0,014
-702,802	-77,716	-0,041	0,010
-701,787	-200,000	0,021	-0,086
-700,772	800,000	-0,078	-0,164
-699,758	-200,000	0,029	-0,127
-698,743	21,813	-0,075	0,044
-697,729	-140,543	-0,106	0,008
-696,714	107,541	0,069	0,060
-695,699	716,007	-0,081	-0,156
-694,685	409,790	-0,067	-0,104
-693,670	59,453	0,216	-0,154
-692,656	-200,000	0,024	-0,147
-691,641	26,789	0,057	0,035
-690,627	800,000	0,021	0,053
-689,612	53,035	0,073	0,050
-688,597	-154,678	0,045	0,002
-687,583	100,846	0,024	-0,020
-686,568	-116,493	-0,128	-0,017
-685,554	50,788	-0,052	-0,036
-684,539	400,529	-0,015	0,022
-683,524	182,149	0,120	0,128
-682,510	443,967	0,078	0,124
-681,495	-56,852	0,070	0,022
-680,481	-200,000	-0,028	-0,114
-679,466	-200,000	-0,034	-0,124
-678,451	-70,083	0,074	0,020
-677,437	-200,000	0,043	-0,166
-676,422	-47,312	0,185	-0,065
-675,408	74,666	-0,150	-0,114
-674,393	431,719	0,037	0,058
-673,378	-50,693	-0,098	-0,033
-672,364	800,000	-0,051	-0,121
-671,349	800,000	-0,068	-0,140
-670,335	-118,939	0,105	-0,013
-669,320	257,165	0,020	-0,025
-668,305	800,000	0,057	0,115
-667,291	116,912	-0,090	-0,080
-666,276	-200,000	-0,019	-0,132
-665,262	1,935	0,043	-0,022
-664,247	-142,235	-0,033	-0,002
-663,232	-200,000	0,012	0,067
-662,218	282,527	0,039	0,051
-661,203	-40,700	0,116	-0,043
-660,189	800,000	-0,007	0,016
-659,174	354,634	-0,084	-0,121
-658,159	77,448	0,081	0,062
-657,145	-84,728	-0,067	0,015
-656,130	800,000	0,010	0,029
-655,116	800,000	-0,058	-0,163
-654,101	-62,801	0,089	0,026
-653,086	-93,646	0,062	-0,012
-652,072	-104,139	-0,140	-0,023
-651,057	66,394	-0,024	0,017
-650,043	95,633	-0,048	0,039
-649,028	800,000	-0,034	-0,077
-648,014	188,573	-0,039	0,042
-646,999	-200,000	0,028	0,000
-645,984	226,843	0,075	-0,088
-644,970	17,133	-0,074	-0,042
-643,955	-1,763	0,034	0,017
-642,941	-62,667	0,100	-0,030
-641,926	406,232	-0,055	-0,084
-640,911	794,934	-0,029	-0,057
-639,897	30,820	0,069	0,043
-638,882	89,372	-0,063	0,051
-637,868	-200,000	-0,007	0,039
-636,853	274,098	-0,045	-0,058
-635,838	137,260	-0,086	-0,081
-634,824	272,125	-0,041	0,053
-633,809	167,808	0,039	-0,040
-632,795	800,000	-0,057	-0,140
-631,780	578,156	-0,108	0,192
-630,765	212,614	-0,040	-0,045
-629,751	-118,478	-0,075	-0,009
-628,736	687,171	-0,072	-0,137
-627,722	189,800	-0,057	0,062
-626,707	-92,353	0,030	0,006
-625,692	190,349	0,058	0,063
-624,678	-66,640	0,091	-0,026
-623,663	-200,000	-0,011	0,138
-622,649	-200,000	-0,002	-0,098
-621,634	-81,475	0,075	0,018
-620,619	78,395	0,062	0,048
-619,605	-109,302	0,046	0,007
-618,590	-126,396	0,115	0,012
-617,576	-159,232	0,029	0,001
-616,561	84,898	0,065	0,051
-615,546	315,757	-0,045	0,061
-614,532	65,040	-0,093	-0,067
-613,517	-15,481	0,129	-0,059
-612,503	-9,181	0,070	-0,034
-611,488	386,359	-0,080	0,120
-610,474	68,237	0,091	0,067
-609,459	-124,059	-0,085	0,009
-608,444	74,719	-0,099	-0,075
-607,430	141,880	-0,035	-0,033
-606,415	348,366	0,006	-0,009
-605,401	298,498	0,061	0,081
-604,386	640,548	0,013	0,024
-603,371	-151,295	0,122	0,006
-602,357	-139,641	-0,131	0,010
-601,342	-57,045	-0,129	-0,041
-600,328	218,005	-0,078	-0,090
-599,313	114,910	-0,062	0,055
-598,298	-200,000	0,016	-0,076
-597,284	-15,876	0,136	0,062
-596,269	-200,000	-0,006	0,025
-595,255	-181,267	-0,045	0,001
-594,240	-200,000	-0,001	-0,116
-593,225	-67,561	-0,095	0,027
-592,211	-200,000	0,005	-0,224
-591,196	16,778	0,054	-0,030
-590,182	397,546	0,107	0,162
-589,167	56,950	-0,050	-0,035
-588,152	800,000	-0,014	-0,030
-587,138	795,919	-0,048	-0,096
-586,123	758,024	0,071	-0,140
-585,109	177,309	-0,114	-0,120
-584,094	-169,221	0,042	-0,001
-583,079	668,970	0,085	0,159
-582,065	800,000	-0,038	0,101
-581,050	35,303	0,028	0,018
-580,036	216,640	-0,050	0,057
-579,021	-96,553	-0,062	0,012
-578,006	-105,475	-0,059	-0,010
-576,992	-90,575	0,038	0,008
-575,977	-25,762	-0,068	-0,029
-574,963	-16,575	0,048	-0,022
-573,948	-200,000	0,001	0,237
-572,934	-150,816	-0,095	-0,005
-571,919	593,020	-0,022	-0,039
-570,904	176,475	-0,116	-0,122
-569,890	-200,000	0,026	-0,149
-568,875	331,062	-0,054	-0,075
-567,861	-200,000	0,004	0,043
-566,846	800,000	0,046	0,118
-565,831	800,000	0,065	0,184
-564,817	350,124	0,056	0,079
-563,802	-200,000	0,016	-0,057
-562,788	250,387	-0,028	-0,035
-561,773	33,597	-0,042	0,026
-560,758	-200,000	-0,001	0,155
-559,744	-200,000	0,016	-0,086
-558,729	320,180	-0,022	-0,031
-557,715	-92,706	-0,095	0,019
-556,700	2,455	0,121	-0,063
-555,685	-200,000	-0,031	-0,101
-554,671	753,924	-0,082	0,160
-553,656	85,671	-0,090	0,071
-552,642	-200,000	-0,010	0,205
-551,627	522,805	0,047	0,080
-550,612	103,699	-0,111	0,094
-549,598	307,329	-0,078	-0,105
-548,583	-200,000	-0,011	0,071
-547,569	800,000	0,023	-0,063
-546,554	80,445	-0,167	-0,129
-545,539	-72,655	0,158	-0,042
-544,525	-71,028	0,081	0,022
-543,510	60,347	0,143	-0,102
-542,496	-200,000	-0,005	-0,057
-541,481	-200,000	-0,000	0,015
-540,466	-200,000	0,037	-0,163
-539,452	297,913	0,034	0,045
-538,437	-200,000	0,014	0,072
-537,423	103,679	0,042	0,036
-536,408	79,267	-0,049	-0,038
-535,393	-159,680	-0,062	-0,002
-534,379	49,513	-0,161	-0,109
-533,364	784,558	-0,057	-0,112
-532,350	-200,000	-0,049	0,159
-531,335	-200,000	0,013	-0,089
-530,321	35,771	-0,006	0,004
-529,306	-157,317	-0,066	-0,003
-528,291	88,307	0,037	-0,030
-527,277	800,000	-0,017	-0,053
-526,262	394,602	0,028	-0,042
-525,248	-200,000	0,051	0,211
-524,233	-200,000	-0,053	0,178
-523,218	11,341	0,045	0,025
-522,204	-200,000	-0,017	0,087
-521,189	800,000	-0,008	-0,020
-520,175	-200,000	-0,021	0,070
-519,160	42,889	0,149	-0,098
-518,145	231,621	0,024	-0,028
-517,131	-160,580	-0,070	-0,003
-516,116	139,804	-0,031	-0,029
-515,102	580,235	0,021	0,038
-514,087	23,969	-0,042	-0,025
-513,072	-200,000	-0,018	-0,130
-512,058	328,331	-0,033	-0,046
-511,043	411,292	-0,029	0,044
-510,029	161,629	0,090	-0,091
-509,014	-200,000	0,008	0,031
-507,999	-200,000	0,007	0,126
-506,985	-43,251	0,011	-0,004
-505,970	44,576	-0,058	0,038
-504,956	-200,000	-0,025	-0,109
-503,941	-51,706	-0,152	-0,051
-502,926	800,000	0,069	0,189
-501,912	-132,295	0,231	0,021
-500,897	-200,000	-0,011	0,133
-499,883	-200,000	-0,009	-0,046
-498,868	88,599	-0,154	0,123
-497,853	671,726	-0,009	-0,017
-496,839	-164,532	-0,063	0,002
-495,824	290,848	0,089	0,116
-494,810	-120,400	-0,074	0,009
-493,795	298,746	0,076	0,100
-492,781	-200,000	0,004	0,131
-491,766	12,247	-0,171	-0,094
-490,751	-93,696	0,079	-0,015
-489,737	-160,397	0,049	-0,002
-488,722	-124,767	0,109	0,012
-487,708	17,896	0,139	-0,079
-486,693	800,000	-0,023	0,068
-485,678	-50,153	0,168	-0,057
-484,664	56,587	0,041	-0,029
-483,649	800,000	-0,040	-0,084
-482,635	-200,000	0,018	0,063
-481,620	130,298	0,021	0,019
-480,605	800,000	0,009	-0,020
-479,591	136,639	0,117	0,110
-478,576	519,497	-0,049	-0,083
-477,562	36,001	0,076	0,048
-476,547	603,504	-0,036	-0,065
-475,532	-200,000	0,031	-0,188
-474,518	-179,969	0,071	0,001
-473,503	-200,000	-0,012	0,051
-472,489	800,000	0,042	0,117
-471,474	82,364	0,033	-0,026
-470,459	800,000	0,035	0,104
-469,445	-69,533	-0,029	-0,008
-468,430	800,000	-0,043	0,086
-467,416	326,856	0,079	0,108
-466,401	-9,473	0,131	-0,062
-465,386	-17,931	0,084	-0,038
-464,372	800,000	0,050	-0,119
-463,357	-0,820	-0,070	-0,035
-462,343	173,226	0,080	-0,082
-461,328	-200,000	0,011	-0,081
-460,313	-156,510	-0,030	-0,001
-459,299	-200,000	0,029	-0,118
-458,284	28,221	0,166	0,100
-457,270	39,915	-0,116	-0,074
-456,255	-200,000	0,006	0,030
-455,241	-163,996	0,120	-0,004
-454,226	800,000	-0,116	-0,240
-453,211	800,000	0,034	0,073
-452,197	106,956	-0,033	0,028
-451,182	-108,381	0,102	-0,016
-450,168	800,000	-0,047	0,127
-449,153	-23,402	0,030	0,013
-448,138	-19,638	-0,101	0,045
-447,124	168,216	0,070	0,071
-446,109	800,000	0,017	-0,034
-445,095	-53,772	-0,059	-0,019
-444,080	62,523	0,053	0,038
-443,065	151,717	-0,114	0,112
-442,051	-10,430	0,073	0,034
-441,036	-200,000	0,009	-0,058
-440,022	800,000	-0,056	-0,133
-439,007	-200,000	-0,008	-0,077
-437,992	653,978	-0,058	0,107
-436,978	8,452	-0,111	0,059
-435,963	260,052	-0,086	-0,106
-434,949	-96,378	-0,094	0,018
-433,934	-69,893	0,128	-0,035
-432,919	58,108	-0,123	-0,086
-431,905	-165,500	-0,091	0,003
-430,890	-102,912	0,117	0,020
-429,876	69,246	0,059	0,044
-428,861	-149,489	0,007	0,000
-427,846	225,435	0,070	0,081
-426,832	7,156	-0,153	-0,081
-425,817	20,654	0,136	0,079
-424,803	-200,000	-0,008	-0,048
-423,788	167,326	-0,138	-0,141
-422,773	-200,000	0,002	-0,036
-421,759	-46,032	0,112	0,039
-420,744	-14,824	0,095	-0,044
-419,730	62,500	-0,074	-0,053
-418,715	229,123	-0,065	-0,076
-417,701	521,654	-0,022	-0,037
-416,686	-200,000	0,011	-0,122
-415,671	604,220	-0,048	0,086
-414,657	-138,440	0,064	-0,005
-413,642	-126,807	-0,077	-0,008
-412,628	22,941	-0,096	0,056
-411,613	73,678	-0,026	-0,019
-410,598	600,299	-0,090	-0,161
-409,584	-200,000	0,002	0,031
-408,569	-110,471	0,052	-0,008
-407,555	-89,421	0,040	0,008
-406,540	-200,000	-0,022	0,101
-405,525	88,583	0,146	0,116
-404,511	-148,236	-0,094	0,005
-403,496	-200,000	-0,008	0,059
-402,482	800,000	0,014	0,028
-401,467	800,000	0,035	0,072
-400,452	345,448	0,042	0,059
-399,438	-200,000	0,031	0,103
-398,423	94,865	0,017	0,013
-397,409	-22,227	0,155	-0,067
-396,394	-200,000	0,008	-0,029
-395,379	456,954	0,050	0,079
-394,365	86,316	-0,133	-0,104
-393,350	-200,000	-0,036	0,134
-392,336	800,000	0,036	0,076
-391,321	-200,000	0,037	-0,147
-390,306	496,036	0,037	0,060
-389,292	276,020	-0,082	-0,104
-388,277	223,874	0,125	-0,144
-387,263	-200,000	-0,016	0,086
-386,248	-33,460	0,211	0,083
-385,233	-50,840	0,137	-0,046
-384,219	-200,000	0,013	-0,074
-383,204	-31,123	0,044	-0,018
-382,190	-45,692	0,065	0,023
-381,175	32,525	-0,140	0,086
-380,160	124,338	0,144	-0,129
-379,146	-200,000	-0,001	-0,009
-378,131	303,043	-0,025	0,033
-377,117	14,595	-0,080	-0,044
-376,102	-200,000	-0,010	-0,044
-375,088	215,508	-0,066	0,075
-374,073	385,551	-0,022	0,033
-373,058	282,570	-0,019	0,024
-372,044	-200,000	0,009	-0,029
-371,029	47,020	0,058	0,039
-370,015	242,365	0,028	-0,033
-369,000	-200,000	0,004	-0,020
-367,985	190,832	-0,022	0,024
-366,971	-200,000	-0,010	-0,035
-365,956	-42,738	-0,071	-0,026
-364,942	-200,000	0,004	0,016
-363,927	25,938	0,087	-0,052
-362,912	235,367	-0,132	0,155
-361,898	-200,000	-0,012	-0,132
-360,883	-107,637	-0,086	0,013
-359,869	-200,000	-0,028	0,105
-358,854	113,234	-0,071	-0,062
-357,839	83,962	-0,045	0,035
-356,825	-96,934	0,047	-0,009
-355,810	-200,000	-0,015	0,120
-354,796	39,289	-0,025	-0,016
-353,781	19,612	0,030	0,017
-352,766	-101,046	-0,151	0,026
-351,752	-200,000	0,016	0,091
-350,737	800,000	-0,073	0,154
-349,723	-141,675	-0,094	0,007
-348,708	-64,987	0,063	-0,018
-347,693	-23,742	-0,119	-0,050
-346,679	257,990	-0,124	-0,152
-345,664	-200,000	0,006	-0,083
-344,650	-29,032	0,068	0,028
-343,635	121,649	0,024	0,021
-342,620	201,069	0,179	0,197
-341,606	-200,000	-0,026	0,113
-340,591	-143,779	-0,119	-0,008
-339,577	-200,000	0,011	-0,114
-338,562	87,345	-0,021	0,017
-337,548	-23,760	-0,051	0,022
-336,533	-200,000	-0,004	0,031
-335,518	164,917	0,033	0,033
-334,504	-200,000	-0,019	0,169
-333,489	-85,945	-0,039	0,009
-332,475	236,799	-0,054	-0,064
-331,460	800,000	0,010	0,028
-330,445	-3,257	0,095	0,047
-329,431	387,783	0,036	0,053
-328,416	-63,477	-0,053	0,015
-327,402	585,532	-0,038	0,067
-326,387	231,593	0,030	0,035
-325,372	207,656	0,033	0,037
-324,358	82,509	0,098	-0,076
-323,343	-61,169	-0,093	-0,028
-322,329	545,865	-0,058	0,099
-321,314	273,854	0,046	0,058
-320,299	-157,852	0,055	-0,002
-319,285	-17,023	-0,042	-0,019
-318,270	-85,511	-0,104	-0,023
-317,256	-18,751	0,112	-0,050
-316,241	197,822	-0,064	0,070
-315,226	-102,794	0,055	-0,009
-314,212	-0,686	0,052	-0,026
-313,197	800,000	0,066	0,150
-312,183	-72,628	-0,049	-0,013
-311,168	58,550	-0,116	-0,081
-310,153	-200,000	-0,012	-0,148
-309,139	426,887	0,074	-0,114
-308,124	-168,654	-0,142	0,004
-307,110	-70,378	-0,098	-0,026
-306,095	-200,000	-0,008	0,140
-305,080	-46,589	-0,195	0,068
-304,066	-136,486	-0,081	-0,007
-303,051	800,000	0,042	-0,098
-302,037	-94,416	-0,120	0,023
-301,022	-32,859	0,083	-0,033
-300,008	-200,000	-0,014	0,131
-298,993	-13,382	0,047	-0,022
-297,978	-31,433	0,046	-0,018
-296,964	800,000	0,034	-0,073
-295,949	748,506	0,068	-0,131
-294,935	-200,000	0,005	-0,038
-293,920	83,546	0,050	0,039
-292,905	800,000	0,036	-0,096
-291,891	169,941	-0,021	0,022
-290,876	177,387	0,053	-0,055
-289,862	-36,753	0,183	-0,070
-288,847	35,242	-0,178	0,111
-287,832	83,374	-0,051	-0,039
-286,818	-200,000	0,010	-0,038
-285,803	-77,426	0,132	-0,032
-284,789	800,000	0,019	0,043
-283,774	144,573	0,035	-0,033
-282,759	-129,269	0,034	0,003
-281,745	-122,879	-0,116	-0,013
-280,730	545,868	-0,026	0,044
-279,716	144,046	0,045	0,043
-278,701	2,865	0,156	0,080
-277,686	84,368	0,074	0,058
-276,672	-105,213	-0,077	-0,012
-275,657	-96,909	0,112	0,021
-274,643	-49,992	-0,037	-0,012
-273,628	-200,000	0,003	-0,111
-272,613	318,598	-0,093	0,126
-271,599	346,647	0,048	-0,067
-270,584	-200,000	0,033	0,106
-269,570	372,450	-0,078	0,112
-268,555	-200,000	0,036	-0,115
-267,540	269,954	0,031	-0,039
-266,526	358,977	-0,112	0,160
-265,511	800,000	0,026	-0,051
-264,497	200,002	-0,045	-0,049
-263,482	-200,000	0,052	0,230
-262,467	28,089	0,094	0,056
-261,453	-200,000	0,009	0,046
-260,438	74,478	-0,040	-0,030
-259,424	800,000	-0,049	-0,132
-258,409	800,000	-0,017	-0,036
-257,395	41,277	0,117	-0,075
-256,380	-21,960	0,110	0,047
-255,365	234,949	-0,032	-0,038
-254,351	-129,938	-0,045	0,004
-253,336	-200,000	-0,002	0,111
-252,322	800,000	-0,056	-0,155
-251,307	718,097	0,048	-0,091
-250,292	177,654	0,107	-0,111
-249,278	-158,581	0,048	0,002
-248,263	-43,608	0,153	0,055
-247,249	-105,971	0,045	-0,007
-246,234	654,228	-0,029	-0,054
-245,219	348,550	-0,087	-0,122
-244,205	-200,000	0,038	0,000
-243,190	-200,000	0,046	-0,191
-242,176	174,389	0,056	-0,058
-241,161	12,082	0,010	0,006
-240,146	-200,000	0,014	0,093
-239,132	712,046	0,025	-0,048
-238,117	-200,000	-0,005	-0,034
-237,103	105,549	-0,151	-0,126
-236,088	-200,000	-0,007	0,062
-235,073	-200,000	0,012	0,039
-234,059	-186,156	0,067	-0,001
-233,044	792,262	-0,007	0,013
-232,030	107,978	0,043	-0,036
-231,015	328,412	-0,059	0,081
-230,000	-150,621	-0,040	0,002
-228,986	-200,000	-0,000	-0,056
-227,971	-200,000	0,012	-0,045
-226,957	-61,622	-0,039	0,012
-225,942	-2,628	0,138	-0,068
-224,927	51,281	-0,083	-0,056
-223,913	800,000	-0,011	-0,025
-222,898	-53,544	-0,106	0,034
-221,884	-200,000	-0,030	-0,101
-220,869	-200,000	-0,025	0,175
-219,855	-200,000	0,007	-0,028
-218,840	-200,000	-0,037	0,157
-217,825	-77,667	-0,112	0,027
-216,811	0,081	0,081	-0,041
-215,796	-200,000	-0,029	0,116
-214,782	27,554	0,067	-0,040
-213,767	-40,802	-0,092	-0,033
-212,752	-200,000	0,015	0,137
-211,738	800,000	0,063	0,154
-210,723	-200,000	0,002	-0,073
-209,709	672,375	-0,037	0,069
-208,694	-162,836	-0,072	0,002
-207,679	-169,037	-0,076	-0,002
-206,665	-150,986	0,169	-0,009
-205,650	-8,742	-0,105	0,050
-204,636	-71,029	0,091	-0,024
-203,621	-200,000	0,002	-0,152
-202,606	-63,203	-0,065	-0,019
-201,592	-130,708	-0,129	0,012
-200,577	-108,689	-0,096	-0,014
-199,563	800,000	0,029	-0,086
-198,548	-147,883	-0,141	-0,008
-197,533	197,108	0,044	0,048
-196,519	67,490	0,039	-0,028
-195,504	800,000	-0,020	-0,048
-194,490	-99,638	-0,078	0,014
-193,475	213,455	0,061	-0,069
-192,460	-42,038	0,053	-0,019
-191,446	561,039	0,034	0,058
-190,431	-113,281	-0,111	0,015
-189,417	188,753	0,070	0,074
-188,402	130,333	0,023	0,021
-187,387	-44,724	-0,050	0,017
-186,373	197,161	0,035	-0,038
-185,358	800,000	0,034	-0,076
-184,344	-56,403	0,084	0,026
-183,329	-109,014	-0,062	0,009
-182,315	-200,000	0,004	0,020
-181,300	68,004	-0,025	0,018
-180,285	-97,434	-0,095	-0,017
-179,271	192,956	0,050	-0,054
-178,256	-84,256	0,048	0,011
-177,242	-76,995	0,114	-0,028
-176,227	322,867	0,098	-0,132
-175,212	-78,217	0,044	-0,011
-174,198	750,031	0,050	-0,096
-173,183	-130,197	0,075	-0,007
-172,169	800,000	-0,043	-0,090
-171,154	-200,000	0,021	0,108
-170,139	-200,000	-0,002	0,064
-169,125	-172,002	0,083	-0,002
-168,110	130,174	-0,083	0,075
-167,096	-37,482	-0,038	-0,014
-166,081	800,000	-0,025	-0,066
-165,066	-200,000	0,008	-0,150
-164,052	-16,832	-0,051	-0,023
-163,037	-200,000	-0,004	0,015
-162,023	-200,000	0,000	0,076
-161,008	-146,570	0,034	-0,002
-159,993	-200,000	-0,010	0,084
-158,979	32,861	-0,087	0,053
-157,964	-43,320	0,045	-0,016
-156,950	800,000	0,028	-0,075
-155,935	-104,133	0,058	-0,010
-154,920	43,396	-0,087	0,056
-153,906	-149,487	0,119	0,007
-152,891	93,902	0,030	-0,024
-151,877	231,828	0,077	0,090
-150,862	550,446	-0,019	-0,032
-149,847	800,000	-0,035	-0,110
-148,833	479,238	-0,029	0,047
-147,818	-200,000	0,033	0,163
-146,804	83,315	-0,036	0,028
-145,789	800,000	0,029	-0,081
-144,775	-200,000	0,025	-0,100
-143,760	259,849	0,125	0,153
-142,745	-200,000	-0,017	-0,163
-141,731	322,517	0,015	-0,020
-140,716	17,540	0,156	-0,087
-139,702	800,000	-0,035	0,093
-138,687	-181,314	0,113	-0,002
-137,672	-200,000	-0,039	0,157
-136,658	30,131	-0,092	-0,056
-135,643	800,000	0,012	-0,032
-134,629	658,283	0,036	-0,065
-133,614	-200,000	0,025	0,119
-132,599	63,640	-0,099	0,070
-131,585	-64,719	-0,059	-0,017
-130,570	213,193	-0,065	0,072
-129,556	398,605	-0,036	0,053
-128,541	406,738	-0,056	-0,084
-127,526	-200,000	0,011	0,054
-126,512	-200,000	-0,008	-0,038
-125,497	356,832	0,076	0,107
-124,483	-200,000	-0,000	-0,025
-123,468	101,339	-0,148	0,122
-122,453	139,509	-0,055	0,051
-121,439	691,405	-0,085	-0,159
-120,424	-9,280	0,150	-0,071
-119,410	10,874	0,067	0,036
-118,395	-200,000	-0,039	-0,146
-117,380	87,364	0,060	-0,047
-116,366	-55,465	-0,121	0,038
-115,351	-103,823	-0,089	-0,015
-114,337	-200,000	-0,012	-0,067
-113,322	753,502	-0,032	-0,061
-112,307	-13,470	0,094	-0,043
-111,293	-200,000	-0,006	0,178
-110,278	-172,379	-0,060	-0,001
-109,264	60,290	0,080	-0,056
-108,249	-63,382	0,057	-0,016
-107,234	-200,000	-0,066	-0,229
-106,220	-27,830	-0,072	-0,029
-105,205	-200,000	0,007	-0,224
-104,191	311,019	-0,031	0,042
-103,176	159,115	0,034	0,033
-102,162	-200,000	0,010	0,052
-101,147	-20,780	-0,087	0,038
-100,132	-200,000	-0,030	-0,129
-99,118	412,427	0,039	-0,058
-98,103	141,570	0,023	0,022
-97,089	-200,000	0,005	0,030
-96,074	800,000	-0,025	-0,058
-95,059	-200,000	-0,025	0,163
-94,045	-200,000	0,002	-0,086
-93,030	-50,383	0,076	-0,025
-92,016	-73,489	0,052	-0,013
-91,001	-200,000	-0,008	-0,088
-89,986	-200,000	-0,003	-0,114
-88,972	800,000	-0,017	0,052
-87,957	170,541	-0,116	0,117
-86,943	86,719	0,095	0,074
-85,928	-49,111	0,087	-0,029
-84,913	800,000	-0,034	0,070
-83,899	-54,221	0,040	0,013
-82,884	40,815	0,063	-0,040
-81,870	39,173	-0,033	0,021
-80,855	800,000	-0,026	0,078
-79,840	-70,420	-0,088	-0,023
-78,826	55,020	-0,195	-0,133
-77,811	800,000	-0,062	-0,185
-76,797	464,056	-0,073	0,116
-75,782	-147,635	0,053	0,003
-74,767	800,000	0,037	0,097
-73,753	87,059	-0,111	-0,086
-72,738	800,000	0,051	-0,111
-71,724	646,509	-0,047	-0,086
-70,709	-98,480	0,048	-0,009
-69,694	512,327	-0,056	-0,092
-68,680	-200,000	0,016	0,066
-67,665	-87,022	0,113	0,024
-66,651	-200,000	-0,029	-0,108
-65,636	-22,819	0,128	-0,054
-64,622	113,226	-0,111	0,095
-63,607	-200,000	-0,016	-0,103
-62,592	546,487	0,042	0,071
-61,578	-147,060	0,067	0,004
-60,563	-200,000	0,007	-0,111
-59,549	-85,030	-0,140	0,031
-58,534	80,461	-2,080	-1,579
-57,519	650,999	-0,977	-1,772
-56,505	-200,000	-0,561	-4,671
-55,490	674,886	0,941	1,731
-54,476	800,000	5,259	11,596
-53,461	-200,000	22,310	346,708
-52,446	800,000	757,689	2295,217
-51,432	533,954	1644,690	2759,271
-50,417	67,892	1643,405	1184,023
-49,403	15,590	1520,574	840,345
-48,388	9,839	1446,413	771,734
-47,373	19,193	1438,840	812,235
-46,359	13,309	1427,386	777,968
-45,344	8,183	1423,317	751,478
-44,330	8,040	1421,477	749,799
-43,315	8,020	1419,848	748,816
-42,300	8,004	1418,253	747,868
-41,286	8,091	1416,605	747,379
-40,271	7,973	1415,598	746,261
-39,257	8,000	1414,301	745,677
-38,242	8,088	1412,999	745,376
-37,227	8,074	1412,165	744,838
-36,213	8,081	1410,815	744,132
-35,198	8,037	1409,709	743,313
-34,184	8,086	1408,746	743,005
-33,169	7,954	1407,386	741,640
-32,154	8,043	1406,399	741,504
-31,140	8,003	1405,129	740,618
-30,125	8,068	1404,067	740,335
-29,111	8,081	1402,792	739,694
-28,096	7,997	1401,562	738,622
-27,082	7,951	1400,560	737,852
-26,067	7,983	1399,448	737,387
-25,052	8,020	1398,357	736,951
-24,038	8,017	1397,358	736,383
-23,023	7,973	1396,416	735,655
-22,009	7,979	1395,370	735,101
-20,994	7,952	1394,458	734,469
-19,979	7,946	1393,544	733,928
-18,965	7,939	1392,536	733,334
-17,950	7,931	1391,375	732,660
-16,936	7,898	1390,748	732,145
-15,921	7,827	1389,761	731,267
-14,906	7,889	1388,918	731,081
-13,892	7,904	1387,835	730,553
-12,877	7,912	1387,196	730,224
-11,863	7,904	1386,262	729,667
-10,848	7,860	1385,466	729,014
-9,833	7,840	1384,372	728,318
-8,819	7,793	1383,656	727,697
-7,804	7,803	1382,699	727,213
-6,790	7,813	1381,601	726,653
-5,775	7,784	1380,539	725,930
-4,760	7,813	1379,709	725,600
-3,746	7,851	1378,629	725,178
-2,731	7,799	1377,859	724,505
-1,717	7,835	1376,983	724,177
-0,702	7,831	1375,292	723,244
0,313	11,796	1285,873	694,191
1,327	27,595	677,440	400,942
2,342	42,973	116,494	74,738
3,356	-0,361	16,608	8,291
4,371	3,025	3,875	1,978
5,386	30,921	1,338	0,806
6,400	640,406	0,380	0,684
7,415	294,860	-0,109	-0,141
8,429	-154,398	-0,206	0,010
9,444	-12,908	-0,391	-0,178
10,459	284,916	-0,259	-0,329
11,473	55,246	-0,364	-0,248
12,488	-9,029	-0,245	-0,115
13,502	36,682	-0,355	-0,220
14,517	10,429	-0,231	-0,123
15,531	167,266	-0,227	-0,227
16,546	73,089	-0,305	-0,224
17,561	420,492	-0,202	-0,305
18,575	-189,908	-0,262	0,002
19,590	800,000	-0,138	-0,307
20,604	542,893	-0,102	-0,171
21,619	82,020	-0,405	-0,308
22,634	-2,672	-0,670	-0,329
23,648	190,786	-0,369	-0,391
24,663	61,357	-0,392	-0,274
25,677	26,175	-0,347	-0,204
26,692	-63,586	-0,353	-0,101
27,707	90,548	-0,319	-0,251
28,721	135,995	-0,393	-0,360
29,736	224,306	-0,339	-0,385
30,750	141,473	-0,293	-0,272
31,765	67,924	-0,412	-0,296
32,780	50,561	-0,341	-0,226
33,794	45,158	-0,350	-0,226
34,809	30,761	-0,382	-0,229
35,823	136,251	-0,380	-0,348
36,838	33,029	-0,368	-0,224
37,853	109,749	-0,382	-0,322
38,867	106,124	-0,383	-0,319
39,882	95,093	-0,347	-0,278
40,896	14,822	-0,351	-0,192
41,911	-15,228	-0,332	-0,149
42,926	-27,136	-0,322	-0,131
43,940	84,467	-0,397	-0,305
44,955	96,472	-0,359	-0,289
45,969	302,879	-0,256	-0,334
46,984	171,382	-0,291	-0,293
47,999	7,666	-0,364	-0,191
49,013	107,087	-0,256	-0,214
50,028	447,201	-0,101	-0,156
51,042	1,117	-0,279	-0,140
52,057	-72,403	-0,368	-0,095
53,071	25,061	-0,336	-0,195
54,086	346,441	-0,278	-0,385
55,101	14,105	-0,340	-0,185
56,115	-44,651	-0,301	-0,105
57,130	-57,028	-0,493	-0,152
58,144	-39,112	-0,432	-0,159
59,159	211,202	-0,322	-0,356
60,174	49,420	-0,438	-0,289
61,188	-0,219	-0,418	-0,208
62,203	-13,877	-0,271	-0,122
63,217	79,465	-0,244	-0,183
64,232	14,259	-0,321	-0,175
65,247	201,657	-0,251	-0,272
66,261	376,435	-0,164	-0,236
67,276	34,984	-0,405	-0,248
68,290	52,165	-0,341	-0,228
69,305	31,585	-0,272	-0,164
70,320	116,884	-0,251	-0,216
71,334	260,513	-0,209	-0,253
72,349	43,409	-0,286	-0,183
73,363	44,026	-0,317	-0,203
74,378	-6,236	-0,403	-0,192
75,393	63,216	-0,237	-0,166
76,407	94,374	-0,230	-0,183
77,422	84,283	-0,296	-0,227
78,436	99,254	-0,199	-0,161
79,451	121,727	-0,268	-0,234
80,466	90,378	-0,344	-0,269
81,480	12,605	-0,358	-0,193
82,495	-47,300	-0,322	-0,109
83,509	35,784	-0,299	-0,183
84,524	-60,386	-0,248	-0,073
85,539	-30,526	-0,242	-0,096
86,553	-165,271	-0,401	-0,012
87,568	86,303	-0,292	-0,225
88,582	111,920	-0,325	-0,275
89,597	89,650	-0,368	-0,287
90,611	-12,421	-0,289	-0,131
91,626	123,556	-0,240	-0,210
92,641	-64,662	-0,252	-0,071
93,655	27,819	-0,371	-0,218
94,670	43,622	-0,275	-0,175
95,684	-28,865	-0,485	-0,194
96,699	398,856	-0,133	-0,195
97,714	-64,885	-0,197	-0,055
98,728	18,250	-0,191	-0,106
99,743	10,121	-0,240	-0,127
100,757	1,094	-0,315	-0,157
101,772	199,051	-0,205	-0,220
102,787	-23,437	-0,332	-0,139
103,801	216,261	-0,138	-0,154
104,816	196,656	-0,207	-0,220
105,830	332,313	-0,176	-0,238
106,845	168,808	-0,113	-0,112
107,860	332,820	-0,140	-0,189
108,874	142,539	-0,206	-0,191
109,889	-144,538	-0,293	-0,019
110,903	218,440	-0,197	-0,220
111,918	133,240	-0,186	-0,168
112,933	45,220	-0,275	-0,176
113,947	7,630	-0,209	-0,109
114,962	149,031	-0,182	-0,172
115,976	130,485	-0,245	-0,220
116,991	371,927	-0,226	-0,321
118,006	-3,662	-0,230	-0,111
119,020	-19,495	-0,244	-0,105
120,035	132,819	-0,108	-0,097
121,049	-105,742	-0,246	0,038
122,064	-88,779	-0,215	0,044
123,079	144,091	-0,150	-0,140
124,093	106,983	-0,279	-0,231
125,108	48,449	-0,241	-0,157
126,122	-20,932	-0,316	-0,134
127,137	-91,777	-0,294	-0,058
128,151	-92,066	-0,212	-0,041
129,166	-5,054	-0,266	0,127
130,181	95,011	-0,211	-0,168
131,195	141,917	-0,258	-0,238
132,210	-24,281	-0,382	-0,158
133,224	97,905	-0,241	-0,193
134,239	70,207	-0,143	-0,103
135,254	148,052	-0,222	-0,208
136,268	14,506	-0,244	-0,132
137,283	264,350	-0,250	-0,303
138,297	626,798	-0,124	-0,220
139,312	170,537	-0,259	-0,259
140,327	-20,545	-0,190	-0,081
141,341	2,887	-0,300	-0,151
142,356	34,357	-0,223	-0,135
143,370	-45,547	-0,315	-0,108
144,385	-81,909	-0,244	-0,055
145,400	72,678	-0,298	-0,216
146,414	103,770	-0,235	-0,192
147,429	256,060	-0,179	-0,214
148,443	161,215	-0,204	-0,199
149,458	238,618	-0,222	-0,257
150,473	89,458	-0,159	-0,123
151,487	-11,056	-0,305	-0,139
152,502	17,505	-0,204	-0,112
153,516	-78,160	-0,235	-0,056
154,531	31,889	-0,265	-0,158
155,546	-200,000	-0,027	-0,116
156,560	100,317	-0,282	-0,228
157,575	228,276	-0,108	-0,122
158,589	-7,841	-0,178	-0,083
159,604	800,000	-0,095	-0,199
160,619	-50,882	-0,379	-0,123
161,633	150,026	-0,296	-0,279
162,648	15,740	-0,228	-0,124
163,662	142,624	-0,171	-0,158
164,677	-34,052	-0,122	-0,046
165,692	68,488	-0,210	-0,150
166,706	-60,988	-0,246	-0,072
167,721	6,115	-0,246	-0,126
168,735	-15,791	-0,229	-0,101
169,750	77,219	-0,198	-0,146
170,764	130,083	-0,146	-0,130
171,779	-21,729	-0,206	-0,087
172,794	430,022	-0,224	-0,338
173,808	68,904	-0,184	-0,131
174,823	436,314	-0,284	-0,431
175,837	371,280	-0,148	-0,208
176,852	-11,828	-0,196	-0,089
177,867	66,167	-0,171	-0,120
178,881	-92,478	-0,164	-0,032
179,896	224,615	-0,156	-0,175
180,910	-134,462	-0,071	0,006
181,925	1,100	-0,339	-0,168
182,940	227,551	-0,206	-0,233
183,954	65,317	-0,162	-0,113
184,969	30,386	-0,231	-0,136
185,983	-180,247	-0,272	0,004
186,998	-159,288	-0,187	-0,007
188,013	103,379	-0,184	-0,150
189,027	40,381	-0,251	-0,156
190,042	-26,461	-0,344	-0,139
191,056	-54,368	-0,312	-0,098
192,071	22,190	-0,194	-0,110
193,086	-59,677	-0,160	-0,047
194,100	-179,159	-0,266	-0,004
195,115	19,015	-0,221	-0,123
196,129	93,157	-0,230	-0,180
197,144	241,901	-0,182	-0,212
198,159	355,838	-0,118	-0,163
199,173	350,189	-0,161	-0,221
200,188	800,000	-0,138	-0,264
201,202	302,764	-0,093	-0,119
202,217	629,518	-0,064	-0,113
203,232	290,598	-0,254	-0,320
204,246	359,914	-0,177	-0,246
205,261	169,209	-0,286	-0,282
206,275	208,242	-0,179	-0,194
207,290	263,217	-0,087	-0,105
208,304	211,677	-0,211	-0,230
209,319	-138,025	-0,191	-0,014
210,334	147,535	-0,194	-0,181
211,348	32,316	-0,260	-0,155
212,363	147,920	-0,278	-0,259
213,377	800,000	-0,086	-0,253
214,392	347,126	-0,143	-0,195
215,407	548,750	-0,095	-0,158
216,421	800,000	-0,052	-0,119
217,436	-28,686	-0,203	-0,081
218,450	169,513	-0,218	-0,216
219,465	207,849	-0,157	-0,170
220,480	-112,275	-0,201	-0,028
221,494	-11,839	-0,059	0,027
222,509	-21,808	-0,152	-0,064
223,523	98,642	-0,170	-0,135
224,538	-114,218	-0,200	0,026
225,553	67,355	-0,255	-0,180
226,567	-153,515	-0,091	0,004
227,582	101,483	-0,170	-0,137
228,596	272,847	-0,143	-0,175
229,611	614,437	-0,085	-0,148
230,626	-62,390	-0,138	0,039
231,640	-36,018	-0,231	-0,086
232,655	160,590	-0,144	-0,139
233,669	800,000	-0,089	-0,214
234,684	203,842	-0,204	-0,219
235,699	600,764	-0,118	-0,203
236,713	648,334	-0,063	-0,113
237,728	-75,022	-0,214	-0,053
238,742	47,362	-0,135	-0,087
239,757	7,876	-0,308	-0,159
240,772	158,183	-0,210	-0,201
241,786	292,074	-0,170	-0,214
242,801	356,193	-0,182	-0,251
243,815	-67,864	-0,146	-0,039
244,830	216,814	-0,217	-0,239
245,844	-200,000	0,001	-0,086
246,859	502,745	-0,114	-0,183
247,874	-9,152	-0,230	-0,106
248,888	135,545	-0,109	-0,098
249,903	298,115	-0,127	-0,161
250,917	-141,284	-0,175	0,012
251,932	374,534	-0,108	-0,152
252,947	106,377	-0,200	-0,163
253,961	419,869	-0,161	-0,238
254,976	37,255	-0,199	-0,121
255,990	414,956	-0,137	-0,202
257,005	95,949	-0,121	-0,095
258,020	40,340	-0,198	-0,123
259,034	285,656	-0,090	-0,112
260,049	48,369	-0,085	-0,055
261,063	-17,740	-0,202	-0,087
262,078	-125,702	-0,133	0,014
263,093	-125,294	-0,220	-0,023
264,107	-74,558	-0,284	-0,070
265,122	539,568	-0,066	-0,109
266,136	11,219	-0,152	-0,080
267,151	290,869	-0,060	-0,075
268,166	43,121	-0,238	-0,149
269,180	-165,335	-0,199	0,006
270,195	-125,581	-0,271	-0,028
271,209	-144,939	-0,089	0,005
272,224	146,239	-0,182	-0,168
273,239	636,791	-0,165	-0,290
274,253	780,994	-0,045	-0,084
275,268	-81,877	-0,152	-0,034
276,282	395,207	-0,117	-0,168
277,297	9,802	-0,160	-0,083
278,312	800,000	-0,078	-0,192
279,326	-0,714	-0,144	-0,070
280,341	-150,987	-0,161	-0,008
281,355	49,712	-0,169	-0,109
282,370	-9,738	-0,235	-0,107
283,384	14,020	-0,142	-0,076
284,399	713,608	-0,112	-0,205
285,414	166,253	-0,261	-0,254
286,428	290,006	-0,071	-0,089
287,443	-155,046	-0,237	-0,010
288,457	103,731	-0,062	-0,050
289,472	88,636	-0,155	-0,118
290,487	267,345	-0,146	-0,176
291,501	353,511	-0,202	-0,276
292,516	11,789	-0,186	-0,098
293,530	770,145	-0,091	-0,171
294,545	-133,781	-0,161	-0,014
295,560	-20,684	-0,141	-0,059
296,574	162,086	-0,199	-0,192
297,589	634,487	-0,160	-0,280
298,603	73,029	-0,185	-0,133
299,618	107,403	-0,161	-0,132
300,633	-40,748	-0,302	-0,107
301,647	14,160	-0,181	-0,096
302,662	-114,932	-0,179	-0,023
303,676	-55,134	-0,241	-0,074
304,691	36,257	-0,213	-0,129
305,706	-153,740	-0,146	0,007
306,720	335,332	-0,181	-0,241
307,735	800,000	-0,069	-0,164
308,749	144,693	-0,079	0,073
309,764	800,000	-0,057	-0,134
310,779	6,632	-0,169	-0,086
311,793	-6,103	-0,184	-0,086
312,808	-200,000	-0,013	-0,123
313,822	800,000	-0,087	-0,186
314,837	194,928	-0,132	-0,137
315,852	152,848	-0,076	-0,071
316,866	53,593	-0,128	-0,084
317,881	672,449	-0,067	-0,119
318,895	39,667	-0,102	0,063
319,910	56,216	-0,125	-0,083
320,925	-116,052	-0,166	-0,021
321,939	15,725	-0,223	-0,120
322,954	-200,000	-0,121	-0,000
323,968	213,668	-0,083	-0,090
324,983	800,000	-0,053	-0,106
325,997	168,097	-0,164	-0,160
327,012	793,532	-0,099	-0,188
328,027	-77,123	-0,192	-0,046
329,041	-1,368	-0,101	-0,049
330,056	-200,000	0,000	-0,083
331,070	355,732	-0,018	-0,024
332,085	781,853	-0,072	-0,136
333,100	250,278	-0,066	-0,077
334,114	642,729	-0,119	-0,208
335,129	-34,745	-0,304	-0,113
336,143	-95,700	-0,125	-0,023
337,158	-77,275	-0,129	-0,031
338,173	-96,741	-0,126	-0,022
339,187	417,049	-0,089	-0,130
340,202	361,543	-0,058	-0,080
341,216	63,178	-0,109	-0,075
342,231	-200,000	-0,038	-0,134
343,246	-124,175	-0,117	0,012
344,260	126,965	-0,218	-0,189
345,275	303,676	-0,071	-0,091
346,289	-200,000	-0,055	-0,207
347,304	55,668	-0,138	-0,091
348,319	-200,000	-0,069	-0,273
349,333	-74,663	-0,289	-0,070
350,348	330,904	-0,149	-0,197
351,362	80,877	-0,185	-0,137
352,377	-102,339	-0,081	-0,013
353,392	-115,222	-0,217	-0,028
354,406	233,922	-0,163	-0,183
355,421	208,105	1308,894	1399,499
356,435	160,114	1468,847	1399,934
