DTS Sentinel unit serial number:	SN410029Multiplexer serial number:	ORYXHardware model number:	OX2-SRSoftware version number:	ORYX F/W v4,00 Oryx Data Collector v3.7.2.0data status	okinstallation	B3 Nyhavnadifferential loss correction	single-endedforward channel	channel 1reverse channel	N/Adate	2023/12/04time	00:22:30forward acquisition time	300,00reverse acquisition time	0,00gamma	499,1914k internal	0,3203k external	0,3203temperature offset calibration	1,0000default loss term (dB/km)	0,3820temperature slope calibration	1,0000multiplexer offset coefficient	1,0000multiplexer slope coefficient	1,0000fibre end	0,00T internal ref (°C)	12,69T ext. ref 1 (°C)	-2,56T ext. ref 2 (°C)	-2,60length (m)	temperature (°C)	Stokes	anti-Stokes-744,400	25,020	-0,216	-0,130
-743,385	-200,000	-0,058	0,336
-742,371	800,000	0,082	-0,230
-741,356	-200,000	0,073	0,275
-740,342	435,329	-0,122	-0,194
-739,327	-200,000	0,015	0,317
-738,312	5,011	-0,221	-0,118
-737,298	-200,000	-0,059	0,196
-736,283	-200,000	-0,020	-0,122
-735,269	-200,000	0,005	0,344
-734,254	94,053	-0,252	-0,207
-733,239	800,000	-0,065	0,201
-732,225	-183,369	-0,154	-0,002
-731,210	372,823	-0,095	0,141
-730,196	-112,484	-0,102	-0,015
-729,181	236,380	-0,063	-0,076
-728,167	-33,113	0,050	-0,020
-727,152	-28,833	0,065	0,027
-726,137	-3,061	-0,077	0,039
-725,123	38,194	-0,147	-0,095
-724,108	-200,000	-0,010	-0,156
-723,094	536,136	-0,052	-0,089
-722,079	800,000	0,055	-0,142
-721,064	362,646	0,105	-0,154
-720,050	-55,003	-0,073	-0,024
-719,035	725,987	-0,089	0,173
-718,021	-200,000	0,043	0,138
-717,006	-19,461	-0,180	-0,081
-715,991	208,526	-0,058	0,066
-714,977	-72,291	-0,054	0,014
-713,962	-58,603	0,035	-0,011
-712,948	19,199	0,103	0,060
-711,933	224,967	-0,101	0,119
-710,918	250,223	0,123	-0,152
-709,904	-200,000	-0,033	0,118
-708,889	371,500	-0,090	-0,134
-707,875	-40,267	-0,096	-0,036
-706,860	33,945	0,056	0,035
-705,845	372,758	0,099	-0,147
-704,831	800,000	0,028	-0,069
-703,816	368,135	0,031	-0,046
-702,802	-92,974	-0,103	0,021
-701,787	-81,450	-0,172	-0,041
-700,772	-30,354	-0,027	0,011
-699,758	84,554	0,048	-0,038
-698,743	-135,685	0,049	0,004
-697,729	36,717	-0,093	-0,060
-696,714	-54,962	-0,103	0,033
-695,699	487,583	-0,044	-0,073
-694,685	-139,405	-0,047	-0,004
-693,670	800,000	-0,043	-0,095
-692,656	-200,000	-0,010	-0,159
-691,641	800,000	-0,026	0,078
-690,627	-23,948	0,042	-0,018
-689,612	-66,109	-0,123	0,035
-688,597	-87,655	-0,070	-0,015
-687,583	-200,000	-0,006	-0,088
-686,568	221,381	0,047	-0,055
-685,554	-200,000	-0,014	0,056
-684,539	-200,000	0,015	-0,061
-683,524	595,368	-0,033	-0,059
-682,510	-174,851	0,068	-0,001
-681,495	262,982	-0,027	0,034
-680,481	31,727	0,094	-0,058
-679,466	-36,474	-0,065	0,025
-678,451	-200,000	-0,010	-0,085
-677,437	-200,000	-0,009	-0,084
-676,422	-139,178	-0,100	0,008
-675,408	295,029	0,024	0,031
-674,393	800,000	0,031	-0,069
-673,378	-12,245	-0,066	0,031
-672,364	-200,000	-0,012	0,133
-671,349	13,660	-0,105	-0,059
-670,335	-52,022	0,090	-0,030
-669,320	-200,000	-0,007	0,074
-668,305	-200,000	0,001	0,061
-667,291	800,000	-0,048	0,112
-666,276	19,784	-0,098	0,057
-665,262	72,703	-0,086	-0,065
-664,247	-200,000	-0,026	-0,096
-663,232	-107,563	0,131	-0,021
-662,218	87,412	-0,043	-0,034
-661,203	-141,183	-0,121	0,009
-660,189	-200,000	-0,018	-0,067
-659,174	196,745	-0,096	0,106
-658,159	81,246	-0,062	-0,048
-657,145	-25,897	0,042	-0,018
-656,130	-138,003	-0,022	0,002
-655,116	-200,000	-0,014	-0,072
-654,101	337,607	0,116	0,164
-653,086	228,259	-0,026	-0,030
-652,072	116,723	-0,146	-0,129
-651,057	-8,152	0,102	-0,050
-650,043	800,000	-0,044	-0,105
-649,028	11,850	0,091	0,050
-648,014	-26,604	0,056	0,024
-646,999	-92,617	0,051	0,010
-645,984	83,180	0,051	0,040
-644,970	471,018	0,041	-0,066
-643,955	-1,560	-0,097	-0,049
-642,941	800,000	-0,053	-0,153
-641,926	86,751	-0,053	-0,042
-640,911	12,234	0,071	0,039
-639,897	104,820	-0,089	0,076
-638,882	484,226	0,006	0,010
-637,868	-65,095	0,055	-0,016
-636,853	-167,672	-0,021	0,001
-635,838	-73,202	-0,059	-0,016
-634,824	-200,000	-0,009	-0,147
-633,809	-51,165	0,146	0,049
-632,795	-82,122	-0,032	-0,008
-631,780	800,000	0,039	-0,079
-630,765	196,176	0,090	0,099
-629,751	157,033	-0,063	0,063
-628,736	155,940	-0,100	-0,100
-627,722	31,641	-0,029	-0,018
-626,707	65,548	-0,010	-0,007
-625,692	-200,000	0,017	0,083
-624,678	800,000	-0,020	0,049
-623,663	-131,565	-0,042	-0,004
-622,649	-7,709	-0,071	-0,035
-621,634	-59,558	-0,101	-0,031
-620,619	-90,916	0,075	0,015
-619,605	191,463	0,058	-0,063
-618,590	48,233	0,067	-0,045
-617,576	100,944	0,087	0,074
-616,561	-195,217	0,115	-0,001
-615,546	800,000	-0,041	-0,104
-614,532	418,038	0,042	0,066
-613,517	-200,000	0,004	-0,114
-612,503	-11,643	0,009	-0,004
-611,488	-200,000	-0,019	0,138
-610,474	375,766	0,047	0,070
-609,459	-42,942	-0,186	-0,068
-608,444	-3,964	-0,122	0,061
-607,430	-158,375	-0,019	0,001
-606,415	436,811	0,013	-0,021
-605,401	-83,644	0,113	-0,026
-604,386	122,709	0,087	-0,079
-603,371	-4,322	0,119	0,059
-602,357	131,887	-0,009	0,009
-601,342	68,425	0,075	0,055
-600,328	160,132	-0,030	-0,030
-599,313	-105,978	-0,057	0,009
-598,298	-200,000	-0,005	0,019
-597,284	-57,183	0,060	0,019
-596,269	509,724	0,031	0,052
-595,255	216,326	0,067	-0,077
-594,240	31,931	-0,064	0,040
-593,225	-69,267	-0,123	0,034
-592,211	779,462	-0,025	0,049
-591,196	-200,000	0,027	0,113
-590,182	-200,000	0,015	0,118
-589,167	131,195	0,054	-0,050
-588,152	-46,546	-0,084	-0,030
-587,138	-69,420	0,053	0,015
-586,123	357,674	0,039	0,056
-585,109	248,938	0,037	-0,045
-584,094	526,444	-0,053	-0,090
-583,079	407,105	0,060	-0,092
-582,065	-200,000	0,006	0,052
-581,050	-70,900	-0,137	-0,037
-580,036	-200,000	0,023	0,136
-579,021	800,000	-0,026	-0,068
-578,006	-200,000	0,014	-0,061
-576,992	800,000	0,022	-0,070
-575,977	-200,000	-0,008	0,027
-574,963	196,182	-0,061	0,067
-573,948	28,137	0,176	0,107
-572,934	673,111	0,024	-0,044
-571,919	-200,000	0,010	0,085
-570,904	-71,484	0,011	-0,003
-569,890	800,000	-0,019	0,044
-568,875	-200,000	-0,012	0,041
-567,861	71,791	0,054	0,040
-566,846	199,356	-0,082	0,090
-565,831	603,113	-0,023	-0,042
-564,817	229,111	-0,100	0,118
-563,802	-200,000	-0,060	-0,211
-562,788	-151,351	-0,095	-0,005
-561,773	616,234	0,100	-0,182
-560,758	800,000	0,041	0,129
-559,744	-61,172	-0,039	0,012
-558,729	587,807	0,044	0,078
-557,715	800,000	-0,025	-0,049
-556,700	283,849	-0,086	-0,111
-555,685	197,698	-0,055	-0,060
-554,671	307,507	0,033	-0,044
-553,656	-200,000	-0,035	-0,127
-552,642	89,904	0,083	0,067
-551,627	32,682	0,047	-0,029
-550,612	174,585	0,087	0,091
-549,598	800,000	0,037	-0,106
-548,583	-200,000	-0,039	0,126
-547,569	-98,533	-0,055	-0,010
-546,554	800,000	-0,028	0,072
-545,539	11,413	0,025	-0,014
-544,525	-200,000	-0,012	0,057
-543,510	120,084	-0,038	0,034
-542,496	-134,959	-0,137	0,012
-541,481	367,117	0,042	0,062
-540,466	53,330	0,134	0,093
-539,452	-200,000	-0,022	0,089
-538,437	-15,544	0,195	-0,089
-537,423	-37,783	-0,067	0,026
-536,408	800,000	-0,036	-0,111
-535,393	314,760	0,046	0,063
-534,379	-200,000	-0,001	-0,022
-533,364	570,744	-0,010	-0,017
-532,350	-118,099	0,083	0,011
-531,335	70,305	-0,102	0,076
-530,321	-104,356	0,069	0,011
-529,306	88,708	-0,125	-0,100
-528,291	-99,904	-0,107	0,019
-527,277	205,218	-0,078	0,087
-526,262	-200,000	0,004	0,069
-525,248	688,595	0,021	0,040
-524,233	170,262	-0,086	0,089
-523,218	800,000	0,036	0,083
-522,204	-200,000	0,008	0,096
-521,189	800,000	0,034	-0,078
-520,175	512,406	-0,058	-0,097
-519,160	-43,766	-0,027	-0,010
-518,145	-77,005	0,127	-0,032
-517,131	15,154	0,067	0,038
-516,116	-87,214	0,151	0,033
-515,102	-186,595	-0,040	-0,000
-514,087	-49,366	-0,091	0,031
-513,072	10,191	0,111	-0,060
-512,058	138,365	-0,075	-0,071
-511,043	45,835	-0,162	0,108
-510,029	22,358	0,008	-0,005
-509,014	-200,000	0,002	-0,020
-507,999	-99,702	0,025	0,004
-506,985	800,000	-0,078	-0,157
-505,970	-158,224	-0,203	-0,008
-504,956	800,000	-0,090	-0,183
-503,941	800,000	-0,074	-0,159
-502,926	-177,829	0,023	-0,000
-501,912	-200,000	0,008	0,084
-500,897	393,833	0,024	0,036
-499,883	269,979	-0,093	-0,119
-498,868	800,000	0,031	-0,086
-497,853	230,627	-0,059	-0,070
-496,839	-5,707	0,057	0,028
-495,824	693,297	-0,079	0,150
-494,810	-200,000	0,011	0,079
-493,795	-2,932	0,129	0,065
-492,781	-200,000	-0,001	-0,156
-491,766	251,831	0,094	-0,115
-490,751	236,853	-0,037	0,045
-489,737	0,974	0,104	0,053
-488,722	-85,937	0,009	0,002
-487,708	-200,000	-0,050	0,163
-486,693	-200,000	-0,000	-0,010
-485,678	-52,873	0,058	0,019
-484,664	788,055	-0,050	-0,099
-483,649	-200,000	-0,014	-0,170
-482,635	-25,590	-0,148	0,063
-481,620	800,000	0,051	0,115
-480,605	184,629	0,046	0,049
-479,591	-46,936	0,150	0,053
-478,576	-9,884	-0,135	0,064
-477,562	31,106	-0,086	-0,053
-476,547	-200,000	-0,019	-0,090
-475,532	68,504	0,173	-0,128
-474,518	154,044	-0,056	-0,055
-473,503	310,786	-0,050	-0,068
-472,489	-200,000	-0,001	0,025
-471,474	-200,000	0,003	-0,055
-470,459	-61,689	-0,144	0,043
-469,445	448,086	-0,011	0,018
-468,430	333,983	-0,048	0,067
-467,416	-200,000	0,017	0,116
-466,401	-4,825	0,053	0,026
-465,386	20,628	0,102	-0,059
-464,372	237,465	-0,038	0,046
-463,357	-115,951	-0,125	-0,017
-462,343	124,365	0,049	0,044
-461,328	-200,000	-0,043	0,000
-460,313	-200,000	-0,025	-0,189
-459,299	-74,939	0,123	0,031
-458,284	-17,009	0,051	-0,023
-457,270	-119,625	0,109	-0,013
-456,255	-39,107	-0,068	-0,026
-455,241	-200,000	0,004	-0,133
-454,226	186,600	-0,024	0,026
-453,211	-64,028	0,105	-0,031
-452,197	318,416	0,061	0,083
-451,182	-200,000	0,038	-0,164
-450,168	-200,000	-0,026	0,095
-449,153	20,981	-0,031	0,018
-448,138	272,220	0,038	-0,048
-447,124	338,210	0,109	-0,153
-446,109	800,000	0,032	-0,073
-445,095	129,647	0,082	0,075
-444,080	319,314	0,069	0,095
-443,065	-38,649	0,023	0,009
-442,051	421,602	-0,065	0,101
-441,036	-200,000	-0,006	-0,035
-440,022	-200,000	0,012	-0,066
-439,007	-200,000	-0,009	0,091
-437,992	-47,839	0,107	0,037
-436,978	-200,000	-0,013	0,166
-435,963	63,309	-0,021	-0,015
-434,949	49,965	-0,054	-0,036
-433,934	-46,008	0,030	0,010
-432,919	-200,000	0,000	-0,051
-431,905	167,317	-0,059	-0,060
-430,890	10,330	0,067	0,036
-429,876	76,648	-0,039	-0,029
-428,861	-140,863	0,103	-0,008
-427,846	250,142	0,102	0,125
-426,832	11,746	-0,094	-0,052
-425,817	776,265	-0,043	-0,085
-424,803	223,269	0,102	0,119
-423,788	52,727	-0,030	0,021
-422,773	-200,000	-0,008	0,107
-421,759	800,000	0,036	0,074
-420,744	-36,119	0,062	0,024
-419,730	-154,356	0,131	0,006
-418,715	75,959	0,034	-0,026
-417,701	-200,000	0,004	-0,071
-416,686	-78,689	-0,061	0,015
-415,671	-140,351	-0,088	0,007
-414,657	11,114	0,107	-0,059
-413,642	-200,000	-0,002	-0,134
-412,628	205,878	-0,145	-0,162
-411,613	6,367	0,097	-0,051
-410,598	314,292	0,041	0,056
-409,584	-16,895	0,106	0,048
-408,569	-17,062	0,062	-0,028
-407,555	-200,000	0,010	0,034
-406,540	-200,000	0,020	0,132
-405,525	-200,000	-0,000	-0,092
-404,511	570,545	-0,092	-0,160
-403,496	12,556	-0,092	0,051
-402,482	-47,834	-0,072	-0,025
-401,467	-49,917	0,096	0,032
-400,452	527,366	-0,040	0,067
-399,438	-200,000	-0,012	-0,075
-398,423	800,000	-0,021	0,049
-397,409	-169,658	-0,095	0,002
-396,394	49,627	-0,050	-0,034
-395,379	64,227	-0,097	0,070
-394,365	436,129	0,042	0,066
-393,350	185,417	0,080	-0,086
-392,336	39,797	-0,130	0,083
-391,321	-107,685	-0,081	-0,012
-390,306	-200,000	0,005	-0,021
-389,292	42,531	-0,172	0,112
-388,277	-61,579	0,178	-0,053
-387,263	-200,000	0,038	0,160
-386,248	800,000	-0,035	0,097
-385,233	-140,997	-0,099	-0,007
-384,219	-200,000	0,023	0,148
-383,204	354,576	-0,017	-0,025
-382,190	-17,812	0,097	0,043
-381,175	-200,000	0,052	0,000
-380,160	-111,233	0,082	0,012
-379,146	-124,256	0,054	-0,006
-378,131	270,736	-0,054	0,068
-377,117	67,927	-0,074	-0,054
-376,102	800,000	0,026	-0,072
-375,088	-10,193	-0,085	-0,040
-374,073	-162,797	-0,100	-0,003
-373,058	-200,000	0,003	0,065
-372,044	119,009	0,087	-0,077
-371,029	-200,000	-0,056	-0,000
-370,015	-146,429	0,088	0,005
-369,000	-200,000	0,014	0,127
-367,985	800,000	0,054	0,115
-366,971	277,810	0,019	0,024
-365,956	28,590	0,090	-0,054
-364,942	-193,648	-0,085	-0,001
-363,927	-32,090	0,055	-0,022
-362,912	-200,000	-0,005	-0,055
-361,898	-200,000	-0,026	-0,100
-360,883	800,000	0,041	-0,096
-359,869	3,114	-0,020	0,010
-358,854	-41,779	0,029	-0,011
-357,839	36,642	-0,150	-0,095
-356,825	-18,508	0,179	0,080
-355,810	136,869	0,112	0,105
-354,796	40,929	0,100	0,064
-353,781	789,588	-0,030	-0,060
-352,766	-200,000	0,015	-0,097
-351,752	114,706	0,099	0,086
-350,737	-166,606	-0,238	0,007
-349,723	122,425	-0,047	0,042
-348,708	90,580	0,130	0,104
-347,693	-126,499	0,015	-0,002
-346,679	620,828	0,015	-0,027
-345,664	-127,412	0,078	0,008
-344,650	800,000	-0,004	-0,012
-343,635	-200,000	0,000	0,103
-342,620	-200,000	0,006	0,130
-341,606	800,000	-0,032	0,063
-340,591	-174,388	0,264	0,005
-339,577	464,772	0,046	-0,074
-338,562	-200,000	0,002	0,167
-337,548	205,696	0,039	0,043
-336,533	-71,594	0,091	0,024
-335,518	-109,252	0,112	0,017
-334,504	-55,111	0,080	-0,026
-333,489	169,863	-0,096	-0,099
-332,475	-200,000	0,041	-0,162
-331,460	150,888	-0,180	-0,176
-330,445	-200,000	-0,021	0,160
-329,431	-141,791	-0,171	-0,012
-328,416	800,000	0,060	0,127
-327,402	-200,000	-0,007	0,102
-326,387	90,445	-0,172	0,137
-325,372	-23,649	-0,081	0,034
-324,358	380,095	-0,074	-0,109
-323,343	800,000	0,090	-0,201
-322,329	25,040	0,047	-0,028
-321,314	-71,370	0,168	-0,045
-320,299	137,562	-0,093	0,087
-319,285	640,082	0,036	0,065
-318,270	167,767	0,100	-0,101
-317,256	70,489	-0,050	-0,037
-316,241	86,455	-0,044	-0,034
-315,226	5,869	0,075	-0,039
-314,212	170,916	0,043	-0,044
-313,197	145,996	-0,048	0,046
-312,183	23,975	0,088	-0,052
-311,168	-14,646	-0,085	0,039
-310,153	-17,004	-0,028	0,013
-309,139	-60,926	-0,027	0,008
-308,124	-200,000	0,031	0,134
-307,110	800,000	-0,026	-0,055
-306,095	351,234	-0,057	-0,080
-305,080	800,000	-0,034	-0,104
-304,066	-74,366	-0,125	0,032
-303,051	-100,205	-0,111	-0,020
-302,037	30,025	-0,027	0,016
-301,022	-200,000	0,022	-0,110
-300,008	800,000	-0,027	-0,083
-298,993	201,739	0,075	0,083
-297,978	-50,520	0,096	0,032
-296,964	-200,000	-0,009	-0,045
-295,949	-200,000	-0,031	-0,142
-294,935	45,895	0,033	0,022
-293,920	-200,000	0,002	0,044
-292,905	-200,000	-0,002	-0,107
-291,891	-97,717	0,091	-0,017
-290,876	106,183	-0,022	-0,019
-289,862	-35,546	0,077	-0,030
-288,847	51,781	-0,107	0,072
-287,832	800,000	-0,021	-0,062
-286,818	-30,673	-0,098	0,040
-285,803	-22,557	0,134	0,058
-284,789	-12,448	0,164	0,076
-283,774	145,770	0,020	-0,019
-282,759	17,397	-0,169	-0,095
-281,745	13,414	0,132	0,073
-280,730	-200,000	0,003	-0,075
-279,716	-79,768	-0,079	-0,019
-278,701	-65,985	0,132	0,037
-277,686	-98,734	-0,084	0,015
-276,672	173,041	-0,092	-0,094
-275,657	159,731	-0,113	-0,112
-274,643	379,734	-0,076	-0,112
-273,628	-200,000	0,004	0,117
-272,613	800,000	0,009	0,020
-271,599	800,000	0,047	0,135
-270,584	-200,000	0,003	-0,015
-269,570	-200,000	-0,021	0,074
-268,555	190,677	0,094	0,101
-267,540	-19,765	-0,147	-0,064
-266,526	231,869	-0,089	0,104
-265,511	120,958	-0,040	0,036
-264,497	-200,000	0,042	0,179
-263,482	-45,930	0,089	0,031
-262,467	-68,674	0,043	0,012
-261,453	170,468	0,043	0,043
-260,438	216,970	-0,116	-0,131
-259,424	-200,000	0,015	-0,156
-258,409	-12,084	-0,180	-0,084
-257,395	-200,000	-0,023	0,111
-256,380	589,362	0,072	0,128
-255,365	800,000	0,016	-0,032
-254,351	176,100	0,039	0,040
-253,336	-200,000	-0,055	-0,224
-252,322	-200,000	-0,020	-0,094
-251,307	356,026	-0,049	-0,069
-250,292	156,140	0,106	-0,104
-249,278	-54,065	0,035	-0,011
-248,263	800,000	0,014	0,040
-247,249	-43,552	-0,120	0,043
-246,234	209,389	-0,070	0,078
-245,219	-200,000	-0,005	0,018
-244,205	-200,000	-0,008	0,039
-243,190	-200,000	0,016	-0,087
-242,176	-175,775	-0,090	-0,002
-241,161	800,000	0,053	0,105
-240,146	442,932	-0,004	0,006
-239,132	-68,312	0,026	-0,007
-238,117	21,260	0,030	0,017
-237,103	-200,000	-0,009	-0,132
-236,088	167,774	0,064	-0,065
-235,073	-200,000	-0,001	-0,027
-234,059	800,000	0,038	0,115
-233,044	-28,559	-0,083	0,034
-232,030	800,000	0,026	-0,053
-231,015	-48,143	0,018	-0,006
-230,000	109,085	-0,069	-0,059
-228,986	-56,179	-0,119	0,038
-227,971	56,123	0,034	0,023
-226,957	-6,102	0,021	0,010
-225,942	-137,501	-0,128	0,010
-224,927	-118,385	-0,177	0,022
-223,913	395,971	-0,067	-0,100
-222,898	61,098	-0,054	0,038
-221,884	721,237	0,025	-0,047
-220,869	800,000	-0,037	0,093
-219,855	-200,000	0,005	0,032
-218,840	-200,000	0,011	0,049
-217,825	-84,519	-0,085	0,019
-216,811	-100,527	-0,120	-0,021
-215,796	-142,875	0,031	0,002
-214,782	-58,451	0,128	-0,039
-213,767	7,593	-0,032	-0,017
-212,752	251,621	0,115	0,139
-211,738	800,000	-0,019	-0,059
-210,723	-165,261	0,041	-0,001
-209,709	6,785	0,014	0,007
-208,694	-96,405	-0,114	-0,021
-207,679	800,000	-0,029	-0,082
-206,665	800,000	-0,018	-0,040
-205,650	800,000	0,035	0,071
-204,636	433,170	0,088	0,137
-203,621	698,349	-0,046	0,086
-202,606	-200,000	-0,001	-0,185
-201,592	-94,179	-0,086	-0,017
-200,577	180,124	-0,052	-0,054
-199,563	27,888	-0,057	0,034
-198,548	800,000	0,058	-0,154
-197,533	265,576	-0,013	0,016
-196,519	-136,594	-0,110	0,009
-195,504	61,052	-0,101	0,071
-194,490	-84,939	-0,037	0,008
-193,475	800,000	-0,021	-0,057
-192,460	200,216	0,106	0,116
-191,446	33,482	0,107	0,066
-190,431	40,316	0,105	0,067
-189,417	-67,123	0,112	0,031
-188,402	-106,284	-0,069	-0,011
-187,387	-9,829	-0,046	0,022
-186,373	146,504	-0,016	-0,016
-185,358	800,000	-0,051	-0,123
-184,344	800,000	-0,020	-0,057
-183,329	-106,961	0,047	-0,007
-182,315	-200,000	-0,006	0,049
-181,300	152,289	-0,042	0,041
-180,285	800,000	0,029	-0,061
-179,271	74,996	-0,090	0,068
-178,256	-200,000	-0,002	0,033
-177,242	-200,000	0,007	0,033
-176,227	518,121	-0,032	-0,054
-175,212	-163,570	0,034	0,001
-174,198	340,585	0,029	-0,040
-173,183	-200,000	-0,059	-0,214
-172,169	473,771	0,091	-0,147
-171,154	-1,844	0,053	0,026
-170,139	-97,152	0,156	-0,029
-169,125	457,596	0,036	0,057
-168,110	454,559	-0,029	0,046
-167,096	-63,949	0,069	0,020
-166,081	-94,585	0,226	-0,043
-165,066	-120,114	-0,149	0,018
-164,052	800,000	-0,066	0,140
-163,037	174,513	-0,022	-0,023
-162,023	800,000	0,043	-0,085
-161,008	800,000	0,059	-0,138
-159,993	88,873	0,059	-0,047
-158,979	-200,000	-0,004	-0,090
-157,964	-200,000	-0,023	0,111
-156,950	-21,332	-0,033	-0,014
-155,935	-0,368	0,019	0,009
-154,920	-66,799	-0,058	-0,016
-153,906	800,000	0,008	0,017
-152,891	800,000	0,050	0,120
-151,877	19,734	-0,125	0,072
-150,862	377,732	0,069	0,101
-149,847	75,749	-0,076	0,057
-148,833	800,000	-0,048	0,146
-147,818	128,993	-0,050	-0,046
-146,804	-76,070	-0,142	0,035
-145,789	800,000	0,046	-0,101
-144,775	78,700	-0,026	0,020
-143,760	481,468	0,080	-0,130
-142,745	-111,973	0,073	-0,010
-141,731	-200,000	-0,001	0,064
-140,716	703,721	-0,020	-0,037
-139,702	-7,979	-0,126	0,060
-138,687	-200,000	-0,005	0,086
-137,672	216,306	-0,183	-0,207
-136,658	800,000	0,005	-0,010
-135,643	-36,108	0,100	0,038
-134,629	142,254	0,045	0,042
-133,614	800,000	0,034	0,070
-132,599	-200,000	0,025	0,136
-131,585	-97,696	-0,045	-0,008
-130,570	10,419	-0,135	0,073
-129,556	41,266	-0,063	-0,040
-128,541	-200,000	0,009	-0,067
-127,526	800,000	0,006	0,015
-126,512	-79,449	0,153	-0,036
-125,497	800,000	0,027	0,063
-124,483	330,555	-0,030	0,041
-123,468	-68,158	0,038	-0,010
-122,453	-200,000	-0,004	-0,094
-121,439	45,997	0,020	-0,013
-120,424	232,135	-0,102	-0,119
-119,410	350,151	0,017	-0,024
-118,395	-61,145	-0,043	-0,013
-117,380	217,829	0,023	-0,026
-116,366	675,677	-0,051	-0,094
-115,351	-100,303	0,048	0,008
-114,337	-200,000	-0,010	0,059
-113,322	800,000	-0,054	-0,139
-112,307	189,746	0,039	-0,041
-111,293	-102,826	-0,038	0,006
-110,278	206,971	-0,106	0,117
-109,264	130,433	0,070	0,064
-108,249	-46,871	0,084	-0,029
-107,234	293,559	-0,071	-0,092
-106,220	-1,244	-0,028	-0,014
-105,205	-144,748	0,206	0,013
-104,191	300,603	-0,039	-0,051
-103,176	-66,058	0,100	0,028
-102,162	163,219	0,104	0,104
-101,147	20,461	-0,096	-0,055
-100,132	-56,980	0,084	-0,026
-99,118	-149,247	-0,248	-0,014
-98,103	401,075	-0,017	0,025
-97,089	591,109	-0,009	-0,016
-96,074	548,981	0,069	-0,118
-95,059	-59,030	-0,171	-0,052
-94,045	800,000	0,031	-0,083
-93,030	800,000	-0,040	-0,088
-92,016	-129,017	-0,093	-0,009
-91,001	36,346	-0,121	-0,075
-89,986	18,259	-0,043	-0,024
-88,972	-0,436	-0,082	0,041
-87,957	-200,000	0,013	0,050
-86,943	-85,397	-0,055	0,012
-85,928	528,512	0,074	-0,125
-84,913	-100,868	-0,035	-0,006
-83,899	-200,000	-0,028	0,103
-82,884	-25,603	0,012	-0,005
-81,870	-63,503	0,064	0,018
-80,855	164,709	-0,082	0,082
-79,840	390,310	0,076	0,112
-78,826	-46,478	0,083	0,029
-77,811	-200,000	-0,006	-0,030
-76,797	-156,801	0,100	-0,004
-75,782	259,323	0,030	-0,037
-74,767	19,650	-0,074	-0,042
-73,753	96,284	0,048	-0,039
-72,738	5,444	0,061	-0,032
-71,724	-65,506	-0,140	0,039
-70,709	-200,000	-0,003	-0,037
-69,694	80,496	-0,067	-0,051
-68,680	-200,000	-0,025	0,193
-67,665	800,000	0,019	0,038
-66,651	-200,000	-0,038	0,157
-65,636	198,104	-0,073	0,079
-64,622	800,000	-0,018	0,036
-63,607	-200,000	-0,008	0,056
-62,592	457,516	-0,032	-0,050
-61,578	298,213	0,098	0,128
-60,563	393,125	0,078	0,116
-59,549	-179,934	-0,039	0,001
-58,534	10,105	-1,651	-0,885
-57,519	367,894	-1,386	-1,987
-56,505	-200,000	-0,505	-4,647
-55,490	240,209	0,966	1,141
-54,476	800,000	4,929	11,405
-53,461	-200,000	19,791	326,277
-52,446	800,000	746,832	2329,532
-51,432	562,229	1658,794	2850,392
-50,417	76,682	1670,985	1252,767
-49,403	20,571	1544,769	881,773
-48,388	14,534	1467,228	808,135
-47,373	18,197	1457,213	820,289
-46,359	16,531	1446,699	806,354
-45,344	12,856	1442,120	786,167
-44,330	12,714	1440,510	784,582
-43,315	12,744	1438,646	783,676
-42,300	12,747	1436,997	782,764
-41,286	12,727	1435,578	781,863
-40,271	12,771	1434,255	781,322
-39,257	12,741	1432,878	780,394
-38,242	12,822	1431,676	780,098
-37,227	12,805	1430,451	779,315
-36,213	12,771	1429,098	778,387
-35,198	12,727	1428,038	777,568
-34,184	12,810	1427,068	777,406
-33,169	12,766	1425,661	776,401
-32,154	12,823	1424,535	776,027
-31,140	12,755	1423,684	775,209
-30,125	12,791	1422,284	774,587
-29,111	12,809	1421,132	774,014
-28,096	12,748	1420,179	773,176
-27,082	12,739	1419,118	772,526
-26,067	12,673	1418,158	771,660
-25,052	12,736	1417,035	771,315
-24,038	12,755	1415,742	770,669
-23,023	12,690	1414,948	769,904
-22,009	12,679	1413,799	769,193
-20,994	12,651	1412,897	768,542
-19,979	12,693	1412,158	768,306
-18,965	12,644	1411,109	767,474
-17,950	12,676	1409,995	766,989
-16,936	12,676	1409,410	766,639
-15,921	12,616	1408,127	765,630
-14,906	12,593	1407,415	765,106
-13,892	12,658	1406,235	764,739
-12,877	12,637	1405,557	764,238
-11,863	12,638	1404,587	763,689
-10,848	12,646	1403,609	763,163
-9,833	12,618	1402,775	762,547
-8,819	12,557	1401,976	761,801
-7,804	12,509	1401,132	761,088
-6,790	12,518	1400,153	760,566
-5,775	12,538	1398,962	759,983
-4,760	12,536	1398,117	759,484
-3,746	12,543	1396,942	758,848
-2,731	12,545	1396,101	758,371
-1,717	12,486	1395,407	757,688
-0,702	12,518	1393,476	756,761
0,313	16,400	1309,380	729,044
1,327	32,721	701,402	428,124
2,342	50,746	122,478	81,859
3,356	2,495	16,627	8,484
4,371	-3,195	3,264	1,603
5,386	-16,754	0,696	0,310
6,400	-200,000	0,009	0,299
7,415	73,548	-0,209	-0,155
8,429	-200,000	-0,317	-0,001
9,444	-33,519	-0,385	-0,150
10,459	9,577	-0,204	-0,109
11,473	-28,734	-0,446	-0,181
12,488	-178,260	-0,404	-0,007
13,502	-2,743	-0,357	-0,176
14,517	116,168	-0,344	-0,297
15,531	103,995	-0,292	-0,243
16,546	92,788	-0,336	-0,268
17,561	198,959	-0,290	-0,314
18,575	119,804	-0,136	-0,119
19,590	205,565	-0,225	-0,248
20,604	89,488	-0,225	-0,177
21,619	236,022	-0,297	-0,347
22,634	81,777	-0,415	-0,317
23,648	61,249	-0,459	-0,321
24,663	661,495	-0,228	-0,417
25,677	49,710	-0,400	-0,265
26,692	65,830	-0,369	-0,264
27,707	-52,427	-0,369	-0,120
28,721	51,076	-0,310	-0,207
29,736	63,346	-0,361	-0,255
30,750	282,644	-0,338	-0,428
31,765	19,134	-0,503	-0,284
32,780	0,209	-0,399	-0,200
33,794	59,484	-0,397	-0,275
34,809	-14,472	-0,340	-0,154
35,823	-46,162	-0,581	-0,200
36,838	23,482	-0,447	-0,258
37,853	6,810	-0,486	-0,254
38,867	119,493	-0,336	-0,293
39,882	70,250	-0,303	-0,220
40,896	69,632	-0,312	-0,226
41,911	-19,837	-0,422	-0,183
42,926	3,059	-0,519	-0,265
43,940	15,157	-0,207	-0,114
44,955	141,381	-0,296	-0,276
45,969	83,467	-0,379	-0,291
46,984	115,610	-0,297	-0,256
47,999	-69,831	-0,312	-0,083
49,013	-97,930	-0,244	-0,044
50,028	145,715	-0,214	-0,202
51,042	38,872	-0,323	-0,203
52,057	39,848	-0,386	-0,243
53,071	163,315	-0,230	-0,228
54,086	182,751	-0,325	-0,338
55,101	30,377	-0,244	-0,147
56,115	-11,974	-0,422	-0,194
57,130	72,027	-0,431	-0,315
58,144	27,483	-0,319	-0,188
59,159	201,235	-0,325	-0,353
60,174	62,294	-0,375	-0,263
61,188	-52,684	-0,441	-0,142
62,203	163,060	-0,304	-0,300
63,217	18,015	-0,221	-0,124
64,232	-49,730	-0,425	-0,141
65,247	77,362	-0,203	-0,151
66,261	-34,586	-0,362	-0,138
67,276	-21,263	-0,450	-0,193
68,290	59,261	-0,274	-0,190
69,305	-41,494	-0,287	-0,103
70,320	-42,536	-0,358	-0,127
71,334	-52,537	-0,294	-0,095
72,349	110,723	-0,246	-0,208
73,363	27,522	-0,314	-0,185
74,378	195,629	-0,290	-0,310
75,393	-0,953	-0,246	-0,122
76,407	-13,395	-0,331	-0,150
77,422	-93,404	-0,326	-0,063
78,436	19,324	-0,205	-0,115
79,451	-65,473	-0,282	-0,079
80,466	800,000	-0,163	-0,318
81,480	199,863	-0,286	-0,309
82,495	105,816	-0,336	-0,279
83,509	198,189	-0,200	-0,215
84,524	27,839	-0,316	-0,186
85,539	-146,125	-0,285	-0,017
86,553	-104,718	-0,300	-0,048
87,568	-148,877	-0,332	0,019
88,582	108,133	-0,217	-0,182
89,597	650,497	-0,167	-0,302
90,611	-87,346	-0,277	-0,058
91,626	84,490	-0,323	-0,248
92,641	-2,425	-0,295	-0,145
93,655	159,255	-0,129	-0,126
94,670	59,419	-0,319	-0,220
95,684	166,845	-0,296	-0,295
96,699	190,926	-0,208	-0,219
97,714	115,138	-0,311	-0,266
98,728	107,406	-0,223	-0,186
99,743	-63,068	-0,191	-0,055
100,757	-80,523	-0,310	-0,072
101,772	160,741	-0,222	-0,217
102,787	10,802	-0,241	-0,128
103,801	-15,721	-0,319	-0,142
104,816	7,798	-0,261	-0,137
105,830	179,029	-0,146	-0,150
106,845	-59,395	-0,198	-0,059
107,860	199,528	-0,210	-0,226
108,874	548,318	-0,184	-0,310
109,889	81,533	-0,325	-0,246
110,903	99,714	-0,433	-0,351
111,918	-40,697	-0,345	-0,125
112,933	15,178	-0,187	-0,102
113,947	-75,103	-0,217	-0,054
114,962	287,864	-0,121	-0,153
115,976	8,444	-0,238	-0,125
116,991	86,194	-0,301	-0,232
118,006	123,193	-0,274	-0,240
119,020	-85,732	-0,227	-0,049
120,035	48,871	-0,232	-0,152
121,049	211,850	-0,230	-0,254
122,064	159,842	-0,130	-0,127
123,079	-51,855	-0,334	-0,108
124,093	144,332	-0,259	-0,242
125,108	2,865	-0,298	-0,151
126,122	17,657	-0,142	-0,079
127,137	182,400	-0,173	-0,179
128,151	-1,220	-0,244	-0,120
129,166	800,000	-0,065	-0,174
130,181	662,298	-0,137	-0,248
131,195	64,517	-0,294	-0,207
132,210	8,681	-0,299	-0,157
133,224	134,048	-0,265	-0,240
134,239	115,054	-0,175	-0,149
135,254	95,304	-0,176	-0,140
136,268	212,413	-0,222	-0,245
137,283	98,825	-0,222	-0,179
138,297	111,038	-0,322	-0,271
139,312	15,187	-0,258	-0,141
140,327	214,204	-0,250	-0,276
141,341	142,749	-0,182	-0,169
142,356	38,090	-0,389	-0,241
143,370	-78,527	-0,246	-0,058
144,385	8,847	-0,237	-0,124
145,400	3,423	-0,299	-0,152
146,414	176,402	-0,286	-0,290
147,429	-13,781	-0,279	-0,126
148,443	172,857	-0,176	-0,177
149,458	-4,439	-0,313	-0,151
150,473	115,394	-0,319	-0,272
151,487	116,002	-0,194	-0,166
152,502	-81,188	-0,311	-0,071
153,516	59,582	-0,229	-0,157
154,531	37,402	-0,342	-0,211
155,546	197,537	-0,141	-0,150
156,560	-79,984	-0,090	-0,021
157,575	73,081	-0,197	-0,143
158,589	128,072	-0,150	-0,133
159,604	381,582	-0,182	-0,261
160,619	143,396	-0,213	-0,198
161,633	429,108	-0,231	-0,350
162,648	535,610	-0,196	-0,326
163,662	11,500	-0,260	-0,138
164,677	-38,340	-0,233	-0,085
165,692	26,419	-0,104	-0,061
166,706	53,359	-0,250	-0,167
167,721	-178,722	-0,211	0,003
168,735	43,035	-0,287	-0,182
169,750	163,733	-0,151	-0,148
170,764	800,000	-0,079	-0,229
171,779	272,434	-0,165	-0,203
172,794	169,645	-0,120	-0,120
173,808	305,641	-0,231	-0,300
174,823	459,635	-0,209	-0,325
175,837	170,037	-0,194	-0,193
176,852	347,553	-0,208	-0,287
177,867	-40,199	-0,221	-0,080
178,881	554,757	-0,131	-0,220
179,896	50,551	-0,238	-0,157
180,910	800,000	-0,161	-0,311
181,925	186,155	-0,199	-0,206
182,940	50,609	-0,272	-0,179
183,954	177,848	-0,152	-0,154
184,969	31,379	-0,208	-0,124
185,983	577,918	-0,182	-0,310
186,998	-144,476	-0,208	0,013
188,013	143,182	-0,113	-0,105
189,027	157,297	-0,165	-0,158
190,042	106,106	-0,224	-0,184
191,056	-10,246	-0,251	-0,115
192,071	-79,196	-0,190	-0,045
193,086	800,000	-0,076	-0,192
194,100	419,718	-0,030	-0,044
195,115	-67,119	-0,345	-0,094
196,129	237,926	-0,172	-0,199
197,144	244,835	-0,188	-0,220
198,159	-22,968	-0,392	-0,163
199,173	101,328	-0,229	-0,185
200,188	74,827	-0,173	-0,126
201,202	0,457	-0,150	-0,074
202,217	203,838	-0,183	-0,197
203,232	46,086	-0,203	-0,131
204,246	181,026	-0,221	-0,226
205,261	33,681	-0,293	-0,177
206,275	301,304	-0,160	-0,206
207,290	-19,307	-0,284	-0,122
208,304	-86,351	-0,133	0,028
209,319	155,618	-0,173	-0,166
210,334	123,747	-0,316	-0,276
211,348	800,000	-0,108	-0,219
212,363	92,930	-0,204	-0,160
213,377	157,583	-0,162	-0,155
214,392	354,054	-0,187	-0,258
215,407	58,095	-0,222	-0,151
216,421	51,287	-0,308	-0,203
217,436	79,217	-0,284	-0,211
218,450	87,327	-0,181	-0,139
219,465	-53,207	-0,188	-0,059
220,480	733,386	-0,191	-0,357
221,494	-10,023	-0,158	-0,073
222,509	800,000	-0,035	-0,079
223,523	98,243	-0,174	-0,139
224,538	0,133	-0,255	-0,126
225,553	299,953	-0,169	-0,216
226,567	-22,146	-0,212	-0,089
227,582	309,736	-0,147	-0,191
228,596	298,284	-0,146	-0,186
229,611	242,691	-0,163	-0,189
230,626	62,413	-0,188	-0,130
231,640	152,690	-0,215	-0,203
232,655	288,801	-0,182	-0,229
233,669	-0,471	-0,110	-0,054
234,684	-5,030	-0,166	-0,079
235,699	95,594	-0,119	-0,094
236,713	188,763	-0,146	-0,152
237,728	-22,971	-0,291	-0,121
238,742	360,463	-0,114	-0,159
239,757	62,434	-0,261	-0,180
240,772	167,434	-0,176	-0,174
241,786	-27,741	-0,262	-0,105
242,801	406,493	-0,150	-0,220
243,815	103,179	-0,082	-0,066
244,830	241,512	-0,157	-0,182
245,844	75,802	-0,140	-0,103
246,859	-20,365	-0,199	-0,085
247,874	71,266	-0,185	-0,133
248,888	697,431	-0,106	-0,194
249,903	-8,546	-0,288	-0,133
250,917	146,181	-0,093	-0,087
251,932	242,508	-0,124	-0,144
252,947	74,439	-0,087	-0,063
253,961	-67,643	-0,193	-0,052
254,976	-200,000	-0,015	-0,107
255,990	248,281	-0,199	-0,233
257,005	17,983	-0,188	-0,104
258,020	215,381	-0,117	-0,128
259,034	-56,416	-0,153	-0,047
260,049	48,033	-0,131	-0,085
261,063	-22,351	-0,138	-0,058
262,078	64,213	-0,348	-0,242
263,093	68,789	-0,316	-0,224
264,107	268,555	-0,147	-0,178
265,122	50,609	-0,171	-0,111
266,136	549,254	-0,092	-0,154
267,151	6,993	-0,100	-0,051
268,166	77,263	-0,146	-0,107
269,180	93,166	-0,221	-0,172
270,195	321,804	-0,123	-0,162
271,209	-117,319	-0,185	-0,023
272,224	-181,584	-0,176	0,002
273,239	800,000	-0,096	-0,202
274,253	7,264	-0,188	-0,097
275,268	800,000	-0,099	-0,232
276,282	300,711	-0,145	-0,185
277,297	800,000	-0,064	-0,189
278,312	779,800	-0,084	-0,159
279,326	-44,671	-0,189	-0,065
280,341	-92,172	-0,214	-0,041
281,355	-69,309	-0,163	0,043
282,370	187,311	-0,209	-0,215
283,384	-91,892	-0,088	-0,017
284,399	73,103	-0,248	-0,179
285,414	33,973	-0,225	-0,135
286,428	-200,000	-0,039	-0,194
287,443	800,000	-0,091	-0,180
288,457	454,628	-0,104	-0,160
289,472	-98,751	-0,149	-0,026
290,487	38,822	-0,268	-0,165
291,501	88,131	-0,196	-0,150
292,516	-200,000	-0,023	-0,129
293,530	-73,661	-0,262	-0,065
294,545	-0,194	-0,200	-0,098
295,560	-200,000	-0,088	-0,339
296,574	55,234	-0,151	-0,101
297,589	-32,720	-0,135	-0,052
298,603	-86,556	-0,232	-0,049
299,618	88,548	-0,222	-0,170
300,633	800,000	-0,106	-0,231
301,647	-200,000	0,031	-0,102
302,662	73,741	-0,126	-0,091
303,676	-72,319	-0,156	-0,039
304,691	54,021	-0,170	-0,112
305,706	172,043	-0,115	-0,114
306,720	-43,537	-0,201	-0,070
307,735	35,693	-0,160	-0,097
308,749	-20,349	-0,128	-0,054
309,764	339,508	-0,118	-0,159
310,779	223,808	-0,097	-0,107
311,793	-133,409	-0,163	-0,014
312,808	90,591	-0,163	-0,126
313,822	6,374	-0,209	-0,107
314,837	168,464	-0,190	-0,186
315,852	-200,000	-0,004	-0,068
316,866	800,000	-0,079	-0,228
317,881	19,846	-0,166	-0,092
318,895	578,862	-0,041	-0,070
319,910	800,000	-0,098	-0,245
320,925	-200,000	-0,087	-0,301
321,939	110,466	-0,118	-0,097
322,954	800,000	-0,051	-0,119
323,968	-171,479	-0,190	0,004
324,983	258,216	-0,038	0,045
325,997	39,485	-0,132	-0,081
327,012	-129,319	-0,201	0,019
328,027	-34,256	-0,090	0,034
329,041	98,395	-0,138	-0,109
330,056	-200,000	-0,002	0,070
331,070	5,669	-0,103	0,052
332,085	342,981	-0,075	-0,101
333,100	-134,164	-0,228	-0,019
334,114	83,248	-0,130	-0,097
335,129	-200,000	-0,035	-0,217
336,143	249,288	-0,139	-0,162
337,158	800,000	-0,072	-0,145
338,173	-20,306	-0,147	-0,062
339,187	-74,627	-0,096	-0,023
340,202	233,370	-0,138	-0,156
341,216	343,694	-0,166	-0,224
342,231	-200,000	-0,041	-0,131
343,246	347,434	-0,176	-0,239
344,260	242,960	-0,124	-0,143
345,275	-49,772	-0,111	0,036
346,289	-200,000	-0,006	-0,084
347,304	800,000	-0,063	-0,140
348,319	-10,552	-0,140	-0,063
349,333	340,528	-0,106	-0,142
350,348	222,869	-0,107	-0,118
351,362	-200,000	-0,036	-0,212
352,377	129,399	-0,126	-0,110
353,392	-26,144	-0,201	0,081
354,406	11,396	-0,084	-0,044
355,421	208,105	1312,918	1408,042
356,435	160,112	1473,412	1408,522
