DTS Sentinel unit serial number:	SN410029Multiplexer serial number:	ORYXHardware model number:	OX2-SRSoftware version number:	ORYX F/W v4,00 Oryx Data Collector v3.7.2.0data status	okinstallation	B3 Nyhavnadifferential loss correction	single-endedforward channel	channel 1reverse channel	N/Adate	2023/12/04time	15:42:30forward acquisition time	300,00reverse acquisition time	0,00gamma	499,1914k internal	0,3200k external	0,3200temperature offset calibration	1,0000default loss term (dB/km)	0,3820temperature slope calibration	1,0000multiplexer offset coefficient	1,0000multiplexer slope coefficient	1,0000fibre end	0,00T internal ref (°C)	15,14T ext. ref 1 (°C)	0,42T ext. ref 2 (°C)	0,40length (m)	temperature (°C)	Stokes	anti-Stokes-744,400	138,750	-0,294	-0,281
-743,385	-200,000	-0,063	0,246
-742,371	71,056	-0,184	-0,139
-741,356	-200,000	0,061	0,330
-740,342	-190,542	-0,174	0,001
-739,327	-200,000	0,021	0,294
-738,312	74,248	-0,207	-0,158
-737,298	-200,000	-0,057	0,261
-736,283	181,276	-0,210	-0,225
-735,269	800,000	0,067	0,212
-734,254	300,801	-0,193	-0,260
-733,239	167,520	-0,172	0,178
-732,225	162,518	-0,181	-0,185
-731,210	-7,133	0,206	0,101
-730,196	-74,422	-0,073	-0,019
-729,181	-67,457	-0,147	0,042
-728,167	92,382	-0,028	0,023
-727,152	-183,311	0,039	0,000
-726,137	68,614	-0,108	-0,081
-725,123	-14,738	0,087	-0,040
-724,108	-46,837	-0,199	0,070
-723,094	-200,000	0,014	-0,121
-722,079	800,000	0,013	0,036
-721,064	-200,000	0,015	-0,085
-720,050	-200,000	-0,011	-0,133
-719,035	202,905	0,033	0,037
-718,021	800,000	0,064	-0,160
-717,006	-87,579	-0,120	-0,026
-715,991	557,938	-0,069	-0,121
-714,977	171,565	0,025	-0,026
-713,962	126,777	-0,145	-0,133
-712,948	-8,376	-0,086	0,042
-711,933	45,622	0,045	0,030
-710,918	71,497	0,056	0,042
-709,904	800,000	0,045	-0,098
-708,889	550,586	-0,119	-0,208
-707,875	35,320	0,158	-0,100
-706,860	-121,824	-0,039	0,005
-705,845	800,000	0,013	0,032
-704,831	-45,017	0,112	0,040
-703,816	800,000	-0,036	0,106
-702,802	-200,000	0,022	0,079
-701,787	-8,145	-0,156	0,076
-700,772	-45,420	-0,123	0,044
-699,758	267,169	0,044	0,055
-698,743	-113,107	0,143	-0,020
-697,729	-0,366	0,099	0,051
-696,714	-44,229	0,028	-0,010
-695,699	-200,000	-0,005	0,048
-694,685	371,971	-0,085	-0,126
-693,670	0,546	-0,027	-0,014
-692,656	-200,000	0,002	-0,103
-691,641	138,026	-0,046	0,044
-690,627	74,560	-0,069	-0,053
-689,612	800,000	-0,010	-0,029
-688,597	-171,220	-0,088	-0,002
-687,583	-200,000	-0,039	0,153
-686,568	-132,521	-0,064	-0,006
-685,554	374,753	-0,057	0,084
-684,539	-200,000	0,010	0,062
-683,524	-13,028	0,025	0,012
-682,510	-200,000	-0,000	-0,015
-681,495	102,087	-0,036	-0,031
-680,481	181,968	-0,074	-0,079
-679,466	-200,000	-0,041	-0,141
-678,451	-200,000	-0,010	-0,200
-677,437	-89,056	-0,099	-0,021
-676,422	-75,261	0,194	0,050
-675,408	-200,000	0,015	0,143
-674,393	72,972	0,021	0,016
-673,378	-147,769	-0,179	0,011
-672,364	-72,780	0,108	0,029
-671,349	-200,000	-0,002	0,024
-670,335	-150,551	-0,112	0,006
-669,320	800,000	-0,049	0,126
-668,305	81,481	0,029	0,023
-667,291	194,530	0,075	0,082
-666,276	-19,836	-0,053	0,024
-665,262	-200,000	-0,002	-0,053
-664,247	-200,000	0,004	0,043
-663,232	51,425	-0,111	0,076
-662,218	158,999	0,067	0,068
-661,203	800,000	0,031	-0,097
-660,189	-200,000	0,014	0,120
-659,174	-91,549	-0,154	-0,032
-658,159	64,719	0,094	-0,068
-657,145	800,000	0,054	-0,161
-656,130	-200,000	0,017	-0,063
-655,116	-200,000	0,003	-0,067
-654,101	800,000	-0,042	-0,113
-653,086	380,622	0,008	-0,012
-652,072	27,039	0,045	-0,027
-651,057	9,048	-0,106	-0,058
-650,043	-200,000	-0,012	-0,057
-649,028	-200,000	-0,008	0,062
-648,014	-200,000	0,014	0,107
-646,999	-11,649	0,052	0,025
-645,984	-95,009	0,050	-0,010
-644,970	103,912	-0,081	-0,069
-643,955	-200,000	-0,004	-0,059
-642,941	-16,981	0,037	0,017
-641,926	215,897	-0,159	-0,183
-640,911	51,710	0,039	0,027
-639,897	249,805	-0,078	0,096
-638,882	23,951	-0,131	0,078
-637,868	-200,000	0,021	-0,163
-636,853	334,838	-0,094	-0,132
-635,838	17,986	-0,166	-0,096
-634,824	-11,411	0,101	-0,048
-633,809	-200,000	-0,074	0,242
-632,795	800,000	0,027	0,061
-631,780	-161,837	0,073	0,003
-630,765	-200,000	-0,007	-0,058
-629,751	-200,000	-0,009	-0,031
-628,736	153,290	-0,158	-0,157
-627,722	-144,507	-0,112	-0,007
-626,707	800,000	0,030	-0,060
-625,692	800,000	0,024	0,050
-624,678	-200,000	-0,011	-0,118
-623,663	-200,000	-0,005	0,044
-622,649	0,966	-0,130	-0,067
-621,634	-200,000	0,017	0,064
-620,619	161,448	0,020	-0,020
-619,605	-3,983	-0,029	0,015
-618,590	-200,000	-0,002	0,053
-617,576	34,482	0,075	0,047
-616,561	-200,000	-0,012	-0,195
-615,546	-77,443	-0,078	0,019
-614,532	291,313	-0,011	0,015
-613,517	17,732	0,035	0,020
-612,503	800,000	0,018	0,039
-611,488	-44,276	-0,174	-0,063
-610,474	544,264	0,164	0,284
-609,459	-3,687	0,090	0,045
-608,444	-43,694	0,069	0,025
-607,430	-200,000	-0,048	-0,209
-606,415	-200,000	-0,008	-0,100
-605,401	618,424	-0,046	0,084
-604,386	-200,000	-0,017	0,054
-603,371	-200,000	0,025	0,088
-602,357	-172,103	0,046	-0,001
-601,342	-184,919	-0,140	0,002
-600,328	-200,000	-0,032	-0,208
-599,313	-163,432	0,126	0,004
-598,298	318,514	-0,033	0,045
-597,284	-36,935	-0,098	0,038
-596,269	45,723	0,066	0,044
-595,255	-83,882	0,093	0,021
-594,240	352,210	-0,093	-0,133
-593,225	-200,000	0,023	-0,160
-592,211	-200,000	-0,014	-0,071
-591,196	800,000	-0,032	0,069
-590,182	-200,000	0,010	-0,058
-589,167	44,061	0,079	-0,052
-588,152	63,712	-0,051	-0,037
-587,138	-123,843	0,120	-0,014
-586,123	800,000	0,035	-0,104
-585,109	-200,000	-0,003	-0,078
-584,094	-200,000	-0,041	-0,191
-583,079	137,378	-0,013	-0,012
-582,065	-200,000	-0,023	0,085
-581,050	599,175	0,030	-0,054
-580,036	71,336	-0,009	0,007
-579,021	800,000	-0,051	-0,107
-578,006	-200,000	-0,026	-0,091
-576,992	150,223	0,085	-0,084
-575,977	-200,000	0,017	0,092
-574,963	14,141	0,168	0,094
-573,948	-80,908	-0,068	0,016
-572,934	-200,000	-0,004	-0,070
-571,919	15,680	0,059	-0,034
-570,904	32,201	0,118	-0,074
-569,890	76,292	-0,168	-0,129
-568,875	-200,000	0,024	0,147
-567,861	-200,000	-0,040	0,152
-566,846	800,000	0,019	0,041
-565,831	-44,892	0,088	0,032
-564,817	-200,000	0,001	-0,075
-563,802	36,365	-0,079	-0,051
-562,788	615,923	-0,097	-0,177
-561,773	-200,000	0,003	-0,058
-560,758	-51,647	0,170	-0,057
-559,744	-50,562	0,203	0,069
-558,729	800,000	-0,031	-0,068
-557,715	121,996	0,031	-0,028
-556,700	89,643	-0,124	-0,100
-555,685	-200,000	-0,017	-0,155
-554,671	31,714	-0,080	0,049
-553,656	-200,000	0,024	0,107
-552,642	193,073	-0,012	-0,014
-551,627	88,566	-0,092	0,074
-550,612	87,410	-0,038	0,031
-549,598	800,000	0,027	-0,078
-548,583	132,727	-0,121	-0,113
-547,569	-200,000	-0,000	-0,062
-546,554	-85,315	0,117	0,026
-545,539	-200,000	0,006	-0,040
-544,525	404,465	0,077	-0,118
-543,510	79,516	0,031	0,024
-542,496	-182,079	-0,094	0,001
-541,481	-178,137	0,092	0,002
-540,466	45,985	0,064	0,043
-539,452	800,000	-0,042	-0,134
-538,437	-200,000	0,003	-0,077
-537,423	-114,073	-0,039	0,005
-536,408	-26,184	-0,048	-0,020
-535,393	-200,000	0,016	0,088
-534,379	20,466	-0,124	-0,072
-533,364	-200,000	0,012	0,133
-532,350	426,823	0,054	0,085
-531,335	-79,729	0,037	-0,009
-530,321	219,009	0,014	-0,016
-529,306	800,000	-0,033	-0,081
-528,291	57,032	-0,057	0,040
-527,277	800,000	-0,049	-0,111
-526,262	58,577	0,053	0,037
-525,248	800,000	0,043	0,129
-524,233	185,409	0,062	0,066
-523,218	-63,878	0,082	0,024
-522,204	800,000	0,024	-0,062
-521,189	-116,978	-0,034	-0,004
-520,175	140,574	-0,108	-0,103
-519,160	-200,000	0,028	-0,145
-518,145	-200,000	0,025	0,129
-517,131	41,052	0,064	0,042
-516,116	800,000	0,080	0,179
-515,102	-200,000	0,003	-0,070
-514,087	-200,000	-0,006	0,043
-513,072	-143,334	-0,033	-0,002
-512,058	-4,656	-0,090	0,044
-511,043	305,969	-0,064	-0,086
-510,029	-76,870	0,121	-0,030
-509,014	800,000	0,049	0,109
-507,999	49,583	0,079	-0,054
-506,985	-200,000	0,019	0,107
-505,970	57,193	-0,124	0,087
-504,956	-158,541	-0,117	0,005
-503,941	156,499	0,041	-0,041
-502,926	800,000	-0,039	0,107
-501,912	-200,000	-0,029	-0,106
-500,897	-26,918	0,152	0,064
-499,883	-56,111	-0,038	0,012
-498,868	-200,000	0,010	-0,112
-497,853	536,385	-0,041	-0,070
-496,839	117,454	-0,119	-0,105
-495,824	470,230	0,064	0,103
-494,810	-164,740	0,065	0,002
-493,795	-200,000	0,008	-0,039
-492,781	27,563	0,091	-0,055
-491,766	800,000	-0,064	-0,129
-490,751	-200,000	0,005	-0,136
-489,737	296,224	-0,047	-0,062
-488,722	95,858	0,140	0,115
-487,708	-179,176	-0,059	-0,001
-486,693	-52,145	-0,032	0,011
-485,678	-61,745	0,093	-0,028
-484,664	800,000	-0,036	-0,077
-483,649	800,000	0,076	-0,163
-482,635	-85,506	0,023	-0,005
-481,620	479,861	-0,016	0,027
-480,605	263,577	0,108	0,136
-479,591	786,812	-0,051	0,102
-478,576	218,871	0,074	0,085
-477,562	-200,000	0,020	0,085
-476,547	255,578	-0,046	-0,056
-475,532	273,971	-0,026	0,034
-474,518	332,721	-0,031	0,043
-473,503	-200,000	-0,017	0,096
-472,489	-50,756	0,163	0,055
-471,474	-132,558	-0,020	-0,002
-470,459	149,664	-0,058	-0,057
-469,445	-57,604	-0,108	-0,034
-468,430	-200,000	0,054	-0,199
-467,416	102,054	0,060	0,051
-466,401	112,652	0,027	0,023
-465,386	85,320	0,097	0,077
-464,372	800,000	0,019	0,044
-463,357	-106,729	-0,149	-0,024
-462,343	-46,469	0,111	-0,039
-461,328	-200,000	-0,002	-0,094
-460,313	56,947	-0,102	0,072
-459,299	800,000	-0,079	0,161
-458,284	-24,629	-0,111	0,047
-457,270	766,807	0,034	0,066
-456,255	222,140	0,073	-0,085
-455,241	-19,157	-0,050	-0,022
-454,226	-200,000	0,010	0,118
-453,211	800,000	-0,033	0,100
-452,197	-200,000	0,021	0,066
-451,182	800,000	0,029	-0,082
-450,168	213,421	-0,064	0,072
-449,153	-200,000	-0,008	-0,092
-448,138	162,725	-0,080	0,081
-447,124	-200,000	0,007	-0,083
-446,109	-200,000	-0,007	-0,097
-445,095	403,241	-0,020	-0,030
-444,080	-47,576	0,090	0,031
-443,065	800,000	-0,052	0,110
-442,051	-128,196	0,104	0,011
-441,036	-200,000	-0,016	-0,135
-440,022	34,848	-0,113	-0,071
-439,007	46,957	-0,045	-0,030
-437,992	167,476	-0,073	-0,074
-436,978	428,914	0,036	0,057
-435,963	-200,000	0,007	0,074
-434,949	58,568	0,133	0,094
-433,934	-26,230	-0,035	-0,015
-432,919	-200,000	-0,002	-0,084
-431,905	170,285	-0,039	0,040
-430,890	610,284	0,048	-0,087
-429,876	15,427	0,005	0,003
-428,861	443,833	-0,033	0,052
-427,846	-20,440	-0,089	0,039
-426,832	58,199	0,070	-0,049
-425,817	-200,000	0,010	-0,063
-424,803	55,220	-0,088	0,061
-423,788	800,000	-0,039	-0,078
-422,773	-108,769	0,055	-0,008
-421,759	455,653	0,070	0,112
-420,744	-54,070	-0,061	-0,020
-419,730	405,332	-0,078	-0,118
-418,715	-168,010	-0,029	0,001
-417,701	-163,611	0,079	0,003
-416,686	192,994	0,027	-0,029
-415,671	94,467	-0,045	0,037
-414,657	-144,012	0,113	-0,008
-413,642	174,409	0,049	0,051
-412,628	-200,000	0,014	-0,090
-411,613	42,866	-0,063	-0,041
-410,598	-200,000	-0,014	0,068
-409,584	-200,000	0,025	-0,090
-408,569	56,461	0,088	0,061
-407,555	-70,475	-0,058	-0,016
-406,540	-200,000	0,003	0,073
-405,525	45,855	-0,069	-0,046
-404,511	636,343	-0,072	0,131
-403,496	-148,582	0,009	-0,001
-402,482	-123,591	-0,055	0,006
-401,467	-117,441	-0,052	-0,007
-400,452	800,000	0,067	-0,196
-399,438	-59,819	-0,101	0,031
-398,423	69,922	-0,069	0,051
-397,409	-24,273	-0,043	-0,018
-396,394	-114,433	0,102	-0,014
-395,379	205,988	0,036	0,040
-394,365	64,363	0,078	0,057
-393,350	73,750	-0,074	0,056
-392,336	800,000	0,025	0,050
-391,321	-200,000	0,010	-0,042
-390,306	-13,809	-0,071	0,033
-389,292	800,000	0,020	0,053
-388,277	210,852	-0,115	-0,130
-387,263	800,000	0,030	-0,069
-386,248	-200,000	0,018	0,118
-385,233	-200,000	-0,007	-0,097
-384,219	-32,914	-0,149	-0,059
-383,204	307,218	0,067	-0,090
-382,190	-200,000	-0,005	-0,074
-381,175	429,939	-0,061	0,095
-380,160	301,108	0,076	0,100
-379,146	148,328	-0,026	0,025
-378,131	-131,249	0,070	-0,007
-377,117	-200,000	-0,006	0,117
-376,102	38,685	-0,023	-0,015
-375,088	353,046	-0,026	-0,038
-374,073	-200,000	-0,013	-0,054
-373,058	800,000	0,041	0,085
-372,044	46,512	0,096	0,064
-371,029	-200,000	0,007	0,105
-370,015	16,861	0,064	-0,036
-369,000	800,000	-0,057	-0,133
-367,985	-200,000	0,004	-0,126
-366,971	-2,806	-0,112	-0,056
-365,956	-200,000	-0,038	-0,154
-364,942	-93,087	0,056	-0,011
-363,927	127,859	0,109	0,099
-362,912	10,145	0,093	0,050
-361,898	-92,231	-0,032	-0,006
-360,883	-109,456	-0,034	-0,005
-359,869	800,000	-0,035	-0,072
-358,854	377,715	0,101	-0,148
-357,839	353,486	0,077	0,110
-356,825	20,436	0,246	0,142
-355,810	48,444	0,112	0,075
-354,796	800,000	0,037	0,082
-353,781	58,970	-0,068	0,048
-352,766	-142,277	-0,117	-0,008
-351,752	-84,511	0,024	0,005
-350,737	-22,614	0,166	0,072
-349,723	476,097	-0,026	0,043
-348,708	-200,000	-0,021	0,074
-347,693	70,892	0,059	0,044
-346,679	-200,000	0,005	-0,093
-345,664	725,101	-0,041	0,079
-344,650	-103,004	0,097	-0,016
-343,635	-128,932	0,073	0,007
-342,620	-200,000	0,025	0,110
-341,606	752,676	0,034	0,066
-340,591	-100,903	-0,049	-0,009
-339,577	-139,653	0,045	-0,003
-338,562	84,544	0,041	-0,032
-337,548	800,000	0,048	-0,101
-336,533	-100,420	0,083	0,014
-335,518	320,632	0,057	0,077
-334,504	-200,000	-0,013	-0,059
-333,489	-200,000	-0,039	-0,125
-332,475	203,941	-0,098	0,108
-331,460	77,756	-0,080	0,061
-330,445	-200,000	0,000	-0,136
-329,431	-1,982	-0,080	-0,040
-328,416	224,038	0,049	0,057
-327,402	800,000	-0,038	-0,094
-326,387	-55,905	-0,178	-0,057
-325,372	21,384	0,067	-0,039
-324,358	115,149	0,046	-0,040
-323,343	-30,223	-0,054	0,022
-322,329	-112,671	-0,012	-0,002
-321,314	-200,000	0,034	0,152
-320,299	-82,897	-0,039	-0,009
-319,285	4,246	-0,087	0,046
-318,270	116,650	0,091	-0,079
-317,256	-162,367	-0,128	0,004
-316,241	-137,459	0,106	0,008
-315,226	-200,000	-0,002	0,039
-314,212	258,911	-0,084	-0,104
-313,197	-200,000	-0,006	-0,034
-312,183	-25,691	-0,001	0,000
-311,168	-200,000	-0,007	0,093
-310,153	75,382	-0,052	0,040
-309,139	-200,000	0,008	-0,030
-308,124	10,065	-0,020	-0,011
-307,110	63,048	0,042	0,030
-306,095	-85,724	0,074	0,016
-305,080	75,889	0,093	0,070
-304,066	-200,000	-0,019	-0,129
-303,051	571,818	0,041	-0,071
-302,037	800,000	-0,071	-0,221
-301,022	326,392	0,081	-0,111
-300,008	132,258	-0,139	0,129
-298,993	504,752	-0,019	0,032
-297,978	231,258	0,071	0,083
-296,964	228,452	-0,033	0,039
-295,949	11,838	0,017	-0,009
-294,935	-118,241	0,067	0,008
-293,920	426,899	-0,023	-0,036
-292,905	-200,000	0,002	0,033
-291,891	-122,865	0,096	-0,011
-290,876	800,000	0,045	0,091
-289,862	800,000	-0,052	0,110
-288,847	800,000	0,039	-0,116
-287,832	457,965	0,037	-0,058
-286,818	-105,028	-0,111	-0,018
-285,803	234,097	0,037	-0,044
-284,789	800,000	0,009	-0,025
-283,774	465,064	-0,027	0,043
-282,759	108,437	-0,068	-0,058
-281,745	-59,818	-0,051	0,016
-280,730	430,528	0,030	-0,046
-279,716	366,982	0,045	0,065
-278,701	-135,350	0,038	0,003
-277,686	-200,000	0,008	-0,087
-276,672	476,307	-0,083	0,135
-275,657	138,187	0,163	0,153
-274,643	63,671	-0,106	-0,076
-273,628	-48,093	-0,211	-0,072
-272,613	-81,924	-0,117	-0,027
-271,599	33,199	0,041	0,026
-270,584	505,151	0,024	0,039
-269,570	800,000	0,031	0,096
-268,555	167,323	0,045	-0,046
-267,540	30,050	-0,100	-0,061
-266,526	118,014	0,061	-0,054
-265,511	-29,735	0,056	-0,023
-264,497	-200,000	0,000	0,085
-263,482	-68,645	-0,055	-0,015
-262,467	800,000	-0,033	0,066
-261,453	-200,000	0,071	0,000
-260,438	17,934	0,048	0,027
-259,424	800,000	-0,015	-0,032
-258,409	-200,000	0,004	-0,100
-257,395	-200,000	-0,013	0,043
-256,380	800,000	0,013	0,036
-255,365	-106,084	0,143	0,023
-254,351	-52,534	-0,108	0,036
-253,336	-58,905	0,069	-0,021
-252,322	-38,976	-0,073	-0,027
-251,307	-200,000	0,016	-0,054
-250,292	-76,789	0,041	0,010
-249,278	468,004	-0,065	0,105
-248,263	-57,629	0,146	0,045
-247,249	511,303	0,003	-0,005
-246,234	617,701	-0,098	0,177
-245,219	-200,000	-0,023	0,103
-244,205	500,561	0,070	-0,116
-243,190	20,930	-0,012	-0,007
-242,176	2,232	-0,008	0,004
-241,161	47,663	0,156	0,103
-240,146	-115,356	-0,113	0,015
-239,132	-200,000	0,032	-0,176
-238,117	81,136	0,049	-0,038
-237,103	-200,000	0,008	0,047
-236,088	194,329	-0,094	0,102
-235,073	246,758	0,076	0,091
-234,059	-119,769	0,094	-0,011
-233,044	105,667	-0,062	0,052
-232,030	157,045	0,029	0,029
-231,015	800,000	-0,081	-0,164
-230,000	-30,136	0,062	-0,025
-228,986	576,021	-0,028	-0,049
-227,971	-200,000	-0,002	0,097
-226,957	41,984	-0,037	-0,024
-225,942	107,552	0,032	-0,027
-224,927	-200,000	0,005	0,051
-223,913	340,037	-0,028	0,040
-222,898	-200,000	-0,038	0,162
-221,884	-200,000	0,013	-0,043
-220,869	594,377	0,045	-0,080
-219,855	2,405	0,079	-0,041
-218,840	800,000	0,024	0,070
-217,825	52,570	-0,050	-0,034
-216,811	-200,000	-0,001	0,183
-215,796	-22,563	-0,049	-0,021
-214,782	217,930	-0,101	-0,115
-213,767	-49,456	0,093	-0,031
-212,752	-200,000	0,003	0,012
-211,738	-100,216	-0,013	-0,002
-210,723	93,292	0,041	0,033
-209,709	800,000	-0,073	-0,145
-208,694	800,000	0,035	-0,070
-207,679	-200,000	-0,004	0,108
-206,665	800,000	0,029	-0,074
-205,650	309,782	0,090	-0,120
-204,636	-192,356	0,104	0,001
-203,621	-13,196	-0,085	-0,039
-202,606	72,021	-0,091	0,067
-201,592	-75,834	0,098	-0,024
-200,577	-200,000	-0,002	-0,044
-199,563	57,746	0,092	0,064
-198,548	-200,000	0,030	0,131
-197,533	708,213	-0,008	-0,015
-196,519	-63,004	-0,057	0,017
-195,504	208,068	0,096	-0,107
-194,490	15,759	-0,105	-0,059
-193,475	402,281	-0,066	-0,099
-192,460	379,852	-0,047	-0,069
-191,446	-85,212	0,102	0,022
-190,431	220,915	0,093	0,106
-189,417	145,628	-0,074	0,071
-188,402	269,968	0,037	0,046
-187,387	-138,878	-0,047	-0,004
-186,373	-200,000	0,009	0,048
-185,358	-88,810	-0,072	0,015
-184,344	-48,348	0,081	0,028
-183,329	97,641	0,102	0,083
-182,315	-200,000	-0,021	0,105
-181,300	-200,000	-0,002	0,184
-180,285	-51,007	0,013	0,004
-179,271	800,000	0,026	-0,067
-178,256	-110,483	-0,103	0,015
-177,242	65,811	0,035	0,025
-176,227	168,557	-0,085	0,086
-175,212	-200,000	0,000	0,206
-174,198	641,691	-0,088	0,161
-173,183	515,374	-0,076	-0,127
-172,169	-200,000	0,002	-0,084
-171,154	286,849	-0,062	0,080
-170,139	-7,693	0,048	0,023
-169,125	34,847	0,020	-0,012
-168,110	-25,955	-0,075	0,031
-167,096	8,917	-0,097	-0,052
-166,081	-146,410	-0,090	-0,005
-165,066	188,202	-0,035	0,037
-164,052	-34,643	0,101	-0,039
-163,037	-90,220	0,062	-0,013
-162,023	800,000	0,050	0,126
-161,008	446,135	0,082	0,128
-159,993	36,290	-0,087	0,055
-158,979	216,915	-0,037	0,042
-157,964	-200,000	-0,031	0,160
-156,950	-200,000	0,005	-0,064
-155,935	-200,000	0,004	0,106
-154,920	-200,000	0,017	0,150
-153,906	800,000	-0,013	-0,030
-152,891	800,000	0,021	-0,053
-151,877	-200,000	0,027	-0,114
-150,862	-200,000	-0,013	0,045
-149,847	33,142	-0,071	-0,044
-148,833	-37,267	-0,042	-0,016
-147,818	-127,384	0,115	-0,012
-146,804	-42,576	0,085	-0,031
-145,789	-119,271	0,074	-0,009
-144,775	-200,000	0,008	-0,101
-143,760	-90,254	-0,082	-0,017
-142,745	-50,421	0,053	-0,018
-141,731	-200,000	0,031	0,179
-140,716	-200,000	-0,020	-0,093
-139,702	398,997	-0,108	0,161
-138,687	-200,000	-0,006	0,209
-137,672	542,572	-0,030	0,052
-136,658	800,000	-0,037	-0,076
-135,643	-69,677	0,078	-0,021
-134,629	306,231	0,126	-0,167
-133,614	-200,000	-0,002	-0,029
-132,599	-200,000	0,029	0,163
-131,585	586,066	-0,044	-0,078
-130,570	60,429	0,045	-0,031
-129,556	-115,760	-0,052	-0,007
-128,541	-200,000	-0,030	-0,101
-127,526	800,000	-0,093	-0,203
-126,512	-101,774	0,147	-0,025
-125,497	-200,000	-0,001	-0,131
-124,483	800,000	0,010	0,030
-123,468	-112,257	0,034	0,005
-122,453	223,182	-0,061	-0,070
-121,439	-94,087	-0,038	0,007
-120,424	800,000	-0,025	-0,070
-119,410	-200,000	0,006	0,046
-118,395	-83,512	-0,037	-0,008
-117,380	86,609	-0,044	-0,034
-116,366	-200,000	0,010	-0,045
-115,351	-51,274	-0,103	-0,034
-114,337	-200,000	-0,011	-0,092
-113,322	800,000	0,044	0,118
-112,307	800,000	0,030	0,067
-111,293	-200,000	-0,018	0,106
-110,278	-30,981	0,087	0,035
-109,264	-0,814	0,061	-0,031
-108,249	-200,000	0,008	0,138
-107,234	169,932	-0,056	-0,057
-106,220	-41,918	-0,131	0,048
-105,205	2,110	0,021	-0,011
-104,191	197,360	0,061	0,066
-103,176	182,254	0,116	0,121
-102,162	-200,000	-0,019	0,103
-101,147	-54,750	-0,151	0,048
-100,132	-200,000	-0,011	-0,132
-99,118	17,823	0,117	-0,066
-98,103	17,341	-0,038	-0,021
-97,089	128,031	0,075	-0,067
-96,074	-68,184	0,055	0,015
-95,059	45,937	-0,105	0,069
-94,045	800,000	-0,047	-0,132
-93,030	-105,199	-0,147	-0,024
-92,016	234,682	-0,102	-0,120
-91,001	-160,091	0,024	0,001
-89,986	-126,392	-0,105	-0,011
-88,972	-200,000	0,013	0,047
-87,957	202,699	0,064	-0,070
-86,943	-68,109	-0,016	0,004
-85,928	702,028	0,032	-0,060
-84,913	-19,256	0,005	0,002
-83,899	-200,000	-0,013	0,083
-82,884	-133,864	0,229	0,020
-81,870	-200,000	-0,013	0,058
-80,855	280,743	0,017	-0,021
-79,840	-200,000	0,034	0,170
-78,826	-142,504	-0,054	0,004
-77,811	132,895	-0,051	0,047
-76,797	-91,597	-0,158	-0,032
-75,782	-21,132	0,089	0,039
-74,767	-200,000	-0,040	0,134
-73,753	454,765	-0,024	0,039
-72,738	-200,000	-0,024	-0,143
-71,724	0,813	-0,177	-0,090
-70,709	-162,294	0,076	0,003
-69,694	-24,400	-0,126	-0,053
-68,680	221,264	0,079	0,090
-67,665	-200,000	0,007	0,130
-66,651	341,506	0,078	0,108
-65,636	-200,000	-0,001	-0,057
-64,622	-43,890	-0,070	0,025
-63,607	19,608	0,072	-0,041
-62,592	-200,000	0,005	-0,022
-61,578	8,531	0,070	0,037
-60,563	-18,683	-0,078	0,034
-59,549	209,090	0,050	0,056
-58,534	-53,941	-1,496	-0,480
-57,519	323,428	-1,542	-2,088
-56,505	-200,000	-0,561	-4,621
-55,490	110,179	0,978	0,831
-54,476	800,000	4,813	11,376
-53,461	-200,000	18,065	285,993
-52,446	800,000	726,701	2222,741
-51,432	553,709	1642,509	2807,433
-50,417	79,401	1664,828	1263,024
-49,403	22,953	1538,641	891,114
-48,388	16,989	1461,935	817,817
-47,373	17,885	1451,712	816,380
-46,359	17,346	1442,205	808,423
-45,344	15,265	1437,642	795,903
-44,330	15,154	1435,702	794,268
-43,315	15,240	1433,986	793,695
-42,300	15,177	1432,530	792,558
-41,286	15,239	1431,268	792,125
-40,271	15,232	1429,845	791,274
-39,257	15,251	1428,648	790,668
-38,242	15,269	1427,392	790,028
-37,227	15,252	1426,208	789,260
-36,213	15,256	1424,751	788,440
-35,198	15,242	1423,736	787,782
-34,184	15,287	1422,782	787,435
-33,169	15,199	1421,489	786,271
-32,154	15,212	1420,525	785,770
-31,140	15,264	1419,161	785,231
-30,125	15,277	1418,152	784,700
-29,111	15,280	1416,699	783,880
-28,096	15,208	1415,913	783,079
-27,082	15,150	1414,713	782,110
-26,067	15,168	1413,707	781,607
-25,052	15,189	1412,517	781,016
-24,038	15,150	1411,773	780,392
-23,023	15,141	1410,420	779,571
-22,009	15,147	1409,627	779,128
-20,994	15,089	1408,743	778,336
-19,979	15,125	1407,797	777,951
-18,965	15,084	1406,788	777,174
-17,950	15,096	1405,776	776,638
-16,936	15,128	1404,919	776,284
-15,921	15,076	1403,657	775,316
-14,906	15,096	1402,702	774,848
-13,892	15,083	1401,947	774,341
-12,877	15,096	1401,193	773,952
-11,863	15,072	1400,070	773,189
-10,848	15,053	1399,285	772,639
-9,833	15,045	1398,342	772,050
-8,819	15,006	1397,314	771,270
-7,804	14,971	1396,428	770,587
-6,790	15,000	1395,247	770,039
-5,775	14,969	1394,379	769,390
-4,760	14,956	1393,626	768,880
-3,746	14,944	1392,777	768,327
-2,731	14,979	1391,841	767,944
-1,717	14,961	1391,039	767,388
-0,702	14,988	1389,129	766,425
0,313	18,804	1308,659	739,680
1,327	35,293	707,512	438,137
2,342	54,024	125,024	84,932
3,356	3,813	16,741	8,624
4,371	18,573	3,129	1,765
5,386	50,155	0,449	0,299
6,400	-200,000	0,038	0,195
7,415	206,531	-0,218	-0,241
8,429	117,334	-0,353	-0,307
9,444	145,462	-0,269	-0,254
10,459	41,255	-0,345	-0,220
11,473	112,842	-0,244	-0,209
12,488	-47,419	-0,267	-0,091
13,502	21,892	-0,338	-0,194
14,517	83,387	-0,238	-0,183
15,531	3,034	-0,471	-0,241
16,546	151,686	-0,304	-0,293
17,561	36,978	-0,328	-0,205
18,575	-86,181	-0,248	-0,054
19,590	129,228	-0,288	-0,260
20,604	-41,102	-0,302	-0,110
21,619	150,974	-0,426	-0,410
22,634	67,165	-0,376	-0,271
23,648	85,894	-0,367	-0,285
24,663	45,019	-0,391	-0,254
25,677	225,448	-0,358	-0,410
26,692	136,049	-0,217	-0,200
27,707	119,196	-0,215	-0,188
28,721	55,033	-0,329	-0,224
29,736	176,034	-0,355	-0,364
30,750	98,830	-0,443	-0,361
31,765	95,979	-0,325	-0,262
32,780	130,869	-0,431	-0,390
33,794	220,586	-0,219	-0,248
34,809	-11,367	-0,362	-0,167
35,823	228,995	-0,250	-0,289
36,838	130,718	-0,321	-0,290
37,853	120,366	-0,303	-0,265
38,867	-16,631	-0,394	-0,175
39,882	51,646	-0,412	-0,276
40,896	-43,445	-0,331	-0,117
41,911	-8,947	-0,392	-0,184
42,926	148,463	-0,386	-0,367
43,940	273,444	-0,241	-0,301
44,955	71,645	-0,338	-0,247
45,969	212,582	-0,263	-0,292
46,984	24,435	-0,281	-0,163
47,999	41,247	-0,342	-0,218
49,013	45,616	-0,392	-0,255
50,028	-5,069	-0,239	-0,116
51,042	46,526	-0,381	-0,249
52,057	171,174	-0,278	-0,281
53,071	-49,631	-0,399	-0,133
54,086	47,463	-0,366	-0,240
55,101	118,287	-0,384	-0,334
56,115	-38,958	-0,294	-0,108
57,130	36,176	-0,296	-0,183
58,144	23,201	-0,449	-0,259
59,159	111,329	-0,305	-0,258
60,174	150,862	-0,401	-0,384
61,188	-17,773	-0,444	-0,195
62,203	104,592	-0,300	-0,248
63,217	165,559	-0,171	-0,171
64,232	74,408	-0,216	-0,160
65,247	36,900	-0,442	-0,274
66,261	74,134	-0,353	-0,260
67,276	132,743	-0,425	-0,386
68,290	38,689	-0,319	-0,200
69,305	95,898	-0,303	-0,243
70,320	52,847	-0,227	-0,153
71,334	140,743	-0,245	-0,228
72,349	-9,695	-0,386	-0,180
73,363	34,006	-0,326	-0,199
74,378	30,179	-0,280	-0,168
75,393	105,842	-0,258	-0,215
76,407	-90,787	-0,343	-0,069
77,422	-91,849	-0,190	-0,038
78,436	-60,733	-0,343	-0,101
79,451	68,618	-0,227	-0,164
80,466	169,521	-0,323	-0,324
81,480	-82,889	-0,329	-0,074
82,495	8,501	-0,431	-0,227
83,509	-15,410	-0,303	-0,135
84,524	145,219	-0,249	-0,235
85,539	30,907	-0,325	-0,195
86,553	73,174	-0,235	-0,172
87,568	151,331	-0,267	-0,255
88,582	48,415	-0,318	-0,209
89,597	112,064	-0,297	-0,252
90,611	79,498	-0,281	-0,211
91,626	51,825	-0,230	-0,154
92,641	-50,924	-0,334	-0,110
93,655	143,217	-0,266	-0,248
94,670	212,209	-0,171	-0,189
95,684	-32,541	-0,290	-0,113
96,699	270,894	-0,158	-0,196
97,714	4,592	-0,322	-0,165
98,728	-2,180	-0,215	-0,105
99,743	-59,893	-0,294	-0,088
100,757	-15,649	-0,314	-0,140
101,772	-75,436	-0,239	-0,059
102,787	35,530	-0,295	-0,181
103,801	110,750	-0,281	-0,237
104,816	-55,270	-0,351	-0,110
105,830	111,646	-0,266	-0,225
106,845	81,195	-0,265	-0,200
107,860	-46,973	-0,254	-0,086
108,874	190,876	-0,250	-0,264
109,889	35,851	-0,328	-0,202
110,903	77,006	-0,279	-0,208
111,918	550,675	-0,205	-0,345
112,933	259,643	-0,221	-0,268
113,947	176,119	-0,172	-0,175
114,962	-17,521	-0,323	-0,142
115,976	-87,033	-0,346	-0,073
116,991	95,712	-0,288	-0,230
118,006	0,113	-0,324	-0,161
119,020	9,128	-0,237	-0,125
120,035	-148,462	-0,300	-0,017
121,049	118,304	-0,163	-0,141
122,064	13,813	-0,117	-0,064
123,079	69,082	-0,343	-0,247
124,093	298,553	-0,161	-0,207
125,108	85,095	-0,301	-0,231
126,122	-55,656	-0,370	-0,115
127,137	-16,757	-0,166	-0,073
128,151	35,156	-0,281	-0,172
129,166	-1,297	-0,178	-0,088
130,181	-3,981	-0,365	-0,177
131,195	144,722	-0,205	-0,192
132,210	207,750	-0,087	-0,095
133,224	-63,936	-0,321	-0,091
134,239	-53,295	-0,203	-0,065
135,254	-33,945	-0,403	-0,154
136,268	119,810	-0,239	-0,207
137,283	488,209	-0,177	-0,284
138,297	-11,098	-0,252	-0,116
139,312	251,663	-0,127	-0,151
140,327	35,475	-0,268	-0,164
141,341	77,345	-0,293	-0,218
142,356	31,448	-0,184	-0,111
143,370	90,479	-0,122	-0,095
144,385	168,007	-0,242	-0,240
145,400	192,953	-0,272	-0,288
146,414	278,981	-0,155	-0,194
147,429	35,641	-0,248	-0,152
148,443	308,346	-0,143	-0,188
149,458	2,199	-0,319	-0,160
150,473	93,429	-0,203	-0,160
151,487	156,205	-0,191	-0,184
152,502	14,194	-0,266	-0,144
153,516	749,551	-0,108	-0,204
154,531	-87,862	-0,301	-0,063
155,546	562,041	-0,147	-0,250
156,560	-45,038	-0,176	-0,061
157,575	-9,075	-0,297	-0,138
158,589	-25,198	-0,238	-0,098
159,604	88,023	-0,164	-0,127
160,619	107,942	-0,242	-0,202
161,633	-72,312	-0,285	-0,073
162,648	58,362	-0,158	-0,108
163,662	173,446	-0,243	-0,244
164,677	149,431	-0,259	-0,245
165,692	-138,368	-0,260	-0,020
166,706	25,672	-0,206	-0,119
167,721	-27,998	-0,301	-0,121
168,735	30,241	-0,304	-0,180
169,750	-32,661	-0,176	-0,068
170,764	100,485	-0,242	-0,196
171,779	-200,000	0,002	-0,209
172,794	183,538	-0,169	-0,175
173,808	78,532	-0,253	-0,188
174,823	199,672	-0,232	-0,249
175,837	96,317	-0,323	-0,258
176,852	-29,925	-0,229	-0,090
177,867	14,385	-0,147	-0,080
178,881	-147,036	-0,253	-0,015
179,896	35,705	-0,224	-0,137
180,910	-47,522	-0,274	-0,092
181,925	215,328	-0,179	-0,198
182,940	52,013	-0,306	-0,203
183,954	-200,000	-0,094	-0,296
184,969	-98,916	-0,319	-0,056
185,983	-51,178	-0,205	-0,067
186,998	-200,000	-0,023	-0,207
188,013	800,000	-0,093	-0,234
189,027	122,712	-0,214	-0,186
190,042	-3,650	-0,156	-0,075
191,056	281,001	-0,149	-0,186
192,071	388,023	-0,175	-0,252
193,086	222,070	-0,155	-0,174
194,100	74,911	-0,147	-0,108
195,115	42,520	-0,256	-0,162
196,129	37,227	-0,294	-0,181
197,144	-28,459	-0,177	-0,070
198,159	154,624	-0,228	-0,218
199,173	-15,726	-0,174	-0,077
200,188	-0,841	-0,225	-0,110
201,202	-124,914	-0,150	0,016
202,217	-55,010	-0,298	-0,093
203,232	163,478	-0,190	-0,185
204,246	15,042	-0,193	-0,105
205,261	54,403	-0,284	-0,190
206,275	554,288	-0,088	-0,148
207,290	-81,689	-0,111	0,025
208,304	204,364	-0,142	-0,153
209,319	-75,742	-0,240	-0,059
210,334	194,801	-0,215	-0,227
211,348	380,902	-0,116	-0,166
212,363	-46,073	-0,265	-0,090
213,377	-32,097	-0,197	-0,076
214,392	66,969	-0,195	-0,138
215,407	70,277	-0,243	-0,174
216,421	-59,720	-0,134	0,040
217,436	23,180	-0,187	-0,107
218,450	67,932	-0,188	-0,133
219,465	409,479	-0,184	-0,272
220,480	57,732	-0,155	-0,105
221,494	272,612	-0,245	-0,301
222,509	585,209	-0,117	-0,201
223,523	139,275	-0,154	-0,141
224,538	15,053	-0,293	-0,159
225,553	49,615	-0,237	-0,155
226,567	158,412	-0,187	-0,180
227,582	101,888	-0,130	-0,105
228,596	-73,879	-0,118	-0,029
229,611	800,000	-0,094	-0,228
230,626	-85,343	-0,103	-0,022
231,640	-7,355	-0,226	-0,106
232,655	86,758	-0,133	-0,102
233,669	182,477	-0,202	-0,206
234,684	223,851	-0,167	-0,187
235,699	2,797	-0,189	-0,095
236,713	425,118	-0,083	-0,124
237,728	-75,619	-0,116	0,028
238,742	282,942	-0,103	-0,128
239,757	97,463	-0,172	-0,137
240,772	199,498	-0,189	-0,201
241,786	-70,144	-0,182	-0,047
242,801	-200,000	-0,028	-0,199
243,815	37,985	-0,141	-0,087
244,830	-112,428	-0,202	-0,028
245,844	19,877	-0,251	-0,140
246,859	450,020	-0,097	-0,149
247,874	63,377	-0,175	-0,121
248,888	167,660	-0,220	-0,217
249,903	-61,809	-0,157	-0,045
250,917	606,023	-0,081	-0,141
251,932	491,799	-0,065	-0,104
252,947	-175,654	-0,222	-0,004
253,961	249,268	-0,097	-0,114
254,976	-30,846	-0,301	-0,117
255,990	-33,644	-0,275	-0,104
257,005	186,410	-0,091	-0,094
258,020	-108,984	-0,162	-0,024
259,034	124,043	-0,105	-0,091
260,049	-132,418	-0,114	-0,010
261,063	244,013	-0,119	-0,139
262,078	-177,665	-0,153	0,003
263,093	300,109	-0,119	-0,152
264,107	13,789	-0,166	-0,089
265,122	72,753	-0,258	-0,186
266,136	138,873	-0,177	-0,161
267,151	-30,440	-0,093	-0,036
268,166	120,340	-0,138	-0,119
269,180	-54,581	-0,293	-0,091
270,195	-13,702	-0,265	-0,118
271,209	88,166	-0,246	-0,188
272,224	21,265	-0,231	-0,129
273,239	-107,871	-0,207	-0,031
274,253	164,489	-0,119	-0,116
275,268	230,046	-0,135	-0,153
276,282	61,717	-0,135	-0,093
277,297	210,020	-0,191	-0,207
278,312	34,858	-0,172	-0,104
279,326	269,170	-0,056	-0,068
280,341	53,461	-0,221	-0,146
281,355	654,062	-0,014	0,025
282,370	137,493	-0,203	-0,184
283,384	-16,046	-0,151	-0,066
284,399	217,612	-0,131	-0,145
285,414	-59,283	-0,140	0,041
286,428	-2,934	-0,129	0,062
287,443	800,000	-0,107	-0,237
288,457	376,635	-0,119	-0,167
289,472	49,280	-0,193	-0,125
290,487	297,113	-0,148	-0,188
291,501	203,429	-0,195	-0,209
292,516	-138,926	-0,111	0,008
293,530	-11,990	-0,157	-0,071
294,545	231,800	-0,066	-0,075
295,560	-98,031	-0,266	-0,047
296,574	-15,367	-0,224	-0,098
297,589	158,518	-0,143	-0,137
298,603	382,204	-0,109	-0,154
299,618	-97,958	0,049	-0,009
300,633	-200,000	-0,049	-0,170
301,647	800,000	-0,078	-0,162
302,662	10,552	-0,095	0,050
303,676	-127,317	-0,202	-0,020
304,691	-39,268	-0,166	-0,060
305,706	140,531	-0,113	-0,103
306,720	140,113	-0,240	-0,219
307,735	126,527	-0,187	-0,163
308,749	89,446	-0,116	-0,089
309,764	-121,509	-0,086	-0,010
310,779	-200,000	-0,059	-0,206
311,793	800,000	-0,099	-0,201
312,808	91,407	-0,074	-0,058
313,822	110,852	-0,180	-0,149
314,837	46,400	-0,156	-0,100
315,852	-111,866	-0,087	-0,012
316,866	580,647	-0,133	-0,225
317,881	33,481	-0,254	-0,152
318,895	-81,224	-0,207	-0,047
319,910	762,296	-0,094	-0,176
320,925	-3,575	-0,135	-0,064
321,939	-48,833	-0,139	-0,046
322,954	800,000	-0,037	-0,084
323,968	-200,000	-0,026	-0,181
324,983	-53,425	-0,134	-0,042
325,997	-200,000	-0,016	-0,069
327,012	-52,494	-0,108	-0,034
328,027	800,000	-0,100	-0,269
329,041	336,185	-0,105	-0,140
330,056	-200,000	-0,045	-0,194
331,070	-200,000	-0,035	-0,159
332,085	152,247	-0,110	-0,103
333,100	234,092	-0,181	-0,205
334,114	-29,221	-0,235	-0,092
335,129	419,590	-0,132	-0,195
336,143	320,574	-0,138	-0,181
337,158	1,737	-0,048	-0,024
338,173	10,616	-0,168	-0,088
339,187	-122,154	-0,116	-0,013
340,202	-191,592	-0,251	-0,002
341,216	191,104	-0,179	-0,185
342,231	-10,474	-0,278	-0,126
343,246	185,529	-0,184	-0,188
344,260	-200,000	-0,037	-0,251
345,275	-70,578	-0,153	-0,039
346,289	254,650	-0,149	-0,175
347,304	-200,000	-0,030	-0,157
348,319	-92,928	-0,173	-0,033
349,333	-160,656	-0,252	-0,009
350,348	143,976	-0,112	-0,103
351,362	658,878	-0,062	-0,110
352,377	-75,358	-0,063	-0,015
353,392	-95,202	-0,223	0,041
354,406	38,672	-0,138	-0,084
355,421	208,256	1318,334	1415,494
356,435	160,230	1479,524	1415,992
