DTS Sentinel unit serial number:	SN410029Multiplexer serial number:	ORYXHardware model number:	OX2-SRSoftware version number:	ORYX F/W v4,00 Oryx Data Collector v3.7.2.0data status	okinstallation	B3 Nyhavnadifferential loss correction	single-endedforward channel	channel 1reverse channel	N/Adate	2023/11/30time	13:37:30forward acquisition time	300,00reverse acquisition time	0,00gamma	499,1914k internal	0,3215k external	0,3215temperature offset calibration	1,0000default loss term (dB/km)	0,3820temperature slope calibration	1,0000multiplexer offset coefficient	1,0000multiplexer slope coefficient	1,0000fibre end	0,00T internal ref (°C)	10,68T ext. ref 1 (°C)	-2,57T ext. ref 2 (°C)	-2,63length (m)	temperature (°C)	Stokes	anti-Stokes-744,400	800,000	-0,106	-0,281
-743,385	-200,000	-0,023	0,255
-742,371	14,517	-0,182	-0,103
-741,356	-200,000	-0,015	0,411
-740,342	233,173	-0,107	-0,127
-739,327	-200,000	-0,016	0,179
-738,312	18,213	-0,270	-0,156
-737,298	-200,000	-0,035	0,203
-736,283	260,822	-0,182	-0,229
-735,269	344,594	0,103	0,147
-734,254	274,505	-0,166	-0,214
-733,239	43,142	-0,191	0,126
-732,225	-164,545	-0,206	0,007
-731,210	800,000	0,017	0,046
-730,196	146,318	-0,069	0,067
-729,181	8,028	-0,035	0,019
-728,167	-200,000	-0,001	-0,145
-727,152	122,853	-0,070	-0,063
-726,137	404,101	0,054	0,082
-725,123	-200,000	-0,041	-0,205
-724,108	-111,514	-0,180	-0,026
-723,094	155,914	-0,057	0,057
-722,079	-200,000	-0,034	0,131
-721,064	-200,000	0,004	-0,110
-720,050	-95,827	-0,144	0,028
-719,035	-200,000	-0,037	-0,128
-718,021	-107,058	-0,161	-0,026
-717,006	42,441	0,018	-0,012
-715,991	374,445	-0,077	0,114
-714,977	-200,000	-0,009	-0,161
-713,962	-95,105	0,037	-0,007
-712,948	-200,000	-0,008	0,030
-711,933	247,196	-0,071	0,087
-710,918	800,000	0,025	-0,068
-709,904	319,098	-0,050	0,069
-708,889	-200,000	-0,019	0,064
-707,875	336,815	-0,024	-0,033
-706,860	-145,176	0,092	-0,006
-705,845	-61,947	0,080	0,024
-704,831	-121,048	-0,134	0,016
-703,816	330,624	-0,004	0,006
-702,802	-200,000	-0,016	0,062
-701,787	111,392	-0,028	-0,025
-700,772	-182,526	-0,093	-0,001
-699,758	-22,683	0,154	0,067
-698,743	800,000	0,050	0,107
-697,729	38,118	0,175	0,112
-696,714	-64,511	-0,094	0,028
-695,699	800,000	-0,015	0,041
-694,685	174,046	-0,094	-0,098
-693,670	55,094	-0,113	-0,079
-692,656	676,701	0,006	-0,011
-691,641	-200,000	-0,022	-0,089
-690,627	-200,000	0,032	0,121
-689,612	-97,103	0,056	-0,011
-688,597	43,949	-0,047	-0,031
-687,583	-200,000	0,011	0,043
-686,568	-200,000	-0,019	0,061
-685,554	-200,000	0,009	0,041
-684,539	259,610	0,054	-0,068
-683,524	172,643	0,047	-0,049
-682,510	-200,000	0,019	0,064
-681,495	-99,078	-0,055	-0,010
-680,481	-200,000	0,007	-0,054
-679,466	-200,000	-0,019	-0,126
-678,451	79,311	-0,085	-0,066
-677,437	-200,000	-0,032	-0,168
-676,422	234,239	-0,028	-0,033
-675,408	-200,000	0,000	0,082
-674,393	153,652	-0,076	0,075
-673,378	192,605	0,046	-0,050
-672,364	-200,000	0,024	-0,085
-671,349	-200,000	0,020	-0,082
-670,335	-69,147	-0,074	0,020
-669,320	-142,085	0,210	0,015
-668,305	44,228	0,068	-0,045
-667,291	216,924	0,046	-0,053
-666,276	-58,846	-0,189	-0,059
-665,262	23,961	-0,103	-0,061
-664,247	-64,722	0,036	-0,010
-663,232	-151,287	-0,032	0,002
-662,218	457,962	0,033	-0,053
-661,203	-200,000	-0,012	0,051
-660,189	-200,000	-0,006	-0,021
-659,174	800,000	-0,021	0,062
-658,159	800,000	-0,052	-0,131
-657,145	-133,612	-0,147	-0,013
-656,130	-200,000	0,029	-0,099
-655,116	537,264	-0,018	-0,031
-654,101	204,543	-0,027	0,030
-653,086	-144,592	0,184	-0,012
-652,072	139,200	-0,130	0,124
-651,057	-63,714	-0,068	0,020
-650,043	-200,000	0,007	-0,031
-649,028	-200,000	0,007	-0,034
-648,014	156,618	-0,029	-0,029
-646,999	108,066	-0,102	0,088
-645,984	125,707	-0,066	0,060
-644,970	-33,109	-0,091	-0,036
-643,955	516,170	0,024	-0,040
-642,941	280,225	-0,054	0,070
-641,926	106,223	-0,027	0,023
-640,911	-47,871	0,128	-0,045
-639,897	-82,102	-0,086	0,020
-638,882	-200,000	0,000	-0,021
-637,868	800,000	-0,019	0,048
-636,853	-68,431	-0,198	0,055
-635,838	-200,000	0,005	-0,130
-634,824	663,413	0,061	-0,113
-633,809	800,000	-0,050	0,135
-632,795	180,723	0,018	-0,019
-631,780	350,562	-0,020	-0,029
-630,765	-160,551	0,061	0,002
-629,751	90,962	-0,090	-0,073
-628,736	-2,737	-0,037	-0,018
-627,722	15,468	-0,091	-0,052
-626,707	77,054	-0,007	-0,006
-625,692	-200,000	0,017	0,094
-624,678	332,950	-0,043	-0,061
-623,663	-42,641	-0,070	-0,025
-622,649	-104,141	0,094	-0,016
-621,634	-200,000	-0,023	-0,151
-620,619	800,000	0,039	-0,099
-619,605	-200,000	-0,025	-0,150
-618,590	38,169	0,079	-0,050
-617,576	800,000	0,053	0,126
-616,561	-44,837	-0,018	-0,007
-615,546	550,835	0,049	-0,085
-614,532	-108,357	-0,061	-0,009
-613,517	710,799	0,018	-0,035
-612,503	54,248	-0,038	-0,026
-611,488	-138,968	-0,047	0,004
-610,474	-200,000	0,044	-0,183
-609,459	-200,000	-0,038	-0,143
-608,444	-200,000	-0,014	0,058
-607,430	233,655	-0,123	-0,146
-606,415	800,000	-0,025	-0,059
-605,401	446,260	-0,113	-0,179
-604,386	-111,748	-0,045	-0,007
-603,371	705,221	-0,051	0,097
-602,357	43,328	-0,131	0,086
-601,342	63,811	-0,136	0,098
-600,328	30,202	-0,020	0,012
-599,313	19,438	0,143	-0,082
-598,298	799,584	0,027	-0,053
-597,284	-200,000	-0,011	0,038
-596,269	-200,000	0,004	0,045
-595,255	0,256	0,186	0,095
-594,240	800,000	-0,048	-0,117
-593,225	-106,474	0,229	0,036
-592,211	-145,432	-0,087	-0,006
-591,196	25,784	0,120	-0,072
-590,182	-25,490	0,099	-0,042
-589,167	-64,522	-0,134	-0,039
-588,152	674,322	0,014	0,026
-587,138	-200,000	0,002	0,007
-586,123	25,930	-0,112	-0,067
-585,109	323,331	-0,155	-0,214
-584,094	332,838	-0,025	-0,035
-583,079	-47,949	-0,130	0,045
-582,065	201,881	0,027	-0,030
-581,050	-106,633	0,068	-0,011
-580,036	-200,000	-0,000	0,100
-579,021	-104,936	-0,128	-0,021
-578,006	447,831	-0,073	-0,116
-576,992	800,000	-0,036	-0,077
-575,977	-93,352	0,070	0,014
-574,963	-200,000	-0,003	-0,100
-573,948	-200,000	-0,036	-0,177
-572,934	-104,405	-0,145	0,024
-571,919	-200,000	-0,002	-0,016
-570,904	-200,000	-0,013	-0,101
-569,890	118,070	0,088	0,078
-568,875	236,409	0,037	0,044
-567,861	-180,135	0,120	0,002
-566,846	-96,149	0,047	0,009
-565,831	-200,000	-0,019	0,084
-564,817	-39,730	0,077	0,029
-563,802	412,037	0,053	-0,082
-562,788	27,287	0,017	-0,010
-561,773	239,892	-0,089	-0,106
-560,758	142,711	0,081	0,078
-559,744	53,271	0,158	-0,109
-558,729	-200,000	-0,041	-0,161
-557,715	221,151	0,048	-0,056
-556,700	749,675	-0,019	0,036
-555,685	-158,611	-0,118	-0,005
-554,671	583,726	-0,035	-0,062
-553,656	126,097	0,061	0,055
-552,642	151,784	0,033	-0,032
-551,627	299,614	0,095	-0,126
-550,612	-200,000	-0,049	-0,180
-549,598	800,000	-0,015	0,034
-548,583	-61,047	0,060	-0,018
-547,569	-200,000	-0,016	-0,223
-546,554	-200,000	-0,004	0,038
-545,539	66,173	0,034	0,025
-544,525	-41,712	-0,083	-0,030
-543,510	59,315	0,087	-0,061
-542,496	54,796	0,056	-0,039
-541,481	-10,543	-0,121	-0,058
-540,466	116,459	0,103	-0,091
-539,452	-74,454	-0,119	0,031
-538,437	-161,101	-0,115	-0,004
-537,423	-89,073	-0,148	0,031
-536,408	42,235	-0,050	0,032
-535,393	-107,841	-0,222	-0,034
-534,379	202,096	0,071	-0,079
-533,364	702,830	-0,057	-0,109
-532,350	339,105	-0,042	-0,059
-531,335	31,758	-0,034	0,021
-530,321	312,448	0,062	0,084
-529,306	56,057	-0,142	0,099
-528,291	-117,267	0,091	-0,012
-527,277	-36,411	-0,133	-0,051
-526,262	800,000	0,029	0,081
-525,248	76,897	0,078	-0,060
-524,233	-200,000	0,004	0,131
-523,218	-200,000	0,006	-0,034
-522,204	-200,000	-0,004	0,012
-521,189	-46,658	0,054	-0,019
-520,175	800,000	-0,059	-0,133
-519,160	-200,000	0,014	0,053
-518,145	-121,382	0,025	0,003
-517,131	36,787	0,131	-0,083
-516,116	-200,000	0,005	-0,073
-515,102	-200,000	-0,006	-0,050
-514,087	35,326	-0,089	-0,056
-513,072	-200,000	-0,014	0,048
-512,058	286,164	-0,035	-0,045
-511,043	-200,000	-0,002	-0,076
-510,029	-200,000	0,007	0,033
-509,014	167,432	0,078	0,080
-507,999	707,786	-0,066	-0,126
-506,985	800,000	0,005	0,015
-505,970	-120,688	-0,051	-0,006
-504,956	-200,000	0,002	-0,009
-503,941	800,000	0,039	-0,082
-502,926	-200,000	0,012	0,085
-501,912	325,580	0,151	0,208
-500,897	-200,000	0,005	-0,019
-499,883	-27,377	-0,064	-0,026
-498,868	194,201	0,065	-0,070
-497,853	-200,000	-0,054	-0,172
-496,839	-12,946	-0,071	0,033
-495,824	-200,000	-0,004	0,157
-494,810	800,000	0,048	-0,105
-493,795	800,000	-0,033	0,086
-492,781	46,903	0,092	0,061
-491,766	-183,979	0,065	-0,001
-490,751	244,641	-0,070	-0,084
-489,737	-200,000	0,003	-0,061
-488,722	-84,786	0,086	0,019
-487,708	800,000	0,055	0,155
-486,693	-200,000	0,004	0,078
-485,678	124,381	-0,113	0,102
-484,664	596,720	0,055	-0,098
-483,649	96,473	-0,062	-0,051
-482,635	-200,000	-0,007	-0,042
-481,620	13,847	0,141	0,078
-480,605	-200,000	0,048	0,169
-479,591	-1,549	-0,088	0,044
-478,576	800,000	-0,044	0,134
-477,562	154,941	-0,054	0,053
-476,547	-32,804	-0,100	0,040
-475,532	-200,000	-0,011	-0,036
-474,518	346,421	0,017	-0,024
-473,503	45,671	0,055	0,036
-472,489	385,506	0,028	0,042
-471,474	-25,520	-0,145	0,061
-470,459	800,000	-0,019	-0,049
-469,445	-200,000	-0,007	-0,116
-468,430	-200,000	0,003	-0,081
-467,416	355,682	0,115	0,164
-466,401	-41,783	0,110	0,040
-465,386	213,730	-0,064	0,073
-464,372	113,184	0,008	0,007
-463,357	-200,000	-0,005	0,102
-462,343	798,587	-0,037	-0,073
-461,328	-200,000	0,027	-0,132
-460,313	-53,217	0,089	0,029
-459,299	146,403	-0,102	-0,098
-458,284	-200,000	0,002	0,044
-457,270	81,607	-0,163	0,126
-456,255	83,131	-0,074	-0,058
-455,241	107,867	-0,022	0,019
-454,226	800,000	0,052	0,124
-453,211	-200,000	0,008	0,090
-452,197	-99,019	0,113	0,020
-451,182	800,000	-0,038	0,095
-450,168	706,635	-0,035	0,067
-449,153	-72,453	-0,083	-0,022
-448,138	800,000	-0,032	-0,066
-447,124	121,826	-0,045	-0,040
-446,109	-200,000	0,010	0,064
-445,095	34,404	0,142	-0,088
-444,080	800,000	-0,014	0,031
-443,065	800,000	-0,024	0,066
-442,051	-0,102	-0,046	0,023
-441,036	-96,098	-0,141	0,027
-440,022	-88,931	-0,065	0,014
-439,007	-200,000	0,025	0,166
-437,992	71,720	-0,057	-0,043
-436,978	9,864	0,117	-0,064
-435,963	162,909	0,035	-0,035
-434,949	-128,166	-0,155	0,016
-433,934	-200,000	-0,020	-0,084
-432,919	800,000	0,054	0,113
-431,905	-200,000	0,002	0,028
-430,890	-62,420	0,102	0,030
-429,876	-9,278	-0,108	0,051
-428,861	-200,000	0,036	-0,134
-427,846	-142,144	0,141	-0,010
-426,832	-14,588	-0,117	0,054
-425,817	-200,000	-0,005	-0,059
-424,803	60,699	0,056	-0,040
-423,788	257,029	-0,067	0,082
-422,773	-112,259	0,028	0,004
-421,759	-77,857	-0,138	0,034
-420,744	800,000	-0,038	-0,095
-419,730	27,060	-0,101	-0,061
-418,715	-125,282	-0,015	-0,002
-417,701	-200,000	0,025	-0,120
-416,686	-200,000	0,005	-0,016
-415,671	800,000	-0,024	-0,061
-414,657	116,832	0,056	-0,050
-413,642	-200,000	0,001	0,070
-412,628	398,957	0,054	-0,081
-411,613	30,883	0,135	-0,083
-410,598	-110,887	-0,039	-0,006
-409,584	-107,316	0,050	0,008
-408,569	193,049	0,077	-0,083
-407,555	107,722	-0,080	0,068
-406,540	30,333	-0,118	0,072
-405,525	-200,000	0,059	-0,219
-404,511	716,662	-0,082	-0,156
-403,496	800,000	-0,011	-0,035
-402,482	58,626	0,073	-0,051
-401,467	271,587	-0,022	0,027
-400,452	-17,197	0,083	0,037
-399,438	-103,308	-0,120	0,020
-398,423	-200,000	-0,022	-0,127
-397,409	800,000	-0,060	-0,149
-396,394	184,418	-0,049	0,052
-395,379	-36,116	0,137	0,053
-394,365	-200,000	0,010	0,080
-393,350	-200,000	-0,004	0,078
-392,336	44,379	0,039	-0,026
-391,321	-200,000	0,001	0,069
-390,306	800,000	0,032	-0,078
-389,292	710,708	-0,030	0,057
-388,277	204,129	0,035	0,039
-387,263	800,000	0,043	-0,109
-386,248	-200,000	-0,002	0,055
-385,233	223,589	-0,020	0,024
-384,219	800,000	-0,013	-0,030
-383,204	654,001	0,040	0,074
-382,190	41,789	-0,095	0,061
-381,175	-114,922	0,053	-0,007
-380,160	-39,661	0,071	-0,026
-379,146	93,371	0,118	0,095
-378,131	131,221	0,158	0,145
-377,117	38,175	-0,156	0,099
-376,102	-200,000	0,017	0,131
-375,088	-200,000	0,003	-0,052
-374,073	-86,745	0,055	-0,012
-373,058	129,519	0,054	0,050
-372,044	-200,000	-0,009	0,081
-371,029	800,000	0,041	0,098
-370,015	248,786	-0,030	0,037
-369,000	86,689	0,118	-0,093
-367,985	-200,000	0,008	0,044
-366,971	21,597	0,051	0,029
-365,956	-110,054	0,091	0,013
-364,942	153,360	0,077	0,076
-363,927	-200,000	0,007	0,066
-362,912	800,000	0,028	0,059
-361,898	-200,000	-0,025	0,132
-360,883	-200,000	0,022	-0,248
-359,869	66,895	0,116	0,084
-358,854	205,863	0,029	0,032
-357,839	-200,000	0,035	0,117
-356,825	-200,000	0,005	0,092
-355,810	-192,638	0,083	0,001
-354,796	183,732	-0,037	0,039
-353,781	-200,000	-0,009	-0,124
-352,766	-51,549	-0,044	-0,014
-351,752	-42,053	0,137	-0,050
-350,737	-200,000	0,015	0,052
-349,723	-200,000	0,018	-0,084
-348,708	19,564	-0,078	-0,044
-347,693	22,473	0,032	-0,018
-346,679	800,000	-0,038	-0,085
-345,664	-35,962	-0,063	0,024
-344,650	13,065	-0,034	-0,019
-343,635	60,700	0,146	-0,103
-342,620	-75,567	-0,061	0,015
-341,606	-200,000	0,003	0,039
-340,591	-129,258	-0,013	0,001
-339,577	25,762	-0,118	0,070
-338,562	233,683	-0,080	0,094
-337,548	800,000	0,017	-0,048
-336,533	800,000	0,016	-0,032
-335,518	800,000	-0,022	-0,053
-334,504	24,231	0,135	-0,079
-333,489	-92,553	0,073	-0,014
-332,475	178,436	-0,039	-0,041
-331,460	117,301	-0,121	0,106
-330,445	-25,463	0,071	-0,030
-329,431	-200,000	-0,025	0,093
-328,416	-200,000	0,018	0,179
-327,402	132,780	-0,097	0,089
-326,387	-9,371	0,049	-0,023
-325,372	800,000	-0,039	-0,080
-324,358	-124,905	0,055	0,006
-323,343	83,533	-0,083	-0,064
-322,329	193,816	0,061	0,065
-321,314	37,138	-0,065	-0,041
-320,299	-200,000	0,021	-0,069
-319,285	-43,745	-0,036	-0,013
-318,270	-200,000	-0,015	0,081
-317,256	349,948	-0,014	0,020
-316,241	436,470	0,062	-0,096
-315,226	800,000	0,081	-0,207
-314,212	800,000	0,036	0,107
-313,197	87,458	0,054	-0,042
-312,183	-108,000	-0,041	-0,006
-311,168	7,130	0,102	0,054
-310,153	7,049	0,052	-0,028
-309,139	-200,000	-0,018	0,211
-308,124	426,329	0,028	-0,044
-307,110	-200,000	-0,009	0,041
-306,095	-73,432	-0,092	-0,024
-305,080	672,880	-0,040	0,074
-304,066	7,649	0,078	-0,042
-303,051	-200,000	0,025	-0,132
-302,037	800,000	0,053	0,108
-301,022	-64,909	-0,046	0,013
-300,008	-200,000	0,027	0,136
-298,993	419,122	0,065	0,099
-297,978	-200,000	-0,006	-0,022
-296,964	-200,000	0,006	-0,061
-295,949	-141,719	0,059	0,004
-294,935	-200,000	0,009	-0,112
-293,920	-200,000	0,001	-0,046
-292,905	6,745	0,114	-0,060
-291,891	39,841	-0,073	-0,046
-290,876	-200,000	-0,017	0,079
-289,862	-200,000	-0,000	0,138
-288,847	236,667	-0,063	-0,075
-287,832	-127,144	0,073	0,008
-286,818	16,233	-0,120	-0,067
-285,803	-89,853	0,114	-0,024
-284,789	418,527	0,078	0,118
-283,774	340,290	0,038	0,053
-282,759	-200,000	0,036	0,176
-281,745	162,164	-0,036	0,036
-280,730	226,755	0,052	-0,060
-279,716	-8,429	-0,136	0,065
-278,701	-51,811	0,108	0,035
-277,686	-200,000	0,011	0,060
-276,672	-200,000	-0,004	-0,096
-275,657	-56,832	-0,118	0,037
-274,643	37,241	0,092	0,058
-273,628	594,840	-0,091	-0,161
-272,613	53,982	0,107	-0,073
-271,599	-14,627	0,015	0,007
-270,584	-200,000	0,003	0,052
-269,570	-147,353	-0,026	0,002
-268,555	-97,813	-0,078	0,014
-267,540	24,089	-0,125	-0,073
-266,526	88,169	-0,079	-0,063
-265,511	6,318	-0,085	-0,045
-264,497	110,376	0,059	0,050
-263,482	800,000	0,080	0,211
-262,467	-200,000	0,044	0,272
-261,453	43,351	0,128	0,083
-260,438	-179,853	-0,065	0,001
-259,424	-200,000	0,034	0,151
-258,409	-98,554	0,129	-0,023
-257,395	-200,000	-0,006	0,083
-256,380	800,000	0,041	0,090
-255,365	-200,000	0,041	0,164
-254,351	-79,554	-0,048	0,011
-253,336	15,927	-0,104	0,058
-252,322	280,306	0,082	0,104
-251,307	-200,000	0,013	-0,047
-250,292	126,756	-0,079	-0,071
-249,278	45,368	0,142	0,093
-248,263	88,262	0,054	-0,043
-247,249	-200,000	0,004	-0,100
-246,234	-144,101	-0,166	0,011
-245,219	800,000	0,020	0,062
-244,205	74,642	-0,040	-0,029
-243,190	298,765	-0,084	0,110
-242,176	-200,000	-0,028	0,125
-241,161	800,000	0,022	0,049
-240,146	800,000	0,004	0,009
-239,132	216,002	-0,020	-0,023
-238,117	-200,000	0,001	0,066
-237,103	-200,000	0,039	0,142
-236,088	321,891	-0,118	0,160
-235,073	-193,605	-0,082	-0,000
-234,059	-118,582	0,075	-0,009
-233,044	800,000	0,019	-0,041
-232,030	85,136	0,092	0,071
-231,015	695,337	0,077	-0,143
-230,000	-200,000	0,022	-0,137
-228,986	800,000	0,014	0,041
-227,971	586,950	0,055	0,096
-226,957	17,086	0,125	0,070
-225,942	-200,000	-0,021	-0,138
-224,927	142,917	-0,036	-0,034
-223,913	139,930	0,039	-0,036
-222,898	800,000	-0,045	0,101
-221,884	-200,000	0,014	0,058
-220,869	6,103	0,092	0,048
-219,855	-20,596	-0,227	-0,099
-218,840	800,000	-0,038	-0,096
-217,825	800,000	0,008	-0,022
-216,811	-69,159	0,104	-0,028
-215,796	-15,216	-0,057	0,026
-214,782	800,000	-0,039	-0,097
-213,767	388,867	0,073	-0,108
-212,752	45,585	0,065	-0,043
-211,738	-200,000	0,028	0,114
-210,723	-106,094	0,115	0,018
-209,709	10,764	-0,143	-0,077
-208,694	-32,712	-0,148	0,058
-207,679	-200,000	0,013	-0,149
-206,665	-200,000	-0,000	-0,027
-205,650	670,530	-0,009	0,017
-204,636	52,219	0,142	0,096
-203,621	-153,426	-0,040	0,002
-202,606	-157,157	-0,060	-0,003
-201,592	800,000	0,010	-0,026
-200,577	-200,000	0,016	-0,144
-199,563	255,320	-0,077	-0,094
-198,548	115,995	-0,040	0,035
-197,533	8,988	0,166	0,088
-196,519	101,323	0,025	-0,021
-195,504	-90,045	0,090	-0,018
-194,490	800,000	0,039	-0,087
-193,475	293,780	-0,059	-0,077
-192,460	60,435	-0,058	-0,041
-191,446	-200,000	0,008	-0,097
-190,431	-200,000	-0,005	0,073
-189,417	800,000	0,034	0,099
-188,402	-182,117	-0,046	-0,001
-187,387	800,000	-0,020	-0,050
-186,373	-90,530	-0,060	-0,012
-185,358	-200,000	-0,010	0,035
-184,344	11,949	0,078	0,042
-183,329	800,000	0,037	0,107
-182,315	311,946	-0,043	-0,057
-181,300	780,425	0,034	0,065
-180,285	-200,000	0,004	0,016
-179,271	-33,551	0,065	0,025
-178,256	-200,000	-0,012	-0,150
-177,242	99,776	0,110	-0,090
-176,227	-20,844	-0,182	0,079
-175,212	-200,000	0,034	0,204
-174,198	-200,000	-0,014	0,166
-173,183	-127,036	0,146	0,015
-172,169	322,410	-0,067	0,090
-171,154	13,095	-0,038	0,021
-170,139	121,425	-0,009	-0,008
-169,125	-79,938	-0,109	0,026
-168,110	-25,822	0,118	-0,049
-167,096	-175,447	0,091	0,002
-166,081	-200,000	0,019	0,071
-165,066	-86,326	0,110	-0,024
-164,052	230,204	0,030	0,034
-163,037	800,000	0,027	0,082
-162,023	-200,000	0,034	0,145
-161,008	-133,943	0,160	-0,014
-159,993	800,000	-0,020	-0,058
-158,979	8,021	-0,105	-0,056
-157,964	188,734	-0,063	0,067
-156,950	800,000	0,017	-0,038
-155,935	-166,622	-0,088	0,003
-154,920	-91,840	0,015	0,003
-153,906	-123,548	0,070	-0,008
-152,891	116,473	-0,022	0,019
-151,877	72,928	0,063	-0,047
-150,862	-200,000	-0,008	-0,046
-149,847	-52,591	0,069	-0,023
-148,833	-200,000	-0,002	-0,078
-147,818	108,713	0,062	0,052
-146,804	524,606	0,028	0,046
-145,789	-200,000	0,006	0,084
-144,775	38,903	-0,120	0,076
-143,760	0,817	-0,061	-0,031
-142,745	800,000	-0,040	-0,087
-141,731	-200,000	-0,006	0,054
-140,716	-1,056	-0,083	0,041
-139,702	67,963	-0,078	0,057
-138,687	800,000	-0,020	-0,045
-137,672	-200,000	0,011	-0,156
-136,658	-170,635	-0,094	0,002
-135,643	105,464	-0,058	-0,048
-134,629	36,674	0,068	0,042
-133,614	603,018	-0,025	-0,044
-132,599	800,000	-0,037	0,113
-131,585	136,252	-0,044	0,041
-130,570	-200,000	-0,013	-0,126
-129,556	-80,364	-0,111	0,026
-128,541	-45,365	0,068	-0,024
-127,526	-78,733	0,038	0,009
-126,512	800,000	0,032	0,091
-125,497	800,000	0,026	0,078
-124,483	-141,489	0,118	0,008
-123,468	257,289	0,027	-0,033
-122,453	-199,302	0,092	-0,000
-121,439	-200,000	-0,026	-0,132
-120,424	-124,433	-0,127	-0,014
-119,410	-200,000	-0,026	-0,159
-118,395	-91,314	0,231	0,046
-117,380	-200,000	-0,018	0,111
-116,366	-3,968	0,080	0,039
-115,351	44,707	-0,117	0,076
-114,337	-129,176	-0,178	0,017
-113,322	-200,000	-0,014	-0,175
-112,307	-200,000	0,037	-0,184
-111,293	282,865	-0,085	0,108
-110,278	464,086	0,094	0,150
-109,264	272,672	-0,068	-0,085
-108,249	-200,000	0,039	0,121
-107,234	761,309	-0,092	-0,178
-106,220	-200,000	-0,008	-0,064
-105,205	-200,000	0,028	0,126
-104,191	-200,000	0,038	0,123
-103,176	-8,186	0,142	0,067
-102,162	-200,000	-0,025	0,138
-101,147	-56,772	-0,031	0,010
-100,132	22,429	-0,034	-0,020
-99,118	-35,281	-0,011	0,004
-98,103	634,325	-0,039	0,069
-97,089	9,519	0,088	0,047
-96,074	-200,000	-0,005	0,055
-95,059	498,054	0,022	0,035
-94,045	22,140	-0,116	-0,067
-93,030	149,857	-0,089	-0,085
-92,016	800,000	-0,030	-0,071
-91,001	-200,000	0,018	-0,094
-89,986	8,889	0,052	0,028
-88,972	301,169	0,057	0,075
-87,957	-200,000	0,004	-0,090
-86,943	800,000	-0,061	0,149
-85,928	800,000	-0,049	-0,100
-84,913	489,865	0,079	-0,128
-83,899	331,587	-0,068	-0,093
-82,884	800,000	-0,047	0,115
-81,870	312,400	0,027	0,036
-80,855	-131,975	-0,052	-0,005
-79,840	-200,000	-0,002	-0,074
-78,826	518,056	-0,048	0,080
-77,811	-35,010	-0,114	-0,044
-76,797	144,857	0,119	-0,113
-75,782	-200,000	0,035	0,128
-74,767	800,000	0,031	-0,067
-73,753	38,273	-0,089	-0,056
-72,738	800,000	-0,066	-0,145
-71,724	-200,000	-0,013	-0,063
-70,709	-46,760	-0,090	0,031
-69,694	245,110	0,033	-0,039
-68,680	-200,000	-0,022	0,142
-67,665	800,000	-0,048	0,135
-66,651	-112,428	0,141	0,020
-65,636	138,319	0,071	0,066
-64,622	800,000	0,047	0,130
-63,607	65,875	0,028	0,020
-62,592	-20,911	-0,078	-0,033
-61,578	-200,000	0,002	0,042
-60,563	112,025	0,083	0,071
-59,549	800,000	-0,038	0,083
-58,534	42,047	-1,812	-1,157
-57,519	489,002	-1,301	-2,104
-56,505	-200,000	-0,450	-4,375
-55,490	613,329	0,786	1,393
-54,476	800,000	5,152	11,527
-53,461	-200,000	21,058	333,099
-52,446	800,000	759,174	2326,461
-51,432	549,339	1663,861	2822,137
-50,417	73,296	1664,721	1226,305
-49,403	18,541	1537,705	864,263
-48,388	12,489	1460,550	791,633
-47,373	19,125	1451,300	818,428
-46,359	15,778	1440,498	796,390
-45,344	10,823	1436,576	770,606
-44,330	10,690	1434,560	768,859
-43,315	10,712	1432,698	767,937
-42,300	10,678	1430,951	766,810
-41,286	10,719	1429,717	766,310
-40,271	10,691	1428,541	765,516
-39,257	10,678	1427,497	764,866
-38,242	10,746	1426,098	764,409
-37,227	10,744	1424,763	763,653
-36,213	10,747	1423,719	763,076
-35,198	10,752	1422,587	762,465
-34,184	10,770	1421,608	761,994
-33,169	10,700	1420,273	760,916
-32,154	10,813	1419,172	760,829
-31,140	10,815	1418,063	760,217
-30,125	10,850	1416,868	759,709
-29,111	10,784	1415,888	758,842
-28,096	10,760	1414,687	758,057
-27,082	10,767	1413,114	757,218
-26,067	10,691	1412,496	756,500
-25,052	10,767	1411,276	756,170
-24,038	10,724	1410,232	755,383
-23,023	10,699	1409,492	754,838
-22,009	10,694	1408,462	754,231
-20,994	10,722	1407,232	753,674
-19,979	10,706	1406,616	753,242
-18,965	10,675	1405,494	752,463
-17,950	10,649	1404,503	751,783
-16,936	10,693	1403,765	751,562
-15,921	10,589	1402,875	750,574
-14,906	10,590	1401,829	749,987
-13,892	10,634	1400,894	749,665
-12,877	10,617	1400,071	749,114
-11,863	10,611	1399,475	748,739
-10,848	10,573	1398,529	748,024
-9,833	10,573	1397,373	747,378
-8,819	10,510	1396,663	746,675
-7,804	10,518	1395,804	746,224
-6,790	10,497	1394,705	745,510
-5,775	10,536	1393,825	745,189
-4,760	10,547	1392,671	744,593
-3,746	10,594	1391,825	744,330
-2,731	10,529	1390,947	743,533
-1,717	10,519	1390,148	743,029
-0,702	10,527	1388,250	742,021
0,313	14,612	1301,832	714,511
1,327	30,942	692,782	417,320
2,342	47,673	120,495	79,065
3,356	3,077	16,517	8,430
4,371	-4,896	3,531	1,708
5,386	0,774	0,852	0,428
6,400	-200,000	0,141	0,594
7,415	15,666	-0,215	-0,119
8,429	58,751	-0,215	-0,149
9,444	-4,123	-0,254	-0,123
10,459	-26,869	-0,279	-0,114
11,473	201,537	-0,179	-0,194
12,488	-159,932	-0,438	-0,017
13,502	-7,272	-0,319	-0,152
14,517	46,516	-0,252	-0,164
15,531	249,049	-0,263	-0,314
16,546	-19,929	-0,316	-0,137
17,561	98,827	-0,305	-0,248
18,575	-74,001	-0,151	-0,038
19,590	164,758	-0,154	-0,153
20,604	130,352	-0,194	-0,175
21,619	25,729	-0,409	-0,239
22,634	123,634	-0,360	-0,318
23,648	110,102	-0,357	-0,301
24,663	92,178	-0,449	-0,355
25,677	40,992	-0,269	-0,171
26,692	222,501	-0,316	-0,358
27,707	146,688	-0,348	-0,329
28,721	0,219	-0,374	-0,187
29,736	21,526	-0,498	-0,284
30,750	20,028	-0,443	-0,250
31,765	259,362	-0,319	-0,388
32,780	66,077	-0,299	-0,213
33,794	283,220	-0,274	-0,346
34,809	81,039	-0,364	-0,276
35,823	137,896	-0,329	-0,303
36,838	82,565	-0,338	-0,258
37,853	-1,232	-0,347	-0,172
38,867	-14,519	-0,375	-0,169
39,882	50,408	-0,297	-0,197
40,896	115,936	-0,283	-0,243
41,911	215,293	-0,254	-0,283
42,926	120,203	-0,190	-0,166
43,940	70,537	-0,400	-0,290
44,955	125,940	-0,265	-0,235
45,969	90,884	-0,281	-0,221
46,984	61,103	-0,302	-0,210
47,999	542,704	-0,160	-0,268
49,013	-4,064	-0,306	-0,148
50,028	8,999	-0,341	-0,180
51,042	-72,092	-0,444	-0,115
52,057	21,157	-0,401	-0,228
53,071	289,504	-0,212	-0,270
54,086	-7,780	-0,349	-0,165
55,101	53,016	-0,344	-0,230
56,115	-46,621	-0,267	-0,091
57,130	19,069	-0,383	-0,215
58,144	112,080	-0,365	-0,309
59,159	357,550	-0,206	-0,288
60,174	-56,457	-0,488	-0,151
61,188	102,270	-0,253	-0,207
62,203	-35,551	-0,287	-0,109
63,217	34,906	-0,414	-0,254
64,232	83,403	-0,315	-0,240
65,247	33,910	-0,398	-0,242
66,261	163,889	-0,276	-0,273
67,276	62,088	-0,378	-0,264
68,290	161,381	-0,331	-0,324
69,305	-17,050	-0,283	-0,125
70,320	-26,679	-0,314	-0,128
71,334	78,291	-0,244	-0,182
72,349	-39,161	-0,390	-0,143
73,363	52,608	-0,330	-0,220
74,378	-12,941	-0,238	-0,108
75,393	52,159	-0,241	-0,161
76,407	273,901	-0,142	-0,177
77,422	1,934	-0,329	-0,165
78,436	-170,832	-0,312	0,007
79,451	160,967	-0,205	-0,201
80,466	-62,615	-0,355	-0,102
81,480	-25,921	-0,325	-0,133
82,495	-44,594	-0,334	-0,116
83,509	129,966	-0,258	-0,231
84,524	128,392	-0,183	-0,163
85,539	-71,053	-0,343	-0,090
86,553	-130,353	-0,263	-0,025
87,568	132,006	-0,233	-0,210
88,582	11,074	-0,274	-0,146
89,597	72,455	-0,354	-0,257
90,611	-62,157	-0,217	-0,063
91,626	-124,799	-0,347	-0,037
92,641	412,600	-0,199	-0,296
93,655	294,011	-0,196	-0,251
94,670	-1,792	-0,322	-0,158
95,684	113,822	-0,202	-0,171
96,699	532,267	-0,168	-0,279
97,714	222,353	-0,195	-0,220
98,728	349,350	-0,169	-0,234
99,743	-11,746	-0,311	-0,142
100,757	11,473	-0,231	-0,123
101,772	125,940	-0,211	-0,186
102,787	38,554	-0,258	-0,160
103,801	-93,822	-0,188	-0,036
104,816	62,660	-0,251	-0,175
105,830	-71,655	-0,321	-0,083
106,845	8,004	-0,264	-0,138
107,860	73,248	-0,198	-0,145
108,874	-94,883	-0,266	-0,050
109,889	36,363	-0,239	-0,146
110,903	131,684	-0,290	-0,261
111,918	93,164	-0,222	-0,175
112,933	-94,923	-0,296	-0,055
113,947	-81,680	-0,092	-0,021
114,962	129,280	-0,171	-0,152
115,976	89,883	-0,211	-0,165
116,991	312,277	-0,199	-0,261
118,006	15,028	-0,186	-0,101
119,020	-81,347	-0,276	-0,063
120,035	138,502	-0,261	-0,239
121,049	-161,623	-0,320	0,011
122,064	398,527	-0,114	-0,166
123,079	142,865	-0,252	-0,233
124,093	291,430	-0,242	-0,307
125,108	100,264	-0,351	-0,283
126,122	378,347	-0,164	-0,234
127,137	37,485	-0,172	-0,106
128,151	354,966	-0,178	-0,247
129,166	-12,674	-0,198	-0,090
130,181	14,653	-0,294	-0,159
131,195	-42,876	-0,184	-0,065
132,210	-92,102	-0,426	-0,083
133,224	58,070	-0,224	-0,153
134,239	800,000	-0,171	-0,410
135,254	58,896	-0,278	-0,190
136,268	-37,297	-0,316	-0,117
137,283	273,087	-0,215	-0,266
138,297	-8,014	-0,306	-0,143
139,312	52,887	-0,319	-0,212
140,327	800,000	-0,108	-0,296
141,341	-97,321	-0,207	-0,037
142,356	-141,269	-0,191	0,013
143,370	-26,184	-0,183	-0,075
144,385	2,546	-0,230	-0,116
145,400	109,362	-0,189	-0,158
146,414	83,757	-0,225	-0,171
147,429	105,090	-0,279	-0,229
148,443	34,371	-0,167	-0,101
149,458	74,779	-0,212	-0,155
150,473	784,737	-0,136	-0,261
151,487	307,743	-0,229	-0,298
152,502	-5,081	-0,281	-0,134
153,516	47,711	-0,214	-0,139
154,531	158,858	-0,277	-0,268
155,546	321,247	-0,180	-0,238
156,560	128,290	-0,261	-0,231
157,575	130,804	-0,186	-0,166
158,589	-135,327	-0,138	-0,011
159,604	-23,754	-0,329	-0,136
160,619	68,547	-0,278	-0,198
161,633	-141,938	-0,365	-0,025
162,648	-47,353	-0,271	-0,091
163,662	-56,406	-0,210	-0,064
164,677	-29,356	-0,296	-0,117
165,692	-16,057	-0,207	-0,091
166,706	189,949	-0,198	-0,207
167,721	132,983	-0,306	-0,275
168,735	1,684	-0,257	-0,128
169,750	99,390	-0,228	-0,183
170,764	143,047	-0,218	-0,202
171,779	-24,046	-0,360	-0,149
172,794	171,910	-0,171	-0,171
173,808	36,874	-0,243	-0,149
174,823	162,894	-0,286	-0,279
175,837	45,893	-0,281	-0,180
176,852	202,348	-0,174	-0,187
177,867	67,948	-0,191	-0,136
178,881	9,131	-0,138	-0,072
179,896	295,023	-0,121	-0,153
180,910	-27,157	-0,416	-0,167
181,925	-3,369	-0,230	-0,111
182,940	-67,912	-0,296	-0,080
183,954	-20,358	-0,198	-0,084
184,969	800,000	-0,063	-0,169
185,983	-61,104	-0,299	-0,087
186,998	-104,806	-0,282	-0,045
188,013	114,058	-0,140	-0,118
189,027	101,856	-0,291	-0,235
190,042	-76,008	-0,346	-0,084
191,056	205,093	-0,184	-0,198
192,071	226,354	-0,174	-0,196
193,086	800,000	-0,068	-0,140
194,100	-48,732	-0,173	-0,057
195,115	255,177	-0,203	-0,241
196,129	159,488	-0,205	-0,197
197,144	51,023	-0,290	-0,190
198,159	-67,490	-0,311	-0,084
199,173	444,675	-0,114	-0,174
200,188	43,231	-0,103	-0,065
201,202	-81,281	-0,127	0,029
202,217	282,878	-0,102	-0,127
203,232	80,725	-0,248	-0,185
204,246	275,036	-0,163	-0,200
205,261	1,985	-0,204	-0,101
206,275	-52,223	-0,152	-0,048
207,290	161,712	-0,097	-0,094
208,304	72,496	-0,208	-0,150
209,319	-200,000	-0,185	0,000
210,334	4,011	-0,264	-0,133
211,348	66,541	-0,249	-0,175
212,363	54,128	-0,319	-0,212
213,377	649,156	-0,094	-0,167
214,392	-172,329	-0,205	-0,004
215,407	-200,000	-0,056	-0,194
216,421	-200,000	0,022	-0,190
217,436	185,334	-0,184	-0,189
218,450	146,979	-0,188	-0,175
219,465	61,396	-0,312	-0,214
220,480	800,000	-0,079	-0,172
221,494	-62,118	-0,143	-0,041
222,509	371,193	-0,128	-0,179
223,523	60,669	-0,253	-0,173
224,538	-49,527	-0,221	-0,072
225,553	-39,378	-0,331	-0,119
226,567	-137,736	-0,092	-0,007
227,582	-104,930	-0,168	-0,026
228,596	-25,977	-0,115	-0,047
229,611	232,069	-0,129	-0,146
230,626	568,722	-0,066	-0,112
231,640	800,000	-0,092	-0,188
232,655	-128,940	-0,189	-0,018
233,669	-11,264	-0,312	-0,141
234,684	50,420	-0,186	-0,121
235,699	-93,192	-0,260	-0,050
236,713	800,000	-0,084	-0,176
237,728	246,423	-0,106	-0,124
238,742	165,980	-0,142	-0,138
239,757	203,162	-0,206	-0,220
240,772	296,282	-0,107	-0,136
241,786	334,241	-0,257	-0,344
242,801	132,650	-0,069	-0,062
243,815	792,638	-0,080	-0,152
244,830	111,763	-0,138	-0,115
245,844	103,469	-0,110	-0,089
246,859	-42,367	-0,263	-0,092
247,874	190,570	-0,186	-0,193
248,888	18,524	-0,205	-0,112
249,903	-32,423	-0,171	-0,065
250,917	391,231	-0,146	-0,209
251,932	-18,289	-0,107	0,046
252,947	-127,225	-0,158	-0,016
253,961	-124,344	-0,207	0,022
254,976	275,371	-0,056	-0,068
255,990	30,639	-0,196	-0,115
257,005	291,370	-0,173	-0,218
258,020	394,544	-0,115	-0,166
259,034	-74,857	-0,070	-0,017
260,049	-74,413	-0,157	-0,039
261,063	-19,800	-0,254	-0,108
262,078	194,797	-0,175	-0,183
263,093	321,315	-0,025	-0,033
264,107	8,790	-0,135	-0,070
265,122	-94,520	-0,249	-0,046
266,136	800,000	-0,151	-0,294
267,151	88,834	-0,110	-0,084
268,166	19,657	-0,269	-0,149
269,180	198,285	-0,180	-0,189
270,195	62,377	-0,221	-0,152
271,209	108,604	-0,190	-0,156
272,224	-81,577	-0,161	-0,036
273,239	-46,513	-0,144	-0,048
274,253	0,958	-0,195	-0,096
275,268	645,918	-0,081	-0,144
276,282	-28,147	-0,130	-0,051
277,297	160,329	-0,125	-0,120
278,312	800,000	-0,145	-0,346
279,326	380,906	-0,124	-0,175
280,341	-200,000	-0,014	0,047
281,355	-13,035	-0,107	-0,048
282,370	-79,399	-0,169	-0,039
283,384	-3,562	-0,207	-0,098
284,399	441,783	-0,093	-0,140
285,414	140,209	-0,143	-0,130
286,428	39,346	-0,214	-0,132
287,443	451,065	-0,111	-0,169
288,457	0,842	-0,146	-0,072
289,472	-200,000	-0,068	-0,208
290,487	-101,458	-0,189	0,031
291,501	112,603	-0,226	-0,188
292,516	-111,111	-0,227	-0,032
293,530	253,897	-0,081	-0,096
294,545	-200,000	-0,036	-0,167
295,560	-81,293	-0,140	0,031
296,574	212,435	-0,099	-0,108
297,589	209,223	-0,174	-0,188
298,603	-37,067	-0,112	-0,041
299,618	74,690	-0,181	-0,131
300,633	303,916	-0,128	-0,163
301,647	24,889	-0,092	-0,052
302,662	43,379	-0,043	-0,027
303,676	-134,418	-0,169	0,014
304,691	502,926	-0,078	-0,125
305,706	218,494	-0,183	-0,201
306,720	-60,088	-0,144	-0,042
307,735	-96,436	-0,188	-0,034
308,749	-8,168	-0,186	-0,085
309,764	-200,000	0,008	-0,184
310,779	126,916	-0,112	-0,097
311,793	-112,899	-0,224	0,030
312,808	90,989	-0,201	-0,154
313,822	28,946	-0,191	-0,111
314,837	800,000	-0,050	-0,106
315,852	-128,662	-0,274	0,026
316,866	42,142	-0,094	-0,058
317,881	-109,159	-0,229	-0,033
318,895	-200,000	-0,022	-0,160
319,910	86,096	-0,125	-0,094
320,925	474,267	-0,156	-0,242
321,939	280,881	-0,131	-0,161
322,954	34,571	-0,077	-0,046
323,968	-200,000	-0,026	-0,123
324,983	401,754	-0,097	-0,140
325,997	-20,975	-0,106	0,044
327,012	99,847	-0,153	-0,122
328,027	21,660	-0,140	-0,078
329,041	-51,015	-0,235	-0,075
330,056	-54,656	-0,212	-0,065
331,070	-56,911	-0,080	0,024
332,085	44,186	-0,139	0,087
333,100	-133,621	-0,141	-0,012
334,114	143,842	-0,173	-0,158
335,129	32,380	-0,215	-0,127
336,143	-129,321	-0,149	0,014
337,158	797,524	-0,034	-0,064
338,173	232,335	-0,081	-0,091
339,187	74,681	-0,194	-0,140
340,202	800,000	-0,048	-0,134
341,216	4,873	-0,185	-0,093
342,231	800,000	-0,054	-0,105
343,246	-136,585	-0,206	-0,016
344,260	800,000	-0,053	-0,159
345,275	800,000	-0,061	-0,169
346,289	-28,822	-0,185	-0,072
347,304	360,177	-0,137	-0,188
348,319	85,928	-0,227	-0,170
349,333	-168,443	-0,124	-0,003
350,348	143,333	-0,151	-0,138
351,362	488,683	-0,114	-0,178
352,377	447,708	-0,103	-0,156
353,392	142,911	-0,082	-0,075
354,406	-143,699	-0,064	0,004
355,421	206,404	1312,499	1397,319
356,435	158,740	1472,914	1397,794
