DTS Sentinel unit serial number:	SN410029Multiplexer serial number:	ORYXHardware model number:	OX2-SRSoftware version number:	ORYX F/W v4,00 Oryx Data Collector v3.7.2.0data status	okinstallation	B3 Nyhavnadifferential loss correction	single-endedforward channel	channel 1reverse channel	N/Adate	2023/12/02time	15:27:30forward acquisition time	300,00reverse acquisition time	0,00gamma	499,1914k internal	0,3197k external	0,3197temperature offset calibration	1,0000default loss term (dB/km)	0,3820temperature slope calibration	1,0000multiplexer offset coefficient	1,0000multiplexer slope coefficient	1,0000fibre end	0,00T internal ref (°C)	14,68T ext. ref 1 (°C)	-0,84T ext. ref 2 (°C)	-0,86length (m)	temperature (°C)	Stokes	anti-Stokes-744,400	120,684	-0,288	-0,260
-743,385	-200,000	-0,010	0,242
-742,371	800,000	-0,116	-0,295
-741,356	-200,000	0,003	0,429
-740,342	234,152	-0,233	-0,280
-739,327	-200,000	-0,065	0,221
-738,312	80,866	-0,255	-0,200
-737,298	-200,000	0,035	0,318
-736,283	800,000	-0,131	-0,342
-735,269	-200,000	0,071	0,497
-734,254	117,279	-0,224	-0,200
-733,239	800,000	-0,047	0,120
-732,225	-200,000	0,018	-0,168
-731,210	-200,000	0,023	0,199
-730,196	-200,000	0,001	-0,015
-729,181	-68,467	-0,135	-0,038
-728,167	-35,155	0,138	0,055
-727,152	400,605	-0,056	0,085
-726,137	-94,366	-0,116	-0,023
-725,123	7,694	-0,127	0,069
-724,108	800,000	-0,060	-0,186
-723,094	607,543	-0,043	-0,079
-722,079	171,247	0,031	0,032
-721,064	800,000	-0,025	-0,061
-720,050	-127,509	0,124	0,013
-719,035	-200,000	-0,006	0,072
-718,021	38,265	0,063	-0,041
-717,006	800,000	0,017	0,048
-715,991	535,404	-0,017	-0,030
-714,977	-76,958	0,138	-0,035
-713,962	58,497	-0,112	0,080
-712,948	-116,995	0,143	-0,019
-711,933	42,246	0,102	0,067
-710,918	800,000	0,049	0,122
-709,904	-200,000	-0,035	-0,192
-708,889	-200,000	-0,020	-0,184
-707,875	3,866	0,147	-0,078
-706,860	28,978	-0,083	0,051
-705,845	-110,214	0,117	-0,018
-704,831	-86,464	0,150	-0,033
-703,816	219,220	0,143	-0,167
-702,802	392,040	-0,057	-0,086
-701,787	-200,000	0,005	0,018
-700,772	18,092	-0,162	-0,094
-699,758	310,412	0,089	-0,121
-698,743	383,742	-0,027	0,041
-697,729	-145,821	-0,057	0,004
-696,714	364,875	0,076	-0,111
-695,699	-88,503	-0,252	0,054
-694,685	216,439	0,061	-0,071
-693,670	800,000	-0,062	-0,150
-692,656	235,363	-0,049	0,059
-691,641	-200,000	0,015	-0,121
-690,627	-200,000	-0,005	-0,078
-689,612	-23,503	-0,062	0,027
-688,597	800,000	0,032	-0,092
-687,583	-58,903	-0,095	-0,030
-686,568	-114,040	-0,124	-0,017
-685,554	155,505	-0,038	-0,038
-684,539	-14,430	0,061	-0,029
-683,524	198,085	-0,071	-0,079
-682,510	-200,000	0,016	-0,192
-681,495	153,354	0,104	-0,103
-680,481	-170,113	-0,111	0,003
-679,466	-84,870	-0,067	0,015
-678,451	-200,000	0,015	0,059
-677,437	-4,299	0,096	-0,048
-676,422	13,075	-0,031	-0,017
-675,408	800,000	0,030	0,078
-674,393	143,111	-0,046	0,044
-673,378	157,974	-0,080	-0,080
-672,364	257,255	-0,114	-0,143
-671,349	-200,000	0,019	-0,173
-670,335	800,000	0,035	-0,082
-669,320	-144,666	-0,036	0,002
-668,305	-200,000	0,007	0,031
-667,291	-137,736	0,047	-0,004
-666,276	-200,000	-0,002	-0,079
-665,262	-69,717	-0,127	0,035
-664,247	-65,428	0,109	-0,032
-663,232	9,481	-0,135	0,074
-662,218	-160,449	0,073	-0,003
-661,203	-200,000	0,030	0,117
-660,189	-136,476	-0,033	0,003
-659,174	-200,000	0,023	-0,179
-658,159	25,848	-0,157	-0,095
-657,145	-14,224	0,052	-0,024
-656,130	800,000	0,017	0,052
-655,116	139,519	0,059	0,057
-654,101	-15,923	-0,027	0,013
-653,086	243,810	-0,101	-0,124
-652,072	-200,000	0,015	-0,121
-651,057	-200,000	-0,011	0,051
-650,043	-51,881	-0,062	0,021
-649,028	800,000	0,011	0,023
-648,014	-200,000	-0,009	0,118
-646,999	9,951	0,137	-0,075
-645,984	-200,000	-0,004	0,026
-644,970	567,779	-0,095	0,168
-643,955	-55,314	-0,023	0,007
-642,941	55,815	-0,140	-0,098
-641,926	-200,000	-0,008	-0,111
-640,911	609,369	0,037	-0,068
-639,897	396,464	-0,029	-0,044
-638,882	-96,975	0,054	0,010
-637,868	800,000	0,021	-0,046
-636,853	-200,000	-0,004	0,101
-635,838	-200,000	-0,042	-0,151
-634,824	800,000	-0,025	-0,058
-633,809	-28,836	0,076	0,032
-632,795	396,990	0,050	0,075
-631,780	-169,907	0,119	0,003
-630,765	203,804	-0,074	-0,084
-629,751	-95,738	0,083	0,016
-628,736	-104,900	-0,042	0,007
-627,722	800,000	-0,039	-0,081
-626,707	294,328	-0,050	0,066
-625,692	543,686	0,035	-0,060
-624,678	306,600	0,052	0,070
-623,663	188,848	-0,057	0,062
-622,649	315,078	-0,022	-0,030
-621,634	800,000	-0,044	-0,108
-620,619	-200,000	-0,004	-0,016
-619,605	262,741	-0,041	-0,052
-618,590	800,000	-0,028	0,086
-617,576	216,213	0,132	0,153
-616,561	198,996	-0,060	-0,067
-615,546	674,489	-0,074	-0,140
-614,532	89,214	-0,093	-0,075
-613,517	84,981	-0,044	-0,035
-612,503	-159,400	0,145	-0,006
-611,488	-87,984	0,074	0,016
-610,474	75,125	-0,074	0,056
-609,459	-200,000	-0,007	-0,050
-608,444	30,384	0,136	-0,084
-607,430	781,177	-0,058	-0,115
-606,415	-200,000	-0,001	0,092
-605,401	-192,991	-0,189	0,001
-604,386	381,514	-0,021	-0,031
-603,371	-63,596	0,041	-0,012
-602,357	163,934	-0,060	-0,061
-601,342	87,294	0,032	-0,026
-600,328	-200,000	0,032	-0,181
-599,313	800,000	-0,071	-0,217
-598,298	319,579	-0,033	-0,045
-597,284	122,144	0,073	-0,066
-596,269	-27,922	0,044	-0,018
-595,255	800,000	-0,022	-0,065
-594,240	800,000	-0,034	-0,069
-593,225	129,863	-0,095	-0,088
-592,211	-135,209	0,111	-0,010
-591,196	253,676	-0,076	-0,094
-590,182	800,000	-0,019	0,049
-589,167	-129,283	0,041	-0,004
-588,152	-200,000	0,004	0,013
-587,138	800,000	-0,026	-0,060
-586,123	-7,391	-0,076	0,037
-585,109	-124,597	-0,142	0,016
-584,094	-108,794	-0,046	-0,007
-583,079	-200,000	0,009	-0,061
-582,065	-124,604	0,099	-0,011
-581,050	-200,000	0,011	0,061
-580,036	800,000	-0,052	-0,133
-579,021	511,565	0,040	0,068
-578,006	-182,540	-0,106	0,001
-576,992	575,388	0,040	0,072
-575,977	-100,675	0,099	-0,018
-574,963	-73,189	0,073	0,019
-573,948	-200,000	-0,005	0,023
-572,934	82,162	-0,029	0,022
-571,919	791,351	-0,006	0,012
-570,904	113,387	-0,042	-0,037
-569,890	-79,888	0,099	0,024
-568,875	-200,000	0,022	-0,135
-567,861	347,889	0,046	-0,066
-566,846	-151,834	0,131	0,007
-565,831	-31,185	-0,078	-0,032
-564,817	71,617	0,095	0,071
-563,802	-14,510	0,123	0,057
-562,788	-73,006	-0,117	-0,031
-561,773	-200,000	-0,008	0,075
-560,758	445,801	0,066	-0,105
-559,744	753,945	-0,036	0,070
-558,729	173,064	0,069	-0,071
-557,715	185,491	0,082	0,088
-556,700	-136,369	-0,143	-0,012
-555,685	800,000	-0,029	0,091
-554,671	800,000	-0,039	0,105
-553,656	-13,938	-0,069	0,032
-552,642	800,000	0,049	0,105
-551,627	800,000	0,066	0,156
-550,612	514,298	0,048	-0,081
-549,598	-114,650	-0,081	0,011
-548,583	-200,000	-0,006	-0,025
-547,569	196,959	-0,109	0,120
-546,554	-200,000	0,005	0,143
-545,539	23,448	0,056	0,033
-544,525	411,548	-0,076	0,117
-543,510	214,819	-0,037	-0,042
-542,496	-168,023	-0,094	0,003
-541,481	-42,640	0,153	-0,056
-540,466	800,000	-0,033	-0,074
-539,452	311,544	0,070	0,094
-538,437	30,866	-0,149	0,092
-537,423	-200,000	-0,019	-0,104
-536,408	-200,000	0,005	0,058
-535,393	43,952	-0,102	-0,067
-534,379	137,363	-0,101	-0,095
-533,364	-200,000	0,028	0,091
-532,350	-0,039	-0,089	0,046
-531,335	-56,967	-0,193	0,061
-530,321	428,090	0,106	0,166
-529,306	-108,754	0,048	0,007
-528,291	-169,503	-0,142	-0,004
-527,277	-8,607	0,136	0,066
-526,262	-152,497	0,089	-0,005
-525,248	-200,000	0,008	0,030
-524,233	-128,628	0,221	-0,022
-523,218	329,726	-0,079	0,109
-522,204	-200,000	0,009	0,067
-521,189	460,559	-0,075	-0,121
-520,175	234,690	0,012	-0,014
-519,160	179,367	-0,081	-0,086
-518,145	10,635	0,074	0,041
-517,131	-39,350	-0,187	-0,071
-516,116	14,737	0,074	0,042
-515,102	-99,995	0,150	-0,027
-514,087	4,151	-0,115	0,061
-513,072	623,489	-0,091	-0,166
-512,058	-200,000	0,022	-0,145
-511,043	-200,000	-0,004	-0,065
-510,029	380,252	0,075	0,112
-509,014	28,281	-0,020	-0,012
-507,999	-14,544	0,057	-0,026
-506,985	-200,000	-0,133	-0,000
-505,970	14,518	-0,214	-0,120
-504,956	-80,186	-0,044	0,011
-503,941	-200,000	0,001	0,010
-502,926	-91,671	0,077	-0,016
-501,912	-56,211	-0,058	-0,019
-500,897	-15,482	-0,028	0,013
-499,883	-19,439	0,047	0,021
-498,868	800,000	0,078	-0,191
-497,853	-200,000	0,013	-0,154
-496,839	104,115	0,151	0,128
-495,824	-109,347	0,037	-0,006
-494,810	709,450	0,051	-0,098
-493,795	170,727	-0,092	0,095
-492,781	5,304	-0,087	-0,046
-491,766	-28,968	-0,152	-0,063
-490,751	57,442	-0,044	-0,031
-489,737	-7,072	-0,022	0,011
-488,722	472,302	0,022	-0,036
-487,708	254,020	0,022	-0,027
-486,693	356,537	0,072	0,104
-485,678	193,562	0,046	-0,050
-484,664	48,844	-0,083	-0,056
-483,649	800,000	-0,021	0,043
-482,635	-21,883	-0,084	-0,037
-481,620	153,195	-0,051	-0,050
-480,605	-117,431	0,106	-0,014
-479,591	307,293	0,049	0,066
-478,576	482,864	-0,043	-0,070
-477,562	-45,521	-0,035	0,012
-476,547	223,708	-0,043	0,050
-475,532	273,644	0,114	-0,146
-474,518	-127,675	-0,052	-0,005
-473,503	-200,000	-0,007	-0,045
-472,489	-84,570	0,095	-0,022
-471,474	-200,000	0,025	0,103
-470,459	800,000	-0,027	0,059
-469,445	220,162	-0,075	0,086
-468,430	-4,274	0,096	0,048
-467,416	-37,091	-0,006	0,002
-466,401	440,750	-0,013	-0,021
-465,386	118,025	-0,060	0,053
-464,372	-200,000	-0,013	-0,137
-463,357	216,395	0,082	-0,094
-462,343	800,000	-0,015	-0,034
-461,328	8,901	-0,032	-0,017
-460,313	-75,268	-0,069	-0,018
-459,299	800,000	-0,024	-0,065
-458,284	-200,000	0,011	0,109
-457,270	217,741	0,062	0,071
-456,255	-43,392	0,177	-0,064
-455,241	-109,729	-0,076	-0,011
-454,226	120,101	0,093	-0,083
-453,211	-102,649	-0,056	-0,010
-452,197	800,000	-0,023	0,059
-451,182	800,000	-0,060	0,147
-450,168	229,340	0,040	-0,048
-449,153	-148,930	-0,115	-0,007
-448,138	91,063	0,074	0,060
-447,124	75,030	-0,125	0,095
-446,109	-101,389	0,107	0,019
-445,095	458,140	0,074	0,119
-444,080	-78,356	-0,086	0,021
-443,065	-200,000	0,013	0,100
-442,051	-200,000	-0,016	0,077
-441,036	-60,490	0,028	0,008
-440,022	800,000	-0,005	-0,013
-439,007	-200,000	0,006	0,114
-437,992	155,821	-0,106	-0,105
-436,978	-47,112	0,074	0,026
-435,963	-80,128	-0,063	0,015
-434,949	800,000	-0,019	0,050
-433,934	-68,319	-0,182	-0,050
-432,919	-53,704	0,105	0,034
-431,905	-3,689	-0,126	-0,063
-430,890	800,000	-0,019	0,050
-429,876	424,635	-0,122	0,190
-428,861	-72,464	-0,095	0,025
-427,846	-82,767	0,115	-0,026
-426,832	-200,000	-0,016	-0,056
-425,817	-200,000	-0,072	0,000
-424,803	-200,000	0,001	0,105
-423,788	-129,397	0,069	-0,007
-422,773	11,298	-0,250	0,137
-421,759	-67,122	0,080	0,023
-420,744	-200,000	-0,005	0,106
-419,730	-93,870	-0,079	0,015
-418,715	-128,063	0,034	0,003
-417,701	-52,864	-0,006	0,002
-416,686	267,349	0,083	0,104
-415,671	-44,199	0,110	0,039
-414,657	-200,000	-0,010	0,052
-413,642	-200,000	-0,021	0,146
-412,628	-200,000	0,016	0,075
-411,613	-200,000	0,010	-0,082
-410,598	-45,663	0,024	0,008
-409,584	128,009	-0,020	0,019
-408,569	9,936	0,033	0,018
-407,555	-200,000	0,008	0,071
-406,540	-90,148	-0,160	-0,033
-405,525	345,040	0,056	0,080
-404,511	-200,000	-0,040	0,167
-403,496	-155,347	-0,135	-0,006
-402,482	-200,000	-0,017	-0,083
-401,467	121,537	0,067	0,060
-400,452	-17,500	0,089	0,040
-399,438	1,076	0,112	-0,057
-398,423	-46,988	-0,069	0,024
-397,409	-78,678	-0,062	0,015
-396,394	-200,000	0,003	0,084
-395,379	-116,222	-0,114	0,015
-394,365	-8,412	0,051	-0,025
-393,350	-19,818	-0,121	-0,053
-392,336	-153,799	0,004	-0,000
-391,321	-3,137	-0,094	-0,047
-390,306	465,470	-0,088	-0,142
-389,292	35,106	-0,121	-0,076
-388,277	-200,000	0,011	0,075
-387,263	-200,000	0,045	0,255
-386,248	582,208	0,052	-0,092
-385,233	-63,643	-0,009	0,003
-384,219	675,482	0,052	-0,097
-383,204	-200,000	-0,014	-0,086
-382,190	-41,326	0,060	0,022
-381,175	-200,000	0,011	-0,109
-380,160	494,649	0,006	-0,011
-379,146	528,698	0,094	0,160
-378,131	-200,000	0,040	0,140
-377,117	-13,788	-0,063	0,029
-376,102	331,306	-0,014	0,020
-375,088	-78,785	-0,103	0,025
-374,073	185,328	0,031	0,033
-373,058	67,258	0,150	0,109
-372,044	800,000	-0,012	-0,036
-371,029	800,000	0,022	0,046
-370,015	-66,170	0,098	0,028
-369,000	-200,000	-0,004	0,061
-367,985	50,564	-0,063	-0,043
-366,971	213,198	0,057	-0,065
-365,956	-200,000	0,036	0,118
-364,942	-200,000	-0,012	0,085
-363,927	800,000	0,062	0,130
-362,912	-72,787	-0,095	-0,025
-361,898	222,968	0,064	0,074
-360,883	461,318	-0,048	0,076
-359,869	-110,699	0,133	0,020
-358,854	17,050	-0,023	0,013
-357,839	-118,091	0,078	0,010
-356,825	-200,000	0,000	0,006
-355,810	-104,097	0,051	-0,008
-354,796	-1,231	-0,049	0,025
-353,781	128,893	-0,088	-0,080
-352,766	800,000	-0,069	-0,171
-351,752	-120,910	-0,063	0,008
-350,737	-33,342	-0,091	-0,036
-349,723	-34,688	-0,049	0,019
-348,708	228,243	0,041	-0,049
-347,693	217,965	0,047	-0,054
-346,679	522,760	0,041	-0,070
-345,664	-200,000	-0,027	-0,102
-344,650	-136,916	0,074	0,006
-343,635	390,746	0,080	-0,120
-342,620	41,226	0,030	-0,019
-341,606	47,653	0,015	0,010
-340,591	636,199	-0,057	-0,104
-339,577	224,965	0,028	0,032
-338,562	-64,341	-0,111	0,032
-337,548	-200,000	0,052	0,165
-336,533	-200,000	0,029	0,099
-335,518	12,019	0,117	-0,064
-334,504	-104,655	0,145	-0,024
-333,489	189,988	0,134	-0,144
-332,475	63,156	0,058	-0,042
-331,460	120,050	-0,037	0,033
-330,445	-82,226	0,088	-0,020
-329,431	800,000	0,041	0,115
-328,416	-200,000	-0,005	0,137
-327,402	-200,000	-0,011	0,052
-326,387	-200,000	0,001	-0,046
-325,372	211,900	-0,133	-0,150
-324,358	138,465	0,095	0,089
-323,343	92,549	-0,099	-0,080
-322,329	543,453	0,085	-0,146
-321,314	800,000	0,035	0,100
-320,299	-200,000	0,000	-0,009
-319,285	124,191	-0,053	-0,048
-318,270	-114,043	-0,060	0,008
-317,256	-169,704	-0,051	-0,001
-316,241	72,204	0,093	-0,069
-315,226	-200,000	0,019	-0,139
-314,212	800,000	0,084	0,220
-313,197	-200,000	0,002	-0,034
-312,183	-200,000	-0,009	0,080
-311,168	129,355	-0,070	-0,064
-310,153	800,000	-0,111	-0,239
-309,139	-5,821	0,130	-0,064
-308,124	30,276	-0,067	0,041
-307,110	125,985	0,103	0,093
-306,095	186,243	-0,071	0,076
-305,080	-7,236	0,062	0,030
-304,066	-28,404	-0,046	0,019
-303,051	800,000	0,044	0,113
-302,037	-200,000	0,009	0,098
-301,022	-28,361	0,130	-0,053
-300,008	206,385	-0,019	-0,021
-298,993	-30,747	0,047	0,019
-297,978	503,848	0,069	0,115
-296,964	103,930	-0,080	-0,067
-295,949	-200,000	-0,023	-0,182
-294,935	-200,000	-0,007	-0,062
-293,920	490,910	0,060	-0,099
-292,905	-200,000	0,035	-0,159
-291,891	7,632	-0,041	-0,022
-290,876	481,838	-0,034	0,055
-289,862	-196,924	-0,065	0,000
-288,847	-124,449	-0,082	-0,009
-287,832	-50,599	0,111	-0,037
-286,818	-15,377	0,094	0,043
-285,803	800,000	0,034	0,095
-284,789	195,820	-0,074	0,080
-283,774	800,000	0,079	0,172
-282,759	164,576	-0,055	-0,056
-281,745	-40,879	0,083	0,031
-280,730	-149,667	-0,205	0,011
-279,716	-136,155	-0,014	0,001
-278,701	800,000	0,053	0,145
-277,686	26,042	0,160	0,095
-276,672	98,375	0,086	-0,071
-275,657	651,453	-0,024	-0,044
-274,643	160,342	0,044	-0,044
-273,628	-200,000	-0,055	-0,203
-272,613	-72,515	0,086	-0,023
-271,599	-30,676	0,035	0,014
-270,584	416,894	-0,072	0,111
-269,570	392,602	0,035	0,052
-268,555	-200,000	-0,002	-0,040
-267,540	123,046	-0,061	-0,055
-266,526	800,000	0,008	-0,018
-265,511	-119,187	-0,109	-0,013
-264,497	800,000	-0,039	-0,089
-263,482	685,164	0,006	0,012
-262,467	102,202	-0,123	-0,102
-261,453	-103,114	0,181	0,030
-260,438	-125,709	0,059	-0,006
-259,424	-200,000	0,031	-0,164
-258,409	-66,094	0,122	-0,034
-257,395	-200,000	-0,027	0,090
-256,380	39,089	-0,058	-0,037
-255,365	-85,324	0,107	-0,024
-254,351	-160,975	0,158	0,006
-253,336	-200,000	0,035	-0,144
-252,322	281,805	-0,069	-0,089
-251,307	788,569	-0,004	0,008
-250,292	157,165	-0,001	0,001
-249,278	-200,000	0,014	-0,064
-248,263	234,478	-0,042	0,050
-247,249	-200,000	0,001	-0,011
-246,234	-10,951	-0,023	0,011
-245,219	-121,473	0,036	0,004
-244,205	-200,000	-0,006	-0,129
-243,190	-86,561	-0,027	-0,006
-242,176	99,783	0,086	0,071
-241,161	-200,000	-0,016	0,072
-240,146	-200,000	0,052	0,164
-239,132	-200,000	0,003	0,047
-238,117	-12,289	-0,030	-0,014
-237,103	800,000	0,049	-0,129
-236,088	800,000	-0,055	-0,134
-235,073	777,076	0,046	0,091
-234,059	18,776	0,049	-0,028
-233,044	150,128	0,050	0,048
-232,030	-200,000	-0,024	0,078
-231,015	-200,000	0,022	0,148
-230,000	411,098	0,044	-0,066
-228,986	-45,271	0,027	0,009
-227,971	-200,000	0,003	0,048
-226,957	-200,000	-0,007	0,149
-225,942	357,195	-0,080	0,114
-224,927	243,411	-0,033	-0,040
-223,913	-80,445	-0,053	-0,013
-222,898	-93,307	-0,118	0,023
-221,884	92,495	0,045	0,036
-220,869	646,829	0,069	0,126
-219,855	-65,460	0,118	0,033
-218,840	-50,900	-0,063	-0,021
-217,825	-3,791	0,083	0,041
-216,811	-89,691	0,067	0,014
-215,796	-138,037	-0,105	0,008
-214,782	65,290	0,021	-0,015
-213,767	-200,000	-0,000	0,094
-212,752	24,417	0,077	-0,045
-211,738	146,100	0,070	0,067
-210,723	239,176	0,028	-0,034
-209,709	97,995	0,034	-0,028
-208,694	273,896	-0,095	-0,120
-207,679	225,861	-0,066	-0,076
-206,665	800,000	-0,006	-0,016
-205,650	-152,532	0,129	-0,006
-204,636	89,720	0,031	0,025
-203,621	-200,000	-0,012	0,083
-202,606	-158,751	-0,069	0,003
-201,592	185,809	-0,074	-0,079
-200,577	605,743	-0,035	0,062
-199,563	223,503	0,091	0,105
-198,548	-21,833	0,080	0,035
-197,533	-7,333	0,089	-0,043
-196,519	-200,000	-0,001	0,055
-195,504	32,178	-0,014	0,008
-194,490	-200,000	-0,005	-0,081
-193,475	-102,559	-0,163	0,028
-192,460	-200,000	-0,008	0,057
-191,446	800,000	0,037	0,091
-190,431	614,691	0,057	-0,103
-189,417	-54,950	0,087	0,028
-188,402	219,405	0,056	-0,065
-187,387	-200,000	0,015	-0,125
-186,373	-200,000	-0,022	-0,129
-185,358	800,000	0,065	-0,130
-184,344	-146,651	-0,125	-0,008
-183,329	-120,554	0,083	0,010
-182,315	-182,409	0,048	0,001
-181,300	107,863	0,033	0,028
-180,285	-88,035	-0,024	-0,005
-179,271	90,568	-0,090	-0,071
-178,256	-200,000	-0,011	-0,078
-177,242	-113,536	0,034	-0,005
-176,227	486,873	0,042	0,068
-175,212	-10,380	0,082	0,038
-174,198	800,000	0,066	0,134
-173,183	-80,883	-0,223	0,052
-172,169	-71,982	0,035	0,009
-171,154	91,575	0,113	-0,091
-170,139	-200,000	-0,027	-0,141
-169,125	32,451	0,048	0,029
-168,110	-200,000	-0,017	0,080
-167,096	101,694	-0,021	-0,017
-166,081	184,827	-0,022	-0,023
-165,066	32,150	-0,086	-0,052
-164,052	-187,835	0,039	-0,000
-163,037	-200,000	-0,001	-0,052
-162,023	-97,520	-0,087	-0,016
-161,008	-3,610	0,038	-0,019
-159,993	-127,292	-0,048	0,005
-158,979	-12,270	-0,082	0,038
-157,964	110,199	-0,061	-0,052
-156,950	746,750	0,046	-0,089
-155,935	72,751	0,099	-0,074
-154,920	-80,824	-0,163	-0,038
-153,906	-200,000	0,015	0,054
-152,891	656,838	-0,017	0,032
-151,877	619,480	-0,055	0,098
-150,862	25,547	-0,079	0,047
-149,847	-102,946	0,049	-0,008
-148,833	-11,240	-0,087	0,041
-147,818	324,463	0,009	-0,013
-146,804	162,219	-0,110	0,110
-145,789	-200,000	0,005	0,121
-144,775	-200,000	-0,001	-0,027
-143,760	76,347	-0,051	-0,039
-142,745	-152,735	-0,013	-0,001
-141,731	242,390	0,045	0,054
-140,716	60,846	0,033	0,023
-139,702	102,283	0,070	0,058
-138,687	609,217	0,028	-0,049
-137,672	-200,000	-0,024	0,137
-136,658	549,697	-0,028	0,048
-135,643	126,610	0,053	-0,048
-134,629	-200,000	-0,027	-0,156
-133,614	89,865	0,037	-0,029
-132,599	-200,000	-0,010	0,090
-131,585	800,000	0,036	0,078
-130,570	800,000	-0,018	0,040
-129,556	143,236	0,032	-0,030
-128,541	-200,000	-0,020	-0,079
-127,526	213,323	-0,064	-0,072
-126,512	-59,855	-0,117	0,035
-125,497	230,246	-0,087	0,101
-124,483	-200,000	0,004	0,079
-123,468	201,481	-0,056	0,061
-122,453	470,701	0,107	-0,171
-121,439	-41,501	-0,062	0,023
-120,424	-200,000	-0,010	0,147
-119,410	413,201	-0,060	0,090
-118,395	53,257	0,067	0,046
-117,380	-39,213	0,151	0,056
-116,366	182,645	0,042	-0,044
-115,351	-70,974	0,068	-0,018
-114,337	800,000	-0,042	-0,107
-113,322	200,417	0,079	-0,086
-112,307	-122,024	-0,079	-0,009
-111,293	-99,003	0,193	-0,034
-110,278	-85,178	0,050	-0,011
-109,264	-87,837	0,056	0,012
-108,249	-200,000	-0,010	-0,238
-107,234	190,102	-0,152	-0,163
-106,220	487,529	-0,113	-0,184
-105,205	586,111	0,037	-0,065
-104,191	-29,760	-0,063	-0,025
-103,176	200,196	0,147	0,161
-102,162	513,571	-0,040	0,066
-101,147	218,345	-0,032	-0,037
-100,132	-128,582	-0,048	-0,005
-99,118	237,720	0,069	0,081
-98,103	-25,256	0,126	0,053
-97,089	-200,000	0,002	0,040
-96,074	646,413	-0,043	-0,078
-95,059	800,000	0,046	0,121
-94,045	-100,504	-0,114	0,020
-93,030	255,031	-0,025	-0,030
-92,016	285,056	0,076	-0,097
-91,001	55,688	0,124	0,085
-89,986	-115,262	0,096	-0,013
-88,972	248,292	0,076	-0,092
-87,957	125,231	-0,044	0,040
-86,943	-200,000	0,009	-0,063
-85,928	800,000	0,020	0,046
-84,913	-16,745	0,067	0,030
-83,899	128,837	0,074	-0,067
-82,884	-9,033	0,127	0,060
-81,870	-112,569	0,014	0,002
-80,855	29,363	-0,040	0,024
-79,840	-148,344	0,015	0,001
-78,826	-200,000	0,000	-0,122
-77,811	14,080	-0,127	-0,070
-76,797	0,237	0,113	0,057
-75,782	-200,000	-0,004	0,076
-74,767	257,483	-0,098	0,120
-73,753	170,186	0,049	-0,050
-72,738	800,000	0,021	-0,055
-71,724	800,000	-0,019	0,042
-70,709	-200,000	0,005	-0,033
-69,694	-121,436	-0,166	0,019
-68,680	185,561	0,035	0,037
-67,665	800,000	0,064	0,130
-66,651	-200,000	0,030	-0,102
-65,636	-27,333	-0,049	0,020
-64,622	-200,000	-0,020	0,164
-63,607	-16,807	-0,079	-0,035
-62,592	15,586	0,032	0,018
-61,578	-97,139	-0,104	0,019
-60,563	-200,000	-0,018	0,107
-59,549	105,877	0,037	0,031
-58,534	-61,550	-1,491	-0,441
-57,519	389,225	-1,475	-2,173
-56,505	-200,000	-0,573	-4,564
-55,490	159,665	1,045	1,032
-54,476	800,000	4,889	11,264
-53,461	-200,000	18,364	293,391
-52,446	800,000	729,657	2247,401
-51,432	558,807	1645,922	2826,470
-50,417	78,942	1666,620	1263,291
-49,403	22,616	1539,641	890,854
-48,388	16,545	1462,640	816,858
-47,373	17,844	1452,783	817,585
-46,359	17,156	1443,211	808,872
-45,344	14,830	1438,490	795,074
-44,330	14,747	1436,457	793,522
-43,315	14,734	1434,843	792,536
-42,300	14,744	1433,161	791,626
-41,286	14,766	1432,162	791,145
-40,271	14,715	1430,828	790,133
-39,257	14,761	1429,473	789,575
-38,242	14,811	1428,015	788,977
-37,227	14,816	1426,964	788,389
-36,213	14,773	1425,687	787,447
-35,198	14,777	1424,669	786,874
-34,184	14,823	1423,583	786,457
-33,169	14,749	1422,291	785,365
-32,154	14,794	1421,462	785,087
-31,140	14,796	1419,878	784,192
-30,125	14,813	1418,952	783,729
-29,111	14,847	1417,685	783,159
-28,096	14,807	1416,533	782,303
-27,082	14,687	1415,745	781,271
-26,067	14,730	1414,361	780,676
-25,052	14,694	1413,494	780,001
-24,038	14,692	1412,433	779,374
-23,023	14,708	1411,166	778,717
-22,009	14,669	1410,429	778,100
-20,994	14,678	1409,510	777,603
-19,979	14,682	1408,696	777,139
-18,965	14,607	1407,583	776,143
-17,950	14,611	1406,513	775,542
-16,936	14,644	1405,551	775,138
-15,921	14,597	1404,634	774,379
-14,906	14,603	1403,700	773,863
-13,892	14,654	1402,653	773,494
-12,877	14,567	1401,913	772,646
-11,863	14,591	1401,120	772,292
-10,848	14,574	1400,189	771,669
-9,833	14,613	1399,123	771,233
-8,819	14,549	1398,266	770,433
-7,804	14,538	1397,168	769,744
-6,790	14,504	1396,346	769,106
-5,775	14,537	1395,296	768,648
-4,760	14,548	1394,186	768,060
-3,746	14,523	1393,713	767,648
-2,731	14,428	1393,088	766,834
-1,717	14,501	1391,966	766,528
-0,702	14,511	1389,889	765,397
0,313	18,231	1308,734	737,965
1,327	34,455	706,125	435,783
2,342	52,949	124,259	84,071
3,356	5,684	16,570	8,648
4,371	-4,795	3,160	1,538
5,386	-58,567	0,548	0,167
6,400	-122,740	0,145	0,016
7,415	-112,001	-0,142	0,020
8,429	351,397	-0,144	-0,202
9,444	-0,035	-0,385	-0,194
10,459	66,400	-0,292	-0,210
11,473	30,755	-0,303	-0,183
12,488	-17,003	-0,298	-0,133
13,502	-76,234	-0,266	-0,066
14,517	142,316	-0,443	-0,416
15,531	78,301	-0,430	-0,324
16,546	204,820	-0,335	-0,368
17,561	338,815	-0,313	-0,432
18,575	-153,342	-0,274	0,013
19,590	201,020	-0,246	-0,268
20,604	69,434	-0,266	-0,193
21,619	91,457	-0,421	-0,334
22,634	35,282	-0,512	-0,317
23,648	73,171	-0,418	-0,309
24,663	204,506	-0,386	-0,424
25,677	109,094	-0,280	-0,237
26,692	-13,156	-0,475	-0,217
27,707	212,604	-0,231	-0,258
28,721	18,037	-0,378	-0,212
29,736	253,977	-0,348	-0,421
30,750	124,867	-0,275	-0,244
31,765	32,631	-0,552	-0,337
32,780	164,315	-0,305	-0,303
33,794	-5,559	-0,427	-0,206
34,809	145,528	-0,327	-0,310
35,823	7,189	-0,437	-0,229
36,838	-6,253	-0,404	-0,194
37,853	215,340	-0,418	-0,469
38,867	134,031	-0,345	-0,316
39,882	-86,842	-0,424	-0,091
40,896	49,056	-0,363	-0,241
41,911	88,553	-0,247	-0,194
42,926	-69,793	-0,417	-0,112
43,940	31,993	-0,395	-0,240
44,955	18,814	-0,376	-0,212
45,969	148,182	-0,337	-0,321
46,984	3,622	-0,542	-0,278
47,999	217,010	-0,293	-0,330
49,013	259,219	-0,211	-0,258
50,028	2,577	-0,320	-0,163
51,042	-27,904	-0,461	-0,188
52,057	156,243	-0,391	-0,381
53,071	-20,880	-0,391	-0,168
54,086	-32,777	-0,410	-0,160
55,101	77,750	-0,191	-0,144
56,115	122,262	-0,306	-0,269
57,130	48,884	-0,425	-0,281
58,144	1,084	-0,420	-0,212
59,159	68,877	-0,373	-0,270
60,174	38,673	-0,320	-0,201
61,188	281,998	-0,211	-0,268
62,203	114,177	-0,385	-0,330
63,217	109,146	-0,302	-0,255
64,232	0,517	-0,381	-0,191
65,247	-13,065	-0,328	-0,150
66,261	227,150	-0,298	-0,342
67,276	76,623	-0,301	-0,225
68,290	194,716	-0,261	-0,279
69,305	-30,738	-0,320	-0,127
70,320	216,531	-0,234	-0,262
71,334	-35,383	-0,346	-0,132
72,349	-87,397	-0,308	-0,065
73,363	61,745	-0,325	-0,228
74,378	295,726	-0,246	-0,318
75,393	39,709	-0,341	-0,215
76,407	203,107	-0,285	-0,310
77,422	-41,727	-0,259	-0,093
78,436	-111,342	-0,389	-0,055
79,451	92,310	-0,270	-0,214
80,466	171,882	-0,260	-0,263
81,480	138,071	-0,328	-0,303
82,495	16,633	-0,359	-0,199
83,509	197,959	-0,230	-0,248
84,524	137,959	-0,320	-0,295
85,539	259,730	-0,238	-0,290
86,553	151,836	-0,235	-0,225
87,568	258,495	-0,254	-0,309
88,582	48,574	-0,300	-0,197
89,597	310,999	-0,215	-0,284
90,611	-82,768	-0,253	-0,057
91,626	53,901	-0,275	-0,186
92,641	184,567	-0,245	-0,256
93,655	-18,519	-0,276	-0,121
94,670	277,472	-0,214	-0,268
95,684	84,980	-0,355	-0,273
96,699	21,870	-0,253	-0,145
97,714	-78,746	-0,414	-0,098
98,728	20,181	-0,155	-0,087
99,743	140,904	-0,235	-0,219
100,757	34,894	-0,340	-0,208
101,772	36,827	-0,351	-0,217
102,787	35,205	-0,244	-0,150
103,801	124,657	-0,318	-0,281
104,816	126,545	-0,223	-0,198
105,830	28,524	-0,304	-0,180
106,845	36,781	-0,346	-0,214
107,860	-13,257	-0,138	-0,063
108,874	63,334	-0,264	-0,186
109,889	32,479	-0,344	-0,208
110,903	511,065	-0,166	-0,273
111,918	-86,672	-0,216	-0,046
112,933	-60,855	-0,254	-0,075
113,947	278,866	-0,228	-0,285
114,962	-51,184	-0,314	-0,103
115,976	43,793	-0,264	-0,169
116,991	77,805	-0,299	-0,223
118,006	52,849	-0,287	-0,192
119,020	-34,290	-0,346	-0,133
120,035	111,962	-0,135	-0,114
121,049	120,454	-0,205	-0,179
122,064	-153,205	-0,208	0,010
123,079	162,435	-0,215	-0,212
124,093	-3,844	-0,236	-0,115
125,108	-47,579	-0,232	-0,078
126,122	102,814	-0,333	-0,273
127,137	268,578	-0,245	-0,301
128,151	-109,484	-0,321	-0,047
129,166	297,752	-0,144	-0,185
130,181	-156,936	-0,231	-0,010
131,195	32,656	-0,272	-0,164
132,210	148,195	-0,292	-0,276
133,224	85,737	-0,325	-0,250
134,239	-53,922	-0,187	0,059
135,254	95,588	-0,137	-0,109
136,268	99,671	-0,289	-0,234
137,283	22,426	-0,317	-0,181
138,297	143,979	-0,072	-0,068
139,312	86,815	-0,250	-0,193
140,327	147,899	-0,333	-0,315
141,341	11,333	-0,359	-0,192
142,356	-36,924	-0,226	-0,084
143,370	679,681	-0,121	-0,221
144,385	-32,356	-0,094	-0,037
145,400	272,233	-0,229	-0,284
146,414	367,030	-0,108	-0,153
147,429	152,035	-0,211	-0,201
148,443	91,256	-0,282	-0,221
149,458	-181,274	-0,208	0,003
150,473	-107,801	-0,248	-0,037
151,487	-80,869	-0,396	-0,091
152,502	-10,726	-0,327	-0,151
153,516	195,118	-0,220	-0,234
154,531	66,023	-0,227	-0,160
155,546	134,488	-0,258	-0,234
156,560	-10,144	-0,180	-0,083
157,575	-1,176	-0,267	-0,131
158,589	306,099	-0,086	-0,112
159,604	-18,011	-0,214	-0,093
160,619	88,696	-0,264	-0,205
161,633	4,136	-0,171	-0,087
162,648	50,526	-0,151	-0,099
163,662	105,969	-0,217	-0,179
164,677	209,924	-0,157	-0,172
165,692	71,473	-0,180	-0,131
166,706	96,798	-0,240	-0,192
167,721	311,690	-0,175	-0,229
168,735	139,233	-0,242	-0,222
169,750	-12,093	-0,232	-0,106
170,764	132,375	-0,168	-0,151
171,779	86,253	-0,209	-0,161
172,794	-58,564	-0,305	-0,092
173,808	-26,044	-0,201	-0,082
174,823	365,911	-0,145	-0,204
175,837	105,943	-0,198	-0,163
176,852	-18,718	-0,301	-0,130
177,867	368,757	-0,189	-0,267
178,881	-142,437	-0,224	-0,015
179,896	461,791	-0,139	-0,217
180,910	13,127	-0,285	-0,153
181,925	294,294	-0,203	-0,259
182,940	25,805	-0,216	-0,125
183,954	30,142	-0,233	-0,138
184,969	91,184	-0,284	-0,222
185,983	-200,000	-0,022	-0,191
186,998	111,196	-0,259	-0,217
188,013	145,693	-0,221	-0,206
189,027	443,074	-0,194	-0,297
190,042	102,376	-0,262	-0,213
191,056	71,142	-0,192	-0,138
192,071	86,644	-0,225	-0,173
193,086	445,000	-0,154	-0,236
194,100	47,768	-0,290	-0,188
195,115	-61,443	-0,310	-0,090
196,129	-200,000	-0,059	-0,304
197,144	146,524	-0,164	-0,153
198,159	499,236	-0,167	-0,270
199,173	-62,199	-0,209	-0,060
200,188	99,772	-0,297	-0,240
201,202	75,400	-0,291	-0,214
202,217	192,767	-0,280	-0,295
203,232	137,703	-0,202	-0,184
204,246	301,667	-0,220	-0,284
205,261	778,990	-0,137	-0,262
206,275	145,740	-0,145	-0,135
207,290	150,762	-0,048	-0,046
208,304	259,856	-0,179	-0,215
209,319	152,084	-0,171	-0,162
210,334	74,270	-0,221	-0,162
211,348	800,000	-0,096	-0,200
212,363	148,781	-0,165	-0,155
213,377	241,705	-0,247	-0,287
214,392	140,548	-0,139	-0,128
215,407	-200,000	-0,068	-0,316
216,421	747,567	-0,103	-0,194
217,436	238,720	-0,156	-0,181
218,450	116,010	-0,195	-0,166
219,465	173,179	-0,187	-0,187
220,480	800,000	-0,115	-0,264
221,494	-109,335	-0,292	-0,043
222,509	777,543	-0,116	-0,221
223,523	145,361	-0,184	-0,172
224,538	721,725	-0,093	-0,173
225,553	-16,538	-0,279	-0,122
226,567	197,323	-0,197	-0,209
227,582	10,482	-0,223	-0,118
228,596	-200,000	-0,024	-0,129
229,611	275,965	-0,075	-0,093
230,626	-141,062	-0,228	0,016
231,640	252,466	-0,143	-0,169
232,655	272,190	-0,144	-0,176
233,669	331,561	-0,197	-0,264
234,684	19,367	-0,245	-0,136
235,699	-96,424	-0,130	-0,024
236,713	300,434	-0,062	-0,079
237,728	-5,415	-0,158	-0,075
238,742	95,498	-0,065	-0,052
239,757	-153,292	-0,160	-0,008
240,772	166,341	-0,126	-0,124
241,786	234,078	-0,091	-0,104
242,801	-13,361	-0,115	-0,051
243,815	333,192	-0,059	-0,080
244,830	48,316	-0,182	-0,118
245,844	555,459	-0,182	-0,304
246,859	642,839	-0,107	-0,189
247,874	-4,551	-0,223	-0,106
248,888	-15,315	-0,262	-0,115
249,903	-97,028	-0,164	-0,029
250,917	581,599	-0,125	-0,214
251,932	-162,362	-0,197	0,007
252,947	-23,623	-0,128	-0,053
253,961	308,664	-0,117	-0,152
254,976	0,332	-0,213	-0,105
255,990	118,443	-0,210	-0,179
257,005	-196,411	-0,260	0,001
258,020	97,340	-0,129	-0,103
259,034	-85,507	-0,157	-0,034
260,049	-10,657	-0,148	-0,068
261,063	64,511	-0,212	-0,148
262,078	31,210	-0,218	-0,129
263,093	-200,000	-0,015	-0,137
264,107	-200,000	-0,036	-0,167
265,122	-16,852	-0,200	-0,087
266,136	13,142	-0,110	-0,059
267,151	560,511	-0,056	-0,095
268,166	459,688	-0,140	-0,217
269,180	40,149	-0,239	-0,148
270,195	-48,510	-0,307	-0,102
271,209	466,988	-0,151	-0,234
272,224	200,721	-0,117	-0,125
273,239	535,540	-0,107	-0,177
274,253	-47,182	-0,206	-0,069
275,268	-76,545	-0,204	-0,049
276,282	200,927	-0,214	-0,228
277,297	395,673	-0,164	-0,238
278,312	79,902	-0,124	-0,092
279,326	-111,392	-0,167	-0,023
280,341	-129,940	-0,198	0,019
281,355	-1,498	-0,123	-0,060
282,370	-200,000	-0,027	-0,172
283,384	210,141	-0,210	-0,228
284,399	150,366	-0,222	-0,208
285,414	552,228	-0,112	-0,187
286,428	10,573	-0,124	-0,065
287,443	403,063	-0,085	-0,124
288,457	-74,473	-0,146	-0,036
289,472	21,441	-0,191	-0,107
290,487	164,681	-0,175	-0,170
291,501	86,779	-0,126	-0,096
292,516	453,121	-0,021	-0,032
293,530	-33,978	-0,163	-0,062
294,545	-85,819	-0,089	-0,019
295,560	106,981	-0,089	-0,073
296,574	69,045	-0,105	-0,074
297,589	-65,628	-0,168	0,046
298,603	49,507	-0,191	-0,124
299,618	417,094	-0,127	-0,188
300,633	-57,693	-0,342	-0,103
301,647	16,453	-0,187	-0,102
302,662	478,146	-0,058	-0,091
303,676	800,000	-0,076	-0,176
304,691	800,000	-0,108	-0,226
305,706	-142,469	-0,201	0,013
306,720	270,558	-0,200	-0,243
307,735	70,726	-0,154	-0,110
308,749	175,504	-0,134	-0,134
309,764	-200,000	-0,001	-0,052
310,779	800,000	0,006	-0,012
311,793	1,040	-0,120	-0,059
312,808	469,409	-0,094	-0,147
313,822	800,000	-0,110	-0,215
314,837	51,449	-0,161	-0,105
315,852	-188,376	-0,116	0,001
316,866	216,233	-0,156	-0,171
317,881	59,079	-0,175	-0,118
318,895	224,633	-0,211	-0,236
319,910	-200,000	-0,093	-0,304
320,925	-200,000	-0,043	-0,234
321,939	28,081	-0,138	-0,080
322,954	54,915	-0,168	-0,111
323,968	-200,000	-0,003	-0,168
324,983	800,000	-0,040	-0,108
325,997	-127,624	-0,143	0,014
327,012	105,294	-0,194	-0,157
328,027	638,744	-0,147	-0,259
329,041	-200,000	0,000	-0,116
330,056	108,766	-0,086	-0,070
331,070	33,179	-0,080	-0,048
332,085	-200,000	0,023	-0,075
333,100	800,000	-0,034	-0,096
334,114	158,452	-0,100	-0,096
335,129	-200,000	-0,045	-0,185
336,143	-19,615	-0,231	-0,098
337,158	-189,148	-0,145	0,001
338,173	303,337	-0,088	-0,113
339,187	513,466	0,036	-0,058
340,202	293,532	-0,093	-0,117
341,216	52,910	-0,148	-0,097
342,231	-200,000	-0,082	-0,305
343,246	800,000	-0,076	-0,222
344,260	23,908	-0,272	-0,154
345,275	800,000	-0,068	-0,153
346,289	-9,638	-0,158	-0,072
347,304	298,147	-0,107	-0,135
348,319	164,162	-0,129	-0,125
349,333	667,666	-0,114	-0,203
350,348	510,025	-0,068	-0,109
351,362	-98,462	-0,134	0,023
352,377	154,626	-0,108	-0,102
353,392	-152,312	-0,123	-0,006
354,406	-48,614	-0,174	-0,057
355,421	207,510	1313,980	1409,939
356,435	159,627	1474,633	1410,433
