DTS Sentinel unit serial number:	SN410029Multiplexer serial number:	ORYXHardware model number:	OX2-SRSoftware version number:	ORYX F/W v4,00 Oryx Data Collector v3.7.2.0data status	okinstallation	B3 Nyhavnadifferential loss correction	single-endedforward channel	channel 1reverse channel	N/Adate	2023/11/30time	10:57:30forward acquisition time	300,00reverse acquisition time	0,00gamma	499,1914k internal	0,3210k external	0,3210temperature offset calibration	1,0000default loss term (dB/km)	0,3820temperature slope calibration	1,0000multiplexer offset coefficient	1,0000multiplexer slope coefficient	1,0000fibre end	0,00T internal ref (°C)	9,52T ext. ref 1 (°C)	-5,52T ext. ref 2 (°C)	-5,63length (m)	temperature (°C)	Stokes	anti-Stokes-744,400	800,000	-0,130	-0,274
-743,385	-200,000	-0,066	0,265
-742,371	-14,800	-0,096	-0,045
-741,356	800,000	-0,114	0,296
-740,342	800,000	-0,080	-0,229
-739,327	-200,000	0,007	0,248
-738,312	179,122	-0,258	-0,274
-737,298	622,061	-0,120	0,219
-736,283	-200,000	-0,079	-0,258
-735,269	800,000	-0,101	0,262
-734,254	800,000	-0,053	-0,108
-733,239	34,389	-0,285	0,180
-732,225	323,210	-0,145	-0,202
-731,210	79,155	0,132	0,103
-730,196	800,000	0,052	-0,130
-729,181	107,558	-0,068	-0,059
-728,167	800,000	-0,004	-0,011
-727,152	-200,000	0,027	-0,145
-726,137	45,371	-0,088	0,059
-725,123	708,248	-0,056	-0,108
-724,108	477,694	-0,060	-0,098
-723,094	-113,407	-0,092	-0,013
-722,079	-200,000	0,017	-0,084
-721,064	457,710	0,053	-0,086
-720,050	648,631	0,040	0,074
-719,035	800,000	0,043	-0,088
-718,021	800,000	-0,043	0,093
-717,006	-34,484	-0,096	0,038
-715,991	34,105	-0,064	-0,040
-714,977	252,001	0,082	0,101
-713,962	184,796	-0,012	-0,013
-712,948	800,000	0,041	0,101
-711,933	-42,365	0,046	0,017
-710,918	389,032	-0,049	-0,073
-709,904	226,039	-0,096	-0,113
-708,889	101,396	-0,132	-0,112
-707,875	578,206	0,037	0,065
-706,860	-98,059	0,037	0,007
-705,845	-10,043	0,109	-0,052
-704,831	51,740	0,025	-0,017
-703,816	-109,914	0,040	-0,006
-702,802	24,322	0,045	-0,027
-701,787	-190,602	-0,142	-0,001
-700,772	54,430	-0,013	-0,009
-699,758	-22,337	-0,123	0,054
-698,743	-200,000	0,013	0,077
-697,729	274,024	-0,017	-0,022
-696,714	85,538	0,096	0,076
-695,699	-88,001	-0,061	-0,013
-694,685	800,000	-0,070	-0,183
-693,670	416,071	-0,047	-0,072
-692,656	-200,000	0,001	-0,007
-691,641	320,301	0,031	-0,042
-690,627	800,000	0,026	0,074
-689,612	-88,099	0,061	0,013
-688,597	317,342	-0,055	-0,076
-687,583	-87,091	-0,162	-0,035
-686,568	584,887	-0,026	0,046
-685,554	-200,000	-0,012	-0,077
-684,539	800,000	-0,021	-0,067
-683,524	-200,000	0,017	0,139
-682,510	71,801	-0,167	-0,126
-681,495	-155,646	0,133	0,006
-680,481	800,000	-0,023	-0,053
-679,466	-137,174	-0,073	0,006
-678,451	490,704	-0,023	-0,038
-677,437	-95,907	0,051	0,010
-676,422	800,000	0,060	0,131
-675,408	274,821	-0,052	-0,067
-674,393	131,330	-0,043	-0,040
-673,378	-93,822	-0,065	-0,013
-672,364	-53,628	-0,140	-0,046
-671,349	230,736	0,082	-0,098
-670,335	-200,000	-0,008	-0,066
-669,320	-19,064	0,162	0,073
-668,305	-167,545	0,209	0,006
-667,291	58,741	-0,111	0,079
-666,276	800,000	-0,021	-0,047
-665,262	-85,153	0,083	-0,019
-664,247	-71,624	-0,138	0,037
-663,232	-200,000	0,014	-0,094
-662,218	119,607	-0,070	0,063
-661,203	536,410	0,119	0,206
-660,189	19,359	-0,076	-0,044
-659,174	-197,530	-0,176	0,001
-658,159	368,404	-0,074	0,108
-657,145	-32,399	-0,089	0,036
-656,130	-200,000	-0,008	-0,078
-655,116	181,815	-0,122	-0,130
-654,101	-92,112	0,112	-0,023
-653,086	565,810	-0,047	-0,082
-652,072	-200,000	-0,021	0,075
-651,057	-3,149	-0,088	0,044
-650,043	790,848	0,045	-0,089
-649,028	313,844	0,027	0,037
-648,014	-200,000	0,021	-0,094
-646,999	529,831	0,074	0,128
-645,984	320,437	0,080	-0,111
-644,970	-200,000	-0,002	-0,013
-643,955	-137,737	-0,152	0,012
-642,941	-146,736	0,169	-0,010
-641,926	-139,771	-0,078	0,006
-640,911	-114,557	-0,071	-0,010
-639,897	-194,680	-0,014	0,000
-638,882	317,298	-0,063	0,087
-637,868	77,427	0,116	0,089
-636,853	-200,000	-0,014	-0,065
-635,838	-200,000	-0,005	-0,148
-634,824	44,132	-0,073	-0,048
-633,809	-119,477	0,133	0,016
-632,795	-200,000	0,017	0,083
-631,780	41,205	-0,045	-0,029
-630,765	-145,685	-0,051	-0,003
-629,751	230,678	-0,054	-0,064
-628,736	800,000	-0,021	-0,047
-627,722	-112,016	0,035	-0,005
-626,707	-84,585	0,026	0,006
-625,692	-165,477	-0,095	-0,003
-624,678	1,729	0,045	-0,023
-623,663	23,956	0,105	0,063
-622,649	800,000	-0,035	-0,106
-621,634	-28,414	-0,116	0,048
-620,619	64,652	-0,071	-0,052
-619,605	-200,000	-0,009	0,116
-618,590	49,620	0,092	0,062
-617,576	-200,000	0,008	-0,165
-616,561	442,022	-0,060	-0,095
-615,546	-200,000	-0,015	-0,084
-614,532	27,299	-0,099	-0,060
-613,517	-62,130	-0,068	-0,020
-612,503	-20,413	-0,100	-0,044
-611,488	-24,360	0,048	-0,021
-610,474	-50,291	-0,041	0,014
-609,459	-66,111	0,006	0,002
-608,444	800,000	-0,044	0,098
-607,430	152,595	-0,094	-0,092
-606,415	-75,659	-0,077	-0,020
-605,401	-126,919	-0,065	0,007
-604,386	800,000	-0,029	0,057
-603,371	10,200	0,031	-0,017
-602,357	128,823	-0,021	-0,019
-601,342	-82,447	0,041	-0,009
-600,328	-200,000	-0,028	-0,107
-599,313	800,000	-0,068	-0,215
-598,298	-200,000	-0,017	-0,062
-597,284	317,022	-0,073	-0,100
-596,269	602,241	-0,039	-0,071
-595,255	-61,638	0,033	0,010
-594,240	36,795	0,128	-0,081
-593,225	800,000	-0,053	-0,113
-592,211	-200,000	-0,000	-0,021
-591,196	-26,355	0,113	-0,048
-590,182	126,007	-0,062	-0,056
-589,167	-98,601	0,166	-0,030
-588,152	261,509	-0,052	-0,065
-587,138	800,000	-0,032	-0,086
-586,123	-44,361	-0,075	-0,027
-585,109	-200,000	0,001	0,168
-584,094	800,000	-0,032	-0,098
-583,079	25,756	0,081	0,048
-582,065	206,980	0,091	-0,103
-581,050	-200,000	-0,010	-0,074
-580,036	-113,905	-0,126	0,017
-579,021	35,364	0,086	0,054
-578,006	-57,380	-0,107	-0,034
-576,992	-22,551	0,049	-0,021
-575,977	800,000	-0,032	0,085
-574,963	23,780	-0,136	0,081
-573,948	390,584	-0,039	0,058
-572,934	-144,392	-0,168	0,011
-571,919	-200,000	-0,007	0,069
-570,904	800,000	-0,082	-0,187
-569,890	55,578	-0,057	0,040
-568,875	135,444	0,112	0,105
-567,861	-28,870	0,018	-0,007
-566,846	527,894	0,065	0,111
-565,831	211,232	-0,035	0,040
-564,817	800,000	-0,008	-0,016
-563,802	58,376	-0,090	0,064
-562,788	-200,000	-0,001	-0,040
-561,773	-23,159	-0,090	0,039
-560,758	-72,716	0,129	0,034
-559,744	195,572	-0,017	-0,019
-558,729	410,387	-0,090	-0,138
-557,715	-35,684	-0,198	-0,077
-556,700	210,702	0,036	-0,041
-555,685	-131,787	-0,013	-0,001
-554,671	-144,019	-0,032	0,002
-553,656	-103,918	0,068	0,011
-552,642	111,380	0,040	-0,035
-551,627	550,487	-0,037	0,064
-550,612	182,839	0,080	0,086
-549,598	-101,507	-0,206	-0,036
-548,583	-131,030	-0,124	0,012
-547,569	-18,468	0,014	-0,006
-546,554	143,232	0,066	0,064
-545,539	46,035	-0,105	0,070
-544,525	-200,000	0,001	-0,107
-543,510	-200,000	-0,019	-0,070
-542,496	-93,057	0,053	-0,011
-541,481	578,633	0,086	-0,151
-540,466	-200,000	0,009	0,099
-539,452	800,000	0,019	0,047
-538,437	273,558	0,064	-0,082
-537,423	86,582	-0,054	-0,042
-536,408	246,073	0,021	-0,026
-535,393	68,924	0,058	-0,043
-534,379	715,049	-0,090	-0,172
-533,364	184,490	0,030	0,032
-532,350	-78,277	0,146	0,036
-531,335	93,960	-0,043	0,035
-530,321	492,013	0,043	0,071
-529,306	-61,605	-0,109	-0,033
-528,291	288,624	0,066	-0,086
-527,277	-200,000	0,002	-0,039
-526,262	158,448	0,064	0,064
-525,248	119,263	-0,019	0,017
-524,233	-151,584	0,120	-0,006
-523,218	-77,231	-0,071	0,018
-522,204	800,000	0,069	-0,146
-521,189	-130,196	-0,084	-0,008
-520,175	-200,000	0,013	-0,151
-519,160	-6,949	-0,140	-0,068
-518,145	103,994	0,129	0,109
-517,131	350,843	0,048	-0,068
-516,116	-72,115	-0,057	0,015
-515,102	291,876	0,053	-0,070
-514,087	54,484	0,142	-0,098
-513,072	240,793	0,043	0,052
-512,058	117,375	0,133	-0,118
-511,043	130,433	0,115	0,106
-510,029	78,778	-0,035	-0,027
-509,014	-83,393	0,131	0,030
-507,999	540,481	-0,039	-0,067
-506,985	203,884	-0,029	0,032
-505,970	800,000	0,059	-0,149
-504,956	-200,000	-0,006	-0,060
-503,941	67,767	-0,050	0,036
-502,926	-48,271	0,089	0,031
-501,912	-200,000	0,006	0,025
-500,897	-134,726	-0,020	0,002
-499,883	425,746	-0,060	-0,093
-498,868	306,498	0,077	-0,103
-497,853	492,252	-0,072	-0,118
-496,839	-167,165	-0,155	-0,004
-495,824	800,000	0,026	0,054
-494,810	-106,127	-0,072	-0,011
-493,795	655,729	-0,062	0,114
-492,781	57,031	-0,050	0,035
-491,766	800,000	0,032	-0,073
-490,751	800,000	-0,069	-0,184
-489,737	-200,000	-0,003	0,034
-488,722	147,681	0,069	0,067
-487,708	800,000	-0,030	0,081
-486,693	85,244	0,084	0,066
-485,678	800,000	-0,022	-0,047
-484,664	-200,000	-0,025	-0,108
-483,649	554,248	0,077	-0,134
-482,635	800,000	0,081	0,165
-481,620	27,981	0,131	0,079
-480,605	-200,000	0,019	0,083
-479,591	87,374	-0,055	-0,044
-478,576	-200,000	-0,024	-0,160
-477,562	13,783	-0,147	-0,082
-476,547	70,631	-0,120	-0,089
-475,532	244,971	0,120	-0,145
-474,518	5,457	0,019	0,010
-473,503	-127,378	0,142	0,015
-472,489	800,000	-0,030	-0,068
-471,474	-200,000	-0,101	0,000
-470,459	110,067	-0,068	-0,059
-469,445	506,195	-0,008	-0,013
-468,430	228,719	0,005	-0,006
-467,416	-94,241	0,076	-0,015
-466,401	-200,000	-0,005	0,041
-465,386	159,747	0,106	-0,106
-464,372	-121,103	0,072	-0,009
-463,357	135,224	-0,110	0,103
-462,343	-200,000	-0,023	-0,178
-461,328	-87,391	0,037	-0,008
-460,313	-34,070	-0,059	0,023
-459,299	7,132	0,118	0,063
-458,284	64,594	0,016	-0,012
-457,270	-200,000	-0,051	0,183
-456,255	-200,000	-0,049	0,190
-455,241	8,383	-0,109	-0,059
-454,226	-123,431	-0,160	0,018
-453,211	-61,781	0,056	0,017
-452,197	-143,396	0,110	0,007
-451,182	-200,000	0,019	0,109
-450,168	752,282	0,029	0,057
-449,153	-144,261	-0,046	-0,003
-448,138	622,059	0,026	-0,047
-447,124	99,331	0,039	-0,032
-446,109	-86,438	0,120	0,026
-445,095	137,285	0,082	-0,077
-444,080	404,040	-0,050	-0,076
-443,065	-200,000	-0,013	0,101
-442,051	-200,000	-0,014	0,053
-441,036	-200,000	-0,039	-0,139
-440,022	-200,000	-0,002	-0,028
-439,007	-200,000	0,011	-0,148
-437,992	-200,000	0,001	-0,107
-436,978	38,327	0,046	0,029
-435,963	-200,000	0,025	0,130
-434,949	156,609	-0,106	0,105
-433,934	129,993	-0,073	0,067
-432,919	95,100	-0,198	-0,161
-431,905	57,336	0,040	-0,028
-430,890	76,492	0,079	-0,060
-429,876	556,013	0,083	-0,143
-428,861	-200,000	-0,017	0,143
-427,846	24,708	0,107	-0,063
-426,832	-200,000	0,007	0,060
-425,817	800,000	-0,015	-0,036
-424,803	92,306	0,059	0,047
-423,788	178,551	0,127	0,133
-422,773	-95,978	-0,014	-0,003
-421,759	800,000	0,019	0,047
-420,744	-14,170	0,016	-0,007
-419,730	-18,166	-0,109	-0,049
-418,715	-30,838	-0,048	-0,019
-417,701	277,957	-0,022	-0,029
-416,686	-200,000	0,005	-0,054
-415,671	467,040	-0,031	0,050
-414,657	-200,000	0,034	0,199
-413,642	800,000	0,016	0,036
-412,628	800,000	-0,005	-0,015
-411,613	-104,953	0,061	0,010
-410,598	647,145	-0,063	-0,117
-409,584	25,180	0,033	-0,019
-408,569	-200,000	0,001	0,076
-407,555	-200,000	0,047	0,186
-406,540	-200,000	-0,002	0,026
-405,525	-82,136	0,123	-0,028
-404,511	-113,530	-0,066	-0,009
-403,496	800,000	0,076	-0,172
-402,482	64,976	-0,112	0,081
-401,467	-200,000	0,000	0,066
-400,452	213,406	-0,064	0,072
-399,438	-200,000	-0,002	-0,054
-398,423	-200,000	-0,044	0,146
-397,409	-153,252	-0,057	0,003
-396,394	25,284	-0,098	0,058
-395,379	-200,000	-0,040	0,155
-394,365	278,459	0,022	-0,028
-393,350	443,827	-0,024	0,038
-392,336	560,613	0,063	0,109
-391,321	-36,285	0,086	-0,033
-390,306	-100,252	-0,077	-0,014
-389,292	-200,000	0,012	-0,128
-388,277	-4,867	-0,018	-0,009
-387,263	-124,234	0,147	-0,016
-386,248	256,523	0,049	-0,060
-385,233	46,229	-0,110	0,073
-384,219	-159,942	-0,155	-0,006
-383,204	800,000	0,011	0,026
-382,190	-32,397	-0,073	0,029
-381,175	-200,000	0,086	-0,000
-380,160	216,310	-0,063	0,072
-379,146	800,000	0,064	0,129
-378,131	-46,535	0,170	0,059
-377,117	248,482	0,003	0,003
-376,102	18,071	0,084	0,048
-375,088	800,000	-0,062	-0,141
-374,073	-177,720	-0,133	0,002
-373,058	35,441	0,058	0,036
-372,044	800,000	-0,037	0,082
-371,029	-200,000	0,003	-0,029
-370,015	-42,476	0,019	-0,007
-369,000	180,988	-0,119	0,125
-367,985	-74,252	-0,065	0,017
-366,971	-200,000	-0,024	-0,122
-365,956	415,781	0,056	-0,086
-364,942	699,040	0,070	0,132
-363,927	-200,000	-0,021	0,190
-362,912	800,000	-0,027	0,079
-361,898	-42,558	-0,121	-0,044
-360,883	45,951	0,052	0,034
-359,869	-84,388	-0,096	0,022
-358,854	800,000	0,085	-0,207
-357,839	-43,019	0,046	0,017
-356,825	-142,878	0,089	0,006
-355,810	22,295	-0,140	-0,082
-354,796	-111,130	0,169	0,024
-353,781	800,000	0,026	-0,070
-352,766	-111,606	0,026	0,004
-351,752	-200,000	0,009	0,040
-350,737	178,837	0,112	-0,117
-349,723	509,878	0,015	-0,025
-348,708	350,358	0,131	-0,186
-347,693	28,686	-0,159	-0,096
-346,679	101,388	-0,057	-0,048
-345,664	-200,000	0,013	0,076
-344,650	-18,548	-0,093	0,041
-343,635	-200,000	-0,020	-0,143
-342,620	-200,000	0,006	0,032
-341,606	7,333	-0,118	0,063
-340,591	800,000	-0,040	-0,099
-339,577	512,295	-0,051	-0,085
-338,562	227,657	-0,077	-0,090
-337,548	-125,380	-0,023	-0,003
-336,533	-200,000	0,027	0,099
-335,518	-200,000	-0,005	0,191
-334,504	136,740	0,009	-0,008
-333,489	16,589	-0,073	0,041
-332,475	-132,718	0,139	0,013
-331,460	-93,337	0,079	0,016
-330,445	-158,149	-0,050	0,002
-329,431	1,208	0,116	0,059
-328,416	-125,061	0,146	0,016
-327,402	800,000	0,041	-0,105
-326,387	-77,014	0,040	0,010
-325,372	327,440	-0,103	-0,141
-324,358	54,396	-0,083	-0,057
-323,343	800,000	-0,010	-0,024
-322,329	-200,000	0,023	0,130
-321,314	-98,239	0,162	0,029
-320,299	460,517	-0,071	0,113
-319,285	249,954	-0,037	-0,045
-318,270	10,672	-0,131	0,071
-317,256	800,000	-0,025	-0,054
-316,241	-112,731	-0,092	-0,013
-315,226	-200,000	0,005	0,109
-314,212	800,000	-0,034	-0,087
-313,197	245,681	0,069	0,083
-312,183	284,374	-0,048	-0,062
-311,168	-38,542	-0,049	-0,018
-310,153	-200,000	-0,005	-0,071
-309,139	800,000	0,029	-0,063
-308,124	152,066	0,058	0,056
-307,110	251,838	0,058	0,070
-306,095	13,026	0,036	0,020
-305,080	-84,168	0,220	0,049
-304,066	495,371	-0,022	-0,036
-303,051	-56,866	-0,109	-0,034
-302,037	347,404	-0,032	0,045
-301,022	186,637	0,055	-0,058
-300,008	800,000	0,018	0,035
-298,993	-61,104	0,094	-0,028
-297,978	33,957	-0,095	-0,059
-296,964	-76,859	0,047	0,012
-295,949	-132,056	-0,190	-0,017
-294,935	-134,481	-0,029	0,002
-293,920	-137,097	0,112	0,009
-292,905	113,512	-0,116	0,100
-291,891	800,000	0,032	0,077
-290,876	102,407	-0,093	0,078
-289,862	800,000	0,004	0,011
-288,847	469,639	-0,013	-0,021
-287,832	-200,000	-0,027	-0,156
-286,818	-30,464	-0,036	-0,014
-285,803	-187,460	0,023	-0,000
-284,789	123,774	0,103	0,092
-283,774	-99,223	-0,079	0,014
-282,759	-77,188	-0,158	-0,039
-281,745	-200,000	-0,013	0,082
-280,730	-200,000	0,010	0,050
-279,716	800,000	0,007	-0,017
-278,701	-200,000	-0,026	0,108
-277,686	800,000	0,012	0,034
-276,672	51,915	0,144	0,098
-275,657	800,000	-0,014	-0,042
-274,643	-115,236	-0,116	-0,015
-273,628	507,498	0,063	-0,105
-272,613	-171,362	-0,094	-0,002
-271,599	-84,992	0,048	0,011
-270,584	6,229	0,128	0,068
-269,570	55,788	0,052	0,036
-268,555	-200,000	0,033	0,123
-267,540	-107,182	-0,071	-0,011
-266,526	-111,756	-0,122	0,017
-265,511	367,770	0,050	-0,072
-264,497	-139,591	-0,075	0,006
-263,482	745,495	0,039	0,074
-262,467	-113,315	0,063	-0,009
-261,453	-200,000	0,037	0,136
-260,438	354,616	-0,002	0,003
-259,424	518,193	0,024	-0,041
-258,409	-200,000	0,000	-0,061
-257,395	-33,132	-0,059	-0,023
-256,380	548,852	0,048	0,082
-255,365	-58,253	0,082	0,025
-254,351	193,768	0,095	0,103
-253,336	800,000	0,019	0,056
-252,322	702,091	-0,078	-0,146
-251,307	362,929	-0,018	-0,026
-250,292	-200,000	-0,012	-0,098
-249,278	-200,000	0,014	0,139
-248,263	-200,000	-0,027	0,117
-247,249	-70,084	-0,044	0,012
-246,234	455,551	-0,063	0,099
-245,219	93,810	-0,105	-0,085
-244,205	37,925	-0,073	-0,046
-243,190	408,599	-0,101	-0,153
-242,176	-200,000	0,005	0,054
-241,161	-74,607	0,119	0,030
-240,146	123,772	0,091	0,082
-239,132	-200,000	-0,031	0,168
-238,117	-99,634	0,107	0,019
-237,103	46,831	-0,047	-0,031
-236,088	-143,594	0,143	-0,010
-235,073	-32,168	0,049	-0,019
-234,059	-139,206	-0,065	0,005
-233,044	-140,370	0,044	-0,003
-232,030	39,860	-0,033	-0,021
-231,015	55,026	0,018	0,012
-230,000	71,767	-0,080	-0,059
-228,986	177,184	0,065	-0,067
-227,971	-200,000	0,007	-0,045
-226,957	168,907	-0,079	0,080
-225,942	-60,170	-0,030	0,009
-224,927	455,118	0,091	0,143
-223,913	-200,000	-0,009	0,092
-222,898	800,000	-0,034	-0,101
-221,884	-86,666	-0,122	-0,026
-220,869	-200,000	0,024	0,125
-219,855	177,312	-0,021	-0,021
-218,840	284,143	0,111	0,142
-217,825	133,742	-0,115	0,106
-216,811	-200,000	-0,014	-0,131
-215,796	173,381	-0,076	-0,078
-214,782	769,731	-0,067	-0,130
-213,767	-45,306	0,036	-0,013
-212,752	-77,808	0,034	0,008
-211,738	736,792	0,034	0,065
-210,723	-200,000	-0,027	0,093
-209,709	28,992	-0,097	-0,059
-208,694	70,955	-0,118	0,086
-207,679	-200,000	-0,006	0,039
-206,665	431,587	0,040	0,062
-205,650	60,401	0,159	0,112
-204,636	800,000	0,035	0,098
-203,621	-12,357	0,089	0,041
-202,606	-200,000	0,012	-0,122
-201,592	98,272	-0,042	0,034
-200,577	371,292	-0,018	-0,026
-199,563	88,961	0,071	-0,056
-198,548	129,033	0,070	0,064
-197,533	276,359	0,080	0,101
-196,519	-166,072	0,069	-0,002
-195,504	-200,000	0,006	-0,053
-194,490	-180,149	0,074	0,001
-193,475	161,182	-0,063	-0,063
-192,460	800,000	0,041	-0,112
-191,446	161,995	0,039	0,039
-190,431	7,110	0,073	0,039
-189,417	161,052	0,089	-0,089
-188,402	663,229	0,030	0,055
-187,387	91,372	-0,190	-0,151
-186,373	-76,404	-0,051	0,013
-185,358	-200,000	0,004	-0,049
-184,344	-19,997	0,019	0,008
-183,329	800,000	-0,100	0,199
-182,315	745,803	0,038	0,074
-181,300	-58,190	-0,148	-0,045
-180,285	152,564	0,076	0,074
-179,271	800,000	0,052	0,122
-178,256	-137,815	-0,073	0,006
-177,242	617,723	0,078	0,139
-176,227	800,000	-0,024	0,070
-175,212	19,821	-0,086	-0,049
-174,198	519,061	0,068	-0,113
-173,183	261,891	-0,111	0,137
-172,169	-46,977	0,066	-0,023
-171,154	-187,071	0,128	-0,001
-170,139	11,588	0,072	0,039
-169,125	446,745	-0,070	0,110
-168,110	-72,949	0,196	0,051
-167,096	-200,000	0,003	0,078
-166,081	-200,000	0,027	0,111
-165,066	-200,000	-0,033	-0,121
-164,052	342,723	-0,039	-0,055
-163,037	-200,000	0,019	0,117
-162,023	29,923	0,107	0,064
-161,008	-88,465	0,107	0,022
-159,993	-200,000	-0,012	0,056
-158,979	-200,000	0,135	-0,000
-157,964	800,000	-0,018	0,041
-156,950	-105,192	0,206	-0,033
-155,935	800,000	0,031	0,080
-154,920	-21,131	-0,028	-0,012
-153,906	800,000	-0,019	0,041
-152,891	1,499	0,159	-0,081
-151,877	-122,500	-0,027	0,003
-150,862	-67,235	-0,135	-0,037
-149,847	-9,392	-0,086	-0,041
-148,833	-200,000	-0,006	-0,021
-147,818	-200,000	0,005	0,087
-146,804	246,449	0,027	-0,033
-145,789	-200,000	0,008	-0,040
-144,775	-92,688	-0,113	-0,022
-143,760	-118,536	0,109	-0,013
-142,745	-38,282	-0,144	0,054
-141,731	267,219	0,032	0,040
-140,716	-200,000	0,014	0,065
-139,702	189,224	-0,088	0,093
-138,687	533,864	0,017	0,028
-137,672	334,187	-0,040	-0,055
-136,658	220,838	-0,019	-0,021
-135,643	65,535	-0,041	0,029
-134,629	-200,000	0,028	0,158
-133,614	795,748	0,072	0,141
-132,599	800,000	-0,003	-0,010
-131,585	162,419	0,041	0,041
-130,570	142,937	-0,049	-0,046
-129,556	-200,000	0,013	0,043
-128,541	-93,947	0,073	-0,014
-127,526	-129,829	0,145	0,014
-126,512	312,704	0,067	-0,089
-125,497	-200,000	0,001	0,018
-124,483	-87,550	0,140	0,030
-123,468	174,459	0,007	-0,007
-122,453	157,787	-0,064	-0,063
-121,439	-200,000	-0,003	0,104
-120,424	-57,559	-0,082	-0,025
-119,410	-200,000	-0,006	0,083
-118,395	-68,738	0,027	0,007
-117,380	800,000	0,017	0,041
-116,366	100,401	-0,079	-0,065
-115,351	-75,673	-0,126	-0,031
-114,337	23,954	-0,124	-0,072
-113,322	-200,000	0,037	-0,155
-112,307	800,000	-0,064	-0,167
-111,293	201,397	0,076	0,082
-110,278	399,878	0,054	0,080
-109,264	12,952	0,078	0,042
-108,249	-53,930	0,068	0,022
-107,234	-200,000	-0,033	0,121
-106,220	-200,000	-0,004	-0,075
-105,205	-119,002	0,108	0,013
-104,191	21,557	-0,063	0,036
-103,176	424,671	-0,045	0,069
-102,162	-200,000	-0,024	0,081
-101,147	50,778	-0,031	-0,021
-100,132	73,695	0,077	0,057
-99,118	12,639	-0,095	-0,052
-98,103	189,803	0,127	0,135
-97,089	-45,235	0,073	-0,025
-96,074	370,175	0,022	0,031
-95,059	-200,000	-0,001	-0,047
-94,045	-200,000	-0,021	-0,130
-93,030	188,111	-0,016	-0,017
-92,016	-64,913	0,046	-0,013
-91,001	-136,026	-0,071	-0,006
-89,986	351,914	0,049	0,069
-88,972	-85,710	0,141	0,031
-87,957	93,495	-0,095	0,076
-86,943	471,063	0,016	0,026
-85,928	-16,269	-0,051	-0,023
-84,913	-164,665	-0,076	0,002
-83,899	800,000	-0,047	-0,117
-82,884	800,000	-0,024	0,071
-81,870	234,709	0,076	-0,089
-80,855	800,000	-0,069	0,144
-79,840	-87,497	0,052	0,011
-78,826	-200,000	0,028	0,192
-77,811	-23,062	-0,040	0,017
-76,797	-200,000	0,015	0,080
-75,782	-36,867	-0,087	-0,033
-74,767	-200,000	-0,039	-0,127
-73,753	-43,291	-0,096	-0,034
-72,738	367,497	0,075	-0,107
-71,724	-200,000	-0,031	-0,140
-70,709	79,576	-0,135	-0,102
-69,694	107,759	-0,005	0,004
-68,680	800,000	-0,015	0,040
-67,665	800,000	-0,007	0,023
-66,651	57,505	0,071	-0,049
-65,636	-200,000	0,005	-0,016
-64,622	1,173	0,065	-0,033
-63,607	403,236	-0,084	-0,125
-62,592	-200,000	-0,009	-0,067
-61,578	69,415	-0,082	-0,060
-60,563	-200,000	0,007	0,165
-59,549	800,000	0,014	0,035
-58,534	39,003	-2,148	-1,353
-57,519	510,039	-1,194	-1,968
-56,505	-200,000	-0,368	-4,458
-55,490	484,989	0,905	1,461
-54,476	800,000	5,015	11,367
-53,461	-200,000	21,780	346,843
-52,446	800,000	763,945	2348,304
-51,432	547,258	1663,547	2821,076
-50,417	71,564	1659,863	1215,551
-49,403	17,291	1533,348	856,649
-48,388	11,355	1456,961	785,270
-47,373	19,564	1448,676	820,154
-46,359	14,869	1437,723	791,605
-45,344	9,635	1433,463	764,314
-44,330	9,581	1431,440	762,944
-43,315	9,555	1429,715	761,870
-42,300	9,603	1427,768	761,032
-41,286	9,577	1427,051	760,497
-40,271	9,570	1425,421	759,566
-39,257	9,558	1424,153	758,802
-38,242	9,574	1423,455	758,473
-37,227	9,602	1421,998	757,799
-36,213	9,623	1420,903	757,285
-35,198	9,581	1419,798	756,471
-34,184	9,667	1418,790	756,310
-33,169	9,552	1417,351	754,967
-32,154	9,603	1416,463	754,707
-31,140	9,641	1414,992	754,072
-30,125	9,643	1413,795	753,416
-29,111	9,600	1412,725	752,613
-28,096	9,597	1411,689	752,016
-27,082	9,557	1410,494	751,163
-26,067	9,525	1409,443	750,423
-25,052	9,604	1408,370	750,191
-24,038	9,592	1407,327	749,548
-23,023	9,573	1406,389	748,929
-22,009	9,584	1405,294	748,371
-20,994	9,561	1404,334	747,719
-19,979	9,606	1403,390	747,398
-18,965	9,550	1402,556	746,664
-17,950	9,488	1401,657	745,867
-16,936	9,483	1400,837	745,376
-15,921	9,457	1399,849	744,702
-14,906	9,466	1398,973	744,245
-13,892	9,502	1397,940	743,836
-12,877	9,490	1397,123	743,314
-11,863	9,470	1396,294	742,750
-10,848	9,421	1395,491	742,068
-9,833	9,368	1394,622	741,330
-8,819	9,404	1393,467	740,855
-7,804	9,343	1392,798	740,187
-6,790	9,366	1391,816	739,744
-5,775	9,342	1390,715	739,016
-4,760	9,339	1389,477	738,317
-3,746	9,334	1388,922	737,967
-2,731	9,358	1387,966	737,541
-1,717	9,350	1387,041	736,982
-0,702	9,353	1385,307	736,045
0,313	13,345	1297,428	707,609
1,327	29,411	687,605	411,330
2,342	45,746	119,004	77,460
3,356	-0,322	16,627	8,308
4,371	15,321	3,600	1,986
5,386	17,903	1,154	0,646
6,400	-200,000	0,047	0,735
7,415	51,181	-0,207	-0,138
8,429	-79,815	-0,311	-0,073
9,444	103,192	-0,233	-0,192
10,459	44,579	-0,274	-0,177
11,473	800,000	-0,132	-0,307
12,488	-107,160	-0,233	-0,036
13,502	-53,639	-0,256	-0,082
14,517	142,207	-0,229	-0,214
15,531	-79,711	-0,407	-0,096
16,546	-96,985	-0,361	-0,066
17,561	51,869	-0,449	-0,301
18,575	-114,976	-0,223	-0,029
19,590	716,299	-0,193	-0,362
20,604	17,385	-0,210	-0,117
21,619	342,645	-0,246	-0,340
22,634	31,817	-0,476	-0,288
23,648	105,526	-0,331	-0,275
24,663	19,157	-0,456	-0,257
25,677	114,645	-0,315	-0,270
26,692	-195,632	-0,241	0,001
27,707	108,872	-0,314	-0,264
28,721	75,713	-0,342	-0,254
29,736	104,996	-0,372	-0,309
30,750	59,735	-0,362	-0,251
31,765	65,040	-0,262	-0,186
32,780	93,742	-0,379	-0,302
33,794	-65,883	-0,321	-0,090
34,809	99,054	-0,297	-0,241
35,823	4,880	-0,349	-0,180
36,838	168,338	-0,389	-0,390
37,853	49,588	-0,397	-0,263
38,867	29,059	-0,489	-0,291
39,882	50,777	-0,376	-0,250
40,896	-34,789	-0,334	-0,128
41,911	17,686	-0,333	-0,186
42,926	29,577	-0,343	-0,205
43,940	166,863	-0,348	-0,348
44,955	-26,760	-0,352	-0,144
45,969	56,088	-0,294	-0,200
46,984	110,628	-0,327	-0,276
47,999	111,607	-0,299	-0,253
49,013	-21,670	-0,314	-0,134
50,028	2,943	-0,192	-0,098
51,042	83,908	-0,302	-0,231
52,057	237,428	-0,275	-0,321
53,071	287,056	-0,234	-0,297
54,086	-104,876	-0,217	0,035
55,101	-3,561	-0,304	-0,148
56,115	-24,206	-0,383	-0,160
57,130	-6,001	-0,303	-0,145
58,144	170,220	-0,346	-0,348
59,159	88,563	-0,258	-0,201
60,174	118,486	-0,241	-0,208
61,188	-67,674	-0,375	-0,102
62,203	24,019	-0,255	-0,147
63,217	183,785	-0,236	-0,245
64,232	52,539	-0,352	-0,235
65,247	-52,517	-0,217	-0,070
66,261	73,282	-0,392	-0,287
67,276	110,322	-0,299	-0,252
68,290	36,996	-0,278	-0,172
69,305	105,217	-0,210	-0,174
70,320	-145,705	-0,231	0,014
71,334	41,617	-0,268	-0,170
72,349	180,190	-0,202	-0,208
73,363	55,156	-0,221	-0,149
74,378	199,747	-0,266	-0,286
75,393	192,040	-0,199	-0,211
76,407	16,587	-0,287	-0,159
77,422	60,450	-0,236	-0,163
78,436	45,093	-0,371	-0,239
79,451	298,947	-0,164	-0,212
80,466	96,778	-0,285	-0,229
81,480	14,660	-0,288	-0,157
82,495	-1,061	-0,259	-0,128
83,509	224,478	-0,224	-0,254
84,524	304,371	-0,167	-0,218
85,539	14,535	-0,337	-0,184
86,553	-129,683	-0,250	0,024
87,568	104,984	-0,265	-0,219
88,582	165,946	-0,305	-0,303
89,597	184,671	-0,231	-0,240
90,611	126,760	-0,269	-0,239
91,626	-132,891	-0,415	-0,036
92,641	-55,485	-0,213	-0,066
93,655	31,049	-0,256	-0,153
94,670	126,167	-0,255	-0,225
95,684	140,323	-0,317	-0,293
96,699	52,543	-0,250	-0,167
97,714	250,012	-0,192	-0,228
98,728	64,684	-0,151	-0,106
99,743	-11,320	-0,279	-0,128
100,757	17,086	-0,222	-0,123
101,772	209,895	-0,244	-0,268
102,787	-28,605	-0,296	-0,119
103,801	30,220	-0,312	-0,186
104,816	21,298	-0,330	-0,187
105,830	97,586	-0,134	-0,107
106,845	-72,671	-0,194	0,050
107,860	-6,688	-0,297	-0,141
108,874	-62,709	-0,255	-0,073
109,889	69,204	-0,236	-0,170
110,903	-66,099	-0,327	-0,090
111,918	100,008	-0,302	-0,245
112,933	67,440	-0,287	-0,204
113,947	-23,874	-0,249	-0,104
114,962	472,534	-0,123	-0,194
115,976	170,949	-0,301	-0,302
116,991	711,917	-0,107	-0,199
118,006	302,227	-0,224	-0,290
119,020	80,219	-0,182	-0,137
120,035	174,369	-0,154	-0,155
121,049	-9,500	-0,257	-0,119
122,064	10,965	-0,188	-0,100
123,079	-58,514	-0,224	-0,067
124,093	-42,764	-0,345	-0,122
125,108	38,958	-0,258	-0,161
126,122	25,192	-0,274	-0,158
127,137	131,608	-0,152	-0,136
128,151	-56,377	-0,207	-0,064
129,166	16,316	-0,159	-0,087
130,181	16,269	-0,213	-0,117
131,195	-31,522	-0,331	-0,129
132,210	40,703	-0,347	-0,218
133,224	102,057	-0,285	-0,232
134,239	90,552	-0,165	-0,129
135,254	67,697	-0,168	-0,120
136,268	-117,676	-0,336	-0,042
137,283	-1,464	-0,149	-0,073
138,297	-5,303	-0,341	-0,163
139,312	327,231	-0,209	-0,280
140,327	52,470	-0,266	-0,176
141,341	17,324	-0,270	-0,149
142,356	152,997	-0,232	-0,221
143,370	84,788	-0,172	-0,131
144,385	74,184	-0,266	-0,195
145,400	-97,206	-0,272	-0,049
146,414	85,730	-0,276	-0,211
147,429	86,168	-0,202	-0,155
148,443	287,399	-0,192	-0,243
149,458	119,995	-0,177	-0,153
150,473	-155,922	-0,243	-0,011
151,487	-28,855	-0,296	-0,118
152,502	240,198	-0,235	-0,273
153,516	104,287	-0,309	-0,253
154,531	74,218	-0,158	-0,116
155,546	80,022	-0,229	-0,171
156,560	-84,224	-0,206	-0,045
157,575	133,747	-0,204	-0,184
158,589	-108,315	-0,258	-0,038
159,604	70,649	-0,282	-0,203
160,619	4,229	-0,277	-0,141
161,633	138,391	-0,212	-0,193
162,648	57,980	-0,317	-0,215
163,662	-75,800	-0,247	-0,061
164,677	-164,299	-0,238	0,007
165,692	100,268	-0,191	-0,154
166,706	125,678	-0,202	-0,178
167,721	10,921	-0,294	-0,156
168,735	123,003	-0,243	-0,211
169,750	410,354	-0,093	-0,137
170,764	-15,089	-0,152	-0,067
171,779	51,791	-0,146	-0,097
172,794	-62,720	-0,139	-0,040
173,808	75,560	-0,185	-0,136
174,823	484,384	-0,165	-0,261
175,837	-11,223	-0,281	-0,128
176,852	659,060	-0,151	-0,272
177,867	265,262	-0,103	-0,124
178,881	-5,970	-0,156	-0,074
179,896	-95,421	-0,148	-0,027
180,910	-134,298	-0,132	-0,011
181,925	67,502	-0,246	-0,174
182,940	244,556	-0,161	-0,189
183,954	352,292	-0,124	-0,172
184,969	-117,718	-0,112	-0,014
185,983	146,063	-0,186	-0,173
186,998	2,465	-0,199	-0,100
188,013	4,564	-0,214	-0,109
189,027	33,874	-0,312	-0,188
190,042	87,910	-0,262	-0,202
191,056	-51,419	-0,362	-0,117
192,071	-47,417	-0,192	-0,064
193,086	281,305	-0,131	-0,163
194,100	96,512	-0,213	-0,169
195,115	83,507	-0,139	-0,105
196,129	-31,377	-0,239	-0,093
197,144	-150,662	-0,131	-0,007
198,159	-110,268	-0,238	-0,034
199,173	50,138	-0,169	-0,110
200,188	464,291	-0,128	-0,199
201,202	-48,334	-0,213	-0,071
202,217	58,571	-0,179	-0,121
203,232	606,759	-0,098	-0,171
204,246	258,271	-0,181	-0,216
205,261	-147,882	-0,226	-0,013
206,275	-126,491	-0,209	-0,021
207,290	-65,132	-0,311	-0,086
208,304	-113,638	-0,184	-0,025
209,319	32,249	-0,217	-0,130
210,334	49,221	-0,250	-0,162
211,348	118,022	-0,170	-0,145
212,363	278,254	-0,231	-0,285
213,377	-40,392	-0,152	-0,054
214,392	-101,678	-0,183	-0,030
215,407	200,064	-0,152	-0,162
216,421	465,036	-0,149	-0,232
217,436	204,525	-0,178	-0,191
218,450	163,714	-0,171	-0,167
219,465	186,524	-0,236	-0,243
220,480	-103,680	-0,145	-0,023
221,494	7,540	-0,110	-0,057
222,509	408,019	-0,134	-0,196
223,523	-125,926	-0,169	-0,017
224,538	-3,354	-0,267	-0,128
225,553	142,459	-0,153	-0,141
226,567	176,690	-0,249	-0,250
227,582	115,853	-0,203	-0,172
228,596	-52,006	-0,296	-0,094
229,611	193,308	-0,214	-0,224
230,626	52,500	-0,157	-0,104
231,640	91,809	-0,176	-0,137
232,655	146,934	-0,145	-0,135
233,669	480,327	-0,100	-0,158
234,684	-58,659	-0,184	-0,055
235,699	681,024	-0,055	-0,100
236,713	-183,957	-0,226	0,003
237,728	-101,381	-0,212	-0,035
238,742	104,091	-0,147	-0,119
239,757	-146,986	-0,148	-0,009
240,772	-88,017	-0,201	-0,041
241,786	83,123	-0,173	-0,130
242,801	140,686	-0,136	-0,124
243,815	40,768	-0,195	-0,121
244,830	156,108	-0,117	-0,111
245,844	1,050	-0,261	-0,129
246,859	-95,724	-0,189	-0,034
247,874	159,051	-0,186	-0,179
248,888	-44,600	-0,242	-0,083
249,903	31,820	-0,222	-0,132
250,917	215,115	-0,158	-0,173
251,932	13,244	-0,121	-0,064
252,947	-107,209	-0,189	-0,028
253,961	433,502	-0,133	-0,199
254,976	350,935	-0,085	-0,117
255,990	78,717	-0,220	-0,162
257,005	47,874	-0,268	-0,172
258,020	75,609	-0,131	-0,096
259,034	312,422	-0,142	-0,184
260,049	-164,130	-0,152	-0,005
261,063	156,382	-0,197	-0,187
262,078	-6,774	-0,177	-0,083
263,093	-200,000	-0,050	-0,176
264,107	156,229	-0,126	-0,119
265,122	98,286	-0,195	-0,154
266,136	-53,207	-0,215	-0,068
267,151	256,637	-0,119	-0,141
268,166	28,415	-0,232	-0,135
269,180	35,921	-0,285	-0,172
270,195	256,708	-0,271	-0,321
271,209	517,726	-0,100	-0,162
272,224	800,000	0,006	-0,011
273,239	730,696	-0,093	-0,171
274,253	333,582	-0,032	-0,042
275,268	-116,213	-0,092	0,012
276,282	110,686	-0,063	-0,052
277,297	-183,710	-0,314	-0,004
278,312	-34,011	-0,217	-0,082
279,326	118,769	-0,118	-0,100
280,341	-200,000	-0,046	-0,142
281,355	-20,443	-0,063	-0,026
282,370	483,785	-0,111	-0,174
283,384	111,402	-0,113	-0,094
284,399	6,196	-0,222	-0,113
285,414	157,060	-0,192	-0,183
286,428	46,914	-0,220	-0,140
287,443	800,000	-0,025	0,073
288,457	-173,258	-0,095	0,002
289,472	9,001	-0,147	-0,076
290,487	10,044	-0,060	-0,031
291,501	-21,304	-0,267	-0,112
292,516	-132,015	-0,069	0,006
293,530	97,575	-0,166	-0,131
294,545	-101,167	-0,054	0,009
295,560	-42,104	-0,205	-0,072
296,574	50,693	-0,108	-0,070
297,589	25,631	-0,133	-0,076
298,603	-148,724	-0,136	0,007
299,618	118,007	-0,132	-0,112
300,633	-52,249	-0,163	-0,052
301,647	-54,792	-0,106	-0,033
302,662	115,027	-0,095	-0,080
303,676	-116,822	-0,205	0,026
304,691	800,000	-0,113	-0,223
305,706	27,034	-0,170	-0,098
306,720	-86,430	-0,302	-0,063
307,735	55,134	-0,105	-0,069
308,749	151,052	-0,145	-0,135
309,764	-18,422	-0,188	-0,080
310,779	800,000	-0,036	-0,075
311,793	526,874	-0,097	-0,157
312,808	120,150	-0,084	-0,071
313,822	32,974	-0,194	-0,115
314,837	108,478	-0,226	-0,185
315,852	800,000	-0,095	-0,187
316,866	800,000	-0,043	0,124
317,881	2,714	-0,111	-0,055
318,895	11,284	-0,114	-0,060
319,910	-35,048	-0,132	-0,049
320,925	71,433	-0,096	-0,068
321,939	233,298	-0,150	-0,170
322,954	-18,101	-0,125	0,054
323,968	218,186	-0,097	-0,107
324,983	-125,288	-0,230	-0,024
325,997	637,150	-0,101	-0,177
327,012	157,991	-0,025	0,024
328,027	-75,002	-0,083	-0,020
329,041	-200,000	-0,001	-0,110
330,056	-112,888	-0,169	-0,023
331,070	11,292	-0,101	-0,053
332,085	484,392	-0,112	-0,175
333,100	283,761	-0,138	-0,171
334,114	195,665	-0,170	-0,177
335,129	514,355	-0,070	-0,112
336,143	-100,186	-0,176	-0,030
337,158	-142,841	-0,076	-0,005
338,173	82,899	-0,121	-0,090
339,187	-200,000	-0,039	-0,161
340,202	-72,367	-0,177	-0,045
341,216	173,333	-0,158	-0,156
342,231	102,118	-0,215	-0,172
343,246	-111,709	-0,264	-0,036
344,260	800,000	-0,042	-0,081
345,275	-200,000	-0,031	-0,156
346,289	-139,936	-0,247	-0,018
347,304	-98,332	-0,118	-0,021
348,319	286,027	-0,160	-0,199
349,333	800,000	-0,066	-0,178
350,348	144,142	-0,131	-0,120
351,362	-120,999	-0,141	0,016
352,377	205,256	-0,070	-0,074
353,392	467,277	-0,112	-0,172
354,406	-62,675	-0,298	-0,084
355,421	207,085	1311,727	1400,451
356,435	159,278	1472,074	1400,902
