DTS Sentinel unit serial number:	SN410029Multiplexer serial number:	ORYXHardware model number:	OX2-SRSoftware version number:	ORYX F/W v4,00 Oryx Data Collector v3.7.2.0data status	okinstallation	B3 Nyhavnadifferential loss correction	single-endedforward channel	channel 1reverse channel	N/Adate	2023/12/03time	12:17:30forward acquisition time	300,00reverse acquisition time	0,00gamma	499,1914k internal	0,3200k external	0,3200temperature offset calibration	1,0000default loss term (dB/km)	0,3820temperature slope calibration	1,0000multiplexer offset coefficient	1,0000multiplexer slope coefficient	1,0000fibre end	0,00T internal ref (°C)	13,92T ext. ref 1 (°C)	-0,10T ext. ref 2 (°C)	-0,13length (m)	temperature (°C)	Stokes	anti-Stokes-744,400	55,983	-0,284	-0,200
-743,385	-200,000	0,068	0,273
-742,371	-200,000	-0,034	-0,213
-741,356	-200,000	-0,015	0,344
-740,342	287,897	-0,140	-0,185
-739,327	-200,000	0,064	0,233
-738,312	57,356	-0,283	-0,201
-737,298	795,029	-0,056	0,114
-736,283	93,576	-0,177	-0,146
-735,269	-200,000	-0,005	0,383
-734,254	11,669	-0,215	-0,120
-733,239	215,458	-0,163	0,188
-732,225	800,000	-0,069	-0,204
-731,210	98,426	0,144	0,121
-730,196	706,995	0,034	0,066
-729,181	-51,811	-0,105	0,035
-728,167	312,019	0,071	0,098
-727,152	-200,000	0,026	0,112
-726,137	161,170	-0,086	0,088
-725,123	800,000	-0,032	-0,081
-724,108	-13,951	-0,127	-0,059
-723,094	228,822	-0,100	-0,119
-722,079	53,821	0,091	-0,064
-721,064	-200,000	-0,019	-0,086
-720,050	-200,000	0,007	0,051
-719,035	-164,479	0,111	0,004
-718,021	-188,034	-0,184	0,002
-717,006	578,031	-0,019	-0,035
-715,991	103,764	-0,081	-0,069
-714,977	-62,999	-0,081	-0,024
-713,962	-40,090	-0,062	0,023
-712,948	-120,982	-0,051	0,006
-711,933	19,770	-0,174	-0,101
-710,918	-200,000	-0,001	0,071
-709,904	-129,825	-0,141	0,014
-708,889	-200,000	0,017	-0,132
-707,875	-200,000	-0,030	-0,148
-706,860	-56,742	0,058	0,019
-705,845	-68,721	-0,047	-0,013
-704,831	-200,000	0,032	0,204
-703,816	50,600	-0,149	-0,102
-702,802	-200,000	-0,025	0,164
-701,787	800,000	-0,020	-0,051
-700,772	-107,419	-0,109	0,017
-699,758	5,231	0,127	0,068
-698,743	127,903	-0,124	0,114
-697,729	-169,775	-0,116	0,003
-696,714	-200,000	0,012	0,068
-695,699	45,075	-0,050	-0,034
-694,685	136,454	-0,030	0,028
-693,670	-200,000	0,009	-0,077
-692,656	-50,177	-0,136	0,046
-691,641	-30,208	-0,080	-0,033
-690,627	-200,000	0,000	0,089
-689,612	238,940	0,060	-0,073
-688,597	800,000	-0,066	0,184
-687,583	800,000	0,038	-0,077
-686,568	-52,900	-0,021	0,007
-685,554	-200,000	-0,010	-0,079
-684,539	-23,554	-0,103	0,045
-683,524	-200,000	0,001	0,022
-682,510	31,154	-0,065	-0,040
-681,495	-200,000	-0,003	-0,176
-680,481	-133,428	-0,105	-0,009
-679,466	800,000	-0,059	-0,142
-678,451	-200,000	0,018	-0,115
-677,437	-135,397	-0,092	0,008
-676,422	-64,531	0,075	-0,022
-675,408	-200,000	0,011	-0,123
-674,393	-200,000	0,006	0,035
-673,378	35,646	0,105	-0,067
-672,364	-200,000	0,004	0,012
-671,349	-51,574	-0,038	0,013
-670,335	2,633	-0,087	0,046
-669,320	87,741	0,059	-0,048
-668,305	800,000	0,030	0,065
-667,291	187,855	-0,035	0,038
-666,276	-200,000	-0,008	-0,041
-665,262	103,990	-0,124	-0,106
-664,247	137,243	-0,108	-0,103
-663,232	-16,029	-0,073	0,034
-662,218	800,000	0,017	-0,052
-661,203	-200,000	0,003	0,127
-660,189	800,000	-0,064	0,162
-659,174	-143,269	0,139	-0,010
-658,159	-15,539	-0,086	-0,040
-657,145	22,234	-0,098	0,058
-656,130	-189,858	-0,060	0,000
-655,116	297,396	-0,056	0,074
-654,101	26,309	0,017	0,010
-653,086	114,506	0,026	0,023
-652,072	187,956	-0,164	-0,178
-651,057	-200,000	0,030	-0,123
-650,043	4,912	-0,067	-0,036
-649,028	800,000	-0,027	-0,068
-648,014	-200,000	0,000	0,048
-646,999	800,000	0,008	0,025
-645,984	-108,866	-0,059	-0,009
-644,970	177,537	-0,009	-0,009
-643,955	-77,637	-0,139	0,035
-642,941	125,912	0,020	-0,018
-641,926	44,607	-0,009	-0,006
-640,911	-200,000	-0,023	-0,084
-639,897	-200,000	0,004	0,029
-638,882	-200,000	0,044	0,146
-637,868	-200,000	-0,010	-0,065
-636,853	800,000	-0,053	-0,132
-635,838	-108,402	-0,012	0,002
-634,824	5,813	-0,040	-0,021
-633,809	-200,000	-0,006	0,067
-632,795	279,157	-0,032	-0,042
-631,780	-179,118	0,160	0,003
-630,765	11,208	-0,123	-0,068
-629,751	800,000	-0,029	-0,059
-628,736	35,957	0,011	-0,007
-627,722	800,000	0,012	-0,024
-626,707	106,643	-0,096	-0,082
-625,692	428,072	0,032	0,050
-624,678	187,447	0,048	0,052
-623,663	-200,000	0,002	-0,063
-622,649	-116,209	0,027	0,004
-621,634	45,413	-0,141	0,094
-620,619	359,603	0,077	0,112
-619,605	-88,001	0,112	0,024
-618,590	-200,000	-0,009	0,116
-617,576	-4,324	0,052	-0,026
-616,561	-181,526	-0,184	0,003
-615,546	98,526	-0,095	0,079
-614,532	29,204	-0,123	-0,076
-613,517	-97,743	-0,080	-0,015
-612,503	649,080	0,032	-0,059
-611,488	309,667	-0,025	-0,034
-610,474	-200,000	0,020	0,082
-609,459	800,000	-0,001	-0,002
-608,444	-200,000	-0,011	-0,078
-607,430	-30,433	-0,040	-0,016
-606,415	-200,000	-0,024	-0,096
-605,401	472,532	-0,092	-0,150
-604,386	362,799	-0,034	0,049
-603,371	-42,746	0,094	0,034
-602,357	800,000	-0,056	0,118
-601,342	-200,000	0,000	0,059
-600,328	-200,000	-0,001	0,021
-599,313	800,000	-0,031	0,094
-598,298	-46,305	-0,003	0,001
-597,284	-24,499	-0,030	-0,013
-596,269	544,463	-0,017	0,029
-595,255	-0,968	0,032	0,016
-594,240	800,000	-0,060	-0,188
-593,225	-200,000	-0,002	-0,068
-592,211	800,000	-0,029	-0,077
-591,196	253,472	0,080	-0,099
-590,182	424,984	-0,040	0,063
-589,167	800,000	0,021	-0,056
-588,152	-200,000	0,038	0,142
-587,138	389,769	-0,097	-0,146
-586,123	-79,190	-0,225	-0,055
-585,109	422,262	-0,027	-0,043
-584,094	165,942	-0,029	-0,030
-583,079	-155,227	0,188	0,009
-582,065	52,855	0,114	-0,079
-581,050	81,519	-0,104	0,081
-580,036	-85,778	-0,125	-0,028
-579,021	-200,000	0,000	-0,091
-578,006	-200,000	0,013	-0,077
-576,992	-200,000	0,018	0,155
-575,977	191,778	-0,070	0,076
-574,963	774,790	-0,062	-0,122
-573,948	-162,970	-0,061	-0,002
-572,934	800,000	0,031	-0,077
-571,919	800,000	-0,014	-0,039
-570,904	-169,319	-0,122	0,003
-569,890	-200,000	0,009	-0,084
-568,875	800,000	0,031	0,088
-567,861	-200,000	0,002	-0,013
-566,846	165,486	-0,027	0,027
-565,831	40,209	-0,025	0,016
-564,817	-200,000	-0,004	0,082
-563,802	121,157	0,114	-0,103
-562,788	-99,608	-0,099	0,018
-561,773	8,684	-0,114	-0,062
-560,758	18,626	-0,059	-0,034
-559,744	-200,000	0,020	0,080
-558,729	457,903	-0,049	-0,078
-557,715	16,356	-0,065	-0,037
-556,700	-92,221	-0,057	0,012
-555,685	-120,100	-0,030	0,004
-554,671	129,407	0,042	-0,039
-553,656	-87,091	0,060	-0,013
-552,642	800,000	0,014	-0,036
-551,627	317,593	0,067	-0,091
-550,612	-132,140	-0,051	0,005
-549,598	-153,113	0,014	0,001
-548,583	-148,915	-0,103	0,006
-547,569	-139,051	-0,086	0,007
-546,554	405,373	0,111	0,170
-545,539	2,843	-0,032	-0,017
-544,525	548,842	0,073	0,126
-543,510	4,743	0,081	0,043
-542,496	415,699	-0,028	-0,044
-541,481	2,134	0,150	0,078
-540,466	98,437	-0,072	0,060
-539,452	-196,958	0,131	-0,001
-538,437	800,000	0,031	0,072
-537,423	-200,000	-0,003	-0,062
-536,408	83,935	-0,042	0,033
-535,393	15,851	-0,032	0,018
-534,379	800,000	-0,014	0,030
-533,364	-200,000	-0,018	-0,059
-532,350	46,915	0,030	0,020
-531,335	-23,330	0,036	-0,015
-530,321	-73,135	0,019	0,005
-529,306	800,000	0,038	-0,088
-528,291	-120,621	-0,172	-0,021
-527,277	-63,685	0,042	0,012
-526,262	-46,422	-0,130	-0,046
-525,248	177,925	-0,078	0,083
-524,233	25,056	0,151	0,090
-523,218	465,055	-0,044	0,072
-522,204	-99,567	0,085	-0,015
-521,189	63,265	-0,060	-0,043
-520,175	115,923	-0,120	-0,106
-519,160	-100,994	0,053	-0,009
-518,145	274,941	0,051	0,066
-517,131	196,432	-0,096	0,106
-516,116	261,200	0,075	0,093
-515,102	-37,952	-0,106	-0,040
-514,087	-12,092	-0,151	0,071
-513,072	-200,000	0,000	-0,030
-512,058	339,719	-0,078	-0,110
-511,043	218,705	0,066	-0,076
-510,029	583,650	-0,051	0,091
-509,014	-24,533	0,071	0,030
-507,999	60,823	0,142	-0,101
-506,985	-44,621	0,101	-0,036
-505,970	251,646	0,070	-0,085
-504,956	-109,819	-0,116	-0,017
-503,941	269,557	-0,030	-0,038
-502,926	491,118	-0,041	0,068
-501,912	-200,000	-0,021	0,141
-500,897	9,696	0,075	0,041
-499,883	90,361	-0,027	0,022
-498,868	205,919	-0,036	-0,040
-497,853	8,213	-0,036	-0,019
-496,839	-200,000	0,048	0,187
-495,824	81,368	0,102	0,079
-494,810	283,706	-0,062	0,081
-493,795	-126,245	0,053	-0,006
-492,781	-200,000	0,000	0,017
-491,766	660,427	0,011	-0,020
-490,751	114,749	-0,058	-0,051
-489,737	-65,646	0,092	-0,027
-488,722	150,194	-0,041	-0,040
-487,708	67,965	0,100	0,074
-486,693	7,721	-0,110	0,059
-485,678	-13,810	0,121	0,056
-484,664	-138,604	0,067	0,005
-483,649	46,350	-0,083	-0,056
-482,635	800,000	-0,067	-0,141
-481,620	-200,000	-0,005	0,035
-480,605	800,000	-0,038	0,078
-479,591	181,513	0,062	0,065
-478,576	-97,724	-0,164	-0,030
-477,562	-116,494	-0,115	0,015
-476,547	-200,000	-0,004	-0,013
-475,532	-62,323	-0,158	-0,047
-474,518	-66,806	0,125	-0,035
-473,503	-54,562	0,131	-0,042
-472,489	134,993	-0,153	-0,143
-471,474	-42,298	-0,035	0,013
-470,459	-200,000	-0,012	0,065
-469,445	108,643	0,042	0,036
-468,430	-200,000	-0,012	-0,172
-467,416	146,720	-0,042	-0,040
-466,401	43,358	0,078	-0,051
-465,386	51,597	0,109	0,074
-464,372	113,860	-0,035	0,031
-463,357	116,622	0,109	-0,096
-462,343	-69,774	0,041	-0,011
-461,328	-140,851	0,116	-0,008
-460,313	-200,000	-0,007	0,038
-459,299	-200,000	-0,009	0,136
-458,284	167,603	0,035	-0,035
-457,270	800,000	0,061	0,140
-456,255	-200,000	0,003	-0,035
-455,241	-27,445	-0,118	0,049
-454,226	-200,000	0,003	-0,013
-453,211	34,416	-0,014	0,009
-452,197	57,784	0,076	-0,053
-451,182	3,665	-0,145	0,076
-450,168	-200,000	-0,006	0,053
-449,153	383,265	0,054	-0,080
-448,138	-200,000	0,017	-0,120
-447,124	800,000	0,005	0,010
-446,109	118,940	0,067	0,060
-445,095	-83,929	0,056	0,013
-444,080	-200,000	0,012	0,088
-443,065	800,000	-0,037	0,088
-442,051	114,306	-0,033	-0,029
-441,036	800,000	-0,053	-0,107
-440,022	-200,000	0,003	-0,123
-439,007	29,577	-0,135	0,082
-437,992	-200,000	-0,024	-0,125
-436,978	271,156	0,028	0,035
-435,963	64,928	0,079	-0,058
-434,949	-69,946	0,095	0,026
-433,934	-98,130	0,120	0,022
-432,919	800,000	-0,030	-0,064
-431,905	-200,000	-0,012	0,089
-430,890	136,405	0,027	-0,025
-429,876	-34,289	0,105	0,041
-428,861	333,580	0,050	-0,069
-427,846	396,057	-0,059	0,089
-426,832	4,220	-0,158	0,083
-425,817	444,064	-0,055	-0,087
-424,803	-200,000	-0,024	-0,075
-423,788	184,412	-0,021	-0,022
-422,773	-47,149	-0,075	0,026
-421,759	445,715	0,084	0,133
-420,744	406,707	0,027	0,041
-419,730	156,661	0,022	-0,022
-418,715	-25,335	0,100	0,042
-417,701	-16,567	-0,040	0,018
-416,686	-57,538	-0,047	0,015
-415,671	-109,465	0,089	0,013
-414,657	282,247	0,028	-0,036
-413,642	-111,125	0,072	-0,010
-412,628	-200,000	-0,015	0,099
-411,613	-200,000	0,019	0,060
-410,598	315,049	0,043	-0,058
-409,584	800,000	0,010	-0,024
-408,569	795,432	0,029	0,057
-407,555	-200,000	0,014	0,069
-406,540	389,962	-0,040	0,060
-405,525	121,093	0,053	-0,048
-404,511	23,977	-0,043	0,026
-403,496	-200,000	-0,007	0,035
-402,482	389,778	0,035	-0,052
-401,467	-200,000	0,001	0,010
-400,452	-46,717	0,137	-0,048
-399,438	405,278	0,044	-0,067
-398,423	183,671	0,008	0,008
-397,409	-87,150	-0,158	0,034
-396,394	26,547	0,036	0,022
-395,379	158,780	-0,064	0,064
-394,365	-200,000	-0,009	0,071
-393,350	-117,984	0,047	0,006
-392,336	27,113	0,097	-0,058
-391,321	336,735	-0,081	-0,114
-390,306	-200,000	0,006	0,096
-389,292	-62,802	-0,169	-0,050
-388,277	360,854	-0,106	-0,153
-387,263	373,253	0,074	0,108
-386,248	-200,000	-0,012	-0,130
-385,233	-16,194	-0,218	0,099
-384,219	470,109	0,028	0,046
-383,204	621,960	-0,036	-0,065
-382,190	-200,000	0,034	-0,161
-381,175	-128,221	0,027	0,003
-380,160	52,882	0,137	0,094
-379,146	-31,574	0,073	0,029
-378,131	30,564	-0,000	0,000
-377,117	-14,994	0,074	0,034
-376,102	378,213	-0,047	-0,069
-375,088	-200,000	-0,009	0,056
-374,073	-200,000	0,001	0,133
-373,058	-49,196	0,060	0,021
-372,044	-59,822	0,021	-0,006
-371,029	532,801	-0,086	0,146
-370,015	605,442	0,119	-0,213
-369,000	800,000	0,051	-0,119
-367,985	-37,406	0,044	0,017
-366,971	-200,000	-0,019	-0,146
-365,956	424,044	-0,021	-0,032
-364,942	800,000	-0,021	-0,054
-363,927	-74,746	-0,082	-0,021
-362,912	-46,824	0,039	-0,014
-361,898	800,000	0,010	-0,029
-360,883	-16,394	-0,155	-0,070
-359,869	-22,290	0,159	-0,069
-358,854	-100,910	0,068	-0,012
-357,839	204,179	-0,036	0,040
-356,825	800,000	-0,037	0,102
-355,810	150,768	0,044	-0,043
-354,796	199,335	0,048	-0,053
-353,781	-139,125	0,067	-0,005
-352,766	283,329	-0,056	-0,073
-351,752	800,000	0,058	-0,122
-350,737	325,073	-0,040	0,054
-349,723	-103,317	0,062	-0,010
-348,708	800,000	-0,033	0,071
-347,693	354,897	0,029	0,041
-346,679	28,688	-0,054	0,033
-345,664	22,454	-0,113	-0,066
-344,650	386,016	-0,091	0,134
-343,635	800,000	-0,011	0,025
-342,620	319,359	-0,044	0,060
-341,606	-131,656	0,106	-0,010
-340,591	800,000	-0,060	0,123
-339,577	800,000	0,028	-0,064
-338,562	467,645	-0,043	-0,070
-337,548	-200,000	0,010	0,054
-336,533	106,546	0,059	-0,050
-335,518	246,362	0,102	0,123
-334,504	524,266	0,053	-0,089
-333,489	-200,000	0,005	-0,036
-332,475	182,043	0,024	0,026
-331,460	800,000	0,022	-0,051
-330,445	-90,112	0,140	0,029
-329,431	-25,543	-0,012	0,005
-328,416	268,925	0,098	-0,124
-327,402	-200,000	-0,001	-0,062
-326,387	461,951	0,002	0,002
-325,372	400,829	-0,141	-0,212
-324,358	-200,000	-0,016	-0,067
-323,343	-94,618	-0,014	0,003
-322,329	-200,000	-0,022	-0,109
-321,314	-4,794	0,117	0,058
-320,299	227,689	0,060	0,070
-319,285	51,924	0,052	0,035
-318,270	58,287	0,056	0,039
-317,256	31,917	-0,085	-0,052
-316,241	-56,355	-0,024	0,008
-315,226	-200,000	-0,027	0,094
-314,212	-102,019	0,074	-0,013
-313,197	-200,000	-0,035	0,112
-312,183	3,652	0,067	0,035
-311,168	-200,000	-0,013	-0,163
-310,153	-120,791	0,076	0,009
-309,139	-47,548	-0,019	0,007
-308,124	-200,000	-0,002	-0,114
-307,110	-200,000	-0,025	-0,188
-306,095	97,059	0,194	0,159
-305,080	-50,140	-0,039	-0,013
-304,066	-200,000	-0,028	-0,088
-303,051	177,507	0,087	-0,091
-302,037	232,664	-0,031	0,036
-301,022	-200,000	0,030	0,110
-300,008	-200,000	0,007	0,096
-298,993	234,146	-0,057	0,067
-297,978	-124,629	-0,032	-0,004
-296,964	20,073	-0,046	0,026
-295,949	800,000	0,051	0,139
-294,935	182,547	0,071	0,075
-293,920	-200,000	-0,000	0,020
-292,905	-147,244	-0,104	-0,006
-291,891	-200,000	0,014	0,087
-290,876	-200,000	-0,023	0,105
-289,862	79,318	-0,065	-0,050
-288,847	-13,198	-0,036	-0,017
-287,832	800,000	-0,038	-0,087
-286,818	19,269	0,127	-0,073
-285,803	-200,000	0,009	0,097
-284,789	-70,556	0,061	0,016
-283,774	559,074	-0,020	0,035
-282,759	800,000	-0,057	-0,137
-281,745	800,000	-0,037	0,079
-280,730	502,641	-0,060	-0,100
-279,716	-75,991	-0,069	0,017
-278,701	-61,438	-0,065	0,019
-277,686	-154,311	0,161	-0,008
-276,672	181,535	0,057	0,060
-275,657	-200,000	0,000	-0,037
-274,643	-97,561	0,105	0,019
-273,628	583,633	0,044	-0,078
-272,613	-38,730	-0,051	0,019
-271,599	-82,316	-0,085	0,019
-270,584	504,502	0,055	-0,091
-269,570	-200,000	-0,006	0,113
-268,555	-47,303	0,077	0,027
-267,540	224,853	-0,057	0,066
-266,526	-99,985	-0,033	-0,006
-265,511	-200,000	0,015	-0,069
-264,497	689,461	0,066	0,124
-263,482	-200,000	0,002	-0,013
-262,467	0,324	0,034	0,017
-261,453	39,939	-0,103	-0,066
-260,438	-154,744	0,045	-0,002
-259,424	141,107	0,073	0,069
-258,409	17,633	-0,046	0,026
-257,395	-200,000	-0,002	-0,025
-256,380	18,465	0,056	-0,032
-255,365	270,149	-0,061	-0,076
-254,351	-200,000	0,017	0,062
-253,336	69,138	0,133	0,097
-252,322	-150,505	-0,103	-0,006
-251,307	-110,569	-0,039	0,006
-250,292	371,623	-0,081	-0,117
-249,278	120,096	0,068	0,060
-248,263	62,104	-0,032	-0,022
-247,249	453,217	0,056	0,089
-246,234	197,653	0,039	-0,042
-245,219	-99,346	-0,055	-0,010
-244,205	14,681	-0,174	0,097
-243,190	-200,000	-0,025	0,111
-242,176	800,000	0,068	-0,168
-241,161	800,000	0,021	0,054
-240,146	176,441	-0,114	0,118
-239,132	-143,063	-0,122	0,008
-238,117	30,130	-0,050	-0,030
-237,103	800,000	-0,033	-0,077
-236,088	-140,209	-0,098	-0,007
-235,073	-113,498	0,047	-0,006
-234,059	-96,455	0,113	0,021
-233,044	800,000	0,041	0,093
-232,030	539,622	-0,048	0,082
-231,015	-94,391	-0,110	-0,021
-230,000	49,797	0,081	-0,054
-228,986	4,643	-0,106	-0,055
-227,971	-41,598	0,126	0,046
-226,957	-16,209	0,153	0,069
-225,942	800,000	-0,030	-0,060
-224,927	-96,049	0,070	0,013
-223,913	-200,000	0,014	-0,062
-222,898	20,918	-0,103	-0,060
-221,884	-200,000	-0,019	-0,181
-220,869	46,935	0,173	0,114
-219,855	44,819	0,053	0,034
-218,840	-0,262	0,053	-0,027
-217,825	-200,000	-0,011	-0,035
-216,811	-200,000	0,010	-0,047
-215,796	-200,000	-0,004	0,049
-214,782	-200,000	-0,018	0,156
-213,767	-200,000	0,035	0,113
-212,752	91,906	0,066	0,053
-211,738	95,934	-0,081	0,066
-210,723	-200,000	0,017	-0,100
-209,709	92,377	-0,060	-0,048
-208,694	304,289	-0,062	0,083
-207,679	579,223	0,061	-0,107
-206,665	-152,553	0,117	-0,006
-205,650	394,517	0,059	0,088
-204,636	-200,000	-0,035	0,133
-203,621	-137,484	-0,171	-0,014
-202,606	183,921	0,060	0,063
-201,592	-49,436	-0,062	0,021
-200,577	-94,142	0,148	-0,029
-199,563	-117,446	-0,173	0,022
-198,548	-58,728	0,103	0,031
-197,533	-200,000	-0,012	0,095
-196,519	633,954	0,033	-0,060
-195,504	-92,881	-0,127	0,025
-194,490	-200,000	0,000	-0,111
-193,475	800,000	-0,008	-0,018
-192,460	-2,814	0,133	-0,066
-191,446	-30,814	0,059	-0,023
-190,431	-88,808	-0,017	-0,004
-189,417	249,426	-0,046	-0,056
-188,402	-121,541	-0,095	-0,011
-187,387	-200,000	0,005	-0,089
-186,373	-175,408	-0,031	0,001
-185,358	800,000	-0,019	-0,056
-184,344	-110,210	0,107	0,016
-183,329	499,483	0,070	0,115
-182,315	16,150	0,077	-0,043
-181,300	-200,000	-0,023	0,078
-180,285	-200,000	0,006	-0,090
-179,271	1,044	0,074	0,038
-178,256	-54,456	-0,063	0,020
-177,242	-200,000	-0,027	0,131
-176,227	134,496	0,082	0,076
-175,212	-56,871	0,085	0,027
-174,198	-200,000	-0,005	-0,019
-173,183	-137,974	-0,013	0,001
-172,169	4,411	0,106	-0,055
-171,154	-153,407	0,079	0,004
-170,139	-27,546	-0,130	-0,053
-169,125	615,887	0,030	0,054
-168,110	800,000	0,081	0,161
-167,096	-200,000	-0,002	-0,121
-166,081	308,203	0,070	-0,094
-165,066	-200,000	0,022	-0,126
-164,052	800,000	0,041	0,099
-163,037	-35,043	0,063	-0,024
-162,023	-200,000	-0,027	-0,121
-161,008	21,646	0,084	0,049
-159,993	-200,000	0,015	0,091
-158,979	63,341	-0,055	0,039
-157,964	582,459	-0,023	-0,041
-156,950	800,000	-0,056	-0,175
-155,935	161,074	0,047	-0,047
-154,920	57,587	0,123	0,085
-153,906	-123,297	-0,048	0,005
-152,891	-59,940	-0,082	0,025
-151,877	-98,195	-0,108	0,020
-150,862	-56,639	-0,080	0,025
-149,847	-48,077	0,121	-0,041
-148,833	51,161	-0,041	-0,028
-147,818	88,424	0,095	0,075
-146,804	800,000	0,017	0,043
-145,789	468,438	-0,076	0,121
-144,775	-200,000	0,002	-0,018
-143,760	-72,447	-0,115	-0,030
-142,745	-53,344	0,062	-0,020
-141,731	-109,544	0,066	-0,010
-140,716	16,352	0,032	-0,018
-139,702	176,503	0,037	0,038
-138,687	-150,005	0,106	0,006
-137,672	-200,000	-0,006	-0,028
-136,658	768,763	-0,074	-0,144
-135,643	-153,089	-0,100	-0,005
-134,629	274,785	-0,061	-0,077
-133,614	-200,000	0,035	0,140
-132,599	-127,597	0,086	0,009
-131,585	-200,000	-0,002	0,062
-130,570	443,537	0,055	-0,087
-129,556	68,211	-0,116	0,084
-128,541	-200,000	-0,014	-0,053
-127,526	-200,000	-0,004	0,130
-126,512	272,071	-0,037	0,046
-125,497	356,488	-0,054	-0,076
-124,483	424,068	-0,027	0,041
-123,468	800,000	0,073	-0,155
-122,453	-200,000	0,003	-0,021
-121,439	800,000	0,043	-0,091
-120,424	656,586	-0,081	-0,149
-119,410	800,000	-0,025	0,065
-118,395	16,793	-0,051	0,029
-117,380	-200,000	0,019	0,079
-116,366	201,467	-0,014	-0,016
-115,351	142,492	0,039	0,037
-114,337	-35,919	-0,033	0,013
-113,322	-200,000	-0,012	-0,090
-112,307	-200,000	0,006	0,066
-111,293	264,668	-0,124	0,154
-110,278	575,006	0,053	0,092
-109,264	122,070	0,082	0,073
-108,249	-77,014	0,083	-0,020
-107,234	-200,000	0,042	-0,212
-106,220	37,504	-0,061	-0,038
-105,205	-152,525	-0,057	0,003
-104,191	-200,000	-0,002	0,018
-103,176	6,169	0,046	0,024
-102,162	-88,421	0,068	0,014
-101,147	425,090	-0,010	-0,016
-100,132	-26,559	-0,238	-0,099
-99,118	-7,195	0,034	-0,016
-98,103	-131,260	0,095	-0,009
-97,089	-200,000	-0,027	0,199
-96,074	-113,306	0,073	0,010
-95,059	-200,000	0,022	0,099
-94,045	436,401	-0,038	-0,059
-93,030	57,857	-0,054	0,037
-92,016	609,093	0,061	-0,108
-91,001	-127,200	-0,035	0,004
-89,986	-200,000	-0,034	0,140
-88,972	-66,646	0,191	0,053
-87,957	-47,382	-0,110	-0,038
-86,943	95,769	0,098	-0,079
-85,928	340,446	-0,018	-0,025
-84,913	-26,844	-0,161	-0,066
-83,899	-200,000	0,007	-0,053
-82,884	-200,000	0,013	0,079
-81,870	-200,000	0,068	0,246
-80,855	-74,880	0,090	0,023
-79,840	-85,523	-0,116	-0,025
-78,826	504,956	0,061	0,101
-77,811	-78,642	-0,068	0,016
-76,797	120,301	-0,138	-0,121
-75,782	-31,974	-0,147	0,058
-74,767	-200,000	0,048	0,000
-73,753	-200,000	0,028	0,109
-72,738	-86,898	-0,149	-0,032
-71,724	800,000	0,029	-0,070
-70,709	244,963	-0,082	-0,098
-69,694	-106,065	0,080	0,013
-68,680	-94,705	0,043	0,008
-67,665	-113,509	-0,056	0,008
-66,651	-200,000	0,000	-0,034
-65,636	-200,000	-0,004	-0,048
-64,622	64,489	0,031	-0,022
-63,607	-15,092	-0,064	0,029
-62,592	-58,508	-0,145	0,044
-61,578	-200,000	0,004	-0,130
-60,563	-115,146	-0,035	0,005
-59,549	435,938	-0,082	0,127
-58,534	-35,630	-1,613	-0,617
-57,519	416,655	-1,410	-2,138
-56,505	-200,000	-0,411	-4,429
-55,490	203,912	1,075	1,180
-54,476	800,000	4,714	11,048
-53,461	-200,000	18,902	306,755
-52,446	800,000	737,507	2299,812
-51,432	569,664	1652,899	2857,583
-50,417	78,836	1669,101	1263,354
-49,403	21,873	1542,188	887,643
-48,388	15,801	1464,908	813,681
-47,373	17,743	1454,843	817,431
-46,359	16,826	1444,920	807,427
-45,344	14,027	1440,481	791,523
-44,330	13,990	1438,350	790,144
-43,315	13,931	1436,855	789,007
-42,300	13,963	1435,073	788,151
-41,286	14,012	1433,926	787,723
-40,271	13,964	1432,651	786,767
-39,257	13,952	1431,418	786,000
-38,242	14,038	1429,830	785,503
-37,227	14,013	1428,885	784,835
-36,213	14,026	1427,339	784,016
-35,198	14,026	1426,251	783,391
-34,184	14,044	1425,536	783,049
-33,169	13,988	1424,220	782,031
-32,154	14,010	1423,182	781,532
-31,140	14,000	1421,917	780,762
-30,125	14,078	1420,578	780,362
-29,111	14,040	1419,510	779,565
-28,096	13,992	1418,443	778,722
-27,082	13,952	1417,385	777,921
-26,067	13,921	1416,248	777,122
-25,052	13,939	1415,251	776,628
-24,038	13,929	1414,261	776,006
-23,023	13,902	1413,285	775,314
-22,009	13,910	1412,277	774,766
-20,994	13,933	1411,289	774,303
-19,979	13,918	1410,517	773,780
-18,965	13,871	1409,545	772,995
-17,950	13,884	1408,538	772,471
-16,936	13,853	1407,790	771,887
-15,921	13,871	1406,509	771,239
-14,906	13,827	1405,864	770,647
-13,892	13,856	1404,677	770,103
-12,877	13,860	1403,733	769,574
-11,863	13,868	1403,019	769,189
-10,848	13,880	1402,064	768,688
-9,833	13,839	1400,976	767,870
-8,819	13,779	1400,264	767,173
-7,804	13,757	1399,607	766,681
-6,790	13,758	1398,307	765,940
-5,775	13,761	1397,221	765,330
-4,760	13,764	1396,399	764,864
-3,746	13,743	1395,617	764,307
-2,731	13,771	1394,582	763,838
-1,717	13,702	1393,952	763,143
-0,702	13,746	1392,136	762,322
0,313	17,725	1309,967	735,719
1,327	34,234	705,213	434,272
2,342	52,429	123,975	83,590
3,356	4,277	16,564	8,558
4,371	4,744	3,176	1,646
5,386	25,564	0,501	0,294
6,400	800,000	0,115	0,281
7,415	69,198	-0,193	-0,141
8,429	183,279	-0,221	-0,232
9,444	225,446	-0,319	-0,366
10,459	-1,117	-0,260	-0,130
11,473	-67,458	-0,223	-0,062
12,488	86,440	-0,262	-0,204
13,502	33,792	-0,334	-0,205
14,517	205,232	-0,200	-0,220
15,531	164,605	-0,327	-0,326
16,546	50,851	-0,414	-0,277
17,561	250,687	-0,317	-0,382
18,575	84,745	-0,222	-0,171
19,590	-21,978	-0,266	-0,114
20,604	-194,116	-0,239	0,001
21,619	102,674	-0,388	-0,320
22,634	291,981	-0,349	-0,449
23,648	143,726	-0,349	-0,329
24,663	56,499	-0,448	-0,307
25,677	186,279	-0,282	-0,297
26,692	-79,516	-0,330	-0,078
27,707	-10,542	-0,500	-0,233
28,721	78,772	-0,422	-0,319
29,736	13,363	-0,461	-0,252
30,750	2,785	-0,470	-0,240
31,765	140,649	-0,375	-0,350
32,780	78,500	-0,315	-0,237
33,794	146,964	-0,382	-0,362
34,809	77,399	-0,376	-0,282
35,823	137,735	-0,335	-0,309
36,838	111,889	-0,341	-0,291
37,853	33,324	-0,322	-0,197
38,867	81,435	-0,399	-0,304
39,882	73,248	-0,320	-0,236
40,896	34,768	-0,273	-0,168
41,911	3,982	-0,421	-0,216
42,926	45,771	-0,269	-0,175
43,940	211,822	-0,344	-0,383
44,955	58,092	-0,327	-0,226
45,969	12,012	-0,403	-0,218
46,984	-24,580	-0,317	-0,133
47,999	601,211	-0,155	-0,272
49,013	6,849	-0,422	-0,221
50,028	324,343	-0,239	-0,322
51,042	78,237	-0,309	-0,232
52,057	114,634	-0,269	-0,231
53,071	-12,767	-0,474	-0,217
54,086	7,563	-0,222	-0,117
55,101	18,125	-0,402	-0,225
56,115	-25,611	-0,413	-0,171
57,130	54,257	-0,331	-0,224
58,144	9,395	-0,225	-0,119
59,159	205,320	-0,303	-0,332
60,174	-44,299	-0,513	-0,180
61,188	190,844	-0,391	-0,415
62,203	23,653	-0,393	-0,227
63,217	-24,882	-0,327	-0,136
64,232	-63,377	-0,301	-0,087
65,247	68,617	-0,320	-0,231
66,261	-15,205	-0,446	-0,200
67,276	55,072	-0,436	-0,296
68,290	526,409	-0,202	-0,335
69,305	166,425	-0,275	-0,274
70,320	-23,858	-0,207	-0,087
71,334	-16,789	-0,363	-0,161
72,349	-26,629	-0,315	-0,129
73,363	62,494	-0,304	-0,213
74,378	6,091	-0,319	-0,165
75,393	73,555	-0,333	-0,245
76,407	28,673	-0,343	-0,203
77,422	5,024	-0,325	-0,168
78,436	-113,148	-0,330	-0,045
79,451	24,640	-0,291	-0,169
80,466	10,562	-0,332	-0,177
81,480	-26,273	-0,373	-0,153
82,495	378,318	-0,206	-0,297
83,509	25,756	-0,293	-0,171
84,524	-29,598	-0,259	-0,103
85,539	76,708	-0,225	-0,168
86,553	158,207	-0,214	-0,209
87,568	19,772	-0,370	-0,209
88,582	31,089	-0,467	-0,281
89,597	113,323	-0,300	-0,255
90,611	51,426	-0,301	-0,200
91,626	419,574	-0,117	-0,176
92,641	-91,056	-0,208	-0,042
93,655	-150,407	-0,235	0,012
94,670	481,991	-0,131	-0,209
95,684	35,692	-0,258	-0,159
96,699	184,342	-0,270	-0,281
97,714	377,512	-0,189	-0,272
98,728	105,205	-0,206	-0,170
99,743	-95,889	-0,338	-0,063
100,757	118,826	-0,235	-0,203
101,772	-26,090	-0,380	-0,156
102,787	-8,299	-0,390	-0,183
103,801	66,687	-0,253	-0,181
104,816	179,139	-0,208	-0,213
105,830	117,194	-0,327	-0,282
106,845	178,780	-0,162	-0,166
107,860	-13,611	-0,304	-0,138
108,874	8,493	-0,234	-0,123
109,889	-102,624	-0,222	-0,037
110,903	13,306	-0,339	-0,184
111,918	396,297	-0,132	-0,194
112,933	7,494	-0,241	-0,126
113,947	42,746	-0,258	-0,165
114,962	-112,358	-0,277	0,038
115,976	-33,188	-0,220	-0,085
116,991	-98,325	-0,319	0,057
118,006	155,279	-0,367	-0,354
119,020	111,587	-0,296	-0,250
120,035	-59,494	-0,175	-0,052
121,049	-9,843	-0,221	-0,103
122,064	493,193	-0,199	-0,321
123,079	13,991	-0,293	-0,159
124,093	147,260	-0,240	-0,227
125,108	-28,018	-0,328	-0,132
126,122	-37,242	-0,400	-0,149
127,137	360,797	-0,201	-0,282
128,151	96,175	-0,112	-0,090
129,166	24,072	-0,275	-0,159
130,181	308,436	-0,226	-0,296
131,195	110,998	-0,222	-0,187
132,210	-149,836	-0,442	-0,024
133,224	-12,782	-0,193	-0,088
134,239	21,018	-0,258	-0,146
135,254	78,359	-0,183	-0,137
136,268	-15,437	-0,174	-0,077
137,283	57,646	-0,266	-0,182
138,297	-36,122	-0,175	-0,066
139,312	35,302	-0,389	-0,238
140,327	-70,009	-0,358	-0,095
141,341	412,595	-0,152	-0,227
142,356	82,642	-0,180	-0,137
143,370	193,131	-0,187	-0,198
144,385	-70,137	-0,213	-0,056
145,400	-57,150	-0,361	-0,111
146,414	150,305	-0,271	-0,257
147,429	107,167	-0,297	-0,246
148,443	35,803	-0,298	-0,182
149,458	127,431	-0,151	-0,134
150,473	130,252	-0,183	-0,164
151,487	12,158	-0,136	-0,073
152,502	95,883	-0,292	-0,233
153,516	-106,468	-0,371	-0,057
154,531	-24,963	-0,327	-0,135
155,546	22,261	-0,177	-0,101
156,560	81,881	-0,243	-0,184
157,575	133,200	-0,233	-0,210
158,589	8,924	-0,304	-0,160
159,604	-72,058	-0,306	-0,079
160,619	366,736	-0,247	-0,349
161,633	44,660	-0,360	-0,230
162,648	-5,783	-0,286	-0,136
163,662	-130,754	-0,274	-0,025
164,677	632,742	-0,101	-0,179
165,692	102,203	-0,153	-0,125
166,706	296,774	-0,230	-0,294
167,721	101,551	-0,268	-0,218
168,735	114,195	-0,310	-0,263
169,750	352,783	-0,212	-0,294
170,764	513,446	-0,199	-0,325
171,779	133,276	-0,106	-0,096
172,794	-57,000	-0,289	-0,088
173,808	-12,505	-0,357	-0,162
174,823	60,280	-0,254	-0,175
175,837	590,322	-0,169	-0,292
176,852	252,477	-0,127	-0,152
177,867	112,950	-0,239	-0,202
178,881	-62,978	-0,268	-0,077
179,896	-102,863	-0,285	-0,047
180,910	36,118	-0,262	-0,160
181,925	174,727	-0,174	-0,176
182,940	-101,125	-0,303	-0,051
183,954	800,000	-0,109	-0,266
184,969	72,613	-0,245	-0,178
185,983	-200,000	-0,039	-0,130
186,998	189,240	-0,186	-0,195
188,013	-88,011	-0,225	-0,047
189,027	219,590	-0,114	-0,127
190,042	62,351	-0,208	-0,145
191,056	155,462	-0,178	-0,171
192,071	-200,000	-0,060	-0,242
193,086	66,837	-0,288	-0,204
194,100	-65,963	-0,141	-0,039
195,115	463,890	-0,136	-0,211
196,129	428,766	-0,138	-0,209
197,144	526,222	-0,182	-0,299
198,159	222,000	-0,143	-0,161
199,173	-104,319	-0,329	-0,053
200,188	260,875	-0,215	-0,259
201,202	215,004	-0,235	-0,259
202,217	164,929	-0,207	-0,204
203,232	24,692	-0,130	-0,075
204,246	18,519	-0,170	-0,094
205,261	64,257	-0,345	-0,241
206,275	-149,919	-0,274	-0,015
207,290	115,069	-0,227	-0,193
208,304	215,661	-0,141	-0,156
209,319	117,192	-0,163	-0,139
210,334	-7,271	-0,231	-0,108
211,348	91,871	-0,300	-0,235
212,363	187,306	-0,165	-0,171
213,377	404,143	-0,113	-0,166
214,392	26,446	-0,050	-0,029
215,407	-7,195	-0,256	-0,120
216,421	-83,055	-0,189	-0,042
217,436	687,147	-0,093	-0,170
218,450	57,829	-0,269	-0,182
219,465	-7,009	-0,278	-0,130
220,480	10,036	-0,194	-0,102
221,494	-188,294	-0,272	0,002
222,509	312,354	-0,119	-0,156
223,523	-174,443	-0,296	0,006
224,538	262,030	-0,141	-0,170
225,553	220,775	-0,145	-0,161
226,567	143,425	-0,068	-0,063
227,582	-105,054	-0,214	-0,034
228,596	35,587	-0,232	-0,141
229,611	123,750	-0,181	-0,157
230,626	-148,897	-0,228	-0,013
231,640	134,417	-0,150	-0,135
232,655	-50,864	-0,232	-0,075
233,669	536,940	-0,122	-0,202
234,684	41,190	-0,278	-0,174
235,699	149,875	-0,230	-0,217
236,713	-80,823	-0,183	-0,042
237,728	-178,278	-0,140	-0,002
238,742	164,410	-0,111	-0,109
239,757	12,989	-0,212	-0,113
240,772	227,466	-0,176	-0,199
241,786	127,102	-0,197	-0,173
242,801	288,346	-0,113	-0,143
243,815	-53,206	-0,264	-0,084
244,830	228,145	-0,143	-0,162
245,844	800,000	-0,057	-0,125
246,859	483,485	-0,156	-0,247
247,874	-71,517	-0,292	-0,075
248,888	-57,716	-0,233	-0,070
249,903	306,688	-0,201	-0,260
250,917	780,708	-0,048	-0,091
251,932	-69,676	-0,219	-0,058
252,947	212,889	-0,139	-0,153
253,961	800,000	-0,136	-0,308
254,976	-200,000	-0,002	-0,085
255,990	119,196	-0,156	-0,133
257,005	19,725	-0,204	-0,113
258,020	-200,000	-0,048	-0,244
259,034	65,363	-0,182	-0,127
260,049	-93,486	-0,051	-0,010
261,063	600,387	-0,083	-0,143
262,078	213,121	-0,137	-0,150
263,093	476,574	-0,109	-0,170
264,107	-91,116	-0,110	-0,022
265,122	6,667	-0,164	-0,084
266,136	174,040	-0,221	-0,221
267,151	180,328	-0,116	-0,117
268,166	-118,233	-0,169	0,021
269,180	77,950	-0,268	-0,198
270,195	-50,791	-0,126	-0,041
271,209	800,000	-0,102	-0,197
272,224	182,807	-0,173	-0,177
273,239	-17,850	-0,063	0,027
274,253	-86,893	-0,227	-0,047
275,268	-34,436	-0,326	-0,123
276,282	-43,520	-0,188	-0,065
277,297	-54,399	-0,226	-0,070
278,312	78,196	-0,088	-0,065
279,326	-153,923	-0,213	-0,010
280,341	-126,149	-0,199	0,020
281,355	77,740	-0,260	-0,191
282,370	12,754	-0,254	-0,135
283,384	76,433	-0,213	-0,155
284,399	41,715	-0,205	-0,128
285,414	3,482	-0,191	-0,096
286,428	277,338	-0,158	-0,194
287,443	29,027	-0,095	-0,056
288,457	358,152	-0,092	-0,127
289,472	9,727	-0,198	-0,103
290,487	42,738	-0,052	0,032
291,501	242,990	-0,080	-0,092
292,516	116,402	-0,125	-0,106
293,530	195,815	-0,113	-0,118
294,545	81,919	-0,149	-0,111
295,560	143,711	-0,265	-0,244
296,574	-148,165	-0,205	0,011
297,589	14,267	-0,158	-0,085
298,603	-7,241	-0,143	-0,067
299,618	330,925	-0,075	-0,100
300,633	-68,739	-0,238	-0,063
301,647	-161,739	-0,252	-0,009
302,662	144,123	-0,116	-0,107
303,676	327,759	-0,081	-0,107
304,691	136,206	-0,099	-0,089
305,706	219,342	-0,182	-0,201
306,720	8,481	-0,205	-0,106
307,735	-56,816	-0,211	-0,064
308,749	110,284	-0,075	-0,062
309,764	-48,270	-0,079	-0,026
310,779	107,806	-0,129	-0,106
311,793	-155,974	-0,283	-0,012
312,808	-187,345	-0,149	0,001
313,822	161,361	-0,229	-0,221
314,837	-34,019	-0,188	-0,071
315,852	59,796	-0,143	-0,097
316,866	800,000	0,027	-0,072
317,881	-70,717	-0,116	0,030
318,895	-21,066	-0,062	0,026
319,910	800,000	-0,097	-0,196
320,925	98,123	-0,241	-0,191
321,939	72,846	-0,180	-0,129
322,954	-200,000	-0,175	-0,000
323,968	323,095	-0,130	-0,170
324,983	-48,063	-0,078	-0,026
325,997	85,975	-0,132	-0,100
327,012	-65,935	-0,135	-0,037
328,027	298,166	-0,140	-0,178
329,041	719,588	-0,071	-0,130
330,056	308,869	-0,033	-0,043
331,070	103,463	-0,058	-0,046
332,085	63,193	-0,106	-0,073
333,100	-78,632	-0,186	-0,043
334,114	-75,976	-0,180	-0,043
335,129	173,919	-0,207	-0,206
336,143	56,786	-0,159	-0,107
337,158	265,622	-0,120	-0,144
338,173	-200,000	-0,019	-0,080
339,187	-31,716	-0,046	-0,018
340,202	800,000	-0,006	0,015
341,216	189,216	-0,120	-0,124
342,231	196,784	-0,187	-0,196
343,246	-200,000	-0,028	-0,092
344,260	-130,141	-0,233	0,022
345,275	26,421	-0,096	-0,055
346,289	-45,989	-0,078	-0,026
347,304	86,425	-0,108	-0,081
348,319	-136,777	-0,139	-0,011
349,333	26,031	-0,132	-0,076
350,348	-200,000	-0,031	-0,182
351,362	-88,738	-0,091	-0,018
352,377	-57,031	-0,143	-0,043
353,392	258,389	-0,092	-0,108
354,406	53,539	-0,174	-0,115
355,421	209,536	1312,032	1412,567
356,435	161,269	1472,448	1413,068
