DTS Sentinel unit serial number:	SN410029Multiplexer serial number:	ORYXHardware model number:	OX2-SRSoftware version number:	ORYX F/W v4,00 Oryx Data Collector v3.7.2.0data status	okinstallation	B3 Nyhavnadifferential loss correction	single-endedforward channel	channel 1reverse channel	N/Adate	2023/12/01time	21:47:30forward acquisition time	300,00reverse acquisition time	0,00gamma	499,1914k internal	0,3196k external	0,3196temperature offset calibration	1,0000default loss term (dB/km)	0,3820temperature slope calibration	1,0000multiplexer offset coefficient	1,0000multiplexer slope coefficient	1,0000fibre end	0,00T internal ref (°C)	16,00T ext. ref 1 (°C)	0,92T ext. ref 2 (°C)	0,91length (m)	temperature (°C)	Stokes	anti-Stokes-744,400	185,140	-0,174	-0,188
-743,385	800,000	0,115	0,315
-742,371	800,000	-0,108	-0,246
-741,356	-200,000	-0,082	0,472
-740,342	800,000	-0,092	-0,241
-739,327	650,414	0,110	0,206
-738,312	509,021	-0,173	-0,294
-737,298	-200,000	0,035	0,211
-736,283	181,482	-0,212	-0,227
-735,269	-200,000	-0,004	0,295
-734,254	36,867	-0,258	-0,166
-733,239	-200,000	-0,015	0,151
-732,225	189,872	-0,097	-0,106
-731,210	23,894	0,153	0,091
-730,196	-51,185	0,080	-0,027
-729,181	122,805	-0,062	-0,056
-728,167	40,584	-0,086	0,056
-727,152	-118,617	0,222	0,028
-726,137	600,827	0,044	-0,081
-725,123	-200,000	-0,005	-0,096
-724,108	365,209	0,073	-0,107
-723,094	-200,000	0,011	-0,099
-722,079	-200,000	-0,021	-0,120
-721,064	127,420	-0,071	-0,065
-720,050	73,374	0,086	0,065
-719,035	507,998	0,067	0,114
-718,021	0,826	0,097	0,050
-717,006	39,678	-0,145	-0,095
-715,991	53,225	-0,109	-0,076
-714,977	-135,518	0,082	0,007
-713,962	131,431	0,084	-0,078
-712,948	123,316	-0,027	0,025
-711,933	-99,549	0,102	-0,018
-710,918	288,896	0,071	-0,094
-709,904	-185,485	-0,174	0,002
-708,889	-95,775	0,045	-0,009
-707,875	800,000	-0,017	0,045
-706,860	-200,000	0,022	-0,145
-705,845	315,921	0,026	-0,036
-704,831	-200,000	-0,003	0,036
-703,816	222,527	0,054	0,063
-702,802	7,651	0,093	0,050
-701,787	-200,000	0,037	-0,137
-700,772	400,409	0,099	-0,152
-699,758	-77,430	-0,017	0,004
-698,743	267,347	0,093	0,118
-697,729	43,851	0,050	-0,033
-696,714	323,244	-0,032	0,044
-695,699	-120,713	-0,083	0,010
-694,685	-200,000	-0,010	-0,059
-693,670	800,000	-0,087	-0,258
-692,656	150,017	0,025	-0,024
-691,641	-99,970	-0,087	-0,016
-690,627	-121,224	0,113	0,014
-689,612	167,882	-0,019	-0,020
-688,597	-75,166	-0,033	0,009
-687,583	69,463	-0,020	-0,015
-686,568	800,000	-0,040	-0,101
-685,554	333,454	-0,044	0,061
-684,539	584,879	0,064	0,114
-683,524	424,515	-0,073	0,115
-682,510	764,425	0,074	0,147
-681,495	70,212	0,076	-0,057
-680,481	123,336	-0,042	-0,038
-679,466	-200,000	-0,000	-0,080
-678,451	107,439	-0,106	-0,092
-677,437	-99,034	0,180	0,033
-676,422	764,438	0,060	0,118
-675,408	800,000	-0,016	0,038
-674,393	800,000	-0,041	0,097
-673,378	538,147	-0,083	-0,143
-672,364	461,387	0,065	-0,106
-671,349	800,000	-0,063	-0,130
-670,335	190,615	0,106	-0,115
-669,320	-200,000	0,011	0,041
-668,305	-68,954	-0,061	0,017
-667,291	-200,000	0,001	0,016
-666,276	-60,103	-0,135	0,042
-665,262	75,449	0,134	0,103
-664,247	800,000	-0,012	-0,025
-663,232	76,043	-0,089	-0,068
-662,218	-200,000	0,023	0,084
-661,203	479,962	-0,071	-0,117
-660,189	-159,517	-0,049	0,002
-659,174	-200,000	0,009	-0,162
-658,159	-187,582	-0,033	0,000
-657,145	-78,147	-0,120	0,030
-656,130	141,404	-0,066	-0,064
-655,116	-13,614	-0,091	0,043
-654,101	-30,454	0,051	-0,021
-653,086	294,390	-0,050	-0,067
-652,072	61,383	-0,117	-0,084
-651,057	99,903	0,069	-0,058
-650,043	-99,227	-0,146	-0,027
-649,028	-38,004	-0,078	0,030
-648,014	-26,957	-0,056	0,024
-646,999	185,450	0,085	0,091
-645,984	9,217	0,143	-0,078
-644,970	48,817	-0,090	0,061
-643,955	-200,000	-0,007	-0,073
-642,941	366,144	-0,109	-0,160
-641,926	128,201	-0,037	0,034
-640,911	-200,000	0,022	-0,094
-639,897	63,958	-0,100	-0,073
-638,882	-159,230	0,104	0,004
-637,868	243,868	-0,048	-0,058
-636,853	489,492	-0,084	-0,140
-635,838	137,692	-0,124	0,118
-634,824	392,906	-0,028	-0,042
-633,809	-18,524	0,060	0,027
-632,795	83,050	-0,046	0,036
-631,780	-61,805	0,048	-0,014
-630,765	-86,341	0,145	0,032
-629,751	47,091	-0,010	0,007
-628,736	112,987	-0,068	-0,060
-627,722	-200,000	-0,002	-0,009
-626,707	32,991	0,065	-0,041
-625,692	-10,833	-0,068	-0,033
-624,678	736,516	-0,028	0,055
-623,663	269,061	0,036	0,046
-622,649	-200,000	-0,006	0,072
-621,634	-200,000	0,001	-0,075
-620,619	-129,616	-0,065	0,006
-619,605	489,622	-0,079	-0,132
-618,590	-200,000	0,018	-0,089
-617,576	-48,794	-0,047	-0,016
-616,561	800,000	-0,048	-0,137
-615,546	334,116	0,031	-0,043
-614,532	800,000	0,023	-0,059
-613,517	125,763	-0,129	-0,118
-612,503	6,013	0,088	0,047
-611,488	800,000	-0,011	0,026
-610,474	128,727	-0,049	-0,046
-609,459	-128,635	0,153	-0,015
-608,444	252,295	-0,047	0,058
-607,430	-41,570	0,069	0,026
-606,415	138,830	-0,131	-0,125
-605,401	-107,980	0,152	0,024
-604,386	-146,844	-0,066	-0,004
-603,371	296,280	0,018	0,024
-602,357	-75,288	-0,112	0,029
-601,342	223,921	-0,077	0,090
-600,328	211,303	-0,071	0,081
-599,313	-124,848	-0,053	0,006
-598,298	-124,596	-0,099	0,011
-597,284	-51,694	0,022	0,007
-596,269	-113,751	-0,105	0,015
-595,255	-31,121	-0,068	0,028
-594,240	-28,498	-0,160	0,066
-593,225	-200,000	0,002	-0,050
-592,211	40,158	-0,105	-0,068
-591,196	-101,347	-0,076	-0,013
-590,182	77,533	0,057	0,044
-589,167	92,633	0,013	0,010
-588,152	386,746	-0,013	-0,019
-587,138	-200,000	-0,001	-0,036
-586,123	-200,000	0,010	0,048
-585,109	-200,000	0,008	-0,040
-584,094	-200,000	0,009	-0,118
-583,079	800,000	0,023	-0,057
-582,065	795,586	0,040	-0,080
-581,050	800,000	0,066	0,135
-580,036	-111,674	0,094	0,014
-579,021	-74,596	-0,152	0,039
-578,006	800,000	-0,041	-0,092
-576,992	-200,000	-0,015	-0,088
-575,977	800,000	-0,044	0,103
-574,963	376,931	0,055	0,082
-573,948	97,605	0,146	0,121
-572,934	126,358	-0,050	-0,045
-571,919	-48,280	-0,180	-0,062
-570,904	727,396	0,015	-0,029
-569,890	-200,000	0,006	-0,033
-568,875	800,000	-0,042	0,086
-567,861	261,176	-0,086	0,108
-566,846	133,906	0,040	0,037
-565,831	80,930	-0,112	0,088
-564,817	-200,000	-0,038	-0,123
-563,802	-84,813	-0,040	0,009
-562,788	-200,000	-0,005	0,033
-561,773	-14,899	0,165	-0,076
-560,758	5,239	-0,038	-0,020
-559,744	-68,857	-0,116	0,032
-558,729	-200,000	-0,003	0,128
-557,715	290,328	-0,123	0,162
-556,700	-163,451	0,073	0,002
-555,685	-107,395	-0,162	0,025
-554,671	52,420	-0,012	-0,009
-553,656	-56,383	-0,111	-0,035
-552,642	68,253	0,058	0,043
-551,627	1,032	-0,019	-0,010
-550,612	-200,000	0,003	0,079
-549,598	-200,000	0,014	-0,069
-548,583	357,216	-0,052	-0,075
-547,569	-200,000	-0,045	0,162
-546,554	-43,687	-0,071	0,026
-545,539	356,737	0,080	-0,116
-544,525	780,348	-0,021	-0,042
-543,510	-136,201	0,093	-0,008
-542,496	215,455	-0,076	-0,087
-541,481	-96,841	0,095	0,018
-540,466	-200,000	0,049	0,165
-539,452	-200,000	0,001	-0,090
-538,437	-200,000	0,001	0,056
-537,423	-200,000	0,001	-0,052
-536,408	45,175	-0,090	-0,060
-535,393	800,000	-0,030	-0,067
-534,379	605,708	-0,006	-0,011
-533,364	-108,912	0,162	0,025
-532,350	780,328	0,048	-0,095
-531,335	-55,876	0,037	-0,012
-530,321	106,923	0,139	0,119
-529,306	252,964	0,087	0,108
-528,291	-144,916	-0,092	-0,006
-527,277	-200,000	0,004	0,079
-526,262	-200,000	0,027	-0,152
-525,248	300,499	0,075	-0,100
-524,233	-4,279	-0,074	-0,037
-523,218	-200,000	0,017	0,093
-522,204	-27,971	-0,107	0,045
-521,189	-90,312	0,020	0,004
-520,175	-81,098	0,049	0,012
-519,160	-24,366	-0,133	-0,057
-518,145	241,497	-0,094	-0,114
-517,131	-99,471	0,173	-0,031
-516,116	17,800	-0,038	-0,022
-515,102	173,373	-0,047	-0,049
-514,087	51,451	0,149	-0,102
-513,072	-44,767	-0,252	-0,090
-512,058	149,481	0,125	-0,122
-511,043	-138,632	-0,141	0,011
-510,029	800,000	0,076	0,179
-509,014	-200,000	0,015	-0,106
-507,999	217,656	-0,031	-0,035
-506,985	-64,874	0,167	-0,048
-505,970	219,111	-0,031	0,036
-504,956	16,047	-0,148	-0,084
-503,941	-162,496	0,041	-0,001
-502,926	-50,186	0,102	0,034
-501,912	-200,000	-0,016	0,082
-500,897	-200,000	0,003	0,220
-499,883	-95,638	-0,112	0,021
-498,868	800,000	0,003	-0,007
-497,853	16,846	0,014	0,008
-496,839	284,246	-0,009	0,012
-495,824	-200,000	-0,018	-0,069
-494,810	165,494	0,004	0,004
-493,795	101,346	0,029	0,024
-492,781	-32,062	0,076	0,030
-491,766	107,942	0,021	0,018
-490,751	333,787	0,072	-0,100
-489,737	-56,927	0,012	0,004
-488,722	800,000	-0,022	0,056
-487,708	-200,000	-0,036	0,168
-486,693	14,841	-0,109	-0,061
-485,678	-200,000	-0,010	-0,093
-484,664	722,073	-0,042	-0,081
-483,649	-200,000	-0,001	0,021
-482,635	-200,000	-0,032	-0,116
-481,620	10,373	0,070	0,038
-480,605	539,461	-0,055	0,095
-479,591	159,385	-0,114	0,114
-478,576	-200,000	0,010	0,065
-477,562	-53,749	0,044	0,014
-476,547	-21,366	-0,063	-0,028
-475,532	-154,469	-0,073	0,003
-474,518	-200,000	0,009	0,092
-473,503	-200,000	0,004	-0,016
-472,489	-105,918	-0,092	-0,015
-471,474	17,786	0,024	-0,014
-470,459	800,000	-0,043	-0,116
-469,445	446,070	-0,013	-0,020
-468,430	-200,000	0,004	-0,072
-467,416	96,040	0,068	0,056
-466,401	800,000	-0,050	0,122
-465,386	-200,000	-0,026	-0,128
-464,372	-53,775	-0,137	-0,045
-463,357	-200,000	-0,072	-0,261
-462,343	-134,174	-0,024	-0,002
-461,328	56,124	0,020	-0,014
-460,313	-156,334	0,074	-0,003
-459,299	800,000	0,041	0,102
-458,284	800,000	-0,010	-0,024
-457,270	-200,000	-0,004	0,055
-456,255	-200,000	-0,015	0,068
-455,241	-66,091	0,108	0,031
-454,226	800,000	-0,059	-0,182
-453,211	-164,646	-0,031	-0,001
-452,197	-200,000	-0,008	-0,032
-451,182	-34,786	0,121	-0,047
-450,168	-200,000	-0,032	0,111
-449,153	-94,641	0,036	0,007
-448,138	-200,000	0,022	0,126
-447,124	800,000	-0,039	-0,104
-446,109	135,078	0,037	-0,035
-445,095	-200,000	0,006	0,093
-444,080	21,897	-0,057	-0,033
-443,065	89,518	-0,003	-0,002
-442,051	-46,200	0,094	0,033
-441,036	-49,539	-0,149	-0,051
-440,022	-200,000	0,005	-0,025
-439,007	-200,000	0,028	0,114
-437,992	46,979	-0,080	0,053
-436,978	-200,000	0,015	0,048
-435,963	-32,816	0,088	-0,035
-434,949	-200,000	0,024	-0,139
-433,934	83,343	0,185	-0,145
-432,919	-58,993	-0,021	0,006
-431,905	541,946	-0,073	-0,126
-430,890	-57,314	0,055	0,017
-429,876	800,000	0,032	0,068
-428,861	27,856	0,048	-0,029
-427,846	-58,732	0,075	0,023
-426,832	283,044	0,025	-0,032
-425,817	-89,881	-0,101	-0,021
-424,803	-120,409	0,170	0,021
-423,788	-200,000	0,029	0,136
-422,773	-200,000	0,004	0,094
-421,759	-200,000	-0,040	0,147
-420,744	800,000	-0,024	0,055
-419,730	107,946	0,113	-0,097
-418,715	687,212	-0,029	-0,054
-417,701	60,917	-0,045	-0,032
-416,686	203,709	-0,038	0,042
-415,671	-89,177	0,081	0,017
-414,657	-180,542	0,021	0,000
-413,642	-86,019	0,069	0,015
-412,628	32,626	-0,084	-0,052
-411,613	-200,000	-0,005	-0,034
-410,598	8,319	-0,071	0,038
-409,584	314,036	0,092	0,125
-408,569	-200,000	0,040	-0,128
-407,555	-123,270	0,099	0,011
-406,540	44,563	-0,022	-0,014
-405,525	-9,958	-0,129	0,061
-404,511	40,202	-0,100	-0,064
-403,496	209,223	-0,017	0,019
-402,482	-200,000	-0,034	-0,179
-401,467	-112,837	0,155	0,022
-400,452	308,904	-0,097	0,130
-399,438	-200,000	0,022	-0,208
-398,423	576,199	0,094	0,166
-397,409	202,204	-0,023	0,025
-396,394	800,000	-0,062	0,162
-395,379	-147,995	-0,093	-0,005
-394,365	50,162	-0,103	0,070
-393,350	42,867	-0,126	0,083
-392,336	-77,798	0,020	0,005
-391,321	226,115	0,066	0,077
-390,306	128,940	0,083	0,076
-389,292	200,196	-0,040	0,044
-388,277	127,220	0,057	0,052
-387,263	-17,256	0,080	0,036
-386,248	301,929	0,076	0,101
-385,233	-94,265	0,146	-0,028
-384,219	3,742	0,042	0,022
-383,204	74,243	0,101	0,076
-382,190	328,873	0,052	-0,072
-381,175	44,366	0,123	-0,081
-380,160	800,000	0,048	-0,102
-379,146	176,054	0,091	0,095
-378,131	-200,000	-0,008	0,175
-377,117	-200,000	-0,041	0,134
-376,102	-200,000	-0,045	0,154
-375,088	-200,000	-0,016	-0,181
-374,073	-101,490	-0,045	-0,008
-373,058	-106,573	-0,086	-0,014
-372,044	-101,964	0,080	0,014
-371,029	800,000	-0,053	0,132
-370,015	409,659	0,065	0,100
-369,000	33,076	0,122	-0,076
-367,985	-200,000	-0,005	-0,026
-366,971	-200,000	0,009	0,153
-365,956	364,421	-0,028	-0,040
-364,942	640,493	-0,027	-0,049
-363,927	542,482	0,046	0,079
-362,912	-200,000	-0,006	-0,068
-361,898	-32,002	-0,039	0,016
-360,883	800,000	-0,038	0,085
-359,869	-200,000	-0,018	0,063
-358,854	-200,000	-0,009	0,041
-357,839	-83,529	0,030	-0,007
-356,825	-200,000	0,004	0,091
-355,810	180,202	0,026	0,027
-354,796	800,000	-0,027	-0,063
-353,781	205,209	0,038	-0,043
-352,766	-50,487	-0,071	-0,024
-351,752	800,000	0,017	0,040
-350,737	266,861	-0,051	-0,064
-349,723	69,555	0,102	0,075
-348,708	-139,131	0,094	0,007
-347,693	190,193	-0,087	0,094
-346,679	-200,000	-0,018	-0,174
-345,664	159,856	0,022	-0,022
-344,650	-178,576	-0,016	0,000
-343,635	574,053	0,030	0,053
-342,620	-126,729	0,121	0,013
-341,606	-81,134	0,041	-0,010
-340,591	800,000	-0,018	-0,047
-339,577	-200,000	0,040	-0,170
-338,562	-125,833	0,168	-0,018
-337,548	-11,982	-0,089	-0,042
-336,533	-200,000	0,024	0,136
-335,518	-52,354	0,060	0,020
-334,504	-200,000	-0,020	-0,082
-333,489	-200,000	-0,047	0,163
-332,475	-200,000	0,000	0,106
-331,460	271,584	-0,096	-0,121
-330,445	-45,170	-0,062	-0,022
-329,431	33,530	0,049	0,031
-328,416	800,000	0,022	-0,061
-327,402	227,256	-0,083	0,097
-326,387	-38,204	0,171	0,065
-325,372	462,019	-0,022	0,035
-324,358	-78,629	-0,102	-0,025
-323,343	800,000	-0,032	-0,066
-322,329	-56,323	0,076	0,024
-321,314	800,000	0,054	0,129
-320,299	-76,454	0,065	0,016
-319,285	41,766	-0,108	-0,070
-318,270	800,000	-0,045	0,101
-317,256	800,000	-0,067	-0,153
-316,241	669,288	-0,042	-0,079
-315,226	800,000	0,039	-0,082
-314,212	551,018	0,056	0,096
-313,197	800,000	-0,036	0,086
-312,183	488,455	-0,001	0,001
-311,168	-23,263	-0,096	0,041
-310,153	-38,856	-0,128	0,048
-309,139	-200,000	-0,003	0,038
-308,124	-118,023	-0,053	-0,007
-307,110	800,000	0,059	-0,138
-306,095	9,163	0,085	-0,046
-305,080	-200,000	0,012	-0,083
-304,066	-200,000	-0,005	-0,141
-303,051	800,000	-0,037	-0,080
-302,037	-158,921	0,174	-0,007
-301,022	95,273	-0,087	0,071
-300,008	101,379	0,077	0,064
-298,993	57,002	0,112	0,078
-297,978	-24,302	0,064	-0,027
-296,964	183,830	0,097	-0,103
-295,949	-61,957	-0,104	0,031
-294,935	-200,000	0,036	-0,000
-293,920	67,738	-0,072	-0,053
-292,905	800,000	0,037	-0,117
-291,891	114,079	0,102	0,089
-290,876	-20,371	0,120	0,053
-289,862	171,196	-0,059	0,061
-288,847	-200,000	0,012	-0,042
-287,832	800,000	0,025	0,054
-286,818	-75,609	-0,107	0,027
-285,803	-200,000	0,016	0,069
-284,789	-106,819	0,093	-0,015
-283,774	387,563	-0,104	-0,155
-282,759	524,545	-0,106	-0,179
-281,745	776,128	-0,027	-0,052
-280,730	-200,000	0,007	-0,106
-279,716	-13,392	0,018	-0,008
-278,701	-43,807	-0,033	-0,012
-277,686	-6,953	0,047	0,023
-276,672	-198,469	0,024	0,000
-275,657	153,021	-0,014	-0,014
-274,643	800,000	-0,027	-0,060
-273,628	800,000	-0,053	-0,121
-272,613	-112,767	-0,110	-0,015
-271,599	67,074	0,168	0,123
-270,584	352,162	0,094	0,134
-269,570	800,000	0,010	0,021
-268,555	165,364	-0,019	0,020
-267,540	-52,661	0,013	-0,004
-266,526	-113,368	-0,103	-0,014
-265,511	-200,000	-0,000	-0,020
-264,497	200,487	-0,043	-0,048
-263,482	-200,000	0,001	0,012
-262,467	-32,524	0,059	-0,024
-261,453	33,322	0,034	0,021
-260,438	-13,888	-0,086	0,039
-259,424	-200,000	0,011	-0,113
-258,409	800,000	-0,017	-0,035
-257,395	-200,000	0,011	0,068
-256,380	-146,683	0,074	0,005
-255,365	-200,000	-0,003	0,050
-254,351	800,000	0,015	-0,034
-253,336	-200,000	0,023	0,114
-252,322	511,634	-0,043	-0,071
-251,307	800,000	-0,041	-0,126
-250,292	96,228	0,040	-0,033
-249,278	788,178	-0,061	0,120
-248,263	-153,630	0,020	0,001
-247,249	-23,985	0,029	-0,012
-246,234	-61,130	0,025	-0,008
-245,219	-200,000	-0,031	-0,185
-244,205	-59,475	-0,060	-0,018
-243,190	99,219	-0,051	-0,042
-242,176	395,380	-0,018	0,027
-241,161	85,609	0,048	0,037
-240,146	99,327	0,050	0,042
-239,132	739,147	0,051	-0,097
-238,117	-125,893	-0,059	-0,006
-237,103	-200,000	-0,002	-0,119
-236,088	617,342	-0,041	-0,073
-235,073	-68,176	0,069	0,019
-234,059	-87,248	-0,074	-0,016
-233,044	104,660	-0,075	-0,063
-232,030	386,722	-0,042	0,062
-231,015	200,758	-0,068	-0,074
-230,000	-200,000	0,014	-0,064
-228,986	-200,000	0,010	0,058
-227,971	800,000	0,049	-0,121
-226,957	-200,000	-0,013	0,072
-225,942	-200,000	0,071	0,224
-224,927	11,402	-0,034	0,019
-223,913	231,563	-0,059	-0,069
-222,898	324,471	0,031	-0,043
-221,884	481,977	0,032	-0,052
-220,869	800,000	-0,055	-0,123
-219,855	-164,306	0,100	0,003
-218,840	-200,000	-0,015	0,047
-217,825	-4,708	-0,073	-0,036
-216,811	-116,117	0,116	-0,015
-215,796	-200,000	-0,041	-0,158
-214,782	134,563	0,060	-0,056
-213,767	207,582	-0,036	0,040
-212,752	-200,000	-0,011	0,067
-211,738	800,000	-0,044	0,130
-210,723	800,000	0,036	-0,080
-209,709	-200,000	0,002	-0,023
-208,694	32,941	0,091	0,056
-207,679	-200,000	0,013	0,069
-206,665	604,007	-0,028	-0,050
-205,650	154,487	0,038	-0,037
-204,636	146,758	0,186	0,178
-203,621	2,032	0,017	-0,009
-202,606	-200,000	0,029	0,097
-201,592	800,000	0,012	0,036
-200,577	-134,288	-0,064	-0,006
-199,563	-113,833	-0,043	-0,006
-198,548	-200,000	-0,004	0,053
-197,533	-115,569	0,084	-0,011
-196,519	225,605	0,025	0,028
-195,504	170,403	-0,076	-0,078
-194,490	184,588	-0,095	0,101
-193,475	27,888	0,045	-0,027
-192,460	37,617	0,062	0,039
-191,446	800,000	0,011	0,035
-190,431	107,504	-0,077	0,065
-189,417	-36,933	-0,004	0,001
-188,402	111,166	0,153	-0,131
-187,387	-9,403	-0,070	-0,033
-186,373	-100,775	-0,023	-0,004
-185,358	14,944	0,059	0,033
-184,344	568,989	0,023	0,040
-183,329	80,164	0,116	-0,089
-182,315	-124,101	0,067	-0,007
-181,300	-94,031	-0,068	0,013
-180,285	-200,000	-0,004	0,094
-179,271	12,186	0,067	0,037
-178,256	-85,043	-0,013	0,003
-177,242	-0,658	0,053	0,027
-176,227	-41,520	0,118	0,043
-175,212	66,232	0,063	-0,046
-174,198	54,507	-0,082	-0,056
-173,183	800,000	-0,039	0,089
-172,169	571,562	0,117	-0,203
-171,154	3,860	0,016	0,008
-170,139	115,825	-0,070	0,061
-169,125	-52,557	0,144	0,047
-168,110	-109,196	-0,049	0,007
-167,096	64,228	-0,041	0,030
-166,081	50,221	-0,065	-0,044
-165,066	-94,394	0,007	-0,001
-164,052	800,000	-0,033	0,066
-163,037	412,068	-0,025	0,039
-162,023	796,398	0,026	0,051
-161,008	-200,000	0,011	0,121
-159,993	19,880	0,098	0,056
-158,979	-200,000	0,005	-0,039
-157,964	-200,000	-0,002	0,029
-156,950	-129,664	0,097	0,009
-155,935	231,298	-0,010	-0,011
-154,920	800,000	0,008	-0,024
-153,906	63,620	-0,026	0,018
-152,891	212,803	0,048	0,054
-151,877	-200,000	0,017	-0,174
-150,862	-200,000	-0,013	0,126
-149,847	15,247	-0,118	-0,066
-148,833	800,000	0,036	0,087
-147,818	800,000	-0,064	0,157
-146,804	321,468	0,039	0,053
-145,789	12,598	0,122	-0,067
-144,775	-200,000	-0,001	-0,061
-143,760	-200,000	0,006	0,041
-142,745	800,000	0,034	-0,084
-141,731	-86,135	-0,063	-0,014
-140,716	149,267	-0,080	0,077
-139,702	-169,185	0,107	-0,003
-138,687	-105,709	-0,043	0,007
-137,672	106,195	-0,046	-0,039
-136,658	800,000	-0,042	-0,086
-135,643	235,747	-0,067	-0,079
-134,629	-115,676	0,119	0,016
-133,614	96,218	0,055	-0,045
-132,599	-8,045	0,054	0,026
-131,585	23,307	-0,093	0,054
-130,570	327,617	0,090	0,124
-129,556	-200,000	-0,023	-0,126
-128,541	102,783	-0,070	-0,058
-127,526	517,161	0,026	0,044
-126,512	-30,686	0,103	0,041
-125,497	-182,280	0,070	0,001
-124,483	800,000	0,010	-0,025
-123,468	-200,000	-0,016	-0,056
-122,453	23,578	-0,112	0,065
-121,439	62,425	0,055	0,039
-120,424	-141,627	0,124	-0,009
-119,410	-200,000	0,003	-0,023
-118,395	-146,532	0,092	-0,006
-117,380	800,000	0,051	0,148
-116,366	800,000	0,007	-0,021
-115,351	401,997	-0,028	-0,042
-114,337	122,211	-0,017	-0,015
-113,322	-82,294	-0,062	-0,014
-112,307	-82,284	0,067	0,015
-111,293	465,133	-0,030	-0,049
-110,278	-200,000	-0,018	-0,115
-109,264	39,371	0,056	0,036
-108,249	800,000	-0,039	-0,115
-107,234	372,323	-0,094	-0,136
-106,220	27,738	-0,067	0,040
-105,205	71,090	0,084	0,062
-104,191	198,296	0,077	0,084
-103,176	-4,444	0,060	0,029
-102,162	800,000	0,026	0,070
-101,147	-128,826	-0,100	0,010
-100,132	7,923	-0,077	-0,041
-99,118	-200,000	-0,028	-0,092
-98,103	5,314	0,049	-0,025
-97,089	800,000	0,028	-0,063
-96,074	-45,924	-0,086	-0,030
-95,059	-38,133	0,053	0,020
-94,045	2,536	0,017	-0,009
-93,030	731,820	0,060	-0,114
-92,016	312,337	-0,090	0,120
-91,001	207,129	0,100	0,111
-89,986	442,952	0,013	0,021
-88,972	-200,000	0,001	0,173
-87,957	-200,000	-0,009	-0,068
-86,943	63,412	-0,030	-0,021
-85,928	312,230	-0,078	-0,105
-84,913	-179,499	-0,117	0,002
-83,899	-200,000	-0,023	0,167
-82,884	-95,790	-0,055	0,010
-81,870	-37,128	0,121	-0,046
-80,855	-10,213	0,111	0,052
-79,840	69,870	-0,004	-0,003
-78,826	63,014	0,074	-0,052
-77,811	-200,000	-0,016	-0,062
-76,797	-2,712	0,118	-0,059
-75,782	800,000	0,039	0,083
-74,767	-16,258	0,168	0,075
-73,753	-127,274	-0,084	0,009
-72,738	-98,989	-0,054	-0,010
-71,724	6,395	-0,135	-0,071
-70,709	-58,856	-0,064	0,019
-69,694	-183,806	-0,029	-0,000
-68,680	-200,000	0,010	-0,125
-67,665	302,438	0,019	0,025
-66,651	63,548	0,175	0,124
-65,636	800,000	-0,044	-0,133
-64,622	-127,489	-0,170	-0,017
-63,607	114,750	-0,042	-0,036
-62,592	252,629	-0,087	-0,105
-61,578	-44,932	0,130	0,046
-60,563	-200,000	-0,036	0,152
-59,549	-108,171	-0,048	-0,007
-58,534	-76,057	-1,529	-0,380
-57,519	452,561	-1,499	-2,360
-56,505	-200,000	-0,515	-4,380
-55,490	59,560	0,967	0,675
-54,476	800,000	4,791	11,224
-53,461	-200,000	17,739	280,336
-52,446	800,000	720,514	2217,843
-51,432	559,902	1634,395	2810,086
-50,417	80,908	1657,890	1267,142
-49,403	23,851	1532,065	893,094
-48,388	17,832	1455,418	819,394
-47,373	18,291	1444,829	815,598
-46,359	17,895	1435,748	808,553
-45,344	16,109	1431,100	797,417
-44,330	16,081	1429,112	796,140
-43,315	16,054	1427,186	794,910
-42,300	16,070	1425,777	794,168
-41,286	16,135	1424,495	793,730
-40,271	16,085	1423,171	792,725
-39,257	16,051	1422,078	791,924
-38,242	16,125	1420,609	791,424
-37,227	16,158	1419,399	790,874
-36,213	16,124	1418,114	789,968
-35,198	16,112	1416,998	789,260
-34,184	16,158	1415,866	788,811
-33,169	16,041	1414,777	787,624
-32,154	16,141	1413,719	787,473
-31,140	16,126	1412,464	786,671
-30,125	16,156	1411,248	786,106
-29,111	16,104	1410,157	785,221
-28,096	16,080	1409,072	784,477
-27,082	16,024	1408,025	783,600
-26,067	16,024	1406,811	782,893
-25,052	16,045	1405,985	782,499
-24,038	16,015	1404,768	781,650
-23,023	16,041	1403,865	781,238
-22,009	15,992	1402,794	780,382
-20,994	15,967	1401,995	779,792
-19,979	15,967	1400,884	779,144
-18,965	15,940	1399,875	778,427
-17,950	15,956	1398,934	777,944
-16,936	15,933	1398,029	777,306
-15,921	15,955	1396,670	776,619
-14,906	15,976	1395,638	776,111
-13,892	15,976	1394,871	775,658
-12,877	15,924	1393,992	774,897
-11,863	15,939	1393,070	774,420
-10,848	15,935	1392,140	773,855
-9,833	15,922	1391,197	773,242
-8,819	15,852	1390,319	772,399
-7,804	15,859	1389,262	771,812
-6,790	15,815	1388,361	771,077
-5,775	15,825	1387,312	770,512
-4,760	15,823	1386,635	770,098
-3,746	15,798	1385,895	769,539
-2,731	15,803	1384,972	769,021
-1,717	15,800	1383,965	768,414
-0,702	15,814	1382,101	767,413
0,313	19,603	1302,988	740,963
1,327	36,001	706,555	439,789
2,342	55,305	125,159	85,652
3,356	4,536	16,525	8,564
4,371	11,327	3,078	1,665
5,386	-91,118	0,534	0,108
6,400	-200,000	0,058	0,217
7,415	10,900	-0,223	-0,120
8,429	242,829	-0,224	-0,266
9,444	52,479	-0,309	-0,208
10,459	-5,346	-0,279	-0,135
11,473	38,325	-0,273	-0,172
12,488	800,000	-0,144	-0,291
13,502	44,115	-0,293	-0,190
14,517	93,245	-0,259	-0,207
15,531	0,782	-0,403	-0,204
16,546	99,843	-0,325	-0,267
17,561	30,824	-0,424	-0,256
18,575	-49,402	-0,241	0,081
19,590	137,041	-0,322	-0,298
20,604	40,748	-0,275	-0,175
21,619	121,621	-0,431	-0,380
22,634	177,795	-0,476	-0,491
23,648	241,562	-0,329	-0,389
24,663	15,494	-0,364	-0,202
25,677	89,286	-0,292	-0,230
26,692	217,870	-0,256	-0,290
27,707	64,655	-0,295	-0,210
28,721	77,614	-0,481	-0,362
29,736	365,767	-0,262	-0,375
30,750	115,508	-0,384	-0,332
31,765	316,300	-0,247	-0,330
32,780	29,803	-0,439	-0,264
33,794	41,159	-0,288	-0,184
34,809	81,631	-0,425	-0,325
35,823	-82,855	-0,447	-0,101
36,838	141,554	-0,254	-0,237
37,853	45,706	-0,383	-0,249
38,867	226,796	-0,300	-0,344
39,882	-16,501	-0,342	-0,152
40,896	459,405	-0,184	-0,290
41,911	34,112	-0,290	-0,178
42,926	106,113	-0,355	-0,296
43,940	-24,425	-0,430	-0,180
44,955	80,850	-0,331	-0,252
45,969	13,982	-0,364	-0,200
46,984	104,656	-0,343	-0,285
47,999	20,631	-0,289	-0,165
49,013	163,913	-0,186	-0,185
50,028	4,952	-0,305	-0,158
51,042	-33,334	-0,322	-0,125
52,057	11,331	-0,361	-0,194
53,071	113,664	-0,325	-0,278
54,086	41,014	-0,316	-0,201
55,101	43,709	-0,361	-0,233
56,115	61,705	-0,286	-0,201
57,130	115,333	-0,381	-0,328
58,144	75,842	-0,280	-0,208
59,159	-0,530	-0,241	-0,120
60,174	487,582	-0,252	-0,407
61,188	4,008	-0,351	-0,181
62,203	-80,375	-0,352	-0,082
63,217	61,398	-0,386	-0,270
64,232	-126,353	-0,350	-0,036
65,247	5,881	-0,464	-0,241
66,261	58,662	-0,252	-0,174
67,276	176,260	-0,307	-0,314
68,290	168,114	-0,365	-0,367
69,305	37,758	-0,356	-0,222
70,320	67,865	-0,220	-0,158
71,334	-0,229	-0,392	-0,196
72,349	-13,944	-0,436	-0,198
73,363	-14,830	-0,373	-0,168
74,378	76,329	-0,395	-0,294
75,393	21,796	-0,412	-0,236
76,407	2,530	-0,410	-0,209
77,422	204,851	-0,227	-0,249
78,436	-99,271	-0,242	-0,043
79,451	108,920	-0,292	-0,246
80,466	-54,291	-0,272	-0,086
81,480	35,050	-0,325	-0,200
82,495	118,843	-0,353	-0,307
83,509	-1,296	-0,207	-0,103
84,524	-33,552	-0,201	-0,078
85,539	-113,945	-0,343	0,046
86,553	153,355	-0,241	-0,232
87,568	-29,488	-0,338	-0,135
88,582	51,271	-0,340	-0,226
89,597	277,595	-0,265	-0,332
90,611	4,047	-0,345	-0,177
91,626	-105,442	-0,292	-0,046
92,641	2,562	-0,224	-0,114
93,655	59,060	-0,401	-0,277
94,670	170,029	-0,267	-0,269
95,684	14,572	-0,325	-0,178
96,699	628,459	-0,191	-0,340
97,714	-35,403	-0,268	-0,102
98,728	-139,776	-0,346	-0,025
99,743	-73,311	-0,221	-0,056
100,757	223,990	-0,202	-0,229
101,772	-177,218	-0,403	-0,007
102,787	71,625	-0,307	-0,224
103,801	182,253	-0,229	-0,237
104,816	-122,356	-0,300	-0,034
105,830	49,220	-0,159	-0,104
106,845	495,542	-0,145	-0,234
107,860	-39,524	-0,289	-0,106
108,874	116,092	-0,205	-0,177
109,889	137,133	-0,200	-0,184
110,903	144,972	-0,286	-0,269
111,918	20,746	-0,265	-0,150
112,933	5,788	-0,225	-0,116
113,947	-101,781	-0,193	-0,032
114,962	75,239	-0,213	-0,158
115,976	257,818	-0,241	-0,291
116,991	-142,527	-0,363	-0,025
118,006	-18,535	-0,302	-0,132
119,020	190,955	-0,190	-0,200
120,035	297,746	-0,183	-0,236
121,049	529,052	-0,117	-0,195
122,064	20,936	-0,338	-0,191
123,079	30,492	-0,238	-0,142
124,093	-82,959	-0,378	-0,085
125,108	195,840	-0,193	-0,206
126,122	85,261	-0,220	-0,169
127,137	-47,513	-0,181	-0,061
128,151	557,521	-0,135	-0,229
129,166	176,648	-0,202	-0,206
130,181	133,891	-0,231	-0,210
131,195	285,695	-0,132	-0,167
132,210	96,338	-0,278	-0,223
133,224	274,406	-0,214	-0,266
134,239	-115,234	-0,211	-0,028
135,254	456,660	-0,114	-0,179
136,268	101,490	-0,196	-0,160
137,283	670,778	-0,159	-0,290
138,297	152,758	-0,310	-0,296
139,312	281,903	-0,151	-0,190
140,327	26,691	-0,185	-0,108
141,341	114,530	-0,223	-0,190
142,356	-79,383	-0,281	-0,066
143,370	-200,000	-0,013	-0,089
144,385	81,735	-0,298	-0,226
145,400	41,311	-0,344	-0,217
146,414	-28,440	-0,308	-0,124
147,429	7,526	-0,373	-0,195
148,443	35,181	-0,198	-0,121
149,458	-69,358	-0,299	-0,080
150,473	90,534	-0,172	-0,134
151,487	2,571	-0,227	-0,115
152,502	94,142	-0,317	-0,251
153,516	106,470	-0,197	-0,163
154,531	224,801	-0,172	-0,195
155,546	-137,251	-0,266	-0,021
156,560	302,942	-0,104	-0,135
157,575	277,001	-0,236	-0,294
158,589	16,045	-0,268	-0,147
159,604	24,692	-0,267	-0,154
160,619	118,139	-0,227	-0,195
161,633	186,506	-0,239	-0,249
162,648	800,000	-0,107	-0,262
163,662	243,754	-0,222	-0,261
164,677	77,088	-0,073	-0,054
165,692	23,111	-0,116	-0,067
166,706	-30,887	-0,159	-0,063
167,721	-51,415	-0,236	-0,077
168,735	149,098	-0,320	-0,303
169,750	122,406	-0,196	-0,171
170,764	-70,070	-0,329	-0,087
171,779	-128,688	-0,374	-0,036
172,794	-142,218	-0,234	-0,016
173,808	75,287	-0,208	-0,153
174,823	70,306	-0,214	-0,154
175,837	8,587	-0,297	-0,155
176,852	1,002	-0,345	-0,172
177,867	-14,417	-0,162	-0,072
178,881	-16,384	-0,262	-0,116
179,896	92,307	-0,189	-0,148
180,910	-63,442	-0,369	-0,105
181,925	-171,750	-0,275	-0,006
182,940	66,176	-0,111	-0,079
183,954	-63,122	-0,218	-0,062
184,969	-17,377	-0,315	-0,138
185,983	72,798	-0,251	-0,183
186,998	46,577	-0,236	-0,152
188,013	52,695	-0,142	-0,094
189,027	23,494	-0,298	-0,171
190,042	236,614	-0,232	-0,268
191,056	6,584	-0,279	-0,144
192,071	215,655	-0,224	-0,249
193,086	-200,000	0,010	-0,085
194,100	105,352	-0,110	-0,090
195,115	-99,874	-0,267	-0,046
196,129	126,719	-0,248	-0,219
197,144	257,619	-0,199	-0,239
198,159	172,434	-0,197	-0,198
199,173	213,924	-0,213	-0,235
200,188	93,106	-0,139	-0,110
201,202	327,617	-0,130	-0,174
202,217	-53,819	-0,113	-0,036
203,232	-44,325	-0,301	-0,104
204,246	71,710	-0,332	-0,240
205,261	-10,459	-0,329	-0,151
206,275	35,757	-0,273	-0,167
207,290	460,187	-0,140	-0,217
208,304	234,788	-0,124	-0,143
209,319	28,807	-0,175	-0,103
210,334	-25,602	-0,205	-0,084
211,348	332,926	-0,204	-0,275
212,363	214,351	-0,152	-0,168
213,377	34,749	-0,164	-0,100
214,392	453,879	-0,078	-0,120
215,407	-71,410	-0,156	-0,040
216,421	56,295	-0,212	-0,143
217,436	60,860	-0,190	-0,131
218,450	56,755	-0,288	-0,195
219,465	-10,213	-0,216	-0,099
220,480	526,053	-0,085	-0,139
221,494	291,483	-0,075	-0,095
222,509	137,359	-0,216	-0,196
223,523	142,530	-0,181	-0,167
224,538	199,390	-0,113	-0,120
225,553	588,226	-0,133	-0,228
226,567	-200,000	-0,064	-0,234
227,582	800,000	-0,123	-0,237
228,596	-104,089	-0,140	-0,022
229,611	800,000	-0,099	-0,196
230,626	122,575	-0,189	-0,164
231,640	84,201	-0,196	-0,149
232,655	42,251	-0,348	-0,219
233,669	110,664	-0,204	-0,170
234,684	334,648	-0,085	-0,114
235,699	-32,747	-0,281	-0,108
236,713	9,989	-0,236	-0,124
237,728	229,787	-0,074	-0,084
238,742	-113,403	-0,295	-0,040
239,757	60,152	-0,176	-0,121
240,772	96,644	-0,202	-0,161
241,786	114,589	-0,205	-0,174
242,801	54,153	-0,227	-0,151
243,815	22,337	-0,145	-0,082
244,830	199,672	-0,139	-0,148
245,844	206,427	-0,198	-0,214
246,859	59,815	-0,309	-0,211
247,874	13,406	-0,259	-0,139
248,888	263,060	-0,103	-0,124
249,903	31,351	-0,123	-0,073
250,917	-129,352	-0,179	0,017
251,932	186,150	-0,156	-0,161
252,947	24,677	-0,182	-0,104
253,961	4,099	-0,227	-0,115
254,976	67,692	-0,290	-0,205
255,990	143,889	-0,278	-0,256
257,005	-57,914	-0,266	-0,080
258,020	-41,725	-0,216	-0,076
259,034	274,679	-0,148	-0,182
260,049	1,386	-0,154	-0,077
261,063	-119,608	-0,219	0,026
262,078	-44,815	-0,290	-0,100
263,093	260,081	-0,138	-0,165
264,107	264,482	-0,114	-0,138
265,122	-200,000	-0,045	-0,165
266,136	73,764	-0,177	-0,129
267,151	389,520	-0,088	-0,126
268,166	179,941	-0,121	-0,123
269,180	-179,426	-0,166	0,002
270,195	-33,201	-0,246	-0,094
271,209	29,192	-0,226	-0,133
272,224	34,469	-0,115	-0,069
273,239	3,668	-0,171	-0,086
274,253	-117,979	-0,115	-0,014
275,268	-200,000	-0,013	-0,172
276,282	69,354	-0,228	-0,162
277,297	169,126	-0,176	-0,174
278,312	71,075	-0,135	-0,096
279,326	-43,313	-0,074	-0,026
280,341	-37,669	-0,076	-0,028
281,355	156,043	-0,153	-0,146
282,370	-35,535	-0,242	-0,090
283,384	138,665	-0,123	-0,112
284,399	362,417	-0,117	-0,163
285,414	-2,738	-0,221	-0,107
286,428	-125,664	-0,264	-0,027
287,443	-200,000	-0,012	-0,207
288,457	-61,852	-0,215	0,062
289,472	-108,385	-0,110	0,016
290,487	-183,279	-0,132	0,002
291,501	-96,049	-0,168	-0,031
292,516	252,553	-0,142	-0,168
293,530	-27,075	-0,075	-0,030
294,545	268,037	-0,076	-0,092
295,560	-106,974	-0,254	-0,038
296,574	29,034	-0,292	-0,171
297,589	381,476	-0,131	-0,186
298,603	496,540	-0,086	-0,137
299,618	237,234	-0,200	-0,229
300,633	-50,442	-0,302	-0,098
301,647	-59,232	-0,089	-0,026
302,662	90,802	-0,124	-0,096
303,676	216,077	-0,159	-0,175
304,691	225,848	-0,145	-0,163
305,706	42,831	-0,192	-0,121
306,720	376,565	-0,111	-0,157
307,735	309,151	-0,138	-0,179
308,749	61,538	-0,156	-0,107
309,764	-133,086	-0,109	0,009
310,779	-175,623	-0,174	0,003
311,793	116,837	-0,240	-0,203
312,808	93,204	-0,253	-0,197
313,822	800,000	-0,074	-0,209
314,837	-11,892	-0,224	0,101
315,852	-58,377	-0,066	0,020
316,866	82,986	-0,064	0,048
317,881	-25,139	-0,123	-0,050
318,895	138,317	-0,213	-0,193
319,910	-115,850	-0,075	0,010
320,925	71,035	-0,120	-0,085
321,939	400,626	-0,114	-0,166
322,954	59,893	-0,096	-0,065
323,968	-200,000	-0,010	0,123
324,983	469,931	-0,063	-0,097
325,997	-56,142	-0,278	-0,085
327,012	96,860	-0,265	-0,209
328,027	-16,077	-0,165	-0,072
329,041	-81,175	-0,085	-0,019
330,056	-200,000	0,009	-0,043
331,070	337,646	-0,114	-0,153
332,085	-15,580	-0,079	-0,035
333,100	800,000	-0,061	-0,166
334,114	332,677	-0,107	-0,143
335,129	211,560	-0,082	-0,089
336,143	-200,000	-0,038	-0,126
337,158	800,000	-0,078	-0,203
338,173	5,673	-0,136	-0,069
339,187	-59,857	-0,117	0,034
340,202	211,612	-0,114	-0,124
341,216	800,000	-0,080	-0,170
342,231	800,000	-0,031	-0,080
343,246	66,908	-0,202	-0,141
344,260	-162,714	-0,053	-0,002
345,275	-123,719	-0,127	-0,014
346,289	-5,902	-0,193	-0,090
347,304	-153,116	-0,240	-0,011
348,319	710,947	-0,160	-0,293
349,333	332,184	-0,058	-0,077
350,348	-41,648	-0,201	-0,071
351,362	-1,871	-0,096	-0,046
352,377	164,698	-0,073	-0,071
353,392	-65,146	-0,133	-0,037
354,406	5,062	-0,187	-0,094
355,421	209,931	1314,171	1418,105
356,435	161,585	1474,893	1418,633
