DTS Sentinel unit serial number:	SN410029Multiplexer serial number:	ORYXHardware model number:	OX2-SRSoftware version number:	ORYX F/W v4,00 Oryx Data Collector v3.7.2.0data status	okinstallation	B3 Nyhavnadifferential loss correction	single-endedforward channel	channel 1reverse channel	N/Adate	2023/12/04time	04:42:30forward acquisition time	300,00reverse acquisition time	0,00gamma	499,1914k internal	0,3206k external	0,3206temperature offset calibration	1,0000default loss term (dB/km)	0,3820temperature slope calibration	1,0000multiplexer offset coefficient	1,0000multiplexer slope coefficient	1,0000fibre end	0,00T internal ref (°C)	11,96T ext. ref 1 (°C)	-3,10T ext. ref 2 (°C)	-3,13length (m)	temperature (°C)	Stokes	anti-Stokes-744,400	-39,072	-0,155	-0,059
-743,385	800,000	-0,081	0,166
-742,371	307,178	-0,187	-0,254
-741,356	-200,000	-0,012	0,369
-740,342	148,718	-0,225	-0,221
-739,327	-200,000	0,028	0,208
-738,312	-200,000	-0,105	-0,438
-737,298	579,202	-0,127	0,226
-736,283	-36,357	-0,156	-0,061
-735,269	-200,000	0,010	0,280
-734,254	229,848	-0,211	-0,250
-733,239	54,620	-0,186	0,130
-732,225	800,000	-0,164	-0,335
-731,210	-145,596	0,112	-0,007
-730,196	77,514	-0,058	0,045
-729,181	-23,163	-0,093	-0,041
-728,167	117,130	0,049	-0,044
-727,152	49,070	0,075	-0,051
-726,137	800,000	-0,056	-0,142
-725,123	-200,000	-0,020	-0,184
-724,108	-200,000	-0,002	-0,123
-723,094	-104,959	-0,086	-0,014
-722,079	-72,805	-0,028	0,007
-721,064	370,174	-0,038	-0,056
-720,050	155,218	-0,078	0,078
-719,035	-200,000	-0,001	-0,104
-718,021	800,000	0,048	-0,100
-717,006	-39,317	-0,031	0,012
-715,991	363,962	-0,070	-0,102
-714,977	159,996	-0,061	0,062
-713,962	490,748	0,069	-0,115
-712,948	495,845	0,055	-0,092
-711,933	-90,230	0,076	0,016
-710,918	-200,000	0,020	-0,074
-709,904	495,577	0,083	-0,139
-708,889	-200,000	-0,009	-0,028
-707,875	83,115	-0,102	-0,081
-706,860	-18,655	-0,062	0,028
-705,845	127,114	-0,094	-0,087
-704,831	65,999	0,026	0,019
-703,816	-200,000	0,028	0,187
-702,802	-200,000	-0,039	-0,136
-701,787	413,509	0,040	-0,062
-700,772	-90,125	-0,077	-0,016
-699,758	-170,313	0,084	-0,002
-698,743	532,922	0,047	-0,080
-697,729	-32,926	-0,132	-0,053
-696,714	-168,429	0,117	-0,003
-695,699	40,394	-0,056	-0,037
-694,685	167,595	-0,085	-0,088
-693,670	101,598	-0,101	0,086
-692,656	9,776	-0,095	-0,052
-691,641	-192,202	-0,056	-0,000
-690,627	-200,000	0,014	-0,070
-689,612	-6,069	-0,028	0,014
-688,597	800,000	-0,063	0,128
-687,583	-27,836	0,095	-0,040
-686,568	434,105	-0,026	-0,041
-685,554	-112,616	0,022	-0,003
-684,539	-91,489	0,100	0,020
-683,524	447,095	0,054	0,087
-682,510	181,815	-0,068	0,073
-681,495	-4,302	-0,033	-0,017
-680,481	-200,000	0,043	-0,158
-679,466	4,559	-0,099	-0,052
-678,451	-150,464	-0,145	-0,008
-677,437	-200,000	0,002	0,028
-676,422	-200,000	-0,002	0,014
-675,408	-200,000	-0,006	-0,037
-674,393	800,000	-0,023	0,070
-673,378	-200,000	-0,014	-0,120
-672,364	24,790	0,062	-0,037
-671,349	-140,902	-0,163	-0,012
-670,335	257,122	0,014	-0,018
-669,320	366,064	-0,031	-0,046
-668,305	800,000	0,051	-0,108
-667,291	692,646	-0,034	0,064
-666,276	-200,000	-0,012	-0,142
-665,262	-42,908	-0,185	0,068
-664,247	800,000	-0,006	-0,017
-663,232	590,943	0,075	0,135
-662,218	185,807	-0,090	-0,097
-661,203	800,000	0,024	0,074
-660,189	800,000	-0,002	-0,007
-659,174	344,020	0,049	-0,069
-658,159	-76,843	-0,152	0,038
-657,145	-109,512	-0,125	0,019
-656,130	171,867	-0,091	-0,095
-655,116	18,982	0,059	0,034
-654,101	800,000	-0,044	0,106
-653,086	774,852	0,041	-0,081
-652,072	-137,189	-0,127	0,010
-651,057	116,992	-0,052	-0,046
-650,043	-79,632	-0,232	-0,056
-649,028	626,793	0,100	-0,183
-648,014	-200,000	0,049	0,166
-646,999	12,801	0,120	-0,067
-645,984	797,909	-0,013	-0,026
-644,970	-200,000	0,008	0,074
-643,955	137,811	0,049	0,046
-642,941	-34,180	-0,233	-0,092
-641,926	800,000	0,017	-0,038
-640,911	-200,000	-0,005	0,051
-639,897	137,845	-0,053	-0,050
-638,882	-200,000	-0,012	0,056
-637,868	-200,000	0,007	0,066
-636,853	-101,676	0,031	-0,005
-635,838	800,000	-0,044	-0,128
-634,824	17,449	-0,063	0,036
-633,809	-200,000	-0,004	-0,015
-632,795	26,424	0,138	-0,083
-631,780	269,888	-0,051	-0,065
-630,765	403,860	-0,100	-0,152
-629,751	490,173	-0,040	-0,066
-628,736	800,000	-0,041	-0,103
-627,722	264,028	0,118	0,149
-626,707	35,206	0,104	-0,066
-625,692	-49,228	0,101	-0,035
-624,678	-110,342	-0,098	0,015
-623,663	75,299	0,083	0,063
-622,649	187,845	-0,097	0,104
-621,634	800,000	-0,057	-0,151
-620,619	-4,646	-0,177	-0,088
-619,605	-200,000	-0,006	0,054
-618,590	-9,020	0,098	0,047
-617,576	800,000	-0,004	0,011
-616,561	65,988	0,173	0,126
-615,546	-43,729	-0,220	0,080
-614,532	182,125	-0,038	-0,041
-613,517	178,985	0,031	0,033
-612,503	-116,149	-0,047	-0,006
-611,488	124,055	0,049	-0,044
-610,474	-4,735	0,189	-0,094
-609,459	50,785	0,034	0,023
-608,444	95,867	-0,046	-0,038
-607,430	87,312	-0,071	0,057
-606,415	443,294	0,016	-0,025
-605,401	-128,161	0,129	-0,013
-604,386	67,408	-0,037	-0,027
-603,371	-86,988	0,065	-0,014
-602,357	681,807	-0,040	-0,075
-601,342	560,232	-0,048	-0,084
-600,328	-200,000	0,009	-0,221
-599,313	-25,042	0,265	-0,113
-598,298	255,805	0,031	0,038
-597,284	147,217	0,045	-0,044
-596,269	-200,000	0,010	0,048
-595,255	-200,000	0,012	-0,075
-594,240	18,750	-0,056	-0,032
-593,225	800,000	-0,052	0,107
-592,211	-45,968	-0,042	-0,015
-591,196	800,000	0,038	0,100
-590,182	38,829	0,155	0,100
-589,167	-107,912	0,100	0,016
-588,152	-41,069	-0,105	0,039
-587,138	-145,104	-0,061	-0,004
-586,123	156,849	0,011	-0,011
-585,109	430,567	0,022	-0,035
-584,094	-200,000	-0,005	-0,129
-583,079	-6,717	0,031	-0,015
-582,065	373,729	0,082	0,120
-581,050	54,165	-0,186	0,129
-580,036	501,697	0,023	-0,039
-579,021	-200,000	0,028	-0,114
-578,006	-41,882	-0,124	-0,046
-576,992	109,171	-0,034	-0,029
-575,977	324,099	0,075	0,104
-574,963	800,000	-0,035	0,076
-573,948	156,965	-0,092	-0,092
-572,934	163,111	0,018	-0,018
-571,919	105,114	-0,021	-0,018
-570,904	-18,140	-0,117	0,053
-569,890	-32,983	0,013	0,005
-568,875	-36,375	-0,069	0,027
-567,861	-84,179	0,070	0,016
-566,846	150,519	-0,046	-0,046
-565,831	437,951	-0,047	0,074
-564,817	391,562	-0,106	-0,159
-563,802	44,623	-0,104	-0,069
-562,788	-120,308	-0,090	-0,011
-561,773	-105,346	0,134	-0,022
-560,758	-112,118	0,107	0,015
-559,744	-185,239	0,134	0,001
-558,729	800,000	0,052	-0,164
-557,715	800,000	-0,043	0,136
-556,700	137,015	0,123	-0,116
-555,685	149,966	-0,078	-0,077
-554,671	-117,080	0,075	0,010
-553,656	-200,000	-0,004	-0,104
-552,642	-200,000	0,023	-0,075
-551,627	28,093	-0,068	0,041
-550,612	-44,941	0,025	0,009
-549,598	-141,526	-0,154	-0,011
-548,583	-14,829	-0,043	-0,020
-547,569	-67,149	0,091	-0,026
-546,554	-200,000	-0,003	0,014
-545,539	-200,000	0,020	0,094
-544,525	-128,586	-0,210	-0,021
-543,510	157,693	-0,064	-0,064
-542,496	-200,000	0,005	-0,101
-541,481	150,165	-0,078	-0,077
-540,466	-16,694	-0,052	-0,024
-539,452	800,000	0,026	-0,053
-538,437	-67,586	0,041	-0,012
-537,423	329,452	-0,013	0,018
-536,408	179,999	0,077	0,081
-535,393	-107,294	-0,115	-0,018
-534,379	-33,151	0,131	0,052
-533,364	-28,686	-0,092	0,038
-532,350	800,000	-0,024	-0,059
-531,335	124,087	0,042	0,038
-530,321	8,818	0,068	0,037
-529,306	526,249	-0,057	0,097
-528,291	-200,000	-0,023	0,139
-527,277	33,316	-0,064	-0,040
-526,262	-5,847	0,081	-0,040
-525,248	800,000	-0,013	0,030
-524,233	-103,090	-0,070	0,012
-523,218	-200,000	-0,026	0,093
-522,204	-87,688	0,060	-0,013
-521,189	-86,874	-0,107	-0,023
-520,175	-171,632	-0,147	0,003
-519,160	800,000	-0,061	-0,157
-518,145	-200,000	-0,019	0,160
-517,131	-57,718	0,070	0,022
-516,116	256,155	-0,038	0,047
-515,102	-58,368	-0,061	0,019
-514,087	800,000	0,021	0,054
-513,072	800,000	0,012	-0,031
-512,058	-18,254	-0,044	-0,020
-511,043	-200,000	-0,001	-0,013
-510,029	250,499	-0,080	0,097
-509,014	-200,000	-0,020	0,083
-507,999	800,000	0,042	0,085
-506,985	-200,000	0,010	-0,033
-505,970	-200,000	0,008	-0,108
-504,956	800,000	0,042	-0,092
-503,941	-200,000	0,015	-0,123
-502,926	641,911	-0,012	-0,021
-501,912	-200,000	0,023	0,099
-500,897	433,301	-0,059	0,093
-499,883	-65,502	-0,076	-0,022
-498,868	-159,217	-0,061	0,002
-497,853	800,000	0,027	-0,057
-496,839	-21,629	-0,104	-0,045
-495,824	48,402	0,163	0,109
-494,810	-28,355	-0,069	-0,028
-493,795	800,000	-0,013	-0,032
-492,781	-107,065	0,092	-0,015
-491,766	-200,000	-0,010	0,041
-490,751	261,618	0,071	-0,089
-489,737	451,760	-0,031	0,049
-488,722	-200,000	0,009	-0,053
-487,708	-200,000	-0,014	0,089
-486,693	-46,314	0,109	0,038
-485,678	84,414	-0,110	0,086
-484,664	-200,000	0,013	-0,054
-483,649	69,956	-0,108	0,080
-482,635	800,000	0,034	0,100
-481,620	-200,000	0,030	0,149
-480,605	-200,000	0,005	0,094
-479,591	-38,465	0,090	0,034
-478,576	-95,209	-0,181	-0,035
-477,562	6,401	-0,197	-0,105
-476,547	-200,000	0,002	-0,117
-475,532	-159,015	-0,088	-0,004
-474,518	-15,379	0,109	0,050
-473,503	-96,514	0,041	-0,008
-472,489	800,000	0,048	-0,108
-471,474	-200,000	-0,036	-0,138
-470,459	40,736	0,070	-0,045
-469,445	-200,000	-0,028	-0,102
-468,430	106,095	-0,094	-0,080
-467,416	-21,682	-0,048	0,021
-466,401	800,000	-0,057	0,173
-465,386	-200,000	0,006	-0,071
-464,372	146,380	-0,073	0,071
-463,357	800,000	-0,040	0,097
-462,343	690,555	0,022	-0,042
-461,328	235,727	-0,039	-0,046
-460,313	163,280	0,082	0,082
-459,299	-62,526	0,154	0,046
-458,284	121,895	-0,091	-0,082
-457,270	414,464	0,050	-0,077
-456,255	-134,534	-0,143	0,012
-455,241	91,707	0,124	0,100
-454,226	22,741	-0,129	-0,076
-453,211	-181,538	0,060	0,001
-452,197	140,958	0,030	-0,029
-451,182	65,279	0,137	0,099
-450,168	-107,634	0,057	0,009
-449,153	800,000	-0,011	-0,031
-448,138	103,531	0,011	-0,009
-447,124	-200,000	0,003	0,047
-446,109	1,248	-0,069	-0,035
-445,095	-69,675	0,022	-0,006
-444,080	-200,000	0,009	0,161
-443,065	-200,000	-0,017	-0,084
-442,051	-200,000	-0,011	-0,085
-441,036	533,395	-0,007	-0,012
-440,022	45,361	0,076	-0,050
-439,007	-13,125	0,031	-0,014
-437,992	260,902	-0,044	0,055
-436,978	800,000	-0,015	0,030
-435,963	-35,826	0,045	0,017
-434,949	25,982	0,112	0,067
-433,934	73,525	-0,054	-0,040
-432,919	363,927	0,041	-0,059
-431,905	67,366	-0,057	0,042
-430,890	-103,255	0,107	0,018
-429,876	-22,779	0,104	0,045
-428,861	-200,000	-0,047	0,162
-427,846	128,806	-0,057	-0,052
-426,832	-200,000	0,014	-0,122
-425,817	213,759	-0,138	-0,157
-424,803	-67,547	0,010	-0,003
-423,788	140,474	0,037	-0,035
-422,773	157,987	0,054	-0,053
-421,759	-83,212	0,053	-0,012
-420,744	-168,353	-0,114	0,003
-419,730	-200,000	-0,003	0,060
-418,715	196,500	-0,053	0,058
-417,701	-115,542	-0,110	-0,015
-416,686	168,738	0,063	-0,065
-415,671	-130,415	-0,032	0,003
-414,657	201,905	0,037	0,041
-413,642	-142,468	0,049	0,003
-412,628	-59,966	-0,117	0,036
-411,613	800,000	0,024	0,068
-410,598	-89,462	0,022	-0,005
-409,584	-61,068	-0,048	0,015
-408,569	800,000	0,018	0,052
-407,555	238,304	-0,078	0,092
-406,540	800,000	-0,014	-0,038
-405,525	111,823	-0,141	0,122
-404,511	800,000	-0,021	0,062
-403,496	-200,000	-0,026	0,146
-402,482	430,925	-0,110	0,171
-401,467	-200,000	0,005	0,084
-400,452	208,580	-0,042	0,047
-399,438	-200,000	0,003	0,089
-398,423	711,038	0,059	-0,112
-397,409	31,809	-0,016	-0,010
-396,394	-22,153	-0,158	-0,068
-395,379	186,791	0,022	-0,023
-394,365	50,261	0,050	0,034
-393,350	-19,946	0,102	0,045
-392,336	-200,000	0,010	0,147
-391,321	-84,082	-0,106	0,024
-390,306	-200,000	0,044	-0,148
-389,292	-52,154	-0,034	0,011
-388,277	179,694	-0,062	0,065
-387,263	195,416	0,093	0,101
-386,248	800,000	-0,099	0,222
-385,233	676,396	-0,044	0,082
-384,219	211,927	0,094	-0,107
-383,204	-200,000	0,054	-0,221
-382,190	-200,000	-0,006	-0,080
-381,175	177,641	0,055	-0,058
-380,160	800,000	0,028	0,065
-379,146	-20,533	0,054	-0,024
-378,131	345,050	-0,110	0,155
-377,117	479,169	0,060	0,098
-376,102	-200,000	-0,008	-0,127
-375,088	502,774	0,044	-0,073
-374,073	-200,000	0,003	-0,021
-373,058	40,788	-0,057	0,037
-372,044	275,582	-0,061	0,077
-371,029	-6,814	0,085	-0,041
-370,015	800,000	0,053	0,143
-369,000	-66,607	-0,140	-0,039
-367,985	-6,486	-0,074	-0,036
-366,971	39,388	0,124	-0,079
-365,956	-157,050	0,072	-0,003
-364,942	258,937	-0,009	-0,011
-363,927	109,031	-0,092	0,078
-362,912	189,268	0,051	0,055
-361,898	800,000	0,060	-0,176
-360,883	118,761	-0,004	0,004
-359,869	416,015	-0,036	0,054
-358,854	395,750	0,046	-0,068
-357,839	-67,790	0,076	-0,021
-356,825	93,209	0,027	-0,022
-355,810	800,000	0,047	-0,096
-354,796	3,392	0,023	-0,012
-353,781	-92,715	-0,047	0,009
-352,766	-200,000	-0,017	0,071
-351,752	-23,977	0,075	-0,032
-350,737	483,072	0,056	-0,091
-349,723	-200,000	0,016	-0,059
-348,708	-94,020	0,108	0,021
-347,693	-200,000	-0,019	-0,101
-346,679	-200,000	-0,003	-0,046
-345,664	-18,224	-0,117	-0,052
-344,650	18,585	0,046	0,026
-343,635	800,000	0,064	0,153
-342,620	-38,842	0,028	0,011
-341,606	800,000	0,011	-0,028
-340,591	-200,000	-0,002	0,070
-339,577	-200,000	0,008	-0,028
-338,562	-200,000	-0,039	-0,175
-337,548	723,111	-0,020	0,038
-336,533	-200,000	0,011	-0,170
-335,518	-42,358	-0,038	-0,014
-334,504	-200,000	0,008	-0,115
-333,489	34,348	0,059	0,037
-332,475	-50,617	0,068	-0,023
-331,460	95,248	-0,110	-0,089
-330,445	14,275	-0,064	0,035
-329,431	-200,000	0,012	0,106
-328,416	83,540	0,033	0,026
-327,402	5,773	-0,050	-0,026
-326,387	-79,456	-0,132	0,032
-325,372	499,984	-0,055	-0,091
-324,358	46,230	0,061	0,040
-323,343	-104,894	-0,076	-0,012
-322,329	158,261	0,028	0,028
-321,314	-200,000	-0,022	0,117
-320,299	503,205	-0,012	0,020
-319,285	705,246	-0,037	-0,070
-318,270	420,099	-0,033	-0,050
-317,256	-200,000	0,021	-0,077
-316,241	-200,000	-0,028	-0,095
-315,226	386,938	-0,011	-0,016
-314,212	441,743	0,043	0,067
-313,197	369,031	0,034	-0,050
-312,183	241,990	0,022	0,026
-311,168	-27,838	-0,094	-0,039
-310,153	-200,000	-0,017	-0,055
-309,139	-143,609	-0,145	0,010
-308,124	800,000	0,018	0,039
-307,110	609,255	0,138	0,247
-306,095	-200,000	-0,021	0,122
-305,080	-90,955	0,098	-0,020
-304,066	-85,783	0,093	-0,020
-303,051	752,149	-0,026	-0,051
-302,037	800,000	0,049	-0,137
-301,022	-200,000	-0,013	0,073
-300,008	-124,786	0,057	0,006
-298,993	-21,761	0,026	0,011
-297,978	58,543	0,125	-0,087
-296,964	117,525	-0,111	-0,098
-295,949	152,336	0,095	0,092
-294,935	11,095	-0,091	0,049
-293,920	800,000	0,054	-0,128
-292,905	-88,469	0,037	0,008
-291,891	748,492	-0,039	0,075
-290,876	-191,256	0,176	0,001
-289,862	800,000	0,048	-0,144
-288,847	-200,000	0,009	0,047
-287,832	-200,000	0,013	-0,077
-286,818	-7,093	0,062	-0,030
-285,803	-45,521	-0,064	0,023
-284,789	-37,567	0,124	0,047
-283,774	102,433	-0,034	-0,029
-282,759	-8,175	0,056	-0,027
-281,745	150,640	-0,045	0,044
-280,730	-119,217	0,050	0,006
-279,716	666,883	0,015	-0,028
-278,701	-170,530	0,158	0,004
-277,686	221,030	-0,017	0,020
-276,672	800,000	0,027	0,070
-275,657	-200,000	-0,022	-0,073
-274,643	-200,000	0,018	-0,091
-273,628	48,046	-0,057	-0,038
-272,613	-99,828	0,161	-0,028
-271,599	-161,305	-0,100	0,004
-270,584	-122,252	0,149	0,017
-269,570	702,410	0,014	-0,027
-268,555	232,982	0,059	-0,069
-267,540	182,130	-0,085	-0,089
-266,526	54,773	-0,067	-0,046
-265,511	572,082	-0,025	0,043
-264,497	-200,000	0,147	0,000
-263,482	30,110	0,130	0,079
-262,467	533,062	0,016	0,028
-261,453	-75,853	-0,033	-0,008
-260,438	128,077	0,114	-0,104
-259,424	457,907	-0,041	0,064
-258,409	205,435	0,073	0,081
-257,395	-22,523	-0,078	0,034
-256,380	-200,000	0,007	-0,058
-255,365	123,073	0,074	0,066
-254,351	189,201	0,026	0,028
-253,336	-85,806	-0,053	-0,012
-252,322	-170,763	-0,096	-0,002
-251,307	8,063	0,046	0,025
-250,292	9,577	0,075	-0,040
-249,278	410,513	-0,071	0,107
-248,263	192,309	0,021	0,022
-247,249	-200,000	-0,026	0,112
-246,234	-200,000	-0,006	0,032
-245,219	800,000	0,045	0,111
-244,205	228,094	-0,091	-0,105
-243,190	0,426	0,155	0,079
-242,176	195,598	0,042	-0,045
-241,161	232,500	-0,022	0,026
-240,146	800,000	-0,035	0,069
-239,132	70,612	-0,061	0,045
-238,117	-121,139	-0,097	0,011
-237,103	-83,376	0,133	0,030
-236,088	63,942	0,119	-0,085
-235,073	422,717	0,024	0,036
-234,059	195,672	-0,051	0,055
-233,044	-200,000	-0,028	0,127
-232,030	-134,561	0,105	0,009
-231,015	113,607	-0,054	0,047
-230,000	267,728	0,041	0,051
-228,986	-200,000	-0,002	-0,103
-227,971	538,069	0,046	-0,078
-226,957	-200,000	0,027	0,143
-225,942	800,000	0,048	0,105
-224,927	4,447	0,067	0,035
-223,913	-200,000	-0,011	-0,083
-222,898	469,397	0,086	0,137
-221,884	290,831	0,030	0,039
-220,869	165,956	0,038	0,039
-219,855	-100,550	0,161	0,028
-218,840	64,392	0,089	-0,064
-217,825	-73,741	-0,086	0,022
-216,811	-74,550	-0,116	-0,030
-215,796	-200,000	-0,004	-0,130
-214,782	58,705	0,098	-0,069
-213,767	-43,548	-0,142	0,051
-212,752	-130,317	0,195	0,019
-211,738	-200,000	-0,021	0,089
-210,723	-27,218	0,064	0,026
-209,709	40,709	0,028	-0,018
-208,694	-69,451	-0,154	0,042
-207,679	22,490	-0,114	-0,066
-206,665	-159,484	0,107	-0,004
-205,650	-200,000	0,010	-0,034
-204,636	-200,000	-0,006	0,032
-203,621	-200,000	-0,003	-0,071
-202,606	174,570	0,076	-0,079
-201,592	615,398	-0,009	-0,017
-200,577	-34,766	0,105	-0,041
-199,563	-54,236	-0,120	0,039
-198,548	800,000	-0,011	-0,032
-197,533	100,193	0,110	0,091
-196,519	-102,146	-0,110	-0,019
-195,504	52,529	-0,070	-0,047
-194,490	-53,980	-0,124	0,040
-193,475	-200,000	-0,031	0,101
-192,460	-152,014	-0,096	0,005
-191,446	132,885	-0,058	-0,054
-190,431	80,761	0,113	0,087
-189,417	3,925	-0,070	-0,036
-188,402	-68,206	-0,091	0,025
-187,387	-102,036	-0,219	0,037
-186,373	35,804	-0,023	0,014
-185,358	-10,834	-0,139	0,065
-184,344	47,772	-0,041	0,027
-183,329	424,297	-0,065	-0,099
-182,315	568,210	0,040	-0,069
-181,300	96,217	-0,066	-0,053
-180,285	375,748	-0,055	0,080
-179,271	178,524	-0,030	0,031
-178,256	-52,099	0,054	0,018
-177,242	-43,771	0,137	0,049
-176,227	-200,000	-0,015	0,130
-175,212	-200,000	-0,001	0,027
-174,198	-73,748	0,171	0,044
-173,183	305,296	-0,033	-0,044
-172,169	-140,051	-0,131	0,010
-171,154	-55,676	-0,066	0,021
-170,139	59,494	0,058	-0,040
-169,125	-34,213	0,092	-0,036
-168,110	-2,247	0,058	0,029
-167,096	-200,000	-0,003	0,032
-166,081	216,708	0,062	-0,070
-165,066	-200,000	-0,006	-0,064
-164,052	800,000	-0,066	0,140
-163,037	-200,000	0,021	-0,120
-162,023	161,056	0,048	0,047
-161,008	800,000	-0,023	0,065
-159,993	192,629	0,016	-0,017
-158,979	-17,601	-0,117	-0,052
-157,964	325,147	0,063	-0,086
-156,950	709,568	-0,055	-0,104
-155,935	65,506	0,155	0,111
-154,920	-200,000	-0,019	0,060
-153,906	-26,381	-0,075	0,031
-152,891	800,000	-0,029	-0,073
-151,877	505,773	-0,033	-0,055
-150,862	163,398	-0,106	-0,106
-149,847	800,000	0,067	-0,151
-148,833	56,733	-0,063	0,044
-147,818	800,000	0,033	0,088
-146,804	58,290	0,008	-0,006
-145,789	14,062	0,071	0,039
-144,775	-200,000	-0,018	-0,090
-143,760	-200,000	0,010	0,037
-142,745	800,000	0,022	-0,055
-141,731	-51,185	-0,084	-0,028
-140,716	-92,950	-0,006	0,001
-139,702	430,935	0,119	0,184
-138,687	195,161	0,064	0,069
-137,672	-135,869	-0,080	0,007
-136,658	-104,358	0,079	0,013
-135,643	72,283	-0,074	-0,055
-134,629	590,760	0,050	-0,087
-133,614	-200,000	-0,011	-0,052
-132,599	217,398	0,111	0,126
-131,585	-200,000	-0,028	-0,198
-130,570	-200,000	-0,038	-0,124
-129,556	800,000	0,025	-0,050
-128,541	-153,522	-0,111	-0,005
-127,526	-26,651	0,069	0,029
-126,512	-200,000	-0,032	0,175
-125,497	412,809	0,059	0,090
-124,483	-200,000	-0,014	-0,067
-123,468	-200,000	0,002	-0,131
-122,453	71,200	0,030	-0,022
-121,439	-21,900	-0,073	0,031
-120,424	497,412	0,033	0,055
-119,410	510,119	0,064	0,106
-118,395	37,837	0,025	0,016
-117,380	800,000	-0,024	-0,048
-116,366	-30,941	-0,080	0,032
-115,351	800,000	-0,040	0,115
-114,337	-200,000	-0,000	0,010
-113,322	149,814	0,056	0,054
-112,307	-200,000	0,027	0,087
-111,293	800,000	0,055	0,131
-110,278	-200,000	0,013	-0,092
-109,264	-200,000	0,007	-0,052
-108,249	29,713	-0,142	-0,085
-107,234	800,000	-0,033	-0,087
-106,220	800,000	-0,015	-0,031
-105,205	80,385	-0,068	-0,052
-104,191	30,700	0,141	0,085
-103,176	-72,971	-0,110	-0,028
-102,162	-132,707	0,028	-0,003
-101,147	-200,000	0,017	0,060
-100,132	95,786	0,042	0,034
-99,118	-200,000	-0,007	0,111
-98,103	-154,651	-0,038	-0,002
-97,089	-200,000	-0,020	0,104
-96,074	628,610	0,048	-0,086
-95,059	212,554	0,111	0,124
-94,045	-200,000	-0,002	-0,198
-93,030	188,922	-0,030	0,032
-92,016	192,907	-0,118	-0,126
-91,001	-3,950	0,049	0,024
-89,986	70,024	-0,036	-0,026
-88,972	756,495	0,054	0,104
-87,957	58,474	0,083	-0,058
-86,943	234,936	0,067	-0,078
-85,928	-15,245	0,058	-0,026
-84,913	800,000	-0,038	-0,106
-83,899	-200,000	0,021	0,070
-82,884	12,385	-0,033	-0,018
-81,870	4,299	-0,138	0,071
-80,855	-200,000	0,003	0,124
-79,840	-75,328	-0,041	-0,010
-78,826	-200,000	-0,041	-0,148
-77,811	-66,448	0,028	-0,008
-76,797	-122,078	0,089	0,010
-75,782	-50,372	0,094	-0,031
-74,767	72,776	-0,079	0,059
-73,753	143,330	-0,094	0,089
-72,738	-200,000	-0,050	-0,163
-71,724	157,472	0,041	-0,040
-70,709	-139,038	-0,117	-0,009
-69,694	800,000	-0,010	0,026
-68,680	249,813	0,070	0,084
-67,665	34,349	0,022	-0,013
-66,651	-139,896	0,034	0,003
-65,636	-200,000	-0,001	-0,026
-64,622	541,205	-0,029	0,049
-63,607	32,537	-0,077	-0,047
-62,592	800,000	-0,045	0,090
-61,578	-95,891	0,031	-0,006
-60,563	800,000	0,028	0,085
-59,549	626,560	-0,027	-0,048
-58,534	-9,816	-1,745	-0,818
-57,519	372,307	-1,353	-1,949
-56,505	-200,000	-0,592	-4,660
-55,490	386,736	0,995	1,457
-54,476	800,000	4,899	11,040
-53,461	-200,000	20,173	323,942
-52,446	800,000	752,107	2311,599
-51,432	549,542	1663,095	2829,091
-50,417	74,784	1671,686	1242,486
-49,403	19,826	1544,719	877,172
-48,388	13,814	1467,271	803,945
-47,373	18,457	1457,716	821,111
-46,359	16,313	1447,006	804,776
-45,344	12,059	1442,635	781,939
-44,330	12,012	1440,943	780,766
-43,315	11,994	1438,973	779,578
-42,300	11,985	1437,410	778,659
-41,286	12,071	1436,106	778,335
-40,271	12,008	1434,525	777,146
-39,257	11,978	1433,476	776,403
-38,242	12,025	1432,180	775,893
-37,227	12,037	1431,056	775,312
-36,213	12,000	1429,887	774,470
-35,198	12,042	1428,622	773,956
-34,184	12,072	1427,774	773,607
-33,169	11,991	1426,128	772,302
-32,154	12,059	1425,138	772,058
-31,140	12,048	1423,874	771,290
-30,125	12,107	1422,828	770,972
-29,111	12,066	1421,646	770,104
-28,096	12,055	1420,467	769,382
-27,082	11,975	1419,574	768,492
-26,067	12,023	1418,422	768,064
-25,052	12,007	1417,380	767,396
-24,038	11,993	1416,325	766,727
-23,023	11,972	1415,371	766,079
-22,009	12,062	1414,125	765,797
-20,994	11,932	1413,380	764,757
-19,979	11,973	1412,600	764,497
-18,965	11,951	1411,486	763,759
-17,950	11,917	1410,648	763,116
-16,936	11,955	1409,719	762,762
-15,921	11,906	1408,706	761,956
-14,906	11,921	1407,869	761,541
-13,892	11,929	1406,802	760,970
-12,877	11,958	1405,877	760,577
-11,863	11,891	1405,211	759,870
-10,848	11,864	1404,137	759,135
-9,833	11,848	1403,237	758,542
-8,819	11,802	1402,467	757,883
-7,804	11,812	1401,464	757,358
-6,790	11,840	1400,663	757,027
-5,775	11,853	1399,311	756,322
-4,760	11,840	1398,536	755,816
-3,746	11,801	1397,577	755,085
-2,731	11,793	1396,988	754,701
-1,717	11,755	1396,119	754,025
-0,702	11,768	1394,072	752,949
0,313	15,740	1309,052	725,362
1,327	32,049	699,558	425,095
2,342	49,765	121,828	80,974
3,356	2,563	16,472	8,402
4,371	1,728	3,301	1,674
5,386	3,138	0,630	0,322
6,400	-200,000	0,004	0,373
7,415	800,000	-0,090	-0,276
8,429	-50,176	-0,227	-0,076
9,444	97,613	-0,268	-0,217
10,459	1,433	-0,330	-0,167
11,473	8,046	-0,337	-0,178
12,488	-43,598	-0,254	-0,090
13,502	-90,269	-0,473	-0,096
14,517	40,435	-0,268	-0,170
15,531	252,655	-0,310	-0,373
16,546	38,024	-0,293	-0,183
17,561	-32,137	-0,369	-0,145
18,575	-56,294	-0,205	-0,064
19,590	800,000	-0,121	-0,331
20,604	-2,853	-0,196	-0,096
21,619	14,508	-0,551	-0,302
22,634	236,236	-0,250	-0,292
23,648	27,163	-0,422	-0,249
24,663	136,182	-0,380	-0,349
25,677	110,946	-0,241	-0,205
26,692	349,848	-0,206	-0,287
27,707	83,424	-0,454	-0,348
28,721	141,960	-0,258	-0,241
29,736	199,876	-0,324	-0,351
30,750	258,859	-0,338	-0,411
31,765	82,430	-0,464	-0,354
32,780	50,220	-0,264	-0,176
33,794	65,407	-0,316	-0,225
34,809	54,451	-0,370	-0,251
35,823	257,018	-0,284	-0,344
36,838	105,403	-0,350	-0,291
37,853	96,674	-0,304	-0,245
38,867	5,657	-0,451	-0,234
39,882	159,458	-0,293	-0,288
40,896	2,602	-0,452	-0,230
41,911	-9,701	-0,305	-0,143
42,926	31,180	-0,357	-0,215
43,940	141,502	-0,274	-0,256
44,955	-73,556	-0,406	-0,104
45,969	-1,797	-0,397	-0,196
46,984	412,456	-0,214	-0,320
47,999	-44,182	-0,291	-0,102
49,013	65,661	-0,305	-0,217
50,028	48,453	-0,291	-0,191
51,042	118,221	-0,377	-0,327
52,057	58,356	-0,234	-0,161
53,071	-53,551	-0,287	-0,092
54,086	152,025	-0,232	-0,223
55,101	76,475	-0,296	-0,220
56,115	-112,493	-0,337	-0,047
57,130	34,603	-0,166	-0,102
58,144	-25,212	-0,360	-0,149
59,159	47,345	-0,300	-0,196
60,174	185,067	-0,311	-0,324
61,188	118,538	-0,330	-0,286
62,203	21,908	-0,400	-0,229
63,217	-28,985	-0,420	-0,169
64,232	37,541	-0,354	-0,220
65,247	110,981	-0,349	-0,296
66,261	145,639	-0,390	-0,367
67,276	20,441	-0,357	-0,202
68,290	68,503	-0,251	-0,181
69,305	0,453	-0,288	-0,144
70,320	-82,496	-0,319	-0,072
71,334	35,597	-0,310	-0,191
72,349	-8,179	-0,301	-0,142
73,363	41,232	-0,367	-0,232
74,378	-6,429	-0,499	-0,238
75,393	96,780	-0,314	-0,252
76,407	99,481	-0,319	-0,259
77,422	-46,634	-0,336	-0,115
78,436	47,380	-0,321	-0,209
79,451	149,865	-0,280	-0,267
80,466	61,049	-0,265	-0,184
81,480	16,475	-0,352	-0,195
82,495	116,588	-0,279	-0,240
83,509	17,714	-0,334	-0,186
84,524	0,147	-0,397	-0,198
85,539	49,933	-0,331	-0,219
86,553	-52,878	-0,256	-0,082
87,568	-23,483	-0,316	-0,133
88,582	-18,517	-0,362	-0,158
89,597	43,071	-0,308	-0,197
90,611	30,295	-0,313	-0,187
91,626	88,269	-0,292	-0,227
92,641	-15,962	-0,293	-0,130
93,655	224,284	-0,167	-0,189
94,670	43,387	-0,377	-0,241
95,684	178,454	-0,348	-0,356
96,699	76,044	-0,290	-0,215
97,714	-11,284	-0,330	-0,152
98,728	171,324	-0,229	-0,230
99,743	12,012	-0,217	-0,116
100,757	42,800	-0,268	-0,171
101,772	114,643	-0,158	-0,135
102,787	-25,371	-0,332	-0,137
103,801	33,986	-0,385	-0,235
104,816	-32,269	-0,275	-0,107
105,830	48,835	-0,165	-0,108
106,845	176,381	-0,149	-0,152
107,860	30,042	-0,286	-0,171
108,874	248,069	-0,250	-0,296
109,889	-20,742	-0,216	-0,092
110,903	217,423	-0,298	-0,333
111,918	134,483	-0,289	-0,262
112,933	-65,248	-0,347	-0,097
113,947	14,087	-0,202	-0,109
114,962	-9,205	-0,141	-0,066
115,976	-98,591	-0,360	-0,064
116,991	59,510	-0,366	-0,252
118,006	165,863	-0,303	-0,300
119,020	-54,543	-0,255	-0,080
120,035	96,457	-0,114	-0,091
121,049	165,680	-0,246	-0,244
122,064	127,290	-0,137	-0,122
123,079	-62,828	-0,262	-0,075
124,093	-15,032	-0,190	-0,085
125,108	800,000	-0,192	-0,373
126,122	42,549	-0,258	-0,164
127,137	535,488	-0,170	-0,283
128,151	-21,326	-0,316	-0,134
129,166	7,360	-0,277	-0,144
130,181	241,215	-0,181	-0,212
131,195	129,059	-0,235	-0,210
132,210	614,726	-0,152	-0,267
133,224	-200,000	-0,065	-0,250
134,239	112,335	-0,186	-0,157
135,254	10,480	-0,299	-0,159
136,268	102,250	-0,226	-0,184
137,283	53,575	-0,186	-0,125
138,297	24,346	-0,362	-0,208
139,312	-10,689	-0,246	-0,113
140,327	100,229	-0,209	-0,169
141,341	132,747	-0,258	-0,233
142,356	800,000	-0,085	-0,261
143,370	208,365	-0,227	-0,247
144,385	-30,900	-0,307	-0,121
145,400	113,981	-0,297	-0,252
146,414	144,133	-0,288	-0,268
147,429	20,967	-0,343	-0,194
148,443	27,895	-0,238	-0,139
149,458	168,493	-0,218	-0,217
150,473	-180,006	-0,272	-0,004
151,487	54,187	-0,228	-0,153
152,502	414,671	-0,208	-0,310
153,516	203,768	-0,299	-0,323
154,531	43,128	-0,231	-0,147
155,546	382,278	-0,217	-0,311
156,560	245,285	-0,151	-0,178
157,575	388,432	-0,211	-0,305
158,589	111,404	-0,274	-0,230
159,604	3,011	-0,274	-0,138
160,619	226,551	-0,179	-0,203
161,633	218,025	-0,220	-0,245
162,648	233,991	-0,115	-0,133
163,662	387,601	-0,108	-0,156
164,677	24,809	-0,266	-0,153
165,692	-100,790	-0,266	-0,045
166,706	661,439	-0,113	-0,204
167,721	789,586	-0,110	-0,211
168,735	684,370	-0,126	-0,231
169,750	137,692	-0,187	-0,170
170,764	80,862	-0,166	-0,125
171,779	55,984	-0,151	-0,102
172,794	98,322	-0,181	-0,145
173,808	38,811	-0,235	-0,146
174,823	449,624	-0,243	-0,375
175,837	18,778	-0,293	-0,163
176,852	800,000	-0,080	-0,182
177,867	20,783	-0,279	-0,157
178,881	171,889	-0,177	-0,177
179,896	-23,573	-0,248	-0,103
180,910	188,572	-0,273	-0,285
181,925	45,832	-0,222	-0,142
182,940	212,843	-0,178	-0,196
183,954	41,784	-0,314	-0,197
184,969	157,089	-0,279	-0,268
185,983	211,211	-0,261	-0,286
186,998	800,000	-0,097	-0,245
188,013	-49,487	-0,308	-0,101
189,027	-8,991	-0,302	-0,140
190,042	491,548	-0,148	-0,236
191,056	7,888	-0,307	-0,160
192,071	800,000	-0,086	-0,171
193,086	-86,400	-0,198	-0,042
194,100	211,667	-0,181	-0,198
195,115	800,000	-0,072	-0,201
196,129	800,000	-0,135	-0,285
197,144	397,928	-0,072	-0,106
198,159	265,163	-0,187	-0,226
199,173	96,364	-0,258	-0,205
200,188	92,242	-0,145	-0,113
201,202	143,534	-0,229	-0,212
202,217	123,051	-0,192	-0,167
203,232	-144,129	-0,154	-0,010
204,246	214,162	-0,184	-0,202
205,261	54,777	-0,165	-0,110
206,275	702,095	-0,087	-0,160
207,290	-4,342	-0,214	-0,102
208,304	105,557	-0,093	-0,076
209,319	-173,618	-0,284	0,006
210,334	210,694	-0,220	-0,240
211,348	-158,424	-0,215	-0,008
212,363	64,043	-0,292	-0,203
213,377	6,570	-0,260	-0,133
214,392	91,446	-0,164	-0,127
215,407	-59,887	-0,209	-0,062
216,421	293,074	-0,165	-0,210
217,436	137,296	-0,171	-0,155
218,450	1,108	-0,282	-0,140
219,465	173,154	-0,155	-0,155
220,480	19,923	-0,192	-0,107
221,494	125,765	-0,133	-0,117
222,509	592,854	-0,113	-0,194
223,523	-17,301	-0,251	0,109
224,538	800,000	-0,050	-0,121
225,553	33,201	-0,256	-0,153
226,567	188,370	-0,149	-0,154
227,582	303,041	-0,243	-0,313
228,596	142,354	-0,115	-0,106
229,611	800,000	-0,059	-0,160
230,626	167,454	-0,268	-0,264
231,640	73,922	-0,264	-0,191
232,655	284,953	-0,258	-0,322
233,669	183,557	-0,199	-0,204
234,684	99,370	-0,269	-0,216
235,699	101,809	-0,151	-0,122
236,713	563,527	-0,099	-0,167
237,728	390,337	-0,043	-0,061
238,742	27,991	-0,259	-0,151
239,757	-41,422	-0,335	-0,119
240,772	129,384	-0,162	-0,144
241,786	-12,251	-0,228	-0,103
242,801	11,432	-0,261	-0,138
243,815	70,906	-0,208	-0,149
244,830	-85,423	-0,195	-0,042
245,844	36,270	-0,235	-0,143
246,859	755,634	-0,109	-0,205
247,874	-12,664	-0,284	-0,128
248,888	111,829	-0,168	-0,140
249,903	469,605	-0,063	-0,099
250,917	161,575	-0,106	-0,102
251,932	336,323	-0,075	-0,100
252,947	282,619	-0,154	-0,191
253,961	152,874	-0,127	-0,120
254,976	94,274	-0,260	-0,204
255,990	80,137	-0,248	-0,184
257,005	574,451	-0,136	-0,231
258,020	331,206	-0,091	-0,121
259,034	-113,952	-0,110	-0,015
260,049	116,127	-0,165	-0,140
261,063	-66,750	-0,069	0,019
262,078	165,705	-0,206	-0,201
263,093	292,992	-0,168	-0,211
264,107	166,852	-0,134	-0,131
265,122	32,860	-0,184	-0,110
266,136	-200,000	-0,043	-0,143
267,151	-139,891	-0,091	-0,007
268,166	189,343	-0,201	-0,208
269,180	800,000	-0,069	-0,209
270,195	215,340	-0,186	-0,204
271,209	800,000	-0,076	-0,189
272,224	471,371	-0,093	-0,145
273,239	350,515	-0,072	-0,099
274,253	-89,109	-0,078	-0,016
275,268	486,538	-0,116	-0,183
276,282	800,000	-0,057	-0,153
277,297	32,570	-0,175	-0,104
278,312	54,042	-0,114	-0,076
279,326	-145,343	-0,186	-0,011
280,341	-200,000	-0,007	-0,042
281,355	385,163	-0,154	-0,219
282,370	-64,634	-0,141	-0,039
283,384	103,523	-0,188	-0,152
284,399	-200,000	-0,017	-0,101
285,414	399,306	-0,084	-0,122
286,428	-200,000	-0,018	-0,127
287,443	-52,377	-0,105	-0,033
288,457	-35,725	-0,177	-0,066
289,472	20,664	-0,211	-0,117
290,487	55,353	-0,087	-0,058
291,501	149,731	-0,138	-0,129
292,516	101,117	-0,286	-0,229
293,530	800,000	-0,089	-0,247
294,545	32,766	-0,039	-0,023
295,560	135,691	-0,146	-0,131
296,574	-9,046	-0,164	-0,075
297,589	178,798	-0,120	-0,120
298,603	209,834	-0,177	-0,192
299,618	47,233	-0,253	-0,162
300,633	333,520	-0,118	-0,157
301,647	-200,000	-0,022	-0,211
302,662	5,826	-0,168	-0,085
303,676	29,696	-0,193	-0,113
304,691	-200,000	-0,038	-0,118
305,706	193,369	-0,182	-0,190
306,720	-200,000	0,012	-0,048
307,735	102,806	-0,152	-0,123
308,749	280,157	-0,098	-0,120
309,764	-200,000	0,010	-0,135
310,779	-13,380	-0,141	-0,063
311,793	-200,000	-0,067	-0,236
312,808	-200,000	0,004	-0,131
313,822	367,995	-0,089	-0,124
314,837	490,390	-0,142	-0,223
315,852	7,149	-0,120	-0,061
316,866	-200,000	-0,012	-0,090
317,881	-144,465	-0,066	0,004
318,895	-66,692	-0,117	-0,032
319,910	-35,285	-0,143	-0,053
320,925	1,530	-0,143	-0,070
321,939	236,664	-0,152	-0,173
322,954	68,770	-0,140	-0,098
323,968	-173,466	-0,211	0,004
324,983	-200,000	-0,015	-0,152
325,997	-103,715	-0,164	-0,026
327,012	263,894	-0,203	-0,243
328,027	-107,593	-0,232	-0,034
329,041	-53,185	-0,190	-0,060
330,056	67,464	-0,083	0,058
331,070	19,483	-0,048	0,026
332,085	-112,052	-0,079	0,011
333,100	-200,000	-0,011	0,071
334,114	358,799	-0,142	-0,195
335,129	-49,623	-0,270	-0,088
336,143	13,505	-0,246	-0,130
337,158	142,414	-0,139	-0,126
338,173	-29,816	-0,071	-0,028
339,187	283,126	-0,125	-0,154
340,202	-7,268	-0,200	-0,093
341,216	219,222	-0,092	-0,101
342,231	800,000	-0,078	-0,209
343,246	26,894	-0,139	-0,080
344,260	105,481	-0,114	-0,092
345,275	-200,000	-0,019	-0,079
346,289	618,293	-0,123	-0,213
347,304	545,276	-0,094	-0,154
348,319	441,155	-0,128	-0,192
349,333	-200,000	-0,020	-0,147
350,348	-97,242	-0,202	-0,036
351,362	173,808	-0,191	-0,189
352,377	433,666	-0,047	-0,070
353,392	-74,261	-0,182	-0,045
354,406	-110,819	-0,153	-0,021
355,421	208,900	1313,578	1409,929
356,435	160,751	1474,151	1410,385
