DTS Sentinel unit serial number:	SN410029Multiplexer serial number:	ORYXHardware model number:	OX2-SRSoftware version number:	ORYX F/W v4,00 Oryx Data Collector v3.7.2.0data status	okinstallation	B3 Nyhavnadifferential loss correction	single-endedforward channel	channel 1reverse channel	N/Adate	2023/12/04time	16:32:30forward acquisition time	300,00reverse acquisition time	0,00gamma	499,1914k internal	0,3199k external	0,3199temperature offset calibration	1,0000default loss term (dB/km)	0,3820temperature slope calibration	1,0000multiplexer offset coefficient	1,0000multiplexer slope coefficient	1,0000fibre end	0,00T internal ref (°C)	15,19T ext. ref 1 (°C)	0,22T ext. ref 2 (°C)	0,20length (m)	temperature (°C)	Stokes	anti-Stokes-744,400	97,759	-0,287	-0,240
-743,385	-200,000	0,032	0,300
-742,371	38,962	-0,236	-0,153
-741,356	800,000	0,099	0,270
-740,342	70,962	-0,230	-0,173
-739,327	-200,000	0,055	0,340
-738,312	103,210	-0,215	-0,183
-737,298	-200,000	0,046	0,213
-736,283	291,810	-0,184	-0,245
-735,269	-200,000	0,043	0,354
-734,254	800,000	-0,118	-0,240
-733,239	-9,482	-0,211	0,102
-732,225	-200,000	-0,006	-0,131
-731,210	-200,000	0,003	0,063
-730,196	114,537	0,060	0,053
-729,181	-10,741	-0,096	0,046
-728,167	164,066	-0,097	-0,099
-727,152	-25,118	-0,109	-0,047
-726,137	800,000	0,078	0,182
-725,123	88,564	-0,064	0,052
-724,108	-155,882	-0,260	-0,012
-723,094	-95,902	-0,125	-0,024
-722,079	211,948	-0,098	-0,112
-721,064	-21,226	-0,016	0,007
-720,050	800,000	0,067	-0,169
-719,035	-77,742	-0,116	-0,029
-718,021	253,904	-0,068	0,085
-717,006	-200,000	-0,015	-0,125
-715,991	193,547	-0,048	0,053
-714,977	800,000	0,061	-0,130
-713,962	-171,864	-0,124	-0,003
-712,948	59,522	-0,068	0,049
-711,933	158,979	0,029	-0,029
-710,918	-58,173	-0,035	-0,011
-709,904	-59,446	-0,118	0,037
-708,889	-200,000	-0,016	0,093
-707,875	-200,000	0,025	-0,090
-706,860	-6,371	-0,101	-0,050
-705,845	342,851	0,026	0,038
-704,831	-200,000	0,002	-0,046
-703,816	-45,559	0,033	-0,012
-702,802	-22,881	-0,081	0,035
-701,787	430,462	-0,105	-0,165
-700,772	-142,704	-0,099	-0,007
-699,758	-125,970	0,046	0,005
-698,743	800,000	0,045	0,095
-697,729	-9,730	-0,072	-0,035
-696,714	341,145	-0,053	0,075
-695,699	256,169	-0,067	0,084
-694,685	80,395	-0,081	0,064
-693,670	735,099	-0,009	-0,017
-692,656	-169,048	-0,146	0,004
-691,641	153,695	-0,073	0,072
-690,627	118,355	0,033	0,029
-689,612	800,000	0,068	0,155
-688,597	-1,063	0,040	-0,021
-687,583	270,647	-0,055	-0,071
-686,568	19,714	-0,049	0,028
-685,554	118,557	-0,113	-0,101
-684,539	91,478	-0,030	-0,024
-683,524	2,217	0,030	0,016
-682,510	-200,000	0,015	-0,131
-681,495	-200,000	0,000	0,014
-680,481	-200,000	-0,011	0,082
-679,466	416,815	0,038	-0,058
-678,451	114,114	-0,083	-0,073
-677,437	-200,000	-0,004	0,017
-676,422	-156,883	0,150	0,007
-675,408	-2,974	-0,056	-0,028
-674,393	-34,969	-0,086	0,034
-673,378	516,569	-0,026	-0,044
-672,364	-200,000	-0,022	-0,099
-671,349	250,960	-0,085	-0,105
-670,335	800,000	-0,015	-0,039
-669,320	-200,000	0,001	0,113
-668,305	-103,661	0,140	0,024
-667,291	7,684	-0,146	0,079
-666,276	800,000	-0,040	-0,098
-665,262	2,632	0,057	-0,030
-664,247	-104,995	0,043	0,007
-663,232	294,657	-0,038	0,050
-662,218	508,501	0,045	0,077
-661,203	42,819	0,039	-0,026
-660,189	-149,333	-0,025	-0,001
-659,174	-35,209	-0,076	-0,030
-658,159	-111,828	-0,046	0,007
-657,145	800,000	0,027	-0,058
-656,130	-154,933	0,069	-0,003
-655,116	-200,000	-0,026	0,088
-654,101	125,413	-0,080	0,073
-653,086	50,355	-0,187	0,128
-652,072	62,345	0,054	0,039
-651,057	-200,000	-0,011	-0,110
-650,043	133,444	-0,065	-0,061
-649,028	633,518	0,038	-0,070
-648,014	800,000	-0,018	0,043
-646,999	-117,321	-0,128	-0,017
-645,984	163,968	0,122	0,125
-644,970	-53,458	0,052	0,017
-643,955	539,201	-0,070	-0,122
-642,941	331,083	-0,055	-0,077
-641,926	-117,831	-0,087	0,011
-640,911	-79,891	0,069	-0,017
-639,897	-7,386	0,122	0,060
-638,882	490,146	0,012	-0,020
-637,868	14,836	-0,043	-0,024
-636,853	-120,461	0,124	0,015
-635,838	-66,263	0,084	0,024
-634,824	-200,000	-0,005	0,078
-633,809	-200,000	0,004	-0,052
-632,795	800,000	0,042	0,084
-631,780	-71,863	-0,029	0,008
-630,765	69,168	-0,059	-0,044
-629,751	-95,567	0,022	0,004
-628,736	800,000	-0,025	-0,080
-627,722	-117,200	-0,088	-0,011
-626,707	-166,827	0,117	-0,003
-625,692	-200,000	0,009	-0,171
-624,678	-148,987	-0,108	0,006
-623,663	-39,785	0,082	-0,031
-622,649	207,628	0,118	-0,134
-621,634	-200,000	-0,007	-0,141
-620,619	-124,471	-0,223	0,025
-619,605	-200,000	0,026	-0,227
-618,590	-200,000	0,018	-0,073
-617,576	-200,000	-0,013	0,189
-616,561	-60,783	-0,065	-0,020
-615,546	44,962	-0,033	-0,022
-614,532	-200,000	-0,021	-0,095
-613,517	100,895	0,100	-0,084
-612,503	424,461	-0,018	-0,028
-611,488	98,652	-0,027	0,023
-610,474	0,649	0,059	0,030
-609,459	-200,000	-0,020	0,113
-608,444	255,016	-0,055	-0,068
-607,430	205,114	0,019	-0,021
-606,415	800,000	-0,074	0,153
-605,401	-200,000	0,002	0,042
-604,386	-165,921	0,172	0,005
-603,371	-15,875	0,090	-0,041
-602,357	800,000	-0,036	0,111
-601,342	-9,017	0,046	0,022
-600,328	800,000	-0,015	0,035
-599,313	42,320	0,009	-0,006
-598,298	3,102	-0,120	0,063
-597,284	-0,877	0,143	0,073
-596,269	-5,352	-0,133	0,066
-595,255	44,432	-0,137	0,091
-594,240	-200,000	0,007	0,042
-593,225	-6,145	-0,075	-0,037
-592,211	195,228	-0,095	0,104
-591,196	176,105	0,155	-0,163
-590,182	770,928	-0,036	-0,071
-589,167	103,218	0,071	0,060
-588,152	165,873	-0,133	0,137
-587,138	207,211	-0,082	-0,093
-586,123	-200,000	-0,013	-0,104
-585,109	-200,000	0,001	0,032
-584,094	-160,016	0,026	0,001
-583,079	735,827	0,016	0,031
-582,065	532,449	0,057	-0,097
-581,050	-4,913	0,148	0,074
-580,036	800,000	-0,024	-0,056
-579,021	-142,066	-0,223	-0,016
-578,006	-200,000	0,057	0,000
-576,992	105,363	0,016	-0,013
-575,977	800,000	0,046	0,133
-574,963	47,014	0,020	-0,014
-573,948	-200,000	0,023	0,187
-572,934	-13,453	-0,032	0,015
-571,919	464,567	-0,102	-0,165
-570,904	800,000	-0,039	0,081
-569,890	107,247	0,072	0,062
-568,875	-200,000	0,050	0,180
-567,861	-131,329	0,077	-0,007
-566,846	62,969	-0,058	0,042
-565,831	-182,052	-0,087	-0,001
-564,817	800,000	-0,026	0,059
-563,802	-200,000	-0,055	-0,178
-562,788	-200,000	-0,033	-0,133
-561,773	-6,826	-0,091	0,045
-560,758	60,995	-0,067	0,048
-559,744	-158,446	0,148	0,006
-558,729	800,000	-0,041	-0,085
-557,715	169,872	-0,047	-0,048
-556,700	800,000	0,056	-0,161
-555,685	-200,000	-0,015	-0,092
-554,671	330,879	-0,004	-0,006
-553,656	27,606	0,056	0,034
-552,642	108,954	-0,095	0,082
-551,627	-200,000	0,005	0,022
-550,612	-200,000	0,012	0,067
-549,598	-100,584	-0,113	-0,020
-548,583	45,975	-0,028	0,019
-547,569	77,456	-0,043	-0,033
-546,554	-200,000	0,017	0,059
-545,539	-131,980	0,166	-0,015
-544,525	-150,128	0,047	-0,003
-543,510	202,880	-0,037	-0,042
-542,496	-9,681	-0,059	-0,028
-541,481	-200,000	0,007	-0,024
-540,466	-26,472	-0,198	-0,083
-539,452	-30,617	0,176	0,072
-538,437	-200,000	0,015	0,146
-537,423	23,269	0,136	-0,080
-536,408	-200,000	0,021	0,097
-535,393	320,663	-0,063	-0,086
-534,379	197,860	-0,031	-0,034
-533,364	3,714	-0,076	-0,040
-532,350	-27,052	0,039	0,016
-531,335	800,000	-0,011	0,032
-530,321	105,400	0,049	-0,042
-529,306	-200,000	-0,003	0,027
-528,291	412,621	-0,049	-0,076
-527,277	-135,194	-0,103	0,009
-526,262	413,825	0,051	-0,078
-525,248	-200,000	-0,012	0,066
-524,233	800,000	-0,019	-0,057
-523,218	230,767	-0,098	0,116
-522,204	-93,985	0,047	0,009
-521,189	-57,673	0,097	-0,030
-520,175	800,000	-0,040	0,094
-519,160	37,692	-0,050	-0,032
-518,145	308,077	0,034	-0,045
-517,131	43,275	-0,045	0,030
-516,116	-129,587	0,089	-0,009
-515,102	-129,933	0,061	-0,006
-514,087	-49,220	-0,014	-0,005
-513,072	-145,168	-0,019	0,001
-512,058	79,752	0,072	0,056
-511,043	-200,000	0,007	-0,038
-510,029	800,000	0,048	-0,103
-509,014	117,441	0,122	-0,108
-507,999	-114,339	-0,054	0,007
-506,985	33,428	-0,111	0,070
-505,970	53,935	0,109	-0,075
-504,956	569,648	-0,031	0,054
-503,941	-200,000	0,001	0,137
-502,926	-96,348	0,125	0,024
-501,912	-61,845	-0,043	-0,013
-500,897	135,824	-0,099	0,093
-499,883	20,869	-0,083	-0,048
-498,868	800,000	0,006	0,015
-497,853	-24,279	0,110	0,047
-496,839	-48,019	-0,109	-0,038
-495,824	-200,000	0,019	0,061
-494,810	40,184	0,139	0,090
-493,795	800,000	0,033	0,082
-492,781	-200,000	0,022	0,143
-491,766	-200,000	0,033	-0,144
-490,751	-200,000	-0,042	-0,143
-489,737	160,841	0,042	-0,042
-488,722	52,519	0,116	0,080
-487,708	-200,000	0,035	0,168
-486,693	-5,394	-0,099	-0,049
-485,678	115,877	-0,043	0,038
-484,664	94,826	0,111	0,091
-483,649	-26,078	-0,050	-0,021
-482,635	-195,009	0,167	0,001
-481,620	-200,000	0,016	0,059
-480,605	221,134	0,017	0,020
-479,591	800,000	0,043	0,125
-478,576	-68,024	0,031	0,009
-477,562	642,644	-0,015	0,027
-476,547	71,550	-0,170	-0,127
-475,532	-166,512	-0,099	0,003
-474,518	-200,000	0,019	0,096
-473,503	-107,724	0,099	0,015
-472,489	-143,242	0,077	-0,005
-471,474	-200,000	0,000	-0,002
-470,459	22,966	0,031	-0,018
-469,445	-161,420	0,065	0,002
-468,430	631,980	-0,046	-0,085
-467,416	25,160	-0,078	-0,047
-466,401	-200,000	-0,007	0,150
-465,386	-100,233	-0,056	0,010
-464,372	800,000	-0,012	-0,035
-463,357	-73,543	-0,127	0,033
-462,343	530,200	0,062	-0,106
-461,328	71,481	-0,027	-0,020
-460,313	665,341	0,044	-0,082
-459,299	-200,000	-0,004	-0,099
-458,284	-200,000	-0,002	0,017
-457,270	-97,999	0,108	-0,020
-456,255	166,744	-0,038	-0,039
-455,241	-65,490	0,056	-0,016
-454,226	9,818	0,035	-0,019
-453,211	333,306	0,074	-0,104
-452,197	43,110	0,085	0,056
-451,182	264,751	0,097	0,122
-450,168	800,000	-0,059	-0,146
-449,153	117,037	-0,069	-0,061
-448,138	-200,000	-0,000	-0,110
-447,124	96,362	-0,063	0,052
-446,109	-200,000	0,011	-0,142
-445,095	-200,000	-0,039	0,131
-444,080	176,926	0,128	0,135
-443,065	-200,000	-0,021	-0,076
-442,051	-200,000	-0,021	0,102
-441,036	-6,522	-0,076	-0,037
-440,022	-92,097	-0,032	0,006
-439,007	114,108	-0,091	0,080
-437,992	800,000	-0,021	0,045
-436,978	-188,104	0,179	0,002
-435,963	10,967	0,080	0,044
-434,949	433,909	-0,045	-0,071
-433,934	-139,247	0,029	0,002
-432,919	-200,000	0,031	-0,106
-431,905	307,037	-0,132	0,178
-430,890	40,063	0,040	-0,026
-429,876	317,121	0,051	-0,069
-428,861	800,000	-0,033	0,078
-427,846	130,552	-0,065	-0,060
-426,832	466,466	-0,035	-0,056
-425,817	-115,505	-0,102	0,014
-424,803	-139,023	-0,065	-0,005
-423,788	-185,512	-0,109	-0,001
-422,773	356,040	0,044	0,063
-421,759	800,000	0,032	-0,067
-420,744	-44,463	-0,119	0,042
-419,730	-12,453	-0,159	0,074
-418,715	-33,843	-0,149	-0,059
-417,701	-72,200	0,078	0,021
-416,686	-200,000	0,013	0,043
-415,671	-29,664	0,031	0,013
-414,657	-105,281	0,114	-0,018
-413,642	485,038	0,034	0,056
-412,628	800,000	0,035	-0,095
-411,613	310,337	0,070	-0,095
-410,598	50,532	-0,062	-0,042
-409,584	-107,556	-0,084	-0,013
-408,569	-200,000	-0,010	0,074
-407,555	800,000	0,019	0,045
-406,540	343,688	0,080	0,112
-405,525	-200,000	-0,011	0,126
-404,511	146,456	0,068	-0,066
-403,496	377,545	-0,047	-0,069
-402,482	800,000	0,057	-0,177
-401,467	96,078	-0,049	-0,040
-400,452	-200,000	-0,011	-0,076
-399,438	51,193	-0,081	0,055
-398,423	201,150	0,015	0,016
-397,409	-157,723	-0,169	-0,007
-396,394	-55,221	-0,064	-0,021
-395,379	393,390	-0,049	-0,074
-394,365	-45,653	0,075	0,026
-393,350	-114,825	0,014	-0,002
-392,336	-167,167	-0,159	-0,005
-391,321	800,000	-0,016	0,045
-390,306	192,677	-0,068	-0,074
-389,292	-200,000	-0,005	-0,050
-388,277	-200,000	-0,021	-0,129
-387,263	-73,473	0,038	0,010
-386,248	71,668	-0,008	-0,006
-385,233	638,098	-0,061	-0,111
-384,219	-100,622	-0,126	0,022
-383,204	-68,144	-0,046	-0,013
-382,190	-200,000	0,013	-0,145
-381,175	38,377	0,154	-0,098
-380,160	-200,000	0,018	0,128
-379,146	141,838	-0,035	0,034
-378,131	-125,502	0,019	0,002
-377,117	-141,713	-0,039	-0,003
-376,102	298,409	-0,042	0,056
-375,088	694,439	0,018	-0,033
-374,073	-200,000	0,004	-0,016
-373,058	159,287	-0,058	0,058
-372,044	152,579	0,101	0,099
-371,029	-200,000	0,003	0,055
-370,015	-200,000	0,005	-0,037
-369,000	35,508	0,046	0,029
-367,985	359,104	-0,081	-0,117
-366,971	625,542	0,062	-0,113
-365,956	800,000	-0,039	0,086
-364,942	-103,256	-0,093	-0,016
-363,927	296,497	0,040	-0,053
-362,912	-200,000	0,003	-0,019
-361,898	123,587	-0,052	-0,047
-360,883	800,000	-0,028	-0,083
-359,869	-128,520	-0,014	-0,001
-358,854	-200,000	0,170	0,001
-357,839	185,583	-0,063	0,067
-356,825	198,867	0,088	0,096
-355,810	-200,000	-0,017	-0,122
-354,796	99,301	-0,082	-0,068
-353,781	-200,000	-0,044	-0,143
-352,766	307,947	0,030	-0,041
-351,752	-8,945	-0,068	-0,033
-350,737	146,393	-0,022	-0,021
-349,723	580,560	0,027	0,047
-348,708	-200,000	0,026	0,083
-347,693	-191,650	0,095	-0,001
-346,679	-200,000	-0,000	-0,012
-345,664	270,950	-0,150	-0,190
-344,650	-200,000	0,002	-0,010
-343,635	-82,142	-0,085	-0,020
-342,620	-16,802	0,174	0,079
-341,606	-200,000	0,014	0,078
-340,591	375,436	0,111	-0,162
-339,577	478,118	-0,085	-0,138
-338,562	-9,431	0,021	0,010
-337,548	800,000	0,036	0,078
-336,533	456,209	-0,069	0,110
-335,518	456,640	0,104	0,166
-334,504	623,212	-0,042	0,076
-333,489	429,234	0,023	0,036
-332,475	800,000	-0,051	0,129
-331,460	-33,407	-0,098	-0,039
-330,445	800,000	-0,009	-0,020
-329,431	-200,000	-0,018	0,107
-328,416	800,000	0,050	0,115
-327,402	-200,000	-0,008	0,110
-326,387	-90,237	-0,066	0,014
-325,372	73,209	0,073	0,055
-324,358	346,201	0,097	-0,137
-323,343	-200,000	0,011	0,080
-322,329	-36,461	0,103	0,039
-321,314	-200,000	0,002	0,012
-320,299	-200,000	-0,005	-0,080
-319,285	342,105	0,110	0,155
-318,270	-200,000	-0,002	-0,102
-317,256	-79,338	-0,035	-0,008
-316,241	147,264	-0,121	-0,116
-315,226	-149,298	0,102	0,006
-314,212	-200,000	0,019	-0,089
-313,197	-200,000	0,006	0,039
-312,183	189,180	-0,028	0,030
-311,168	-122,639	-0,122	-0,014
-310,153	12,262	-0,102	-0,056
-309,139	-149,176	-0,033	-0,002
-308,124	104,780	0,078	-0,066
-307,110	107,277	0,119	0,101
-306,095	163,577	-0,032	0,032
-305,080	-200,000	0,025	0,110
-304,066	-200,000	0,017	0,081
-303,051	-200,000	-0,023	-0,109
-302,037	104,092	-0,152	-0,127
-301,022	47,145	0,052	0,035
-300,008	52,220	0,016	0,011
-298,993	-200,000	-0,022	0,108
-297,978	87,232	-0,078	0,062
-296,964	-200,000	0,035	-0,116
-295,949	-200,000	0,019	-0,086
-294,935	-10,087	-0,043	-0,021
-293,920	-149,664	-0,101	-0,006
-292,905	111,187	0,083	-0,071
-291,891	-200,000	-0,024	0,158
-290,876	-64,468	0,101	-0,029
-289,862	-200,000	0,001	-0,031
-288,847	37,785	-0,135	-0,085
-287,832	-200,000	-0,014	-0,077
-286,818	-47,988	-0,045	0,015
-285,803	800,000	0,021	-0,063
-284,789	-200,000	-0,002	0,135
-283,774	-40,255	0,124	-0,046
-282,759	-129,537	-0,043	-0,004
-281,745	-48,683	-0,025	0,009
-280,730	-172,851	0,080	-0,002
-279,716	-7,276	-0,098	0,047
-278,701	-70,206	-0,019	0,005
-277,686	164,974	0,061	0,062
-276,672	-92,187	-0,119	0,024
-275,657	-200,000	0,024	0,096
-274,643	-1,168	0,127	-0,064
-273,628	22,380	-0,136	-0,079
-272,613	800,000	0,035	-0,101
-271,599	-84,917	0,051	-0,011
-270,584	-137,604	0,080	0,006
-269,570	800,000	0,040	-0,079
-268,555	105,526	0,055	0,046
-267,540	800,000	-0,023	0,070
-266,526	800,000	-0,031	0,077
-265,511	-60,023	-0,096	-0,029
-264,497	-200,000	0,004	-0,052
-263,482	-126,529	0,189	0,020
-262,467	800,000	0,079	0,237
-261,453	800,000	-0,030	0,071
-260,438	-156,987	0,056	-0,002
-259,424	-200,000	-0,002	-0,066
-258,409	116,935	-0,138	-0,121
-257,395	-38,949	0,055	-0,021
-256,380	-49,576	0,156	0,053
-255,365	144,118	0,111	0,106
-254,351	-55,767	0,102	0,032
-253,336	-200,000	0,022	0,099
-252,322	-38,167	-0,075	0,028
-251,307	-200,000	-0,002	0,027
-250,292	-200,000	-0,008	-0,082
-249,278	-200,000	0,007	0,090
-248,263	-7,949	-0,086	-0,041
-247,249	650,931	0,059	0,108
-246,234	191,845	0,037	0,040
-245,219	-84,025	-0,005	-0,001
-244,205	266,357	-0,075	0,093
-243,190	-200,000	0,025	0,181
-242,176	259,640	0,082	0,101
-241,161	800,000	0,029	0,057
-240,146	172,318	0,058	-0,060
-239,132	66,110	0,068	-0,049
-238,117	-200,000	-0,016	-0,068
-237,103	-200,000	0,007	0,055
-236,088	-200,000	-0,001	-0,071
-235,073	-200,000	0,002	-0,020
-234,059	18,422	0,087	-0,050
-233,044	121,176	0,075	-0,067
-232,030	-31,258	-0,185	-0,074
-231,015	395,426	-0,037	-0,055
-230,000	217,049	0,053	0,060
-228,986	6,248	-0,118	-0,062
-227,971	-200,000	0,002	-0,047
-226,957	-88,710	0,130	-0,027
-225,942	-90,855	0,084	0,017
-224,927	800,000	-0,023	-0,071
-223,913	-200,000	0,016	0,077
-222,898	620,186	0,056	-0,101
-221,884	-65,313	0,166	-0,047
-220,869	800,000	-0,045	0,102
-219,855	229,543	-0,101	0,118
-218,840	-200,000	-0,005	-0,033
-217,825	-63,705	0,034	-0,010
-216,811	-200,000	-0,009	0,036
-215,796	800,000	0,037	-0,088
-214,782	192,273	-0,042	0,046
-213,767	128,042	0,069	0,063
-212,752	-162,612	0,214	0,007
-211,738	-45,563	-0,162	-0,057
-210,723	385,373	0,116	0,171
-209,709	800,000	0,012	-0,036
-208,694	-200,000	0,030	-0,125
-207,679	-171,764	-0,128	-0,003
-206,665	121,084	0,012	0,011
-205,650	800,000	-0,021	-0,061
-204,636	-32,525	0,122	0,048
-203,621	218,103	0,018	0,020
-202,606	55,156	-0,063	-0,043
-201,592	-55,121	-0,199	0,063
-200,577	64,587	-0,084	0,060
-199,563	502,433	0,023	0,038
-198,548	-23,212	0,075	0,032
-197,533	-91,913	-0,099	0,020
-196,519	155,838	0,022	0,021
-195,504	-200,000	0,010	0,050
-194,490	-77,526	-0,200	-0,049
-193,475	-22,764	0,069	-0,030
-192,460	51,889	-0,073	-0,049
-191,446	343,946	0,071	0,100
-190,431	-70,274	0,121	-0,033
-189,417	-200,000	0,011	0,069
-188,402	800,000	0,024	0,060
-187,387	-130,691	0,044	0,004
-186,373	-35,576	-0,120	-0,046
-185,358	-89,600	0,139	0,029
-184,344	-99,754	0,121	0,021
-183,329	306,270	-0,040	0,053
-182,315	-7,083	-0,095	0,046
-181,300	-200,000	-0,002	0,079
-180,285	-200,000	-0,006	-0,065
-179,271	800,000	-0,065	-0,134
-178,256	82,790	-0,148	-0,114
-177,242	11,094	-0,039	0,021
-176,227	-135,814	-0,168	-0,014
-175,212	-67,590	-0,028	-0,008
-174,198	-200,000	0,005	0,070
-173,183	-116,306	-0,126	0,016
-172,169	800,000	-0,018	-0,048
-171,154	493,499	0,058	-0,095
-170,139	133,041	-0,054	-0,050
-169,125	-3,504	0,066	-0,033
-168,110	412,397	0,059	0,089
-167,096	-200,000	0,011	-0,097
-166,081	462,883	0,079	0,126
-165,066	-200,000	-0,007	-0,051
-164,052	800,000	0,019	0,040
-163,037	800,000	-0,015	0,036
-162,023	-125,859	0,031	0,003
-161,008	-111,623	0,089	0,013
-159,993	-92,888	0,114	-0,023
-158,979	18,968	0,045	0,026
-157,964	60,812	0,041	-0,029
-156,950	800,000	-0,007	-0,016
-155,935	-37,784	0,054	-0,020
-154,920	-200,000	-0,020	-0,112
-153,906	161,347	-0,020	0,020
-152,891	44,223	-0,054	-0,035
-151,877	-200,000	0,001	0,114
-150,862	55,271	0,076	0,052
-149,847	178,241	-0,032	-0,033
-148,833	-200,000	0,034	-0,122
-147,818	540,531	0,058	0,098
-146,804	-200,000	-0,013	-0,078
-145,789	-3,358	-0,080	-0,039
-144,775	-53,127	-0,116	0,038
-143,760	175,391	-0,094	0,096
-142,745	165,502	0,010	0,010
-141,731	-102,131	-0,133	0,023
-140,716	-200,000	0,014	0,092
-139,702	-76,636	0,049	0,012
-138,687	800,000	-0,039	-0,099
-137,672	-55,717	-0,132	-0,042
-136,658	6,925	-0,035	0,019
-135,643	469,890	-0,017	0,027
-134,629	-15,179	0,054	0,024
-133,614	114,640	-0,026	-0,023
-132,599	-125,091	0,100	-0,011
-131,585	-200,000	0,032	0,119
-130,570	-66,496	0,028	-0,008
-129,556	-200,000	-0,019	-0,105
-128,541	800,000	0,039	-0,119
-127,526	63,374	-0,028	-0,020
-126,512	800,000	0,040	0,089
-125,497	-200,000	-0,013	0,108
-124,483	305,896	0,013	-0,017
-123,468	-85,464	-0,124	-0,027
-122,453	-117,113	-0,010	-0,001
-121,439	-95,395	-0,029	-0,005
-120,424	-10,006	-0,008	-0,004
-119,410	-2,785	0,139	-0,069
-118,395	-200,000	-0,017	-0,072
-117,380	164,013	0,062	0,062
-116,366	718,851	0,088	0,166
-115,351	33,872	0,010	-0,006
-114,337	-63,621	-0,058	0,017
-113,322	-104,923	-0,081	0,013
-112,307	-80,518	0,117	-0,028
-111,293	-49,841	-0,165	0,055
-110,278	357,452	0,041	-0,058
-109,264	46,613	0,093	0,061
-108,249	-200,000	-0,002	0,082
-107,234	-52,522	-0,192	-0,062
-106,220	532,053	0,031	-0,052
-105,205	-0,659	-0,107	0,054
-104,191	-200,000	-0,001	-0,072
-103,176	-200,000	0,021	0,123
-102,162	-5,621	0,116	0,056
-101,147	800,000	0,024	0,061
-100,132	800,000	-0,029	-0,087
-99,118	427,621	-0,063	-0,097
-98,103	-96,126	0,098	0,018
-97,089	96,427	0,137	0,111
-96,074	-172,920	0,071	-0,002
-95,059	-200,000	-0,013	0,068
-94,045	112,002	-0,065	0,056
-93,030	-83,353	0,044	0,010
-92,016	11,179	0,061	0,033
-91,001	-114,240	0,066	0,009
-89,986	450,757	0,031	0,049
-88,972	-5,506	-0,100	0,048
-87,957	-109,216	-0,056	0,008
-86,943	-200,000	0,001	-0,085
-85,928	-200,000	-0,001	-0,091
-84,913	258,409	0,057	0,069
-83,899	295,364	0,087	0,114
-82,884	427,953	-0,052	0,080
-81,870	-200,000	0,017	0,140
-80,855	402,844	-0,027	0,040
-79,840	228,171	0,097	0,112
-78,826	800,000	-0,050	0,132
-77,811	784,488	0,004	-0,007
-76,797	23,234	-0,048	0,028
-75,782	212,072	-0,063	-0,071
-74,767	-109,400	0,083	0,012
-73,753	131,717	-0,106	-0,097
-72,738	800,000	-0,039	-0,095
-71,724	-41,393	-0,070	0,025
-70,709	-80,308	0,081	0,019
-69,694	800,000	0,012	-0,034
-68,680	-200,000	0,009	-0,073
-67,665	800,000	0,039	0,098
-66,651	800,000	0,059	0,172
-65,636	312,423	0,011	0,015
-64,622	3,264	-0,093	-0,048
-63,607	-200,000	0,001	-0,046
-62,592	87,763	-0,118	-0,093
-61,578	800,000	0,026	-0,064
-60,563	147,026	0,051	-0,049
-59,549	302,468	-0,112	0,148
-58,534	-47,251	-1,475	-0,506
-57,519	333,572	-1,496	-2,055
-56,505	-200,000	-0,586	-4,515
-55,490	88,572	0,991	0,780
-54,476	800,000	4,863	11,308
-53,461	-200,000	17,976	286,022
-52,446	800,000	726,219	2222,741
-51,432	553,780	1642,142	2807,954
-50,417	79,453	1664,702	1263,639
-49,403	23,021	1538,316	891,586
-48,388	17,023	1461,732	818,158
-47,373	17,875	1451,747	816,640
-46,359	17,318	1442,106	808,520
-45,344	15,349	1437,366	796,434
-44,330	15,227	1435,455	794,766
-43,315	15,217	1433,941	793,845
-42,300	15,263	1432,166	793,050
-41,286	15,287	1431,103	792,543
-40,271	15,277	1429,812	791,750
-39,257	15,251	1428,513	790,879
-38,242	15,294	1427,165	790,301
-37,227	15,313	1425,845	789,631
-36,213	15,312	1424,786	789,008
-35,198	15,264	1423,673	788,133
-34,184	15,348	1422,640	787,928
-33,169	15,259	1421,608	786,905
-32,154	15,316	1420,327	786,433
-31,140	15,306	1418,992	785,616
-30,125	15,326	1417,956	785,104
-29,111	15,318	1416,692	784,339
-28,096	15,279	1415,641	783,540
-27,082	15,263	1414,531	782,821
-26,067	15,226	1413,564	782,079
-25,052	15,229	1412,337	781,384
-24,038	15,230	1411,451	780,865
-23,023	15,203	1410,494	780,178
-22,009	15,175	1409,409	779,419
-20,994	15,175	1408,518	778,892
-19,979	15,161	1407,723	778,357
-18,965	15,176	1406,640	777,800
-17,950	15,149	1405,742	777,146
-16,936	15,188	1404,574	776,651
-15,921	15,124	1403,610	775,790
-14,906	15,089	1402,759	775,123
-13,892	15,126	1401,747	774,708
-12,877	15,106	1400,858	774,093
-11,863	15,119	1400,061	773,679
-10,848	15,128	1398,992	773,099
-9,833	15,101	1398,192	772,504
-8,819	15,035	1397,307	771,676
-7,804	14,997	1396,452	770,997
-6,790	15,022	1395,139	770,361
-5,775	15,009	1394,308	769,808
-4,760	15,001	1393,451	769,270
-3,746	14,989	1392,899	768,876
-2,731	15,016	1391,833	768,383
-1,717	15,029	1390,876	767,885
-0,702	15,010	1389,051	766,759
0,313	18,844	1308,614	740,094
1,327	35,213	707,593	438,160
2,342	54,112	124,991	84,975
3,356	5,577	16,652	8,679
4,371	17,437	3,142	1,762
5,386	45,359	0,492	0,321
6,400	-200,000	0,045	0,204
7,415	59,400	-0,120	-0,084
8,429	69,557	-0,310	-0,226
9,444	224,609	-0,267	-0,306
10,459	335,797	-0,139	-0,192
11,473	-36,241	-0,332	-0,126
12,488	-83,365	-0,391	-0,088
13,502	9,862	-0,357	-0,191
14,517	104,120	-0,321	-0,267
15,531	-62,404	-0,439	-0,128
16,546	-55,634	-0,453	-0,142
17,561	139,789	-0,316	-0,294
18,575	13,859	-0,205	-0,112
19,590	240,940	-0,183	-0,216
20,604	8,444	-0,327	-0,173
21,619	77,543	-0,461	-0,346
22,634	174,311	-0,445	-0,455
23,648	58,792	-0,455	-0,316
24,663	142,844	-0,340	-0,320
25,677	15,396	-0,510	-0,282
26,692	218,531	-0,249	-0,282
27,707	60,817	-0,406	-0,284
28,721	338,153	-0,211	-0,291
29,736	55,845	-0,473	-0,323
30,750	123,919	-0,464	-0,411
31,765	33,693	-0,363	-0,223
32,780	52,674	-0,359	-0,242
33,794	78,904	-0,328	-0,247
34,809	-3,006	-0,331	-0,162
35,823	79,650	-0,348	-0,263
36,838	67,565	-0,396	-0,285
37,853	68,963	-0,393	-0,284
38,867	191,504	-0,279	-0,297
39,882	391,587	-0,191	-0,281
40,896	255,935	-0,265	-0,321
41,911	199,310	-0,186	-0,201
42,926	49,080	-0,465	-0,308
43,940	-3,930	-0,444	-0,216
44,955	108,672	-0,330	-0,278
45,969	-26,813	-0,453	-0,186
46,984	124,564	-0,329	-0,292
47,999	115,433	-0,338	-0,291
49,013	-22,301	-0,356	-0,151
50,028	151,850	-0,252	-0,242
51,042	53,494	-0,380	-0,257
52,057	48,936	-0,323	-0,213
53,071	84,566	-0,334	-0,258
54,086	2,156	-0,265	-0,134
55,101	-26,378	-0,276	-0,113
56,115	495,103	-0,249	-0,404
57,130	45,445	-0,317	-0,206
58,144	-79,214	-0,388	-0,092
59,159	36,474	-0,405	-0,251
60,174	43,384	-0,511	-0,328
61,188	107,865	-0,294	-0,247
62,203	211,260	-0,258	-0,286
63,217	1,905	-0,092	-0,047
64,232	-41,411	-0,357	-0,129
65,247	59,978	-0,429	-0,298
66,261	40,578	-0,318	-0,201
67,276	64,175	-0,387	-0,273
68,290	119,972	-0,340	-0,297
69,305	43,967	-0,274	-0,176
70,320	115,424	-0,221	-0,190
71,334	119,370	-0,351	-0,306
72,349	-37,267	-0,385	-0,144
73,363	95,500	-0,269	-0,216
74,378	34,666	-0,354	-0,217
75,393	-13,522	-0,403	-0,183
76,407	296,202	-0,229	-0,296
77,422	-31,061	-0,372	-0,147
78,436	17,794	-0,378	-0,211
79,451	165,104	-0,349	-0,347
80,466	15,885	-0,370	-0,204
81,480	66,790	-0,259	-0,185
82,495	73,870	-0,222	-0,163
83,509	59,637	-0,251	-0,174
84,524	51,627	-0,258	-0,172
85,539	94,416	-0,274	-0,219
86,553	109,423	-0,251	-0,211
87,568	-13,674	-0,292	-0,132
88,582	82,058	-0,327	-0,248
89,597	271,272	-0,200	-0,249
90,611	5,435	-0,407	-0,211
91,626	-114,877	-0,291	-0,039
92,641	168,182	-0,147	-0,147
93,655	143,178	-0,203	-0,190
94,670	103,805	-0,296	-0,244
95,684	-67,873	-0,411	-0,112
96,699	98,787	-0,283	-0,230
97,714	157,915	-0,310	-0,301
98,728	466,356	-0,219	-0,345
99,743	73,925	-0,248	-0,182
100,757	50,871	-0,166	-0,110
101,772	51,027	-0,204	-0,136
102,787	21,617	-0,328	-0,187
103,801	154,746	-0,205	-0,197
104,816	195,546	-0,240	-0,256
105,830	-15,124	-0,283	-0,127
106,845	-47,477	-0,163	-0,055
107,860	38,257	-0,339	-0,211
108,874	-23,470	-0,251	-0,105
109,889	14,195	-0,391	-0,213
110,903	34,012	-0,285	-0,174
111,918	24,964	-0,304	-0,176
112,933	67,574	-0,327	-0,234
113,947	98,374	-0,323	-0,261
114,962	80,057	-0,262	-0,197
115,976	61,754	-0,255	-0,177
116,991	-105,626	-0,375	-0,059
118,006	178,576	-0,189	-0,194
119,020	87,580	-0,199	-0,155
120,035	382,751	-0,142	-0,205
121,049	-97,155	-0,165	-0,030
122,064	34,133	-0,276	-0,168
123,079	23,500	-0,317	-0,182
124,093	176,025	-0,209	-0,212
125,108	44,438	-0,270	-0,173
126,122	283,932	-0,161	-0,203
127,137	42,669	-0,277	-0,176
128,151	-102,171	-0,152	-0,025
129,166	-77,599	-0,129	-0,031
130,181	162,509	-0,241	-0,237
131,195	59,383	-0,278	-0,191
132,210	130,532	-0,287	-0,257
133,224	99,900	-0,168	-0,136
134,239	81,624	-0,263	-0,199
135,254	601,416	-0,102	-0,178
136,268	100,595	-0,207	-0,168
137,283	-53,267	-0,218	-0,070
138,297	88,490	-0,275	-0,214
139,312	116,663	-0,293	-0,251
140,327	140,503	-0,209	-0,193
141,341	90,127	-0,233	-0,182
142,356	238,741	-0,222	-0,258
143,370	585,825	-0,144	-0,249
144,385	-70,919	-0,273	-0,071
145,400	77,954	-0,261	-0,195
146,414	119,363	-0,215	-0,186
147,429	276,895	-0,190	-0,237
148,443	189,164	-0,257	-0,269
149,458	33,055	-0,277	-0,167
150,473	-95,159	-0,229	-0,043
151,487	-86,359	-0,253	0,054
152,502	-33,272	-0,248	-0,095
153,516	214,217	-0,214	-0,236
154,531	-1,948	-0,292	-0,143
155,546	189,195	-0,217	-0,228
156,560	-92,052	-0,069	-0,013
157,575	-98,051	-0,179	-0,032
158,589	204,632	-0,249	-0,270
159,604	496,659	-0,165	-0,265
160,619	292,326	-0,237	-0,303
161,633	51,182	-0,340	-0,225
162,648	243,642	-0,152	-0,178
163,662	126,314	-0,212	-0,187
164,677	101,711	-0,120	-0,098
165,692	73,892	-0,205	-0,150
166,706	-24,979	-0,292	-0,120
167,721	353,019	-0,208	-0,289
168,735	93,729	-0,255	-0,201
169,750	426,135	-0,202	-0,305
170,764	77,858	-0,266	-0,197
171,779	-44,085	-0,152	-0,053
172,794	88,360	-0,213	-0,165
173,808	79,291	-0,270	-0,202
174,823	-123,477	-0,118	-0,013
175,837	134,449	-0,255	-0,230
176,852	249,490	-0,223	-0,265
177,867	-61,874	-0,231	-0,067
178,881	111,633	-0,212	-0,178
179,896	-200,000	-0,197	0,000
180,910	141,576	-0,196	-0,181
181,925	-31,769	-0,142	-0,055
182,940	172,189	-0,172	-0,172
183,954	158,036	-0,185	-0,179
184,969	20,259	-0,260	-0,146
185,983	185,339	-0,171	-0,177
186,998	488,513	-0,136	-0,216
188,013	-37,739	-0,201	-0,074
189,027	111,781	-0,179	-0,150
190,042	170,756	-0,279	-0,278
191,056	22,775	-0,255	-0,145
192,071	68,505	-0,211	-0,150
193,086	687,387	-0,079	-0,144
194,100	276,756	-0,185	-0,229
195,115	-84,783	-0,273	-0,059
196,129	800,000	-0,058	-0,162
197,144	274,121	-0,192	-0,238
198,159	35,425	-0,200	-0,122
199,173	36,316	-0,146	-0,089
200,188	180,557	-0,092	-0,094
201,202	134,898	-0,185	-0,167
202,217	51,925	-0,228	-0,151
203,232	-118,024	-0,207	-0,025
204,246	254,106	-0,266	-0,317
205,261	55,525	-0,222	-0,149
206,275	-74,851	-0,252	-0,062
207,290	277,340	-0,075	-0,093
208,304	-15,000	-0,145	-0,064
209,319	83,613	-0,156	-0,118
210,334	251,907	-0,156	-0,185
211,348	-69,071	-0,222	-0,059
212,363	307,380	-0,258	-0,335
213,377	190,226	-0,154	-0,161
214,392	8,622	-0,211	-0,110
215,407	146,444	-0,145	-0,136
216,421	82,971	-0,126	-0,095
217,436	113,502	-0,135	-0,114
218,450	108,168	-0,328	-0,271
219,465	377,967	-0,084	-0,119
220,480	800,000	-0,108	-0,217
221,494	190,591	-0,088	-0,092
222,509	356,020	-0,070	-0,097
223,523	91,561	-0,038	0,030
224,538	164,508	-0,123	-0,120
225,553	77,707	-0,196	-0,145
226,567	324,686	-0,190	-0,253
227,582	22,888	-0,293	-0,166
228,596	354,879	-0,194	-0,269
229,611	69,225	-0,182	-0,130
230,626	83,166	-0,115	-0,086
231,640	-10,707	-0,129	-0,059
232,655	73,962	-0,292	-0,212
233,669	609,272	-0,145	-0,251
234,684	586,867	-0,105	-0,179
235,699	800,000	0,028	-0,063
236,713	82,644	-0,270	-0,203
237,728	34,112	-0,275	-0,166
238,742	244,996	-0,203	-0,237
239,757	47,644	-0,212	-0,137
240,772	18,997	-0,101	-0,056
241,786	12,497	-0,263	-0,140
242,801	257,334	-0,106	-0,127
243,815	800,000	-0,053	-0,119
244,830	800,000	-0,072	-0,215
245,844	11,473	-0,209	-0,111
246,859	800,000	-0,055	-0,136
247,874	102,926	-0,209	-0,169
248,888	23,736	-0,182	-0,103
249,903	-98,041	-0,165	-0,029
250,917	50,284	-0,124	-0,081
251,932	257,394	-0,100	-0,119
252,947	-125,597	-0,232	-0,024
253,961	388,570	-0,196	-0,281
254,976	112,608	-0,229	-0,192
255,990	-172,908	-0,214	-0,005
257,005	-57,355	-0,077	0,023
258,020	54,328	-0,309	-0,205
259,034	-95,513	-0,152	0,028
260,049	50,726	-0,231	-0,151
261,063	123,732	-0,191	-0,166
262,078	374,928	-0,201	-0,285
263,093	167,389	-0,128	-0,126
264,107	-13,179	-0,229	-0,102
265,122	371,010	-0,116	-0,163
266,136	110,680	-0,123	-0,103
267,151	800,000	-0,101	-0,238
268,166	155,728	-0,189	-0,180
269,180	29,379	-0,194	-0,113
270,195	-45,159	-0,261	-0,089
271,209	800,000	-0,116	-0,260
272,224	-200,000	-0,080	-0,283
273,239	276,115	-0,090	-0,110
274,253	443,508	-0,097	-0,148
275,268	-66,148	-0,150	-0,041
276,282	98,057	-0,264	-0,210
277,297	611,075	-0,074	-0,129
278,312	-40,509	-0,157	-0,056
279,326	-75,318	-0,156	-0,038
280,341	-107,608	-0,138	-0,021
281,355	130,920	-0,205	-0,181
282,370	169,683	-0,100	-0,099
283,384	-125,008	-0,209	0,022
284,399	202,346	-0,198	-0,211
285,414	431,006	-0,141	-0,211
286,428	-73,976	-0,306	-0,076
287,443	65,499	-0,137	-0,096
288,457	397,245	-0,037	-0,054
289,472	453,225	-0,099	-0,152
290,487	-23,058	-0,378	-0,156
291,501	800,000	-0,084	-0,168
292,516	97,897	-0,155	-0,123
293,530	-56,527	-0,210	-0,064
294,545	431,533	-0,054	-0,080
295,560	800,000	0,043	-0,122
296,574	-96,418	-0,161	-0,029
297,589	-0,370	-0,130	-0,063
298,603	121,450	-0,164	-0,141
299,618	-19,830	-0,190	-0,081
300,633	83,914	-0,104	-0,078
301,647	63,815	-0,230	-0,159
302,662	-114,426	-0,197	-0,026
303,676	153,385	-0,162	-0,153
304,691	-200,000	-0,055	-0,181
305,706	278,627	-0,146	-0,180
306,720	117,980	-0,176	-0,149
307,735	-200,000	-0,227	0,000
308,749	-140,748	-0,057	-0,004
309,764	-27,449	-0,129	-0,052
310,779	163,568	-0,169	-0,164
311,793	328,207	-0,128	-0,169
312,808	-4,849	-0,137	-0,065
313,822	-124,760	-0,222	-0,023
314,837	-9,473	-0,169	0,077
315,852	-108,075	-0,150	-0,022
316,866	-82,681	-0,057	-0,013
317,881	-200,000	0,008	-0,041
318,895	91,819	-0,061	-0,047
319,910	139,491	-0,184	-0,167
320,925	81,590	-0,155	-0,115
321,939	800,000	-0,121	-0,290
322,954	-85,228	-0,225	-0,048
323,968	60,892	-0,090	-0,061
324,983	27,232	-0,148	-0,085
325,997	-74,836	-0,148	0,036
327,012	-200,000	-0,036	-0,129
328,027	-28,360	-0,204	-0,081
329,041	89,208	-0,132	-0,101
330,056	111,600	-0,211	-0,175
331,070	278,567	-0,089	-0,110
332,085	11,077	-0,178	-0,094
333,100	-93,487	-0,146	-0,028
334,114	46,789	-0,217	-0,138
335,129	152,253	-0,156	-0,147
336,143	47,015	-0,139	-0,089
337,158	545,949	-0,074	-0,122
338,173	138,783	-0,160	-0,144
339,187	75,124	-0,116	0,084
340,202	36,905	-0,143	-0,087
341,216	-6,141	-0,203	-0,095
342,231	159,696	-0,119	-0,114
343,246	90,327	-0,159	-0,122
344,260	368,495	-0,154	-0,215
345,275	130,597	-0,120	-0,105
346,289	-200,000	-0,014	0,083
347,304	-51,675	-0,213	-0,068
348,319	-141,412	-0,154	0,011
349,333	3,341	-0,227	-0,113
350,348	482,584	-0,104	-0,163
351,362	458,592	-0,154	-0,236
352,377	-200,000	0,006	-0,080
353,392	-200,000	-0,001	-0,079
354,406	517,997	-0,082	-0,132
355,421	207,082	1321,008	1415,283
356,435	159,279	1482,523	1415,778
