DTS Sentinel unit serial number:	SN410029Multiplexer serial number:	ORYXHardware model number:	OX2-SRSoftware version number:	ORYX F/W v4,00 Oryx Data Collector v3.7.2.0data status	okinstallation	B3 Nyhavnadifferential loss correction	single-endedforward channel	channel 1reverse channel	N/Adate	2023/12/02time	20:07:30forward acquisition time	300,00reverse acquisition time	0,00gamma	499,1914k internal	0,3201k external	0,3201temperature offset calibration	1,0000default loss term (dB/km)	0,3820temperature slope calibration	1,0000multiplexer offset coefficient	1,0000multiplexer slope coefficient	1,0000fibre end	0,00T internal ref (°C)	13,30T ext. ref 1 (°C)	-1,81T ext. ref 2 (°C)	-1,81length (m)	temperature (°C)	Stokes	anti-Stokes-744,400	694,299	-0,152	-0,290
-743,385	-200,000	0,025	0,259
-742,371	164,262	-0,190	-0,195
-741,356	584,229	0,173	0,309
-740,342	264,671	-0,080	-0,101
-739,327	-200,000	0,026	0,344
-738,312	585,782	-0,178	-0,320
-737,298	800,000	0,083	0,249
-736,283	238,299	-0,160	-0,193
-735,269	-200,000	-0,047	0,173
-734,254	-200,000	-0,047	-0,221
-733,239	52,650	-0,156	0,108
-732,225	800,000	-0,111	-0,235
-731,210	264,889	0,081	0,103
-730,196	364,923	-0,069	-0,101
-729,181	-29,937	-0,113	-0,047
-728,167	-200,000	-0,003	-0,015
-727,152	411,481	-0,087	-0,134
-726,137	-73,453	-0,219	0,058
-725,123	-200,000	-0,026	0,111
-724,108	-200,000	-0,076	-0,244
-723,094	32,663	-0,166	-0,104
-722,079	441,514	0,050	0,079
-721,064	800,000	-0,020	-0,052
-720,050	-200,000	-0,054	-0,243
-719,035	-200,000	0,002	0,086
-718,021	-1,988	-0,015	-0,008
-717,006	97,827	-0,128	-0,107
-715,991	-20,089	-0,097	-0,043
-714,977	-54,038	-0,100	0,033
-713,962	197,544	0,030	-0,033
-712,948	89,976	0,086	0,070
-711,933	18,759	0,054	0,031
-710,918	244,947	-0,117	0,143
-709,904	800,000	-0,059	-0,155
-708,889	-116,139	-0,102	-0,014
-707,875	-61,284	-0,123	-0,037
-706,860	191,472	0,086	-0,094
-705,845	-114,322	-0,103	0,014
-704,831	26,858	-0,054	0,033
-703,816	-200,000	0,000	-0,086
-702,802	44,210	-0,104	-0,069
-701,787	211,869	-0,063	-0,072
-700,772	-93,879	-0,099	0,020
-699,758	108,945	-0,051	-0,045
-698,743	-200,000	-0,041	0,206
-697,729	-200,000	-0,018	0,160
-696,714	-17,911	0,167	0,076
-695,699	800,000	-0,047	-0,099
-694,685	800,000	-0,059	-0,147
-693,670	-200,000	-0,025	-0,131
-692,656	10,287	0,071	0,039
-691,641	215,383	-0,020	-0,023
-690,627	-135,535	-0,007	-0,001
-689,612	-173,006	-0,040	-0,001
-688,597	-169,909	-0,056	0,001
-687,583	293,958	-0,077	-0,102
-686,568	-200,000	-0,001	0,011
-685,554	-39,835	-0,074	-0,028
-684,539	81,310	0,079	0,062
-683,524	-19,838	-0,112	-0,050
-682,510	93,725	-0,147	-0,121
-681,495	-29,394	-0,168	-0,069
-680,481	-49,530	-0,112	-0,039
-679,466	681,326	0,079	-0,151
-678,451	-176,618	-0,069	-0,001
-677,437	-200,000	-0,004	0,043
-676,422	-200,000	-0,019	-0,107
-675,408	263,390	-0,048	0,061
-674,393	227,569	-0,095	0,113
-673,378	-45,750	-0,040	0,014
-672,364	-60,186	0,035	0,011
-671,349	42,310	-0,100	-0,066
-670,335	-33,277	-0,066	-0,027
-669,320	24,423	-0,026	0,015
-668,305	-200,000	0,002	0,048
-667,291	-200,000	-0,003	-0,030
-666,276	800,000	-0,063	-0,168
-665,262	-78,210	-0,052	-0,013
-664,247	-33,158	-0,053	-0,021
-663,232	-200,000	-0,009	-0,158
-662,218	-50,227	0,064	0,022
-661,203	-200,000	0,021	0,096
-660,189	-200,000	-0,024	-0,137
-659,174	58,508	0,058	-0,041
-658,159	-55,052	-0,178	-0,058
-657,145	98,742	0,025	0,021
-656,130	-120,677	0,066	-0,008
-655,116	-103,147	0,028	0,005
-654,101	143,875	0,054	-0,052
-653,086	-7,235	0,013	0,006
-652,072	-200,000	-0,055	-0,256
-651,057	-200,000	0,033	-0,147
-650,043	75,064	0,052	-0,040
-649,028	-155,367	-0,053	0,002
-648,014	-200,000	-0,005	-0,070
-646,999	-92,234	0,041	0,008
-645,984	-92,271	-0,007	0,001
-644,970	800,000	-0,028	-0,070
-643,955	800,000	-0,037	-0,083
-642,941	5,080	-0,048	-0,026
-641,926	-115,324	-0,043	-0,006
-640,911	70,771	0,036	-0,027
-639,897	-200,000	-0,007	-0,069
-638,882	30,210	0,104	-0,064
-637,868	489,794	-0,033	-0,055
-636,853	169,866	-0,078	-0,081
-635,838	-13,634	-0,137	-0,064
-634,824	-27,534	-0,071	0,030
-633,809	-90,261	0,130	-0,027
-632,795	-200,000	0,005	-0,096
-631,780	439,298	-0,027	-0,043
-630,765	800,000	0,026	-0,063
-629,751	68,058	-0,052	-0,038
-628,736	590,102	-0,029	-0,052
-627,722	259,447	-0,071	-0,089
-626,707	118,655	0,100	-0,089
-625,692	-21,829	-0,131	-0,058
-624,678	-134,154	0,041	0,004
-623,663	-105,149	-0,031	0,005
-622,649	-200,000	-0,016	-0,078
-621,634	-200,000	-0,001	-0,094
-620,619	-200,000	0,009	-0,206
-619,605	-6,951	-0,098	0,048
-618,590	800,000	0,023	0,056
-617,576	800,000	0,030	0,062
-616,561	800,000	0,034	-0,072
-615,546	79,356	0,092	-0,071
-614,532	-200,000	0,018	-0,076
-613,517	800,000	-0,065	-0,160
-612,503	393,678	-0,057	-0,086
-611,488	43,072	0,110	0,073
-610,474	66,936	-0,107	-0,079
-609,459	28,806	-0,051	0,031
-608,444	273,121	-0,022	-0,029
-607,430	-200,000	-0,036	-0,149
-606,415	-39,392	0,175	-0,066
-605,401	-97,153	-0,079	-0,015
-604,386	-140,408	0,122	-0,009
-603,371	-196,539	0,144	0,001
-602,357	-200,000	0,001	0,061
-601,342	-200,000	0,012	-0,158
-600,328	-200,000	-0,013	0,085
-599,313	-67,918	0,114	-0,032
-598,298	40,937	-0,093	0,061
-597,284	-1,702	0,100	-0,051
-596,269	-200,000	0,025	0,101
-595,255	-56,025	-0,074	-0,024
-594,240	466,785	0,077	0,125
-593,225	13,058	-0,112	-0,063
-592,211	-200,000	-0,019	-0,091
-591,196	-98,591	-0,129	0,024
-590,182	47,650	0,149	0,101
-589,167	-119,928	0,090	0,011
-588,152	-200,000	-0,011	0,106
-587,138	57,189	-0,224	-0,158
-586,123	-54,213	-0,148	-0,048
-585,109	15,503	-0,029	0,017
-584,094	110,948	-0,072	-0,063
-583,079	243,784	0,072	-0,088
-582,065	18,958	0,073	-0,042
-581,050	-160,397	0,137	0,005
-580,036	-200,000	0,017	-0,088
-579,021	128,660	0,012	-0,011
-578,006	126,588	-0,094	-0,086
-576,992	-28,448	0,029	-0,012
-575,977	159,212	0,037	-0,037
-574,963	-6,911	-0,036	0,018
-573,948	66,484	-0,135	0,099
-572,934	158,389	-0,030	-0,030
-571,919	609,364	0,033	0,060
-570,904	668,725	-0,020	0,037
-569,890	-131,019	-0,023	-0,002
-568,875	-200,000	-0,008	-0,113
-567,861	466,720	0,051	0,083
-566,846	299,157	-0,016	-0,021
-565,831	-47,095	-0,100	0,035
-564,817	195,215	-0,026	-0,029
-563,802	-200,000	0,005	-0,221
-562,788	251,241	-0,041	-0,051
-561,773	92,844	-0,156	-0,127
-560,758	92,770	0,050	0,041
-559,744	-6,939	-0,051	-0,025
-558,729	-185,316	-0,017	-0,000
-557,715	275,408	-0,038	-0,049
-556,700	-156,139	-0,108	-0,005
-555,685	54,248	0,075	-0,052
-554,671	-5,442	0,068	0,033
-553,656	-200,000	-0,005	0,072
-552,642	-42,314	0,145	-0,053
-551,627	235,756	0,023	0,028
-550,612	635,814	-0,039	0,071
-549,598	-200,000	0,042	-0,150
-548,583	-99,130	-0,139	0,025
-547,569	1,867	0,075	-0,039
-546,554	800,000	0,017	-0,038
-545,539	82,718	-0,051	0,040
-544,525	-18,916	0,059	0,026
-543,510	-99,096	0,026	0,005
-542,496	109,945	-0,113	-0,098
-541,481	-200,000	-0,006	0,059
-540,466	75,059	-0,085	-0,064
-539,452	7,090	0,126	-0,067
-538,437	106,248	0,113	0,096
-537,423	-200,000	-0,002	-0,053
-536,408	-84,128	-0,160	0,036
-535,393	327,940	-0,049	-0,068
-534,379	-184,050	-0,089	-0,001
-533,364	-141,270	-0,088	0,006
-532,350	-71,516	0,029	0,008
-531,335	-51,597	0,120	0,040
-530,321	-130,377	0,137	0,013
-529,306	800,000	-0,072	0,148
-528,291	74,414	0,089	-0,067
-527,277	-200,000	0,012	-0,069
-526,262	-200,000	-0,007	0,028
-525,248	424,408	-0,073	0,113
-524,233	36,268	0,030	0,019
-523,218	91,566	-0,052	0,042
-522,204	178,738	-0,071	-0,075
-521,189	572,804	0,020	-0,036
-520,175	62,800	-0,069	0,049
-519,160	-104,005	-0,116	0,019
-518,145	-70,862	-0,075	-0,020
-517,131	-41,456	-0,078	-0,029
-516,116	-200,000	-0,001	-0,102
-515,102	-200,000	-0,016	0,056
-514,087	-42,761	-0,149	-0,054
-513,072	26,758	-0,155	-0,093
-512,058	-200,000	0,017	-0,080
-511,043	-200,000	-0,051	0,162
-510,029	-200,000	-0,010	0,051
-509,014	446,285	0,046	0,074
-507,999	-134,180	0,107	-0,009
-506,985	18,635	-0,043	-0,025
-505,970	800,000	0,042	-0,084
-504,956	123,310	-0,081	-0,073
-503,941	-200,000	0,007	-0,042
-502,926	324,416	0,055	-0,076
-501,912	18,503	0,083	0,048
-500,897	452,146	0,014	-0,022
-499,883	-200,000	-0,001	-0,143
-498,868	27,348	-0,098	-0,059
-497,853	800,000	-0,055	-0,155
-496,839	-200,000	-0,017	-0,073
-495,824	-10,266	0,060	0,029
-494,810	209,576	0,112	0,127
-493,795	-124,525	-0,095	0,011
-492,781	82,675	0,066	-0,052
-491,766	121,485	-0,057	0,052
-490,751	-96,711	0,113	0,021
-489,737	602,745	0,020	-0,035
-488,722	269,779	0,079	-0,101
-487,708	293,673	-0,093	-0,123
-486,693	437,536	0,079	0,125
-485,678	-109,852	0,164	0,025
-484,664	424,084	0,102	-0,159
-483,649	13,785	0,066	-0,037
-482,635	-138,204	-0,015	-0,001
-481,620	800,000	0,035	0,071
-480,605	800,000	-0,063	0,165
-479,591	447,232	0,085	0,135
-478,576	-152,582	-0,066	0,003
-477,562	-200,000	0,006	0,065
-476,547	-160,230	-0,065	-0,003
-475,532	800,000	0,108	0,225
-474,518	403,749	0,012	-0,019
-473,503	-200,000	0,022	0,082
-472,489	-66,771	0,150	0,043
-471,474	400,595	0,006	-0,010
-470,459	-200,000	0,003	0,026
-469,445	-200,000	0,033	-0,159
-468,430	-200,000	0,006	-0,024
-467,416	800,000	0,022	0,050
-466,401	-200,000	0,010	0,080
-465,386	-76,652	0,065	0,016
-464,372	-200,000	-0,024	0,087
-463,357	-100,363	0,017	0,003
-462,343	-200,000	0,005	-0,225
-461,328	-75,949	-0,025	0,006
-460,313	101,573	0,070	0,059
-459,299	-113,647	0,136	0,019
-458,284	-95,824	0,056	-0,011
-457,270	800,000	-0,021	0,049
-456,255	190,632	-0,084	-0,091
-455,241	136,985	0,093	-0,087
-454,226	163,432	0,140	0,141
-453,211	191,014	-0,086	0,094
-452,197	-200,000	0,023	0,086
-451,182	-88,874	0,210	0,044
-450,168	-200,000	0,003	0,037
-449,153	800,000	-0,063	-0,129
-448,138	800,000	-0,050	-0,126
-447,124	-125,524	0,132	-0,014
-446,109	276,533	0,102	-0,130
-445,095	-200,000	0,004	0,060
-444,080	-200,000	-0,003	-0,066
-443,065	800,000	0,026	-0,081
-442,051	-51,867	0,077	0,026
-441,036	-200,000	0,019	-0,097
-440,022	-12,240	-0,066	-0,031
-439,007	598,562	-0,089	-0,159
-437,992	-27,171	0,053	0,022
-436,978	-200,000	0,035	0,239
-435,963	216,952	-0,061	0,070
-434,949	396,511	0,045	-0,068
-433,934	78,974	0,131	-0,101
-432,919	-7,195	-0,105	0,051
-431,905	-200,000	0,032	-0,165
-430,890	-70,499	-0,030	0,008
-429,876	138,497	0,106	0,100
-428,861	-200,000	0,004	-0,076
-427,846	248,153	0,054	-0,065
-426,832	-59,740	-0,085	-0,026
-425,817	87,905	-0,099	0,079
-424,803	-40,824	0,088	-0,033
-423,788	169,636	-0,041	-0,042
-422,773	132,286	0,116	0,108
-421,759	800,000	-0,031	-0,076
-420,744	70,071	-0,070	-0,052
-419,730	44,720	0,069	0,046
-418,715	244,969	-0,082	-0,100
-417,701	8,768	0,043	0,023
-416,686	432,204	0,023	-0,036
-415,671	98,013	0,077	0,064
-414,657	1,745	0,118	0,061
-413,642	-200,000	-0,009	-0,029
-412,628	76,320	-0,057	0,044
-411,613	22,758	-0,116	-0,068
-410,598	637,528	-0,041	-0,075
-409,584	288,739	-0,091	-0,118
-408,569	-178,726	0,164	0,003
-407,555	489,876	-0,052	0,085
-406,540	25,998	0,026	0,015
-405,525	-119,808	-0,100	-0,012
-404,511	374,279	0,010	0,014
-403,496	398,276	0,182	-0,274
-402,482	-49,267	0,076	-0,026
-401,467	-200,000	-0,001	0,179
-400,452	499,408	0,054	0,089
-399,438	800,000	-0,026	-0,079
-398,423	12,310	-0,055	-0,031
-397,409	-112,890	-0,088	-0,012
-396,394	800,000	-0,056	-0,142
-395,379	-200,000	-0,021	0,106
-394,365	212,203	0,042	0,047
-393,350	-30,385	-0,077	0,031
-392,336	33,352	0,044	0,027
-391,321	361,463	-0,068	0,098
-390,306	60,471	-0,066	-0,047
-389,292	-6,620	-0,095	-0,046
-388,277	-200,000	0,007	-0,069
-387,263	8,046	-0,016	-0,008
-386,248	-200,000	-0,016	-0,072
-385,233	-200,000	0,007	0,043
-384,219	800,000	-0,009	-0,023
-383,204	-8,083	-0,069	-0,033
-382,190	-200,000	-0,036	0,252
-381,175	31,043	0,045	-0,027
-380,160	65,935	0,146	-0,106
-379,146	-80,457	0,087	0,021
-378,131	401,948	-0,106	0,160
-377,117	2,197	0,152	0,078
-376,102	-54,017	-0,169	-0,055
-375,088	-4,295	0,153	-0,076
-374,073	800,000	0,042	-0,101
-373,058	-47,827	0,046	0,016
-372,044	-123,853	0,104	0,012
-371,029	132,268	0,104	0,096
-370,015	41,762	0,104	0,068
-369,000	7,005	0,065	-0,034
-367,985	800,000	-0,009	0,024
-366,971	-3,364	-0,085	0,042
-365,956	365,797	0,135	0,195
-364,942	321,090	0,009	-0,013
-363,927	141,892	0,111	0,105
-362,912	561,750	-0,073	0,128
-361,898	27,252	-0,087	-0,052
-360,883	52,532	0,094	-0,064
-359,869	317,721	-0,049	-0,066
-358,854	-147,905	-0,044	0,003
-357,839	-200,000	-0,002	0,038
-356,825	-129,724	-0,072	0,007
-355,810	333,248	0,076	0,106
-354,796	230,284	-0,073	-0,086
-353,781	-200,000	-0,053	-0,170
-352,766	180,400	0,052	-0,054
-351,752	83,413	-0,055	-0,043
-350,737	-200,000	0,001	0,054
-349,723	-200,000	0,019	0,112
-348,708	253,403	0,050	0,061
-347,693	800,000	0,018	-0,050
-346,679	-113,940	-0,140	-0,019
-345,664	344,869	0,068	-0,096
-344,650	-95,067	-0,146	0,028
-343,635	-93,030	0,066	0,013
-342,620	-200,000	0,001	-0,195
-341,606	-32,253	0,077	-0,031
-340,591	135,209	-0,047	0,044
-339,577	60,725	-0,106	-0,075
-338,562	-1,632	0,029	0,014
-337,548	800,000	0,002	-0,004
-336,533	144,595	0,078	0,075
-335,518	-130,018	0,096	0,009
-334,504	-25,124	-0,043	-0,018
-333,489	-200,000	-0,006	0,020
-332,475	312,689	0,031	0,042
-331,460	-200,000	-0,022	-0,111
-330,445	-14,010	0,177	-0,081
-329,431	-72,075	0,050	0,013
-328,416	-200,000	-0,014	0,059
-327,402	-43,241	-0,060	-0,022
-326,387	800,000	-0,044	-0,093
-325,372	-73,515	-0,075	0,019
-324,358	-33,604	-0,037	-0,015
-323,343	-47,107	0,096	0,033
-322,329	428,694	-0,019	0,030
-321,314	-7,278	0,044	0,021
-320,299	-4,473	-0,048	-0,024
-319,285	123,527	-0,017	-0,015
-318,270	-200,000	-0,013	-0,063
-317,256	-97,539	-0,110	-0,020
-316,241	-50,663	0,094	0,032
-315,226	800,000	-0,025	0,064
-314,212	-4,672	0,046	-0,023
-313,197	800,000	0,039	0,116
-312,183	519,907	-0,055	-0,093
-311,168	-41,035	-0,016	-0,006
-310,153	19,180	-0,092	-0,053
-309,139	4,972	0,060	0,032
-308,124	-75,802	-0,027	0,007
-307,110	102,282	0,038	-0,032
-306,095	800,000	0,033	0,069
-305,080	-200,000	0,015	0,065
-304,066	-140,811	-0,086	-0,006
-303,051	35,747	0,034	-0,021
-302,037	-36,573	-0,063	-0,024
-301,022	-163,395	-0,024	0,001
-300,008	83,470	0,030	-0,024
-298,993	800,000	0,036	0,073
-297,978	-200,000	0,031	0,158
-296,964	-63,915	-0,032	0,009
-295,949	120,751	-0,123	-0,109
-294,935	108,594	0,080	0,068
-293,920	84,505	-0,200	0,156
-292,905	-200,000	0,002	0,084
-291,891	46,138	0,103	0,068
-290,876	-200,000	0,011	0,119
-289,862	189,604	0,014	0,015
-288,847	155,246	-0,107	-0,106
-287,832	-200,000	0,004	-0,277
-286,818	-141,887	-0,191	0,013
-285,803	-200,000	-0,001	0,043
-284,789	-74,590	0,033	-0,008
-283,774	-200,000	0,041	0,132
-282,759	-126,649	-0,085	0,009
-281,745	-161,703	0,099	0,004
-280,730	-43,510	-0,057	-0,020
-279,716	223,922	0,039	-0,045
-278,701	-144,908	0,048	0,003
-277,686	-119,188	-0,083	0,010
-276,672	-103,791	-0,054	-0,009
-275,657	800,000	0,065	0,183
-274,643	664,233	-0,055	0,101
-273,628	209,784	0,073	-0,082
-272,613	-200,000	-0,025	-0,079
-271,599	45,529	-0,094	-0,062
-270,584	-200,000	0,017	0,066
-269,570	433,700	0,090	0,140
-268,555	275,330	0,026	-0,032
-267,540	-96,530	-0,024	-0,005
-266,526	800,000	-0,032	0,088
-265,511	254,414	0,114	0,140
-264,497	-200,000	-0,027	0,173
-263,482	-12,241	0,081	0,038
-262,467	374,825	0,084	0,122
-261,453	108,968	-0,106	0,090
-260,438	606,976	-0,016	-0,029
-259,424	764,400	0,045	0,087
-258,409	216,103	0,013	-0,015
-257,395	-70,362	0,137	0,037
-256,380	384,099	-0,081	0,120
-255,365	154,867	0,066	0,065
-254,351	330,045	0,039	0,053
-253,336	113,406	-0,121	-0,104
-252,322	576,092	0,049	-0,086
-251,307	-200,000	0,012	0,065
-250,292	-134,999	-0,048	-0,004
-249,278	-123,034	-0,077	0,009
-248,263	81,448	0,166	0,128
-247,249	101,537	-0,079	0,066
-246,234	153,366	-0,024	-0,024
-245,219	67,838	0,075	0,054
-244,205	-64,865	-0,054	-0,015
-243,190	-128,115	0,031	-0,003
-242,176	-200,000	-0,002	0,149
-241,161	800,000	0,032	0,098
-240,146	65,265	-0,090	0,065
-239,132	-92,903	0,041	0,008
-238,117	-146,796	-0,042	0,003
-237,103	272,823	-0,034	-0,042
-236,088	737,993	-0,067	0,128
-235,073	299,016	0,099	0,130
-234,059	181,995	0,056	-0,059
-233,044	-200,000	0,009	0,102
-232,030	-200,000	-0,027	0,119
-231,015	122,493	0,101	-0,090
-230,000	-200,000	0,001	0,092
-228,986	154,943	-0,033	0,032
-227,971	494,942	0,063	-0,103
-226,957	-200,000	-0,013	-0,068
-225,942	38,058	-0,080	0,051
-224,927	255,436	-0,066	0,080
-223,913	-200,000	-0,009	-0,051
-222,898	-200,000	-0,084	0,285
-221,884	-27,288	0,089	0,037
-220,869	-200,000	-0,025	-0,088
-219,855	-13,067	-0,086	0,040
-218,840	-118,390	-0,048	0,006
-217,825	-200,000	-0,005	-0,064
-216,811	-10,561	0,028	0,013
-215,796	347,120	-0,080	0,113
-214,782	-200,000	0,003	0,072
-213,767	-200,000	0,018	-0,084
-212,752	-200,000	-0,002	0,083
-211,738	-36,271	-0,116	0,044
-210,723	-200,000	-0,019	-0,071
-209,709	-52,912	0,041	0,013
-208,694	467,743	-0,017	-0,028
-207,679	-200,000	-0,030	-0,110
-206,665	-48,664	-0,050	-0,017
-205,650	-92,286	0,124	0,025
-204,636	-110,175	0,014	0,002
-203,621	800,000	-0,040	0,099
-202,606	170,439	-0,011	0,011
-201,592	340,086	-0,037	-0,052
-200,577	800,000	-0,046	-0,107
-199,563	95,428	-0,078	-0,063
-198,548	483,698	0,047	0,076
-197,533	498,638	0,069	0,114
-196,519	36,229	0,025	-0,016
-195,504	44,620	-0,086	0,056
-194,490	-38,759	-0,044	0,017
-193,475	-141,437	0,086	-0,006
-192,460	-28,184	-0,034	-0,014
-191,446	324,075	0,062	-0,085
-190,431	-200,000	0,011	0,097
-189,417	655,580	-0,044	0,080
-188,402	-200,000	0,035	-0,121
-187,387	800,000	-0,061	-0,140
-186,373	-44,316	0,041	-0,014
-185,358	-10,981	0,058	0,027
-184,344	164,582	0,095	-0,096
-183,329	-101,457	-0,081	0,014
-182,315	147,509	-0,044	-0,042
-181,300	345,498	0,034	-0,047
-180,285	192,503	-0,074	-0,079
-179,271	415,486	-0,008	0,012
-178,256	340,568	-0,121	0,169
-177,242	339,747	0,017	0,023
-176,227	-43,687	0,033	-0,012
-175,212	369,166	0,032	-0,046
-174,198	-200,000	-0,008	0,041
-173,183	127,582	-0,077	0,069
-172,169	407,895	-0,061	-0,091
-171,154	429,270	0,024	0,037
-170,139	550,235	-0,104	0,178
-169,125	390,196	-0,081	0,120
-168,110	-192,267	-0,080	0,001
-167,096	800,000	-0,005	-0,012
-166,081	-43,528	0,099	-0,035
-165,066	257,858	-0,062	0,076
-164,052	-200,000	-0,014	-0,090
-163,037	-49,687	0,047	-0,016
-162,023	292,968	0,069	0,090
-161,008	189,921	0,035	0,037
-159,993	183,791	0,065	0,068
-158,979	-200,000	0,011	0,101
-157,964	284,137	0,034	0,043
-156,950	-200,000	0,033	0,115
-155,935	-200,000	-0,003	0,047
-154,920	574,989	-0,039	0,067
-153,906	-200,000	0,002	0,127
-152,891	-114,436	0,102	0,014
-151,877	-200,000	0,003	0,076
-150,862	327,934	0,078	-0,107
-149,847	250,246	-0,038	0,046
-148,833	89,793	-0,064	-0,051
-147,818	-121,115	0,068	-0,008
-146,804	-200,000	-0,002	0,045
-145,789	-117,662	0,084	0,011
-144,775	329,102	-0,025	0,034
-143,760	314,013	-0,087	-0,116
-142,745	13,087	-0,087	-0,047
-141,731	800,000	-0,027	0,054
-140,716	380,772	-0,046	0,068
-139,702	267,793	-0,079	0,098
-138,687	-200,000	0,045	0,143
-137,672	-49,744	-0,040	-0,014
-136,658	-12,613	-0,150	-0,069
-135,643	-200,000	-0,007	-0,182
-134,629	43,773	0,087	-0,056
-133,614	9,000	0,060	0,032
-132,599	81,985	0,052	-0,040
-131,585	-171,493	-0,136	-0,003
-130,570	-200,000	0,044	0,175
-129,556	709,199	-0,060	-0,113
-128,541	684,996	-0,021	-0,039
-127,526	800,000	-0,033	-0,081
-126,512	800,000	-0,049	-0,133
-125,497	-77,498	0,110	0,027
-124,483	-200,000	-0,028	0,173
-123,468	167,526	-0,038	-0,038
-122,453	-41,270	-0,073	0,026
-121,439	800,000	0,017	0,040
-120,424	-68,482	-0,031	-0,008
-119,410	705,789	0,041	0,077
-118,395	-84,999	0,145	-0,032
-117,380	203,919	-0,055	-0,061
-116,366	115,772	0,065	0,057
-115,351	321,744	-0,018	-0,025
-114,337	-77,357	-0,271	0,066
-113,322	-200,000	-0,004	-0,111
-112,307	-103,917	0,185	-0,030
-111,293	528,699	0,051	0,086
-110,278	-79,986	0,061	0,015
-109,264	117,297	0,034	0,030
-108,249	-200,000	-0,013	-0,113
-107,234	-137,613	-0,104	-0,008
-106,220	596,925	0,013	-0,023
-105,205	800,000	0,004	-0,011
-104,191	-25,615	0,133	-0,055
-103,176	127,029	0,078	0,070
-102,162	-21,880	-0,109	0,047
-101,147	402,527	-0,108	-0,161
-100,132	225,645	0,034	0,040
-99,118	-200,000	-0,002	0,011
-98,103	-200,000	-0,042	-0,162
-97,089	-39,744	0,180	-0,066
-96,074	-200,000	0,005	0,036
-95,059	-1,365	-0,101	0,050
-94,045	42,213	0,037	-0,024
-93,030	-123,131	-0,123	-0,014
-92,016	257,809	0,021	-0,026
-91,001	-200,000	-0,006	0,025
-89,986	-200,000	-0,001	0,138
-88,972	119,671	0,045	0,039
-87,957	-60,769	0,065	-0,019
-86,943	22,581	0,038	-0,022
-85,928	402,752	0,086	-0,129
-84,913	161,306	-0,103	-0,102
-83,899	-200,000	0,008	0,042
-82,884	-200,000	-0,024	0,161
-81,870	-98,468	0,089	-0,016
-80,855	45,122	0,101	-0,066
-79,840	-62,626	-0,090	0,026
-78,826	669,134	-0,080	-0,148
-77,811	166,587	0,049	-0,049
-76,797	57,282	0,142	-0,098
-75,782	349,770	0,061	-0,086
-74,767	4,621	0,106	0,055
-73,753	42,798	0,048	0,031
-72,738	158,653	-0,062	0,061
-71,724	-163,530	0,106	0,003
-70,709	25,317	-0,031	0,018
-69,694	-200,000	-0,003	0,030
-68,680	43,683	0,156	-0,101
-67,665	-188,276	0,103	0,001
-66,651	50,016	0,058	0,039
-65,636	-130,047	0,051	0,005
-64,622	800,000	-0,054	-0,151
-63,607	-114,196	-0,128	-0,017
-62,592	255,655	0,060	-0,073
-61,578	800,000	0,042	-0,101
-60,563	45,615	-0,040	-0,026
-59,549	800,000	0,019	0,056
-58,534	-12,095	-1,585	-0,732
-57,519	423,361	-1,358	-2,074
-56,505	-200,000	-0,523	-4,553
-55,490	145,578	1,001	0,950
-54,476	800,000	4,862	11,398
-53,461	-200,000	19,199	320,244
-52,446	-200,000	741,271	2334,319
-51,432	572,634	1655,882	2868,416
-50,417	78,248	1671,158	1261,784
-49,403	21,284	1544,248	885,741
-48,388	15,182	1466,532	811,484
-47,373	17,955	1456,906	819,533
-46,359	16,637	1446,747	807,464
-45,344	13,427	1441,951	789,374
-44,330	13,338	1439,995	787,847
-43,315	13,369	1438,325	787,050
-42,300	13,381	1436,591	786,129
-41,286	13,355	1435,620	785,440
-40,271	13,309	1434,177	784,399
-39,257	13,338	1432,726	783,715
-38,242	13,389	1431,551	783,284
-37,227	13,405	1430,131	782,551
-36,213	13,363	1429,114	781,766
-35,198	13,399	1427,834	781,203
-34,184	13,431	1426,816	780,765
-33,169	13,388	1425,663	779,899
-32,154	13,449	1424,300	779,414
-31,140	13,419	1423,129	778,598
-30,125	13,461	1422,192	778,255
-29,111	13,423	1421,009	777,399
-28,096	13,380	1419,939	776,580
-27,082	13,301	1418,823	775,566
-26,067	13,343	1417,618	775,074
-25,052	13,333	1416,528	774,399
-24,038	13,314	1415,715	773,834
-23,023	13,325	1414,498	773,189
-22,009	13,315	1413,574	772,608
-20,994	13,233	1412,868	771,804
-19,979	13,249	1411,932	771,340
-18,965	13,269	1411,036	770,912
-17,950	13,276	1409,876	770,279
-16,936	13,313	1408,848	769,860
-15,921	13,246	1407,730	768,905
-14,906	13,272	1406,966	768,582
-13,892	13,253	1406,036	767,952
-12,877	13,264	1405,172	767,503
-11,863	13,252	1404,241	766,908
-10,848	13,243	1403,456	766,406
-9,833	13,204	1402,532	765,690
-8,819	13,168	1401,705	765,039
-7,804	13,100	1400,907	764,256
-6,790	13,119	1399,678	763,646
-5,775	13,207	1398,740	763,514
-4,760	13,194	1397,573	762,786
-3,746	13,099	1396,908	761,950
-2,731	13,131	1395,925	761,533
-1,717	13,105	1395,128	760,946
-0,702	13,094	1393,467	759,961
0,313	16,930	1310,068	732,248
1,327	33,145	703,808	430,868
2,342	50,931	123,160	82,446
3,356	3,312	16,553	8,498
4,371	-2,953	3,263	1,606
5,386	-6,623	0,662	0,318
6,400	-200,000	0,025	0,285
7,415	-39,381	-0,275	-0,102
8,429	-7,134	-0,324	-0,155
9,444	103,255	-0,335	-0,278
10,459	-17,029	-0,193	-0,086
11,473	339,523	-0,204	-0,282
12,488	0,690	-0,160	-0,081
13,502	204,107	-0,217	-0,237
14,517	138,640	-0,318	-0,295
15,531	52,156	-0,401	-0,270
16,546	77,487	-0,308	-0,231
17,561	182,334	-0,376	-0,392
18,575	-85,794	-0,198	-0,043
19,590	177,749	-0,294	-0,303
20,604	192,947	-0,206	-0,220
21,619	91,608	-0,398	-0,316
22,634	53,789	-0,412	-0,279
23,648	56,746	-0,406	-0,279
24,663	17,982	-0,372	-0,209
25,677	30,768	-0,405	-0,244
26,692	200,914	-0,287	-0,312
27,707	26,292	-0,388	-0,228
28,721	272,358	-0,312	-0,389
29,736	58,497	-0,496	-0,343
30,750	-18,248	-0,457	-0,201
31,765	61,754	-0,337	-0,237
32,780	-35,119	-0,363	-0,139
33,794	-14,789	-0,462	-0,209
34,809	-1,549	-0,505	-0,250
35,823	121,648	-0,424	-0,373
36,838	137,717	-0,402	-0,372
37,853	144,848	-0,397	-0,374
38,867	575,914	-0,217	-0,376
39,882	-17,482	-0,374	-0,165
40,896	150,815	-0,292	-0,280
41,911	409,495	-0,214	-0,321
42,926	14,761	-0,391	-0,215
43,940	-21,704	-0,397	-0,170
44,955	90,777	-0,372	-0,294
45,969	169,865	-0,313	-0,316
46,984	231,965	-0,265	-0,307
47,999	111,934	-0,312	-0,266
49,013	-7,410	-0,327	-0,155
50,028	282,730	-0,234	-0,297
51,042	130,778	-0,352	-0,319
52,057	101,926	-0,306	-0,252
53,071	79,237	-0,307	-0,231
54,086	44,324	-0,326	-0,210
55,101	85,983	-0,325	-0,252
56,115	19,837	-0,419	-0,237
57,130	-18,661	-0,242	-0,106
58,144	22,933	-0,410	-0,236
59,159	92,592	-0,415	-0,329
60,174	176,329	-0,394	-0,404
61,188	154,376	-0,363	-0,350
62,203	30,649	-0,273	-0,164
63,217	18,821	-0,346	-0,195
64,232	-41,988	-0,274	-0,098
65,247	57,547	-0,398	-0,273
66,261	0,510	-0,442	-0,222
67,276	51,738	-0,334	-0,223
68,290	172,778	-0,254	-0,258
69,305	60,958	-0,347	-0,242
70,320	213,743	-0,280	-0,312
71,334	-35,054	-0,304	-0,116
72,349	128,132	-0,294	-0,263
73,363	138,093	-0,400	-0,369
74,378	-7,240	-0,430	-0,204
75,393	180,351	-0,307	-0,317
76,407	319,752	-0,097	-0,129
77,422	19,572	-0,252	-0,142
78,436	-148,041	-0,413	-0,024
79,451	-91,397	-0,380	-0,076
80,466	126,509	-0,233	-0,208
81,480	229,234	-0,263	-0,302
82,495	-69,479	-0,280	-0,075
83,509	62,610	-0,244	-0,171
84,524	65,505	-0,301	-0,214
85,539	57,225	-0,197	-0,135
86,553	113,939	-0,228	-0,194
87,568	431,894	-0,200	-0,305
88,582	-19,654	-0,335	-0,145
89,597	60,793	-0,260	-0,181
90,611	-4,178	-0,372	-0,180
91,626	508,420	-0,108	-0,177
92,641	33,494	-0,284	-0,173
93,655	64,684	-0,232	-0,164
94,670	-117,910	-0,405	-0,050
95,684	-3,803	-0,226	-0,110
96,699	-76,798	-0,260	-0,063
97,714	13,291	-0,164	-0,089
98,728	82,686	-0,346	-0,264
99,743	65,715	-0,152	-0,108
100,757	32,192	-0,296	-0,179
101,772	153,564	-0,210	-0,202
102,787	31,245	-0,355	-0,213
103,801	96,653	-0,291	-0,233
104,816	-52,734	-0,322	-0,103
105,830	-56,359	-0,272	-0,084
106,845	23,172	-0,184	-0,105
107,860	181,136	-0,186	-0,192
108,874	188,087	-0,137	-0,144
109,889	127,026	-0,320	-0,284
110,903	62,790	-0,150	-0,105
111,918	101,888	-0,334	-0,273
112,933	262,961	-0,236	-0,288
113,947	471,567	-0,114	-0,181
114,962	-93,687	-0,250	-0,048
115,976	507,414	-0,219	-0,358
116,991	174,334	-0,225	-0,228
118,006	800,000	-0,091	-0,257
119,020	-52,324	-0,269	-0,087
120,035	52,839	-0,196	-0,131
121,049	86,696	-0,179	-0,139
122,064	140,207	-0,284	-0,262
123,079	44,521	-0,342	-0,220
124,093	172,854	-0,296	-0,298
125,108	250,795	-0,241	-0,287
126,122	-64,241	-0,239	-0,068
127,137	414,399	-0,158	-0,237
128,151	-27,568	-0,204	-0,083
129,166	-2,574	-0,247	-0,121
130,181	-26,459	-0,333	-0,136
131,195	28,367	-0,257	-0,151
132,210	170,217	-0,387	-0,388
133,224	123,273	-0,236	-0,207
134,239	25,649	-0,229	-0,133
135,254	144,916	-0,180	-0,169
136,268	66,347	-0,323	-0,229
137,283	-117,781	-0,410	-0,051
138,297	32,239	-0,253	-0,152
139,312	31,036	-0,299	-0,179
140,327	217,883	-0,232	-0,259
141,341	-200,000	-0,258	-0,001
142,356	296,563	-0,213	-0,273
143,370	354,158	-0,182	-0,253
144,385	271,055	-0,222	-0,273
145,400	125,163	-0,285	-0,251
146,414	118,130	-0,231	-0,199
147,429	9,099	-0,262	-0,138
148,443	171,004	-0,226	-0,227
149,458	341,644	-0,106	-0,146
150,473	-111,010	-0,245	-0,035
151,487	520,438	-0,171	-0,280
152,502	91,331	-0,294	-0,230
153,516	-66,096	-0,262	-0,072
154,531	644,232	-0,074	-0,132
155,546	163,911	-0,259	-0,254
156,560	-123,555	-0,310	-0,034
157,575	84,242	-0,312	-0,238
158,589	-54,734	-0,265	-0,083
159,604	111,684	-0,259	-0,218
160,619	10,810	-0,360	-0,191
161,633	-0,930	-0,329	-0,162
162,648	76,040	-0,213	-0,157
163,662	346,160	-0,153	-0,211
164,677	92,318	-0,201	-0,158
165,692	257,025	-0,074	-0,089
166,706	-13,282	-0,249	-0,112
167,721	-184,068	-0,311	-0,004
168,735	407,424	-0,167	-0,247
169,750	3,496	-0,272	-0,138
170,764	535,288	-0,154	-0,255
171,779	20,768	-0,208	-0,117
172,794	-26,123	-0,261	-0,107
173,808	191,251	-0,202	-0,212
174,823	-35,035	-0,349	-0,132
175,837	-84,215	-0,367	-0,080
176,852	258,037	-0,180	-0,216
177,867	-46,729	-0,276	-0,094
178,881	180,994	-0,242	-0,248
179,896	144,153	-0,153	-0,142
180,910	646,895	-0,157	-0,281
181,925	79,091	-0,295	-0,220
182,940	392,727	-0,167	-0,242
183,954	389,842	-0,215	-0,311
184,969	800,000	-0,106	-0,208
185,983	800,000	-0,031	-0,088
186,998	-44,716	-0,257	-0,089
188,013	371,879	-0,129	-0,182
189,027	685,994	-0,126	-0,231
190,042	287,040	-0,208	-0,263
191,056	220,871	-0,136	-0,152
192,071	16,386	-0,217	-0,119
193,086	45,657	-0,230	-0,148
194,100	110,316	-0,210	-0,175
195,115	-40,243	-0,292	-0,105
196,129	7,211	-0,222	-0,115
197,144	66,887	-0,251	-0,178
198,159	117,992	-0,227	-0,195
199,173	231,766	-0,161	-0,184
200,188	58,070	-0,208	-0,142
201,202	17,440	-0,294	-0,162
202,217	-112,096	-0,261	-0,036
203,232	97,407	-0,255	-0,203
204,246	224,183	-0,194	-0,218
205,261	38,779	-0,226	-0,140
206,275	283,769	-0,147	-0,183
207,290	-200,000	-0,036	-0,136
208,304	412,077	-0,048	-0,071
209,319	-86,630	-0,171	-0,036
210,334	-89,207	-0,227	-0,046
211,348	485,667	-0,175	-0,278
212,363	-5,695	-0,183	-0,087
213,377	99,434	-0,132	-0,106
214,392	-8,473	-0,114	-0,053
215,407	131,162	-0,180	-0,161
216,421	147,745	-0,070	-0,066
217,436	57,668	-0,139	-0,094
218,450	35,004	-0,159	-0,096
219,465	10,802	-0,191	-0,101
220,480	132,385	-0,228	-0,204
221,494	517,813	-0,156	-0,254
222,509	-49,737	-0,177	-0,058
223,523	360,829	-0,142	-0,198
224,538	80,073	-0,188	-0,140
225,553	-200,000	-0,040	-0,233
226,567	-33,555	-0,327	-0,124
227,582	82,516	-0,245	-0,184
228,596	446,923	-0,109	-0,166
229,611	582,638	-0,110	-0,188
230,626	276,988	-0,118	-0,146
231,640	667,230	-0,167	-0,300
232,655	13,968	-0,248	-0,133
233,669	207,762	-0,220	-0,238
234,684	117,011	-0,155	-0,132
235,699	800,000	-0,107	-0,275
236,713	-91,885	-0,219	-0,043
237,728	800,000	-0,116	-0,252
238,742	60,597	-0,156	-0,107
239,757	181,848	-0,217	-0,221
240,772	155,154	-0,202	-0,193
241,786	350,011	-0,142	-0,194
242,801	121,184	-0,107	-0,092
243,815	401,979	-0,060	-0,087
244,830	16,710	-0,214	-0,117
245,844	-64,839	-0,151	-0,042
246,859	-62,208	-0,238	-0,068
247,874	223,780	-0,187	-0,209
248,888	72,975	-0,163	-0,118
249,903	276,319	-0,194	-0,239
250,917	161,687	-0,089	-0,086
251,932	-30,536	-0,125	-0,049
252,947	131,363	-0,187	-0,166
253,961	-87,388	-0,196	-0,041
254,976	54,894	-0,089	-0,059
255,990	53,151	-0,307	-0,203
257,005	90,352	-0,161	-0,124
258,020	-1,498	-0,130	-0,063
259,034	-122,550	-0,049	-0,005
260,049	182,114	-0,145	-0,148
261,063	168,818	-0,241	-0,238
262,078	622,481	-0,114	-0,199
263,093	30,645	-0,170	-0,100
264,107	-200,000	-0,057	-0,196
265,122	-200,000	-0,081	-0,297
266,136	289,837	-0,093	-0,117
267,151	63,813	-0,097	-0,067
268,166	-56,794	-0,196	-0,059
269,180	200,093	-0,125	-0,132
270,195	112,116	-0,268	-0,224
271,209	229,187	-0,127	-0,144
272,224	162,301	-0,120	-0,117
273,239	747,657	-0,099	-0,186
274,253	407,916	-0,104	-0,153
275,268	-143,683	-0,180	-0,012
276,282	321,510	-0,148	-0,195
277,297	125,070	-0,152	-0,132
278,312	-129,266	-0,152	-0,014
279,326	312,389	-0,086	-0,111
280,341	40,587	-0,036	-0,022
281,355	-100,022	-0,251	-0,043
282,370	120,365	-0,176	-0,150
283,384	-33,809	-0,171	-0,065
284,399	475,305	-0,126	-0,197
285,414	456,939	-0,129	-0,198
286,428	261,103	-0,210	-0,251
287,443	-34,379	-0,114	-0,043
288,457	-168,426	-0,105	-0,003
289,472	119,317	-0,133	-0,113
290,487	481,298	-0,140	-0,220
291,501	800,000	-0,133	-0,270
292,516	657,328	-0,066	-0,118
293,530	132,086	-0,071	-0,063
294,545	800,000	-0,073	-0,176
295,560	-174,567	-0,232	0,004
296,574	65,764	-0,175	-0,122
297,589	159,397	-0,194	-0,186
298,603	154,316	-0,198	-0,188
299,618	200,997	-0,159	-0,169
300,633	-38,499	-0,169	-0,061
301,647	-3,114	0,025	0,012
302,662	800,000	-0,065	-0,157
303,676	21,356	-0,068	-0,038
304,691	800,000	-0,054	-0,146
305,706	83,620	-0,122	-0,092
306,720	788,246	-0,075	-0,142
307,735	329,261	-0,138	-0,183
308,749	65,006	-0,127	-0,088
309,764	72,630	-0,132	-0,095
310,779	44,416	-0,089	-0,056
311,793	141,667	-0,113	-0,103
312,808	443,513	-0,103	-0,156
313,822	-56,175	-0,177	-0,054
314,837	800,000	-0,063	-0,173
315,852	-107,198	-0,216	-0,032
316,866	60,073	-0,177	-0,120
317,881	-76,208	-0,190	-0,046
318,895	-36,238	-0,140	-0,052
319,910	295,258	-0,154	-0,194
320,925	4,451	-0,215	-0,108
321,939	65,416	-0,175	-0,122
322,954	259,074	0,031	-0,036
323,968	-45,509	-0,134	0,046
324,983	-95,817	-0,145	-0,026
325,997	175,060	-0,169	-0,168
327,012	-131,609	-0,085	0,008
328,027	649,211	-0,131	-0,231
329,041	800,000	0,063	-0,185
330,056	361,559	-0,107	-0,148
331,070	396,194	-0,084	-0,121
332,085	-73,090	-0,127	-0,032
333,100	-47,531	-0,143	-0,047
334,114	525,225	-0,149	-0,241
335,129	-98,157	-0,101	-0,018
336,143	220,436	-0,058	-0,064
337,158	800,000	-0,073	-0,186
338,173	135,267	-0,124	-0,111
339,187	800,000	-0,072	-0,169
340,202	158,753	-0,119	-0,113
341,216	277,397	-0,162	-0,198
342,231	800,000	-0,087	-0,205
343,246	-4,899	-0,225	-0,106
344,260	-195,124	-0,186	-0,001
345,275	-111,579	-0,112	-0,015
346,289	-87,278	-0,148	0,031
347,304	-60,915	-0,200	-0,058
348,319	42,782	-0,197	-0,123
349,333	-80,737	-0,186	-0,042
350,348	-158,825	-0,111	-0,004
351,362	800,000	-0,098	-0,207
352,377	-200,000	-0,013	0,054
353,392	800,000	-0,078	-0,173
354,406	476,897	-0,034	-0,052
355,421	208,383	1313,897	1410,936
356,435	160,345	1474,508	1411,443
