DTS Sentinel unit serial number:	SN410029Multiplexer serial number:	ORYXHardware model number:	OX2-SRSoftware version number:	ORYX F/W v4,00 Oryx Data Collector v3.7.2.0data status	okinstallation	B3 Nyhavnadifferential loss correction	single-endedforward channel	channel 1reverse channel	N/Adate	2023/12/05time	09:02:30forward acquisition time	300,00reverse acquisition time	0,00gamma	499,1914k internal	0,3193k external	0,3193temperature offset calibration	1,0000default loss term (dB/km)	0,3820temperature slope calibration	1,0000multiplexer offset coefficient	1,0000multiplexer slope coefficient	1,0000fibre end	0,00T internal ref (°C)	12,11T ext. ref 1 (°C)	-4,00T ext. ref 2 (°C)	-4,23length (m)	temperature (°C)	Stokes	anti-Stokes-744,400	800,000	-0,058	-0,156
-743,385	288,321	-0,150	0,198
-742,371	405,295	-0,082	-0,127
-741,356	271,952	-0,163	0,210
-740,342	-200,000	-0,017	-0,084
-739,327	447,321	-0,122	0,196
-738,312	-200,000	-0,017	-0,070
-737,298	-35,884	-0,246	0,097
-736,283	59,195	-0,038	0,027
-735,269	-200,000	-0,047	0,151
-734,254	-200,000	0,023	0,124
-733,239	-154,002	-0,334	0,016
-732,225	-107,902	-0,099	0,016
-731,210	49,142	0,112	0,076
-730,196	-53,883	-0,075	-0,025
-729,181	-175,113	-0,114	0,002
-728,167	-40,792	0,045	-0,017
-727,152	-200,000	0,017	0,067
-726,137	59,376	-0,239	0,172
-725,123	73,689	0,039	0,029
-724,108	-1,607	-0,055	0,028
-723,094	10,051	-0,119	-0,066
-722,079	-200,000	-0,013	-0,062
-721,064	-114,966	-0,157	-0,022
-720,050	249,754	-0,098	0,121
-719,035	-144,078	-0,152	0,010
-718,021	499,372	-0,005	0,009
-717,006	-101,848	-0,022	0,004
-715,991	530,772	-0,050	-0,087
-714,977	-200,000	-0,013	-0,145
-713,962	-36,683	-0,099	0,039
-712,948	279,004	-0,059	-0,077
-711,933	-99,845	-0,065	0,012
-710,918	14,982	-0,140	-0,080
-709,904	-37,359	-0,087	-0,034
-708,889	554,850	0,078	-0,137
-707,875	310,588	-0,077	-0,105
-706,860	-5,762	-0,238	-0,118
-705,845	-155,159	0,166	0,008
-704,831	-47,332	-0,106	-0,037
-703,816	-134,022	0,052	-0,005
-702,802	-200,000	0,016	-0,081
-701,787	-67,972	-0,016	-0,004
-700,772	800,000	0,034	0,090
-699,758	800,000	-0,028	-0,074
-698,743	66,910	0,099	0,073
-697,729	-121,574	-0,006	-0,001
-696,714	192,884	-0,102	0,112
-695,699	-29,585	-0,044	-0,018
-694,685	-200,000	-0,006	-0,115
-693,670	-200,000	-0,005	0,059
-692,656	52,769	-0,091	0,063
-691,641	-200,000	0,028	0,113
-690,627	622,829	0,071	-0,131
-689,612	-200,000	0,005	0,031
-688,597	-200,000	-0,019	-0,081
-687,583	-80,764	-0,038	0,009
-686,568	101,907	-0,109	-0,093
-685,554	-200,000	-0,028	-0,182
-684,539	735,055	0,051	-0,100
-683,524	-10,878	-0,012	-0,006
-682,510	-200,000	0,023	0,076
-681,495	800,000	-0,050	0,106
-680,481	-70,865	-0,197	-0,054
-679,466	-200,000	0,009	-0,085
-678,451	-200,000	0,005	0,067
-677,437	-106,987	-0,109	-0,017
-676,422	-200,000	0,005	0,037
-675,408	171,316	0,104	-0,109
-674,393	-200,000	-0,034	-0,200
-673,378	28,196	0,134	0,082
-672,364	-200,000	0,031	-0,181
-671,349	-200,000	-0,006	-0,109
-670,335	158,934	-0,056	-0,057
-669,320	20,845	-0,099	-0,058
-668,305	-98,306	0,154	-0,028
-667,291	800,000	-0,008	-0,016
-666,276	20,498	-0,051	0,030
-665,262	-195,717	-0,109	-0,001
-664,247	-200,000	0,009	-0,075
-663,232	-200,000	-0,009	-0,166
-662,218	538,097	0,093	0,161
-661,203	800,000	-0,013	-0,027
-660,189	280,609	-0,115	0,150
-659,174	396,518	0,115	-0,175
-658,159	47,321	-0,073	-0,050
-657,145	-23,152	-0,101	-0,044
-656,130	227,089	0,036	0,043
-655,116	-200,000	0,022	0,111
-654,101	196,947	0,023	-0,026
-653,086	-53,223	-0,087	-0,029
-652,072	-117,206	0,070	-0,009
-651,057	-200,000	-0,033	-0,169
-650,043	-32,939	-0,159	-0,064
-649,028	429,629	0,032	0,050
-648,014	396,688	-0,063	-0,096
-646,999	-49,780	0,041	-0,014
-645,984	-74,527	-0,048	-0,012
-644,970	235,075	-0,019	-0,023
-643,955	-97,395	-0,142	0,027
-642,941	-200,000	0,003	-0,053
-641,926	518,481	-0,050	-0,085
-640,911	-200,000	0,023	-0,082
-639,897	-102,128	0,031	0,005
-638,882	800,000	-0,038	0,080
-637,868	-200,000	-0,015	-0,091
-636,853	687,706	-0,085	-0,163
-635,838	-200,000	-0,001	-0,018
-634,824	49,647	0,040	-0,027
-633,809	-200,000	0,019	0,117
-632,795	120,050	-0,082	-0,074
-631,780	237,388	-0,028	-0,034
-630,765	39,007	-0,076	0,049
-629,751	182,017	0,117	-0,126
-628,736	66,746	-0,078	-0,058
-627,722	743,934	-0,037	0,073
-626,707	-42,609	0,114	0,042
-625,692	800,000	-0,023	0,058
-624,678	305,143	0,101	0,136
-623,663	-200,000	0,007	-0,029
-622,649	348,021	-0,041	-0,058
-621,634	800,000	-0,070	-0,168
-620,619	-60,954	-0,072	0,022
-619,605	-11,980	-0,059	0,028
-618,590	-200,000	-0,026	0,103
-617,576	-200,000	0,002	0,067
-616,561	-200,000	0,011	0,076
-615,546	-70,111	-0,036	-0,010
-614,532	233,893	-0,084	-0,101
-613,517	729,894	-0,046	-0,091
-612,503	428,268	-0,123	-0,194
-611,488	-172,527	0,039	-0,001
-610,474	800,000	0,039	0,091
-609,459	800,000	-0,057	0,144
-608,444	800,000	-0,056	0,157
-607,430	800,000	-0,046	-0,100
-606,415	5,092	-0,002	-0,001
-605,401	171,457	0,060	0,062
-604,386	-157,710	-0,100	-0,004
-603,371	-200,000	0,041	0,231
-602,357	800,000	-0,039	0,110
-601,342	-60,420	0,056	-0,017
-600,328	122,913	0,036	-0,033
-599,313	206,340	-0,103	-0,116
-598,298	460,803	0,081	-0,131
-597,284	122,088	-0,079	0,072
-596,269	287,595	0,080	0,105
-595,255	800,000	0,052	0,115
-594,240	-144,109	-0,079	-0,005
-593,225	-104,725	-0,139	-0,023
-592,211	333,695	-0,051	-0,071
-591,196	356,790	0,069	0,100
-590,182	-87,220	0,152	0,033
-589,167	86,096	0,046	-0,037
-588,152	-76,003	0,124	0,032
-587,138	150,394	0,055	0,054
-586,123	-200,000	0,034	-0,119
-585,109	-20,181	-0,162	-0,072
-584,094	360,842	-0,033	-0,048
-583,079	800,000	-0,026	0,080
-582,065	798,706	-0,034	-0,067
-581,050	-200,000	0,005	-0,019
-580,036	56,871	-0,095	0,067
-579,021	-21,853	0,066	-0,029
-578,006	39,825	-0,072	0,047
-576,992	-138,925	-0,111	0,009
-575,977	194,902	-0,087	0,095
-574,963	92,583	0,052	0,042
-573,948	12,918	0,060	-0,033
-572,934	63,224	0,078	0,056
-571,919	317,227	0,071	-0,098
-570,904	-200,000	-0,013	-0,071
-569,890	57,091	-0,043	0,030
-568,875	-200,000	0,002	0,068
-567,861	339,604	-0,044	-0,062
-566,846	-200,000	0,004	0,168
-565,831	88,075	0,019	0,015
-564,817	-182,667	-0,027	-0,000
-563,802	-124,359	-0,034	-0,004
-562,788	-170,693	-0,089	-0,002
-561,773	-88,990	-0,015	0,003
-560,758	-200,000	0,003	-0,035
-559,744	800,000	-0,038	-0,078
-558,729	-200,000	0,004	-0,060
-557,715	-103,963	-0,079	0,013
-556,700	-200,000	0,008	-0,039
-555,685	21,452	-0,176	-0,103
-554,671	-200,000	-0,029	-0,142
-553,656	-200,000	0,001	-0,016
-552,642	-152,157	-0,126	-0,007
-551,627	21,000	0,099	0,058
-550,612	63,041	0,055	0,040
-549,598	-200,000	0,009	-0,084
-548,583	14,755	-0,048	-0,027
-547,569	104,441	0,035	0,030
-546,554	-200,000	0,025	0,127
-545,539	-1,135	0,115	-0,059
-544,525	-50,371	-0,084	-0,029
-543,510	-200,000	0,004	-0,027
-542,496	-53,817	-0,082	0,027
-541,481	-200,000	-0,001	0,116
-540,466	-55,751	0,203	-0,065
-539,452	-200,000	-0,011	-0,103
-538,437	118,227	-0,049	0,043
-537,423	-145,857	-0,036	0,002
-536,408	-132,858	0,020	0,002
-535,393	5,963	-0,113	-0,061
-534,379	426,196	-0,097	-0,152
-533,364	45,718	-0,043	-0,029
-532,350	-200,000	0,016	-0,154
-531,335	-108,892	0,097	0,015
-530,321	657,712	0,017	-0,032
-529,306	-200,000	0,012	0,106
-528,291	-20,956	0,070	-0,031
-527,277	800,000	0,037	0,110
-526,262	164,983	-0,054	-0,055
-525,248	-200,000	-0,013	0,116
-524,233	-200,000	-0,018	-0,061
-523,218	290,768	0,043	0,056
-522,204	-200,000	0,036	-0,189
-521,189	188,057	0,034	0,037
-520,175	-81,573	-0,074	0,017
-519,160	-52,665	0,084	-0,028
-518,145	-47,528	-0,082	-0,029
-517,131	-16,260	0,066	0,030
-516,116	-59,973	0,142	-0,043
-515,102	800,000	-0,036	0,097
-514,087	10,804	-0,040	-0,022
-513,072	-200,000	0,031	-0,112
-512,058	-200,000	0,019	-0,120
-511,043	-200,000	-0,008	0,051
-510,029	-128,457	-0,073	-0,007
-509,014	-200,000	0,020	0,190
-507,999	-200,000	-0,034	0,000
-506,985	-5,509	-0,150	-0,074
-505,970	95,877	0,033	-0,027
-504,956	800,000	0,002	-0,004
-503,941	-200,000	0,046	-0,185
-502,926	-200,000	-0,003	0,089
-501,912	235,570	0,037	0,044
-500,897	-200,000	0,015	0,095
-499,883	800,000	0,025	0,063
-498,868	97,010	-0,026	0,021
-497,853	-200,000	0,007	-0,089
-496,839	-138,645	0,113	0,009
-495,824	125,823	-0,069	0,063
-494,810	-102,360	0,056	0,010
-493,795	180,222	0,160	0,170
-492,781	-200,000	-0,022	0,141
-491,766	-47,816	-0,092	0,032
-490,751	-200,000	-0,007	0,182
-489,737	-200,000	-0,021	0,076
-488,722	457,803	-0,044	0,071
-487,708	477,405	-0,030	0,049
-486,693	-175,450	-0,022	0,000
-485,678	-200,000	-0,027	-0,088
-484,664	-200,000	0,005	-0,070
-483,649	-12,038	-0,064	-0,030
-482,635	800,000	-0,038	-0,114
-481,620	29,147	-0,011	-0,007
-480,605	-101,469	0,112	-0,019
-479,591	-200,000	-0,016	-0,128
-478,576	-121,028	0,062	0,007
-477,562	6,831	-0,088	0,047
-476,547	-200,000	-0,051	-0,172
-475,532	453,501	-0,043	-0,068
-474,518	-200,000	0,011	-0,105
-473,503	249,488	-0,018	-0,022
-472,489	-69,293	0,096	0,027
-471,474	-200,000	0,012	-0,067
-470,459	800,000	0,045	0,100
-469,445	-200,000	0,021	-0,066
-468,430	88,504	-0,082	0,066
-467,416	67,414	0,111	0,081
-466,401	-200,000	0,029	-0,094
-465,386	-174,531	0,090	0,002
-464,372	623,939	0,078	-0,143
-463,357	116,391	0,034	0,030
-462,343	-7,092	-0,060	-0,029
-461,328	282,402	-0,116	-0,151
-460,313	800,000	-0,059	-0,152
-459,299	543,681	-0,058	0,100
-458,284	36,057	0,072	0,045
-457,270	-200,000	-0,001	0,031
-456,255	-175,353	0,061	0,001
-455,241	-200,000	-0,002	0,054
-454,226	-200,000	-0,045	-0,201
-453,211	800,000	0,046	-0,109
-452,197	-40,653	-0,044	-0,017
-451,182	202,938	-0,027	0,031
-450,168	-200,000	-0,013	0,055
-449,153	106,923	-0,047	0,040
-448,138	-200,000	0,006	0,106
-447,124	-75,142	-0,036	0,009
-446,109	209,111	-0,050	0,056
-445,095	283,611	0,048	0,063
-444,080	25,965	-0,051	-0,030
-443,065	-200,000	-0,006	0,068
-442,051	-200,000	0,010	0,037
-441,036	-200,000	-0,004	0,016
-440,022	30,978	0,092	0,057
-439,007	139,230	-0,005	0,005
-437,992	197,355	0,058	0,064
-436,978	-47,118	0,104	0,036
-435,963	-18,447	-0,068	-0,031
-434,949	-139,986	-0,061	-0,005
-433,934	-200,000	0,055	-0,199
-432,919	-97,815	-0,052	-0,010
-431,905	92,910	0,066	-0,054
-430,890	-108,651	0,090	-0,014
-429,876	-4,218	0,063	0,031
-428,861	145,082	0,032	0,031
-427,846	29,727	-0,061	-0,037
-426,832	-63,380	-0,010	-0,003
-425,817	18,849	-0,085	0,049
-424,803	800,000	0,035	-0,086
-423,788	344,151	-0,034	0,048
-422,773	-120,672	0,024	0,003
-421,759	-115,534	-0,078	-0,010
-420,744	342,818	-0,047	0,067
-419,730	115,822	-0,033	0,029
-418,715	561,709	0,038	-0,066
-417,701	800,000	0,013	-0,042
-416,686	800,000	-0,036	0,093
-415,671	-96,549	-0,008	-0,001
-414,657	407,397	0,055	0,084
-413,642	53,445	-0,038	0,026
-412,628	-78,162	-0,057	0,014
-411,613	202,065	-0,042	0,046
-410,598	490,716	-0,042	0,070
-409,584	-14,431	0,167	-0,077
-408,569	-200,000	0,005	0,022
-407,555	-7,172	0,042	0,020
-406,540	-200,000	0,017	-0,070
-405,525	21,267	-0,038	0,022
-404,511	655,476	-0,054	0,100
-403,496	-200,000	0,007	0,123
-402,482	651,421	0,048	0,088
-401,467	-21,830	-0,043	-0,019
-400,452	-93,474	-0,146	0,029
-399,438	236,494	-0,055	-0,065
-398,423	-200,000	-0,013	0,088
-397,409	63,597	-0,114	0,082
-396,394	700,203	0,015	-0,029
-395,379	-200,000	-0,020	-0,080
-394,365	56,129	0,030	-0,021
-393,350	-200,000	0,028	0,148
-392,336	27,206	0,100	0,060
-391,321	-27,694	-0,059	0,025
-390,306	800,000	-0,050	-0,100
-389,292	-55,880	0,116	0,037
-388,277	-200,000	-0,014	-0,105
-387,263	7,375	-0,128	0,069
-386,248	800,000	0,015	0,034
-385,233	800,000	-0,016	-0,042
-384,219	-200,000	-0,007	-0,063
-383,204	800,000	0,021	-0,054
-382,190	-200,000	-0,006	0,020
-381,175	-25,717	0,081	-0,034
-380,160	61,257	-0,044	0,031
-379,146	-200,000	-0,004	0,028
-378,131	133,241	-0,021	0,019
-377,117	800,000	0,022	0,046
-376,102	-200,000	-0,019	-0,064
-375,088	800,000	-0,019	-0,043
-374,073	227,102	0,028	-0,032
-373,058	214,467	0,009	0,010
-372,044	800,000	0,081	0,175
-371,029	-29,688	0,103	0,042
-370,015	-200,000	-0,004	-0,028
-369,000	800,000	0,072	-0,166
-367,985	56,175	-0,051	0,035
-366,971	800,000	0,051	0,129
-365,956	800,000	0,040	-0,121
-364,942	286,889	-0,012	-0,016
-363,927	15,185	0,102	0,058
-362,912	147,484	-0,010	0,010
-361,898	800,000	-0,006	0,019
-360,883	-54,373	-0,157	-0,051
-359,869	-45,483	0,087	0,031
-358,854	800,000	0,029	0,076
-357,839	22,554	0,132	0,077
-356,825	-150,974	0,095	-0,005
-355,810	800,000	-0,028	-0,060
-354,796	800,000	-0,026	-0,081
-353,781	800,000	0,053	-0,115
-352,766	-200,000	-0,002	-0,137
-351,752	-11,923	0,027	-0,012
-350,737	-130,859	0,078	0,007
-349,723	-200,000	0,022	0,142
-348,708	207,496	0,057	0,064
-347,693	139,468	0,045	0,043
-346,679	-200,000	-0,043	0,171
-345,664	-200,000	0,034	-0,128
-344,650	-200,000	-0,016	-0,059
-343,635	-11,784	0,034	0,016
-342,620	336,263	-0,014	-0,020
-341,606	783,933	0,016	0,031
-340,591	800,000	0,012	-0,039
-339,577	-86,508	-0,112	-0,024
-338,562	-200,000	0,026	-0,087
-337,548	-92,516	0,094	0,019
-336,533	128,360	0,017	0,015
-335,518	175,795	-0,035	-0,037
-334,504	800,000	-0,044	0,124
-333,489	800,000	-0,033	0,088
-332,475	-116,467	0,090	0,012
-331,460	-200,000	0,023	-0,131
-330,445	150,800	-0,039	-0,038
-329,431	345,296	-0,041	0,058
-328,416	-22,552	0,092	0,040
-327,402	800,000	0,030	0,066
-326,387	-200,000	0,007	-0,072
-325,372	-17,550	0,042	0,019
-324,358	301,559	-0,044	0,059
-323,343	-48,869	-0,066	0,023
-322,329	-200,000	-0,027	-0,090
-321,314	114,568	0,113	0,099
-320,299	123,492	0,015	-0,014
-319,285	-200,000	0,016	0,090
-318,270	-200,000	0,004	-0,013
-317,256	284,010	-0,035	-0,046
-316,241	-63,093	-0,130	-0,038
-315,226	-106,598	0,042	0,007
-314,212	245,732	-0,020	-0,024
-313,197	160,929	-0,035	-0,035
-312,183	-200,000	0,004	-0,106
-311,168	800,000	0,023	-0,071
-310,153	-98,856	0,023	-0,004
-309,139	-200,000	0,017	-0,124
-308,124	-200,000	0,018	-0,065
-307,110	800,000	0,070	0,166
-306,095	-40,047	-0,108	0,040
-305,080	-101,911	0,041	0,007
-304,066	120,712	-0,021	-0,019
-303,051	588,264	-0,052	-0,092
-302,037	-200,000	-0,035	-0,137
-301,022	-200,000	-0,009	0,042
-300,008	-69,471	0,090	0,025
-298,993	-78,462	0,040	0,010
-297,978	-200,000	-0,003	0,027
-296,964	-200,000	0,002	0,054
-295,949	800,000	-0,056	0,117
-294,935	-200,000	0,042	0,144
-293,920	-44,425	-0,107	0,038
-292,905	-138,024	0,129	-0,010
-291,891	-49,800	0,086	-0,029
-290,876	-200,000	-0,013	-0,067
-289,862	72,275	-0,054	-0,040
-288,847	800,000	-0,041	0,121
-287,832	195,522	-0,121	-0,132
-286,818	-104,300	0,031	0,005
-285,803	-21,504	0,051	0,022
-284,789	-75,009	-0,049	-0,013
-283,774	-200,000	0,016	0,157
-282,759	190,469	0,041	-0,045
-281,745	-200,000	0,000	-0,008
-280,730	-102,882	-0,061	0,010
-279,716	-170,068	-0,139	-0,003
-278,701	30,503	0,050	-0,031
-277,686	-20,579	-0,090	-0,040
-276,672	-139,768	0,103	-0,008
-275,657	800,000	-0,022	-0,062
-274,643	-69,129	-0,115	-0,031
-273,628	-200,000	-0,005	-0,187
-272,613	-200,000	0,015	-0,097
-271,599	112,471	0,068	0,059
-270,584	800,000	-0,028	-0,061
-269,570	-155,364	-0,154	0,007
-268,555	-200,000	-0,001	-0,005
-267,540	-112,962	-0,099	-0,014
-266,526	-125,291	0,150	-0,016
-265,511	140,451	0,053	-0,050
-264,497	-176,546	-0,127	-0,002
-263,482	-200,000	0,003	-0,016
-262,467	377,122	0,084	0,123
-261,453	-129,384	0,077	0,008
-260,438	265,900	-0,033	-0,041
-259,424	-71,899	-0,046	0,012
-258,409	-63,082	-0,063	-0,018
-257,395	-161,181	0,141	0,005
-256,380	-76,607	0,078	0,020
-255,365	42,848	0,084	0,054
-254,351	-200,000	-0,001	-0,023
-253,336	-200,000	-0,039	-0,182
-252,322	401,423	-0,033	-0,049
-251,307	217,313	-0,087	-0,100
-250,292	723,942	-0,034	-0,064
-249,278	-87,191	0,189	0,041
-248,263	-53,174	-0,067	-0,022
-247,249	366,879	-0,017	0,025
-246,234	-3,011	0,070	-0,035
-245,219	-200,000	0,000	-0,017
-244,205	9,526	-0,062	0,034
-243,190	800,000	-0,020	0,060
-242,176	286,911	0,087	0,112
-241,161	-200,000	0,006	0,203
-240,146	-200,000	0,007	0,042
-239,132	800,000	-0,042	0,092
-238,117	-200,000	-0,003	0,027
-237,103	800,000	-0,018	-0,052
-236,088	-200,000	-0,030	-0,102
-235,073	50,004	0,059	0,040
-234,059	-105,668	0,093	-0,015
-233,044	800,000	0,008	-0,017
-232,030	-2,049	0,100	0,050
-231,015	52,240	-0,041	-0,028
-230,000	-137,536	-0,080	0,006
-228,986	50,735	-0,052	0,035
-227,971	800,000	0,051	0,151
-226,957	-106,756	0,233	0,037
-225,942	-76,278	-0,084	0,021
-224,927	-100,980	0,129	-0,022
-223,913	-200,000	-0,027	0,089
-222,898	-83,867	0,074	-0,017
-221,884	-200,000	0,008	-0,038
-220,869	102,885	-0,017	-0,014
-219,855	800,000	0,054	-0,121
-218,840	25,138	0,057	-0,034
-217,825	386,887	0,032	-0,047
-216,811	348,235	-0,104	-0,147
-215,796	-200,000	-0,013	-0,132
-214,782	800,000	-0,062	0,133
-213,767	242,060	0,105	0,126
-212,752	24,979	-0,072	0,043
-211,738	123,263	0,054	-0,048
-210,723	18,642	0,069	-0,039
-209,709	-46,489	0,113	0,039
-208,694	359,289	-0,082	-0,117
-207,679	-40,580	-0,106	-0,039
-206,665	-200,000	0,024	0,114
-205,650	-73,025	0,144	0,037
-204,636	-165,623	0,113	0,003
-203,621	800,000	-0,058	0,123
-202,606	-200,000	-0,017	-0,147
-201,592	618,321	0,023	-0,042
-200,577	-108,532	0,171	-0,026
-199,563	45,478	-0,162	0,107
-198,548	-200,000	0,013	0,079
-197,533	800,000	-0,031	0,085
-196,519	12,338	0,093	-0,051
-195,504	-5,058	-0,099	-0,048
-194,490	64,327	-0,068	0,049
-193,475	518,203	-0,076	-0,127
-192,460	283,213	0,042	0,053
-191,446	195,332	0,015	-0,016
-190,431	667,467	0,050	0,094
-189,417	156,033	-0,060	0,059
-188,402	51,930	-0,049	-0,033
-187,387	52,239	0,049	0,033
-186,373	-200,000	-0,009	-0,042
-185,358	-112,300	-0,086	-0,012
-184,344	800,000	0,051	-0,114
-183,329	178,242	0,067	0,070
-182,315	98,596	0,025	0,020
-181,300	254,145	-0,077	-0,094
-180,285	-200,000	-0,005	-0,017
-179,271	-64,099	0,028	-0,008
-178,256	120,468	0,137	0,121
-177,242	-200,000	0,008	-0,100
-176,227	-17,682	0,094	0,042
-175,212	-72,768	-0,050	0,013
-174,198	-200,000	-0,033	0,113
-173,183	133,033	-0,094	0,087
-172,169	-48,914	-0,087	0,030
-171,154	-63,389	0,106	-0,031
-170,139	-200,000	0,034	-0,165
-169,125	59,332	0,087	0,061
-168,110	159,141	-0,108	0,107
-167,096	138,314	-0,044	-0,041
-166,081	592,665	-0,068	0,121
-165,066	-200,000	-0,001	-0,076
-164,052	-200,000	-0,011	-0,040
-163,037	-200,000	-0,007	0,217
-162,023	72,518	-0,051	0,038
-161,008	-155,620	0,068	-0,003
-159,993	-99,560	0,058	-0,010
-158,979	-200,000	-0,003	0,020
-157,964	800,000	-0,025	-0,068
-156,950	84,452	0,105	-0,082
-155,935	-200,000	-0,007	0,079
-154,920	708,093	0,008	0,016
-153,906	130,976	0,054	0,049
-152,891	116,648	0,092	-0,081
-151,877	27,371	0,070	-0,042
-150,862	165,741	-0,030	0,030
-149,847	34,482	-0,059	0,037
-148,833	31,988	0,084	0,051
-147,818	731,192	0,055	-0,106
-146,804	-200,000	-0,028	0,094
-145,789	-33,916	0,054	0,021
-144,775	-147,202	-0,103	-0,006
-143,760	555,079	0,056	-0,096
-142,745	-200,000	0,001	-0,024
-141,731	235,793	0,020	-0,024
-140,716	-200,000	0,012	0,163
-139,702	58,520	0,134	0,094
-138,687	-51,755	0,051	-0,017
-137,672	144,840	-0,020	0,019
-136,658	141,866	-0,119	-0,112
-135,643	-149,722	0,036	-0,002
-134,629	142,675	-0,047	-0,044
-133,614	-200,000	-0,042	-0,139
-132,599	210,152	-0,101	0,113
-131,585	210,858	0,050	-0,056
-130,570	10,536	-0,054	0,029
-129,556	5,902	-0,027	-0,014
-128,541	398,100	-0,015	0,022
-127,526	617,485	0,044	-0,079
-126,512	-122,065	0,092	-0,011
-125,497	303,056	0,074	0,097
-124,483	362,995	0,002	0,003
-123,468	87,922	-0,041	-0,032
-122,453	268,326	-0,072	-0,090
-121,439	-97,330	0,093	0,017
-120,424	-168,661	-0,136	-0,004
-119,410	102,579	0,019	-0,016
-118,395	299,922	0,100	0,131
-117,380	44,305	0,098	0,064
-116,366	365,357	-0,056	0,080
-115,351	800,000	-0,042	0,092
-114,337	-99,598	0,057	-0,010
-113,322	-172,608	-0,221	0,005
-112,307	198,900	0,063	0,069
-111,293	39,523	0,039	0,025
-110,278	-95,336	0,103	0,020
-109,264	-100,275	-0,234	-0,041
-108,249	-60,109	0,029	0,009
-107,234	-200,000	-0,021	-0,087
-106,220	-165,783	-0,129	0,004
-105,205	-200,000	0,018	0,137
-104,191	175,600	-0,075	0,077
-103,176	30,790	-0,103	-0,062
-102,162	-200,000	-0,002	-0,034
-101,147	225,918	-0,062	-0,071
-100,132	800,000	-0,030	0,082
-99,118	-33,638	-0,117	-0,046
-98,103	800,000	-0,058	0,142
-97,089	-103,483	0,068	0,011
-96,074	-69,070	-0,089	-0,024
-95,059	-200,000	-0,026	0,088
-94,045	-68,449	0,004	-0,001
-93,030	251,052	-0,079	0,095
-92,016	-82,834	-0,101	0,023
-91,001	-49,053	0,068	0,023
-89,986	800,000	-0,090	0,251
-88,972	-88,630	0,095	0,020
-87,957	-200,000	0,010	0,053
-86,943	-116,411	-0,086	0,011
-85,928	-42,495	-0,067	-0,024
-84,913	66,858	0,180	-0,130
-83,899	730,082	-0,030	-0,057
-82,884	109,769	-0,077	0,065
-81,870	201,076	-0,100	0,110
-80,855	-200,000	-0,010	-0,093
-79,840	-111,423	-0,090	0,013
-78,826	-109,841	-0,066	-0,010
-77,811	2,824	0,123	-0,063
-76,797	134,999	-0,063	-0,058
-75,782	-200,000	0,000	-0,012
-74,767	-152,355	-0,032	-0,002
-73,753	-200,000	-0,025	0,079
-72,738	800,000	0,043	0,126
-71,724	800,000	-0,022	-0,067
-70,709	-200,000	0,004	-0,043
-69,694	64,958	0,070	0,050
-68,680	-200,000	-0,012	-0,127
-67,665	-55,223	0,126	-0,040
-66,651	-102,739	-0,091	0,015
-65,636	800,000	-0,036	0,075
-64,622	479,394	-0,078	-0,126
-63,607	-5,392	-0,134	-0,065
-62,592	118,593	-0,036	0,031
-61,578	70,353	-0,094	0,069
-60,563	79,745	0,143	0,109
-59,549	-7,651	0,032	0,015
-58,534	24,920	-2,106	-1,237
-57,519	800,000	-0,499	-1,210
-56,505	-200,000	-0,939	-4,711
-55,490	158,103	0,953	0,938
-54,476	800,000	5,171	11,866
-53,461	-200,000	20,139	328,878
-52,446	800,000	755,242	2321,277
-51,432	544,505	1664,586	2832,816
-50,417	74,480	1672,210	1246,492
-49,403	19,894	1545,033	881,359
-48,388	13,932	1467,696	808,107
-47,373	18,230	1457,899	823,534
-46,359	16,175	1447,440	807,709
-45,344	12,277	1443,080	786,489
-44,330	12,132	1441,396	784,843
-43,315	12,166	1439,449	783,916
-42,300	12,195	1437,635	783,033
-41,286	12,176	1436,487	782,287
-40,271	12,180	1434,922	781,421
-39,257	12,204	1434,130	781,075
-38,242	12,222	1432,523	780,258
-37,227	12,168	1431,636	779,484
-36,213	12,187	1430,160	778,739
-35,198	12,212	1429,077	778,238
-34,184	12,215	1428,144	777,713
-33,169	12,175	1426,613	776,658
-32,154	12,176	1425,627	776,095
-31,140	12,182	1424,364	775,405
-30,125	12,276	1423,202	775,188
-29,111	12,229	1422,216	774,398
-28,096	12,211	1421,050	773,645
-27,082	12,155	1419,884	772,717
-26,067	12,115	1418,966	771,996
-25,052	12,196	1417,542	771,576
-24,038	12,192	1416,756	771,095
-23,023	12,144	1415,695	770,260
-22,009	12,117	1414,623	769,520
-20,994	12,105	1413,866	769,023
-19,979	12,137	1412,959	768,648
-18,965	12,095	1412,045	767,925
-17,950	12,064	1411,160	767,263
-16,936	12,091	1410,307	766,896
-15,921	12,073	1409,113	766,132
-14,906	12,066	1408,250	765,601
-13,892	12,088	1407,281	765,145
-12,877	12,053	1406,560	764,560
-11,863	12,035	1405,379	763,804
-10,848	12,002	1404,890	763,356
-9,833	11,992	1403,996	762,793
-8,819	11,961	1403,142	762,152
-7,804	11,935	1402,249	761,515
-6,790	11,947	1401,036	760,880
-5,775	11,949	1400,027	760,311
-4,760	11,999	1398,850	759,878
-3,746	11,960	1398,171	759,296
-2,731	11,970	1397,271	758,822
-1,717	11,914	1396,448	758,085
-0,702	11,934	1394,500	757,093
0,313	16,030	1308,647	729,422
1,327	32,412	698,555	427,083
2,342	50,023	121,437	81,150
3,356	1,516	16,589	8,438
4,371	9,147	3,115	1,664
5,386	39,798	0,591	0,375
6,400	800,000	0,108	0,254
7,415	-18,909	-0,243	-0,107
8,429	92,979	-0,324	-0,259
9,444	79,018	-0,354	-0,269
10,459	115,088	-0,201	-0,174
11,473	62,827	-0,344	-0,243
12,488	191,017	-0,067	-0,071
13,502	-52,233	-0,357	-0,117
14,517	97,125	-0,295	-0,240
15,531	361,514	-0,197	-0,281
16,546	-8,491	-0,429	-0,203
17,561	112,605	-0,240	-0,205
18,575	118,019	-0,281	-0,245
19,590	-11,247	-0,245	-0,114
20,604	341,092	-0,194	-0,269
21,619	19,421	-0,474	-0,269
22,634	125,246	-0,404	-0,360
23,648	84,775	-0,366	-0,284
24,663	137,982	-0,314	-0,291
25,677	-12,389	-0,349	-0,161
26,692	197,744	-0,318	-0,344
27,707	169,624	-0,310	-0,314
28,721	92,422	-0,320	-0,255
29,736	-34,595	-0,401	-0,154
30,750	104,213	-0,322	-0,268
31,765	110,626	-0,297	-0,253
32,780	133,730	-0,390	-0,357
33,794	62,381	-0,393	-0,277
34,809	71,727	-0,375	-0,275
35,823	244,958	-0,284	-0,338
36,838	272,157	-0,294	-0,368
37,853	-13,292	-0,476	-0,218
38,867	0,397	-0,328	-0,165
39,882	57,909	-0,322	-0,223
40,896	65,325	-0,415	-0,297
41,911	-34,264	-0,333	-0,129
42,926	88,614	-0,352	-0,276
43,940	42,847	-0,373	-0,240
44,955	221,381	-0,321	-0,365
45,969	-94,764	-0,304	-0,058
46,984	-31,646	-0,384	-0,151
47,999	76,752	-0,243	-0,182
49,013	478,461	-0,243	-0,390
50,028	90,147	-0,276	-0,218
51,042	130,670	-0,286	-0,259
52,057	187,970	-0,306	-0,323
53,071	-1,744	-0,406	-0,201
54,086	26,458	-0,267	-0,157
55,101	72,852	-0,268	-0,197
56,115	-27,630	-0,271	-0,111
57,130	2,445	-0,429	-0,219
58,144	60,598	-0,415	-0,290
59,159	-60,015	-0,317	-0,095
60,174	36,718	-0,392	-0,244
61,188	56,602	-0,308	-0,211
62,203	-23,431	-0,471	-0,199
63,217	29,248	-0,284	-0,170
64,232	17,266	-0,348	-0,194
65,247	6,190	-0,452	-0,236
66,261	-15,755	-0,453	-0,203
67,276	9,762	-0,383	-0,204
68,290	220,632	-0,253	-0,287
69,305	130,317	-0,266	-0,241
70,320	183,452	-0,255	-0,266
71,334	63,305	-0,256	-0,181
72,349	-6,421	-0,201	-0,096
73,363	24,791	-0,367	-0,214
74,378	8,793	-0,398	-0,211
75,393	25,629	-0,282	-0,165
76,407	85,063	-0,295	-0,228
77,422	-10,096	-0,205	-0,096
78,436	10,357	-0,302	-0,162
79,451	85,876	-0,239	-0,185
80,466	-0,410	-0,293	-0,146
81,480	130,851	-0,255	-0,230
82,495	-87,797	-0,345	-0,073
83,509	-192,672	-0,311	-0,002
84,524	-134,275	-0,256	0,022
85,539	483,507	-0,111	-0,179
86,553	-19,978	-0,189	-0,082
87,568	76,472	-0,319	-0,238
88,582	242,068	-0,288	-0,340
89,597	117,299	-0,305	-0,264
90,611	33,354	-0,403	-0,245
91,626	281,385	-0,247	-0,312
92,641	-109,096	-0,209	-0,031
93,655	-73,922	-0,363	-0,092
94,670	-84,567	-0,300	-0,066
95,684	139,159	-0,231	-0,214
96,699	-4,346	-0,313	-0,152
97,714	-78,508	-0,188	-0,045
98,728	359,270	-0,212	-0,298
99,743	27,293	-0,213	-0,126
100,757	80,591	-0,232	-0,176
101,772	158,431	-0,207	-0,202
102,787	1,066	-0,301	-0,151
103,801	9,371	-0,325	-0,172
104,816	129,823	-0,235	-0,211
105,830	79,084	-0,277	-0,208
106,845	71,871	-0,235	-0,172
107,860	-23,499	-0,223	-0,094
108,874	-49,622	-0,284	-0,094
109,889	84,088	-0,238	-0,182
110,903	239,128	-0,165	-0,193
111,918	-7,879	-0,262	-0,124
112,933	219,210	-0,201	-0,226
113,947	116,987	-0,162	-0,140
114,962	-26,456	-0,207	-0,085
115,976	103,482	-0,105	-0,086
116,991	153,689	-0,237	-0,228
118,006	338,386	-0,126	-0,173
119,020	463,437	-0,167	-0,263
120,035	146,452	-0,195	-0,183
121,049	-16,441	-0,297	-0,132
122,064	-41,168	-0,249	-0,090
123,079	80,293	-0,247	-0,187
124,093	18,731	-0,311	-0,174
125,108	158,694	-0,222	-0,217
126,122	-1,748	-0,257	-0,126
127,137	-43,862	-0,337	-0,118
128,151	58,049	-0,218	-0,149
129,166	366,878	-0,150	-0,212
130,181	97,846	-0,258	-0,208
131,195	-37,673	-0,277	-0,103
132,210	527,817	-0,168	-0,279
133,224	-119,024	-0,268	0,033
134,239	499,688	-0,196	-0,318
135,254	170,429	-0,195	-0,196
136,268	107,112	-0,223	-0,186
137,283	77,094	-0,171	-0,127
138,297	24,510	-0,294	-0,170
139,312	155,208	-0,222	-0,214
140,327	94,441	-0,237	-0,189
141,341	115,805	-0,302	-0,259
142,356	69,059	-0,209	-0,150
143,370	36,060	-0,234	-0,144
144,385	335,097	-0,175	-0,238
145,400	-43,904	-0,127	-0,044
146,414	112,573	-0,189	-0,160
147,429	80,789	-0,217	-0,164
148,443	-77,992	-0,299	-0,072
149,458	800,000	-0,107	-0,279
150,473	-32,671	-0,241	-0,093
151,487	3,000	-0,156	-0,079
152,502	-20,373	-0,273	-0,117
153,516	-24,195	-0,247	-0,103
154,531	-41,634	-0,250	-0,089
155,546	-65,802	-0,230	-0,064
156,560	-6,046	-0,264	-0,126
157,575	54,409	-0,266	-0,179
158,589	167,689	-0,193	-0,192
159,604	263,619	-0,173	-0,211
160,619	101,362	-0,297	-0,242
161,633	149,009	-0,226	-0,214
162,648	-23,934	-0,382	-0,159
163,662	134,204	-0,186	-0,169
164,677	63,662	-0,261	-0,183
165,692	-57,083	-0,306	-0,094
166,706	800,000	-0,102	-0,214
167,721	414,676	-0,088	-0,131
168,735	277,913	-0,206	-0,257
169,750	-74,385	-0,224	-0,056
170,764	251,379	-0,093	-0,111
171,779	180,950	-0,245	-0,251
172,794	240,816	-0,144	-0,168
173,808	-82,691	-0,228	-0,051
174,823	272,650	-0,154	-0,191
175,837	118,149	-0,223	-0,192
176,852	311,962	-0,182	-0,239
177,867	679,999	-0,161	-0,295
178,881	56,869	-0,221	-0,150
179,896	117,582	-0,196	-0,168
180,910	90,980	-0,218	-0,171
181,925	-0,168	-0,183	-0,091
182,940	-87,104	-0,208	-0,044
183,954	-1,907	-0,363	-0,178
184,969	451,152	-0,185	-0,287
185,983	66,748	-0,167	-0,118
186,998	-25,771	-0,267	-0,110
188,013	-91,438	-0,310	-0,061
189,027	-64,548	-0,198	-0,056
190,042	14,468	-0,172	-0,093
191,056	-24,742	-0,200	-0,083
192,071	58,976	-0,236	-0,162
193,086	-51,798	-0,060	0,020
194,100	25,264	-0,189	-0,109
195,115	47,406	-0,249	-0,161
196,129	163,212	-0,162	-0,158
197,144	800,000	-0,105	-0,208
198,159	-102,433	-0,192	-0,032
199,173	13,739	-0,243	-0,131
200,188	32,188	-0,182	-0,109
201,202	-17,477	-0,213	-0,093
202,217	412,712	-0,108	-0,160
203,232	-62,694	-0,220	-0,063
204,246	239,699	-0,248	-0,288
205,261	-3,421	-0,211	-0,102
206,275	-56,388	-0,242	-0,074
207,290	1,214	-0,152	-0,076
208,304	800,000	-0,031	-0,073
209,319	-23,839	-0,088	-0,037
210,334	17,737	-0,261	-0,144
211,348	29,010	-0,230	-0,135
212,363	-139,447	-0,144	0,011
213,377	-10,441	-0,203	-0,093
214,392	429,219	-0,077	-0,116
215,407	82,762	-0,143	-0,108
216,421	16,580	-0,326	-0,179
217,436	-8,552	-0,208	-0,097
218,450	475,317	-0,163	-0,257
219,465	88,769	-0,135	-0,104
220,480	138,560	-0,170	-0,155
221,494	-13,855	-0,256	-0,114
222,509	142,326	-0,184	-0,170
223,523	31,415	-0,253	-0,151
224,538	-93,327	-0,278	-0,053
225,553	170,631	-0,170	-0,170
226,567	194,648	-0,226	-0,238
227,582	531,242	-0,099	-0,164
228,596	91,598	-0,289	-0,226
229,611	800,000	-0,085	-0,169
230,626	-200,000	-0,057	-0,184
231,640	-2,133	-0,147	-0,072
232,655	38,154	-0,281	-0,173
233,669	185,326	-0,098	-0,102
234,684	75,129	-0,270	-0,197
235,699	365,967	-0,102	-0,143
236,713	800,000	-0,056	-0,150
237,728	21,469	-0,195	-0,110
238,742	-194,807	-0,313	-0,002
239,757	130,633	-0,088	-0,078
240,772	-5,700	-0,226	-0,107
241,786	-32,783	-0,251	-0,096
242,801	-82,876	-0,317	-0,070
243,815	113,342	-0,116	-0,098
244,830	145,901	-0,092	-0,086
245,844	158,960	-0,149	-0,144
246,859	131,816	-0,173	-0,154
247,874	800,000	-0,076	-0,198
248,888	24,050	-0,234	-0,134
249,903	57,501	-0,182	-0,123
250,917	64,491	-0,229	-0,160
251,932	800,000	-0,075	-0,159
252,947	800,000	-0,068	-0,154
253,961	95,522	-0,198	-0,157
254,976	-88,059	-0,259	-0,053
255,990	-9,979	-0,220	-0,101
257,005	557,724	-0,113	-0,190
258,020	342,452	-0,078	-0,106
259,034	179,842	0,016	-0,017
260,049	-33,740	-0,310	-0,118
261,063	-161,384	-0,174	0,006
262,078	349,908	-0,139	-0,191
263,093	124,787	-0,212	-0,185
264,107	-117,871	-0,232	-0,029
265,122	-200,000	-0,001	-0,113
266,136	-4,066	-0,169	-0,081
267,151	17,904	-0,201	-0,111
268,166	201,171	-0,132	-0,141
269,180	195,768	-0,252	-0,266
270,195	-6,277	-0,156	-0,073
271,209	800,000	-0,114	-0,224
272,224	82,187	-0,158	-0,118
273,239	750,521	-0,130	-0,243
274,253	465,737	-0,052	-0,080
275,268	-3,602	-0,283	-0,136
276,282	-44,946	-0,275	-0,094
277,297	202,337	-0,087	-0,093
278,312	131,427	-0,155	-0,138
279,326	-41,142	-0,201	-0,072
280,341	201,216	-0,133	-0,142
281,355	-155,089	-0,114	-0,005
282,370	-30,622	-0,047	-0,018
283,384	333,294	-0,122	-0,164
284,399	184,247	-0,160	-0,164
285,414	-156,185	-0,080	0,003
286,428	-200,000	0,016	-0,128
287,443	-14,464	-0,159	-0,070
288,457	445,512	-0,105	-0,160
289,472	-55,900	-0,057	-0,017
290,487	-40,259	-0,269	-0,096
291,501	800,000	0,045	-0,132
292,516	-163,110	-0,057	-0,002
293,530	99,495	-0,153	-0,122
294,545	-144,336	-0,092	-0,006
295,560	-167,009	-0,141	-0,004
296,574	439,660	-0,163	-0,247
297,589	553,542	-0,062	-0,103
298,603	338,421	-0,062	-0,084
299,618	-22,915	-0,116	-0,048
300,633	464,045	-0,124	-0,192
301,647	4,128	-0,094	-0,048
302,662	38,038	-0,016	-0,010
303,676	-10,514	-0,214	-0,098
304,691	-5,148	-0,204	-0,097
305,706	-200,000	-0,023	-0,166
306,720	3,051	-0,187	-0,093
307,735	37,234	-0,134	-0,082
308,749	219,896	-0,076	-0,084
309,764	-57,768	-0,110	-0,033
310,779	75,672	-0,165	-0,120
311,793	97,366	-0,145	-0,115
312,808	205,259	-0,065	-0,070
313,822	335,927	-0,179	-0,240
314,837	10,538	-0,126	-0,066
315,852	106,190	-0,057	-0,046
316,866	68,659	-0,130	-0,092
317,881	-138,713	-0,225	0,017
318,895	41,393	-0,199	-0,124
319,910	-24,757	-0,181	-0,074
320,925	285,076	-0,143	-0,178
321,939	-29,541	-0,154	-0,060
322,954	-122,349	-0,146	0,016
323,968	-93,634	-0,243	-0,046
324,983	131,326	-0,127	-0,113
325,997	-0,587	-0,120	-0,058
327,012	477,673	-0,149	-0,233
328,027	33,802	-0,114	-0,068
329,041	268,129	-0,225	-0,272
330,056	91,798	-0,119	-0,092
331,070	-93,772	-0,064	-0,012
332,085	-50,531	-0,151	-0,049
333,100	217,230	-0,092	-0,101
334,114	-128,748	-0,202	0,019
335,129	211,778	-0,177	-0,193
336,143	39,429	-0,049	-0,030
337,158	-37,907	-0,046	0,017
338,173	133,497	-0,161	-0,143
339,187	0,046	-0,265	-0,129
340,202	28,163	-0,138	-0,080
341,216	-30,485	-0,180	-0,070
342,231	41,521	-0,211	-0,131
343,246	-134,019	-0,249	-0,021
344,260	-200,000	-0,025	-0,267
345,275	-8,832	-0,222	0,102
346,289	-143,054	-0,152	-0,010
347,304	147,436	-0,037	0,034
348,319	-29,047	-0,153	-0,060
349,333	22,996	-0,126	-0,071
350,348	53,660	-0,197	-0,130
351,362	-38,008	-0,122	-0,045
352,377	102,064	-0,038	0,031
353,392	800,000	-0,055	-0,146
354,406	257,258	-0,076	-0,090
355,421	208,314	1313,464	1413,898
356,435	160,282	1473,771	1414,135
