DTS Sentinel unit serial number:	SN410029Multiplexer serial number:	ORYXHardware model number:	OX2-SRSoftware version number:	ORYX F/W v4,00 Oryx Data Collector v3.7.2.0data status	okinstallation	B3 Nyhavnadifferential loss correction	single-endedforward channel	channel 1reverse channel	N/Adate	2023/11/28time	22:42:30forward acquisition time	300,00reverse acquisition time	0,00gamma	499,1914k internal	0,3212k external	0,3212temperature offset calibration	1,0000default loss term (dB/km)	0,3820temperature slope calibration	1,0000multiplexer offset coefficient	1,0000multiplexer slope coefficient	1,0000fibre end	0,00T internal ref (°C)	8,62T ext. ref 1 (°C)	-5,98T ext. ref 2 (°C)	-6,14length (m)	temperature (°C)	Stokes	anti-Stokes-744,400	542,502	-0,142	-0,246
-743,385	-200,000	-0,038	0,137
-742,371	564,313	-0,151	-0,265
-741,356	-200,000	0,094	0,338
-740,342	280,800	-0,180	-0,234
-739,327	507,961	-0,116	0,196
-738,312	800,000	-0,109	-0,257
-737,298	800,000	-0,076	0,222
-736,283	2,827	-0,218	-0,114
-735,269	452,678	0,130	0,209
-734,254	192,464	-0,123	-0,134
-733,239	-46,267	-0,250	0,089
-732,225	800,000	-0,064	-0,181
-731,210	232,515	0,066	0,079
-730,196	-37,535	-0,078	0,030
-729,181	-18,296	-0,087	-0,039
-728,167	800,000	0,056	-0,139
-727,152	233,260	0,025	-0,029
-726,137	407,865	-0,058	-0,089
-725,123	-67,589	0,051	0,014
-724,108	95,066	-0,036	-0,029
-723,094	330,461	-0,084	0,117
-722,079	286,756	-0,058	-0,076
-721,064	102,440	0,080	-0,067
-720,050	45,746	0,051	-0,034
-719,035	-200,000	0,008	-0,115
-718,021	800,000	-0,050	-0,117
-717,006	54,661	-0,130	-0,091
-715,991	358,586	-0,144	-0,210
-714,977	-200,000	-0,009	-0,110
-713,962	187,312	-0,085	0,092
-712,948	-64,005	-0,078	-0,023
-711,933	-200,000	-0,031	0,126
-710,918	-104,688	-0,045	0,007
-709,904	-200,000	0,012	0,065
-708,889	-137,182	-0,124	0,010
-707,875	-170,999	-0,130	0,003
-706,860	800,000	0,051	-0,103
-705,845	-5,169	0,028	0,014
-704,831	-94,894	-0,042	0,008
-703,816	658,960	0,043	0,080
-702,802	19,760	0,061	0,035
-701,787	-50,707	-0,217	-0,074
-700,772	250,841	0,065	-0,080
-699,758	144,068	0,054	-0,053
-698,743	455,948	-0,064	-0,103
-697,729	-35,721	-0,081	0,031
-696,714	-200,000	-0,005	0,093
-695,699	589,395	0,014	-0,025
-694,685	461,819	0,035	0,057
-693,670	800,000	-0,038	-0,099
-692,656	27,304	0,091	-0,055
-691,641	-78,531	-0,095	-0,023
-690,627	800,000	0,038	0,114
-689,612	-200,000	0,006	0,058
-688,597	-200,000	-0,047	-0,188
-687,583	22,423	0,103	-0,061
-686,568	-200,000	-0,016	-0,088
-685,554	58,346	0,103	-0,073
-684,539	-97,599	-0,088	-0,016
-683,524	175,187	0,077	0,081
-682,510	-200,000	-0,036	-0,197
-681,495	800,000	0,028	-0,074
-680,481	205,466	-0,040	0,045
-679,466	-200,000	-0,020	-0,078
-678,451	219,387	0,103	-0,119
-677,437	-200,000	0,022	-0,142
-676,422	800,000	0,016	0,035
-675,408	416,514	-0,088	0,136
-674,393	-88,012	-0,170	-0,037
-673,378	131,843	-0,039	-0,036
-672,364	118,618	-0,062	-0,055
-671,349	267,506	0,064	-0,081
-670,335	179,458	-0,029	0,031
-669,320	-200,000	0,006	0,124
-668,305	355,063	0,053	-0,076
-667,291	223,115	0,059	0,069
-666,276	-91,182	-0,148	-0,030
-665,262	678,485	-0,024	-0,045
-664,247	595,723	-0,019	0,033
-663,232	800,000	0,041	0,086
-662,218	167,096	-0,081	0,083
-661,203	21,775	-0,099	-0,058
-660,189	-32,067	0,077	0,031
-659,174	-60,321	0,011	-0,003
-658,159	-200,000	0,023	-0,093
-657,145	-200,000	-0,005	-0,091
-656,130	137,494	-0,094	-0,089
-655,116	-88,334	0,036	-0,008
-654,101	166,618	0,066	0,068
-653,086	96,325	0,062	-0,051
-652,072	-200,000	0,009	0,126
-651,057	-200,000	0,000	-0,137
-650,043	-20,725	-0,099	-0,044
-649,028	-142,089	-0,043	-0,003
-648,014	-200,000	-0,028	0,107
-646,999	-127,623	-0,034	-0,004
-645,984	367,213	-0,074	-0,109
-644,970	-117,150	0,014	-0,002
-643,955	-43,689	-0,051	0,018
-642,941	-68,905	-0,080	-0,022
-641,926	-169,290	-0,051	0,001
-640,911	436,328	-0,102	0,161
-639,897	253,771	0,059	-0,072
-638,882	513,949	-0,063	0,107
-637,868	56,445	0,055	-0,039
-636,853	616,666	-0,082	-0,148
-635,838	800,000	-0,011	-0,022
-634,824	44,113	-0,064	0,042
-633,809	-200,000	-0,021	0,087
-632,795	575,859	-0,044	0,077
-631,780	-73,000	0,058	-0,015
-630,765	-200,000	0,013	-0,137
-629,751	437,001	-0,074	-0,116
-628,736	-177,414	-0,019	0,000
-627,722	800,000	0,020	-0,051
-626,707	56,591	-0,032	-0,023
-625,692	229,211	-0,027	0,032
-624,678	-200,000	-0,012	0,047
-623,663	-200,000	0,008	-0,079
-622,649	-27,155	-0,106	-0,044
-621,634	-200,000	0,004	0,031
-620,619	83,412	0,024	0,019
-619,605	492,584	0,015	-0,025
-618,590	-90,472	-0,138	-0,029
-617,576	800,000	-0,033	0,093
-616,561	20,304	-0,016	-0,009
-615,546	124,921	-0,033	0,030
-614,532	-8,718	0,143	-0,069
-613,517	-200,000	0,024	-0,211
-612,503	800,000	-0,029	0,079
-611,488	234,102	-0,044	-0,052
-610,474	-200,000	0,013	-0,093
-609,459	-163,312	0,066	-0,002
-608,444	472,291	-0,098	-0,160
-607,430	285,742	-0,137	-0,178
-606,415	396,914	0,054	-0,081
-605,401	-84,704	0,025	0,006
-604,386	800,000	-0,060	0,123
-603,371	-92,073	0,175	0,035
-602,357	-200,000	0,010	-0,060
-601,342	-166,339	-0,152	-0,005
-600,328	-10,612	0,060	-0,029
-599,313	614,737	-0,083	-0,151
-598,298	-200,000	0,005	0,065
-597,284	-2,204	0,007	0,003
-596,269	-200,000	0,009	0,071
-595,255	-53,190	0,027	0,009
-594,240	-128,762	-0,191	0,019
-593,225	-13,907	0,107	0,050
-592,211	8,373	-0,056	-0,030
-591,196	800,000	-0,030	-0,091
-590,182	36,066	0,158	0,100
-589,167	-60,577	0,048	0,015
-588,152	-5,900	0,083	-0,041
-587,138	708,840	0,035	-0,067
-586,123	-27,798	-0,126	-0,053
-585,109	-200,000	-0,019	0,073
-584,094	-148,822	0,096	0,006
-583,079	-200,000	0,055	0,176
-582,065	-200,000	-0,009	0,089
-581,050	286,386	0,085	-0,111
-580,036	800,000	0,062	-0,143
-579,021	36,579	-0,106	-0,068
-578,006	-53,073	-0,043	-0,014
-576,992	-7,515	0,069	0,034
-575,977	-106,903	0,034	-0,005
-574,963	-200,000	-0,018	0,127
-573,948	-146,280	0,018	0,001
-572,934	572,601	-0,037	-0,064
-571,919	520,792	0,047	0,079
-570,904	-200,000	-0,022	-0,171
-569,890	113,014	-0,063	-0,055
-568,875	93,840	0,104	-0,085
-567,861	31,425	-0,046	0,029
-566,846	-50,438	-0,129	0,044
-565,831	151,540	-0,090	0,089
-564,817	112,969	-0,024	-0,021
-563,802	11,440	-0,019	-0,011
-562,788	-28,257	-0,079	-0,033
-561,773	376,678	-0,065	0,096
-560,758	800,000	-0,059	0,147
-559,744	100,031	-0,060	0,050
-558,729	304,556	0,013	0,018
-557,715	-200,000	0,006	-0,031
-556,700	1,955	-0,115	-0,059
-555,685	329,485	0,061	-0,085
-554,671	800,000	0,052	-0,106
-553,656	800,000	0,046	0,110
-552,642	800,000	0,055	0,147
-551,627	277,550	-0,069	-0,089
-550,612	121,235	0,073	0,066
-549,598	-200,000	0,001	-0,153
-548,583	800,000	0,053	0,128
-547,569	800,000	0,027	-0,059
-546,554	-200,000	-0,002	-0,011
-545,539	-148,054	-0,030	0,002
-544,525	-200,000	0,041	0,169
-543,510	-200,000	-0,033	-0,109
-542,496	-200,000	0,014	-0,052
-541,481	42,692	-0,092	-0,060
-540,466	193,634	0,127	0,138
-539,452	467,381	0,037	-0,060
-538,437	-93,359	0,082	0,016
-537,423	219,996	0,085	-0,098
-536,408	-110,715	-0,104	0,015
-535,393	-200,000	0,006	-0,041
-534,379	179,110	0,074	-0,077
-533,364	-91,530	-0,084	0,017
-532,350	-1,690	0,041	0,021
-531,335	-159,097	-0,070	-0,003
-530,321	-200,000	0,011	0,050
-529,306	-200,000	-0,016	0,090
-528,291	-132,335	0,108	-0,010
-527,277	362,944	-0,091	-0,132
-526,262	770,552	0,051	0,100
-525,248	33,904	0,028	0,018
-524,233	455,865	0,020	0,033
-523,218	-166,351	-0,091	0,003
-522,204	374,523	-0,061	-0,089
-521,189	780,771	0,065	-0,128
-520,175	800,000	-0,032	-0,066
-519,160	-22,172	0,136	-0,059
-518,145	-200,000	-0,015	0,155
-517,131	129,865	0,069	-0,063
-516,116	289,045	0,041	0,054
-515,102	347,940	0,035	-0,050
-514,087	-84,797	-0,091	-0,020
-513,072	474,417	-0,042	-0,068
-512,058	37,724	0,135	-0,086
-511,043	800,000	0,034	-0,103
-510,029	575,607	0,033	-0,059
-509,014	-200,000	0,008	0,095
-507,999	-7,576	-0,091	0,044
-506,985	800,000	-0,060	-0,178
-505,970	-12,986	-0,151	0,070
-504,956	-86,030	-0,115	-0,025
-503,941	14,907	-0,083	0,047
-502,926	-98,690	0,046	-0,008
-501,912	-200,000	0,020	0,148
-500,897	-200,000	-0,014	0,105
-499,883	-75,362	-0,053	-0,013
-498,868	272,456	-0,168	0,213
-497,853	800,000	0,034	0,081
-496,839	-200,000	-0,007	0,038
-495,824	-72,827	-0,097	-0,025
-494,810	-168,057	-0,126	0,003
-493,795	-200,000	0,017	0,092
-492,781	-200,000	-0,031	-0,124
-491,766	800,000	-0,062	-0,159
-490,751	-200,000	-0,028	-0,113
-489,737	-200,000	0,017	-0,164
-488,722	800,000	-0,036	-0,088
-487,708	-200,000	-0,001	0,022
-486,693	104,734	-0,096	-0,081
-485,678	-37,761	0,082	-0,031
-484,664	-31,702	-0,125	0,050
-483,649	131,739	-0,074	-0,068
-482,635	37,712	0,070	-0,044
-481,620	263,648	-0,089	0,111
-480,605	-200,000	-0,017	0,111
-479,591	469,546	-0,037	-0,060
-478,576	-170,042	-0,108	0,003
-477,562	74,218	0,042	0,032
-476,547	306,721	-0,058	-0,078
-475,532	-21,780	-0,078	0,034
-474,518	-200,000	0,009	-0,074
-473,503	800,000	0,050	-0,137
-472,489	800,000	0,036	0,085
-471,474	-69,970	0,069	0,019
-470,459	336,923	-0,087	0,121
-469,445	800,000	0,022	-0,059
-468,430	-200,000	-0,013	0,081
-467,416	-200,000	0,009	-0,036
-466,401	190,021	0,103	0,111
-465,386	-68,050	0,125	0,035
-464,372	115,757	0,061	0,053
-463,357	-200,000	-0,025	0,119
-462,343	594,927	0,066	0,117
-461,328	92,440	-0,065	-0,053
-460,313	-148,746	0,104	0,006
-459,299	-200,000	0,017	0,109
-458,284	114,242	0,041	0,036
-457,270	-19,267	0,109	0,049
-456,255	302,205	0,046	0,061
-455,241	109,587	-0,161	0,138
-454,226	-84,666	0,059	0,013
-453,211	-76,588	-0,079	-0,020
-452,197	-93,294	0,074	-0,015
-451,182	800,000	-0,029	0,078
-450,168	800,000	0,038	0,106
-449,153	-147,235	0,076	0,005
-448,138	-133,391	-0,094	0,008
-447,124	800,000	-0,039	-0,106
-446,109	683,287	-0,041	-0,077
-445,095	-200,000	0,003	0,116
-444,080	-200,000	0,009	0,037
-443,065	-200,000	0,007	0,030
-442,051	384,770	0,033	0,048
-441,036	800,000	-0,025	0,071
-440,022	-200,000	-0,009	-0,075
-439,007	416,086	-0,094	-0,144
-437,992	272,428	-0,044	0,056
-436,978	-105,715	0,141	-0,023
-435,963	800,000	0,047	0,124
-434,949	-81,541	-0,127	-0,030
-433,934	-200,000	0,006	-0,123
-432,919	-200,000	-0,034	-0,120
-431,905	369,621	-0,060	-0,087
-430,890	51,285	0,082	-0,056
-429,876	655,115	0,080	0,147
-428,861	12,490	0,066	0,036
-427,846	119,945	0,044	0,039
-426,832	0,114	-0,040	-0,020
-425,817	-36,583	-0,118	-0,045
-424,803	-45,057	-0,121	0,043
-423,788	-136,410	0,133	0,011
-422,773	-127,900	-0,083	-0,008
-421,759	-85,817	0,160	-0,035
-420,744	0,138	-0,138	0,070
-419,730	-100,163	0,097	0,017
-418,715	-200,000	0,003	0,014
-417,701	-111,633	0,096	-0,014
-416,686	135,917	0,034	-0,032
-415,671	-200,000	0,007	0,038
-414,657	32,106	0,066	-0,041
-413,642	800,000	-0,082	0,246
-412,628	704,215	0,053	0,101
-411,613	-32,370	-0,125	-0,050
-410,598	-200,000	-0,019	-0,063
-409,584	-5,396	0,016	0,008
-408,569	-200,000	-0,000	-0,017
-407,555	36,693	-0,070	0,044
-406,540	800,000	0,025	-0,052
-405,525	800,000	-0,026	-0,068
-404,511	800,000	-0,048	-0,141
-403,496	300,493	-0,120	-0,158
-402,482	-123,761	0,094	0,010
-401,467	126,359	0,076	0,069
-400,452	-181,527	-0,110	-0,001
-399,438	36,917	0,081	-0,051
-398,423	-106,485	0,106	-0,017
-397,409	-33,138	-0,111	-0,044
-396,394	-200,000	-0,015	-0,071
-395,379	2,498	-0,084	0,044
-394,365	800,000	0,033	-0,101
-393,350	-98,011	0,087	-0,016
-392,336	478,617	0,028	0,045
-391,321	-98,938	0,065	-0,012
-390,306	-185,982	0,071	-0,001
-389,292	800,000	-0,036	0,093
-388,277	-200,000	-0,008	0,097
-387,263	510,111	0,041	0,068
-386,248	213,280	0,053	0,060
-385,233	36,489	0,053	0,034
-384,219	676,469	-0,050	-0,094
-383,204	-118,321	-0,059	-0,007
-382,190	-80,170	-0,106	-0,025
-381,175	800,000	0,035	-0,085
-380,160	169,308	-0,090	-0,092
-379,146	-133,952	-0,053	0,005
-378,131	-200,000	0,002	0,129
-377,117	120,671	0,047	0,042
-376,102	-54,765	-0,025	-0,008
-375,088	800,000	0,072	-0,152
-374,073	32,560	-0,091	-0,056
-373,058	800,000	0,053	-0,115
-372,044	84,588	0,103	0,081
-371,029	612,743	0,093	0,166
-370,015	244,385	-0,088	-0,106
-369,000	-89,758	-0,122	0,025
-367,985	-200,000	-0,011	0,078
-366,971	55,267	-0,051	-0,036
-365,956	-112,796	0,025	-0,004
-364,942	68,717	0,031	0,022
-363,927	-200,000	0,032	0,121
-362,912	738,798	-0,042	-0,080
-361,898	-63,835	0,108	-0,031
-360,883	136,026	-0,064	0,059
-359,869	800,000	0,068	0,145
-358,854	800,000	0,080	0,202
-357,839	145,397	-0,038	-0,036
-356,825	433,536	-0,024	0,037
-355,810	-200,000	-0,015	0,076
-354,796	800,000	0,032	-0,075
-353,781	-200,000	-0,007	-0,038
-352,766	-33,527	-0,087	-0,034
-351,752	-121,385	0,010	-0,001
-350,737	-200,000	0,132	0,000
-349,723	-200,000	0,033	0,128
-348,708	-2,010	0,031	0,015
-347,693	94,073	-0,054	-0,044
-346,679	494,351	0,063	0,103
-345,664	-68,177	-0,053	-0,015
-344,650	-77,107	0,087	0,021
-343,635	-200,000	-0,011	0,073
-342,620	-142,410	0,064	-0,004
-341,606	686,844	0,095	-0,179
-340,591	-200,000	-0,023	-0,118
-339,577	55,281	-0,113	0,078
-338,562	-145,481	0,151	0,010
-337,548	800,000	-0,039	0,096
-336,533	260,660	-0,037	-0,046
-335,518	47,146	0,032	-0,021
-334,504	800,000	-0,016	0,034
-333,489	7,799	-0,017	-0,009
-332,475	-200,000	0,003	-0,041
-331,460	-200,000	-0,012	-0,047
-330,445	-200,000	0,035	-0,126
-329,431	140,838	0,073	0,069
-328,416	-53,538	0,114	-0,037
-327,402	-27,406	0,093	-0,039
-326,387	86,789	0,029	-0,023
-325,372	93,580	-0,079	0,064
-324,358	15,132	-0,008	-0,004
-323,343	-200,000	-0,009	-0,077
-322,329	6,432	0,139	0,073
-321,314	-108,826	0,072	-0,011
-320,299	186,000	-0,043	0,045
-319,285	-200,000	-0,003	-0,067
-318,270	-48,456	-0,193	-0,066
-317,256	25,194	-0,063	0,037
-316,241	-200,000	0,025	-0,119
-315,226	800,000	0,067	-0,135
-314,212	67,496	0,076	-0,055
-313,197	205,064	-0,038	0,042
-312,183	-200,000	-0,037	-0,117
-311,168	-153,217	-0,071	0,003
-310,153	-82,447	0,166	0,038
-309,139	599,237	-0,061	-0,109
-308,124	11,820	0,071	0,039
-307,110	-125,748	0,172	0,018
-306,095	800,000	0,065	0,131
-305,080	-70,453	0,183	-0,049
-304,066	-138,227	-0,154	0,012
-303,051	-170,932	-0,162	-0,004
-302,037	22,374	0,038	-0,022
-301,022	295,395	0,061	0,080
-300,008	-200,000	0,027	0,150
-298,993	53,798	0,125	0,086
-297,978	800,000	-0,020	0,043
-296,964	71,920	0,101	-0,075
-295,949	-200,000	0,032	-0,177
-294,935	3,523	0,063	-0,033
-293,920	-200,000	-0,006	0,024
-292,905	800,000	-0,013	0,037
-291,891	-200,000	0,009	-0,083
-290,876	468,535	0,078	-0,125
-289,862	436,303	0,019	0,030
-288,847	-87,468	-0,053	0,011
-287,832	800,000	-0,048	-0,128
-286,818	-74,385	-0,125	0,032
-285,803	-200,000	-0,022	0,073
-284,789	800,000	0,039	0,092
-283,774	186,346	0,037	0,039
-282,759	231,197	0,045	0,053
-281,745	24,674	-0,093	-0,054
-280,730	-200,000	-0,002	0,022
-279,716	800,000	0,061	-0,133
-278,701	425,344	0,055	0,085
-277,686	800,000	0,053	-0,142
-276,672	110,944	-0,016	0,014
-275,657	-78,238	0,217	0,053
-274,643	612,110	-0,018	0,033
-273,628	82,308	-0,078	-0,060
-272,613	154,520	-0,019	0,019
-271,599	653,245	0,041	0,075
-270,584	-200,000	0,003	0,083
-269,570	67,089	-0,026	-0,019
-268,555	-104,677	0,083	-0,013
-267,540	787,137	-0,047	0,092
-266,526	800,000	-0,014	-0,027
-265,511	800,000	-0,005	0,013
-264,497	13,238	0,091	0,050
-263,482	429,512	-0,084	0,129
-262,467	632,604	0,034	0,062
-261,453	-200,000	-0,008	-0,041
-260,438	-113,427	0,105	0,014
-259,424	-200,000	-0,000	-0,102
-258,409	-51,629	0,140	-0,046
-257,395	-200,000	0,005	0,083
-256,380	716,795	0,049	-0,093
-255,365	-58,456	0,046	-0,014
-254,351	-200,000	-0,015	0,109
-253,336	-8,141	-0,083	-0,040
-252,322	7,752	-0,100	0,053
-251,307	26,098	0,055	0,033
-250,292	-10,111	-0,113	-0,053
-249,278	-200,000	0,141	-0,000
-248,263	743,011	-0,075	0,144
-247,249	152,541	0,108	-0,105
-246,234	-200,000	-0,001	-0,117
-245,219	800,000	-0,076	-0,159
-244,205	338,577	-0,103	-0,144
-243,190	-156,139	0,073	-0,003
-242,176	230,984	0,048	0,056
-241,161	748,790	0,118	0,227
-240,146	593,908	0,050	-0,088
-239,132	800,000	0,022	0,059
-238,117	31,491	-0,074	-0,045
-237,103	114,077	0,028	-0,024
-236,088	-29,244	0,123	-0,050
-235,073	-78,385	-0,021	0,005
-234,059	-200,000	0,003	0,106
-233,044	15,678	-0,092	-0,051
-232,030	-47,926	0,040	-0,014
-231,015	386,567	-0,048	-0,070
-230,000	-4,293	-0,067	-0,033
-228,986	147,033	-0,017	-0,016
-227,971	542,988	0,036	0,062
-226,957	4,266	-0,116	0,060
-225,942	-200,000	-0,009	-0,049
-224,927	-0,387	-0,059	0,030
-223,913	142,396	0,041	0,039
-222,898	800,000	0,029	0,062
-221,884	-127,807	0,041	0,004
-220,869	522,497	0,043	0,072
-219,855	-200,000	-0,010	-0,052
-218,840	184,109	-0,073	0,076
-217,825	26,653	-0,140	0,083
-216,811	261,227	0,052	0,064
-215,796	-200,000	-0,070	-0,222
-214,782	90,171	-0,130	0,103
-213,767	-200,000	0,006	0,087
-212,752	28,162	0,108	-0,065
-211,738	-4,379	0,123	-0,060
-210,723	-200,000	0,000	-0,111
-209,709	-5,660	-0,092	0,045
-208,694	-66,544	0,085	0,024
-207,679	-200,000	0,033	-0,148
-206,665	800,000	-0,051	0,110
-205,650	275,619	-0,030	0,037
-204,636	-200,000	-0,003	-0,065
-203,621	-123,414	0,006	-0,001
-202,606	-200,000	-0,020	-0,069
-201,592	-31,191	0,113	-0,045
-200,577	50,756	0,079	-0,053
-199,563	271,975	-0,021	0,027
-198,548	-123,801	0,184	0,020
-197,533	800,000	-0,049	-0,140
-196,519	-200,000	0,010	0,062
-195,504	-195,133	-0,079	-0,000
-194,490	185,627	-0,069	-0,072
-193,475	29,833	0,116	-0,070
-192,460	4,031	-0,084	-0,044
-191,446	-35,036	-0,231	0,089
-190,431	50,718	-0,047	-0,031
-189,417	145,609	0,041	0,039
-188,402	212,188	-0,005	0,005
-187,387	-48,609	-0,097	0,033
-186,373	800,000	-0,018	0,055
-185,358	800,000	0,060	0,163
-184,344	-5,939	0,069	0,033
-183,329	95,019	0,054	0,044
-182,315	800,000	-0,010	0,030
-181,300	112,897	-0,086	0,074
-180,285	475,872	-0,074	0,119
-179,271	-200,000	-0,026	-0,093
-178,256	330,619	-0,061	-0,084
-177,242	-200,000	-0,001	0,011
-176,227	-99,938	0,110	-0,019
-175,212	-200,000	0,011	0,053
-174,198	-35,628	0,060	-0,023
-173,183	-27,012	-0,096	-0,040
-172,169	-75,828	0,064	-0,016
-171,154	-79,209	-0,230	0,055
-170,139	800,000	-0,043	0,105
-169,125	-121,037	0,086	-0,010
-168,110	91,240	0,106	0,084
-167,096	180,609	0,061	0,063
-166,081	-67,313	-0,042	0,012
-165,066	-200,000	0,009	-0,082
-164,052	-200,000	-0,015	0,125
-163,037	-200,000	-0,002	-0,097
-162,023	-200,000	-0,017	-0,077
-161,008	-63,142	0,163	0,047
-159,993	-200,000	0,010	-0,034
-158,979	-142,514	-0,101	0,007
-157,964	265,243	0,049	0,061
-156,950	-59,774	0,040	0,012
-155,935	-200,000	-0,036	0,124
-154,920	-84,487	0,067	0,015
-153,906	-200,000	0,027	0,108
-152,891	-67,467	0,086	-0,024
-151,877	2,414	0,039	0,020
-150,862	74,774	0,044	-0,033
-149,847	49,301	-0,052	0,035
-148,833	685,625	-0,059	-0,109
-147,818	-91,975	-0,079	-0,016
-146,804	-200,000	-0,002	-0,132
-145,789	165,519	0,103	0,103
-144,775	-7,405	-0,162	-0,077
-143,760	494,379	-0,036	-0,059
-142,745	6,383	-0,041	0,021
-141,731	259,302	0,069	-0,085
-140,716	-200,000	0,023	-0,117
-139,702	63,907	-0,075	0,053
-138,687	654,636	-0,108	0,197
-137,672	216,318	-0,090	0,102
-136,658	-200,000	0,018	-0,176
-135,643	618,586	0,044	-0,078
-134,629	33,943	-0,019	-0,012
-133,614	-200,000	0,004	0,014
-132,599	510,847	-0,030	0,049
-131,585	-96,886	0,132	-0,024
-130,570	283,534	0,101	-0,128
-129,556	226,962	-0,028	0,032
-128,541	-200,000	0,009	-0,073
-127,526	-122,600	-0,056	0,006
-126,512	237,611	-0,026	0,031
-125,497	148,525	0,040	-0,038
-124,483	-167,389	-0,210	0,006
-123,468	3,319	0,103	-0,053
-122,453	-31,356	0,117	-0,046
-121,439	448,135	0,050	-0,078
-120,424	-40,262	0,086	0,032
-119,410	86,638	-0,030	-0,023
-118,395	800,000	-0,018	-0,049
-117,380	-200,000	0,010	0,084
-116,366	129,806	-0,145	-0,131
-115,351	53,492	-0,109	0,074
-114,337	12,405	-0,238	-0,129
-113,322	-38,039	0,051	-0,019
-112,307	362,188	-0,060	-0,086
-111,293	-102,394	0,190	-0,032
-110,278	309,972	-0,057	0,076
-109,264	194,938	0,029	-0,031
-108,249	-56,444	0,024	0,007
-107,234	-85,084	0,207	-0,046
-106,220	-64,911	-0,168	-0,048
-105,205	115,615	0,060	-0,052
-104,191	-22,013	0,107	0,046
-103,176	555,965	-0,076	0,131
-102,162	102,864	0,048	-0,040
-101,147	-58,203	0,121	0,037
-100,132	-99,239	-0,181	-0,032
-99,118	800,000	-0,019	0,048
-98,103	800,000	-0,020	0,052
-97,089	174,979	-0,032	0,033
-96,074	332,831	-0,012	-0,016
-95,059	800,000	0,066	0,187
-94,045	-129,023	-0,157	0,015
-93,030	277,302	0,059	0,074
-92,016	684,978	-0,069	-0,129
-91,001	394,388	-0,065	-0,096
-89,986	442,033	0,032	0,049
-88,972	686,148	-0,077	0,142
-87,957	223,893	0,052	0,059
-86,943	-200,000	-0,005	0,082
-85,928	800,000	-0,054	0,109
-84,913	243,886	-0,054	0,064
-83,899	60,416	-0,080	0,056
-82,884	800,000	-0,053	-0,133
-81,870	800,000	0,032	-0,088
-80,855	390,342	0,100	0,148
-79,840	204,909	-0,058	0,063
-78,826	190,333	0,094	0,099
-77,811	210,359	-0,124	0,138
-76,797	-129,314	0,068	-0,007
-75,782	800,000	-0,013	-0,028
-74,767	800,000	0,038	-0,110
-73,753	-200,000	0,009	-0,027
-72,738	-200,000	-0,004	0,052
-71,724	404,161	-0,072	-0,108
-70,709	-3,458	-0,084	-0,041
-69,694	115,777	0,057	0,049
-68,680	168,648	0,072	-0,073
-67,665	60,298	-0,057	0,040
-66,651	-103,016	0,053	-0,009
-65,636	14,612	-0,060	0,033
-64,622	-200,000	-0,023	0,111
-63,607	-105,172	-0,118	-0,019
-62,592	-64,953	0,078	0,022
-61,578	15,372	-0,154	-0,085
-60,563	38,117	0,125	0,078
-59,549	-200,000	-0,004	0,080
-58,534	39,241	-2,167	-1,366
-57,519	416,099	-1,240	-1,872
-56,505	-200,000	-0,352	-4,290
-55,490	636,284	0,973	1,751
-54,476	800,000	5,179	11,119
-53,461	-200,000	22,021	339,928
-52,446	800,000	757,328	2296,381
-51,432	533,507	1648,957	2766,520
-50,417	68,837	1647,051	1191,909
-49,403	16,303	1522,167	845,133
-48,388	10,460	1446,925	775,286
-47,373	19,133	1439,108	812,410
-46,359	13,941	1427,839	781,498
-45,344	8,763	1423,938	754,835
-44,330	8,719	1422,042	753,592
-43,315	8,759	1419,960	752,651
-42,300	8,731	1418,383	751,653
-41,286	8,794	1416,925	751,145
-40,271	8,698	1415,846	750,092
-39,257	8,642	1414,837	749,263
-38,242	8,731	1413,654	749,024
-37,227	8,699	1412,484	748,225
-36,213	8,692	1411,354	747,566
-35,198	8,730	1410,031	747,015
-34,184	8,757	1409,083	746,610
-33,169	8,687	1407,708	745,522
-32,154	8,671	1406,735	744,903
-31,140	8,663	1405,633	744,250
-30,125	8,741	1404,313	743,886
-29,111	8,699	1403,240	743,093
-28,096	8,706	1401,762	742,312
-27,082	8,616	1400,932	741,426
-26,067	8,626	1399,779	740,832
-25,052	8,672	1398,617	740,403
-24,038	8,707	1397,677	740,038
-23,023	8,662	1396,762	739,313
-22,009	8,627	1395,790	738,607
-20,994	8,608	1394,749	737,941
-19,979	8,611	1393,941	737,495
-18,965	8,597	1392,844	736,822
-17,950	8,634	1391,561	736,285
-16,936	8,565	1391,260	735,777
-15,921	8,539	1390,131	735,032
-14,906	8,596	1388,907	734,618
-13,892	8,684	1387,960	734,494
-12,877	8,590	1387,376	733,724
-11,863	8,574	1386,612	733,218
-10,848	8,569	1385,451	732,548
-9,833	8,522	1384,576	731,844
-8,819	8,536	1383,763	731,446
-7,804	8,489	1382,918	730,757
-6,790	8,486	1381,919	730,186
-5,775	8,471	1380,715	729,451
-4,760	8,474	1379,918	729,013
-3,746	8,534	1378,956	728,750
-2,731	8,527	1378,169	728,274
-1,717	8,535	1377,043	727,690
-0,702	8,454	1375,437	726,439
0,313	12,475	1287,399	698,177
1,327	28,268	680,428	404,358
2,342	44,170	117,078	75,590
3,356	-2,785	16,532	8,121
4,371	12,303	3,828	2,073
5,386	-2,021	1,246	0,615
6,400	800,000	0,346	0,680
7,415	103,353	-0,189	-0,156
8,429	163,021	-0,272	-0,269
9,444	180,930	-0,206	-0,213
10,459	-77,541	-0,181	-0,044
11,473	80,128	-0,319	-0,242
12,488	-75,899	-0,205	-0,051
13,502	-21,809	-0,402	-0,172
14,517	249,927	-0,304	-0,364
15,531	108,279	-0,358	-0,301
16,546	4,982	-0,458	-0,237
17,561	78,018	-0,346	-0,259
18,575	-80,559	-0,215	-0,050
19,590	-82,689	-0,272	-0,062
20,604	-20,314	-0,232	-0,100
21,619	145,455	-0,324	-0,306
22,634	47,664	-0,421	-0,276
23,648	32,459	-0,363	-0,220
24,663	34,029	-0,381	-0,233
25,677	14,624	-0,453	-0,248
26,692	-8,006	-0,269	-0,127
27,707	19,406	-0,406	-0,229
28,721	176,291	-0,192	-0,197
29,736	128,228	-0,368	-0,330
30,750	154,287	-0,397	-0,384
31,765	113,262	-0,420	-0,358
32,780	12,844	-0,371	-0,201
33,794	41,774	-0,335	-0,213
34,809	126,365	-0,276	-0,246
35,823	224,821	-0,235	-0,268
36,838	-40,727	-0,324	-0,117
37,853	91,805	-0,374	-0,295
38,867	14,580	-0,254	-0,139
39,882	170,363	-0,322	-0,324
40,896	-55,351	-0,351	-0,110
41,911	185,649	-0,244	-0,255
42,926	14,028	-0,331	-0,181
43,940	36,146	-0,363	-0,224
44,955	149,767	-0,318	-0,303
45,969	217,964	-0,242	-0,272
46,984	-86,987	-0,389	-0,082
47,999	-121,087	-0,312	0,036
49,013	320,277	-0,211	-0,282
50,028	7,788	-0,324	-0,170
51,042	103,609	-0,247	-0,204
52,057	-16,499	-0,325	-0,144
53,071	45,684	-0,364	-0,236
54,086	-28,807	-0,357	-0,143
55,101	78,142	-0,298	-0,223
56,115	111,848	-0,285	-0,242
57,130	67,917	-0,365	-0,262
58,144	33,276	-0,329	-0,200
59,159	-45,620	-0,307	-0,106
60,174	-0,810	-0,332	-0,164
61,188	-41,745	-0,396	-0,142
62,203	235,770	-0,207	-0,240
63,217	63,130	-0,423	-0,297
64,232	34,762	-0,243	-0,149
65,247	44,336	-0,408	-0,262
66,261	237,759	-0,294	-0,342
67,276	3,311	-0,452	-0,230
68,290	82,296	-0,399	-0,304
69,305	15,650	-0,217	-0,119
70,320	-35,109	-0,405	-0,154
71,334	16,903	-0,398	-0,220
72,349	-40,009	-0,376	-0,137
73,363	214,324	-0,238	-0,264
74,378	40,666	-0,269	-0,169
75,393	75,136	-0,255	-0,188
76,407	-10,305	-0,286	-0,132
77,422	54,253	-0,199	-0,134
78,436	85,034	-0,257	-0,198
79,451	800,000	-0,106	-0,220
80,466	113,182	-0,303	-0,257
81,480	12,692	-0,428	-0,231
82,495	108,432	-0,256	-0,214
83,509	-70,353	-0,303	-0,080
84,524	125,254	-0,194	-0,171
85,539	74,468	-0,301	-0,222
86,553	64,589	-0,277	-0,195
87,568	255,539	-0,338	-0,406
88,582	101,641	-0,206	-0,168
89,597	29,295	-0,326	-0,193
90,611	-42,461	-0,376	-0,133
91,626	-20,478	-0,214	-0,092
92,641	171,228	-0,300	-0,301
93,655	800,000	-0,077	-0,210
94,670	131,754	-0,242	-0,217
95,684	195,616	-0,246	-0,262
96,699	298,709	-0,277	-0,357
97,714	800,000	-0,129	-0,265
98,728	-39,257	-0,369	-0,135
99,743	103,307	-0,225	-0,185
100,757	90,906	-0,218	-0,170
101,772	222,681	-0,270	-0,304
102,787	64,659	-0,322	-0,226
103,801	-23,162	-0,277	-0,116
104,816	45,288	-0,323	-0,208
105,830	178,490	-0,184	-0,188
106,845	-84,071	-0,321	-0,071
107,860	-110,082	-0,302	-0,044
108,874	115,448	-0,188	-0,161
109,889	256,833	-0,272	-0,327
110,903	-87,553	-0,194	-0,041
111,918	196,161	-0,165	-0,175
112,933	-15,664	-0,106	-0,047
113,947	-193,112	-0,231	-0,001
114,962	-26,927	-0,285	-0,116
115,976	523,669	-0,137	-0,226
116,991	39,111	-0,235	-0,146
118,006	-63,178	-0,275	-0,079
119,020	-26,511	-0,415	-0,169
120,035	-131,307	-0,302	-0,028
121,049	-32,199	-0,126	-0,049
122,064	-5,526	-0,236	-0,113
123,079	356,155	-0,131	-0,183
124,093	-10,167	-0,258	-0,119
125,108	-5,680	-0,183	-0,087
126,122	-1,230	-0,213	-0,105
127,137	13,671	-0,227	-0,123
128,151	44,611	-0,324	-0,207
129,166	46,497	-0,333	-0,215
130,181	162,440	-0,196	-0,192
131,195	35,929	-0,271	-0,166
132,210	-22,959	-0,273	-0,114
133,224	-74,203	-0,259	-0,065
134,239	632,354	-0,118	-0,209
135,254	-14,098	-0,218	-0,098
136,268	48,720	-0,153	-0,100
137,283	37,449	-0,261	-0,161
138,297	-94,230	-0,245	-0,046
139,312	220,012	-0,235	-0,263
140,327	347,704	-0,192	-0,264
141,341	70,959	-0,285	-0,205
142,356	129,000	-0,182	-0,162
143,370	36,610	-0,222	-0,136
144,385	157,251	-0,218	-0,211
145,400	-67,096	-0,277	-0,076
146,414	-1,521	-0,254	-0,125
147,429	153,114	-0,247	-0,235
148,443	-25,377	-0,217	-0,089
149,458	-32,740	-0,193	-0,074
150,473	698,566	-0,093	-0,171
151,487	-87,912	-0,304	-0,063
152,502	160,427	-0,186	-0,181
153,516	124,027	-0,228	-0,199
154,531	194,997	-0,214	-0,227
155,546	4,935	-0,255	-0,130
156,560	308,696	-0,108	-0,141
157,575	-12,283	-0,263	-0,119
158,589	46,389	-0,223	-0,144
159,604	7,466	-0,343	-0,178
160,619	45,372	-0,189	-0,121
161,633	121,791	-0,197	-0,171
162,648	60,223	-0,187	-0,129
163,662	173,526	-0,192	-0,193
164,677	260,346	-0,202	-0,243
165,692	26,534	-0,225	-0,131
166,706	51,008	-0,321	-0,211
167,721	164,172	-0,253	-0,247
168,735	255,565	-0,167	-0,199
169,750	800,000	-0,080	-0,193
170,764	-13,390	-0,316	-0,142
171,779	60,468	-0,195	-0,134
172,794	11,079	-0,208	-0,110
173,808	-159,580	-0,140	0,005
174,823	86,307	-0,267	-0,204
175,837	214,147	-0,187	-0,206
176,852	87,700	-0,227	-0,174
177,867	96,165	-0,272	-0,216
178,881	12,072	-0,182	-0,097
179,896	-46,159	-0,310	-0,105
180,910	-26,932	-0,132	-0,053
181,925	-109,717	-0,355	-0,051
182,940	642,646	-0,080	-0,142
183,954	-2,697	-0,307	-0,148
184,969	-200,000	-0,014	-0,105
185,983	-67,493	0,097	0,026
186,998	183,119	-0,232	-0,238
188,013	-75,450	-0,276	-0,068
189,027	42,565	-0,201	-0,127
190,042	166,851	-0,190	-0,187
191,056	297,457	-0,295	-0,377
192,071	-34,057	-0,272	-0,103
193,086	27,376	-0,259	-0,151
194,100	-29,340	-0,220	-0,087
195,115	-121,293	-0,235	-0,027
196,129	589,451	-0,111	-0,191
197,144	188,059	-0,258	-0,267
198,159	10,342	-0,225	-0,118
199,173	155,503	-0,204	-0,195
200,188	465,107	-0,078	-0,122
201,202	97,465	-0,210	-0,167
202,217	-31,896	-0,311	-0,120
203,232	568,143	-0,162	-0,273
204,246	-38,472	-0,254	-0,093
205,261	216,738	-0,234	-0,259
206,275	99,872	-0,273	-0,219
207,290	141,934	-0,178	-0,164
208,304	5,460	-0,167	-0,085
209,319	65,916	-0,345	-0,242
210,334	88,091	-0,153	-0,117
211,348	103,339	-0,294	-0,239
212,363	38,051	-0,205	-0,126
213,377	75,607	-0,278	-0,203
214,392	276,501	-0,135	-0,166
215,407	-71,480	-0,140	0,036
216,421	592,487	-0,169	-0,290
217,436	743,244	-0,131	-0,246
218,450	91,580	-0,111	-0,086
219,465	22,302	-0,293	-0,165
220,480	181,174	-0,211	-0,215
221,494	314,749	-0,145	-0,189
222,509	58,580	-0,192	-0,130
223,523	-94,130	-0,243	0,046
224,538	-49,661	-0,255	-0,083
225,553	180,140	-0,127	-0,129
226,567	177,350	-0,157	-0,158
227,582	800,000	-0,092	-0,230
228,596	-78,460	-0,166	-0,039
229,611	182,525	-0,153	-0,157
230,626	17,883	-0,229	-0,126
231,640	781,209	-0,089	-0,168
232,655	-86,925	-0,240	-0,050
233,669	127,572	-0,177	-0,155
234,684	691,680	-0,128	-0,233
235,699	239,313	-0,160	-0,184
236,713	109,833	-0,176	-0,146
237,728	-123,488	-0,109	0,012
238,742	529,821	-0,071	-0,117
239,757	-84,433	-0,178	-0,038
240,772	228,843	-0,146	-0,164
241,786	-10,560	-0,167	-0,076
242,801	145,524	-0,066	-0,061
243,815	800,000	-0,092	-0,263
244,830	83,805	-0,136	-0,103
245,844	-200,000	0,017	-0,122
246,859	292,550	-0,093	-0,117
247,874	-3,690	-0,322	-0,154
248,888	-132,258	-0,123	0,011
249,903	37,690	-0,107	-0,065
250,917	-151,774	-0,114	-0,006
251,932	-42,826	-0,141	-0,049
252,947	302,692	-0,141	-0,180
253,961	471,833	-0,101	-0,157
254,976	62,702	-0,275	-0,189
255,990	308,692	-0,162	-0,209
257,005	800,000	-0,104	-0,281
258,020	244,616	-0,168	-0,195
259,034	-119,758	-0,125	0,015
260,049	56,981	-0,115	-0,077
261,063	739,169	-0,129	-0,240
262,078	17,311	-0,255	-0,139
263,093	-52,346	-0,254	-0,081
264,107	121,423	-0,161	-0,138
265,122	-48,023	-0,232	0,077
266,136	55,883	-0,194	-0,130
267,151	-136,015	-0,087	0,007
268,166	375,850	-0,205	-0,289
269,180	87,563	-0,147	-0,112
270,195	94,201	-0,236	-0,185
271,209	-170,677	-0,138	-0,003
272,224	439,973	-0,094	-0,143
273,239	360,464	-0,114	-0,158
274,253	350,787	-0,182	-0,248
275,268	15,344	-0,176	-0,095
276,282	154,660	-0,173	-0,163
277,297	10,953	-0,252	-0,132
278,312	-200,000	-0,009	-0,096
279,326	189,578	-0,091	-0,094
280,341	151,766	-0,063	-0,059
281,355	-164,381	-0,113	0,003
282,370	-146,119	-0,161	-0,010
283,384	99,075	-0,253	-0,201
284,399	-200,000	-0,027	-0,231
285,414	-69,581	-0,085	-0,022
286,428	138,886	-0,190	-0,172
287,443	-93,161	-0,175	-0,033
288,457	-91,343	-0,142	-0,028
289,472	144,684	-0,120	-0,110
290,487	20,986	-0,226	-0,126
291,501	-89,023	-0,162	0,033
292,516	244,173	-0,207	-0,240
293,530	197,457	-0,010	-0,010
294,545	216,656	-0,073	-0,080
295,560	61,217	-0,106	-0,072
296,574	800,000	-0,076	-0,166
297,589	-161,115	-0,102	0,004
298,603	-30,020	-0,223	-0,087
299,618	425,827	-0,216	-0,320
300,633	16,661	-0,034	0,018
301,647	-145,146	-0,203	0,012
302,662	-162,824	-0,099	0,003
303,676	-200,000	-0,073	-0,259
304,691	222,565	-0,151	-0,168
305,706	-200,000	-0,091	0,000
306,720	-200,000	-0,072	-0,242
307,735	-200,000	0,001	-0,111
308,749	-100,311	-0,152	-0,026
309,764	440,485	-0,168	-0,253
310,779	-105,398	-0,124	-0,019
311,793	204,476	-0,125	-0,133
312,808	260,040	-0,185	-0,220
313,822	517,259	-0,120	-0,193
314,837	-79,051	-0,126	-0,029
315,852	-100,791	-0,112	-0,019
316,866	-21,873	-0,035	0,015
317,881	95,601	-0,115	-0,090
318,895	52,095	-0,074	-0,048
319,910	39,489	-0,190	-0,117
320,925	800,000	-0,084	-0,176
321,939	800,000	-0,100	-0,233
322,954	-124,206	-0,193	-0,021
323,968	-200,000	0,013	-0,084
324,983	-200,000	-0,013	-0,129
325,997	227,231	-0,088	-0,098
327,012	-52,019	-0,205	-0,065
328,027	-42,185	-0,113	-0,039
329,041	5,782	-0,072	0,036
330,056	26,290	-0,110	-0,063
331,070	617,738	-0,104	-0,179
332,085	169,288	-0,096	-0,094
333,100	-200,000	-0,017	-0,131
334,114	-86,374	-0,218	-0,045
335,129	75,005	-0,150	-0,108
336,143	31,819	-0,097	-0,057
337,158	-200,000	-0,025	-0,089
338,173	314,460	0,087	-0,112
339,187	-32,760	-0,041	-0,016
340,202	800,000	-0,080	-0,174
341,216	25,948	-0,124	-0,070
342,231	472,990	-0,111	-0,172
343,246	21,612	-0,138	-0,077
344,260	442,621	-0,058	0,088
345,275	24,817	-0,110	-0,062
346,289	-70,409	-0,145	-0,037
347,304	-73,692	-0,111	0,027
348,319	-17,462	-0,070	-0,030
349,333	11,657	-0,132	-0,069
350,348	107,843	-0,170	-0,138
351,362	8,495	-0,092	-0,047
352,377	52,955	-0,104	-0,068
353,392	687,168	-0,073	-0,130
354,406	-51,040	-0,081	-0,026
355,421	206,737	1306,513	1393,352
356,435	159,013	1466,183	1393,826
