DTS Sentinel unit serial number:	SN410029Multiplexer serial number:	ORYXHardware model number:	OX2-SRSoftware version number:	ORYX F/W v4,00 Oryx Data Collector v3.7.2.0data status	okinstallation	B3 Nyhavnadifferential loss correction	single-endedforward channel	channel 1reverse channel	N/Adate	2023/12/03time	17:22:30forward acquisition time	300,00reverse acquisition time	0,00gamma	499,1914k internal	0,3198k external	0,3198temperature offset calibration	1,0000default loss term (dB/km)	0,3820temperature slope calibration	1,0000multiplexer offset coefficient	1,0000multiplexer slope coefficient	1,0000fibre end	0,00T internal ref (°C)	14,97T ext. ref 1 (°C)	-0,47T ext. ref 2 (°C)	-0,50length (m)	temperature (°C)	Stokes	anti-Stokes-744,400	271,490	-0,291	-0,374
-743,385	-200,000	-0,024	0,310
-742,371	115,680	-0,173	-0,154
-741,356	-200,000	0,015	0,325
-740,342	659,767	-0,203	-0,382
-739,327	765,887	-0,131	0,259
-738,312	101,058	-0,305	-0,259
-737,298	211,258	-0,114	0,131
-736,283	800,000	-0,125	-0,254
-735,269	-200,000	-0,010	0,149
-734,254	477,885	-0,145	-0,240
-733,239	-10,163	-0,221	0,106
-732,225	224,006	-0,185	-0,218
-731,210	675,875	0,068	0,129
-730,196	800,000	0,016	0,045
-729,181	50,375	-0,079	0,054
-728,167	17,554	-0,078	0,045
-727,152	57,740	-0,033	0,023
-726,137	388,383	-0,049	-0,073
-725,123	800,000	-0,035	-0,105
-724,108	-200,000	-0,003	0,044
-723,094	-24,326	-0,126	-0,054
-722,079	-200,000	-0,023	-0,113
-721,064	-106,348	-0,124	-0,020
-720,050	407,623	0,041	-0,063
-719,035	-200,000	-0,013	-0,058
-718,021	103,968	0,044	0,038
-717,006	-84,398	-0,107	0,024
-715,991	-28,526	-0,220	-0,092
-714,977	-200,000	0,000	-0,018
-713,962	-200,000	-0,002	-0,057
-712,948	151,834	-0,028	0,028
-711,933	-44,252	0,096	-0,035
-710,918	198,006	-0,056	-0,062
-709,904	304,972	0,034	0,046
-708,889	219,486	-0,118	-0,137
-707,875	-200,000	0,003	-0,130
-706,860	54,314	-0,100	0,070
-705,845	-200,000	-0,020	0,076
-704,831	-98,228	0,140	0,026
-703,816	276,587	-0,049	0,064
-702,802	800,000	0,069	0,149
-701,787	183,259	0,071	-0,076
-700,772	28,514	-0,006	-0,004
-699,758	-200,000	-0,038	-0,134
-698,743	-110,290	0,057	0,008
-697,729	-200,000	-0,016	0,162
-696,714	-19,683	0,119	-0,053
-695,699	-200,000	0,005	-0,120
-694,685	413,457	-0,009	-0,015
-693,670	123,383	-0,079	0,072
-692,656	800,000	-0,011	-0,024
-691,641	760,042	0,026	0,051
-690,627	-200,000	0,030	-0,135
-689,612	-27,125	-0,137	0,058
-688,597	-77,899	0,047	0,012
-687,583	44,756	-0,034	-0,022
-686,568	800,000	0,042	-0,086
-685,554	-123,871	-0,134	0,015
-684,539	800,000	-0,026	0,069
-683,524	38,395	-0,064	0,041
-682,510	112,915	-0,078	0,069
-681,495	1,319	-0,062	-0,032
-680,481	696,667	-0,064	-0,122
-679,466	388,734	-0,022	-0,033
-678,451	-200,000	0,027	-0,094
-677,437	2,322	0,091	-0,048
-676,422	-47,998	-0,080	-0,028
-675,408	529,480	0,064	0,109
-674,393	-111,103	-0,158	0,023
-673,378	-12,615	-0,111	-0,052
-672,364	149,002	-0,123	-0,121
-671,349	-29,089	0,190	-0,079
-670,335	3,989	-0,042	-0,022
-669,320	800,000	-0,018	0,038
-668,305	800,000	-0,029	-0,078
-667,291	51,037	-0,032	-0,022
-666,276	-200,000	0,001	0,038
-665,262	-200,000	0,002	-0,136
-664,247	-200,000	0,019	-0,103
-663,232	121,005	-0,066	-0,060
-662,218	95,385	0,045	-0,037
-661,203	134,643	0,085	0,080
-660,189	800,000	0,039	-0,094
-659,174	-32,045	-0,151	0,061
-658,159	-200,000	0,029	-0,149
-657,145	-200,000	-0,038	-0,170
-656,130	-200,000	0,017	-0,062
-655,116	-92,299	0,047	-0,009
-654,101	33,503	-0,097	0,061
-653,086	179,485	-0,056	0,060
-652,072	571,820	-0,020	0,036
-651,057	144,738	-0,158	0,154
-650,043	800,000	-0,026	-0,058
-649,028	800,000	-0,018	0,049
-648,014	116,091	-0,045	0,040
-646,999	800,000	-0,040	-0,089
-645,984	37,111	-0,046	-0,029
-644,970	280,693	-0,090	-0,118
-643,955	-200,000	0,010	0,077
-642,941	177,958	-0,014	-0,014
-641,926	131,281	-0,078	0,073
-640,911	356,115	-0,062	-0,090
-639,897	800,000	-0,011	-0,026
-638,882	120,124	0,136	-0,122
-637,868	406,878	-0,029	-0,045
-636,853	278,141	-0,041	-0,053
-635,838	-81,742	-0,044	-0,010
-634,824	-200,000	-0,001	-0,038
-633,809	-30,283	-0,077	-0,032
-632,795	-200,000	0,014	0,093
-631,780	-155,986	-0,061	-0,003
-630,765	137,864	-0,094	-0,090
-629,751	-101,689	0,033	0,006
-628,736	-12,500	-0,077	-0,036
-627,722	-200,000	-0,012	-0,070
-626,707	800,000	0,050	0,108
-625,692	-72,435	-0,114	-0,030
-624,678	286,838	-0,070	0,092
-623,663	289,005	0,108	-0,142
-622,649	-63,321	-0,093	0,028
-621,634	800,000	-0,052	-0,124
-620,619	800,000	0,054	-0,140
-619,605	800,000	-0,021	0,049
-618,590	125,505	0,074	-0,068
-617,576	172,643	0,036	0,038
-616,561	-85,344	0,049	-0,011
-615,546	-161,296	-0,084	-0,003
-614,532	7,565	0,019	0,010
-613,517	800,000	0,024	-0,077
-612,503	-200,000	0,009	0,030
-611,488	-42,209	-0,039	-0,014
-610,474	-200,000	-0,006	0,155
-609,459	-24,554	0,041	0,018
-608,444	-64,694	-0,134	0,039
-607,430	347,303	0,047	-0,068
-606,415	-52,002	-0,104	0,035
-605,401	-75,340	-0,171	-0,044
-604,386	45,032	0,068	0,045
-603,371	800,000	-0,016	0,043
-602,357	291,230	-0,044	-0,058
-601,342	800,000	0,036	-0,102
-600,328	-57,964	-0,110	-0,034
-599,313	70,589	-0,099	-0,074
-598,298	33,419	0,170	-0,107
-597,284	34,456	-0,100	0,063
-596,269	474,758	0,027	0,045
-595,255	-200,000	-0,008	0,078
-594,240	420,449	-0,066	-0,103
-593,225	-200,000	0,012	-0,087
-592,211	-97,387	-0,030	-0,006
-591,196	-27,539	0,122	-0,051
-590,182	-38,194	0,065	-0,025
-589,167	-102,643	-0,073	0,013
-588,152	159,569	-0,032	-0,032
-587,138	184,447	-0,026	0,028
-586,123	-110,657	-0,062	-0,009
-585,109	27,003	-0,054	-0,032
-584,094	-14,789	-0,071	0,033
-583,079	-200,000	0,006	0,025
-582,065	123,877	-0,053	0,048
-581,050	-200,000	-0,008	-0,109
-580,036	-200,000	-0,002	-0,039
-579,021	348,792	-0,137	0,197
-578,006	-200,000	-0,032	-0,195
-576,992	800,000	0,046	-0,104
-575,977	165,557	-0,069	0,070
-574,963	-3,152	0,024	0,012
-573,948	-200,000	-0,024	0,113
-572,934	558,476	0,036	0,063
-571,919	-200,000	0,007	0,072
-570,904	-111,055	-0,047	-0,007
-569,890	-200,000	0,008	0,098
-568,875	-65,546	-0,062	-0,018
-567,861	-97,792	0,109	-0,020
-566,846	-24,869	0,031	-0,013
-565,831	-64,635	0,090	0,026
-564,817	-0,934	-0,132	-0,067
-563,802	56,251	-0,086	0,061
-562,788	128,338	-0,058	-0,054
-561,773	101,330	-0,114	-0,096
-560,758	800,000	-0,024	-0,054
-559,744	800,000	-0,009	-0,026
-558,729	-200,000	0,002	-0,015
-557,715	137,560	-0,067	0,063
-556,700	480,428	-0,035	-0,057
-555,685	-200,000	0,013	-0,134
-554,671	-200,000	-0,019	-0,121
-553,656	212,327	0,031	-0,035
-552,642	-26,966	0,094	-0,039
-551,627	79,789	0,059	0,046
-550,612	-18,655	0,069	-0,031
-549,598	-54,119	-0,158	0,052
-548,583	-90,223	-0,012	-0,003
-547,569	16,116	0,092	0,052
-546,554	472,112	0,051	0,084
-545,539	393,751	-0,058	0,087
-544,525	61,530	0,053	0,038
-543,510	800,000	0,004	0,012
-542,496	358,348	-0,111	-0,160
-541,481	-200,000	0,003	-0,038
-540,466	-200,000	0,010	-0,085
-539,452	-200,000	-0,009	-0,119
-538,437	-200,000	-0,021	0,088
-537,423	-75,610	0,074	-0,019
-536,408	133,402	-0,128	0,119
-535,393	-200,000	0,032	-0,134
-534,379	147,416	-0,119	-0,116
-533,364	-98,494	-0,058	0,011
-532,350	117,805	0,108	0,096
-531,335	16,057	0,060	0,034
-530,321	-68,355	0,061	0,017
-529,306	-14,475	-0,048	-0,022
-528,291	-88,648	-0,089	-0,019
-527,277	206,877	0,081	0,091
-526,262	20,061	-0,099	-0,058
-525,248	800,000	0,035	-0,094
-524,233	-200,000	-0,039	0,138
-523,218	658,496	-0,021	0,039
-522,204	800,000	0,024	0,061
-521,189	800,000	0,003	-0,007
-520,175	-171,929	-0,063	0,001
-519,160	18,605	-0,084	-0,048
-518,145	198,422	-0,029	0,032
-517,131	-131,299	0,040	-0,004
-516,116	260,447	-0,025	0,031
-515,102	-200,000	0,009	-0,161
-514,087	-34,852	0,092	0,036
-513,072	-200,000	-0,001	-0,009
-512,058	800,000	0,077	-0,157
-511,043	800,000	0,039	-0,113
-510,029	-110,784	-0,004	0,001
-509,014	66,131	-0,068	0,050
-507,999	-200,000	-0,046	0,168
-506,985	154,250	-0,064	-0,063
-505,970	-200,000	-0,011	-0,093
-504,956	588,362	-0,036	-0,064
-503,941	189,772	0,055	-0,059
-502,926	-159,693	0,063	-0,002
-501,912	-200,000	-0,011	-0,061
-500,897	800,000	-0,020	0,060
-499,883	-200,000	-0,009	0,036
-498,868	800,000	-0,043	-0,136
-497,853	308,716	0,006	-0,008
-496,839	403,278	-0,052	-0,080
-495,824	-106,723	0,209	-0,033
-494,810	-177,345	-0,104	-0,002
-493,795	-102,102	0,011	-0,002
-492,781	205,754	-0,050	-0,056
-491,766	115,373	-0,093	0,082
-490,751	322,518	-0,154	0,211
-489,737	15,826	0,091	0,051
-488,722	143,008	-0,003	0,003
-487,708	-200,000	0,006	0,144
-486,693	414,765	-0,041	0,063
-485,678	295,579	0,102	-0,135
-484,664	-81,689	-0,139	0,033
-483,649	-200,000	0,016	-0,165
-482,635	284,975	-0,089	-0,116
-481,620	-200,000	-0,008	-0,031
-480,605	-101,599	0,028	-0,005
-479,591	641,970	-0,012	0,022
-478,576	-200,000	-0,026	-0,087
-477,562	-200,000	-0,034	-0,137
-476,547	-200,000	-0,044	-0,153
-475,532	800,000	-0,024	0,056
-474,518	74,884	-0,109	0,083
-473,503	-200,000	0,043	0,140
-472,489	84,201	0,093	0,073
-471,474	-21,759	0,038	0,017
-470,459	449,556	0,065	0,104
-469,445	800,000	-0,062	-0,152
-468,430	-164,999	0,042	0,001
-467,416	675,717	0,072	-0,135
-466,401	6,040	0,069	0,037
-465,386	-123,401	0,131	-0,015
-464,372	-130,932	0,120	0,011
-463,357	278,777	-0,040	-0,052
-462,343	135,356	-0,054	-0,051
-461,328	-200,000	0,020	-0,181
-460,313	-94,727	0,049	-0,009
-459,299	493,279	0,089	-0,147
-458,284	251,760	0,121	-0,148
-457,270	-200,000	-0,016	-0,085
-456,255	800,000	0,010	0,031
-455,241	-200,000	0,012	-0,064
-454,226	-200,000	0,008	-0,085
-453,211	800,000	-0,045	0,103
-452,197	800,000	0,014	-0,034
-451,182	326,385	-0,077	-0,107
-450,168	-64,671	0,065	0,019
-449,153	-200,000	-0,013	0,128
-448,138	-200,000	0,061	-0,201
-447,124	465,118	-0,120	-0,193
-446,109	-111,227	-0,032	0,005
-445,095	-200,000	0,017	-0,116
-444,080	52,607	-0,022	0,015
-443,065	-25,318	0,059	0,025
-442,051	488,437	0,022	0,036
-441,036	-50,078	0,182	-0,062
-440,022	35,644	-0,144	-0,091
-439,007	800,000	0,018	-0,057
-437,992	445,008	0,024	0,039
-436,978	-102,576	0,121	0,021
-435,963	-186,631	-0,036	0,000
-434,949	-72,024	0,128	-0,034
-433,934	-48,332	-0,068	0,023
-432,919	800,000	0,050	-0,148
-431,905	213,871	-0,101	0,116
-430,890	800,000	0,024	0,057
-429,876	575,325	0,069	0,121
-428,861	-79,340	-0,058	-0,014
-427,846	169,167	0,048	-0,049
-426,832	800,000	-0,023	-0,062
-425,817	-200,000	0,022	-0,082
-424,803	132,231	-0,009	-0,008
-423,788	800,000	-0,079	0,190
-422,773	-200,000	0,001	0,135
-421,759	-200,000	-0,006	-0,070
-420,744	-110,912	0,173	0,025
-419,730	-105,761	-0,160	0,026
-418,715	800,000	-0,014	-0,030
-417,701	-123,290	0,084	-0,010
-416,686	-3,852	0,179	-0,089
-415,671	216,098	-0,058	0,067
-414,657	800,000	0,031	-0,088
-413,642	-200,000	-0,007	0,101
-412,628	205,219	0,046	0,051
-411,613	-200,000	0,010	0,065
-410,598	-200,000	-0,032	0,118
-409,584	53,335	0,124	0,085
-408,569	-200,000	0,016	0,145
-407,555	-200,000	-0,126	0,000
-406,540	24,767	0,042	0,025
-405,525	82,756	-0,006	0,005
-404,511	800,000	-0,054	-0,145
-403,496	369,503	-0,022	-0,032
-402,482	-16,072	-0,079	0,036
-401,467	231,643	0,040	-0,047
-400,452	-200,000	0,014	0,073
-399,438	118,518	-0,034	-0,030
-398,423	70,151	-0,124	-0,092
-397,409	-9,182	-0,062	0,030
-396,394	278,351	0,058	-0,075
-395,379	-102,257	-0,038	-0,007
-394,365	-200,000	-0,026	-0,097
-393,350	429,695	0,052	-0,081
-392,336	313,169	0,090	-0,121
-391,321	-7,727	-0,064	0,031
-390,306	800,000	0,028	-0,074
-389,292	22,718	-0,053	0,031
-388,277	-46,577	0,061	0,021
-387,263	14,031	0,033	-0,018
-386,248	-95,088	0,184	-0,035
-385,233	800,000	-0,082	0,174
-384,219	69,739	-0,045	0,033
-383,204	-93,199	-0,038	-0,007
-382,190	-161,222	0,129	-0,005
-381,175	-14,219	0,165	-0,076
-380,160	-144,684	0,135	-0,009
-379,146	-200,000	0,039	0,144
-378,131	186,806	-0,031	0,033
-377,117	-162,166	0,079	-0,003
-376,102	800,000	-0,017	-0,046
-375,088	40,723	0,110	0,071
-374,073	-200,000	-0,030	0,155
-373,058	-46,772	-0,090	-0,031
-372,044	-42,207	-0,076	-0,028
-371,029	800,000	0,028	0,074
-370,015	800,000	0,056	0,115
-369,000	313,731	-0,010	0,014
-367,985	137,594	-0,010	-0,010
-366,971	183,333	0,027	-0,028
-365,956	-28,883	0,100	-0,041
-364,942	-119,818	-0,097	-0,012
-363,927	800,000	0,049	0,109
-362,912	-49,398	0,169	0,057
-361,898	215,922	-0,085	0,097
-360,883	-200,000	-0,019	-0,078
-359,869	40,726	0,119	-0,077
-358,854	-200,000	-0,006	-0,025
-357,839	67,170	0,139	0,102
-356,825	-97,551	0,048	0,009
-355,810	97,086	-0,061	-0,050
-354,796	-200,000	-0,040	0,143
-353,781	115,612	-0,117	0,103
-352,766	-139,019	0,122	0,009
-351,752	-200,000	-0,009	0,082
-350,737	-5,638	0,032	0,016
-349,723	43,410	0,188	0,123
-348,708	748,743	-0,015	-0,029
-347,693	-46,574	-0,034	-0,012
-346,679	-146,504	0,015	-0,001
-345,664	-102,832	0,101	-0,017
-344,650	71,057	-0,063	-0,047
-343,635	-26,495	-0,059	0,025
-342,620	312,673	0,099	0,134
-341,606	-200,000	-0,044	0,180
-340,591	-200,000	-0,017	-0,121
-339,577	-200,000	-0,030	-0,108
-338,562	90,230	0,061	-0,049
-337,548	21,616	0,047	-0,027
-336,533	259,859	-0,034	0,042
-335,518	201,492	0,099	0,110
-334,504	-9,448	0,113	0,054
-333,489	22,680	-0,072	0,042
-332,475	-200,000	0,007	-0,035
-331,460	-45,803	0,084	-0,029
-330,445	5,928	-0,061	0,032
-329,431	-90,331	-0,111	-0,023
-328,416	-200,000	0,009	0,084
-327,402	790,638	0,023	0,046
-326,387	181,501	-0,066	-0,069
-325,372	30,599	0,018	0,011
-324,358	490,506	-0,026	0,043
-323,343	164,721	-0,085	0,086
-322,329	800,000	0,043	0,096
-321,314	38,268	0,020	0,013
-320,299	24,040	0,075	0,044
-319,285	29,512	0,035	0,021
-318,270	260,109	-0,034	-0,042
-317,256	-200,000	0,001	-0,028
-316,241	680,707	0,035	0,065
-315,226	314,032	0,051	0,069
-314,212	800,000	0,014	0,041
-313,197	5,095	-0,085	0,045
-312,183	-200,000	0,004	0,070
-311,168	7,375	-0,025	0,013
-310,153	136,627	-0,099	0,093
-309,139	-36,348	-0,142	-0,054
-308,124	-200,000	0,018	0,056
-307,110	106,447	0,089	0,076
-306,095	32,769	0,111	0,068
-305,080	292,664	0,138	0,180
-304,066	107,421	-0,115	0,098
-303,051	-200,000	-0,004	0,029
-302,037	-200,000	0,000	-0,034
-301,022	-119,818	0,015	-0,002
-300,008	-36,675	0,193	0,074
-298,993	184,380	-0,060	0,064
-297,978	49,474	-0,060	-0,040
-296,964	266,116	-0,018	0,023
-295,949	-0,830	-0,053	-0,027
-294,935	-39,856	0,085	-0,031
-293,920	290,027	-0,041	-0,054
-292,905	800,000	-0,055	-0,113
-291,891	800,000	-0,016	-0,041
-290,876	800,000	0,012	-0,034
-289,862	395,710	-0,089	-0,134
-288,847	29,996	0,108	-0,066
-287,832	-28,331	-0,086	-0,035
-286,818	185,868	0,022	0,023
-285,803	-54,551	0,089	-0,029
-284,789	-200,000	0,042	0,137
-283,774	284,482	0,090	0,116
-282,759	800,000	-0,028	0,083
-281,745	-147,462	-0,045	-0,003
-280,730	220,456	0,094	-0,108
-279,716	-200,000	-0,018	0,076
-278,701	76,027	0,104	0,078
-277,686	698,939	-0,042	-0,079
-276,672	225,378	0,076	0,088
-275,657	-200,000	-0,034	0,142
-274,643	-15,126	-0,115	0,052
-273,628	-200,000	-0,038	-0,123
-272,613	30,526	-0,013	-0,008
-271,599	-200,000	-0,006	0,055
-270,584	702,663	0,055	0,104
-269,570	800,000	0,047	0,124
-268,555	-200,000	-0,010	0,074
-267,540	500,045	-0,037	-0,061
-266,526	800,000	-0,015	-0,038
-265,511	-200,000	-0,013	-0,120
-264,497	475,456	0,037	0,060
-263,482	-85,942	-0,028	0,006
-262,467	322,930	0,033	-0,046
-261,453	10,427	0,033	0,018
-260,438	266,513	-0,039	0,048
-259,424	-200,000	0,041	-0,138
-258,409	218,353	-0,037	-0,043
-257,395	79,797	0,068	0,052
-256,380	-49,081	0,041	-0,014
-255,365	-44,201	0,187	-0,066
-254,351	-200,000	0,006	0,144
-253,336	247,627	-0,043	0,052
-252,322	413,382	0,034	0,052
-251,307	132,791	-0,060	0,055
-250,292	800,000	0,040	-0,081
-249,278	-80,271	0,061	0,015
-248,263	-200,000	0,024	0,148
-247,249	-150,248	0,168	0,009
-246,234	-27,617	-0,085	-0,035
-245,219	-200,000	0,019	0,087
-244,205	-200,000	0,020	-0,102
-243,190	800,000	0,061	0,133
-242,176	-200,000	0,008	-0,029
-241,161	153,101	0,111	0,108
-240,146	-0,580	-0,091	0,046
-239,132	-87,111	0,118	-0,025
-238,117	800,000	-0,032	0,073
-237,103	126,984	-0,105	-0,095
-236,088	-200,000	0,007	0,092
-235,073	153,544	0,051	0,050
-234,059	782,620	-0,085	0,168
-233,044	77,060	0,090	0,068
-232,030	-5,698	-0,082	-0,040
-231,015	800,000	-0,034	-0,091
-230,000	563,619	0,082	0,142
-228,986	-86,453	-0,108	0,024
-227,971	800,000	0,022	0,065
-226,957	561,197	0,047	-0,082
-225,942	311,131	0,034	-0,045
-224,927	32,328	0,091	-0,056
-223,913	-98,775	-0,179	-0,032
-222,898	-69,056	-0,140	-0,038
-221,884	-200,000	-0,019	-0,120
-220,869	179,450	0,126	-0,132
-219,855	800,000	-0,020	0,060
-218,840	359,586	-0,096	0,137
-217,825	-51,742	-0,065	0,022
-216,811	-121,491	-0,193	-0,023
-215,796	59,545	-0,047	-0,033
-214,782	11,511	-0,081	-0,044
-213,767	136,372	-0,044	0,041
-212,752	800,000	0,047	-0,126
-211,738	-200,000	0,016	-0,080
-210,723	-125,011	-0,118	0,013
-209,709	-200,000	-0,012	0,072
-208,694	-115,505	0,086	-0,011
-207,679	-129,455	-0,045	-0,004
-206,665	800,000	0,043	-0,117
-205,650	300,084	0,039	0,051
-204,636	-143,772	0,066	0,004
-203,621	-200,000	-0,015	0,059
-202,606	-200,000	0,040	-0,170
-201,592	-22,531	-0,056	-0,024
-200,577	277,370	0,027	0,034
-199,563	-200,000	-0,033	-0,153
-198,548	-200,000	-0,016	-0,080
-197,533	800,000	0,090	-0,193
-196,519	-87,018	0,135	0,029
-195,504	425,236	0,047	0,072
-194,490	195,876	0,035	0,038
-193,475	128,995	-0,154	-0,140
-192,460	-24,889	0,115	0,049
-191,446	-200,000	0,023	0,111
-190,431	-200,000	0,018	0,252
-189,417	-58,565	0,089	0,027
-188,402	-94,780	-0,099	-0,019
-187,387	-112,692	-0,170	0,024
-186,373	684,698	-0,014	0,026
-185,358	-200,000	0,008	-0,055
-184,344	-200,000	0,003	-0,061
-183,329	224,444	0,052	-0,060
-182,315	-200,000	0,006	-0,034
-181,300	-200,000	-0,026	-0,108
-180,285	800,000	0,018	-0,037
-179,271	-200,000	0,007	-0,044
-178,256	20,884	-0,039	0,022
-177,242	-200,000	0,013	0,216
-176,227	-200,000	0,027	0,131
-175,212	63,848	0,025	-0,018
-174,198	-66,521	0,109	0,030
-173,183	-58,674	-0,130	-0,040
-172,169	55,400	-0,031	0,021
-171,154	82,608	-0,106	0,082
-170,139	413,397	0,078	0,118
-169,125	261,316	0,064	0,079
-168,110	800,000	0,045	0,120
-167,096	-121,820	0,114	-0,013
-166,081	-69,720	0,161	-0,043
-165,066	117,972	-0,092	0,081
-164,052	67,377	-0,093	-0,067
-163,037	-25,551	0,093	0,039
-162,023	800,000	0,030	0,091
-161,008	-72,824	0,059	-0,015
-159,993	-109,454	0,073	0,011
-158,979	41,045	-0,107	0,069
-157,964	-200,000	-0,013	-0,179
-156,950	85,167	-0,034	-0,027
-155,935	-200,000	-0,016	-0,100
-154,920	-200,000	0,004	-0,028
-153,906	-78,951	0,049	0,012
-152,891	56,915	-0,186	0,129
-151,877	137,242	-0,112	0,104
-150,862	37,977	0,031	-0,019
-149,847	-33,672	-0,097	0,038
-148,833	-65,369	-0,106	0,030
-147,818	-112,758	0,088	-0,012
-146,804	-200,000	0,030	0,094
-145,789	-127,961	0,115	0,012
-144,775	-200,000	0,012	-0,140
-143,760	-45,431	-0,109	0,038
-142,745	-87,515	0,036	0,008
-141,731	-200,000	-0,001	-0,003
-140,716	800,000	0,024	-0,054
-139,702	-137,872	0,088	-0,007
-138,687	-139,204	0,163	0,012
-137,672	-97,269	-0,049	0,009
-136,658	415,246	-0,052	0,079
-135,643	-200,000	0,040	0,178
-134,629	114,011	-0,037	-0,032
-133,614	527,165	0,064	0,107
-132,599	800,000	0,033	0,070
-131,585	-23,412	0,181	-0,077
-130,570	467,384	-0,018	-0,029
-129,556	-200,000	0,001	-0,034
-128,541	36,773	-0,130	-0,082
-127,526	34,285	-0,036	-0,023
-126,512	-89,007	0,042	-0,009
-125,497	-200,000	-0,015	0,056
-124,483	800,000	0,030	0,092
-123,468	-34,567	0,141	0,055
-122,453	-52,149	-0,087	0,028
-121,439	381,217	-0,076	0,112
-120,424	460,612	-0,019	0,030
-119,410	800,000	-0,030	-0,089
-118,395	46,296	0,074	0,049
-117,380	-200,000	-0,016	0,127
-116,366	245,472	0,078	0,094
-115,351	402,469	0,012	0,019
-114,337	90,965	0,023	-0,018
-113,322	800,000	0,095	-0,225
-112,307	113,509	-0,043	-0,037
-111,293	-200,000	-0,000	-0,048
-110,278	-200,000	-0,004	-0,042
-109,264	194,530	-0,078	0,085
-108,249	-123,817	-0,203	0,023
-107,234	61,285	0,118	-0,083
-106,220	-200,000	-0,024	-0,091
-105,205	-162,042	0,024	-0,001
-104,191	-200,000	-0,022	0,156
-103,176	569,372	0,084	0,146
-102,162	-200,000	-0,016	-0,056
-101,147	-41,393	0,011	-0,004
-100,132	-191,174	-0,162	-0,001
-99,118	-200,000	0,004	-0,076
-98,103	753,593	0,049	0,094
-97,089	-151,678	-0,096	-0,005
-96,074	-59,512	0,176	-0,053
-95,059	-112,474	0,063	-0,009
-94,045	-74,136	0,126	0,032
-93,030	668,837	-0,072	-0,133
-92,016	800,000	-0,017	-0,046
-91,001	-71,971	-0,125	0,033
-89,986	-102,224	0,082	-0,014
-88,972	57,930	0,063	0,044
-87,957	446,212	0,072	0,113
-86,943	-97,737	0,051	0,009
-85,928	231,160	-0,106	0,124
-84,913	-200,000	0,004	0,085
-83,899	124,373	0,094	-0,084
-82,884	-200,000	-0,019	-0,127
-81,870	-200,000	-0,062	0,204
-80,855	-200,000	0,005	0,099
-79,840	-53,236	0,061	0,020
-78,826	-200,000	-0,002	-0,051
-77,811	-135,382	0,071	-0,006
-76,797	-200,000	-0,011	0,049
-75,782	120,615	0,088	-0,078
-74,767	-200,000	0,004	0,022
-73,753	800,000	0,096	0,228
-72,738	-61,330	-0,061	0,018
-71,724	-8,884	0,030	0,014
-70,709	-200,000	-0,048	-0,175
-69,694	-200,000	-0,009	-0,067
-68,680	6,033	0,118	-0,062
-67,665	530,679	0,058	0,098
-66,651	-200,000	0,020	0,132
-65,636	-77,459	-0,107	-0,026
-64,622	-121,953	-0,061	-0,007
-63,607	-163,877	0,128	-0,004
-62,592	-114,541	-0,161	-0,022
-61,578	-200,000	0,150	0,000
-60,563	-200,000	0,055	0,172
-59,549	-200,000	0,001	0,163
-58,534	-49,523	-1,436	-0,482
-57,519	416,295	-1,410	-2,140
-56,505	-200,000	-0,488	-4,390
-55,490	115,791	1,117	0,968
-54,476	800,000	4,577	10,881
-53,461	-200,000	18,186	288,470
-52,446	800,000	727,762	2233,879
-51,432	557,001	1643,697	2818,594
-50,417	79,212	1665,519	1263,659
-49,403	22,840	1538,972	891,491
-48,388	16,843	1462,346	818,032
-47,373	17,924	1452,110	817,486
-46,359	17,259	1442,606	808,918
-45,344	15,091	1438,075	795,991
-44,330	15,004	1436,169	794,487
-43,315	15,030	1434,491	793,648
-42,300	15,073	1432,818	792,899
-41,286	15,081	1431,676	792,275
-40,271	15,006	1430,505	791,236
-39,257	14,987	1429,253	790,424
-38,242	15,111	1427,759	790,153
-37,227	15,081	1426,435	789,248
-36,213	15,019	1425,399	788,348
-35,198	15,072	1424,128	787,867
-34,184	15,115	1423,089	787,461
-33,169	15,052	1421,955	786,506
-32,154	15,077	1420,971	786,051
-31,140	15,062	1419,553	785,161
-30,125	15,107	1418,499	784,763
-29,111	15,079	1417,438	784,011
-28,096	15,080	1416,319	783,363
-27,082	15,059	1415,076	782,548
-26,067	15,045	1413,967	781,837
-25,052	15,023	1412,939	781,133
-24,038	14,995	1411,822	780,357
-23,023	14,956	1411,025	779,702
-22,009	14,962	1409,952	779,106
-20,994	14,921	1409,298	778,520
-19,979	14,961	1408,015	777,967
-18,965	14,910	1407,300	777,303
-17,950	14,948	1406,164	776,825
-16,936	14,936	1405,359	776,293
-15,921	14,905	1404,271	775,517
-14,906	14,883	1403,374	774,888
-13,892	14,926	1402,443	774,542
-12,877	14,880	1401,558	773,809
-11,863	14,890	1400,621	773,304
-10,848	14,933	1399,609	772,918
-9,833	14,856	1398,991	772,187
-8,819	14,855	1397,834	771,515
-7,804	14,822	1397,020	770,880
-6,790	14,781	1396,185	770,198
-5,775	14,792	1395,027	769,579
-4,760	14,810	1394,041	769,089
-3,746	14,808	1393,287	768,632
-2,731	14,803	1392,405	768,096
-1,717	14,802	1391,458	767,536
-0,702	14,802	1389,618	766,491
0,313	18,491	1308,537	738,883
1,327	34,673	706,665	436,559
2,342	52,851	124,762	84,361
3,356	4,550	16,583	8,590
4,371	7,794	3,110	1,645
5,386	-8,328	0,525	0,249
6,400	-200,000	-0,027	0,206
7,415	-53,454	-0,354	-0,114
8,429	8,287	-0,353	-0,187
9,444	12,616	-0,274	-0,149
10,459	34,018	-0,420	-0,259
11,473	21,543	-0,415	-0,238
12,488	-90,936	-0,318	-0,064
13,502	173,858	-0,299	-0,305
14,517	24,885	-0,294	-0,172
15,531	38,147	-0,350	-0,220
16,546	164,952	-0,209	-0,209
17,561	350,268	-0,272	-0,381
18,575	-10,914	-0,218	-0,101
19,590	182,459	-0,232	-0,242
20,604	-23,326	-0,338	-0,143
21,619	433,773	-0,196	-0,303
22,634	76,666	-0,549	-0,411
23,648	261,646	-0,350	-0,429
24,663	106,846	-0,346	-0,290
25,677	9,669	-0,420	-0,224
26,692	87,697	-0,379	-0,297
27,707	-19,995	-0,429	-0,186
28,721	169,370	-0,318	-0,321
29,736	32,460	-0,420	-0,256
30,750	-37,711	-0,443	-0,166
31,765	160,151	-0,323	-0,318
32,780	137,714	-0,387	-0,358
33,794	84,124	-0,334	-0,258
34,809	359,201	-0,230	-0,326
35,823	352,126	-0,292	-0,410
36,838	458,403	-0,324	-0,511
37,853	-8,345	-0,327	-0,155
38,867	22,573	-0,363	-0,209
39,882	-3,782	-0,311	-0,152
40,896	100,956	-0,241	-0,197
41,911	-33,768	-0,369	-0,143
42,926	17,809	-0,442	-0,248
43,940	106,567	-0,364	-0,305
44,955	52,445	-0,367	-0,247
45,969	75,604	-0,493	-0,367
46,984	58,101	-0,234	-0,161
47,999	94,772	-0,371	-0,298
49,013	-116,043	-0,337	-0,044
50,028	40,355	-0,184	-0,117
51,042	-16,385	-0,431	-0,192
52,057	-40,703	-0,238	-0,086
53,071	97,119	-0,327	-0,264
54,086	18,430	-0,284	-0,160
55,101	276,931	-0,290	-0,364
56,115	95,374	-0,319	-0,257
57,130	63,370	-0,337	-0,238
58,144	25,636	-0,454	-0,266
59,159	89,537	-0,266	-0,209
60,174	73,916	-0,352	-0,260
61,188	110,022	-0,263	-0,223
62,203	145,557	-0,319	-0,301
63,217	50,131	-0,277	-0,184
64,232	-27,152	-0,178	-0,073
65,247	17,842	-0,466	-0,260
66,261	87,782	-0,254	-0,198
67,276	-86,718	-0,541	-0,116
68,290	19,615	-0,214	-0,121
69,305	102,251	-0,280	-0,230
70,320	13,205	-0,182	-0,099
71,334	-16,091	-0,336	-0,150
72,349	2,870	-0,395	-0,201
73,363	49,647	-0,257	-0,170
74,378	60,752	-0,278	-0,194
75,393	1,644	-0,284	-0,143
76,407	-99,313	-0,215	-0,038
77,422	71,327	-0,231	-0,169
78,436	79,366	-0,281	-0,212
79,451	50,988	-0,306	-0,203
80,466	-29,516	-0,335	-0,134
81,480	193,501	-0,199	-0,212
82,495	80,821	-0,193	-0,147
83,509	-37,168	-0,193	-0,072
84,524	477,459	-0,189	-0,302
85,539	-86,929	-0,208	-0,044
86,553	-33,749	-0,295	-0,114
87,568	181,806	-0,214	-0,222
88,582	11,436	-0,363	-0,195
89,597	90,222	-0,318	-0,250
90,611	120,651	-0,286	-0,250
91,626	800,000	-0,071	-0,143
92,641	11,882	-0,168	-0,091
93,655	-11,427	-0,274	-0,126
94,670	-17,256	-0,260	-0,114
95,684	65,480	-0,370	-0,263
96,699	28,295	-0,297	-0,176
97,714	27,821	-0,244	-0,144
98,728	-50,135	-0,311	-0,103
99,743	-161,262	-0,283	-0,010
100,757	70,430	-0,195	-0,141
101,772	91,469	-0,335	-0,264
102,787	25,301	-0,232	-0,135
103,801	42,207	-0,363	-0,231
104,816	383,821	-0,193	-0,280
105,830	51,250	-0,224	-0,149
106,845	28,402	-0,209	-0,124
107,860	244,246	-0,156	-0,184
108,874	4,384	-0,189	-0,097
109,889	-74,462	-0,339	-0,085
110,903	38,983	-0,377	-0,236
111,918	168,394	-0,256	-0,256
112,933	-69,158	-0,230	-0,062
113,947	82,366	-0,239	-0,182
114,962	-72,585	-0,250	-0,064
115,976	-100,915	-0,365	-0,062
116,991	271,044	-0,220	-0,272
118,006	-25,837	-0,340	-0,140
119,020	132,784	-0,237	-0,215
120,035	91,010	-0,234	-0,184
121,049	-156,900	-0,200	0,008
122,064	-200,000	-0,267	-0,001
123,079	-91,096	-0,312	-0,062
124,093	348,474	-0,138	-0,191
125,108	22,649	-0,187	-0,107
126,122	81,532	-0,274	-0,207
127,137	124,766	-0,155	-0,137
128,151	800,000	-0,045	-0,126
129,166	208,155	-0,167	-0,183
130,181	89,166	-0,225	-0,175
131,195	39,619	-0,319	-0,200
132,210	-16,543	-0,286	-0,126
133,224	155,898	-0,248	-0,240
134,239	248,767	-0,270	-0,321
135,254	180,756	-0,182	-0,188
136,268	-10,154	-0,318	-0,147
137,283	-58,377	-0,205	-0,062
138,297	91,538	-0,220	-0,173
139,312	-27,804	-0,337	-0,136
140,327	77,350	-0,271	-0,201
141,341	281,941	-0,223	-0,280
142,356	118,271	-0,176	-0,152
143,370	-101,806	-0,200	-0,034
144,385	-190,227	-0,255	-0,002
145,400	96,138	-0,322	-0,257
146,414	-80,484	-0,333	-0,077
147,429	66,916	-0,297	-0,211
148,443	27,791	-0,264	-0,155
149,458	-39,733	-0,191	-0,069
150,473	-200,000	-0,019	-0,100
151,487	147,577	-0,200	-0,188
152,502	96,083	-0,256	-0,204
153,516	770,712	-0,098	-0,188
154,531	129,245	-0,221	-0,197
155,546	-4,290	-0,370	-0,178
156,560	800,000	-0,101	-0,245
157,575	122,728	-0,272	-0,238
158,589	99,820	-0,265	-0,215
159,604	769,274	-0,153	-0,293
160,619	375,109	-0,247	-0,352
161,633	63,993	-0,322	-0,226
162,648	278,182	-0,182	-0,227
163,662	61,850	-0,267	-0,185
164,677	109,069	-0,152	-0,127
165,692	10,542	-0,199	-0,105
166,706	-25,254	-0,287	-0,118
167,721	4,374	-0,178	-0,091
168,735	443,316	-0,204	-0,314
169,750	473,804	-0,098	-0,154
170,764	5,536	-0,190	-0,098
171,779	-120,007	-0,233	0,028
172,794	27,755	-0,203	-0,119
173,808	185,556	-0,213	-0,221
174,823	-6,726	-0,228	-0,108
175,837	121,880	-0,164	-0,143
176,852	53,637	-0,241	-0,161
177,867	-102,325	-0,182	-0,030
178,881	77,367	-0,261	-0,194
179,896	51,147	-0,163	-0,107
180,910	-87,763	-0,253	-0,053
181,925	-52,764	-0,322	-0,103
182,940	384,708	-0,206	-0,297
183,954	800,000	-0,097	-0,233
184,969	44,484	-0,228	-0,145
185,983	-93,835	-0,264	-0,050
186,998	304,196	-0,144	-0,187
188,013	800,000	-0,088	-0,177
189,027	373,462	-0,170	-0,242
190,042	116,270	-0,212	-0,181
191,056	250,145	-0,222	-0,263
192,071	22,684	-0,283	-0,161
193,086	175,500	-0,108	-0,109
194,100	277,146	-0,154	-0,191
195,115	36,582	-0,316	-0,194
196,129	-11,595	-0,306	-0,139
197,144	-13,815	-0,299	-0,134
198,159	20,978	-0,194	-0,109
199,173	-64,606	-0,297	-0,083
200,188	287,514	-0,161	-0,202
201,202	222,731	-0,145	-0,163
202,217	-49,027	-0,104	-0,035
203,232	24,153	-0,287	-0,164
204,246	101,248	-0,286	-0,232
205,261	-53,741	-0,215	-0,068
206,275	-20,681	-0,278	-0,118
207,290	-80,827	-0,212	-0,048
208,304	-31,806	-0,233	-0,090
209,319	-144,586	-0,146	0,009
210,334	62,753	-0,226	-0,157
211,348	59,539	-0,230	-0,158
212,363	1,095	-0,284	-0,141
213,377	-20,088	-0,236	-0,101
214,392	148,437	-0,184	-0,173
215,407	-108,000	-0,167	0,025
216,421	8,973	-0,129	-0,068
217,436	181,051	-0,188	-0,193
218,450	696,154	-0,148	-0,270
219,465	-25,070	-0,168	-0,069
220,480	476,403	-0,186	-0,293
221,494	158,306	-0,140	-0,135
222,509	198,345	-0,117	-0,125
223,523	799,063	-0,095	-0,183
224,538	36,135	-0,171	-0,105
225,553	800,000	-0,085	-0,175
226,567	156,212	-0,100	-0,096
227,582	-56,328	-0,263	-0,081
228,596	160,729	-0,087	-0,085
229,611	-120,057	-0,145	-0,017
230,626	96,613	-0,157	-0,125
231,640	-151,258	-0,202	0,010
232,655	38,850	-0,262	-0,162
233,669	274,621	-0,234	-0,288
234,684	134,581	-0,127	-0,114
235,699	-140,856	-0,258	0,018
236,713	209,245	-0,123	-0,133
237,728	68,533	-0,199	-0,142
238,742	64,262	-0,129	-0,090
239,757	-97,258	-0,265	0,048
240,772	180,934	-0,217	-0,222
241,786	-179,838	-0,128	0,002
242,801	-200,000	-0,014	-0,111
243,815	-34,677	-0,131	-0,049
244,830	-66,455	-0,196	-0,054
245,844	63,742	-0,270	-0,188
246,859	800,000	-0,060	-0,136
247,874	154,420	-0,176	-0,167
248,888	31,354	-0,258	-0,153
249,903	479,561	-0,125	-0,197
250,917	-87,015	-0,182	0,038
251,932	-68,153	-0,221	-0,059
252,947	139,964	-0,160	-0,146
253,961	491,240	-0,151	-0,241
254,976	94,385	-0,215	-0,169
255,990	49,647	-0,143	-0,093
257,005	163,934	-0,156	-0,152
258,020	-8,940	-0,245	-0,113
259,034	-137,910	-0,127	0,010
260,049	179,804	-0,197	-0,200
261,063	77,714	-0,169	-0,125
262,078	-200,000	-0,051	-0,165
263,093	-105,890	-0,244	-0,038
264,107	-46,003	-0,134	-0,045
265,122	800,000	-0,087	-0,214
266,136	-129,308	-0,175	0,017
267,151	-200,000	-0,021	-0,069
268,166	791,366	-0,106	-0,203
269,180	238,967	-0,214	-0,247
270,195	230,928	-0,170	-0,193
271,209	153,445	-0,111	-0,105
272,224	-36,579	-0,182	-0,067
273,239	182,097	-0,127	-0,130
274,253	-164,161	-0,223	-0,007
275,268	-127,505	-0,178	-0,018
276,282	403,201	-0,095	-0,139
277,297	-33,278	-0,244	-0,093
278,312	116,961	-0,140	-0,119
279,326	293,200	-0,136	-0,171
280,341	-158,169	-0,169	0,007
281,355	213,975	-0,079	-0,086
282,370	-16,079	-0,248	-0,109
283,384	18,800	-0,260	-0,143
284,399	-200,000	-0,005	-0,220
285,414	124,695	-0,105	-0,092
286,428	301,267	-0,137	-0,176
287,443	276,690	-0,137	-0,169
288,457	146,772	-0,065	-0,061
289,472	308,904	-0,130	-0,167
290,487	111,242	-0,133	-0,111
291,501	-1,579	-0,319	-0,155
292,516	15,983	-0,118	-0,064
293,530	-200,000	-0,029	-0,178
294,545	-9,403	-0,168	-0,077
295,560	-200,000	-0,052	-0,182
296,574	173,251	-0,112	-0,112
297,589	420,003	-0,160	-0,237
298,603	279,202	-0,116	-0,144
299,618	247,402	-0,130	-0,152
300,633	89,037	-0,192	-0,148
301,647	101,376	-0,116	-0,093
302,662	143,752	-0,110	-0,101
303,676	71,035	-0,190	-0,136
304,691	-20,339	-0,199	-0,084
305,706	40,754	-0,241	-0,150
306,720	51,305	-0,228	-0,149
307,735	79,702	-0,227	-0,168
308,749	102,379	-0,116	-0,093
309,764	64,782	-0,093	-0,065
310,779	74,774	-0,125	-0,091
311,793	231,168	-0,125	-0,141
312,808	46,536	-0,164	-0,105
313,822	7,388	-0,102	-0,053
314,837	409,280	0,039	-0,056
315,852	219,604	-0,172	-0,190
316,866	-200,000	-0,001	-0,193
317,881	-184,675	-0,204	0,002
318,895	118,945	-0,136	-0,116
319,910	800,000	-0,114	-0,233
320,925	562,019	-0,108	-0,180
321,939	-22,035	-0,191	-0,079
322,954	175,259	-0,199	-0,199
323,968	78,166	-0,133	-0,097
324,983	-166,176	-0,199	-0,006
325,997	800,000	-0,115	-0,254
327,012	65,338	-0,175	-0,122
328,027	77,314	-0,225	-0,165
329,041	-133,488	-0,140	0,012
330,056	-52,404	-0,202	-0,064
331,070	351,837	-0,175	-0,239
332,085	189,616	-0,082	-0,085
333,100	-65,452	-0,298	-0,082
334,114	-148,928	-0,195	0,011
335,129	-81,446	-0,253	-0,057
336,143	3,171	-0,214	-0,107
337,158	-107,121	-0,195	-0,029
338,173	342,890	-0,066	0,089
339,187	285,390	-0,094	-0,117
340,202	158,560	-0,071	-0,068
341,216	-84,167	-0,176	0,038
342,231	-21,789	-0,203	-0,084
343,246	173,430	-0,152	-0,151
344,260	-44,389	-0,089	-0,030
345,275	27,791	-0,093	-0,053
346,289	-79,430	-0,215	-0,050
347,304	-48,141	-0,068	-0,022
348,319	-11,659	-0,106	-0,048
349,333	163,404	-0,136	-0,132
350,348	110,043	-0,152	-0,125
351,362	167,795	-0,120	-0,117
352,377	800,000	-0,055	-0,140
353,392	-200,000	-0,018	-0,149
354,406	-123,659	-0,125	-0,013
355,421	209,345	1315,690	1417,172
356,435	161,114	1476,553	1417,673
