DTS Sentinel unit serial number:	SN410029Multiplexer serial number:	ORYXHardware model number:	OX2-SRSoftware version number:	ORYX F/W v4,00 Oryx Data Collector v3.7.2.0data status	okinstallation	B3 Nyhavnadifferential loss correction	single-endedforward channel	channel 1reverse channel	N/Adate	2023/12/03time	08:37:30forward acquisition time	300,00reverse acquisition time	0,00gamma	499,1914k internal	0,3200k external	0,3200temperature offset calibration	1,0000default loss term (dB/km)	0,3820temperature slope calibration	1,0000multiplexer offset coefficient	1,0000multiplexer slope coefficient	1,0000fibre end	0,00T internal ref (°C)	13,32T ext. ref 1 (°C)	-1,66T ext. ref 2 (°C)	-1,67length (m)	temperature (°C)	Stokes	anti-Stokes-744,400	276,282	-0,159	-0,206
-743,385	800,000	-0,135	0,330
-742,371	800,000	-0,112	-0,268
-741,356	-200,000	0,025	0,341
-740,342	-88,959	-0,130	-0,028
-739,327	-200,000	-0,041	0,267
-738,312	107,063	-0,144	-0,124
-737,298	-200,000	0,046	0,329
-736,283	-39,100	-0,184	-0,070
-735,269	-200,000	0,035	0,336
-734,254	143,002	-0,250	-0,242
-733,239	167,204	-0,159	0,165
-732,225	91,363	-0,181	-0,148
-731,210	-111,040	0,170	0,025
-730,196	800,000	0,010	0,031
-729,181	-60,008	-0,088	0,027
-728,167	-200,000	0,006	0,140
-727,152	800,000	0,042	0,089
-726,137	-131,376	0,034	-0,003
-725,123	66,471	-0,061	0,045
-724,108	-129,762	-0,160	-0,016
-723,094	800,000	-0,067	-0,189
-722,079	-200,000	0,016	0,053
-721,064	232,415	-0,041	-0,049
-720,050	-141,139	-0,143	0,010
-719,035	0,996	0,059	-0,031
-718,021	-56,674	-0,079	0,025
-717,006	-200,000	0,021	-0,089
-715,991	78,603	-0,016	0,012
-714,977	-200,000	0,010	-0,057
-713,962	-200,000	-0,029	-0,108
-712,948	481,865	-0,048	0,080
-711,933	-200,000	-0,006	-0,030
-710,918	-200,000	0,006	0,074
-709,904	776,315	-0,025	0,051
-708,889	-200,000	-0,010	-0,150
-707,875	-200,000	-0,011	-0,124
-706,860	-200,000	0,010	0,072
-705,845	363,719	-0,029	0,042
-704,831	800,000	-0,028	-0,074
-703,816	273,606	0,078	-0,101
-702,802	403,883	0,014	-0,022
-701,787	298,624	0,029	0,039
-700,772	-139,009	-0,031	0,002
-699,758	584,382	-0,054	0,096
-698,743	-200,000	-0,018	0,093
-697,729	-200,000	-0,025	0,114
-696,714	-51,767	0,089	0,030
-695,699	23,139	-0,111	-0,066
-694,685	121,174	-0,131	0,119
-693,670	-200,000	0,002	0,013
-692,656	-104,643	-0,131	-0,022
-691,641	-200,000	-0,004	-0,063
-690,627	800,000	-0,036	0,106
-689,612	-200,000	-0,004	-0,139
-688,597	124,021	0,055	0,050
-687,583	-25,038	-0,076	0,032
-686,568	-130,964	-0,231	0,022
-685,554	84,376	-0,042	-0,033
-684,539	248,799	-0,049	-0,060
-683,524	110,280	0,128	0,112
-682,510	19,322	-0,099	0,057
-681,495	389,347	-0,064	-0,097
-680,481	-200,000	0,009	-0,092
-679,466	800,000	-0,030	-0,068
-678,451	-200,000	-0,017	-0,132
-677,437	-200,000	-0,015	-0,110
-676,422	-65,470	-0,074	0,022
-675,408	-200,000	-0,000	0,080
-674,393	322,545	0,048	-0,067
-673,378	-200,000	-0,001	-0,068
-672,364	132,433	-0,052	-0,049
-671,349	-3,057	0,109	-0,055
-670,335	214,973	-0,028	-0,033
-669,320	243,301	0,022	-0,027
-668,305	-200,000	-0,043	0,148
-667,291	-39,210	-0,205	0,078
-666,276	150,853	-0,063	0,062
-665,262	387,993	0,004	0,005
-664,247	-91,935	0,048	-0,010
-663,232	-200,000	0,038	0,000
-662,218	129,958	-0,081	-0,075
-661,203	121,328	0,143	-0,129
-660,189	159,108	-0,024	-0,025
-659,174	-200,000	0,017	-0,122
-658,159	62,876	-0,149	-0,108
-657,145	-200,000	0,009	0,077
-656,130	-175,779	-0,110	-0,002
-655,116	430,208	0,035	-0,055
-654,101	-31,703	0,132	0,054
-653,086	632,039	-0,023	0,041
-652,072	-127,066	0,073	0,008
-651,057	-200,000	-0,086	-0,303
-650,043	69,743	-0,121	-0,090
-649,028	800,000	0,044	-0,097
-648,014	-74,611	-0,146	-0,038
-646,999	-74,820	0,121	-0,031
-645,984	800,000	0,026	0,057
-644,970	189,224	0,131	-0,142
-643,955	-135,717	-0,091	-0,008
-642,941	52,730	0,193	-0,134
-641,926	-200,000	-0,020	-0,070
-640,911	75,779	0,159	-0,122
-639,897	-200,000	-0,009	0,047
-638,882	0,756	-0,098	0,051
-637,868	77,744	-0,026	0,020
-636,853	67,095	-0,122	0,090
-635,838	-86,785	-0,043	0,009
-634,824	-200,000	0,005	-0,145
-633,809	41,209	0,023	0,015
-632,795	299,981	-0,050	0,067
-631,780	114,892	0,147	-0,129
-630,765	-21,161	-0,110	0,049
-629,751	142,501	0,031	0,030
-628,736	7,188	0,014	-0,008
-627,722	-200,000	0,036	-0,168
-626,707	34,346	-0,032	-0,020
-625,692	-200,000	-0,015	0,065
-624,678	-200,000	0,012	0,078
-623,663	-200,000	0,011	-0,066
-622,649	127,466	-0,115	-0,105
-621,634	800,000	-0,025	-0,069
-620,619	800,000	-0,060	-0,146
-619,605	-200,000	0,009	0,096
-618,590	-31,063	0,061	0,025
-617,576	-200,000	0,003	0,094
-616,561	24,799	-0,031	0,018
-615,546	800,000	0,048	0,117
-614,532	98,744	0,143	-0,119
-613,517	-200,000	-0,019	-0,081
-612,503	800,000	0,053	-0,118
-611,488	30,893	-0,047	0,029
-610,474	-200,000	-0,038	0,172
-609,459	353,074	-0,078	0,112
-608,444	465,127	-0,038	-0,062
-607,430	-200,000	-0,012	-0,088
-606,415	-200,000	0,010	-0,059
-605,401	-150,847	0,153	-0,008
-604,386	-200,000	-0,016	0,166
-603,371	-200,000	-0,011	-0,053
-602,357	-200,000	-0,001	-0,103
-601,342	-200,000	-0,004	0,109
-600,328	8,325	-0,131	-0,071
-599,313	-200,000	0,009	-0,064
-598,298	-200,000	0,001	0,111
-597,284	307,624	-0,059	-0,080
-596,269	-200,000	0,007	0,042
-595,255	563,823	-0,073	-0,129
-594,240	-19,373	0,048	0,021
-593,225	-96,250	-0,055	-0,010
-592,211	-168,126	-0,142	0,004
-591,196	-137,553	0,089	-0,007
-590,182	60,830	-0,085	-0,061
-589,167	587,822	-0,045	0,081
-588,152	74,473	0,074	0,056
-587,138	-200,000	0,017	-0,085
-586,123	800,000	-0,007	-0,020
-585,109	175,237	-0,056	-0,058
-584,094	-200,000	0,001	0,049
-583,079	-4,329	-0,021	-0,011
-582,065	-200,000	0,000	-0,142
-581,050	280,136	-0,065	0,084
-580,036	39,976	0,137	0,089
-579,021	-28,010	-0,104	-0,043
-578,006	-1,467	-0,122	-0,062
-576,992	121,040	0,040	-0,036
-575,977	800,000	-0,031	-0,063
-574,963	-200,000	-0,011	0,133
-573,948	355,206	0,014	0,020
-572,934	-116,934	0,124	-0,016
-571,919	-162,978	0,050	-0,002
-570,904	492,841	-0,105	-0,174
-569,890	-200,000	-0,021	0,157
-568,875	800,000	-0,028	0,085
-567,861	-118,953	0,131	0,016
-566,846	240,884	0,074	0,089
-565,831	-152,852	0,154	-0,008
-564,817	-0,498	-0,156	-0,080
-563,802	-200,000	0,003	-0,016
-562,788	452,294	0,037	0,059
-561,773	-143,999	0,011	-0,001
-560,758	110,888	0,084	0,073
-559,744	-200,000	-0,004	0,088
-558,729	25,529	0,071	-0,042
-557,715	170,669	-0,047	-0,049
-556,700	-200,000	0,015	0,096
-555,685	-22,870	0,047	0,020
-554,671	-99,149	0,068	-0,012
-553,656	-147,124	-0,085	-0,005
-552,642	188,999	-0,059	0,064
-551,627	-172,744	0,064	0,001
-550,612	-164,779	-0,195	-0,006
-549,598	73,882	-0,154	-0,117
-548,583	66,860	0,040	0,029
-547,569	800,000	-0,002	0,005
-546,554	-19,708	0,150	0,066
-545,539	-71,865	0,049	0,013
-544,525	-200,000	-0,004	0,034
-543,510	1,436	0,062	-0,032
-542,496	-177,325	0,010	0,000
-541,481	116,090	-0,050	0,045
-540,466	661,059	0,036	-0,068
-539,452	-58,013	0,099	-0,031
-538,437	-45,008	0,170	0,061
-537,423	800,000	0,004	0,012
-536,408	-16,845	-0,016	0,007
-535,393	-86,849	-0,107	-0,023
-534,379	-46,243	0,016	-0,006
-533,364	38,640	-0,097	-0,062
-532,350	-200,000	0,012	0,152
-531,335	-30,583	-0,092	0,037
-530,321	-41,954	0,076	-0,028
-529,306	-200,000	-0,004	0,100
-528,291	-200,000	-0,011	-0,069
-527,277	800,000	-0,039	-0,123
-526,262	-42,178	-0,030	-0,011
-525,248	619,613	0,090	0,164
-524,233	113,687	0,059	-0,051
-523,218	-200,000	-0,011	-0,064
-522,204	122,886	0,039	0,035
-521,189	410,310	-0,049	-0,075
-520,175	301,258	0,030	0,040
-519,160	111,042	0,043	-0,038
-518,145	-200,000	-0,015	0,055
-517,131	-45,118	0,088	0,031
-516,116	-200,000	-0,027	0,107
-515,102	137,631	0,119	0,113
-514,087	-200,000	-0,019	0,101
-513,072	259,246	-0,103	0,128
-512,058	-200,000	0,005	0,071
-511,043	326,476	-0,041	0,057
-510,029	24,787	-0,079	-0,047
-509,014	281,517	-0,036	0,046
-507,999	405,323	0,024	-0,037
-506,985	800,000	-0,042	0,085
-505,970	117,508	0,114	-0,101
-504,956	318,240	-0,070	-0,095
-503,941	296,349	0,065	-0,085
-502,926	318,236	-0,019	-0,026
-501,912	36,787	-0,032	-0,020
-500,897	-39,332	0,249	0,094
-499,883	-200,000	0,026	-0,089
-498,868	800,000	-0,026	-0,053
-497,853	800,000	0,006	0,017
-496,839	-42,627	0,138	-0,050
-495,824	415,445	-0,080	0,123
-494,810	1,140	0,241	0,124
-493,795	137,244	0,006	0,005
-492,781	-146,895	-0,082	0,005
-491,766	800,000	-0,058	-0,116
-490,751	800,000	-0,044	0,093
-489,737	-200,000	0,015	0,101
-488,722	218,317	-0,023	0,027
-487,708	-134,115	-0,044	-0,004
-486,693	358,444	-0,055	-0,079
-485,678	455,906	0,055	-0,089
-484,664	261,663	-0,105	-0,131
-483,649	738,666	-0,041	-0,080
-482,635	-200,000	-0,015	-0,125
-481,620	157,136	0,060	0,059
-480,605	-200,000	-0,006	0,092
-479,591	48,838	0,109	0,074
-478,576	21,887	0,040	0,024
-477,562	-46,556	-0,074	0,026
-476,547	-200,000	-0,024	-0,147
-475,532	-200,000	-0,015	-0,080
-474,518	-200,000	-0,018	0,057
-473,503	41,172	0,106	0,069
-472,489	69,599	0,126	-0,093
-471,474	800,000	0,014	0,034
-470,459	-200,000	-0,004	0,063
-469,445	713,145	-0,062	0,118
-468,430	572,582	0,054	-0,096
-467,416	-200,000	-0,020	-0,103
-466,401	356,514	-0,004	0,006
-465,386	-125,719	0,124	0,013
-464,372	264,408	-0,057	0,071
-463,357	-200,000	-0,007	-0,059
-462,343	-124,216	-0,206	-0,023
-461,328	-200,000	0,017	0,081
-460,313	-41,294	-0,086	-0,032
-459,299	800,000	-0,036	0,090
-458,284	28,843	0,214	0,130
-457,270	800,000	-0,018	0,035
-456,255	119,288	-0,076	0,068
-455,241	52,441	-0,018	-0,012
-454,226	-89,241	-0,067	0,014
-453,211	800,000	0,045	-0,127
-452,197	4,572	0,053	0,028
-451,182	309,016	0,012	0,016
-450,168	-81,274	-0,098	-0,023
-449,153	331,191	-0,086	-0,120
-448,138	-200,000	0,024	-0,119
-447,124	205,370	0,075	-0,084
-446,109	135,038	0,011	-0,010
-445,095	-9,297	-0,004	-0,002
-444,080	151,606	-0,084	-0,082
-443,065	-200,000	-0,019	0,089
-442,051	345,587	0,060	-0,085
-441,036	-200,000	-0,012	-0,057
-440,022	315,221	-0,053	-0,072
-439,007	-200,000	-0,004	0,076
-437,992	233,277	-0,040	-0,047
-436,978	-50,488	0,086	0,029
-435,963	124,481	0,098	0,088
-434,949	800,000	0,017	0,037
-433,934	-184,770	0,066	-0,001
-432,919	219,436	-0,040	0,046
-431,905	160,218	0,019	0,019
-430,890	-59,441	0,024	-0,007
-429,876	-200,000	-0,014	-0,124
-428,861	485,230	-0,083	0,136
-427,846	318,180	0,043	0,059
-426,832	21,787	-0,101	-0,059
-425,817	-126,343	-0,067	-0,007
-424,803	-186,651	-0,039	0,000
-423,788	-200,000	0,004	0,013
-422,773	-200,000	-0,020	0,104
-421,759	374,035	-0,129	0,189
-420,744	800,000	-0,034	0,070
-419,730	800,000	0,008	-0,018
-418,715	42,538	-0,183	-0,119
-417,701	-60,391	0,120	0,036
-416,686	541,982	0,030	-0,051
-415,671	-77,705	0,071	0,018
-414,657	-200,000	0,026	0,098
-413,642	2,774	-0,050	0,026
-412,628	-200,000	-0,054	0,172
-411,613	352,119	-0,004	-0,006
-410,598	221,945	-0,080	-0,092
-409,584	-200,000	0,025	0,116
-408,569	98,429	0,132	0,110
-407,555	-32,162	0,036	-0,015
-406,540	800,000	-0,024	-0,076
-405,525	275,636	-0,062	0,080
-404,511	-15,761	-0,039	0,018
-403,496	399,530	-0,089	-0,134
-402,482	302,394	0,038	-0,050
-401,467	-162,995	0,066	-0,002
-400,452	173,892	-0,009	0,010
-399,438	-34,448	-0,059	-0,023
-398,423	-155,672	0,114	0,005
-397,409	800,000	-0,028	-0,073
-396,394	623,383	0,059	-0,107
-395,379	-101,538	-0,061	-0,011
-394,365	-87,624	0,047	0,010
-393,350	-200,000	0,003	-0,040
-392,336	800,000	-0,013	-0,031
-391,321	-74,125	0,065	0,017
-390,306	-200,000	-0,021	-0,155
-389,292	-24,856	-0,025	0,011
-388,277	63,168	-0,125	-0,090
-387,263	-200,000	0,000	0,010
-386,248	-200,000	0,066	0,216
-385,233	-99,238	-0,035	-0,006
-384,219	-127,609	-0,107	-0,011
-383,204	21,105	-0,090	0,053
-382,190	-83,901	-0,072	0,016
-381,175	220,558	-0,046	-0,053
-380,160	568,061	-0,048	-0,083
-379,146	-61,396	0,095	-0,029
-378,131	-25,972	0,081	-0,034
-377,117	-3,854	-0,170	-0,084
-376,102	701,401	0,059	-0,113
-375,088	85,753	0,087	-0,069
-374,073	58,887	-0,044	-0,031
-373,058	66,895	0,050	-0,037
-372,044	-163,726	0,050	-0,002
-371,029	96,566	0,012	0,010
-370,015	528,282	-0,030	-0,051
-369,000	168,105	0,022	-0,022
-367,985	-200,000	-0,002	0,024
-366,971	800,000	-0,027	-0,070
-365,956	-54,397	0,157	0,051
-364,942	-131,687	0,080	-0,007
-363,927	201,306	0,077	-0,085
-362,912	800,000	0,047	-0,128
-361,898	-200,000	-0,032	0,145
-360,883	715,137	-0,061	0,117
-359,869	-200,000	0,008	-0,047
-358,854	-53,490	0,173	-0,056
-357,839	499,804	-0,049	0,082
-356,825	46,798	-0,040	0,027
-355,810	42,716	-0,073	0,047
-354,796	472,973	0,075	-0,121
-353,781	-200,000	-0,032	0,106
-352,766	-17,706	-0,037	-0,017
-351,752	800,000	-0,012	0,025
-350,737	-105,701	0,149	-0,024
-349,723	-123,758	-0,077	0,009
-348,708	322,898	0,075	0,103
-347,693	-200,000	0,003	0,011
-346,679	800,000	-0,049	-0,115
-345,664	67,057	0,122	-0,089
-344,650	80,807	0,144	0,111
-343,635	800,000	-0,058	0,138
-342,620	-200,000	0,038	0,157
-341,606	-130,548	-0,096	-0,009
-340,591	-200,000	0,010	0,052
-339,577	200,698	-0,059	-0,065
-338,562	354,108	-0,003	0,005
-337,548	58,392	0,064	0,045
-336,533	-78,354	-0,068	0,017
-335,518	-17,752	0,057	-0,025
-334,504	175,774	0,080	0,084
-333,489	177,835	0,024	-0,025
-332,475	237,528	-0,052	0,062
-331,460	800,000	-0,040	-0,097
-330,445	-72,687	0,160	0,042
-329,431	-200,000	-0,016	0,086
-328,416	-200,000	-0,022	0,084
-327,402	537,557	-0,024	-0,041
-326,387	-105,702	-0,030	0,005
-325,372	459,613	-0,038	0,061
-324,358	-60,574	-0,068	-0,021
-323,343	800,000	0,056	-0,131
-322,329	337,142	-0,074	0,104
-321,314	259,891	0,089	0,111
-320,299	-81,671	0,097	0,023
-319,285	353,163	0,053	-0,075
-318,270	-200,000	-0,006	-0,121
-317,256	490,167	-0,017	0,027
-316,241	-2,059	-0,115	0,057
-315,226	800,000	0,043	-0,113
-314,212	-200,000	-0,004	0,041
-313,197	800,000	0,062	0,141
-312,183	-200,000	-0,006	-0,040
-311,168	101,180	0,084	0,070
-310,153	-61,552	-0,084	-0,025
-309,139	15,035	-0,022	-0,012
-308,124	72,431	0,069	-0,052
-307,110	612,068	0,044	0,079
-306,095	-61,607	0,116	0,035
-305,080	-23,031	0,062	-0,027
-304,066	-43,461	-0,125	-0,045
-303,051	-200,000	-0,003	-0,156
-302,037	28,453	0,037	-0,022
-301,022	-200,000	-0,021	-0,155
-300,008	800,000	-0,064	0,181
-298,993	800,000	0,021	0,055
-297,978	451,660	-0,061	0,097
-296,964	176,864	-0,032	0,034
-295,949	-43,235	-0,076	-0,027
-294,935	-95,110	-0,092	-0,018
-293,920	174,898	-0,030	0,031
-292,905	710,249	0,023	-0,044
-291,891	-111,314	0,106	-0,015
-290,876	-165,664	-0,030	-0,001
-289,862	-200,000	-0,006	0,109
-288,847	800,000	-0,024	-0,048
-287,832	385,093	0,042	-0,062
-286,818	-200,000	0,002	-0,051
-285,803	-44,217	0,121	-0,043
-284,789	719,170	-0,053	-0,101
-283,774	-50,486	0,132	0,044
-282,759	-64,953	-0,068	-0,020
-281,745	337,028	-0,101	-0,141
-280,730	72,605	-0,072	-0,053
-279,716	-89,945	-0,035	-0,007
-278,701	800,000	0,017	-0,038
-277,686	800,000	0,008	0,019
-276,672	800,000	0,018	0,041
-275,657	270,849	-0,041	-0,052
-274,643	-61,427	0,060	-0,018
-273,628	323,146	-0,053	-0,073
-272,613	613,251	-0,031	0,056
-271,599	-200,000	-0,003	0,013
-270,584	198,385	0,169	0,185
-269,570	-97,307	-0,026	0,005
-268,555	800,000	-0,017	-0,047
-267,540	80,921	-0,074	-0,057
-266,526	-200,000	-0,018	-0,084
-265,511	124,866	-0,143	0,129
-264,497	26,147	0,116	-0,069
-263,482	87,805	-0,142	0,112
-262,467	-200,000	-0,009	0,043
-261,453	800,000	-0,048	-0,112
-260,438	141,874	0,059	-0,056
-259,424	800,000	-0,077	-0,167
-258,409	800,000	-0,039	-0,091
-257,395	44,392	-0,120	0,078
-256,380	-115,010	0,027	0,004
-255,365	277,167	0,051	0,064
-254,351	-125,746	-0,055	0,006
-253,336	272,704	-0,045	-0,056
-252,322	-200,000	0,007	-0,100
-251,307	-29,702	0,076	-0,031
-250,292	9,817	0,057	0,031
-249,278	800,000	0,023	-0,055
-248,263	-200,000	0,023	0,189
-247,249	286,109	-0,062	-0,079
-246,234	86,009	-0,087	-0,068
-245,219	-200,000	0,023	0,127
-244,205	-73,019	-0,089	0,023
-243,190	-200,000	0,012	-0,150
-242,176	-200,000	-0,027	-0,092
-241,161	800,000	0,032	0,086
-240,146	340,415	-0,083	0,116
-239,132	-200,000	-0,002	0,011
-238,117	-200,000	0,024	-0,082
-237,103	-90,354	-0,035	0,007
-236,088	-76,264	0,056	0,014
-235,073	800,000	0,013	-0,039
-234,059	-184,810	-0,014	-0,000
-233,044	-200,000	-0,010	-0,073
-232,030	128,325	-0,096	0,087
-231,015	550,731	0,030	-0,051
-230,000	-160,371	-0,053	0,002
-228,986	186,752	0,144	0,154
-227,971	70,905	0,038	0,028
-226,957	-200,000	-0,002	0,059
-225,942	365,280	0,103	0,148
-224,927	-127,811	-0,045	0,005
-223,913	-200,000	-0,012	-0,088
-222,898	-1,686	0,011	-0,005
-221,884	-156,095	-0,084	0,004
-220,869	-200,000	-0,027	-0,086
-219,855	-200,000	0,022	0,072
-218,840	183,894	-0,089	0,094
-217,825	747,196	0,030	-0,058
-216,811	48,211	0,086	-0,058
-215,796	-124,410	0,077	0,008
-214,782	579,716	0,013	0,022
-213,767	-15,276	0,046	-0,021
-212,752	-200,000	0,013	-0,044
-211,738	138,734	0,083	-0,078
-210,723	800,000	-0,031	-0,079
-209,709	-130,413	-0,121	0,012
-208,694	273,452	-0,122	-0,154
-207,679	235,032	-0,054	0,063
-206,665	-42,184	0,118	-0,043
-205,650	628,674	-0,033	-0,059
-204,636	155,861	0,029	-0,029
-203,621	800,000	0,001	-0,003
-202,606	-200,000	0,012	0,068
-201,592	-17,708	-0,197	-0,088
-200,577	-74,773	0,069	0,017
-199,563	800,000	-0,035	0,085
-198,548	-170,582	0,041	0,001
-197,533	576,448	0,059	0,103
-196,519	-200,000	-0,030	0,123
-195,504	-54,158	-0,048	0,016
-194,490	-200,000	0,029	0,125
-193,475	-200,000	-0,001	-0,033
-192,460	-200,000	-0,009	-0,079
-191,446	99,275	0,051	0,042
-190,431	-200,000	0,025	0,148
-189,417	-94,585	0,085	0,016
-188,402	268,560	-0,141	0,176
-187,387	146,865	0,150	0,143
-186,373	-53,505	-0,176	-0,057
-185,358	71,279	-0,006	0,004
-184,344	47,665	0,201	0,133
-183,329	122,385	-0,070	-0,063
-182,315	273,943	0,045	0,056
-181,300	-190,972	-0,084	0,001
-180,285	314,121	-0,054	-0,073
-179,271	421,047	-0,059	-0,091
-178,256	156,649	0,120	0,118
-177,242	-200,000	0,006	-0,025
-176,227	-200,000	-0,001	0,063
-175,212	449,540	-0,068	0,106
-174,198	-14,640	0,212	-0,097
-173,183	-74,880	-0,148	0,038
-172,169	-33,330	0,100	-0,039
-171,154	-200,000	-0,015	0,067
-170,139	-187,152	-0,033	-0,000
-169,125	-37,857	0,152	0,057
-168,110	-5,259	0,018	0,009
-167,096	-200,000	0,001	-0,084
-166,081	800,000	-0,042	0,083
-165,066	-200,000	-0,010	-0,152
-164,052	124,948	-0,083	-0,074
-163,037	13,591	0,148	-0,081
-162,023	800,000	-0,023	0,055
-161,008	800,000	0,027	-0,058
-159,993	800,000	0,029	-0,060
-158,979	-200,000	0,000	-0,003
-157,964	-75,694	-0,115	0,029
-156,950	-175,652	0,112	-0,002
-155,935	-200,000	-0,006	-0,057
-154,920	-200,000	-0,005	-0,126
-153,906	292,083	-0,126	0,164
-152,891	800,000	-0,052	0,104
-151,877	800,000	-0,024	0,059
-150,862	-42,056	0,138	-0,050
-149,847	-14,057	0,178	-0,081
-148,833	-200,000	0,013	-0,057
-147,818	-182,971	0,071	0,001
-146,804	225,790	0,039	0,045
-145,789	-99,936	-0,108	0,019
-144,775	467,447	0,076	-0,121
-143,760	143,287	-0,077	-0,073
-142,745	-37,408	-0,069	0,026
-141,731	139,462	-0,051	-0,048
-140,716	122,553	0,030	-0,027
-139,702	391,505	0,047	-0,069
-138,687	-20,671	0,085	0,037
-137,672	-200,000	0,001	0,107
-136,658	-200,000	0,015	-0,054
-135,643	6,458	-0,050	-0,027
-134,629	-88,259	-0,105	-0,022
-133,614	-31,837	-0,006	0,002
-132,599	47,610	-0,069	0,045
-131,585	-112,412	0,030	-0,004
-130,570	800,000	-0,032	-0,066
-129,556	33,425	-0,044	0,027
-128,541	233,733	-0,040	0,047
-127,526	-200,000	-0,003	0,098
-126,512	18,247	0,113	0,064
-125,497	218,151	0,059	0,067
-124,483	800,000	-0,031	0,077
-123,468	-13,889	-0,084	0,039
-122,453	-67,126	-0,089	-0,025
-121,439	480,803	-0,084	-0,135
-120,424	-200,000	0,002	0,035
-119,410	-26,605	0,055	0,023
-118,395	80,332	-0,041	-0,031
-117,380	-200,000	0,004	-0,020
-116,366	-174,978	0,115	0,002
-115,351	646,216	-0,067	-0,122
-114,337	-200,000	0,009	-0,207
-113,322	-200,000	-0,012	0,140
-112,307	-166,845	0,066	-0,002
-111,293	800,000	-0,037	0,079
-110,278	172,189	0,076	0,078
-109,264	800,000	-0,031	0,071
-108,249	626,872	-0,070	-0,126
-107,234	-200,000	-0,041	-0,151
-106,220	-114,506	0,157	-0,021
-105,205	-120,595	0,045	0,005
-104,191	20,247	0,086	0,049
-103,176	800,000	0,017	-0,053
-102,162	-69,037	-0,050	0,014
-101,147	495,412	0,023	0,038
-100,132	800,000	-0,039	-0,084
-99,118	-200,000	0,040	-0,188
-98,103	-76,753	-0,116	-0,029
-97,089	-12,057	0,067	-0,031
-96,074	41,935	0,118	-0,076
-95,059	495,650	-0,046	0,075
-94,045	-31,376	0,118	-0,047
-93,030	383,429	-0,053	-0,077
-92,016	66,569	0,064	-0,046
-91,001	-73,264	0,077	0,020
-89,986	675,086	-0,053	0,098
-88,972	63,823	0,025	0,018
-87,957	309,480	-0,029	-0,038
-86,943	-11,525	0,067	-0,031
-85,928	105,429	-0,140	-0,117
-84,913	604,431	-0,077	-0,136
-83,899	800,000	0,044	-0,092
-82,884	-200,000	-0,001	0,137
-81,870	800,000	-0,044	0,134
-80,855	800,000	0,016	-0,044
-79,840	800,000	-0,067	-0,136
-78,826	334,678	-0,048	0,067
-77,811	-6,135	-0,184	-0,089
-76,797	-117,017	0,053	0,007
-75,782	-200,000	-0,015	0,141
-74,767	103,094	0,006	-0,005
-73,753	800,000	0,048	0,138
-72,738	800,000	0,033	-0,088
-71,724	-16,024	-0,045	-0,020
-70,709	64,644	0,033	0,024
-69,694	-200,000	-0,018	0,089
-68,680	-33,238	0,074	0,029
-67,665	-200,000	0,004	0,098
-66,651	-159,087	-0,157	0,006
-65,636	-200,000	0,027	-0,090
-64,622	-21,351	0,065	-0,028
-63,607	24,041	-0,101	-0,059
-62,592	246,889	-0,085	-0,102
-61,578	800,000	-0,085	0,182
-60,563	-118,597	0,196	-0,024
-59,549	-200,000	-0,014	0,135
-58,534	-9,532	-1,667	-0,785
-57,519	545,300	-1,236	-2,100
-56,505	-200,000	-0,618	-4,601
-55,490	176,491	1,054	1,086
-54,476	800,000	5,045	11,603
-53,461	-200,000	19,175	321,093
-52,446	-200,000	740,862	2336,014
-51,432	573,211	1655,703	2869,513
-50,417	78,305	1670,952	1262,033
-49,403	21,290	1544,191	885,817
-48,388	15,162	1466,647	811,524
-47,373	17,933	1456,787	819,430
-46,359	16,714	1446,327	807,670
-45,344	13,439	1442,063	789,564
-44,330	13,361	1440,147	788,110
-43,315	13,347	1438,329	787,017
-42,300	13,388	1436,790	786,340
-41,286	13,430	1435,460	785,778
-40,271	13,360	1434,109	784,676
-39,257	13,370	1432,785	783,965
-38,242	13,398	1431,443	783,335
-37,227	13,419	1430,240	782,744
-36,213	13,427	1429,055	782,106
-35,198	13,417	1427,853	781,368
-34,184	13,384	1427,092	780,763
-33,169	13,407	1425,564	780,005
-32,154	13,433	1424,516	779,523
-31,140	13,463	1423,051	778,833
-30,125	13,418	1422,244	778,147
-29,111	13,418	1421,057	777,469
-28,096	13,446	1419,943	776,961
-27,082	13,393	1418,695	775,997
-26,067	13,373	1417,439	775,182
-25,052	13,359	1416,550	774,603
-24,038	13,309	1415,644	773,841
-23,023	13,316	1414,531	773,236
-22,009	13,315	1413,390	772,573
-20,994	13,344	1412,596	772,248
-19,979	13,301	1411,894	771,632
-18,965	13,304	1410,802	771,018
-17,950	13,284	1409,837	770,364
-16,936	13,315	1409,098	770,075
-15,921	13,260	1407,882	769,123
-14,906	13,275	1406,985	768,671
-13,892	13,289	1405,955	768,144
-12,877	13,260	1405,252	767,596
-11,863	13,280	1404,241	767,105
-10,848	13,238	1403,579	766,519
-9,833	13,183	1402,678	765,738
-8,819	13,149	1401,907	765,130
-7,804	13,179	1400,677	764,569
-6,790	13,193	1399,626	764,028
-5,775	13,163	1398,587	763,290
-4,760	13,205	1397,790	763,023
-3,746	13,159	1396,779	762,226
-2,731	13,162	1395,952	761,756
-1,717	13,127	1395,196	761,152
-0,702	13,096	1393,421	760,011
0,313	16,980	1309,877	732,423
1,327	33,230	703,469	430,894
2,342	51,058	123,232	82,551
3,356	2,419	16,616	8,481
4,371	0,534	3,219	1,623
5,386	19,940	0,632	0,359
6,400	-200,000	0,053	0,274
7,415	-32,908	-0,328	-0,128
8,429	5,407	-0,336	-0,175
9,444	122,549	-0,280	-0,247
10,459	140,804	-0,241	-0,225
11,473	18,282	-0,344	-0,194
12,488	652,199	-0,134	-0,244
13,502	-83,086	-0,357	-0,080
14,517	21,598	-0,315	-0,181
15,531	-39,507	-0,279	-0,103
16,546	101,655	-0,370	-0,304
17,561	401,817	-0,303	-0,452
18,575	54,263	-0,092	-0,063
19,590	126,953	-0,200	-0,179
20,604	-160,302	-0,286	0,011
21,619	2,887	-0,474	-0,242
22,634	84,924	-0,387	-0,300
23,648	112,397	-0,394	-0,337
24,663	-21,836	-0,417	-0,178
25,677	38,957	-0,292	-0,184
26,692	52,395	-0,245	-0,165
27,707	-55,141	-0,417	-0,132
28,721	170,919	-0,352	-0,357
29,736	78,400	-0,411	-0,310
30,750	-42,665	-0,500	-0,179
31,765	4,146	-0,447	-0,230
32,780	82,874	-0,334	-0,256
33,794	80,399	-0,332	-0,252
34,809	-17,323	-0,416	-0,184
35,823	1,541	-0,340	-0,172
36,838	32,254	-0,349	-0,212
37,853	176,378	-0,411	-0,421
38,867	-34,430	-0,500	-0,192
39,882	-93,645	-0,359	-0,069
40,896	-5,998	-0,254	-0,122
41,911	465,313	-0,284	-0,450
42,926	33,806	-0,402	-0,246
43,940	3,551	-0,442	-0,227
44,955	17,292	-0,302	-0,169
45,969	126,677	-0,332	-0,297
46,984	105,543	-0,274	-0,228
47,999	272,983	-0,267	-0,333
49,013	8,726	-0,399	-0,211
50,028	77,390	-0,328	-0,245
51,042	6,432	-0,410	-0,214
52,057	56,928	-0,318	-0,218
53,071	92,789	-0,304	-0,241
54,086	22,267	-0,344	-0,198
55,101	173,570	-0,305	-0,310
56,115	-65,467	-0,328	-0,092
57,130	58,282	-0,358	-0,247
58,144	93,490	-0,333	-0,265
59,159	140,463	-0,240	-0,223
60,174	122,198	-0,335	-0,294
61,188	176,119	-0,318	-0,325
62,203	59,889	-0,325	-0,225
63,217	-4,421	-0,312	-0,151
64,232	99,225	-0,256	-0,208
65,247	20,626	-0,341	-0,194
66,261	101,800	-0,365	-0,299
67,276	1,238	-0,261	-0,132
68,290	4,995	-0,414	-0,214
69,305	-0,930	-0,242	-0,120
70,320	116,071	-0,217	-0,187
71,334	114,460	-0,328	-0,281
72,349	199,785	-0,280	-0,302
73,363	138,093	-0,318	-0,294
74,378	207,062	-0,278	-0,305
75,393	52,672	-0,291	-0,195
76,407	-18,768	-0,321	-0,140
77,422	22,569	-0,241	-0,138
78,436	206,286	-0,159	-0,174
79,451	-75,397	-0,288	-0,072
80,466	161,076	-0,210	-0,206
81,480	60,821	-0,306	-0,213
82,495	24,034	-0,325	-0,188
83,509	40,025	-0,292	-0,184
84,524	-99,439	-0,308	-0,054
85,539	-75,097	-0,221	-0,055
86,553	159,280	-0,334	-0,327
87,568	94,099	-0,316	-0,252
88,582	-3,377	-0,324	-0,158
89,597	170,210	-0,226	-0,227
90,611	163,733	-0,283	-0,280
91,626	201,977	-0,152	-0,165
92,641	-60,632	-0,361	-0,107
93,655	59,783	-0,229	-0,158
94,670	-1,921	-0,316	-0,155
95,684	-13,688	-0,379	-0,172
96,699	228,301	-0,294	-0,337
97,714	52,800	-0,276	-0,185
98,728	-32,901	-0,173	-0,067
99,743	53,924	-0,261	-0,176
100,757	158,883	-0,304	-0,297
101,772	800,000	-0,181	-0,394
102,787	86,418	-0,354	-0,274
103,801	-81,802	-0,312	-0,071
104,816	-32,734	-0,225	-0,088
105,830	-119,546	-0,178	-0,021
106,845	15,654	-0,264	-0,145
107,860	125,252	-0,269	-0,237
108,874	22,260	-0,295	-0,168
109,889	127,539	-0,297	-0,265
110,903	-17,825	-0,297	-0,130
111,918	368,824	-0,249	-0,354
112,933	-5,278	-0,274	-0,131
113,947	-36,424	-0,228	-0,086
114,962	90,419	-0,286	-0,224
115,976	91,828	-0,230	-0,182
116,991	39,318	-0,169	-0,106
118,006	80,315	-0,304	-0,229
119,020	20,106	-0,220	-0,124
120,035	800,000	-0,104	-0,261
121,049	83,960	-0,184	-0,141
122,064	18,685	-0,261	-0,146
123,079	149,536	-0,143	-0,135
124,093	-60,264	-0,447	-0,132
125,108	52,890	-0,253	-0,169
126,122	164,895	-0,213	-0,210
127,137	-97,132	-0,190	-0,034
128,151	27,941	-0,335	-0,197
129,166	23,261	-0,175	-0,100
130,181	-124,334	-0,282	-0,030
131,195	-63,069	-0,328	-0,094
132,210	-16,293	-0,420	-0,186
133,224	28,577	-0,250	-0,148
134,239	248,015	-0,211	-0,250
135,254	-55,430	-0,217	-0,068
136,268	27,539	-0,146	-0,086
137,283	-47,530	-0,318	-0,107
138,297	-108,945	-0,376	-0,055
139,312	-68,383	-0,341	-0,092
140,327	173,121	-0,237	-0,239
141,341	53,582	-0,224	-0,150
142,356	166,097	-0,170	-0,169
143,370	151,497	-0,171	-0,163
144,385	-75,371	-0,310	-0,077
145,400	-78,293	-0,312	-0,074
146,414	11,489	-0,357	-0,190
147,429	-120,380	-0,253	-0,030
148,443	273,947	-0,223	-0,276
149,458	299,131	-0,090	-0,116
150,473	200,079	-0,240	-0,258
151,487	198,879	-0,155	-0,166
152,502	-8,228	-0,294	-0,138
153,516	132,973	-0,146	-0,131
154,531	54,145	-0,223	-0,150
155,546	800,000	-0,072	-0,183
156,560	-118,815	-0,345	-0,042
157,575	-58,247	-0,279	-0,084
158,589	-63,874	-0,230	-0,065
159,604	87,154	-0,348	-0,269
160,619	99,385	-0,177	-0,143
161,633	0,014	-0,331	-0,164
162,648	51,964	-0,213	-0,142
163,662	-146,415	-0,208	-0,012
164,677	67,092	-0,284	-0,202
165,692	140,626	-0,196	-0,181
166,706	85,121	-0,283	-0,216
167,721	143,304	-0,248	-0,231
168,735	81,697	-0,242	-0,183
169,750	172,760	-0,223	-0,224
170,764	68,134	-0,265	-0,189
171,779	167,921	-0,174	-0,172
172,794	-200,000	-0,040	-0,162
173,808	-35,166	-0,280	-0,106
174,823	87,560	-0,253	-0,195
175,837	71,851	-0,235	-0,170
176,852	200,374	-0,238	-0,255
177,867	83,422	-0,179	-0,136
178,881	-200,000	-0,039	-0,131
179,896	128,128	-0,217	-0,192
180,910	119,304	-0,241	-0,208
181,925	215,975	-0,142	-0,158
182,940	392,409	-0,169	-0,246
183,954	78,463	-0,204	-0,151
184,969	99,249	-0,231	-0,186
185,983	-70,403	-0,134	-0,035
186,998	-123,080	-0,177	0,020
188,013	-5,213	-0,261	-0,125
189,027	416,378	-0,223	-0,332
190,042	-53,571	-0,306	-0,097
191,056	59,029	-0,250	-0,171
192,071	-155,212	-0,229	0,010
193,086	124,704	-0,116	-0,102
194,100	800,000	-0,074	-0,198
195,115	201,889	-0,189	-0,203
196,129	-77,790	-0,123	-0,029
197,144	9,779	-0,264	-0,139
198,159	-31,996	-0,234	-0,091
199,173	513,323	-0,149	-0,242
200,188	800,000	-0,055	-0,168
201,202	193,045	-0,166	-0,175
202,217	349,076	-0,171	-0,235
203,232	120,467	-0,168	-0,145
204,246	236,833	-0,139	-0,160
205,261	256,541	-0,156	-0,186
206,275	800,000	-0,153	-0,299
207,290	163,994	-0,205	-0,201
208,304	591,850	-0,133	-0,230
209,319	-133,839	-0,214	-0,018
210,334	35,002	-0,195	-0,118
211,348	-39,235	-0,219	-0,079
212,363	-59,090	-0,201	-0,060
213,377	-31,018	-0,211	-0,082
214,392	25,509	-0,234	-0,135
215,407	-20,846	-0,173	-0,073
216,421	404,053	-0,093	-0,137
217,436	136,769	-0,179	-0,163
218,450	87,576	-0,156	-0,120
219,465	-14,293	-0,228	-0,102
220,480	193,068	-0,085	-0,089
221,494	-15,124	-0,195	-0,086
222,509	180,456	-0,232	-0,236
223,523	662,056	-0,125	-0,224
224,538	40,004	-0,209	-0,130
225,553	255,930	-0,237	-0,283
226,567	121,143	-0,271	-0,234
227,582	-12,354	-0,131	-0,059
228,596	-36,885	-0,167	-0,062
229,611	-39,833	-0,246	-0,089
230,626	37,453	-0,190	-0,117
231,640	137,011	-0,129	-0,117
232,655	-11,205	-0,142	-0,065
233,669	118,715	-0,166	-0,142
234,684	158,529	-0,227	-0,218
235,699	103,908	-0,170	-0,138
236,713	202,255	-0,207	-0,222
237,728	-72,039	-0,250	-0,064
238,742	1,264	-0,211	-0,105
239,757	800,000	-0,126	-0,318
240,772	65,572	-0,211	-0,148
241,786	18,102	-0,252	-0,139
242,801	-28,046	-0,222	-0,089
243,815	35,903	-0,132	-0,081
244,830	326,532	0,026	-0,035
245,844	-83,770	-0,258	-0,057
246,859	100,100	-0,129	-0,103
247,874	437,932	-0,150	-0,227
248,888	347,478	-0,077	-0,106
249,903	-165,986	-0,204	-0,006
250,917	20,167	-0,196	-0,109
251,932	136,134	-0,240	-0,216
252,947	800,000	-0,064	-0,187
253,961	620,434	-0,168	-0,293
254,976	309,195	-0,159	-0,207
255,990	122,651	-0,144	-0,124
257,005	800,000	-0,108	-0,280
258,020	-38,667	-0,284	-0,103
259,034	800,000	-0,050	-0,143
260,049	-71,864	-0,296	-0,076
261,063	150,455	-0,122	-0,115
262,078	73,570	-0,285	-0,206
263,093	-1,100	-0,243	-0,119
264,107	250,732	-0,139	-0,163
265,122	-200,000	-0,059	-0,214
266,136	52,075	-0,135	-0,089
267,151	-36,495	-0,214	-0,079
268,166	239,108	-0,192	-0,221
269,180	-28,322	-0,246	-0,098
270,195	51,550	-0,280	-0,184
271,209	800,000	-0,126	-0,263
272,224	-200,000	0,051	-0,165
273,239	800,000	-0,106	-0,255
274,253	-6,955	-0,097	-0,045
275,268	-78,175	-0,230	-0,054
276,282	241,547	-0,166	-0,192
277,297	61,987	-0,257	-0,177
278,312	82,126	-0,136	-0,102
279,326	-141,819	-0,115	-0,008
280,341	326,277	-0,044	-0,059
281,355	130,643	-0,121	-0,107
282,370	135,439	-0,183	-0,164
283,384	180,714	-0,217	-0,220
284,399	-64,820	-0,182	-0,050
285,414	33,609	-0,240	-0,144
286,428	-90,948	-0,121	0,024
287,443	289,204	-0,157	-0,197
288,457	43,022	-0,150	-0,094
289,472	-131,836	-0,162	-0,014
290,487	-101,080	-0,090	0,015
291,501	156,099	-0,246	-0,234
292,516	-30,530	-0,092	-0,036
293,530	91,629	-0,127	-0,098
294,545	329,271	-0,132	-0,176
295,560	163,184	-0,122	-0,118
296,574	253,245	-0,142	-0,168
297,589	152,804	-0,185	-0,175
298,603	108,936	-0,172	-0,142
299,618	-145,399	-0,112	-0,007
300,633	-88,612	-0,103	-0,021
301,647	-200,000	-0,009	-0,097
302,662	443,168	-0,084	-0,127
303,676	-131,213	-0,121	-0,011
304,691	-7,712	-0,187	0,087
305,706	143,580	-0,251	-0,230
306,720	-144,335	-0,322	-0,020
307,735	311,281	-0,047	-0,061
308,749	665,968	-0,036	-0,064
309,764	420,566	0,029	-0,043
310,779	800,000	-0,028	-0,060
311,793	-116,282	-0,122	0,015
312,808	108,220	-0,166	-0,136
313,822	25,784	-0,077	-0,044
314,837	129,117	-0,205	-0,180
315,852	-79,700	-0,142	0,033
316,866	14,386	-0,183	-0,098
317,881	800,000	-0,107	-0,216
318,895	224,695	-0,125	-0,139
319,910	71,050	-0,078	-0,055
320,925	-39,596	-0,181	-0,065
321,939	770,128	-0,107	-0,201
322,954	-68,993	-0,177	0,047
323,968	-116,659	-0,088	0,011
324,983	50,733	-0,148	-0,096
325,997	-167,422	-0,065	-0,002
327,012	-13,980	-0,240	-0,106
328,027	68,321	-0,267	-0,188
329,041	-152,390	-0,122	0,006
330,056	49,679	-0,131	0,085
331,070	118,730	-0,125	0,106
332,085	800,000	-0,018	-0,046
333,100	-135,064	-0,226	0,018
334,114	-37,858	-0,105	0,038
335,129	-21,773	-0,108	-0,045
336,143	-200,000	0,041	-0,164
337,158	-200,000	-0,042	-0,150
338,173	-8,945	-0,218	-0,100
339,187	654,755	-0,076	0,134
340,202	800,000	-0,067	-0,138
341,216	5,917	-0,153	-0,077
342,231	-6,651	-0,108	-0,050
343,246	126,331	-0,143	-0,124
344,260	-102,799	-0,221	-0,036
345,275	800,000	-0,082	-0,195
346,289	173,667	-0,162	-0,161
347,304	42,315	-0,169	-0,105
348,319	-49,799	-0,215	-0,070
349,333	800,000	-0,109	-0,235
350,348	104,937	-0,096	0,078
351,362	161,310	-0,071	-0,068
352,377	800,000	-0,017	-0,036
353,392	9,555	-0,089	-0,046
354,406	54,375	-0,141	-0,093
355,421	209,718	1312,961	1414,101
356,435	161,421	1473,467	1414,596
