DTS Sentinel unit serial number:	SN410029Multiplexer serial number:	ORYXHardware model number:	OX2-SRSoftware version number:	ORYX F/W v4,00 Oryx Data Collector v3.7.2.0data status	okinstallation	B3 Nyhavnadifferential loss correction	single-endedforward channel	channel 1reverse channel	N/Adate	2023/12/01time	15:47:30forward acquisition time	300,00reverse acquisition time	0,00gamma	499,1914k internal	0,3208k external	0,3208temperature offset calibration	1,0000default loss term (dB/km)	0,3820temperature slope calibration	1,0000multiplexer offset coefficient	1,0000multiplexer slope coefficient	1,0000fibre end	0,00T internal ref (°C)	12,43T ext. ref 1 (°C)	-1,01T ext. ref 2 (°C)	-1,05length (m)	temperature (°C)	Stokes	anti-Stokes-744,400	184,741	-0,320	-0,344
-743,385	-200,000	0,042	0,449
-742,371	-200,000	-0,076	-0,304
-741,356	800,000	0,098	0,221
-740,342	579,301	-0,135	-0,241
-739,327	657,645	0,074	0,139
-738,312	800,000	-0,119	-0,319
-737,298	124,456	-0,090	0,082
-736,283	135,031	-0,219	-0,206
-735,269	-200,000	0,000	0,352
-734,254	-89,634	-0,207	-0,044
-733,239	-148,799	-0,154	0,009
-732,225	152,470	-0,154	-0,152
-731,210	750,634	0,073	0,143
-730,196	-200,000	0,000	-0,054
-729,181	-17,619	-0,154	-0,070
-728,167	-73,027	0,108	-0,028
-727,152	112,374	-0,085	-0,074
-726,137	-200,000	0,006	-0,081
-725,123	176,032	0,030	-0,031
-724,108	404,661	-0,040	-0,062
-723,094	-200,000	-0,072	-0,255
-722,079	-200,000	-0,017	-0,075
-721,064	446,093	-0,034	-0,054
-720,050	-200,000	-0,122	0,000
-719,035	224,886	0,097	0,114
-718,021	-200,000	-0,002	-0,066
-717,006	800,000	-0,049	-0,119
-715,991	-200,000	-0,027	-0,133
-714,977	-47,118	-0,063	-0,022
-713,962	-200,000	0,001	-0,181
-712,948	-38,980	-0,134	-0,051
-711,933	489,484	0,019	-0,032
-710,918	-25,029	0,070	-0,030
-709,904	326,811	0,012	0,017
-708,889	381,856	-0,116	-0,173
-707,875	78,615	-0,058	-0,045
-706,860	800,000	0,008	0,022
-705,845	-128,537	0,204	-0,021
-704,831	468,767	0,028	0,045
-703,816	-121,507	0,136	0,016
-702,802	119,910	-0,094	-0,084
-701,787	-200,000	-0,039	-0,132
-700,772	-200,000	-0,016	-0,120
-699,758	800,000	-0,039	-0,122
-698,743	-34,365	-0,083	0,033
-697,729	800,000	0,048	0,100
-696,714	-181,765	-0,185	-0,003
-695,699	286,669	0,040	-0,052
-694,685	745,196	0,015	-0,029
-693,670	147,011	-0,062	-0,060
-692,656	-200,000	0,011	-0,040
-691,641	-200,000	-0,017	0,055
-690,627	24,949	0,031	-0,018
-689,612	4,070	-0,109	0,058
-688,597	-54,119	-0,047	-0,015
-687,583	-60,201	-0,114	0,035
-686,568	180,135	-0,104	-0,111
-685,554	83,403	-0,096	-0,075
-684,539	-124,509	-0,101	0,011
-683,524	-200,000	0,036	0,172
-682,510	-200,000	0,000	0,013
-681,495	-200,000	0,015	-0,086
-680,481	-200,000	0,015	-0,082
-679,466	-56,685	0,173	-0,055
-678,451	-200,000	-0,035	-0,124
-677,437	-200,000	0,013	-0,081
-676,422	-64,251	-0,061	-0,018
-675,408	7,432	-0,037	-0,020
-674,393	-200,000	0,007	0,088
-673,378	-200,000	-0,028	0,093
-672,364	-115,605	0,067	-0,009
-671,349	-116,071	-0,069	-0,009
-670,335	271,061	0,093	0,119
-669,320	118,172	-0,079	-0,070
-668,305	800,000	0,033	-0,097
-667,291	-200,000	0,020	-0,077
-666,276	-141,978	-0,081	-0,006
-665,262	-118,897	-0,220	-0,028
-664,247	800,000	-0,027	-0,058
-663,232	-200,000	-0,009	-0,090
-662,218	-200,000	-0,019	-0,110
-661,203	-54,702	0,117	0,038
-660,189	-56,013	-0,019	-0,006
-659,174	-200,000	0,011	0,073
-658,159	-200,000	-0,008	-0,079
-657,145	478,429	-0,016	-0,026
-656,130	-127,410	-0,090	0,009
-655,116	-27,902	-0,119	-0,050
-654,101	51,250	-0,053	-0,037
-653,086	-200,000	-0,004	-0,117
-652,072	-200,000	-0,005	0,082
-651,057	800,000	-0,095	-0,206
-650,043	-17,240	-0,147	-0,067
-649,028	-160,631	0,128	0,005
-648,014	91,843	-0,087	-0,071
-646,999	-5,766	0,082	0,040
-645,984	-30,388	-0,081	0,033
-644,970	-200,000	-0,021	0,087
-643,955	355,388	0,057	-0,083
-642,941	47,814	-0,112	0,075
-641,926	-128,877	-0,027	0,003
-640,911	-200,000	0,028	0,157
-639,897	-82,922	0,202	-0,047
-638,882	139,677	-0,079	0,075
-637,868	-200,000	-0,026	-0,124
-636,853	800,000	-0,050	-0,146
-635,838	292,444	-0,031	-0,041
-634,824	800,000	0,012	-0,027
-633,809	-200,000	-0,012	0,109
-632,795	800,000	0,026	0,059
-631,780	-200,000	-0,006	-0,055
-630,765	-200,000	-0,003	0,050
-629,751	-200,000	-0,013	-0,080
-628,736	-200,000	-0,020	-0,114
-627,722	800,000	-0,033	0,099
-626,707	-200,000	0,021	-0,084
-625,692	-200,000	-0,015	0,212
-624,678	-21,266	-0,115	0,051
-623,663	-200,000	-0,027	-0,100
-622,649	-200,000	0,017	-0,079
-621,634	-200,000	0,001	-0,283
-620,619	-93,465	-0,028	0,006
-619,605	800,000	0,058	0,116
-618,590	-42,961	0,105	0,038
-617,576	0,171	-0,064	0,033
-616,561	800,000	0,018	0,051
-615,546	-200,000	0,012	0,108
-614,532	-58,982	-0,091	0,028
-613,517	97,869	-0,067	0,055
-612,503	800,000	0,033	0,069
-611,488	-41,246	-0,055	0,020
-610,474	-200,000	-0,010	-0,128
-609,459	655,072	-0,057	0,107
-608,444	47,851	0,104	0,070
-607,430	-119,217	0,059	-0,007
-606,415	-200,000	0,017	0,078
-605,401	-200,000	0,009	0,043
-604,386	800,000	-0,042	-0,098
-603,371	33,283	-0,083	0,052
-602,357	-98,319	-0,074	-0,014
-601,342	241,490	0,053	0,064
-600,328	260,545	-0,135	-0,168
-599,313	45,710	-0,041	0,027
-598,298	244,171	0,105	-0,127
-597,284	648,368	0,049	-0,091
-596,269	555,332	-0,085	0,148
-595,255	-200,000	0,016	0,111
-594,240	-89,977	0,081	0,017
-593,225	-142,270	-0,195	0,014
-592,211	800,000	0,019	-0,059
-591,196	800,000	-0,025	0,051
-590,182	-140,437	-0,115	0,009
-589,167	-138,101	0,153	-0,012
-588,152	-47,871	0,172	-0,060
-587,138	-200,000	-0,015	0,067
-586,123	-200,000	0,006	0,093
-585,109	-200,000	0,003	0,015
-584,094	-185,295	-0,068	0,001
-583,079	544,458	0,091	0,157
-582,065	-200,000	-0,019	0,113
-581,050	800,000	0,078	0,162
-580,036	-200,000	0,006	-0,123
-579,021	-103,913	0,068	-0,011
-578,006	-200,000	-0,023	-0,100
-576,992	98,395	-0,083	0,069
-575,977	152,091	-0,060	0,059
-574,963	800,000	0,026	0,055
-573,948	-64,476	0,061	-0,018
-572,934	-200,000	0,023	-0,086
-571,919	-200,000	-0,009	0,056
-570,904	9,408	-0,140	-0,076
-569,890	-97,020	-0,118	-0,022
-568,875	-109,368	0,010	-0,002
-567,861	-101,352	-0,071	0,012
-566,846	346,304	-0,048	-0,068
-565,831	256,710	-0,094	-0,116
-564,817	800,000	-0,030	-0,093
-563,802	340,240	0,027	0,039
-562,788	-200,000	-0,003	-0,085
-561,773	-26,396	-0,053	-0,022
-560,758	323,838	-0,019	-0,026
-559,744	-117,547	-0,073	-0,009
-558,729	512,844	0,083	0,139
-557,715	68,868	-0,048	0,035
-556,700	-130,406	-0,048	0,005
-555,685	125,793	0,148	-0,135
-554,671	556,357	-0,010	0,018
-553,656	-14,588	0,106	0,049
-552,642	800,000	0,008	-0,021
-551,627	204,475	-0,068	0,076
-550,612	604,215	-0,039	0,070
-549,598	-16,527	-0,165	0,075
-548,583	800,000	-0,057	-0,169
-547,569	57,641	-0,047	0,033
-546,554	800,000	-0,038	0,085
-545,539	12,342	-0,068	-0,037
-544,525	738,141	0,023	-0,045
-543,510	-96,238	0,159	-0,030
-542,496	800,000	-0,065	-0,206
-541,481	-94,055	0,099	0,019
-540,466	293,027	-0,083	0,109
-539,452	82,373	0,070	0,055
-538,437	-200,000	-0,001	0,038
-537,423	-129,902	-0,018	0,002
-536,408	453,338	0,008	-0,013
-535,393	263,130	-0,094	0,118
-534,379	-200,000	0,001	0,005
-533,364	153,205	0,062	-0,061
-532,350	-197,232	0,031	-0,000
-531,335	-200,000	-0,015	0,065
-530,321	-91,168	-0,147	0,030
-529,306	800,000	0,050	0,142
-528,291	337,335	-0,067	-0,094
-527,277	-200,000	-0,017	-0,111
-526,262	-200,000	0,031	-0,103
-525,248	15,445	0,075	-0,042
-524,233	431,999	0,065	0,102
-523,218	-200,000	0,006	-0,058
-522,204	168,190	-0,048	0,049
-521,189	-200,000	-0,011	-0,211
-520,175	-200,000	-0,024	-0,140
-519,160	14,394	-0,096	-0,054
-518,145	-103,702	0,081	-0,014
-517,131	-200,000	0,008	-0,051
-516,116	313,902	0,018	-0,025
-515,102	-200,000	-0,009	-0,073
-514,087	18,412	-0,131	0,075
-513,072	-200,000	0,002	-0,040
-512,058	206,442	0,081	-0,091
-511,043	-200,000	0,004	-0,011
-510,029	-152,121	0,024	-0,001
-509,014	47,293	-0,061	0,041
-507,999	800,000	0,054	-0,154
-506,985	-154,862	-0,085	0,004
-505,970	-200,000	0,029	-0,101
-504,956	-171,309	-0,077	0,002
-503,941	-139,917	0,156	-0,012
-502,926	13,972	-0,069	0,039
-501,912	-67,482	-0,051	-0,014
-500,897	0,195	0,145	-0,074
-499,883	-26,591	-0,083	-0,035
-498,868	-200,000	0,005	0,071
-497,853	800,000	0,001	-0,003
-496,839	800,000	-0,057	0,128
-495,824	242,484	0,044	0,053
-494,810	795,063	0,030	0,059
-493,795	164,267	0,105	0,106
-492,781	-80,599	-0,116	-0,028
-491,766	-123,592	0,084	0,009
-490,751	2,075	-0,196	-0,101
-489,737	-200,000	-0,016	-0,060
-488,722	137,261	-0,042	-0,040
-487,708	800,000	0,045	0,103
-486,693	-200,000	0,004	0,047
-485,678	-104,090	-0,186	0,031
-484,664	482,639	0,099	-0,163
-483,649	-6,567	-0,079	-0,038
-482,635	-137,702	0,089	0,007
-481,620	52,904	0,061	0,042
-480,605	-69,535	0,081	-0,022
-479,591	-200,000	0,029	0,173
-478,576	-200,000	-0,004	-0,043
-477,562	56,012	-0,082	0,057
-476,547	-200,000	-0,019	-0,077
-475,532	100,845	-0,130	-0,109
-474,518	-115,940	-0,108	-0,014
-473,503	376,702	0,068	-0,100
-472,489	-149,305	0,076	0,004
-471,474	100,668	-0,024	-0,020
-470,459	-200,000	0,009	0,087
-469,445	-9,468	-0,029	0,014
-468,430	460,892	0,022	-0,035
-467,416	-200,000	-0,006	-0,034
-466,401	328,428	-0,059	0,081
-465,386	-200,000	-0,010	0,196
-464,372	133,538	0,005	-0,005
-463,357	800,000	0,049	-0,131
-462,343	800,000	-0,079	-0,206
-461,328	-185,667	0,079	0,001
-460,313	2,910	0,049	-0,026
-459,299	200,784	-0,126	0,140
-458,284	337,421	0,049	0,069
-457,270	-87,474	0,117	-0,025
-456,255	-80,097	-0,082	0,020
-455,241	-104,926	-0,131	-0,021
-454,226	116,920	-0,115	-0,101
-453,211	250,329	0,016	-0,020
-452,197	-40,482	0,084	0,031
-451,182	-200,000	-0,007	0,097
-450,168	61,108	0,092	0,065
-449,153	105,239	-0,112	-0,095
-448,138	543,877	-0,017	-0,029
-447,124	-142,723	-0,191	0,013
-446,109	44,374	0,101	-0,066
-445,095	-19,021	-0,083	0,037
-444,080	800,000	0,010	-0,023
-443,065	-41,582	0,022	-0,008
-442,051	-181,549	-0,070	0,001
-441,036	249,632	0,027	-0,033
-440,022	-186,892	-0,032	0,000
-439,007	568,454	0,053	0,093
-437,992	225,701	0,093	-0,108
-436,978	-200,000	0,012	0,043
-435,963	-200,000	0,007	-0,023
-434,949	800,000	-0,033	-0,103
-433,934	-153,013	-0,098	-0,005
-432,919	-125,774	-0,064	0,007
-431,905	295,487	-0,040	0,053
-430,890	537,441	0,092	0,157
-429,876	-93,007	-0,073	0,015
-428,861	-200,000	-0,023	0,238
-427,846	-128,488	-0,103	0,010
-426,832	-63,762	-0,159	0,046
-425,817	-33,391	0,036	-0,014
-424,803	-0,791	0,053	-0,027
-423,788	658,482	-0,045	0,083
-422,773	235,013	0,079	0,094
-421,759	-136,445	-0,114	0,009
-420,744	-126,443	0,087	0,009
-419,730	103,050	-0,093	0,078
-418,715	-200,000	-0,018	-0,103
-417,701	-24,539	0,124	-0,053
-416,686	119,907	0,035	0,031
-415,671	128,349	0,026	-0,024
-414,657	179,776	0,085	-0,089
-413,642	-200,000	0,013	-0,157
-412,628	661,936	-0,013	-0,025
-411,613	180,372	-0,061	-0,064
-410,598	-200,000	-0,003	-0,051
-409,584	-62,411	0,084	-0,025
-408,569	800,000	-0,045	0,096
-407,555	-87,558	-0,104	0,022
-406,540	-92,409	-0,117	-0,023
-405,525	800,000	0,026	0,061
-404,511	-200,000	0,023	-0,203
-403,496	448,829	-0,069	-0,109
-402,482	154,857	-0,060	-0,059
-401,467	-200,000	-0,016	0,095
-400,452	-67,160	0,084	0,023
-399,438	103,332	-0,067	-0,056
-398,423	800,000	0,024	0,048
-397,409	-200,000	-0,009	0,046
-396,394	-188,718	-0,130	-0,001
-395,379	-146,208	0,157	-0,010
-394,365	-200,000	-0,007	0,024
-393,350	83,707	-0,036	0,028
-392,336	-107,883	-0,114	-0,018
-391,321	-200,000	0,004	0,052
-390,306	-12,819	-0,132	-0,061
-389,292	-200,000	0,012	-0,076
-388,277	800,000	-0,052	0,127
-387,263	-200,000	0,012	0,082
-386,248	48,625	0,060	0,040
-385,233	35,204	0,064	-0,040
-384,219	589,453	0,044	0,077
-383,204	-200,000	-0,004	-0,124
-382,190	85,175	-0,103	-0,081
-381,175	241,602	0,021	-0,025
-380,160	-44,636	0,108	-0,038
-379,146	-145,420	0,182	0,012
-378,131	-116,361	0,160	-0,021
-377,117	79,070	0,038	-0,029
-376,102	800,000	0,036	0,098
-375,088	-200,000	0,015	-0,080
-374,073	-117,451	0,158	-0,020
-373,058	-154,382	-0,075	0,004
-372,044	-19,328	0,148	0,065
-371,029	302,294	-0,066	0,087
-370,015	-11,196	-0,034	0,016
-369,000	-6,426	-0,122	0,059
-367,985	-64,130	-0,055	-0,016
-366,971	-200,000	-0,004	-0,113
-365,956	-200,000	-0,016	-0,053
-364,942	243,967	-0,022	-0,027
-363,927	-12,263	0,032	-0,015
-362,912	-81,809	0,078	0,018
-361,898	-200,000	0,001	0,073
-360,883	800,000	-0,047	0,123
-359,869	187,909	0,036	0,039
-358,854	800,000	0,020	-0,060
-357,839	119,916	-0,004	-0,004
-356,825	-200,000	-0,002	0,189
-355,810	152,160	0,023	-0,023
-354,796	258,982	0,007	-0,008
-353,781	315,031	0,055	0,074
-352,766	-93,399	-0,075	-0,015
-351,752	-77,965	0,077	0,019
-350,737	800,000	0,037	0,093
-349,723	-200,000	0,003	0,010
-348,708	-94,456	-0,043	-0,008
-347,693	13,880	0,159	-0,088
-346,679	800,000	0,029	-0,076
-345,664	111,079	-0,108	-0,093
-344,650	82,031	0,065	0,050
-343,635	-45,303	0,008	-0,003
-342,620	-200,000	0,006	-0,052
-341,606	-200,000	0,024	-0,125
-340,591	-14,668	-0,145	0,066
-339,577	367,903	0,012	0,018
-338,562	293,343	-0,060	-0,079
-337,548	-117,551	0,040	0,005
-336,533	-28,723	0,093	0,038
-335,518	-69,739	0,054	0,015
-334,504	241,905	-0,091	0,109
-333,489	-129,254	-0,156	-0,015
-332,475	276,812	-0,026	0,033
-331,460	48,659	0,017	-0,012
-330,445	537,740	0,025	-0,043
-329,431	800,000	-0,063	0,158
-328,416	-200,000	-0,002	0,056
-327,402	3,048	0,093	0,048
-326,387	-200,000	-0,004	-0,089
-325,372	360,006	0,060	-0,085
-324,358	-49,167	0,184	-0,062
-323,343	-200,000	-0,013	-0,102
-322,329	800,000	0,017	-0,048
-321,314	53,769	0,186	-0,128
-320,299	-200,000	-0,007	-0,068
-319,285	800,000	-0,014	-0,030
-318,270	-200,000	0,007	-0,072
-317,256	-76,326	0,029	0,007
-316,241	259,270	-0,122	0,151
-315,226	22,785	0,035	-0,020
-314,212	16,032	0,104	0,058
-313,197	-200,000	-0,002	0,027
-312,183	800,000	0,012	0,027
-311,168	-108,000	-0,043	-0,007
-310,153	-7,515	0,094	0,045
-309,139	800,000	0,017	-0,044
-308,124	128,576	0,126	0,114
-307,110	325,006	0,018	-0,024
-306,095	-2,293	0,080	0,040
-305,080	158,458	0,068	0,067
-304,066	110,905	-0,049	0,042
-303,051	-200,000	0,004	-0,111
-302,037	-166,182	-0,092	-0,003
-301,022	-72,596	0,065	0,017
-300,008	-200,000	-0,002	0,181
-298,993	-119,128	0,148	0,018
-297,978	-57,613	0,135	0,042
-296,964	-200,000	0,019	-0,101
-295,949	201,465	-0,120	0,132
-294,935	72,443	-0,054	-0,040
-293,920	16,279	0,028	-0,016
-292,905	442,221	-0,013	0,020
-291,891	115,975	0,169	0,147
-290,876	501,234	0,063	0,105
-289,862	-13,794	-0,058	0,027
-288,847	467,251	-0,148	-0,238
-287,832	164,474	-0,047	-0,047
-286,818	-135,721	0,100	0,008
-285,803	120,021	0,058	0,051
-284,789	166,369	0,111	0,113
-283,774	-154,965	-0,031	-0,001
-282,759	-200,000	0,002	-0,016
-281,745	-200,000	0,015	-0,064
-280,730	101,708	0,035	-0,029
-279,716	422,683	-0,054	-0,083
-278,701	176,657	-0,095	-0,098
-277,686	8,235	0,131	-0,070
-276,672	-39,833	0,069	0,025
-275,657	336,327	0,089	-0,124
-274,643	-200,000	0,035	-0,175
-273,628	254,119	-0,019	-0,024
-272,613	-155,957	-0,042	-0,002
-271,599	619,213	-0,066	-0,119
-270,584	109,845	-0,108	0,092
-269,570	186,108	-0,068	0,072
-268,555	-154,773	0,120	0,006
-267,540	-143,068	0,099	0,007
-266,526	73,310	-0,028	0,021
-265,511	-200,000	0,016	0,058
-264,497	24,862	0,037	0,022
-263,482	97,555	0,036	-0,029
-262,467	185,958	-0,103	0,109
-261,453	800,000	0,031	0,092
-260,438	641,068	-0,091	-0,166
-259,424	473,401	-0,066	0,106
-258,409	800,000	-0,039	0,084
-257,395	6,899	0,109	0,058
-256,380	-165,849	0,091	-0,003
-255,365	178,409	0,081	-0,085
-254,351	79,135	0,119	-0,091
-253,336	0,018	-0,085	-0,043
-252,322	12,136	-0,020	0,011
-251,307	383,710	-0,022	-0,033
-250,292	-23,304	-0,063	0,027
-249,278	211,733	-0,061	-0,069
-248,263	-113,032	-0,154	0,021
-247,249	800,000	-0,006	-0,012
-246,234	166,652	-0,083	-0,083
-245,219	-90,479	-0,082	0,017
-244,205	-132,785	-0,157	0,014
-243,190	65,952	0,128	0,092
-242,176	51,328	0,189	0,128
-241,161	-200,000	0,001	0,091
-240,146	32,143	0,026	0,016
-239,132	146,468	0,068	0,065
-238,117	800,000	-0,025	-0,070
-237,103	632,850	0,012	0,022
-236,088	67,981	-0,091	0,066
-235,073	-84,395	-0,086	0,019
-234,059	-200,000	-0,014	0,045
-233,044	-200,000	0,054	0,000
-232,030	-137,891	0,131	0,010
-231,015	-200,000	-0,030	-0,131
-230,000	81,009	-0,056	-0,043
-228,986	127,860	0,044	-0,040
-227,971	35,323	0,079	-0,049
-226,957	341,037	0,041	0,058
-225,942	14,720	0,075	-0,042
-224,927	-200,000	-0,018	-0,105
-223,913	-47,168	-0,030	0,010
-222,898	-14,365	-0,074	0,034
-221,884	-200,000	-0,010	-0,047
-220,869	-79,129	0,141	0,034
-219,855	442,018	-0,031	0,049
-218,840	-200,000	0,010	0,033
-217,825	-49,279	0,087	-0,029
-216,811	189,016	0,088	-0,094
-215,796	-200,000	0,004	0,087
-214,782	-200,000	0,012	-0,056
-213,767	-79,800	0,110	-0,026
-212,752	18,251	-0,127	0,072
-211,738	65,822	0,122	0,088
-210,723	800,000	0,048	0,112
-209,709	68,108	-0,087	-0,063
-208,694	110,184	0,073	0,062
-207,679	-109,543	-0,112	-0,017
-206,665	-200,000	-0,018	0,070
-205,650	179,712	-0,035	-0,037
-204,636	92,726	0,088	0,071
-203,621	228,316	0,070	0,081
-202,606	-34,528	0,024	-0,009
-201,592	190,930	0,063	-0,067
-200,577	-154,707	-0,054	-0,003
-199,563	800,000	-0,047	0,139
-198,548	-147,194	0,128	0,008
-197,533	800,000	-0,020	0,051
-196,519	417,725	-0,003	0,004
-195,504	-200,000	0,004	-0,039
-194,490	-40,815	-0,142	0,052
-193,475	-97,657	-0,113	-0,021
-192,460	0,650	0,115	-0,058
-191,446	-19,553	0,199	0,087
-190,431	558,145	0,051	0,087
-189,417	231,521	0,025	-0,029
-188,402	154,413	-0,025	0,025
-187,387	292,365	-0,074	-0,096
-186,373	23,252	-0,082	-0,048
-185,358	39,987	-0,092	-0,058
-184,344	-140,138	-0,145	0,011
-183,329	-200,000	0,001	-0,047
-182,315	-100,332	0,114	-0,020
-181,300	92,008	0,025	0,020
-180,285	-8,984	-0,052	-0,025
-179,271	-26,646	-0,136	0,056
-178,256	-200,000	-0,017	-0,066
-177,242	-200,000	-0,001	-0,124
-176,227	-47,121	-0,013	-0,004
-175,212	46,657	0,144	0,095
-174,198	800,000	0,021	-0,052
-173,183	-46,971	0,089	-0,031
-172,169	-200,000	0,023	-0,079
-171,154	-200,000	-0,019	-0,062
-170,139	-102,623	0,042	0,007
-169,125	251,530	-0,016	0,019
-168,110	-82,449	0,033	0,008
-167,096	-200,000	-0,028	-0,093
-166,081	-58,450	-0,099	0,030
-165,066	599,849	0,036	-0,064
-164,052	251,871	0,040	0,048
-163,037	-200,000	0,013	-0,070
-162,023	-200,000	0,007	-0,106
-161,008	-90,266	0,031	0,006
-159,993	800,000	0,028	-0,064
-158,979	-131,929	-0,191	-0,017
-157,964	236,600	0,091	-0,107
-156,950	-200,000	0,008	0,132
-155,935	21,555	-0,036	0,021
-154,920	3,546	0,090	0,047
-153,906	494,089	0,078	0,128
-152,891	-200,000	-0,045	0,158
-151,877	483,821	0,050	0,081
-150,862	-54,599	-0,142	-0,045
-149,847	-131,953	-0,035	-0,003
-148,833	-82,516	0,013	-0,003
-147,818	-109,777	0,066	-0,010
-146,804	-200,000	0,018	0,086
-145,789	-18,288	-0,057	-0,025
-144,775	-200,000	-0,018	-0,078
-143,760	-129,221	-0,200	0,020
-142,745	-200,000	-0,002	0,051
-141,731	23,401	0,048	-0,028
-140,716	-200,000	0,015	-0,062
-139,702	800,000	0,063	0,125
-138,687	-128,840	-0,029	0,003
-137,672	-200,000	0,009	-0,089
-136,658	657,903	-0,115	-0,210
-135,643	-200,000	-0,014	-0,080
-134,629	-177,061	0,126	-0,002
-133,614	392,156	-0,030	-0,044
-132,599	-158,953	0,099	-0,004
-131,585	-79,828	0,193	0,046
-130,570	800,000	0,045	0,132
-129,556	-87,250	-0,096	-0,020
-128,541	-200,000	0,024	0,104
-127,526	-200,000	0,012	0,101
-126,512	9,438	0,081	0,043
-125,497	-9,724	0,087	0,041
-124,483	-200,000	-0,002	-0,060
-123,468	800,000	0,006	0,016
-122,453	753,651	-0,031	-0,059
-121,439	-200,000	-0,025	-0,121
-120,424	800,000	-0,018	-0,041
-119,410	514,810	-0,068	0,112
-118,395	355,776	-0,011	0,015
-117,380	128,440	-0,084	-0,076
-116,366	482,207	-0,008	0,013
-115,351	800,000	0,025	-0,079
-114,337	-200,000	0,003	0,223
-113,322	-200,000	-0,026	-0,162
-112,307	800,000	-0,025	-0,065
-111,293	-6,251	0,102	0,049
-110,278	-200,000	-0,022	0,081
-109,264	312,034	-0,018	-0,024
-108,249	-145,746	-0,096	-0,006
-107,234	138,737	-0,047	-0,044
-106,220	-122,417	-0,136	0,016
-105,205	-147,597	0,040	0,002
-104,191	-200,000	0,007	0,068
-103,176	524,155	0,076	-0,128
-102,162	800,000	0,021	-0,047
-101,147	-111,989	-0,058	-0,008
-100,132	13,192	0,101	0,055
-99,118	800,000	-0,026	-0,063
-98,103	309,196	-0,094	-0,124
-97,089	800,000	0,060	0,120
-96,074	-60,451	-0,070	0,021
-95,059	-49,333	-0,101	0,034
-94,045	184,193	-0,030	-0,032
-93,030	26,657	-0,133	0,079
-92,016	800,000	-0,011	0,030
-91,001	-200,000	-0,026	-0,084
-89,986	-200,000	0,042	0,146
-88,972	-117,703	0,050	0,006
-87,957	-161,893	-0,097	0,003
-86,943	-200,000	-0,011	0,123
-85,928	-44,190	-0,122	0,043
-84,913	408,930	-0,076	0,114
-83,899	-200,000	-0,006	0,123
-82,884	259,364	-0,090	0,110
-81,870	-200,000	-0,013	0,098
-80,855	673,619	0,045	-0,082
-79,840	203,143	-0,071	0,078
-78,826	250,658	0,036	0,043
-77,811	92,325	-0,080	0,064
-76,797	38,975	-0,017	0,010
-75,782	-73,917	-0,086	0,022
-74,767	800,000	0,057	0,149
-73,753	92,492	0,074	0,059
-72,738	800,000	0,054	0,126
-71,724	191,734	-0,050	-0,053
-70,709	-95,612	0,081	0,015
-69,694	5,229	0,064	-0,033
-68,680	-24,873	0,056	0,023
-67,665	691,989	-0,022	-0,041
-66,651	417,642	-0,029	0,044
-65,636	-200,000	-0,027	-0,084
-64,622	800,000	0,066	-0,130
-63,607	44,386	0,102	-0,066
-62,592	800,000	0,003	-0,008
-61,578	211,550	-0,013	0,015
-60,563	-200,000	-0,023	-0,074
-59,549	800,000	-0,062	0,192
-58,534	26,666	-1,696	-1,001
-57,519	422,604	-1,337	-2,036
-56,505	-200,000	-0,492	-4,311
-55,490	308,276	0,932	1,232
-54,476	800,000	5,032	11,329
-53,461	-200,000	19,552	329,956
-52,446	-200,000	743,238	2334,637
-51,432	568,889	1651,929	2847,920
-50,417	76,748	1665,213	1246,972
-49,403	20,408	1538,902	876,328
-48,388	14,294	1461,253	802,519
-47,373	18,490	1451,721	817,425
-46,359	16,602	1441,349	802,551
-45,344	12,568	1436,716	780,718
-44,330	12,455	1434,853	779,134
-43,315	12,461	1433,079	778,169
-42,300	12,482	1431,355	777,300
-41,286	12,512	1430,064	776,712
-40,271	12,454	1428,948	775,800
-39,257	12,464	1427,594	775,079
-38,242	12,498	1426,464	774,596
-37,227	12,502	1425,187	773,894
-36,213	12,543	1423,661	773,230
-35,198	12,485	1422,736	772,418
-34,184	12,542	1421,667	772,077
-33,169	12,496	1420,356	771,117
-32,154	12,546	1419,199	770,695
-31,140	12,538	1418,289	770,136
-30,125	12,594	1416,992	769,662
-29,111	12,556	1415,795	768,805
-28,096	12,536	1414,798	768,137
-27,082	12,459	1413,712	767,153
-26,067	12,450	1412,708	766,537
-25,052	12,457	1411,642	765,962
-24,038	12,469	1410,579	765,409
-23,023	12,435	1409,710	764,748
-22,009	12,462	1408,517	764,201
-20,994	12,440	1407,467	763,493
-19,979	12,481	1406,684	763,230
-18,965	12,457	1405,525	762,461
-17,950	12,421	1404,748	761,843
-16,936	12,402	1404,160	761,404
-15,921	12,339	1402,924	760,410
-14,906	12,365	1402,128	760,067
-13,892	12,394	1401,124	759,631
-12,877	12,342	1400,361	758,945
-11,863	12,361	1399,513	758,543
-10,848	12,355	1398,372	757,867
-9,833	12,329	1397,774	757,391
-8,819	12,291	1396,764	756,639
-7,804	12,279	1395,842	756,053
-6,790	12,226	1395,035	755,340
-5,775	12,288	1393,741	754,896
-4,760	12,272	1392,932	754,354
-3,746	12,240	1391,907	753,619
-2,731	12,193	1391,064	752,918
-1,717	12,242	1390,138	752,612
-0,702	12,239	1388,410	751,635
0,313	16,278	1304,723	724,879
1,327	32,697	698,882	425,914
2,342	49,910	122,326	81,314
3,356	2,202	16,485	8,383
4,371	4,309	3,223	1,662
5,386	-14,730	0,543	0,245
6,400	800,000	0,089	0,250
7,415	65,180	-0,231	-0,165
8,429	74,842	-0,298	-0,221
9,444	120,259	-0,262	-0,230
10,459	49,203	-0,378	-0,250
11,473	119,879	-0,373	-0,326
12,488	7,328	-0,144	-0,076
13,502	71,651	-0,258	-0,189
14,517	56,071	-0,311	-0,213
15,531	-44,056	-0,320	-0,113
16,546	72,800	-0,315	-0,232
17,561	34,728	-0,425	-0,261
18,575	73,593	-0,116	-0,085
19,590	380,122	-0,187	-0,271
20,604	-20,661	-0,211	0,091
21,619	87,666	-0,431	-0,336
22,634	58,344	-0,327	-0,225
23,648	53,650	-0,382	-0,258
24,663	15,690	-0,404	-0,223
25,677	166,044	-0,281	-0,280
26,692	-29,014	-0,248	-0,100
27,707	36,952	-0,514	-0,320
28,721	-20,195	-0,376	-0,162
29,736	55,891	-0,360	-0,245
30,750	232,226	-0,388	-0,449
31,765	79,090	-0,384	-0,289
32,780	52,493	-0,322	-0,216
33,794	52,489	-0,478	-0,321
34,809	197,847	-0,312	-0,336
35,823	170,811	-0,341	-0,344
36,838	21,901	-0,410	-0,235
37,853	20,706	-0,358	-0,203
38,867	-15,693	-0,347	-0,155
39,882	120,975	-0,358	-0,313
40,896	164,010	-0,216	-0,214
41,911	17,828	-0,239	-0,133
42,926	83,082	-0,387	-0,296
43,940	123,796	-0,328	-0,290
44,955	167,662	-0,349	-0,349
45,969	126,181	-0,379	-0,337
46,984	75,029	-0,299	-0,221
47,999	22,005	-0,436	-0,249
49,013	11,160	-0,361	-0,194
50,028	20,237	-0,387	-0,219
51,042	194,842	-0,312	-0,333
52,057	127,373	-0,400	-0,357
53,071	-19,540	-0,443	-0,192
54,086	129,658	-0,325	-0,292
55,101	258,768	-0,269	-0,326
56,115	23,359	-0,343	-0,197
57,130	5,256	-0,455	-0,235
58,144	75,533	-0,407	-0,302
59,159	129,908	-0,358	-0,321
60,174	-45,320	-0,382	-0,132
61,188	56,949	-0,382	-0,261
62,203	-10,144	-0,430	-0,200
63,217	115,824	-0,316	-0,272
64,232	115,275	-0,285	-0,244
65,247	56,656	-0,372	-0,254
66,261	1,795	-0,386	-0,195
67,276	-123,097	-0,224	-0,025
68,290	-39,628	-0,399	-0,146
69,305	114,551	-0,286	-0,244
70,320	67,569	-0,217	-0,155
71,334	71,954	-0,336	-0,245
72,349	219,849	-0,252	-0,284
73,363	-36,404	-0,389	-0,146
74,378	38,644	-0,393	-0,245
75,393	2,244	-0,304	-0,154
76,407	194,161	-0,237	-0,252
77,422	71,078	-0,202	-0,146
78,436	-59,557	-0,159	-0,048
79,451	24,218	-0,285	-0,164
80,466	2,433	-0,300	-0,152
81,480	66,668	-0,278	-0,198
82,495	429,103	-0,161	-0,245
83,509	-71,968	-0,350	-0,091
84,524	-14,754	-0,316	-0,142
85,539	-4,900	-0,326	-0,157
86,553	-57,871	-0,328	-0,100
87,568	0,225	-0,217	-0,108
88,582	-40,643	-0,458	-0,166
89,597	-102,661	-0,275	-0,045
90,611	0,813	-0,328	-0,164
91,626	331,675	-0,105	-0,142
92,641	21,668	-0,339	-0,193
93,655	217,964	-0,198	-0,221
94,670	145,048	-0,231	-0,216
95,684	-37,919	-0,366	-0,136
96,699	19,569	-0,405	-0,228
97,714	607,182	-0,122	-0,214
98,728	800,000	-0,104	-0,210
99,743	76,595	-0,236	-0,175
100,757	-96,042	-0,286	-0,053
101,772	8,483	-0,387	-0,203
102,787	321,611	-0,178	-0,237
103,801	166,925	-0,262	-0,261
104,816	22,378	-0,353	-0,201
105,830	481,131	-0,141	-0,224
106,845	29,113	-0,375	-0,222
107,860	-87,400	-0,313	-0,066
108,874	107,259	-0,247	-0,206
109,889	151,548	-0,281	-0,268
110,903	64,557	-0,330	-0,232
111,918	-200,000	-0,092	-0,308
112,933	24,296	-0,257	-0,148
113,947	-91,791	-0,278	-0,055
114,962	-4,658	-0,251	-0,121
115,976	79,058	-0,331	-0,248
116,991	124,645	-0,265	-0,233
118,006	73,139	-0,251	-0,183
119,020	184,608	-0,160	-0,166
120,035	-141,883	-0,126	-0,009
121,049	-72,091	-0,275	-0,071
122,064	5,387	-0,157	-0,080
123,079	261,462	-0,164	-0,199
124,093	102,811	-0,279	-0,228
125,108	-105,314	-0,329	-0,052
126,122	403,772	-0,179	-0,264
127,137	45,660	-0,283	-0,182
128,151	40,782	-0,212	-0,133
129,166	-9,128	-0,297	-0,138
130,181	234,990	-0,237	-0,273
131,195	97,657	-0,238	-0,191
132,210	-200,000	-0,094	-0,306
133,224	-49,114	-0,254	-0,084
134,239	-73,315	-0,191	-0,048
135,254	-30,704	-0,257	-0,101
136,268	-15,215	-0,171	-0,076
137,283	-33,117	-0,161	-0,062
138,297	10,522	-0,255	-0,135
139,312	77,378	-0,244	-0,181
140,327	-180,511	-0,083	0,001
141,341	-29,758	-0,291	-0,115
142,356	-37,342	-0,193	-0,072
143,370	-28,636	-0,289	-0,115
144,385	181,174	-0,302	-0,310
145,400	108,124	-0,342	-0,285
146,414	71,339	-0,372	-0,269
147,429	33,798	-0,215	-0,130
148,443	-25,362	-0,298	-0,122
149,458	-86,299	-0,318	-0,068
150,473	251,846	-0,222	-0,264
151,487	38,349	-0,199	-0,123
152,502	-19,810	-0,318	-0,136
153,516	23,394	-0,436	-0,249
154,531	468,890	-0,174	-0,272
155,546	44,856	-0,218	-0,139
156,560	292,755	-0,082	-0,104
157,575	40,846	-0,199	-0,125
158,589	68,745	-0,345	-0,246
159,604	50,210	-0,269	-0,176
160,619	11,317	-0,323	-0,172
161,633	-48,481	-0,145	-0,048
162,648	285,837	-0,165	-0,208
163,662	800,000	-0,109	-0,220
164,677	82,391	-0,281	-0,212
165,692	117,834	-0,149	-0,128
166,706	230,625	-0,221	-0,253
167,721	206,548	-0,271	-0,294
168,735	44,219	-0,260	-0,166
169,750	47,382	-0,328	-0,212
170,764	97,606	-0,175	-0,140
171,779	96,683	-0,344	-0,274
172,794	109,649	-0,155	-0,129
173,808	173,022	-0,179	-0,179
174,823	800,000	-0,080	-0,238
175,837	203,767	-0,233	-0,251
176,852	177,208	-0,214	-0,217
177,867	312,098	-0,213	-0,278
178,881	241,333	-0,196	-0,229
179,896	-149,110	-0,211	-0,012
180,910	145,481	-0,154	-0,143
181,925	-86,339	-0,274	-0,058
182,940	-40,040	-0,293	-0,106
183,954	70,566	-0,274	-0,197
184,969	-66,229	-0,234	-0,064
185,983	-200,000	-0,070	-0,232
186,998	55,426	-0,212	-0,142
188,013	170,826	-0,203	-0,202
189,027	-167,011	-0,287	0,008
190,042	753,246	-0,154	-0,290
191,056	-8,430	-0,236	-0,110
192,071	51,678	-0,187	-0,123
193,086	3,471	-0,229	-0,115
194,100	-96,189	-0,219	-0,040
195,115	-0,522	-0,293	-0,144
196,129	-200,000	-0,054	-0,193
197,144	-23,591	-0,367	-0,152
198,159	411,830	-0,201	-0,297
199,173	15,439	-0,200	-0,108
200,188	35,182	-0,262	-0,159
201,202	105,889	-0,193	-0,158
202,217	800,000	-0,125	-0,242
203,232	228,036	-0,218	-0,247
204,246	27,539	-0,233	-0,136
205,261	117,325	-0,125	-0,107
206,275	260,995	-0,141	-0,169
207,290	222,642	-0,113	-0,127
208,304	80,450	-0,130	-0,097
209,319	-200,000	-0,058	-0,189
210,334	-6,738	-0,224	-0,105
211,348	186,905	-0,130	-0,134
212,363	9,113	-0,308	-0,161
213,377	800,000	-0,114	-0,281
214,392	-40,555	-0,225	-0,081
215,407	-36,252	-0,235	-0,087
216,421	-7,625	-0,129	-0,060
217,436	154,506	-0,264	-0,251
218,450	-108,833	-0,269	-0,039
219,465	800,000	-0,086	-0,197
220,480	653,693	-0,105	-0,187
221,494	148,375	-0,229	-0,214
222,509	245,199	-0,109	-0,128
223,523	122,177	-0,191	-0,165
224,538	784,235	-0,079	-0,152
225,553	80,655	-0,266	-0,198
226,567	204,024	-0,217	-0,233
227,582	263,294	-0,185	-0,222
228,596	-58,101	-0,096	-0,029
229,611	800,000	-0,063	-0,175
230,626	-125,949	-0,111	0,011
231,640	800,000	-0,045	-0,091
232,655	800,000	-0,072	-0,141
233,669	236,583	-0,185	-0,212
234,684	26,173	-0,213	-0,123
235,699	-200,000	0,015	-0,135
236,713	3,479	-0,171	-0,086
237,728	159,748	-0,200	-0,193
238,742	0,991	-0,245	-0,121
239,757	50,997	-0,153	-0,100
240,772	-5,501	-0,215	-0,101
241,786	424,047	-0,118	-0,177
242,801	18,711	-0,235	-0,130
243,815	-190,154	-0,147	-0,001
244,830	185,219	-0,107	-0,110
245,844	-13,058	-0,084	0,038
246,859	-15,686	-0,252	-0,111
247,874	301,386	-0,167	-0,213
248,888	389,078	-0,093	-0,133
249,903	-127,170	-0,053	0,005
250,917	-200,000	-0,018	0,061
251,932	800,000	-0,063	-0,188
252,947	-200,000	-0,037	-0,228
253,961	402,082	-0,175	-0,254
254,976	800,000	-0,101	-0,198
255,990	-38,708	-0,286	-0,104
257,005	-19,963	-0,300	-0,127
258,020	-200,000	-0,005	-0,134
259,034	-68,282	-0,154	-0,041
260,049	-94,425	-0,194	-0,036
261,063	196,951	-0,146	-0,154
262,078	109,763	-0,213	-0,177
263,093	-0,272	-0,230	-0,112
264,107	43,978	-0,243	-0,154
265,122	-74,991	-0,132	-0,032
266,136	-97,386	-0,152	-0,027
267,151	106,452	-0,087	-0,072
268,166	540,532	-0,103	-0,169
269,180	-56,320	-0,165	-0,050
270,195	157,689	-0,242	-0,231
271,209	226,176	-0,124	-0,139
272,224	5,719	-0,116	-0,059
273,239	542,569	-0,109	-0,179
274,253	-200,000	0,031	-0,225
275,268	-23,595	-0,056	-0,023
276,282	125,316	-0,178	-0,155
277,297	-2,730	-0,233	-0,112
278,312	132,607	-0,142	-0,126
279,326	42,220	-0,182	-0,114
280,341	68,649	-0,196	-0,138
281,355	30,573	-0,165	-0,097
282,370	-58,488	-0,203	-0,060
283,384	481,262	-0,122	-0,191
284,399	198,397	-0,229	-0,242
285,414	-200,000	-0,039	-0,189
286,428	-71,174	-0,316	-0,081
287,443	40,964	-0,165	-0,102
288,457	5,600	-0,143	0,073
289,472	-58,158	-0,167	-0,050
290,487	247,431	-0,115	-0,134
291,501	504,220	-0,107	-0,171
292,516	156,962	-0,128	-0,122
293,530	213,636	-0,119	-0,130
294,545	-47,798	-0,140	-0,047
295,560	199,376	-0,148	-0,157
296,574	-200,000	0,010	-0,186
297,589	166,199	-0,146	-0,142
298,603	117,270	-0,184	-0,155
299,618	464,090	-0,124	-0,192
300,633	79,184	-0,058	-0,043
301,647	-200,000	-0,052	-0,172
302,662	-38,149	-0,121	-0,044
303,676	310,192	-0,096	-0,124
304,691	-200,000	-0,063	-0,200
305,706	66,203	-0,141	-0,098
306,720	-52,595	-0,241	-0,076
307,735	272,072	-0,134	-0,163
308,749	-51,168	-0,212	-0,068
309,764	46,403	-0,150	-0,095
310,779	-28,974	-0,260	-0,102
311,793	-32,445	-0,122	-0,047
312,808	-81,383	-0,131	-0,029
313,822	102,338	-0,131	-0,105
314,837	102,821	-0,045	-0,036
315,852	0,518	-0,146	-0,072
316,866	437,688	-0,090	-0,135
317,881	-25,169	-0,154	-0,063
318,895	-37,883	-0,198	-0,072
319,910	217,304	-0,156	-0,171
320,925	72,433	-0,186	-0,133
321,939	72,142	-0,201	-0,144
322,954	108,371	-0,126	-0,103
323,968	42,386	-0,114	0,071
324,983	800,000	-0,033	-0,084
325,997	314,007	-0,237	-0,307
327,012	26,350	-0,307	-0,176
328,027	-85,069	-0,219	-0,047
329,041	208,491	-0,161	-0,173
330,056	480,037	-0,092	-0,143
331,070	-184,305	-0,097	0,001
332,085	800,000	-0,026	-0,070
333,100	52,280	0,013	-0,008
334,114	-91,956	-0,079	-0,015
335,129	37,401	-0,192	-0,117
336,143	26,801	-0,130	-0,074
337,158	265,149	-0,043	-0,052
338,173	228,294	-0,108	-0,120
339,187	-74,603	-0,049	-0,012
340,202	-98,672	-0,102	0,018
341,216	-41,234	-0,183	-0,064
342,231	143,346	-0,205	-0,187
343,246	89,348	-0,129	-0,098
344,260	-95,105	-0,123	-0,023
345,275	132,560	-0,089	-0,079
346,289	-100,350	-0,160	0,027
347,304	-129,553	-0,229	0,021
348,319	-62,909	-0,114	0,032
349,333	-134,701	-0,066	-0,005
350,348	-200,000	-0,007	-0,048
351,362	630,752	-0,034	-0,059
352,377	-111,175	-0,175	0,024
353,392	-25,231	-0,145	-0,058
354,406	-79,496	-0,126	-0,029
355,421	208,551	1313,058	1407,509
356,435	160,482	1473,555	1408,006
