DTS Sentinel unit serial number:	SN410029Multiplexer serial number:	ORYXHardware model number:	OX2-SRSoftware version number:	ORYX F/W v4,00 Oryx Data Collector v3.7.2.0data status	okinstallation	B3 Nyhavnadifferential loss correction	single-endedforward channel	channel 1reverse channel	N/Adate	2023/12/03time	21:27:30forward acquisition time	300,00reverse acquisition time	0,00gamma	499,1914k internal	0,3199k external	0,3199temperature offset calibration	1,0000default loss term (dB/km)	0,3820temperature slope calibration	1,0000multiplexer offset coefficient	1,0000multiplexer slope coefficient	1,0000fibre end	0,00T internal ref (°C)	13,57T ext. ref 1 (°C)	-1,90T ext. ref 2 (°C)	-1,93length (m)	temperature (°C)	Stokes	anti-Stokes-744,400	183,592	-0,245	-0,264
-743,385	-200,000	-0,012	0,253
-742,371	277,191	-0,148	-0,192
-741,356	-200,000	-0,024	0,430
-740,342	132,238	-0,150	-0,140
-739,327	-200,000	-0,024	0,219
-738,312	139,382	-0,198	-0,190
-737,298	-200,000	0,008	0,390
-736,283	72,179	-0,295	-0,224
-735,269	-200,000	-0,054	0,233
-734,254	71,935	-0,156	-0,118
-733,239	-80,549	-0,276	0,066
-732,225	800,000	-0,132	-0,313
-731,210	63,970	0,198	0,145
-730,196	-65,950	-0,168	0,049
-729,181	-200,000	0,003	0,119
-728,167	387,377	-0,026	-0,039
-727,152	-200,000	0,034	0,144
-726,137	210,412	-0,095	-0,108
-725,123	800,000	0,031	-0,073
-724,108	-24,052	-0,073	-0,032
-723,094	800,000	-0,085	-0,175
-722,079	-200,000	-0,033	-0,159
-721,064	-114,019	-0,073	-0,010
-720,050	-83,155	-0,069	0,016
-719,035	-66,501	-0,119	0,034
-718,021	-200,000	-0,026	0,126
-717,006	14,539	-0,121	0,069
-715,991	-83,604	-0,089	-0,020
-714,977	800,000	0,012	-0,037
-713,962	127,492	0,026	0,024
-712,948	1,886	0,049	-0,025
-711,933	373,527	-0,067	-0,099
-710,918	176,634	-0,082	-0,086
-709,904	-117,435	-0,202	-0,026
-708,889	654,495	-0,059	-0,110
-707,875	-82,935	-0,143	0,033
-706,860	-144,508	-0,071	0,005
-705,845	-200,000	0,005	-0,062
-704,831	800,000	-0,080	-0,207
-703,816	517,144	0,027	-0,046
-702,802	800,000	-0,050	0,124
-701,787	367,910	0,031	0,046
-700,772	-60,632	-0,239	-0,073
-699,758	800,000	-0,042	-0,085
-698,743	-200,000	0,023	0,167
-697,729	-200,000	-0,030	0,135
-696,714	-1,095	0,038	-0,019
-695,699	-200,000	-0,039	-0,161
-694,685	800,000	-0,015	-0,040
-693,670	-14,235	0,048	-0,022
-692,656	-55,503	0,034	-0,011
-691,641	800,000	0,060	-0,126
-690,627	20,370	0,068	0,040
-689,612	56,806	-0,053	0,038
-688,597	154,767	0,043	0,043
-687,583	800,000	-0,021	-0,058
-686,568	-7,585	0,060	0,029
-685,554	-200,000	-0,032	0,126
-684,539	800,000	0,058	0,147
-683,524	800,000	-0,011	0,028
-682,510	261,050	-0,035	-0,044
-681,495	-200,000	-0,009	-0,161
-680,481	-117,561	-0,183	0,024
-679,466	95,447	-0,071	-0,059
-678,451	42,372	0,075	0,049
-677,437	389,132	0,073	0,111
-676,422	212,969	0,057	0,065
-675,408	90,287	0,092	-0,074
-674,393	183,740	-0,088	0,095
-673,378	-75,999	-0,096	0,024
-672,364	-67,495	-0,146	-0,041
-671,349	-180,500	-0,108	0,002
-670,335	82,660	-0,083	-0,065
-669,320	19,564	-0,104	0,060
-668,305	-17,244	0,118	0,054
-667,291	-97,581	-0,072	0,013
-666,276	91,105	-0,071	0,058
-665,262	-51,395	-0,131	0,044
-664,247	62,296	0,148	-0,107
-663,232	372,857	0,039	-0,058
-662,218	54,920	-0,036	0,025
-661,203	145,964	0,072	0,070
-660,189	77,047	0,013	0,010
-659,174	-200,000	-0,022	-0,130
-658,159	-200,000	0,013	-0,118
-657,145	-63,516	-0,045	0,013
-656,130	800,000	0,019	0,058
-655,116	312,257	-0,078	0,107
-654,101	-200,000	-0,022	-0,070
-653,086	-200,000	0,038	-0,149
-652,072	363,391	-0,104	-0,152
-651,057	-24,463	-0,129	-0,055
-650,043	59,694	-0,140	-0,100
-649,028	36,594	-0,121	0,077
-648,014	28,674	-0,037	-0,023
-646,999	800,000	-0,026	0,055
-645,984	-200,000	0,020	0,101
-644,970	800,000	-0,037	-0,080
-643,955	111,896	0,019	0,016
-642,941	-38,245	0,103	-0,039
-641,926	-200,000	-0,004	-0,092
-640,911	-200,000	0,017	-0,148
-639,897	-200,000	-0,028	0,113
-638,882	-200,000	0,004	0,066
-637,868	5,025	-0,083	0,044
-636,853	800,000	-0,063	-0,153
-635,838	306,116	-0,050	-0,067
-634,824	800,000	0,100	-0,205
-633,809	27,979	0,108	0,066
-632,795	-131,712	-0,033	-0,003
-631,780	20,471	-0,159	-0,093
-630,765	144,149	0,085	-0,083
-629,751	-153,187	-0,116	0,006
-628,736	-114,975	-0,155	0,021
-627,722	-200,000	-0,001	-0,023
-626,707	-126,359	0,132	-0,014
-625,692	438,650	0,061	0,096
-624,678	-48,995	-0,079	-0,027
-623,663	199,357	-0,080	0,089
-622,649	-91,005	-0,131	0,027
-621,634	166,891	-0,055	-0,057
-620,619	161,967	0,028	-0,029
-619,605	-73,900	-0,165	-0,043
-618,590	800,000	0,045	0,114
-617,576	-81,321	0,136	-0,032
-616,561	-200,000	-0,002	0,028
-615,546	-156,954	-0,097	-0,004
-614,532	87,004	-0,056	-0,044
-613,517	-109,674	-0,151	0,023
-612,503	-60,790	0,050	-0,015
-611,488	-200,000	0,008	0,049
-610,474	800,000	-0,020	0,052
-609,459	-153,964	-0,052	-0,003
-608,444	93,674	-0,067	-0,055
-607,430	35,499	0,034	-0,022
-606,415	257,574	-0,064	-0,079
-605,401	37,830	-0,021	0,013
-604,386	800,000	-0,052	-0,116
-603,371	-200,000	0,021	-0,068
-602,357	-68,754	0,067	-0,019
-601,342	161,489	-0,021	-0,022
-600,328	281,034	-0,049	0,063
-599,313	800,000	-0,040	0,097
-598,298	11,507	0,092	-0,051
-597,284	-55,706	0,059	0,019
-596,269	570,572	-0,064	-0,113
-595,255	-200,000	-0,000	0,200
-594,240	-50,291	-0,135	0,046
-593,225	-133,498	0,033	0,003
-592,211	-200,000	0,014	-0,233
-591,196	-200,000	-0,005	-0,097
-590,182	244,051	0,050	-0,061
-589,167	-200,000	-0,010	0,093
-588,152	117,641	0,039	0,035
-587,138	259,706	0,025	0,031
-586,123	-102,211	-0,185	-0,032
-585,109	13,038	-0,101	-0,057
-584,094	130,129	0,080	0,074
-583,079	-136,251	0,105	-0,009
-582,065	800,000	0,078	0,227
-581,050	2,689	0,065	0,034
-580,036	-100,548	-0,008	-0,001
-579,021	-116,373	-0,123	0,016
-578,006	-156,010	-0,069	0,003
-576,992	-200,000	-0,035	0,122
-575,977	-171,207	-0,047	-0,001
-574,963	-128,324	0,058	-0,006
-573,948	44,352	-0,070	-0,047
-572,934	176,968	0,051	-0,054
-571,919	82,357	-0,041	-0,032
-570,904	36,534	-0,044	-0,028
-569,890	75,280	-0,055	-0,042
-568,875	174,457	0,049	-0,051
-567,861	-200,000	-0,011	-0,096
-566,846	800,000	0,023	0,060
-565,831	-28,081	-0,008	-0,003
-564,817	108,656	-0,052	-0,045
-563,802	-200,000	0,000	-0,006
-562,788	-200,000	-0,035	-0,167
-561,773	-87,413	-0,074	0,016
-560,758	30,139	-0,100	-0,062
-559,744	622,599	-0,015	0,027
-558,729	-200,000	0,018	-0,068
-557,715	489,797	-0,093	0,154
-556,700	800,000	-0,031	0,091
-555,685	41,241	-0,132	0,086
-554,671	496,750	0,017	-0,028
-553,656	564,574	0,046	0,081
-552,642	-93,409	-0,123	-0,024
-551,627	285,691	0,110	0,144
-550,612	377,132	-0,094	0,139
-549,598	-200,000	0,007	-0,031
-548,583	-18,883	0,080	-0,036
-547,569	180,349	-0,082	0,087
-546,554	800,000	0,083	0,205
-545,539	-92,150	0,085	0,017
-544,525	-93,145	-0,129	-0,026
-543,510	-103,975	0,079	0,013
-542,496	-39,919	-0,152	-0,057
-541,481	327,037	0,031	-0,043
-540,466	-171,237	0,106	-0,003
-539,452	11,898	0,043	-0,024
-538,437	20,475	0,111	0,065
-537,423	132,147	-0,045	0,042
-536,408	32,034	-0,059	0,037
-535,393	65,544	-0,068	-0,049
-534,379	408,201	-0,038	-0,059
-533,364	99,864	0,102	-0,085
-532,350	-58,509	0,171	-0,053
-531,335	65,429	-0,024	-0,018
-530,321	-149,347	0,164	0,009
-529,306	-200,000	-0,003	-0,011
-528,291	-55,210	-0,159	-0,051
-527,277	544,729	-0,070	0,122
-526,262	-123,160	-0,113	0,013
-525,248	-50,172	-0,061	-0,021
-524,233	386,649	0,055	-0,083
-523,218	124,226	0,094	0,085
-522,204	-72,985	0,157	-0,041
-521,189	-40,069	-0,060	0,023
-520,175	-200,000	0,005	-0,043
-519,160	21,690	-0,069	-0,040
-518,145	-200,000	-0,013	-0,111
-517,131	205,472	0,118	0,132
-516,116	800,000	-0,040	-0,098
-515,102	229,382	-0,126	0,148
-514,087	249,143	0,036	-0,044
-513,072	-165,274	-0,130	-0,004
-512,058	-200,000	0,020	-0,131
-511,043	-200,000	-0,001	-0,084
-510,029	113,443	0,108	-0,095
-509,014	-58,137	-0,039	-0,012
-507,999	646,096	0,037	0,068
-506,985	-91,384	-0,099	0,020
-505,970	379,094	-0,058	-0,085
-504,956	800,000	-0,032	-0,090
-503,941	94,230	0,087	0,071
-502,926	-68,055	0,068	-0,019
-501,912	371,985	-0,045	-0,066
-500,897	116,007	0,046	-0,041
-499,883	-55,816	-0,094	0,030
-498,868	197,420	0,102	-0,112
-497,853	25,884	-0,062	-0,037
-496,839	-67,483	0,192	0,054
-495,824	42,641	0,051	-0,033
-494,810	-123,250	0,105	0,012
-493,795	-123,397	-0,051	-0,006
-492,781	-0,429	0,100	0,051
-491,766	-67,418	0,099	0,028
-490,751	-115,254	0,138	0,019
-489,737	-200,000	-0,011	-0,036
-488,722	123,910	0,045	-0,041
-487,708	-6,359	0,110	0,054
-486,693	800,000	0,002	-0,003
-485,678	195,419	-0,030	0,033
-484,664	47,970	-0,174	-0,117
-483,649	800,000	0,034	0,084
-482,635	279,943	0,083	0,107
-481,620	-151,076	-0,063	-0,003
-480,605	-144,025	0,062	-0,004
-479,591	124,798	0,084	0,077
-478,576	193,521	-0,053	-0,058
-477,562	-200,000	0,003	-0,067
-476,547	248,437	0,058	-0,071
-475,532	-200,000	0,005	0,031
-474,518	-200,000	0,009	0,064
-473,503	-48,474	0,043	-0,015
-472,489	-62,163	0,114	0,034
-471,474	36,008	-0,047	-0,030
-470,459	-102,694	0,023	0,004
-469,445	-154,523	0,058	-0,003
-468,430	-11,960	-0,126	-0,059
-467,416	-175,368	0,110	0,002
-466,401	135,335	-0,019	-0,018
-465,386	266,282	0,053	0,067
-464,372	-24,936	-0,077	-0,033
-463,357	-107,435	0,070	0,011
-462,343	-69,233	-0,146	-0,040
-461,328	593,675	0,013	0,023
-460,313	-200,000	0,028	-0,141
-459,299	-200,000	0,003	0,066
-458,284	38,355	0,094	-0,060
-457,270	-19,177	0,135	0,060
-456,255	94,075	-0,094	-0,077
-455,241	-200,000	0,030	0,136
-454,226	-200,000	0,025	0,080
-453,211	800,000	-0,021	-0,066
-452,197	800,000	-0,021	0,048
-451,182	77,083	0,101	-0,077
-450,168	800,000	-0,040	-0,123
-449,153	244,962	-0,120	-0,146
-448,138	359,199	0,058	-0,084
-447,124	404,523	0,100	-0,152
-446,109	-92,069	-0,097	0,020
-445,095	-99,425	0,182	0,033
-444,080	76,020	-0,012	0,009
-443,065	219,288	0,076	0,088
-442,051	202,917	-0,090	0,100
-441,036	757,550	0,060	-0,117
-440,022	60,179	-0,267	-0,190
-439,007	-200,000	-0,001	0,062
-437,992	-200,000	-0,002	-0,057
-436,978	234,797	0,043	0,051
-435,963	56,394	0,045	0,031
-434,949	-200,000	-0,023	-0,081
-433,934	-117,764	-0,143	0,018
-432,919	46,687	-0,107	-0,072
-431,905	93,232	0,061	-0,049
-430,890	-200,000	-0,015	-0,118
-429,876	229,378	0,070	0,083
-428,861	800,000	0,036	-0,115
-427,846	-60,364	-0,064	-0,019
-426,832	-109,315	0,095	-0,014
-425,817	-117,305	-0,060	-0,008
-424,803	-200,000	0,003	-0,097
-423,788	-173,774	0,122	0,003
-422,773	-13,173	0,073	0,034
-421,759	-200,000	-0,019	0,069
-420,744	-200,000	-0,004	0,040
-419,730	89,759	-0,168	-0,135
-418,715	560,924	0,005	0,009
-417,701	-51,959	0,064	-0,021
-416,686	-58,529	0,056	0,017
-415,671	160,056	-0,040	-0,040
-414,657	-30,171	0,040	-0,016
-413,642	-101,499	-0,050	-0,009
-412,628	-200,000	-0,012	-0,098
-411,613	-76,214	-0,055	-0,014
-410,598	50,596	-0,041	-0,028
-409,584	-200,000	-0,021	-0,095
-408,569	-200,000	-0,001	0,042
-407,555	26,222	-0,083	-0,050
-406,540	800,000	-0,052	0,114
-405,525	-81,358	0,118	0,028
-404,511	685,118	-0,086	-0,162
-403,496	-62,015	0,062	0,018
-402,482	800,000	-0,013	-0,040
-401,467	800,000	0,051	0,152
-400,452	52,996	0,118	0,081
-399,438	-97,497	0,090	0,017
-398,423	-200,000	0,034	-0,127
-397,409	-200,000	-0,004	-0,071
-396,394	-31,263	-0,192	0,077
-395,379	-200,000	-0,023	0,099
-394,365	-64,885	-0,077	0,022
-393,350	86,077	-0,064	0,050
-392,336	-200,000	0,058	0,186
-391,321	88,292	-0,062	0,049
-390,306	24,713	-0,104	0,062
-389,292	-200,000	0,012	0,046
-388,277	711,756	0,048	0,092
-387,263	-63,413	0,167	0,049
-386,248	-154,843	-0,097	0,005
-385,233	91,973	0,087	0,070
-384,219	800,000	-0,047	0,133
-383,204	223,956	-0,011	0,012
-382,190	-200,000	0,020	-0,067
-381,175	36,427	0,130	0,082
-380,160	800,000	-0,005	0,012
-379,146	-39,363	0,056	0,021
-378,131	800,000	0,062	0,153
-377,117	6,952	-0,053	0,028
-376,102	18,849	0,044	0,025
-375,088	24,165	-0,108	-0,064
-374,073	-200,000	-0,025	-0,086
-373,058	-36,802	-0,135	0,052
-372,044	11,190	-0,057	-0,031
-371,029	342,519	0,073	-0,102
-370,015	0,037	-0,046	-0,023
-369,000	-71,249	-0,049	-0,013
-367,985	-200,000	0,024	-0,080
-366,971	-200,000	-0,013	0,047
-365,956	-200,000	0,002	-0,010
-364,942	-124,750	0,122	-0,013
-363,927	177,736	0,034	0,035
-362,912	-73,024	0,062	0,016
-361,898	101,452	-0,036	-0,030
-360,883	-94,759	-0,149	-0,029
-359,869	-200,000	-0,027	-0,089
-358,854	242,793	0,092	0,110
-357,839	264,967	0,071	0,089
-356,825	415,033	0,099	0,152
-355,810	401,079	0,091	-0,138
-354,796	-73,453	-0,058	-0,015
-353,781	800,000	0,017	0,039
-352,766	489,572	0,055	0,091
-351,752	-18,945	-0,048	0,021
-350,737	411,030	0,079	0,120
-349,723	800,000	-0,017	-0,048
-348,708	78,545	-0,031	0,024
-347,693	84,810	-0,084	0,066
-346,679	-40,020	-0,036	-0,013
-345,664	-200,000	0,014	-0,093
-344,650	171,104	0,042	-0,043
-343,635	26,084	0,071	0,042
-342,620	371,410	-0,062	0,091
-341,606	90,716	-0,105	0,085
-340,591	-80,053	0,144	0,034
-339,577	-200,000	-0,020	-0,103
-338,562	76,979	-0,085	-0,065
-337,548	-0,570	-0,005	0,003
-336,533	50,536	0,130	-0,088
-335,518	-200,000	0,021	0,102
-334,504	194,043	0,024	-0,026
-333,489	145,854	0,076	0,073
-332,475	-57,489	-0,065	0,020
-331,460	-200,000	-0,008	-0,145
-330,445	376,923	-0,008	-0,012
-329,431	800,000	0,039	0,105
-328,416	148,036	0,086	0,083
-327,402	-121,084	-0,119	0,014
-326,387	-200,000	0,010	0,144
-325,372	3,802	0,077	0,040
-324,358	-200,000	-0,016	-0,089
-323,343	71,475	0,054	0,040
-322,329	-135,389	0,044	0,004
-321,314	-80,172	0,086	0,020
-320,299	146,882	-0,087	0,084
-319,285	360,301	-0,086	-0,124
-318,270	800,000	-0,052	0,147
-317,256	-200,000	-0,001	-0,103
-316,241	367,061	-0,042	-0,061
-315,226	116,992	0,095	-0,083
-314,212	466,181	0,072	0,116
-313,197	623,537	-0,059	0,107
-312,183	-200,000	0,042	-0,151
-311,168	200,134	-0,052	-0,058
-310,153	-200,000	-0,046	-0,176
-309,139	301,920	-0,038	0,051
-308,124	451,759	0,048	0,076
-307,110	474,474	0,025	-0,041
-306,095	84,713	0,021	-0,016
-305,080	188,316	-0,086	-0,093
-304,066	-200,000	0,026	0,114
-303,051	-151,482	-0,100	-0,005
-302,037	303,518	0,067	-0,089
-301,022	201,080	0,075	-0,083
-300,008	-10,603	0,067	0,032
-298,993	-73,790	0,140	0,036
-297,978	144,251	-0,053	0,050
-296,964	-200,000	0,004	0,044
-295,949	67,148	-0,103	-0,075
-294,935	-67,937	-0,099	-0,027
-293,920	-200,000	0,010	-0,120
-292,905	800,000	-0,029	-0,085
-291,891	-200,000	0,006	0,174
-290,876	58,032	-0,069	0,048
-289,862	61,444	-0,046	0,033
-288,847	408,499	-0,060	-0,091
-287,832	-56,079	-0,155	-0,049
-286,818	-21,573	0,010	-0,004
-285,803	-155,475	0,116	0,005
-284,789	-40,078	0,097	-0,036
-283,774	800,000	-0,032	0,085
-282,759	-200,000	-0,037	0,159
-281,745	182,829	-0,117	-0,124
-280,730	-200,000	-0,056	-0,192
-279,716	10,431	-0,021	0,011
-278,701	-56,278	-0,034	0,011
-277,686	-94,986	0,092	0,018
-276,672	12,760	0,080	0,044
-275,657	292,605	-0,091	0,119
-274,643	20,386	-0,130	0,075
-273,628	-65,165	0,109	-0,031
-272,613	-200,000	-0,015	0,071
-271,599	-79,354	0,054	0,013
-270,584	800,000	-0,067	0,135
-269,570	800,000	-0,017	0,049
-268,555	352,304	0,039	0,055
-267,540	800,000	0,017	-0,045
-266,526	237,639	0,023	0,028
-265,511	-68,390	0,046	0,013
-264,497	43,986	0,080	0,052
-263,482	409,582	-0,092	0,140
-262,467	800,000	0,062	0,139
-261,453	269,773	-0,061	0,077
-260,438	800,000	0,038	-0,118
-259,424	55,284	-0,035	0,024
-258,409	-200,000	-0,028	-0,114
-257,395	-97,520	0,038	-0,007
-256,380	-103,879	0,108	0,018
-255,365	418,911	-0,053	-0,082
-254,351	64,727	0,034	0,025
-253,336	800,000	0,045	0,123
-252,322	597,315	-0,065	0,115
-251,307	291,188	0,066	0,086
-250,292	0,466	-0,205	-0,104
-249,278	627,092	0,031	0,057
-248,263	49,081	0,137	0,092
-247,249	800,000	0,061	-0,180
-246,234	-25,244	-0,027	-0,011
-245,219	-0,865	0,063	-0,032
-244,205	-200,000	-0,022	-0,082
-243,190	318,149	0,028	-0,038
-242,176	167,581	-0,090	-0,092
-241,161	107,089	0,110	-0,093
-240,146	129,778	-0,134	0,122
-239,132	-136,878	-0,108	0,009
-238,117	800,000	0,031	-0,077
-237,103	52,756	0,084	0,057
-236,088	241,970	-0,079	-0,094
-235,073	-200,000	-0,002	-0,052
-234,059	236,609	0,032	-0,038
-233,044	-26,890	0,120	-0,050
-232,030	219,844	0,056	0,064
-231,015	155,787	0,012	0,011
-230,000	193,262	-0,077	-0,083
-228,986	95,402	-0,027	0,022
-227,971	0,717	-0,072	0,036
-226,957	210,522	-0,090	0,101
-225,942	-200,000	0,007	0,217
-224,927	-38,911	-0,117	0,044
-223,913	-200,000	-0,037	0,132
-222,898	-37,377	0,082	0,031
-221,884	800,000	0,040	-0,085
-220,869	496,607	0,023	0,037
-219,855	-36,994	0,059	-0,022
-218,840	-200,000	-0,012	-0,049
-217,825	-79,537	-0,044	0,010
-216,811	15,614	0,158	0,088
-215,796	3,356	-0,085	0,044
-214,782	-66,970	-0,102	0,029
-213,767	-45,000	0,003	0,001
-212,752	-106,608	-0,017	-0,003
-211,738	-200,000	-0,009	0,121
-210,723	-54,742	-0,183	-0,059
-209,709	27,589	0,058	0,035
-208,694	800,000	-0,034	-0,096
-207,679	-5,535	0,088	0,043
-206,665	-155,301	0,089	-0,004
-205,650	800,000	-0,036	-0,086
-204,636	77,552	0,070	0,053
-203,621	-200,000	0,020	-0,074
-202,606	1,797	-0,041	-0,021
-201,592	-200,000	-0,010	-0,112
-200,577	800,000	-0,048	-0,115
-199,563	-79,335	0,144	0,034
-198,548	47,579	0,053	0,035
-197,533	172,816	0,090	0,093
-196,519	-100,503	0,219	-0,038
-195,504	740,147	0,033	-0,064
-194,490	797,562	-0,059	-0,117
-193,475	-200,000	-0,020	-0,152
-192,460	302,845	0,021	0,028
-191,446	59,882	0,042	-0,029
-190,431	506,110	-0,019	0,032
-189,417	421,457	0,056	-0,086
-188,402	8,638	0,119	-0,064
-187,387	-144,553	-0,048	0,003
-186,373	234,153	0,063	-0,074
-185,358	25,224	0,050	0,030
-184,344	-98,666	-0,075	-0,013
-183,329	800,000	0,045	0,113
-182,315	108,868	0,059	0,050
-181,300	139,147	0,017	-0,016
-180,285	-200,000	0,012	-0,128
-179,271	-200,000	-0,012	-0,142
-178,256	76,598	0,075	-0,056
-177,242	-200,000	-0,004	0,116
-176,227	624,333	-0,101	0,182
-175,212	493,862	-0,014	0,022
-174,198	52,173	-0,193	0,131
-173,183	-200,000	-0,001	-0,068
-172,169	-200,000	0,010	0,067
-171,154	68,295	-0,074	0,054
-170,139	5,196	0,109	0,057
-169,125	-200,000	-0,002	0,063
-168,110	-17,249	0,099	-0,044
-167,096	-200,000	-0,027	0,168
-166,081	-179,334	0,032	0,000
-165,066	-200,000	-0,001	-0,011
-164,052	179,569	0,015	-0,016
-163,037	-65,635	-0,060	-0,017
-162,023	63,107	-0,052	0,037
-161,008	348,761	-0,107	0,150
-159,993	-200,000	-0,004	-0,126
-158,979	-200,000	-0,025	-0,083
-157,964	249,107	0,052	-0,062
-156,950	-17,646	0,068	-0,030
-155,935	-53,202	0,072	0,023
-154,920	18,812	0,205	0,116
-153,906	27,264	0,082	-0,049
-152,891	350,626	-0,032	0,046
-151,877	479,301	0,087	-0,141
-150,862	381,568	-0,048	-0,070
-149,847	24,233	-0,088	0,052
-148,833	235,289	0,083	0,098
-147,818	-66,157	0,015	-0,004
-146,804	-86,105	0,147	0,032
-145,789	318,384	0,025	0,033
-144,775	308,359	0,013	0,017
-143,760	141,899	-0,061	-0,057
-142,745	800,000	0,088	-0,175
-141,731	31,233	-0,043	0,026
-140,716	-139,832	0,050	-0,004
-139,702	-10,087	0,076	-0,036
-138,687	414,481	-0,060	0,091
-137,672	-23,011	0,078	-0,033
-136,658	-123,665	-0,042	0,005
-135,643	-91,014	-0,074	-0,015
-134,629	800,000	-0,045	-0,100
-133,614	472,103	0,046	0,074
-132,599	800,000	0,021	0,051
-131,585	-114,400	-0,124	-0,017
-130,570	-200,000	0,006	-0,078
-129,556	239,169	-0,084	0,099
-128,541	143,518	-0,069	0,065
-127,526	464,107	-0,027	-0,043
-126,512	148,894	-0,057	-0,054
-125,497	492,815	-0,007	0,011
-124,483	195,903	-0,025	0,027
-123,468	300,149	-0,035	0,045
-122,453	-200,000	0,000	0,010
-121,439	476,978	-0,073	-0,117
-120,424	-200,000	0,007	-0,029
-119,410	-86,316	0,057	-0,012
-118,395	9,720	0,094	-0,051
-117,380	-200,000	0,044	0,152
-116,366	-56,133	-0,052	0,016
-115,351	-52,621	0,066	0,022
-114,337	435,105	-0,063	-0,098
-113,322	419,088	-0,056	-0,085
-112,307	800,000	0,024	-0,055
-111,293	-42,777	-0,105	0,038
-110,278	800,000	0,032	-0,079
-109,264	684,087	-0,117	0,219
-108,249	-200,000	0,032	0,110
-107,234	698,216	0,023	-0,043
-106,220	290,130	-0,075	-0,097
-105,205	211,127	0,063	-0,071
-104,191	-106,965	0,124	-0,019
-103,176	-116,483	0,080	-0,010
-102,162	-200,000	0,008	0,078
-101,147	-200,000	-0,003	0,034
-100,132	39,621	-0,149	0,094
-99,118	-82,839	-0,130	0,030
-98,103	120,461	0,058	-0,051
-97,089	752,042	0,022	0,042
-96,074	-146,366	-0,047	-0,003
-95,059	-51,482	0,080	0,027
-94,045	17,850	-0,199	-0,112
-93,030	-150,601	-0,092	0,005
-92,016	-200,000	0,012	-0,086
-91,001	-172,081	-0,103	-0,002
-89,986	-141,349	0,042	0,003
-88,972	-200,000	0,018	0,069
-87,957	-113,836	-0,062	0,008
-86,943	89,327	-0,112	0,088
-85,928	408,241	0,090	0,135
-84,913	242,637	0,086	0,102
-83,899	-53,715	-0,137	0,044
-82,884	231,826	0,073	-0,085
-81,870	-200,000	-0,005	-0,081
-80,855	-91,183	0,039	0,008
-79,840	58,005	-0,067	0,046
-78,826	666,295	0,062	0,115
-77,811	-200,000	0,010	0,070
-76,797	-138,662	-0,050	0,004
-75,782	426,380	-0,062	-0,095
-74,767	-200,000	0,034	0,112
-73,753	32,146	0,125	0,076
-72,738	-126,072	0,093	0,010
-71,724	76,286	-0,102	-0,077
-70,709	-200,000	-0,032	-0,111
-69,694	-200,000	0,008	-0,066
-68,680	114,280	0,084	-0,073
-67,665	-93,425	0,095	-0,019
-66,651	68,625	-0,092	-0,067
-65,636	-76,183	-0,124	-0,031
-64,622	-152,768	-0,051	-0,003
-63,607	-200,000	-0,002	0,029
-62,592	-8,267	-0,011	-0,005
-61,578	208,028	0,022	0,025
-60,563	800,000	0,025	0,066
-59,549	-13,536	-0,067	0,031
-58,534	6,714	-1,754	-0,922
-57,519	400,442	-1,356	-2,021
-56,505	-200,000	-0,578	-4,575
-55,490	239,620	1,008	1,191
-54,476	800,000	4,932	11,201
-53,461	-200,000	19,102	318,030
-52,446	-200,000	740,111	2335,639
-51,432	575,586	1655,535	2875,106
-50,417	78,746	1671,835	1265,452
-49,403	21,597	1544,641	887,993
-48,388	15,454	1466,949	813,438
-47,373	17,904	1457,217	819,858
-46,359	16,740	1447,392	808,713
-45,344	13,692	1442,522	791,343
-44,330	13,585	1440,506	789,696
-43,315	13,601	1438,949	788,884
-42,300	13,645	1437,112	788,058
-41,286	13,663	1436,013	787,509
-40,271	13,607	1434,656	786,466
-39,257	13,640	1433,229	785,811
-38,242	13,668	1432,071	785,280
-37,227	13,702	1430,782	784,701
-36,213	13,647	1429,697	783,813
-35,198	13,627	1428,287	782,916
-34,184	13,706	1427,470	782,812
-33,169	13,619	1426,250	781,698
-32,154	13,664	1425,080	781,237
-31,140	13,648	1423,817	780,441
-30,125	13,675	1422,715	779,931
-29,111	13,689	1421,477	779,291
-28,096	13,686	1420,359	778,631
-27,082	13,627	1419,218	777,695
-26,067	13,567	1418,236	776,847
-25,052	13,632	1417,127	776,514
-24,038	13,619	1415,941	775,771
-23,023	13,604	1415,062	775,189
-22,009	13,569	1414,128	774,481
-20,994	13,575	1413,168	773,950
-19,979	13,592	1412,369	773,566
-18,965	13,568	1411,332	772,854
-17,950	13,535	1410,348	772,127
-16,936	13,542	1409,596	771,718
-15,921	13,500	1408,511	770,896
-14,906	13,522	1407,456	770,393
-13,892	13,539	1406,420	769,876
-12,877	13,521	1405,725	769,380
-11,863	13,504	1404,887	768,812
-10,848	13,476	1404,004	768,169
-9,833	13,463	1403,168	767,618
-8,819	13,436	1402,190	766,928
-7,804	13,457	1401,204	766,453
-6,790	13,419	1400,301	765,752
-5,775	13,450	1399,164	765,247
-4,760	13,449	1398,236	764,701
-3,746	13,368	1397,557	763,926
-2,731	13,413	1396,590	763,575
-1,717	13,367	1395,752	762,873
-0,702	13,388	1393,816	761,884
0,313	17,196	1311,030	734,299
1,327	33,651	704,379	432,589
2,342	51,812	123,541	83,087
3,356	1,548	16,571	8,413
4,371	3,775	3,129	1,612
5,386	-18,636	0,620	0,273
6,400	600,513	0,111	0,196
7,415	-14,385	-0,219	-0,099
8,429	135,893	-0,368	-0,339
9,444	-25,896	-0,296	-0,123
10,459	11,763	-0,323	-0,175
11,473	69,927	-0,341	-0,249
12,488	-67,172	-0,328	-0,091
13,502	-146,377	-0,306	-0,019
14,517	221,461	-0,219	-0,249
15,531	-126,232	-0,237	-0,025
16,546	163,998	-0,286	-0,285
17,561	151,615	-0,325	-0,313
18,575	-100,959	-0,267	-0,046
19,590	165,310	-0,244	-0,244
20,604	37,248	-0,204	-0,128
21,619	95,042	-0,482	-0,388
22,634	108,104	-0,432	-0,364
23,648	47,099	-0,449	-0,295
24,663	190,134	-0,400	-0,425
25,677	264,358	-0,248	-0,305
26,692	65,138	-0,343	-0,245
27,707	104,045	-0,293	-0,243
28,721	22,891	-0,400	-0,231
29,736	171,153	-0,331	-0,336
30,750	262,788	-0,291	-0,357
31,765	307,877	-0,309	-0,407
32,780	55,717	-0,424	-0,290
33,794	165,297	-0,249	-0,249
34,809	170,738	-0,361	-0,366
35,823	52,345	-0,392	-0,263
36,838	53,227	-0,482	-0,325
37,853	22,737	-0,459	-0,265
38,867	437,510	-0,219	-0,338
39,882	-15,686	-0,351	-0,157
40,896	-17,227	-0,327	-0,145
41,911	8,042	-0,300	-0,158
42,926	22,996	-0,209	-0,121
43,940	-22,977	-0,448	-0,190
44,955	36,203	-0,396	-0,246
45,969	83,391	-0,357	-0,274
46,984	180,142	-0,267	-0,277
47,999	150,740	-0,299	-0,287
49,013	31,670	-0,359	-0,217
50,028	22,770	-0,409	-0,235
51,042	-62,326	-0,323	-0,094
52,057	150,483	-0,288	-0,276
53,071	15,540	-0,457	-0,253
54,086	-24,591	-0,366	-0,153
55,101	30,285	-0,294	-0,177
56,115	43,532	-0,354	-0,227
57,130	-25,658	-0,335	-0,139
58,144	118,101	-0,321	-0,278
59,159	70,511	-0,517	-0,376
60,174	27,826	-0,434	-0,257
61,188	78,926	-0,368	-0,277
62,203	-10,769	-0,336	-0,156
63,217	-18,427	-0,323	-0,142
64,232	85,288	-0,429	-0,331
65,247	172,472	-0,290	-0,294
66,261	204,686	-0,278	-0,304
67,276	107,682	-0,360	-0,302
68,290	139,843	-0,311	-0,289
69,305	-141,443	-0,247	-0,017
70,320	47,899	-0,241	-0,158
71,334	-119,578	-0,346	-0,042
72,349	54,378	-0,259	-0,175
73,363	173,535	-0,259	-0,263
74,378	12,058	-0,341	-0,184
75,393	-176,813	-0,357	0,006
76,407	12,721	-0,355	-0,192
77,422	-73,696	-0,289	-0,073
78,436	-76,609	-0,421	-0,103
79,451	-42,438	-0,386	-0,138
80,466	-2,157	-0,304	-0,149
81,480	15,731	-0,427	-0,235
82,495	282,512	-0,259	-0,328
83,509	-7,707	-0,350	-0,166
84,524	23,966	-0,309	-0,179
85,539	-21,849	-0,351	-0,149
86,553	91,011	-0,241	-0,190
87,568	73,766	-0,358	-0,263
88,582	139,528	-0,280	-0,259
89,597	148,222	-0,275	-0,261
90,611	131,433	-0,277	-0,250
91,626	388,858	-0,169	-0,246
92,641	150,376	-0,277	-0,265
93,655	132,759	-0,266	-0,241
94,670	17,310	-0,379	-0,211
95,684	-18,175	-0,354	-0,155
96,699	-107,366	-0,158	-0,024
97,714	150,264	-0,175	-0,167
98,728	123,676	-0,298	-0,262
99,743	234,770	-0,202	-0,234
100,757	-40,558	-0,309	-0,112
101,772	-44,593	-0,414	-0,144
102,787	13,927	-0,237	-0,129
103,801	186,223	-0,280	-0,292
104,816	210,528	-0,253	-0,279
105,830	529,573	-0,211	-0,350
106,845	99,507	-0,195	-0,158
107,860	73,565	-0,255	-0,187
108,874	10,891	-0,317	-0,169
109,889	76,372	-0,408	-0,303
110,903	180,420	-0,262	-0,269
111,918	279,768	-0,223	-0,280
112,933	-17,515	-0,265	-0,117
113,947	-86,485	-0,259	-0,055
114,962	34,021	-0,359	-0,219
115,976	115,055	-0,162	-0,138
116,991	-29,814	-0,330	-0,131
118,006	91,505	-0,248	-0,195
119,020	145,696	-0,242	-0,228
120,035	32,440	-0,297	-0,179
121,049	-27,737	-0,310	-0,125
122,064	112,914	-0,168	-0,143
123,079	-53,684	-0,299	-0,095
124,093	118,787	-0,275	-0,238
125,108	192,898	-0,247	-0,261
126,122	-17,617	-0,419	-0,184
127,137	-37,277	-0,234	-0,087
128,151	-34,175	-0,267	-0,102
129,166	-77,499	-0,412	0,099
130,181	-21,396	-0,180	-0,077
131,195	107,413	-0,314	-0,262
132,210	96,343	-0,276	-0,221
133,224	-120,607	-0,384	-0,045
134,239	37,522	-0,265	-0,164
135,254	66,009	-0,237	-0,168
136,268	-17,281	-0,133	-0,058
137,283	91,433	-0,098	-0,077
138,297	213,589	-0,215	-0,238
139,312	-27,251	-0,222	-0,090
140,327	63,680	-0,334	-0,234
141,341	111,037	-0,214	-0,180
142,356	37,515	-0,217	-0,134
143,370	44,873	-0,217	-0,140
144,385	-2,094	-0,292	-0,143
145,400	0,719	-0,234	-0,117
146,414	351,082	-0,191	-0,264
147,429	15,679	-0,275	-0,151
148,443	-34,976	-0,303	-0,115
149,458	2,263	-0,292	-0,147
150,473	-19,880	-0,200	-0,086
151,487	177,191	-0,178	-0,182
152,502	252,746	-0,207	-0,247
153,516	-20,651	-0,341	-0,146
154,531	24,153	-0,301	-0,173
155,546	284,989	-0,207	-0,261
156,560	-16,520	-0,277	-0,122
157,575	-65,064	-0,309	-0,087
158,589	-149,857	-0,113	-0,006
159,604	79,121	-0,246	-0,184
160,619	389,916	-0,220	-0,319
161,633	59,954	-0,354	-0,244
162,648	-62,646	-0,159	-0,046
163,662	28,492	-0,196	-0,115
164,677	-7,201	-0,255	-0,120
165,692	-24,815	-0,228	-0,094
166,706	-39,326	-0,417	-0,152
167,721	94,218	-0,306	-0,242
168,735	39,942	-0,168	-0,105
169,750	271,084	-0,244	-0,301
170,764	-159,931	-0,226	-0,008
171,779	-114,376	-0,266	-0,035
172,794	-142,170	-0,180	0,012
173,808	-66,169	-0,309	-0,085
174,823	66,736	-0,310	-0,220
175,837	274,882	-0,248	-0,307
176,852	-200,000	-0,035	-0,207
177,867	201,034	-0,239	-0,257
178,881	-13,317	-0,210	-0,095
179,896	-97,867	-0,228	-0,041
180,910	-51,799	-0,229	-0,074
181,925	16,225	-0,343	-0,188
182,940	-2,532	-0,286	-0,139
183,954	-44,150	-0,390	-0,136
184,969	202,115	-0,194	-0,208
185,983	-104,225	-0,184	-0,030
186,998	31,753	-0,176	-0,105
188,013	-65,640	-0,207	-0,057
189,027	335,480	-0,113	-0,153
190,042	14,896	-0,369	-0,201
191,056	222,321	-0,214	-0,240
192,071	-123,120	-0,178	-0,020
193,086	-104,358	-0,210	-0,034
194,100	178,367	-0,140	-0,142
195,115	13,022	-0,243	-0,131
196,129	629,726	-0,185	-0,327
197,144	370,083	-0,094	-0,133
198,159	172,645	-0,209	-0,209
199,173	251,451	-0,218	-0,258
200,188	47,447	-0,196	-0,127
201,202	49,795	-0,153	-0,100
202,217	-58,280	-0,115	-0,035
203,232	-47,549	-0,391	-0,131
204,246	192,995	-0,264	-0,278
205,261	25,386	-0,253	-0,146
206,275	155,558	-0,130	-0,125
207,290	-38,952	-0,238	-0,087
208,304	-200,000	-0,054	-0,233
209,319	800,000	-0,084	-0,205
210,334	-200,000	-0,221	0,000
211,348	85,325	-0,126	-0,096
212,363	268,584	-0,214	-0,262
213,377	21,383	-0,345	-0,194
214,392	163,861	-0,133	-0,131
215,407	-31,834	-0,317	-0,123
216,421	704,440	-0,089	-0,164
217,436	144,815	-0,182	-0,169
218,450	-91,004	-0,161	-0,032
219,465	158,777	-0,232	-0,224
220,480	36,968	-0,237	-0,145
221,494	-29,530	-0,050	0,020
222,509	145,926	-0,140	-0,131
223,523	-115,001	-0,292	-0,038
224,538	138,177	-0,114	-0,104
225,553	46,076	-0,236	-0,151
226,567	271,315	-0,136	-0,166
227,582	148,667	-0,127	-0,119
228,596	-71,716	-0,207	-0,053
229,611	-9,068	-0,162	-0,075
230,626	336,197	-0,116	-0,156
231,640	5,518	-0,281	-0,144
232,655	51,287	-0,124	-0,082
233,669	200,179	-0,206	-0,220
234,684	-38,162	-0,164	-0,060
235,699	-31,191	-0,237	-0,092
236,713	565,005	-0,063	-0,106
237,728	30,738	-0,195	-0,115
238,742	188,006	-0,109	-0,113
239,757	19,091	-0,133	-0,074
240,772	288,170	-0,193	-0,242
241,786	245,027	-0,156	-0,182
242,801	29,322	-0,142	-0,084
243,815	201,726	-0,174	-0,186
244,830	-200,000	-0,051	-0,193
245,844	102,819	-0,188	-0,152
246,859	-144,499	-0,189	0,012
247,874	-34,465	-0,257	-0,097
248,888	-30,853	-0,207	-0,081
249,903	40,600	-0,184	-0,114
250,917	-25,116	-0,138	-0,056
251,932	-104,754	-0,159	0,025
252,947	70,220	-0,219	-0,156
253,961	319,750	-0,132	-0,174
254,976	193,430	-0,206	-0,216
255,990	800,000	-0,073	-0,197
257,005	11,012	-0,139	-0,073
258,020	12,221	-0,201	-0,107
259,034	-86,188	-0,155	-0,033
260,049	-12,311	-0,294	-0,133
261,063	269,397	-0,197	-0,240
262,078	572,223	-0,129	-0,218
263,093	-70,247	-0,206	-0,054
264,107	-125,208	-0,177	0,019
265,122	2,544	-0,108	-0,054
266,136	800,000	-0,120	-0,262
267,151	13,799	-0,250	-0,134
268,166	17,493	-0,058	-0,032
269,180	54,461	-0,178	-0,119
270,195	-154,435	-0,205	-0,009
271,209	102,463	-0,185	-0,149
272,224	142,124	-0,090	-0,082
273,239	-151,670	-0,102	-0,005
274,253	-28,847	-0,224	-0,089
275,268	112,205	-0,181	-0,152
276,282	63,301	-0,148	-0,102
277,297	721,977	-0,110	-0,203
278,312	108,052	-0,156	-0,128
279,326	96,331	-0,132	-0,104
280,341	800,000	-0,055	-0,118
281,355	-33,513	-0,154	-0,059
282,370	76,073	-0,124	-0,090
283,384	-52,826	-0,204	-0,064
284,399	106,066	-0,274	-0,224
285,414	-200,000	0,019	-0,194
286,428	139,888	-0,202	-0,183
287,443	127,767	-0,053	-0,046
288,457	101,268	-0,157	-0,126
289,472	412,445	-0,071	-0,105
290,487	197,832	-0,177	-0,187
291,501	6,269	-0,216	-0,110
292,516	280,365	-0,037	-0,046
293,530	9,051	-0,189	-0,098
294,545	-0,111	-0,071	0,035
295,560	-126,243	0,032	-0,003
296,574	114,453	-0,237	-0,199
297,589	22,927	-0,177	-0,100
298,603	-1,962	-0,129	0,062
299,618	49,559	-0,173	-0,112
300,633	339,184	-0,083	-0,111
301,647	-182,981	-0,264	-0,003
302,662	-0,517	-0,131	-0,064
303,676	77,452	-0,126	-0,093
304,691	135,019	-0,113	-0,101
305,706	230,664	-0,141	-0,159
306,720	10,785	-0,346	-0,182
307,735	143,511	-0,139	-0,127
308,749	587,548	-0,031	-0,052
309,764	28,106	-0,151	-0,088
310,779	-46,148	-0,139	-0,047
311,793	-133,452	-0,169	0,014
312,808	59,576	-0,243	-0,165
313,822	228,996	-0,050	-0,056
314,837	-85,194	-0,137	-0,029
315,852	-200,000	0,021	-0,145
316,866	152,009	-0,124	-0,116
317,881	-77,353	-0,235	-0,056
318,895	-123,753	-0,200	-0,022
319,910	523,133	-0,121	-0,196
320,925	743,027	-0,062	-0,116
321,939	-22,504	-0,141	-0,059
322,954	420,340	-0,072	-0,107
323,968	-200,000	-0,039	-0,120
324,983	-25,155	-0,140	0,057
325,997	205,955	-0,134	-0,143
327,012	189,820	-0,124	-0,129
328,027	49,384	-0,150	-0,097
329,041	106,687	-0,183	-0,149
330,056	67,684	-0,059	0,042
331,070	53,091	-0,117	-0,077
332,085	382,284	-0,083	-0,118
333,100	454,713	-0,091	-0,138
334,114	66,912	-0,173	-0,121
335,129	438,291	-0,092	-0,138
336,143	-200,000	-0,039	-0,147
337,158	-200,000	-0,025	-0,162
338,173	-92,539	0,025	0,005
339,187	-43,071	-0,191	-0,066
340,202	-83,915	-0,216	-0,047
341,216	97,589	-0,240	-0,189
342,231	744,931	-0,123	-0,229
343,246	-55,335	-0,112	-0,034
344,260	800,000	-0,070	-0,150
345,275	70,039	-0,094	-0,066
346,289	-68,247	-0,032	-0,009
347,304	299,165	-0,096	-0,122
348,319	120,381	-0,093	-0,079
349,333	415,149	-0,164	-0,241
350,348	800,000	-0,100	-0,222
351,362	16,052	-0,158	-0,085
352,377	-16,768	-0,146	-0,063
353,392	-85,727	-0,157	0,033
354,406	-200,000	-0,018	-0,110
355,421	207,835	1314,707	1410,826
356,435	159,894	1475,427	1411,316
