DTS Sentinel unit serial number:	SN410029Multiplexer serial number:	ORYXHardware model number:	OX2-SRSoftware version number:	ORYX F/W v4,00 Oryx Data Collector v3.7.2.0data status	okinstallation	B3 Nyhavnadifferential loss correction	single-endedforward channel	channel 1reverse channel	N/Adate	2023/12/02time	09:07:30forward acquisition time	300,00reverse acquisition time	0,00gamma	499,1914k internal	0,3195k external	0,3195temperature offset calibration	1,0000default loss term (dB/km)	0,3820temperature slope calibration	1,0000multiplexer offset coefficient	1,0000multiplexer slope coefficient	1,0000fibre end	0,00T internal ref (°C)	15,21T ext. ref 1 (°C)	-0,12T ext. ref 2 (°C)	-0,12length (m)	temperature (°C)	Stokes	anti-Stokes-744,400	62,286	-0,299	-0,217
-743,385	-200,000	0,008	0,328
-742,371	52,061	-0,157	-0,109
-741,356	800,000	0,122	0,258
-740,342	-9,891	-0,235	-0,113
-739,327	-200,000	-0,033	0,298
-738,312	-10,016	-0,287	-0,138
-737,298	-200,000	-0,037	0,343
-736,283	665,713	-0,108	-0,203
-735,269	-200,000	0,073	0,299
-734,254	256,859	-0,261	-0,327
-733,239	800,000	-0,054	0,156
-732,225	599,810	-0,127	-0,231
-731,210	-200,000	-0,021	0,087
-730,196	288,945	-0,076	-0,101
-729,181	111,868	-0,015	0,014
-728,167	-200,000	-0,023	-0,100
-727,152	-200,000	-0,031	-0,107
-726,137	281,958	-0,016	0,020
-725,123	-200,000	0,013	0,087
-724,108	84,535	-0,137	-0,109
-723,094	-43,938	-0,104	-0,038
-722,079	-116,308	-0,064	0,008
-721,064	800,000	-0,010	0,028
-720,050	-200,000	0,015	0,063
-719,035	-200,000	0,013	-0,093
-718,021	183,700	0,048	-0,052
-717,006	-78,217	0,049	0,012
-715,991	202,612	-0,166	-0,186
-714,977	-150,473	-0,026	0,001
-713,962	-65,398	-0,051	0,015
-712,948	-132,657	0,129	0,012
-711,933	235,362	0,085	-0,102
-710,918	-53,579	0,111	-0,037
-709,904	-38,634	-0,093	-0,035
-708,889	-30,776	-0,159	-0,065
-707,875	-146,254	0,087	-0,005
-706,860	492,791	-0,084	0,140
-705,845	800,000	-0,036	-0,112
-704,831	-200,000	0,018	-0,123
-703,816	-200,000	-0,047	0,199
-702,802	365,230	-0,054	-0,079
-701,787	238,914	-0,094	-0,114
-700,772	-200,000	0,038	-0,142
-699,758	-200,000	-0,000	-0,050
-698,743	214,666	-0,085	0,098
-697,729	-1,648	0,011	0,006
-696,714	-200,000	0,001	0,077
-695,699	-26,972	-0,135	0,057
-694,685	-11,744	0,090	-0,043
-693,670	-7,947	0,052	0,025
-692,656	22,929	-0,152	-0,090
-691,641	-110,492	0,074	-0,011
-690,627	238,968	0,044	0,054
-689,612	-200,000	-0,007	0,138
-688,597	-200,000	0,004	-0,017
-687,583	475,153	0,046	-0,076
-686,568	-200,000	-0,010	-0,071
-685,554	620,197	-0,081	-0,149
-684,539	-116,751	0,134	-0,018
-683,524	213,277	0,033	-0,038
-682,510	195,191	0,077	0,086
-681,495	113,484	0,015	0,013
-680,481	-200,000	0,027	0,089
-679,466	88,637	-0,125	0,101
-678,451	-200,000	-0,008	-0,086
-677,437	-110,214	0,046	0,007
-676,422	251,603	0,051	-0,063
-675,408	-200,000	-0,015	0,061
-674,393	-200,000	-0,037	0,137
-673,378	800,000	0,017	0,043
-672,364	-153,106	-0,099	-0,005
-671,349	800,000	0,023	-0,055
-670,335	-200,000	0,000	-0,101
-669,320	447,663	-0,079	0,127
-668,305	-200,000	0,004	0,135
-667,291	-53,328	-0,104	0,034
-666,276	-200,000	0,010	-0,071
-665,262	-200,000	0,005	-0,118
-664,247	800,000	-0,041	-0,102
-663,232	125,736	-0,048	-0,044
-662,218	163,014	-0,009	0,009
-661,203	-200,000	0,005	0,038
-660,189	82,952	-0,065	0,051
-659,174	-200,000	-0,014	-0,096
-658,159	-182,389	-0,090	-0,001
-657,145	120,071	-0,027	0,024
-656,130	119,653	0,058	-0,052
-655,116	-98,476	-0,152	0,028
-654,101	336,580	-0,051	0,073
-653,086	-104,519	-0,100	-0,017
-652,072	108,055	-0,015	0,013
-651,057	529,886	-0,064	-0,109
-650,043	-85,600	0,050	0,011
-649,028	-52,861	-0,108	-0,036
-648,014	800,000	-0,021	0,060
-646,999	58,285	0,046	0,032
-645,984	569,883	0,069	0,123
-644,970	-200,000	0,002	-0,181
-643,955	14,599	-0,141	-0,080
-642,941	-200,000	-0,006	-0,042
-641,926	65,935	0,113	-0,083
-640,911	800,000	-0,041	-0,086
-639,897	748,908	0,042	-0,083
-638,882	-200,000	0,027	0,103
-637,868	-17,985	-0,103	-0,047
-636,853	58,017	-0,103	-0,073
-635,838	43,217	-0,014	-0,009
-634,824	45,693	0,023	-0,015
-633,809	34,563	0,084	-0,053
-632,795	548,510	-0,050	0,087
-631,780	800,000	0,031	-0,068
-630,765	119,268	-0,040	0,036
-629,751	149,357	0,122	-0,120
-628,736	-200,000	0,003	0,062
-627,722	800,000	0,041	0,083
-626,707	-200,000	-0,003	-0,038
-625,692	-200,000	-0,011	-0,067
-624,678	86,907	-0,043	-0,034
-623,663	-200,000	0,035	-0,123
-622,649	-126,270	-0,143	-0,015
-621,634	800,000	-0,046	0,117
-620,619	-90,562	0,112	-0,023
-619,605	120,497	-0,120	0,108
-618,590	65,826	-0,060	0,044
-617,576	-80,146	0,085	0,020
-616,561	-200,000	-0,010	0,059
-615,546	189,841	-0,162	-0,176
-614,532	-200,000	-0,004	-0,079
-613,517	-200,000	0,016	-0,138
-612,503	311,995	0,040	-0,055
-611,488	342,068	-0,062	-0,089
-610,474	-200,000	-0,019	0,119
-609,459	-200,000	-0,017	0,085
-608,444	183,620	-0,053	0,056
-607,430	-8,977	-0,063	0,031
-606,415	464,375	0,065	-0,105
-605,401	50,399	0,012	-0,008
-604,386	191,341	0,091	-0,099
-603,371	-65,146	0,014	-0,004
-602,357	-200,000	-0,028	-0,112
-601,342	65,389	-0,013	0,010
-600,328	43,750	0,034	-0,022
-599,313	-31,427	0,121	-0,049
-598,298	11,512	-0,118	0,066
-597,284	-200,000	-0,007	0,027
-596,269	-165,426	0,172	-0,005
-595,255	244,861	0,010	0,012
-594,240	33,787	-0,087	-0,054
-593,225	-111,457	-0,045	-0,007
-592,211	80,625	-0,079	-0,062
-591,196	86,168	-0,060	-0,048
-590,182	-36,250	0,133	0,052
-589,167	331,825	-0,052	0,073
-588,152	-148,223	-0,056	-0,003
-587,138	-82,956	-0,108	0,025
-586,123	691,777	-0,048	-0,091
-585,109	-200,000	0,004	0,066
-584,094	380,219	-0,057	-0,085
-583,079	-200,000	0,017	-0,097
-582,065	-107,066	0,149	0,024
-581,050	-77,757	-0,118	0,029
-580,036	-125,838	-0,029	-0,003
-579,021	-200,000	0,005	0,066
-578,006	-200,000	0,013	0,108
-576,992	-108,992	-0,173	-0,026
-575,977	-200,000	-0,028	0,198
-574,963	-174,566	0,133	-0,003
-573,948	214,031	0,074	0,085
-572,934	16,277	-0,098	-0,056
-571,919	108,785	-0,033	-0,029
-570,904	-158,821	0,135	-0,005
-569,890	84,567	-0,068	0,054
-568,875	-200,000	-0,013	0,056
-567,861	-0,932	0,088	0,045
-566,846	-200,000	0,032	0,106
-565,831	37,487	-0,074	-0,047
-564,817	41,351	0,079	-0,052
-563,802	-98,935	-0,039	0,007
-562,788	-200,000	-0,004	-0,030
-561,773	656,775	-0,033	0,062
-560,758	-200,000	0,005	0,118
-559,744	522,538	-0,018	-0,031
-558,729	93,164	0,102	-0,083
-557,715	-115,869	0,156	-0,021
-556,700	-18,092	-0,040	0,018
-555,685	800,000	-0,068	-0,143
-554,671	-152,937	0,090	-0,005
-553,656	-116,579	0,086	-0,011
-552,642	-200,000	-0,034	-0,147
-551,627	143,711	0,064	0,062
-550,612	-100,298	0,047	0,008
-549,598	800,000	0,011	-0,028
-548,583	82,977	-0,074	0,058
-547,569	320,629	0,066	0,091
-546,554	-1,459	-0,035	-0,018
-545,539	10,224	0,147	0,080
-544,525	-200,000	-0,040	0,187
-543,510	71,047	0,048	-0,036
-542,496	64,174	0,093	-0,067
-541,481	-52,059	-0,038	0,013
-540,466	-103,329	0,118	0,020
-539,452	-89,662	0,048	-0,010
-538,437	-200,000	0,000	0,055
-537,423	-78,558	0,150	0,037
-536,408	-18,679	-0,121	0,054
-535,393	-190,167	-0,174	0,001
-534,379	-170,600	-0,115	0,003
-533,364	535,852	-0,083	-0,143
-532,350	800,000	-0,013	0,032
-531,335	31,083	0,129	-0,080
-530,321	-57,202	0,020	0,006
-529,306	748,996	0,026	0,051
-528,291	-14,611	0,123	-0,057
-527,277	800,000	-0,058	-0,130
-526,262	15,926	-0,059	0,034
-525,248	-82,250	-0,128	0,030
-524,233	-58,317	0,050	0,016
-523,218	616,720	0,063	0,114
-522,204	-188,968	0,062	-0,001
-521,189	-200,000	0,047	0,154
-520,175	-200,000	-0,107	0,000
-519,160	-64,165	-0,119	-0,035
-518,145	-200,000	0,007	-0,024
-517,131	13,158	0,073	-0,041
-516,116	-200,000	-0,019	-0,081
-515,102	-85,633	-0,147	-0,033
-514,087	78,554	-0,117	-0,090
-513,072	535,827	-0,079	-0,137
-512,058	800,000	0,064	0,186
-511,043	800,000	-0,008	0,022
-510,029	-41,334	0,107	0,039
-509,014	800,000	0,036	0,098
-507,999	800,000	0,037	0,097
-506,985	27,660	-0,020	-0,012
-505,970	-181,541	0,141	-0,002
-504,956	-183,499	-0,075	-0,001
-503,941	-129,618	-0,056	-0,005
-502,926	-41,914	-0,023	0,009
-501,912	-46,961	0,050	-0,018
-500,897	-36,828	-0,074	0,028
-499,883	800,000	-0,047	0,099
-498,868	48,883	0,162	0,109
-497,853	-102,327	-0,181	-0,031
-496,839	-200,000	0,004	0,031
-495,824	-52,902	0,039	0,013
-494,810	-77,506	0,078	0,019
-493,795	-200,000	-0,037	-0,121
-492,781	701,231	0,046	-0,088
-491,766	-63,456	0,078	-0,023
-490,751	37,943	-0,160	-0,102
-489,737	-15,177	0,052	-0,024
-488,722	129,544	0,034	-0,031
-487,708	-108,035	0,101	0,016
-486,693	193,217	0,096	0,105
-485,678	64,347	-0,189	0,137
-484,664	-61,117	-0,036	0,011
-483,649	-164,925	0,079	0,002
-482,635	-164,996	-0,087	0,003
-481,620	183,138	0,125	0,133
-480,605	82,836	0,126	0,099
-479,591	-18,882	0,053	0,024
-478,576	63,740	-0,013	-0,009
-477,562	-30,730	-0,070	-0,028
-476,547	-15,959	0,082	-0,037
-475,532	540,780	-0,026	-0,045
-474,518	-3,487	-0,074	0,037
-473,503	-92,663	-0,077	0,015
-472,489	-200,000	-0,020	0,077
-471,474	358,944	-0,040	0,058
-470,459	-5,447	-0,024	0,012
-469,445	-200,000	-0,005	0,040
-468,430	325,047	-0,054	-0,075
-467,416	266,870	0,052	0,066
-466,401	-56,595	0,055	-0,018
-465,386	425,098	-0,053	-0,082
-464,372	-200,000	0,001	0,090
-463,357	-200,000	-0,004	-0,087
-462,343	-133,411	-0,085	0,008
-461,328	-200,000	0,003	-0,026
-460,313	-99,621	0,067	0,012
-459,299	-73,349	0,149	0,039
-458,284	257,404	0,026	0,033
-457,270	800,000	0,015	0,039
-456,255	800,000	-0,044	-0,096
-455,241	3,704	-0,078	0,041
-454,226	-200,000	-0,006	-0,023
-453,211	88,612	-0,074	-0,059
-452,197	-127,467	-0,129	0,013
-451,182	-200,000	0,050	-0,163
-450,168	22,515	0,104	0,061
-449,153	45,904	-0,062	0,041
-448,138	77,390	-0,149	-0,114
-447,124	651,432	0,064	-0,119
-446,109	510,997	0,032	-0,054
-445,095	257,742	0,080	0,099
-444,080	-61,480	-0,066	-0,020
-443,065	-200,000	0,007	0,110
-442,051	-62,121	0,083	0,025
-441,036	-5,037	0,025	-0,012
-440,022	-59,313	0,023	-0,007
-439,007	-200,000	0,023	-0,089
-437,992	287,754	0,024	0,032
-436,978	336,337	0,056	-0,079
-435,963	81,073	-0,122	0,094
-434,949	-200,000	0,014	0,062
-433,934	800,000	-0,042	-0,085
-432,919	-22,286	0,073	0,032
-431,905	-200,000	0,001	-0,032
-430,890	-130,458	0,104	-0,010
-429,876	668,003	0,009	0,017
-428,861	-200,000	-0,006	0,206
-427,846	800,000	-0,063	0,150
-426,832	6,291	-0,185	0,098
-425,817	73,222	-0,021	-0,016
-424,803	-54,576	0,213	-0,069
-423,788	-200,000	0,002	-0,045
-422,773	-88,271	-0,095	0,020
-421,759	40,655	0,064	-0,041
-420,744	-200,000	-0,037	-0,126
-419,730	-200,000	0,007	-0,023
-418,715	-62,261	0,053	0,016
-417,701	800,000	-0,026	-0,057
-416,686	800,000	-0,011	0,033
-415,671	-58,248	0,072	-0,023
-414,657	455,354	-0,049	0,079
-413,642	-200,000	0,007	0,029
-412,628	-200,000	0,005	-0,033
-411,613	-29,206	-0,043	0,018
-410,598	217,612	-0,038	-0,043
-409,584	-29,942	0,116	-0,047
-408,569	-156,685	0,107	0,005
-407,555	800,000	0,071	0,147
-406,540	10,406	-0,050	-0,027
-405,525	-200,000	0,003	-0,055
-404,511	-200,000	-0,030	-0,199
-403,496	-200,000	-0,007	-0,059
-402,482	256,574	0,080	-0,099
-401,467	-200,000	-0,006	0,114
-400,452	263,661	-0,015	0,019
-399,438	494,763	-0,016	-0,026
-398,423	800,000	0,029	-0,073
-397,409	-200,000	0,021	-0,082
-396,394	-200,000	0,037	-0,158
-395,379	137,750	-0,070	-0,066
-394,365	63,699	0,066	0,048
-393,350	190,549	-0,109	0,118
-392,336	-117,093	0,080	-0,010
-391,321	-200,000	-0,005	-0,116
-390,306	233,829	-0,067	-0,080
-389,292	-83,833	0,125	0,028
-388,277	-133,830	0,045	-0,004
-387,263	-116,929	0,199	0,026
-386,248	71,027	0,071	-0,053
-385,233	-100,754	0,080	0,014
-384,219	-71,880	-0,180	0,048
-383,204	410,236	-0,051	-0,079
-382,190	713,056	0,043	-0,083
-381,175	-117,833	-0,104	0,013
-380,160	110,940	0,113	-0,098
-379,146	800,000	-0,021	0,043
-378,131	-160,053	0,070	-0,003
-377,117	382,901	0,016	0,024
-376,102	-38,494	-0,109	-0,041
-375,088	22,850	0,004	-0,002
-374,073	54,904	-0,060	-0,042
-373,058	-14,896	0,097	0,044
-372,044	800,000	-0,047	0,094
-371,029	-37,975	-0,081	-0,031
-370,015	17,901	0,016	-0,009
-369,000	-92,772	-0,165	0,033
-367,985	-200,000	-0,005	-0,094
-366,971	800,000	0,037	-0,078
-365,956	800,000	-0,038	0,076
-364,942	43,896	0,078	0,051
-363,927	-76,033	0,030	-0,007
-362,912	-66,176	-0,117	-0,033
-361,898	115,679	0,044	-0,039
-360,883	117,775	0,035	-0,031
-359,869	305,165	-0,064	-0,086
-358,854	-34,731	0,089	0,035
-357,839	266,822	0,032	0,040
-356,825	-114,528	0,142	-0,019
-355,810	128,708	0,043	0,039
-354,796	404,410	0,082	-0,125
-353,781	109,594	-0,123	0,106
-352,766	-200,000	0,011	-0,051
-351,752	482,031	0,054	0,089
-350,737	-200,000	-0,019	-0,094
-349,723	800,000	0,036	0,081
-348,708	148,000	-0,111	0,107
-347,693	-200,000	0,004	0,082
-346,679	-200,000	0,006	-0,142
-345,664	596,049	0,048	-0,086
-344,650	-24,242	0,129	-0,055
-343,635	242,411	0,113	0,136
-342,620	-200,000	0,008	0,057
-341,606	24,342	-0,155	0,091
-340,591	0,002	0,112	-0,057
-339,577	745,489	-0,053	0,103
-338,562	-5,746	-0,042	-0,021
-337,548	20,492	0,046	-0,027
-336,533	-200,000	-0,033	-0,120
-335,518	-200,000	-0,001	0,026
-334,504	-177,817	0,112	0,002
-333,489	95,001	-0,065	-0,053
-332,475	111,114	-0,054	-0,047
-331,460	249,290	0,052	-0,063
-330,445	-200,000	0,008	-0,062
-329,431	-200,000	0,032	-0,155
-328,416	60,398	0,078	0,055
-327,402	-146,915	-0,014	0,001
-326,387	-48,138	-0,058	0,020
-325,372	161,726	-0,095	0,096
-324,358	107,808	0,025	-0,022
-323,343	800,000	0,029	-0,091
-322,329	19,060	0,086	0,049
-321,314	167,727	0,019	0,019
-320,299	-200,000	-0,010	0,053
-319,285	-75,537	-0,152	0,038
-318,270	120,583	-0,024	-0,022
-317,256	-200,000	-0,020	0,072
-316,241	-191,818	-0,118	-0,001
-315,226	323,475	0,012	-0,017
-314,212	699,764	0,077	0,147
-313,197	-200,000	-0,012	-0,053
-312,183	168,244	-0,048	-0,049
-311,168	-200,000	-0,001	0,087
-310,153	223,246	-0,070	0,081
-309,139	12,945	-0,058	0,032
-308,124	32,592	-0,123	-0,076
-307,110	-200,000	-0,008	0,081
-306,095	-64,426	0,119	-0,034
-305,080	53,521	-0,169	-0,116
-304,066	-200,000	-0,024	0,127
-303,051	800,000	-0,022	0,044
-302,037	161,142	-0,084	-0,084
-301,022	-76,105	0,048	0,012
-300,008	-200,000	-0,006	0,026
-298,993	203,092	0,030	0,034
-297,978	-88,542	0,147	0,031
-296,964	800,000	0,061	-0,177
-295,949	191,060	-0,091	-0,098
-294,935	-5,432	-0,120	-0,059
-293,920	31,054	0,009	0,005
-292,905	-200,000	0,013	0,053
-291,891	76,413	0,125	-0,095
-290,876	-68,872	0,041	-0,011
-289,862	-62,641	-0,141	0,042
-288,847	463,052	0,093	-0,150
-287,832	800,000	-0,047	-0,116
-286,818	-93,945	-0,017	-0,003
-285,803	100,728	0,051	-0,042
-284,789	14,665	-0,033	0,018
-283,774	-200,000	-0,002	0,063
-282,759	-200,000	-0,002	0,123
-281,745	173,210	-0,124	-0,128
-280,730	314,772	-0,050	-0,067
-279,716	-200,000	-0,016	-0,178
-278,701	159,950	0,031	-0,031
-277,686	-41,381	0,100	-0,037
-276,672	-0,499	0,054	-0,027
-275,657	800,000	0,034	0,068
-274,643	-170,800	-0,036	0,001
-273,628	-139,619	-0,090	0,007
-272,613	-200,000	0,024	0,162
-271,599	413,083	0,032	0,049
-270,584	800,000	0,020	-0,049
-269,570	-200,000	0,021	0,157
-268,555	-85,249	0,164	0,036
-267,540	-44,765	0,065	0,023
-266,526	-200,000	0,013	0,046
-265,511	33,863	-0,045	-0,028
-264,497	397,869	0,005	-0,007
-263,482	-200,000	-0,004	0,170
-262,467	455,685	0,100	0,159
-261,453	-72,113	0,040	0,011
-260,438	436,955	-0,022	-0,034
-259,424	154,208	-0,092	-0,090
-258,409	-4,965	-0,083	0,041
-257,395	27,483	0,141	0,085
-256,380	-133,582	0,177	-0,016
-255,365	152,855	-0,125	-0,122
-254,351	47,834	0,111	0,074
-253,336	-129,925	0,050	-0,005
-252,322	382,166	-0,027	-0,040
-251,307	-200,000	-0,010	-0,079
-250,292	667,743	0,024	-0,045
-249,278	593,379	-0,030	0,053
-248,263	-15,846	0,066	0,030
-247,249	389,867	-0,033	-0,049
-246,234	74,559	-0,123	-0,093
-245,219	-29,626	-0,042	-0,017
-244,205	-71,310	-0,043	-0,011
-243,190	-36,323	0,071	0,027
-242,176	-200,000	0,018	-0,096
-241,161	-49,844	-0,129	-0,043
-240,146	-200,000	-0,030	0,175
-239,132	800,000	0,011	-0,031
-238,117	-200,000	-0,019	-0,063
-237,103	-200,000	-0,003	0,021
-236,088	439,084	0,067	-0,105
-235,073	-200,000	0,019	0,135
-234,059	-26,155	-0,081	-0,034
-233,044	10,248	-0,071	0,039
-232,030	169,384	-0,144	-0,147
-231,015	38,143	-0,020	0,012
-230,000	-82,738	-0,052	0,012
-228,986	-130,859	0,132	-0,012
-227,971	-98,970	-0,066	0,012
-226,957	349,289	0,092	0,131
-225,942	647,094	-0,069	0,126
-224,927	6,291	0,094	-0,050
-223,913	-200,000	-0,007	-0,034
-222,898	52,531	-0,132	0,090
-221,884	-159,625	0,144	-0,006
-220,869	242,521	0,029	-0,035
-219,855	-200,000	0,024	0,138
-218,840	261,410	-0,105	-0,130
-217,825	-130,088	0,140	-0,013
-216,811	-62,204	-0,106	-0,031
-215,796	-200,000	-0,006	-0,094
-214,782	-200,000	0,001	0,021
-213,767	-200,000	-0,010	-0,065
-212,752	-200,000	0,048	0,171
-211,738	30,575	0,014	0,008
-210,723	-200,000	-0,006	-0,081
-209,709	129,771	-0,082	-0,075
-208,694	63,241	-0,041	0,029
-207,679	-200,000	-0,011	0,048
-206,665	465,522	0,045	-0,073
-205,650	669,926	0,043	0,079
-204,636	9,225	0,138	-0,074
-203,621	-15,863	0,068	-0,031
-202,606	800,000	0,072	0,147
-201,592	-62,907	-0,165	-0,048
-200,577	800,000	0,038	0,101
-199,563	-200,000	-0,015	0,050
-198,548	602,437	0,006	-0,011
-197,533	-92,544	0,073	-0,015
-196,519	121,297	0,075	0,066
-195,504	-80,148	-0,187	-0,044
-194,490	111,154	-0,054	-0,046
-193,475	-56,295	-0,062	-0,020
-192,460	-200,000	-0,013	-0,061
-191,446	800,000	0,038	-0,077
-190,431	766,657	-0,049	-0,096
-189,417	729,569	0,071	0,136
-188,402	-200,000	-0,008	0,041
-187,387	-200,000	0,059	-0,189
-186,373	-140,139	-0,072	0,005
-185,358	-0,579	-0,010	0,005
-184,344	172,030	0,087	-0,089
-183,329	-73,530	0,053	-0,014
-182,315	-27,383	-0,024	-0,010
-181,300	-200,000	-0,009	-0,133
-180,285	41,449	-0,052	-0,033
-179,271	390,905	0,019	0,028
-178,256	226,459	-0,053	-0,062
-177,242	-137,832	-0,084	-0,007
-176,227	-200,000	-0,001	0,155
-175,212	-200,000	0,016	0,151
-174,198	324,841	-0,028	0,039
-173,183	-69,869	-0,110	-0,030
-172,169	280,521	-0,105	0,134
-171,154	-100,208	-0,134	0,023
-170,139	-141,207	-0,019	0,001
-169,125	495,540	0,074	0,122
-168,110	800,000	-0,038	0,110
-167,096	-159,394	0,006	0,000
-166,081	800,000	0,027	-0,069
-165,066	-200,000	0,007	0,083
-164,052	-68,671	-0,084	-0,023
-163,037	-93,874	-0,060	0,012
-162,023	50,669	0,185	0,124
-161,008	-200,000	-0,017	0,082
-159,993	800,000	0,036	0,075
-158,979	-200,000	0,088	0,000
-157,964	-68,572	0,102	0,028
-156,950	33,415	-0,107	0,066
-155,935	800,000	-0,036	0,085
-154,920	15,452	0,067	0,037
-153,906	800,000	0,030	0,071
-152,891	-200,000	0,003	0,130
-151,877	-146,846	0,106	0,006
-150,862	-34,205	-0,108	0,042
-149,847	-200,000	-0,026	-0,125
-148,833	63,118	0,093	0,066
-147,818	-88,924	0,145	0,030
-146,804	-125,505	-0,120	-0,013
-145,789	-200,000	0,014	0,052
-144,775	-200,000	-0,011	0,060
-143,760	24,719	0,136	-0,080
-142,745	60,692	-0,110	0,078
-141,731	-8,465	0,055	-0,026
-140,716	-200,000	0,031	-0,100
-139,702	358,338	0,077	0,110
-138,687	92,944	-0,055	-0,044
-137,672	-200,000	-0,002	0,047
-136,658	23,854	0,041	-0,024
-135,643	-29,281	-0,150	-0,061
-134,629	800,000	0,033	0,087
-133,614	10,019	0,146	0,079
-132,599	-49,373	0,044	-0,015
-131,585	-200,000	0,042	0,151
-130,570	800,000	0,058	-0,116
-129,556	-108,615	-0,194	-0,029
-128,541	9,834	0,072	0,039
-127,526	39,252	-0,146	0,093
-126,512	116,827	0,103	-0,090
-125,497	-8,952	0,104	0,049
-124,483	-71,972	-0,154	0,041
-123,468	-43,751	-0,115	0,041
-122,453	397,011	-0,012	0,018
-121,439	-200,000	0,001	0,021
-120,424	68,445	-0,080	0,058
-119,410	-112,312	-0,078	-0,011
-118,395	-200,000	0,014	0,073
-117,380	-139,518	0,126	-0,009
-116,366	65,265	-0,056	0,040
-115,351	211,001	-0,085	-0,096
-114,337	246,616	0,084	-0,101
-113,322	87,820	0,112	0,088
-112,307	-200,000	-0,011	-0,038
-111,293	87,767	0,085	0,067
-110,278	499,634	0,044	0,073
-109,264	330,524	0,079	0,108
-108,249	-200,000	-0,004	0,016
-107,234	800,000	0,043	0,109
-106,220	-101,875	-0,176	-0,030
-105,205	800,000	-0,041	0,106
-104,191	72,061	0,105	0,078
-103,176	800,000	0,025	0,053
-102,162	-200,000	-0,019	0,064
-101,147	-200,000	0,002	-0,051
-100,132	-127,158	-0,127	-0,013
-99,118	-200,000	0,005	0,110
-98,103	-155,292	-0,110	0,005
-97,089	-200,000	0,030	0,129
-96,074	800,000	-0,008	-0,022
-95,059	-79,326	0,127	-0,030
-94,045	473,900	-0,009	0,014
-93,030	341,085	-0,046	-0,065
-92,016	-29,119	-0,050	0,020
-91,001	-200,000	-0,020	0,067
-89,986	432,124	0,050	-0,078
-88,972	73,867	0,065	0,048
-87,957	26,543	0,139	0,082
-86,943	-55,092	-0,047	0,015
-85,928	-140,015	-0,096	-0,007
-84,913	514,887	0,118	-0,196
-83,899	800,000	-0,044	0,130
-82,884	477,980	0,023	-0,037
-81,870	222,894	-0,103	0,118
-80,855	242,082	0,052	-0,061
-79,840	-130,592	0,105	0,010
-78,826	-134,598	-0,027	0,002
-77,811	-63,012	0,029	0,008
-76,797	12,753	0,066	-0,036
-75,782	800,000	-0,028	0,087
-74,767	183,096	-0,049	0,051
-73,753	-200,000	-0,020	-0,121
-72,738	-200,000	-0,015	0,128
-71,724	-66,787	-0,093	0,026
-70,709	-88,165	0,168	-0,035
-69,694	-7,758	0,078	0,037
-68,680	-80,780	0,020	-0,005
-67,665	242,597	-0,035	0,042
-66,651	409,566	0,070	-0,106
-65,636	54,732	-0,104	0,071
-64,622	588,807	0,090	0,158
-63,607	-200,000	-0,020	-0,111
-62,592	723,235	0,058	0,111
-61,578	-200,000	0,031	-0,120
-60,563	30,055	0,065	0,039
-59,549	-101,758	0,076	-0,013
-58,534	-60,267	-1,531	-0,460
-57,519	290,559	-1,638	-2,116
-56,505	-200,000	-0,532	-4,487
-55,490	128,610	0,921	0,833
-54,476	800,000	4,712	11,221
-53,461	-200,000	18,219	285,291
-52,446	800,000	726,605	2224,188
-51,432	556,359	1642,022	2816,457
-50,417	79,409	1663,545	1264,083
-49,403	23,063	1537,469	892,400
-48,388	17,062	1460,585	818,703
-47,373	17,920	1450,793	817,316
-46,359	17,375	1441,148	809,245
-45,344	15,349	1436,312	796,825
-44,330	15,287	1434,302	795,380
-43,315	15,291	1432,599	794,424
-42,300	15,273	1430,939	793,384
-41,286	15,266	1429,912	792,751
-40,271	15,255	1428,644	791,967
-39,257	15,308	1427,232	791,405
-38,242	15,332	1426,061	790,836
-37,227	15,342	1424,743	790,119
-36,213	15,344	1423,359	789,334
-35,198	15,319	1422,398	788,648
-34,184	15,396	1421,214	788,324
-33,169	15,310	1420,104	787,274
-32,154	15,334	1419,188	786,848
-31,140	15,323	1417,931	786,065
-30,125	15,346	1416,922	785,585
-29,111	15,356	1415,532	784,828
-28,096	15,258	1414,741	783,900
-27,082	15,247	1413,423	783,087
-26,067	15,254	1412,267	782,448
-25,052	15,261	1411,213	781,865
-24,038	15,241	1410,188	781,170
-23,023	15,202	1409,156	780,389
-22,009	15,210	1408,201	779,864
-20,994	15,168	1407,411	779,198
-19,979	15,179	1406,340	778,626
-18,965	15,196	1405,311	778,106
-17,950	15,173	1404,416	777,470
-16,936	15,160	1403,451	776,845
-15,921	15,132	1402,525	776,172
-14,906	15,148	1401,374	775,578
-13,892	15,173	1400,523	775,196
-12,877	15,176	1399,430	774,572
-11,863	15,099	1398,993	773,941
-10,848	15,123	1398,033	773,493
-9,833	15,101	1397,036	772,804
-8,819	15,055	1396,194	772,097
-7,804	15,060	1395,138	771,506
-6,790	15,010	1394,165	770,706
-5,775	15,028	1393,129	770,184
-4,760	15,031	1392,253	769,684
-3,746	15,046	1391,410	769,255
-2,731	15,015	1390,665	768,670
-1,717	15,056	1389,527	768,200
-0,702	15,056	1387,746	767,187
0,313	18,887	1307,492	740,550
1,327	35,201	707,082	438,351
2,342	54,307	124,691	84,951
3,356	4,531	16,621	8,615
4,371	20,870	3,068	1,757
5,386	31,146	0,552	0,335
6,400	578,203	0,084	0,146
7,415	-28,676	-0,296	-0,120
8,429	-7,400	-0,264	-0,126
9,444	53,721	-0,310	-0,210
10,459	161,402	-0,309	-0,306
11,473	-56,726	-0,324	-0,101
12,488	175,351	-0,175	-0,180
13,502	18,362	-0,309	-0,174
14,517	71,291	-0,314	-0,230
15,531	70,288	-0,314	-0,229
16,546	26,915	-0,392	-0,232
17,561	216,997	-0,267	-0,302
18,575	137,099	-0,073	-0,067
19,590	87,781	-0,262	-0,205
20,604	120,593	-0,179	-0,157
21,619	72,348	-0,378	-0,278
22,634	257,492	-0,416	-0,508
23,648	133,070	-0,471	-0,430
24,663	105,318	-0,374	-0,312
25,677	10,269	-0,433	-0,232
26,692	4,982	-0,365	-0,189
27,707	90,382	-0,326	-0,258
28,721	92,712	-0,403	-0,321
29,736	164,904	-0,399	-0,398
30,750	15,956	-0,465	-0,258
31,765	68,555	-0,333	-0,241
32,780	344,687	-0,245	-0,341
33,794	44,967	-0,483	-0,314
34,809	401,276	-0,258	-0,384
35,823	38,314	-0,363	-0,228
36,838	-14,159	-0,507	-0,230
37,853	48,076	-0,368	-0,242
38,867	70,718	-0,361	-0,264
39,882	66,913	-0,323	-0,232
40,896	113,548	-0,316	-0,271
41,911	125,172	-0,306	-0,272
42,926	82,869	-0,360	-0,276
43,940	27,970	-0,382	-0,227
44,955	-25,901	-0,431	-0,178
45,969	43,867	-0,322	-0,208
46,984	-4,293	-0,366	-0,178
47,999	226,815	-0,300	-0,344
49,013	57,169	-0,275	-0,189
50,028	-37,454	-0,432	-0,162
51,042	-61,302	-0,474	-0,140
52,057	-39,829	-0,371	-0,136
53,071	9,046	-0,341	-0,181
54,086	188,519	-0,292	-0,308
55,101	88,670	-0,304	-0,238
56,115	56,582	-0,342	-0,234
57,130	-66,769	-0,394	-0,109
58,144	-4,144	-0,294	-0,143
59,159	41,723	-0,340	-0,217
60,174	0,265	-0,349	-0,175
61,188	172,683	-0,267	-0,271
62,203	85,567	-0,284	-0,220
63,217	9,702	-0,347	-0,185
64,232	21,227	-0,425	-0,243
65,247	26,649	-0,417	-0,246
66,261	81,219	-0,338	-0,257
67,276	73,131	-0,295	-0,217
68,290	-23,756	-0,396	-0,166
69,305	-80,976	-0,250	-0,058
70,320	-46,608	-0,345	-0,119
71,334	176,474	-0,273	-0,280
72,349	-55,544	-0,219	-0,069
73,363	7,190	-0,404	-0,212
74,378	-64,263	-0,378	-0,108
75,393	-78,610	-0,354	-0,085
76,407	18,259	-0,287	-0,161
77,422	385,523	-0,212	-0,309
78,436	-33,070	-0,401	-0,156
79,451	107,087	-0,268	-0,224
80,466	-12,173	-0,383	-0,176
81,480	47,246	-0,286	-0,187
82,495	141,704	-0,373	-0,348
83,509	111,659	-0,221	-0,188
84,524	-190,517	-0,203	-0,002
85,539	2,042	-0,426	-0,216
86,553	30,017	-0,298	-0,178
87,568	145,256	-0,249	-0,235
88,582	214,074	-0,244	-0,272
89,597	20,866	-0,351	-0,199
90,611	67,063	-0,241	-0,173
91,626	22,730	-0,298	-0,171
92,641	81,598	-0,154	-0,117
93,655	57,817	-0,248	-0,170
94,670	-116,316	-0,489	-0,063
95,684	122,453	-0,280	-0,246
96,699	435,152	-0,173	-0,266
97,714	1,871	-0,343	-0,173
98,728	-71,418	-0,322	-0,084
99,743	800,000	-0,135	-0,273
100,757	99,260	-0,233	-0,189
101,772	-52,110	-0,275	-0,089
102,787	96,486	-0,286	-0,230
103,801	-31,002	-0,331	-0,131
104,816	76,402	-0,239	-0,177
105,830	175,623	-0,234	-0,238
106,845	749,513	-0,142	-0,270
107,860	4,872	-0,307	-0,158
108,874	34,336	-0,284	-0,174
109,889	-27,520	-0,330	-0,134
110,903	61,747	-0,292	-0,204
111,918	98,751	-0,263	-0,213
112,933	-20,052	-0,119	-0,051
113,947	20,290	-0,229	-0,129
114,962	35,151	-0,285	-0,175
115,976	-174,726	-0,337	0,007
116,991	103,253	-0,380	-0,312
118,006	-36,716	-0,275	-0,103
119,020	158,113	-0,219	-0,213
120,035	364,058	-0,171	-0,243
121,049	-9,040	-0,259	-0,121
122,064	34,217	-0,223	-0,136
123,079	65,249	-0,267	-0,189
124,093	-9,054	-0,262	-0,123
125,108	8,748	-0,276	-0,146
126,122	-59,354	-0,255	-0,076
127,137	-41,056	-0,300	-0,108
128,151	-27,969	-0,252	-0,102
129,166	-91,011	-0,196	-0,039
130,181	1,993	-0,261	-0,132
131,195	-76,466	-0,362	-0,089
132,210	-86,778	-0,252	-0,054
133,224	114,655	-0,209	-0,178
134,239	34,781	-0,239	-0,146
135,254	142,784	-0,146	-0,136
136,268	64,165	-0,231	-0,163
137,283	-34,924	-0,363	-0,138
138,297	57,509	-0,371	-0,253
139,312	251,895	-0,171	-0,205
140,327	120,736	-0,248	-0,216
141,341	41,760	-0,281	-0,178
142,356	-50,857	-0,182	-0,059
143,370	80,100	-0,194	-0,146
144,385	-52,298	-0,254	-0,082
145,400	183,224	-0,120	-0,124
146,414	-97,961	-0,298	-0,053
147,429	-159,693	-0,265	0,010
148,443	57,966	-0,195	-0,133
149,458	64,682	-0,193	-0,136
150,473	-100,035	-0,259	-0,045
151,487	-28,141	-0,153	-0,061
152,502	-88,172	-0,316	-0,066
153,516	-25,404	-0,422	-0,174
154,531	800,000	-0,152	-0,327
155,546	5,826	-0,191	-0,099
156,560	-148,400	-0,219	-0,012
157,575	98,757	-0,102	-0,082
158,589	18,462	-0,196	-0,109
159,604	52,595	-0,290	-0,193
160,619	240,531	-0,232	-0,271
161,633	33,597	-0,279	-0,169
162,648	13,197	-0,213	-0,115
163,662	95,602	-0,209	-0,167
164,677	199,441	-0,148	-0,159
165,692	1,835	-0,228	0,115
166,706	2,431	-0,251	-0,126
167,721	416,097	-0,180	-0,270
168,735	170,291	-0,336	-0,336
169,750	800,000	-0,130	-0,295
170,764	169,230	-0,124	-0,124
171,779	64,972	-0,194	-0,136
172,794	14,754	-0,295	-0,161
173,808	-42,355	-0,218	-0,077
174,823	102,704	-0,253	-0,206
175,837	199,676	-0,226	-0,243
176,852	77,362	-0,172	-0,128
177,867	275,647	-0,107	-0,133
178,881	-76,382	-0,126	-0,031
179,896	361,688	-0,164	-0,230
180,910	-12,786	-0,339	-0,153
181,925	3,824	-0,282	-0,143
182,940	-36,722	-0,367	-0,137
183,954	553,649	-0,134	-0,225
184,969	168,882	-0,129	-0,129
185,983	339,694	-0,158	-0,216
186,998	-44,657	-0,163	-0,056
188,013	257,421	-0,197	-0,237
189,027	800,000	-0,152	-0,298
190,042	123,789	-0,213	-0,186
191,056	310,371	-0,191	-0,250
192,071	-56,923	-0,250	-0,077
193,086	-88,567	-0,220	-0,045
194,100	-90,668	-0,240	0,048
195,115	-28,870	-0,190	-0,076
196,129	-197,320	-0,175	-0,001
197,144	5,595	-0,288	-0,148
198,159	44,827	-0,400	-0,256
199,173	-97,829	-0,170	-0,030
200,188	64,027	-0,259	-0,181
201,202	-120,845	-0,179	-0,021
202,217	39,357	-0,090	-0,056
203,232	16,285	-0,264	-0,145
204,246	66,090	-0,279	-0,197
205,261	74,101	-0,288	-0,210
206,275	91,580	-0,129	-0,101
207,290	-11,247	-0,177	-0,081
208,304	-30,417	-0,164	-0,065
209,319	154,034	-0,101	-0,096
210,334	167,637	-0,130	-0,128
211,348	607,488	-0,153	-0,267
212,363	86,571	-0,208	-0,160
213,377	571,160	-0,126	-0,215
214,392	-200,000	-0,046	-0,281
215,407	-36,863	-0,161	-0,060
216,421	275,846	-0,105	-0,130
217,436	-33,701	-0,234	-0,089
218,450	165,982	-0,170	-0,168
219,465	-200,000	-0,062	-0,221
220,480	225,138	-0,167	-0,189
221,494	278,463	-0,115	-0,143
222,509	-75,739	-0,146	-0,036
223,523	103,559	-0,259	-0,211
224,538	-12,909	-0,139	-0,063
225,553	7,920	-0,237	-0,123
226,567	160,933	-0,155	-0,151
227,582	364,858	-0,136	-0,190
228,596	205,694	-0,091	-0,098
229,611	-18,924	-0,121	-0,052
230,626	80,011	-0,255	-0,190
231,640	-18,967	-0,244	-0,105
232,655	2,465	-0,184	-0,092
233,669	66,991	-0,232	-0,164
234,684	102,702	-0,128	-0,104
235,699	412,164	-0,120	-0,177
236,713	291,726	-0,121	-0,154
237,728	-111,890	-0,246	-0,034
238,742	210,531	-0,187	-0,204
239,757	5,910	-0,176	-0,090
240,772	87,380	-0,171	-0,131
241,786	131,209	-0,251	-0,224
242,801	6,525	-0,194	-0,100
243,815	-37,825	-0,231	-0,085
244,830	642,726	-0,094	-0,168
245,844	800,000	-0,141	-0,292
246,859	321,744	-0,239	-0,316
247,874	111,724	-0,205	-0,172
248,888	800,000	-0,109	-0,275
249,903	314,195	-0,123	-0,161
250,917	370,308	-0,104	-0,147
251,932	-36,152	-0,209	-0,078
252,947	140,677	-0,074	-0,068
253,961	-6,039	-0,183	-0,086
254,976	310,959	-0,205	-0,267
255,990	73,368	-0,255	-0,185
257,005	15,553	-0,193	-0,105
258,020	-97,500	-0,187	-0,033
259,034	-111,617	-0,065	0,009
260,049	678,513	-0,116	-0,210
261,063	-88,318	-0,147	-0,030
262,078	436,311	-0,171	-0,259
263,093	222,304	-0,185	-0,206
264,107	-34,082	-0,125	-0,047
265,122	440,607	-0,105	-0,159
266,136	138,893	-0,209	-0,190
267,151	92,902	-0,101	-0,079
268,166	154,656	-0,188	-0,179
269,180	-32,974	-0,278	-0,106
270,195	25,087	-0,197	-0,113
271,209	142,301	-0,181	-0,166
272,224	-128,244	-0,108	0,011
273,239	122,984	-0,190	-0,165
274,253	-8,095	-0,328	-0,152
275,268	101,235	-0,262	-0,211
276,282	-179,933	-0,123	-0,002
277,297	20,218	-0,175	-0,098
278,312	33,681	-0,231	-0,139
279,326	-41,843	-0,186	-0,066
280,341	-23,430	-0,223	-0,092
281,355	67,551	-0,064	-0,045
282,370	19,598	-0,209	-0,116
283,384	300,888	-0,140	-0,179
284,399	-1,256	-0,196	-0,095
285,414	-146,941	-0,118	0,007
286,428	64,886	-0,126	-0,088
287,443	-187,726	-0,255	-0,002
288,457	-10,726	-0,137	-0,062
289,472	-29,935	-0,154	-0,060
290,487	106,672	-0,168	-0,138
291,501	80,439	-0,291	-0,217
292,516	5,787	-0,215	-0,110
293,530	120,049	-0,053	-0,046
294,545	240,617	-0,159	-0,184
295,560	-60,430	-0,358	-0,105
296,574	352,173	-0,179	-0,246
297,589	-127,558	-0,153	0,015
298,603	127,752	-0,212	-0,186
299,618	14,400	-0,236	-0,127
300,633	-200,000	-0,037	-0,164
301,647	-200,000	0,015	-0,094
302,662	247,364	-0,136	-0,159
303,676	71,173	-0,134	-0,096
304,691	-95,921	-0,140	-0,026
305,706	159,377	-0,093	-0,090
306,720	308,219	-0,208	-0,269
307,735	-141,694	-0,250	-0,017
308,749	-139,734	-0,101	0,007
309,764	-168,228	-0,235	-0,006
310,779	127,808	-0,219	-0,192
311,793	-129,689	-0,088	0,008
312,808	66,157	-0,197	-0,138
313,822	561,347	-0,063	-0,106
314,837	140,985	-0,121	-0,111
315,852	-65,620	-0,150	-0,041
316,866	230,213	-0,171	-0,193
317,881	98,223	-0,131	0,104
318,895	64,822	-0,173	-0,120
319,910	-129,482	-0,115	0,011
320,925	8,946	-0,125	-0,065
321,939	13,552	-0,247	-0,132
322,954	-101,743	-0,180	-0,030
323,968	-89,465	-0,164	0,033
324,983	-128,231	-0,126	-0,012
325,997	-47,817	-0,124	0,041
327,012	88,660	-0,081	-0,062
328,027	-127,865	-0,189	0,018
329,041	800,000	-0,077	-0,187
330,056	-66,256	-0,133	-0,036
331,070	-12,035	-0,063	-0,028
332,085	75,695	-0,086	-0,063
333,100	-200,000	-0,049	-0,163
334,114	123,914	-0,253	-0,218
335,129	206,149	-0,196	-0,210
336,143	2,831	-0,172	-0,086
337,158	174,267	-0,126	-0,125
338,173	417,839	-0,088	-0,130
339,187	-200,000	0,003	-0,070
340,202	-159,717	-0,252	-0,009
341,216	-22,190	-0,208	-0,086
342,231	800,000	-0,138	-0,280
343,246	45,458	-0,067	-0,042
344,260	-200,000	-0,040	-0,139
345,275	-35,924	-0,074	-0,027
346,289	-38,001	-0,143	-0,052
347,304	93,794	-0,151	-0,117
348,319	69,715	-0,066	-0,047
349,333	47,846	-0,186	-0,119
350,348	101,860	-0,077	0,062
351,362	-63,910	-0,146	-0,041
352,377	264,643	0,042	0,051
353,392	255,121	-0,084	-0,099
354,406	-59,904	-0,135	-0,039
355,421	209,323	1313,434	1415,704
356,435	161,098	1474,026	1416,216
