DTS Sentinel unit serial number:	SN410029Multiplexer serial number:	ORYXHardware model number:	OX2-SRSoftware version number:	ORYX F/W v4,00 Oryx Data Collector v3.7.2.0data status	okinstallation	B3 Nyhavnadifferential loss correction	single-endedforward channel	channel 1reverse channel	N/Adate	2023/12/03time	06:47:30forward acquisition time	300,00reverse acquisition time	0,00gamma	499,1914k internal	0,3201k external	0,3201temperature offset calibration	1,0000default loss term (dB/km)	0,3820temperature slope calibration	1,0000multiplexer offset coefficient	1,0000multiplexer slope coefficient	1,0000fibre end	0,00T internal ref (°C)	13,30T ext. ref 1 (°C)	-1,78T ext. ref 2 (°C)	-1,80length (m)	temperature (°C)	Stokes	anti-Stokes-744,400	163,342	-0,267	-0,274
-743,385	-200,000	-0,056	0,278
-742,371	-200,000	-0,050	-0,161
-741,356	-200,000	-0,081	0,301
-740,342	-1,351	-0,104	-0,053
-739,327	800,000	-0,083	0,243
-738,312	238,582	-0,191	-0,231
-737,298	414,067	-0,079	0,122
-736,283	189,902	-0,228	-0,249
-735,269	-200,000	0,058	0,348
-734,254	171,716	-0,169	-0,176
-733,239	800,000	-0,034	0,097
-732,225	258,925	-0,178	-0,223
-731,210	-127,216	0,086	0,009
-730,196	223,292	0,097	-0,114
-729,181	364,667	-0,007	0,011
-728,167	-121,701	-0,080	0,010
-727,152	-200,000	-0,003	0,081
-726,137	-200,000	0,022	-0,113
-725,123	800,000	-0,058	-0,118
-724,108	800,000	-0,076	-0,190
-723,094	-200,000	-0,014	-0,112
-722,079	-45,803	-0,098	-0,035
-721,064	59,803	-0,164	-0,118
-720,050	-200,000	0,007	0,178
-719,035	-110,876	-0,055	-0,008
-718,021	800,000	0,027	-0,075
-717,006	-157,090	-0,086	-0,004
-715,991	-200,000	-0,002	-0,119
-714,977	-12,569	-0,195	-0,092
-713,962	-48,814	-0,033	-0,012
-712,948	-86,526	0,093	-0,020
-711,933	-200,000	0,007	0,102
-710,918	-155,952	-0,042	0,002
-709,904	-4,834	-0,087	-0,044
-708,889	-91,567	-0,125	0,026
-707,875	-10,494	-0,096	-0,046
-706,860	-200,000	-0,013	-0,063
-705,845	178,242	0,065	0,069
-704,831	253,909	0,016	0,020
-703,816	-200,000	0,011	-0,043
-702,802	800,000	0,040	-0,108
-701,787	800,000	0,046	-0,125
-700,772	47,477	-0,094	0,064
-699,758	-188,218	0,073	0,001
-698,743	96,567	0,081	-0,067
-697,729	92,990	0,111	0,091
-696,714	-155,622	-0,140	0,006
-695,699	800,000	-0,076	-0,215
-694,685	-83,244	0,066	-0,015
-693,670	-178,427	0,065	-0,001
-692,656	189,984	-0,056	0,061
-691,641	-84,582	-0,068	-0,015
-690,627	12,686	-0,045	0,025
-689,612	-31,756	-0,120	-0,049
-688,597	166,010	0,050	0,051
-687,583	103,857	-0,015	-0,013
-686,568	-200,000	-0,001	-0,024
-685,554	-10,877	-0,105	-0,050
-684,539	448,902	0,081	-0,130
-683,524	81,279	-0,038	0,030
-682,510	12,128	0,045	0,025
-681,495	471,504	-0,054	0,088
-680,481	120,279	0,025	-0,023
-679,466	-134,267	-0,127	0,011
-678,451	-200,000	0,003	-0,121
-677,437	-98,406	-0,036	0,007
-676,422	-51,370	0,054	0,018
-675,408	85,248	0,049	0,039
-674,393	-5,946	0,054	0,027
-673,378	408,336	0,050	-0,077
-672,364	800,000	-0,041	-0,117
-671,349	144,118	-0,008	0,008
-670,335	-54,748	-0,097	-0,032
-669,320	24,858	-0,165	0,099
-668,305	-200,000	0,028	-0,092
-667,291	800,000	0,024	0,051
-666,276	325,315	-0,053	-0,074
-665,262	643,841	0,026	0,049
-664,247	-200,000	-0,004	-0,048
-663,232	-111,090	-0,054	-0,008
-662,218	-41,760	0,130	-0,048
-661,203	588,621	-0,029	0,051
-660,189	-200,000	0,017	-0,191
-659,174	-200,000	0,019	-0,114
-658,159	-54,130	-0,093	-0,030
-657,145	-200,000	0,014	0,064
-656,130	249,825	0,092	-0,114
-655,116	-104,680	-0,077	0,013
-654,101	54,113	0,078	0,054
-653,086	-200,000	0,004	0,034
-652,072	-64,083	-0,045	-0,013
-651,057	800,000	-0,120	-0,266
-650,043	800,000	-0,041	-0,118
-649,028	331,817	-0,065	0,091
-648,014	-83,851	0,067	-0,015
-646,999	266,697	-0,089	0,113
-645,984	800,000	0,033	-0,075
-644,970	-200,000	0,001	0,043
-643,955	159,347	-0,026	0,026
-642,941	20,056	0,029	-0,017
-641,926	44,939	0,062	-0,041
-640,911	-74,216	0,078	-0,020
-639,897	322,557	0,027	0,037
-638,882	-29,680	-0,083	-0,034
-637,868	-200,000	0,037	0,136
-636,853	-200,000	-0,016	-0,144
-635,838	800,000	-0,011	0,027
-634,824	-57,579	-0,073	-0,023
-633,809	25,809	-0,037	-0,022
-632,795	207,755	0,032	0,037
-631,780	91,940	0,001	-0,000
-630,765	443,891	-0,078	0,124
-629,751	178,243	-0,030	0,032
-628,736	-50,516	-0,030	-0,010
-627,722	-200,000	0,012	0,046
-626,707	-41,972	-0,061	0,022
-625,692	800,000	-0,071	-0,149
-624,678	-200,000	0,025	-0,085
-623,663	60,398	0,050	-0,036
-622,649	213,661	0,054	-0,061
-621,634	-200,000	0,005	-0,103
-620,619	-137,979	0,063	0,005
-619,605	441,346	-0,064	0,102
-618,590	-19,914	0,145	-0,065
-617,576	49,988	-0,172	-0,117
-616,561	-200,000	-0,026	0,124
-615,546	197,941	-0,023	-0,026
-614,532	-200,000	0,003	-0,049
-613,517	-200,000	-0,013	-0,113
-612,503	-200,000	0,019	0,077
-611,488	15,279	0,035	-0,020
-610,474	78,602	-0,089	0,069
-609,459	313,687	0,085	0,116
-608,444	-17,542	-0,022	0,010
-607,430	18,173	-0,185	-0,106
-606,415	-200,000	-0,014	-0,064
-605,401	-165,602	-0,062	-0,002
-604,386	-51,901	0,088	0,029
-603,371	63,534	0,079	-0,058
-602,357	-200,000	-0,005	0,076
-601,342	782,729	-0,015	-0,029
-600,328	-200,000	-0,001	-0,010
-599,313	178,766	-0,026	0,028
-598,298	-200,000	0,007	0,095
-597,284	-200,000	-0,035	0,187
-596,269	-119,576	-0,134	0,017
-595,255	-14,620	-0,079	-0,037
-594,240	19,397	0,084	0,049
-593,225	-200,000	0,008	0,064
-592,211	-64,840	-0,127	-0,037
-591,196	-27,687	-0,086	0,036
-590,182	-200,000	-0,013	0,071
-589,167	800,000	0,024	-0,052
-588,152	-200,000	-0,037	-0,119
-587,138	329,872	-0,039	0,054
-586,123	-200,000	0,013	0,050
-585,109	-16,529	-0,029	-0,013
-584,094	63,548	-0,041	0,030
-583,079	771,795	0,054	-0,107
-582,065	-200,000	-0,012	-0,048
-581,050	-93,798	-0,064	0,013
-580,036	14,712	-0,026	-0,015
-579,021	-200,000	-0,033	0,136
-578,006	-90,116	0,033	-0,007
-576,992	10,666	-0,166	-0,091
-575,977	36,570	0,103	-0,066
-574,963	800,000	0,027	-0,061
-573,948	21,879	-0,096	0,056
-572,934	-200,000	0,000	-0,066
-571,919	-136,484	-0,078	-0,006
-570,904	-200,000	0,000	-0,110
-569,890	800,000	-0,030	-0,079
-568,875	-200,000	0,017	-0,194
-567,861	-72,791	-0,071	0,019
-566,846	743,180	0,039	-0,076
-565,831	78,406	0,079	-0,061
-564,817	-200,000	0,014	-0,144
-563,802	-167,816	0,023	-0,001
-562,788	750,423	-0,042	0,082
-561,773	361,828	0,029	-0,042
-560,758	67,100	-0,026	-0,019
-559,744	134,075	-0,116	0,109
-558,729	-156,961	0,156	-0,007
-557,715	-118,133	-0,068	-0,009
-556,700	-200,000	-0,035	0,118
-555,685	-90,914	-0,131	-0,027
-554,671	-198,925	0,070	0,000
-553,656	385,739	-0,075	0,112
-552,642	151,092	-0,117	0,115
-551,627	63,254	0,040	-0,029
-550,612	155,973	-0,048	-0,047
-549,598	78,731	0,047	-0,036
-548,583	199,428	-0,138	-0,153
-547,569	-200,000	-0,003	0,034
-546,554	-200,000	0,018	0,094
-545,539	-22,971	-0,039	-0,017
-544,525	25,535	-0,075	-0,045
-543,510	144,393	0,040	0,039
-542,496	102,024	0,116	-0,098
-541,481	656,549	0,070	0,130
-540,466	-91,886	-0,121	0,025
-539,452	800,000	-0,046	-0,111
-538,437	-41,995	0,200	-0,074
-537,423	213,863	-0,040	0,045
-536,408	800,000	0,011	0,035
-535,393	248,689	0,083	0,101
-534,379	-153,774	-0,110	-0,005
-533,364	85,327	-0,045	0,036
-532,350	-127,668	0,101	0,010
-531,335	800,000	0,045	-0,102
-530,321	-55,141	0,120	-0,039
-529,306	121,598	-0,027	-0,025
-528,291	-63,243	0,070	0,021
-527,277	193,470	-0,072	-0,079
-526,262	800,000	0,048	-0,106
-525,248	57,738	0,032	0,022
-524,233	-118,921	0,111	-0,014
-523,218	71,139	0,116	-0,087
-522,204	-67,989	-0,135	0,038
-521,189	-200,000	-0,021	0,087
-520,175	341,133	0,097	-0,137
-519,160	237,906	0,047	0,056
-518,145	198,028	-0,076	0,084
-517,131	-144,067	0,070	0,005
-516,116	580,772	0,011	0,020
-515,102	33,628	-0,020	0,012
-514,087	-200,000	0,008	0,034
-513,072	800,000	0,048	0,103
-512,058	-200,000	-0,017	-0,089
-511,043	-200,000	-0,014	-0,074
-510,029	800,000	0,023	-0,047
-509,014	800,000	0,057	0,123
-507,999	-143,271	-0,047	0,003
-506,985	800,000	-0,013	-0,042
-505,970	689,584	-0,003	-0,006
-504,956	-30,211	-0,233	-0,095
-503,941	11,035	0,055	0,030
-502,926	53,767	0,095	-0,066
-501,912	327,806	-0,050	-0,069
-500,897	-58,470	0,115	-0,036
-499,883	10,215	-0,055	0,030
-498,868	-200,000	-0,007	-0,082
-497,853	39,653	-0,040	0,026
-496,839	-200,000	-0,007	0,035
-495,824	-34,228	-0,106	0,042
-494,810	48,096	-0,024	-0,016
-493,795	-200,000	0,006	0,051
-492,781	38,632	0,146	-0,094
-491,766	-114,835	0,066	0,009
-490,751	800,000	0,043	-0,134
-489,737	800,000	0,066	-0,159
-488,722	284,025	-0,054	0,070
-487,708	160,919	-0,018	-0,018
-486,693	-200,000	-0,019	0,138
-485,678	-200,000	0,002	-0,045
-484,664	732,487	-0,114	-0,221
-483,649	-122,893	0,089	-0,010
-482,635	41,956	-0,033	0,022
-481,620	800,000	0,024	-0,055
-480,605	-93,918	0,062	-0,012
-479,591	578,975	0,083	0,146
-478,576	-9,279	-0,056	-0,027
-477,562	-120,906	-0,128	-0,015
-476,547	338,945	-0,087	-0,123
-475,532	800,000	0,032	-0,076
-474,518	-51,930	0,123	0,041
-473,503	244,482	0,097	0,117
-472,489	800,000	-0,021	0,050
-471,474	10,520	-0,114	-0,062
-470,459	237,566	-0,057	0,068
-469,445	-200,000	-0,021	-0,071
-468,430	151,624	-0,059	-0,058
-467,416	-200,000	0,015	-0,119
-466,401	-6,237	0,029	-0,014
-465,386	353,706	0,101	0,145
-464,372	43,010	0,019	-0,013
-463,357	28,044	0,107	-0,065
-462,343	70,042	-0,045	0,033
-461,328	-200,000	-0,016	-0,087
-460,313	181,609	-0,061	0,065
-459,299	-200,000	-0,031	0,134
-458,284	1,850	0,165	0,085
-457,270	755,874	-0,008	-0,016
-456,255	276,377	0,047	-0,060
-455,241	-59,994	0,076	-0,023
-454,226	-200,000	0,002	0,029
-453,211	800,000	0,050	-0,118
-452,197	23,034	-0,090	0,053
-451,182	366,864	-0,032	-0,046
-450,168	213,237	0,111	0,126
-449,153	800,000	-0,047	-0,097
-448,138	204,878	-0,065	-0,073
-447,124	-103,212	-0,079	-0,013
-446,109	-200,000	0,002	0,044
-445,095	800,000	0,017	0,045
-444,080	-137,250	0,055	-0,004
-443,065	-51,628	-0,044	0,015
-442,051	1,515	0,057	-0,029
-441,036	800,000	-0,037	-0,075
-440,022	148,290	-0,105	-0,102
-439,007	438,612	-0,027	0,042
-437,992	-178,832	-0,041	0,001
-436,978	39,494	-0,014	0,009
-435,963	-200,000	0,026	0,177
-434,949	156,597	0,047	0,047
-433,934	-200,000	0,017	-0,057
-432,919	-125,444	-0,166	-0,018
-431,905	227,496	-0,045	-0,052
-430,890	-58,476	-0,029	-0,009
-429,876	-200,000	-0,017	0,059
-428,861	-200,000	-0,022	-0,097
-427,846	-30,131	0,077	0,031
-426,832	-200,000	0,013	0,066
-425,817	800,000	-0,013	0,040
-424,803	800,000	0,027	-0,059
-423,788	440,708	-0,048	0,075
-422,773	800,000	-0,050	0,099
-421,759	2,317	-0,139	0,072
-420,744	800,000	0,050	0,105
-419,730	-94,869	-0,228	0,044
-418,715	192,273	0,089	-0,097
-417,701	-200,000	-0,012	-0,100
-416,686	-200,000	0,001	-0,043
-415,671	-125,934	0,057	0,006
-414,657	-42,223	0,125	-0,046
-413,642	-200,000	0,005	0,059
-412,628	21,087	0,040	0,023
-411,613	800,000	0,044	-0,088
-410,598	-98,989	0,116	-0,021
-409,584	-200,000	-0,014	-0,049
-408,569	800,000	0,031	0,085
-407,555	30,348	-0,062	-0,038
-406,540	-76,194	-0,051	0,013
-405,525	-45,054	-0,038	-0,014
-404,511	-61,585	-0,141	-0,042
-403,496	125,503	-0,014	0,013
-402,482	305,376	0,075	-0,101
-401,467	-9,894	0,115	-0,055
-400,452	-116,472	-0,102	-0,013
-399,438	-200,000	0,045	0,151
-398,423	-200,000	0,008	-0,059
-397,409	651,594	-0,038	0,070
-396,394	-76,369	-0,063	0,016
-395,379	49,824	-0,091	-0,062
-394,365	800,000	0,055	-0,156
-393,350	-200,000	-0,025	-0,143
-392,336	95,603	-0,033	0,027
-391,321	-18,815	-0,085	0,038
-390,306	-111,965	-0,123	0,018
-389,292	-200,000	0,006	0,046
-388,277	39,727	0,042	-0,027
-387,263	-122,827	-0,079	-0,009
-386,248	102,175	0,100	-0,083
-385,233	-200,000	0,019	0,068
-384,219	-80,212	0,037	-0,009
-383,204	800,000	-0,058	-0,148
-382,190	-32,660	0,114	0,045
-381,175	778,125	-0,046	-0,090
-380,160	-104,673	0,037	-0,006
-379,146	485,637	0,028	-0,045
-378,131	-74,099	0,126	0,032
-377,117	-200,000	0,001	-0,006
-376,102	-200,000	-0,016	-0,120
-375,088	-106,314	-0,053	-0,008
-374,073	800,000	-0,024	0,063
-373,058	-80,308	0,093	0,022
-372,044	800,000	0,035	0,088
-371,029	-136,538	0,040	0,003
-370,015	616,651	0,029	-0,053
-369,000	266,987	-0,072	-0,090
-367,985	80,884	-0,100	-0,077
-366,971	800,000	-0,043	-0,130
-365,956	-200,000	-0,019	0,124
-364,942	-83,556	-0,047	0,011
-363,927	38,601	0,097	0,062
-362,912	-131,293	-0,113	-0,011
-361,898	-93,548	-0,166	0,033
-360,883	800,000	-0,052	-0,124
-359,869	800,000	-0,012	0,026
-358,854	405,030	0,140	0,211
-357,839	39,672	0,046	-0,030
-356,825	-26,996	-0,063	0,026
-355,810	-58,711	0,022	-0,007
-354,796	-39,379	-0,136	-0,051
-353,781	100,779	0,071	-0,059
-352,766	-78,787	-0,081	-0,020
-351,752	-200,000	-0,009	-0,059
-350,737	60,669	0,105	0,075
-349,723	-200,000	-0,014	0,166
-348,708	-85,040	0,148	0,033
-347,693	82,389	-0,011	-0,009
-346,679	-200,000	-0,020	-0,114
-345,664	800,000	-0,028	-0,073
-344,650	-200,000	-0,035	-0,129
-343,635	800,000	0,053	0,134
-342,620	800,000	-0,013	-0,033
-341,606	18,548	-0,102	0,058
-340,591	-90,018	0,080	0,017
-339,577	89,667	-0,046	0,036
-338,562	-7,211	-0,039	-0,019
-337,548	-61,248	0,156	0,047
-336,533	27,842	0,110	-0,066
-335,518	-200,000	0,001	0,135
-334,504	-148,396	0,168	-0,010
-333,489	157,621	0,027	0,027
-332,475	-200,000	0,012	-0,083
-331,460	-155,114	-0,055	-0,003
-330,445	800,000	0,021	-0,058
-329,431	62,581	0,139	0,099
-328,416	-200,000	0,001	0,087
-327,402	213,667	0,067	-0,075
-326,387	202,842	-0,058	0,064
-325,372	800,000	0,018	-0,044
-324,358	132,063	0,053	-0,049
-323,343	384,865	0,027	-0,041
-322,329	-24,323	0,061	0,026
-321,314	-200,000	0,001	0,118
-320,299	7,840	0,123	-0,066
-319,285	133,251	-0,037	-0,034
-318,270	376,792	-0,073	0,107
-317,256	-28,714	0,043	0,018
-316,241	800,000	-0,042	-0,089
-315,226	-1,062	0,020	-0,010
-314,212	-200,000	0,027	0,205
-313,197	-200,000	0,010	0,096
-312,183	249,444	0,044	0,053
-311,168	144,592	-0,010	0,009
-310,153	-200,000	-0,026	-0,162
-309,139	375,667	0,011	0,016
-308,124	130,898	-0,032	-0,030
-307,110	-122,718	0,103	-0,012
-306,095	-0,168	0,110	-0,056
-305,080	800,000	-0,036	0,074
-304,066	-110,848	0,021	-0,003
-303,051	-65,834	-0,126	0,036
-302,037	-200,000	0,002	-0,012
-301,022	-28,304	0,054	0,022
-300,008	-42,275	-0,131	0,048
-298,993	-143,759	0,207	0,014
-297,978	800,000	0,021	0,067
-296,964	6,020	0,036	0,019
-295,949	-104,092	0,017	0,003
-294,935	87,351	-0,086	-0,068
-293,920	237,567	0,131	-0,156
-292,905	-49,900	0,066	-0,022
-291,891	-200,000	0,018	-0,101
-290,876	-200,000	-0,013	0,063
-289,862	126,268	0,087	0,079
-288,847	-200,000	-0,015	0,051
-287,832	-142,720	0,062	0,004
-286,818	-200,000	0,024	0,112
-285,803	491,645	-0,069	0,113
-284,789	-110,660	-0,057	0,008
-283,774	443,055	0,084	0,132
-282,759	95,060	-0,058	0,047
-281,745	-200,000	0,004	-0,087
-280,730	383,252	-0,027	-0,040
-279,716	537,270	0,027	0,045
-278,701	-110,593	-0,013	0,002
-277,686	-66,229	0,056	-0,016
-276,672	-200,000	0,020	0,095
-275,657	579,719	0,028	-0,050
-274,643	-86,253	-0,047	-0,010
-273,628	800,000	0,023	0,051
-272,613	-200,000	-0,002	0,028
-271,599	-127,745	-0,125	0,013
-270,584	-62,168	0,200	-0,059
-269,570	175,056	-0,082	-0,085
-268,555	619,327	0,038	-0,068
-267,540	276,830	-0,134	-0,171
-266,526	532,350	0,028	0,047
-265,511	110,320	-0,125	-0,107
-264,497	-38,286	-0,108	0,040
-263,482	-82,148	0,147	-0,034
-262,467	-141,664	0,045	0,003
-261,453	-200,000	-0,002	0,114
-260,438	800,000	0,022	0,052
-259,424	-84,174	-0,080	-0,018
-258,409	800,000	0,048	0,107
-257,395	306,395	0,147	-0,195
-256,380	-29,041	0,029	0,012
-255,365	-67,546	0,084	-0,023
-254,351	-137,259	-0,034	0,003
-253,336	-1,232	0,122	-0,061
-252,322	4,301	-0,061	-0,032
-251,307	2,161	0,048	-0,025
-250,292	-198,772	-0,071	-0,000
-249,278	122,406	-0,068	0,061
-248,263	327,138	0,059	0,081
-247,249	-200,000	0,018	0,106
-246,234	-200,000	0,013	0,047
-245,219	116,032	0,061	-0,053
-244,205	800,000	0,015	0,031
-243,190	125,152	0,079	0,071
-242,176	-200,000	0,014	0,121
-241,161	298,217	0,099	0,130
-240,146	800,000	-0,044	-0,121
-239,132	-135,049	-0,061	0,005
-238,117	-68,879	-0,189	0,052
-237,103	-200,000	0,031	-0,121
-236,088	135,666	0,024	0,023
-235,073	171,626	-0,077	0,079
-234,059	202,958	-0,023	-0,026
-233,044	-141,992	-0,048	-0,003
-232,030	-24,323	0,105	-0,045
-231,015	345,613	-0,095	-0,134
-230,000	-200,000	-0,016	-0,109
-228,986	-4,427	-0,122	0,060
-227,971	241,457	0,011	-0,013
-226,957	-200,000	-0,021	0,077
-225,942	-200,000	0,026	0,111
-224,927	-200,000	0,006	0,118
-223,913	37,640	0,068	-0,043
-222,898	-11,721	0,092	-0,043
-221,884	-90,665	-0,065	-0,013
-220,869	-110,367	0,030	0,004
-219,855	85,541	-0,081	-0,064
-218,840	432,482	0,087	0,136
-217,825	800,000	-0,029	0,075
-216,811	98,399	-0,093	-0,076
-215,796	-200,000	-0,008	-0,092
-214,782	-19,118	0,039	0,017
-213,767	6,810	-0,035	-0,019
-212,752	800,000	0,072	0,204
-211,738	-200,000	0,011	0,129
-210,723	-96,803	0,125	-0,023
-209,709	-134,385	-0,119	-0,010
-208,694	-200,000	0,000	-0,061
-207,679	-200,000	0,005	0,025
-206,665	-200,000	-0,032	-0,108
-205,650	-78,266	0,062	0,015
-204,636	1,740	-0,068	-0,035
-203,621	62,068	0,089	-0,063
-202,606	800,000	0,017	-0,050
-201,592	24,128	-0,107	-0,063
-200,577	47,810	0,016	-0,010
-199,563	800,000	0,043	0,131
-198,548	54,457	0,067	-0,046
-197,533	-59,953	0,056	0,017
-196,519	-200,000	0,038	0,146
-195,504	9,550	-0,064	0,034
-194,490	792,139	0,039	-0,078
-193,475	541,975	0,016	0,028
-192,460	110,516	-0,101	0,087
-191,446	800,000	-0,037	0,086
-190,431	-180,515	0,038	0,001
-189,417	26,365	-0,097	-0,058
-188,402	100,161	-0,021	0,018
-187,387	421,421	-0,020	0,031
-186,373	162,750	0,091	0,091
-185,358	-158,026	0,120	-0,005
-184,344	108,633	-0,092	0,078
-183,329	-3,488	0,029	0,015
-182,315	-54,954	-0,126	-0,040
-181,300	-200,000	-0,001	-0,024
-180,285	239,223	-0,093	-0,111
-179,271	540,768	0,065	0,110
-178,256	-200,000	-0,004	0,053
-177,242	800,000	-0,064	0,146
-176,227	406,746	0,083	0,125
-175,212	800,000	0,045	0,109
-174,198	-200,000	0,002	0,149
-173,183	800,000	-0,048	-0,149
-172,169	-58,559	-0,050	-0,015
-171,154	-200,000	-0,056	-0,196
-170,139	549,764	0,037	0,064
-169,125	155,072	0,131	0,129
-168,110	-18,657	0,153	0,067
-167,096	619,942	-0,088	-0,157
-166,081	-200,000	-0,014	-0,115
-165,066	-152,906	-0,126	-0,006
-164,052	-13,846	0,079	-0,036
-163,037	597,630	0,040	-0,070
-162,023	-140,165	0,106	0,008
-161,008	32,362	-0,099	0,060
-159,993	-8,514	-0,062	-0,029
-158,979	800,000	-0,074	0,169
-157,964	-78,005	-0,074	0,018
-156,950	-200,000	-0,016	-0,102
-155,935	-175,445	0,160	0,003
-154,920	243,161	0,077	0,091
-153,906	-60,359	0,109	0,033
-152,891	-200,000	0,038	0,134
-151,877	227,412	-0,019	0,022
-150,862	800,000	-0,060	-0,167
-149,847	800,000	-0,053	0,113
-148,833	-200,000	-0,003	0,066
-147,818	423,863	0,035	-0,054
-146,804	272,157	0,108	0,136
-145,789	614,873	-0,023	-0,041
-144,775	-200,000	0,020	-0,106
-143,760	-65,548	-0,091	-0,026
-142,745	42,681	-0,100	-0,064
-141,731	-200,000	0,004	-0,025
-140,716	340,451	0,045	0,063
-139,702	411,729	0,056	-0,084
-138,687	740,642	0,084	0,160
-137,672	186,478	-0,058	0,062
-136,658	-200,000	-0,004	-0,046
-135,643	800,000	0,028	-0,076
-134,629	59,867	-0,026	0,018
-133,614	800,000	0,046	-0,100
-132,599	-104,874	0,124	-0,020
-131,585	-200,000	0,022	0,083
-130,570	84,882	0,043	-0,033
-129,556	-44,273	-0,141	0,050
-128,541	-200,000	0,014	-0,053
-127,526	-116,926	0,119	-0,015
-126,512	276,624	0,096	0,121
-125,497	800,000	0,027	0,070
-124,483	357,308	-0,029	-0,041
-123,468	-51,216	0,170	0,056
-122,453	160,938	-0,027	-0,026
-121,439	-120,794	-0,026	0,003
-120,424	-200,000	0,006	0,020
-119,410	-69,786	-0,083	-0,022
-118,395	-200,000	0,002	-0,144
-117,380	-200,000	0,013	-0,172
-116,366	800,000	-0,062	-0,122
-115,351	16,564	-0,050	0,028
-114,337	800,000	0,046	-0,098
-113,322	-100,506	-0,043	0,007
-112,307	-97,863	-0,125	-0,023
-111,293	-43,917	0,212	0,075
-110,278	800,000	-0,023	0,054
-109,264	-200,000	-0,005	-0,116
-108,249	153,986	0,069	-0,067
-107,234	-23,302	-0,041	-0,017
-106,220	-200,000	0,002	0,008
-105,205	-121,627	-0,087	-0,010
-104,191	-200,000	-0,010	-0,123
-103,176	11,042	0,077	0,041
-102,162	35,221	0,049	-0,030
-101,147	-200,000	0,010	-0,093
-100,132	-71,577	-0,052	0,014
-99,118	49,981	-0,122	0,082
-98,103	-200,000	0,019	-0,191
-97,089	800,000	0,043	0,096
-96,074	9,353	0,100	0,053
-95,059	-200,000	0,011	0,041
-94,045	-74,791	0,023	0,006
-93,030	800,000	-0,055	-0,168
-92,016	800,000	0,027	-0,058
-91,001	-200,000	0,002	0,055
-89,986	800,000	0,033	0,070
-88,972	800,000	0,067	0,200
-87,957	-33,141	-0,035	0,014
-86,943	400,751	0,056	0,083
-85,928	-136,406	-0,106	-0,009
-84,913	348,688	-0,072	-0,101
-83,899	-200,000	0,026	-0,099
-82,884	-49,411	0,050	0,017
-81,870	800,000	0,061	-0,137
-80,855	-142,021	0,177	0,012
-79,840	88,982	-0,030	-0,023
-78,826	-57,534	0,127	-0,039
-77,811	-119,691	-0,134	-0,016
-76,797	-108,591	-0,094	0,014
-75,782	-123,598	-0,086	0,010
-74,767	98,846	0,124	0,102
-73,753	-91,036	-0,111	0,022
-72,738	199,173	-0,052	0,056
-71,724	-200,000	-0,008	-0,053
-70,709	-200,000	-0,006	-0,104
-69,694	-200,000	0,005	0,025
-68,680	800,000	-0,014	0,028
-67,665	800,000	-0,040	0,089
-66,651	800,000	0,017	0,037
-65,636	800,000	0,070	-0,170
-64,622	-107,809	-0,127	-0,019
-63,607	184,331	-0,037	-0,039
-62,592	42,303	-0,191	0,122
-61,578	-200,000	0,148	0,000
-60,563	222,477	-0,047	0,054
-59,549	178,387	-0,087	0,090
-58,534	16,896	-1,665	-0,931
-57,519	328,398	-1,444	-1,969
-56,505	-200,000	-0,610	-4,566
-55,490	232,291	0,945	1,100
-54,476	800,000	5,131	11,582
-53,461	-200,000	19,351	320,128
-52,446	-200,000	740,878	2334,105
-51,432	573,281	1655,576	2868,596
-50,417	78,237	1671,279	1261,566
-49,403	21,335	1544,044	885,704
-48,388	15,175	1466,536	811,288
-47,373	17,867	1456,841	818,901
-46,359	16,668	1446,581	807,355
-45,344	13,396	1442,034	789,110
-44,330	13,346	1439,972	787,711
-43,315	13,341	1438,461	786,829
-42,300	13,344	1436,670	785,831
-41,286	13,409	1435,234	785,326
-40,271	13,348	1434,134	784,402
-39,257	13,326	1432,814	783,543
-38,242	13,411	1431,429	783,161
-37,227	13,351	1430,440	782,303
-36,213	13,377	1429,040	781,629
-35,198	13,381	1427,736	780,903
-34,184	13,405	1426,930	780,548
-33,169	13,369	1425,393	779,505
-32,154	13,429	1424,380	779,204
-31,140	13,436	1423,026	778,467
-30,125	13,418	1422,119	777,851
-29,111	13,391	1420,961	777,060
-28,096	13,368	1419,881	776,333
-27,082	13,326	1418,567	775,386
-26,067	13,339	1417,575	774,875
-25,052	13,317	1416,509	774,155
-24,038	13,289	1415,684	773,542
-23,023	13,270	1414,535	772,796
-22,009	13,342	1413,403	772,484
-20,994	13,296	1412,577	771,787
-19,979	13,280	1411,653	771,175
-18,965	13,272	1410,876	770,681
-17,950	13,303	1409,952	770,292
-16,936	13,260	1408,917	769,497
-15,921	13,247	1407,800	768,795
-14,906	13,267	1406,898	768,364
-13,892	13,305	1405,892	767,962
-12,877	13,229	1405,210	767,203
-11,863	13,220	1404,185	766,571
-10,848	13,205	1403,348	766,015
-9,833	13,193	1402,524	765,476
-8,819	13,162	1401,706	764,858
-7,804	13,176	1400,659	764,318
-6,790	13,142	1399,813	763,671
-5,775	13,130	1398,801	763,030
-4,760	13,126	1397,748	762,411
-3,746	13,119	1396,889	761,879
-2,731	13,127	1395,792	761,284
-1,717	13,115	1395,156	760,855
-0,702	13,091	1393,232	759,661
0,313	17,013	1309,917	732,377
1,327	33,187	703,775	430,858
2,342	51,329	123,190	82,604
3,356	3,440	16,645	8,551
4,371	-1,367	3,333	1,658
5,386	-24,395	0,653	0,274
6,400	-200,000	0,030	0,239
7,415	190,717	-0,194	-0,207
8,429	-12,821	-0,339	-0,156
9,444	53,817	-0,362	-0,245
10,459	6,511	-0,350	-0,183
11,473	83,106	-0,327	-0,251
12,488	-55,988	-0,259	-0,081
13,502	69,769	-0,305	-0,222
14,517	-13,353	-0,391	-0,178
15,531	156,362	-0,326	-0,318
16,546	-47,535	-0,358	-0,122
17,561	107,647	-0,362	-0,305
18,575	438,303	-0,063	-0,097
19,590	160,740	-0,169	-0,167
20,604	-89,987	-0,241	-0,049
21,619	0,601	-0,471	-0,237
22,634	67,888	-0,489	-0,353
23,648	-43,092	-0,502	-0,179
24,663	117,323	-0,453	-0,393
25,677	149,555	-0,323	-0,309
26,692	-94,276	-0,359	-0,069
27,707	-70,784	-0,437	-0,116
28,721	52,828	-0,366	-0,247
29,736	84,975	-0,492	-0,380
30,750	4,100	-0,476	-0,245
31,765	145,030	-0,314	-0,296
32,780	37,674	-0,364	-0,227
33,794	-26,402	-0,360	-0,148
34,809	119,196	-0,318	-0,278
35,823	74,398	-0,396	-0,293
36,838	117,378	-0,425	-0,368
37,853	800,000	-0,216	-0,479
38,867	106,981	-0,387	-0,324
39,882	206,799	-0,347	-0,382
40,896	41,839	-0,359	-0,229
41,911	126,412	-0,350	-0,312
42,926	-61,870	-0,391	-0,115
43,940	143,722	-0,340	-0,320
44,955	16,166	-0,439	-0,243
45,969	126,164	-0,310	-0,277
46,984	148,946	-0,317	-0,302
47,999	84,895	-0,331	-0,256
49,013	124,170	-0,268	-0,237
50,028	141,036	-0,322	-0,300
51,042	-25,672	-0,410	-0,170
52,057	93,506	-0,290	-0,231
53,071	254,852	-0,320	-0,386
54,086	88,790	-0,429	-0,336
55,101	319,682	-0,223	-0,299
56,115	37,656	-0,330	-0,206
57,130	1,502	-0,341	-0,172
58,144	178,029	-0,372	-0,382
59,159	69,122	-0,354	-0,256
60,174	93,443	-0,448	-0,356
61,188	0,065	-0,164	-0,082
62,203	57,935	-0,279	-0,192
63,217	-2,578	-0,330	-0,162
64,232	76,448	-0,281	-0,209
65,247	28,191	-0,403	-0,239
66,261	14,130	-0,433	-0,236
67,276	72,471	-0,551	-0,404
68,290	86,755	-0,322	-0,250
69,305	231,599	-0,223	-0,258
70,320	117,040	-0,318	-0,275
71,334	67,136	-0,294	-0,210
72,349	147,177	-0,261	-0,247
73,363	116,209	-0,339	-0,292
74,378	332,142	-0,246	-0,334
75,393	-55,253	-0,356	-0,112
76,407	146,982	-0,266	-0,251
77,422	-27,163	-0,303	-0,123
78,436	18,284	-0,449	-0,251
79,451	-8,172	-0,366	-0,173
80,466	187,529	-0,327	-0,344
81,480	138,456	-0,337	-0,311
82,495	-56,479	-0,408	-0,126
83,509	21,233	-0,299	-0,170
84,524	49,662	-0,266	-0,175
85,539	-34,394	-0,373	-0,143
86,553	14,918	-0,299	-0,164
87,568	-1,513	-0,301	-0,149
88,582	42,607	-0,193	-0,123
89,597	74,302	-0,248	-0,183
90,611	374,092	-0,169	-0,242
91,626	-19,569	-0,280	-0,121
92,641	-134,642	-0,227	-0,019
93,655	279,254	-0,187	-0,235
94,670	-38,072	-0,223	-0,083
95,684	149,863	-0,254	-0,241
96,699	31,628	-0,233	-0,140
97,714	-43,172	-0,226	-0,080
98,728	2,122	-0,177	-0,089
99,743	135,465	-0,241	-0,220
100,757	-38,462	-0,304	-0,112
101,772	-18,188	-0,266	-0,116
102,787	70,316	-0,279	-0,202
103,801	125,853	-0,258	-0,228
104,816	-134,161	-0,217	-0,019
105,830	-95,454	-0,217	0,041
106,845	50,666	-0,367	-0,243
107,860	46,819	-0,355	-0,230
108,874	56,186	-0,221	-0,150
109,889	76,643	-0,285	-0,211
110,903	54,620	-0,251	-0,170
111,918	136,663	-0,242	-0,222
112,933	-71,118	-0,267	-0,070
113,947	21,645	-0,332	-0,189
114,962	70,447	-0,387	-0,280
115,976	77,802	-0,228	-0,170
116,991	-3,898	-0,241	-0,117
118,006	193,124	-0,266	-0,282
119,020	114,438	-0,305	-0,260
120,035	800,000	-0,135	-0,417
121,049	-103,279	-0,275	-0,045
122,064	12,682	-0,271	-0,146
123,079	108,769	-0,250	-0,209
124,093	-12,884	-0,254	-0,115
125,108	129,835	-0,292	-0,262
126,122	342,450	-0,208	-0,285
127,137	56,711	-0,229	-0,155
128,151	352,679	-0,093	-0,130
129,166	-15,087	-0,387	-0,173
130,181	25,434	-0,159	-0,092
131,195	502,771	-0,235	-0,381
132,210	216,197	-0,170	-0,189
133,224	129,333	-0,254	-0,226
134,239	340,138	-0,159	-0,217
135,254	226,183	-0,195	-0,221
136,268	18,980	-0,238	-0,133
137,283	239,614	-0,187	-0,218
138,297	133,203	-0,229	-0,206
139,312	-16,660	-0,230	-0,101
140,327	-82,736	-0,310	-0,070
141,341	75,236	-0,225	-0,166
142,356	-95,150	-0,176	0,033
143,370	-72,614	-0,320	-0,082
144,385	-7,654	-0,296	-0,139
145,400	73,518	-0,202	-0,148
146,414	168,981	-0,276	-0,275
147,429	-45,079	-0,159	-0,055
148,443	-42,995	-0,317	-0,112
149,458	-13,197	-0,234	-0,106
150,473	-13,050	-0,225	-0,102
151,487	-24,104	-0,349	-0,145
152,502	233,704	-0,194	-0,224
153,516	264,186	-0,221	-0,269
154,531	133,622	-0,194	-0,175
155,546	129,291	-0,270	-0,241
156,560	-104,844	-0,393	-0,062
157,575	-53,378	-0,240	-0,076
158,589	104,494	-0,132	-0,108
159,604	-111,594	-0,245	0,034
160,619	260,463	-0,181	-0,219
161,633	168,911	-0,238	-0,236
162,648	234,283	-0,170	-0,196
163,662	143,979	-0,182	-0,169
164,677	-47,889	-0,196	-0,066
165,692	116,161	-0,240	-0,205
166,706	79,897	-0,241	-0,181
167,721	8,020	-0,313	-0,163
168,735	800,000	-0,111	-0,235
169,750	608,028	-0,181	-0,316
170,764	243,810	-0,161	-0,188
171,779	65,417	-0,285	-0,201
172,794	-70,352	-0,263	-0,069
173,808	800,000	-0,108	-0,221
174,823	-0,934	-0,303	-0,149
175,837	800,000	-0,143	-0,299
176,852	369,847	-0,248	-0,350
177,867	294,800	-0,215	-0,275
178,881	251,591	-0,210	-0,249
179,896	-200,000	-0,050	-0,227
180,910	98,536	-0,273	-0,219
181,925	800,000	-0,171	-0,363
182,940	167,328	-0,230	-0,228
183,954	582,933	-0,157	-0,270
184,969	201,162	-0,214	-0,229
185,983	465,451	-0,127	-0,198
186,998	284,564	-0,075	-0,094
188,013	261,175	-0,137	-0,165
189,027	66,063	-0,232	-0,163
190,042	169,140	-0,269	-0,267
191,056	-47,864	-0,270	-0,090
192,071	519,037	-0,162	-0,264
193,086	321,005	-0,147	-0,195
194,100	-18,443	-0,224	0,097
195,115	40,620	-0,169	-0,106
196,129	183,247	-0,206	-0,212
197,144	426,484	-0,162	-0,243
198,159	507,480	-0,167	-0,270
199,173	-200,000	-0,049	-0,229
200,188	67,048	-0,227	-0,161
201,202	112,059	-0,057	-0,048
202,217	105,023	-0,221	-0,181
203,232	142,930	-0,222	-0,205
204,246	56,276	-0,247	-0,167
205,261	800,000	-0,071	-0,171
206,275	62,812	-0,224	-0,155
207,290	-68,264	-0,142	-0,038
208,304	-4,500	-0,223	-0,107
209,319	-90,778	-0,262	0,052
210,334	174,348	-0,182	-0,183
211,348	92,727	-0,278	-0,218
212,363	156,906	-0,284	-0,273
213,377	86,023	-0,173	-0,132
214,392	53,284	-0,141	-0,093
215,407	145,858	-0,215	-0,200
216,421	169,787	-0,191	-0,190
217,436	-67,554	-0,100	0,027
218,450	-64,044	-0,178	-0,050
219,465	800,000	-0,075	-0,169
220,480	252,849	-0,221	-0,262
221,494	44,920	-0,260	-0,166
222,509	-52,978	0,028	-0,009
223,523	-200,000	-0,082	-0,276
224,538	277,636	-0,124	-0,154
225,553	176,799	-0,228	-0,231
226,567	132,922	-0,096	-0,086
227,582	98,446	-0,156	-0,125
228,596	406,697	-0,091	-0,134
229,611	125,480	-0,180	-0,158
230,626	-12,635	-0,147	-0,066
231,640	-23,601	-0,232	-0,096
232,655	82,900	-0,267	-0,201
233,669	137,795	-0,186	-0,169
234,684	225,547	-0,188	-0,211
235,699	64,640	-0,135	-0,094
236,713	86,334	-0,199	-0,151
237,728	227,650	-0,165	-0,186
238,742	-65,416	-0,095	-0,026
239,757	3,482	-0,318	-0,160
240,772	613,924	-0,188	-0,327
241,786	800,000	-0,075	-0,171
242,801	-41,442	-0,217	-0,077
243,815	800,000	-0,017	-0,044
244,830	-29,279	-0,150	-0,059
245,844	-0,505	-0,123	-0,060
246,859	486,026	-0,141	-0,223
247,874	173,858	-0,165	-0,165
248,888	-57,644	-0,244	-0,074
249,903	538,299	-0,107	-0,176
250,917	103,333	-0,144	-0,117
251,932	4,771	-0,248	-0,126
252,947	207,863	-0,096	-0,103
253,961	-10,455	-0,215	-0,098
254,976	68,756	-0,211	-0,149
255,990	63,054	-0,272	-0,188
257,005	641,447	-0,147	-0,261
258,020	104,883	-0,050	0,041
259,034	141,544	-0,025	0,023
260,049	0,780	-0,173	-0,085
261,063	327,742	-0,188	-0,251
262,078	800,000	-0,041	-0,117
263,093	-0,770	-0,084	-0,041
264,107	-93,898	-0,228	-0,043
265,122	800,000	-0,082	-0,162
266,136	765,067	-0,099	-0,186
267,151	77,125	-0,189	-0,138
268,166	105,931	-0,246	-0,201
269,180	167,693	-0,159	-0,157
270,195	360,389	-0,101	-0,140
271,209	33,326	-0,092	-0,055
272,224	-35,154	-0,278	-0,104
273,239	-21,645	-0,251	-0,105
274,253	221,771	-0,135	-0,150
275,268	13,924	-0,048	-0,026
276,282	30,476	-0,280	-0,165
277,297	213,389	-0,207	-0,226
278,312	3,503	-0,126	-0,063
279,326	449,505	-0,097	-0,148
280,341	-104,792	-0,157	-0,025
281,355	65,302	-0,179	-0,124
282,370	4,306	-0,154	-0,078
283,384	508,683	-0,122	-0,196
284,399	-27,169	-0,157	-0,063
285,414	137,822	-0,163	-0,148
286,428	661,281	-0,117	-0,208
287,443	316,811	-0,091	-0,118
288,457	125,511	-0,079	-0,069
289,472	13,975	-0,205	-0,110
290,487	26,186	-0,224	-0,129
291,501	-46,660	-0,253	0,085
292,516	44,082	-0,178	-0,113
293,530	432,959	-0,099	-0,148
294,545	-15,056	-0,112	-0,049
295,560	-17,954	-0,197	-0,085
296,574	-73,892	-0,126	-0,031
297,589	-117,558	-0,159	-0,020
298,603	-46,937	-0,223	-0,075
299,618	91,211	-0,075	-0,058
300,633	-200,000	-0,027	-0,134
301,647	69,456	-0,084	-0,059
302,662	138,587	-0,103	-0,093
303,676	800,000	-0,096	-0,193
304,691	738,420	-0,123	-0,229
305,706	149,213	-0,202	-0,189
306,720	-141,629	-0,190	-0,013
307,735	-83,415	-0,250	-0,055
308,749	-12,334	-0,090	-0,040
309,764	-181,297	-0,110	0,001
310,779	74,325	-0,099	-0,072
311,793	800,000	-0,046	-0,100
312,808	800,000	-0,047	-0,106
313,822	169,939	-0,152	-0,149
314,837	373,450	-0,154	-0,216
315,852	-200,000	-0,027	-0,119
316,866	737,876	-0,053	-0,099
317,881	150,421	-0,042	-0,039
318,895	79,074	-0,135	-0,099
319,910	-12,473	-0,164	-0,073
320,925	-26,778	-0,200	-0,080
321,939	-200,000	0,008	-0,196
322,954	29,409	-0,088	-0,051
323,968	138,857	-0,136	-0,123
324,983	8,525	-0,106	-0,055
325,997	363,685	-0,149	-0,207
327,012	86,885	-0,344	-0,261
328,027	23,298	-0,203	-0,115
329,041	34,693	-0,199	-0,119
330,056	800,000	0,050	-0,118
331,070	-16,798	-0,157	-0,068
332,085	360,970	-0,063	-0,086
333,100	-131,817	-0,102	-0,009
334,114	800,000	-0,063	-0,170
335,129	-85,859	-0,327	-0,069
336,143	3,873	-0,119	-0,060
337,158	59,652	-0,100	-0,067
338,173	-200,000	-0,043	-0,203
339,187	80,466	-0,169	-0,125
340,202	17,287	-0,182	-0,099
341,216	227,988	-0,130	-0,145
342,231	800,000	-0,091	-0,176
343,246	49,233	-0,132	-0,085
344,260	50,646	-0,109	-0,071
345,275	800,000	-0,053	-0,115
346,289	93,752	-0,082	0,064
347,304	2,196	-0,192	-0,095
348,319	800,000	-0,022	-0,055
349,333	486,997	-0,080	-0,126
350,348	553,018	-0,186	-0,307
351,362	359,272	-0,084	-0,115
352,377	-42,954	-0,020	0,007
353,392	-116,182	-0,126	0,016
354,406	-80,655	-0,165	-0,037
355,421	209,618	1313,117	1413,556
356,435	161,332	1473,657	1414,037
