DTS Sentinel unit serial number:	SN410029Multiplexer serial number:	ORYXHardware model number:	OX2-SRSoftware version number:	ORYX F/W v4,00 Oryx Data Collector v3.7.2.0data status	okinstallation	B3 Nyhavnadifferential loss correction	single-endedforward channel	channel 1reverse channel	N/Adate	2023/12/04time	08:42:30forward acquisition time	300,00reverse acquisition time	0,00gamma	499,1914k internal	0,3204k external	0,3204temperature offset calibration	1,0000default loss term (dB/km)	0,3820temperature slope calibration	1,0000multiplexer offset coefficient	1,0000multiplexer slope coefficient	1,0000fibre end	0,00T internal ref (°C)	12,82T ext. ref 1 (°C)	-1,51T ext. ref 2 (°C)	-1,54length (m)	temperature (°C)	Stokes	anti-Stokes-744,400	91,923	-0,209	-0,171
-743,385	-200,000	-0,030	0,303
-742,371	29,119	-0,227	-0,140
-741,356	-200,000	0,003	0,251
-740,342	81,693	-0,165	-0,130
-739,327	597,612	0,110	0,200
-738,312	539,147	-0,132	-0,229
-737,298	-200,000	-0,040	0,210
-736,283	800,000	-0,100	-0,214
-735,269	-200,000	-0,095	0,501
-734,254	145,423	-0,181	-0,176
-733,239	12,784	-0,322	0,180
-732,225	120,278	-0,080	-0,072
-731,210	-152,763	0,182	0,009
-730,196	340,855	-0,019	0,027
-729,181	-200,000	0,009	0,030
-728,167	-17,932	-0,104	0,047
-727,152	800,000	-0,010	-0,031
-726,137	17,869	0,012	-0,007
-725,123	-11,372	0,028	-0,013
-724,108	0,053	-0,204	-0,105
-723,094	-123,555	-0,129	0,015
-722,079	-27,389	-0,066	-0,028
-721,064	8,457	-0,092	-0,050
-720,050	800,000	-0,045	-0,136
-719,035	269,276	0,030	0,038
-718,021	426,423	0,033	0,052
-717,006	-96,115	-0,185	-0,035
-715,991	-200,000	-0,022	0,069
-714,977	-200,000	-0,006	-0,125
-713,962	62,524	-0,021	-0,015
-712,948	-62,658	0,032	-0,010
-711,933	-86,712	-0,089	0,020
-710,918	237,418	0,040	0,048
-709,904	-149,947	-0,069	0,004
-708,889	-200,000	-0,011	-0,058
-707,875	800,000	0,028	-0,077
-706,860	-200,000	-0,002	0,046
-705,845	-103,429	0,059	0,010
-704,831	-200,000	0,016	0,147
-703,816	396,285	0,039	-0,059
-702,802	61,706	-0,082	-0,059
-701,787	800,000	0,031	-0,084
-700,772	-112,053	-0,092	-0,013
-699,758	-134,172	-0,263	-0,023
-698,743	-200,000	0,018	-0,070
-697,729	-180,607	0,041	0,001
-696,714	-200,000	-0,030	-0,104
-695,699	-0,508	-0,109	-0,056
-694,685	-157,464	-0,163	0,007
-693,670	355,640	-0,059	0,086
-692,656	-200,000	0,017	0,136
-691,641	800,000	0,028	-0,081
-690,627	219,949	0,077	0,089
-689,612	-83,383	-0,009	0,002
-688,597	-186,730	-0,103	-0,001
-687,583	562,233	-0,053	0,093
-686,568	-200,000	-0,000	0,023
-685,554	-24,668	-0,078	0,033
-684,539	135,739	0,077	0,073
-683,524	86,741	0,068	0,054
-682,510	800,000	0,023	0,060
-681,495	-200,000	0,019	0,076
-680,481	-200,000	-0,004	-0,050
-679,466	800,000	-0,034	-0,072
-678,451	153,669	-0,056	-0,056
-677,437	78,140	-0,083	0,064
-676,422	-46,148	0,049	-0,017
-675,408	-200,000	-0,005	0,081
-674,393	318,236	0,026	-0,036
-673,378	280,355	-0,049	-0,063
-672,364	800,000	0,059	-0,131
-671,349	546,342	-0,055	-0,096
-670,335	800,000	-0,037	-0,083
-669,320	-200,000	-0,003	0,015
-668,305	-70,352	0,041	0,011
-667,291	800,000	0,023	-0,052
-666,276	800,000	-0,044	-0,092
-665,262	-200,000	-0,011	-0,041
-664,247	274,034	-0,047	0,060
-663,232	-84,310	0,057	0,013
-662,218	672,450	0,068	0,129
-661,203	800,000	-0,058	-0,118
-660,189	342,322	-0,028	0,039
-659,174	-200,000	0,011	-0,115
-658,159	-200,000	-0,002	0,062
-657,145	140,684	-0,105	-0,101
-656,130	712,329	0,053	-0,102
-655,116	-116,567	-0,145	0,019
-654,101	-130,124	0,118	0,012
-653,086	194,040	-0,050	0,054
-652,072	800,000	-0,043	0,103
-651,057	-155,922	-0,121	-0,005
-650,043	29,376	-0,117	0,072
-649,028	800,000	-0,006	0,013
-648,014	478,461	-0,061	-0,101
-646,999	-200,000	0,001	-0,020
-645,984	273,416	0,030	-0,038
-644,970	-2,801	-0,032	0,016
-643,955	-200,000	0,023	-0,204
-642,941	-200,000	-0,019	-0,208
-641,926	85,988	0,003	0,002
-640,911	800,000	0,021	0,061
-639,897	112,116	-0,012	-0,011
-638,882	-200,000	0,025	0,085
-637,868	-99,571	-0,086	-0,015
-636,853	34,430	0,117	-0,074
-635,838	20,325	-0,100	-0,058
-634,824	-82,383	-0,205	-0,048
-633,809	159,234	-0,057	0,058
-632,795	-200,000	-0,030	0,131
-631,780	800,000	-0,022	0,053
-630,765	161,091	0,045	-0,045
-629,751	202,361	-0,099	-0,110
-628,736	711,688	-0,035	0,067
-627,722	357,533	0,075	-0,108
-626,707	35,272	-0,092	0,058
-625,692	235,356	0,051	0,061
-624,678	-200,000	0,014	0,153
-623,663	169,825	0,085	-0,088
-622,649	-15,464	-0,064	-0,030
-621,634	-102,196	-0,156	-0,027
-620,619	-93,229	0,061	0,012
-619,605	-76,950	0,027	0,007
-618,590	-24,800	-0,049	-0,021
-617,576	-200,000	-0,005	-0,064
-616,561	185,863	-0,114	-0,122
-615,546	-200,000	0,001	-0,010
-614,532	-200,000	-0,003	-0,025
-613,517	-33,524	-0,079	0,032
-612,503	-44,632	0,142	-0,051
-611,488	800,000	-0,052	0,111
-610,474	758,220	-0,054	-0,105
-609,459	-89,711	-0,036	-0,008
-608,444	-93,820	-0,144	0,028
-607,430	273,321	-0,023	-0,030
-606,415	-26,102	-0,150	-0,064
-605,401	-2,090	-0,155	-0,078
-604,386	717,711	0,060	0,115
-603,371	-189,275	0,072	-0,001
-602,357	462,698	-0,039	-0,063
-601,342	-57,061	-0,096	-0,030
-600,328	-58,836	0,046	0,014
-599,313	800,000	0,061	-0,125
-598,298	-44,769	-0,079	-0,028
-597,284	59,170	0,154	-0,110
-596,269	-200,000	0,011	-0,042
-595,255	800,000	-0,037	0,098
-594,240	-200,000	0,032	0,109
-593,225	-147,805	-0,148	0,009
-592,211	-200,000	-0,010	-0,071
-591,196	113,192	-0,054	0,048
-590,182	-200,000	0,001	-0,047
-589,167	-200,000	0,004	-0,039
-588,152	-69,602	0,029	0,008
-587,138	38,477	0,069	-0,044
-586,123	800,000	-0,060	-0,152
-585,109	523,071	0,019	-0,032
-584,094	-108,976	-0,099	-0,015
-583,079	609,436	0,077	-0,139
-582,065	48,732	0,146	-0,099
-581,050	-81,573	-0,209	0,049
-580,036	334,624	-0,101	0,142
-579,021	-200,000	0,014	-0,071
-578,006	-88,134	-0,092	-0,020
-576,992	240,539	-0,110	0,132
-575,977	-140,266	0,134	0,010
-574,963	-132,697	-0,029	-0,003
-573,948	800,000	0,057	0,113
-572,934	38,106	0,052	0,033
-571,919	-127,680	-0,131	-0,013
-570,904	-200,000	0,014	0,087
-569,890	-200,000	0,021	0,105
-568,875	-81,771	0,080	-0,019
-567,861	148,538	-0,123	-0,120
-566,846	800,000	0,027	0,076
-565,831	-174,572	-0,137	0,003
-564,817	-68,817	-0,093	0,026
-563,802	224,737	0,053	-0,062
-562,788	-200,000	0,009	0,054
-561,773	130,983	-0,044	-0,041
-560,758	450,910	0,041	-0,066
-559,744	-61,171	-0,029	-0,009
-558,729	286,855	0,079	-0,103
-557,715	-200,000	-0,013	-0,252
-556,700	268,750	-0,109	-0,138
-555,685	-200,000	0,009	-0,057
-554,671	-186,045	-0,016	-0,000
-553,656	144,483	0,141	0,135
-552,642	-200,000	-0,010	-0,061
-551,627	800,000	0,068	0,182
-550,612	-51,156	-0,036	0,012
-549,598	466,906	-0,041	-0,066
-548,583	127,835	-0,087	-0,080
-547,569	800,000	0,044	0,119
-546,554	-200,000	0,000	0,146
-545,539	-126,204	-0,180	0,019
-544,525	-34,796	-0,087	0,034
-543,510	122,674	-0,015	-0,014
-542,496	-101,794	-0,253	-0,044
-541,481	-200,000	-0,031	0,151
-540,466	-200,000	-0,007	0,071
-539,452	130,820	-0,063	-0,058
-538,437	-78,992	0,184	-0,045
-537,423	-101,255	-0,053	-0,009
-536,408	212,798	-0,056	-0,063
-535,393	800,000	-0,037	-0,115
-534,379	-75,639	-0,092	-0,023
-533,364	-2,199	0,145	0,073
-532,350	12,188	0,145	-0,080
-531,335	-200,000	0,025	0,098
-530,321	-200,000	0,016	0,070
-529,306	68,136	-0,089	-0,066
-528,291	-55,519	-0,033	-0,011
-527,277	800,000	-0,020	0,054
-526,262	405,651	-0,062	-0,095
-525,248	800,000	0,022	-0,048
-524,233	-200,000	0,018	-0,084
-523,218	-200,000	-0,012	-0,138
-522,204	-20,955	-0,064	0,028
-521,189	-200,000	-0,001	-0,090
-520,175	-200,000	-0,018	0,061
-519,160	-77,767	-0,071	0,017
-518,145	317,141	-0,042	0,058
-517,131	-200,000	0,012	-0,101
-516,116	-70,308	-0,044	0,012
-515,102	-137,164	-0,146	0,012
-514,087	142,030	0,138	-0,132
-513,072	142,028	-0,082	-0,078
-512,058	-200,000	-0,010	0,038
-511,043	-28,892	0,031	0,013
-510,029	107,193	-0,133	0,114
-509,014	19,383	0,114	0,066
-507,999	136,394	0,037	-0,035
-506,985	347,577	-0,106	-0,151
-505,970	76,237	0,047	-0,036
-504,956	-200,000	0,004	0,089
-503,941	58,583	0,084	0,059
-502,926	379,768	0,138	0,204
-501,912	-75,863	-0,063	0,016
-500,897	296,848	-0,034	-0,045
-499,883	658,423	-0,105	-0,195
-498,868	225,612	0,056	0,066
-497,853	593,936	0,059	-0,105
-496,839	-85,752	0,061	0,014
-495,824	500,586	0,057	-0,095
-494,810	389,372	-0,077	-0,116
-493,795	-200,000	-0,003	0,060
-492,781	-200,000	0,031	0,116
-491,766	83,650	0,093	-0,073
-490,751	-200,000	-0,031	-0,139
-489,737	-27,141	0,086	0,036
-488,722	-19,140	0,066	0,029
-487,708	800,000	0,075	0,158
-486,693	102,266	0,071	0,060
-485,678	147,240	-0,042	-0,041
-484,664	73,484	0,058	-0,044
-483,649	800,000	-0,029	-0,088
-482,635	-111,842	0,112	-0,016
-481,620	56,689	0,061	0,043
-480,605	1,486	0,039	-0,020
-479,591	800,000	0,065	0,143
-478,576	800,000	-0,042	-0,097
-477,562	10,633	-0,064	0,035
-476,547	-200,000	0,009	-0,035
-475,532	10,215	-0,017	0,009
-474,518	-155,728	0,085	-0,004
-473,503	65,168	-0,110	0,080
-472,489	-176,911	-0,039	0,001
-471,474	-70,060	-0,131	-0,035
-470,459	451,838	0,038	0,060
-469,445	-100,283	-0,020	0,004
-468,430	-108,471	-0,155	0,024
-467,416	-173,744	0,132	0,003
-466,401	120,235	0,047	0,042
-465,386	70,353	0,095	0,070
-464,372	-64,874	0,091	-0,026
-463,357	-167,054	-0,062	-0,002
-462,343	257,072	-0,080	0,099
-461,328	208,404	-0,037	-0,041
-460,313	-163,636	0,125	0,004
-459,299	778,938	-0,025	-0,050
-458,284	46,525	-0,128	0,085
-457,270	168,856	0,039	0,040
-456,255	-200,000	0,027	0,108
-455,241	95,693	-0,116	0,095
-454,226	800,000	0,032	-0,069
-453,211	-200,000	0,052	-0,210
-452,197	-131,092	0,095	0,009
-451,182	-200,000	-0,025	0,088
-450,168	800,000	0,007	-0,020
-449,153	153,753	-0,045	-0,045
-448,138	-200,000	0,029	0,103
-447,124	-180,644	-0,131	0,002
-446,109	30,183	0,110	-0,068
-445,095	-200,000	0,016	0,097
-444,080	96,983	0,026	-0,022
-443,065	220,085	0,026	0,030
-442,051	97,161	-0,031	-0,026
-441,036	136,333	-0,071	-0,066
-440,022	155,394	-0,028	-0,028
-439,007	-124,737	0,155	-0,017
-437,992	800,000	0,034	-0,071
-436,978	559,652	0,053	0,091
-435,963	-131,455	0,064	-0,006
-434,949	441,241	-0,003	0,005
-433,934	800,000	0,023	-0,061
-432,919	181,425	-0,064	0,067
-431,905	800,000	0,048	-0,131
-430,890	-96,982	0,088	0,016
-429,876	-84,231	0,039	0,009
-428,861	-103,546	-0,123	-0,021
-427,846	194,894	-0,060	0,065
-426,832	694,354	-0,036	0,068
-425,817	-200,000	0,004	-0,143
-424,803	35,220	0,066	-0,041
-423,788	235,654	0,032	-0,038
-422,773	800,000	0,061	0,168
-421,759	86,702	0,053	0,042
-420,744	-16,889	0,112	0,051
-419,730	251,215	-0,058	0,071
-418,715	-93,806	-0,069	-0,014
-417,701	-200,000	-0,051	-0,221
-416,686	-21,150	0,137	0,060
-415,671	-200,000	-0,008	-0,027
-414,657	-79,343	0,145	-0,035
-413,642	-115,809	-0,042	-0,006
-412,628	800,000	0,029	0,082
-411,613	514,459	-0,065	-0,109
-410,598	800,000	0,056	-0,160
-409,584	-200,000	0,011	0,042
-408,569	-200,000	0,036	0,156
-407,555	-200,000	-0,017	0,110
-406,540	-200,000	-0,007	-0,088
-405,525	68,526	0,047	-0,034
-404,511	107,480	-0,027	-0,023
-403,496	-200,000	-0,011	-0,132
-402,482	-200,000	0,033	-0,129
-401,467	-200,000	0,000	0,095
-400,452	-200,000	0,013	0,086
-399,438	54,553	0,073	-0,050
-398,423	721,345	-0,036	0,069
-397,409	-200,000	-0,045	-0,197
-396,394	-200,000	0,006	-0,094
-395,379	-57,683	-0,098	0,031
-394,365	174,914	0,084	0,088
-393,350	800,000	0,055	-0,113
-392,336	-198,408	-0,068	0,000
-391,321	94,033	0,027	0,022
-390,306	28,966	-0,035	0,021
-389,292	800,000	0,054	-0,110
-388,277	-77,593	0,039	-0,010
-387,263	-200,000	0,006	0,036
-386,248	800,000	0,062	0,154
-385,233	-98,785	0,105	-0,019
-384,219	800,000	0,032	-0,078
-383,204	-57,778	-0,165	-0,051
-382,190	30,722	-0,118	-0,072
-381,175	-163,024	0,110	-0,004
-380,160	-113,185	0,060	-0,008
-379,146	71,332	0,022	0,016
-378,131	-200,000	-0,001	-0,170
-377,117	800,000	-0,073	-0,163
-376,102	-200,000	0,006	-0,082
-375,088	-55,228	0,046	-0,015
-374,073	-60,644	-0,107	0,032
-373,058	-200,000	0,010	0,126
-372,044	87,047	0,117	-0,093
-371,029	146,251	0,116	0,112
-370,015	-83,369	0,015	0,003
-369,000	-200,000	0,014	0,178
-367,985	104,722	0,059	0,049
-366,971	-200,000	0,003	-0,096
-365,956	-21,455	0,085	0,037
-364,942	2,303	0,078	0,040
-363,927	-200,000	0,027	0,148
-362,912	1,656	-0,056	0,029
-361,898	223,774	-0,027	0,031
-360,883	247,838	-0,092	0,111
-359,869	212,733	0,049	-0,055
-358,854	-60,263	-0,142	-0,043
-357,839	533,765	-0,035	-0,059
-356,825	-200,000	0,003	-0,073
-355,810	-80,839	-0,079	0,019
-354,796	-24,125	-0,040	-0,017
-353,781	177,889	-0,033	-0,035
-352,766	-200,000	-0,020	0,123
-351,752	-2,480	0,037	-0,019
-350,737	183,091	0,056	-0,059
-349,723	341,483	-0,053	0,075
-348,708	800,000	-0,086	0,213
-347,693	-200,000	0,027	0,095
-346,679	-10,424	0,091	-0,043
-345,664	499,779	-0,048	-0,080
-344,650	-200,000	0,016	0,092
-343,635	-19,484	0,021	-0,009
-342,620	117,330	0,067	-0,059
-341,606	327,409	-0,057	0,079
-340,591	800,000	-0,080	-0,167
-339,577	800,000	-0,063	-0,160
-338,562	-21,097	-0,053	0,023
-337,548	81,008	0,032	-0,025
-336,533	800,000	-0,038	0,103
-335,518	96,061	0,147	0,120
-334,504	-200,000	-0,049	0,283
-333,489	-7,110	0,099	0,048
-332,475	314,991	0,061	-0,082
-331,460	42,694	-0,043	0,028
-330,445	61,984	-0,068	0,049
-329,431	319,385	0,043	0,059
-328,416	-88,403	0,089	-0,019
-327,402	190,813	-0,018	-0,019
-326,387	177,992	0,064	0,066
-325,372	-200,000	-0,007	0,072
-324,358	351,649	-0,061	-0,087
-323,343	-77,139	0,061	0,015
-322,329	800,000	0,085	0,197
-321,314	-125,919	0,080	0,008
-320,299	135,724	-0,072	0,067
-319,285	-73,126	-0,088	0,023
-318,270	136,131	0,034	0,031
-317,256	800,000	0,015	0,038
-316,241	-200,000	0,003	0,091
-315,226	-16,679	-0,111	0,050
-314,212	49,472	0,181	0,121
-313,197	120,040	0,107	0,095
-312,183	-200,000	0,043	-0,144
-311,168	477,992	-0,056	0,092
-310,153	-200,000	0,014	-0,108
-309,139	-200,000	-0,005	-0,164
-308,124	120,117	-0,050	-0,045
-307,110	800,000	0,032	-0,074
-306,095	-11,072	0,143	0,067
-305,080	150,731	0,037	-0,036
-304,066	221,854	-0,027	0,031
-303,051	-36,111	0,088	-0,034
-302,037	-200,000	-0,014	-0,166
-301,022	-132,496	0,067	-0,006
-300,008	232,224	0,066	-0,077
-298,993	-200,000	0,011	0,062
-297,978	197,145	0,055	-0,060
-296,964	181,786	0,079	0,083
-295,949	800,000	-0,028	-0,060
-294,935	93,046	0,041	-0,033
-293,920	21,555	0,099	0,058
-292,905	-89,681	0,064	-0,013
-291,891	-200,000	0,016	0,077
-290,876	-183,326	-0,093	0,001
-289,862	35,793	0,149	0,093
-288,847	-157,667	0,019	0,001
-287,832	-46,374	-0,054	-0,019
-286,818	169,246	-0,152	-0,155
-285,803	243,664	0,076	0,091
-284,789	-200,000	-0,005	0,068
-283,774	-200,000	-0,025	0,129
-282,759	70,427	0,066	0,049
-281,745	-136,271	-0,122	-0,010
-280,730	-161,116	-0,081	-0,003
-279,716	-78,274	0,038	-0,009
-278,701	-59,330	0,095	-0,029
-277,686	-54,045	-0,089	0,029
-276,672	25,449	-0,094	-0,056
-275,657	-75,635	-0,096	-0,024
-274,643	-200,000	0,020	-0,106
-273,628	-200,000	-0,042	-0,157
-272,613	800,000	-0,074	-0,160
-271,599	390,693	0,018	0,026
-270,584	-37,533	0,133	0,050
-269,570	142,977	-0,080	-0,076
-268,555	-200,000	0,037	-0,161
-267,540	44,665	-0,053	0,034
-266,526	130,232	-0,128	0,117
-265,511	688,621	-0,057	0,107
-264,497	28,121	-0,044	0,027
-263,482	-111,107	0,110	0,016
-262,467	113,865	-0,082	0,071
-261,453	799,877	0,037	-0,072
-260,438	-41,588	-0,034	-0,012
-259,424	-180,156	-0,187	0,003
-258,409	800,000	-0,027	-0,055
-257,395	-200,000	0,008	0,089
-256,380	12,597	0,061	0,033
-255,365	-106,308	0,088	-0,014
-254,351	-200,000	0,012	0,144
-253,336	518,105	0,064	-0,107
-252,322	-61,354	-0,087	0,026
-251,307	-58,319	-0,058	-0,018
-250,292	800,000	0,038	0,112
-249,278	357,330	0,076	0,109
-248,263	-200,000	-0,009	0,099
-247,249	-69,761	-0,055	-0,015
-246,234	-8,691	0,047	0,022
-245,219	800,000	-0,007	-0,015
-244,205	668,450	-0,027	-0,050
-243,190	-114,393	0,162	0,022
-242,176	-169,504	-0,100	-0,003
-241,161	158,866	-0,150	-0,148
-240,146	176,031	0,056	-0,058
-239,132	-117,340	-0,100	0,013
-238,117	-200,000	-0,002	-0,019
-237,103	7,350	-0,033	0,017
-236,088	231,842	0,062	0,073
-235,073	100,833	-0,087	0,072
-234,059	-200,000	0,015	0,079
-233,044	-200,000	-0,021	0,149
-232,030	-200,000	-0,053	-0,181
-231,015	800,000	0,029	-0,070
-230,000	-49,901	0,004	-0,001
-228,986	127,570	-0,054	0,049
-227,971	-200,000	-0,004	-0,019
-226,957	-120,073	0,140	0,017
-225,942	225,388	0,012	0,014
-224,927	71,755	-0,062	-0,046
-223,913	220,300	-0,013	0,015
-222,898	219,532	-0,129	-0,147
-221,884	101,045	0,045	-0,037
-220,869	55,225	0,019	0,013
-219,855	-200,000	0,053	0,166
-218,840	11,739	0,168	0,092
-217,825	-200,000	0,015	-0,169
-216,811	-200,000	0,003	-0,054
-215,796	109,055	0,083	0,070
-214,782	21,914	-0,035	0,020
-213,767	161,427	0,143	0,142
-212,752	-200,000	-0,030	0,109
-211,738	-200,000	0,012	0,086
-210,723	-19,281	0,085	-0,037
-209,709	800,000	0,027	0,059
-208,694	144,746	0,040	0,038
-207,679	-200,000	-0,025	-0,169
-206,665	800,000	-0,027	-0,075
-205,650	139,988	0,024	0,023
-204,636	-103,500	-0,029	0,005
-203,621	-127,567	0,040	-0,004
-202,606	-33,505	-0,083	0,032
-201,592	43,870	-0,151	0,099
-200,577	93,365	0,018	0,015
-199,563	432,785	0,062	0,097
-198,548	199,998	0,066	0,072
-197,533	-26,544	-0,070	0,029
-196,519	337,447	0,071	0,098
-195,504	-1,658	-0,072	0,036
-194,490	800,000	-0,037	-0,111
-193,475	-200,000	0,000	-0,124
-192,460	-200,000	-0,014	-0,076
-191,446	0,551	0,077	0,039
-190,431	-200,000	-0,003	0,021
-189,417	-200,000	-0,006	-0,083
-188,402	197,241	-0,013	-0,014
-187,387	213,390	-0,090	0,102
-186,373	-200,000	0,017	0,139
-185,358	-200,000	-0,006	-0,127
-184,344	-200,000	0,000	0,049
-183,329	-18,880	0,072	-0,032
-182,315	800,000	0,033	-0,101
-181,300	731,562	0,038	0,073
-180,285	800,000	0,046	-0,111
-179,271	800,000	0,073	-0,157
-178,256	-200,000	0,032	-0,104
-177,242	37,558	0,024	-0,015
-176,227	-200,000	-0,025	0,157
-175,212	-156,692	-0,134	-0,006
-174,198	-40,125	-0,059	-0,022
-173,183	32,446	0,065	0,040
-172,169	-200,000	0,000	-0,039
-171,154	-75,373	0,071	0,018
-170,139	-48,186	0,138	0,047
-169,125	90,666	-0,032	0,025
-168,110	102,054	0,122	0,101
-167,096	-27,279	0,044	0,018
-166,081	-200,000	-0,008	-0,046
-165,066	-200,000	-0,004	0,089
-164,052	222,222	0,042	-0,048
-163,037	-34,138	0,120	0,047
-162,023	385,322	-0,061	0,089
-161,008	800,000	0,026	-0,076
-159,993	-5,806	-0,019	0,009
-158,979	800,000	0,038	0,109
-157,964	-200,000	0,022	0,083
-156,950	-200,000	-0,005	0,099
-155,935	-160,710	0,130	-0,005
-154,920	800,000	0,051	0,154
-153,906	546,692	-0,075	0,127
-152,891	143,984	-0,085	-0,080
-151,877	-176,110	-0,074	-0,001
-150,862	-200,000	0,033	-0,114
-149,847	-200,000	0,040	0,128
-148,833	391,447	-0,037	-0,055
-147,818	-200,000	0,001	0,033
-146,804	-82,734	-0,139	0,032
-145,789	17,391	-0,072	0,040
-144,775	800,000	-0,014	0,041
-143,760	478,094	-0,115	0,185
-142,745	-84,720	-0,117	0,026
-141,731	-138,420	0,125	0,010
-140,716	153,352	0,038	0,037
-139,702	111,756	0,106	0,091
-138,687	-68,384	-0,062	0,017
-137,672	-113,188	-0,088	0,012
-136,658	-200,000	-0,018	-0,062
-135,643	224,604	-0,071	-0,082
-134,629	15,400	-0,038	0,021
-133,614	-200,000	-0,011	0,098
-132,599	300,471	-0,062	0,082
-131,585	-200,000	-0,012	0,070
-130,570	31,258	0,075	-0,046
-129,556	-3,096	-0,084	0,041
-128,541	-200,000	-0,012	0,038
-127,526	-137,580	-0,134	0,011
-126,512	-4,038	0,039	-0,019
-125,497	411,942	-0,037	0,056
-124,483	800,000	0,040	0,101
-123,468	-200,000	-0,034	-0,129
-122,453	564,297	-0,026	-0,044
-121,439	269,292	-0,065	-0,081
-120,424	3,670	0,101	-0,052
-119,410	-130,275	-0,027	-0,003
-118,395	-124,004	0,023	0,003
-117,380	-200,000	-0,000	0,030
-116,366	-200,000	-0,004	0,046
-115,351	800,000	-0,089	-0,235
-114,337	-119,306	-0,094	0,012
-113,322	77,130	-0,154	-0,116
-112,307	51,038	0,048	0,032
-111,293	-200,000	0,010	0,084
-110,278	-115,859	0,141	0,019
-109,264	11,833	-0,129	0,070
-108,249	-200,000	-0,007	-0,051
-107,234	-32,940	-0,089	-0,035
-106,220	-21,468	0,104	-0,045
-105,205	117,915	0,029	-0,025
-104,191	12,523	0,110	0,060
-103,176	-2,261	0,094	0,046
-102,162	407,245	-0,016	0,023
-101,147	282,788	0,040	-0,052
-100,132	343,503	-0,081	-0,112
-99,118	113,280	-0,024	0,020
-98,103	-160,136	0,119	-0,004
-97,089	31,649	-0,030	-0,018
-96,074	800,000	-0,056	0,150
-95,059	-200,000	0,009	-0,059
-94,045	325,016	-0,062	0,085
-93,030	-83,570	-0,076	-0,017
-92,016	179,261	0,098	-0,102
-91,001	-73,123	-0,027	-0,007
-89,986	-200,000	-0,021	0,213
-88,972	-160,765	0,022	-0,001
-87,957	-105,947	0,133	0,021
-86,943	-200,000	-0,022	0,078
-85,928	-141,887	0,166	0,012
-84,913	800,000	-0,027	0,074
-83,899	800,000	0,004	-0,011
-82,884	242,481	-0,076	0,090
-81,870	800,000	0,025	-0,076
-80,855	93,825	-0,050	-0,040
-79,840	-49,288	-0,135	0,045
-78,826	800,000	-0,041	-0,112
-77,811	-182,773	0,048	0,001
-76,797	238,203	0,038	-0,044
-75,782	43,264	0,123	0,080
-74,767	-53,427	-0,055	-0,018
-73,753	800,000	0,098	0,248
-72,738	-151,441	-0,066	0,003
-71,724	-62,395	0,126	0,037
-70,709	7,249	-0,156	-0,082
-69,694	-28,284	-0,040	0,016
-68,680	800,000	0,032	0,087
-67,665	-75,434	-0,032	-0,008
-66,651	800,000	-0,029	0,061
-65,636	-112,663	0,012	0,002
-64,622	6,387	-0,146	0,077
-63,607	246,915	-0,043	0,052
-62,592	-200,000	-0,020	-0,107
-61,578	800,000	0,042	0,130
-60,563	800,000	-0,046	-0,093
-59,549	-200,000	0,039	0,125
-58,534	-11,091	-1,631	-0,758
-57,519	328,351	-1,441	-1,963
-56,505	-200,000	-0,549	-4,585
-55,490	286,663	1,000	1,281
-54,476	800,000	4,775	10,977
-53,461	-200,000	19,409	324,217
-52,446	-200,000	743,883	2332,961
-51,432	568,824	1656,119	2858,597
-50,417	77,312	1669,891	1254,923
-49,403	20,755	1543,539	881,843
-48,388	14,697	1466,143	808,179
-47,373	18,070	1456,128	818,913
-46,359	16,536	1446,089	805,885
-45,344	12,917	1441,534	785,993
-44,330	12,848	1439,549	784,545
-43,315	12,909	1437,436	783,656
-42,300	12,883	1436,107	782,777
-41,286	12,904	1434,911	782,195
-40,271	12,807	1433,690	781,035
-39,257	12,808	1432,338	780,274
-38,242	12,886	1431,016	779,891
-37,227	12,880	1429,945	779,247
-36,213	12,930	1428,232	778,520
-35,198	12,915	1427,417	777,976
-34,184	12,957	1426,422	777,601
-33,169	12,918	1424,778	776,488
-32,154	12,956	1423,909	776,164
-31,140	12,937	1422,650	775,356
-30,125	12,942	1421,703	774,835
-29,111	12,948	1420,494	774,172
-28,096	12,921	1419,382	773,409
-27,082	12,880	1418,217	772,550
-26,067	12,833	1417,263	771,777
-25,052	12,876	1415,964	771,241
-24,038	12,859	1415,121	770,675
-23,023	12,864	1414,210	770,169
-22,009	12,864	1413,060	769,514
-20,994	12,776	1412,319	768,665
-19,979	12,772	1411,220	768,019
-18,965	12,819	1410,364	767,742
-17,950	12,799	1409,404	767,096
-16,936	12,820	1408,441	766,638
-15,921	12,767	1407,612	765,909
-14,906	12,768	1406,926	765,513
-13,892	12,771	1405,604	764,773
-12,877	12,737	1404,950	764,231
-11,863	12,724	1403,847	763,541
-10,848	12,749	1402,975	763,152
-9,833	12,698	1402,245	762,484
-8,819	12,677	1401,331	761,864
-7,804	12,685	1400,300	761,308
-6,790	12,640	1399,340	760,546
-5,775	12,707	1398,161	760,185
-4,760	12,692	1397,188	759,557
-3,746	12,605	1396,282	758,633
-2,731	12,700	1395,483	758,607
-1,717	12,650	1394,606	757,867
-0,702	12,608	1393,082	756,816
0,313	16,539	1308,951	729,270
1,327	32,767	701,306	428,087
2,342	50,558	122,434	81,741
3,356	0,617	16,610	8,369
4,371	-8,646	3,259	1,540
5,386	1,086	0,516	0,261
6,400	800,000	0,065	0,156
7,415	63,822	-0,224	-0,159
8,429	39,052	-0,281	-0,177
9,444	60,525	-0,348	-0,243
10,459	78,242	-0,333	-0,251
11,473	330,066	-0,178	-0,243
12,488	31,324	-0,279	-0,169
13,502	19,253	-0,411	-0,232
14,517	42,300	-0,349	-0,224
15,531	132,317	-0,380	-0,346
16,546	130,681	-0,335	-0,303
17,561	345,843	-0,192	-0,267
18,575	85,616	-0,281	-0,218
19,590	637,207	-0,141	-0,253
20,604	-68,903	-0,183	-0,050
21,619	-81,947	-0,516	-0,118
22,634	144,413	-0,361	-0,341
23,648	35,277	-0,333	-0,206
24,663	-0,547	-0,495	-0,247
25,677	196,848	-0,264	-0,284
26,692	236,191	-0,232	-0,271
27,707	7,925	-0,399	-0,210
28,721	112,150	-0,298	-0,254
29,736	140,330	-0,403	-0,375
30,750	90,007	-0,444	-0,350
31,765	65,152	-0,402	-0,286
32,780	14,680	-0,467	-0,256
33,794	26,949	-0,419	-0,247
34,809	125,047	-0,322	-0,286
35,823	-9,278	-0,310	-0,146
36,838	249,098	-0,433	-0,518
37,853	204,847	-0,266	-0,292
38,867	65,945	-0,356	-0,254
39,882	-25,766	-0,410	-0,170
40,896	105,433	-0,237	-0,197
41,911	36,647	-0,288	-0,179
42,926	177,286	-0,265	-0,272
43,940	190,230	-0,351	-0,371
44,955	5,785	-0,559	-0,290
45,969	214,382	-0,268	-0,300
46,984	109,251	-0,350	-0,295
47,999	8,560	-0,334	-0,176
49,013	-13,426	-0,488	-0,222
50,028	56,263	-0,343	-0,234
51,042	79,543	-0,373	-0,282
52,057	89,370	-0,382	-0,300
53,071	122,625	-0,328	-0,288
54,086	-32,073	-0,381	-0,149
55,101	-60,959	-0,357	-0,105
56,115	-31,194	-0,352	-0,139
57,130	-8,343	-0,380	-0,179
58,144	288,990	-0,256	-0,327
59,159	153,507	-0,315	-0,304
60,174	29,765	-0,358	-0,214
61,188	19,909	-0,383	-0,216
62,203	16,608	-0,406	-0,225
63,217	45,338	-0,341	-0,220
64,232	201,984	-0,237	-0,257
65,247	-45,028	-0,284	-0,099
66,261	1,137	-0,269	-0,135
67,276	-1,862	-0,413	-0,203
68,290	-8,985	-0,362	-0,170
69,305	-35,834	-0,240	-0,091
70,320	9,440	-0,228	-0,121
71,334	160,049	-0,288	-0,282
72,349	-8,205	-0,323	-0,152
73,363	84,229	-0,341	-0,262
74,378	5,027	-0,429	-0,221
75,393	-2,309	-0,359	-0,176
76,407	30,976	-0,356	-0,214
77,422	540,768	-0,104	-0,174
78,436	29,869	-0,350	-0,209
79,451	-123,469	-0,269	-0,030
80,466	53,280	-0,279	-0,188
81,480	250,704	-0,235	-0,281
82,495	28,606	-0,303	-0,179
83,509	79,635	-0,325	-0,245
84,524	116,660	-0,284	-0,245
85,539	105,905	-0,289	-0,240
86,553	58,008	-0,359	-0,247
87,568	147,184	-0,251	-0,237
88,582	132,432	-0,239	-0,216
89,597	122,342	-0,264	-0,232
90,611	-17,559	-0,340	-0,150
91,626	-26,435	-0,272	-0,111
92,641	194,009	-0,253	-0,269
93,655	241,706	-0,218	-0,256
94,670	57,030	-0,380	-0,260
95,684	29,944	-0,228	-0,136
96,699	173,375	-0,202	-0,204
97,714	174,377	-0,175	-0,178
98,728	84,997	-0,201	-0,154
99,743	-3,933	-0,374	-0,181
100,757	-56,290	-0,274	-0,085
101,772	25,613	-0,334	-0,194
102,787	398,750	-0,135	-0,199
103,801	-68,262	-0,351	-0,095
104,816	369,031	-0,195	-0,278
105,830	102,481	-0,160	-0,131
106,845	127,110	-0,280	-0,249
107,860	-74,585	-0,326	-0,081
108,874	-2,853	-0,349	-0,170
109,889	197,000	-0,214	-0,229
110,903	91,901	-0,279	-0,220
111,918	127,480	-0,191	-0,170
112,933	-46,799	-0,253	-0,086
113,947	48,977	-0,230	-0,151
114,962	286,639	-0,236	-0,299
115,976	-105,579	-0,360	-0,057
116,991	161,630	-0,248	-0,243
118,006	-58,902	-0,321	-0,097
119,020	167,327	-0,187	-0,186
120,035	4,979	-0,311	-0,160
121,049	83,608	-0,193	-0,147
122,064	107,425	-0,234	-0,195
123,079	84,142	-0,325	-0,248
124,093	156,160	-0,205	-0,198
125,108	-99,708	-0,314	-0,054
126,122	243,651	-0,257	-0,302
127,137	27,014	-0,187	-0,109
128,151	-85,329	-0,351	-0,076
129,166	201,863	-0,166	-0,179
130,181	142,513	-0,303	-0,281
131,195	162,759	-0,205	-0,201
132,210	118,954	-0,152	-0,132
133,224	-133,576	-0,242	-0,021
134,239	27,854	-0,248	-0,145
135,254	414,352	-0,063	-0,095
136,268	77,299	-0,268	-0,199
137,283	22,061	-0,324	-0,184
138,297	366,031	-0,240	-0,339
139,312	165,605	-0,217	-0,215
140,327	259,299	-0,221	-0,266
141,341	56,820	-0,310	-0,211
142,356	800,000	-0,057	-0,123
143,370	-146,117	-0,209	0,013
144,385	-39,605	-0,304	-0,110
145,400	447,695	-0,203	-0,313
146,414	336,037	-0,164	-0,222
147,429	255,939	-0,160	-0,192
148,443	146,587	-0,272	-0,255
149,458	113,483	-0,253	-0,214
150,473	456,904	-0,176	-0,273
151,487	-142,801	-0,314	-0,021
152,502	30,492	-0,353	-0,210
153,516	212,018	-0,200	-0,220
154,531	294,414	-0,203	-0,260
155,546	261,233	-0,215	-0,260
156,560	102,437	-0,282	-0,230
157,575	396,656	-0,117	-0,170
158,589	14,831	-0,400	-0,217
159,604	34,081	-0,264	-0,160
160,619	-24,267	-0,265	-0,110
161,633	-61,475	-0,261	-0,076
162,648	140,236	-0,223	-0,205
163,662	800,000	-0,059	-0,124
164,677	-163,430	-0,095	0,003
165,692	-144,376	-0,221	0,014
166,706	28,089	-0,399	-0,234
167,721	13,617	-0,252	-0,136
168,735	76,033	-0,254	-0,187
169,750	286,776	-0,223	-0,281
170,764	-85,632	-0,284	-0,061
171,779	353,652	-0,068	-0,094
172,794	800,000	-0,092	-0,189
173,808	-6,629	-0,281	-0,133
174,823	12,427	-0,212	-0,113
175,837	177,259	-0,170	-0,173
176,852	43,936	-0,199	-0,127
177,867	-22,620	-0,262	-0,110
178,881	16,460	-0,239	-0,131
179,896	-10,530	-0,295	-0,135
180,910	158,221	-0,185	-0,179
181,925	166,691	-0,222	-0,219
182,940	-145,748	-0,219	-0,013
183,954	570,605	-0,131	-0,222
184,969	55,688	-0,129	-0,087
185,983	214,452	-0,117	-0,129
186,998	370,638	-0,218	-0,308
188,013	430,366	-0,154	-0,233
189,027	460,210	-0,116	-0,181
190,042	128,881	-0,236	-0,210
191,056	40,837	-0,244	-0,153
192,071	264,599	-0,168	-0,204
193,086	-125,484	-0,170	-0,018
194,100	70,703	-0,142	-0,102
195,115	141,112	-0,301	-0,277
196,129	231,191	-0,175	-0,200
197,144	153,101	-0,261	-0,249
198,159	204,380	-0,188	-0,203
199,173	32,891	-0,146	-0,088
200,188	31,932	-0,235	-0,140
201,202	17,534	-0,270	-0,148
202,217	273,222	-0,074	-0,091
203,232	66,274	-0,252	-0,177
204,246	348,251	-0,184	-0,252
205,261	-5,316	-0,248	-0,118
206,275	586,837	-0,124	-0,214
207,290	80,429	-0,142	-0,106
208,304	11,837	-0,274	-0,146
209,319	82,464	-0,299	-0,225
210,334	105,911	-0,262	-0,215
211,348	44,221	-0,207	-0,132
212,363	299,958	-0,145	-0,186
213,377	-27,433	-0,098	-0,039
214,392	5,116	-0,151	-0,077
215,407	-83,361	-0,242	-0,054
216,421	-123,937	-0,104	-0,011
217,436	-3,078	-0,189	-0,091
218,450	483,986	-0,123	-0,194
219,465	220,828	-0,106	-0,118
220,480	100,169	-0,248	-0,199
221,494	154,895	-0,164	-0,156
222,509	44,897	-0,079	-0,050
223,523	39,311	-0,180	-0,112
224,538	-3,653	-0,201	-0,096
225,553	132,853	-0,224	-0,200
226,567	800,000	-0,106	-0,218
227,582	275,351	-0,227	-0,280
228,596	264,576	-0,128	-0,154
229,611	455,910	-0,154	-0,238
230,626	55,942	-0,213	-0,143
231,640	-200,000	-0,010	-0,051
232,655	37,942	-0,244	-0,150
233,669	-56,034	-0,357	-0,110
234,684	800,000	-0,102	-0,243
235,699	800,000	-0,085	-0,165
236,713	3,461	-0,176	-0,089
237,728	184,570	-0,140	-0,144
238,742	45,527	-0,138	-0,088
239,757	425,643	-0,126	-0,189
240,772	-132,841	-0,229	-0,020
241,786	29,272	-0,180	-0,106
242,801	408,555	-0,026	-0,039
243,815	-66,673	-0,160	-0,043
244,830	-32,631	-0,159	-0,061
245,844	-48,525	-0,186	-0,062
246,859	-55,538	-0,316	-0,097
247,874	-80,275	-0,283	-0,065
248,888	-10,739	-0,267	-0,122
249,903	-8,476	-0,192	-0,089
250,917	647,200	-0,068	-0,120
251,932	-164,119	-0,132	0,004
252,947	-125,066	-0,144	0,015
253,961	-58,367	-0,276	-0,083
254,976	66,467	-0,139	-0,097
255,990	504,299	-0,150	-0,241
257,005	-145,113	-0,137	0,008
258,020	225,382	-0,132	-0,148
259,034	-51,101	-0,221	-0,071
260,049	231,506	-0,191	-0,217
261,063	-6,751	-0,127	-0,059
262,078	-71,719	-0,203	-0,052
263,093	-91,123	-0,194	-0,038
264,107	98,898	-0,095	-0,076
265,122	235,566	-0,169	-0,193
266,136	-146,156	-0,170	0,010
267,151	-108,844	-0,135	0,020
268,166	125,580	-0,203	-0,177
269,180	114,418	-0,154	-0,130
270,195	-200,000	-0,036	-0,235
271,209	111,665	-0,224	-0,187
272,224	-9,394	-0,126	-0,058
273,239	167,939	-0,122	-0,120
274,253	20,674	-0,227	-0,126
275,268	-79,229	-0,276	-0,064
276,282	154,250	-0,182	-0,172
277,297	-200,000	0,000	-0,172
278,312	-200,000	-0,035	-0,214
279,326	264,113	-0,113	-0,136
280,341	114,184	-0,057	0,048
281,355	800,000	-0,042	-0,126
282,370	178,065	-0,087	-0,087
283,384	43,287	-0,220	-0,139
284,399	46,110	-0,200	-0,127
285,414	132,767	-0,168	-0,149
286,428	-175,958	-0,190	-0,003
287,443	-70,026	-0,132	-0,034
288,457	-65,842	-0,236	-0,065
289,472	-28,870	-0,079	-0,031
290,487	800,000	-0,063	-0,139
291,501	34,278	-0,210	-0,126
292,516	6,170	-0,153	-0,078
293,530	-200,000	-0,079	-0,250
294,545	519,193	-0,093	-0,151
295,560	-56,786	-0,226	-0,068
296,574	-6,303	-0,087	0,041
297,589	800,000	-0,113	-0,223
298,603	-34,531	-0,258	-0,097
299,618	67,201	-0,198	-0,139
300,633	-114,980	-0,206	0,027
301,647	-200,000	0,016	-0,083
302,662	189,334	-0,093	-0,096
303,676	-56,980	-0,079	-0,024
304,691	291,840	-0,165	-0,207
305,706	244,733	-0,121	-0,140
306,720	-86,122	-0,230	-0,048
307,735	86,997	-0,051	-0,039
308,749	456,827	-0,102	-0,157
309,764	-139,946	-0,152	0,011
310,779	60,283	-0,190	-0,129
311,793	142,462	-0,127	-0,116
312,808	-61,357	-0,174	-0,050
313,822	187,143	-0,133	-0,137
314,837	800,000	-0,033	-0,070
315,852	43,696	-0,103	-0,064
316,866	-73,825	-0,247	0,061
317,881	80,284	-0,133	-0,099
318,895	-60,064	-0,207	-0,060
319,910	-45,853	-0,182	-0,062
320,925	-9,603	-0,220	-0,101
321,939	152,673	-0,089	-0,084
322,954	-200,000	-0,017	-0,135
323,968	-54,395	-0,146	-0,045
324,983	5,945	-0,096	-0,049
325,997	800,000	-0,073	-0,151
327,012	580,673	-0,073	-0,124
328,027	800,000	-0,065	-0,151
329,041	800,000	-0,140	-0,286
330,056	-56,542	-0,147	-0,044
331,070	-55,921	-0,098	0,030
332,085	800,000	-0,015	0,034
333,100	800,000	-0,028	-0,082
334,114	29,786	-0,175	-0,102
335,129	47,330	-0,166	-0,106
336,143	44,538	-0,145	-0,092
337,158	309,807	-0,164	-0,212
338,173	-200,000	0,027	-0,153
339,187	-71,598	-0,090	-0,023
340,202	-51,786	-0,091	-0,029
341,216	-1,879	0,053	-0,025
342,231	269,450	-0,131	-0,158
343,246	146,905	-0,102	-0,094
344,260	19,571	-0,146	-0,081
345,275	127,697	-0,069	-0,060
346,289	201,547	-0,115	-0,121
347,304	141,511	-0,166	-0,151
348,319	-50,730	-0,198	-0,063
349,333	71,988	-0,206	-0,147
350,348	194,832	-0,184	-0,192
351,362	266,875	-0,115	-0,138
352,377	7,957	-0,155	-0,079
353,392	-54,297	-0,196	-0,061
354,406	164,724	-0,188	0,182
355,421	209,885	1314,070	1414,404
356,435	161,550	1474,728	1414,891
