DTS Sentinel unit serial number:	SN410029Multiplexer serial number:	ORYXHardware model number:	OX2-SRSoftware version number:	ORYX F/W v4,00 Oryx Data Collector v3.7.2.0data status	okinstallation	B3 Nyhavnadifferential loss correction	single-endedforward channel	channel 1reverse channel	N/Adate	2023/11/28time	21:02:30forward acquisition time	300,00reverse acquisition time	0,00gamma	499,1914k internal	0,3212k external	0,3212temperature offset calibration	1,0000default loss term (dB/km)	0,3820temperature slope calibration	1,0000multiplexer offset coefficient	1,0000multiplexer slope coefficient	1,0000fibre end	0,00T internal ref (°C)	8,16T ext. ref 1 (°C)	-6,25T ext. ref 2 (°C)	-6,40length (m)	temperature (°C)	Stokes	anti-Stokes-744,400	51,285	-0,251	-0,172
-743,385	-200,000	0,061	0,211
-742,371	-200,000	-0,026	-0,283
-741,356	800,000	-0,097	0,199
-740,342	40,775	-0,261	-0,170
-739,327	-200,000	0,029	0,241
-738,312	-36,679	-0,232	-0,090
-737,298	-200,000	-0,009	0,311
-736,283	-200,000	-0,021	-0,198
-735,269	-200,000	0,016	0,385
-734,254	800,000	-0,112	-0,270
-733,239	39,553	-0,193	0,125
-732,225	-200,000	0,021	-0,145
-731,210	62,940	0,080	0,058
-730,196	95,476	-0,040	-0,033
-729,181	55,641	-0,079	-0,055
-728,167	1,310	0,075	-0,039
-727,152	140,987	-0,051	-0,049
-726,137	-200,000	-0,011	0,035
-725,123	116,535	-0,106	-0,094
-724,108	-200,000	0,090	-0,000
-723,094	-200,000	0,002	-0,061
-722,079	603,770	0,077	0,140
-721,064	700,942	0,086	-0,165
-720,050	-200,000	0,016	-0,056
-719,035	325,105	0,037	0,052
-718,021	-6,420	-0,173	-0,085
-717,006	-200,000	-0,015	-0,096
-715,991	120,443	-0,055	-0,050
-714,977	337,602	0,091	-0,129
-713,962	75,654	-0,046	-0,035
-712,948	-19,413	-0,112	-0,050
-711,933	55,910	0,140	-0,098
-710,918	-200,000	-0,022	0,076
-709,904	-130,341	-0,132	-0,013
-708,889	-200,000	-0,024	0,099
-707,875	83,604	-0,141	0,112
-706,860	115,361	0,055	0,049
-705,845	283,303	-0,074	-0,096
-704,831	-41,626	-0,048	-0,018
-703,816	-200,000	0,007	-0,031
-702,802	-30,325	0,012	0,005
-701,787	-40,720	-0,047	-0,018
-700,772	800,000	-0,057	-0,135
-699,758	-200,000	-0,003	-0,042
-698,743	-20,637	0,043	0,019
-697,729	-72,411	-0,098	0,026
-696,714	-200,000	0,010	0,048
-695,699	-37,389	-0,055	-0,021
-694,685	651,052	-0,036	-0,066
-693,670	240,411	-0,033	0,040
-692,656	125,965	0,059	0,054
-691,641	48,872	-0,077	-0,052
-690,627	83,644	0,081	0,064
-689,612	620,605	-0,028	0,052
-688,597	3,443	0,057	-0,030
-687,583	800,000	0,024	-0,066
-686,568	-2,157	-0,102	0,051
-685,554	800,000	-0,018	-0,045
-684,539	431,988	0,020	0,031
-683,524	-134,033	-0,060	-0,005
-682,510	361,172	-0,032	0,047
-681,495	262,544	-0,032	0,041
-680,481	-55,234	-0,078	-0,025
-679,466	378,706	-0,087	-0,129
-678,451	-85,442	-0,106	0,024
-677,437	93,559	0,106	0,087
-676,422	-1,914	0,062	-0,031
-675,408	-79,713	-0,007	0,002
-674,393	40,155	-0,026	0,017
-673,378	-118,437	-0,182	-0,023
-672,364	-32,677	-0,033	0,013
-671,349	800,000	-0,028	-0,083
-670,335	140,424	0,145	0,138
-669,320	37,043	0,084	0,054
-668,305	-67,923	0,064	-0,018
-667,291	-60,133	0,050	0,015
-666,276	-200,000	0,018	-0,144
-665,262	-200,000	-0,016	0,061
-664,247	111,360	-0,052	0,045
-663,232	-57,317	-0,121	0,038
-662,218	800,000	0,039	0,086
-661,203	800,000	-0,012	-0,026
-660,189	73,254	-0,103	0,078
-659,174	31,068	-0,112	-0,069
-658,159	464,489	-0,113	-0,182
-657,145	-200,000	0,010	-0,198
-656,130	-138,673	-0,140	-0,011
-655,116	293,346	0,088	0,117
-654,101	-200,000	-0,023	-0,106
-653,086	53,867	-0,011	0,008
-652,072	-156,748	0,055	-0,002
-651,057	-32,485	0,065	-0,026
-650,043	333,341	0,042	-0,058
-649,028	-200,000	0,006	-0,103
-648,014	334,435	-0,081	0,113
-646,999	165,642	0,103	-0,105
-645,984	-104,267	-0,033	-0,005
-644,970	83,531	-0,081	-0,064
-643,955	-67,858	0,108	-0,030
-642,941	-78,570	-0,107	-0,026
-641,926	23,663	-0,039	0,023
-640,911	21,896	-0,022	-0,013
-639,897	-200,000	-0,003	0,045
-638,882	-200,000	-0,017	-0,059
-637,868	800,000	0,037	-0,095
-636,853	-140,214	-0,081	-0,006
-635,838	-200,000	0,028	-0,089
-634,824	128,113	-0,055	-0,051
-633,809	58,068	0,047	0,033
-632,795	-135,844	0,086	-0,007
-631,780	800,000	-0,017	-0,045
-630,765	534,368	-0,083	0,143
-629,751	-200,000	0,013	-0,122
-628,736	800,000	0,026	-0,076
-627,722	-46,474	0,025	-0,009
-626,707	49,603	-0,025	0,017
-625,692	-200,000	-0,038	0,184
-624,678	283,022	0,046	-0,059
-623,663	800,000	0,063	-0,165
-622,649	-89,105	-0,144	0,030
-621,634	-12,771	-0,052	0,024
-620,619	-200,000	0,012	-0,083
-619,605	-131,314	0,078	-0,007
-618,590	-34,981	0,145	0,057
-617,576	448,449	0,073	-0,116
-616,561	484,255	-0,054	-0,089
-615,546	800,000	-0,047	-0,105
-614,532	226,769	-0,082	0,096
-613,517	11,457	0,107	0,059
-612,503	151,627	-0,138	-0,136
-611,488	444,451	0,052	-0,082
-610,474	-200,000	0,025	0,080
-609,459	800,000	0,052	0,118
-608,444	236,727	-0,081	-0,097
-607,430	800,000	0,025	-0,069
-606,415	32,661	0,092	-0,057
-605,401	800,000	-0,035	-0,089
-604,386	-26,415	0,124	-0,052
-603,371	80,982	0,123	0,095
-602,357	151,622	0,095	0,093
-601,342	108,529	-0,072	-0,062
-600,328	33,544	0,102	-0,064
-599,313	219,263	-0,026	0,030
-598,298	24,416	0,042	0,025
-597,284	-200,000	0,012	-0,130
-596,269	40,272	0,076	-0,049
-595,255	-1,764	-0,052	0,026
-594,240	-200,000	-0,006	-0,027
-593,225	-200,000	0,018	-0,098
-592,211	-8,078	0,131	-0,063
-591,196	-200,000	-0,019	0,087
-590,182	-16,419	-0,062	-0,028
-589,167	800,000	0,053	0,151
-588,152	-200,000	0,008	-0,032
-587,138	800,000	-0,040	-0,086
-586,123	-104,426	0,064	-0,011
-585,109	242,317	0,028	-0,034
-584,094	492,186	0,080	-0,132
-583,079	800,000	-0,030	0,060
-582,065	-156,601	0,153	-0,007
-581,050	-158,042	-0,095	0,004
-580,036	272,106	0,084	0,107
-579,021	-25,512	-0,038	-0,016
-578,006	800,000	0,026	0,054
-576,992	800,000	0,022	-0,047
-575,977	-70,474	0,057	0,015
-574,963	98,506	0,022	0,018
-573,948	-200,000	0,014	-0,058
-572,934	-200,000	0,034	-0,119
-571,919	-47,789	0,042	-0,015
-570,904	221,674	-0,073	-0,084
-569,890	-200,000	0,002	-0,019
-568,875	7,081	0,054	0,029
-567,861	-152,144	0,134	0,007
-566,846	-182,463	0,069	-0,001
-565,831	-200,000	-0,008	-0,067
-564,817	572,052	-0,040	0,070
-563,802	28,136	0,060	-0,036
-562,788	81,359	-0,066	-0,052
-561,773	800,000	0,036	0,074
-560,758	-43,809	0,029	-0,011
-559,744	-200,000	0,002	0,115
-558,729	-73,899	-0,026	-0,007
-557,715	-87,993	-0,159	-0,034
-556,700	-200,000	-0,002	-0,047
-555,685	136,385	-0,099	0,093
-554,671	-200,000	0,021	-0,130
-553,656	302,266	0,007	0,010
-552,642	800,000	0,044	0,106
-551,627	67,747	-0,085	-0,063
-550,612	-71,173	-0,110	-0,029
-549,598	-200,000	-0,011	0,041
-548,583	264,196	0,027	0,034
-547,569	-200,000	-0,012	0,091
-546,554	49,092	0,052	0,035
-545,539	-164,070	0,165	0,005
-544,525	77,533	-0,072	0,055
-543,510	195,014	-0,029	-0,032
-542,496	-22,015	0,056	0,024
-541,481	-77,104	0,146	0,036
-540,466	178,023	0,070	-0,073
-539,452	-200,000	-0,015	-0,058
-538,437	289,146	0,023	-0,030
-537,423	800,000	0,042	0,102
-536,408	14,037	0,041	0,023
-535,393	494,014	0,043	0,072
-534,379	-200,000	-0,011	0,178
-533,364	-105,143	0,133	-0,022
-532,350	27,795	-0,062	-0,038
-531,335	-200,000	-0,040	0,141
-530,321	137,022	-0,075	-0,070
-529,306	-200,000	0,031	-0,104
-528,291	-109,547	0,043	0,006
-527,277	-44,639	-0,034	-0,012
-526,262	98,523	-0,145	-0,120
-525,248	-117,862	-0,097	0,012
-524,233	-200,000	0,024	0,101
-523,218	66,366	0,040	0,029
-522,204	-80,346	-0,085	0,020
-521,189	77,698	-0,079	-0,060
-520,175	800,000	-0,028	-0,058
-519,160	325,361	-0,059	-0,082
-518,145	39,965	0,087	0,056
-517,131	265,559	-0,103	0,129
-516,116	171,785	0,105	0,108
-515,102	-55,021	-0,141	-0,045
-514,087	18,064	0,045	0,026
-513,072	-113,086	-0,112	0,016
-512,058	457,705	-0,010	-0,016
-511,043	-200,000	-0,011	-0,134
-510,029	800,000	-0,015	-0,046
-509,014	-73,089	0,140	0,036
-507,999	296,660	-0,071	-0,093
-506,985	73,588	-0,127	-0,095
-505,970	-200,000	-0,000	0,025
-504,956	800,000	0,050	-0,135
-503,941	162,765	-0,077	-0,078
-502,926	170,224	-0,027	0,028
-501,912	-74,949	0,105	0,027
-500,897	800,000	0,028	-0,055
-499,883	800,000	0,009	-0,020
-498,868	800,000	0,020	0,048
-497,853	-200,000	0,012	0,120
-496,839	252,000	-0,071	0,086
-495,824	20,750	-0,042	-0,024
-494,810	-200,000	-0,033	0,148
-493,795	-200,000	-0,010	0,183
-492,781	282,678	-0,058	-0,074
-491,766	-74,610	-0,046	-0,012
-490,751	-200,000	-0,022	-0,090
-489,737	800,000	-0,013	0,031
-488,722	34,138	-0,078	-0,048
-487,708	556,338	0,022	0,038
-486,693	22,317	0,107	0,062
-485,678	800,000	-0,037	0,090
-484,664	-88,062	-0,124	0,027
-483,649	800,000	-0,007	0,021
-482,635	-200,000	-0,022	-0,071
-481,620	602,730	-0,043	0,076
-480,605	-43,913	0,085	0,031
-479,591	-102,736	-0,093	0,016
-478,576	-35,567	-0,015	0,006
-477,562	-173,367	-0,060	0,001
-476,547	-200,000	-0,003	-0,060
-475,532	301,915	0,040	0,053
-474,518	-200,000	0,020	0,119
-473,503	800,000	0,035	0,103
-472,489	800,000	0,037	0,093
-471,474	37,847	0,036	-0,023
-470,459	-53,883	-0,039	0,013
-469,445	-200,000	0,024	0,098
-468,430	-200,000	-0,031	-0,156
-467,416	-200,000	-0,023	-0,080
-466,401	740,969	-0,013	-0,024
-465,386	482,529	-0,033	0,054
-464,372	-4,585	0,165	0,082
-463,357	470,085	-0,020	0,033
-462,343	72,728	-0,071	0,053
-461,328	-97,866	-0,041	0,008
-460,313	-22,607	0,130	0,056
-459,299	328,912	0,094	0,129
-458,284	800,000	-0,054	0,132
-457,270	505,178	0,078	-0,130
-456,255	93,820	-0,122	-0,099
-455,241	136,232	-0,077	-0,072
-454,226	-163,933	0,043	0,001
-453,211	-200,000	0,016	-0,064
-452,197	800,000	0,025	0,055
-451,182	293,392	-0,038	0,050
-450,168	-200,000	0,011	0,038
-449,153	665,638	0,048	0,090
-448,138	-115,556	-0,092	-0,012
-447,124	-85,595	-0,052	-0,011
-446,109	133,005	-0,039	-0,036
-445,095	-200,000	0,057	0,277
-444,080	-200,000	-0,055	0,220
-443,065	-5,167	0,212	0,104
-442,051	-124,391	-0,127	0,014
-441,036	320,052	0,081	-0,110
-440,022	10,700	0,139	-0,075
-439,007	-200,000	-0,015	-0,195
-437,992	93,665	0,054	0,044
-436,978	800,000	0,087	0,222
-435,963	-200,000	-0,033	0,167
-434,949	41,050	0,140	-0,090
-433,934	-200,000	-0,034	-0,169
-432,919	-97,005	-0,076	-0,014
-431,905	-84,844	0,094	-0,021
-430,890	238,099	0,042	-0,050
-429,876	754,166	-0,038	0,075
-428,861	-200,000	0,021	0,172
-427,846	-200,000	-0,021	0,071
-426,832	100,095	0,010	-0,008
-425,817	-15,169	0,035	-0,016
-424,803	746,403	-0,018	0,035
-423,788	-63,788	-0,044	-0,013
-422,773	-100,279	0,105	-0,018
-421,759	51,111	-0,031	-0,021
-420,744	-137,414	0,027	0,002
-419,730	-51,024	-0,082	-0,027
-418,715	354,104	0,039	-0,055
-417,701	-89,096	-0,121	-0,025
-416,686	-122,436	0,107	0,012
-415,671	720,504	0,049	0,094
-414,657	-200,000	-0,006	0,103
-413,642	-124,392	0,140	-0,015
-412,628	-51,160	-0,099	0,033
-411,613	547,538	-0,081	-0,140
-410,598	-46,155	-0,055	-0,019
-409,584	102,058	-0,027	0,023
-408,569	-200,000	0,001	0,096
-407,555	-110,844	0,022	-0,003
-406,540	53,244	0,176	-0,120
-405,525	178,995	-0,024	-0,025
-404,511	323,956	-0,098	-0,134
-403,496	189,486	-0,046	0,049
-402,482	6,293	0,042	0,022
-401,467	-124,632	0,059	0,006
-400,452	-200,000	0,019	-0,079
-399,438	-200,000	0,045	0,000
-398,423	-200,000	0,004	0,083
-397,409	242,142	0,009	-0,011
-396,394	244,129	-0,016	-0,019
-395,379	154,834	-0,019	0,018
-394,365	-200,000	-0,021	0,165
-393,350	117,016	-0,068	0,060
-392,336	195,514	0,060	0,065
-391,321	85,591	-0,095	-0,074
-390,306	78,092	-0,063	-0,048
-389,292	800,000	0,015	-0,034
-388,277	214,280	-0,077	0,087
-387,263	766,756	0,015	0,029
-386,248	259,115	0,082	-0,101
-385,233	27,156	-0,112	-0,067
-384,219	389,973	0,056	-0,084
-383,204	-0,994	-0,189	0,095
-382,190	800,000	-0,019	0,050
-381,175	-200,000	0,006	0,097
-380,160	223,177	0,054	0,062
-379,146	527,748	0,036	0,061
-378,131	-200,000	0,026	0,149
-377,117	21,856	-0,106	0,061
-376,102	-119,540	-0,159	0,019
-375,088	-92,603	-0,203	-0,040
-374,073	144,893	-0,007	-0,007
-373,058	-80,999	-0,108	0,025
-372,044	800,000	-0,036	0,103
-371,029	711,414	-0,044	-0,083
-370,015	224,131	0,025	0,029
-369,000	-173,329	-0,025	0,001
-367,985	643,705	0,058	-0,106
-366,971	21,934	-0,005	0,003
-365,956	-200,000	0,006	-0,191
-364,942	743,971	0,062	-0,120
-363,927	800,000	0,009	-0,026
-362,912	-95,869	0,092	-0,017
-361,898	-35,027	-0,053	-0,021
-360,883	-3,377	-0,071	0,035
-359,869	-65,849	0,091	-0,026
-358,854	-6,543	-0,045	-0,022
-357,839	115,331	-0,086	0,075
-356,825	488,850	0,044	0,072
-355,810	-67,683	0,095	-0,026
-354,796	-135,057	0,108	0,009
-353,781	800,000	-0,047	-0,121
-352,766	565,951	0,027	0,046
-351,752	-41,109	0,226	-0,083
-350,737	-89,233	0,045	-0,009
-349,723	-2,690	0,033	0,016
-348,708	680,318	0,031	-0,058
-347,693	-20,829	-0,133	0,058
-346,679	23,856	-0,128	-0,075
-345,664	-163,803	-0,095	0,003
-344,650	-200,000	-0,009	-0,146
-343,635	-62,686	0,038	-0,011
-342,620	-200,000	0,028	0,088
-341,606	0,653	-0,114	-0,058
-340,591	-200,000	-0,018	-0,093
-339,577	106,830	-0,052	0,044
-338,562	-104,374	-0,055	-0,009
-337,548	204,025	0,033	-0,036
-336,533	-141,222	0,027	-0,002
-335,518	800,000	0,061	0,156
-334,504	-38,343	-0,053	-0,020
-333,489	298,472	-0,057	0,075
-332,475	44,213	0,107	-0,070
-331,460	268,868	0,100	-0,125
-330,445	-200,000	-0,002	0,083
-329,431	-140,275	-0,028	-0,002
-328,416	-157,895	0,031	-0,001
-327,402	-99,330	0,099	0,018
-326,387	26,272	-0,191	-0,113
-325,372	-26,329	0,036	-0,015
-324,358	51,539	-0,049	-0,033
-323,343	800,000	0,028	0,078
-322,329	-200,000	0,005	0,020
-321,314	-17,584	-0,058	0,026
-320,299	-137,753	0,037	-0,003
-319,285	785,588	0,041	-0,080
-318,270	-114,387	-0,073	0,010
-317,256	161,291	-0,034	-0,034
-316,241	-161,320	0,054	-0,002
-315,226	75,575	-0,092	0,069
-314,212	24,078	0,103	0,060
-313,197	-21,540	-0,151	-0,065
-312,183	81,820	0,142	-0,110
-311,168	444,314	-0,031	0,048
-310,153	-200,000	-0,010	-0,073
-309,139	51,756	0,163	0,110
-308,124	-133,900	-0,055	-0,005
-307,110	157,773	0,032	-0,032
-306,095	-200,000	-0,004	0,103
-305,080	-200,000	0,005	-0,042
-304,066	-200,000	0,004	-0,118
-303,051	-1,953	-0,041	0,021
-302,037	26,255	-0,160	0,095
-301,022	800,000	-0,014	0,040
-300,008	22,612	0,071	0,041
-298,993	-86,609	0,120	-0,026
-297,978	-93,566	-0,094	0,018
-296,964	236,329	0,050	-0,059
-295,949	800,000	-0,053	-0,160
-294,935	596,354	0,036	-0,063
-293,920	-200,000	-0,015	0,127
-292,905	384,235	0,055	-0,081
-291,891	26,426	0,061	0,036
-290,876	800,000	-0,021	0,041
-289,862	2,315	-0,037	0,019
-288,847	770,967	0,013	0,025
-287,832	-96,149	0,129	0,024
-286,818	574,374	-0,081	-0,141
-285,803	-140,500	0,110	-0,008
-284,789	800,000	0,034	-0,105
-283,774	394,162	0,072	0,107
-282,759	-200,000	0,007	-0,092
-281,745	-34,286	0,165	0,064
-280,730	-62,243	0,100	-0,029
-279,716	-104,727	-0,130	0,021
-278,701	-118,555	0,088	-0,011
-277,686	242,602	0,088	-0,105
-276,672	144,230	-0,133	0,126
-275,657	250,811	0,131	0,159
-274,643	800,000	0,011	-0,027
-273,628	-200,000	-0,010	-0,144
-272,613	785,068	-0,043	-0,084
-271,599	219,271	0,062	0,070
-270,584	800,000	-0,020	0,048
-269,570	-145,729	0,021	0,001
-268,555	-200,000	0,004	0,187
-267,540	522,474	0,010	0,017
-266,526	412,325	0,022	-0,034
-265,511	390,721	0,069	0,102
-264,497	17,507	-0,031	0,017
-263,482	-55,927	0,107	-0,034
-262,467	-58,141	0,101	0,031
-261,453	800,000	-0,035	0,105
-260,438	-168,033	-0,134	0,004
-259,424	251,102	0,029	0,035
-258,409	-33,289	-0,015	-0,006
-257,395	-200,000	0,036	0,128
-256,380	249,691	0,105	0,127
-255,365	800,000	0,021	0,055
-254,351	90,235	-0,016	-0,013
-253,336	220,266	0,032	-0,037
-252,322	800,000	-0,048	-0,109
-251,307	-200,000	-0,008	-0,114
-250,292	800,000	-0,043	-0,091
-249,278	190,125	0,085	-0,091
-248,263	4,476	-0,064	0,033
-247,249	800,000	-0,035	0,088
-246,234	-21,459	-0,036	-0,016
-245,219	59,249	-0,045	-0,032
-244,205	75,889	0,042	-0,032
-243,190	65,888	-0,049	0,035
-242,176	-153,403	0,110	-0,005
-241,161	-200,000	0,011	-0,170
-240,146	660,016	0,095	0,175
-239,132	-127,594	0,021	0,002
-238,117	345,456	-0,047	-0,066
-237,103	-43,068	0,122	-0,044
-236,088	-31,250	-0,208	0,083
-235,073	-170,642	0,072	0,002
-234,059	-9,671	0,058	-0,027
-233,044	-118,200	0,031	-0,004
-232,030	-175,899	0,019	-0,000
-231,015	-7,267	-0,055	-0,027
-230,000	-200,000	-0,004	-0,092
-228,986	74,553	0,038	-0,029
-227,971	-200,000	0,032	0,184
-226,957	433,876	0,022	0,034
-225,942	800,000	0,065	-0,136
-224,927	622,395	-0,091	0,164
-223,913	120,702	0,024	-0,021
-222,898	-19,099	0,063	-0,028
-221,884	-10,451	-0,211	-0,099
-220,869	217,977	0,041	0,046
-219,855	-200,000	-0,055	0,300
-218,840	177,498	-0,034	0,035
-217,825	77,349	-0,124	-0,094
-216,811	12,954	-0,034	0,019
-215,796	58,140	-0,063	-0,043
-214,782	180,591	-0,081	-0,084
-213,767	60,700	-0,087	0,061
-212,752	-91,366	-0,102	-0,021
-211,738	-70,209	0,084	-0,022
-210,723	114,993	0,025	0,022
-209,709	800,000	-0,082	-0,163
-208,694	-103,130	0,043	-0,007
-207,679	152,393	0,022	0,021
-206,665	-159,528	0,131	-0,005
-205,650	133,529	-0,045	-0,041
-204,636	-200,000	-0,009	0,043
-203,621	5,959	-0,062	-0,033
-202,606	57,848	-0,086	-0,059
-201,592	-60,794	-0,109	-0,033
-200,577	-200,000	0,035	-0,155
-199,563	68,471	-0,038	0,028
-198,548	800,000	-0,031	0,080
-197,533	20,062	0,070	-0,040
-196,519	-200,000	-0,036	0,126
-195,504	800,000	-0,026	0,063
-194,490	800,000	-0,051	-0,135
-193,475	-100,994	0,103	-0,018
-192,460	250,935	0,067	-0,081
-191,446	-200,000	0,002	0,024
-190,431	-45,176	0,081	0,028
-189,417	18,964	0,089	0,051
-188,402	-28,596	-0,125	-0,051
-187,387	44,658	-0,072	-0,047
-186,373	-140,172	-0,028	-0,002
-185,358	257,257	-0,066	-0,080
-184,344	-95,705	-0,113	-0,021
-183,329	-200,000	0,003	-0,024
-182,315	-87,738	-0,048	0,010
-181,300	123,124	0,052	-0,046
-180,285	778,476	0,030	0,057
-179,271	102,344	-0,137	0,113
-178,256	-200,000	-0,000	-0,019
-177,242	-52,519	-0,063	-0,021
-176,227	-96,365	0,146	-0,027
-175,212	-200,000	-0,029	0,113
-174,198	800,000	0,031	0,068
-173,183	61,192	-0,063	-0,044
-172,169	292,359	-0,055	-0,071
-171,154	-171,334	-0,096	0,002
-170,139	-200,000	0,006	0,027
-169,125	5,887	0,091	-0,048
-168,110	-110,338	-0,067	0,010
-167,096	-200,000	-0,007	-0,072
-166,081	-200,000	0,047	0,159
-165,066	397,797	-0,079	-0,118
-164,052	800,000	0,019	-0,057
-163,037	-68,512	0,024	-0,007
-162,023	316,887	0,049	0,066
-161,008	-6,002	-0,027	0,013
-159,993	-200,000	-0,012	0,195
-158,979	490,779	0,042	0,069
-157,964	-200,000	-0,008	-0,099
-156,950	121,257	-0,018	0,016
-155,935	93,533	0,042	0,034
-154,920	-200,000	0,018	-0,111
-153,906	107,948	-0,064	0,054
-152,891	-95,381	-0,073	-0,014
-151,877	-200,000	-0,011	-0,100
-150,862	51,922	-0,110	0,074
-149,847	-93,213	-0,090	-0,018
-148,833	359,866	-0,032	-0,045
-147,818	-33,330	-0,068	-0,026
-146,804	112,205	0,045	-0,039
-145,789	41,065	-0,110	-0,070
-144,775	-100,128	-0,092	-0,016
-143,760	-200,000	-0,009	0,083
-142,745	-103,273	0,085	0,014
-141,731	80,561	-0,080	-0,061
-140,716	800,000	-0,024	0,065
-139,702	-200,000	0,012	0,070
-138,687	-98,208	0,187	0,034
-137,672	788,499	-0,063	0,124
-136,658	-200,000	-0,009	0,034
-135,643	-88,767	-0,042	-0,009
-134,629	618,386	0,021	0,038
-133,614	332,096	-0,074	0,101
-132,599	-18,829	0,069	-0,030
-131,585	-200,000	0,010	0,045
-130,570	-37,033	-0,049	-0,018
-129,556	262,814	0,033	0,040
-128,541	-200,000	0,003	-0,138
-127,526	286,668	-0,006	-0,008
-126,512	800,000	-0,068	0,137
-125,497	-115,511	0,112	-0,015
-124,483	1,624	0,046	-0,023
-123,468	-117,996	-0,081	0,010
-122,453	598,641	-0,041	-0,072
-121,439	415,989	-0,090	-0,137
-120,424	-30,586	-0,140	0,056
-119,410	-89,036	0,216	-0,045
-118,395	-46,206	0,053	-0,018
-117,380	50,808	0,098	-0,065
-116,366	-150,113	0,061	0,003
-115,351	800,000	-0,029	0,061
-114,337	516,386	0,052	-0,085
-113,322	800,000	-0,063	0,150
-112,307	-182,507	0,105	-0,001
-111,293	-200,000	0,000	0,131
-110,278	-200,000	-0,027	0,189
-109,264	109,032	0,034	0,029
-108,249	465,285	-0,032	0,050
-107,234	28,955	0,031	0,018
-106,220	800,000	0,043	0,093
-105,205	18,981	-0,057	-0,032
-104,191	-113,478	0,138	0,019
-103,176	299,722	0,048	0,063
-102,162	-200,000	-0,000	-0,194
-101,147	165,408	0,053	-0,053
-100,132	800,000	0,042	0,090
-99,118	165,361	0,057	0,057
-98,103	-200,000	-0,010	0,062
-97,089	-200,000	-0,003	0,098
-96,074	-19,830	0,158	-0,069
-95,059	303,842	0,056	0,073
-94,045	-146,524	-0,149	0,009
-93,030	53,088	-0,042	0,028
-92,016	305,200	0,028	0,037
-91,001	-200,000	0,005	-0,086
-89,986	-109,592	0,116	0,017
-88,972	800,000	0,029	0,087
-87,957	30,842	0,009	-0,006
-86,943	-81,868	-0,197	0,045
-85,928	-0,587	0,057	0,029
-84,913	800,000	-0,020	-0,057
-83,899	-200,000	-0,024	-0,123
-82,884	23,552	0,044	-0,025
-81,870	480,186	0,070	-0,112
-80,855	148,860	-0,092	0,088
-79,840	-200,000	0,000	-0,037
-78,826	-105,005	0,140	-0,022
-77,811	-70,957	-0,137	0,036
-76,797	-200,000	-0,035	-0,134
-75,782	423,637	0,086	0,132
-74,767	-77,051	0,044	-0,011
-73,753	-64,680	0,109	0,031
-72,738	627,931	-0,047	-0,085
-71,724	-200,000	0,002	-0,086
-70,709	109,753	-0,008	0,006
-69,694	80,831	-0,072	0,055
-68,680	423,356	-0,021	-0,032
-67,665	12,230	0,129	0,070
-66,651	9,843	-0,064	-0,034
-65,636	259,648	-0,136	-0,167
-64,622	417,046	0,061	0,092
-63,607	-91,179	-0,051	-0,010
-62,592	-126,444	-0,069	0,007
-61,578	800,000	0,032	0,085
-60,563	-64,674	0,151	0,043
-59,549	271,704	0,086	0,108
-58,534	41,662	-2,210	-1,410
-57,519	757,344	-1,002	-1,923
-56,505	-200,000	-0,338	-4,206
-55,490	800,000	0,835	1,787
-54,476	800,000	5,075	11,303
-53,461	-200,000	22,261	343,002
-52,446	800,000	756,067	2296,608
-51,432	535,846	1643,019	2760,916
-50,417	68,316	1641,128	1184,732
-49,403	15,890	1517,313	840,190
-48,388	10,028	1442,795	770,837
-47,373	19,212	1435,226	810,420
-46,359	13,487	1424,000	777,091
-45,344	8,358	1419,809	750,578
-44,330	8,285	1417,941	749,214
-43,315	8,225	1416,308	748,039
-42,300	8,231	1414,340	746,998
-41,286	8,252	1413,252	746,492
-40,271	8,217	1412,036	745,655
-39,257	8,234	1410,785	745,047
-38,242	8,267	1409,742	744,619
-37,227	8,253	1408,689	743,969
-36,213	8,282	1407,209	743,296
-35,198	8,266	1405,942	742,519
-34,184	8,286	1405,160	742,169
-33,169	8,213	1403,643	741,000
-32,154	8,227	1402,872	740,626
-31,140	8,269	1401,558	740,100
-30,125	8,296	1400,408	739,591
-29,111	8,216	1399,334	738,623
-28,096	8,234	1398,010	737,976
-27,082	8,195	1396,940	737,201
-26,067	8,144	1395,887	736,380
-25,052	8,159	1395,027	735,964
-24,038	8,220	1393,835	735,590
-23,023	8,168	1392,869	734,812
-22,009	8,163	1392,135	734,372
-20,994	8,197	1390,658	733,720
-19,979	8,168	1390,230	733,330
-18,965	8,140	1389,076	732,563
-17,950	8,127	1387,955	731,883
-16,936	8,087	1387,364	731,361
-15,921	8,104	1386,249	730,821
-14,906	8,115	1385,322	730,351
-13,892	8,139	1384,173	729,830
-12,877	8,138	1383,613	729,502
-11,863	8,093	1382,834	728,852
-10,848	8,094	1381,925	728,351
-9,833	8,074	1380,940	727,710
-8,819	8,018	1380,117	726,990
-7,804	8,030	1379,208	726,540
-6,790	8,044	1377,785	725,824
-5,775	8,000	1377,203	725,287
-4,760	8,039	1376,013	724,812
-3,746	8,004	1375,217	724,202
-2,731	8,046	1374,206	723,831
-1,717	8,015	1373,389	723,232
-0,702	7,966	1371,779	722,130
0,313	12,030	1283,045	693,779
1,327	27,994	676,533	401,353
2,342	43,791	116,208	74,872
3,356	-0,836	16,454	8,189
4,371	-7,537	3,905	1,855
5,386	-29,518	1,417	0,568
6,400	706,460	0,374	0,700
7,415	-45,106	-0,315	-0,110
8,429	300,802	-0,187	-0,244
9,444	173,183	-0,226	-0,230
10,459	592,845	-0,172	-0,301
11,473	-105,601	-0,415	-0,066
12,488	17,415	-0,201	-0,112
13,502	121,313	-0,331	-0,290
14,517	-26,917	-0,302	-0,124
15,531	66,499	-0,346	-0,248
16,546	143,315	-0,362	-0,339
17,561	153,759	-0,378	-0,365
18,575	40,648	-0,106	-0,067
19,590	30,281	-0,282	-0,169
20,604	-90,398	-0,283	-0,057
21,619	-13,631	-0,383	-0,174
22,634	82,164	-0,432	-0,329
23,648	38,282	-0,453	-0,283
24,663	78,645	-0,376	-0,282
25,677	90,799	-0,356	-0,280
26,692	19,078	-0,384	-0,216
27,707	126,573	-0,323	-0,288
28,721	181,418	-0,340	-0,352
29,736	220,625	-0,249	-0,281
30,750	60,278	-0,341	-0,237
31,765	82,062	-0,297	-0,226
32,780	86,122	-0,252	-0,195
33,794	40,855	-0,389	-0,246
34,809	270,812	-0,143	-0,177
35,823	94,811	-0,321	-0,257
36,838	226,986	-0,308	-0,353
37,853	135,936	-0,379	-0,347
38,867	188,610	-0,232	-0,244
39,882	203,090	-0,188	-0,205
40,896	-32,082	-0,412	-0,161
41,911	38,459	-0,340	-0,213
42,926	42,975	-0,391	-0,250
43,940	144,332	-0,361	-0,339
44,955	164,854	-0,330	-0,327
45,969	55,363	-0,386	-0,262
46,984	73,983	-0,426	-0,314
47,999	-58,909	-0,307	-0,093
49,013	93,762	-0,411	-0,327
50,028	-99,316	-0,351	-0,062
51,042	38,239	-0,370	-0,231
52,057	48,252	-0,329	-0,215
53,071	-1,308	-0,282	-0,140
54,086	101,839	-0,282	-0,231
55,101	-20,576	-0,354	-0,152
56,115	-36,761	-0,269	-0,101
57,130	240,712	-0,192	-0,225
58,144	33,355	-0,327	-0,198
59,159	146,887	-0,240	-0,227
60,174	42,630	-0,456	-0,291
61,188	125,969	-0,286	-0,253
62,203	155,684	-0,336	-0,324
63,217	14,307	-0,291	-0,158
64,232	-100,950	-0,304	-0,052
65,247	-23,621	-0,411	-0,172
66,261	11,247	-0,341	-0,183
67,276	-48,805	-0,414	-0,139
68,290	-11,471	-0,364	-0,167
69,305	-1,526	-0,294	-0,145
70,320	38,895	-0,311	-0,195
71,334	-30,678	-0,400	-0,158
72,349	-7,726	-0,384	-0,181
73,363	57,458	-0,291	-0,199
74,378	13,601	-0,348	-0,189
75,393	155,983	-0,204	-0,197
76,407	49,497	-0,222	-0,146
77,422	-11,746	-0,285	-0,131
78,436	114,686	-0,225	-0,192
79,451	99,814	-0,265	-0,215
80,466	2,848	-0,290	-0,147
81,480	37,404	-0,340	-0,210
82,495	107,065	-0,198	-0,165
83,509	-12,607	-0,294	-0,134
84,524	52,243	-0,245	-0,164
85,539	64,972	-0,246	-0,174
86,553	542,835	-0,150	-0,251
87,568	219,432	-0,254	-0,284
88,582	198,489	-0,250	-0,268
89,597	-51,466	-0,314	-0,102
90,611	215,985	-0,235	-0,262
91,626	41,916	-0,235	-0,149
92,641	-40,827	-0,304	-0,110
93,655	-100,634	-0,190	-0,032
94,670	-52,201	-0,343	-0,111
95,684	144,323	-0,300	-0,280
96,699	-7,441	-0,375	-0,177
97,714	-26,662	-0,323	-0,132
98,728	8,967	-0,256	-0,135
99,743	-26,928	-0,276	-0,112
100,757	168,000	-0,283	-0,281
101,772	32,453	-0,277	-0,167
102,787	9,717	-0,162	-0,085
103,801	106,015	-0,217	-0,180
104,816	54,336	-0,316	-0,212
105,830	127,459	-0,203	-0,180
106,845	207,963	-0,170	-0,186
107,860	190,749	-0,168	-0,177
108,874	10,329	-0,304	-0,161
109,889	136,840	-0,269	-0,246
110,903	264,924	-0,188	-0,229
111,918	68,873	-0,134	-0,096
112,933	-55,920	-0,300	-0,093
113,947	-123,200	-0,330	-0,036
114,962	-30,611	-0,285	-0,112
115,976	215,699	-0,165	-0,183
116,991	-67,593	-0,284	-0,077
118,006	73,695	-0,165	-0,121
119,020	800,000	-0,177	-0,388
120,035	-29,797	-0,259	-0,103
121,049	199,421	-0,220	-0,236
122,064	-52,130	-0,119	-0,038
123,079	800,000	-0,142	-0,312
124,093	59,606	-0,298	-0,205
125,108	477,807	-0,194	-0,308
126,122	216,533	-0,168	-0,187
127,137	-115,006	-0,224	-0,029
128,151	-16,838	-0,309	-0,136
129,166	43,192	-0,271	-0,172
130,181	79,290	-0,224	-0,168
131,195	70,219	-0,307	-0,221
132,210	-67,678	-0,320	-0,087
133,224	280,734	-0,236	-0,295
134,239	44,778	-0,271	-0,174
135,254	-95,944	-0,277	-0,051
136,268	43,267	-0,343	-0,218
137,283	-6,804	-0,295	-0,139
138,297	29,364	-0,265	-0,157
139,312	790,407	-0,176	-0,339
140,327	386,763	-0,133	-0,192
141,341	103,946	-0,210	-0,172
142,356	-36,703	-0,164	-0,061
143,370	-6,233	-0,230	-0,109
144,385	-200,000	-0,094	-0,338
145,400	-152,044	-0,376	0,019
146,414	324,857	-0,168	-0,224
147,429	484,339	-0,089	-0,141
148,443	-33,317	-0,195	-0,075
149,458	135,079	-0,250	-0,226
150,473	54,808	-0,235	-0,157
151,487	138,073	-0,196	-0,179
152,502	800,000	-0,180	-0,352
153,516	336,993	-0,202	-0,274
154,531	319,698	-0,178	-0,236
155,546	-200,000	-0,005	-0,107
156,560	-132,272	-0,195	-0,017
157,575	44,490	-0,188	-0,120
158,589	66,175	-0,301	-0,212
159,604	81,631	-0,218	-0,164
160,619	37,579	-0,239	-0,147
161,633	87,735	-0,216	-0,167
162,648	134,802	-0,221	-0,200
163,662	399,229	-0,099	-0,144
164,677	135,048	-0,109	-0,098
165,692	-81,620	-0,223	-0,050
166,706	-14,888	-0,275	-0,122
167,721	-47,830	-0,178	-0,059
168,735	62,007	-0,232	-0,161
169,750	135,277	-0,271	-0,245
170,764	-41,658	-0,221	-0,078
171,779	197,038	-0,207	-0,220
172,794	-30,953	-0,141	-0,055
173,808	-28,508	-0,264	-0,105
174,823	60,327	-0,270	-0,185
175,837	165,956	-0,181	-0,178
176,852	69,999	-0,200	-0,143
177,867	374,886	-0,256	-0,363
178,881	240,663	-0,087	-0,101
179,896	449,213	-0,155	-0,238
180,910	800,000	-0,118	-0,241
181,925	38,098	-0,281	-0,173
182,940	48,832	-0,194	-0,126
183,954	141,914	-0,156	-0,144
184,969	213,151	-0,181	-0,199
185,983	-29,467	-0,186	-0,073
186,998	-49,814	-0,240	-0,079
188,013	-23,713	-0,220	-0,091
189,027	38,380	-0,254	-0,157
190,042	-28,889	-0,239	-0,095
191,056	1,050	-0,220	-0,109
192,071	800,000	-0,052	-0,119
193,086	-20,714	-0,088	0,037
194,100	-200,000	-0,008	-0,110
195,115	-50,548	-0,346	-0,112
196,129	-122,168	-0,324	-0,036
197,144	33,198	-0,187	-0,112
198,159	-61,529	-0,358	-0,103
199,173	228,874	-0,165	-0,186
200,188	-25,402	-0,247	-0,101
201,202	53,085	-0,125	-0,083
202,217	30,330	-0,189	-0,111
203,232	-4,473	-0,230	-0,110
204,246	282,312	-0,194	-0,241
205,261	71,560	-0,296	-0,213
206,275	38,264	-0,185	-0,114
207,290	-76,474	-0,175	-0,042
208,304	723,036	-0,121	-0,224
209,319	106,075	-0,183	-0,150
210,334	226,257	-0,189	-0,212
211,348	-52,577	-0,181	-0,058
212,363	-124,655	-0,296	0,031
213,377	16,730	-0,191	-0,104
214,392	-103,609	-0,237	-0,038
215,407	337,792	-0,080	-0,108
216,421	-98,499	-0,247	-0,043
217,436	23,425	-0,255	-0,145
218,450	197,232	-0,104	-0,110
219,465	-200,000	-0,024	-0,196
220,480	227,551	-0,139	-0,157
221,494	-42,624	-0,104	-0,036
222,509	-119,912	-0,168	-0,020
223,523	212,784	-0,100	-0,109
224,538	-127,260	-0,224	0,022
225,553	724,635	-0,114	-0,211
226,567	276,677	-0,232	-0,286
227,582	67,830	-0,193	-0,136
228,596	315,996	-0,141	-0,184
229,611	159,589	-0,120	-0,115
230,626	-150,038	-0,160	-0,008
231,640	800,000	-0,117	-0,279
232,655	127,511	-0,304	-0,266
233,669	800,000	-0,095	-0,203
234,684	218,893	-0,241	-0,267
235,699	221,105	-0,180	-0,200
236,713	33,531	-0,249	-0,149
237,728	-40,539	-0,211	-0,075
238,742	-116,107	-0,175	-0,022
239,757	86,531	-0,292	-0,222
240,772	75,874	-0,214	-0,156
241,786	243,161	-0,211	-0,245
242,801	223,557	-0,182	-0,203
243,815	-36,166	-0,149	0,055
244,830	157,840	-0,129	-0,124
245,844	-200,000	0,029	-0,135
246,859	248,037	-0,244	-0,285
247,874	249,512	-0,145	-0,170
248,888	800,000	-0,107	-0,248
249,903	129,799	-0,200	-0,176
250,917	139,793	-0,067	-0,061
251,932	800,000	-0,090	-0,258
252,947	-200,000	-0,011	-0,168
253,961	800,000	-0,080	-0,195
254,976	197,877	-0,069	-0,073
255,990	-39,175	-0,200	-0,072
257,005	54,793	-0,154	-0,103
258,020	-103,367	-0,111	-0,018
259,034	22,598	-0,211	-0,119
260,049	164,925	-0,080	-0,078
261,063	26,655	-0,230	-0,132
262,078	205,826	-0,175	-0,188
263,093	-101,967	-0,135	-0,022
264,107	-186,244	-0,267	-0,003
265,122	-51,101	-0,161	-0,052
266,136	172,951	-0,189	-0,187
267,151	107,031	-0,205	-0,167
268,166	139,833	-0,158	-0,143
269,180	137,528	-0,150	-0,136
270,195	-24,427	-0,160	-0,066
271,209	-111,181	-0,222	-0,031
272,224	176,391	-0,174	-0,174
273,239	-47,794	-0,195	-0,065
274,253	230,892	-0,115	-0,130
275,268	794,857	-0,070	-0,134
276,282	26,522	-0,122	0,070
277,297	33,436	-0,190	-0,113
278,312	87,871	-0,152	-0,116
279,326	206,417	-0,113	-0,121
280,341	-131,151	-0,167	0,015
281,355	693,928	-0,129	-0,235
282,370	109,052	-0,175	-0,144
283,384	5,183	-0,171	-0,086
284,399	-24,364	-0,163	-0,067
285,414	-145,425	-0,200	0,012
286,428	296,878	-0,135	-0,170
287,443	204,470	-0,123	-0,131
288,457	692,262	-0,067	-0,122
289,472	-60,217	-0,210	-0,061
290,487	36,422	-0,224	-0,136
291,501	800,000	-0,070	-0,156
292,516	800,000	-0,076	-0,153
293,530	128,441	-0,085	-0,074
294,545	-89,445	-0,088	-0,018
295,560	-182,495	-0,160	-0,002
296,574	-140,793	-0,113	0,008
297,589	-184,764	-0,199	0,002
298,603	-200,000	-0,053	-0,255
299,618	166,076	-0,101	-0,098
300,633	-3,848	-0,207	-0,098
301,647	-200,000	-0,025	-0,100
302,662	-36,603	-0,141	0,052
303,676	2,413	-0,179	-0,089
304,691	213,328	-0,179	-0,194
305,706	-72,476	-0,310	-0,078
306,720	104,392	-0,101	-0,082
307,735	800,000	0,055	-0,114
308,749	361,523	-0,078	-0,108
309,764	-71,935	-0,094	0,024
310,779	112,480	-0,179	0,148
311,793	-200,000	0,042	-0,145
312,808	288,404	-0,127	-0,158
313,822	800,000	-0,061	-0,146
314,837	-132,226	-0,105	0,009
315,852	163,050	-0,051	-0,049
316,866	-200,000	-0,052	-0,259
317,881	-78,853	-0,137	-0,032
318,895	-0,865	-0,289	-0,140
319,910	49,002	-0,200	-0,128
320,925	661,675	-0,114	-0,203
321,939	57,770	-0,149	-0,100
322,954	249,213	-0,213	-0,247
323,968	-200,000	-0,005	-0,104
324,983	-200,000	-0,049	-0,196
325,997	99,602	-0,201	-0,159
327,012	800,000	-0,111	-0,254
328,027	58,347	-0,216	-0,145
329,041	800,000	-0,084	-0,237
330,056	-53,236	-0,231	-0,072
331,070	93,918	-0,131	-0,102
332,085	129,755	-0,214	-0,187
333,100	-111,718	-0,201	0,028
334,114	353,508	-0,170	-0,231
335,129	-65,602	-0,171	-0,047
336,143	56,452	-0,153	-0,102
337,158	24,372	-0,065	0,036
338,173	140,330	-0,139	-0,126
339,187	-51,459	-0,104	0,033
340,202	-146,984	-0,167	-0,010
341,216	-181,528	-0,199	0,003
342,231	653,806	-0,070	-0,123
343,246	-90,065	-0,040	0,008
344,260	-7,671	-0,219	-0,101
345,275	-102,664	-0,102	-0,017
346,289	170,635	-0,156	-0,153
347,304	73,496	-0,065	-0,046
348,319	-45,543	-0,312	-0,105
349,333	66,229	-0,179	-0,124
350,348	329,702	-0,156	-0,206
351,362	10,580	-0,266	-0,138
352,377	156,052	-0,162	-0,153
353,392	-72,986	-0,143	-0,036
354,406	-147,555	-0,325	0,018
355,421	207,118	1307,351	1395,105
356,435	159,314	1467,154	1395,578
