DTS Sentinel unit serial number:	SN410029Multiplexer serial number:	ORYXHardware model number:	OX2-SRSoftware version number:	ORYX F/W v4,00 Oryx Data Collector v3.7.2.0data status	okinstallation	B3 Nyhavnadifferential loss correction	single-endedforward channel	channel 1reverse channel	N/Adate	2023/12/05time	07:52:30forward acquisition time	300,00reverse acquisition time	0,00gamma	499,1914k internal	0,3200k external	0,3200temperature offset calibration	1,0000default loss term (dB/km)	0,3820temperature slope calibration	1,0000multiplexer offset coefficient	1,0000multiplexer slope coefficient	1,0000fibre end	0,00T internal ref (°C)	13,63T ext. ref 1 (°C)	-1,50T ext. ref 2 (°C)	-1,60length (m)	temperature (°C)	Stokes	anti-Stokes-744,400	-200,000	-0,072	-0,241
-743,385	800,000	0,079	0,210
-742,371	800,000	-0,114	-0,261
-741,356	-200,000	-0,048	0,421
-740,342	800,000	-0,107	-0,268
-739,327	-200,000	-0,098	0,399
-738,312	425,030	-0,120	-0,189
-737,298	-200,000	-0,022	0,375
-736,283	276,638	-0,156	-0,202
-735,269	-200,000	-0,002	0,318
-734,254	204,552	-0,204	-0,231
-733,239	18,650	-0,195	0,113
-732,225	479,237	-0,156	-0,258
-731,210	-73,513	0,137	0,036
-730,196	-91,162	0,035	-0,007
-729,181	800,000	-0,026	0,061
-728,167	-200,000	-0,028	0,118
-727,152	-57,428	-0,105	-0,033
-726,137	-56,503	-0,094	-0,030
-725,123	-182,785	0,071	-0,001
-724,108	11,568	-0,101	0,056
-723,094	-200,000	0,000	-0,000
-722,079	356,785	0,025	-0,036
-721,064	-200,000	0,008	0,040
-720,050	267,973	0,037	0,047
-719,035	100,817	0,060	-0,050
-718,021	-106,378	-0,155	-0,025
-717,006	13,061	-0,073	-0,041
-715,991	26,502	-0,112	-0,068
-714,977	-200,000	-0,013	-0,233
-713,962	-67,401	0,020	0,006
-712,948	-123,447	-0,083	-0,009
-711,933	514,309	0,034	-0,058
-710,918	800,000	0,030	-0,091
-709,904	-152,247	-0,028	0,001
-708,889	-128,899	-0,189	-0,019
-707,875	65,787	-0,056	-0,042
-706,860	173,624	0,021	-0,022
-705,845	590,393	0,079	0,143
-704,831	282,340	0,154	0,202
-703,816	-47,790	-0,103	0,036
-702,802	-99,026	-0,046	0,008
-701,787	-74,936	0,055	-0,014
-700,772	173,759	-0,084	-0,088
-699,758	-16,663	-0,046	0,021
-698,743	94,232	0,043	0,035
-697,729	-200,000	-0,000	0,002
-696,714	-200,000	-0,006	0,122
-695,699	-148,304	0,102	-0,006
-694,685	6,762	0,073	-0,040
-693,670	-35,591	-0,030	-0,012
-692,656	800,000	0,014	0,032
-691,641	800,000	0,021	-0,055
-690,627	-5,346	-0,038	-0,019
-689,612	-200,000	-0,030	0,129
-688,597	168,268	-0,095	0,098
-687,583	98,601	-0,085	-0,071
-686,568	-200,000	0,024	-0,211
-685,554	800,000	0,047	0,097
-684,539	800,000	-0,051	0,111
-683,524	755,662	-0,031	0,061
-682,510	339,834	-0,060	0,086
-681,495	800,000	-0,045	-0,121
-680,481	185,465	-0,132	-0,142
-679,466	183,425	-0,104	-0,111
-678,451	-84,114	-0,088	-0,020
-677,437	-183,010	0,141	-0,002
-676,422	-83,169	-0,101	-0,023
-675,408	-200,000	-0,002	0,103
-674,393	387,933	-0,085	0,128
-673,378	108,358	-0,047	0,040
-672,364	159,591	-0,045	-0,045
-671,349	-200,000	-0,015	-0,330
-670,335	800,000	0,013	0,030
-669,320	800,000	0,057	0,124
-668,305	188,442	-0,029	0,032
-667,291	-200,000	-0,027	0,162
-666,276	348,438	-0,026	-0,037
-665,262	1,136	0,121	-0,063
-664,247	412,003	-0,075	-0,115
-663,232	103,814	-0,061	0,052
-662,218	314,054	0,057	0,078
-661,203	88,034	0,106	0,085
-660,189	-147,888	-0,053	-0,003
-659,174	800,000	0,044	-0,103
-658,159	476,200	0,050	0,082
-657,145	29,893	-0,141	-0,087
-656,130	440,237	-0,064	-0,102
-655,116	-159,007	0,010	0,000
-654,101	800,000	-0,044	0,138
-653,086	800,000	0,038	-0,099
-652,072	332,787	0,049	-0,069
-651,057	101,247	-0,118	-0,099
-650,043	97,935	0,070	-0,058
-649,028	800,000	0,029	-0,069
-648,014	21,310	0,033	0,020
-646,999	48,669	-0,079	-0,054
-645,984	-44,516	-0,148	0,053
-644,970	203,545	-0,071	-0,080
-643,955	602,374	-0,012	-0,022
-642,941	800,000	-0,018	-0,044
-641,926	-200,000	-0,016	-0,091
-640,911	-2,240	0,053	0,027
-639,897	313,698	-0,073	0,100
-638,882	-11,313	0,034	0,016
-637,868	730,089	0,076	-0,148
-636,853	73,646	-0,064	-0,048
-635,838	-45,105	0,009	-0,003
-634,824	-200,000	-0,003	-0,155
-633,809	156,619	0,039	-0,039
-632,795	406,712	0,048	0,074
-631,780	-163,854	0,125	0,004
-630,765	-200,000	-0,001	-0,038
-629,751	-115,023	-0,104	0,014
-628,736	-41,772	-0,058	-0,021
-627,722	111,973	-0,130	0,114
-626,707	-56,642	0,098	0,031
-625,692	122,587	-0,144	0,130
-624,678	487,307	-0,029	0,048
-623,663	138,844	0,035	0,033
-622,649	507,554	-0,057	-0,096
-621,634	-51,869	-0,094	-0,032
-620,619	35,662	0,104	-0,066
-619,605	-200,000	-0,004	-0,106
-618,590	28,587	0,056	-0,034
-617,576	800,000	0,015	0,034
-616,561	-200,000	0,004	0,029
-615,546	310,869	-0,051	-0,069
-614,532	-125,251	-0,135	-0,015
-613,517	51,915	0,051	-0,035
-612,503	18,705	-0,037	0,021
-611,488	-200,000	-0,011	-0,050
-610,474	-91,267	0,058	0,012
-609,459	120,439	0,192	-0,173
-608,444	24,778	-0,125	0,075
-607,430	-56,486	0,080	-0,026
-606,415	120,693	-0,041	-0,037
-605,401	727,603	-0,046	0,089
-604,386	8,587	0,076	0,041
-603,371	-200,000	0,016	-0,090
-602,357	800,000	-0,025	0,058
-601,342	316,056	0,064	0,087
-600,328	-55,298	-0,089	-0,029
-599,313	45,725	-0,060	0,040
-598,298	46,743	-0,088	0,059
-597,284	331,938	-0,126	-0,176
-596,269	-200,000	0,007	0,050
-595,255	72,020	-0,093	0,070
-594,240	214,125	-0,090	-0,104
-593,225	87,387	-0,084	-0,068
-592,211	132,439	-0,055	0,051
-591,196	800,000	-0,069	-0,187
-590,182	289,500	-0,055	0,072
-589,167	-200,000	-0,007	-0,031
-588,152	542,623	0,023	0,039
-587,138	-200,000	-0,007	-0,054
-586,123	38,119	-0,071	-0,045
-585,109	527,200	0,049	-0,084
-584,094	240,471	-0,090	-0,109
-583,079	-37,785	-0,052	0,020
-582,065	73,892	0,041	-0,031
-581,050	800,000	-0,027	0,055
-580,036	-154,460	0,051	-0,002
-579,021	-200,000	0,022	-0,102
-578,006	-150,463	-0,229	0,012
-576,992	329,104	-0,048	-0,066
-575,977	69,557	0,025	0,019
-574,963	11,767	-0,110	0,061
-573,948	-200,000	-0,013	-0,116
-572,934	-135,954	0,196	0,016
-571,919	191,106	-0,030	0,033
-570,904	-23,615	-0,036	-0,016
-569,890	393,962	-0,087	-0,132
-568,875	-200,000	-0,016	0,117
-567,861	-178,797	0,084	-0,001
-566,846	108,987	-0,058	0,050
-565,831	117,538	0,059	-0,053
-564,817	-128,889	-0,168	-0,017
-563,802	800,000	0,021	0,054
-562,788	800,000	-0,005	0,013
-561,773	-52,594	-0,044	0,015
-560,758	11,514	0,080	-0,044
-559,744	-93,615	-0,057	0,011
-558,729	-200,000	0,028	0,177
-557,715	114,851	0,018	0,016
-556,700	-200,000	0,005	-0,089
-555,685	-141,845	-0,062	0,004
-554,671	163,516	0,075	0,076
-553,656	40,209	0,081	-0,053
-552,642	-200,000	0,013	-0,074
-551,627	-121,056	0,084	-0,010
-550,612	70,249	-0,083	0,062
-549,598	-200,000	-0,012	-0,156
-548,583	338,913	-0,057	-0,080
-547,569	-6,217	0,090	-0,044
-546,554	24,111	-0,021	0,013
-545,539	-114,907	0,162	-0,022
-544,525	268,441	0,070	0,089
-543,510	31,403	-0,037	-0,023
-542,496	-102,297	0,012	0,002
-541,481	274,475	-0,107	-0,137
-540,466	-200,000	-0,014	-0,135
-539,452	-200,000	0,016	0,055
-538,437	-200,000	0,001	0,060
-537,423	-119,207	0,151	-0,019
-536,408	5,674	0,119	0,063
-535,393	-84,486	-0,100	0,023
-534,379	-106,590	0,055	-0,009
-533,364	-80,899	-0,035	0,008
-532,350	65,734	-0,031	0,023
-531,335	52,024	0,071	0,049
-530,321	-139,446	0,110	-0,008
-529,306	23,310	-0,097	0,057
-528,291	-132,947	-0,190	-0,017
-527,277	-36,798	-0,116	0,045
-526,262	47,068	0,088	-0,059
-525,248	-47,057	0,034	-0,012
-524,233	75,081	0,164	0,124
-523,218	-87,409	0,057	-0,012
-522,204	403,386	0,026	0,040
-521,189	217,098	-0,120	-0,138
-520,175	15,792	0,064	-0,036
-519,160	189,567	-0,021	0,023
-518,145	126,907	-0,030	0,027
-517,131	-43,852	-0,131	-0,047
-516,116	138,228	0,168	-0,159
-515,102	204,675	-0,050	0,056
-514,087	-107,805	0,159	-0,025
-513,072	149,926	-0,071	-0,069
-512,058	-102,794	-0,034	0,006
-511,043	-133,648	0,144	-0,013
-510,029	-90,476	0,033	0,007
-509,014	-200,000	0,086	0,000
-507,999	71,946	-0,192	-0,144
-506,985	800,000	0,034	-0,069
-505,970	75,337	-0,172	-0,131
-504,956	582,887	-0,038	-0,068
-503,941	132,181	-0,048	-0,044
-502,926	-200,000	0,032	0,120
-501,912	-200,000	-0,001	0,065
-500,897	481,201	0,070	0,115
-499,883	800,000	0,031	-0,068
-498,868	-41,486	0,076	0,028
-497,853	-200,000	-0,003	0,080
-496,839	-200,000	0,002	0,026
-495,824	205,522	0,033	0,036
-494,810	-200,000	-0,017	0,062
-493,795	-200,000	-0,006	-0,084
-492,781	627,244	0,020	-0,036
-491,766	800,000	-0,020	-0,052
-490,751	800,000	-0,063	-0,136
-489,737	-156,908	0,044	0,002
-488,722	61,740	0,037	0,026
-487,708	800,000	0,053	-0,126
-486,693	557,712	-0,024	0,041
-485,678	800,000	-0,035	-0,096
-484,664	-200,000	-0,000	-0,054
-483,649	-59,662	-0,101	0,031
-482,635	-167,124	0,040	0,001
-481,620	-200,000	-0,010	-0,058
-480,605	626,648	0,030	-0,055
-479,591	90,903	0,091	0,074
-478,576	178,631	0,041	-0,043
-477,562	800,000	0,024	-0,062
-476,547	800,000	0,024	-0,050
-475,532	94,943	-0,086	-0,071
-474,518	-200,000	0,008	0,054
-473,503	-2,351	-0,036	0,018
-472,489	-70,700	0,137	0,037
-471,474	800,000	-0,019	0,061
-470,459	-138,260	-0,145	-0,011
-469,445	181,710	-0,020	-0,022
-468,430	800,000	0,050	-0,158
-467,416	-107,737	0,057	0,009
-466,401	-126,741	-0,066	0,007
-465,386	252,302	0,103	-0,127
-464,372	800,000	-0,020	-0,047
-463,357	79,228	-0,076	-0,058
-462,343	165,061	0,083	-0,084
-461,328	800,000	0,022	-0,069
-460,313	571,388	-0,023	0,040
-459,299	151,105	0,071	0,070
-458,284	800,000	0,019	0,044
-457,270	12,306	0,078	0,043
-456,255	800,000	0,007	-0,017
-455,241	-134,326	-0,110	-0,010
-454,226	390,803	0,053	-0,079
-453,211	-200,000	-0,018	0,061
-452,197	-98,279	0,115	0,021
-451,182	-118,315	0,071	0,009
-450,168	800,000	0,037	0,085
-449,153	-139,140	-0,095	-0,007
-448,138	800,000	-0,030	0,075
-447,124	42,944	0,100	0,065
-446,109	800,000	-0,047	0,100
-445,095	75,570	-0,043	-0,032
-444,080	-121,644	-0,128	0,015
-443,065	38,817	0,128	0,082
-442,051	-200,000	0,008	-0,026
-441,036	116,343	0,019	-0,016
-440,022	-200,000	-0,014	0,171
-439,007	-29,633	-0,088	-0,036
-437,992	-200,000	0,013	0,153
-436,978	800,000	-0,003	0,009
-435,963	177,440	-0,073	-0,077
-434,949	-200,000	-0,002	0,027
-433,934	286,280	-0,059	-0,077
-432,919	108,892	0,042	0,036
-431,905	-200,000	-0,022	-0,168
-430,890	33,275	-0,017	-0,010
-429,876	800,000	0,023	-0,050
-428,861	-200,000	-0,012	0,109
-427,846	800,000	-0,089	0,186
-426,832	800,000	-0,042	-0,088
-425,817	-200,000	0,005	-0,047
-424,803	410,639	0,032	-0,048
-423,788	-19,403	0,113	0,050
-422,773	75,113	-0,073	0,056
-421,759	-200,000	0,006	0,029
-420,744	423,683	0,123	0,190
-419,730	-200,000	-0,006	0,070
-418,715	-200,000	0,007	-0,120
-417,701	129,983	-0,028	0,026
-416,686	93,674	0,087	0,070
-415,671	224,657	0,077	0,089
-414,657	180,233	-0,100	0,105
-413,642	800,000	0,011	-0,031
-412,628	48,186	0,109	-0,073
-411,613	-200,000	-0,026	-0,115
-410,598	-127,342	0,062	0,006
-409,584	-200,000	-0,018	-0,093
-408,569	127,907	-0,025	0,023
-407,555	-10,582	0,081	-0,038
-406,540	250,550	-0,051	-0,062
-405,525	-148,689	0,055	-0,003
-404,511	-180,677	-0,117	0,002
-403,496	-200,000	0,022	-0,140
-402,482	-200,000	0,030	-0,099
-401,467	249,933	0,061	0,075
-400,452	443,829	0,053	0,084
-399,438	-200,000	0,022	0,234
-398,423	48,316	0,057	0,038
-397,409	800,000	0,016	0,047
-396,394	233,302	-0,085	-0,100
-395,379	-151,444	-0,084	0,004
-394,365	-153,866	0,064	-0,003
-393,350	800,000	-0,035	0,082
-392,336	800,000	-0,014	0,042
-391,321	343,690	-0,025	0,036
-390,306	97,446	0,050	-0,041
-389,292	-70,042	0,168	-0,046
-388,277	-148,465	-0,094	0,005
-387,263	-200,000	-0,014	0,101
-386,248	-115,563	0,177	-0,024
-385,233	665,891	-0,064	0,119
-384,219	224,873	0,055	-0,064
-383,204	-200,000	0,028	-0,119
-382,190	133,431	-0,017	0,016
-381,175	800,000	0,013	0,038
-380,160	-125,589	0,081	0,009
-379,146	125,555	0,158	0,143
-378,131	100,793	0,022	0,018
-377,117	183,228	-0,090	-0,096
-376,102	-124,056	0,049	0,005
-375,088	-200,000	-0,022	-0,100
-374,073	571,868	-0,035	0,061
-373,058	-200,000	-0,004	0,053
-372,044	223,796	-0,045	0,052
-371,029	-33,052	0,105	0,042
-370,015	586,392	-0,013	-0,022
-369,000	191,430	-0,024	-0,026
-367,985	-200,000	-0,016	-0,104
-366,971	234,442	-0,043	-0,051
-365,956	599,629	0,105	0,187
-364,942	-200,000	-0,005	0,066
-363,927	-200,000	0,045	0,188
-362,912	-200,000	-0,022	-0,136
-361,898	-200,000	0,034	-0,146
-360,883	-200,000	0,009	-0,132
-359,869	-200,000	-0,005	-0,209
-358,854	1,275	-0,088	0,045
-357,839	-129,769	-0,084	0,008
-356,825	214,267	-0,043	-0,048
-355,810	-52,243	0,066	-0,022
-354,796	415,499	0,086	0,132
-353,781	800,000	-0,009	-0,020
-352,766	141,187	-0,072	-0,068
-351,752	594,843	0,073	-0,131
-350,737	144,266	0,050	-0,048
-349,723	-60,761	0,065	-0,020
-348,708	-113,589	0,065	0,009
-347,693	-200,000	-0,001	0,065
-346,679	427,881	-0,042	0,065
-345,664	383,962	-0,099	-0,146
-344,650	328,319	-0,037	-0,051
-343,635	-176,475	0,081	0,001
-342,620	-200,000	-0,009	0,120
-341,606	-100,101	0,058	0,010
-340,591	2,217	0,116	-0,060
-339,577	-200,000	-0,021	-0,107
-338,562	-200,000	-0,030	-0,129
-337,548	-200,000	-0,005	0,038
-336,533	-8,895	-0,137	0,066
-335,518	-21,945	0,039	-0,017
-334,504	-108,215	0,060	-0,009
-333,489	-141,280	-0,082	-0,006
-332,475	800,000	-0,030	-0,061
-331,460	800,000	-0,006	-0,013
-330,445	-2,052	-0,060	0,030
-329,431	111,625	0,027	0,024
-328,416	341,287	0,076	-0,106
-327,402	-15,761	-0,112	-0,051
-326,387	-181,370	0,058	-0,001
-325,372	-200,000	-0,008	-0,064
-324,358	-200,000	0,008	-0,025
-323,343	200,466	0,068	0,074
-322,329	208,454	-0,043	0,048
-321,314	-200,000	-0,009	0,074
-320,299	-200,000	-0,003	0,045
-319,285	703,883	0,067	0,127
-318,270	-200,000	0,007	-0,070
-317,256	-29,370	0,114	-0,046
-316,241	337,121	-0,051	0,072
-315,226	-96,090	0,090	0,017
-314,212	-200,000	0,011	-0,143
-313,197	84,033	-0,111	0,087
-312,183	-129,328	0,103	-0,010
-311,168	-136,823	-0,085	0,007
-310,153	-200,000	0,011	-0,148
-309,139	800,000	-0,057	-0,147
-308,124	-200,000	0,013	-0,105
-307,110	-103,169	0,060	-0,010
-306,095	192,742	0,060	0,065
-305,080	-200,000	-0,002	-0,025
-304,066	-200,000	-0,002	-0,090
-303,051	-1,344	-0,066	-0,033
-302,037	408,886	0,037	-0,056
-301,022	-200,000	0,026	-0,124
-300,008	48,383	0,193	-0,129
-298,993	780,491	-0,030	0,059
-297,978	-26,763	-0,055	0,023
-296,964	-49,432	0,079	-0,027
-295,949	-200,000	0,007	-0,151
-294,935	217,463	0,062	-0,071
-293,920	-110,709	-0,021	-0,003
-292,905	800,000	-0,017	-0,039
-291,891	-200,000	0,016	0,090
-290,876	80,574	0,062	0,048
-289,862	37,659	-0,078	0,050
-288,847	-200,000	-0,155	0,000
-287,832	800,000	-0,044	-0,093
-286,818	508,650	-0,073	0,122
-285,803	-74,341	0,125	0,032
-284,789	800,000	0,018	0,047
-283,774	-13,957	0,049	0,022
-282,759	-200,000	-0,003	-0,031
-281,745	-200,000	0,014	0,154
-280,730	14,607	-0,067	-0,037
-279,716	-200,000	0,003	-0,057
-278,701	-200,000	-0,006	0,024
-277,686	-70,004	0,079	0,021
-276,672	219,846	0,075	-0,086
-275,657	-200,000	0,001	0,173
-274,643	625,848	-0,092	0,166
-273,628	181,159	-0,078	0,082
-272,613	-167,283	0,055	-0,002
-271,599	-82,288	0,130	0,030
-270,584	98,698	0,161	0,133
-269,570	800,000	-0,055	0,125
-268,555	18,127	-0,106	0,060
-267,540	67,517	0,036	0,026
-266,526	800,000	-0,022	-0,048
-265,511	5,214	-0,138	-0,073
-264,497	-104,067	-0,069	0,011
-263,482	-200,000	-0,011	-0,051
-262,467	325,219	-0,037	0,051
-261,453	8,535	-0,021	-0,011
-260,438	-200,000	-0,003	0,010
-259,424	-200,000	0,009	0,137
-258,409	800,000	-0,015	0,046
-257,395	-19,688	0,156	0,069
-256,380	-53,072	-0,088	0,029
-255,365	-200,000	0,015	0,116
-254,351	108,447	0,050	-0,043
-253,336	573,404	-0,047	0,081
-252,322	594,266	0,061	-0,108
-251,307	336,848	-0,077	0,107
-250,292	800,000	0,020	0,041
-249,278	-19,343	0,128	0,056
-248,263	-27,419	0,091	0,038
-247,249	-124,969	0,065	0,007
-246,234	-200,000	-0,004	-0,130
-245,219	564,037	0,058	-0,100
-244,205	-31,368	0,162	0,065
-243,190	800,000	0,029	0,071
-242,176	-0,053	0,051	0,026
-241,161	102,625	0,090	0,075
-240,146	527,366	-0,026	0,044
-239,132	-44,832	0,127	-0,045
-238,117	496,873	-0,015	0,025
-237,103	-200,000	0,008	-0,067
-236,088	-200,000	0,006	0,178
-235,073	181,200	0,063	0,067
-234,059	-59,879	0,128	-0,039
-233,044	-200,000	0,010	0,062
-232,030	77,334	-0,048	0,037
-231,015	44,938	-0,057	0,037
-230,000	-200,000	-0,020	0,114
-228,986	-200,000	-0,035	-0,177
-227,971	48,789	-0,042	-0,028
-226,957	105,818	0,184	0,155
-225,942	-17,683	-0,042	0,019
-224,927	-63,911	0,044	-0,013
-223,913	-61,200	-0,053	0,016
-222,898	-200,000	-0,020	-0,106
-221,884	-200,000	0,040	0,160
-220,869	800,000	-0,024	0,063
-219,855	-102,514	0,231	-0,039
-218,840	192,424	0,066	0,071
-217,825	-71,118	-0,084	-0,022
-216,811	-200,000	0,009	0,046
-215,796	-75,550	-0,164	-0,041
-214,782	236,871	-0,107	-0,127
-213,767	-101,304	0,084	0,014
-212,752	800,000	0,022	0,063
-211,738	-200,000	-0,019	0,088
-210,723	748,678	-0,051	0,098
-209,709	52,008	-0,109	-0,074
-208,694	800,000	0,037	-0,079
-207,679	273,990	0,022	-0,028
-206,665	-137,586	-0,204	-0,016
-205,650	-46,059	0,035	0,012
-204,636	800,000	-0,031	0,077
-203,621	800,000	0,031	0,068
-202,606	336,060	-0,071	0,098
-201,592	11,791	-0,138	0,075
-200,577	350,876	-0,065	-0,092
-199,563	-40,272	-0,145	0,054
-198,548	-73,038	0,069	-0,018
-197,533	67,703	-0,033	-0,024
-196,519	-200,000	-0,035	0,162
-195,504	-18,068	0,056	-0,025
-194,490	513,931	0,056	-0,093
-193,475	-200,000	-0,000	0,089
-192,460	169,726	0,064	-0,066
-191,446	537,762	0,059	0,100
-190,431	-126,186	0,029	0,003
-189,417	-200,000	-0,036	0,192
-188,402	84,227	-0,035	0,028
-187,387	104,775	-0,171	-0,143
-186,373	-136,893	-0,047	-0,004
-185,358	260,045	-0,126	0,155
-184,344	-30,324	0,066	0,027
-183,329	300,658	0,034	0,044
-182,315	-57,589	-0,047	0,014
-181,300	-200,000	0,007	-0,088
-180,285	652,418	-0,055	-0,101
-179,271	12,938	-0,081	-0,044
-178,256	514,193	-0,025	-0,042
-177,242	-200,000	0,020	-0,073
-176,227	-200,000	0,004	0,092
-175,212	141,519	-0,065	-0,061
-174,198	114,926	-0,080	-0,069
-173,183	325,490	0,085	0,115
-172,169	-126,488	-0,138	0,014
-171,154	-186,541	0,028	0,000
-170,139	230,171	-0,156	0,182
-169,125	-154,089	0,054	0,003
-168,110	-26,034	0,070	0,029
-167,096	800,000	-0,048	0,097
-166,081	191,244	-0,033	-0,035
-165,066	571,309	-0,052	-0,090
-164,052	692,113	-0,021	0,039
-163,037	-200,000	0,015	0,066
-162,023	49,921	0,127	0,085
-161,008	-200,000	-0,021	0,076
-159,993	-49,860	-0,099	-0,033
-158,979	-200,000	-0,009	0,145
-157,964	-200,000	-0,008	0,082
-156,950	-52,571	0,041	-0,013
-155,935	-200,000	-0,010	-0,094
-154,920	-45,720	0,144	-0,050
-153,906	-200,000	-0,001	0,050
-152,891	-199,844	-0,079	0,000
-151,877	-193,152	0,131	-0,001
-150,862	-200,000	-0,021	-0,189
-149,847	33,686	0,009	-0,006
-148,833	-134,776	-0,032	0,003
-147,818	80,013	0,030	0,023
-146,804	-74,510	0,207	-0,053
-145,789	-79,527	-0,032	-0,008
-144,775	-46,553	0,061	0,021
-143,760	688,010	-0,031	0,059
-142,745	-200,000	-0,057	-0,186
-141,731	-22,991	0,078	-0,033
-140,716	-25,285	-0,050	-0,021
-139,702	-79,073	0,098	-0,023
-138,687	-47,951	-0,128	-0,044
-137,672	473,048	0,031	-0,050
-136,658	347,031	0,065	-0,091
-135,643	-13,607	-0,037	-0,017
-134,629	-98,563	0,063	0,011
-133,614	32,777	-0,079	-0,048
-132,599	113,042	0,086	0,074
-131,585	87,158	0,035	-0,027
-130,570	430,250	-0,053	-0,082
-129,556	759,711	0,048	-0,093
-128,541	2,412	-0,160	0,082
-127,526	97,641	0,023	0,019
-126,512	-200,000	-0,014	0,067
-125,497	179,662	0,139	0,145
-124,483	135,722	-0,058	-0,054
-123,468	-200,000	-0,005	-0,072
-122,453	-200,000	-0,023	-0,094
-121,439	-22,386	-0,106	-0,045
-120,424	40,478	0,040	0,025
-119,410	-200,000	-0,036	-0,117
-118,395	796,135	0,068	-0,133
-117,380	340,654	0,047	0,066
-116,366	-100,474	-0,042	0,007
-115,351	6,431	0,067	0,035
-114,337	-200,000	0,005	0,021
-113,322	-200,000	-0,040	-0,129
-112,307	-120,462	0,110	-0,013
-111,293	38,100	0,050	0,031
-110,278	166,504	-0,054	-0,054
-109,264	800,000	-0,065	-0,129
-108,249	-14,123	-0,134	0,061
-107,234	624,662	-0,049	-0,088
-106,220	403,612	-0,036	0,054
-105,205	68,323	0,054	-0,039
-104,191	-74,389	0,230	0,058
-103,176	-143,247	0,031	-0,002
-102,162	800,000	0,022	-0,044
-101,147	88,487	0,049	0,039
-100,132	-24,985	-0,020	0,008
-99,118	-150,503	-0,074	0,004
-98,103	57,452	-0,032	0,022
-97,089	93,180	0,076	0,061
-96,074	311,068	-0,098	0,131
-95,059	-19,249	-0,070	-0,031
-94,045	64,355	-0,101	0,072
-93,030	-44,632	0,051	-0,018
-92,016	220,179	0,067	-0,076
-91,001	-200,000	0,005	-0,042
-89,986	359,070	0,104	0,147
-88,972	-44,252	0,047	0,016
-87,957	-119,668	0,091	-0,011
-86,943	-200,000	0,008	0,065
-85,928	-116,780	-0,119	-0,015
-84,913	28,592	0,037	0,022
-83,899	-200,000	0,039	-0,154
-82,884	-12,335	0,082	0,038
-81,870	-195,372	-0,075	0,000
-80,855	582,400	0,063	-0,110
-79,840	-68,322	0,111	-0,030
-78,826	61,347	0,076	-0,054
-77,811	-104,157	-0,102	0,017
-76,797	68,604	0,064	0,046
-75,782	10,442	-0,124	-0,067
-74,767	-96,349	0,094	-0,017
-73,753	307,046	0,067	-0,088
-72,738	800,000	-0,058	0,134
-71,724	-69,051	-0,126	0,034
-70,709	-20,426	0,081	0,035
-69,694	194,787	-0,091	0,098
-68,680	-83,001	0,083	-0,019
-67,665	206,488	0,050	0,055
-66,651	253,888	-0,051	-0,061
-65,636	-200,000	-0,008	-0,064
-64,622	-39,700	-0,142	-0,052
-63,607	800,000	-0,027	-0,062
-62,592	-200,000	0,004	-0,148
-61,578	-200,000	0,010	0,157
-60,563	-127,687	0,038	-0,004
-59,549	76,887	0,040	0,030
-58,534	-37,062	-1,671	-0,631
-57,519	472,732	-1,235	-1,979
-56,505	-200,000	-0,506	-4,728
-55,490	158,205	0,959	0,943
-54,476	800,000	5,030	11,455
-53,461	-200,000	19,276	318,254
-52,446	-200,000	740,376	2335,476
-51,432	575,648	1656,114	2875,923
-50,417	78,763	1672,161	1265,649
-49,403	21,655	1544,773	888,267
-48,388	15,481	1467,436	813,749
-47,373	17,885	1457,511	819,843
-46,359	16,752	1447,412	808,693
-45,344	13,803	1442,646	791,859
-44,330	13,688	1441,103	790,430
-43,315	13,697	1439,131	789,359
-42,300	13,713	1437,408	788,458
-41,286	13,734	1436,341	787,943
-40,271	13,680	1434,911	786,872
-39,257	13,664	1433,718	786,107
-38,242	13,745	1432,394	785,737
-37,227	13,719	1431,312	784,988
-36,213	13,758	1429,799	784,315
-35,198	13,751	1428,719	783,658
-34,184	13,725	1427,819	783,006
-33,169	13,701	1426,342	782,054
-32,154	13,745	1425,490	781,762
-31,140	13,711	1424,110	780,814
-30,125	13,750	1423,152	780,442
-29,111	13,753	1421,825	779,697
-28,096	13,718	1420,736	778,907
-27,082	13,687	1419,782	778,207
-26,067	13,660	1418,642	777,423
-25,052	13,664	1417,547	776,812
-24,038	13,643	1416,669	776,199
-23,023	13,624	1415,640	775,513
-22,009	13,656	1414,471	774,994
-20,994	13,581	1413,644	774,156
-19,979	13,670	1412,513	773,926
-18,965	13,584	1411,747	773,069
-17,950	13,582	1410,835	772,534
-16,936	13,619	1409,957	772,194
-15,921	13,571	1408,727	771,264
-14,906	13,586	1407,942	770,875
-13,892	13,552	1407,005	770,170
-12,877	13,595	1406,102	769,850
-11,863	13,540	1405,420	769,188
-10,848	13,521	1404,468	768,547
-9,833	13,499	1403,522	767,895
-8,819	13,496	1402,483	767,285
-7,804	13,521	1401,604	766,887
-6,790	13,469	1400,680	766,109
-5,775	13,447	1399,704	765,445
-4,760	13,491	1398,524	764,973
-3,746	13,476	1397,741	764,444
-2,731	13,445	1396,938	763,830
-1,717	13,444	1395,916	763,239
-0,702	13,430	1394,295	762,255
0,313	17,250	1311,176	734,537
1,327	33,553	704,136	432,170
2,342	51,804	123,308	82,918
3,356	1,698	16,668	8,470
4,371	15,271	3,266	1,807
5,386	-45,287	0,578	0,202
6,400	726,971	0,063	0,120
7,415	-61,113	-0,190	-0,056
8,429	2,043	-0,364	-0,185
9,444	86,813	-0,307	-0,240
10,459	32,688	-0,218	-0,133
11,473	205,473	-0,300	-0,330
12,488	-47,490	-0,204	-0,070
13,502	55,933	-0,307	-0,210
14,517	-34,402	-0,384	-0,148
15,531	70,872	-0,352	-0,257
16,546	99,967	-0,354	-0,289
17,561	98,114	-0,351	-0,285
18,575	-200,000	-0,028	-0,171
19,590	93,885	-0,233	-0,187
20,604	-80,894	-0,333	-0,077
21,619	75,490	-0,446	-0,332
22,634	198,100	-0,388	-0,419
23,648	76,188	-0,472	-0,353
24,663	193,072	-0,407	-0,435
25,677	60,609	-0,390	-0,273
26,692	146,873	-0,320	-0,304
27,707	-124,355	-0,362	-0,039
28,721	252,910	-0,268	-0,324
29,736	216,117	-0,350	-0,393
30,750	631,550	-0,199	-0,357
31,765	-21,415	-0,403	-0,173
32,780	128,855	-0,454	-0,409
33,794	498,905	-0,253	-0,414
34,809	-74,566	-0,452	-0,114
35,823	43,181	-0,458	-0,294
36,838	9,535	-0,350	-0,187
37,853	497,903	-0,241	-0,393
38,867	62,628	-0,368	-0,259
39,882	17,250	-0,459	-0,256
40,896	89,607	-0,299	-0,235
41,911	-157,777	-0,369	0,015
42,926	25,930	-0,333	-0,196
43,940	-34,358	-0,493	-0,190
44,955	236,629	-0,329	-0,384
45,969	282,201	-0,215	-0,272
46,984	95,032	-0,365	-0,293
47,999	26,026	-0,322	-0,189
49,013	-30,399	-0,488	-0,194
50,028	36,284	-0,309	-0,191
51,042	201,160	-0,292	-0,317
52,057	49,537	-0,366	-0,242
53,071	358,379	-0,131	-0,185
54,086	-49,235	-0,340	-0,114
55,101	449,426	-0,236	-0,368
56,115	78,595	-0,328	-0,247
57,130	89,972	-0,338	-0,266
58,144	-46,258	-0,392	-0,135
59,159	96,565	-0,361	-0,291
60,174	7,458	-0,409	-0,215
61,188	162,546	-0,293	-0,290
62,203	2,480	-0,358	-0,182
63,217	-19,054	-0,297	-0,130
64,232	-32,860	-0,345	-0,134
65,247	202,495	-0,297	-0,323
66,261	664,704	-0,176	-0,320
67,276	528,965	-0,207	-0,345
68,290	66,619	-0,409	-0,292
69,305	181,014	-0,217	-0,224
70,320	-52,132	-0,353	-0,115
71,334	104,284	-0,218	-0,180
72,349	-68,144	-0,300	-0,081
73,363	286,864	-0,335	-0,427
74,378	121,833	-0,415	-0,364
75,393	132,571	-0,152	-0,138
76,407	-16,058	-0,289	-0,129
77,422	26,185	-0,196	-0,115
78,436	-32,123	-0,393	-0,154
79,451	98,303	-0,319	-0,258
80,466	83,130	-0,236	-0,180
81,480	68,499	-0,306	-0,220
82,495	25,067	-0,301	-0,175
83,509	77,404	-0,280	-0,209
84,524	62,343	-0,225	-0,158
85,539	84,601	-0,245	-0,188
86,553	40,025	-0,365	-0,230
87,568	-47,466	-0,367	-0,124
88,582	116,030	-0,417	-0,358
89,597	49,443	-0,331	-0,219
90,611	12,825	-0,249	-0,135
91,626	90,042	-0,266	-0,208
92,641	-127,651	-0,336	-0,034
93,655	154,223	-0,238	-0,229
94,670	10,621	-0,340	-0,181
95,684	158,335	-0,270	-0,263
96,699	-48,268	-0,363	-0,122
97,714	11,948	-0,412	-0,222
98,728	93,937	-0,144	-0,114
99,743	143,349	-0,167	-0,156
100,757	152,999	-0,223	-0,214
101,772	-3,861	-0,276	-0,134
102,787	19,541	-0,312	-0,176
103,801	131,349	-0,140	-0,126
104,816	-95,964	-0,328	-0,061
105,830	222,815	-0,206	-0,234
106,845	20,413	-0,212	-0,120
107,860	135,321	-0,095	-0,087
108,874	129,252	-0,313	-0,280
109,889	233,063	-0,275	-0,318
110,903	41,890	-0,251	-0,160
111,918	43,219	-0,236	-0,151
112,933	-2,714	-0,280	-0,137
113,947	433,849	-0,162	-0,248
114,962	161,684	-0,276	-0,271
115,976	196,564	-0,313	-0,334
116,991	731,798	-0,183	-0,344
118,006	401,427	-0,145	-0,214
119,020	54,845	-0,234	-0,158
120,035	541,470	-0,172	-0,289
121,049	454,829	-0,182	-0,283
122,064	161,244	-0,095	-0,093
123,079	-106,406	-0,378	-0,059
124,093	65,086	-0,291	-0,206
125,108	72,906	-0,143	-0,104
126,122	126,745	-0,235	-0,208
127,137	-37,612	-0,225	-0,083
128,151	-154,389	-0,345	-0,016
129,166	-184,399	-0,189	0,002
130,181	15,339	-0,333	-0,182
131,195	-72,150	-0,318	-0,082
132,210	143,241	-0,304	-0,283
133,224	107,899	-0,184	-0,153
134,239	800,000	-0,061	-0,174
135,254	183,330	-0,181	-0,187
136,268	39,453	-0,230	-0,144
137,283	-65,306	-0,371	-0,104
138,297	112,718	-0,240	-0,203
139,312	159,343	-0,218	-0,212
140,327	-11,259	-0,169	-0,077
141,341	79,224	-0,361	-0,270
142,356	521,741	-0,065	-0,106
143,370	-78,437	-0,195	-0,046
144,385	43,856	-0,140	-0,090
145,400	365,835	-0,128	-0,181
146,414	102,134	-0,249	-0,203
147,429	252,092	-0,215	-0,256
148,443	-84,044	-0,300	-0,066
149,458	-108,363	-0,262	-0,039
150,473	173,816	-0,185	-0,187
151,487	22,104	-0,214	-0,121
152,502	58,513	-0,310	-0,212
153,516	-24,103	-0,197	-0,082
154,531	133,763	-0,156	-0,141
155,546	282,243	-0,205	-0,257
156,560	151,394	-0,224	-0,213
157,575	-10,270	-0,205	-0,095
158,589	-1,784	-0,233	-0,114
159,604	-19,053	-0,253	-0,109
160,619	108,342	-0,177	-0,148
161,633	57,894	-0,295	-0,201
162,648	101,586	-0,142	-0,115
163,662	-66,425	-0,234	-0,064
164,677	164,164	-0,177	-0,174
165,692	113,756	-0,210	-0,178
166,706	121,600	-0,210	-0,183
167,721	138,435	-0,269	-0,247
168,735	-18,440	-0,197	-0,086
169,750	-200,000	-0,049	-0,186
170,764	22,925	-0,242	-0,138
171,779	192,769	-0,080	-0,085
172,794	75,153	-0,281	-0,206
173,808	104,678	-0,247	-0,202
174,823	-42,021	-0,261	-0,092
175,837	18,853	-0,360	-0,200
176,852	221,495	-0,089	-0,100
177,867	316,313	-0,085	-0,112
178,881	-14,401	-0,200	-0,090
179,896	32,672	-0,260	-0,156
180,910	800,000	-0,119	-0,249
181,925	-95,381	-0,153	0,028
182,940	-37,016	-0,211	-0,078
183,954	180,589	-0,245	-0,251
184,969	-38,504	-0,117	-0,043
185,983	30,592	-0,273	-0,162
186,998	190,160	-0,261	-0,273
188,013	-122,018	-0,214	-0,024
189,027	21,899	-0,198	-0,112
190,042	-12,916	-0,182	-0,082
191,056	800,000	-0,095	-0,225
192,071	202,736	-0,196	-0,211
193,086	-120,857	-0,141	-0,016
194,100	-34,210	-0,274	-0,104
195,115	194,880	-0,179	-0,189
196,129	122,142	-0,306	-0,266
197,144	325,857	-0,146	-0,194
198,159	17,739	-0,299	-0,165
199,173	-194,693	-0,175	0,001
200,188	40,507	-0,198	-0,124
201,202	185,735	-0,028	-0,029
202,217	-3,999	-0,265	-0,127
203,232	337,393	-0,195	-0,265
204,246	58,571	-0,249	-0,170
205,261	297,788	-0,216	-0,276
206,275	120,178	-0,231	-0,199
207,290	186,011	-0,216	-0,224
208,304	163,921	-0,211	-0,207
209,319	68,394	-0,095	-0,067
210,334	496,648	-0,073	-0,116
211,348	-31,402	-0,258	-0,100
212,363	95,329	-0,217	-0,172
213,377	47,348	-0,129	-0,083
214,392	115,990	-0,148	-0,126
215,407	331,133	-0,141	-0,190
216,421	13,478	-0,107	0,058
217,436	-52,534	-0,115	-0,037
218,450	107,213	-0,186	-0,153
219,465	403,899	-0,214	-0,314
220,480	427,989	-0,144	-0,216
221,494	74,188	-0,129	-0,094
222,509	186,079	-0,127	-0,131
223,523	146,473	-0,059	-0,055
224,538	-100,252	-0,251	-0,043
225,553	-3,370	-0,285	-0,137
226,567	304,534	-0,242	-0,312
227,582	280,605	-0,148	-0,184
228,596	91,173	-0,233	-0,181
229,611	-25,118	-0,234	-0,096
230,626	-39,478	-0,150	-0,054
231,640	636,982	-0,099	-0,175
232,655	112,872	-0,254	-0,214
233,669	5,109	-0,347	-0,177
234,684	296,171	-0,174	-0,222
235,699	-89,913	-0,209	-0,042
236,713	14,048	-0,153	-0,082
237,728	-131,922	-0,218	0,020
238,742	110,711	-0,052	-0,044
239,757	340,529	-0,143	-0,194
240,772	16,082	-0,230	-0,126
241,786	71,133	-0,221	-0,159
242,801	55,575	-0,205	-0,138
243,815	593,848	-0,062	-0,107
244,830	-33,948	-0,139	-0,053
245,844	-55,865	-0,086	-0,026
246,859	-73,759	-0,334	-0,084
247,874	294,944	-0,205	-0,260
248,888	87,263	-0,215	-0,165
249,903	82,676	-0,233	-0,175
250,917	-91,771	-0,211	-0,041
251,932	155,160	-0,145	-0,138
252,947	-35,871	-0,266	-0,099
253,961	-161,873	-0,158	-0,005
254,976	353,117	-0,215	-0,296
255,990	171,429	-0,173	-0,172
257,005	110,002	-0,141	-0,117
258,020	135,951	-0,160	-0,144
259,034	276,700	-0,180	-0,221
260,049	800,000	-0,070	-0,205
261,063	72,607	-0,248	-0,179
262,078	221,502	-0,144	-0,161
263,093	279,983	-0,112	-0,139
264,107	225,532	-0,147	-0,165
265,122	-90,020	-0,242	-0,048
266,136	19,399	-0,070	-0,039
267,151	-46,686	-0,151	-0,051
268,166	-32,779	-0,134	-0,051
269,180	79,702	-0,131	-0,097
270,195	38,544	-0,123	-0,076
271,209	-16,461	-0,132	-0,058
272,224	-145,567	-0,226	-0,014
273,239	168,003	-0,115	-0,113
274,253	-41,242	-0,293	-0,104
275,268	0,932	-0,259	-0,128
276,282	-101,667	-0,179	-0,030
277,297	65,747	-0,165	-0,115
278,312	-7,063	-0,242	-0,113
279,326	364,251	-0,129	-0,179
280,341	-79,822	-0,158	-0,036
281,355	147,993	-0,132	-0,123
282,370	144,934	-0,214	-0,198
283,384	-113,801	-0,260	-0,035
284,399	151,711	-0,181	-0,170
285,414	108,628	-0,207	-0,170
286,428	10,539	-0,167	-0,088
287,443	800,000	-0,046	-0,113
288,457	-200,000	-0,030	-0,114
289,472	452,427	-0,176	-0,269
290,487	208,816	-0,105	-0,114
291,501	74,790	-0,166	-0,121
292,516	92,159	-0,076	-0,059
293,530	-40,203	-0,010	0,004
294,545	49,129	-0,138	0,090
295,560	-4,762	-0,205	-0,097
296,574	-49,619	-0,228	-0,074
297,589	800,000	-0,076	-0,185
298,603	-143,741	-0,065	0,004
299,618	-15,731	-0,318	-0,139
300,633	250,535	-0,200	-0,235
301,647	277,941	-0,150	-0,185
302,662	-183,914	-0,195	-0,002
303,676	7,026	-0,132	-0,068
304,691	150,895	-0,140	-0,131
305,706	181,585	-0,129	-0,131
306,720	38,413	-0,269	-0,165
307,735	680,598	-0,078	-0,140
308,749	170,307	-0,071	-0,070
309,764	58,002	-0,145	-0,098
310,779	-56,592	-0,238	-0,072
311,793	-1,662	-0,241	-0,117
312,808	71,678	-0,182	0,130
313,822	13,682	-0,193	-0,103
314,837	-38,975	-0,107	-0,039
315,852	-189,384	-0,295	-0,002
316,866	-84,597	-0,251	-0,054
317,881	-106,208	-0,200	0,031
318,895	-60,613	-0,189	-0,055
319,910	630,480	-0,108	-0,189
320,925	-144,162	-0,229	-0,015
321,939	179,157	-0,062	-0,063
322,954	-61,504	-0,042	-0,012
323,968	-200,000	0,004	-0,035
324,983	-87,905	-0,227	-0,046
325,997	-118,866	-0,207	-0,025
327,012	-41,398	-0,109	-0,038
328,027	103,703	-0,138	-0,111
329,041	113,164	-0,050	-0,041
330,056	168,697	-0,150	-0,147
331,070	90,751	-0,057	-0,044
332,085	86,669	-0,062	-0,047
333,100	-158,255	-0,125	-0,005
334,114	-55,168	-0,079	0,024
335,129	-44,988	-0,130	-0,044
336,143	98,032	-0,116	-0,092
337,158	101,130	-0,092	-0,073
338,173	211,623	-0,165	-0,179
339,187	-101,662	-0,074	0,012
340,202	800,000	-0,061	-0,155
341,216	196,197	-0,176	-0,184
342,231	-26,921	-0,162	-0,065
343,246	97,244	-0,139	-0,109
344,260	259,168	-0,124	-0,147
345,275	-200,000	-0,063	-0,198
346,289	17,297	-0,174	-0,094
347,304	-104,635	-0,209	-0,033
348,319	-115,844	-0,240	-0,031
349,333	800,000	-0,093	-0,244
350,348	-200,000	-0,023	-0,100
351,362	-200,000	0,022	-0,079
352,377	153,917	-0,156	-0,147
353,392	-200,000	0,005	-0,082
354,406	-124,187	-0,139	-0,015
355,421	209,949	1314,843	1417,240
356,435	161,605	1475,578	1417,727
