DTS Sentinel unit serial number:	SN410029Multiplexer serial number:	ORYXHardware model number:	OX2-SRSoftware version number:	ORYX F/W v4,00 Oryx Data Collector v3.7.2.0data status	okinstallation	B3 Nyhavnadifferential loss correction	single-endedforward channel	channel 1reverse channel	N/Adate	2023/12/04time	07:42:30forward acquisition time	300,00reverse acquisition time	0,00gamma	499,1914k internal	0,3205k external	0,3205temperature offset calibration	1,0000default loss term (dB/km)	0,3820temperature slope calibration	1,0000multiplexer offset coefficient	1,0000multiplexer slope coefficient	1,0000fibre end	0,00T internal ref (°C)	12,36T ext. ref 1 (°C)	-2,02T ext. ref 2 (°C)	-2,04length (m)	temperature (°C)	Stokes	anti-Stokes-744,400	519,228	-0,103	-0,177
-743,385	-200,000	0,022	0,279
-742,371	-182,651	-0,218	-0,003
-741,356	557,258	0,100	0,177
-740,342	346,162	-0,151	-0,216
-739,327	-200,000	0,006	0,176
-738,312	199,130	-0,222	-0,248
-737,298	462,472	-0,111	0,181
-736,283	165,521	-0,209	-0,215
-735,269	800,000	0,106	0,317
-734,254	-48,654	-0,096	-0,033
-733,239	-138,024	-0,166	0,013
-732,225	-200,000	-0,038	-0,148
-731,210	-40,651	0,218	0,082
-730,196	-200,000	-0,029	-0,252
-729,181	800,000	0,045	-0,131
-728,167	-3,723	-0,089	-0,045
-727,152	375,602	0,050	-0,074
-726,137	46,099	-0,070	-0,047
-725,123	14,196	0,022	-0,012
-724,108	273,792	-0,084	-0,108
-723,094	-200,000	-0,019	-0,084
-722,079	20,258	-0,090	-0,053
-721,064	786,005	-0,057	-0,115
-720,050	-200,000	-0,012	-0,115
-719,035	-3,219	0,098	0,049
-718,021	-63,895	-0,110	-0,032
-717,006	-199,198	-0,124	-0,000
-715,991	89,923	-0,137	-0,111
-714,977	-132,063	-0,099	-0,009
-713,962	175,399	-0,023	-0,024
-712,948	-149,548	0,126	0,007
-711,933	138,484	-0,050	0,047
-710,918	432,314	0,034	-0,053
-709,904	428,744	-0,098	-0,155
-708,889	506,309	-0,063	-0,106
-707,875	800,000	0,025	-0,069
-706,860	456,629	0,083	-0,135
-705,845	-200,000	0,000	0,006
-704,831	194,306	0,036	-0,039
-703,816	-92,452	0,108	0,022
-702,802	49,071	-0,231	-0,157
-701,787	800,000	-0,010	-0,031
-700,772	38,777	0,043	0,028
-699,758	427,919	-0,116	-0,182
-698,743	-200,000	-0,044	-0,149
-697,729	297,178	0,083	0,111
-696,714	-200,000	-0,014	0,070
-695,699	313,751	0,070	0,095
-694,685	568,477	-0,021	0,038
-693,670	81,598	-0,050	-0,039
-692,656	-200,000	0,030	0,099
-691,641	-200,000	0,018	0,077
-690,627	-163,023	0,084	0,003
-689,612	-179,769	-0,064	-0,001
-688,597	-152,661	0,067	0,003
-687,583	291,469	-0,028	-0,037
-686,568	-99,292	-0,111	-0,020
-685,554	800,000	-0,038	0,099
-684,539	358,568	-0,061	0,088
-683,524	-200,000	0,029	-0,154
-682,510	-200,000	0,011	-0,038
-681,495	-119,511	0,101	-0,013
-680,481	-200,000	-0,004	0,044
-679,466	-200,000	-0,001	0,021
-678,451	800,000	0,011	0,034
-677,437	33,224	0,067	0,042
-676,422	-27,166	0,069	-0,029
-675,408	141,135	0,029	0,028
-674,393	196,018	-0,066	-0,073
-673,378	243,580	-0,085	-0,103
-672,364	-200,000	-0,044	-0,180
-671,349	80,037	-0,057	-0,045
-670,335	120,924	0,044	-0,040
-669,320	-200,000	0,003	0,024
-668,305	-7,287	0,181	0,088
-667,291	51,282	-0,070	-0,048
-666,276	-200,000	0,017	0,104
-665,262	63,686	0,056	-0,040
-664,247	192,982	-0,090	-0,099
-663,232	-143,004	-0,108	-0,007
-662,218	-116,914	0,158	-0,021
-661,203	115,411	-0,091	0,080
-660,189	-0,701	0,072	0,037
-659,174	-24,421	-0,041	0,018
-658,159	-82,977	-0,058	-0,014
-657,145	-73,988	-0,087	0,023
-656,130	489,995	0,038	0,064
-655,116	16,121	0,105	0,059
-654,101	-117,264	0,170	-0,022
-653,086	218,709	-0,112	-0,130
-652,072	-200,000	-0,009	-0,079
-651,057	-15,304	-0,111	0,051
-650,043	-200,000	0,010	0,183
-649,028	-30,204	-0,068	0,028
-648,014	800,000	0,038	-0,112
-646,999	-168,479	0,088	0,002
-645,984	-200,000	-0,038	0,156
-644,970	268,066	-0,040	-0,051
-643,955	33,064	-0,147	-0,092
-642,941	665,526	-0,027	-0,050
-641,926	671,786	0,021	0,040
-640,911	384,401	-0,047	-0,070
-639,897	18,508	-0,033	0,019
-638,882	-73,558	0,174	0,046
-637,868	-196,222	0,082	0,000
-636,853	-31,484	-0,061	0,025
-635,838	0,163	-0,113	-0,058
-634,824	-200,000	-0,016	0,063
-633,809	6,836	0,106	-0,057
-632,795	-88,066	-0,047	-0,010
-631,780	800,000	-0,025	0,054
-630,765	338,732	-0,017	-0,025
-629,751	359,210	-0,073	0,106
-628,736	-25,252	-0,231	-0,098
-627,722	782,273	0,087	-0,172
-626,707	-76,613	-0,079	-0,020
-625,692	800,000	-0,063	0,131
-624,678	800,000	-0,052	0,109
-623,663	458,900	-0,044	-0,070
-622,649	800,000	-0,021	0,049
-621,634	800,000	0,013	0,030
-620,619	-200,000	-0,032	0,204
-619,605	92,188	0,119	0,097
-618,590	-120,393	-0,124	0,015
-617,576	-70,710	0,029	0,008
-616,561	-110,895	-0,065	0,010
-615,546	341,842	-0,072	0,103
-614,532	-52,843	0,035	-0,012
-613,517	-47,811	-0,140	-0,049
-612,503	-200,000	0,027	0,117
-611,488	800,000	0,010	0,021
-610,474	150,260	0,106	0,104
-609,459	97,621	-0,058	0,048
-608,444	-99,984	-0,044	-0,008
-607,430	342,681	0,059	-0,084
-606,415	0,873	-0,112	-0,058
-605,401	800,000	-0,023	-0,060
-604,386	-200,000	0,049	0,231
-603,371	51,727	0,073	0,050
-602,357	-200,000	0,013	-0,081
-601,342	26,823	-0,133	-0,080
-600,328	170,353	-0,134	-0,139
-599,313	-31,647	-0,192	-0,078
-598,298	-200,000	0,014	-0,069
-597,284	-71,074	-0,121	-0,033
-596,269	-93,543	-0,029	-0,006
-595,255	800,000	0,042	-0,118
-594,240	321,564	-0,074	0,101
-593,225	-96,206	-0,071	-0,014
-592,211	-200,000	0,027	0,179
-591,196	-31,253	-0,028	0,011
-590,182	800,000	0,051	-0,106
-589,167	-200,000	0,018	-0,163
-588,152	667,075	-0,067	0,125
-587,138	66,570	-0,097	0,071
-586,123	-31,911	-0,160	-0,064
-585,109	-200,000	0,017	-0,117
-584,094	-49,879	-0,016	0,005
-583,079	-200,000	0,000	0,019
-582,065	-73,844	-0,102	0,027
-581,050	220,448	0,108	0,125
-580,036	-85,661	-0,051	-0,011
-579,021	54,892	-0,111	-0,077
-578,006	-35,427	-0,105	-0,041
-576,992	341,431	-0,036	-0,051
-575,977	-200,000	0,009	-0,047
-574,963	689,886	0,035	0,066
-573,948	745,880	0,039	0,077
-572,934	800,000	-0,025	0,075
-571,919	-152,131	0,096	-0,005
-570,904	-122,852	-0,060	-0,007
-569,890	60,495	-0,053	-0,038
-568,875	158,023	-0,024	-0,024
-567,861	133,346	-0,064	0,060
-566,846	661,526	0,064	0,120
-565,831	120,546	0,021	0,019
-564,817	286,425	-0,014	-0,018
-563,802	800,000	0,024	-0,072
-562,788	-149,125	-0,073	0,004
-561,773	-200,000	-0,014	-0,072
-560,758	491,338	-0,045	0,074
-559,744	229,505	0,107	0,126
-558,729	143,395	-0,042	0,041
-557,715	434,544	0,120	-0,189
-556,700	800,000	-0,066	-0,147
-555,685	-80,302	0,046	0,011
-554,671	-200,000	-0,007	0,060
-553,656	-200,000	-0,025	0,143
-552,642	7,208	0,031	-0,016
-551,627	-173,048	0,089	-0,002
-550,612	800,000	-0,036	-0,072
-549,598	49,777	-0,023	0,016
-548,583	-200,000	0,009	0,059
-547,569	-200,000	0,009	-0,136
-546,554	21,455	0,078	0,045
-545,539	-38,867	0,098	-0,037
-544,525	-88,969	0,166	-0,035
-543,510	-93,599	0,051	-0,010
-542,496	-2,526	-0,040	0,020
-541,481	103,916	-0,012	0,011
-540,466	94,603	-0,060	0,049
-539,452	-200,000	-0,001	0,074
-538,437	800,000	-0,065	0,153
-537,423	-200,000	0,001	0,071
-536,408	-154,056	-0,152	0,007
-535,393	20,381	-0,159	-0,092
-534,379	-200,000	-0,009	-0,141
-533,364	-200,000	0,001	-0,088
-532,350	-86,034	-0,037	-0,008
-531,335	237,706	-0,048	-0,058
-530,321	408,571	-0,048	-0,074
-529,306	-200,000	-0,006	-0,085
-528,291	87,929	-0,068	0,054
-527,277	-200,000	-0,036	-0,118
-526,262	-200,000	-0,009	0,041
-525,248	800,000	-0,036	0,087
-524,233	697,937	-0,105	0,200
-523,218	157,719	-0,104	0,104
-522,204	23,614	0,070	0,041
-521,189	385,994	-0,072	-0,108
-520,175	58,118	0,144	-0,101
-519,160	280,546	-0,059	0,076
-518,145	117,427	-0,014	0,012
-517,131	401,583	0,052	0,078
-516,116	50,065	-0,082	0,056
-515,102	-123,411	0,079	-0,009
-514,087	316,010	-0,073	-0,099
-513,072	-200,000	0,014	0,078
-512,058	330,136	-0,074	0,103
-511,043	-38,680	0,085	0,032
-510,029	39,882	-0,029	-0,019
-509,014	17,207	-0,135	-0,077
-507,999	318,170	-0,045	-0,062
-506,985	800,000	-0,031	-0,062
-505,970	800,000	-0,031	0,083
-504,956	201,846	-0,104	-0,116
-503,941	85,498	-0,045	0,035
-502,926	-200,000	-0,001	-0,114
-501,912	694,714	0,032	0,062
-500,897	-98,176	-0,067	0,012
-499,883	584,412	0,076	-0,135
-498,868	-200,000	0,009	-0,075
-497,853	-113,449	-0,145	-0,020
-496,839	-113,975	0,042	-0,006
-495,824	-46,866	0,146	-0,051
-494,810	800,000	0,029	-0,060
-493,795	-156,604	-0,094	-0,004
-492,781	293,004	0,047	-0,062
-491,766	800,000	0,028	-0,080
-490,751	603,416	-0,099	-0,178
-489,737	212,499	0,115	-0,131
-488,722	-151,988	0,023	0,001
-487,708	71,556	0,038	-0,028
-486,693	-22,105	-0,022	0,010
-485,678	594,790	-0,028	-0,050
-484,664	570,602	0,047	-0,082
-483,649	432,596	-0,056	-0,087
-482,635	-200,000	-0,017	-0,067
-481,620	347,410	-0,019	0,027
-480,605	303,722	-0,052	0,070
-479,591	131,571	0,029	-0,027
-478,576	800,000	0,028	-0,064
-477,562	34,973	0,027	-0,017
-476,547	-126,133	0,082	0,009
-475,532	-153,652	-0,123	-0,006
-474,518	120,205	0,071	0,064
-473,503	-128,753	0,062	-0,006
-472,489	-200,000	-0,018	-0,078
-471,474	144,662	0,100	0,096
-470,459	-200,000	-0,006	-0,178
-469,445	-200,000	0,009	-0,105
-468,430	800,000	0,046	0,133
-467,416	-43,343	0,113	-0,041
-466,401	-200,000	0,053	0,196
-465,386	-91,189	0,009	-0,002
-464,372	-9,079	-0,121	0,058
-463,357	356,968	-0,060	-0,086
-462,343	276,478	-0,023	-0,029
-461,328	32,258	0,081	0,050
-460,313	-78,481	-0,017	-0,004
-459,299	-45,174	0,041	-0,015
-458,284	-200,000	0,007	0,094
-457,270	-200,000	0,004	0,079
-456,255	426,036	-0,025	0,039
-455,241	230,706	0,053	0,063
-454,226	800,000	-0,024	-0,051
-453,211	-14,935	-0,020	-0,009
-452,197	-115,570	0,184	0,025
-451,182	-200,000	0,021	0,164
-450,168	403,321	-0,047	0,071
-449,153	-84,530	0,153	0,034
-448,138	-3,007	0,031	0,015
-447,124	46,839	-0,082	0,054
-446,109	-60,317	-0,096	0,029
-445,095	-135,519	0,060	0,005
-444,080	269,394	0,018	-0,023
-443,065	-56,219	0,076	0,024
-442,051	-37,416	0,164	-0,063
-441,036	800,000	0,025	0,052
-440,022	307,253	0,019	0,025
-439,007	-83,154	0,070	0,016
-437,992	282,653	0,053	-0,069
-436,978	276,590	0,161	0,206
-435,963	-200,000	-0,009	0,092
-434,949	399,281	0,044	0,067
-433,934	-7,308	0,036	-0,017
-432,919	-182,552	0,095	-0,001
-431,905	-16,153	0,065	0,030
-430,890	134,170	0,126	-0,117
-429,876	-200,000	0,022	0,157
-428,861	119,045	0,067	0,060
-427,846	-50,783	-0,068	0,023
-426,832	-85,007	-0,056	0,013
-425,817	-200,000	0,041	-0,148
-424,803	115,669	-0,063	-0,055
-423,788	52,841	0,060	0,041
-422,773	12,782	0,123	-0,068
-421,759	-95,567	0,048	0,009
-420,744	-137,664	-0,114	-0,009
-419,730	97,266	0,085	-0,070
-418,715	133,516	-0,022	0,020
-417,701	-92,644	0,134	0,027
-416,686	135,929	-0,016	0,015
-415,671	36,901	0,118	0,075
-414,657	-45,104	-0,074	-0,026
-413,642	-200,000	-0,006	-0,034
-412,628	22,484	-0,042	-0,024
-411,613	-200,000	0,033	-0,164
-410,598	800,000	-0,051	0,148
-409,584	171,747	-0,043	0,044
-408,569	800,000	0,044	0,123
-407,555	-200,000	0,010	-0,062
-406,540	109,588	0,238	0,205
-405,525	-14,921	-0,110	-0,050
-404,511	800,000	0,072	0,177
-403,496	-200,000	-0,013	-0,051
-402,482	457,870	0,024	-0,038
-401,467	-200,000	-0,014	0,069
-400,452	-18,668	0,057	0,026
-399,438	-200,000	0,034	0,155
-398,423	800,000	-0,056	0,151
-397,409	-200,000	-0,014	-0,084
-396,394	-128,264	0,014	-0,001
-395,379	-148,229	-0,154	0,009
-394,365	-115,981	0,133	0,018
-393,350	659,632	-0,025	0,047
-392,336	439,883	-0,056	0,089
-391,321	-200,000	0,034	0,133
-390,306	-63,676	-0,108	-0,031
-389,292	-200,000	-0,016	0,109
-388,277	104,953	-0,037	-0,031
-387,263	-14,261	0,058	-0,027
-386,248	51,072	-0,080	0,054
-385,233	-200,000	-0,020	0,131
-384,219	90,521	0,103	0,083
-383,204	128,006	-0,115	-0,105
-382,190	-200,000	-0,010	-0,090
-381,175	-200,000	-0,035	-0,218
-380,160	800,000	-0,049	-0,105
-379,146	-200,000	0,031	-0,124
-378,131	181,023	0,014	0,015
-377,117	-200,000	0,016	-0,077
-376,102	800,000	0,016	0,032
-375,088	-200,000	-0,022	-0,084
-374,073	-200,000	-0,010	-0,093
-373,058	-200,000	0,009	0,054
-372,044	234,776	-0,040	-0,047
-371,029	-200,000	-0,014	-0,049
-370,015	800,000	0,021	-0,045
-369,000	327,789	0,044	-0,061
-367,985	37,185	0,099	-0,063
-366,971	532,397	-0,104	-0,178
-365,956	-96,795	0,124	-0,023
-364,942	800,000	0,032	-0,090
-363,927	-42,564	-0,117	0,042
-362,912	800,000	-0,004	0,013
-361,898	-200,000	-0,003	0,083
-360,883	417,804	0,057	-0,088
-359,869	-200,000	0,013	-0,071
-358,854	4,478	-0,073	0,038
-357,839	-40,257	0,106	0,039
-356,825	800,000	-0,052	0,117
-355,810	-116,848	0,052	0,007
-354,796	36,252	-0,017	-0,011
-353,781	-200,000	-0,041	-0,148
-352,766	800,000	0,023	0,062
-351,752	-39,571	0,059	-0,022
-350,737	-85,784	0,158	-0,035
-349,723	-25,840	0,130	0,054
-348,708	267,448	0,043	0,054
-347,693	116,968	-0,067	0,059
-346,679	-19,863	-0,078	-0,034
-345,664	-200,000	-0,001	0,019
-344,650	-116,427	0,055	-0,007
-343,635	241,387	0,077	0,092
-342,620	800,000	-0,033	0,092
-341,606	-200,000	0,059	-0,207
-340,591	2,618	0,048	-0,025
-339,577	800,000	0,053	0,137
-338,562	-52,370	-0,065	-0,021
-337,548	-118,473	-0,088	-0,011
-336,533	-200,000	0,042	0,158
-335,518	303,033	0,096	0,127
-334,504	59,175	0,016	-0,012
-333,489	800,000	-0,022	-0,065
-332,475	-126,399	0,079	-0,008
-331,460	-200,000	-0,010	-0,101
-330,445	126,919	-0,088	-0,080
-329,431	-73,437	0,192	0,050
-328,416	115,285	0,061	0,054
-327,402	-200,000	-0,004	0,107
-326,387	371,957	-0,014	-0,020
-325,372	170,348	-0,074	-0,075
-324,358	165,050	0,074	-0,075
-323,343	142,843	-0,115	-0,109
-322,329	46,087	0,131	0,086
-321,314	414,673	0,028	0,043
-320,299	-19,138	0,050	-0,022
-319,285	188,783	0,048	-0,052
-318,270	-200,000	-0,043	-0,141
-317,256	138,694	-0,088	-0,082
-316,241	647,110	0,021	0,039
-315,226	-79,841	-0,156	-0,037
-314,212	656,112	0,032	-0,059
-313,197	-61,152	-0,038	-0,011
-312,183	28,453	-0,066	0,040
-311,168	-118,782	0,100	-0,012
-310,153	-21,157	-0,077	0,033
-309,139	62,171	-0,053	-0,038
-308,124	199,784	0,086	0,095
-307,110	-10,320	0,054	-0,026
-306,095	-94,077	0,060	-0,012
-305,080	800,000	-0,021	-0,057
-304,066	800,000	-0,087	-0,187
-303,051	800,000	-0,052	-0,132
-302,037	-200,000	0,009	-0,041
-301,022	69,543	0,063	-0,046
-300,008	-167,705	0,094	0,003
-298,993	161,062	0,077	0,077
-297,978	-34,267	0,081	0,031
-296,964	359,375	0,039	-0,056
-295,949	528,176	-0,118	-0,199
-294,935	-200,000	0,016	-0,105
-293,920	800,000	-0,028	0,082
-292,905	-200,000	0,031	0,110
-291,891	-200,000	-0,016	0,093
-290,876	800,000	-0,026	-0,066
-289,862	499,894	0,010	-0,017
-288,847	164,338	-0,069	-0,069
-287,832	32,417	0,114	-0,070
-286,818	800,000	0,029	0,085
-285,803	800,000	0,021	0,048
-284,789	800,000	0,042	-0,113
-283,774	-104,342	0,129	-0,021
-282,759	-11,179	-0,166	-0,078
-281,745	197,990	-0,084	-0,092
-280,730	690,393	0,067	0,126
-279,716	-200,000	-0,006	-0,037
-278,701	-90,308	-0,094	-0,019
-277,686	357,986	0,013	-0,019
-276,672	-200,000	-0,019	0,070
-275,657	-138,350	-0,015	0,001
-274,643	490,685	-0,030	-0,049
-273,628	445,067	-0,049	0,077
-272,613	-4,891	-0,034	-0,017
-271,599	94,842	0,044	0,035
-270,584	-200,000	-0,014	-0,084
-269,570	83,560	0,082	0,064
-268,555	740,175	0,075	0,144
-267,540	800,000	-0,004	0,010
-266,526	-200,000	0,005	0,030
-265,511	791,355	0,019	-0,038
-264,497	688,389	-0,040	0,076
-263,482	131,732	0,046	0,042
-262,467	800,000	0,006	0,012
-261,453	-200,000	0,002	-0,064
-260,438	-200,000	0,001	-0,061
-259,424	800,000	-0,076	0,151
-258,409	381,216	-0,078	0,114
-257,395	606,985	0,037	0,066
-256,380	76,508	0,083	-0,062
-255,365	800,000	0,041	0,098
-254,351	-90,658	-0,144	0,029
-253,336	-115,844	-0,029	0,004
-252,322	160,878	-0,158	-0,158
-251,307	800,000	0,027	-0,079
-250,292	-75,560	0,124	0,031
-249,278	435,766	-0,100	0,155
-248,263	-97,870	0,134	0,024
-247,249	253,928	-0,066	0,081
-246,234	-109,621	0,074	-0,011
-245,219	428,934	-0,037	0,057
-244,205	107,926	-0,112	-0,095
-243,190	65,086	0,083	0,060
-242,176	99,058	0,106	-0,087
-241,161	66,993	0,123	0,089
-240,146	-200,000	-0,007	-0,083
-239,132	-200,000	0,000	-0,073
-238,117	-20,384	0,019	-0,008
-237,103	-200,000	-0,001	0,040
-236,088	23,871	0,101	0,059
-235,073	77,152	0,094	0,071
-234,059	41,059	-0,048	-0,031
-233,044	-5,375	0,039	0,019
-232,030	161,933	0,086	-0,085
-231,015	544,798	-0,029	-0,050
-230,000	-153,952	0,089	-0,004
-228,986	-27,219	-0,083	-0,034
-227,971	292,461	0,048	0,063
-226,957	800,000	-0,080	0,185
-225,942	75,059	-0,073	0,055
-224,927	48,503	-0,134	-0,089
-223,913	55,872	-0,098	-0,068
-222,898	-84,894	-0,052	0,012
-221,884	-200,000	-0,021	0,113
-220,869	-200,000	0,020	-0,067
-219,855	81,866	0,059	0,046
-218,840	-138,450	0,049	0,004
-217,825	-96,215	-0,021	-0,004
-216,811	102,213	-0,091	0,075
-215,796	-200,000	-0,003	0,056
-214,782	-200,000	-0,013	-0,058
-213,767	-200,000	-0,017	-0,061
-212,752	-5,255	0,099	-0,048
-211,738	-63,054	-0,039	0,011
-210,723	37,265	0,151	-0,095
-209,709	-200,000	0,021	-0,102
-208,694	-151,058	-0,123	0,006
-207,679	-125,919	-0,020	0,002
-206,665	-200,000	-0,004	0,038
-205,650	-158,620	0,205	-0,008
-204,636	-130,633	0,190	0,018
-203,621	-3,760	-0,096	0,047
-202,606	83,513	0,041	0,032
-201,592	31,097	-0,166	0,101
-200,577	-71,643	0,067	-0,018
-199,563	-200,000	0,003	0,071
-198,548	800,000	0,053	0,128
-197,533	-46,390	0,121	0,042
-196,519	40,641	0,025	0,016
-195,504	-200,000	-0,006	0,064
-194,490	-200,000	-0,016	0,094
-193,475	248,222	-0,074	-0,089
-192,460	-131,665	-0,066	0,006
-191,446	362,281	0,080	0,114
-190,431	-59,610	-0,135	-0,041
-189,417	50,291	0,068	0,046
-188,402	-73,187	-0,099	-0,026
-187,387	800,000	-0,025	-0,067
-186,373	800,000	0,051	-0,125
-185,358	317,489	0,056	-0,076
-184,344	720,283	0,046	0,088
-183,329	75,136	0,014	0,011
-182,315	105,183	0,109	-0,091
-181,300	14,571	-0,113	-0,062
-180,285	675,454	-0,059	0,109
-179,271	-76,279	-0,070	-0,017
-178,256	800,000	0,027	-0,069
-177,242	-90,612	-0,116	-0,024
-176,227	-32,449	0,175	-0,069
-175,212	29,136	0,095	0,057
-174,198	-59,143	-0,128	-0,039
-173,183	366,280	-0,071	-0,103
-172,169	53,200	0,132	0,090
-171,154	-17,931	-0,023	-0,010
-170,139	-148,139	0,078	-0,005
-169,125	465,405	-0,043	-0,068
-168,110	-176,135	-0,006	-0,000
-167,096	-42,488	-0,047	0,017
-166,081	9,447	-0,071	-0,038
-165,066	-63,489	0,053	-0,015
-164,052	-200,000	-0,003	0,029
-163,037	775,312	0,021	-0,042
-162,023	246,989	0,108	0,130
-161,008	-91,544	0,121	-0,024
-159,993	8,603	-0,092	-0,049
-158,979	-0,779	-0,122	0,061
-157,964	69,669	-0,048	-0,035
-156,950	-60,996	-0,068	0,020
-155,935	211,824	-0,012	-0,013
-154,920	118,579	0,073	-0,064
-153,906	-110,869	-0,064	0,009
-152,891	89,867	0,089	0,071
-151,877	-200,000	0,008	-0,093
-150,862	-200,000	0,056	-0,244
-149,847	-166,292	-0,063	0,002
-148,833	381,234	0,066	0,096
-147,818	16,640	0,159	0,089
-146,804	660,996	-0,022	-0,041
-145,789	29,426	0,062	-0,038
-144,775	96,035	-0,099	0,081
-143,760	178,347	-0,033	0,034
-142,745	557,904	-0,060	-0,103
-141,731	-88,118	-0,128	-0,027
-140,716	-200,000	0,030	0,148
-139,702	23,117	0,047	0,027
-138,687	-194,401	0,248	0,001
-137,672	175,575	-0,114	-0,117
-136,658	490,897	-0,044	-0,072
-135,643	614,350	0,021	-0,038
-134,629	-140,520	0,075	0,005
-133,614	185,343	0,107	0,113
-132,599	-146,195	0,073	-0,004
-131,585	146,156	0,021	-0,020
-130,570	364,863	-0,079	-0,113
-129,556	68,373	0,080	0,058
-128,541	-200,000	-0,027	-0,213
-127,526	800,000	0,049	-0,112
-126,512	800,000	-0,010	0,024
-125,497	800,000	-0,013	0,036
-124,483	8,556	0,129	0,068
-123,468	-149,129	0,280	-0,016
-122,453	4,681	0,038	0,020
-121,439	-22,503	-0,167	-0,071
-120,424	549,520	-0,048	-0,081
-119,410	43,920	-0,030	-0,020
-118,395	201,251	-0,086	-0,094
-117,380	93,701	-0,066	-0,053
-116,366	153,804	-0,075	0,073
-115,351	-76,032	0,086	-0,021
-114,337	-104,468	0,163	-0,026
-113,322	800,000	0,019	0,042
-112,307	0,602	0,039	-0,020
-111,293	-154,475	0,151	0,007
-110,278	800,000	-0,025	-0,061
-109,264	18,481	-0,049	0,028
-108,249	195,757	0,113	-0,122
-107,234	800,000	0,051	-0,102
-106,220	-200,000	0,005	0,050
-105,205	800,000	0,040	-0,107
-104,191	141,864	0,069	-0,065
-103,176	183,124	0,088	-0,093
-102,162	-200,000	0,014	0,082
-101,147	-6,884	0,049	-0,023
-100,132	-200,000	-0,007	0,079
-99,118	620,949	-0,052	-0,093
-98,103	471,358	0,016	-0,026
-97,089	-188,909	0,103	0,001
-96,074	119,471	0,031	-0,027
-95,059	-21,528	-0,092	-0,040
-94,045	-68,295	-0,118	-0,032
-93,030	-200,000	0,003	0,073
-92,016	800,000	0,021	-0,064
-91,001	8,028	-0,033	0,018
-89,986	800,000	-0,021	-0,061
-88,972	313,005	0,059	-0,078
-87,957	-6,100	0,071	0,034
-86,943	-159,802	-0,099	0,004
-85,928	800,000	-0,016	0,037
-84,913	104,293	-0,093	-0,077
-83,899	-43,952	-0,050	-0,018
-82,884	25,029	0,053	-0,031
-81,870	690,907	0,024	0,044
-80,855	-121,487	0,025	0,003
-79,840	-91,828	0,111	-0,022
-78,826	633,111	-0,037	0,066
-77,811	-200,000	0,015	0,062
-76,797	-135,635	0,078	-0,006
-75,782	-200,000	-0,012	0,043
-74,767	-200,000	0,049	0,159
-73,753	800,000	0,054	0,130
-72,738	750,988	-0,046	-0,088
-71,724	798,372	0,015	-0,029
-70,709	38,319	-0,072	-0,045
-69,694	302,335	-0,011	-0,015
-68,680	-200,000	0,009	-0,089
-67,665	512,443	0,028	-0,046
-66,651	800,000	-0,015	0,034
-65,636	-200,000	-0,000	-0,080
-64,622	-200,000	0,043	-0,137
-63,607	224,658	-0,037	0,043
-62,592	-200,000	0,012	0,079
-61,578	-200,000	-0,029	0,211
-60,563	36,953	-0,014	-0,009
-59,549	60,636	0,132	0,092
-58,534	0,286	-1,770	-0,891
-57,519	463,587	-1,295	-2,053
-56,505	-200,000	-0,557	-4,551
-55,490	301,933	1,083	1,419
-54,476	800,000	4,946	11,145
-53,461	-200,000	19,909	324,357
-52,446	800,000	749,323	2318,332
-51,432	555,523	1660,399	2837,592
-50,417	75,809	1671,230	1247,697
-49,403	20,217	1544,303	879,148
-48,388	14,221	1466,471	805,684
-47,373	18,257	1456,531	819,680
-46,359	16,433	1446,089	805,038
-45,344	12,455	1441,851	783,602
-44,330	12,402	1439,772	782,187
-43,315	12,480	1437,775	781,443
-42,300	12,388	1436,304	780,174
-41,286	12,478	1434,896	779,808
-40,271	12,417	1433,559	778,762
-39,257	12,403	1432,454	778,063
-38,242	12,456	1431,133	777,567
-37,227	12,431	1430,154	776,885
-36,213	12,465	1428,718	776,237
-35,198	12,429	1427,638	775,447
-34,184	12,527	1426,318	775,165
-33,169	12,412	1425,183	773,970
-32,154	12,518	1424,064	773,836
-31,140	12,492	1422,776	772,980
-30,125	12,497	1421,675	772,377
-29,111	12,457	1420,715	771,633
-28,096	12,486	1419,601	771,134
-27,082	12,430	1418,378	770,175
-26,067	12,409	1417,454	769,545
-25,052	12,407	1416,362	768,914
-24,038	12,387	1415,383	768,257
-23,023	12,425	1414,190	767,756
-22,009	12,371	1413,243	766,958
-20,994	12,338	1412,409	766,322
-19,979	12,325	1411,560	765,767
-18,965	12,336	1410,534	765,235
-17,950	12,344	1409,630	764,750
-16,936	12,353	1408,613	764,212
-15,921	12,300	1407,554	763,359
-14,906	12,261	1406,832	762,752
-13,892	12,343	1405,761	762,528
-12,877	12,301	1404,913	761,840
-11,863	12,266	1403,987	761,145
-10,848	12,247	1403,092	760,541
-9,833	12,222	1402,490	760,065
-8,819	12,182	1401,751	759,448
-7,804	12,211	1400,510	758,882
-6,790	12,216	1399,559	758,362
-5,775	12,224	1398,588	757,843
-4,760	12,235	1397,430	757,236
-3,746	12,207	1396,495	756,568
-2,731	12,177	1395,853	756,053
-1,717	12,159	1394,882	755,412
-0,702	12,176	1393,142	754,519
0,313	16,097	1308,699	726,892
1,327	32,265	700,746	426,413
2,342	49,985	122,239	81,352
3,356	0,994	16,629	8,396
4,371	5,491	3,262	1,696
5,386	10,440	0,689	0,370
6,400	-200,000	0,021	0,384
7,415	-73,935	-0,180	-0,046
8,429	57,592	-0,192	-0,132
9,444	52,326	-0,325	-0,219
10,459	189,531	-0,323	-0,342
11,473	800,000	-0,116	-0,267
12,488	13,334	-0,255	-0,139
13,502	-29,962	-0,349	-0,140
14,517	25,230	-0,312	-0,183
15,531	156,336	-0,322	-0,314
16,546	-24,333	-0,371	-0,155
17,561	135,030	-0,359	-0,329
18,575	-58,716	-0,204	-0,062
19,590	209,471	-0,239	-0,264
20,604	-33,803	-0,239	-0,092
21,619	-37,780	-0,396	-0,148
22,634	56,962	-0,476	-0,327
23,648	98,090	-0,445	-0,361
24,663	39,978	-0,429	-0,271
25,677	42,904	-0,292	-0,188
26,692	164,068	-0,375	-0,373
27,707	-3,820	-0,390	-0,190
28,721	65,062	-0,355	-0,252
29,736	145,645	-0,403	-0,380
30,750	14,288	-0,422	-0,231
31,765	47,584	-0,423	-0,277
32,780	394,505	-0,217	-0,319
33,794	-10,270	-0,333	-0,155
34,809	30,474	-0,289	-0,174
35,823	101,041	-0,350	-0,287
36,838	121,330	-0,381	-0,334
37,853	77,503	-0,400	-0,300
38,867	63,663	-0,518	-0,366
39,882	84,912	-0,243	-0,188
40,896	64,826	-0,377	-0,268
41,911	-14,263	-0,374	-0,169
42,926	33,913	-0,360	-0,220
43,940	107,231	-0,333	-0,279
44,955	90,911	-0,373	-0,294
45,969	-8,081	-0,431	-0,204
46,984	242,484	-0,264	-0,311
47,999	89,188	-0,371	-0,291
49,013	28,029	-0,331	-0,196
50,028	191,885	-0,283	-0,300
51,042	-80,712	-0,384	-0,089
52,057	57,844	-0,279	-0,191
53,071	-52,774	-0,419	-0,135
54,086	103,272	-0,331	-0,273
55,101	-42,075	-0,332	-0,119
56,115	111,185	-0,341	-0,289
57,130	0,445	-0,417	-0,209
58,144	154,685	-0,338	-0,327
59,159	-0,446	-0,403	-0,201
60,174	79,955	-0,332	-0,251
61,188	56,137	-0,332	-0,226
62,203	121,835	-0,321	-0,281
63,217	2,811	-0,393	-0,200
64,232	53,065	-0,410	-0,275
65,247	21,532	-0,422	-0,240
66,261	-47,334	-0,415	-0,141
67,276	79,581	-0,328	-0,247
68,290	357,294	-0,197	-0,276
69,305	-104,756	-0,383	-0,061
70,320	-17,810	-0,426	-0,187
71,334	59,282	-0,258	-0,178
72,349	96,614	-0,393	-0,316
73,363	-0,081	-0,403	-0,201
74,378	-50,127	-0,423	-0,140
75,393	62,543	-0,382	-0,268
76,407	84,913	-0,237	-0,182
77,422	-0,626	-0,251	-0,124
78,436	-122,180	-0,306	-0,035
79,451	-36,602	-0,287	-0,108
80,466	3,989	-0,328	-0,168
81,480	44,396	-0,233	-0,150
82,495	-38,430	-0,361	-0,133
83,509	-123,849	-0,383	-0,042
84,524	54,802	-0,246	-0,166
85,539	75,287	-0,243	-0,180
86,553	-33,723	-0,359	-0,138
87,568	44,301	-0,271	-0,174
88,582	19,118	-0,401	-0,225
89,597	40,005	-0,412	-0,259
90,611	-42,967	-0,247	-0,087
91,626	96,601	-0,253	-0,203
92,641	-9,959	-0,147	-0,068
93,655	26,446	-0,263	-0,154
94,670	162,970	-0,300	-0,295
95,684	34,245	-0,155	-0,095
96,699	-25,483	-0,337	-0,139
97,714	93,283	-0,218	-0,173
98,728	-38,288	-0,427	-0,158
99,743	158,263	-0,210	-0,204
100,757	164,971	-0,224	-0,221
101,772	59,302	-0,300	-0,207
102,787	38,897	-0,447	-0,279
103,801	-32,454	-0,310	-0,120
104,816	-90,882	-0,361	-0,072
105,830	-15,396	-0,301	-0,134
106,845	159,551	-0,071	-0,069
107,860	29,666	-0,303	-0,180
108,874	21,283	-0,377	-0,214
109,889	75,053	-0,386	-0,284
110,903	53,981	-0,246	-0,165
111,918	76,348	-0,259	-0,192
112,933	800,000	-0,079	-0,223
113,947	169,719	-0,210	-0,210
114,962	-50,667	-0,277	-0,091
115,976	22,792	-0,302	-0,173
116,991	-23,413	-0,342	-0,143
118,006	-54,419	-0,307	-0,097
119,020	47,127	-0,300	-0,195
120,035	83,964	-0,246	-0,187
121,049	6,704	-0,275	-0,143
122,064	100,697	-0,218	-0,177
123,079	75,793	-0,237	-0,175
124,093	178,249	-0,282	-0,288
125,108	-56,171	-0,378	-0,117
126,122	-80,988	-0,246	-0,056
127,137	-92,860	-0,281	-0,054
128,151	260,601	-0,175	-0,212
129,166	-108,183	-0,308	-0,046
130,181	60,460	-0,291	-0,201
131,195	80,781	-0,166	-0,125
132,210	-109,171	-0,328	-0,048
133,224	98,735	-0,192	-0,155
134,239	114,478	-0,176	-0,150
135,254	-50,929	-0,205	-0,067
136,268	43,341	-0,151	-0,096
137,283	-17,868	-0,161	-0,070
138,297	57,698	-0,214	-0,146
139,312	36,242	-0,317	-0,195
140,327	766,716	-0,125	-0,239
141,341	19,096	-0,237	-0,132
142,356	-47,901	-0,148	-0,050
143,370	12,703	-0,240	-0,129
144,385	-36,744	-0,328	-0,122
145,400	41,462	-0,254	-0,160
146,414	-69,739	-0,222	-0,059
147,429	133,036	-0,237	-0,213
148,443	-56,939	-0,288	-0,088
149,458	22,661	-0,209	-0,119
150,473	-200,000	-0,075	-0,254
151,487	-98,221	-0,178	-0,032
152,502	142,548	-0,298	-0,276
153,516	11,744	-0,238	-0,127
154,531	105,330	-0,411	-0,339
155,546	69,763	-0,174	-0,125
156,560	283,271	-0,218	-0,273
157,575	377,463	-0,126	-0,179
158,589	322,937	-0,140	-0,186
159,604	25,781	-0,315	-0,183
160,619	-136,481	-0,347	-0,028
161,633	1,659	-0,200	-0,100
162,648	385,780	-0,175	-0,252
163,662	78,595	-0,148	-0,110
164,677	-164,414	-0,159	-0,005
165,692	-93,349	-0,196	0,037
166,706	124,081	-0,257	-0,224
167,721	364,749	-0,240	-0,337
168,735	217,969	-0,271	-0,301
169,750	38,327	-0,279	-0,173
170,764	121,785	-0,325	-0,282
171,779	332,917	-0,106	-0,143
172,794	-79,852	-0,245	-0,057
173,808	-68,515	-0,346	-0,093
174,823	-100,312	-0,218	-0,037
175,837	800,000	-0,085	-0,219
176,852	416,851	-0,132	-0,196
177,867	-26,458	-0,263	-0,107
178,881	-120,263	-0,345	-0,040
179,896	-73,684	-0,260	-0,065
180,910	73,912	-0,237	-0,173
181,925	30,813	-0,326	-0,194
182,940	118,822	-0,248	-0,213
183,954	97,889	-0,332	-0,265
184,969	-7,590	-0,109	-0,051
185,983	235,624	-0,127	-0,147
186,998	536,795	-0,088	-0,147
188,013	-95,197	-0,151	-0,028
189,027	400,493	-0,192	-0,281
190,042	275,803	-0,171	-0,211
191,056	41,537	-0,246	-0,154
192,071	-62,700	-0,198	0,057
193,086	-90,364	-0,246	-0,049
194,100	23,573	-0,187	-0,106
195,115	-150,621	-0,358	0,019
196,129	451,590	-0,144	-0,221
197,144	18,551	-0,258	-0,143
198,159	461,391	-0,131	-0,203
199,173	-130,930	-0,204	0,019
200,188	800,000	-0,072	-0,206
201,202	63,433	-0,214	-0,149
202,217	119,976	-0,129	-0,111
203,232	349,142	-0,160	-0,220
204,246	284,978	-0,186	-0,233
205,261	325,633	-0,169	-0,225
206,275	84,751	-0,191	-0,145
207,290	-62,872	-0,080	-0,023
208,304	155,754	-0,179	-0,172
209,319	-47,643	-0,154	-0,052
210,334	124,305	-0,141	-0,123
211,348	0,157	-0,108	0,053
212,363	331,795	-0,175	-0,235
213,377	536,857	-0,061	-0,101
214,392	334,161	-0,110	-0,148
215,407	196,429	-0,200	-0,211
216,421	-149,114	-0,182	-0,010
217,436	-43,588	-0,301	-0,105
218,450	-15,895	-0,188	-0,083
219,465	220,574	-0,202	-0,224
220,480	65,759	-0,212	-0,149
221,494	94,089	-0,169	-0,132
222,509	-13,277	-0,198	-0,089
223,523	-34,905	-0,242	-0,091
224,538	800,000	-0,086	-0,165
225,553	15,598	-0,194	-0,105
226,567	130,407	-0,236	-0,210
227,582	800,000	-0,142	-0,329
228,596	165,189	-0,182	-0,178
229,611	-53,087	-0,122	-0,039
230,626	149,385	-0,107	-0,100
231,640	165,013	-0,159	-0,155
232,655	-118,700	-0,236	-0,029
233,669	78,562	-0,244	-0,181
234,684	-45,805	-0,269	-0,091
235,699	502,967	-0,166	-0,267
236,713	318,301	-0,119	-0,157
237,728	-58,327	-0,156	-0,047
238,742	0,221	-0,148	-0,073
239,757	584,550	-0,112	-0,191
240,772	-50,783	-0,168	-0,054
241,786	-8,910	-0,135	-0,062
242,801	2,991	-0,161	-0,081
243,815	26,959	-0,354	-0,205
244,830	224,303	-0,146	-0,164
245,844	-43,606	-0,193	-0,067
246,859	141,763	-0,182	-0,167
247,874	1,559	-0,160	-0,079
248,888	156,763	-0,210	-0,201
249,903	800,000	-0,031	-0,091
250,917	800,000	-0,109	-0,212
251,932	141,385	-0,094	-0,086
252,947	-9,604	-0,205	-0,094
253,961	23,712	-0,213	-0,121
254,976	122,365	-0,204	-0,176
255,990	150,700	-0,185	-0,174
257,005	44,950	-0,215	-0,137
258,020	287,291	-0,103	-0,129
259,034	32,085	-0,129	-0,077
260,049	-27,000	-0,134	-0,054
261,063	482,253	-0,187	-0,294
262,078	332,251	-0,231	-0,308
263,093	79,105	-0,171	-0,127
264,107	282,550	-0,209	-0,259
265,122	-60,824	-0,157	-0,046
266,136	-0,525	-0,117	-0,057
267,151	-200,000	0,025	-0,211
268,166	800,000	-0,023	-0,055
269,180	-99,375	-0,198	0,034
270,195	59,732	-0,174	-0,118
271,209	514,888	-0,111	-0,180
272,224	800,000	-0,156	-0,315
273,239	-109,018	-0,181	0,026
274,253	-100,858	-0,173	0,029
275,268	-99,616	-0,122	-0,021
276,282	483,817	-0,085	-0,133
277,297	69,749	-0,252	-0,179
278,312	127,880	-0,246	-0,216
279,326	-1,054	-0,164	-0,080
280,341	800,000	-0,049	-0,112
281,355	39,318	-0,190	-0,117
282,370	143,728	-0,152	-0,139
283,384	-113,593	-0,130	-0,017
284,399	340,466	-0,086	-0,116
285,414	94,841	-0,147	-0,115
286,428	40,080	-0,129	-0,080
287,443	236,380	-0,137	-0,157
288,457	-44,599	-0,218	-0,075
289,472	800,000	-0,052	-0,138
290,487	362,956	-0,157	-0,217
291,501	-57,850	-0,225	-0,067
292,516	-13,929	-0,221	-0,098
293,530	-124,823	-0,244	-0,026
294,545	39,259	-0,146	-0,090
295,560	56,029	-0,156	-0,104
296,574	-37,238	-0,197	-0,072
297,589	-8,766	-0,207	-0,095
298,603	225,093	-0,175	-0,196
299,618	263,024	-0,180	-0,216
300,633	584,930	-0,098	-0,167
301,647	-62,606	-0,098	0,028
302,662	-200,000	-0,039	-0,132
303,676	-22,109	-0,144	-0,060
304,691	-112,396	-0,166	0,023
305,706	-199,772	-0,170	-0,001
306,720	101,637	-0,198	-0,159
307,735	72,183	-0,277	-0,198
308,749	-173,160	-0,141	-0,003
309,764	84,801	-0,087	-0,066
310,779	-128,418	-0,096	-0,009
311,793	-14,046	-0,172	-0,076
312,808	481,426	-0,078	-0,121
313,822	104,540	-0,183	-0,148
314,837	-200,000	0,014	-0,145
315,852	46,904	-0,233	-0,148
316,866	-1,677	-0,228	-0,110
317,881	116,577	-0,210	-0,177
318,895	421,727	-0,104	-0,154
319,910	4,940	-0,155	-0,078
320,925	27,098	-0,254	-0,146
321,939	-26,774	-0,127	-0,051
322,954	589,604	-0,047	-0,080
323,968	217,269	-0,136	-0,149
324,983	-151,783	-0,015	-0,001
325,997	-49,501	-0,184	-0,060
327,012	-112,347	-0,129	-0,018
328,027	-200,000	-0,028	-0,136
329,041	800,000	-0,048	-0,132
330,056	800,000	-0,074	-0,165
331,070	194,151	-0,179	-0,186
332,085	14,571	-0,073	0,039
333,100	32,505	-0,102	-0,060
334,114	-200,000	-0,037	-0,256
335,129	309,835	-0,167	-0,215
336,143	490,058	-0,117	-0,185
337,158	-200,000	-0,030	-0,165
338,173	-200,000	-0,046	-0,172
339,187	200,434	-0,104	-0,110
340,202	-172,658	-0,119	-0,003
341,216	-200,000	-0,057	-0,178
342,231	-30,683	-0,222	-0,086
343,246	57,731	-0,234	-0,157
344,260	800,000	-0,089	-0,234
345,275	24,605	-0,211	-0,119
346,289	-23,577	-0,067	-0,027
347,304	1,608	-0,116	0,057
348,319	-200,000	-0,007	-0,076
349,333	800,000	-0,077	-0,169
350,348	151,440	-0,129	-0,121
351,362	800,000	-0,046	-0,114
352,377	-99,705	-0,142	-0,024
353,392	650,502	-0,129	-0,228
354,406	-38,426	-0,147	-0,053
355,421	209,047	1315,408	1412,680
356,435	160,871	1476,212	1413,151
