DTS Sentinel unit serial number:	SN410029Multiplexer serial number:	ORYXHardware model number:	OX2-SRSoftware version number:	ORYX F/W v4,00 Oryx Data Collector v3.7.2.0data status	okinstallation	B3 Nyhavnadifferential loss correction	single-endedforward channel	channel 1reverse channel	N/Adate	2023/12/01time	19:37:30forward acquisition time	300,00reverse acquisition time	0,00gamma	499,1914k internal	0,3199k external	0,3199temperature offset calibration	1,0000default loss term (dB/km)	0,3820temperature slope calibration	1,0000multiplexer offset coefficient	1,0000multiplexer slope coefficient	1,0000fibre end	0,00T internal ref (°C)	15,53T ext. ref 1 (°C)	1,29T ext. ref 2 (°C)	1,28length (m)	temperature (°C)	Stokes	anti-Stokes-744,400	-71,008	-0,320	-0,087
-743,385	-200,000	-0,016	0,259
-742,371	194,717	-0,161	-0,178
-741,356	-200,000	0,046	0,329
-740,342	9,387	-0,182	-0,100
-739,327	-200,000	-0,060	0,340
-738,312	-200,000	-0,039	-0,288
-737,298	800,000	0,095	0,248
-736,283	142,885	-0,226	-0,219
-735,269	-200,000	0,077	0,374
-734,254	-21,071	-0,247	-0,109
-733,239	301,371	-0,182	0,246
-732,225	-20,111	-0,278	-0,124
-731,210	81,625	0,068	0,053
-730,196	-5,266	-0,025	-0,012
-729,181	800,000	-0,008	0,024
-728,167	-3,867	-0,179	-0,090
-727,152	-91,268	0,106	-0,022
-726,137	253,806	-0,041	0,052
-725,123	-61,199	-0,160	-0,049
-724,108	257,311	-0,045	-0,056
-723,094	-200,000	-0,012	-0,155
-722,079	-200,000	0,032	-0,108
-721,064	-138,476	0,081	0,006
-720,050	-200,000	-0,002	0,011
-719,035	30,521	-0,029	0,018
-718,021	800,000	0,047	-0,097
-717,006	-200,000	-0,032	-0,164
-715,991	-152,152	-0,136	0,007
-714,977	800,000	-0,072	-0,153
-713,962	88,880	0,109	-0,089
-712,948	-30,105	-0,087	-0,036
-711,933	55,172	0,080	-0,056
-710,918	-200,000	-0,024	-0,190
-709,904	-200,000	-0,002	-0,078
-708,889	-128,562	-0,135	-0,014
-707,875	800,000	-0,010	-0,027
-706,860	35,067	-0,101	0,064
-705,845	-136,146	0,060	-0,005
-704,831	-118,045	-0,061	0,008
-703,816	22,801	0,080	-0,048
-702,802	88,507	-0,002	0,002
-701,787	191,523	-0,040	-0,044
-700,772	92,277	-0,092	-0,075
-699,758	191,353	-0,074	-0,081
-698,743	419,268	0,037	0,057
-697,729	-105,933	0,031	-0,005
-696,714	-117,268	0,061	0,008
-695,699	-40,296	-0,127	-0,048
-694,685	800,000	-0,041	0,095
-693,670	50,427	0,038	0,026
-692,656	160,144	-0,092	0,093
-691,641	-200,000	-0,012	0,058
-690,627	-34,376	0,016	0,006
-689,612	800,000	-0,047	0,146
-688,597	-108,916	-0,073	-0,011
-687,583	297,888	0,069	-0,092
-686,568	800,000	-0,043	-0,099
-685,554	-41,574	-0,036	0,013
-684,539	207,158	-0,010	0,011
-683,524	-96,487	0,104	0,020
-682,510	-200,000	-0,005	0,024
-681,495	-65,896	-0,055	-0,016
-680,481	-77,118	-0,056	0,014
-679,466	-30,656	-0,156	-0,064
-678,451	-9,623	0,122	0,059
-677,437	-26,043	0,090	-0,038
-676,422	-8,395	0,018	-0,009
-675,408	-200,000	0,013	-0,113
-674,393	206,690	-0,103	-0,117
-673,378	107,128	-0,065	-0,056
-672,364	184,747	0,034	-0,037
-671,349	-200,000	-0,001	0,013
-670,335	-95,244	-0,153	0,030
-669,320	40,698	0,026	-0,017
-668,305	24,914	-0,019	0,011
-667,291	-200,000	-0,029	0,149
-666,276	-29,436	-0,121	-0,050
-665,262	618,534	0,046	-0,084
-664,247	-114,695	-0,048	0,007
-663,232	335,776	-0,056	0,079
-662,218	800,000	-0,016	-0,042
-661,203	84,296	0,120	0,095
-660,189	-60,156	-0,095	0,029
-659,174	215,724	-0,064	-0,073
-658,159	-200,000	-0,014	-0,061
-657,145	514,356	-0,089	-0,152
-656,130	595,393	0,037	-0,067
-655,116	-200,000	-0,005	-0,036
-654,101	-200,000	-0,022	0,187
-653,086	800,000	0,027	-0,066
-652,072	73,908	-0,036	-0,027
-651,057	-200,000	-0,008	0,027
-650,043	-153,235	-0,058	-0,003
-649,028	-200,000	-0,007	0,048
-648,014	-200,000	0,024	0,158
-646,999	800,000	0,027	0,075
-645,984	81,841	0,043	-0,034
-644,970	800,000	-0,030	0,063
-643,955	587,781	0,034	-0,060
-642,941	67,930	-0,124	-0,092
-641,926	800,000	0,076	-0,169
-640,911	502,591	0,018	-0,030
-639,897	-200,000	0,002	0,068
-638,882	539,944	-0,011	0,019
-637,868	444,781	0,014	-0,023
-636,853	116,587	-0,116	0,103
-635,838	27,569	-0,072	-0,044
-634,824	253,296	-0,050	-0,062
-633,809	218,266	-0,140	-0,162
-632,795	-138,563	-0,053	-0,004
-631,780	227,222	-0,023	0,027
-630,765	-56,706	0,064	-0,020
-629,751	800,000	0,013	-0,038
-628,736	8,370	-0,017	0,009
-627,722	-130,708	0,072	-0,007
-626,707	-165,080	0,300	-0,009
-625,692	-200,000	0,017	0,147
-624,678	800,000	-0,015	0,035
-623,663	-200,000	0,007	0,028
-622,649	-185,855	-0,086	0,001
-621,634	-79,385	-0,079	-0,019
-620,619	1,854	-0,085	0,044
-619,605	-200,000	0,020	-0,193
-618,590	308,751	0,078	-0,106
-617,576	-200,000	0,014	0,047
-616,561	800,000	-0,007	0,020
-615,546	800,000	-0,042	-0,116
-614,532	800,000	0,068	-0,157
-613,517	-200,000	0,014	0,160
-612,503	41,513	0,055	0,036
-611,488	-161,269	0,088	0,003
-610,474	79,695	0,037	0,029
-609,459	-200,000	0,016	-0,070
-608,444	254,629	0,040	-0,050
-607,430	45,361	0,056	0,037
-606,415	-200,000	-0,002	0,014
-605,401	-200,000	-0,011	0,136
-604,386	-200,000	0,013	0,211
-603,371	-25,992	0,042	0,018
-602,357	-200,000	-0,003	-0,110
-601,342	-120,488	-0,041	-0,005
-600,328	-36,075	-0,129	-0,050
-599,313	125,528	-0,107	-0,098
-598,298	777,289	-0,015	0,030
-597,284	86,251	0,108	-0,086
-596,269	272,360	-0,099	0,127
-595,255	-154,773	-0,073	0,003
-594,240	-200,000	0,032	0,000
-593,225	-47,966	-0,065	0,022
-592,211	-200,000	0,007	-0,168
-591,196	800,000	0,041	-0,101
-590,182	35,529	-0,037	0,023
-589,167	-82,379	0,069	0,016
-588,152	410,430	0,063	0,096
-587,138	-15,270	-0,189	-0,087
-586,123	728,673	-0,006	-0,013
-585,109	363,534	0,038	-0,055
-584,094	-181,040	-0,056	0,001
-583,079	-104,406	0,029	-0,005
-582,065	-102,585	0,029	-0,005
-581,050	107,919	0,162	0,139
-580,036	800,000	0,053	-0,122
-579,021	-200,000	-0,020	-0,099
-578,006	-8,797	-0,171	0,083
-576,992	-52,058	0,038	-0,013
-575,977	568,401	0,037	0,065
-574,963	328,046	0,027	0,038
-573,948	750,721	-0,034	-0,067
-572,934	117,711	-0,064	0,057
-571,919	-200,000	0,003	-0,035
-570,904	5,390	-0,115	-0,061
-569,890	240,389	0,088	0,107
-568,875	-200,000	0,005	0,155
-567,861	-200,000	0,011	0,072
-566,846	-200,000	0,005	-0,035
-565,831	-200,000	0,013	0,110
-564,817	123,808	-0,088	-0,080
-563,802	33,642	0,103	0,065
-562,788	88,359	-0,058	-0,046
-561,773	68,757	0,154	0,114
-560,758	475,685	-0,061	0,099
-559,744	682,775	-0,045	0,085
-558,729	-111,671	-0,119	-0,017
-557,715	49,913	-0,060	-0,041
-556,700	85,435	-0,059	-0,047
-555,685	-111,105	-0,174	-0,026
-554,671	-200,000	-0,008	0,141
-553,656	-19,678	0,252	0,112
-552,642	-200,000	0,029	0,161
-551,627	367,827	-0,081	-0,118
-550,612	-113,752	0,116	-0,016
-549,598	800,000	0,033	-0,083
-548,583	-200,000	-0,012	-0,096
-547,569	-200,000	-0,005	0,075
-546,554	-200,000	0,017	-0,158
-545,539	-116,333	0,099	-0,013
-544,525	-94,072	0,031	0,006
-543,510	134,756	0,056	0,053
-542,496	244,179	0,033	-0,040
-541,481	800,000	-0,028	0,080
-540,466	69,204	0,017	0,013
-539,452	800,000	0,038	0,101
-538,437	791,676	-0,066	0,132
-537,423	-200,000	0,004	-0,024
-536,408	-50,501	-0,084	0,029
-535,393	57,099	-0,045	-0,032
-534,379	67,982	-0,090	-0,066
-533,364	-86,473	-0,231	-0,051
-532,350	-200,000	-0,010	0,054
-531,335	355,211	0,063	-0,091
-530,321	196,579	-0,082	-0,090
-529,306	-168,083	-0,081	-0,002
-528,291	499,661	-0,069	-0,115
-527,277	16,172	-0,130	-0,074
-526,262	256,503	-0,070	0,087
-525,248	-113,797	0,095	-0,013
-524,233	108,439	-0,107	-0,092
-523,218	-200,000	-0,005	0,025
-522,204	149,733	0,047	-0,046
-521,189	124,579	-0,033	0,030
-520,175	146,259	-0,044	-0,042
-519,160	112,814	0,011	-0,010
-518,145	100,975	0,065	-0,055
-517,131	-200,000	-0,001	-0,046
-516,116	-27,779	-0,038	0,016
-515,102	5,795	0,028	-0,015
-514,087	-28,081	-0,099	-0,041
-513,072	291,548	-0,023	-0,031
-512,058	-98,711	-0,106	-0,019
-511,043	-29,320	0,084	0,034
-510,029	-200,000	-0,005	0,040
-509,014	772,899	0,051	0,101
-507,999	56,133	-0,057	-0,040
-506,985	800,000	-0,032	0,090
-505,970	-200,000	-0,001	-0,009
-504,956	9,054	-0,116	-0,063
-503,941	-11,155	-0,057	-0,027
-502,926	-200,000	-0,016	0,118
-501,912	-200,000	-0,005	0,054
-500,897	-200,000	0,038	0,132
-499,883	-200,000	0,008	0,035
-498,868	377,982	-0,094	-0,139
-497,853	507,807	-0,153	-0,257
-496,839	-43,214	-0,132	-0,048
-495,824	-100,721	0,148	-0,026
-494,810	-200,000	-0,010	-0,067
-493,795	800,000	-0,046	0,110
-492,781	-127,517	0,113	0,012
-491,766	131,309	-0,010	-0,009
-490,751	800,000	0,020	0,057
-489,737	258,537	-0,076	-0,094
-488,722	-85,747	0,020	-0,004
-487,708	13,102	-0,036	0,020
-486,693	243,002	-0,081	-0,098
-485,678	193,228	-0,108	0,117
-484,664	-200,000	0,001	-0,066
-483,649	3,270	-0,075	-0,039
-482,635	-200,000	0,003	-0,172
-481,620	45,482	0,036	0,024
-480,605	-200,000	0,027	0,110
-479,591	-200,000	-0,009	0,059
-478,576	43,620	-0,074	-0,049
-477,562	-158,470	0,135	0,006
-476,547	800,000	0,008	-0,019
-475,532	-200,000	0,003	0,057
-474,518	189,866	-0,017	-0,018
-473,503	800,000	-0,032	0,081
-472,489	-165,356	-0,027	-0,001
-471,474	-200,000	-0,048	-0,159
-470,459	1,388	-0,139	-0,072
-469,445	-200,000	0,007	0,040
-468,430	227,409	-0,060	-0,070
-467,416	106,519	0,045	0,039
-466,401	800,000	0,019	-0,058
-465,386	800,000	-0,047	0,104
-464,372	98,406	-0,071	0,059
-463,357	800,000	-0,051	-0,105
-462,343	-20,963	-0,097	-0,043
-461,328	191,253	-0,091	-0,099
-460,313	-200,000	0,002	-0,057
-459,299	242,179	-0,005	0,006
-458,284	23,735	0,068	0,040
-457,270	-200,000	0,021	0,098
-456,255	-108,941	-0,112	0,017
-455,241	-200,000	-0,028	-0,179
-454,226	-200,000	0,044	-0,221
-453,211	-7,780	0,146	-0,071
-452,197	162,038	-0,043	-0,043
-451,182	230,003	0,115	0,136
-450,168	-45,307	0,045	-0,016
-449,153	-200,000	0,021	0,112
-448,138	424,046	-0,064	-0,099
-447,124	684,910	0,029	-0,055
-446,109	-27,860	-0,065	-0,027
-445,095	-58,525	0,093	-0,029
-444,080	-200,000	0,006	-0,026
-443,065	800,000	0,019	0,047
-442,051	-59,888	0,058	0,018
-441,036	-200,000	-0,019	0,108
-440,022	-5,712	-0,045	0,022
-439,007	-200,000	0,028	-0,090
-437,992	800,000	0,052	0,165
-436,978	800,000	0,073	0,180
-435,963	27,255	0,090	0,054
-434,949	-140,613	0,078	-0,006
-433,934	-118,481	0,050	-0,006
-432,919	169,285	-0,017	-0,018
-431,905	-44,724	0,162	-0,058
-430,890	-37,807	-0,046	-0,017
-429,876	644,281	0,031	-0,057
-428,861	403,606	0,056	-0,085
-427,846	-200,000	0,002	0,008
-426,832	-200,000	-0,032	-0,136
-425,817	351,085	0,071	0,102
-424,803	800,000	0,035	0,070
-423,788	754,433	0,012	0,024
-422,773	-56,782	0,123	-0,039
-421,759	800,000	0,068	0,149
-420,744	-200,000	-0,001	0,103
-419,730	-200,000	0,032	0,104
-418,715	-200,000	-0,001	0,066
-417,701	-200,000	-0,002	0,029
-416,686	131,633	-0,071	0,065
-415,671	212,939	0,111	0,126
-414,657	135,791	0,090	0,084
-413,642	-200,000	0,007	-0,106
-412,628	-200,000	0,016	-0,118
-411,613	-72,084	-0,055	0,015
-410,598	127,463	0,088	0,080
-409,584	-200,000	-0,002	-0,025
-408,569	125,892	-0,063	-0,057
-407,555	-110,602	0,057	0,008
-406,540	322,332	-0,049	-0,067
-405,525	-65,899	-0,088	0,025
-404,511	7,443	-0,111	-0,059
-403,496	123,145	-0,086	0,077
-402,482	-200,000	-0,002	0,084
-401,467	-46,860	0,156	-0,055
-400,452	-147,001	-0,070	0,004
-399,438	43,019	0,075	0,049
-398,423	-150,385	0,077	-0,004
-397,409	216,504	-0,024	0,028
-396,394	-85,692	-0,097	0,021
-395,379	-200,000	-0,002	-0,090
-394,365	98,533	0,006	0,005
-393,350	-25,627	0,074	-0,031
-392,336	252,952	-0,101	-0,124
-391,321	66,286	-0,032	-0,023
-390,306	259,066	-0,058	-0,071
-389,292	-109,899	-0,158	0,024
-388,277	-19,603	0,090	-0,040
-387,263	397,339	-0,087	0,131
-386,248	-200,000	0,029	0,126
-385,233	-28,115	0,179	0,074
-384,219	458,357	0,044	0,071
-383,204	323,798	0,051	-0,070
-382,190	-200,000	0,001	-0,102
-381,175	777,551	0,041	0,081
-380,160	-152,479	0,137	-0,007
-379,146	109,560	-0,023	0,020
-378,131	274,955	0,112	0,142
-377,117	-114,951	0,069	-0,009
-376,102	-200,000	0,000	-0,105
-375,088	-200,000	-0,018	0,063
-374,073	-18,243	-0,047	0,021
-373,058	-200,000	-0,020	0,140
-372,044	-170,043	0,056	-0,001
-371,029	-200,000	-0,001	-0,027
-370,015	-90,247	0,183	0,038
-369,000	-146,505	-0,037	0,002
-367,985	216,549	0,123	-0,141
-366,971	-118,539	0,123	0,015
-365,956	161,636	-0,058	-0,058
-364,942	-178,820	-0,043	0,001
-363,927	-39,882	0,132	-0,049
-362,912	78,605	-0,024	-0,019
-361,898	-200,000	0,021	0,132
-360,883	-27,826	-0,089	0,037
-359,869	-70,872	0,114	0,031
-358,854	435,185	-0,049	0,076
-357,839	174,039	0,058	0,060
-356,825	25,457	-0,088	-0,052
-355,810	-146,492	0,123	-0,008
-354,796	-90,027	-0,076	0,016
-353,781	-200,000	-0,031	-0,101
-352,766	196,635	-0,027	0,029
-351,752	-200,000	0,011	0,046
-350,737	-95,575	-0,094	0,018
-349,723	113,489	0,065	0,057
-348,708	-143,846	-0,045	-0,003
-347,693	96,728	0,109	0,089
-346,679	-74,906	-0,129	0,033
-345,664	261,124	-0,099	-0,123
-344,650	416,589	0,071	-0,108
-343,635	199,640	0,100	0,111
-342,620	-86,409	0,121	-0,027
-341,606	-11,987	0,081	0,038
-340,591	-200,000	0,003	-0,076
-339,577	800,000	-0,035	-0,077
-338,562	-37,187	-0,217	-0,083
-337,548	118,846	-0,018	0,016
-336,533	-138,197	0,226	-0,018
-335,518	-96,278	-0,028	0,005
-334,504	67,585	-0,032	-0,023
-333,489	-25,867	-0,088	0,037
-332,475	-42,269	-0,062	-0,023
-331,460	-163,071	-0,035	0,001
-330,445	19,508	-0,021	0,012
-329,431	208,415	0,095	0,106
-328,416	-156,864	0,137	-0,006
-327,402	66,542	0,075	0,055
-326,387	173,037	0,077	0,080
-325,372	-114,452	-0,206	-0,028
-324,358	175,836	-0,034	-0,035
-323,343	800,000	0,018	0,043
-322,329	-200,000	-0,014	0,050
-321,314	-200,000	0,009	-0,060
-320,299	57,866	0,126	0,088
-319,285	75,622	0,044	-0,033
-318,270	-200,000	0,020	-0,176
-317,256	294,112	-0,078	-0,102
-316,241	118,861	-0,157	-0,139
-315,226	-13,569	0,135	-0,062
-314,212	540,384	0,040	-0,068
-313,197	553,975	0,045	0,078
-312,183	517,812	-0,016	0,027
-311,168	-200,000	-0,015	-0,070
-310,153	-200,000	0,024	-0,108
-309,139	325,618	0,051	0,070
-308,124	27,905	0,127	-0,076
-307,110	-161,878	0,079	-0,003
-306,095	-41,056	-0,025	0,009
-305,080	-200,000	-0,012	0,061
-304,066	4,080	0,024	0,013
-303,051	-65,701	-0,099	-0,028
-302,037	800,000	0,011	0,028
-301,022	-127,600	-0,068	0,007
-300,008	-200,000	-0,041	0,165
-298,993	-140,602	-0,160	-0,012
-297,978	-53,032	0,062	-0,020
-296,964	-131,754	-0,201	0,019
-295,949	101,794	0,099	0,083
-294,935	800,000	-0,051	-0,122
-293,920	383,034	0,082	-0,122
-292,905	-200,000	-0,003	0,094
-291,891	3,591	0,116	0,060
-290,876	-200,000	-0,020	0,116
-289,862	142,283	0,069	-0,065
-288,847	-128,921	-0,066	0,007
-287,832	800,000	-0,030	-0,075
-286,818	618,629	-0,016	-0,028
-285,803	800,000	-0,057	0,148
-284,789	-51,642	0,104	0,034
-283,774	-56,589	-0,060	0,019
-282,759	800,000	0,022	0,058
-281,745	123,275	0,022	0,020
-280,730	-156,234	-0,076	0,003
-279,716	270,082	-0,030	-0,038
-278,701	121,964	0,007	0,007
-277,686	-200,000	-0,007	0,030
-276,672	56,451	0,019	0,013
-275,657	145,296	-0,014	-0,013
-274,643	473,374	0,047	0,075
-273,628	-200,000	0,001	-0,149
-272,613	-34,474	-0,073	0,029
-271,599	-112,398	-0,131	0,019
-270,584	121,051	-0,003	-0,002
-269,570	-200,000	-0,009	0,040
-268,555	-118,779	-0,109	0,014
-267,540	-103,577	0,124	0,021
-266,526	-28,102	0,077	0,032
-265,511	282,706	0,089	-0,115
-264,497	-200,000	0,027	0,156
-263,482	-200,000	0,021	0,166
-262,467	-86,197	-0,059	0,013
-261,453	-55,315	0,079	0,025
-260,438	-56,913	-0,083	-0,026
-259,424	102,040	-0,032	-0,027
-258,409	-136,312	-0,180	0,015
-257,395	108,656	-0,008	-0,007
-256,380	-41,640	0,100	0,036
-255,365	-44,392	0,152	-0,054
-254,351	-135,816	-0,047	-0,004
-253,336	106,800	-0,065	-0,055
-252,322	-99,864	0,065	-0,011
-251,307	-200,000	-0,022	-0,131
-250,292	-200,000	-0,001	-0,065
-249,278	181,312	0,099	-0,104
-248,263	-146,458	-0,021	-0,001
-247,249	800,000	-0,044	0,129
-246,234	800,000	0,016	0,033
-245,219	429,910	-0,046	-0,071
-244,205	-200,000	0,003	-0,087
-243,190	48,701	-0,114	-0,076
-242,176	28,364	-0,088	0,053
-241,161	800,000	0,039	0,079
-240,146	64,933	-0,026	0,018
-239,132	-200,000	-0,021	-0,067
-238,117	800,000	-0,026	-0,077
-237,103	592,325	-0,104	-0,185
-236,088	800,000	0,048	-0,096
-235,073	-200,000	-0,005	0,080
-234,059	-97,649	0,071	0,013
-233,044	-155,750	0,139	-0,006
-232,030	-31,240	0,083	-0,033
-231,015	-160,045	-0,123	0,005
-230,000	693,567	0,054	-0,101
-228,986	314,503	-0,036	-0,048
-227,971	800,000	-0,050	0,131
-226,957	-200,000	0,025	0,109
-225,942	-47,676	0,092	-0,032
-224,927	-17,772	0,062	0,028
-223,913	-200,000	0,005	0,071
-222,898	-126,659	-0,056	0,006
-221,884	-200,000	-0,017	-0,065
-220,869	-165,602	0,083	0,003
-219,855	749,399	0,022	0,042
-218,840	113,916	-0,087	0,075
-217,825	552,235	-0,066	0,113
-216,811	-200,000	0,030	0,173
-215,796	242,423	-0,046	-0,054
-214,782	-200,000	-0,007	-0,052
-213,767	-200,000	0,049	0,210
-212,752	-70,406	0,038	0,010
-211,738	200,403	-0,091	-0,100
-210,723	-58,598	-0,017	-0,005
-209,709	-200,000	0,007	0,046
-208,694	282,901	-0,108	0,139
-207,679	125,782	-0,040	-0,036
-206,665	-16,249	0,029	-0,013
-205,650	84,280	-0,044	0,034
-204,636	-200,000	0,002	-0,095
-203,621	1,119	0,098	0,050
-202,606	17,403	-0,215	-0,121
-201,592	-63,787	0,053	0,015
-200,577	-74,163	-0,038	-0,010
-199,563	-200,000	0,005	0,111
-198,548	-200,000	-0,017	-0,119
-197,533	800,000	-0,039	0,078
-196,519	81,510	0,130	0,100
-195,504	-200,000	0,001	-0,010
-194,490	603,733	-0,131	-0,234
-193,475	800,000	-0,073	0,147
-192,460	-61,722	0,125	-0,037
-191,446	800,000	0,060	-0,120
-190,431	-200,000	-0,009	-0,102
-189,417	81,436	0,137	-0,106
-188,402	132,175	-0,063	0,057
-187,387	254,245	0,065	-0,079
-186,373	-58,480	0,115	-0,035
-185,358	74,477	0,028	0,021
-184,344	800,000	0,018	0,048
-183,329	131,127	0,023	-0,021
-182,315	-86,535	0,182	0,039
-181,300	-57,819	0,124	0,038
-180,285	53,073	-0,137	0,093
-179,271	23,304	-0,035	0,021
-178,256	-200,000	0,008	-0,038
-177,242	47,977	0,012	-0,008
-176,227	280,668	0,071	0,091
-175,212	-152,665	0,123	-0,006
-174,198	556,762	0,017	0,030
-173,183	800,000	-0,032	-0,067
-172,169	686,972	-0,037	0,069
-171,154	23,393	0,055	-0,032
-170,139	800,000	-0,021	0,042
-169,125	143,433	0,084	0,079
-168,110	800,000	-0,009	0,023
-167,096	-116,412	-0,114	-0,015
-166,081	800,000	-0,057	-0,149
-165,066	-200,000	-0,014	-0,126
-164,052	233,078	0,079	-0,093
-163,037	800,000	-0,018	0,041
-162,023	313,071	0,013	0,017
-161,008	147,813	-0,079	-0,076
-159,993	800,000	0,030	0,074
-158,979	-200,000	-0,006	-0,039
-157,964	-53,382	-0,074	-0,024
-156,950	-150,269	0,088	0,005
-155,935	800,000	-0,033	0,099
-154,920	-103,546	0,110	0,018
-153,906	36,339	0,030	-0,019
-152,891	-103,806	-0,071	-0,012
-151,877	800,000	0,024	-0,067
-150,862	-200,000	0,003	0,041
-149,847	-147,395	0,110	0,007
-148,833	357,458	-0,044	0,062
-147,818	-66,787	0,075	0,021
-146,804	219,953	0,066	0,075
-145,789	717,258	0,030	-0,058
-144,775	-87,278	-0,045	0,010
-143,760	362,910	0,021	0,030
-142,745	800,000	-0,020	0,051
-141,731	-132,288	0,108	0,010
-140,716	800,000	-0,057	-0,116
-139,702	-200,000	-0,005	0,073
-138,687	25,270	0,076	-0,045
-137,672	-200,000	0,042	-0,186
-136,658	87,267	-0,105	-0,083
-135,643	217,337	-0,133	-0,150
-134,629	29,186	-0,046	-0,028
-133,614	2,569	0,064	0,033
-132,599	247,917	-0,020	0,024
-131,585	36,107	0,062	-0,039
-130,570	800,000	-0,058	0,145
-129,556	-137,872	0,151	0,012
-128,541	-200,000	-0,048	0,161
-127,526	68,667	-0,071	0,051
-126,512	-200,000	-0,003	-0,054
-125,497	-64,937	0,116	0,033
-124,483	74,629	-0,038	0,028
-123,468	-73,099	-0,172	0,045
-122,453	-145,856	-0,070	-0,004
-121,439	133,637	-0,101	-0,093
-120,424	507,233	0,046	-0,076
-119,410	-107,486	-0,082	0,013
-118,395	-200,000	0,021	0,066
-117,380	800,000	0,021	0,066
-116,366	392,554	-0,043	-0,064
-115,351	243,642	-0,031	-0,037
-114,337	124,498	-0,069	0,061
-113,322	200,688	0,036	-0,039
-112,307	800,000	-0,044	0,112
-111,293	-2,971	0,148	0,073
-110,278	423,494	0,057	-0,087
-109,264	-200,000	-0,011	-0,042
-108,249	-65,007	-0,076	-0,022
-107,234	298,014	0,048	-0,062
-106,220	-142,142	-0,123	0,009
-105,205	680,127	0,023	-0,042
-104,191	800,000	0,055	0,143
-103,176	-200,000	0,017	-0,060
-102,162	-104,284	0,106	-0,017
-101,147	-118,507	0,019	0,002
-100,132	796,591	0,036	0,072
-99,118	570,495	0,031	-0,054
-98,103	-200,000	-0,110	0,000
-97,089	162,745	0,042	-0,042
-96,074	800,000	0,036	0,089
-95,059	-10,947	0,160	0,075
-94,045	7,699	-0,043	0,023
-93,030	800,000	-0,004	0,009
-92,016	-200,000	0,056	-0,219
-91,001	164,431	-0,057	-0,057
-89,986	-200,000	0,015	0,054
-88,972	273,036	0,069	0,087
-87,957	-165,112	-0,066	-0,002
-86,943	-78,826	-0,061	-0,015
-85,928	-200,000	-0,004	0,071
-84,913	18,165	-0,073	0,041
-83,899	-7,907	-0,027	-0,013
-82,884	716,952	-0,010	0,019
-81,870	-200,000	0,010	-0,038
-80,855	170,965	0,113	0,115
-79,840	285,115	-0,072	-0,092
-78,826	-61,205	0,026	-0,008
-77,811	-97,703	-0,129	0,023
-76,797	-200,000	-0,005	-0,018
-75,782	-200,000	0,007	0,054
-74,767	-200,000	0,008	-0,138
-73,753	534,970	0,055	0,092
-72,738	117,805	-0,099	0,086
-71,724	-200,000	0,004	-0,017
-70,709	57,612	0,010	-0,007
-69,694	-200,000	-0,019	0,064
-68,680	-200,000	-0,016	0,066
-67,665	800,000	-0,028	0,076
-66,651	-114,795	-0,105	-0,014
-65,636	-200,000	-0,013	-0,060
-64,622	-81,792	-0,042	-0,010
-63,607	521,764	-0,033	0,056
-62,592	-145,069	0,024	0,002
-61,578	36,893	0,069	-0,043
-60,563	-20,121	0,052	-0,023
-59,549	635,489	-0,069	0,124
-58,534	-74,293	-1,609	-0,409
-57,519	327,190	-1,605	-2,186
-56,505	-200,000	-0,356	-4,415
-55,490	181,267	0,860	0,896
-54,476	800,000	4,788	11,173
-53,461	-200,000	17,875	285,975
-52,446	800,000	722,436	2232,681
-51,432	562,584	1636,335	2816,309
-50,417	80,504	1659,923	1265,522
-49,403	23,412	1533,946	891,170
-48,388	17,383	1457,123	817,445
-47,373	18,059	1446,921	814,934
-46,359	17,625	1437,423	807,486
-45,344	15,668	1432,696	795,490
-44,330	15,606	1430,694	794,051
-43,315	15,589	1429,004	792,999
-42,300	15,561	1427,573	792,044
-41,286	15,671	1426,278	791,817
-40,271	15,585	1425,161	790,755
-39,257	15,594	1424,041	790,144
-38,242	15,709	1422,227	789,651
-37,227	15,633	1421,374	788,788
-36,213	15,656	1419,925	788,059
-35,198	15,687	1418,689	787,491
-34,184	15,655	1417,952	786,899
-33,169	15,614	1416,522	785,879
-32,154	15,610	1415,543	785,288
-31,140	15,628	1414,364	784,685
-30,125	15,674	1413,020	784,127
-29,111	15,661	1411,870	783,395
-28,096	15,606	1410,785	782,503
-27,082	15,574	1409,779	781,768
-26,067	15,592	1408,581	781,155
-25,052	15,583	1407,579	780,526
-24,038	15,556	1406,534	779,790
-23,023	15,538	1405,499	779,102
-22,009	15,551	1404,627	778,649
-20,994	15,519	1403,846	778,032
-19,979	15,507	1402,862	777,404
-18,965	15,490	1401,854	776,732
-17,950	15,494	1400,843	776,162
-16,936	15,529	1399,749	775,684
-15,921	15,460	1398,740	774,775
-14,906	15,438	1397,704	774,068
-13,892	15,468	1396,834	773,695
-12,877	15,462	1396,017	773,187
-11,863	15,468	1394,982	772,609
-10,848	15,449	1394,174	772,042
-9,833	15,415	1393,218	771,327
-8,819	15,367	1392,332	770,584
-7,804	15,357	1391,265	769,914
-6,790	15,377	1390,196	769,383
-5,775	15,390	1389,291	768,914
-4,760	15,360	1388,494	768,306
-3,746	15,389	1387,691	767,962
-2,731	15,383	1386,852	767,438
-1,717	15,328	1385,949	766,656
-0,702	15,302	1384,154	765,514
0,313	19,179	1304,259	739,192
1,327	35,312	706,419	437,729
2,342	54,512	124,910	85,091
3,356	0,806	16,652	8,414
4,371	-8,254	3,286	1,560
5,386	-48,528	0,570	0,193
6,400	-200,000	0,029	0,125
7,415	267,936	-0,187	-0,232
8,429	654,699	-0,137	-0,250
9,444	105,706	-0,321	-0,269
10,459	83,017	-0,293	-0,226
11,473	26,055	-0,469	-0,276
12,488	-21,974	-0,363	-0,155
13,502	-83,368	-0,318	-0,072
14,517	97,042	-0,222	-0,180
15,531	-3,350	-0,326	-0,160
16,546	-63,836	-0,317	-0,091
17,561	173,425	-0,362	-0,369
18,575	-3,024	-0,144	-0,071
19,590	89,809	-0,210	-0,165
20,604	143,281	-0,144	-0,136
21,619	157,534	-0,390	-0,382
22,634	83,303	-0,538	-0,414
23,648	193,970	-0,392	-0,420
24,663	22,523	-0,456	-0,263
25,677	66,800	-0,368	-0,264
26,692	112,346	-0,425	-0,363
27,707	167,357	-0,304	-0,306
28,721	271,116	-0,289	-0,360
29,736	90,950	-0,257	-0,203
30,750	72,461	-0,382	-0,281
31,765	172,938	-0,282	-0,288
32,780	65,485	-0,498	-0,355
33,794	13,188	-0,308	-0,168
34,809	30,656	-0,565	-0,340
35,823	216,377	-0,311	-0,350
36,838	149,418	-0,362	-0,346
37,853	107,361	-0,359	-0,302
38,867	134,742	-0,376	-0,345
39,882	-6,721	-0,362	-0,173
40,896	65,202	-0,267	-0,190
41,911	93,500	-0,337	-0,269
42,926	55,148	-0,344	-0,234
43,940	-12,948	-0,328	-0,150
44,955	-19,497	-0,507	-0,220
45,969	47,899	-0,362	-0,238
46,984	148,872	-0,262	-0,250
47,999	140,441	-0,312	-0,291
49,013	-33,505	-0,372	-0,144
50,028	146,196	-0,306	-0,289
51,042	210,158	-0,309	-0,343
52,057	7,996	-0,355	-0,187
53,071	38,206	-0,324	-0,203
54,086	67,006	-0,394	-0,282
55,101	17,854	-0,417	-0,234
56,115	108,255	-0,377	-0,317
57,130	51,264	-0,362	-0,242
58,144	-55,224	-0,418	-0,132
59,159	118,173	-0,408	-0,354
60,174	101,644	-0,278	-0,228
61,188	93,510	-0,335	-0,267
62,203	41,846	-0,351	-0,224
63,217	-15,371	-0,439	-0,197
64,232	-39,466	-0,362	-0,133
65,247	172,672	-0,296	-0,301
66,261	68,366	-0,422	-0,304
67,276	58,036	-0,382	-0,263
68,290	-51,071	-0,333	-0,109
69,305	-36,484	-0,353	-0,133
70,320	70,253	-0,374	-0,272
71,334	119,443	-0,219	-0,190
72,349	159,741	-0,254	-0,249
73,363	55,838	-0,300	-0,204
74,378	55,709	-0,261	-0,178
75,393	152,835	-0,291	-0,280
76,407	36,522	-0,318	-0,197
77,422	42,717	-0,211	-0,135
78,436	9,032	-0,332	-0,175
79,451	-11,632	-0,343	-0,158
80,466	-78,574	-0,294	-0,070
81,480	156,970	-0,259	-0,251
82,495	72,092	-0,347	-0,253
83,509	10,152	-0,344	-0,183
84,524	72,985	-0,223	-0,164
85,539	-33,467	-0,306	-0,118
86,553	-83,190	-0,257	-0,058
87,568	20,279	-0,198	-0,112
88,582	-11,327	-0,255	-0,118
89,597	43,827	-0,387	-0,248
90,611	534,019	-0,145	-0,242
91,626	376,826	-0,181	-0,261
92,641	104,916	-0,277	-0,230
93,655	51,416	-0,249	-0,166
94,670	86,253	-0,322	-0,249
95,684	-3,979	-0,331	-0,161
96,699	-53,578	-0,227	-0,072
97,714	14,698	-0,275	-0,151
98,728	-94,245	-0,286	-0,054
99,743	-29,874	-0,308	-0,123
100,757	-56,866	-0,273	-0,084
101,772	4,821	-0,329	-0,169
102,787	87,307	-0,306	-0,237
103,801	37,394	-0,274	-0,170
104,816	119,987	-0,278	-0,242
105,830	147,330	-0,293	-0,277
106,845	-75,341	-0,283	-0,070
107,860	112,651	-0,365	-0,310
108,874	50,683	-0,248	-0,165
109,889	-1,184	-0,397	-0,196
110,903	33,937	-0,350	-0,213
111,918	116,121	-0,313	-0,268
112,933	-2,427	-0,197	-0,096
113,947	276,664	-0,233	-0,291
114,962	163,540	-0,243	-0,240
115,976	100,603	-0,259	-0,211
116,991	75,726	-0,240	-0,178
118,006	98,322	-0,240	-0,193
119,020	-8,669	-0,242	-0,113
120,035	160,386	-0,136	-0,133
121,049	146,360	-0,139	-0,131
122,064	199,222	-0,208	-0,224
123,079	80,230	-0,251	-0,189
124,093	303,351	-0,213	-0,278
125,108	200,189	-0,261	-0,281
126,122	-81,208	-0,225	-0,052
127,137	148,638	-0,292	-0,277
128,151	250,676	-0,180	-0,215
129,166	-6,441	-0,245	-0,116
130,181	263,057	-0,239	-0,291
131,195	55,175	-0,393	-0,265
132,210	54,007	-0,319	-0,214
133,224	30,683	-0,220	-0,132
134,239	100,434	-0,183	-0,148
135,254	80,204	-0,258	-0,194
136,268	51,426	-0,143	-0,095
137,283	29,167	-0,291	-0,173
138,297	206,809	-0,222	-0,242
139,312	-87,534	-0,425	-0,089
140,327	160,792	-0,284	-0,278
141,341	410,004	-0,157	-0,234
142,356	-50,076	-0,275	-0,091
143,370	-25,042	-0,222	-0,092
144,385	-24,642	-0,285	-0,118
145,400	23,869	-0,312	-0,179
146,414	49,051	-0,329	-0,216
147,429	17,123	-0,377	-0,208
148,443	104,700	-0,230	-0,189
149,458	61,292	-0,278	-0,193
150,473	143,755	-0,185	-0,172
151,487	530,106	-0,220	-0,364
152,502	114,052	-0,335	-0,285
153,516	268,015	-0,199	-0,245
154,531	-55,904	-0,251	-0,078
155,546	-17,357	-0,262	-0,115
156,560	-42,160	-0,251	-0,089
157,575	413,526	-0,139	-0,207
158,589	183,070	-0,179	-0,185
159,604	-13,159	-0,298	-0,135
160,619	48,629	-0,325	-0,213
161,633	76,404	-0,333	-0,246
162,648	11,890	-0,187	-0,100
163,662	147,555	-0,171	-0,161
164,677	-12,616	-0,287	-0,130
165,692	-86,893	-0,301	-0,064
166,706	315,321	-0,183	-0,242
167,721	-0,760	-0,191	-0,094
168,735	108,317	-0,292	-0,243
169,750	90,635	-0,272	-0,212
170,764	112,559	-0,207	-0,175
171,779	169,245	-0,197	-0,196
172,794	-169,260	-0,083	0,002
173,808	42,831	-0,171	-0,108
174,823	218,556	-0,231	-0,257
175,837	67,380	-0,209	-0,148
176,852	-0,340	-0,195	-0,096
177,867	-10,436	-0,169	-0,078
178,881	5,360	-0,189	-0,097
179,896	-53,353	-0,233	-0,074
180,910	222,087	-0,236	-0,265
181,925	190,904	-0,274	-0,287
182,940	647,969	-0,135	-0,241
183,954	390,462	-0,211	-0,306
184,969	167,083	-0,184	-0,182
185,983	-95,889	-0,317	-0,058
186,998	-85,936	-0,293	-0,063
188,013	-5,584	-0,152	-0,072
189,027	144,724	-0,275	-0,256
190,042	49,939	-0,300	-0,197
191,056	29,249	-0,257	-0,152
192,071	81,616	-0,128	-0,097
193,086	-200,000	-0,038	-0,256
194,100	631,868	-0,097	-0,172
195,115	52,570	-0,215	-0,143
196,129	130,351	-0,219	-0,196
197,144	142,447	-0,246	-0,227
198,159	449,371	-0,165	-0,254
199,173	74,111	-0,177	-0,129
200,188	101,547	-0,218	-0,177
201,202	-142,236	-0,243	-0,016
202,217	48,298	-0,159	-0,103
203,232	75,963	-0,280	-0,206
204,246	24,262	-0,142	-0,081
205,261	-28,250	-0,222	-0,089
206,275	337,399	-0,092	-0,124
207,290	713,882	-0,131	-0,242
208,304	92,153	-0,118	-0,093
209,319	-51,071	-0,194	-0,063
210,334	18,713	-0,187	-0,104
211,348	28,858	-0,317	-0,186
212,363	40,270	-0,344	-0,215
213,377	147,426	-0,220	-0,206
214,392	-200,000	-0,012	-0,183
215,407	800,000	-0,079	-0,169
216,421	344,938	-0,068	-0,093
217,436	6,078	-0,186	-0,095
218,450	-63,175	-0,265	-0,075
219,465	-79,242	-0,195	-0,046
220,480	800,000	-0,082	-0,237
221,494	-200,000	-0,038	-0,151
222,509	800,000	-0,094	-0,199
223,523	138,471	-0,086	-0,079
224,538	78,781	-0,296	-0,220
225,553	294,775	-0,184	-0,234
226,567	182,368	-0,143	-0,146
227,582	-125,428	-0,272	0,028
228,596	29,372	-0,173	-0,102
229,611	-128,507	-0,174	0,017
230,626	-25,127	-0,093	-0,038
231,640	365,709	-0,137	-0,192
232,655	89,080	-0,231	-0,178
233,669	-42,521	-0,121	-0,043
234,684	168,062	-0,164	-0,162
235,699	136,767	-0,190	-0,172
236,713	31,758	-0,201	-0,120
237,728	73,178	-0,112	-0,081
238,742	-90,792	-0,265	0,052
239,757	193,490	-0,177	-0,186
240,772	232,724	-0,259	-0,296
241,786	522,827	-0,101	-0,164
242,801	-63,505	-0,169	0,048
243,815	-97,993	-0,276	-0,049
244,830	73,936	-0,230	-0,167
245,844	197,389	-0,170	-0,180
246,859	53,150	-0,218	-0,144
247,874	7,481	-0,233	-0,120
248,888	38,588	-0,337	-0,208
249,903	-143,597	-0,203	-0,013
250,917	-35,855	-0,157	-0,059
251,932	800,000	-0,063	-0,156
252,947	52,565	-0,193	-0,127
253,961	270,207	-0,228	-0,278
254,976	50,738	-0,216	-0,141
255,990	16,710	-0,208	-0,114
257,005	-102,817	-0,230	-0,038
258,020	-42,640	-0,160	0,056
259,034	17,436	-0,211	-0,115
260,049	-106,758	-0,125	-0,019
261,063	-148,157	-0,211	0,012
262,078	205,290	-0,278	-0,299
263,093	60,347	-0,163	-0,111
264,107	-176,288	-0,218	-0,004
265,122	-66,303	-0,218	-0,060
266,136	81,372	-0,091	-0,068
267,151	15,319	-0,128	-0,069
268,166	101,576	-0,209	-0,168
269,180	164,484	-0,197	-0,192
270,195	143,099	-0,150	-0,138
271,209	114,725	-0,216	-0,182
272,224	-0,635	-0,046	-0,022
273,239	-97,922	-0,134	0,024
274,253	685,972	-0,059	-0,108
275,268	215,446	-0,152	-0,167
276,282	-29,154	-0,212	-0,083
277,297	158,260	-0,175	-0,167
278,312	257,772	-0,209	-0,249
279,326	429,758	-0,136	-0,205
280,341	80,692	-0,135	-0,101
281,355	306,108	-0,131	-0,169
282,370	800,000	-0,076	-0,232
283,384	39,794	-0,239	-0,148
284,399	309,741	-0,154	-0,199
285,414	399,356	-0,136	-0,197
286,428	269,471	-0,194	-0,236
287,443	110,970	-0,089	0,074
288,457	770,925	-0,124	-0,234
289,472	-57,899	-0,110	-0,033
290,487	229,089	-0,156	-0,176
291,501	149,392	-0,135	-0,126
292,516	139,567	-0,143	-0,130
293,530	333,055	-0,176	-0,236
294,545	328,704	-0,080	-0,107
295,560	-143,800	-0,106	-0,007
296,574	-128,715	-0,209	0,020
297,589	4,765	-0,201	-0,102
298,603	35,698	-0,201	-0,122
299,618	695,329	-0,102	-0,186
300,633	111,953	-0,107	0,089
301,647	32,620	-0,123	0,073
302,662	118,333	-0,139	-0,118
303,676	122,078	-0,123	-0,106
304,691	7,180	-0,223	-0,114
305,706	800,000	-0,106	-0,243
306,720	-9,145	-0,286	-0,131
307,735	-92,815	-0,198	0,038
308,749	-200,000	0,007	-0,057
309,764	-169,825	-0,147	-0,004
310,779	-144,698	-0,136	0,008
311,793	-48,092	-0,221	-0,073
312,808	87,448	-0,137	-0,104
313,822	47,627	-0,176	-0,113
314,837	-44,931	-0,199	-0,068
315,852	11,597	-0,139	-0,073
316,866	-19,500	-0,097	0,041
317,881	26,733	-0,099	-0,057
318,895	605,229	-0,100	-0,173
319,910	150,148	-0,137	-0,128
320,925	3,232	-0,207	-0,103
321,939	-200,000	-0,047	-0,208
322,954	103,099	-0,128	-0,103
323,968	-126,905	-0,198	-0,020
324,983	-7,105	-0,258	-0,120
325,997	333,797	-0,097	-0,129
327,012	-42,525	-0,155	-0,054
328,027	12,059	-0,230	-0,121
329,041	2,677	-0,099	-0,049
330,056	103,901	-0,113	-0,091
331,070	119,634	-0,171	-0,145
332,085	-61,078	-0,140	0,041
333,100	271,031	-0,182	-0,221
334,114	113,379	-0,144	-0,120
335,129	72,654	-0,144	-0,104
336,143	298,898	-0,054	-0,068
337,158	12,514	-0,087	-0,046
338,173	54,754	-0,076	0,051
339,187	189,647	-0,115	-0,118
340,202	-48,102	-0,115	0,038
341,216	23,695	-0,220	-0,124
342,231	-127,848	-0,074	-0,007
343,246	105,848	-0,189	-0,154
344,260	45,012	-0,146	-0,092
345,275	-200,000	-0,058	-0,183
346,289	214,396	-0,091	-0,099
347,304	326,373	-0,143	-0,189
348,319	294,373	-0,138	-0,173
349,333	32,915	-0,130	-0,077
350,348	83,523	-0,178	-0,133
351,362	174,503	-0,167	-0,166
352,377	346,340	-0,039	-0,053
353,392	-200,000	0,002	-0,102
354,406	253,146	-0,126	-0,148
355,421	208,723	1312,419	1411,282
356,435	160,614	1472,903	1411,816
