DTS Sentinel unit serial number:	SN410029Multiplexer serial number:	ORYXHardware model number:	OX2-SRSoftware version number:	ORYX F/W v4,00 Oryx Data Collector v3.7.2.0data status	okinstallation	B3 Nyhavnadifferential loss correction	single-endedforward channel	channel 1reverse channel	N/Adate	2023/12/01time	12:52:30forward acquisition time	300,00reverse acquisition time	0,00gamma	499,1914k internal	0,3213k external	0,3213temperature offset calibration	1,0000default loss term (dB/km)	0,3820temperature slope calibration	1,0000multiplexer offset coefficient	1,0000multiplexer slope coefficient	1,0000fibre end	0,00T internal ref (°C)	9,05T ext. ref 1 (°C)	-5,00T ext. ref 2 (°C)	-5,15length (m)	temperature (°C)	Stokes	anti-Stokes-744,400	153,462	-0,280	-0,278
-743,385	-200,000	-0,044	0,232
-742,371	215,135	-0,136	-0,156
-741,356	800,000	0,120	0,259
-740,342	58,208	-0,158	-0,112
-739,327	800,000	-0,095	0,213
-738,312	126,924	-0,085	-0,078
-737,298	800,000	-0,085	0,217
-736,283	96,447	-0,215	-0,178
-735,269	-200,000	0,029	0,364
-734,254	80,758	-0,211	-0,165
-733,239	-31,322	-0,224	0,091
-732,225	191,911	-0,192	-0,210
-731,210	305,960	0,163	0,220
-730,196	-200,000	-0,007	-0,023
-729,181	-200,000	-0,014	0,150
-728,167	-188,816	-0,008	0,000
-727,152	-74,125	-0,093	0,024
-726,137	-29,441	-0,120	-0,049
-725,123	-195,185	0,019	0,000
-724,108	-200,000	-0,018	-0,087
-723,094	306,012	0,018	-0,024
-722,079	-200,000	-0,008	-0,065
-721,064	-200,000	0,003	-0,036
-720,050	34,735	-0,066	-0,042
-719,035	-121,119	-0,026	0,003
-718,021	800,000	-0,020	-0,044
-717,006	-152,074	-0,060	-0,003
-715,991	-200,000	-0,032	-0,211
-714,977	-74,655	-0,233	-0,060
-713,962	47,893	-0,024	-0,016
-712,948	239,814	0,033	-0,039
-711,933	205,460	-0,048	-0,054
-710,918	386,411	0,014	-0,021
-709,904	800,000	0,007	0,016
-708,889	800,000	-0,045	-0,098
-707,875	266,609	-0,054	0,069
-706,860	-0,490	-0,025	0,013
-705,845	-200,000	-0,005	0,059
-704,831	-124,513	0,182	0,020
-703,816	-200,000	0,012	0,108
-702,802	411,680	0,009	-0,014
-701,787	-43,893	-0,066	-0,024
-700,772	-151,514	-0,055	0,003
-699,758	199,659	-0,037	-0,042
-698,743	-115,433	0,061	0,008
-697,729	800,000	-0,055	0,116
-696,714	558,108	0,089	0,157
-695,699	-52,487	-0,070	-0,023
-694,685	-166,190	0,144	0,004
-693,670	54,660	-0,096	-0,067
-692,656	-83,694	-0,067	-0,015
-691,641	-200,000	-0,004	-0,026
-690,627	88,521	-0,043	-0,034
-689,612	-200,000	0,010	0,046
-688,597	-0,384	-0,025	0,013
-687,583	800,000	-0,014	0,029
-686,568	-200,000	0,008	-0,042
-685,554	-54,096	0,103	0,034
-684,539	-121,036	0,149	-0,018
-683,524	102,348	0,091	0,077
-682,510	-140,143	0,108	0,008
-681,495	-200,000	0,038	-0,185
-680,481	-3,692	-0,052	0,026
-679,466	447,460	-0,051	-0,082
-678,451	303,949	0,071	-0,095
-677,437	800,000	-0,050	0,143
-676,422	-6,091	0,050	0,025
-675,408	256,626	0,035	-0,044
-674,393	-69,360	-0,150	0,041
-673,378	-200,000	-0,007	-0,137
-672,364	-200,000	-0,020	-0,129
-671,349	323,484	-0,088	-0,122
-670,335	800,000	0,042	-0,133
-669,320	27,687	-0,073	0,044
-668,305	-77,184	-0,034	0,008
-667,291	-200,000	-0,085	-0,000
-666,276	99,704	0,048	-0,040
-665,262	320,416	-0,133	-0,183
-664,247	366,200	0,056	-0,081
-663,232	345,239	-0,061	0,087
-662,218	-84,287	0,062	0,014
-661,203	-6,577	-0,044	-0,022
-660,189	481,208	0,051	-0,084
-659,174	-200,000	0,006	-0,086
-658,159	-57,275	-0,073	-0,023
-657,145	16,096	-0,084	-0,048
-656,130	800,000	0,035	0,082
-655,116	-54,460	0,091	0,030
-654,101	36,417	0,150	0,096
-653,086	36,001	0,087	0,055
-652,072	-114,256	-0,191	-0,026
-651,057	496,842	-0,105	-0,174
-650,043	800,000	-0,022	0,051
-649,028	433,685	0,040	0,062
-648,014	800,000	-0,013	-0,039
-646,999	800,000	0,036	0,096
-645,984	-48,803	-0,223	0,077
-644,970	-80,568	0,016	-0,004
-643,955	-153,189	0,117	-0,006
-642,941	578,016	0,068	-0,120
-641,926	-5,229	0,123	-0,061
-640,911	9,402	0,093	0,051
-639,897	526,286	0,045	0,078
-638,882	-200,000	-0,036	-0,131
-637,868	-200,000	0,027	-0,123
-636,853	589,440	-0,032	-0,057
-635,838	-94,173	-0,069	0,014
-634,824	-58,060	-0,112	-0,035
-633,809	593,117	0,040	0,072
-632,795	-200,000	-0,016	0,113
-631,780	102,673	0,113	-0,095
-630,765	232,448	0,034	0,041
-629,751	-28,702	-0,038	-0,016
-628,736	-68,946	-0,136	0,038
-627,722	-24,551	0,058	-0,025
-626,707	-42,023	-0,098	0,036
-625,692	394,503	-0,075	-0,113
-624,678	-200,000	-0,001	0,045
-623,663	-115,971	-0,119	0,016
-622,649	-200,000	-0,002	-0,117
-621,634	-200,000	-0,046	-0,195
-620,619	800,000	-0,061	-0,174
-619,605	800,000	-0,029	-0,069
-618,590	800,000	-0,027	0,075
-617,576	69,607	0,077	0,057
-616,561	5,941	-0,104	0,056
-615,546	-14,038	-0,098	-0,045
-614,532	-105,512	0,022	0,004
-613,517	196,314	0,015	0,016
-612,503	800,000	-0,060	0,124
-611,488	-26,304	0,043	0,018
-610,474	-87,212	0,074	0,016
-609,459	388,107	-0,028	-0,042
-608,444	-200,000	-0,017	-0,104
-607,430	-131,170	0,063	0,006
-606,415	-200,000	-0,028	-0,140
-605,401	-68,878	0,063	-0,017
-604,386	-200,000	0,029	-0,110
-603,371	180,984	-0,075	0,079
-602,357	179,667	-0,079	-0,084
-601,342	-117,103	0,009	0,001
-600,328	24,905	0,095	-0,057
-599,313	575,881	0,025	-0,045
-598,298	-140,657	-0,088	0,006
-597,284	-105,103	0,101	-0,016
-596,269	-96,094	0,158	0,030
-595,255	-35,069	0,094	-0,037
-594,240	-28,770	-0,021	0,009
-593,225	800,000	-0,035	0,100
-592,211	170,640	-0,094	-0,097
-591,196	-200,000	0,005	-0,154
-590,182	-71,065	0,130	-0,035
-589,167	10,557	-0,092	0,050
-588,152	-115,198	-0,020	0,003
-587,138	531,253	0,046	-0,079
-586,123	573,173	0,020	-0,034
-585,109	800,000	-0,012	0,028
-584,094	-73,512	-0,208	0,054
-583,079	420,350	0,052	0,080
-582,065	495,075	0,015	-0,024
-581,050	-200,000	-0,030	-0,124
-580,036	44,221	-0,074	0,049
-579,021	800,000	-0,078	-0,204
-578,006	-200,000	0,017	0,124
-576,992	800,000	-0,056	0,148
-575,977	5,600	-0,078	-0,042
-574,963	276,368	0,035	-0,045
-573,948	20,313	-0,012	0,007
-572,934	119,136	0,059	0,053
-571,919	-2,849	-0,082	-0,041
-570,904	800,000	-0,052	-0,132
-569,890	-200,000	-0,038	-0,152
-568,875	107,677	-0,153	-0,131
-567,861	84,953	0,145	0,114
-566,846	170,399	-0,036	-0,037
-565,831	193,767	-0,039	-0,042
-564,817	35,183	-0,075	0,047
-563,802	800,000	0,030	-0,088
-562,788	-200,000	0,015	-0,113
-561,773	-200,000	-0,016	-0,119
-560,758	-141,269	0,075	0,005
-559,744	-200,000	0,011	0,145
-558,729	-200,000	0,014	-0,131
-557,715	-200,000	-0,007	-0,105
-556,700	433,741	-0,097	-0,152
-555,685	-200,000	0,003	-0,027
-554,671	45,820	0,054	-0,036
-553,656	77,476	-0,044	0,033
-552,642	703,843	0,059	0,112
-551,627	-81,356	0,113	0,027
-550,612	-78,049	0,120	-0,030
-549,598	-23,860	-0,051	-0,022
-548,583	-200,000	-0,002	-0,114
-547,569	-151,616	-0,102	-0,005
-546,554	218,474	0,101	0,116
-545,539	321,064	0,036	0,049
-544,525	-97,789	0,098	-0,018
-543,510	268,101	0,017	0,021
-542,496	-62,317	-0,116	-0,035
-541,481	-72,581	-0,059	0,016
-540,466	-167,552	-0,089	0,002
-539,452	116,589	0,183	0,161
-538,437	744,310	0,034	0,065
-537,423	-68,931	0,066	0,018
-536,408	60,906	0,088	0,063
-535,393	-200,000	0,017	-0,153
-534,379	61,348	0,027	-0,019
-533,364	17,229	0,091	-0,052
-532,350	-200,000	-0,007	0,044
-531,335	-200,000	0,021	0,068
-530,321	-200,000	0,022	0,086
-529,306	-139,833	0,037	0,003
-528,291	242,928	-0,111	0,134
-527,277	-114,962	-0,048	-0,007
-526,262	800,000	-0,068	-0,136
-525,248	800,000	0,033	-0,094
-524,233	-155,826	0,199	-0,009
-523,218	-66,185	-0,072	0,020
-522,204	21,141	0,040	0,023
-521,189	-10,346	0,047	0,022
-520,175	715,840	-0,037	-0,071
-519,160	246,678	-0,034	-0,041
-518,145	279,145	-0,014	0,018
-517,131	-7,258	0,038	-0,018
-516,116	-83,805	0,059	0,013
-515,102	800,000	-0,024	0,062
-514,087	-88,202	0,054	0,011
-513,072	-200,000	-0,005	-0,054
-512,058	-101,442	-0,024	0,004
-511,043	74,095	-0,055	-0,042
-510,029	-36,965	0,087	-0,033
-509,014	326,948	-0,055	0,076
-507,999	-8,558	0,098	0,047
-506,985	-127,636	-0,079	-0,008
-505,970	800,000	-0,024	-0,061
-504,956	800,000	-0,033	0,068
-503,941	-66,919	-0,068	0,019
-502,926	-159,253	0,127	0,005
-501,912	-200,000	0,007	-0,043
-500,897	65,347	0,067	0,048
-499,883	-45,587	0,090	0,032
-498,868	457,461	-0,038	0,061
-497,853	477,329	-0,155	0,253
-496,839	75,113	-0,038	-0,029
-495,824	11,407	0,219	0,120
-494,810	47,287	-0,035	-0,023
-493,795	-106,327	0,142	0,023
-492,781	-200,000	0,013	-0,070
-491,766	-200,000	-0,008	0,034
-490,751	109,073	0,077	0,066
-489,737	89,131	-0,046	-0,037
-488,722	158,787	0,023	0,023
-487,708	203,546	-0,088	0,097
-486,693	-200,000	0,009	0,211
-485,678	-200,000	-0,023	-0,078
-484,664	515,393	0,056	-0,094
-483,649	264,982	-0,112	-0,140
-482,635	52,255	0,137	-0,093
-481,620	767,662	0,005	-0,010
-480,605	305,946	-0,068	0,091
-479,591	-114,458	0,204	0,028
-478,576	800,000	-0,038	-0,084
-477,562	2,923	0,092	-0,048
-476,547	-200,000	-0,021	-0,185
-475,532	379,747	-0,042	-0,061
-474,518	-40,645	0,078	0,029
-473,503	-200,000	-0,008	-0,100
-472,489	132,886	-0,105	0,097
-471,474	-157,212	-0,023	0,001
-470,459	-120,594	-0,154	-0,019
-469,445	-95,923	-0,145	-0,028
-468,430	427,810	0,051	-0,080
-467,416	-145,141	0,116	-0,007
-466,401	-143,986	0,051	-0,003
-465,386	-100,984	0,055	-0,010
-464,372	6,321	0,050	0,026
-463,357	800,000	-0,059	-0,132
-462,343	800,000	-0,010	-0,023
-461,328	-84,757	-0,124	0,028
-460,313	-200,000	0,009	0,104
-459,299	-120,009	0,242	0,029
-458,284	-200,000	0,016	-0,104
-457,270	-44,579	0,064	0,023
-456,255	97,948	0,134	-0,110
-455,241	-112,579	-0,099	-0,014
-454,226	44,840	-0,070	-0,046
-453,211	-108,028	0,074	0,011
-452,197	628,714	0,050	0,092
-451,182	800,000	-0,010	0,026
-450,168	112,648	0,083	0,072
-449,153	-112,303	0,052	-0,007
-448,138	-200,000	-0,009	0,033
-447,124	-200,000	0,007	-0,100
-446,109	800,000	-0,034	-0,069
-445,095	148,336	-0,035	0,034
-444,080	800,000	-0,039	0,107
-443,065	-200,000	0,003	0,204
-442,051	13,863	-0,178	-0,099
-441,036	-96,849	0,044	0,008
-440,022	-46,165	0,089	0,031
-439,007	-10,769	-0,133	-0,063
-437,992	155,596	0,121	-0,119
-436,978	69,428	-0,034	-0,025
-435,963	106,507	0,091	-0,077
-434,949	-200,000	-0,020	0,137
-433,934	-200,000	0,012	0,102
-432,919	215,774	-0,013	-0,015
-431,905	-200,000	-0,014	-0,095
-430,890	800,000	0,019	0,051
-429,876	232,989	0,081	0,096
-428,861	-2,954	0,044	-0,022
-427,846	-200,000	0,000	-0,002
-426,832	-88,700	0,139	0,029
-425,817	-92,616	0,131	-0,026
-424,803	-200,000	-0,014	-0,069
-423,788	-106,789	0,026	0,004
-422,773	-18,737	0,024	0,011
-421,759	-200,000	-0,004	0,041
-420,744	800,000	0,028	0,082
-419,730	11,484	-0,071	-0,039
-418,715	24,630	-0,048	-0,028
-417,701	79,016	0,066	0,051
-416,686	-200,000	0,018	0,112
-415,671	-6,926	0,086	0,042
-414,657	789,034	0,032	0,063
-413,642	-200,000	0,001	-0,034
-412,628	32,183	0,066	-0,041
-411,613	-113,385	-0,113	0,016
-410,598	-200,000	0,031	-0,132
-409,584	-30,235	0,061	-0,025
-408,569	22,958	0,130	0,076
-407,555	310,471	0,024	0,032
-406,540	-116,130	-0,058	-0,008
-405,525	-72,454	-0,133	0,035
-404,511	-16,204	-0,131	-0,059
-403,496	-200,000	-0,003	-0,015
-402,482	13,927	0,030	0,017
-401,467	-119,879	0,198	0,024
-400,452	328,259	-0,071	0,097
-399,438	342,627	0,057	0,080
-398,423	800,000	0,034	-0,076
-397,409	-102,933	-0,083	-0,014
-396,394	669,093	-0,091	-0,169
-395,379	-73,982	-0,017	-0,004
-394,365	800,000	0,018	-0,046
-393,350	253,487	-0,049	-0,060
-392,336	514,729	-0,020	-0,034
-391,321	800,000	0,044	-0,134
-390,306	319,601	-0,101	-0,138
-389,292	800,000	0,043	-0,109
-388,277	238,593	0,024	0,029
-387,263	-200,000	0,047	0,171
-386,248	107,655	0,074	-0,063
-385,233	800,000	-0,016	0,039
-384,219	-41,344	-0,120	0,044
-383,204	41,089	0,100	0,065
-382,190	219,883	-0,102	-0,117
-381,175	-200,000	0,010	-0,145
-380,160	20,999	0,169	-0,097
-379,146	800,000	-0,058	0,170
-378,131	800,000	-0,051	0,145
-377,117	-200,000	-0,013	-0,107
-376,102	44,490	-0,126	-0,083
-375,088	20,459	-0,212	0,122
-374,073	-106,765	0,059	-0,009
-373,058	41,167	0,068	-0,044
-372,044	450,380	0,043	0,068
-371,029	-164,031	-0,064	-0,002
-370,015	261,855	-0,041	0,051
-369,000	3,129	-0,172	-0,089
-367,985	-148,432	0,050	-0,003
-366,971	-200,000	-0,144	0,000
-365,956	304,502	0,086	-0,115
-364,942	-16,486	0,037	0,017
-363,927	195,852	0,034	0,037
-362,912	-110,795	-0,174	0,025
-361,898	800,000	0,041	0,083
-360,883	194,828	0,023	-0,025
-359,869	800,000	0,046	0,142
-358,854	351,678	0,021	0,029
-357,839	-84,187	0,008	-0,002
-356,825	-33,167	0,110	0,043
-355,810	-200,000	0,031	-0,133
-354,796	-200,000	-0,003	-0,048
-353,781	-200,000	-0,003	0,014
-352,766	53,239	0,123	-0,084
-351,752	29,347	-0,089	0,054
-350,737	-4,751	0,125	0,061
-349,723	367,893	-0,081	-0,117
-348,708	-84,693	-0,034	0,008
-347,693	-200,000	0,030	0,155
-346,679	-36,312	-0,140	-0,054
-345,664	576,762	0,028	0,050
-344,650	177,606	0,099	0,103
-343,635	-188,422	0,049	-0,000
-342,620	586,425	0,059	-0,103
-341,606	800,000	-0,021	0,042
-340,591	24,432	0,130	-0,076
-339,577	-14,182	-0,164	-0,075
-338,562	83,708	0,098	-0,076
-337,548	201,982	-0,018	-0,020
-336,533	-0,411	0,180	-0,091
-335,518	210,578	0,086	0,096
-334,504	-200,000	0,011	0,049
-333,489	800,000	-0,056	0,125
-332,475	-187,917	-0,067	0,001
-331,460	-200,000	-0,015	-0,062
-330,445	379,833	0,014	-0,020
-329,431	800,000	-0,027	0,068
-328,416	-17,008	0,186	0,083
-327,402	101,388	-0,044	-0,036
-326,387	-200,000	-0,052	-0,184
-325,372	-71,229	-0,090	-0,024
-324,358	800,000	0,043	0,098
-323,343	69,623	-0,048	-0,035
-322,329	-200,000	0,021	0,176
-321,314	691,630	0,055	0,104
-320,299	188,580	-0,035	0,037
-319,285	572,881	-0,085	0,149
-318,270	-21,707	0,089	0,039
-317,256	246,454	-0,126	-0,151
-316,241	114,167	0,094	-0,082
-315,226	-200,000	0,019	0,087
-314,212	-77,469	-0,055	0,014
-313,197	90,110	0,087	-0,069
-312,183	32,112	0,021	0,013
-311,168	211,424	-0,072	-0,081
-310,153	-200,000	0,005	-0,041
-309,139	-200,000	-0,016	0,090
-308,124	800,000	0,060	-0,125
-307,110	-200,000	0,009	0,092
-306,095	-30,639	-0,078	0,031
-305,080	-200,000	-0,011	0,089
-304,066	-200,000	-0,004	0,075
-303,051	-21,739	-0,060	-0,026
-302,037	-37,581	-0,119	-0,045
-301,022	-200,000	0,040	-0,135
-300,008	-3,841	0,124	0,061
-298,993	-200,000	0,009	0,175
-297,978	100,374	-0,118	0,097
-296,964	321,213	-0,064	-0,087
-295,949	-113,109	-0,081	0,011
-294,935	-200,000	-0,005	-0,075
-293,920	305,288	0,033	-0,044
-292,905	-83,075	0,099	0,023
-291,891	-125,831	-0,138	0,015
-290,876	-33,316	0,111	0,043
-289,862	-39,284	-0,108	-0,040
-288,847	1,785	-0,053	-0,027
-287,832	-54,098	0,098	0,032
-286,818	57,160	-0,087	-0,060
-285,803	27,626	-0,138	-0,082
-284,789	54,570	-0,027	0,019
-283,774	225,917	0,041	0,047
-282,759	10,298	-0,095	-0,051
-281,745	306,105	0,133	-0,177
-280,730	-88,102	-0,080	-0,017
-279,716	48,436	-0,077	0,051
-278,701	696,091	-0,095	0,178
-277,686	134,631	0,127	0,117
-276,672	-172,497	0,147	-0,003
-275,657	281,653	-0,037	-0,047
-274,643	-200,000	0,013	-0,078
-273,628	-200,000	0,040	-0,128
-272,613	-117,819	-0,060	-0,008
-271,599	-200,000	0,027	0,109
-270,584	-115,517	0,179	0,024
-269,570	124,903	0,083	0,074
-268,555	-145,952	-0,143	-0,009
-267,540	-200,000	-0,020	-0,130
-266,526	-48,276	0,115	0,039
-265,511	139,511	0,083	-0,078
-264,497	-10,032	0,099	-0,047
-263,482	622,978	0,011	0,019
-262,467	153,299	0,084	0,082
-261,453	470,618	0,081	0,130
-260,438	199,744	0,011	-0,012
-259,424	5,300	-0,059	-0,031
-258,409	110,751	-0,012	-0,010
-257,395	-135,118	-0,017	-0,001
-256,380	-90,872	-0,080	-0,016
-255,365	-200,000	-0,022	0,082
-254,351	466,198	-0,045	-0,072
-253,336	193,506	-0,065	-0,070
-252,322	200,955	0,136	-0,149
-251,307	800,000	-0,021	-0,048
-250,292	-200,000	-0,009	-0,054
-249,278	-200,000	0,009	0,050
-248,263	-200,000	-0,016	0,174
-247,249	-200,000	0,045	0,166
-246,234	800,000	0,067	-0,148
-245,219	800,000	-0,061	-0,151
-244,205	800,000	0,012	-0,032
-243,190	123,609	0,040	0,036
-242,176	-73,436	0,061	-0,016
-241,161	205,715	0,044	0,049
-240,146	528,165	0,058	0,097
-239,132	339,752	0,031	-0,042
-238,117	40,639	-0,080	0,051
-237,103	800,000	0,011	-0,027
-236,088	238,930	0,103	0,122
-235,073	-200,000	-0,026	-0,088
-234,059	-200,000	-0,007	0,104
-233,044	-200,000	-0,005	0,065
-232,030	-87,639	-0,063	-0,013
-231,015	-200,000	-0,025	0,080
-230,000	354,002	0,041	-0,058
-228,986	293,732	-0,049	0,064
-227,971	14,714	-0,064	0,035
-226,957	536,098	0,091	-0,155
-225,942	-65,988	-0,099	0,028
-224,927	-72,386	-0,056	0,015
-223,913	-200,000	0,000	0,027
-222,898	-200,000	-0,015	0,067
-221,884	800,000	0,066	0,170
-220,869	-87,138	-0,109	0,023
-219,855	-72,256	-0,070	-0,018
-218,840	-28,864	0,104	0,042
-217,825	-50,699	-0,031	-0,010
-216,811	800,000	0,054	0,118
-215,796	-10,602	-0,110	-0,051
-214,782	800,000	0,023	-0,046
-213,767	214,631	0,016	0,018
-212,752	490,972	0,077	0,125
-211,738	180,302	-0,019	-0,019
-210,723	-200,000	0,010	0,052
-209,709	37,162	-0,064	-0,040
-208,694	546,940	0,016	-0,028
-207,679	-190,144	-0,055	-0,000
-206,665	-200,000	0,004	-0,035
-205,650	-156,423	0,067	0,003
-204,636	459,362	-0,036	0,057
-203,621	31,160	0,106	0,064
-202,606	-200,000	-0,025	-0,109
-201,592	577,872	-0,031	-0,054
-200,577	590,347	-0,103	-0,181
-199,563	93,875	-0,113	0,091
-198,548	-152,114	-0,075	-0,004
-197,533	-200,000	0,021	0,068
-196,519	-32,785	-0,013	0,005
-195,504	-200,000	-0,012	-0,048
-194,490	-14,999	-0,049	0,022
-193,475	-200,000	-0,009	-0,078
-192,460	-200,000	-0,013	0,050
-191,446	102,303	0,038	0,031
-190,431	-200,000	0,004	-0,023
-189,417	-200,000	0,014	0,154
-188,402	405,873	-0,077	-0,116
-187,387	-90,970	-0,122	-0,025
-186,373	214,016	0,040	-0,045
-185,358	-25,541	0,048	-0,020
-184,344	-157,318	0,219	-0,009
-183,329	685,421	-0,022	0,040
-182,315	-200,000	-0,020	0,116
-181,300	230,260	-0,074	0,086
-180,285	-93,572	-0,100	0,019
-179,271	-42,532	-0,046	-0,017
-178,256	196,531	0,009	0,009
-177,242	383,802	-0,022	-0,033
-176,227	-200,000	0,026	0,096
-175,212	131,604	-0,050	0,045
-174,198	-200,000	-0,003	0,104
-173,183	-200,000	-0,035	-0,128
-172,169	-200,000	0,025	-0,102
-171,154	-6,956	0,051	0,024
-170,139	767,449	-0,059	0,115
-169,125	125,437	-0,078	-0,070
-168,110	-200,000	-0,011	0,109
-167,096	94,148	0,090	0,073
-166,081	800,000	-0,056	0,123
-165,066	269,220	-0,073	0,092
-164,052	-127,385	-0,159	-0,016
-163,037	-69,685	0,112	0,030
-162,023	187,185	-0,056	0,059
-161,008	106,708	0,048	0,040
-159,993	144,018	-0,083	0,078
-158,979	800,000	-0,044	0,091
-157,964	-136,685	-0,106	-0,009
-156,950	173,612	-0,087	0,089
-155,935	-44,761	-0,039	-0,014
-154,920	-29,726	0,036	0,014
-153,906	24,392	-0,084	0,049
-152,891	-200,000	0,001	0,068
-151,877	94,740	0,028	0,023
-150,862	192,987	-0,026	0,028
-149,847	136,171	-0,095	-0,088
-148,833	-200,000	-0,001	0,063
-147,818	-200,000	0,028	0,107
-146,804	-90,652	0,063	0,013
-145,789	375,726	0,040	-0,058
-144,775	-145,974	0,080	-0,005
-143,760	-102,312	-0,056	0,009
-142,745	463,059	-0,048	-0,076
-141,731	150,288	0,033	-0,032
-140,716	212,022	0,034	0,038
-139,702	-200,000	0,014	0,103
-138,687	-200,000	-0,003	-0,023
-137,672	423,356	-0,040	-0,062
-136,658	-128,493	-0,130	0,013
-135,643	100,531	-0,075	-0,062
-134,629	133,095	-0,052	0,048
-133,614	-200,000	-0,013	0,068
-132,599	-200,000	-0,018	0,063
-131,585	-200,000	0,008	0,134
-130,570	373,153	-0,067	-0,097
-129,556	704,652	0,016	-0,031
-128,541	-163,875	-0,044	0,001
-127,526	71,778	0,039	0,029
-126,512	247,832	0,051	0,061
-125,497	333,734	0,039	-0,053
-124,483	11,075	0,068	-0,037
-123,468	-8,624	-0,068	-0,032
-122,453	612,470	-0,093	-0,165
-121,439	-86,223	-0,142	0,031
-120,424	107,052	0,110	-0,093
-119,410	136,921	0,055	0,051
-118,395	-200,000	0,036	0,190
-117,380	-63,814	-0,067	-0,019
-116,366	-200,000	0,014	-0,136
-115,351	-200,000	0,008	0,036
-114,337	-77,506	0,088	-0,021
-113,322	-19,430	-0,101	-0,044
-112,307	-200,000	-0,021	-0,103
-111,293	45,562	0,081	0,053
-110,278	800,000	0,033	0,096
-109,264	237,814	-0,050	0,059
-108,249	-200,000	-0,045	-0,192
-107,234	-64,870	-0,105	0,030
-106,220	45,229	0,072	-0,047
-105,205	-95,853	-0,049	0,009
-104,191	92,913	0,199	0,159
-103,176	329,188	0,036	0,049
-102,162	-200,000	0,026	0,121
-101,147	56,971	-0,139	-0,096
-100,132	-200,000	-0,058	-0,260
-99,118	-200,000	-0,017	-0,124
-98,103	81,861	0,015	0,012
-97,089	-200,000	0,030	0,265
-96,074	-200,000	0,023	0,202
-95,059	-200,000	0,005	0,208
-94,045	-159,832	-0,029	0,001
-93,030	-200,000	0,014	0,096
-92,016	800,000	-0,018	0,037
-91,001	800,000	-0,031	-0,095
-89,986	343,255	-0,030	0,041
-88,972	800,000	0,031	0,062
-87,957	498,069	-0,026	0,043
-86,943	-76,629	-0,159	-0,039
-85,928	-34,794	0,065	0,025
-84,913	-29,274	-0,158	0,064
-83,899	800,000	0,044	-0,116
-82,884	265,079	0,057	0,070
-81,870	-200,000	0,016	0,064
-80,855	4,624	0,095	-0,049
-79,840	-200,000	0,058	-0,196
-78,826	-200,000	-0,022	0,108
-77,811	800,000	-0,036	0,090
-76,797	673,633	0,035	-0,064
-75,782	542,747	-0,023	0,038
-74,767	298,112	-0,046	0,060
-73,753	204,769	0,044	-0,048
-72,738	350,332	-0,029	-0,041
-71,724	-47,830	-0,028	-0,009
-70,709	-89,791	0,053	-0,011
-69,694	93,434	-0,083	0,067
-68,680	751,842	0,068	-0,131
-67,665	630,476	0,055	0,098
-66,651	53,006	-0,104	0,070
-65,636	800,000	-0,016	-0,035
-64,622	800,000	0,080	-0,182
-63,607	-7,042	0,116	-0,055
-62,592	480,954	-0,137	-0,221
-61,578	11,309	0,054	0,029
-60,563	-45,697	-0,061	0,021
-59,549	-200,000	0,064	0,217
-58,534	44,683	-2,080	-1,347
-57,519	662,159	-1,103	-2,015
-56,505	-200,000	-0,525	-4,478
-55,490	630,748	0,917	1,644
-54,476	800,000	5,296	11,386
-53,461	-200,000	22,030	340,660
-52,446	800,000	761,787	2304,955
-51,432	533,697	1658,107	2781,156
-50,417	69,620	1655,369	1201,442
-49,403	16,739	1529,752	851,207
-48,388	10,852	1454,279	780,808
-47,373	19,102	1446,071	815,862
-46,359	14,297	1434,874	786,728
-45,344	9,174	1430,702	760,074
-44,330	9,100	1429,005	758,788
-43,315	9,087	1427,051	757,658
-42,300	9,112	1425,482	756,915
-41,286	9,125	1424,180	756,255
-40,271	9,116	1422,917	755,513
-39,257	9,106	1421,587	754,728
-38,242	9,133	1420,730	754,370
-37,227	9,113	1419,656	753,676
-36,213	9,139	1418,085	752,938
-35,198	9,129	1416,857	752,210
-34,184	9,173	1416,017	751,940
-33,169	9,149	1414,550	751,017
-32,154	9,163	1413,727	750,616
-31,140	9,101	1412,505	749,647
-30,125	9,171	1411,079	749,188
-29,111	9,115	1409,916	748,278
-28,096	9,110	1409,116	747,800
-27,082	9,070	1407,690	746,826
-26,067	9,049	1406,709	746,179
-25,052	9,096	1405,558	745,758
-24,038	9,166	1404,544	745,519
-23,023	9,080	1403,811	744,699
-22,009	9,047	1402,498	743,820
-20,994	9,085	1401,673	743,526
-19,979	9,078	1400,641	742,917
-18,965	8,995	1399,891	742,106
-17,950	9,060	1398,620	741,703
-16,936	9,062	1398,062	741,386
-15,921	8,962	1396,981	740,321
-14,906	9,004	1395,987	739,960
-13,892	9,011	1395,294	739,594
-12,877	9,003	1394,335	739,022
-11,863	8,969	1393,843	738,573
-10,848	8,983	1392,679	737,993
-9,833	8,945	1391,895	737,372
-8,819	8,910	1390,932	736,672
-7,804	8,892	1389,988	736,056
-6,790	8,873	1388,926	735,376
-5,775	8,890	1387,851	734,859
-4,760	8,923	1387,015	734,536
-3,746	8,927	1385,797	733,882
-2,731	8,945	1385,109	733,571
-1,717	8,939	1384,041	732,951
-0,702	8,921	1382,341	731,937
0,313	12,883	1293,917	703,182
1,327	28,806	684,785	407,985
2,342	44,766	118,147	76,475
3,356	0,881	16,598	8,354
4,371	-0,317	3,615	1,805
5,386	-5,819	1,189	0,572
6,400	800,000	0,276	0,631
7,415	-200,000	-0,072	-0,226
8,429	289,145	-0,189	-0,242
9,444	12,912	-0,285	-0,155
10,459	140,293	-0,295	-0,274
11,473	-129,680	-0,236	-0,023
12,488	53,877	-0,185	-0,125
13,502	-77,312	-0,400	-0,097
14,517	71,277	-0,312	-0,228
15,531	21,750	-0,323	-0,185
16,546	15,403	-0,389	-0,214
17,561	78,384	-0,474	-0,356
18,575	-96,571	-0,199	-0,037
19,590	184,049	-0,192	-0,200
20,604	138,213	-0,106	-0,098
21,619	79,005	-0,368	-0,277
22,634	92,225	-0,487	-0,386
23,648	36,277	-0,523	-0,323
24,663	-46,792	-0,339	-0,116
25,677	41,058	-0,330	-0,209
26,692	93,783	-0,304	-0,242
27,707	-12,594	-0,353	-0,161
28,721	-11,791	-0,359	-0,165
29,736	80,315	-0,516	-0,391
30,750	103,116	-0,338	-0,278
31,765	50,500	-0,457	-0,303
32,780	69,391	-0,409	-0,296
33,794	131,572	-0,300	-0,272
34,809	15,974	-0,317	-0,175
35,823	-14,008	-0,510	-0,230
36,838	68,729	-0,377	-0,271
37,853	116,810	-0,288	-0,249
38,867	235,239	-0,268	-0,312
39,882	264,738	-0,234	-0,287
40,896	24,073	-0,437	-0,253
41,911	164,191	-0,291	-0,288
42,926	186,036	-0,290	-0,303
43,940	317,318	-0,192	-0,256
44,955	18,233	-0,408	-0,228
45,969	102,907	-0,275	-0,226
46,984	-11,856	-0,329	-0,151
47,999	29,096	-0,349	-0,208
49,013	-182,836	-0,180	0,002
50,028	-63,359	-0,366	-0,105
51,042	73,415	-0,327	-0,240
52,057	-42,064	-0,345	-0,123
53,071	158,739	-0,390	-0,380
54,086	-45,090	-0,352	-0,122
55,101	85,715	-0,289	-0,223
56,115	98,706	-0,310	-0,251
57,130	-157,653	-0,316	-0,013
58,144	27,704	-0,334	-0,197
59,159	143,580	-0,331	-0,309
60,174	108,088	-0,325	-0,272
61,188	112,946	-0,259	-0,220
62,203	26,814	-0,332	-0,194
63,217	-72,129	-0,360	-0,093
64,232	71,241	-0,315	-0,229
65,247	23,029	-0,412	-0,237
66,261	379,510	-0,339	-0,488
67,276	38,242	-0,338	-0,210
68,290	-21,516	-0,282	-0,120
69,305	30,399	-0,259	-0,155
70,320	-30,936	-0,341	-0,134
71,334	-42,516	-0,334	-0,118
72,349	-45,612	-0,347	-0,120
73,363	-83,506	-0,376	-0,084
74,378	34,349	-0,372	-0,227
75,393	109,298	-0,374	-0,313
76,407	12,630	-0,260	-0,140
77,422	25,133	-0,299	-0,173
78,436	222,136	-0,173	-0,195
79,451	11,128	-0,338	-0,180
80,466	118,856	-0,260	-0,224
81,480	-57,600	-0,372	-0,113
82,495	-96,381	-0,318	-0,058
83,509	39,964	-0,157	-0,098
84,524	-3,048	-0,247	-0,120
85,539	222,187	-0,251	-0,283
86,553	-68,142	-0,297	-0,080
87,568	800,000	-0,132	-0,342
88,582	41,393	-0,341	-0,216
89,597	65,830	-0,327	-0,231
90,611	298,123	-0,159	-0,205
91,626	41,187	-0,360	-0,227
92,641	112,161	-0,096	-0,081
93,655	40,827	-0,325	-0,205
94,670	256,312	-0,255	-0,307
95,684	584,114	-0,223	-0,384
96,699	212,248	-0,261	-0,289
97,714	15,664	-0,316	-0,173
98,728	-71,131	-0,160	-0,042
99,743	147,572	-0,172	-0,162
100,757	116,117	-0,195	-0,166
101,772	149,334	-0,185	-0,175
102,787	292,854	-0,211	-0,270
103,801	191,891	-0,300	-0,316
104,816	64,454	-0,280	-0,197
105,830	25,184	-0,233	-0,135
106,845	228,997	-0,193	-0,220
107,860	0,757	-0,216	-0,107
108,874	35,597	-0,286	-0,175
109,889	-183,235	-0,258	0,003
110,903	48,189	-0,288	-0,187
111,918	59,203	-0,254	-0,174
112,933	95,863	-0,194	-0,154
113,947	209,478	-0,109	-0,119
114,962	37,318	-0,243	-0,150
115,976	52,459	-0,267	-0,178
116,991	39,184	-0,288	-0,179
118,006	-18,462	-0,267	-0,116
119,020	-126,833	-0,262	-0,027
120,035	-70,546	-0,237	0,062
121,049	-91,411	-0,283	-0,056
122,064	-186,455	-0,204	-0,002
123,079	246,146	-0,152	-0,178
124,093	216,353	-0,197	-0,219
125,108	101,822	-0,269	-0,218
126,122	-98,409	-0,267	-0,047
127,137	30,184	-0,141	-0,084
128,151	15,228	-0,246	-0,134
129,166	46,158	-0,234	-0,151
130,181	119,647	-0,209	-0,180
131,195	-29,926	-0,237	-0,094
132,210	104,465	-0,160	-0,132
133,224	-4,797	-0,205	-0,098
134,239	-51,972	-0,270	-0,087
135,254	800,000	-0,114	-0,276
136,268	-185,036	-0,186	-0,002
137,283	182,528	-0,224	-0,230
138,297	-12,595	-0,282	-0,128
139,312	28,243	-0,319	-0,187
140,327	58,849	-0,276	-0,189
141,341	128,640	-0,263	-0,233
142,356	90,796	-0,164	-0,128
143,370	152,788	-0,257	-0,245
144,385	125,906	-0,207	-0,182
145,400	60,533	-0,144	-0,099
146,414	147,911	-0,292	-0,274
147,429	176,260	-0,275	-0,278
148,443	187,100	-0,219	-0,227
149,458	140,183	-0,169	-0,155
150,473	-44,710	-0,297	-0,103
151,487	-138,214	-0,243	-0,018
152,502	11,961	-0,274	-0,146
153,516	1,363	-0,196	-0,097
154,531	297,211	-0,298	-0,381
155,546	78,842	-0,285	-0,212
156,560	-200,000	-0,051	-0,160
157,575	800,000	-0,103	-0,249
158,589	49,192	-0,151	-0,099
159,604	124,411	-0,329	-0,288
160,619	437,592	-0,153	-0,232
161,633	126,074	-0,266	-0,233
162,648	586,963	-0,191	-0,328
163,662	307,209	-0,202	-0,262
164,677	350,581	-0,119	-0,164
165,692	63,179	-0,162	-0,113
166,706	145,266	-0,217	-0,202
167,721	218,758	-0,168	-0,187
168,735	255,019	-0,251	-0,299
169,750	88,133	-0,247	-0,191
170,764	-44,757	-0,314	-0,108
171,779	-0,612	-0,158	-0,077
172,794	129,813	-0,259	-0,230
173,808	-19,724	-0,244	-0,104
174,823	35,377	-0,239	-0,145
175,837	36,361	-0,267	-0,163
176,852	336,915	-0,180	-0,243
177,867	42,833	-0,198	-0,125
178,881	40,603	-0,165	-0,103
179,896	-79,958	-0,211	-0,049
180,910	-36,256	-0,253	-0,094
181,925	12,168	-0,307	-0,163
182,940	69,199	-0,259	-0,185
183,954	25,390	-0,197	-0,113
184,969	268,941	-0,141	-0,172
185,983	-14,129	-0,294	-0,131
186,998	68,451	-0,193	-0,137
188,013	292,461	-0,144	-0,182
189,027	199,500	-0,236	-0,252
190,042	54,857	-0,249	-0,166
191,056	220,451	-0,219	-0,244
192,071	-1,725	-0,202	-0,098
193,086	-71,635	-0,230	-0,059
194,100	-76,764	-0,104	-0,025
195,115	-62,361	-0,309	-0,088
196,129	22,303	-0,226	-0,127
197,144	163,364	-0,152	-0,148
198,159	-44,986	-0,238	-0,082
199,173	782,207	-0,108	-0,206
200,188	252,431	-0,166	-0,197
201,202	-73,972	-0,109	-0,027
202,217	-34,855	-0,242	-0,091
203,232	-200,000	0,000	-0,160
204,246	43,325	-0,231	-0,146
205,261	213,046	-0,110	-0,120
206,275	-17,263	-0,199	-0,086
207,290	14,526	-0,184	-0,099
208,304	525,645	-0,054	-0,088
209,319	-25,901	-0,066	0,027
210,334	277,810	-0,251	-0,310
211,348	792,911	-0,116	-0,222
212,363	788,182	-0,177	-0,339
213,377	-12,689	-0,229	-0,103
214,392	395,622	-0,077	-0,111
215,407	-82,922	-0,194	-0,043
216,421	-23,832	-0,103	-0,042
217,436	54,276	-0,165	-0,110
218,450	368,656	-0,116	-0,163
219,465	28,380	-0,256	-0,149
220,480	-7,011	-0,148	-0,069
221,494	-10,932	-0,196	-0,089
222,509	689,781	-0,060	-0,110
223,523	800,000	-0,067	-0,196
224,538	128,313	-0,157	-0,138
225,553	131,540	-0,199	-0,177
226,567	23,480	-0,249	-0,141
227,582	189,373	-0,186	-0,192
228,596	199,667	-0,076	-0,081
229,611	-200,000	-0,058	-0,182
230,626	392,983	-0,144	-0,208
231,640	98,561	-0,209	-0,167
232,655	120,880	-0,153	-0,132
233,669	440,101	-0,218	-0,330
234,684	159,158	-0,226	-0,217
235,699	26,813	-0,234	-0,135
236,713	-147,349	-0,157	-0,009
237,728	-105,013	-0,226	-0,035
238,742	44,453	-0,120	-0,076
239,757	45,552	-0,130	-0,083
240,772	-98,547	-0,245	-0,043
241,786	314,052	-0,076	-0,099
242,801	22,548	-0,254	-0,143
243,815	168,747	-0,067	0,066
244,830	800,000	-0,076	-0,150
245,844	-94,406	-0,225	-0,042
246,859	12,528	-0,206	-0,109
247,874	9,406	-0,135	-0,070
248,888	508,563	-0,146	-0,234
249,903	-109,696	-0,212	-0,030
250,917	-45,182	-0,114	-0,039
251,932	148,112	-0,123	-0,115
252,947	575,676	-0,105	-0,177
253,961	346,267	-0,136	-0,185
254,976	130,550	-0,218	-0,193
255,990	284,012	-0,150	-0,186
257,005	-188,630	-0,157	0,001
258,020	105,276	-0,201	-0,163
259,034	-36,122	-0,162	-0,060
260,049	411,344	-0,044	0,064
261,063	-200,000	0,003	-0,175
262,078	62,021	-0,244	-0,167
263,093	192,974	-0,145	-0,151
264,107	263,175	-0,235	-0,282
265,122	3,868	-0,166	-0,083
266,136	-5,478	-0,067	-0,031
267,151	17,527	-0,080	-0,044
268,166	343,344	-0,133	-0,180
269,180	-32,946	-0,157	-0,060
270,195	62,348	-0,213	-0,146
271,209	-39,625	-0,241	-0,086
272,224	-96,786	0,050	0,009
273,239	-87,792	-0,134	-0,028
274,253	584,065	-0,084	-0,142
275,268	-49,914	-0,232	-0,075
276,282	154,093	-0,175	-0,166
277,297	-200,000	-0,044	-0,183
278,312	36,936	-0,186	-0,113
279,326	-41,956	-0,239	-0,084
280,341	800,000	-0,037	-0,086
281,355	585,057	0,018	-0,031
282,370	-200,000	-0,017	-0,172
283,384	159,093	-0,093	-0,089
284,399	57,836	-0,159	-0,107
285,414	440,385	-0,080	-0,120
286,428	-3,070	-0,301	-0,144
287,443	-112,016	-0,144	0,020
288,457	125,530	-0,178	-0,155
289,472	22,210	-0,150	-0,084
290,487	3,827	-0,216	-0,108
291,501	94,709	-0,204	-0,159
292,516	238,776	-0,051	-0,059
293,530	59,036	-0,114	-0,077
294,545	187,216	-0,071	-0,073
295,560	-60,627	-0,019	-0,005
296,574	800,000	-0,072	-0,187
297,589	-6,404	-0,174	-0,081
298,603	129,797	-0,087	-0,076
299,618	-32,397	-0,075	0,029
300,633	21,096	-0,177	-0,098
301,647	594,222	-0,122	-0,208
302,662	-74,424	-0,144	0,035
303,676	791,662	-0,055	0,104
304,691	-8,586	-0,223	-0,103
305,706	-23,402	-0,219	-0,090
306,720	-52,807	-0,180	-0,057
307,735	800,000	-0,027	-0,052
308,749	413,002	-0,107	-0,156
309,764	-115,114	-0,071	-0,009
310,779	493,574	-0,099	-0,156
311,793	280,512	-0,101	-0,125
312,808	-162,360	-0,098	-0,003
313,822	-21,660	-0,149	-0,062
314,837	-111,956	-0,136	0,019
315,852	117,527	-0,174	-0,147
316,866	-200,000	-0,050	-0,178
317,881	29,238	-0,117	-0,068
318,895	-100,495	-0,218	-0,037
319,910	154,106	-0,126	-0,119
320,925	492,248	-0,179	-0,283
321,939	-8,081	-0,079	-0,036
322,954	-155,331	-0,171	-0,007
323,968	46,352	-0,043	-0,028
324,983	16,324	-0,138	-0,074
325,997	279,235	-0,178	-0,218
327,012	156,638	-0,124	-0,118
328,027	-38,223	-0,115	-0,042
329,041	-191,133	-0,214	0,001
330,056	-164,447	-0,081	0,002
331,070	96,140	-0,115	-0,090
332,085	-126,994	-0,128	-0,013
333,100	800,000	-0,061	-0,125
334,114	-200,000	-0,029	-0,104
335,129	345,703	-0,206	-0,278
336,143	-12,474	-0,194	-0,086
337,158	-90,497	-0,177	0,035
338,173	-76,170	-0,070	0,017
339,187	-15,962	-0,074	-0,032
340,202	29,860	-0,162	-0,094
341,216	0,990	-0,091	-0,045
342,231	800,000	-0,119	-0,227
343,246	-125,603	-0,254	-0,026
344,260	77,620	-0,181	-0,131
345,275	-110,826	-0,162	0,023
346,289	-112,779	-0,158	-0,021
347,304	7,680	-0,168	0,086
348,319	103,851	-0,139	-0,112
349,333	136,571	-0,132	-0,118
350,348	465,647	-0,047	-0,072
351,362	106,260	-0,103	-0,084
352,377	-200,000	-0,006	-0,061
353,392	800,000	-0,063	-0,123
354,406	-54,972	-0,108	-0,033
355,421	208,118	1311,554	1402,342
356,435	160,124	1471,844	1402,789
