DTS Sentinel unit serial number:	SN410029Multiplexer serial number:	ORYXHardware model number:	OX2-SRSoftware version number:	ORYX F/W v4,00 Oryx Data Collector v3.7.2.0data status	okinstallation	B3 Nyhavnadifferential loss correction	single-endedforward channel	channel 1reverse channel	N/Adate	2023/12/02time	12:52:30forward acquisition time	300,00reverse acquisition time	0,00gamma	499,1914k internal	0,3198k external	0,3198temperature offset calibration	1,0000default loss term (dB/km)	0,3820temperature slope calibration	1,0000multiplexer offset coefficient	1,0000multiplexer slope coefficient	1,0000fibre end	0,00T internal ref (°C)	14,20T ext. ref 1 (°C)	-0,28T ext. ref 2 (°C)	-0,30length (m)	temperature (°C)	Stokes	anti-Stokes-744,400	800,000	-0,125	-0,293
-743,385	-200,000	0,046	0,264
-742,371	138,634	-0,188	-0,180
-741,356	-200,000	0,057	0,328
-740,342	631,425	-0,127	-0,236
-739,327	-200,000	0,016	0,208
-738,312	223,444	-0,240	-0,283
-737,298	-200,000	-0,072	0,351
-736,283	527,598	-0,090	-0,154
-735,269	-200,000	0,039	0,339
-734,254	-200,000	-0,063	-0,220
-733,239	24,926	-0,168	0,101
-732,225	84,310	-0,249	-0,198
-731,210	-200,000	0,008	0,055
-730,196	73,033	0,120	-0,091
-729,181	-200,000	0,014	-0,055
-728,167	-200,000	0,005	0,028
-727,152	353,729	-0,044	-0,064
-726,137	-41,602	-0,125	-0,047
-725,123	-200,000	0,004	-0,103
-724,108	-200,000	0,000	-0,017
-723,094	109,223	-0,095	-0,083
-722,079	800,000	-0,047	-0,136
-721,064	52,350	0,061	-0,042
-720,050	331,299	-0,115	-0,162
-719,035	405,136	-0,062	-0,095
-718,021	-200,000	0,029	-0,169
-717,006	36,653	-0,113	-0,073
-715,991	800,000	-0,032	-0,086
-714,977	460,384	-0,029	0,047
-713,962	-200,000	-0,007	0,023
-712,948	-200,000	-0,010	0,100
-711,933	34,610	-0,051	0,033
-710,918	-200,000	0,002	-0,163
-709,904	121,955	-0,043	0,039
-708,889	-180,676	-0,111	-0,002
-707,875	32,603	-0,044	0,028
-706,860	-200,000	0,000	0,066
-705,845	-74,090	0,042	0,011
-704,831	-31,355	-0,039	0,016
-703,816	370,779	-0,053	-0,078
-702,802	759,442	-0,057	-0,112
-701,787	102,647	-0,092	-0,078
-700,772	-145,691	0,118	0,008
-699,758	800,000	0,034	-0,089
-698,743	800,000	0,068	0,154
-697,729	-75,461	-0,130	0,033
-696,714	210,457	0,032	0,036
-695,699	-200,000	-0,010	-0,042
-694,685	-200,000	0,031	0,120
-693,670	6,474	0,086	-0,046
-692,656	203,736	0,112	-0,126
-691,641	56,416	0,029	-0,020
-690,627	-200,000	-0,044	0,218
-689,612	-200,000	0,019	0,096
-688,597	417,039	0,035	-0,054
-687,583	35,160	0,086	-0,055
-686,568	-200,000	-0,012	0,085
-685,554	-200,000	0,005	0,029
-684,539	-200,000	-0,015	0,087
-683,524	345,813	0,062	0,088
-682,510	-114,263	0,025	-0,003
-681,495	-64,280	-0,028	-0,008
-680,481	-160,618	-0,065	0,002
-679,466	270,991	-0,080	-0,103
-678,451	-103,090	0,011	0,002
-677,437	106,710	-0,076	0,066
-676,422	121,800	-0,022	0,020
-675,408	-76,237	-0,185	0,047
-674,393	302,328	-0,177	-0,239
-673,378	269,980	-0,036	-0,046
-672,364	89,260	-0,056	-0,045
-671,349	-105,818	0,094	-0,015
-670,335	-21,081	-0,029	0,013
-669,320	-165,867	-0,134	-0,004
-668,305	-59,994	0,053	0,016
-667,291	-200,000	-0,023	0,132
-666,276	-200,000	-0,017	-0,074
-665,262	-44,752	-0,131	0,047
-664,247	0,112	-0,090	-0,046
-663,232	15,864	0,049	-0,028
-662,218	147,889	0,071	0,070
-661,203	-52,013	0,129	-0,043
-660,189	232,463	0,055	-0,066
-659,174	-125,641	-0,089	0,010
-658,159	124,403	-0,109	-0,099
-657,145	65,311	0,066	0,048
-656,130	-37,328	0,096	-0,037
-655,116	-26,228	0,028	-0,012
-654,101	47,614	0,094	-0,064
-653,086	382,202	0,015	0,023
-652,072	-143,663	-0,100	-0,007
-651,057	800,000	-0,037	-0,083
-650,043	261,158	-0,039	0,049
-649,028	800,000	0,010	0,027
-648,014	199,263	-0,020	-0,022
-646,999	177,639	0,053	0,056
-645,984	-154,116	-0,071	-0,003
-644,970	-63,515	-0,104	-0,031
-643,955	14,870	0,203	-0,115
-642,941	-65,168	-0,155	-0,045
-641,926	-200,000	-0,003	0,016
-640,911	99,462	0,083	-0,070
-639,897	800,000	0,040	0,104
-638,882	-200,000	-0,017	0,113
-637,868	-200,000	-0,006	0,116
-636,853	-200,000	-0,031	-0,171
-635,838	-200,000	0,011	0,155
-634,824	-200,000	0,001	-0,018
-633,809	25,591	-0,175	-0,106
-632,795	800,000	0,056	0,130
-631,780	-170,074	-0,124	-0,003
-630,765	-75,224	-0,091	-0,023
-629,751	-3,754	-0,065	-0,032
-628,736	-200,000	0,005	-0,125
-627,722	187,135	-0,082	-0,089
-626,707	800,000	0,091	-0,219
-625,692	50,211	0,031	-0,021
-624,678	51,638	0,052	0,036
-623,663	215,646	0,077	-0,088
-622,649	-94,411	-0,148	-0,029
-621,634	-200,000	0,022	-0,095
-620,619	664,331	0,064	-0,120
-619,605	-200,000	0,011	0,053
-618,590	385,883	0,039	0,059
-617,576	36,620	0,054	0,035
-616,561	536,374	-0,038	-0,065
-615,546	800,000	0,045	-0,098
-614,532	14,162	0,070	-0,040
-613,517	800,000	-0,024	-0,061
-612,503	-155,073	-0,062	-0,003
-611,488	676,540	-0,062	-0,117
-610,474	-88,531	0,097	0,021
-609,459	800,000	-0,018	0,040
-608,444	-200,000	0,016	-0,064
-607,430	726,545	-0,022	0,043
-606,415	-200,000	0,009	0,032
-605,401	256,622	0,081	0,101
-604,386	-58,084	0,104	-0,033
-603,371	10,609	-0,063	-0,035
-602,357	-49,755	-0,063	-0,022
-601,342	197,373	-0,093	-0,103
-600,328	800,000	-0,022	-0,058
-599,313	127,815	0,043	0,040
-598,298	-200,000	-0,017	0,071
-597,284	800,000	0,030	0,071
-596,269	-13,789	0,049	0,023
-595,255	7,587	-0,179	0,097
-594,240	27,701	-0,021	-0,013
-593,225	-68,585	0,006	0,002
-592,211	-200,000	0,031	-0,151
-591,196	800,000	-0,014	-0,036
-590,182	341,660	-0,091	-0,129
-589,167	276,774	-0,037	-0,047
-588,152	-79,385	0,066	0,016
-587,138	-43,334	0,048	0,018
-586,123	192,631	-0,060	-0,065
-585,109	-65,013	-0,071	-0,021
-584,094	-200,000	-0,022	-0,081
-583,079	-64,167	-0,050	-0,015
-582,065	48,629	-0,050	0,034
-581,050	-153,280	0,024	0,001
-580,036	800,000	0,014	0,038
-579,021	37,575	-0,070	0,045
-578,006	-200,000	-0,000	0,032
-576,992	800,000	0,028	0,082
-575,977	294,511	-0,030	0,040
-574,963	-200,000	-0,001	0,097
-573,948	216,952	0,074	0,085
-572,934	-200,000	-0,001	-0,088
-571,919	800,000	-0,056	-0,119
-570,904	-200,000	-0,015	-0,098
-569,890	-19,595	0,143	0,064
-568,875	-52,404	0,099	-0,033
-567,861	551,407	-0,010	0,018
-566,846	20,450	0,073	0,043
-565,831	7,728	-0,038	0,021
-564,817	-48,170	0,197	-0,068
-563,802	-111,291	0,136	0,020
-562,788	-20,951	-0,085	0,037
-561,773	73,228	0,073	0,055
-560,758	51,604	0,175	0,120
-559,744	800,000	0,037	-0,112
-558,729	-30,510	0,064	-0,026
-557,715	-60,296	-0,126	-0,039
-556,700	-200,000	0,035	-0,127
-555,685	800,000	-0,039	-0,082
-554,671	-35,463	0,045	0,018
-553,656	140,356	-0,084	0,080
-552,642	395,336	-0,073	0,110
-551,627	4,734	-0,071	0,037
-550,612	-8,847	0,142	-0,068
-549,598	-200,000	-0,022	-0,122
-548,583	72,958	0,078	0,059
-547,569	-163,176	0,051	0,002
-546,554	800,000	-0,035	0,089
-545,539	-56,412	0,053	-0,017
-544,525	-200,000	-0,007	0,055
-543,510	22,788	-0,100	-0,059
-542,496	-200,000	0,002	-0,094
-541,481	-84,103	-0,091	0,021
-540,466	497,702	0,086	0,144
-539,452	86,727	0,088	-0,070
-538,437	77,275	0,065	-0,050
-537,423	-200,000	-0,001	0,016
-536,408	58,581	-0,069	-0,049
-535,393	183,860	0,015	-0,017
-534,379	-54,929	-0,085	-0,028
-533,364	15,220	0,050	0,028
-532,350	188,254	0,091	-0,099
-531,335	308,600	-0,062	-0,084
-530,321	-200,000	0,013	-0,089
-529,306	800,000	-0,018	0,055
-528,291	800,000	-0,022	-0,066
-527,277	-38,598	0,058	-0,022
-526,262	-200,000	-0,024	0,080
-525,248	316,412	0,032	0,044
-524,233	73,736	-0,157	0,119
-523,218	-49,113	0,184	-0,063
-522,204	-200,000	0,040	0,181
-521,189	123,500	-0,080	-0,072
-520,175	-130,307	-0,052	0,005
-519,160	-76,136	0,157	-0,040
-518,145	-71,484	0,064	-0,017
-517,131	38,578	-0,094	-0,060
-516,116	-58,171	0,053	-0,017
-515,102	-44,617	-0,114	0,041
-514,087	64,143	0,038	-0,027
-513,072	191,327	0,013	-0,015
-512,058	49,618	-0,024	-0,016
-511,043	59,304	0,033	0,024
-510,029	298,850	-0,017	0,022
-509,014	-200,000	-0,019	0,118
-507,999	-97,436	0,056	0,010
-506,985	-200,000	-0,019	-0,118
-505,970	800,000	-0,023	0,064
-504,956	279,800	-0,071	-0,092
-503,941	-200,000	-0,002	-0,069
-502,926	185,556	0,043	-0,046
-501,912	-10,808	0,212	-0,101
-500,897	42,080	-0,089	-0,058
-499,883	221,405	-0,068	-0,079
-498,868	771,666	-0,079	0,156
-497,853	-200,000	-0,011	-0,116
-496,839	-200,000	0,016	-0,069
-495,824	69,545	-0,075	0,055
-494,810	-200,000	0,012	0,119
-493,795	-79,928	0,053	0,013
-492,781	-173,652	0,132	-0,003
-491,766	-200,000	-0,003	-0,048
-490,751	-80,188	-0,132	-0,032
-489,737	45,761	0,044	-0,029
-488,722	67,082	-0,053	-0,039
-487,708	302,083	0,046	0,061
-486,693	213,735	0,015	-0,017
-485,678	-180,477	-0,193	0,003
-484,664	37,143	0,045	0,029
-483,649	112,094	-0,149	-0,129
-482,635	94,179	0,071	0,058
-481,620	800,000	-0,037	-0,081
-480,605	120,455	-0,086	0,077
-479,591	71,131	0,047	0,035
-478,576	-200,000	0,005	-0,074
-477,562	599,181	0,013	0,023
-476,547	-113,911	-0,115	-0,016
-475,532	193,528	-0,121	-0,132
-474,518	-200,000	0,037	0,155
-473,503	800,000	0,042	0,109
-472,489	407,098	-0,094	-0,144
-471,474	-200,000	-0,002	-0,009
-470,459	-141,872	-0,106	-0,008
-469,445	-28,188	-0,059	0,024
-468,430	-200,000	-0,006	0,124
-467,416	800,000	-0,036	-0,100
-466,401	702,104	0,028	0,054
-465,386	583,079	0,032	0,058
-464,372	800,000	-0,056	0,124
-463,357	800,000	0,010	-0,028
-462,343	-74,087	-0,032	0,008
-461,328	156,979	-0,107	-0,106
-460,313	-125,524	-0,058	-0,006
-459,299	800,000	0,041	-0,086
-458,284	-104,086	0,094	-0,016
-457,270	36,686	0,018	0,011
-456,255	245,515	-0,080	0,098
-455,241	726,579	-0,040	-0,076
-454,226	-200,000	0,009	-0,147
-453,211	-200,000	-0,018	-0,085
-452,197	-71,469	0,051	0,014
-451,182	51,751	0,056	-0,038
-450,168	-141,185	-0,082	0,006
-449,153	-200,000	-0,027	-0,088
-448,138	611,402	0,043	0,078
-447,124	-7,637	-0,141	-0,069
-446,109	292,741	0,055	0,072
-445,095	-200,000	0,020	0,117
-444,080	4,352	-0,155	-0,081
-443,065	-200,000	-0,001	0,025
-442,051	-6,403	-0,123	-0,060
-441,036	-200,000	0,045	-0,225
-440,022	-27,616	0,029	-0,012
-439,007	800,000	-0,055	-0,130
-437,992	6,575	0,058	-0,031
-436,978	663,174	0,033	0,062
-435,963	-200,000	0,036	0,121
-434,949	-200,000	-0,011	-0,056
-433,934	-94,989	-0,071	-0,014
-432,919	800,000	-0,007	-0,015
-431,905	800,000	-0,018	0,050
-430,890	-200,000	0,040	-0,137
-429,876	-49,708	0,036	0,012
-428,861	23,064	0,181	0,106
-427,846	176,939	0,081	0,085
-426,832	800,000	0,047	0,126
-425,817	-44,650	-0,212	-0,076
-424,803	28,910	-0,118	-0,072
-423,788	-36,162	-0,113	-0,043
-422,773	431,079	0,055	0,086
-421,759	610,993	0,047	0,084
-420,744	608,535	0,024	0,044
-419,730	800,000	0,022	0,046
-418,715	91,221	0,072	-0,058
-417,701	88,560	-0,042	0,033
-416,686	-41,875	0,203	-0,074
-415,671	43,430	0,089	-0,058
-414,657	-27,551	0,137	-0,057
-413,642	-200,000	-0,019	-0,074
-412,628	-200,000	-0,040	-0,138
-411,613	161,404	-0,145	-0,146
-410,598	338,866	0,077	0,109
-409,584	-78,931	0,188	-0,046
-408,569	-68,658	0,113	0,031
-407,555	182,653	-0,032	0,034
-406,540	-40,862	-0,066	-0,024
-405,525	800,000	0,049	0,100
-404,511	-200,000	0,015	0,056
-403,496	-68,386	0,026	0,007
-402,482	-200,000	0,016	0,114
-401,467	-72,315	0,154	-0,041
-400,452	34,105	0,051	0,032
-399,438	-10,206	0,031	0,015
-398,423	556,974	-0,034	0,059
-397,409	-78,920	-0,161	-0,039
-396,394	-27,097	-0,136	-0,057
-395,379	-36,548	0,040	-0,015
-394,365	499,938	0,037	-0,061
-393,350	298,637	0,063	0,083
-392,336	-139,730	-0,134	0,010
-391,321	-200,000	0,017	0,139
-390,306	37,564	-0,165	0,105
-389,292	17,616	-0,076	0,043
-388,277	-18,035	0,057	0,025
-387,263	139,879	-0,030	0,028
-386,248	-200,000	0,033	0,131
-385,233	-200,000	-0,022	0,175
-384,219	492,352	0,056	0,092
-383,204	800,000	0,021	-0,044
-382,190	141,536	-0,077	-0,073
-381,175	-200,000	-0,009	-0,080
-380,160	-200,000	0,006	-0,059
-379,146	-170,531	0,035	-0,001
-378,131	-200,000	0,013	0,083
-377,117	-200,000	-0,001	0,092
-376,102	493,213	0,020	0,034
-375,088	-132,402	0,079	-0,007
-374,073	46,081	-0,155	0,103
-373,058	-200,000	-0,002	-0,198
-372,044	-62,393	0,089	0,026
-371,029	-85,982	-0,132	0,029
-370,015	-200,000	0,009	-0,192
-369,000	-63,130	0,038	0,011
-367,985	296,820	-0,056	-0,074
-366,971	800,000	-0,008	-0,022
-365,956	29,776	0,072	0,044
-364,942	-147,373	0,151	-0,009
-363,927	62,295	0,081	0,058
-362,912	156,134	-0,126	0,124
-361,898	204,313	0,071	0,079
-360,883	-170,214	-0,131	0,003
-359,869	-146,249	-0,061	0,004
-358,854	54,713	0,069	0,047
-357,839	-38,585	-0,092	0,035
-356,825	33,323	0,047	-0,029
-355,810	-112,388	0,215	0,031
-354,796	800,000	0,026	-0,074
-353,781	-119,703	0,101	-0,012
-352,766	78,469	-0,032	-0,024
-351,752	-90,470	0,045	0,009
-350,737	730,397	-0,071	0,138
-349,723	-63,820	-0,055	-0,016
-348,708	-200,000	-0,009	0,111
-347,693	-200,000	0,010	0,094
-346,679	-200,000	0,018	0,115
-345,664	221,599	0,038	-0,044
-344,650	393,263	0,059	0,088
-343,635	800,000	-0,051	0,109
-342,620	-10,017	0,065	0,031
-341,606	-89,488	0,047	-0,010
-340,591	321,892	0,034	-0,046
-339,577	123,569	-0,120	-0,108
-338,562	-58,678	-0,082	-0,025
-337,548	-31,535	0,063	-0,025
-336,533	185,483	0,114	-0,122
-335,518	168,331	-0,082	0,084
-334,504	800,000	-0,016	0,043
-333,489	800,000	0,039	0,106
-332,475	-200,000	0,027	0,147
-331,460	-1,005	-0,073	-0,037
-330,445	-200,000	0,016	0,063
-329,431	256,115	0,037	0,045
-328,416	293,212	-0,036	0,048
-327,402	196,942	0,100	0,109
-326,387	-200,000	0,009	-0,061
-325,372	-200,000	0,008	-0,079
-324,358	-200,000	0,011	-0,087
-323,343	58,241	0,154	-0,108
-322,329	88,828	0,025	-0,020
-321,314	-50,265	0,077	-0,026
-320,299	-175,236	-0,063	0,001
-319,285	-200,000	0,034	0,155
-318,270	-200,000	0,016	-0,104
-317,256	47,373	-0,051	0,034
-316,241	68,511	-0,014	0,010
-315,226	202,917	0,051	-0,057
-314,212	160,516	0,182	0,182
-313,197	144,264	-0,047	-0,044
-312,183	-8,416	-0,046	-0,022
-311,168	99,513	0,073	0,061
-310,153	-61,007	-0,180	-0,054
-309,139	-8,276	-0,143	-0,068
-308,124	-37,629	-0,092	-0,035
-307,110	-200,000	0,020	0,083
-306,095	-200,000	0,001	0,070
-305,080	-200,000	0,010	0,079
-304,066	800,000	-0,053	-0,127
-303,051	-3,230	-0,109	-0,054
-302,037	-200,000	-0,004	-0,069
-301,022	510,572	-0,042	0,071
-300,008	800,000	0,041	0,089
-298,993	-104,986	0,025	-0,004
-297,978	-200,000	0,017	0,101
-296,964	96,294	-0,152	-0,124
-295,949	288,852	0,052	0,067
-294,935	97,725	-0,012	0,010
-293,920	283,677	-0,023	-0,030
-292,905	800,000	-0,038	0,081
-291,891	33,822	0,071	-0,044
-290,876	-42,335	-0,164	-0,060
-289,862	800,000	0,043	-0,096
-288,847	800,000	-0,038	-0,115
-287,832	717,583	-0,023	-0,043
-286,818	-9,104	-0,088	-0,042
-285,803	-200,000	0,014	0,108
-284,789	-140,567	0,069	0,005
-283,774	-200,000	0,007	0,056
-282,759	800,000	0,031	-0,083
-281,745	-38,440	0,041	-0,015
-280,730	52,540	-0,123	-0,084
-279,716	-81,700	0,098	0,023
-278,701	55,278	0,078	0,054
-277,686	-200,000	0,003	-0,011
-276,672	-104,424	-0,068	0,011
-275,657	401,949	0,031	0,046
-274,643	254,737	0,059	0,073
-273,628	-11,373	-0,022	0,010
-272,613	-121,734	0,043	-0,005
-271,599	125,148	0,064	0,058
-270,584	674,174	0,048	0,089
-269,570	527,555	0,117	0,198
-268,555	-163,161	-0,086	0,003
-267,540	209,068	-0,064	-0,072
-266,526	100,603	0,099	-0,082
-265,511	-110,844	-0,189	-0,028
-264,497	-182,780	0,094	0,001
-263,482	-25,832	0,088	-0,037
-262,467	36,976	0,042	0,026
-261,453	-200,000	0,022	0,112
-260,438	-71,620	-0,118	0,031
-259,424	589,803	0,073	0,128
-258,409	-65,740	-0,089	0,025
-257,395	-200,000	-0,018	-0,088
-256,380	411,831	0,069	0,105
-255,365	-192,729	-0,037	0,000
-254,351	-144,817	0,039	0,002
-253,336	141,554	-0,096	0,091
-252,322	231,840	-0,057	0,067
-251,307	-10,346	0,085	0,040
-250,292	179,924	0,100	0,105
-249,278	-200,000	-0,008	0,034
-248,263	177,667	-0,060	0,062
-247,249	31,117	-0,058	0,035
-246,234	3,817	0,033	0,017
-245,219	-163,432	-0,124	0,004
-244,205	-108,461	0,033	-0,005
-243,190	187,335	0,041	-0,043
-242,176	24,422	-0,075	0,044
-241,161	-105,960	0,126	0,020
-240,146	-31,141	0,009	0,003
-239,132	-200,000	0,027	-0,116
-238,117	-41,101	-0,089	-0,032
-237,103	-200,000	0,018	0,064
-236,088	561,597	-0,089	0,154
-235,073	276,142	0,032	0,040
-234,059	-131,465	0,072	-0,007
-233,044	-200,000	0,023	0,077
-232,030	-86,227	0,126	-0,027
-231,015	47,645	0,055	0,037
-230,000	-200,000	0,053	-0,214
-228,986	-200,000	0,011	-0,048
-227,971	327,141	0,040	-0,055
-226,957	-40,817	0,174	-0,064
-225,942	-157,923	-0,052	-0,002
-224,927	-182,707	-0,127	-0,002
-223,913	-142,734	0,069	-0,005
-222,898	800,000	-0,074	-0,225
-221,884	92,051	-0,062	-0,050
-220,869	-34,712	0,110	0,043
-219,855	-103,548	-0,122	-0,020
-218,840	-200,000	-0,032	-0,116
-217,825	403,022	-0,077	0,116
-216,811	-200,000	0,013	0,099
-215,796	110,531	-0,099	-0,085
-214,782	-18,154	-0,022	-0,010
-213,767	-165,752	-0,082	0,002
-212,752	-200,000	0,053	0,176
-211,738	46,151	0,042	0,028
-210,723	200,342	0,120	0,131
-209,709	227,951	-0,031	-0,036
-208,694	152,051	-0,087	0,085
-207,679	9,346	0,086	-0,046
-206,665	115,991	0,120	-0,104
-205,650	248,910	0,067	0,081
-204,636	18,725	0,094	-0,053
-203,621	229,163	-0,033	0,039
-202,606	98,607	-0,067	-0,055
-201,592	800,000	-0,041	0,088
-200,577	-46,411	-0,175	0,061
-199,563	168,421	0,021	-0,021
-198,548	-200,000	0,007	-0,041
-197,533	-151,876	0,133	-0,007
-196,519	-200,000	0,005	-0,062
-195,504	-68,922	-0,094	-0,026
-194,490	-200,000	0,002	-0,060
-193,475	-140,194	-0,126	0,009
-192,460	68,966	-0,050	-0,036
-191,446	230,502	-0,038	-0,044
-190,431	-99,401	0,123	0,022
-189,417	-149,904	-0,091	0,005
-188,402	-99,481	0,013	-0,002
-187,387	5,920	-0,031	0,017
-186,373	206,937	-0,011	-0,013
-185,358	8,607	0,093	-0,050
-184,344	800,000	0,011	0,029
-183,329	-128,097	0,035	0,004
-182,315	426,949	0,052	-0,081
-181,300	85,477	0,030	-0,024
-180,285	-200,000	0,018	-0,150
-179,271	626,435	0,039	0,071
-178,256	-81,811	-0,045	-0,010
-177,242	115,443	0,167	0,145
-176,227	165,679	0,143	0,144
-175,212	-21,117	-0,099	-0,043
-174,198	30,343	-0,053	0,032
-173,183	-79,480	-0,079	0,019
-172,169	30,671	-0,027	-0,017
-171,154	359,462	-0,074	-0,106
-170,139	-57,498	0,123	0,038
-169,125	800,000	0,017	0,034
-168,110	758,862	-0,038	0,073
-167,096	-106,153	0,072	-0,011
-166,081	-54,784	-0,079	0,025
-165,066	-43,108	-0,086	0,031
-164,052	-200,000	0,033	-0,122
-163,037	230,560	0,049	0,057
-162,023	36,364	0,090	0,056
-161,008	-105,428	-0,125	-0,020
-159,993	-200,000	-0,017	-0,157
-158,979	-60,761	-0,047	-0,014
-157,964	-200,000	-0,014	-0,050
-156,950	-87,077	0,040	0,009
-155,935	411,194	-0,031	-0,048
-154,920	-200,000	0,022	0,071
-153,906	78,229	-0,133	0,101
-152,891	-16,974	0,123	0,055
-151,877	-200,000	-0,001	-0,072
-150,862	462,772	-0,049	-0,078
-149,847	500,214	-0,070	-0,115
-148,833	800,000	-0,047	0,101
-147,818	211,036	0,069	-0,078
-146,804	-45,997	0,152	0,053
-145,789	96,941	-0,049	-0,040
-144,775	-89,657	0,042	0,009
-143,760	-105,286	0,066	0,011
-142,745	800,000	-0,014	-0,041
-141,731	-130,766	0,127	0,012
-140,716	153,925	0,022	-0,021
-139,702	800,000	-0,014	-0,044
-138,687	694,268	0,050	0,094
-137,672	254,888	0,040	0,049
-136,658	-200,000	-0,020	-0,116
-135,643	111,083	-0,109	0,093
-134,629	52,208	-0,079	0,054
-133,614	800,000	-0,060	-0,123
-132,599	562,808	0,016	0,027
-131,585	460,901	0,011	-0,017
-130,570	-200,000	0,000	-0,068
-129,556	800,000	-0,039	-0,100
-128,541	138,605	-0,021	0,020
-127,526	600,482	0,048	0,084
-126,512	179,006	0,043	-0,045
-125,497	-36,687	0,087	0,033
-124,483	800,000	-0,049	-0,143
-123,468	224,653	0,063	0,072
-122,453	-76,682	-0,105	0,026
-121,439	-16,366	0,053	0,024
-120,424	351,465	-0,098	-0,139
-119,410	-200,000	0,037	-0,151
-118,395	-26,239	0,122	0,051
-117,380	800,000	0,024	0,048
-116,366	-110,902	0,062	-0,009
-115,351	184,599	0,012	-0,013
-114,337	-78,848	-0,050	-0,012
-113,322	800,000	-0,083	-0,166
-112,307	-17,740	0,062	-0,027
-111,293	-200,000	0,006	0,064
-110,278	-200,000	-0,001	-0,039
-109,264	-99,188	0,076	0,014
-108,249	-200,000	0,034	-0,130
-107,234	-18,059	-0,110	-0,049
-106,220	349,313	-0,032	-0,044
-105,205	-62,157	-0,104	0,030
-104,191	141,553	0,020	-0,019
-103,176	-27,540	0,047	0,019
-102,162	800,000	0,024	0,061
-101,147	82,533	-0,070	-0,054
-100,132	-200,000	0,013	-0,046
-99,118	45,004	0,113	0,074
-98,103	43,106	-0,054	-0,035
-97,089	719,908	0,064	0,121
-96,074	410,102	0,043	0,065
-95,059	526,786	0,092	-0,155
-94,045	-129,025	-0,109	0,011
-93,030	125,197	0,093	-0,084
-92,016	-130,590	-0,035	-0,003
-91,001	36,357	-0,066	-0,041
-89,986	-23,241	-0,023	-0,010
-88,972	-200,000	0,007	0,038
-87,957	-200,000	-0,042	0,142
-86,943	-2,043	-0,097	0,048
-85,928	-200,000	0,030	-0,184
-84,913	348,202	-0,030	-0,042
-83,899	-200,000	0,021	0,108
-82,884	342,998	0,057	0,079
-81,870	350,666	-0,074	0,105
-80,855	-88,512	0,207	0,043
-79,840	-74,524	-0,213	0,054
-78,826	337,685	-0,091	0,126
-77,811	55,160	-0,076	-0,052
-76,797	800,000	0,040	0,106
-75,782	-172,789	0,095	-0,002
-74,767	-15,536	0,102	0,046
-73,753	-200,000	-0,034	0,121
-72,738	800,000	0,007	-0,019
-71,724	-200,000	-0,027	-0,151
-70,709	82,189	-0,053	0,040
-69,694	-42,746	-0,128	-0,046
-68,680	800,000	-0,031	-0,067
-67,665	-200,000	-0,008	0,091
-66,651	98,944	0,143	-0,117
-65,636	174,189	0,022	0,022
-64,622	-11,603	-0,055	0,026
-63,607	800,000	-0,037	0,075
-62,592	-78,119	-0,038	0,009
-61,578	89,107	0,065	0,051
-60,563	-200,000	-0,027	0,096
-59,549	206,443	0,063	0,069
-58,534	-68,051	-1,701	-0,467
-57,519	362,289	-1,435	-2,047
-56,505	-200,000	-0,567	-4,489
-55,490	160,192	0,988	0,976
-54,476	800,000	4,912	11,469
-53,461	-200,000	18,530	300,647
-52,446	800,000	734,543	2277,983
-51,432	564,838	1650,739	2845,944
-50,417	78,811	1668,281	1263,406
-49,403	22,164	1541,211	889,131
-48,388	16,066	1464,008	814,988
-47,373	17,742	1453,989	817,464
-46,359	16,935	1444,195	808,062
-45,344	14,334	1439,593	793,012
-44,330	14,228	1437,720	791,441
-43,315	14,281	1435,974	790,703
-42,300	14,276	1434,278	789,714
-41,286	14,323	1432,853	789,118
-40,271	14,268	1431,775	788,231
-39,257	14,236	1430,484	787,340
-38,242	14,289	1429,101	786,799
-37,227	14,316	1427,952	786,263
-36,213	14,300	1426,684	785,458
-35,198	14,294	1425,608	784,804
-34,184	14,365	1424,623	784,567
-33,169	14,345	1422,977	783,538
-32,154	14,292	1422,278	782,869
-31,140	14,304	1421,037	782,211
-30,125	14,356	1419,684	781,681
-29,111	14,319	1418,725	780,947
-28,096	14,282	1417,589	780,119
-27,082	14,218	1416,644	779,265
-26,067	14,246	1415,433	778,699
-25,052	14,245	1414,569	778,187
-24,038	14,175	1413,475	777,226
-23,023	14,223	1412,366	776,814
-22,009	14,255	1411,223	776,304
-20,994	14,196	1410,477	775,585
-19,979	14,166	1409,727	774,999
-18,965	14,130	1408,612	774,188
-17,950	14,155	1407,839	773,850
-16,936	14,137	1407,060	773,307
-15,921	14,140	1405,677	772,528
-14,906	14,102	1404,858	771,871
-13,892	14,168	1404,017	771,688
-12,877	14,135	1403,076	770,985
-11,863	14,105	1402,296	770,384
-10,848	14,122	1401,298	769,889
-9,833	14,088	1400,418	769,216
-8,819	14,059	1399,520	768,557
-7,804	14,025	1398,421	767,764
-6,790	14,002	1397,464	767,102
-5,775	14,041	1396,396	766,664
-4,760	13,997	1395,617	766,004
-3,746	14,042	1394,636	765,643
-2,731	14,031	1393,834	765,119
-1,717	13,997	1392,966	764,456
-0,702	14,013	1391,428	763,654
0,313	17,975	1309,671	737,107
1,327	34,452	705,695	435,349
2,342	52,801	124,062	83,848
3,356	4,225	16,596	8,577
4,371	12,663	3,167	1,726
5,386	11,278	0,429	0,232
6,400	-14,330	0,106	0,048
7,415	-89,742	-0,236	0,049
8,429	193,755	-0,260	-0,278
9,444	24,862	-0,447	-0,261
10,459	-36,286	-0,301	-0,114
11,473	446,229	-0,228	-0,356
12,488	91,768	-0,274	-0,218
13,502	-26,471	-0,427	-0,176
14,517	115,907	-0,394	-0,341
15,531	42,935	-0,438	-0,282
16,546	47,764	-0,305	-0,201
17,561	65,343	-0,447	-0,320
18,575	443,451	-0,110	-0,171
19,590	266,342	-0,193	-0,238
20,604	14,849	-0,249	-0,138
21,619	-38,246	-0,458	-0,171
22,634	84,118	-0,365	-0,281
23,648	28,704	-0,391	-0,233
24,663	306,079	-0,273	-0,360
25,677	73,355	-0,355	-0,262
26,692	-26,664	-0,372	-0,153
27,707	-9,800	-0,445	-0,209
28,721	92,260	-0,325	-0,259
29,736	297,615	-0,283	-0,369
30,750	184,662	-0,318	-0,333
31,765	60,894	-0,511	-0,358
32,780	-8,168	-0,345	-0,164
33,794	29,670	-0,437	-0,262
34,809	78,642	-0,381	-0,287
35,823	91,319	-0,256	-0,203
36,838	46,823	-0,503	-0,330
37,853	257,429	-0,291	-0,353
38,867	115,926	-0,311	-0,269
39,882	99,604	-0,400	-0,327
40,896	220,617	-0,271	-0,308
41,911	9,682	-0,368	-0,196
42,926	109,691	-0,337	-0,285
43,940	40,561	-0,404	-0,256
44,955	116,218	-0,368	-0,318
45,969	141,671	-0,321	-0,300
46,984	170,951	-0,329	-0,333
47,999	-35,055	-0,265	-0,101
49,013	41,229	-0,386	-0,245
50,028	265,374	-0,360	-0,443
51,042	41,058	-0,358	-0,228
52,057	85,517	-0,381	-0,295
53,071	285,050	-0,326	-0,415
54,086	111,645	-0,380	-0,323
55,101	8,784	-0,226	-0,120
56,115	328,608	-0,246	-0,334
57,130	2,680	-0,381	-0,194
58,144	44,446	-0,392	-0,253
59,159	186,787	-0,386	-0,405
60,174	341,896	-0,273	-0,377
61,188	-45,974	-0,301	-0,104
62,203	210,175	-0,203	-0,225
63,217	93,724	-0,279	-0,223
64,232	56,623	-0,279	-0,191
65,247	185,451	-0,249	-0,260
66,261	22,931	-0,350	-0,202
67,276	-64,337	-0,386	-0,110
68,290	21,306	-0,355	-0,202
69,305	250,011	-0,245	-0,293
70,320	225,037	-0,289	-0,330
71,334	189,282	-0,245	-0,258
72,349	154,978	-0,400	-0,387
73,363	317,808	-0,238	-0,317
74,378	-49,158	-0,394	-0,132
75,393	34,677	-0,325	-0,200
76,407	75,302	-0,266	-0,197
77,422	51,537	-0,376	-0,251
78,436	89,870	-0,300	-0,236
79,451	74,395	-0,295	-0,218
80,466	364,081	-0,204	-0,289
81,480	125,383	-0,297	-0,263
82,495	-27,279	-0,367	-0,150
83,509	188,311	-0,178	-0,187
84,524	234,309	-0,238	-0,276
85,539	125,163	-0,205	-0,181
86,553	-7,257	-0,275	-0,130
87,568	-76,048	-0,393	-0,097
88,582	89,328	-0,198	-0,155
89,597	233,201	-0,225	-0,260
90,611	12,975	-0,401	-0,217
91,626	16,808	-0,188	-0,104
92,641	239,599	-0,267	-0,312
93,655	6,024	-0,341	-0,177
94,670	130,730	-0,241	-0,218
95,684	10,729	-0,285	-0,152
96,699	-92,816	-0,271	-0,053
97,714	-33,280	-0,360	-0,139
98,728	-64,901	-0,360	-0,101
99,743	47,988	-0,247	-0,162
100,757	-21,976	-0,337	-0,143
101,772	82,877	-0,355	-0,271
102,787	151,973	-0,288	-0,276
103,801	13,283	-0,317	-0,172
104,816	195,816	-0,247	-0,264
105,830	82,268	-0,212	-0,162
106,845	232,209	-0,122	-0,141
107,860	-28,127	-0,298	-0,120
108,874	-34,116	-0,413	-0,158
109,889	-49,411	-0,279	-0,093
110,903	70,595	-0,286	-0,208
111,918	67,445	-0,324	-0,232
112,933	53,161	-0,209	-0,140
113,947	187,412	-0,162	-0,170
114,962	36,310	-0,283	-0,175
115,976	161,334	-0,183	-0,180
116,991	129,528	-0,260	-0,233
118,006	87,022	-0,250	-0,194
119,020	77,868	-0,292	-0,218
120,035	235,691	-0,256	-0,297
121,049	-8,722	-0,123	-0,058
122,064	267,045	-0,159	-0,196
123,079	14,636	-0,288	-0,157
124,093	150,622	-0,206	-0,196
125,108	-19,131	-0,330	-0,143
126,122	293,652	-0,095	-0,122
127,137	107,608	-0,256	-0,213
128,151	-85,859	-0,308	-0,066
129,166	-37,028	-0,224	-0,084
130,181	-28,872	-0,244	-0,098
131,195	-83,226	-0,320	-0,071
132,210	-6,275	-0,290	-0,138
133,224	159,320	-0,232	-0,226
134,239	800,000	-0,086	-0,216
135,254	491,225	-0,116	-0,187
136,268	-147,733	-0,222	-0,013
137,283	19,134	-0,269	-0,151
138,297	129,991	-0,207	-0,185
139,312	65,105	-0,326	-0,230
140,327	402,018	-0,208	-0,307
141,341	-24,018	-0,320	-0,133
142,356	17,889	-0,353	-0,196
143,370	-85,333	-0,220	-0,048
144,385	800,000	-0,104	-0,221
145,400	-10,038	-0,329	-0,152
146,414	109,760	-0,193	-0,161
147,429	52,718	-0,281	-0,187
148,443	0,948	-0,377	-0,188
149,458	395,784	-0,141	-0,206
150,473	74,308	-0,168	-0,123
151,487	61,957	-0,261	-0,181
152,502	204,501	-0,193	-0,209
153,516	-2,018	-0,179	-0,087
154,531	353,655	-0,216	-0,301
155,546	36,948	-0,246	-0,151
156,560	-15,865	-0,259	-0,115
157,575	-6,497	-0,329	-0,156
158,589	-46,188	-0,259	-0,088
159,604	-13,718	-0,251	-0,113
160,619	325,758	-0,206	-0,276
161,633	265,218	-0,215	-0,262
162,648	120,709	-0,312	-0,271
163,662	-103,543	-0,312	-0,051
164,677	324,742	-0,145	-0,193
165,692	83,650	-0,171	-0,130
166,706	-131,365	-0,296	-0,027
167,721	32,793	-0,319	-0,192
168,735	102,367	-0,310	-0,253
169,750	-45,344	-0,239	-0,082
170,764	-12,966	-0,201	-0,091
171,779	552,953	-0,132	-0,222
172,794	709,202	-0,169	-0,312
173,808	151,640	-0,161	-0,153
174,823	54,576	-0,286	-0,192
175,837	96,423	-0,259	-0,206
176,852	418,796	-0,211	-0,315
177,867	269,332	-0,122	-0,150
178,881	-67,684	-0,235	-0,064
179,896	-3,902	-0,186	-0,090
180,910	217,958	-0,234	-0,261
181,925	395,463	-0,162	-0,237
182,940	-51,639	-0,344	-0,111
183,954	39,059	-0,179	-0,111
184,969	126,797	-0,188	-0,166
185,983	-49,412	-0,399	-0,132
186,998	-77,776	-0,192	-0,046
188,013	73,434	-0,272	-0,198
189,027	-1,185	-0,372	-0,183
190,042	313,413	-0,179	-0,235
191,056	86,638	-0,252	-0,194
192,071	-116,953	-0,205	-0,026
193,086	83,624	-0,192	-0,146
194,100	800,000	-0,140	-0,272
195,115	75,104	-0,140	-0,103
196,129	66,771	-0,241	-0,171
197,144	408,362	-0,141	-0,209
198,159	323,637	-0,165	-0,220
199,173	271,945	-0,191	-0,234
200,188	-114,629	-0,189	-0,025
201,202	800,000	-0,085	-0,200
202,217	551,896	-0,160	-0,268
203,232	53,955	-0,261	-0,174
204,246	447,975	-0,191	-0,294
205,261	284,419	-0,173	-0,217
206,275	74,388	-0,195	-0,143
207,290	41,602	-0,149	-0,093
208,304	800,000	-0,070	-0,135
209,319	11,976	-0,145	-0,078
210,334	110,219	-0,147	-0,123
211,348	800,000	-0,116	-0,354
212,363	165,310	-0,206	-0,202
213,377	114,979	-0,199	-0,169
214,392	130,830	-0,207	-0,185
215,407	800,000	-0,051	-0,150
216,421	-49,404	-0,275	-0,090
217,436	52,357	-0,210	-0,139
218,450	118,248	-0,179	-0,153
219,465	800,000	-0,084	-0,206
220,480	20,774	-0,250	-0,140
221,494	-31,441	-0,144	-0,056
222,509	-55,178	-0,200	-0,062
223,523	660,099	-0,154	-0,276
224,538	158,803	-0,163	-0,157
225,553	-10,693	-0,218	-0,100
226,567	-106,916	-0,274	-0,042
227,582	341,721	-0,190	-0,259
228,596	-8,743	-0,185	-0,086
229,611	-53,787	-0,169	-0,053
230,626	-67,707	-0,220	-0,059
231,640	-13,309	-0,225	-0,101
232,655	16,369	-0,202	-0,110
233,669	800,000	-0,101	-0,213
234,684	-139,328	-0,188	-0,014
235,699	800,000	-0,079	-0,182
236,713	501,597	-0,162	-0,261
237,728	74,807	-0,210	-0,153
238,742	144,157	-0,254	-0,235
239,757	-200,000	-0,015	-0,183
240,772	235,336	-0,135	-0,154
241,786	91,913	-0,192	-0,150
242,801	133,814	-0,217	-0,195
243,815	800,000	-0,099	-0,194
244,830	-54,819	-0,151	-0,047
245,844	154,289	-0,185	-0,176
246,859	-4,664	-0,226	-0,108
247,874	-187,876	-0,236	0,002
248,888	-76,393	-0,233	-0,056
249,903	800,000	-0,039	-0,076
250,917	233,877	-0,105	-0,120
251,932	-9,007	-0,190	-0,088
252,947	28,839	-0,374	-0,219
253,961	-31,233	-0,196	-0,076
254,976	194,787	-0,176	-0,185
255,990	-16,969	-0,233	-0,101
257,005	221,890	-0,135	-0,151
258,020	-88,080	-0,210	-0,043
259,034	-8,837	-0,179	-0,083
260,049	300,245	-0,127	-0,162
261,063	252,848	-0,084	-0,099
262,078	-51,761	-0,210	-0,067
263,093	226,576	-0,147	-0,166
264,107	22,084	-0,154	-0,087
265,122	158,277	-0,177	-0,170
266,136	-200,000	-0,203	0,000
267,151	94,752	-0,134	-0,105
268,166	402,686	-0,094	-0,137
269,180	-13,077	-0,212	-0,095
270,195	-121,517	-0,162	0,018
271,209	8,980	-0,324	-0,169
272,224	-200,000	0,023	-0,093
273,239	-42,133	-0,077	-0,027
274,253	-155,085	-0,233	0,010
275,268	-200,000	-0,056	-0,203
276,282	354,519	-0,138	-0,190
277,297	237,742	-0,173	-0,199
278,312	121,299	-0,127	-0,110
279,326	-36,305	-0,089	-0,033
280,341	17,951	-0,131	-0,072
281,355	131,698	-0,168	-0,149
282,370	64,514	-0,202	-0,141
283,384	175,794	-0,154	-0,155
284,399	654,008	-0,134	-0,238
285,414	72,761	-0,221	-0,159
286,428	-200,000	-0,013	-0,097
287,443	489,921	-0,057	-0,090
288,457	474,861	-0,082	-0,129
289,472	98,353	-0,069	-0,055
290,487	-133,060	-0,108	0,009
291,501	-95,016	-0,239	-0,044
292,516	36,536	-0,217	-0,132
293,530	174,492	-0,184	-0,183
294,545	-100,021	-0,139	-0,024
295,560	-182,458	-0,183	0,002
296,574	-48,711	-0,154	-0,051
297,589	312,018	-0,213	-0,277
298,603	255,780	-0,105	-0,124
299,618	333,528	-0,100	-0,133
300,633	-52,932	-0,109	-0,034
301,647	59,107	-0,226	-0,153
302,662	-200,000	-0,019	-0,076
303,676	-128,813	-0,247	-0,024
304,691	-148,014	-0,169	0,010
305,706	378,310	-0,107	-0,151
306,720	291,652	-0,127	-0,160
307,735	57,637	-0,169	-0,114
308,749	-82,595	-0,205	-0,045
309,764	58,051	-0,102	-0,069
310,779	1,744	-0,195	-0,097
311,793	544,940	-0,131	-0,217
312,808	96,455	-0,203	-0,160
313,822	-52,045	-0,152	-0,048
314,837	800,000	-0,116	-0,288
315,852	-110,753	0,066	0,009
316,866	26,384	0,017	-0,010
317,881	35,080	-0,167	0,100
318,895	-46,673	-0,157	-0,053
319,910	-104,021	-0,212	-0,034
320,925	-145,023	-0,167	-0,010
321,939	52,356	-0,240	-0,157
322,954	520,916	-0,084	-0,137
323,968	-110,761	-0,118	-0,017
324,983	87,199	-0,099	-0,075
325,997	-13,432	-0,105	-0,047
327,012	273,649	-0,125	-0,152
328,027	213,425	-0,213	-0,232
329,041	415,313	-0,084	-0,123
330,056	800,000	-0,039	-0,085
331,070	800,000	-0,052	-0,111
332,085	-200,000	-0,016	-0,053
333,100	-200,000	-0,030	-0,137
334,114	-157,436	-0,082	-0,003
335,129	156,185	-0,175	-0,166
336,143	353,294	-0,079	-0,108
337,158	122,265	-0,063	-0,054
338,173	-43,594	-0,112	0,039
339,187	-200,000	0,004	-0,079
340,202	396,891	-0,125	-0,181
341,216	-67,135	-0,220	-0,059
342,231	42,697	-0,170	-0,106
343,246	800,000	-0,057	-0,169
344,260	109,824	-0,138	-0,114
345,275	-36,138	-0,216	-0,080
346,289	-81,202	-0,172	0,039
347,304	-4,189	-0,231	-0,110
348,319	47,260	-0,254	-0,162
349,333	-90,587	-0,163	-0,032
350,348	55,467	-0,123	-0,081
351,362	-16,427	-0,086	-0,037
352,377	-29,553	-0,020	0,008
353,392	-144,376	-0,160	0,010
354,406	-200,000	-0,008	-0,089
355,421	209,200	1311,554	1411,935
356,435	161,006	1471,877	1412,437
