DTS Sentinel unit serial number:	SN410029Multiplexer serial number:	ORYXHardware model number:	OX2-SRSoftware version number:	ORYX F/W v4,00 Oryx Data Collector v3.7.2.0data status	okinstallation	B3 Nyhavnadifferential loss correction	single-endedforward channel	channel 1reverse channel	N/Adate	2023/12/01time	08:22:30forward acquisition time	300,00reverse acquisition time	0,00gamma	499,1914k internal	0,3213k external	0,3213temperature offset calibration	1,0000default loss term (dB/km)	0,3820temperature slope calibration	1,0000multiplexer offset coefficient	1,0000multiplexer slope coefficient	1,0000fibre end	0,00T internal ref (°C)	8,00T ext. ref 1 (°C)	-6,47T ext. ref 2 (°C)	-6,62length (m)	temperature (°C)	Stokes	anti-Stokes-744,400	800,000	-0,069	-0,186
-743,385	-200,000	-0,036	0,120
-742,371	-200,000	0,046	-0,168
-741,356	800,000	0,104	0,304
-740,342	800,000	-0,066	-0,147
-739,327	507,065	-0,144	0,243
-738,312	414,360	-0,170	-0,263
-737,298	800,000	-0,088	0,265
-736,283	309,285	-0,134	-0,182
-735,269	-200,000	0,016	0,232
-734,254	62,459	-0,154	-0,111
-733,239	4,229	-0,175	0,092
-732,225	-200,000	-0,037	-0,197
-731,210	242,135	0,209	0,254
-730,196	-76,550	-0,120	-0,030
-729,181	-19,747	-0,145	0,064
-728,167	313,116	-0,020	0,027
-727,152	266,246	-0,052	0,066
-726,137	211,874	-0,066	-0,075
-725,123	89,721	-0,101	-0,081
-724,108	26,998	-0,227	-0,138
-723,094	-105,235	-0,120	0,020
-722,079	-200,000	-0,022	-0,098
-721,064	84,679	-0,017	-0,014
-720,050	402,994	0,026	-0,039
-719,035	-200,000	0,008	0,148
-718,021	-200,000	0,023	-0,088
-717,006	-19,604	-0,033	-0,015
-715,991	800,000	-0,060	-0,143
-714,977	554,762	-0,053	-0,092
-713,962	0,462	-0,112	0,057
-712,948	473,925	-0,017	0,028
-711,933	-14,596	-0,062	0,029
-710,918	-200,000	-0,007	-0,059
-709,904	-77,060	-0,085	0,021
-708,889	800,000	0,028	0,073
-707,875	-122,619	-0,047	-0,005
-706,860	-200,000	-0,017	-0,075
-705,845	636,668	-0,019	0,035
-704,831	261,490	0,128	0,161
-703,816	72,194	-0,073	0,055
-702,802	267,998	0,093	0,118
-701,787	-200,000	0,061	0,000
-700,772	-200,000	-0,041	0,160
-699,758	-54,912	-0,126	0,041
-698,743	417,429	0,045	0,069
-697,729	342,838	-0,004	-0,005
-696,714	209,158	0,071	0,080
-695,699	-200,000	-0,021	-0,085
-694,685	300,258	0,070	-0,094
-693,670	195,631	-0,087	-0,095
-692,656	-200,000	0,040	0,165
-691,641	-200,000	-0,046	0,172
-690,627	-110,393	0,084	0,012
-689,612	-200,000	0,021	0,110
-688,597	418,980	-0,039	0,060
-687,583	419,049	-0,025	0,038
-686,568	-200,000	0,005	0,096
-685,554	-200,000	-0,027	0,090
-684,539	-14,940	0,098	-0,045
-683,524	-139,937	-0,063	-0,005
-682,510	-200,000	0,008	0,104
-681,495	182,832	-0,071	-0,076
-680,481	-56,164	-0,135	-0,043
-679,466	-33,514	0,082	-0,033
-678,451	-200,000	0,011	-0,057
-677,437	800,000	-0,045	-0,124
-676,422	800,000	0,064	0,197
-675,408	-200,000	-0,001	0,043
-674,393	147,004	0,024	-0,024
-673,378	800,000	0,039	-0,095
-672,364	-200,000	0,005	-0,027
-671,349	22,751	0,032	-0,019
-670,335	-150,247	0,081	0,004
-669,320	-118,934	-0,017	-0,002
-668,305	799,846	-0,022	-0,044
-667,291	-62,923	0,078	-0,023
-666,276	314,242	-0,108	0,148
-665,262	101,316	0,058	-0,049
-664,247	140,966	-0,106	0,102
-663,232	800,000	0,039	-0,090
-662,218	-82,463	0,106	0,025
-661,203	-200,000	-0,010	-0,143
-660,189	-53,571	-0,034	-0,011
-659,174	-200,000	-0,002	0,009
-658,159	-85,113	-0,094	0,021
-657,145	-200,000	-0,000	-0,066
-656,130	-200,000	-0,000	0,037
-655,116	55,627	-0,052	0,036
-654,101	51,878	-0,076	0,052
-653,086	4,592	-0,140	-0,074
-652,072	800,000	0,018	-0,045
-651,057	11,169	-0,131	-0,072
-650,043	88,344	-0,096	-0,077
-649,028	-200,000	-0,013	-0,076
-648,014	475,892	0,053	-0,086
-646,999	146,592	0,113	0,110
-645,984	800,000	0,023	0,064
-644,970	-31,950	-0,072	-0,029
-643,955	-38,094	-0,137	-0,052
-642,941	-10,296	-0,138	-0,066
-641,926	-200,000	0,020	-0,204
-640,911	293,174	-0,042	-0,056
-639,897	800,000	-0,012	-0,031
-638,882	346,252	-0,047	0,067
-637,868	-200,000	-0,010	0,040
-636,853	426,954	-0,072	-0,112
-635,838	-131,551	-0,145	-0,014
-634,824	-55,586	0,105	0,034
-633,809	800,000	0,016	0,036
-632,795	-200,000	0,013	0,126
-631,780	41,899	0,138	0,090
-630,765	-43,689	-0,018	0,007
-629,751	31,067	-0,055	-0,034
-628,736	800,000	-0,043	-0,091
-627,722	426,917	0,017	-0,026
-626,707	-70,568	0,137	-0,037
-625,692	-200,000	0,018	0,069
-624,678	68,418	0,037	0,027
-623,663	-200,000	-0,002	-0,154
-622,649	-79,342	0,042	-0,010
-621,634	340,624	0,020	-0,029
-620,619	-60,455	-0,055	-0,017
-619,605	-81,236	0,112	0,026
-618,590	-200,000	0,008	0,051
-617,576	-200,000	-0,017	0,089
-616,561	-200,000	0,000	0,058
-615,546	-26,224	-0,102	-0,043
-614,532	-200,000	0,001	0,031
-613,517	625,308	-0,011	0,020
-612,503	467,210	-0,097	-0,157
-611,488	-34,257	0,063	-0,025
-610,474	800,000	0,033	-0,094
-609,459	-200,000	0,001	0,163
-608,444	-78,467	-0,083	0,020
-607,430	380,857	-0,074	-0,110
-606,415	53,524	-0,124	-0,085
-605,401	-200,000	-0,006	0,063
-604,386	180,452	0,067	-0,071
-603,371	-112,010	0,048	0,007
-602,357	-9,822	-0,115	0,055
-601,342	-200,000	-0,021	0,090
-600,328	552,535	0,050	-0,088
-599,313	76,366	-0,085	-0,065
-598,298	573,410	0,023	-0,040
-597,284	26,269	0,117	-0,070
-596,269	66,848	0,197	0,144
-595,255	279,513	-0,053	0,069
-594,240	497,864	0,054	0,090
-593,225	407,865	-0,085	-0,130
-592,211	-90,332	-0,065	0,014
-591,196	232,212	0,086	-0,102
-590,182	800,000	-0,067	0,136
-589,167	-42,627	0,047	0,017
-588,152	-63,722	-0,107	0,031
-587,138	479,939	-0,030	-0,049
-586,123	281,538	-0,050	0,065
-585,109	-158,276	-0,134	0,006
-584,094	238,573	-0,072	0,086
-583,079	-78,520	0,139	-0,034
-582,065	143,440	0,060	-0,058
-581,050	296,272	-0,055	0,073
-580,036	-82,920	0,088	-0,020
-579,021	79,150	-0,222	-0,171
-578,006	75,896	-0,085	0,065
-576,992	800,000	0,011	-0,027
-575,977	800,000	0,042	0,102
-574,963	429,647	0,059	0,093
-573,948	54,466	-0,092	-0,064
-572,934	-200,000	-0,018	0,074
-571,919	-19,012	-0,158	0,071
-570,904	150,256	0,033	0,032
-569,890	797,694	-0,047	-0,094
-568,875	385,982	-0,048	0,071
-567,861	-200,000	0,023	0,119
-566,846	-83,580	0,105	0,024
-565,831	-52,506	0,063	-0,021
-564,817	-90,035	-0,078	-0,016
-563,802	173,239	-0,109	-0,114
-562,788	-200,000	0,010	-0,092
-561,773	252,407	-0,038	0,047
-560,758	800,000	-0,038	-0,090
-559,744	117,660	-0,081	0,071
-558,729	-72,359	0,069	0,018
-557,715	-95,405	-0,122	0,023
-556,700	-43,503	0,089	-0,032
-555,685	-114,180	0,045	0,006
-554,671	38,704	0,070	0,045
-553,656	-200,000	-0,019	0,086
-552,642	51,457	0,040	-0,027
-551,627	358,320	0,080	-0,115
-550,612	-48,167	0,049	-0,017
-549,598	-200,000	-0,008	0,033
-548,583	80,730	-0,156	-0,121
-547,569	-149,902	-0,120	0,007
-546,554	225,632	-0,078	0,091
-545,539	-82,365	0,085	-0,020
-544,525	157,335	-0,031	-0,031
-543,510	-130,200	-0,038	0,004
-542,496	-81,301	-0,090	-0,021
-541,481	134,522	-0,035	-0,033
-540,466	257,401	-0,029	-0,036
-539,452	800,000	0,049	0,118
-538,437	-4,527	-0,039	0,019
-537,423	-124,808	-0,104	0,011
-536,408	800,000	0,017	-0,051
-535,393	206,050	-0,086	0,097
-534,379	800,000	-0,086	-0,178
-533,364	-200,000	-0,012	-0,089
-532,350	235,245	0,115	0,136
-531,335	-200,000	0,018	0,085
-530,321	-20,729	0,029	-0,013
-529,306	-200,000	0,009	0,066
-528,291	-78,949	0,107	-0,026
-527,277	11,209	-0,120	-0,066
-526,262	-122,233	0,076	0,009
-525,248	21,831	0,087	0,051
-524,233	394,904	0,096	-0,144
-523,218	-200,000	-0,008	0,144
-522,204	-200,000	-0,005	-0,018
-521,189	800,000	0,044	-0,097
-520,175	-56,982	0,052	-0,017
-519,160	39,923	0,029	0,019
-518,145	650,501	-0,035	-0,064
-517,131	-41,103	0,016	0,006
-516,116	-49,621	0,124	0,042
-515,102	-199,295	-0,158	0,001
-514,087	-29,862	-0,057	-0,023
-513,072	-200,000	0,029	-0,099
-512,058	40,674	-0,022	0,014
-511,043	613,979	0,040	0,073
-510,029	242,925	0,097	0,117
-509,014	800,000	-0,020	0,049
-507,999	-107,570	-0,105	-0,016
-506,985	446,519	-0,057	-0,090
-505,970	-36,200	-0,069	-0,027
-504,956	319,661	0,052	0,071
-503,941	110,460	-0,053	0,045
-502,926	39,339	0,110	-0,071
-501,912	504,784	-0,107	0,178
-500,897	800,000	-0,022	0,047
-499,883	39,339	0,059	-0,038
-498,868	800,000	0,017	-0,049
-497,853	-200,000	0,008	-0,092
-496,839	-171,003	-0,129	-0,003
-495,824	400,848	-0,115	0,174
-494,810	-200,000	-0,016	-0,058
-493,795	800,000	0,025	0,051
-492,781	800,000	0,017	0,051
-491,766	-137,582	-0,049	0,004
-490,751	223,415	-0,018	0,021
-489,737	168,561	-0,106	-0,108
-488,722	528,735	-0,036	0,061
-487,708	800,000	0,012	0,026
-486,693	34,366	0,061	0,038
-485,678	-90,779	0,064	0,013
-484,664	-29,365	-0,116	-0,047
-483,649	479,121	-0,066	0,107
-482,635	148,491	-0,120	-0,116
-481,620	654,212	0,024	-0,044
-480,605	-75,570	-0,135	0,034
-479,591	422,115	-0,072	0,111
-478,576	-112,880	0,093	0,013
-477,562	-200,000	-0,006	-0,061
-476,547	-141,799	-0,146	-0,010
-475,532	-89,127	-0,070	-0,015
-474,518	66,488	0,124	-0,090
-473,503	-200,000	-0,002	0,061
-472,489	-200,000	0,004	0,195
-471,474	280,828	0,047	-0,061
-470,459	-57,832	0,095	-0,030
-469,445	-2,338	-0,127	-0,063
-468,430	232,493	-0,043	0,051
-467,416	260,711	0,002	-0,003
-466,401	301,344	-0,108	0,143
-465,386	780,682	0,012	-0,023
-464,372	60,881	-0,117	0,083
-463,357	393,018	-0,129	0,193
-462,343	-36,088	-0,101	0,039
-461,328	-68,091	-0,114	0,032
-460,313	231,081	0,052	-0,061
-459,299	315,362	0,054	-0,074
-458,284	-95,220	0,114	0,022
-457,270	-41,235	0,071	-0,026
-456,255	-78,442	-0,124	0,030
-455,241	619,974	0,053	0,096
-454,226	800,000	0,030	0,084
-453,211	800,000	0,033	0,081
-452,197	294,718	-0,066	-0,087
-451,182	62,687	0,047	0,034
-450,168	-151,954	0,097	0,005
-449,153	-200,000	-0,001	0,006
-448,138	245,018	-0,029	-0,035
-447,124	-200,000	-0,007	-0,033
-446,109	-140,673	0,165	-0,012
-445,095	-200,000	-0,018	0,060
-444,080	-75,935	-0,099	-0,025
-443,065	305,812	0,035	0,046
-442,051	-84,060	0,075	0,017
-441,036	742,923	0,111	-0,215
-440,022	-16,085	0,094	-0,043
-439,007	-20,788	0,117	-0,051
-437,992	-56,157	0,191	-0,060
-436,978	800,000	0,056	0,140
-435,963	-144,154	-0,032	0,002
-434,949	-19,781	-0,036	-0,016
-433,934	800,000	0,026	0,057
-432,919	-200,000	-0,018	-0,082
-431,905	-32,880	0,160	0,063
-430,890	4,591	0,062	0,033
-429,876	-200,000	0,032	0,232
-428,861	-64,811	0,040	0,011
-427,846	20,907	-0,031	-0,018
-426,832	-200,000	-0,014	0,065
-425,817	-135,152	0,137	-0,012
-424,803	-130,477	-0,150	-0,014
-423,788	-90,520	0,098	0,020
-422,773	-86,299	0,099	0,022
-421,759	-97,648	-0,088	0,016
-420,744	-86,049	0,069	0,015
-419,730	800,000	-0,051	-0,139
-418,715	-101,610	-0,095	-0,016
-417,701	-131,601	0,176	-0,016
-416,686	-23,758	-0,095	0,041
-415,671	-13,346	0,096	0,044
-414,657	-200,000	-0,008	0,099
-413,642	249,439	0,018	0,022
-412,628	113,935	0,034	0,029
-411,613	-75,525	0,105	-0,027
-410,598	-82,633	0,061	-0,014
-409,584	-200,000	0,005	0,026
-408,569	-49,921	0,143	-0,048
-407,555	457,597	-0,048	0,076
-406,540	107,325	0,064	-0,054
-405,525	-139,127	0,050	0,004
-404,511	-94,143	0,041	0,008
-403,496	-20,746	0,086	-0,037
-402,482	347,189	-0,066	0,093
-401,467	536,812	0,046	0,078
-400,452	412,647	-0,051	0,078
-399,438	800,000	-0,066	0,162
-398,423	-200,000	0,007	0,105
-397,409	800,000	0,041	-0,089
-396,394	135,229	-0,100	-0,093
-395,379	800,000	0,041	-0,093
-394,365	109,602	0,008	0,007
-393,350	50,697	-0,079	-0,053
-392,336	-147,572	-0,109	-0,006
-391,321	150,834	0,073	-0,071
-390,306	-200,000	0,015	0,087
-389,292	-200,000	-0,040	-0,190
-388,277	-84,468	0,021	0,005
-387,263	352,133	0,073	0,104
-386,248	-86,550	0,027	0,006
-385,233	-200,000	0,013	-0,055
-384,219	800,000	0,015	0,045
-383,204	-161,830	0,057	-0,002
-382,190	-49,771	0,165	0,056
-381,175	-200,000	-0,006	0,088
-380,160	139,408	0,036	0,034
-379,146	-103,649	-0,179	0,030
-378,131	546,475	0,037	0,064
-377,117	-138,551	0,085	-0,007
-376,102	-78,041	-0,094	0,023
-375,088	-117,346	0,109	-0,014
-374,073	-95,983	-0,095	0,018
-373,058	-123,402	0,114	0,013
-372,044	63,291	0,187	-0,133
-371,029	172,010	-0,156	0,160
-370,015	302,180	0,040	0,053
-369,000	-112,329	0,042	0,006
-367,985	74,485	-0,022	-0,017
-366,971	-54,029	-0,041	0,013
-365,956	-200,000	-0,029	0,115
-364,942	800,000	-0,058	0,175
-363,927	-117,277	0,159	-0,020
-362,912	-200,000	-0,001	-0,063
-361,898	163,922	-0,039	0,039
-360,883	548,597	0,018	-0,031
-359,869	-200,000	0,020	-0,228
-358,854	-136,273	0,114	-0,009
-357,839	303,434	0,036	0,047
-356,825	800,000	0,038	-0,089
-355,810	-6,230	-0,134	0,065
-354,796	-58,005	0,107	-0,033
-353,781	-29,773	-0,103	0,042
-352,766	800,000	0,023	-0,070
-351,752	-89,862	0,117	0,024
-350,737	-200,000	-0,029	-0,141
-349,723	-29,451	0,231	0,094
-348,708	-29,700	-0,054	0,022
-347,693	-39,974	0,031	-0,011
-346,679	-200,000	0,003	-0,087
-345,664	-133,759	0,065	-0,006
-344,650	61,733	0,142	0,101
-343,635	-33,347	0,045	0,018
-342,620	-95,718	-0,046	-0,009
-341,606	-11,830	-0,046	-0,021
-340,591	159,509	-0,088	0,088
-339,577	407,783	0,081	-0,123
-338,562	-137,511	-0,104	0,008
-337,548	-20,085	0,086	-0,038
-336,533	282,313	-0,064	-0,082
-335,518	-200,000	0,004	0,120
-334,504	-162,307	0,120	-0,004
-333,489	-18,243	-0,070	-0,031
-332,475	539,618	0,026	0,044
-331,460	-73,777	-0,122	0,031
-330,445	-200,000	-0,025	0,121
-329,431	-32,621	0,057	-0,023
-328,416	-200,000	-0,014	0,085
-327,402	800,000	0,021	0,057
-326,387	396,245	0,051	0,076
-325,372	298,955	-0,106	0,139
-324,358	-128,819	-0,092	0,009
-323,343	215,910	0,032	-0,036
-322,329	92,463	0,083	0,067
-321,314	800,000	0,042	0,094
-320,299	430,141	0,037	0,057
-319,285	800,000	-0,036	0,086
-318,270	2,785	-0,152	-0,078
-317,256	6,853	0,110	-0,058
-316,241	80,595	-0,054	-0,041
-315,226	800,000	-0,015	0,031
-314,212	81,533	0,061	-0,047
-313,197	-68,405	0,082	-0,023
-312,183	800,000	-0,040	0,099
-311,168	800,000	-0,037	-0,105
-310,153	79,878	-0,158	-0,121
-309,139	-200,000	-0,004	0,038
-308,124	91,421	0,068	-0,054
-307,110	-96,014	0,096	-0,018
-306,095	118,964	0,117	0,103
-305,080	-200,000	-0,010	0,099
-304,066	110,444	-0,033	-0,028
-303,051	-129,640	-0,164	-0,016
-302,037	317,772	-0,043	0,058
-301,022	800,000	-0,018	0,057
-300,008	-5,319	0,073	0,035
-298,993	89,525	0,081	-0,065
-297,978	-200,000	0,005	0,069
-296,964	246,208	0,037	0,044
-295,949	34,662	-0,074	0,046
-294,935	-58,761	0,083	0,026
-293,920	0,268	-0,067	0,034
-292,905	-63,166	-0,032	0,009
-291,891	-182,573	0,139	0,002
-290,876	-98,887	0,104	0,019
-289,862	-47,526	-0,062	-0,021
-288,847	195,476	-0,061	-0,066
-287,832	-200,000	-0,020	-0,071
-286,818	-200,000	0,035	-0,120
-285,803	-2,470	0,048	0,024
-284,789	-63,393	0,064	0,019
-283,774	-200,000	0,013	0,114
-282,759	-124,954	-0,214	0,023
-281,745	319,810	0,037	-0,051
-280,730	-200,000	0,007	0,033
-279,716	-43,425	-0,112	0,040
-278,701	-200,000	0,045	0,145
-277,686	-146,546	0,096	0,006
-276,672	-71,453	-0,052	0,014
-275,657	-200,000	-0,004	-0,032
-274,643	800,000	-0,028	-0,068
-273,628	-200,000	-0,032	-0,104
-272,613	-1,578	0,103	-0,051
-271,599	-200,000	0,009	-0,037
-270,584	-200,000	-0,006	-0,083
-269,570	364,746	0,073	-0,105
-268,555	-200,000	-0,024	-0,128
-267,540	-200,000	0,001	-0,067
-266,526	-139,508	-0,075	-0,006
-265,511	56,647	0,046	-0,032
-264,497	-87,117	0,187	-0,040
-263,482	148,486	0,069	0,067
-262,467	169,995	-0,035	-0,035
-261,453	-83,689	-0,085	-0,019
-260,438	-130,522	-0,017	-0,002
-259,424	-175,205	0,103	0,002
-258,409	68,007	0,027	0,019
-257,395	-31,499	0,155	-0,062
-256,380	22,774	-0,130	0,076
-255,365	172,231	0,098	-0,100
-254,351	-40,015	0,080	-0,030
-253,336	-200,000	-0,014	-0,047
-252,322	-145,508	-0,013	-0,001
-251,307	-200,000	-0,000	0,038
-250,292	402,093	0,090	0,134
-249,278	45,048	-0,014	0,009
-248,263	207,875	-0,126	0,140
-247,249	-200,000	-0,023	0,139
-246,234	-31,655	-0,136	-0,054
-245,219	-200,000	0,006	-0,025
-244,205	191,504	-0,119	0,128
-243,190	-96,355	0,100	-0,019
-242,176	-53,855	0,180	0,058
-241,161	212,350	-0,041	0,046
-240,146	-200,000	0,031	-0,116
-239,132	800,000	-0,046	-0,139
-238,117	-200,000	-0,011	-0,112
-237,103	138,000	-0,092	-0,085
-236,088	-200,000	0,020	-0,066
-235,073	-26,165	-0,074	-0,031
-234,059	100,525	0,046	-0,038
-233,044	800,000	-0,085	0,205
-232,030	-70,989	-0,032	-0,008
-231,015	-87,917	-0,054	-0,011
-230,000	354,542	-0,083	-0,118
-228,986	-200,000	-0,021	-0,115
-227,971	-200,000	0,019	-0,097
-226,957	-67,614	-0,056	-0,016
-225,942	780,567	0,047	0,092
-224,927	-92,387	0,083	-0,016
-223,913	800,000	-0,066	-0,148
-222,898	-0,553	-0,179	-0,090
-221,884	800,000	-0,022	0,051
-220,869	68,792	0,071	0,052
-219,855	-200,000	-0,003	-0,038
-218,840	-200,000	-0,030	-0,100
-217,825	340,238	-0,044	0,061
-216,811	-44,073	-0,041	-0,015
-215,796	-74,918	-0,131	0,033
-214,782	192,728	0,087	-0,094
-213,767	-6,766	-0,102	0,049
-212,752	-200,000	-0,015	-0,132
-211,738	-39,135	0,074	-0,027
-210,723	56,141	0,105	0,072
-209,709	90,688	-0,106	-0,084
-208,694	800,000	-0,094	-0,194
-207,679	800,000	0,012	-0,035
-206,665	-1,365	-0,098	-0,049
-205,650	141,397	-0,070	-0,066
-204,636	-161,318	-0,125	-0,004
-203,621	-78,611	0,056	0,013
-202,606	-38,208	0,071	-0,027
-201,592	-200,000	0,027	-0,208
-200,577	608,561	-0,031	-0,056
-199,563	55,275	0,056	-0,038
-198,548	-200,000	-0,009	0,049
-197,533	-78,981	-0,123	-0,029
-196,519	-14,921	0,012	0,006
-195,504	50,089	-0,085	-0,057
-194,490	800,000	0,063	-0,176
-193,475	239,408	-0,025	0,030
-192,460	-16,905	0,108	-0,048
-191,446	-3,073	0,035	-0,017
-190,431	-200,000	0,000	0,089
-189,417	798,991	0,071	0,140
-188,402	-89,799	0,150	-0,031
-187,387	800,000	-0,007	-0,013
-186,373	-178,071	0,062	0,001
-185,358	66,638	0,193	0,139
-184,344	-7,114	-0,047	0,023
-183,329	800,000	-0,022	0,050
-182,315	26,552	0,083	0,049
-181,300	219,888	-0,008	0,009
-180,285	676,930	-0,031	0,057
-179,271	447,107	-0,055	-0,086
-178,256	225,253	-0,038	-0,043
-177,242	-200,000	-0,008	0,025
-176,227	800,000	0,034	0,099
-175,212	800,000	-0,017	-0,046
-174,198	-200,000	-0,015	-0,114
-173,183	46,876	-0,106	-0,070
-172,169	84,690	-0,056	-0,043
-171,154	69,880	0,070	-0,051
-170,139	481,656	0,086	-0,139
-169,125	-84,315	-0,052	-0,012
-168,110	164,508	-0,029	-0,029
-167,096	159,976	-0,035	0,034
-166,081	136,665	0,051	0,047
-165,066	-200,000	0,005	0,027
-164,052	-92,313	-0,070	0,014
-163,037	40,683	0,032	0,021
-162,023	172,343	-0,076	-0,077
-161,008	-200,000	-0,002	-0,039
-159,993	378,549	0,038	0,055
-158,979	-89,419	-0,163	0,034
-157,964	-140,717	0,071	-0,005
-156,950	-200,000	-0,010	-0,089
-155,935	12,763	-0,085	0,047
-154,920	-60,339	0,061	-0,018
-153,906	51,402	0,126	-0,085
-152,891	26,461	0,160	0,095
-151,877	661,278	-0,063	0,116
-150,862	126,823	-0,095	0,085
-149,847	124,232	0,043	0,038
-148,833	-200,000	-0,018	-0,177
-147,818	-108,790	0,081	0,012
-146,804	800,000	0,062	0,169
-145,789	-200,000	-0,041	0,152
-144,775	-12,975	0,032	-0,015
-143,760	-134,966	-0,080	-0,007
-142,745	-26,674	-0,113	-0,047
-141,731	355,839	-0,027	-0,038
-140,716	-200,000	-0,006	-0,046
-139,702	-200,000	-0,036	0,178
-138,687	323,952	0,054	0,074
-137,672	800,000	-0,060	-0,128
-136,658	-200,000	-0,001	0,061
-135,643	-200,000	0,035	-0,177
-134,629	132,481	0,031	-0,028
-133,614	229,307	0,030	-0,035
-132,599	306,141	0,022	0,029
-131,585	-30,315	0,104	-0,041
-130,570	317,671	0,024	0,032
-129,556	-200,000	-0,040	0,129
-128,541	454,920	0,057	0,090
-127,526	-200,000	-0,019	0,125
-126,512	-200,000	0,005	0,041
-125,497	23,463	0,009	-0,005
-124,483	-139,933	0,080	-0,006
-123,468	-200,000	-0,005	0,024
-122,453	81,431	-0,142	-0,109
-121,439	338,861	0,028	-0,039
-120,424	25,794	0,078	-0,046
-119,410	10,132	-0,030	0,016
-118,395	-194,744	0,044	0,000
-117,380	-200,000	-0,005	0,055
-116,366	-200,000	0,050	0,248
-115,351	686,532	-0,034	-0,063
-114,337	623,267	-0,065	-0,116
-113,322	-138,118	-0,019	0,001
-112,307	103,433	-0,026	0,022
-111,293	-74,234	-0,063	-0,016
-110,278	-28,050	0,063	-0,026
-109,264	3,294	0,083	-0,043
-108,249	714,356	0,039	0,074
-107,234	-200,000	0,006	-0,047
-106,220	431,887	-0,102	0,156
-105,205	-200,000	0,006	0,074
-104,191	-200,000	0,026	0,117
-103,176	503,199	0,042	0,069
-102,162	-200,000	-0,031	0,000
-101,147	-200,000	0,024	-0,222
-100,132	-34,132	0,033	-0,013
-99,118	-200,000	0,003	-0,062
-98,103	800,000	0,059	-0,170
-97,089	41,615	0,010	-0,006
-96,074	-200,000	-0,005	0,065
-95,059	-200,000	0,006	-0,064
-94,045	450,132	-0,026	0,041
-93,030	103,273	-0,052	0,043
-92,016	44,327	0,059	-0,038
-91,001	-12,838	-0,043	-0,020
-89,986	38,077	-0,027	0,017
-88,972	-113,531	0,102	0,014
-87,957	-200,000	-0,011	0,149
-86,943	-200,000	0,032	-0,127
-85,928	-37,779	-0,090	-0,034
-84,913	800,000	-0,049	0,115
-83,899	800,000	-0,033	0,078
-82,884	800,000	-0,044	0,099
-81,870	800,000	0,106	0,265
-80,855	-89,758	-0,046	-0,009
-79,840	800,000	-0,057	-0,124
-78,826	3,823	-0,052	-0,027
-77,811	-200,000	0,001	0,114
-76,797	355,255	-0,049	0,068
-75,782	-24,555	0,128	0,053
-74,767	92,754	0,099	0,079
-73,753	-58,420	0,100	0,031
-72,738	-45,123	-0,042	-0,015
-71,724	-61,215	-0,047	-0,014
-70,709	110,538	-0,020	0,017
-69,694	40,592	0,060	0,038
-68,680	-83,478	-0,152	0,034
-67,665	-38,673	0,108	0,040
-66,651	0,871	-0,103	-0,052
-65,636	-14,479	-0,094	0,042
-64,622	-200,000	0,004	0,100
-63,607	154,659	-0,073	-0,071
-62,592	423,070	-0,064	0,097
-61,578	77,039	-0,083	0,062
-60,563	369,773	0,088	0,125
-59,549	-7,873	-0,177	0,084
-58,534	50,706	-2,187	-1,458
-57,519	523,511	-1,058	-1,760
-56,505	-200,000	-0,367	-4,567
-55,490	800,000	0,797	1,662
-54,476	800,000	5,289	11,503
-53,461	-200,000	22,629	347,397
-52,446	800,000	757,763	2292,883
-51,432	532,550	1643,768	2754,913
-50,417	67,842	1642,261	1183,012
-49,403	15,659	1519,729	840,277
-48,388	9,813	1445,825	771,341
-47,373	19,310	1438,351	812,561
-46,359	13,396	1426,886	778,152
-45,344	8,166	1422,890	751,211
-44,330	8,095	1420,961	749,829
-43,315	8,079	1419,331	748,863
-42,300	8,111	1417,240	747,880
-41,286	8,126	1416,322	747,439
-40,271	8,125	1414,913	746,662
-39,257	8,100	1413,743	745,897
-38,242	8,094	1412,845	745,362
-37,227	8,118	1411,611	744,797
-36,213	8,111	1410,243	744,013
-35,198	8,128	1408,935	743,370
-34,184	8,092	1408,137	742,753
-33,169	8,045	1406,786	741,793
-32,154	8,120	1405,942	741,665
-31,140	8,074	1404,634	740,731
-30,125	8,092	1403,345	740,110
-29,111	8,090	1402,272	739,503
-28,096	8,098	1400,992	738,835
-27,082	8,023	1399,884	737,871
-26,067	8,008	1398,948	737,280
-25,052	8,037	1397,823	736,791
-24,038	8,070	1396,670	736,309
-23,023	8,039	1395,889	735,723
-22,009	8,008	1394,933	735,048
-20,994	8,019	1393,798	734,473
-19,979	8,061	1392,806	734,113
-18,965	7,926	1392,034	733,052
-17,950	7,988	1390,960	732,744
-16,936	7,941	1390,377	732,193
-15,921	7,910	1389,205	731,403
-14,906	7,890	1388,431	730,873
-13,892	7,996	1386,963	730,560
-12,877	7,945	1386,556	730,080
-11,863	7,954	1385,887	729,742
-10,848	7,936	1384,758	729,035
-9,833	7,879	1383,866	728,274
-8,819	7,858	1382,939	727,660
-7,804	7,835	1382,216	727,145
-6,790	7,849	1380,992	726,537
-5,775	7,815	1380,143	725,904
-4,760	7,850	1379,178	725,531
-3,746	7,857	1378,169	725,003
-2,731	7,886	1377,416	724,709
-1,717	7,843	1376,528	724,017
-0,702	7,789	1374,914	722,894
0,313	11,754	1284,878	693,515
1,327	27,496	676,576	400,236
2,342	42,486	116,311	74,444
3,356	-0,350	16,607	8,291
4,371	-8,349	3,835	1,811
5,386	-2,148	1,424	0,702
6,400	800,000	0,221	0,625
7,415	-69,902	-0,166	-0,044
8,429	218,950	-0,164	-0,185
9,444	87,076	-0,382	-0,297
10,459	-19,624	-0,153	-0,067
11,473	162,439	-0,309	-0,305
12,488	-65,232	-0,345	-0,097
13,502	298,691	-0,164	-0,213
14,517	39,700	-0,379	-0,239
15,531	21,458	-0,335	-0,192
16,546	16,521	-0,331	-0,184
17,561	-44,142	-0,436	-0,153
18,575	90,850	-0,185	-0,146
19,590	147,056	-0,333	-0,315
20,604	227,683	-0,221	-0,254
21,619	47,278	-0,523	-0,342
22,634	174,592	-0,336	-0,342
23,648	23,775	-0,345	-0,200
24,663	109,097	-0,370	-0,311
25,677	-3,035	-0,391	-0,191
26,692	-71,967	-0,478	-0,124
27,707	97,458	-0,313	-0,253
28,721	136,348	-0,366	-0,336
29,736	72,144	-0,422	-0,309
30,750	132,562	-0,442	-0,400
31,765	395,455	-0,211	-0,310
32,780	45,583	-0,396	-0,257
33,794	-19,669	-0,365	-0,158
34,809	174,923	-0,253	-0,258
35,823	273,334	-0,236	-0,294
36,838	-30,964	-0,413	-0,163
37,853	77,121	-0,373	-0,278
38,867	434,841	-0,299	-0,459
39,882	-38,209	-0,373	-0,138
40,896	167,239	-0,301	-0,301
41,911	22,303	-0,369	-0,211
42,926	-13,068	-0,398	-0,181
43,940	16,459	-0,356	-0,197
44,955	91,191	-0,399	-0,314
45,969	41,671	-0,358	-0,228
46,984	77,124	-0,364	-0,271
47,999	74,665	-0,369	-0,272
49,013	115,396	-0,283	-0,242
50,028	-72,602	-0,424	-0,109
51,042	32,337	-0,378	-0,228
52,057	-9,907	-0,318	-0,148
53,071	140,814	-0,245	-0,227
54,086	137,630	-0,149	-0,137
55,101	-55,532	-0,339	-0,106
56,115	73,426	-0,188	-0,138
57,130	58,070	-0,361	-0,248
58,144	-3,136	-0,435	-0,212
59,159	231,558	-0,307	-0,353
60,174	7,899	-0,471	-0,247
61,188	232,336	-0,344	-0,397
62,203	4,702	-0,255	-0,131
63,217	167,052	-0,302	-0,301
64,232	-10,063	-0,317	-0,147
65,247	55,715	-0,383	-0,260
66,261	47,083	-0,323	-0,211
67,276	187,129	-0,262	-0,274
68,290	141,694	-0,214	-0,199
69,305	-82,967	-0,239	-0,054
70,320	-63,292	-0,305	-0,087
71,334	290,656	-0,117	-0,149
72,349	68,957	-0,205	-0,147
73,363	330,665	-0,222	-0,300
74,378	192,148	-0,256	-0,270
75,393	99,865	-0,221	-0,179
76,407	51,050	-0,316	-0,209
77,422	19,702	-0,315	-0,177
78,436	52,751	-0,164	-0,110
79,451	366,240	-0,234	-0,331
80,466	-36,353	-0,335	-0,126
81,480	3,778	-0,400	-0,204
82,495	88,357	-0,338	-0,262
83,509	187,258	-0,196	-0,204
84,524	219,555	-0,181	-0,204
85,539	-67,627	-0,250	-0,068
86,553	-103,048	-0,243	-0,040
87,568	16,157	-0,328	-0,180
88,582	176,982	-0,263	-0,268
89,597	135,179	-0,268	-0,244
90,611	-86,454	-0,238	-0,051
91,626	-33,551	-0,358	-0,138
92,641	207,596	-0,128	-0,140
93,655	48,701	-0,238	-0,156
94,670	18,081	-0,319	-0,178
95,684	180,451	-0,212	-0,218
96,699	-33,556	-0,277	-0,106
97,714	-49,186	-0,299	-0,099
98,728	95,607	-0,210	-0,168
99,743	75,879	-0,299	-0,220
100,757	-62,864	-0,327	-0,094
101,772	8,323	-0,278	-0,145
102,787	76,133	-0,287	-0,212
103,801	81,088	-0,308	-0,232
104,816	119,122	-0,159	-0,138
105,830	-75,626	-0,317	-0,078
106,845	-25,303	-0,227	-0,093
107,860	800,000	-0,085	-0,167
108,874	111,914	-0,219	-0,185
109,889	66,084	-0,217	-0,153
110,903	13,938	-0,318	-0,172
111,918	57,549	-0,250	-0,170
112,933	318,320	-0,134	-0,177
113,947	657,525	-0,096	-0,173
114,962	12,192	-0,216	-0,116
115,976	676,703	-0,149	-0,272
116,991	131,942	-0,208	-0,187
118,006	119,672	-0,302	-0,261
119,020	50,083	-0,161	-0,106
120,035	126,138	-0,190	-0,168
121,049	-82,913	-0,266	-0,059
122,064	88,054	-0,391	-0,302
123,079	-28,136	-0,168	-0,067
124,093	149,834	-0,211	-0,200
125,108	-36,088	-0,311	-0,117
126,122	244,833	-0,230	-0,270
127,137	245,417	-0,112	-0,132
128,151	377,893	-0,115	-0,164
129,166	93,367	-0,361	-0,285
130,181	-54,220	-0,318	-0,100
131,195	17,166	-0,191	-0,105
132,210	122,546	-0,193	-0,168
133,224	61,582	-0,253	-0,175
134,239	66,971	-0,226	-0,160
135,254	78,661	-0,257	-0,191
136,268	-13,822	-0,187	-0,084
137,283	-36,294	-0,287	-0,107
138,297	58,692	-0,250	-0,171
139,312	238,611	-0,324	-0,375
140,327	182,066	-0,157	-0,161
141,341	800,000	-0,149	-0,294
142,356	-92,903	-0,281	-0,054
143,370	-38,102	-0,257	-0,094
144,385	-20,572	-0,300	-0,128
145,400	92,318	-0,275	-0,215
146,414	248,314	-0,331	-0,390
147,429	800,000	-0,084	-0,177
148,443	172,514	-0,182	-0,182
149,458	383,741	-0,124	-0,178
150,473	219,343	-0,158	-0,176
151,487	178,638	-0,195	-0,199
152,502	83,965	-0,321	-0,244
153,516	66,647	-0,254	-0,179
154,531	28,908	-0,292	-0,172
155,546	-200,000	-0,038	-0,222
156,560	140,270	-0,071	-0,066
157,575	183,599	-0,172	-0,177
158,589	369,157	-0,159	-0,224
159,604	75,405	-0,352	-0,258
160,619	-70,437	-0,336	-0,088
161,633	-14,961	-0,151	-0,067
162,648	-117,632	-0,217	-0,027
163,662	434,336	-0,149	-0,225
164,677	343,622	-0,185	-0,252
165,692	361,832	-0,109	-0,153
166,706	-75,433	-0,299	-0,073
167,721	-35,255	-0,303	-0,114
168,735	169,737	-0,185	-0,184
169,750	800,000	-0,125	-0,285
170,764	146,615	-0,171	-0,159
171,779	48,676	-0,177	-0,115
172,794	-86,360	-0,258	0,055
173,808	24,542	-0,170	-0,097
174,823	596,961	-0,153	-0,265
175,837	139,336	-0,250	-0,229
176,852	72,543	-0,184	-0,133
177,867	-33,245	-0,143	-0,055
178,881	105,789	-0,161	-0,132
179,896	0,476	-0,140	-0,069
180,910	-7,062	-0,231	-0,108
181,925	63,693	-0,205	-0,142
182,940	621,618	-0,171	-0,299
183,954	800,000	-0,102	-0,226
184,969	102,745	-0,200	-0,162
185,983	-69,490	-0,224	-0,059
186,998	148,517	-0,221	-0,207
188,013	-121,747	-0,252	-0,029
189,027	-58,812	-0,234	-0,070
190,042	21,180	-0,276	-0,155
191,056	167,041	-0,196	-0,193
192,071	800,000	-0,103	-0,251
193,086	2,978	-0,085	-0,043
194,100	-32,825	-0,171	-0,066
195,115	-96,779	-0,177	-0,032
196,129	65,853	-0,240	-0,168
197,144	71,250	-0,167	-0,120
198,159	-1,749	-0,280	-0,136
199,173	56,455	-0,147	-0,099
200,188	410,898	-0,122	-0,181
201,202	-18,399	-0,219	-0,094
202,217	152,841	-0,081	0,077
203,232	38,637	-0,164	-0,101
204,246	139,750	-0,137	-0,125
205,261	239,762	-0,140	-0,162
206,275	57,753	-0,151	-0,102
207,290	228,780	-0,136	-0,153
208,304	123,282	-0,149	-0,129
209,319	35,594	-0,227	-0,137
210,334	13,490	-0,090	-0,048
211,348	37,762	-0,257	-0,158
212,363	297,913	-0,077	-0,098
213,377	-109,288	-0,191	0,028
214,392	-21,610	-0,133	0,056
215,407	-38,817	-0,222	-0,081
216,421	118,667	-0,205	-0,175
217,436	1,470	-0,213	-0,106
218,450	155,166	-0,248	-0,236
219,465	344,546	-0,157	-0,214
220,480	321,072	-0,072	-0,094
221,494	-200,000	-0,029	-0,128
222,509	12,859	-0,115	-0,061
223,523	44,339	-0,258	-0,163
224,538	144,191	-0,179	-0,165
225,553	-173,377	-0,172	-0,004
226,567	142,197	-0,219	-0,201
227,582	381,842	-0,150	-0,213
228,596	800,000	-0,099	-0,260
229,611	-200,000	-0,044	-0,150
230,626	557,867	-0,130	-0,217
231,640	178,683	-0,189	-0,191
232,655	-38,158	-0,284	-0,103
233,669	-26,272	-0,276	-0,111
234,684	20,838	-0,173	-0,097
235,699	138,480	-0,279	-0,253
236,713	256,060	-0,175	-0,208
237,728	800,000	-0,085	-0,182
238,742	-91,880	-0,230	-0,045
239,757	256,227	-0,137	-0,163
240,772	45,374	-0,202	-0,129
241,786	61,358	-0,286	-0,196
242,801	-9,275	-0,277	-0,127
243,815	-18,822	-0,158	-0,068
244,830	291,975	-0,135	-0,169
245,844	19,678	-0,146	-0,081
246,859	99,355	-0,038	-0,030
247,874	29,241	-0,197	-0,115
248,888	-149,418	-0,160	-0,009
249,903	-29,703	-0,186	-0,073
250,917	-55,215	-0,252	-0,078
251,932	800,000	-0,027	-0,070
252,947	-200,000	-0,019	-0,127
253,961	423,049	-0,130	-0,194
254,976	-41,771	-0,272	-0,096
255,990	272,643	-0,154	-0,188
257,005	-111,332	-0,187	-0,026
258,020	-200,000	-0,014	-0,117
259,034	-67,608	-0,148	-0,040
260,049	93,053	-0,190	-0,148
261,063	-152,644	-0,272	-0,013
262,078	12,780	-0,178	-0,094
263,093	281,849	-0,179	-0,222
264,107	16,917	-0,218	-0,119
265,122	-5,500	-0,174	-0,082
266,136	48,251	-0,061	0,039
267,151	-126,982	-0,231	0,023
268,166	616,671	-0,179	-0,310
269,180	-34,978	-0,159	-0,060
270,195	51,867	-0,235	-0,154
271,209	-7,527	-0,130	-0,060
272,224	-38,467	-0,031	-0,011
273,239	7,566	-0,204	-0,105
274,253	84,590	-0,115	-0,086
275,268	-9,590	-0,075	-0,034
276,282	71,302	-0,203	-0,145
277,297	191,066	-0,152	-0,158
278,312	-55,064	-0,190	-0,058
279,326	241,824	-0,107	-0,123
280,341	800,000	-0,042	-0,096
281,355	800,000	-0,122	-0,260
282,370	199,891	-0,197	-0,208
283,384	509,534	-0,151	-0,243
284,399	52,087	-0,246	-0,161
285,414	-104,490	-0,072	-0,011
286,428	8,495	-0,019	-0,010
287,443	800,000	-0,039	-0,098
288,457	-29,083	-0,120	-0,047
289,472	-56,988	-0,207	-0,063
290,487	-9,056	-0,212	-0,097
291,501	171,660	-0,044	-0,043
292,516	35,868	-0,105	-0,063
293,530	11,079	-0,241	-0,126
294,545	250,106	-0,135	-0,158
295,560	-200,000	-0,048	-0,167
296,574	205,016	-0,049	-0,052
297,589	43,621	-0,203	-0,127
298,603	123,230	-0,318	-0,274
299,618	186,524	-0,157	-0,161
300,633	71,007	-0,098	-0,070
301,647	-21,987	-0,142	-0,059
302,662	9,885	-0,096	-0,050
303,676	-200,000	-0,007	-0,207
304,691	40,989	-0,166	-0,103
305,706	21,396	-0,109	-0,061
306,720	84,125	-0,186	-0,139
307,735	-142,820	-0,211	0,014
308,749	48,028	-0,097	-0,062
309,764	-154,411	-0,131	-0,006
310,779	64,620	-0,114	-0,079
311,793	80,999	-0,217	-0,161
312,808	332,261	-0,158	-0,210
313,822	456,056	-0,132	-0,201
314,837	80,597	-0,175	-0,130
315,852	217,561	-0,168	-0,184
316,866	-200,000	0,007	-0,126
317,881	86,727	-0,154	0,117
318,895	-130,661	-0,226	-0,021
319,910	-105,705	-0,271	-0,042
320,925	221,979	-0,129	-0,142
321,939	184,658	-0,209	-0,212
322,954	318,320	-0,089	-0,116
323,968	-200,000	-0,044	-0,207
324,983	621,366	-0,011	0,018
325,997	-149,218	-0,123	0,007
327,012	-126,728	-0,208	-0,021
328,027	101,001	-0,190	-0,151
329,041	185,331	-0,160	-0,163
330,056	-2,043	-0,154	-0,074
331,070	5,923	-0,124	0,062
332,085	39,571	-0,157	-0,096
333,100	-159,361	-0,188	0,007
334,114	318,330	-0,127	-0,165
335,129	-84,092	-0,277	-0,060
336,143	78,812	-0,154	-0,113
337,158	396,269	-0,115	-0,164
338,173	41,251	-0,126	-0,078
339,187	617,982	-0,097	-0,167
340,202	-30,578	-0,169	-0,065
341,216	-102,963	-0,227	-0,037
342,231	29,309	-0,145	-0,084
343,246	479,230	-0,145	-0,225
344,260	-200,000	-0,062	-0,189
345,275	-200,000	-0,032	-0,115
346,289	-180,152	-0,147	0,002
347,304	601,765	-0,052	-0,089
348,319	108,033	-0,184	-0,150
349,333	-116,789	-0,271	-0,034
350,348	-30,431	-0,125	-0,048
351,362	-73,049	-0,102	-0,025
352,377	-200,000	-0,047	-0,162
353,392	350,199	-0,062	-0,084
354,406	-26,861	-0,085	0,034
355,421	207,618	1308,673	1397,874
356,435	159,726	1468,588	1398,324
