DTS Sentinel unit serial number:	SN410029Multiplexer serial number:	ORYXHardware model number:	OX2-SRSoftware version number:	ORYX F/W v4,00 Oryx Data Collector v3.7.2.0data status	okinstallation	B3 Nyhavnadifferential loss correction	single-endedforward channel	channel 1reverse channel	N/Adate	2023/12/02time	05:42:30forward acquisition time	300,00reverse acquisition time	0,00gamma	499,1914k internal	0,3194k external	0,3194temperature offset calibration	1,0000default loss term (dB/km)	0,3820temperature slope calibration	1,0000multiplexer offset coefficient	1,0000multiplexer slope coefficient	1,0000fibre end	0,00T internal ref (°C)	16,17T ext. ref 1 (°C)	0,98T ext. ref 2 (°C)	0,98length (m)	temperature (°C)	Stokes	anti-Stokes-744,400	711,425	-0,143	-0,277
-743,385	-200,000	-0,063	0,264
-742,371	-70,330	-0,181	-0,050
-741,356	-200,000	-0,048	0,293
-740,342	-36,735	-0,086	-0,034
-739,327	701,173	0,211	0,407
-738,312	-11,796	-0,232	-0,110
-737,298	-200,000	-0,013	0,261
-736,283	-200,000	-0,035	-0,347
-735,269	-200,000	0,074	0,310
-734,254	279,550	-0,193	-0,252
-733,239	-108,307	-0,192	0,030
-732,225	427,343	-0,105	-0,166
-731,210	514,681	0,088	0,150
-730,196	-1,965	0,106	0,054
-729,181	-53,552	0,034	-0,011
-728,167	121,096	-0,023	0,020
-727,152	-29,410	-0,090	0,038
-726,137	275,137	-0,043	-0,055
-725,123	800,000	0,038	0,084
-724,108	800,000	-0,035	-0,097
-723,094	12,557	-0,128	-0,072
-722,079	800,000	0,014	-0,043
-721,064	-200,000	0,014	-0,077
-720,050	-200,000	-0,020	-0,078
-719,035	-102,480	-0,032	0,005
-718,021	564,888	-0,066	-0,117
-717,006	-62,460	-0,080	-0,024
-715,991	361,974	0,032	-0,047
-714,977	800,000	0,023	-0,049
-713,962	-200,000	-0,007	-0,058
-712,948	-200,000	-0,000	-0,028
-711,933	-200,000	0,031	0,159
-710,918	63,619	-0,114	-0,084
-709,904	-200,000	0,001	-0,045
-708,889	31,099	-0,127	-0,079
-707,875	13,299	-0,188	-0,106
-706,860	-74,870	-0,057	0,015
-705,845	573,702	0,054	-0,097
-704,831	-41,026	-0,042	0,016
-703,816	-200,000	0,014	0,158
-702,802	-10,470	0,178	-0,086
-701,787	-51,908	-0,269	-0,090
-700,772	-4,057	0,111	-0,056
-699,758	-80,665	0,072	0,017
-698,743	-96,064	0,172	-0,033
-697,729	206,357	-0,080	0,091
-696,714	-80,531	0,241	-0,058
-695,699	116,315	0,120	-0,107
-694,685	-26,502	-0,050	0,021
-693,670	123,598	-0,158	0,144
-692,656	362,497	-0,051	-0,075
-691,641	519,740	0,038	0,065
-690,627	90,562	0,098	-0,080
-689,612	-200,000	-0,014	0,161
-688,597	-121,356	0,184	0,022
-687,583	258,330	-0,097	-0,122
-686,568	-30,678	0,064	0,026
-685,554	-105,737	-0,104	-0,017
-684,539	79,757	-0,079	0,062
-683,524	63,578	-0,051	0,037
-682,510	-172,934	0,110	-0,002
-681,495	-94,955	-0,177	0,034
-680,481	800,000	-0,008	-0,016
-679,466	-152,444	-0,193	-0,010
-678,451	216,784	0,096	0,111
-677,437	-51,681	-0,056	0,019
-676,422	800,000	-0,077	-0,194
-675,408	-131,324	0,016	0,002
-674,393	77,487	-0,133	0,103
-673,378	-123,682	-0,115	-0,013
-672,364	-200,000	-0,017	-0,072
-671,349	-200,000	-0,021	-0,070
-670,335	321,171	0,076	0,105
-669,320	-78,865	-0,090	-0,022
-668,305	115,642	0,054	-0,048
-667,291	800,000	-0,023	0,048
-666,276	-200,000	0,015	-0,177
-665,262	-27,908	0,038	-0,016
-664,247	-140,363	0,017	0,001
-663,232	800,000	-0,066	0,146
-662,218	-200,000	-0,011	-0,054
-661,203	-200,000	0,034	0,113
-660,189	290,160	0,069	0,091
-659,174	181,702	-0,051	0,055
-658,159	252,766	-0,108	-0,134
-657,145	240,730	0,099	0,120
-656,130	-74,418	-0,182	-0,047
-655,116	-200,000	-0,022	-0,103
-654,101	800,000	0,014	0,028
-653,086	180,122	-0,069	0,074
-652,072	428,171	0,021	0,034
-651,057	800,000	-0,060	-0,147
-650,043	-200,000	-0,004	-0,089
-649,028	800,000	0,027	0,067
-648,014	-161,614	-0,123	-0,004
-646,999	800,000	0,011	0,030
-645,984	221,643	-0,033	0,038
-644,970	104,832	-0,058	0,050
-643,955	-17,852	0,078	0,035
-642,941	164,585	-0,045	-0,046
-641,926	161,100	0,020	0,021
-640,911	800,000	0,045	-0,099
-639,897	-200,000	-0,009	0,103
-638,882	-127,537	-0,090	0,009
-637,868	-15,195	0,017	-0,008
-636,853	800,000	-0,042	-0,087
-635,838	-85,118	-0,198	-0,045
-634,824	-62,078	-0,112	0,034
-633,809	-64,475	0,062	-0,018
-632,795	-200,000	0,019	0,113
-631,780	67,253	0,075	-0,056
-630,765	-150,337	0,139	-0,008
-629,751	-67,223	-0,132	0,038
-628,736	-200,000	0,014	-0,110
-627,722	-200,000	0,016	0,136
-626,707	800,000	-0,043	0,104
-625,692	173,341	0,132	0,138
-624,678	-200,000	-0,012	0,040
-623,663	-200,000	0,010	-0,084
-622,649	-6,328	-0,079	-0,039
-621,634	-14,206	-0,185	0,086
-620,619	-200,000	0,003	-0,074
-619,605	265,704	-0,066	-0,083
-618,590	-27,913	0,039	-0,017
-617,576	23,959	0,096	-0,057
-616,561	761,670	0,014	-0,028
-615,546	-200,000	0,021	-0,118
-614,532	-120,500	0,039	0,005
-613,517	-200,000	0,017	0,078
-612,503	150,880	0,084	0,083
-611,488	-63,660	0,056	-0,017
-610,474	800,000	-0,021	-0,046
-609,459	272,180	-0,031	-0,040
-608,444	800,000	0,003	0,006
-607,430	-137,369	0,070	0,006
-606,415	481,221	0,074	-0,123
-605,401	-55,666	0,036	-0,012
-604,386	800,000	-0,051	0,128
-603,371	205,105	0,056	0,063
-602,357	800,000	-0,037	0,077
-601,342	-22,001	0,048	-0,021
-600,328	-122,296	-0,105	-0,012
-599,313	-41,273	-0,064	-0,024
-598,298	-200,000	-0,041	0,144
-597,284	-200,000	0,013	-0,065
-596,269	-99,362	0,148	-0,027
-595,255	-200,000	-0,019	0,127
-594,240	82,204	-0,075	-0,059
-593,225	-55,871	-0,083	-0,027
-592,211	-86,314	0,057	-0,013
-591,196	280,000	-0,093	-0,121
-590,182	-200,000	0,026	0,088
-589,167	-121,621	0,168	0,020
-588,152	45,901	0,120	0,080
-587,138	39,598	-0,153	0,099
-586,123	-200,000	-0,002	-0,037
-585,109	82,077	-0,094	0,074
-584,094	-200,000	-0,001	-0,125
-583,079	53,479	0,074	-0,051
-582,065	800,000	-0,020	-0,041
-581,050	-70,178	0,039	0,011
-580,036	220,689	0,133	0,155
-579,021	59,583	-0,047	-0,034
-578,006	127,328	-0,053	0,049
-576,992	43,488	0,042	0,028
-575,977	-141,212	-0,054	0,004
-574,963	302,043	0,076	0,102
-573,948	-145,935	0,106	-0,007
-572,934	-55,237	-0,129	0,042
-571,919	-123,947	0,105	-0,012
-570,904	-200,000	0,015	-0,131
-569,890	152,635	-0,039	-0,038
-568,875	71,756	0,019	0,014
-567,861	800,000	-0,043	0,114
-566,846	-34,184	0,187	-0,074
-565,831	-103,691	0,066	-0,011
-564,817	-161,065	-0,068	-0,003
-563,802	800,000	-0,067	-0,200
-562,788	59,632	-0,049	-0,035
-561,773	-54,897	-0,021	0,007
-560,758	-71,015	-0,029	-0,008
-559,744	-200,000	-0,013	0,149
-558,729	-102,977	-0,146	0,025
-557,715	220,438	0,085	-0,099
-556,700	-162,717	-0,104	0,004
-555,685	121,683	-0,129	-0,117
-554,671	-200,000	0,010	-0,035
-553,656	-200,000	-0,008	-0,069
-552,642	9,109	0,068	-0,037
-551,627	280,701	-0,038	0,049
-550,612	704,269	0,044	-0,084
-549,598	581,675	-0,027	-0,049
-548,583	675,435	-0,018	-0,033
-547,569	71,987	-0,135	-0,101
-546,554	-200,000	0,067	0,000
-545,539	-56,372	-0,097	-0,031
-544,525	-200,000	0,005	-0,035
-543,510	-173,844	-0,061	-0,001
-542,496	-200,000	-0,011	-0,193
-541,481	55,724	0,044	-0,031
-540,466	61,404	0,079	0,056
-539,452	123,678	0,085	-0,077
-538,437	-74,911	-0,067	0,017
-537,423	606,766	-0,030	0,055
-536,408	-29,877	-0,058	0,024
-535,393	641,147	-0,065	-0,121
-534,379	-200,000	0,010	-0,278
-533,364	-47,765	0,080	0,028
-532,350	-35,209	0,015	0,006
-531,335	-29,126	-0,060	0,025
-530,321	-90,574	-0,053	0,011
-529,306	44,558	-0,060	0,040
-528,291	-200,000	-0,027	-0,098
-527,277	-183,800	0,080	-0,001
-526,262	43,581	0,056	-0,037
-525,248	36,440	-0,021	-0,013
-524,233	-200,000	-0,039	0,191
-523,218	800,000	0,074	0,160
-522,204	800,000	0,037	0,091
-521,189	-97,973	-0,108	0,020
-520,175	-17,470	-0,062	-0,028
-519,160	-200,000	-0,009	-0,082
-518,145	800,000	0,009	-0,025
-517,131	-148,770	-0,047	0,003
-516,116	421,990	0,052	0,080
-515,102	800,000	0,025	0,057
-514,087	10,985	-0,093	-0,051
-513,072	528,046	-0,053	-0,091
-512,058	800,000	0,030	0,062
-511,043	701,836	-0,010	-0,019
-510,029	45,879	-0,132	0,088
-509,014	302,122	0,095	0,127
-507,999	40,560	-0,068	0,044
-506,985	800,000	-0,018	-0,040
-505,970	-71,872	0,115	-0,031
-504,956	52,600	-0,058	-0,040
-503,941	101,793	0,042	-0,035
-502,926	65,310	0,007	0,005
-501,912	347,023	0,010	0,014
-500,897	800,000	-0,008	0,017
-499,883	-7,807	-0,078	0,038
-498,868	170,924	-0,026	0,027
-497,853	-200,000	0,003	-0,090
-496,839	422,120	0,040	0,063
-495,824	113,127	-0,103	0,090
-494,810	57,841	0,051	-0,036
-493,795	467,142	-0,056	-0,090
-492,781	48,606	-0,120	-0,081
-491,766	-49,789	-0,112	0,038
-490,751	187,804	0,031	-0,033
-489,737	-42,177	0,079	-0,029
-488,722	157,228	0,044	0,044
-487,708	-29,929	0,120	0,049
-486,693	-200,000	0,047	0,151
-485,678	491,473	-0,045	0,075
-484,664	36,038	0,034	0,021
-483,649	-102,223	0,146	0,025
-482,635	-20,610	-0,055	-0,024
-481,620	-200,000	-0,014	-0,068
-480,605	-200,000	-0,005	-0,104
-479,591	109,464	0,045	0,039
-478,576	800,000	0,028	0,070
-477,562	514,030	0,019	0,031
-476,547	-57,936	-0,129	0,040
-475,532	-62,179	0,135	0,040
-474,518	-173,313	-0,021	0,000
-473,503	-35,566	-0,053	-0,020
-472,489	-153,593	-0,053	0,003
-471,474	800,000	0,068	-0,170
-470,459	-117,720	-0,104	0,013
-469,445	10,539	0,081	-0,045
-468,430	800,000	-0,012	0,028
-467,416	-15,722	0,015	-0,007
-466,401	88,376	0,140	-0,112
-465,386	602,603	0,065	0,118
-464,372	-171,852	0,103	-0,002
-463,357	468,428	-0,040	-0,066
-462,343	-200,000	0,013	-0,100
-461,328	218,194	-0,054	-0,062
-460,313	-200,000	-0,007	-0,023
-459,299	157,261	0,056	-0,056
-458,284	-42,100	0,086	0,031
-457,270	-39,074	-0,092	0,035
-456,255	446,914	0,040	-0,063
-455,241	-56,406	-0,045	-0,014
-454,226	-200,000	-0,031	-0,107
-453,211	78,854	-0,049	0,038
-452,197	16,010	-0,114	0,064
-451,182	138,641	0,061	0,058
-450,168	-200,000	-0,007	0,047
-449,153	31,806	0,084	-0,052
-448,138	21,315	-0,168	-0,098
-447,124	620,260	-0,015	-0,027
-446,109	-200,000	0,004	-0,125
-445,095	205,628	0,064	-0,072
-444,080	254,149	0,048	0,060
-443,065	-78,119	0,004	0,001
-442,051	-200,000	0,015	0,054
-441,036	140,853	-0,073	-0,069
-440,022	800,000	0,029	-0,082
-439,007	129,618	-0,102	-0,094
-437,992	94,942	-0,042	0,034
-436,978	800,000	-0,036	0,090
-435,963	-200,000	-0,047	0,167
-434,949	-135,422	0,048	-0,004
-433,934	-200,000	0,002	-0,083
-432,919	365,658	-0,035	0,050
-431,905	228,508	0,081	-0,096
-430,890	-200,000	-0,027	0,129
-429,876	67,380	0,150	0,110
-428,861	800,000	-0,033	0,103
-427,846	150,791	0,091	0,089
-426,832	-72,468	-0,056	0,015
-425,817	63,743	-0,144	-0,104
-424,803	784,638	-0,028	-0,056
-423,788	-86,655	0,108	0,024
-422,773	-200,000	-0,003	0,020
-421,759	67,540	-0,033	-0,024
-420,744	-200,000	0,036	-0,133
-419,730	-100,492	-0,062	-0,011
-418,715	658,399	0,017	-0,032
-417,701	11,692	0,149	-0,082
-416,686	46,939	-0,063	0,042
-415,671	-200,000	-0,009	0,134
-414,657	202,694	0,060	-0,067
-413,642	32,062	-0,056	-0,035
-412,628	230,807	-0,008	-0,009
-411,613	349,666	-0,150	-0,214
-410,598	789,542	0,082	-0,164
-409,584	143,227	-0,012	-0,011
-408,569	52,192	0,141	0,097
-407,555	-124,314	0,057	0,006
-406,540	-200,000	-0,021	0,123
-405,525	-149,971	-0,076	-0,004
-404,511	-142,079	-0,088	-0,006
-403,496	-18,173	0,110	0,049
-402,482	-101,606	0,069	0,012
-401,467	800,000	0,027	-0,060
-400,452	20,951	-0,076	0,044
-399,438	800,000	0,042	0,091
-398,423	614,256	0,050	0,091
-397,409	-110,303	-0,144	-0,021
-396,394	241,666	-0,061	-0,074
-395,379	219,770	0,021	-0,025
-394,365	384,863	-0,031	0,046
-393,350	110,848	0,044	0,038
-392,336	86,171	-0,009	0,007
-391,321	-200,000	-0,003	0,131
-390,306	-13,056	-0,067	-0,031
-389,292	87,176	-0,026	-0,020
-388,277	800,000	-0,052	-0,137
-387,263	-109,051	-0,128	-0,019
-386,248	-20,793	0,133	0,059
-385,233	326,771	0,047	-0,064
-384,219	440,532	0,013	0,020
-383,204	-200,000	0,006	-0,089
-382,190	800,000	-0,049	-0,140
-381,175	460,007	-0,024	-0,039
-380,160	-55,307	0,110	-0,035
-379,146	-200,000	0,027	0,113
-378,131	208,071	0,070	-0,079
-377,117	50,335	-0,054	0,037
-376,102	-116,974	-0,130	0,017
-375,088	495,621	-0,021	0,034
-374,073	245,462	0,036	0,043
-373,058	-200,000	-0,014	-0,084
-372,044	800,000	0,047	-0,109
-371,029	800,000	0,023	0,067
-370,015	800,000	0,050	0,141
-369,000	-200,000	-0,013	0,087
-367,985	776,858	0,021	0,042
-366,971	791,629	0,048	0,095
-365,956	114,791	0,160	0,140
-364,942	153,754	-0,032	0,031
-363,927	800,000	0,075	0,156
-362,912	-200,000	0,019	0,116
-361,898	-198,339	-0,147	0,001
-360,883	204,085	0,067	-0,074
-359,869	-91,534	0,088	-0,018
-358,854	504,466	0,112	0,186
-357,839	-200,000	-0,010	-0,052
-356,825	-114,793	-0,030	-0,004
-355,810	-102,774	0,059	-0,010
-354,796	-106,796	-0,115	-0,018
-353,781	34,544	-0,137	-0,086
-352,766	106,180	0,106	-0,090
-351,752	-0,027	0,092	0,047
-350,737	214,839	0,103	0,118
-349,723	-131,215	0,135	0,013
-348,708	118,117	-0,097	0,086
-347,693	-200,000	-0,010	0,099
-346,679	-200,000	0,008	-0,090
-345,664	-200,000	-0,005	-0,065
-344,650	643,489	-0,072	-0,132
-343,635	-200,000	-0,018	0,095
-342,620	103,241	-0,121	-0,102
-341,606	800,000	0,020	0,058
-340,591	244,116	-0,025	-0,030
-339,577	193,105	-0,057	-0,061
-338,562	-200,000	0,002	-0,071
-337,548	-200,000	0,028	0,091
-336,533	297,267	0,071	0,094
-335,518	-200,000	-0,003	0,196
-334,504	-63,177	-0,019	-0,006
-333,489	-200,000	-0,021	0,114
-332,475	800,000	-0,045	0,130
-331,460	-119,878	-0,039	0,005
-330,445	-17,316	-0,040	0,018
-329,431	-47,516	0,054	0,019
-328,416	-200,000	-0,023	0,093
-327,402	-65,513	0,135	0,039
-326,387	800,000	0,034	0,082
-325,372	88,536	-0,077	0,061
-324,358	-37,221	-0,059	0,023
-323,343	800,000	0,035	0,092
-322,329	-200,000	0,024	0,090
-321,314	74,403	0,125	0,094
-320,299	-140,740	0,025	0,002
-319,285	-200,000	0,007	0,080
-318,270	208,032	-0,054	-0,060
-317,256	-200,000	-0,015	-0,063
-316,241	312,193	0,084	-0,113
-315,226	-200,000	0,014	-0,047
-314,212	535,114	0,085	0,146
-313,197	68,169	-0,103	-0,076
-312,183	327,710	-0,055	0,075
-311,168	186,139	-0,074	-0,079
-310,153	-200,000	-0,050	-0,211
-309,139	247,347	-0,108	-0,131
-308,124	-91,715	0,096	-0,019
-307,110	90,049	-0,073	-0,058
-306,095	800,000	-0,025	0,073
-305,080	-117,874	-0,063	-0,008
-304,066	800,000	-0,018	-0,036
-303,051	-200,000	0,024	0,103
-302,037	63,302	-0,170	-0,122
-301,022	359,508	0,042	0,060
-300,008	-200,000	-0,023	-0,091
-298,993	800,000	-0,034	0,069
-297,978	-200,000	-0,019	0,065
-296,964	-118,184	0,041	-0,005
-295,949	-20,128	-0,122	-0,054
-294,935	-200,000	-0,004	0,035
-293,920	344,105	-0,042	0,059
-292,905	-135,885	-0,051	-0,004
-291,891	-200,000	-0,026	0,105
-290,876	-122,191	0,098	0,011
-289,862	-76,647	-0,080	0,020
-288,847	-30,787	0,128	-0,052
-287,832	-200,000	-0,057	-0,254
-286,818	-0,260	0,075	-0,038
-285,803	800,000	-0,049	-0,102
-284,789	81,353	0,111	0,085
-283,774	704,950	0,036	0,068
-282,759	179,345	0,018	-0,019
-281,745	169,045	0,086	0,087
-280,730	-200,000	0,003	-0,103
-279,716	-200,000	0,008	0,052
-278,701	800,000	0,022	0,046
-277,686	29,886	0,078	-0,047
-276,672	800,000	0,047	0,118
-275,657	-132,815	-0,106	0,010
-274,643	-24,793	-0,024	0,010
-273,628	-107,567	-0,081	-0,013
-272,613	133,265	-0,085	-0,079
-271,599	164,434	0,062	0,063
-270,584	282,597	0,085	0,109
-269,570	-200,000	-0,018	0,082
-268,555	800,000	0,031	0,073
-267,540	-200,000	-0,009	-0,050
-266,526	339,438	0,034	0,047
-265,511	412,155	0,024	0,036
-264,497	-85,536	0,057	0,013
-263,482	36,665	0,097	0,061
-262,467	800,000	0,058	0,123
-261,453	-200,000	-0,001	-0,013
-260,438	178,827	0,118	0,123
-259,424	151,377	0,062	-0,060
-258,409	800,000	-0,016	-0,041
-257,395	-157,660	0,074	-0,003
-256,380	-200,000	0,025	0,078
-255,365	800,000	0,044	0,132
-254,351	-46,379	0,058	0,020
-253,336	800,000	0,033	-0,072
-252,322	-123,718	-0,105	-0,012
-251,307	800,000	0,031	-0,084
-250,292	35,523	-0,190	-0,119
-249,278	19,211	0,132	0,076
-248,263	30,064	-0,018	-0,011
-247,249	-200,000	0,005	0,111
-246,234	339,311	-0,023	0,032
-245,219	-24,651	-0,070	-0,030
-244,205	-107,214	-0,018	0,003
-243,190	485,065	0,027	-0,044
-242,176	236,357	-0,050	-0,060
-241,161	-200,000	0,005	0,074
-240,146	189,157	-0,063	0,068
-239,132	-45,000	-0,024	0,009
-238,117	7,721	0,068	-0,036
-237,103	48,633	-0,053	0,035
-236,088	-200,000	-0,004	-0,167
-235,073	-126,478	0,088	-0,009
-234,059	-75,615	0,083	0,021
-233,044	104,660	0,120	0,101
-232,030	800,000	0,030	-0,072
-231,015	-200,000	0,004	0,167
-230,000	800,000	0,042	-0,089
-228,986	-200,000	0,000	-0,027
-227,971	-200,000	0,022	0,077
-226,957	561,443	-0,052	0,091
-225,942	177,405	-0,062	0,065
-224,927	-76,728	0,135	0,034
-223,913	618,160	0,043	-0,078
-222,898	45,103	-0,092	-0,060
-221,884	800,000	-0,009	-0,023
-220,869	-2,722	0,083	0,041
-219,855	414,620	-0,061	0,093
-218,840	157,637	0,069	-0,068
-217,825	193,375	-0,139	0,150
-216,811	-200,000	0,006	0,025
-215,796	-51,755	-0,140	0,046
-214,782	-200,000	-0,006	-0,083
-213,767	800,000	0,087	-0,229
-212,752	456,822	0,060	0,096
-211,738	219,361	0,052	0,059
-210,723	-15,146	-0,091	0,041
-209,709	515,470	-0,046	0,076
-208,694	-200,000	0,024	0,094
-207,679	-126,590	-0,097	-0,010
-206,665	-200,000	-0,011	-0,090
-205,650	582,580	-0,027	-0,048
-204,636	800,000	0,065	0,149
-203,621	-200,000	0,001	0,038
-202,606	646,491	-0,020	0,036
-201,592	-28,173	0,156	0,064
-200,577	-72,458	-0,040	0,011
-199,563	771,215	0,057	-0,112
-198,548	685,287	0,028	0,053
-197,533	800,000	-0,030	-0,060
-196,519	-52,437	-0,104	-0,034
-195,504	-107,626	-0,135	-0,021
-194,490	-200,000	-0,005	-0,034
-193,475	-163,895	-0,124	0,004
-192,460	85,884	0,086	-0,067
-191,446	334,655	-0,042	0,058
-190,431	259,471	0,046	0,057
-189,417	-200,000	0,022	0,099
-188,402	-2,430	0,069	0,034
-187,387	-175,436	-0,088	-0,002
-186,373	105,900	-0,146	-0,124
-185,358	536,736	-0,047	-0,081
-184,344	72,382	0,167	-0,124
-183,329	-133,213	0,067	-0,006
-182,315	-200,000	0,016	0,077
-181,300	-200,000	0,017	0,070
-180,285	-45,486	-0,133	0,047
-179,271	-56,749	-0,178	-0,056
-178,256	-200,000	-0,012	-0,104
-177,242	34,677	-0,061	0,038
-176,227	800,000	0,053	-0,135
-175,212	-108,258	0,143	-0,022
-174,198	142,058	-0,047	0,044
-173,183	-79,538	-0,091	-0,022
-172,169	8,256	0,058	-0,031
-171,154	-200,000	0,033	-0,190
-170,139	800,000	0,018	0,055
-169,125	-200,000	0,037	-0,156
-168,110	800,000	0,067	-0,177
-167,096	-135,337	0,103	-0,009
-166,081	-200,000	0,012	-0,199
-165,066	800,000	-0,019	0,039
-164,052	-38,237	0,046	-0,017
-163,037	-171,604	-0,026	-0,001
-162,023	144,859	0,100	0,095
-161,008	-61,983	0,148	-0,044
-159,993	800,000	-0,032	-0,077
-158,979	800,000	0,045	-0,104
-157,964	-200,000	0,000	-0,040
-156,950	800,000	-0,062	-0,131
-155,935	651,888	-0,064	-0,117
-154,920	-2,171	0,055	0,027
-153,906	-25,092	0,069	0,029
-152,891	434,692	-0,117	-0,182
-151,877	-30,826	0,042	0,017
-150,862	-70,463	-0,034	-0,009
-149,847	-200,000	-0,004	-0,032
-148,833	-200,000	-0,012	-0,096
-147,818	-56,882	0,086	0,027
-146,804	-176,525	0,165	0,003
-145,789	800,000	-0,043	-0,087
-144,775	-79,270	0,045	0,011
-143,760	800,000	-0,015	-0,042
-142,745	-140,889	-0,117	0,008
-141,731	-134,759	-0,086	0,007
-140,716	337,011	-0,012	0,016
-139,702	449,936	0,045	0,070
-138,687	7,618	-0,113	0,060
-137,672	80,925	-0,063	-0,048
-136,658	1,261	-0,053	0,027
-135,643	121,437	0,075	0,066
-134,629	184,698	-0,059	-0,063
-133,614	-130,265	0,090	-0,009
-132,599	-79,654	-0,045	0,011
-131,585	-104,650	-0,042	0,007
-130,570	-200,000	0,007	-0,128
-129,556	151,208	-0,083	-0,080
-128,541	800,000	-0,027	0,062
-127,526	800,000	0,031	-0,072
-126,512	-200,000	0,011	-0,059
-125,497	-200,000	-0,023	0,089
-124,483	-200,000	-0,023	0,085
-123,468	-74,056	-0,005	-0,001
-122,453	68,655	-0,050	-0,036
-121,439	2,508	-0,074	0,038
-120,424	295,249	-0,058	-0,076
-119,410	112,919	0,063	0,054
-118,395	-152,729	0,105	0,005
-117,380	-200,000	-0,014	0,079
-116,366	174,747	-0,110	0,114
-115,351	-36,673	0,059	0,022
-114,337	-200,000	0,010	-0,128
-113,322	-200,000	0,031	-0,146
-112,307	-200,000	0,008	-0,042
-111,293	86,585	0,138	0,108
-110,278	-109,233	0,090	-0,013
-109,264	-54,263	-0,116	-0,037
-108,249	800,000	0,041	-0,102
-107,234	-51,028	-0,020	-0,007
-106,220	-200,000	-0,065	-0,212
-105,205	-128,428	-0,105	-0,010
-104,191	-12,872	0,094	0,043
-103,176	91,546	-0,074	-0,059
-102,162	-200,000	-0,015	-0,076
-101,147	-200,000	0,015	0,048
-100,132	89,784	0,021	0,017
-99,118	-200,000	0,001	0,049
-98,103	13,914	0,055	-0,030
-97,089	-200,000	-0,018	0,058
-96,074	-200,000	-0,010	0,093
-95,059	-34,427	0,022	0,008
-94,045	412,931	-0,053	-0,081
-93,030	-91,981	-0,094	-0,019
-92,016	-119,310	-0,212	0,026
-91,001	-159,753	0,107	0,004
-89,986	69,640	-0,045	-0,033
-88,972	450,419	-0,006	0,009
-87,957	-60,127	0,043	-0,013
-86,943	407,679	-0,087	-0,131
-85,928	70,418	-0,064	0,047
-84,913	-92,849	-0,048	-0,009
-83,899	800,000	0,055	0,170
-82,884	346,521	0,075	0,105
-81,870	-200,000	-0,012	0,160
-80,855	-74,688	0,046	0,012
-79,840	-200,000	-0,005	0,051
-78,826	234,483	-0,050	-0,058
-77,811	101,491	-0,022	-0,018
-76,797	130,187	-0,016	0,015
-75,782	800,000	0,028	0,066
-74,767	29,298	0,115	-0,069
-73,753	91,390	-0,042	-0,033
-72,738	348,223	0,076	0,107
-71,724	19,724	0,081	-0,046
-70,709	800,000	0,041	-0,084
-69,694	-200,000	0,007	-0,034
-68,680	335,770	-0,021	-0,029
-67,665	279,675	-0,048	-0,061
-66,651	305,317	0,102	0,134
-65,636	7,866	-0,086	0,046
-64,622	-13,658	-0,100	-0,046
-63,607	-200,000	0,003	-0,028
-62,592	376,939	0,017	-0,025
-61,578	59,338	0,089	0,062
-60,563	393,351	0,060	0,089
-59,549	-200,000	0,023	0,119
-58,534	-67,792	-1,556	-0,429
-57,519	443,566	-1,563	-2,440
-56,505	-200,000	-0,540	-4,427
-55,490	102,037	0,919	0,761
-54,476	800,000	4,766	11,214
-53,461	-200,000	17,572	279,388
-52,446	800,000	719,268	2217,651
-51,432	562,081	1633,524	2815,044
-50,417	81,253	1657,980	1269,886
-49,403	24,041	1532,272	894,831
-48,388	18,007	1455,389	820,824
-47,373	18,398	1444,775	816,680
-46,359	18,033	1435,364	809,586
-45,344	16,296	1430,997	798,831
-44,330	16,265	1428,722	797,382
-43,315	16,190	1427,116	796,102
-42,300	16,282	1425,371	795,530
-41,286	16,280	1424,307	794,896
-40,271	16,309	1422,969	794,253
-39,257	16,263	1421,711	793,303
-38,242	16,293	1420,466	792,719
-37,227	16,315	1419,213	792,092
-36,213	16,283	1417,871	791,161
-35,198	16,222	1416,730	790,206
-34,184	16,320	1415,720	790,071
-33,169	16,230	1414,612	789,001
-32,154	16,249	1413,631	788,511
-31,140	16,310	1412,138	787,930
-30,125	16,332	1410,886	787,303
-29,111	16,304	1409,799	786,535
-28,096	16,267	1408,797	785,773
-27,082	16,218	1407,639	784,869
-26,067	16,204	1406,643	784,216
-25,052	16,242	1405,410	783,676
-24,038	16,216	1404,493	783,009
-23,023	16,188	1403,414	782,244
-22,009	16,180	1402,573	781,711
-20,994	16,138	1401,603	780,941
-19,979	16,117	1400,819	780,378
-18,965	16,139	1399,569	779,750
-17,950	16,124	1398,702	779,169
-16,936	16,127	1397,768	778,632
-15,921	16,120	1396,408	777,811
-14,906	16,086	1395,632	777,189
-13,892	16,096	1394,739	776,709
-12,877	16,095	1393,831	776,164
-11,863	16,110	1392,865	775,667
-10,848	16,119	1391,944	775,165
-9,833	16,103	1390,969	774,519
-8,819	16,054	1389,984	773,712
-7,804	16,018	1389,140	773,043
-6,790	15,998	1387,991	772,282
-5,775	16,006	1387,066	771,775
-4,760	16,015	1386,280	771,347
-3,746	15,957	1385,683	770,720
-2,731	16,008	1384,663	770,353
-1,717	15,964	1383,536	769,495
-0,702	15,958	1381,823	768,484
0,313	19,718	1303,167	742,107
1,327	36,133	707,297	440,876
2,342	55,397	125,456	85,954
3,356	1,289	16,717	8,488
4,371	1,999	3,012	1,537
5,386	-56,916	0,484	0,151
6,400	-200,000	0,027	0,173
7,415	25,632	-0,320	-0,189
8,429	112,964	-0,246	-0,211
9,444	-8,304	-0,387	-0,184
10,459	-124,943	-0,259	-0,028
11,473	81,354	-0,287	-0,220
12,488	87,653	-0,232	-0,182
13,502	47,178	-0,390	-0,257
14,517	-39,382	-0,292	-0,108
15,531	24,423	-0,477	-0,278
16,546	39,757	-0,301	-0,191
17,561	96,275	-0,393	-0,318
18,575	9,777	-0,177	-0,095
19,590	73,904	-0,266	-0,197
20,604	90,244	-0,200	-0,159
21,619	35,350	-0,456	-0,282
22,634	60,815	-0,507	-0,355
23,648	61,931	-0,469	-0,330
24,663	91,487	-0,354	-0,281
25,677	121,049	-0,371	-0,327
26,692	23,362	-0,300	-0,174
27,707	-64,938	-0,292	-0,083
28,721	-8,769	-0,361	-0,171
29,736	66,447	-0,388	-0,279
30,750	102,204	-0,398	-0,329
31,765	-33,130	-0,415	-0,162
32,780	800,000	-0,178	-0,362
33,794	141,223	-0,316	-0,296
34,809	6,097	-0,363	-0,189
35,823	800,000	-0,141	-0,338
36,838	-24,816	-0,487	-0,204
37,853	84,143	-0,342	-0,264
38,867	205,499	-0,257	-0,283
39,882	70,792	-0,332	-0,243
40,896	72,366	-0,323	-0,238
41,911	-49,124	-0,520	-0,175
42,926	51,796	-0,372	-0,250
43,940	267,287	-0,243	-0,301
44,955	57,965	-0,453	-0,313
45,969	-1,531	-0,325	-0,162
46,984	238,416	-0,280	-0,329
47,999	10,805	-0,363	-0,195
49,013	141,000	-0,312	-0,291
50,028	-85,772	-0,339	-0,074
51,042	13,532	-0,415	-0,227
52,057	40,467	-0,389	-0,247
53,071	57,265	-0,373	-0,257
54,086	5,236	-0,421	-0,219
55,101	-34,043	-0,327	-0,126
56,115	76,282	-0,253	-0,189
57,130	54,716	-0,406	-0,276
58,144	60,032	-0,395	-0,275
59,159	41,214	-0,281	-0,179
60,174	164,647	-0,390	-0,388
61,188	25,452	-0,397	-0,232
62,203	171,156	-0,306	-0,310
63,217	-18,323	-0,199	-0,087
64,232	35,236	-0,371	-0,229
65,247	-2,554	-0,441	-0,217
66,261	48,276	-0,347	-0,229
67,276	17,319	-0,307	-0,171
68,290	13,410	-0,343	-0,187
69,305	165,762	-0,278	-0,278
70,320	23,060	-0,310	-0,179
71,334	92,670	-0,276	-0,219
72,349	313,404	-0,205	-0,272
73,363	60,846	-0,383	-0,267
74,378	157,436	-0,274	-0,267
75,393	379,077	-0,237	-0,342
76,407	-48,970	-0,248	-0,083
77,422	48,169	-0,244	-0,160
78,436	73,293	-0,290	-0,213
79,451	376,606	-0,183	-0,264
80,466	116,614	-0,420	-0,363
81,480	187,035	-0,270	-0,284
82,495	142,959	-0,297	-0,279
83,509	292,396	-0,262	-0,338
84,524	-11,302	-0,179	-0,083
85,539	432,159	-0,153	-0,234
86,553	194,947	-0,241	-0,258
87,568	54,897	-0,325	-0,221
88,582	145,485	-0,260	-0,245
89,597	-73,846	-0,377	-0,096
90,611	32,427	-0,245	-0,149
91,626	123,675	-0,266	-0,235
92,641	47,472	-0,182	-0,119
93,655	40,414	-0,338	-0,214
94,670	59,333	-0,234	-0,162
95,684	143,338	-0,238	-0,223
96,699	78,722	-0,278	-0,209
97,714	62,673	-0,295	-0,207
98,728	110,356	-0,188	-0,159
99,743	-66,701	-0,186	-0,052
100,757	395,468	-0,175	-0,258
101,772	118,752	-0,265	-0,230
102,787	-30,738	-0,263	-0,104
103,801	231,684	-0,253	-0,292
104,816	261,514	-0,250	-0,305
105,830	154,506	-0,251	-0,242
106,845	86,334	-0,241	-0,186
107,860	267,994	-0,145	-0,179
108,874	107,655	-0,241	-0,201
109,889	261,835	-0,220	-0,268
110,903	61,147	-0,246	-0,171
111,918	343,640	-0,200	-0,277
112,933	50,678	-0,266	-0,177
113,947	-4,598	-0,280	-0,135
114,962	-85,964	-0,165	-0,035
115,976	37,352	-0,213	-0,132
116,991	380,563	-0,267	-0,385
118,006	-31,056	-0,177	-0,070
119,020	317,506	-0,210	-0,280
120,035	90,198	-0,228	-0,179
121,049	31,380	-0,261	-0,157
122,064	112,325	-0,277	-0,235
123,079	332,896	-0,197	-0,267
124,093	-58,121	-0,331	-0,101
125,108	-8,760	-0,298	-0,139
126,122	130,899	-0,271	-0,244
127,137	244,968	-0,235	-0,277
128,151	144,164	-0,206	-0,193
129,166	-28,912	-0,296	-0,119
130,181	-5,900	-0,366	-0,175
131,195	-48,856	-0,351	-0,117
132,210	800,000	-0,122	-0,302
133,224	-25,305	-0,237	-0,098
134,239	-121,067	-0,306	-0,036
135,254	-200,000	-0,042	-0,149
136,268	214,044	-0,261	-0,289
137,283	16,595	-0,325	-0,179
138,297	141,904	-0,277	-0,258
139,312	-200,000	-0,038	-0,311
140,327	502,588	-0,191	-0,311
141,341	28,032	-0,161	-0,095
142,356	-0,100	-0,224	-0,111
143,370	109,579	-0,235	-0,197
144,385	122,772	-0,279	-0,245
145,400	194,964	-0,324	-0,345
146,414	441,329	-0,136	-0,209
147,429	75,182	-0,294	-0,217
148,443	278,694	-0,159	-0,199
149,458	135,417	-0,166	-0,152
150,473	398,945	-0,121	-0,179
151,487	79,683	-0,268	-0,201
152,502	68,407	-0,292	-0,209
153,516	-11,775	-0,206	-0,094
154,531	5,196	-0,314	-0,161
155,546	251,592	-0,154	-0,184
156,560	800,000	-0,108	-0,292
157,575	800,000	-0,086	-0,184
158,589	65,846	-0,276	-0,196
159,604	131,441	-0,284	-0,255
160,619	90,652	-0,225	-0,176
161,633	222,710	-0,235	-0,265
162,648	185,368	-0,243	-0,252
163,662	129,115	-0,174	-0,155
164,677	60,940	-0,349	-0,242
165,692	65,766	-0,186	-0,132
166,706	-39,070	-0,265	-0,097
167,721	-55,680	-0,273	-0,085
168,735	62,175	-0,267	-0,186
169,750	172,145	-0,217	-0,218
170,764	-27,048	-0,188	-0,076
171,779	63,349	-0,229	-0,160
172,794	-100,497	-0,297	-0,051
173,808	122,138	-0,259	-0,226
174,823	53,625	-0,261	-0,174
175,837	294,439	-0,186	-0,238
176,852	447,281	-0,187	-0,288
177,867	-19,960	-0,269	-0,115
178,881	-21,115	-0,203	-0,086
179,896	12,864	-0,154	-0,083
180,910	83,732	-0,232	-0,177
181,925	87,315	-0,117	-0,090
182,940	800,000	-0,114	-0,275
183,954	268,170	-0,225	-0,276
184,969	123,613	-0,123	-0,108
185,983	7,970	-0,195	-0,102
186,998	-82,803	-0,228	-0,051
188,013	375,810	-0,090	-0,129
189,027	49,360	-0,302	-0,198
190,042	162,491	-0,211	-0,207
191,056	138,551	-0,189	-0,173
192,071	114,748	-0,221	-0,188
193,086	389,705	-0,150	-0,218
194,100	662,711	-0,117	-0,212
195,115	210,441	-0,176	-0,193
196,129	-11,143	-0,291	-0,133
197,144	300,581	-0,185	-0,239
198,159	24,588	-0,267	-0,154
199,173	-89,278	-0,298	-0,061
200,188	120,052	-0,141	-0,122
201,202	452,201	-0,137	-0,212
202,217	215,842	-0,174	-0,193
203,232	189,062	-0,234	-0,245
204,246	740,510	-0,172	-0,323
205,261	89,806	-0,292	-0,227
206,275	27,051	-0,259	-0,151
207,290	29,025	-0,124	-0,073
208,304	19,029	-0,229	-0,127
209,319	-144,832	-0,132	-0,008
210,334	638,687	-0,097	-0,173
211,348	-200,000	-0,063	-0,302
212,363	-15,377	-0,237	-0,105
213,377	135,897	-0,265	-0,240
214,392	800,000	-0,074	-0,202
215,407	340,379	-0,159	-0,217
216,421	109,243	-0,214	-0,178
217,436	-34,469	-0,215	-0,081
218,450	-36,057	-0,181	-0,068
219,465	233,484	-0,164	-0,188
220,480	170,992	-0,174	-0,174
221,494	57,163	-0,192	-0,130
222,509	1,776	-0,229	-0,114
223,523	-108,490	-0,159	-0,024
224,538	378,891	-0,087	-0,124
225,553	88,646	-0,220	-0,170
226,567	-32,271	-0,292	-0,113
227,582	-10,551	-0,212	-0,097
228,596	-71,924	-0,267	-0,069
229,611	-57,476	-0,111	-0,034
230,626	25,317	-0,281	-0,162
231,640	800,000	-0,044	-0,130
232,655	74,339	-0,091	-0,066
233,669	211,990	-0,145	-0,159
234,684	-1,049	-0,141	-0,069
235,699	-31,769	-0,267	-0,104
236,713	47,799	-0,258	-0,167
237,728	253,742	-0,156	-0,185
238,742	6,919	-0,139	-0,072
239,757	120,223	-0,134	-0,116
240,772	196,483	-0,197	-0,209
241,786	37,166	-0,227	-0,139
242,801	-94,106	-0,096	-0,018
243,815	151,423	-0,135	0,127
244,830	365,395	-0,080	0,112
245,844	127,570	-0,220	-0,194
246,859	229,172	-0,197	-0,223
247,874	797,271	-0,131	-0,252
248,888	275,731	-0,112	-0,138
249,903	-72,192	-0,170	0,044
250,917	59,916	-0,081	-0,056
251,932	170,235	-0,121	-0,120
252,947	-197,765	-0,225	0,001
253,961	791,404	-0,106	-0,203
254,976	183,763	-0,175	-0,180
255,990	40,218	-0,201	-0,125
257,005	-200,000	-0,057	-0,207
258,020	-40,029	0,029	0,010
259,034	-187,571	-0,223	-0,002
260,049	800,000	-0,083	-0,234
261,063	-200,000	-0,058	-0,189
262,078	735,071	-0,096	-0,178
263,093	169,401	-0,131	-0,130
264,107	23,300	-0,192	-0,109
265,122	-68,108	-0,126	-0,034
266,136	-43,788	-0,057	-0,020
267,151	-13,197	-0,058	0,026
268,166	110,658	-0,194	-0,162
269,180	-90,725	-0,176	-0,035
270,195	187,484	-0,180	-0,186
271,209	240,680	-0,139	-0,161
272,224	384,386	-0,143	-0,204
273,239	800,000	-0,022	-0,047
274,253	-85,194	-0,076	-0,016
275,268	-9,169	-0,264	-0,122
276,282	800,000	-0,119	-0,278
277,297	183,358	-0,254	-0,260
278,312	-96,976	-0,100	0,018
279,326	800,000	-0,084	-0,173
280,341	759,365	-0,084	-0,158
281,355	-19,317	-0,182	-0,078
282,370	-123,757	-0,180	-0,019
283,384	109,168	-0,242	-0,201
284,399	146,062	-0,223	-0,207
285,414	67,901	-0,233	-0,165
286,428	183,665	-0,190	-0,195
287,443	48,674	-0,116	-0,075
288,457	-51,185	-0,138	0,045
289,472	48,599	-0,121	-0,078
290,487	85,787	-0,195	-0,148
291,501	3,606	-0,072	-0,036
292,516	-21,863	-0,134	-0,056
293,530	9,186	-0,088	-0,046
294,545	-140,758	-0,170	-0,012
295,560	503,769	-0,121	-0,194
296,574	453,424	-0,080	0,123
297,589	251,273	-0,123	-0,145
298,603	-2,713	-0,161	-0,077
299,618	3,983	-0,250	-0,126
300,633	-200,000	0,015	-0,074
301,647	79,550	-0,096	-0,071
302,662	682,392	-0,114	-0,206
303,676	-66,022	-0,215	-0,059
304,691	-200,000	-0,010	-0,054
305,706	800,000	0,075	-0,186
306,720	800,000	-0,077	-0,218
307,735	-200,000	-0,044	-0,143
308,749	-49,707	0,020	0,006
309,764	-92,885	-0,069	-0,013
310,779	26,713	-0,155	-0,090
311,793	314,686	-0,180	-0,234
312,808	300,943	-0,160	-0,204
313,822	-86,776	-0,137	-0,029
314,837	800,000	-0,070	-0,179
315,852	406,238	-0,064	-0,094
316,866	-42,602	-0,064	0,022
317,881	205,080	-0,124	-0,133
318,895	-51,789	-0,223	-0,071
319,910	-2,128	-0,137	-0,066
320,925	-200,000	-0,050	-0,302
321,939	-200,000	-0,063	-0,234
322,954	463,610	-0,114	-0,176
323,968	384,597	-0,051	0,073
324,983	256,937	-0,148	-0,175
325,997	10,957	-0,216	-0,113
327,012	-74,857	-0,208	-0,051
328,027	182,961	-0,177	-0,181
329,041	400,497	0,044	0,064
330,056	197,007	-0,118	-0,124
331,070	-200,000	-0,036	-0,139
332,085	-38,763	-0,138	-0,050
333,100	-60,988	-0,036	0,010
334,114	67,416	-0,128	-0,090
335,129	175,349	-0,149	-0,149
336,143	706,428	-0,138	-0,251
337,158	271,223	-0,106	-0,129
338,173	169,395	-0,186	-0,183
339,187	-200,000	-0,079	-0,306
340,202	-109,518	-0,157	0,023
341,216	-27,815	-0,242	-0,096
342,231	411,714	-0,040	0,059
343,246	-118,847	-0,144	-0,017
344,260	-90,301	-0,075	-0,015
345,275	-64,869	-0,132	0,036
346,289	35,958	-0,193	0,117
347,304	-14,897	-0,157	-0,069
348,319	120,354	-0,166	-0,141
349,333	-17,099	-0,125	-0,054
350,348	-20,607	-0,229	-0,096
351,362	114,426	-0,060	-0,050
352,377	-188,094	-0,183	-0,002
353,392	-164,977	-0,143	-0,004
354,406	277,185	-0,019	-0,023
355,421	209,629	1314,019	1418,063
356,435	161,350	1474,679	1418,586
