DTS Sentinel unit serial number:	SN410029Multiplexer serial number:	ORYXHardware model number:	OX2-SRSoftware version number:	ORYX F/W v4,00 Oryx Data Collector v3.7.2.0data status	okinstallation	B3 Nyhavnadifferential loss correction	single-endedforward channel	channel 1reverse channel	N/Adate	2023/12/03time	16:47:30forward acquisition time	300,00reverse acquisition time	0,00gamma	499,1914k internal	0,3197k external	0,3197temperature offset calibration	1,0000default loss term (dB/km)	0,3820temperature slope calibration	1,0000multiplexer offset coefficient	1,0000multiplexer slope coefficient	1,0000fibre end	0,00T internal ref (°C)	15,20T ext. ref 1 (°C)	-0,28T ext. ref 2 (°C)	-0,28length (m)	temperature (°C)	Stokes	anti-Stokes-744,400	-200,000	-0,093	-0,315
-743,385	-200,000	0,059	0,272
-742,371	800,000	-0,091	-0,211
-741,356	800,000	0,117	0,308
-740,342	344,056	-0,185	-0,265
-739,327	800,000	0,110	0,304
-738,312	50,378	-0,357	-0,245
-737,298	-200,000	0,068	0,219
-736,283	216,309	-0,286	-0,332
-735,269	621,457	-0,104	0,191
-734,254	86,263	-0,220	-0,177
-733,239	-163,134	-0,272	0,009
-732,225	471,094	-0,089	-0,145
-731,210	84,830	0,183	0,146
-730,196	185,503	-0,087	-0,094
-729,181	310,677	-0,070	0,096
-728,167	-44,520	-0,081	0,029
-727,152	-200,000	0,007	0,068
-726,137	800,000	-0,085	-0,184
-725,123	-200,000	-0,046	-0,210
-724,108	101,887	-0,090	-0,076
-723,094	73,554	-0,124	-0,094
-722,079	800,000	0,057	-0,124
-721,064	102,957	0,106	0,090
-720,050	-155,294	-0,046	0,002
-719,035	55,100	-0,035	-0,025
-718,021	-8,472	-0,131	0,064
-717,006	157,371	-0,019	0,019
-715,991	532,572	0,056	-0,096
-714,977	75,121	0,042	-0,032
-713,962	800,000	-0,017	-0,043
-712,948	50,769	0,050	-0,034
-711,933	573,157	-0,047	-0,084
-710,918	-200,000	0,023	-0,089
-709,904	-78,616	-0,104	0,026
-708,889	-112,041	0,076	0,011
-707,875	309,399	-0,170	-0,232
-706,860	-200,000	-0,014	-0,097
-705,845	-200,000	0,018	-0,106
-704,831	800,000	-0,061	-0,157
-703,816	73,893	-0,024	0,018
-702,802	800,000	-0,028	-0,063
-701,787	-106,867	-0,142	-0,023
-700,772	-200,000	0,027	-0,123
-699,758	-2,336	0,029	-0,015
-698,743	-124,429	-0,070	0,008
-697,729	-31,767	0,075	0,030
-696,714	291,752	-0,042	0,056
-695,699	15,858	-0,142	-0,081
-694,685	-16,782	0,171	-0,078
-693,670	52,056	-0,079	-0,054
-692,656	476,451	0,024	-0,039
-691,641	-200,000	-0,004	0,138
-690,627	-98,543	0,162	-0,030
-689,612	-33,219	-0,045	0,018
-688,597	-56,777	-0,011	-0,003
-687,583	-136,855	-0,121	-0,010
-686,568	800,000	-0,055	0,111
-685,554	-63,237	-0,100	0,030
-684,539	-200,000	-0,001	-0,050
-683,524	-200,000	0,005	-0,017
-682,510	-200,000	-0,008	-0,028
-681,495	-200,000	0,003	-0,119
-680,481	-120,193	0,073	-0,009
-679,466	113,307	-0,046	-0,041
-678,451	-200,000	-0,005	-0,087
-677,437	-200,000	0,031	0,134
-676,422	0,886	-0,110	0,057
-675,408	-23,947	-0,096	-0,041
-674,393	253,154	0,062	0,077
-673,378	800,000	0,051	-0,150
-672,364	-92,631	-0,147	-0,030
-671,349	-200,000	0,043	-0,139
-670,335	631,798	0,020	0,037
-669,320	131,126	0,067	-0,062
-668,305	-200,000	0,002	-0,120
-667,291	-186,077	-0,148	-0,002
-666,276	-200,000	0,003	-0,124
-665,262	-200,000	-0,048	-0,162
-664,247	14,259	0,145	-0,082
-663,232	8,427	0,063	-0,034
-662,218	-38,395	0,090	-0,034
-661,203	-117,350	0,062	-0,008
-660,189	-122,318	-0,113	-0,013
-659,174	274,207	-0,086	-0,110
-658,159	800,000	-0,007	-0,022
-657,145	-200,000	0,011	0,052
-656,130	211,642	-0,080	0,092
-655,116	-58,729	-0,079	-0,025
-654,101	-200,000	-0,023	-0,088
-653,086	-200,000	0,006	-0,062
-652,072	23,165	-0,098	-0,058
-651,057	-114,332	-0,197	0,027
-650,043	184,887	0,040	-0,043
-649,028	-200,000	-0,020	-0,164
-648,014	-200,000	0,085	0,000
-646,999	24,727	-0,026	-0,015
-645,984	-93,224	0,084	-0,017
-644,970	800,000	0,029	0,068
-643,955	-200,000	0,006	-0,110
-642,941	16,516	0,065	0,037
-641,926	-6,570	0,041	-0,020
-640,911	-200,000	-0,059	-0,000
-639,897	-77,427	0,038	-0,009
-638,882	155,602	-0,021	0,021
-637,868	438,637	0,046	0,073
-636,853	466,868	-0,063	-0,103
-635,838	20,122	0,042	0,024
-634,824	144,102	-0,081	0,078
-633,809	0,771	0,112	-0,058
-632,795	-200,000	-0,021	0,085
-631,780	800,000	0,009	0,021
-630,765	800,000	-0,038	-0,090
-629,751	87,192	-0,130	-0,104
-628,736	133,129	-0,102	-0,095
-627,722	234,020	-0,048	0,058
-626,707	277,404	-0,028	-0,036
-625,692	-3,207	0,040	0,020
-624,678	-2,388	-0,142	0,072
-623,663	1,296	0,040	-0,021
-622,649	-83,758	-0,198	-0,045
-621,634	312,703	-0,035	-0,048
-620,619	-36,003	0,094	0,037
-619,605	-200,000	0,033	0,128
-618,590	59,848	-0,081	0,058
-617,576	272,115	0,037	0,048
-616,561	800,000	0,043	-0,093
-615,546	800,000	0,044	-0,094
-614,532	-58,057	0,061	0,019
-613,517	-61,167	-0,166	-0,050
-612,503	579,765	0,090	-0,160
-611,488	480,373	0,023	0,038
-610,474	-85,379	-0,068	0,015
-609,459	-200,000	-0,035	0,195
-608,444	50,987	-0,049	0,033
-607,430	-41,729	-0,097	0,036
-606,415	-200,000	-0,004	-0,048
-605,401	-168,186	0,097	0,003
-604,386	-200,000	0,008	0,139
-603,371	-200,000	0,003	0,034
-602,357	42,377	-0,069	-0,045
-601,342	-200,000	-0,038	-0,153
-600,328	253,740	-0,048	-0,060
-599,313	800,000	0,075	-0,164
-598,298	749,771	0,047	0,092
-597,284	167,832	-0,035	-0,037
-596,269	800,000	0,046	0,117
-595,255	-15,058	0,025	0,011
-594,240	-200,000	-0,028	0,121
-593,225	-200,000	-0,001	-0,093
-592,211	-134,883	-0,031	0,003
-591,196	138,449	0,028	0,027
-590,182	-200,000	0,017	-0,065
-589,167	-148,720	-0,139	0,008
-588,152	800,000	-0,034	-0,101
-587,138	389,616	0,016	0,024
-586,123	-130,816	0,052	0,005
-585,109	800,000	-0,045	-0,092
-584,094	-65,616	-0,070	-0,020
-583,079	-200,000	-0,040	0,136
-582,065	-200,000	0,001	0,154
-581,050	-142,516	-0,116	-0,008
-580,036	800,000	-0,023	-0,062
-579,021	-52,408	-0,091	-0,030
-578,006	191,281	0,090	-0,098
-576,992	-31,184	-0,083	0,034
-575,977	22,580	-0,088	-0,052
-574,963	45,375	-0,153	-0,102
-573,948	275,969	-0,054	0,070
-572,934	-41,768	0,074	0,027
-571,919	222,304	-0,052	-0,061
-570,904	-200,000	0,006	-0,077
-569,890	-200,000	0,011	0,106
-568,875	-200,000	-0,018	-0,107
-567,861	800,000	-0,049	-0,141
-566,846	259,988	-0,027	-0,033
-565,831	252,572	0,032	-0,040
-564,817	-200,000	0,015	0,124
-563,802	-200,000	-0,035	-0,204
-562,788	360,128	-0,109	-0,158
-561,773	556,392	0,079	-0,137
-560,758	287,419	0,072	-0,094
-559,744	800,000	-0,018	0,041
-558,729	-191,030	-0,083	0,001
-557,715	-115,163	0,057	0,008
-556,700	5,931	-0,100	-0,054
-555,685	192,490	-0,075	-0,082
-554,671	-147,900	0,115	-0,007
-553,656	138,262	0,060	-0,057
-552,642	10,238	0,033	0,018
-551,627	-11,649	0,151	0,071
-550,612	-200,000	0,003	0,017
-549,598	-200,000	-0,040	0,129
-548,583	-8,874	-0,091	-0,044
-547,569	594,005	-0,119	0,213
-546,554	-55,213	0,105	-0,034
-545,539	717,613	-0,032	-0,062
-544,525	240,417	0,042	0,051
-543,510	18,265	0,116	0,067
-542,496	800,000	-0,031	-0,090
-541,481	800,000	-0,076	-0,153
-540,466	-61,749	0,158	-0,048
-539,452	-14,565	0,088	-0,041
-538,437	98,155	-0,073	0,061
-537,423	519,964	-0,049	0,084
-536,408	282,694	0,022	0,028
-535,393	800,000	-0,043	-0,100
-534,379	-46,255	-0,109	0,039
-533,364	654,127	-0,010	0,019
-532,350	800,000	-0,019	-0,042
-531,335	800,000	-0,040	0,093
-530,321	48,933	0,031	-0,021
-529,306	-200,000	0,000	-0,016
-528,291	134,492	-0,106	-0,099
-527,277	665,554	0,017	-0,032
-526,262	-81,430	0,052	-0,012
-525,248	493,804	-0,052	-0,087
-524,233	-200,000	0,000	0,017
-523,218	17,045	0,052	0,029
-522,204	135,484	-0,052	-0,049
-521,189	-200,000	0,021	-0,091
-520,175	-87,624	-0,164	-0,035
-519,160	465,419	-0,056	-0,091
-518,145	750,225	0,072	-0,140
-517,131	-5,713	-0,032	0,016
-516,116	-200,000	0,010	-0,045
-515,102	-200,000	0,015	0,144
-514,087	-200,000	-0,007	0,080
-513,072	-15,287	0,147	0,067
-512,058	-24,069	0,089	-0,038
-511,043	-54,979	0,091	0,030
-510,029	63,345	0,080	-0,058
-509,014	-200,000	0,003	0,115
-507,999	-28,827	-0,105	0,043
-506,985	800,000	-0,052	-0,132
-505,970	-68,464	0,043	0,012
-504,956	-12,757	-0,069	-0,032
-503,941	-50,575	0,102	-0,034
-502,926	-200,000	0,020	0,117
-501,912	-200,000	-0,007	0,040
-500,897	-200,000	0,014	0,128
-499,883	-160,957	-0,086	0,003
-498,868	-145,870	0,094	0,006
-497,853	-17,535	-0,109	-0,049
-496,839	-194,935	-0,144	-0,001
-495,824	-40,687	0,144	-0,054
-494,810	287,011	0,037	0,048
-493,795	-200,000	0,001	0,118
-492,781	-200,000	0,018	0,178
-491,766	-94,546	-0,175	0,034
-490,751	169,946	0,058	-0,060
-489,737	-182,845	-0,074	0,001
-488,722	-72,656	0,141	-0,037
-487,708	289,302	0,046	0,061
-486,693	127,418	-0,089	0,082
-485,678	-135,620	-0,118	0,010
-484,664	537,778	-0,087	0,150
-483,649	-200,000	-0,021	-0,141
-482,635	174,884	0,032	-0,033
-481,620	-200,000	0,003	0,045
-480,605	641,785	0,077	-0,143
-479,591	41,195	0,046	-0,030
-478,576	110,984	-0,034	0,030
-477,562	378,332	0,046	-0,068
-476,547	-200,000	0,027	-0,111
-475,532	87,493	-0,112	-0,089
-474,518	11,778	0,048	-0,027
-473,503	-200,000	0,008	0,073
-472,489	-76,266	-0,111	0,028
-471,474	-134,968	-0,059	0,005
-470,459	-200,000	0,003	-0,076
-469,445	554,319	0,027	-0,046
-468,430	-200,000	-0,026	-0,128
-467,416	-12,451	0,036	-0,017
-466,401	800,000	-0,041	0,107
-465,386	642,687	0,060	0,110
-464,372	661,428	-0,060	0,112
-463,357	471,529	-0,083	0,135
-462,343	800,000	-0,064	-0,193
-461,328	-126,060	-0,076	0,008
-460,313	-28,322	-0,071	-0,029
-459,299	-119,668	0,064	0,008
-458,284	397,025	0,065	0,098
-457,270	-95,729	-0,042	0,008
-456,255	-200,000	-0,012	0,051
-455,241	-152,558	-0,129	0,007
-454,226	-120,268	-0,020	-0,002
-453,211	-200,000	-0,013	0,129
-452,197	456,350	0,022	-0,035
-451,182	392,062	0,028	0,042
-450,168	-61,076	0,083	-0,025
-449,153	-121,246	-0,200	-0,024
-448,138	61,770	0,090	0,065
-447,124	800,000	0,016	-0,046
-446,109	-44,929	0,035	-0,012
-445,095	-18,353	0,045	0,020
-444,080	800,000	-0,009	0,023
-443,065	-54,453	-0,122	-0,040
-442,051	-188,758	0,066	-0,001
-441,036	-200,000	0,002	0,091
-440,022	11,394	-0,111	0,061
-439,007	176,423	-0,059	0,061
-437,992	100,139	0,061	0,051
-436,978	-132,825	0,104	-0,009
-435,963	800,000	-0,025	-0,054
-434,949	-200,000	-0,016	0,077
-433,934	800,000	-0,011	-0,030
-432,919	47,675	-0,110	-0,073
-431,905	-65,186	0,069	-0,020
-430,890	-200,000	-0,033	-0,171
-429,876	554,775	0,045	0,078
-428,861	329,730	0,067	0,094
-427,846	-200,000	-0,044	0,183
-426,832	-57,531	0,056	-0,017
-425,817	800,000	0,021	-0,064
-424,803	-11,446	0,026	-0,012
-423,788	41,508	0,061	0,040
-422,773	-90,157	0,107	-0,022
-421,759	438,701	-0,053	-0,083
-420,744	-53,465	0,038	-0,013
-419,730	327,503	-0,050	-0,070
-418,715	-127,373	-0,199	-0,021
-417,701	-200,000	-0,018	-0,176
-416,686	-200,000	0,009	-0,040
-415,671	604,765	0,055	-0,099
-414,657	-5,398	0,082	0,041
-413,642	-22,652	-0,033	-0,014
-412,628	-24,261	-0,035	-0,015
-411,613	-49,383	-0,027	-0,009
-410,598	-100,848	-0,096	-0,017
-409,584	-200,000	0,007	0,037
-408,569	800,000	-0,042	0,114
-407,555	-80,026	0,119	-0,028
-406,540	397,097	0,036	0,054
-405,525	503,636	0,065	-0,108
-404,511	180,585	0,056	-0,059
-403,496	-45,441	-0,132	-0,047
-402,482	-112,289	0,077	-0,011
-401,467	-200,000	0,059	0,000
-400,452	765,783	0,064	0,126
-399,438	-24,787	-0,105	-0,045
-398,423	-14,150	-0,028	0,013
-397,409	183,126	-0,032	-0,034
-396,394	227,990	0,074	-0,086
-395,379	800,000	0,054	-0,113
-394,365	-170,424	0,135	0,003
-393,350	82,407	-0,093	-0,072
-392,336	271,185	-0,099	0,126
-391,321	-200,000	-0,029	-0,100
-390,306	-57,741	0,074	0,023
-389,292	-200,000	0,022	-0,102
-388,277	355,628	0,079	0,113
-387,263	-200,000	0,007	-0,048
-386,248	-79,530	0,096	-0,023
-385,233	447,980	0,081	0,128
-384,219	348,469	0,055	-0,079
-383,204	-70,946	-0,123	-0,033
-382,190	-200,000	0,015	-0,080
-381,175	609,854	0,086	-0,155
-380,160	-200,000	0,036	-0,131
-379,146	-200,000	-0,026	0,101
-378,131	-58,137	-0,131	0,041
-377,117	-200,000	0,007	-0,057
-376,102	106,212	-0,145	0,123
-375,088	-200,000	0,009	-0,059
-374,073	-200,000	-0,000	0,028
-373,058	-14,385	-0,055	0,025
-372,044	105,062	0,066	-0,056
-371,029	37,136	-0,094	-0,060
-370,015	-200,000	-0,004	0,023
-369,000	-179,024	0,138	-0,002
-367,985	375,562	0,091	0,133
-366,971	-200,000	-0,017	0,067
-365,956	800,000	0,033	0,076
-364,942	-115,484	0,056	0,007
-363,927	-87,077	0,162	0,035
-362,912	-200,000	0,003	-0,027
-361,898	-200,000	-0,002	-0,068
-360,883	800,000	0,033	-0,094
-359,869	-200,000	0,026	-0,100
-358,854	269,983	0,050	-0,063
-357,839	-105,717	0,101	0,016
-356,825	-200,000	0,028	0,117
-355,810	-200,000	-0,027	0,134
-354,796	62,957	-0,073	-0,052
-353,781	84,145	-0,014	0,011
-352,766	18,930	-0,170	0,098
-351,752	-35,390	-0,029	0,011
-350,737	420,487	-0,036	0,056
-349,723	-57,449	0,047	-0,015
-348,708	416,730	0,056	0,085
-347,693	800,000	-0,038	-0,111
-346,679	-200,000	-0,047	-0,178
-345,664	-61,852	-0,082	-0,024
-344,650	800,000	-0,031	-0,078
-343,635	-200,000	0,045	0,157
-342,620	56,488	0,103	-0,072
-341,606	-200,000	-0,018	0,082
-340,591	13,056	-0,244	0,135
-339,577	-200,000	0,006	-0,051
-338,562	-200,000	-0,014	-0,074
-337,548	14,622	0,031	-0,017
-336,533	519,448	0,031	0,052
-335,518	609,861	0,078	0,141
-334,504	800,000	-0,062	0,154
-333,489	53,993	0,056	-0,038
-332,475	800,000	0,068	0,158
-331,460	221,223	-0,027	-0,031
-330,445	-77,943	-0,085	-0,021
-329,431	-200,000	0,026	0,101
-328,416	-200,000	0,005	0,101
-327,402	-4,552	0,078	-0,038
-326,387	800,000	0,042	0,097
-325,372	265,778	-0,062	-0,078
-324,358	-200,000	-0,004	0,043
-323,343	-71,967	0,076	0,020
-322,329	-200,000	-0,022	0,146
-321,314	-16,726	0,062	-0,028
-320,299	-119,254	-0,079	0,010
-319,285	71,855	-0,025	0,018
-318,270	-131,511	-0,118	-0,011
-317,256	-200,000	-0,066	-0,242
-316,241	-97,624	0,053	0,010
-315,226	706,396	0,031	-0,059
-314,212	-131,450	0,058	-0,005
-313,197	113,903	0,072	0,062
-312,183	39,454	-0,010	-0,006
-311,168	-166,175	-0,191	0,006
-310,153	4,943	0,072	-0,038
-309,139	-65,476	-0,072	0,021
-308,124	-200,000	0,028	0,123
-307,110	178,825	0,142	0,148
-306,095	-81,530	0,068	-0,016
-305,080	-200,000	0,025	0,082
-304,066	-200,000	-0,012	-0,098
-303,051	-200,000	-0,013	-0,096
-302,037	-200,000	-0,000	0,009
-301,022	800,000	-0,008	-0,016
-300,008	-70,574	0,050	-0,013
-298,993	-24,754	0,026	0,011
-297,978	800,000	0,023	0,058
-296,964	-200,000	-0,049	0,180
-295,949	133,967	-0,065	-0,060
-294,935	-119,567	-0,054	0,007
-293,920	-200,000	0,000	0,058
-292,905	800,000	0,027	-0,062
-291,891	48,397	0,025	-0,017
-290,876	-200,000	-0,017	0,068
-289,862	800,000	0,026	-0,074
-288,847	507,278	0,048	-0,081
-287,832	32,856	0,038	0,024
-286,818	179,940	-0,064	-0,067
-285,803	800,000	0,036	-0,087
-284,789	137,146	0,114	0,106
-283,774	-200,000	-0,024	0,121
-282,759	-200,000	-0,013	-0,049
-281,745	16,228	-0,128	-0,072
-280,730	800,000	-0,080	-0,181
-279,716	6,855	0,085	0,045
-278,701	-200,000	-0,006	0,041
-277,686	-40,721	0,014	-0,005
-276,672	-200,000	0,010	-0,109
-275,657	602,168	-0,031	0,055
-274,643	-81,372	-0,084	0,020
-273,628	431,988	-0,039	-0,061
-272,613	800,000	0,043	-0,119
-271,599	81,450	-0,100	0,077
-270,584	-200,000	-0,021	0,120
-269,570	-158,270	0,060	0,002
-268,555	-48,889	0,123	0,042
-267,540	82,669	0,073	-0,056
-266,526	-13,638	-0,026	0,012
-265,511	800,000	0,077	0,155
-264,497	800,000	-0,069	0,144
-263,482	-200,000	0,001	-0,041
-262,467	-200,000	-0,008	0,065
-261,453	-87,796	0,104	0,022
-260,438	-200,000	-0,032	0,110
-259,424	-56,603	-0,064	0,020
-258,409	-110,302	-0,117	-0,017
-257,395	731,247	0,056	0,108
-256,380	193,899	0,135	0,146
-255,365	80,800	0,089	0,068
-254,351	-90,258	-0,081	0,017
-253,336	88,025	-0,163	0,129
-252,322	800,000	0,061	-0,173
-251,307	357,419	-0,025	0,036
-250,292	-66,299	0,062	-0,017
-249,278	50,916	0,121	-0,082
-248,263	-200,000	-0,017	0,119
-247,249	-170,589	0,150	0,004
-246,234	-125,124	0,046	-0,005
-245,219	-77,074	0,075	0,019
-244,205	334,188	-0,072	-0,100
-243,190	97,486	-0,045	0,037
-242,176	-89,227	0,099	0,021
-241,161	120,386	0,122	0,108
-240,146	-58,244	0,036	-0,011
-239,132	-200,000	0,006	0,079
-238,117	800,000	0,021	-0,061
-237,103	-162,271	-0,066	-0,002
-236,088	264,558	-0,080	-0,099
-235,073	194,197	0,016	-0,017
-234,059	87,762	-0,045	0,036
-233,044	-200,000	-0,001	-0,061
-232,030	-124,912	-0,073	-0,008
-231,015	349,306	-0,008	0,011
-230,000	-50,848	-0,112	-0,037
-228,986	74,806	0,031	-0,023
-227,971	189,056	0,110	0,117
-226,957	239,616	0,119	0,141
-225,942	364,087	0,032	0,046
-224,927	-53,168	0,097	-0,031
-223,913	-5,387	0,085	0,041
-222,898	-7,625	-0,054	-0,026
-221,884	591,393	-0,042	-0,074
-220,869	-200,000	0,004	0,184
-219,855	-8,174	-0,059	0,028
-218,840	28,677	0,137	-0,082
-217,825	-9,951	-0,087	0,041
-216,811	-71,339	-0,056	0,015
-215,796	-106,480	0,066	-0,010
-214,782	145,718	-0,057	0,055
-213,767	278,566	0,043	0,055
-212,752	-200,000	0,006	0,042
-211,738	241,914	-0,047	0,057
-210,723	800,000	-0,056	0,118
-209,709	-94,194	0,111	0,021
-208,694	-192,828	-0,082	0,001
-207,679	-200,000	-0,025	0,083
-206,665	152,663	0,035	0,035
-205,650	800,000	-0,029	0,057
-204,636	127,265	0,104	0,094
-203,621	125,619	0,118	0,106
-202,606	-200,000	-0,035	-0,143
-201,592	-200,000	0,005	-0,100
-200,577	457,536	0,064	-0,102
-199,563	-84,548	-0,043	0,010
-198,548	-200,000	0,033	0,110
-197,533	397,727	-0,032	0,048
-196,519	-153,646	-0,022	0,001
-195,504	-172,113	-0,176	0,004
-194,490	356,015	-0,033	-0,047
-193,475	593,721	0,057	-0,101
-192,460	325,029	0,128	-0,175
-191,446	116,166	0,131	-0,114
-190,431	57,041	0,010	0,007
-189,417	689,161	0,088	0,165
-188,402	800,000	-0,065	-0,192
-187,387	26,707	0,073	-0,044
-186,373	-200,000	-0,025	-0,160
-185,358	2,764	0,024	0,012
-184,344	-34,438	-0,032	-0,012
-183,329	-200,000	0,028	0,162
-182,315	14,572	-0,027	-0,015
-181,300	-200,000	0,021	-0,097
-180,285	-121,751	-0,087	-0,010
-179,271	-98,451	0,173	0,031
-178,256	597,794	0,040	0,071
-177,242	-200,000	0,016	0,066
-176,227	-45,838	0,128	0,045
-175,212	-5,411	0,072	-0,035
-174,198	-68,257	0,083	0,023
-173,183	-55,201	-0,148	-0,047
-172,169	-12,695	-0,101	-0,047
-171,154	94,132	0,047	-0,038
-170,139	-200,000	-0,015	0,070
-169,125	209,991	-0,055	0,061
-168,110	63,762	0,086	0,062
-167,096	800,000	0,031	-0,079
-166,081	-200,000	-0,003	-0,096
-165,066	525,265	0,045	-0,075
-164,052	800,000	-0,024	-0,054
-163,037	-165,097	-0,037	0,001
-162,023	644,568	0,051	0,092
-161,008	-76,086	0,124	-0,031
-159,993	8,839	0,067	0,036
-158,979	760,383	-0,051	0,099
-157,964	-200,000	-0,040	-0,149
-156,950	-28,226	-0,149	-0,061
-155,935	-200,000	0,019	0,081
-154,920	-37,033	0,154	0,059
-153,906	-107,908	0,054	-0,008
-152,891	293,477	-0,116	-0,151
-151,877	420,940	0,011	0,017
-150,862	800,000	-0,028	0,080
-149,847	-155,017	-0,104	-0,005
-148,833	341,347	-0,052	-0,073
-147,818	-107,999	0,098	-0,015
-146,804	611,984	0,083	0,148
-145,789	-200,000	0,008	0,070
-144,775	-200,000	0,032	0,121
-143,760	800,000	-0,042	0,103
-142,745	-64,542	-0,223	0,064
-141,731	800,000	-0,028	-0,089
-140,716	7,578	0,076	-0,041
-139,702	51,834	0,052	0,035
-138,687	105,137	0,041	-0,034
-137,672	-200,000	-0,002	0,020
-136,658	187,126	0,028	-0,029
-135,643	-73,065	-0,183	-0,047
-134,629	89,548	-0,100	0,080
-133,614	108,220	0,023	-0,020
-132,599	325,771	0,079	0,108
-131,585	-200,000	-0,003	-0,056
-130,570	-142,034	0,071	0,005
-129,556	-80,931	-0,150	-0,035
-128,541	162,814	-0,080	-0,079
-127,526	800,000	0,037	-0,096
-126,512	11,751	-0,061	0,033
-125,497	10,977	-0,066	-0,036
-124,483	-182,668	0,125	0,002
-123,468	-200,000	0,036	-0,137
-122,453	-200,000	0,025	-0,103
-121,439	136,666	-0,060	-0,055
-120,424	-30,535	0,099	0,040
-119,410	336,668	-0,046	0,063
-118,395	19,874	0,080	-0,046
-117,380	800,000	-0,009	-0,023
-116,366	-182,710	-0,100	0,001
-115,351	163,276	-0,021	0,020
-114,337	800,000	-0,026	-0,053
-113,322	-128,211	-0,144	0,014
-112,307	267,651	0,060	0,074
-111,293	16,976	-0,146	-0,082
-110,278	-31,408	0,042	-0,017
-109,264	18,586	0,085	0,048
-108,249	171,644	-0,068	-0,069
-107,234	570,154	-0,083	-0,144
-106,220	249,541	-0,042	-0,050
-105,205	121,083	0,039	0,035
-104,191	-88,857	0,040	0,008
-103,176	498,843	-0,089	0,146
-102,162	-155,795	0,069	0,003
-101,147	-200,000	-0,007	-0,043
-100,132	-200,000	-0,036	0,122
-99,118	-21,140	0,068	-0,030
-98,103	-200,000	0,017	-0,127
-97,089	-82,961	-0,069	0,016
-96,074	-200,000	0,003	0,079
-95,059	326,516	0,063	-0,086
-94,045	651,447	-0,015	-0,028
-93,030	-27,487	-0,050	0,021
-92,016	672,994	-0,015	-0,028
-91,001	16,718	0,165	-0,092
-89,986	66,103	-0,115	0,083
-88,972	281,308	0,066	0,084
-87,957	13,106	0,029	-0,016
-86,943	-200,000	0,024	0,095
-85,928	382,810	-0,065	0,096
-84,913	436,757	0,028	0,043
-83,899	56,917	0,106	-0,073
-82,884	-123,539	0,132	0,015
-81,870	-200,000	0,017	-0,064
-80,855	-50,151	-0,083	0,028
-79,840	800,000	-0,046	-0,096
-78,826	224,657	-0,065	-0,074
-77,811	246,889	-0,044	-0,053
-76,797	-200,000	0,011	0,106
-75,782	-200,000	-0,005	0,023
-74,767	219,127	-0,036	-0,041
-73,753	426,418	-0,056	-0,087
-72,738	94,612	-0,160	0,129
-71,724	-200,000	0,010	0,085
-70,709	-200,000	0,012	-0,041
-69,694	13,561	-0,069	0,038
-68,680	75,143	0,060	0,045
-67,665	-200,000	0,019	0,104
-66,651	-134,611	0,147	0,013
-65,636	-200,000	0,020	-0,132
-64,622	-99,900	-0,073	0,013
-63,607	239,821	-0,047	-0,056
-62,592	-200,000	-0,019	0,093
-61,578	238,618	0,138	0,163
-60,563	-200,000	-0,021	0,071
-59,549	800,000	0,007	0,022
-58,534	-43,091	-1,459	-0,521
-57,519	444,329	-1,468	-2,291
-56,505	-200,000	-0,473	-4,620
-55,490	165,520	1,016	1,019
-54,476	800,000	4,676	10,925
-53,461	-200,000	18,000	285,505
-52,446	800,000	726,523	2224,261
-51,432	555,693	1642,057	2813,262
-50,417	79,408	1664,313	1263,810
-49,403	23,029	1538,162	892,026
-48,388	17,035	1461,582	818,579
-47,373	17,922	1451,370	817,104
-46,359	17,346	1441,960	809,015
-45,344	15,325	1437,170	796,648
-44,330	15,273	1435,129	795,235
-43,315	15,250	1433,414	794,146
-42,300	15,266	1431,939	793,371
-41,286	15,269	1430,787	792,716
-40,271	15,302	1429,560	792,162
-39,257	15,205	1428,321	790,985
-38,242	15,287	1426,799	790,497
-37,227	15,347	1425,641	790,112
-36,213	15,341	1424,320	789,317
-35,198	15,293	1423,211	788,447
-34,184	15,329	1422,353	788,111
-33,169	15,260	1421,134	787,078
-32,154	15,311	1420,239	786,789
-31,140	15,310	1418,654	785,876
-30,125	15,387	1417,464	785,549
-29,111	15,313	1416,432	784,595
-28,096	15,266	1415,440	783,794
-27,082	15,238	1414,191	782,941
-26,067	15,250	1413,149	782,392
-25,052	15,240	1412,117	781,739
-24,038	15,215	1410,991	780,970
-23,023	15,243	1409,981	780,507
-22,009	15,237	1409,060	779,941
-20,994	15,192	1408,139	779,188
-19,979	15,172	1407,240	778,570
-18,965	15,131	1406,250	777,800
-17,950	15,150	1405,280	777,317
-16,936	15,170	1404,385	776,885
-15,921	15,100	1403,196	775,871
-14,906	15,074	1402,592	775,386
-13,892	15,140	1401,490	775,052
-12,877	15,114	1400,374	774,283
-11,863	15,136	1399,748	774,008
-10,848	15,127	1398,651	773,332
-9,833	15,100	1397,963	772,796
-8,819	15,093	1396,772	772,071
-7,804	15,076	1395,711	771,376
-6,790	15,023	1394,794	770,594
-5,775	15,070	1393,729	770,189
-4,760	15,031	1393,095	769,633
-3,746	15,015	1392,401	769,145
-2,731	15,045	1391,480	768,742
-1,717	14,989	1390,577	767,956
-0,702	15,058	1388,501	767,097
0,313	18,828	1308,374	740,291
1,327	35,227	707,418	438,323
2,342	53,957	124,923	84,913
3,356	3,507	16,650	8,567
4,371	-7,217	3,034	1,452
5,386	-169,658	0,686	0,017
6,400	800,000	0,014	-0,032
7,415	24,121	-0,307	-0,179
8,429	-9,369	-0,359	-0,169
9,444	-14,466	-0,377	-0,171
10,459	130,236	-0,279	-0,252
11,473	123,300	-0,252	-0,224
12,488	37,850	-0,244	-0,153
13,502	1,893	-0,401	-0,204
14,517	200,929	-0,233	-0,254
15,531	68,052	-0,434	-0,314
16,546	-23,086	-0,319	-0,135
17,561	196,797	-0,338	-0,365
18,575	-15,760	-0,212	-0,095
19,590	88,982	-0,250	-0,197
20,604	-3,114	-0,313	-0,154
21,619	13,985	-0,307	-0,168
22,634	54,639	-0,435	-0,296
23,648	208,535	-0,347	-0,384
24,663	82,446	-0,421	-0,323
25,677	154,493	-0,283	-0,274
26,692	6,410	-0,411	-0,215
27,707	-19,775	-0,283	-0,123
28,721	6,424	-0,495	-0,259
29,736	135,642	-0,402	-0,370
30,750	140,298	-0,358	-0,334
31,765	80,285	-0,355	-0,269
32,780	92,197	-0,419	-0,333
33,794	24,383	-0,411	-0,239
34,809	84,479	-0,310	-0,240
35,823	33,045	-0,365	-0,223
36,838	157,154	-0,296	-0,289
37,853	57,205	-0,457	-0,314
38,867	124,073	-0,346	-0,307
39,882	77,973	-0,397	-0,298
40,896	99,369	-0,313	-0,255
41,911	10,635	-0,324	-0,174
42,926	19,962	-0,480	-0,272
43,940	150,007	-0,438	-0,420
44,955	110,159	-0,410	-0,348
45,969	11,754	-0,432	-0,233
46,984	204,870	-0,386	-0,423
47,999	-37,118	-0,368	-0,138
49,013	-66,201	-0,382	-0,107
50,028	271,990	-0,248	-0,309
51,042	29,006	-0,401	-0,239
52,057	109,089	-0,379	-0,320
53,071	-3,385	-0,323	-0,158
54,086	61,751	-0,268	-0,188
55,101	180,535	-0,339	-0,352
56,115	44,969	-0,345	-0,223
57,130	143,349	-0,315	-0,296
58,144	70,699	-0,320	-0,233
59,159	74,950	-0,334	-0,248
60,174	240,898	-0,267	-0,315
61,188	100,561	-0,402	-0,329
62,203	-93,171	-0,419	-0,081
63,217	-58,483	-0,398	-0,121
64,232	43,699	-0,325	-0,209
65,247	99,229	-0,356	-0,290
66,261	20,713	-0,424	-0,241
67,276	127,406	-0,372	-0,332
68,290	-18,545	-0,361	-0,158
69,305	-59,486	-0,352	-0,106
70,320	95,438	-0,220	-0,177
71,334	-9,757	-0,394	-0,184
72,349	185,386	-0,206	-0,215
73,363	8,235	-0,450	-0,237
74,378	118,032	-0,251	-0,218
75,393	142,726	-0,311	-0,291
76,407	54,433	-0,271	-0,183
77,422	50,041	-0,191	-0,127
78,436	5,385	-0,386	-0,199
79,451	38,182	-0,289	-0,181
80,466	118,087	-0,291	-0,253
81,480	88,977	-0,242	-0,189
82,495	671,940	-0,183	-0,334
83,509	80,937	-0,300	-0,227
84,524	51,553	-0,279	-0,186
85,539	-106,131	-0,388	-0,061
86,553	-21,234	-0,303	-0,130
87,568	1,228	-0,293	-0,147
88,582	36,082	-0,322	-0,199
89,597	51,255	-0,289	-0,193
90,611	96,347	-0,275	-0,221
91,626	72,309	-0,310	-0,227
92,641	63,102	-0,372	-0,261
93,655	45,692	-0,385	-0,250
94,670	113,595	-0,339	-0,289
95,684	6,748	-0,352	-0,184
96,699	121,510	-0,354	-0,310
97,714	439,080	-0,225	-0,346
98,728	-45,589	-0,193	-0,067
99,743	88,649	-0,206	-0,161
100,757	40,240	-0,385	-0,243
101,772	567,225	-0,156	-0,267
102,787	165,244	-0,209	-0,208
103,801	76,035	-0,354	-0,263
104,816	102,183	-0,297	-0,243
105,830	424,419	-0,138	-0,209
106,845	-11,155	-0,185	-0,085
107,860	-65,068	-0,226	-0,064
108,874	77,714	-0,275	-0,205
109,889	45,652	-0,331	-0,214
110,903	100,117	-0,377	-0,306
111,918	4,143	-0,258	-0,132
112,933	188,373	-0,088	-0,093
113,947	-48,643	-0,237	-0,079
114,962	39,512	-0,254	-0,159
115,976	379,880	-0,128	-0,184
116,991	-91,740	-0,297	-0,059
118,006	108,005	-0,195	-0,163
119,020	65,867	-0,189	-0,134
120,035	-20,807	-0,271	-0,116
121,049	200,206	-0,201	-0,216
122,064	-13,483	-0,175	-0,079
123,079	-172,041	-0,342	-0,008
124,093	57,244	-0,302	-0,206
125,108	119,792	-0,256	-0,222
126,122	101,588	-0,346	-0,282
127,137	63,623	-0,277	-0,195
128,151	78,027	-0,180	-0,134
129,166	-143,351	-0,331	-0,022
130,181	223,324	-0,157	-0,178
131,195	-44,422	-0,189	-0,066
132,210	-0,015	-0,238	-0,118
133,224	453,579	-0,117	-0,182
134,239	39,996	-0,140	-0,088
135,254	57,058	-0,228	-0,156
136,268	176,752	-0,174	-0,177
137,283	-200,000	-0,060	-0,350
138,297	107,576	-0,265	-0,220
139,312	79,165	-0,369	-0,277
140,327	9,186	-0,330	-0,174
141,341	1,465	-0,338	-0,170
142,356	219,772	-0,132	-0,149
143,370	21,031	-0,303	-0,172
144,385	-96,970	-0,245	-0,044
145,400	124,501	-0,280	-0,246
146,414	-81,456	-0,357	-0,082
147,429	800,000	-0,061	-0,157
148,443	-0,423	-0,336	-0,167
149,458	80,174	-0,293	-0,220
150,473	-63,125	-0,237	-0,068
151,487	118,764	-0,264	-0,228
152,502	83,941	-0,313	-0,239
153,516	43,659	-0,319	-0,204
154,531	116,835	-0,206	-0,177
155,546	99,833	-0,252	-0,204
156,560	656,932	-0,131	-0,236
157,575	59,624	-0,211	-0,145
158,589	-44,325	-0,281	-0,098
159,604	339,616	-0,258	-0,352
160,619	10,775	-0,299	-0,159
161,633	54,292	-0,208	-0,140
162,648	449,436	-0,143	-0,221
163,662	67,213	-0,229	-0,163
164,677	259,320	-0,212	-0,256
165,692	-5,150	-0,289	-0,138
166,706	347,527	-0,104	-0,143
167,721	45,601	-0,339	-0,218
168,735	285,930	-0,289	-0,365
169,750	291,388	-0,179	-0,228
170,764	87,467	-0,220	-0,169
171,779	77,376	-0,248	-0,184
172,794	32,066	-0,231	-0,139
173,808	36,518	-0,202	-0,124
174,823	57,710	-0,227	-0,155
175,837	83,265	-0,310	-0,235
176,852	33,409	-0,245	-0,148
177,867	55,166	-0,171	-0,115
178,881	19,440	-0,236	-0,132
179,896	29,395	-0,197	-0,116
180,910	-14,548	-0,224	-0,100
181,925	77,819	-0,273	-0,203
182,940	171,021	-0,218	-0,218
183,954	109,716	-0,201	-0,168
184,969	132,564	-0,195	-0,175
185,983	-109,508	-0,111	-0,016
186,998	288,435	-0,209	-0,264
188,013	-98,729	-0,256	-0,045
189,027	52,602	-0,288	-0,191
190,042	120,818	-0,216	-0,187
191,056	390,313	-0,171	-0,248
192,071	314,189	-0,290	-0,382
193,086	20,988	-0,199	-0,112
194,100	-41,938	-0,071	-0,025
195,115	-69,676	-0,247	-0,065
196,129	-125,263	-0,229	-0,024
197,144	91,369	-0,211	-0,165
198,159	-133,921	-0,335	-0,029
199,173	57,964	-0,232	-0,158
200,188	137,944	-0,236	-0,215
201,202	6,328	-0,121	-0,062
202,217	29,364	-0,211	-0,125
203,232	-9,859	-0,220	0,102
204,246	74,377	-0,208	-0,152
205,261	14,960	-0,237	-0,129
206,275	14,891	-0,201	-0,109
207,290	-5,448	-0,249	-0,118
208,304	-2,581	-0,139	0,067
209,319	99,226	-0,142	-0,114
210,334	612,181	-0,198	-0,346
211,348	127,637	-0,145	-0,128
212,363	-200,000	-0,087	-0,287
213,377	151,041	-0,120	-0,113
214,392	331,812	-0,158	-0,212
215,407	132,788	-0,201	-0,181
216,421	152,435	-0,189	-0,179
217,436	-23,341	-0,212	-0,088
218,450	-37,692	-0,194	-0,072
219,465	125,992	-0,232	-0,204
220,480	-117,008	-0,203	-0,025
221,494	322,854	-0,144	-0,192
222,509	-200,000	-0,050	-0,217
223,523	191,547	-0,126	-0,132
224,538	22,756	-0,143	-0,081
225,553	185,741	-0,171	-0,176
226,567	100,474	-0,215	-0,173
227,582	85,756	-0,174	-0,133
228,596	5,636	-0,237	-0,121
229,611	800,000	-0,062	-0,147
230,626	93,187	-0,180	-0,142
231,640	230,456	-0,176	-0,200
232,655	800,000	-0,101	-0,234
233,669	128,824	-0,308	-0,272
234,684	175,458	-0,243	-0,244
235,699	118,218	-0,150	-0,128
236,713	177,169	-0,167	-0,169
237,728	790,822	-0,133	-0,255
238,742	800,000	-0,059	-0,174
239,757	-78,574	-0,344	-0,081
240,772	783,502	-0,123	-0,235
241,786	257,843	-0,214	-0,256
242,801	205,943	-0,121	-0,131
243,815	18,848	-0,094	-0,052
244,830	183,724	-0,180	-0,184
245,844	123,401	-0,176	-0,153
246,859	800,000	-0,097	-0,257
247,874	149,639	-0,204	-0,192
248,888	41,178	-0,210	-0,131
249,903	563,831	-0,115	-0,194
250,917	-12,179	-0,220	-0,099
251,932	33,022	-0,207	-0,124
252,947	481,392	-0,109	-0,172
253,961	800,000	-0,076	-0,213
254,976	-200,000	-0,050	-0,175
255,990	62,159	-0,215	-0,149
257,005	381,445	-0,090	-0,128
258,020	227,111	-0,088	-0,099
259,034	622,677	-0,038	0,067
260,049	-119,681	-0,097	-0,011
261,063	45,682	-0,262	-0,167
262,078	76,897	-0,272	-0,200
263,093	151,921	-0,215	-0,203
264,107	-44,002	-0,202	-0,070
265,122	-91,223	-0,301	-0,059
266,136	-200,000	-0,023	-0,090
267,151	-22,863	-0,255	-0,106
268,166	142,520	-0,224	-0,206
269,180	147,595	-0,219	-0,204
270,195	110,991	-0,239	-0,199
271,209	193,352	-0,149	-0,157
272,224	222,584	-0,113	-0,126
273,239	-200,000	-0,016	-0,180
274,253	400,134	-0,137	-0,199
275,268	53,677	-0,209	-0,138
276,282	800,000	-0,093	-0,242
277,297	800,000	-0,054	-0,114
278,312	301,327	-0,136	-0,174
279,326	254,600	-0,110	-0,130
280,341	800,000	-0,056	-0,120
281,355	-28,650	-0,150	-0,059
282,370	-140,953	-0,289	-0,020
283,384	112,652	-0,177	-0,148
284,399	511,739	-0,172	-0,278
285,414	352,081	-0,149	-0,205
286,428	-134,890	-0,096	-0,008
287,443	-150,825	-0,189	-0,010
288,457	-109,631	-0,202	-0,029
289,472	-10,566	-0,127	-0,058
290,487	133,420	-0,201	-0,180
291,501	149,821	-0,280	-0,262
292,516	165,434	-0,209	-0,204
293,530	-131,991	-0,249	-0,022
294,545	-111,464	-0,246	-0,034
295,560	-22,973	-0,178	-0,074
296,574	-58,281	-0,207	-0,062
297,589	31,202	-0,203	-0,120
298,603	50,878	-0,197	-0,129
299,618	59,702	-0,233	-0,158
300,633	1,600	-0,189	-0,093
301,647	-36,230	-0,100	-0,037
302,662	-46,725	-0,156	-0,052
303,676	-134,216	-0,119	0,010
304,691	-0,745	-0,247	-0,120
305,706	102,472	-0,170	-0,137
306,720	233,371	-0,052	-0,059
307,735	459,887	-0,146	-0,225
308,749	-31,679	-0,123	-0,047
309,764	-85,412	-0,188	-0,040
310,779	5,107	-0,247	-0,125
311,793	364,800	-0,108	-0,150
312,808	800,000	-0,082	-0,159
313,822	24,191	-0,088	-0,050
314,837	43,697	-0,075	0,047
315,852	-69,609	-0,079	0,021
316,866	-6,461	-0,152	0,071
317,881	0,918	-0,128	-0,063
318,895	0,201	-0,159	-0,078
319,910	488,747	-0,069	-0,108
320,925	10,756	-0,157	-0,082
321,939	800,000	-0,036	-0,080
322,954	118,780	-0,137	-0,117
323,968	31,133	-0,134	-0,079
324,983	-34,248	-0,163	-0,061
325,997	-16,884	-0,126	-0,055
327,012	-15,070	-0,139	-0,061
328,027	-113,142	-0,122	-0,016
329,041	130,804	-0,198	-0,175
330,056	-169,618	-0,056	0,001
331,070	-112,184	-0,122	0,017
332,085	-200,000	-0,003	-0,055
333,100	-1,282	-0,141	-0,068
334,114	-178,505	-0,232	-0,004
335,129	-3,069	-0,131	-0,063
336,143	-200,000	-0,010	-0,190
337,158	800,000	-0,062	-0,161
338,173	-200,000	0,007	-0,043
339,187	484,526	-0,160	-0,251
340,202	-82,555	-0,123	-0,027
341,216	327,908	-0,135	-0,178
342,231	-116,270	-0,175	-0,022
343,246	-200,000	-0,025	-0,091
344,260	-104,111	-0,219	-0,035
345,275	800,000	-0,028	-0,085
346,289	100,315	-0,107	-0,085
347,304	-47,437	-0,104	-0,035
348,319	-79,456	-0,186	-0,043
349,333	-125,018	-0,212	-0,022
350,348	320,794	-0,137	-0,179
351,362	800,000	-0,097	-0,230
352,377	101,356	-0,114	-0,091
353,392	-42,019	-0,081	0,028
354,406	433,023	-0,034	-0,051
355,421	210,602	1315,006	1420,324
356,435	162,135	1475,784	1420,834
