DTS Sentinel unit serial number:	SN410029Multiplexer serial number:	ORYXHardware model number:	OX2-SRSoftware version number:	ORYX F/W v4,00 Oryx Data Collector v3.7.2.0data status	okinstallation	B3 Nyhavnadifferential loss correction	single-endedforward channel	channel 1reverse channel	N/Adate	2023/12/02time	10:42:30forward acquisition time	300,00reverse acquisition time	0,00gamma	499,1914k internal	0,3196k external	0,3196temperature offset calibration	1,0000default loss term (dB/km)	0,3820temperature slope calibration	1,0000multiplexer offset coefficient	1,0000multiplexer slope coefficient	1,0000fibre end	0,00T internal ref (°C)	14,39T ext. ref 1 (°C)	-1,22T ext. ref 2 (°C)	-1,25length (m)	temperature (°C)	Stokes	anti-Stokes-744,400	91,694	-0,179	-0,147
-743,385	800,000	0,094	0,248
-742,371	96,138	-0,295	-0,246
-741,356	-200,000	-0,049	0,297
-740,342	87,460	-0,180	-0,145
-739,327	-200,000	0,013	0,132
-738,312	475,811	-0,253	-0,418
-737,298	-200,000	0,008	0,338
-736,283	254,560	-0,261	-0,325
-735,269	196,163	-0,136	0,150
-734,254	107,974	-0,271	-0,235
-733,239	-154,726	-0,211	-0,010
-732,225	-200,000	-0,067	-0,273
-731,210	668,662	0,162	0,306
-730,196	-9,199	-0,172	-0,083
-729,181	-129,387	-0,133	0,013
-728,167	-200,000	0,020	0,080
-727,152	675,810	0,030	0,057
-726,137	217,835	-0,106	-0,123
-725,123	465,137	-0,041	-0,067
-724,108	136,723	-0,098	-0,093
-723,094	-200,000	0,001	-0,098
-722,079	86,252	-0,010	-0,008
-721,064	283,326	0,067	-0,087
-720,050	-37,917	-0,045	-0,017
-719,035	152,748	-0,005	0,005
-718,021	374,251	-0,036	0,053
-717,006	242,094	-0,092	0,113
-715,991	-16,777	0,038	-0,017
-714,977	-200,000	0,027	-0,088
-713,962	-200,000	-0,008	0,071
-712,948	101,079	-0,040	-0,034
-711,933	-76,409	0,043	0,011
-710,918	-200,000	-0,001	-0,120
-709,904	800,000	-0,023	-0,062
-708,889	-167,664	-0,207	0,006
-707,875	800,000	-0,027	-0,058
-706,860	-92,569	0,087	-0,018
-705,845	-71,067	0,074	-0,020
-704,831	-105,616	-0,095	-0,015
-703,816	26,556	-0,106	-0,064
-702,802	106,121	0,098	-0,084
-701,787	661,926	0,082	-0,153
-700,772	-185,810	-0,029	-0,000
-699,758	800,000	-0,012	0,024
-698,743	800,000	-0,027	0,056
-697,729	-136,984	-0,090	-0,007
-696,714	-200,000	-0,026	0,114
-695,699	-21,776	-0,220	-0,097
-694,685	800,000	-0,026	-0,080
-693,670	419,787	-0,052	-0,082
-692,656	-200,000	-0,049	-0,291
-691,641	-200,000	-0,002	-0,032
-690,627	474,021	0,055	-0,090
-689,612	7,772	-0,060	0,032
-688,597	493,500	-0,078	-0,130
-687,583	-124,449	-0,183	-0,020
-686,568	-200,000	-0,002	-0,064
-685,554	-10,159	0,102	0,049
-684,539	-200,000	-0,061	-0,236
-683,524	186,588	0,082	0,089
-682,510	-200,000	-0,021	-0,182
-681,495	197,191	-0,013	-0,015
-680,481	-200,000	0,010	-0,099
-679,466	-54,866	-0,072	-0,024
-678,451	509,288	-0,045	-0,077
-677,437	800,000	-0,042	-0,101
-676,422	-26,250	0,080	-0,034
-675,408	-200,000	0,012	0,158
-674,393	-42,718	0,069	0,026
-673,378	-200,000	0,005	0,041
-672,364	-200,000	-0,024	-0,108
-671,349	97,206	-0,080	-0,067
-670,335	3,046	-0,017	-0,009
-669,320	-200,000	-0,018	0,078
-668,305	33,933	-0,053	-0,033
-667,291	-200,000	-0,010	-0,061
-666,276	98,663	-0,044	-0,037
-665,262	-200,000	-0,005	-0,114
-664,247	800,000	-0,079	-0,160
-663,232	-200,000	0,002	-0,158
-662,218	800,000	0,048	0,128
-661,203	-200,000	-0,041	0,234
-660,189	-55,983	0,041	-0,013
-659,174	53,512	0,036	0,025
-658,159	221,680	-0,060	-0,071
-657,145	433,680	0,013	-0,020
-656,130	124,971	-0,052	0,048
-655,116	-18,248	0,192	0,087
-654,101	-200,000	0,003	0,030
-653,086	24,032	-0,018	-0,011
-652,072	-200,000	0,005	-0,060
-651,057	39,491	0,088	-0,057
-650,043	800,000	-0,041	0,102
-649,028	-54,087	0,107	-0,035
-648,014	-26,188	-0,039	-0,017
-646,999	-112,657	-0,060	-0,009
-645,984	340,381	-0,051	-0,072
-644,970	56,540	-0,039	-0,028
-643,955	-195,360	-0,107	0,001
-642,941	129,813	-0,053	-0,050
-641,926	-200,000	0,017	0,162
-640,911	-200,000	0,002	0,083
-639,897	3,162	-0,111	-0,058
-638,882	450,580	-0,063	0,101
-637,868	8,296	-0,042	-0,023
-636,853	-200,000	0,018	-0,061
-635,838	-37,467	-0,140	-0,054
-634,824	-200,000	0,018	-0,132
-633,809	89,741	0,059	-0,048
-632,795	767,330	0,031	0,061
-631,780	-181,126	0,093	0,001
-630,765	161,149	0,034	0,035
-629,751	633,677	-0,010	0,019
-628,736	197,830	0,096	0,107
-627,722	-200,000	0,000	0,071
-626,707	-34,367	-0,072	0,029
-625,692	-108,611	0,155	0,024
-624,678	207,429	-0,104	0,118
-623,663	-89,354	-0,095	0,020
-622,649	282,125	-0,110	-0,143
-621,634	131,474	0,054	-0,050
-620,619	800,000	0,008	0,019
-619,605	800,000	-0,043	-0,097
-618,590	800,000	0,025	0,073
-617,576	800,000	-0,037	0,080
-616,561	800,000	0,009	-0,026
-615,546	800,000	0,071	-0,206
-614,532	-28,789	-0,018	-0,007
-613,517	-111,638	-0,093	0,014
-612,503	-33,763	-0,035	-0,014
-611,488	-11,489	-0,114	0,054
-610,474	-146,399	0,137	0,009
-609,459	-200,000	-0,034	0,155
-608,444	147,182	-0,108	-0,106
-607,430	95,758	0,043	-0,035
-606,415	-115,105	-0,133	-0,018
-605,401	206,200	0,099	0,112
-604,386	-46,114	0,080	0,029
-603,371	335,308	-0,094	0,132
-602,357	-200,000	-0,017	0,086
-601,342	800,000	0,025	0,065
-600,328	800,000	-0,028	-0,074
-599,313	396,071	-0,050	-0,076
-598,298	800,000	0,035	0,089
-597,284	-200,000	-0,034	0,165
-596,269	-200,000	-0,007	0,084
-595,255	-200,000	0,009	-0,090
-594,240	-200,000	0,021	-0,205
-593,225	-110,543	-0,142	-0,021
-592,211	130,234	0,099	0,092
-591,196	542,940	0,076	-0,131
-590,182	57,428	0,163	-0,115
-589,167	800,000	-0,025	-0,069
-588,152	800,000	-0,050	-0,110
-587,138	289,143	0,032	-0,042
-586,123	155,785	-0,032	-0,032
-585,109	9,425	-0,131	-0,072
-584,094	523,742	0,055	0,094
-583,079	-27,228	0,137	-0,057
-582,065	34,838	-0,095	0,060
-581,050	64,394	0,046	-0,034
-580,036	116,715	-0,088	0,078
-579,021	-200,000	-0,002	0,052
-578,006	-105,298	-0,068	0,011
-576,992	58,896	0,088	0,063
-575,977	800,000	0,045	0,136
-574,963	-112,932	-0,021	-0,003
-573,948	-42,171	0,066	0,024
-572,934	269,038	0,022	0,028
-571,919	-200,000	-0,036	-0,174
-570,904	-82,111	0,082	0,019
-569,890	12,761	0,133	-0,074
-568,875	-200,000	0,011	-0,037
-567,861	-75,790	-0,045	-0,012
-566,846	416,909	0,077	0,120
-565,831	-35,081	0,148	-0,058
-564,817	800,000	0,005	0,012
-563,802	-200,000	-0,008	-0,032
-562,788	-103,721	-0,142	-0,024
-561,773	93,205	-0,096	-0,079
-560,758	800,000	-0,038	0,095
-559,744	-114,134	0,120	-0,017
-558,729	13,264	-0,058	0,032
-557,715	-91,746	-0,040	0,008
-556,700	800,000	0,072	-0,163
-555,685	-108,549	-0,089	0,014
-554,671	-200,000	0,035	-0,141
-553,656	37,829	-0,023	-0,015
-552,642	-47,237	0,066	0,023
-551,627	371,413	0,076	-0,112
-550,612	-124,044	0,021	0,002
-549,598	572,268	-0,043	0,075
-548,583	555,052	-0,035	0,061
-547,569	800,000	0,036	-0,080
-546,554	800,000	0,029	0,059
-545,539	243,684	0,031	0,038
-544,525	325,471	0,114	0,158
-543,510	323,003	-0,070	0,096
-542,496	-184,869	-0,259	-0,003
-541,481	496,203	-0,073	-0,121
-540,466	133,201	0,074	0,069
-539,452	-200,000	0,003	-0,044
-538,437	-105,475	0,154	0,025
-537,423	292,842	0,058	-0,077
-536,408	440,344	-0,076	-0,121
-535,393	-78,851	0,065	-0,016
-534,379	-75,923	-0,155	-0,039
-533,364	800,000	-0,018	0,056
-532,350	-119,985	0,122	0,015
-531,335	-200,000	0,004	0,024
-530,321	217,271	0,085	0,098
-529,306	153,701	-0,128	-0,127
-528,291	150,183	0,013	0,013
-527,277	22,752	0,089	-0,052
-526,262	383,817	-0,029	-0,043
-525,248	9,786	0,073	0,040
-524,233	268,603	0,066	0,083
-523,218	-200,000	0,009	-0,081
-522,204	-173,821	0,078	0,002
-521,189	800,000	0,016	0,036
-520,175	247,314	-0,115	-0,141
-519,160	61,369	-0,078	-0,056
-518,145	204,899	-0,045	-0,050
-517,131	800,000	-0,104	0,215
-516,116	-120,107	-0,150	-0,018
-515,102	-200,000	-0,011	-0,073
-514,087	-200,000	0,024	0,098
-513,072	-200,000	-0,037	-0,122
-512,058	32,606	0,146	-0,091
-511,043	403,528	0,037	0,056
-510,029	-35,742	-0,168	0,065
-509,014	431,958	0,085	0,134
-507,999	-200,000	-0,033	-0,105
-506,985	74,100	0,051	-0,039
-505,970	-200,000	0,014	-0,098
-504,956	-200,000	-0,008	-0,066
-503,941	665,323	0,025	0,047
-502,926	-200,000	-0,046	0,199
-501,912	800,000	-0,035	-0,077
-500,897	91,724	-0,061	0,050
-499,883	570,229	0,064	-0,112
-498,868	-96,144	-0,012	-0,002
-497,853	-200,000	0,016	-0,055
-496,839	88,638	0,082	0,066
-495,824	800,000	0,053	0,137
-494,810	-158,338	-0,040	0,002
-493,795	-200,000	-0,011	0,049
-492,781	-200,000	-0,027	-0,140
-491,766	-1,500	-0,072	-0,036
-490,751	88,708	0,088	-0,070
-489,737	-136,384	-0,039	-0,003
-488,722	75,861	0,136	0,103
-487,708	-200,000	0,001	0,030
-486,693	-56,209	0,157	0,050
-485,678	800,000	-0,050	-0,143
-484,664	54,480	-0,141	-0,097
-483,649	50,315	0,075	-0,051
-482,635	178,971	-0,083	-0,088
-481,620	-200,000	0,027	0,156
-480,605	-200,000	0,032	0,190
-479,591	-160,552	-0,074	-0,003
-478,576	-74,035	-0,079	-0,021
-477,562	-200,000	-0,024	-0,130
-476,547	551,092	0,057	-0,099
-475,532	132,650	0,036	0,034
-474,518	-200,000	-0,012	-0,077
-473,503	800,000	0,059	0,121
-472,489	800,000	0,032	-0,087
-471,474	-33,553	-0,078	0,031
-470,459	-52,903	-0,057	0,019
-469,445	393,704	-0,058	-0,088
-468,430	800,000	0,011	0,024
-467,416	137,827	0,123	0,116
-466,401	800,000	0,061	0,133
-465,386	352,903	0,046	0,065
-464,372	-41,671	-0,035	-0,013
-463,357	-200,000	0,000	0,008
-462,343	-200,000	0,022	0,176
-461,328	-200,000	0,020	0,067
-460,313	-200,000	0,006	-0,061
-459,299	-200,000	-0,017	0,180
-458,284	-30,793	0,087	0,035
-457,270	55,199	0,096	-0,067
-456,255	144,901	-0,070	-0,067
-455,241	-200,000	0,004	-0,102
-454,226	0,622	0,075	-0,039
-453,211	32,984	0,031	0,019
-452,197	82,761	0,046	0,036
-451,182	112,248	0,090	0,079
-450,168	-70,792	-0,116	0,031
-449,153	363,773	-0,104	0,151
-448,138	-55,611	-0,089	-0,029
-447,124	-10,976	-0,090	0,043
-446,109	-31,637	0,017	0,007
-445,095	53,874	0,119	0,082
-444,080	394,292	0,041	0,061
-443,065	11,324	0,031	0,017
-442,051	361,847	0,051	0,075
-441,036	-200,000	-0,040	-0,131
-440,022	-57,012	-0,025	0,008
-439,007	436,320	-0,043	0,068
-437,992	-14,246	0,030	0,014
-436,978	272,702	-0,041	-0,052
-435,963	800,000	0,005	0,010
-434,949	362,077	0,081	-0,117
-433,934	76,177	0,024	0,018
-432,919	-200,000	-0,008	-0,089
-431,905	65,116	-0,109	-0,079
-430,890	655,603	-0,058	-0,109
-429,876	-80,352	0,060	0,014
-428,861	-200,000	0,024	0,156
-427,846	800,000	-0,023	0,064
-426,832	-113,471	-0,065	-0,009
-425,817	-200,000	-0,002	0,055
-424,803	96,377	0,042	-0,034
-423,788	-200,000	-0,011	0,043
-422,773	48,416	0,133	0,089
-421,759	-53,246	-0,041	-0,014
-420,744	-158,415	0,137	-0,006
-419,730	-28,537	0,107	-0,044
-418,715	-161,084	-0,229	0,008
-417,701	265,990	0,026	-0,032
-416,686	280,733	-0,013	-0,017
-415,671	800,000	-0,028	0,066
-414,657	128,282	-0,042	0,039
-413,642	-200,000	-0,008	-0,044
-412,628	402,694	-0,091	0,138
-411,613	644,221	-0,053	-0,098
-410,598	647,568	0,024	-0,044
-409,584	-200,000	-0,006	0,085
-408,569	90,496	0,134	-0,108
-407,555	-200,000	0,000	0,065
-406,540	-92,848	0,036	-0,007
-405,525	800,000	0,011	-0,033
-404,511	470,546	0,030	-0,049
-403,496	-146,880	-0,136	-0,008
-402,482	-200,000	0,000	-0,100
-401,467	-47,141	-0,144	-0,050
-400,452	-200,000	0,008	0,067
-399,438	-36,050	0,099	0,038
-398,423	66,437	-0,086	0,063
-397,409	368,731	0,017	0,025
-396,394	-200,000	0,009	-0,113
-395,379	133,146	0,094	-0,087
-394,365	539,122	-0,053	0,091
-393,350	126,199	0,043	0,039
-392,336	-200,000	0,008	-0,035
-391,321	300,518	-0,034	0,045
-390,306	-60,171	-0,048	0,015
-389,292	-200,000	-0,042	0,161
-388,277	82,914	-0,090	0,070
-387,263	800,000	0,010	-0,023
-386,248	157,835	0,089	0,089
-385,233	55,305	0,072	0,050
-384,219	650,357	-0,059	0,109
-383,204	43,109	-0,106	0,069
-382,190	-107,733	-0,195	-0,030
-381,175	110,655	0,092	-0,079
-380,160	-200,000	-0,018	-0,102
-379,146	28,519	-0,046	-0,028
-378,131	415,861	0,041	0,063
-377,117	615,960	0,050	0,091
-376,102	-200,000	-0,029	0,099
-375,088	-56,654	0,061	-0,019
-374,073	-200,000	-0,013	-0,045
-373,058	84,774	-0,035	0,027
-372,044	7,349	0,117	-0,063
-371,029	383,591	-0,115	0,171
-370,015	427,387	-0,044	0,068
-369,000	800,000	-0,024	-0,049
-367,985	50,921	0,088	-0,060
-366,971	-93,616	-0,047	-0,009
-365,956	-48,214	0,016	0,006
-364,942	500,403	0,055	-0,091
-363,927	-136,216	0,039	-0,003
-362,912	472,295	-0,042	-0,068
-361,898	49,982	-0,088	-0,060
-360,883	5,894	-0,070	-0,037
-359,869	-12,519	0,102	-0,048
-358,854	-173,144	0,004	0,000
-357,839	-74,650	0,160	-0,041
-356,825	-152,026	0,091	0,005
-355,810	56,164	0,092	0,064
-354,796	-200,000	-0,005	-0,041
-353,781	48,495	-0,057	-0,038
-352,766	-200,000	0,023	-0,086
-351,752	-112,886	-0,146	-0,021
-350,737	-116,511	0,134	-0,017
-349,723	363,699	0,022	0,032
-348,708	800,000	0,063	-0,131
-347,693	64,035	0,073	0,053
-346,679	-118,606	-0,209	0,026
-345,664	800,000	-0,028	0,076
-344,650	34,058	0,182	-0,113
-343,635	516,821	0,090	0,151
-342,620	196,356	-0,038	0,042
-341,606	-25,448	0,111	-0,047
-340,591	-200,000	0,025	-0,084
-339,577	-130,055	-0,108	-0,010
-338,562	290,247	0,072	-0,094
-337,548	-26,996	-0,088	-0,037
-336,533	661,693	-0,040	0,074
-335,518	-200,000	-0,001	0,020
-334,504	-200,000	0,011	0,115
-333,489	-28,764	0,070	-0,029
-332,475	4,542	0,128	-0,067
-331,460	800,000	-0,051	-0,112
-330,445	-200,000	0,039	0,164
-329,431	-200,000	-0,010	-0,041
-328,416	1,869	-0,068	0,035
-327,402	-63,419	0,057	0,017
-326,387	58,909	-0,031	0,022
-325,372	224,813	-0,117	-0,136
-324,358	-48,364	-0,034	0,012
-323,343	31,540	0,218	0,134
-322,329	778,532	-0,026	-0,052
-321,314	-30,101	0,126	-0,051
-320,299	403,843	-0,015	-0,022
-319,285	-10,851	-0,049	-0,023
-318,270	-31,846	-0,158	-0,063
-317,256	-1,118	0,125	-0,063
-316,241	-158,163	-0,085	0,003
-315,226	234,388	0,075	-0,089
-314,212	152,254	-0,027	-0,027
-313,197	-200,000	-0,002	0,157
-312,183	-86,189	0,048	0,011
-311,168	800,000	0,049	-0,148
-310,153	-108,634	-0,062	-0,009
-309,139	69,342	-0,060	-0,044
-308,124	709,807	-0,045	-0,086
-307,110	-34,118	0,063	0,025
-306,095	302,305	0,046	0,061
-305,080	457,568	0,102	0,163
-304,066	-110,113	-0,105	0,015
-303,051	-13,083	0,066	0,030
-302,037	-133,396	-0,057	-0,005
-301,022	800,000	0,029	-0,080
-300,008	800,000	0,049	-0,099
-298,993	-56,682	-0,082	0,026
-297,978	-61,818	-0,065	-0,019
-296,964	-20,250	-0,062	0,027
-295,949	-73,019	0,065	-0,017
-294,935	800,000	0,054	-0,129
-293,920	-154,002	0,093	0,004
-292,905	26,680	0,138	0,082
-291,891	596,103	0,018	0,031
-290,876	-133,169	0,070	-0,006
-289,862	157,957	-0,072	0,072
-288,847	22,313	0,077	-0,045
-287,832	-200,000	0,017	-0,212
-286,818	-200,000	0,021	0,113
-285,803	696,811	0,065	0,122
-284,789	446,779	0,088	0,139
-283,774	127,488	0,090	-0,082
-282,759	344,186	-0,086	0,122
-281,745	64,742	-0,140	0,101
-280,730	166,729	-0,052	-0,053
-279,716	81,382	0,059	0,045
-278,701	-121,732	0,161	0,019
-277,686	-37,909	0,182	0,069
-276,672	800,000	-0,013	0,036
-275,657	31,001	-0,150	0,092
-274,643	104,000	0,036	-0,030
-273,628	-158,684	0,094	0,004
-272,613	110,731	-0,054	-0,046
-271,599	-172,613	-0,011	0,000
-270,584	18,383	-0,051	-0,029
-269,570	-200,000	0,005	0,090
-268,555	67,071	-0,068	0,049
-267,540	-200,000	0,002	0,017
-266,526	-119,270	-0,151	0,019
-265,511	333,498	-0,100	-0,139
-264,497	-200,000	-0,030	-0,134
-263,482	-200,000	0,015	0,091
-262,467	800,000	0,025	0,075
-261,453	361,974	-0,028	-0,041
-260,438	-134,721	-0,048	-0,004
-259,424	68,855	-0,069	-0,050
-258,409	-94,051	-0,174	0,034
-257,395	-13,743	0,145	0,067
-256,380	-108,770	0,037	0,006
-255,365	303,274	-0,118	0,156
-254,351	-177,567	-0,069	-0,001
-253,336	-200,000	0,007	-0,102
-252,322	11,559	-0,165	0,090
-251,307	174,475	0,036	0,038
-250,292	-66,763	-0,113	0,032
-249,278	364,641	0,124	0,180
-248,263	-200,000	0,015	0,052
-247,249	33,064	0,044	-0,027
-246,234	-96,361	-0,052	0,010
-245,219	-200,000	-0,005	-0,069
-244,205	-200,000	-0,004	0,044
-243,190	50,965	-0,158	-0,107
-242,176	800,000	0,012	-0,030
-241,161	2,096	-0,035	-0,018
-240,146	107,162	0,082	0,069
-239,132	85,269	-0,124	-0,097
-238,117	-200,000	-0,017	-0,240
-237,103	127,814	-0,123	-0,111
-236,088	40,772	-0,130	-0,084
-235,073	126,558	0,075	0,068
-234,059	-104,625	0,077	-0,013
-233,044	-46,130	-0,049	0,017
-232,030	800,000	0,040	-0,098
-231,015	99,078	0,024	0,020
-230,000	188,709	-0,094	0,101
-228,986	800,000	0,030	0,093
-227,971	-111,438	0,119	0,017
-226,957	-200,000	-0,014	0,231
-225,942	-200,000	0,018	-0,093
-224,927	800,000	0,029	0,075
-223,913	-200,000	-0,007	-0,061
-222,898	800,000	-0,034	-0,071
-221,884	800,000	-0,078	0,181
-220,869	-145,749	0,075	0,005
-219,855	-67,644	-0,119	0,033
-218,840	-50,349	0,154	0,052
-217,825	-200,000	-0,004	0,206
-216,811	188,616	0,028	-0,030
-215,796	-200,000	0,006	0,022
-214,782	800,000	-0,019	-0,040
-213,767	-153,981	0,104	-0,005
-212,752	800,000	0,042	0,089
-211,738	-87,892	0,122	-0,026
-210,723	-72,641	-0,093	0,024
-209,709	800,000	0,022	-0,051
-208,694	297,261	-0,099	-0,130
-207,679	550,648	0,078	-0,134
-206,665	-144,011	-0,032	-0,002
-205,650	99,074	-0,096	-0,079
-204,636	-59,616	0,128	-0,039
-203,621	1,116	-0,044	-0,022
-202,606	800,000	-0,011	-0,034
-201,592	-105,165	-0,151	-0,024
-200,577	-200,000	0,002	0,024
-199,563	32,383	-0,028	0,017
-198,548	-200,000	-0,012	0,041
-197,533	-200,000	0,025	-0,093
-196,519	2,954	0,129	-0,067
-195,504	17,980	0,126	0,072
-194,490	183,809	-0,089	0,094
-193,475	204,066	0,066	-0,073
-192,460	241,690	-0,089	0,106
-191,446	-33,653	0,163	0,064
-190,431	623,269	-0,044	0,080
-189,417	-105,538	-0,075	-0,012
-188,402	800,000	0,028	-0,065
-187,387	-200,000	0,023	-0,163
-186,373	-200,000	-0,002	-0,120
-185,358	31,518	-0,128	-0,078
-184,344	800,000	0,045	0,099
-183,329	-4,722	0,151	0,074
-182,315	-150,446	0,146	-0,008
-181,300	-43,196	-0,148	-0,053
-180,285	800,000	0,066	-0,146
-179,271	-200,000	-0,017	-0,132
-178,256	-200,000	0,012	-0,077
-177,242	438,856	-0,045	-0,071
-176,227	439,741	-0,065	0,101
-175,212	800,000	0,047	0,139
-174,198	726,439	0,037	-0,071
-173,183	-200,000	-0,000	0,077
-172,169	-200,000	0,035	-0,214
-171,154	-191,235	0,155	0,001
-170,139	-133,069	-0,046	0,004
-169,125	307,472	0,071	0,095
-168,110	-100,863	0,122	0,021
-167,096	-200,000	0,005	0,057
-166,081	418,393	0,087	0,133
-165,066	85,258	-0,045	-0,035
-164,052	113,773	-0,054	-0,047
-163,037	-93,697	0,059	-0,011
-162,023	-65,094	-0,105	-0,030
-161,008	35,156	-0,094	0,059
-159,993	-77,459	-0,064	0,016
-158,979	29,694	0,076	-0,046
-157,964	-81,798	-0,096	0,022
-156,950	800,000	-0,054	-0,148
-155,935	272,366	0,048	-0,061
-154,920	305,187	-0,085	-0,113
-153,906	-83,254	0,060	0,014
-152,891	-132,780	-0,108	-0,010
-151,877	357,830	0,061	0,087
-150,862	74,086	-0,071	-0,053
-149,847	87,495	0,035	-0,028
-148,833	-200,000	0,005	0,032
-147,818	-61,429	-0,030	0,009
-146,804	-200,000	0,027	0,093
-145,789	800,000	-0,032	-0,073
-144,775	800,000	0,037	0,091
-143,760	61,204	-0,108	-0,076
-142,745	-72,979	0,097	-0,025
-141,731	800,000	-0,024	0,072
-140,716	-200,000	0,004	-0,017
-139,702	-71,595	0,150	0,040
-138,687	-200,000	0,011	0,091
-137,672	271,515	0,093	-0,117
-136,658	517,733	-0,124	-0,206
-135,643	-200,000	-0,044	-0,144
-134,629	-168,448	-0,122	0,003
-133,614	800,000	-0,030	-0,061
-132,599	-79,958	0,025	0,006
-131,585	-118,528	0,061	-0,008
-130,570	159,411	-0,068	0,068
-129,556	-200,000	-0,002	-0,098
-128,541	-200,000	-0,013	0,069
-127,526	465,177	-0,058	0,092
-126,512	-200,000	0,021	0,109
-125,497	-144,063	0,111	-0,007
-124,483	-141,807	0,067	-0,005
-123,468	800,000	0,018	0,054
-122,453	241,133	-0,156	-0,186
-121,439	7,159	-0,064	-0,034
-120,424	147,562	0,025	-0,024
-119,410	151,340	-0,077	-0,074
-118,395	334,617	0,062	0,085
-117,380	800,000	-0,015	0,043
-116,366	-34,299	-0,134	-0,052
-115,351	110,832	-0,038	0,033
-114,337	-52,188	-0,095	-0,031
-113,322	-17,347	-0,075	0,034
-112,307	-200,000	0,000	0,078
-111,293	-200,000	0,056	0,213
-110,278	-200,000	-0,013	-0,048
-109,264	363,595	-0,011	0,016
-108,249	-200,000	-0,041	-0,160
-107,234	-1,501	-0,066	0,033
-106,220	-53,987	-0,156	-0,050
-105,205	139,943	0,061	-0,058
-104,191	-200,000	-0,017	-0,073
-103,176	-200,000	0,007	-0,042
-102,162	82,548	0,100	-0,077
-101,147	800,000	-0,022	-0,044
-100,132	-39,781	-0,115	-0,043
-99,118	729,389	-0,057	0,108
-98,103	-39,855	0,016	-0,006
-97,089	122,753	0,058	0,051
-96,074	-46,741	-0,113	-0,039
-95,059	-99,874	0,059	0,010
-94,045	-200,000	-0,025	0,082
-93,030	-36,453	-0,097	0,037
-92,016	21,383	0,108	-0,062
-91,001	800,000	0,026	0,080
-89,986	-111,288	-0,044	0,006
-88,972	-43,440	0,105	-0,038
-87,957	-200,000	0,002	-0,095
-86,943	-164,818	0,148	-0,005
-85,928	-114,261	-0,151	-0,020
-84,913	-200,000	-0,004	-0,039
-83,899	-200,000	-0,002	-0,051
-82,884	-200,000	0,005	0,068
-81,870	-200,000	0,001	-0,172
-80,855	-63,873	0,055	-0,016
-79,840	-200,000	-0,004	-0,087
-78,826	439,410	-0,060	-0,094
-77,811	508,898	-0,078	-0,129
-76,797	48,044	-0,063	0,042
-75,782	-200,000	-0,004	-0,121
-74,767	492,270	0,115	-0,188
-73,753	448,490	-0,061	0,095
-72,738	128,556	-0,010	0,009
-71,724	-200,000	-0,033	-0,125
-70,709	525,936	0,049	0,083
-69,694	493,341	0,016	0,027
-68,680	-2,041	-0,064	0,032
-67,665	142,099	0,046	-0,043
-66,651	23,583	0,054	-0,032
-65,636	100,444	0,033	-0,028
-64,622	636,227	-0,057	-0,104
-63,607	-19,651	-0,122	0,053
-62,592	800,000	-0,024	0,074
-61,578	-171,569	0,056	-0,001
-60,563	-6,175	0,122	-0,059
-59,549	-129,016	-0,110	0,011
-58,534	-48,175	-1,510	-0,514
-57,519	500,343	-1,344	-2,207
-56,505	-200,000	-0,473	-4,462
-55,490	152,115	0,952	0,922
-54,476	800,000	4,920	11,325
-53,461	-200,000	18,508	299,119
-52,446	800,000	734,000	2267,380
-51,432	560,875	1649,923	2838,298
-50,417	78,669	1667,981	1263,258
-49,403	22,301	1540,857	890,187
-48,388	16,239	1463,627	816,135
-47,373	17,807	1453,767	818,175
-46,359	17,035	1443,910	808,894
-45,344	14,540	1439,501	794,448
-44,330	14,446	1437,399	792,807
-43,315	14,494	1435,597	792,014
-42,300	14,482	1433,995	791,043
-41,286	14,532	1433,057	790,731
-40,271	14,479	1431,705	789,700
-39,257	14,458	1430,285	788,788
-38,242	14,469	1428,892	788,040
-37,227	14,521	1427,975	787,749
-36,213	14,536	1426,593	787,025
-35,198	14,487	1425,435	786,125
-34,184	14,541	1424,289	785,717
-33,169	14,475	1423,080	784,708
-32,154	14,479	1422,112	784,162
-31,140	14,515	1420,858	783,608
-30,125	14,520	1419,739	782,983
-29,111	14,521	1418,487	782,265
-28,096	14,485	1417,418	781,478
-27,082	14,459	1416,356	780,739
-26,067	14,429	1415,156	779,904
-25,052	14,392	1414,309	779,229
-24,038	14,406	1413,307	778,716
-23,023	14,409	1412,216	778,095
-22,009	14,417	1411,298	777,595
-20,994	14,379	1410,234	776,799
-19,979	14,420	1409,365	776,485
-18,965	14,355	1408,431	775,635
-17,950	14,311	1407,632	774,956
-16,936	14,309	1406,823	774,473
-15,921	14,345	1405,527	773,896
-14,906	14,311	1404,572	773,179
-13,892	14,378	1403,462	772,850
-12,877	14,322	1402,674	772,125
-11,863	14,342	1401,782	771,696
-10,848	14,281	1400,920	770,908
-9,833	14,250	1400,167	770,320
-8,819	14,248	1399,320	769,814
-7,804	14,260	1398,242	769,245
-6,790	14,258	1397,162	768,611
-5,775	14,246	1396,187	767,988
-4,760	14,283	1395,168	767,571
-3,746	14,237	1394,538	766,977
-2,731	14,190	1393,825	766,340
-1,717	14,207	1392,929	765,892
-0,702	14,213	1391,086	764,880
0,313	18,003	1309,249	737,459
1,327	34,439	705,089	435,220
2,342	52,779	123,899	83,783
3,356	4,089	16,558	8,555
4,371	9,554	3,157	1,689
5,386	-78,648	0,625	0,150
6,400	7,921	0,149	0,079
7,415	5,172	-0,227	-0,118
8,429	274,527	-0,166	-0,208
9,444	15,489	-0,411	-0,228
10,459	29,103	-0,303	-0,182
11,473	38,302	-0,340	-0,214
12,488	19,104	-0,173	-0,098
13,502	84,965	-0,161	-0,125
14,517	-12,553	-0,314	-0,144
15,531	138,536	-0,319	-0,297
16,546	65,899	-0,416	-0,298
17,561	122,435	-0,375	-0,332
18,575	13,617	-0,303	-0,166
19,590	63,453	-0,314	-0,222
20,604	110,234	-0,243	-0,206
21,619	126,874	-0,381	-0,342
22,634	73,681	-0,470	-0,348
23,648	18,311	-0,473	-0,267
24,663	99,413	-0,404	-0,330
25,677	132,042	-0,412	-0,376
26,692	25,304	-0,449	-0,263
27,707	57,461	-0,264	-0,182
28,721	-19,761	-0,525	-0,228
29,736	85,752	-0,416	-0,323
30,750	111,545	-0,350	-0,298
31,765	167,881	-0,461	-0,463
32,780	18,256	-0,378	-0,213
33,794	42,944	-0,491	-0,316
34,809	15,539	-0,405	-0,224
35,823	-34,374	-0,459	-0,177
36,838	-38,735	-0,352	-0,130
37,853	-26,852	-0,465	-0,191
38,867	93,772	-0,359	-0,287
39,882	77,930	-0,318	-0,239
40,896	-42,646	-0,387	-0,138
41,911	-15,767	-0,434	-0,195
42,926	2,154	-0,303	-0,154
43,940	44,435	-0,387	-0,251
44,955	115,363	-0,420	-0,362
45,969	-17,784	-0,515	-0,227
46,984	66,203	-0,387	-0,277
47,999	93,583	-0,285	-0,228
49,013	95,922	-0,319	-0,257
50,028	228,598	-0,205	-0,236
51,042	-7,899	-0,396	-0,188
52,057	70,769	-0,384	-0,280
53,071	-10,062	-0,323	-0,151
54,086	150,097	-0,225	-0,215
55,101	298,007	-0,192	-0,250
56,115	755,482	-0,180	-0,346
57,130	190,108	-0,362	-0,384
58,144	-53,680	-0,439	-0,140
59,159	50,501	-0,366	-0,244
60,174	-75,908	-0,350	-0,087
61,188	0,696	-0,335	-0,169
62,203	175,113	-0,334	-0,341
63,217	-87,203	-0,286	-0,061
64,232	124,782	-0,328	-0,291
65,247	26,736	-0,378	-0,223
66,261	62,322	-0,346	-0,243
67,276	88,711	-0,272	-0,213
68,290	220,336	-0,243	-0,275
69,305	-20,469	-0,338	-0,146
70,320	11,536	-0,201	-0,108
71,334	10,475	-0,334	-0,179
72,349	125,434	-0,268	-0,238
73,363	54,009	-0,462	-0,312
74,378	104,001	-0,309	-0,255
75,393	48,210	-0,363	-0,239
76,407	423,807	-0,159	-0,242
77,422	41,798	-0,270	-0,172
78,436	-30,410	-0,233	-0,093
79,451	-11,735	-0,341	-0,157
80,466	-86,916	-0,434	-0,092
81,480	162,964	-0,290	-0,287
82,495	-33,448	-0,329	-0,128
83,509	95,965	-0,239	-0,192
84,524	-22,096	-0,285	-0,121
85,539	1,247	-0,246	-0,124
86,553	-64,122	-0,391	-0,111
87,568	144,717	-0,265	-0,249
88,582	63,989	-0,323	-0,228
89,597	142,953	-0,315	-0,295
90,611	81,294	-0,200	-0,152
91,626	381,364	-0,143	-0,207
92,641	-78,594	-0,292	-0,070
93,655	33,374	-0,315	-0,192
94,670	-5,859	-0,345	-0,165
95,684	-18,865	-0,286	-0,124
96,699	-61,614	-0,323	-0,094
97,714	-7,692	-0,295	-0,140
98,728	16,501	-0,329	-0,182
99,743	26,767	-0,221	-0,130
100,757	-33,705	-0,173	-0,067
101,772	71,244	-0,336	-0,244
102,787	83,606	-0,245	-0,187
103,801	79,249	-0,213	-0,160
104,816	56,546	-0,353	-0,241
105,830	5,184	-0,294	-0,151
106,845	-91,832	-0,433	-0,086
107,860	-74,511	-0,273	-0,069
108,874	31,047	-0,376	-0,226
109,889	1,895	-0,394	-0,199
110,903	72,025	-0,287	-0,210
111,918	325,170	-0,191	-0,257
112,933	288,631	-0,211	-0,269
113,947	33,857	-0,200	-0,122
114,962	173,526	-0,284	-0,287
115,976	98,062	-0,213	-0,172
116,991	208,709	-0,213	-0,234
118,006	90,769	-0,186	-0,146
119,020	163,468	-0,252	-0,248
120,035	108,147	-0,230	-0,192
121,049	-91,845	-0,183	-0,036
122,064	-40,009	-0,212	-0,077
123,079	26,845	-0,279	-0,164
124,093	171,380	-0,245	-0,247
125,108	123,516	-0,275	-0,242
126,122	12,124	-0,251	-0,135
127,137	0,769	-0,239	-0,120
128,151	111,498	-0,280	-0,236
129,166	-36,396	-0,328	-0,123
130,181	141,756	-0,248	-0,230
131,195	112,039	-0,278	-0,235
132,210	9,638	-0,359	-0,190
133,224	127,901	-0,220	-0,196
134,239	-54,471	-0,172	-0,054
135,254	23,562	-0,229	-0,132
136,268	-97,524	-0,282	-0,051
137,283	-34,234	-0,199	-0,076
138,297	84,553	-0,282	-0,216
139,312	156,037	-0,244	-0,235
140,327	303,593	-0,238	-0,309
141,341	140,433	-0,153	-0,141
142,356	-56,099	-0,389	-0,120
143,370	87,864	-0,251	-0,194
144,385	35,568	-0,327	-0,200
145,400	148,298	-0,234	-0,221
146,414	-75,587	-0,275	-0,068
147,429	88,761	-0,401	-0,311
148,443	0,556	-0,284	-0,142
149,458	138,568	-0,226	-0,208
150,473	-127,061	-0,064	-0,006
151,487	143,015	-0,318	-0,296
152,502	96,781	-0,343	-0,274
153,516	182,159	-0,210	-0,216
154,531	-17,895	-0,247	-0,108
155,546	-28,385	-0,268	-0,108
156,560	12,717	-0,191	-0,103
157,575	474,613	-0,109	-0,173
158,589	87,473	-0,123	-0,095
159,604	16,403	-0,344	-0,189
160,619	22,831	-0,246	-0,141
161,633	98,589	-0,264	-0,213
162,648	-99,044	-0,390	-0,068
163,662	215,152	-0,178	-0,197
164,677	145,281	-0,081	-0,076
165,692	40,302	-0,191	-0,120
166,706	157,444	-0,212	-0,205
167,721	124,332	-0,260	-0,228
168,735	209,759	-0,221	-0,242
169,750	111,932	-0,268	-0,226
170,764	70,402	-0,135	-0,098
171,779	128,239	-0,245	-0,218
172,794	-57,596	-0,273	-0,083
173,808	178,073	-0,182	-0,185
174,823	256,779	-0,166	-0,199
175,837	-65,552	-0,325	-0,090
176,852	11,722	-0,194	-0,104
177,867	78,061	-0,322	-0,239
178,881	-35,668	-0,214	-0,081
179,896	-51,021	-0,244	-0,079
180,910	85,105	-0,145	-0,111
181,925	271,282	-0,192	-0,236
182,940	516,110	-0,182	-0,298
183,954	46,666	-0,314	-0,203
184,969	87,332	-0,203	-0,156
185,983	177,755	-0,137	-0,139
186,998	12,631	-0,233	-0,125
188,013	77,167	-0,267	-0,198
189,027	-9,026	-0,231	-0,107
190,042	29,607	-0,278	-0,164
191,056	57,460	-0,275	-0,187
192,071	251,354	-0,180	-0,214
193,086	-151,595	-0,144	-0,007
194,100	-9,480	-0,162	-0,075
195,115	233,707	-0,173	-0,199
196,129	128,319	-0,207	-0,184
197,144	-35,060	-0,284	-0,107
198,159	110,077	-0,229	-0,192
199,173	30,482	-0,207	-0,123
200,188	-12,831	-0,241	-0,109
201,202	-88,726	-0,283	-0,058
202,217	213,488	-0,100	-0,110
203,232	27,265	-0,302	-0,176
204,246	46,018	-0,252	-0,162
205,261	213,171	-0,194	-0,213
206,275	246,328	-0,135	-0,159
207,290	97,158	-0,203	-0,162
208,304	-94,265	-0,229	-0,043
209,319	228,661	-0,198	-0,224
210,334	77,816	-0,178	-0,132
211,348	134,409	-0,261	-0,236
212,363	239,918	-0,256	-0,297
213,377	160,290	-0,213	-0,207
214,392	-46,147	-0,129	-0,044
215,407	307,303	-0,120	-0,156
216,421	-74,215	-0,157	0,039
217,436	-94,548	-0,170	-0,032
218,450	31,708	-0,201	-0,120
219,465	130,897	-0,108	-0,097
220,480	132,967	-0,170	-0,153
221,494	-34,241	-0,172	-0,065
222,509	-26,295	-0,205	0,083
223,523	41,430	-0,266	-0,167
224,538	75,595	-0,228	-0,167
225,553	74,566	-0,258	-0,188
226,567	58,158	-0,239	-0,163
227,582	271,163	-0,141	-0,173
228,596	-200,000	-0,044	-0,202
229,611	440,401	-0,183	-0,279
230,626	-200,000	-0,065	-0,238
231,640	-16,839	-0,169	-0,074
232,655	176,085	-0,256	-0,258
233,669	45,992	-0,211	-0,136
234,684	547,389	-0,120	-0,201
235,699	171,675	-0,158	-0,158
236,713	52,080	-0,120	-0,079
237,728	46,574	-0,123	-0,079
238,742	168,243	-0,164	-0,162
239,757	399,286	-0,131	-0,191
240,772	248,328	-0,121	-0,142
241,786	225,369	-0,164	-0,185
242,801	152,276	-0,104	-0,098
243,815	114,962	-0,094	-0,079
244,830	-107,484	-0,197	-0,030
245,844	257,547	-0,100	-0,120
246,859	91,899	-0,241	-0,188
247,874	-52,764	-0,213	-0,068
248,888	279,511	-0,246	-0,305
249,903	23,461	-0,191	-0,109
250,917	-184,699	-0,221	0,002
251,932	-78,803	-0,179	0,042
252,947	-123,608	-0,145	0,016
253,961	36,804	-0,215	-0,131
254,976	35,848	-0,248	-0,151
255,990	391,125	-0,130	-0,187
257,005	-200,000	-0,038	-0,124
258,020	656,203	-0,049	-0,088
259,034	-31,879	-0,084	-0,033
260,049	49,854	-0,099	-0,065
261,063	113,706	-0,090	-0,075
262,078	86,797	-0,210	-0,161
263,093	-200,000	-0,058	-0,284
264,107	304,064	-0,123	-0,159
265,122	-200,000	-0,026	-0,107
266,136	214,626	-0,124	-0,136
267,151	208,625	-0,127	-0,137
268,166	2,993	-0,285	-0,143
269,180	-112,973	-0,292	0,040
270,195	55,893	-0,201	-0,135
271,209	76,387	-0,220	-0,161
272,224	453,691	-0,095	-0,145
273,239	115,785	-0,138	-0,117
274,253	99,537	-0,205	-0,164
275,268	115,571	-0,140	-0,118
276,282	38,254	-0,162	-0,100
277,297	97,317	-0,136	-0,108
278,312	683,881	-0,095	-0,173
279,326	26,260	-0,138	-0,080
280,341	-178,135	-0,015	0,000
281,355	800,000	-0,098	-0,206
282,370	140,751	-0,107	-0,098
283,384	112,193	-0,148	-0,123
284,399	-42,728	-0,216	-0,075
285,414	255,501	-0,205	-0,244
286,428	71,137	-0,242	-0,173
287,443	-81,124	-0,173	-0,039
288,457	185,799	-0,192	-0,197
289,472	-200,000	-0,070	-0,242
290,487	299,423	-0,140	-0,179
291,501	35,196	-0,168	-0,102
292,516	364,762	-0,124	-0,173
293,530	248,808	-0,140	-0,163
294,545	95,864	-0,061	-0,048
295,560	-62,221	0,010	0,003
296,574	800,000	-0,086	-0,224
297,589	-54,838	-0,233	-0,072
298,603	191,854	-0,203	-0,211
299,618	28,132	-0,239	-0,139
300,633	151,195	-0,088	-0,083
301,647	130,917	-0,111	-0,098
302,662	-84,052	-0,168	0,036
303,676	222,236	-0,172	-0,191
304,691	-31,659	-0,244	-0,094
305,706	191,807	-0,179	-0,187
306,720	234,610	-0,135	-0,154
307,735	-27,285	-0,159	-0,063
308,749	-113,032	-0,114	-0,015
309,764	107,429	-0,088	-0,073
310,779	56,678	-0,062	-0,041
311,793	147,249	-0,170	-0,158
312,808	800,000	-0,099	-0,197
313,822	202,029	-0,104	-0,111
314,837	38,218	-0,212	-0,130
315,852	-75,380	-0,215	-0,052
316,866	306,705	-0,080	-0,103
317,881	800,000	-0,063	-0,183
318,895	223,946	-0,203	-0,227
319,910	34,892	-0,233	-0,140
320,925	31,793	-0,204	-0,121
321,939	800,000	-0,102	-0,226
322,954	-50,011	-0,057	0,019
323,968	800,000	-0,050	-0,152
324,983	302,800	-0,025	-0,032
325,997	-200,000	-0,050	-0,167
327,012	185,777	-0,105	-0,107
328,027	26,445	-0,186	-0,107
329,041	24,594	-0,123	-0,070
330,056	-33,666	-0,134	-0,051
331,070	182,503	-0,128	-0,130
332,085	-28,459	-0,076	-0,030
333,100	13,802	-0,089	-0,047
334,114	800,000	-0,118	-0,230
335,129	240,669	-0,206	-0,237
336,143	289,464	-0,170	-0,212
337,158	282,262	-0,063	-0,078
338,173	385,879	-0,054	-0,076
339,187	0,159	-0,092	-0,045
340,202	57,082	-0,051	-0,034
341,216	-120,470	-0,175	-0,020
342,231	95,400	-0,136	-0,106
343,246	-200,000	-0,006	-0,245
344,260	-200,000	-0,004	-0,052
345,275	41,867	0,005	0,003
346,289	800,000	0,010	-0,026
347,304	-100,252	-0,118	-0,020
348,319	519,728	-0,095	-0,154
349,333	124,152	-0,164	-0,142
350,348	35,548	-0,153	-0,092
351,362	-200,000	-0,016	-0,077
352,377	-200,000	-0,023	0,081
353,392	135,051	-0,076	-0,067
354,406	58,697	-0,207	-0,139
355,421	208,968	1312,479	1413,123
356,435	160,807	1472,956	1413,622
