DTS Sentinel unit serial number:	SN410029Multiplexer serial number:	ORYXHardware model number:	OX2-SRSoftware version number:	ORYX F/W v4,00 Oryx Data Collector v3.7.2.0data status	okinstallation	B3 Nyhavnadifferential loss correction	single-endedforward channel	channel 1reverse channel	N/Adate	2023/11/30time	15:32:30forward acquisition time	300,00reverse acquisition time	0,00gamma	499,1914k internal	0,3207k external	0,3207temperature offset calibration	1,0000default loss term (dB/km)	0,3820temperature slope calibration	1,0000multiplexer offset coefficient	1,0000multiplexer slope coefficient	1,0000fibre end	0,00T internal ref (°C)	12,44T ext. ref 1 (°C)	-1,74T ext. ref 2 (°C)	-1,78length (m)	temperature (°C)	Stokes	anti-Stokes-744,400	800,000	-0,101	-0,224
-743,385	421,495	-0,141	0,220
-742,371	196,826	-0,207	-0,230
-741,356	-200,000	-0,012	0,366
-740,342	588,618	-0,132	-0,238
-739,327	275,458	0,168	0,217
-738,312	112,059	-0,230	-0,202
-737,298	-200,000	-0,011	0,356
-736,283	86,649	-0,192	-0,153
-735,269	-200,000	0,071	0,329
-734,254	358,820	-0,174	-0,253
-733,239	670,663	-0,062	0,117
-732,225	684,682	-0,135	-0,256
-731,210	800,000	-0,041	0,106
-730,196	800,000	-0,057	0,179
-729,181	-200,000	-0,014	0,176
-728,167	-141,277	-0,170	0,012
-727,152	800,000	-0,045	-0,096
-726,137	-42,969	0,118	-0,043
-725,123	318,865	-0,165	-0,227
-724,108	-144,380	-0,100	0,007
-723,094	663,274	0,010	-0,020
-722,079	34,946	-0,093	-0,059
-721,064	-200,000	0,011	-0,194
-720,050	199,066	0,043	-0,047
-719,035	480,285	-0,052	0,086
-718,021	-106,498	-0,077	-0,012
-717,006	691,394	-0,061	-0,117
-715,991	-200,000	-0,028	-0,109
-714,977	-200,000	-0,010	-0,102
-713,962	12,286	0,090	-0,050
-712,948	800,000	0,020	0,061
-711,933	-200,000	-0,002	0,089
-710,918	481,926	0,096	-0,159
-709,904	45,884	-0,135	-0,090
-708,889	33,407	-0,087	-0,055
-707,875	800,000	-0,071	-0,162
-706,860	800,000	0,051	-0,133
-705,845	-200,000	0,006	-0,044
-704,831	417,536	0,040	-0,062
-703,816	569,074	0,048	0,086
-702,802	800,000	-0,056	0,122
-701,787	20,892	-0,050	0,029
-700,772	-200,000	0,009	-0,160
-699,758	-200,000	-0,019	0,082
-698,743	99,661	0,088	-0,074
-697,729	11,599	-0,178	0,099
-696,714	27,127	-0,098	0,059
-695,699	93,885	0,093	0,077
-694,685	800,000	-0,078	-0,160
-693,670	21,825	0,073	-0,043
-692,656	231,375	-0,085	-0,101
-691,641	800,000	-0,037	-0,112
-690,627	343,354	0,036	-0,052
-689,612	800,000	-0,015	-0,039
-688,597	276,129	-0,123	-0,158
-687,583	253,644	-0,135	-0,168
-686,568	29,809	0,048	-0,030
-685,554	219,600	-0,048	-0,056
-684,539	-85,363	0,080	-0,018
-683,524	-78,249	-0,054	0,013
-682,510	-145,701	-0,064	0,004
-681,495	800,000	0,028	-0,071
-680,481	177,696	-0,008	-0,008
-679,466	-19,613	-0,199	-0,089
-678,451	416,884	-0,063	-0,097
-677,437	-117,651	0,177	-0,023
-676,422	15,717	-0,101	-0,057
-675,408	-145,756	-0,032	-0,002
-674,393	800,000	-0,006	0,014
-673,378	675,095	-0,025	0,046
-672,364	135,605	-0,103	-0,097
-671,349	-200,000	0,000	0,014
-670,335	-14,042	0,084	-0,039
-669,320	-38,015	-0,026	-0,010
-668,305	-200,000	0,018	0,060
-667,291	-86,730	0,092	-0,020
-666,276	87,400	-0,147	-0,118
-665,262	343,210	0,057	-0,081
-664,247	-23,811	-0,154	0,067
-663,232	-7,991	0,044	0,021
-662,218	800,000	0,016	0,045
-661,203	17,566	0,051	-0,029
-660,189	-116,706	0,059	0,008
-659,174	-21,644	0,064	0,028
-658,159	46,527	-0,152	-0,102
-657,145	54,734	-0,086	-0,060
-656,130	294,376	-0,088	-0,116
-655,116	754,657	0,039	0,077
-654,101	242,984	0,067	0,081
-653,086	39,179	-0,046	0,030
-652,072	-200,000	-0,029	-0,123
-651,057	106,402	-0,132	-0,113
-650,043	622,030	-0,065	-0,119
-649,028	800,000	0,020	0,052
-648,014	3,852	0,048	0,025
-646,999	114,524	-0,026	-0,023
-645,984	-155,795	-0,119	0,005
-644,970	59,574	0,070	-0,050
-643,955	140,736	0,014	-0,014
-642,941	-200,000	-0,010	0,100
-641,926	-200,000	0,025	-0,079
-640,911	717,030	0,085	0,165
-639,897	-200,000	0,017	-0,089
-638,882	-200,000	0,009	0,057
-637,868	67,321	0,092	-0,068
-636,853	-200,000	-0,009	0,045
-635,838	541,475	0,029	0,050
-634,824	-200,000	-0,013	0,097
-633,809	35,119	0,043	-0,027
-632,795	800,000	0,027	0,081
-631,780	38,797	0,136	0,088
-630,765	48,009	0,049	-0,033
-629,751	-100,752	-0,072	-0,013
-628,736	-31,803	-0,054	0,022
-627,722	-200,000	0,006	0,059
-626,707	-47,027	-0,020	-0,007
-625,692	-127,725	0,079	-0,008
-624,678	-91,965	-0,084	0,017
-623,663	-28,436	-0,080	0,033
-622,649	109,632	-0,052	0,045
-621,634	800,000	-0,035	-0,090
-620,619	193,075	-0,072	-0,079
-619,605	-59,334	0,012	0,004
-618,590	51,038	0,119	0,082
-617,576	480,736	-0,051	0,084
-616,561	-48,699	0,124	0,043
-615,546	160,432	-0,061	0,061
-614,532	72,092	-0,077	-0,058
-613,517	86,222	-0,048	0,038
-612,503	435,422	-0,077	-0,122
-611,488	63,286	-0,048	0,035
-610,474	18,312	0,124	0,071
-609,459	800,000	-0,009	0,022
-608,444	-74,301	0,105	-0,027
-607,430	-104,105	-0,174	0,029
-606,415	800,000	-0,049	0,110
-605,401	136,788	0,089	-0,084
-604,386	-200,000	-0,006	-0,055
-603,371	-121,862	-0,028	-0,003
-602,357	196,946	0,071	0,078
-601,342	33,505	0,084	-0,053
-600,328	-200,000	0,009	-0,063
-599,313	24,522	-0,091	-0,054
-598,298	112,411	-0,056	-0,049
-597,284	-200,000	-0,042	0,141
-596,269	800,000	0,048	-0,115
-595,255	301,654	0,026	-0,034
-594,240	-200,000	0,005	0,027
-593,225	19,295	-0,169	0,097
-592,211	-87,430	-0,151	0,033
-591,196	-200,000	-0,011	-0,069
-590,182	-194,804	0,168	0,001
-589,167	118,398	0,048	-0,043
-588,152	15,258	0,133	0,075
-587,138	-25,418	-0,033	0,014
-586,123	47,937	0,013	0,009
-585,109	800,000	-0,024	0,051
-584,094	800,000	-0,031	0,074
-583,079	228,860	-0,033	0,039
-582,065	800,000	0,038	0,097
-581,050	-53,566	-0,057	0,019
-580,036	-200,000	-0,004	0,044
-579,021	85,344	-0,106	-0,084
-578,006	-126,979	0,026	-0,003
-576,992	-145,818	-0,081	-0,005
-575,977	42,952	-0,062	0,041
-574,963	800,000	-0,042	0,105
-573,948	22,298	0,049	0,029
-572,934	800,000	-0,045	0,120
-571,919	137,230	-0,020	-0,019
-570,904	800,000	-0,044	-0,114
-569,890	800,000	-0,028	-0,069
-568,875	198,858	-0,028	0,031
-567,861	-83,898	0,068	0,015
-566,846	488,019	0,064	0,106
-565,831	-200,000	0,007	-0,110
-564,817	115,030	-0,015	-0,013
-563,802	481,562	-0,087	-0,144
-562,788	301,134	0,090	-0,120
-561,773	800,000	0,013	-0,027
-560,758	-200,000	0,017	0,068
-559,744	-78,882	0,073	0,018
-558,729	12,227	0,048	0,027
-557,715	-24,397	0,017	0,007
-556,700	135,461	-0,109	-0,103
-555,685	-110,415	-0,059	-0,009
-554,671	-200,000	0,005	0,022
-553,656	47,582	0,094	0,063
-552,642	-200,000	0,002	-0,058
-551,627	265,540	-0,069	0,087
-550,612	195,177	0,057	-0,062
-549,598	800,000	-0,034	-0,072
-548,583	282,822	-0,009	0,012
-547,569	-53,779	0,256	-0,084
-546,554	-200,000	-0,028	-0,105
-545,539	224,720	-0,055	0,065
-544,525	-200,000	-0,032	0,105
-543,510	-186,040	0,088	0,001
-542,496	42,763	-0,168	-0,110
-541,481	-88,004	-0,117	-0,025
-540,466	-19,768	0,111	-0,049
-539,452	-18,041	0,127	0,057
-538,437	139,060	0,025	0,023
-537,423	-127,597	-0,052	-0,005
-536,408	147,418	-0,145	-0,141
-535,393	354,896	0,033	0,047
-534,379	-25,622	0,067	0,028
-533,364	-200,000	-0,013	-0,102
-532,350	800,000	0,049	0,112
-531,335	-133,158	-0,094	-0,008
-530,321	244,365	0,079	0,095
-529,306	-36,729	-0,056	-0,021
-528,291	-56,624	-0,078	-0,025
-527,277	-18,165	-0,062	-0,028
-526,262	800,000	0,035	-0,094
-525,248	-27,397	0,151	0,063
-524,233	576,291	0,060	0,107
-523,218	-200,000	-0,013	-0,106
-522,204	-200,000	0,006	-0,056
-521,189	25,573	-0,040	0,024
-520,175	118,994	-0,082	-0,073
-519,160	164,138	0,026	-0,026
-518,145	189,215	-0,114	-0,123
-517,131	46,264	-0,050	-0,033
-516,116	15,802	0,048	0,027
-515,102	-15,990	-0,090	0,041
-514,087	337,132	0,025	-0,035
-513,072	18,130	-0,104	0,060
-512,058	800,000	0,033	0,081
-511,043	447,722	-0,043	0,068
-510,029	12,898	0,083	-0,046
-509,014	125,401	0,099	0,090
-507,999	-200,000	0,000	0,037
-506,985	-106,866	0,027	0,004
-505,970	-52,838	0,067	0,022
-504,956	190,112	-0,031	-0,034
-503,941	174,464	0,140	-0,146
-502,926	119,675	0,083	0,074
-501,912	39,708	0,038	0,025
-500,897	-200,000	-0,045	0,148
-499,883	32,048	-0,051	0,032
-498,868	339,649	-0,148	-0,208
-497,853	800,000	-0,014	-0,038
-496,839	-200,000	-0,006	-0,076
-495,824	-200,000	-0,033	0,123
-494,810	-115,808	-0,023	0,003
-493,795	-101,806	0,088	-0,015
-492,781	-89,543	-0,127	-0,027
-491,766	-11,081	-0,124	0,059
-490,751	800,000	-0,018	0,038
-489,737	197,103	0,086	0,094
-488,722	676,223	0,036	0,068
-487,708	-200,000	0,008	-0,040
-486,693	-200,000	-0,029	0,113
-485,678	-43,490	-0,127	-0,046
-484,664	84,895	-0,030	-0,024
-483,649	800,000	-0,040	0,096
-482,635	-47,555	-0,040	0,014
-481,620	257,767	0,089	-0,110
-480,605	-132,737	-0,039	0,004
-479,591	28,698	0,062	-0,037
-478,576	780,968	-0,038	0,074
-477,562	800,000	-0,068	-0,158
-476,547	110,426	-0,043	-0,037
-475,532	-28,091	0,126	-0,052
-474,518	375,847	0,033	0,048
-473,503	-200,000	-0,013	-0,050
-472,489	112,656	0,063	-0,054
-471,474	-90,984	-0,140	-0,029
-470,459	202,993	-0,096	-0,107
-469,445	146,377	0,043	0,042
-468,430	168,575	-0,073	0,075
-467,416	-157,074	0,148	-0,006
-466,401	-37,946	0,027	0,010
-465,386	800,000	0,043	0,099
-464,372	43,452	0,090	0,059
-463,357	-0,129	-0,136	0,069
-462,343	366,855	-0,051	-0,074
-461,328	800,000	0,007	-0,014
-460,313	237,986	0,048	0,058
-459,299	-200,000	0,037	0,178
-458,284	-200,000	-0,011	0,094
-457,270	4,798	0,029	0,015
-456,255	157,080	-0,087	-0,087
-455,241	800,000	0,035	-0,084
-454,226	-200,000	0,006	-0,079
-453,211	-90,076	-0,063	-0,013
-452,197	65,185	0,092	0,067
-451,182	-200,000	-0,013	-0,135
-450,168	-117,068	-0,127	-0,016
-449,153	478,899	0,054	0,088
-448,138	-101,907	0,061	-0,011
-447,124	-168,212	-0,052	-0,001
-446,109	800,000	-0,034	-0,074
-445,095	800,000	0,046	0,117
-444,080	78,498	0,051	-0,039
-443,065	14,904	0,056	0,031
-442,051	-181,075	0,034	0,000
-441,036	-200,000	-0,021	-0,096
-440,022	-200,000	-0,042	-0,220
-439,007	-60,887	-0,018	0,005
-437,992	455,739	-0,020	-0,032
-436,978	-200,000	-0,022	0,105
-435,963	-200,000	-0,005	0,081
-434,949	-200,000	0,008	0,027
-433,934	333,305	-0,133	0,186
-432,919	28,628	-0,124	-0,075
-431,905	-200,000	0,027	-0,153
-430,890	144,919	0,069	0,066
-429,876	111,695	-0,159	-0,138
-428,861	144,642	0,107	0,102
-427,846	-92,366	0,039	0,008
-426,832	-42,083	-0,081	-0,030
-425,817	-55,050	-0,124	0,040
-424,803	-33,448	-0,159	-0,063
-423,788	800,000	0,014	0,035
-422,773	91,915	-0,020	0,016
-421,759	61,144	0,133	0,094
-420,744	125,555	0,033	-0,030
-419,730	800,000	-0,054	-0,119
-418,715	-27,805	-0,040	0,016
-417,701	-200,000	-0,002	-0,051
-416,686	-200,000	-0,029	0,132
-415,671	-53,684	0,034	-0,011
-414,657	800,000	-0,054	0,114
-413,642	21,902	0,058	-0,034
-412,628	-200,000	-0,012	0,083
-411,613	800,000	-0,037	-0,101
-410,598	-92,611	0,094	-0,019
-409,584	-200,000	0,010	-0,041
-408,569	800,000	-0,042	0,124
-407,555	244,613	-0,022	0,027
-406,540	-200,000	0,013	-0,064
-405,525	628,261	0,092	-0,168
-404,511	171,861	-0,014	0,014
-403,496	7,045	-0,042	-0,022
-402,482	25,025	0,087	0,051
-401,467	800,000	0,022	0,052
-400,452	-200,000	-0,002	0,040
-399,438	-44,802	-0,119	-0,042
-398,423	255,329	0,045	0,056
-397,409	19,844	-0,045	-0,026
-396,394	62,717	-0,071	0,051
-395,379	130,747	0,048	-0,045
-394,365	-72,447	0,119	0,031
-393,350	-200,000	0,015	0,155
-392,336	-2,850	-0,056	0,028
-391,321	800,000	0,042	0,087
-390,306	-167,441	-0,145	0,004
-389,292	57,807	-0,073	-0,051
-388,277	-121,647	0,147	-0,017
-387,263	82,868	-0,065	-0,051
-386,248	-40,246	0,018	-0,007
-385,233	-200,000	0,006	-0,067
-384,219	79,897	0,021	0,017
-383,204	-97,284	-0,041	0,008
-382,190	-69,391	-0,046	-0,012
-381,175	800,000	-0,047	0,122
-380,160	-123,277	0,077	-0,009
-379,146	-200,000	-0,000	-0,038
-378,131	108,816	-0,060	0,051
-377,117	162,411	-0,088	-0,088
-376,102	-92,597	-0,104	0,021
-375,088	175,141	0,050	0,052
-374,073	9,074	0,106	-0,057
-373,058	-200,000	0,004	0,136
-372,044	-33,904	0,104	-0,041
-371,029	81,138	0,059	0,045
-370,015	-140,000	0,163	-0,012
-369,000	208,554	-0,114	-0,128
-367,985	-200,000	-0,013	-0,087
-366,971	471,085	0,082	0,133
-365,956	296,223	0,011	0,015
-364,942	800,000	-0,018	-0,043
-363,927	-200,000	-0,003	0,057
-362,912	725,726	-0,031	0,060
-361,898	800,000	-0,007	0,015
-360,883	-200,000	0,010	0,080
-359,869	800,000	-0,044	0,090
-358,854	-97,838	-0,122	0,022
-357,839	-59,547	0,057	-0,017
-356,825	114,236	-0,072	0,063
-355,810	554,446	-0,030	-0,051
-354,796	100,785	0,042	-0,035
-353,781	-200,000	0,001	0,162
-352,766	182,966	0,012	-0,013
-351,752	800,000	0,032	-0,071
-350,737	124,461	0,068	-0,061
-349,723	-93,396	0,091	-0,018
-348,708	-9,881	0,215	-0,102
-347,693	53,906	-0,111	0,076
-346,679	454,908	-0,046	0,073
-345,664	782,351	-0,042	-0,083
-344,650	-77,569	0,025	-0,006
-343,635	265,122	0,064	-0,079
-342,620	269,792	0,058	0,073
-341,606	800,000	0,059	-0,167
-340,591	118,589	-0,018	-0,016
-339,577	22,624	0,068	-0,040
-338,562	-200,000	0,023	-0,098
-337,548	-200,000	-0,003	0,104
-336,533	-131,707	0,067	-0,006
-335,518	510,711	-0,094	0,157
-334,504	-161,266	-0,081	0,003
-333,489	-200,000	-0,012	-0,108
-332,475	800,000	-0,030	0,085
-331,460	-200,000	0,014	-0,066
-330,445	-92,012	0,109	0,022
-329,431	-200,000	-0,001	0,154
-328,416	-109,736	-0,067	0,010
-327,402	98,373	0,096	0,079
-326,387	-200,000	-0,036	-0,166
-325,372	800,000	0,034	-0,077
-324,358	-200,000	-0,003	-0,131
-323,343	28,997	0,045	-0,027
-322,329	118,809	0,066	0,058
-321,314	-54,873	0,103	-0,033
-320,299	-200,000	-0,014	-0,056
-319,285	164,939	-0,037	-0,038
-318,270	8,409	0,101	0,054
-317,256	800,000	-0,014	0,035
-316,241	-200,000	-0,014	-0,067
-315,226	496,994	0,016	-0,027
-314,212	800,000	0,028	-0,067
-313,197	56,422	0,098	-0,068
-312,183	-94,102	0,065	-0,013
-311,168	324,660	-0,042	-0,058
-310,153	-136,291	-0,114	-0,009
-309,139	277,759	-0,015	-0,019
-308,124	-200,000	0,019	-0,113
-307,110	-80,686	0,152	-0,036
-306,095	-14,110	0,083	0,038
-305,080	699,458	-0,123	0,233
-304,066	-200,000	-0,003	0,071
-303,051	-146,746	-0,057	-0,003
-302,037	-172,807	-0,097	-0,002
-301,022	686,123	0,032	-0,060
-300,008	-164,351	-0,143	0,005
-298,993	-200,000	-0,031	0,100
-297,978	-36,779	-0,091	0,035
-296,964	-78,495	0,033	-0,008
-295,949	800,000	0,040	0,096
-294,935	-200,000	-0,033	-0,107
-293,920	-200,000	0,008	-0,033
-292,905	-148,687	0,083	0,005
-291,891	-70,066	-0,090	-0,024
-290,876	76,382	-0,077	0,058
-289,862	8,155	-0,049	0,026
-288,847	-200,000	-0,056	-0,271
-287,832	-200,000	0,012	0,072
-286,818	-200,000	0,021	-0,086
-285,803	247,067	0,051	0,061
-284,789	-200,000	0,034	0,161
-283,774	-200,000	-0,032	-0,124
-282,759	-35,054	0,094	0,036
-281,745	-200,000	-0,030	-0,098
-280,730	-80,982	-0,063	0,015
-279,716	-200,000	-0,012	0,042
-278,701	37,851	0,145	0,091
-277,686	657,651	-0,036	0,066
-276,672	79,590	-0,092	-0,070
-275,657	51,703	0,146	-0,099
-274,643	494,784	0,036	-0,060
-273,628	27,553	-0,085	0,051
-272,613	-200,000	-0,005	0,029
-271,599	323,193	0,044	-0,060
-270,584	-95,055	-0,123	-0,023
-269,570	-200,000	0,037	0,168
-268,555	78,461	0,065	0,049
-267,540	-19,884	-0,066	-0,029
-266,526	-45,776	0,068	0,024
-265,511	800,000	-0,038	-0,098
-264,497	682,643	-0,037	0,068
-263,482	-200,000	0,025	0,078
-262,467	-23,775	-0,096	-0,041
-261,453	74,898	0,131	0,098
-260,438	19,939	-0,099	-0,057
-259,424	-200,000	-0,026	-0,137
-258,409	-20,971	-0,128	-0,055
-257,395	65,936	0,136	-0,098
-256,380	16,677	0,210	0,118
-255,365	-200,000	-0,003	0,120
-254,351	281,155	0,128	-0,164
-253,336	-119,125	-0,180	0,022
-252,322	-200,000	-0,024	-0,094
-251,307	84,745	0,035	-0,027
-250,292	-54,271	0,103	0,033
-249,278	800,000	0,062	0,167
-248,263	373,707	0,061	0,089
-247,249	800,000	-0,045	0,126
-246,234	392,587	0,060	-0,089
-245,219	800,000	0,021	-0,042
-244,205	34,501	-0,064	-0,040
-243,190	552,615	-0,048	-0,083
-242,176	-200,000	0,019	-0,070
-241,161	-200,000	0,020	0,086
-240,146	368,910	-0,029	0,041
-239,132	800,000	-0,011	-0,032
-238,117	217,344	0,081	-0,092
-237,103	-200,000	-0,031	0,102
-236,088	800,000	-0,040	-0,085
-235,073	800,000	0,046	-0,101
-234,059	51,777	-0,051	0,035
-233,044	-134,432	0,155	0,013
-232,030	120,187	-0,056	0,049
-231,015	-46,639	-0,114	0,039
-230,000	318,379	-0,039	-0,052
-228,986	-200,000	0,001	-0,104
-227,971	-174,260	0,027	-0,001
-226,957	-74,046	0,193	0,049
-225,942	624,687	-0,055	0,098
-224,927	207,187	0,029	0,032
-223,913	-200,000	-0,005	-0,035
-222,898	-200,000	0,002	-0,236
-221,884	317,357	-0,057	-0,076
-220,869	203,684	0,042	0,046
-219,855	-200,000	0,033	0,147
-218,840	117,567	0,117	0,103
-217,825	794,199	0,081	-0,159
-216,811	124,995	-0,106	0,095
-215,796	-200,000	0,029	-0,115
-214,782	261,207	-0,022	-0,028
-213,767	130,184	0,014	-0,013
-212,752	-163,449	0,158	-0,005
-211,738	-200,000	-0,012	-0,054
-210,723	-12,747	-0,010	0,005
-209,709	-200,000	-0,006	-0,085
-208,694	-200,000	0,017	-0,211
-207,679	-116,082	-0,112	0,015
-206,665	-71,790	0,041	0,011
-205,650	443,365	0,030	0,046
-204,636	249,744	0,076	-0,092
-203,621	-92,101	-0,039	-0,008
-202,606	-152,453	-0,061	-0,003
-201,592	-200,000	-0,012	-0,129
-200,577	-104,245	0,069	-0,011
-199,563	296,952	-0,054	-0,070
-198,548	-200,000	-0,029	0,100
-197,533	-104,842	-0,098	-0,016
-196,519	-141,783	-0,135	0,009
-195,504	722,421	0,031	0,059
-194,490	-200,000	-0,003	-0,039
-193,475	460,715	0,060	-0,095
-192,460	-109,121	0,037	0,006
-191,446	155,808	0,057	-0,056
-190,431	315,875	0,082	-0,111
-189,417	-104,954	-0,112	0,018
-188,402	-59,637	0,037	0,011
-187,387	-200,000	-0,002	0,025
-186,373	-200,000	-0,015	-0,125
-185,358	-200,000	0,002	-0,028
-184,344	363,457	0,055	0,079
-183,329	-183,049	0,071	-0,001
-182,315	800,000	-0,026	0,071
-181,300	-70,843	-0,098	-0,026
-180,285	758,671	-0,039	-0,076
-179,271	-200,000	0,001	0,080
-178,256	-25,236	-0,120	0,050
-177,242	286,895	0,038	0,049
-176,227	800,000	-0,034	0,073
-175,212	-200,000	0,014	0,192
-174,198	800,000	0,013	-0,037
-173,183	-15,714	-0,016	-0,007
-172,169	289,934	0,049	0,063
-171,154	537,372	-0,015	0,026
-170,139	381,408	0,011	-0,017
-169,125	-84,001	0,119	0,027
-168,110	-200,000	-0,002	0,024
-167,096	-200,000	-0,021	0,138
-166,081	-200,000	-0,013	-0,103
-165,066	-200,000	-0,022	0,104
-164,052	189,456	0,042	-0,045
-163,037	665,423	-0,053	0,098
-162,023	-94,090	-0,075	0,014
-161,008	-112,676	-0,153	0,021
-159,993	-200,000	0,007	-0,036
-158,979	700,010	-0,070	-0,130
-157,964	255,709	0,020	-0,024
-156,950	-96,534	0,150	-0,028
-155,935	-200,000	-0,002	0,045
-154,920	-22,124	0,086	-0,037
-153,906	62,429	0,070	0,049
-152,891	800,000	-0,020	-0,049
-151,877	-200,000	0,016	-0,124
-150,862	800,000	-0,046	-0,138
-149,847	43,285	0,055	0,036
-148,833	-130,591	0,057	-0,005
-147,818	-200,000	-0,021	-0,083
-146,804	123,254	0,086	0,076
-145,789	800,000	0,045	0,120
-144,775	2,892	-0,111	-0,057
-143,760	-68,655	-0,068	-0,019
-142,745	13,675	-0,120	0,066
-141,731	307,991	0,034	0,045
-140,716	-48,389	0,084	0,028
-139,702	-200,000	-0,010	-0,054
-138,687	80,414	0,080	-0,061
-137,672	0,502	-0,087	-0,044
-136,658	-36,261	-0,075	0,029
-135,643	-200,000	0,004	-0,102
-134,629	146,452	-0,087	0,083
-133,614	800,000	-0,026	-0,078
-132,599	-188,962	0,118	-0,001
-131,585	-148,750	0,012	0,001
-130,570	-189,009	-0,106	-0,001
-129,556	-105,444	-0,038	0,006
-128,541	36,053	0,138	-0,086
-127,526	197,135	0,062	0,067
-126,512	800,000	-0,028	-0,086
-125,497	441,449	-0,084	0,131
-124,483	364,303	-0,052	-0,075
-123,468	-200,000	0,028	0,120
-122,453	-200,000	0,012	-0,096
-121,439	-197,209	-0,038	-0,000
-120,424	395,267	0,053	-0,079
-119,410	-76,836	0,053	-0,013
-118,395	-45,395	-0,039	0,014
-117,380	800,000	-0,011	0,032
-116,366	253,100	0,048	-0,058
-115,351	-66,111	-0,021	-0,006
-114,337	-200,000	0,022	-0,092
-113,322	-200,000	-0,073	-0,251
-112,307	-129,367	-0,088	0,009
-111,293	-200,000	-0,004	0,164
-110,278	-59,846	0,188	-0,057
-109,264	-7,599	-0,071	0,034
-108,249	397,269	0,029	0,042
-107,234	-74,630	0,158	-0,040
-106,220	212,552	-0,087	-0,097
-105,205	163,373	-0,099	-0,099
-104,191	-200,000	0,010	0,066
-103,176	-99,669	0,073	0,013
-102,162	306,501	-0,029	0,038
-101,147	154,722	-0,034	-0,033
-100,132	-2,710	0,051	0,025
-99,118	371,176	-0,042	-0,061
-98,103	-111,113	-0,047	0,007
-97,089	800,000	-0,043	-0,101
-96,074	-114,040	0,042	0,006
-95,059	-168,597	0,051	0,001
-94,045	-200,000	0,012	-0,105
-93,030	82,004	-0,025	0,019
-92,016	-157,312	0,054	-0,002
-91,001	-69,908	0,064	0,017
-89,986	-200,000	-0,002	0,075
-88,972	-95,026	0,041	0,008
-87,957	-200,000	0,002	-0,097
-86,943	183,536	-0,029	0,030
-85,928	-53,010	0,019	0,006
-84,913	766,961	0,054	0,105
-83,899	503,880	0,032	-0,053
-82,884	-200,000	-0,018	0,159
-81,870	225,904	-0,024	-0,028
-80,855	800,000	0,048	0,094
-79,840	-200,000	0,015	0,107
-78,826	-200,000	-0,011	0,088
-77,811	228,329	-0,039	-0,045
-76,797	331,771	-0,095	0,131
-75,782	476,533	0,029	0,047
-74,767	800,000	-0,027	0,073
-73,753	535,107	0,036	0,061
-72,738	-104,651	-0,089	0,014
-71,724	-70,175	-0,194	-0,052
-70,709	104,934	-0,109	-0,091
-69,694	-200,000	-0,067	-0,000
-68,680	308,269	0,050	-0,066
-67,665	-165,770	0,101	0,003
-66,651	-72,659	-0,073	0,019
-65,636	101,021	-0,029	0,024
-64,622	-200,000	0,002	0,038
-63,607	28,219	0,031	0,018
-62,592	-200,000	0,015	-0,159
-61,578	-200,000	-0,008	-0,030
-60,563	800,000	0,086	0,213
-59,549	141,738	-0,017	-0,016
-58,534	12,134	-1,731	-0,939
-57,519	496,043	-1,385	-2,258
-56,505	-200,000	-0,346	-4,394
-55,490	479,203	0,770	1,238
-54,476	800,000	4,953	11,391
-53,461	-200,000	19,752	330,562
-52,446	-200,000	744,538	2333,991
-51,432	566,025	1653,174	2845,006
-50,417	76,562	1665,822	1246,787
-49,403	20,400	1539,007	876,564
-48,388	14,290	1461,256	802,701
-47,373	18,605	1451,438	818,015
-46,359	16,679	1441,316	803,095
-45,344	12,526	1436,688	780,694
-44,330	12,489	1434,710	779,409
-43,315	12,467	1433,224	778,467
-42,300	12,478	1431,255	777,417
-41,286	12,494	1430,360	776,976
-40,271	12,446	1428,830	775,888
-39,257	12,493	1427,417	775,314
-38,242	12,529	1426,308	774,850
-37,227	12,522	1425,067	774,110
-36,213	12,514	1423,897	773,410
-35,198	12,494	1422,858	772,718
-34,184	12,585	1421,770	772,529
-33,169	12,512	1420,200	771,298
-32,154	12,545	1419,228	770,896
-31,140	12,519	1418,058	770,107
-30,125	12,587	1416,886	769,759
-29,111	12,548	1415,705	768,903
-28,096	12,518	1414,785	768,235
-27,082	12,467	1413,659	767,352
-26,067	12,456	1412,647	766,721
-25,052	12,477	1411,550	766,192
-24,038	12,469	1410,396	765,499
-23,023	12,509	1409,445	765,142
-22,009	12,486	1408,333	764,398
-20,994	12,438	1407,489	763,686
-19,979	12,474	1406,632	763,358
-18,965	12,377	1405,941	762,502
-17,950	12,419	1404,814	762,053
-16,936	12,428	1403,974	761,610
-15,921	12,391	1403,065	760,918
-14,906	12,343	1402,144	760,161
-13,892	12,382	1401,092	759,742
-12,877	12,399	1400,206	759,311
-11,863	12,387	1399,421	758,798
-10,848	12,372	1398,626	758,269
-9,833	12,304	1397,666	757,401
-8,819	12,250	1396,842	756,676
-7,804	12,273	1395,913	756,250
-6,790	12,271	1394,823	755,619
-5,775	12,275	1393,855	755,084
-4,760	12,288	1392,941	754,617
-3,746	12,268	1391,893	753,927
-2,731	12,264	1391,130	753,466
-1,717	12,230	1390,336	752,849
-0,702	12,249	1388,426	751,871
0,313	16,194	1304,629	724,641
1,327	32,633	698,715	425,772
2,342	50,127	122,197	81,333
3,356	3,255	16,527	8,465
4,371	2,156	3,300	1,678
5,386	12,787	0,604	0,329
6,400	-200,000	0,088	0,316
7,415	-112,446	-0,256	-0,036
8,429	176,188	-0,293	-0,301
9,444	80,311	-0,235	-0,178
10,459	-19,966	-0,281	-0,122
11,473	-9,579	-0,327	-0,153
12,488	-63,827	-0,406	-0,116
13,502	-40,414	-0,292	-0,107
14,517	0,975	-0,298	-0,150
15,531	77,726	-0,254	-0,190
16,546	34,028	-0,392	-0,240
17,561	132,428	-0,359	-0,326
18,575	-39,000	-0,216	-0,080
19,590	235,335	-0,295	-0,344
20,604	56,863	-0,310	-0,213
21,619	-11,705	-0,402	-0,185
22,634	6,273	-0,486	-0,254
23,648	142,654	-0,470	-0,440
24,663	-35,759	-0,432	-0,164
25,677	800,000	-0,143	-0,346
26,692	77,167	-0,362	-0,271
27,707	86,655	-0,323	-0,251
28,721	28,689	-0,396	-0,236
29,736	75,426	-0,371	-0,275
30,750	85,845	-0,430	-0,333
31,765	93,178	-0,327	-0,260
32,780	25,858	-0,441	-0,258
33,794	-0,052	-0,368	-0,184
34,809	107,847	-0,335	-0,281
35,823	6,118	-0,522	-0,272
36,838	119,026	-0,339	-0,295
37,853	124,524	-0,398	-0,352
38,867	800,000	-0,149	-0,356
39,882	39,602	-0,380	-0,239
40,896	-36,982	-0,386	-0,145
41,911	38,819	-0,312	-0,196
42,926	51,110	-0,301	-0,200
43,940	-24,052	-0,402	-0,168
44,955	327,015	-0,270	-0,365
45,969	26,965	-0,300	-0,177
46,984	134,724	-0,325	-0,297
47,999	-10,107	-0,351	-0,163
49,013	100,436	-0,334	-0,273
50,028	447,554	-0,230	-0,357
51,042	270,470	-0,327	-0,406
52,057	699,406	-0,256	-0,476
53,071	154,254	-0,318	-0,307
54,086	36,181	-0,350	-0,216
55,101	275,926	-0,180	-0,225
56,115	200,606	-0,257	-0,278
57,130	65,453	-0,400	-0,284
58,144	211,317	-0,299	-0,331
59,159	119,321	-0,445	-0,387
60,174	113,141	-0,260	-0,222
61,188	22,041	-0,417	-0,238
62,203	-6,695	-0,394	-0,188
63,217	79,200	-0,297	-0,223
64,232	-23,897	-0,390	-0,163
65,247	133,558	-0,336	-0,305
66,261	39,647	-0,343	-0,215
67,276	-41,589	-0,446	-0,160
68,290	142,988	-0,215	-0,201
69,305	123,278	-0,341	-0,300
70,320	27,762	-0,431	-0,254
71,334	110,567	-0,293	-0,247
72,349	2,831	-0,367	-0,186
73,363	63,619	-0,338	-0,238
74,378	67,182	-0,329	-0,235
75,393	23,238	-0,402	-0,231
76,407	-63,419	-0,329	-0,094
77,422	-34,507	-0,372	-0,142
78,436	18,239	-0,225	-0,126
79,451	39,911	-0,350	-0,220
80,466	15,942	-0,311	-0,171
81,480	-2,037	-0,551	-0,271
82,495	29,277	-0,209	-0,124
83,509	9,415	-0,360	-0,190
84,524	516,796	-0,096	-0,158
85,539	106,835	-0,222	-0,185
86,553	-10,479	-0,250	-0,116
87,568	-81,413	-0,362	-0,083
88,582	261,140	-0,192	-0,233
89,597	154,282	-0,273	-0,263
90,611	4,851	-0,262	-0,135
91,626	8,459	-0,337	-0,177
92,641	34,942	-0,316	-0,193
93,655	88,186	-0,357	-0,277
94,670	32,010	-0,242	-0,146
95,684	100,167	-0,247	-0,201
96,699	41,110	-0,258	-0,163
97,714	-84,552	-0,304	-0,067
98,728	800,000	-0,116	-0,242
99,743	273,874	-0,271	-0,336
100,757	82,222	-0,228	-0,173
101,772	132,987	-0,243	-0,220
102,787	190,898	-0,237	-0,250
103,801	92,835	-0,348	-0,275
104,816	-8,819	-0,410	-0,192
105,830	-16,221	-0,282	-0,125
106,845	31,334	-0,137	-0,082
107,860	800,000	-0,097	-0,233
108,874	69,370	-0,299	-0,215
109,889	222,209	-0,232	-0,262
110,903	70,571	-0,283	-0,204
111,918	302,939	-0,227	-0,294
112,933	63,660	-0,238	-0,167
113,947	167,392	-0,138	-0,137
114,962	44,827	-0,290	-0,186
115,976	-74,419	-0,174	-0,043
116,991	356,273	-0,174	-0,243
118,006	-100,991	-0,249	-0,042
119,020	-22,381	-0,285	-0,120
120,035	173,776	-0,190	-0,192
121,049	-88,418	-0,311	-0,064
122,064	77,300	-0,237	-0,176
123,079	1,396	-0,291	-0,146
124,093	225,995	-0,303	-0,344
125,108	-95,976	-0,274	-0,050
126,122	-20,682	-0,325	-0,139
127,137	26,806	-0,234	-0,137
128,151	43,008	-0,289	-0,184
129,166	130,359	-0,263	-0,235
130,181	103,021	-0,218	-0,178
131,195	210,318	-0,304	-0,334
132,210	69,215	-0,245	-0,175
133,224	74,494	-0,330	-0,242
134,239	58,531	-0,253	-0,173
135,254	404,941	-0,160	-0,237
136,268	-131,191	-0,239	-0,022
137,283	-43,030	-0,319	-0,112
138,297	40,595	-0,291	-0,183
139,312	4,005	-0,327	-0,167
140,327	14,621	-0,243	-0,132
141,341	445,902	-0,152	-0,234
142,356	131,734	-0,223	-0,200
143,370	-150,235	-0,193	0,010
144,385	-98,093	-0,246	-0,044
145,400	29,851	-0,243	-0,144
146,414	76,546	-0,313	-0,232
147,429	156,553	-0,210	-0,202
148,443	355,743	-0,230	-0,320
149,458	61,612	-0,181	-0,126
150,473	362,678	-0,099	-0,138
151,487	36,249	-0,227	-0,139
152,502	-107,114	-0,306	-0,047
153,516	800,000	-0,130	-0,290
154,531	122,663	-0,276	-0,241
155,546	-92,426	-0,316	-0,061
156,560	115,383	-0,268	-0,228
157,575	800,000	-0,086	-0,210
158,589	-11,099	-0,294	-0,134
159,604	407,804	-0,209	-0,309
160,619	243,369	-0,202	-0,237
161,633	179,536	-0,236	-0,241
162,648	19,117	-0,180	-0,100
163,662	55,551	-0,160	-0,107
164,677	300,296	-0,191	-0,246
165,692	99,375	-0,154	-0,124
166,706	54,442	-0,247	-0,165
167,721	135,130	-0,297	-0,269
168,735	101,503	-0,270	-0,219
169,750	89,038	-0,225	-0,174
170,764	12,750	-0,185	-0,099
171,779	25,879	-0,245	-0,142
172,794	70,084	-0,156	-0,112
173,808	800,000	-0,040	-0,121
174,823	66,449	-0,287	-0,203
175,837	20,026	-0,248	-0,139
176,852	105,184	-0,253	-0,207
177,867	-114,609	-0,302	-0,040
178,881	169,129	-0,169	-0,168
179,896	28,419	-0,244	-0,143
180,910	15,529	-0,208	-0,113
181,925	212,723	-0,311	-0,342
182,940	-19,453	-0,261	-0,112
183,954	-31,351	-0,274	-0,107
184,969	-31,120	-0,198	-0,077
185,983	88,968	-0,202	-0,156
186,998	-8,162	-0,290	-0,135
188,013	-88,372	-0,264	-0,054
189,027	71,782	-0,292	-0,211
190,042	19,737	-0,338	-0,188
191,056	282,170	-0,187	-0,233
192,071	148,924	-0,263	-0,248
193,086	104,794	-0,212	-0,173
194,100	800,000	-0,090	-0,190
195,115	133,001	-0,202	-0,181
196,129	-168,350	-0,314	-0,008
197,144	84,662	-0,279	-0,212
198,159	45,155	-0,175	-0,111
199,173	95,129	-0,246	-0,194
200,188	668,766	-0,137	-0,248
201,202	-119,411	-0,240	0,029
202,217	169,518	-0,106	-0,105
203,232	800,000	-0,092	-0,198
204,246	-34,849	-0,293	-0,111
205,261	430,506	-0,208	-0,314
206,275	81,702	-0,266	-0,200
207,290	150,365	-0,203	-0,191
208,304	-32,662	-0,123	-0,047
209,319	119,572	-0,256	-0,220
210,334	105,597	-0,221	-0,181
211,348	142,312	-0,245	-0,226
212,363	-71,960	-0,286	-0,073
213,377	-45,423	-0,107	-0,037
214,392	395,745	-0,124	-0,180
215,407	54,145	-0,229	-0,152
216,421	3,742	-0,209	-0,106
217,436	417,762	-0,135	-0,201
218,450	-56,404	-0,196	-0,060
219,465	6,044	-0,188	-0,096
220,480	-8,562	-0,169	-0,078
221,494	98,316	-0,155	-0,123
222,509	-118,253	-0,119	0,014
223,523	174,090	-0,141	-0,141
224,538	71,147	-0,189	-0,135
225,553	-28,232	-0,381	-0,152
226,567	17,989	-0,210	-0,115
227,582	33,851	-0,124	-0,074
228,596	-79,940	-0,200	0,046
229,611	-24,108	-0,089	0,037
230,626	-110,370	-0,099	-0,014
231,640	88,308	-0,129	-0,099
232,655	40,775	-0,234	-0,146
233,669	35,218	-0,280	-0,169
234,684	-109,724	-0,223	-0,032
235,699	800,000	-0,068	-0,153
236,713	111,304	-0,144	-0,120
237,728	43,595	-0,112	-0,071
238,742	-42,244	-0,238	-0,084
239,757	-55,538	-0,260	-0,080
240,772	800,000	-0,087	-0,239
241,786	27,867	-0,186	-0,108
242,801	2,748	-0,227	-0,114
243,815	-200,000	-0,015	-0,098
244,830	-200,000	-0,023	-0,135
245,844	-125,655	-0,187	0,019
246,859	-7,920	-0,148	-0,069
247,874	62,438	-0,236	-0,163
248,888	84,186	-0,218	-0,165
249,903	21,432	-0,189	-0,106
250,917	79,130	-0,110	-0,081
251,932	-179,802	-0,183	-0,003
252,947	213,404	-0,104	-0,113
253,961	-76,314	-0,173	0,042
254,976	529,591	-0,083	-0,137
255,990	721,334	-0,089	-0,165
257,005	-35,781	-0,223	-0,083
258,020	7,930	-0,146	-0,075
259,034	800,000	-0,032	-0,097
260,049	-18,547	-0,135	0,058
261,063	-25,335	-0,270	-0,110
262,078	173,034	-0,217	-0,216
263,093	-98,932	-0,281	-0,049
264,107	-172,918	-0,132	-0,003
265,122	81,006	-0,185	-0,138
266,136	-54,240	-0,166	-0,052
267,151	-185,136	-0,156	-0,002
268,166	24,930	-0,196	-0,112
269,180	79,334	-0,187	-0,138
270,195	41,635	-0,233	-0,145
271,209	180,521	-0,150	-0,152
272,224	287,788	-0,185	-0,231
273,239	-119,532	-0,156	-0,018
274,253	-81,032	-0,159	-0,036
275,268	-31,285	-0,198	-0,076
276,282	28,446	-0,233	-0,135
277,297	-126,570	-0,125	-0,013
278,312	-176,180	-0,217	-0,004
279,326	800,000	-0,074	-0,161
280,341	-144,479	-0,186	0,012
281,355	17,893	-0,168	-0,092
282,370	13,896	-0,154	-0,082
283,384	-1,643	-0,164	-0,079
284,399	51,681	-0,130	-0,085
285,414	94,791	-0,191	-0,150
286,428	80,771	-0,209	-0,155
287,443	-124,267	-0,193	-0,021
288,457	800,000	-0,039	-0,080
289,472	307,348	-0,191	-0,246
290,487	-8,642	-0,244	-0,112
291,501	153,690	-0,193	-0,182
292,516	117,524	-0,226	-0,192
293,530	28,957	-0,180	-0,105
294,545	28,918	-0,269	-0,156
295,560	-176,584	-0,151	-0,003
296,574	-69,110	-0,069	0,018
297,589	77,727	-0,123	-0,090
298,603	-44,977	-0,295	-0,101
299,618	-68,125	-0,069	0,018
300,633	7,565	-0,084	-0,043
301,647	556,333	-0,081	-0,134
302,662	-44,906	-0,164	-0,056
303,676	140,730	-0,102	-0,093
304,691	397,740	-0,165	-0,239
305,706	79,271	-0,193	-0,142
306,720	-6,087	-0,175	-0,082
307,735	20,505	-0,141	-0,078
308,749	-75,561	-0,138	-0,033
309,764	6,511	-0,125	0,064
310,779	-200,000	-0,033	-0,115
311,793	-150,009	-0,091	-0,005
312,808	71,369	-0,232	-0,166
313,822	332,822	-0,121	-0,162
314,837	-200,000	-0,052	-0,192
315,852	800,000	0,022	-0,064
316,866	-200,000	-0,030	-0,135
317,881	-200,000	-0,008	-0,119
318,895	-199,351	-0,199	0,001
319,910	-21,526	-0,162	-0,068
320,925	505,947	-0,103	-0,165
321,939	-7,493	-0,073	-0,034
322,954	15,410	-0,113	-0,061
323,968	-133,587	-0,194	0,016
324,983	305,432	-0,112	-0,143
325,997	-51,152	-0,218	-0,070
327,012	-95,405	-0,163	-0,030
328,027	208,696	-0,072	-0,078
329,041	800,000	-0,100	-0,227
330,056	128,118	-0,155	-0,136
331,070	11,467	-0,139	-0,073
332,085	13,473	-0,162	0,086
333,100	-4,464	-0,086	-0,041
334,114	-200,000	-0,037	-0,218
335,129	-30,514	-0,201	-0,078
336,143	425,253	-0,060	-0,088
337,158	228,936	-0,149	-0,167
338,173	-200,000	-0,048	-0,147
339,187	-30,434	-0,024	0,009
340,202	-109,409	-0,187	-0,027
341,216	132,113	-0,180	-0,159
342,231	171,454	-0,187	-0,184
343,246	128,100	-0,101	-0,088
344,260	-41,470	-0,109	-0,038
345,275	-132,264	-0,206	0,018
346,289	62,426	-0,150	-0,103
347,304	800,000	-0,099	-0,195
348,319	48,176	-0,113	-0,072
349,333	508,514	-0,112	-0,179
350,348	-190,509	-0,133	0,001
351,362	9,674	-0,165	-0,085
352,377	48,046	-0,095	-0,061
353,392	213,236	-0,166	-0,179
354,406	-8,577	-0,199	-0,091
355,421	206,228	1311,657	1399,306
356,435	158,591	1472,021	1399,809
