DTS Sentinel unit serial number:	SN410029Multiplexer serial number:	ORYXHardware model number:	OX2-SRSoftware version number:	ORYX F/W v4,00 Oryx Data Collector v3.7.2.0data status	okinstallation	B3 Nyhavnadifferential loss correction	single-endedforward channel	channel 1reverse channel	N/Adate	2023/11/29time	14:57:31forward acquisition time	300,00reverse acquisition time	0,00gamma	499,1914k internal	0,3211k external	0,3211temperature offset calibration	1,0000default loss term (dB/km)	0,3820temperature slope calibration	1,0000multiplexer offset coefficient	1,0000multiplexer slope coefficient	1,0000fibre end	0,00T internal ref (°C)	11,12T ext. ref 1 (°C)	-2,99T ext. ref 2 (°C)	-3,15length (m)	temperature (°C)	Stokes	anti-Stokes-744,400	586,011	-0,151	-0,271
-743,385	-200,000	0,042	0,337
-742,371	204,383	-0,233	-0,262
-741,356	-200,000	-0,015	0,242
-740,342	46,780	-0,164	-0,110
-739,327	-200,000	-0,100	0,347
-738,312	-200,000	-0,001	-0,419
-737,298	-200,000	-0,017	0,248
-736,283	636,826	-0,103	-0,190
-735,269	-200,000	0,001	0,340
-734,254	462,835	-0,102	-0,166
-733,239	-171,929	-0,272	0,006
-732,225	58,990	-0,210	-0,150
-731,210	182,659	0,081	0,087
-730,196	800,000	-0,041	-0,105
-729,181	-200,000	-0,044	-0,179
-728,167	383,611	0,068	-0,102
-727,152	800,000	0,023	-0,055
-726,137	-200,000	-0,022	-0,110
-725,123	68,061	0,053	-0,039
-724,108	660,663	-0,047	-0,088
-723,094	-19,169	-0,169	-0,076
-722,079	-147,430	-0,153	-0,009
-721,064	800,000	0,048	0,122
-720,050	300,149	-0,145	-0,194
-719,035	44,367	-0,062	-0,041
-718,021	-11,468	-0,068	-0,032
-717,006	340,395	0,024	-0,034
-715,991	209,346	-0,036	-0,041
-714,977	-200,000	0,019	-0,136
-713,962	800,000	0,074	-0,181
-712,948	-200,000	-0,005	0,015
-711,933	165,315	0,083	-0,085
-710,918	-200,000	-0,006	-0,128
-709,904	193,145	-0,099	-0,109
-708,889	100,553	-0,086	-0,072
-707,875	121,742	0,024	0,022
-706,860	67,647	-0,049	0,036
-705,845	75,452	0,092	0,070
-704,831	-200,000	-0,004	0,129
-703,816	187,374	-0,079	0,085
-702,802	-85,572	0,016	-0,004
-701,787	-53,279	-0,105	-0,035
-700,772	-200,000	0,004	-0,242
-699,758	99,931	0,038	0,032
-698,743	-200,000	0,007	0,099
-697,729	29,319	-0,081	0,050
-696,714	-99,779	-0,180	0,032
-695,699	226,258	-0,040	-0,046
-694,685	-200,000	-0,007	-0,078
-693,670	-99,863	-0,122	-0,022
-692,656	345,917	0,081	-0,115
-691,641	-200,000	-0,004	0,052
-690,627	-200,000	0,027	0,118
-689,612	-200,000	-0,018	0,125
-688,597	693,440	0,034	-0,064
-687,583	-81,489	-0,162	-0,038
-686,568	-58,506	0,185	-0,058
-685,554	182,045	-0,096	-0,102
-684,539	186,521	0,033	0,035
-683,524	-200,000	-0,036	0,129
-682,510	221,564	0,035	0,041
-681,495	800,000	-0,044	-0,101
-680,481	62,806	-0,079	-0,057
-679,466	-200,000	0,023	-0,143
-678,451	8,617	0,082	-0,044
-677,437	800,000	-0,084	0,181
-676,422	-182,021	0,058	0,001
-675,408	800,000	0,042	0,088
-674,393	234,878	-0,027	-0,033
-673,378	86,930	-0,174	-0,139
-672,364	569,574	-0,054	-0,096
-671,349	182,965	-0,169	-0,181
-670,335	-200,000	-0,002	-0,084
-669,320	-200,000	0,010	0,041
-668,305	-200,000	-0,042	0,230
-667,291	289,319	-0,034	0,044
-666,276	309,083	-0,088	0,120
-665,262	540,604	-0,015	-0,027
-664,247	-110,339	0,030	-0,004
-663,232	-58,187	-0,068	-0,021
-662,218	-200,000	-0,024	-0,162
-661,203	23,365	0,053	-0,031
-660,189	-112,667	0,161	0,023
-659,174	-124,811	0,014	0,002
-658,159	177,192	-0,124	-0,131
-657,145	117,649	-0,061	0,054
-656,130	54,162	-0,036	0,025
-655,116	800,000	-0,020	-0,054
-654,101	-200,000	0,020	-0,089
-653,086	-200,000	-0,001	0,070
-652,072	-120,828	-0,070	-0,008
-651,057	-200,000	0,008	-0,110
-650,043	671,087	0,056	-0,105
-649,028	669,148	0,047	0,089
-648,014	242,240	0,032	0,038
-646,999	659,391	-0,037	0,070
-645,984	-39,202	0,077	0,029
-644,970	-200,000	0,007	-0,064
-643,955	119,598	-0,064	-0,058
-642,941	501,727	-0,038	-0,064
-641,926	-200,000	0,005	0,060
-640,911	-121,618	-0,064	-0,008
-639,897	-200,000	0,020	0,094
-638,882	-143,761	-0,139	-0,009
-637,868	-200,000	0,034	-0,156
-636,853	800,000	-0,021	-0,065
-635,838	-200,000	-0,003	-0,013
-634,824	550,137	-0,029	-0,051
-633,809	-200,000	0,031	-0,127
-632,795	-200,000	-0,003	0,075
-631,780	-40,444	0,080	0,030
-630,765	-200,000	0,027	0,101
-629,751	771,336	-0,125	-0,247
-628,736	134,876	-0,091	-0,085
-627,722	363,904	-0,036	0,052
-626,707	-107,189	0,067	0,011
-625,692	800,000	0,028	-0,066
-624,678	-24,573	0,111	0,047
-623,663	-200,000	-0,021	-0,068
-622,649	213,318	0,008	-0,009
-621,634	800,000	-0,046	-0,141
-620,619	-200,000	0,006	-0,029
-619,605	576,035	0,054	0,096
-618,590	11,155	-0,060	0,033
-617,576	-200,000	0,012	0,086
-616,561	-200,000	-0,027	0,117
-615,546	74,010	0,116	0,088
-614,532	-200,000	-0,007	0,035
-613,517	124,527	-0,064	-0,058
-612,503	-40,760	0,063	-0,024
-611,488	32,499	0,133	-0,083
-610,474	172,422	-0,065	-0,068
-609,459	800,000	-0,028	0,067
-608,444	-53,201	-0,110	0,036
-607,430	-196,957	0,075	0,000
-606,415	-26,387	-0,063	0,027
-605,401	234,970	-0,050	-0,060
-604,386	32,553	0,074	-0,046
-603,371	-200,000	0,005	0,110
-602,357	246,379	-0,038	0,046
-601,342	800,000	-0,019	-0,052
-600,328	141,676	-0,074	-0,071
-599,313	-24,897	0,044	-0,019
-598,298	51,061	0,211	-0,144
-597,284	-84,112	0,031	0,007
-596,269	71,903	0,082	-0,061
-595,255	33,360	0,023	-0,014
-594,240	-6,257	-0,097	0,047
-593,225	708,396	-0,066	-0,126
-592,211	343,680	-0,053	-0,075
-591,196	800,000	0,035	0,110
-590,182	-200,000	-0,016	0,078
-589,167	292,677	-0,090	0,118
-588,152	-200,000	-0,014	0,046
-587,138	-200,000	-0,020	-0,064
-586,123	375,385	-0,052	-0,076
-585,109	-200,000	0,002	0,018
-584,094	-200,000	-0,017	-0,112
-583,079	22,351	0,127	0,075
-582,065	-2,411	0,067	-0,034
-581,050	40,441	0,057	0,037
-580,036	173,214	-0,031	0,032
-579,021	-54,953	-0,134	-0,043
-578,006	209,605	-0,037	0,042
-576,992	703,236	-0,048	-0,092
-575,977	-200,000	0,016	0,081
-574,963	68,271	0,052	0,038
-573,948	800,000	-0,037	0,103
-572,934	-71,745	-0,060	0,016
-571,919	244,077	0,063	-0,076
-570,904	-200,000	0,007	-0,129
-569,890	-200,000	-0,006	-0,104
-568,875	602,397	-0,072	-0,130
-567,861	-117,915	0,107	0,014
-566,846	-200,000	0,008	0,094
-565,831	-28,956	0,067	-0,027
-564,817	-32,487	-0,169	-0,067
-563,802	-200,000	-0,000	0,009
-562,788	513,826	-0,041	-0,069
-561,773	332,858	-0,020	-0,028
-560,758	800,000	0,022	0,052
-559,744	-200,000	0,003	0,121
-558,729	800,000	0,066	0,136
-557,715	95,416	-0,106	-0,087
-556,700	-200,000	0,003	-0,180
-555,685	800,000	-0,045	-0,105
-554,671	-35,840	-0,032	-0,012
-553,656	-200,000	-0,009	-0,044
-552,642	52,695	0,114	0,078
-551,627	-200,000	-0,008	0,126
-550,612	182,587	-0,075	0,080
-549,598	684,421	-0,022	-0,042
-548,583	7,077	-0,096	-0,051
-547,569	8,639	0,064	-0,035
-546,554	800,000	0,057	0,145
-545,539	-183,818	0,104	0,001
-544,525	800,000	0,040	-0,091
-543,510	-38,402	-0,131	-0,050
-542,496	-200,000	-0,008	0,087
-541,481	39,508	0,055	-0,035
-540,466	-200,000	0,016	0,150
-539,452	-200,000	-0,021	0,082
-538,437	-150,879	0,121	0,006
-537,423	796,266	-0,084	0,168
-536,408	21,982	0,120	0,070
-535,393	725,216	-0,036	-0,069
-534,379	-174,283	0,065	0,001
-533,364	40,512	0,051	0,033
-532,350	-200,000	-0,019	0,071
-531,335	-76,029	-0,043	0,011
-530,321	-200,000	0,015	-0,087
-529,306	-67,826	0,080	-0,022
-528,291	59,156	-0,118	-0,083
-527,277	-23,060	-0,109	-0,047
-526,262	-116,007	-0,045	0,006
-525,248	350,336	-0,093	0,133
-524,233	209,123	0,059	0,067
-523,218	-200,000	-0,014	-0,058
-522,204	-38,858	-0,109	0,041
-521,189	10,649	-0,144	0,079
-520,175	-200,000	0,009	-0,040
-519,160	-81,365	-0,045	-0,011
-518,145	194,042	-0,058	-0,063
-517,131	775,610	0,085	0,168
-516,116	597,367	-0,030	0,053
-515,102	-78,684	0,106	0,026
-514,087	323,386	-0,093	0,128
-513,072	-96,795	-0,133	-0,025
-512,058	-200,000	0,000	0,023
-511,043	-200,000	0,023	-0,074
-510,029	-77,238	0,102	0,025
-509,014	800,000	0,013	-0,029
-507,999	-200,000	-0,004	-0,062
-506,985	19,289	-0,056	-0,032
-505,970	4,117	0,065	-0,034
-504,956	-8,107	-0,190	-0,091
-503,941	-69,849	0,050	0,014
-502,926	450,598	0,041	-0,065
-501,912	800,000	-0,055	0,173
-500,897	3,416	-0,092	0,048
-499,883	0,877	0,074	0,038
-498,868	77,786	-0,044	-0,034
-497,853	-200,000	-0,063	-0,237
-496,839	-158,207	0,174	0,007
-495,824	22,429	-0,079	-0,047
-494,810	16,383	0,135	0,076
-493,795	506,699	0,066	0,110
-492,781	-200,000	0,012	-0,130
-491,766	800,000	-0,060	-0,159
-490,751	-148,990	0,054	0,003
-489,737	-200,000	-0,001	-0,074
-488,722	-200,000	0,008	-0,026
-487,708	100,392	-0,089	0,075
-486,693	61,967	-0,115	0,082
-485,678	-200,000	0,024	-0,146
-484,664	-144,187	-0,125	-0,008
-483,649	-86,546	-0,104	-0,023
-482,635	231,535	0,044	0,052
-481,620	-200,000	-0,005	0,028
-480,605	167,584	0,059	0,061
-479,591	-145,831	0,058	-0,004
-478,576	46,603	-0,123	-0,082
-477,562	-82,075	-0,143	-0,033
-476,547	-82,890	0,177	-0,041
-475,532	-62,066	0,010	-0,003
-474,518	-0,468	-0,089	-0,045
-473,503	-200,000	0,026	0,101
-472,489	230,271	-0,063	0,074
-471,474	-200,000	-0,009	-0,104
-470,459	-200,000	0,005	-0,039
-469,445	800,000	0,025	-0,069
-468,430	-200,000	0,026	-0,085
-467,416	-200,000	0,003	-0,041
-466,401	-113,548	0,185	0,026
-465,386	166,785	0,010	0,010
-464,372	-89,473	0,059	-0,012
-463,357	800,000	-0,050	-0,151
-462,343	-200,000	-0,020	-0,078
-461,328	9,674	-0,154	0,083
-460,313	555,460	0,059	0,101
-459,299	800,000	0,057	0,150
-458,284	-151,163	-0,072	0,004
-457,270	-71,535	0,055	-0,015
-456,255	13,298	-0,126	-0,070
-455,241	800,000	-0,055	0,158
-454,226	800,000	-0,024	0,075
-453,211	285,607	0,059	0,077
-452,197	-83,393	-0,116	0,026
-451,182	800,000	0,025	0,060
-450,168	-55,954	0,047	-0,015
-449,153	-87,410	-0,106	0,023
-448,138	211,973	0,063	-0,071
-447,124	2,490	-0,099	0,051
-446,109	-200,000	-0,038	-0,141
-445,095	-200,000	0,021	0,100
-444,080	-200,000	-0,013	0,043
-443,065	-200,000	0,002	-0,032
-442,051	-18,693	0,059	0,026
-441,036	202,317	0,039	0,043
-440,022	-200,000	-0,002	-0,122
-439,007	-18,040	0,048	-0,021
-437,992	-200,000	0,005	0,053
-436,978	-192,526	0,181	-0,001
-435,963	-107,806	-0,106	0,016
-434,949	-12,428	0,102	-0,048
-433,934	800,000	-0,071	-0,146
-432,919	21,970	-0,057	0,033
-431,905	-200,000	0,030	0,117
-430,890	643,430	-0,019	0,035
-429,876	38,850	0,092	0,058
-428,861	33,097	0,065	-0,040
-427,846	54,306	-0,045	0,031
-426,832	-108,113	-0,159	0,024
-425,817	570,425	-0,037	-0,065
-424,803	-156,325	-0,120	0,005
-423,788	800,000	-0,061	0,126
-422,773	383,068	0,046	0,068
-421,759	-200,000	-0,037	0,176
-420,744	800,000	-0,031	0,077
-419,730	610,086	-0,097	-0,175
-418,715	738,474	0,036	-0,069
-417,701	-75,802	-0,121	0,030
-416,686	57,559	-0,032	0,022
-415,671	800,000	-0,009	0,028
-414,657	10,028	0,042	-0,023
-413,642	-5,498	0,098	0,048
-412,628	57,723	0,067	0,047
-411,613	800,000	-0,043	-0,091
-410,598	-35,515	-0,083	-0,032
-409,584	725,735	-0,024	0,047
-408,569	-200,000	-0,008	-0,044
-407,555	66,062	-0,076	0,055
-406,540	800,000	-0,030	-0,093
-405,525	53,496	-0,066	-0,046
-404,511	800,000	-0,033	-0,073
-403,496	-200,000	-0,033	0,106
-402,482	-200,000	-0,001	-0,020
-401,467	667,125	0,045	-0,084
-400,452	-70,403	-0,096	-0,026
-399,438	-200,000	-0,202	0,000
-398,423	-51,308	0,074	0,025
-397,409	800,000	0,026	0,070
-396,394	288,302	-0,109	0,142
-395,379	-56,635	0,043	-0,014
-394,365	352,266	-0,029	0,041
-393,350	402,373	-0,043	0,065
-392,336	-70,918	-0,094	0,025
-391,321	800,000	-0,034	-0,072
-390,306	-200,000	0,024	-0,124
-389,292	175,249	-0,173	-0,179
-388,277	-200,000	-0,001	-0,082
-387,263	711,049	0,049	0,092
-386,248	81,669	-0,029	0,023
-385,233	-146,926	0,104	0,006
-384,219	52,978	-0,088	0,060
-383,204	173,279	-0,133	0,138
-382,190	-200,000	0,009	-0,059
-381,175	783,403	0,014	-0,028
-380,160	-86,006	0,100	-0,022
-379,146	-146,263	0,151	-0,009
-378,131	-19,402	0,044	0,020
-377,117	-200,000	-0,003	0,024
-376,102	-200,000	-0,038	-0,123
-375,088	49,662	0,055	0,037
-374,073	800,000	0,022	-0,058
-373,058	-59,059	-0,070	-0,022
-372,044	87,191	0,071	0,056
-371,029	-200,000	0,005	0,024
-370,015	-67,507	-0,165	-0,046
-369,000	375,531	0,113	-0,165
-367,985	800,000	-0,037	-0,077
-366,971	-200,000	0,012	-0,039
-365,956	109,728	-0,121	0,104
-364,942	-91,745	0,164	-0,033
-363,927	-63,250	0,094	0,028
-362,912	-200,000	-0,002	0,033
-361,898	800,000	0,073	-0,167
-360,883	-200,000	0,004	-0,038
-359,869	800,000	0,067	0,150
-358,854	450,586	0,047	0,074
-357,839	-200,000	0,107	0,000
-356,825	-38,248	0,031	-0,012
-355,810	-200,000	-0,005	0,018
-354,796	480,212	0,060	-0,098
-353,781	-103,492	-0,125	0,021
-352,766	-179,770	-0,018	0,000
-351,752	-200,000	0,019	0,064
-350,737	800,000	0,031	0,064
-349,723	79,941	0,119	0,091
-348,708	28,987	-0,129	-0,078
-347,693	800,000	-0,043	-0,120
-346,679	800,000	0,012	0,035
-345,664	800,000	-0,021	-0,048
-344,650	81,039	-0,051	0,039
-343,635	-149,721	0,170	0,009
-342,620	-153,586	0,055	-0,003
-341,606	-54,563	0,124	-0,040
-340,591	-200,000	0,019	0,069
-339,577	340,951	0,076	-0,106
-338,562	102,065	-0,085	-0,071
-337,548	336,024	-0,028	-0,038
-336,533	156,634	0,019	-0,018
-335,518	367,737	0,025	0,036
-334,504	122,107	0,101	-0,090
-333,489	497,719	-0,059	0,097
-332,475	-200,000	-0,005	-0,142
-331,460	-92,937	-0,039	0,008
-330,445	-200,000	0,012	-0,067
-329,431	800,000	-0,023	-0,070
-328,416	152,994	0,084	-0,082
-327,402	-181,850	-0,055	-0,001
-326,387	-200,000	0,029	-0,170
-325,372	-200,000	-0,006	-0,061
-324,358	-135,276	0,115	0,010
-323,343	70,437	-0,104	-0,076
-322,329	-160,835	0,080	0,003
-321,314	26,148	0,130	0,077
-320,299	107,773	-0,038	-0,033
-319,285	-200,000	0,014	0,054
-318,270	-200,000	-0,014	0,073
-317,256	569,966	0,063	-0,109
-316,241	6,134	-0,012	0,006
-315,226	-51,136	-0,074	0,025
-314,212	-128,341	0,082	-0,008
-313,197	-57,675	0,152	-0,047
-312,183	152,089	0,091	0,088
-311,168	-200,000	-0,033	0,120
-310,153	-103,310	0,083	-0,014
-309,139	-200,000	-0,064	-0,225
-308,124	-200,000	-0,051	-0,195
-307,110	-64,174	0,107	0,031
-306,095	800,000	-0,009	-0,018
-305,080	-200,000	-0,033	-0,103
-304,066	800,000	0,055	-0,112
-303,051	800,000	-0,066	-0,154
-302,037	121,098	-0,058	-0,051
-301,022	-200,000	-0,005	0,134
-300,008	800,000	0,022	0,043
-298,993	160,930	-0,068	0,068
-297,978	776,883	0,011	0,021
-296,964	84,058	0,066	0,052
-295,949	-160,969	-0,045	0,002
-294,935	-200,000	-0,008	-0,199
-293,920	800,000	-0,060	-0,177
-292,905	800,000	0,051	-0,127
-291,891	800,000	0,040	-0,083
-290,876	224,918	-0,035	-0,041
-289,862	586,080	-0,133	0,234
-288,847	-200,000	-0,004	0,023
-287,832	-200,000	-0,001	-0,047
-286,818	-138,346	-0,074	-0,006
-285,803	51,961	-0,075	0,051
-284,789	-106,099	0,058	-0,009
-283,774	-160,699	0,060	-0,002
-282,759	8,694	0,037	-0,020
-281,745	-200,000	0,040	-0,184
-280,730	-46,269	-0,115	-0,040
-279,716	-200,000	-0,003	0,082
-278,701	-164,116	0,077	0,003
-277,686	-200,000	-0,025	0,099
-276,672	-200,000	-0,061	0,191
-275,657	537,593	-0,019	0,033
-274,643	552,280	0,069	-0,118
-273,628	-94,918	-0,015	-0,003
-272,613	-200,000	0,006	0,038
-271,599	208,722	-0,020	-0,022
-270,584	-77,284	0,109	-0,027
-269,570	45,560	0,143	-0,094
-268,555	-200,000	0,044	-0,212
-267,540	-10,475	-0,027	0,013
-266,526	-101,216	-0,024	-0,004
-265,511	-83,096	0,126	0,029
-264,497	-75,634	-0,050	-0,013
-263,482	203,633	0,061	0,068
-262,467	-151,714	0,111	-0,006
-261,453	-52,097	0,129	0,042
-260,438	476,999	-0,043	-0,070
-259,424	227,719	-0,102	-0,119
-258,409	-200,000	-0,022	-0,097
-257,395	300,481	-0,112	-0,147
-256,380	25,240	0,067	-0,040
-255,365	-200,000	0,027	0,120
-254,351	-200,000	0,025	0,093
-253,336	-104,762	0,028	0,005
-252,322	-160,508	0,011	-0,000
-251,307	-20,702	-0,112	0,049
-250,292	96,662	-0,115	0,093
-249,278	-12,994	-0,137	0,063
-248,263	-25,215	0,134	0,056
-247,249	800,000	0,031	-0,065
-246,234	-200,000	-0,026	-0,127
-245,219	-200,000	-0,030	-0,113
-244,205	189,156	0,010	-0,011
-243,190	169,474	-0,035	0,036
-242,176	800,000	0,048	0,130
-241,161	-200,000	0,028	0,106
-240,146	800,000	-0,065	0,183
-239,132	-200,000	0,013	-0,054
-238,117	-32,345	0,071	-0,028
-237,103	800,000	0,019	-0,054
-236,088	800,000	0,054	0,162
-235,073	-34,289	0,031	-0,012
-234,059	88,522	0,147	0,116
-233,044	-27,165	0,037	0,015
-232,030	-172,321	-0,048	-0,001
-231,015	202,602	0,067	-0,074
-230,000	-114,304	-0,059	0,008
-228,986	-38,708	0,009	0,004
-227,971	163,974	-0,022	-0,022
-226,957	800,000	-0,029	0,065
-225,942	-200,000	-0,011	0,051
-224,927	800,000	-0,018	0,054
-223,913	-200,000	0,042	0,181
-222,898	800,000	0,016	-0,041
-221,884	-34,099	-0,116	-0,045
-220,869	800,000	0,034	-0,069
-219,855	-200,000	-0,012	0,047
-218,840	443,777	-0,061	0,095
-217,825	81,923	-0,130	0,100
-216,811	-200,000	-0,007	0,100
-215,796	-189,996	0,114	0,001
-214,782	-9,222	-0,045	0,021
-213,767	800,000	-0,041	0,109
-212,752	-200,000	0,004	0,064
-211,738	800,000	0,023	-0,066
-210,723	250,250	-0,065	-0,078
-209,709	-200,000	0,000	0,086
-208,694	-129,453	0,117	0,011
-207,679	-200,000	0,019	0,062
-206,665	-81,731	0,079	-0,018
-205,650	81,306	0,073	0,056
-204,636	90,699	0,115	0,092
-203,621	-38,590	0,171	-0,064
-202,606	569,923	0,005	-0,009
-201,592	624,384	0,052	0,094
-200,577	25,451	0,027	0,016
-199,563	461,622	-0,052	-0,083
-198,548	258,630	0,036	0,044
-197,533	346,636	-0,056	-0,078
-196,519	22,374	0,161	0,093
-195,504	-6,552	-0,048	0,023
-194,490	-14,519	-0,059	0,027
-193,475	800,000	-0,049	-0,151
-192,460	185,787	-0,028	-0,030
-191,446	216,681	0,051	-0,058
-190,431	-200,000	-0,000	0,004
-189,417	198,925	-0,048	-0,052
-188,402	-52,748	0,106	0,034
-187,387	65,273	-0,079	-0,056
-186,373	-124,414	0,094	-0,010
-185,358	17,535	-0,054	-0,030
-184,344	129,519	0,064	0,058
-183,329	96,748	0,031	0,025
-182,315	-200,000	-0,044	0,185
-181,300	-199,663	0,056	-0,000
-180,285	-88,253	-0,006	0,001
-179,271	800,000	-0,032	-0,090
-178,256	-200,000	0,006	-0,076
-177,242	-200,000	-0,032	0,149
-176,227	-200,000	0,057	0,182
-175,212	-200,000	-0,052	0,163
-174,198	-50,816	0,054	0,018
-173,183	800,000	-0,018	-0,038
-172,169	97,548	0,121	0,098
-171,154	-200,000	-0,017	0,068
-170,139	352,405	0,044	-0,062
-169,125	36,765	0,090	0,056
-168,110	-106,186	-0,058	-0,009
-167,096	-200,000	-0,001	0,011
-166,081	800,000	-0,066	0,191
-165,066	165,394	-0,012	-0,012
-164,052	-200,000	0,008	-0,066
-163,037	611,349	-0,034	-0,060
-162,023	800,000	0,087	0,189
-161,008	32,024	0,026	-0,016
-159,993	-12,471	-0,042	-0,019
-158,979	214,202	0,047	0,053
-157,964	-200,000	0,019	0,113
-156,950	-55,071	-0,087	0,028
-155,935	382,883	0,017	-0,024
-154,920	-200,000	0,058	0,198
-153,906	800,000	0,009	-0,023
-152,891	-200,000	0,009	-0,040
-151,877	800,000	-0,024	0,074
-150,862	-200,000	-0,000	-0,037
-149,847	-107,653	-0,060	0,009
-148,833	41,371	0,066	0,042
-147,818	-200,000	0,045	0,141
-146,804	5,911	0,078	-0,041
-145,789	43,728	0,010	0,007
-144,775	126,673	0,115	-0,104
-143,760	800,000	0,073	-0,155
-142,745	-152,730	-0,102	-0,005
-141,731	633,026	-0,061	0,110
-140,716	800,000	0,038	0,087
-139,702	254,101	0,062	0,075
-138,687	-200,000	-0,007	0,195
-137,672	390,088	0,035	-0,052
-136,658	275,296	-0,058	-0,073
-135,643	800,000	0,009	0,024
-134,629	-200,000	-0,003	0,083
-133,614	-125,629	-0,116	-0,012
-132,599	-200,000	-0,004	-0,036
-131,585	800,000	-0,021	-0,049
-130,570	22,030	-0,053	0,031
-129,556	-80,347	0,096	-0,023
-128,541	-82,092	-0,073	-0,017
-127,526	-200,000	-0,021	-0,092
-126,512	-72,638	-0,123	0,032
-125,497	287,227	0,028	0,037
-124,483	-138,124	0,127	0,010
-123,468	-200,000	-0,014	0,068
-122,453	410,589	0,002	-0,003
-121,439	-200,000	0,016	-0,070
-120,424	-200,000	0,014	-0,099
-119,410	-200,000	0,017	0,066
-118,395	84,286	0,063	0,049
-117,380	-200,000	0,002	0,171
-116,366	-200,000	0,001	0,019
-115,351	-70,764	-0,123	-0,033
-114,337	-200,000	-0,017	0,114
-113,322	-200,000	-0,007	-0,065
-112,307	-200,000	-0,013	0,040
-111,293	-140,355	0,102	-0,007
-110,278	-54,172	-0,071	0,023
-109,264	-100,353	-0,044	-0,008
-108,249	16,256	0,076	-0,042
-107,234	-154,234	0,128	-0,006
-106,220	-200,000	-0,014	-0,147
-105,205	-200,000	0,005	-0,070
-104,191	-200,000	0,002	0,122
-103,176	32,400	0,042	0,026
-102,162	32,295	-0,029	0,018
-101,147	-135,637	-0,151	-0,012
-100,132	357,609	-0,067	-0,095
-99,118	675,164	0,060	-0,110
-98,103	-19,887	-0,065	0,028
-97,089	64,888	-0,050	0,036
-96,074	446,724	0,032	0,050
-95,059	209,572	-0,146	0,162
-94,045	-9,786	-0,096	-0,045
-93,030	-7,251	0,014	-0,007
-92,016	194,532	-0,090	-0,097
-91,001	52,114	-0,086	0,058
-89,986	-200,000	0,000	0,068
-88,972	800,000	-0,041	0,101
-87,957	800,000	0,038	0,082
-86,943	-200,000	-0,003	-0,061
-85,928	-102,793	-0,094	0,016
-84,913	800,000	-0,047	-0,144
-83,899	-108,262	0,043	-0,007
-82,884	-200,000	-0,004	0,175
-81,870	69,764	0,054	0,039
-80,855	237,812	-0,053	-0,062
-79,840	800,000	-0,054	-0,122
-78,826	800,000	-0,060	-0,121
-77,811	-93,055	-0,041	-0,008
-76,797	51,206	-0,101	-0,067
-75,782	800,000	-0,040	0,112
-74,767	-131,197	-0,055	0,005
-73,753	800,000	0,051	0,101
-72,738	-79,996	0,097	0,023
-71,724	404,862	-0,085	0,127
-70,709	-61,420	-0,101	-0,030
-69,694	-52,568	0,137	-0,044
-68,680	-174,562	0,101	0,002
-67,665	-54,371	-0,051	0,016
-66,651	135,950	0,167	0,154
-65,636	800,000	0,029	0,072
-64,622	-76,554	0,036	0,009
-63,607	396,004	-0,022	-0,033
-62,592	-4,306	0,004	0,002
-61,578	270,769	-0,049	0,061
-60,563	-101,044	-0,088	-0,015
-59,549	-200,000	0,011	0,150
-58,534	11,372	-1,935	-1,043
-57,519	535,321	-1,193	-2,006
-56,505	-200,000	-0,341	-4,352
-55,490	546,981	0,746	1,265
-54,476	800,000	5,240	11,596
-53,461	-200,000	20,706	328,785
-52,446	800,000	754,851	2317,320
-51,432	550,736	1660,388	2822,856
-50,417	73,708	1663,502	1229,122
-49,403	18,946	1536,921	867,016
-48,388	12,956	1459,671	794,462
-47,373	18,946	1450,344	818,108
-46,359	15,975	1439,743	797,962
-45,344	11,220	1435,402	772,886
-44,330	11,122	1433,516	771,373
-43,315	11,172	1431,554	770,521
-42,300	11,185	1429,707	769,560
-41,286	11,179	1428,575	768,892
-40,271	11,150	1427,261	768,015
-39,257	11,140	1426,171	767,352
-38,242	11,180	1424,843	766,795
-37,227	11,209	1423,744	766,313
-36,213	11,188	1422,757	765,649
-35,198	11,184	1421,493	764,921
-34,184	11,229	1420,570	764,607
-33,169	11,192	1419,153	763,641
-32,154	11,222	1418,211	763,242
-31,140	11,237	1416,967	762,613
-30,125	11,255	1415,837	762,060
-29,111	11,276	1414,576	761,448
-28,096	11,224	1413,483	760,589
-27,082	11,167	1412,485	759,751
-26,067	11,162	1411,278	759,052
-25,052	11,188	1410,294	758,613
-24,038	11,161	1409,192	757,865
-23,023	11,126	1408,530	757,313
-22,009	11,167	1407,139	756,727
-20,994	11,194	1406,139	756,287
-19,979	11,140	1405,365	755,585
-18,965	11,091	1404,489	754,857
-17,950	11,097	1403,558	754,357
-16,936	11,105	1402,743	753,924
-15,921	11,030	1401,718	752,993
-14,906	11,045	1400,805	752,545
-13,892	11,087	1399,610	752,066
-12,877	11,059	1399,040	751,601
-11,863	11,091	1398,116	751,222
-10,848	11,050	1397,257	750,540
-9,833	10,984	1396,493	749,796
-8,819	10,968	1395,547	749,186
-7,804	10,970	1394,823	748,773
-6,790	10,982	1393,673	748,181
-5,775	11,002	1392,649	747,695
-4,760	10,954	1391,566	746,864
-3,746	10,983	1390,911	746,616
-2,731	10,965	1389,938	745,979
-1,717	11,014	1388,873	745,604
-0,702	10,892	1387,522	744,289
0,313	14,927	1301,410	716,575
1,327	31,165	693,333	418,704
2,342	48,304	120,385	79,338
3,356	0,168	16,521	8,282
4,371	5,046	3,303	1,709
5,386	-12,727	0,844	0,386
6,400	800,000	0,165	0,399
7,415	135,381	-0,229	-0,210
8,429	162,228	-0,260	-0,257
9,444	28,395	-0,366	-0,218
10,459	0,686	-0,289	-0,145
11,473	106,291	-0,273	-0,228
12,488	84,596	-0,283	-0,219
13,502	-19,223	-0,357	-0,156
14,517	72,078	-0,304	-0,223
15,531	-29,850	-0,408	-0,163
16,546	3,990	-0,288	-0,148
17,561	-8,526	-0,436	-0,206
18,575	-18,716	-0,146	-0,064
19,590	114,496	-0,272	-0,233
20,604	-88,593	-0,143	-0,030
21,619	112,233	-0,338	-0,288
22,634	101,130	-0,417	-0,341
23,648	123,072	-0,334	-0,295
24,663	238,942	-0,293	-0,344
25,677	8,872	-0,458	-0,242
26,692	98,717	-0,192	-0,156
27,707	34,887	-0,363	-0,223
28,721	78,788	-0,353	-0,265
29,736	86,029	-0,328	-0,254
30,750	52,457	-0,348	-0,234
31,765	256,773	-0,305	-0,369
32,780	205,544	-0,294	-0,321
33,794	-13,112	-0,382	-0,174
34,809	-12,709	-0,404	-0,184
35,823	66,326	-0,386	-0,276
36,838	130,157	-0,418	-0,376
37,853	29,391	-0,393	-0,234
38,867	14,905	-0,415	-0,228
39,882	-47,011	-0,395	-0,135
40,896	-28,433	-0,392	-0,158
41,911	-92,740	-0,368	-0,072
42,926	-20,527	-0,400	-0,172
43,940	113,242	-0,287	-0,245
44,955	27,420	-0,392	-0,231
45,969	61,224	-0,479	-0,334
46,984	6,416	-0,226	-0,118
47,999	42,711	-0,346	-0,221
49,013	178,216	-0,242	-0,248
50,028	45,548	-0,354	-0,229
51,042	-74,807	-0,408	-0,102
52,057	121,082	-0,330	-0,288
53,071	72,025	-0,389	-0,284
54,086	285,494	-0,229	-0,291
55,101	239,654	-0,196	-0,230
56,115	3,775	-0,328	-0,167
57,130	38,368	-0,305	-0,190
58,144	93,209	-0,393	-0,312
59,159	214,960	-0,323	-0,360
60,174	134,474	-0,344	-0,313
61,188	16,773	-0,406	-0,225
62,203	197,799	-0,293	-0,315
63,217	-16,351	-0,311	-0,138
64,232	116,099	-0,298	-0,256
65,247	-15,950	-0,373	-0,166
66,261	36,986	-0,250	-0,155
67,276	50,338	-0,364	-0,241
68,290	321,232	-0,246	-0,329
69,305	363,372	-0,170	-0,240
70,320	-84,596	-0,268	-0,059
71,334	800,000	-0,133	-0,305
72,349	-150,688	-0,345	-0,018
73,363	319,617	-0,313	-0,417
74,378	750,998	-0,200	-0,381
75,393	261,704	-0,289	-0,352
76,407	36,863	-0,386	-0,238
77,422	-17,218	-0,299	-0,132
78,436	22,023	-0,190	-0,108
79,451	460,236	-0,275	-0,431
80,466	-21,697	-0,440	-0,187
81,480	16,841	-0,288	-0,159
82,495	4,256	-0,331	-0,169
83,509	127,255	-0,275	-0,244
84,524	-44,642	-0,249	-0,087
85,539	-6,281	-0,293	-0,140
86,553	50,069	-0,214	-0,141
87,568	62,820	-0,273	-0,191
88,582	15,941	-0,384	-0,211
89,597	133,217	-0,298	-0,270
90,611	-8,772	-0,320	-0,150
91,626	271,829	-0,190	-0,234
92,641	34,020	-0,168	-0,102
93,655	13,334	-0,252	-0,136
94,670	132,817	-0,269	-0,243
95,684	22,982	-0,307	-0,176
96,699	51,731	-0,277	-0,184
97,714	212,833	-0,184	-0,204
98,728	160,235	-0,247	-0,241
99,743	-79,914	-0,190	-0,044
100,757	237,840	-0,157	-0,182
101,772	37,721	-0,335	-0,208
102,787	81,935	-0,263	-0,199
103,801	18,098	-0,315	-0,175
104,816	203,368	-0,239	-0,258
105,830	402,603	-0,171	-0,251
106,845	25,854	-0,248	-0,144
107,860	127,058	-0,149	-0,132
108,874	2,591	-0,207	-0,104
109,889	27,406	-0,318	-0,186
110,903	129,175	-0,266	-0,238
111,918	33,390	-0,310	-0,188
112,933	92,281	-0,213	-0,168
113,947	-49,719	-0,242	-0,080
114,962	-133,498	-0,256	-0,022
115,976	60,705	-0,238	-0,165
116,991	175,161	-0,225	-0,228
118,006	110,523	-0,256	-0,215
119,020	75,217	-0,159	-0,117
120,035	-92,377	-0,342	-0,067
121,049	56,587	-0,258	-0,175
122,064	50,365	-0,192	-0,126
123,079	-30,496	-0,237	-0,093
124,093	63,600	-0,374	-0,261
125,108	340,355	-0,181	-0,247
126,122	506,521	-0,204	-0,331
127,137	254,162	-0,222	-0,265
128,151	-3,071	-0,253	-0,123
129,166	800,000	-0,142	-0,275
130,181	63,832	-0,237	-0,166
131,195	24,769	-0,325	-0,187
132,210	47,780	-0,330	-0,215
133,224	433,762	-0,143	-0,217
134,239	91,761	-0,166	-0,130
135,254	18,925	-0,176	-0,098
136,268	-6,066	-0,255	-0,121
137,283	596,472	-0,156	-0,270
138,297	133,618	-0,155	-0,139
139,312	98,226	-0,188	-0,151
140,327	85,510	-0,317	-0,242
141,341	201,516	-0,283	-0,304
142,356	64,658	-0,287	-0,201
143,370	52,945	-0,183	-0,122
144,385	553,989	-0,067	-0,112
145,400	82,833	-0,160	-0,121
146,414	105,704	-0,150	-0,123
147,429	185,754	-0,332	-0,344
148,443	169,504	-0,244	-0,242
149,458	-95,587	-0,232	-0,043
150,473	-81,437	-0,190	-0,043
151,487	99,906	-0,229	-0,185
152,502	185,748	-0,206	-0,213
153,516	184,490	-0,237	-0,245
154,531	115,551	-0,177	-0,150
155,546	77,741	-0,204	-0,151
156,560	-53,202	-0,204	-0,065
157,575	23,592	-0,207	-0,118
158,589	-79,969	-0,138	0,032
159,604	57,595	-0,231	-0,157
160,619	42,640	-0,266	-0,168
161,633	109,598	-0,175	-0,146
162,648	181,945	-0,209	-0,214
163,662	-74,826	-0,399	-0,099
164,677	171,797	-0,163	-0,163
165,692	-45,324	-0,259	-0,089
166,706	118,470	-0,225	-0,193
167,721	110,392	-0,264	-0,220
168,735	97,713	-0,202	-0,161
169,750	14,462	-0,294	-0,159
170,764	151,957	-0,105	-0,099
171,779	216,670	-0,188	-0,208
172,794	15,583	-0,174	-0,095
173,808	26,595	-0,342	-0,198
174,823	221,686	-0,083	-0,093
175,837	131,129	-0,241	-0,215
176,852	40,927	-0,212	-0,133
177,867	164,826	-0,118	-0,116
178,881	-8,714	-0,304	-0,141
179,896	195,118	-0,057	-0,060
180,910	250,393	-0,225	-0,266
181,925	69,381	-0,298	-0,213
182,940	369,403	-0,233	-0,329
183,954	800,000	-0,117	-0,235
184,969	75,373	-0,169	-0,124
185,983	314,742	-0,132	-0,173
186,998	57,013	-0,181	-0,122
188,013	21,684	-0,203	-0,115
189,027	73,205	-0,215	-0,156
190,042	60,668	-0,306	-0,210
191,056	17,023	-0,244	-0,134
192,071	-101,459	-0,235	-0,039
193,086	57,715	-0,150	-0,101
194,100	86,519	-0,183	-0,139
195,115	146,520	-0,189	-0,176
196,129	-91,179	-0,191	0,038
197,144	718,015	-0,153	-0,283
198,159	310,295	-0,171	-0,223
199,173	223,589	-0,155	-0,173
200,188	539,706	-0,161	-0,267
201,202	33,530	-0,095	-0,057
202,217	66,985	-0,071	-0,050
203,232	10,707	-0,187	-0,099
204,246	190,151	-0,236	-0,246
205,261	112,384	-0,196	-0,164
206,275	133,861	-0,170	-0,152
207,290	34,683	-0,138	-0,083
208,304	-57,375	-0,172	-0,052
209,319	-17,205	-0,174	-0,076
210,334	59,786	-0,174	-0,119
211,348	76,942	-0,180	-0,132
212,363	5,372	-0,182	-0,093
213,377	-13,368	-0,171	-0,076
214,392	-200,000	-0,047	-0,162
215,407	90,562	-0,057	-0,044
216,421	-37,514	-0,257	-0,094
217,436	-72,545	-0,224	-0,057
218,450	105,426	-0,314	-0,257
219,465	-40,668	-0,242	-0,086
220,480	147,346	-0,176	-0,164
221,494	311,685	-0,153	-0,199
222,509	32,438	-0,203	-0,121
223,523	-109,042	-0,253	-0,037
224,538	-135,415	-0,248	-0,020
225,553	66,565	-0,288	-0,203
226,567	158,271	-0,208	-0,200
227,582	122,913	-0,093	-0,080
228,596	187,333	-0,138	-0,142
229,611	-23,345	-0,245	-0,102
230,626	35,752	-0,248	-0,150
231,640	-16,516	-0,178	-0,078
232,655	146,221	-0,227	-0,210
233,669	0,324	-0,223	-0,110
234,684	10,294	-0,195	-0,102
235,699	216,680	-0,122	-0,135
236,713	-200,000	-0,013	-0,120
237,728	445,523	-0,058	-0,088
238,742	-88,572	-0,222	-0,045
239,757	202,937	-0,107	-0,114
240,772	425,811	-0,133	-0,198
241,786	65,437	-0,223	-0,155
242,801	-145,852	-0,196	-0,012
243,815	-158,185	-0,216	0,009
244,830	1,645	-0,077	-0,038
245,844	23,039	-0,208	-0,117
246,859	2,959	-0,178	-0,089
247,874	44,994	-0,185	-0,118
248,888	169,001	-0,243	-0,239
249,903	-127,345	-0,229	-0,023
250,917	-24,701	-0,121	0,049
251,932	-0,183	-0,210	-0,103
252,947	-123,335	-0,234	-0,025
253,961	42,299	-0,273	-0,171
254,976	200,557	-0,130	-0,138
255,990	68,403	-0,216	-0,153
257,005	-200,000	-0,006	-0,118
258,020	-62,915	-0,179	-0,051
259,034	317,139	-0,093	-0,122
260,049	800,000	-0,072	-0,195
261,063	308,220	-0,091	-0,118
262,078	198,780	-0,244	-0,258
263,093	42,637	-0,183	-0,115
264,107	106,614	-0,202	-0,165
265,122	-200,000	-0,038	-0,364
266,136	38,569	-0,224	-0,137
267,151	14,226	-0,211	-0,113
268,166	537,662	-0,149	-0,245
269,180	273,168	-0,188	-0,229
270,195	191,878	-0,167	-0,173
271,209	60,688	-0,206	-0,141
272,224	-64,062	-0,191	0,053
273,239	176,458	-0,061	-0,061
274,253	800,000	0,040	-0,116
275,268	95,117	-0,140	-0,109
276,282	164,875	-0,180	-0,175
277,297	-3,363	-0,132	-0,063
278,312	240,218	-0,232	-0,267
279,326	103,562	-0,144	-0,116
280,341	230,784	-0,171	-0,193
281,355	-18,150	-0,157	-0,067
282,370	66,460	-0,165	-0,115
283,384	600,920	-0,140	-0,241
284,399	-9,781	-0,217	-0,099
285,414	8,319	-0,150	-0,077
286,428	-65,430	-0,301	-0,083
287,443	504,073	-0,131	-0,209
288,457	198,738	-0,169	-0,178
289,472	446,968	-0,093	-0,142
290,487	-107,934	-0,250	-0,037
291,501	-1,922	-0,133	-0,064
292,516	-53,963	-0,064	-0,020
293,530	385,011	-0,177	-0,251
294,545	800,000	-0,043	-0,086
295,560	-41,120	-0,117	-0,041
296,574	-30,013	-0,179	-0,070
297,589	-200,000	-0,184	0,000
298,603	-71,637	-0,191	-0,049
299,618	-15,328	-0,192	-0,084
300,633	-147,734	-0,245	-0,014
301,647	800,000	-0,059	-0,177
302,662	778,852	-0,085	-0,161
303,676	-39,001	-0,077	-0,028
304,691	89,913	-0,243	-0,186
305,706	-200,000	-0,004	-0,155
306,720	323,350	-0,117	-0,153
307,735	369,967	-0,132	-0,185
308,749	-82,600	-0,077	-0,017
309,764	166,095	-0,165	-0,160
310,779	17,889	-0,134	-0,073
311,793	800,000	-0,092	-0,176
312,808	800,000	-0,050	-0,108
313,822	800,000	-0,048	-0,124
314,837	-144,211	-0,275	0,017
315,852	248,895	-0,202	-0,235
316,866	189,418	-0,115	-0,119
317,881	196,144	-0,106	-0,111
318,895	-200,000	0,000	-0,155
319,910	65,335	-0,142	-0,098
320,925	125,055	-0,164	-0,141
321,939	800,000	-0,079	-0,162
322,954	-2,178	-0,116	-0,056
323,968	-75,793	-0,147	-0,036
324,983	-149,476	-0,045	0,002
325,997	-21,800	-0,231	-0,096
327,012	232,170	-0,072	-0,082
328,027	118,382	-0,057	-0,048
329,041	85,025	-0,102	-0,077
330,056	-64,303	-0,067	-0,019
331,070	-104,521	-0,217	-0,034
332,085	-69,289	-0,176	-0,046
333,100	59,062	-0,109	-0,073
334,114	-40,013	-0,201	-0,071
335,129	-2,753	-0,196	-0,094
336,143	6,497	-0,092	-0,047
337,158	-51,652	-0,170	-0,054
338,173	206,430	-0,043	-0,046
339,187	-4,655	-0,109	-0,051
340,202	-59,207	-0,116	-0,034
341,216	26,331	-0,311	-0,178
342,231	459,372	-0,170	-0,261
343,246	290,700	-0,157	-0,196
344,260	-6,764	-0,096	-0,045
345,275	-30,872	-0,145	0,056
346,289	-134,556	-0,067	0,006
347,304	192,526	-0,124	-0,128
348,319	4,049	-0,125	-0,062
349,333	65,176	-0,230	-0,159
350,348	800,000	-0,091	-0,195
351,362	-29,797	-0,055	-0,021
352,377	800,000	-0,047	-0,103
353,392	234,305	-0,047	0,053
354,406	-5,106	-0,115	0,054
355,421	208,226	1307,611	1399,449
356,435	160,213	1467,458	1399,939
