DTS Sentinel unit serial number:	SN410029Multiplexer serial number:	ORYXHardware model number:	OX2-SRSoftware version number:	ORYX F/W v4,00 Oryx Data Collector v3.7.2.0data status	okinstallation	B3 Nyhavnadifferential loss correction	single-endedforward channel	channel 1reverse channel	N/Adate	2023/12/01time	13:22:30forward acquisition time	300,00reverse acquisition time	0,00gamma	499,1914k internal	0,3213k external	0,3213temperature offset calibration	1,0000default loss term (dB/km)	0,3820temperature slope calibration	1,0000multiplexer offset coefficient	1,0000multiplexer slope coefficient	1,0000fibre end	0,00T internal ref (°C)	9,43T ext. ref 1 (°C)	-4,13T ext. ref 2 (°C)	-4,20length (m)	temperature (°C)	Stokes	anti-Stokes-744,400	360,112	-0,146	-0,213
-743,385	800,000	0,113	0,335
-742,371	-200,000	-0,052	-0,199
-741,356	-200,000	0,025	0,258
-740,342	481,454	-0,041	-0,068
-739,327	-200,000	-0,008	0,288
-738,312	-200,000	-0,073	-0,348
-737,298	800,000	-0,082	0,207
-736,283	199,859	-0,129	-0,143
-735,269	245,299	0,132	0,162
-734,254	800,000	-0,050	-0,108
-733,239	12,983	-0,230	0,129
-732,225	-200,000	-0,049	-0,265
-731,210	113,061	0,259	0,227
-730,196	103,501	-0,082	0,069
-729,181	800,000	-0,018	0,052
-728,167	-58,513	0,052	0,016
-727,152	40,860	0,047	0,031
-726,137	103,044	-0,111	-0,094
-725,123	-112,141	-0,175	-0,025
-724,108	800,000	-0,034	-0,097
-723,094	548,909	-0,028	0,048
-722,079	-123,870	0,034	-0,004
-721,064	-97,369	0,069	0,013
-720,050	29,583	0,086	-0,053
-719,035	-36,878	0,056	0,021
-718,021	0,155	-0,128	0,066
-717,006	-200,000	-0,006	-0,021
-715,991	-200,000	0,003	-0,099
-714,977	-39,952	-0,046	0,017
-713,962	573,654	0,028	0,050
-712,948	183,346	-0,117	-0,125
-711,933	-64,089	-0,101	0,030
-710,918	-200,000	-0,004	0,027
-709,904	800,000	-0,034	-0,106
-708,889	326,293	-0,090	-0,125
-707,875	-200,000	0,005	-0,083
-706,860	199,693	-0,033	0,036
-705,845	-177,660	0,068	0,001
-704,831	-200,000	-0,002	0,174
-703,816	107,356	0,028	-0,024
-702,802	278,572	-0,026	0,033
-701,787	87,609	-0,098	0,079
-700,772	-75,881	-0,102	-0,026
-699,758	800,000	-0,046	-0,101
-698,743	732,664	0,027	-0,052
-697,729	40,640	0,103	0,067
-696,714	-72,645	-0,105	0,028
-695,699	302,086	0,024	0,033
-694,685	577,214	-0,029	0,052
-693,670	800,000	-0,045	-0,101
-692,656	-200,000	-0,029	-0,117
-691,641	-200,000	-0,001	0,003
-690,627	191,658	0,051	0,056
-689,612	-152,096	0,144	0,007
-688,597	-36,363	-0,142	-0,055
-687,583	-200,000	0,007	-0,078
-686,568	-46,690	-0,072	0,025
-685,554	41,300	0,023	0,015
-684,539	-200,000	0,018	0,136
-683,524	260,275	0,091	0,113
-682,510	221,895	-0,049	0,057
-681,495	800,000	-0,030	0,073
-680,481	75,423	-0,097	-0,074
-679,466	-200,000	0,003	-0,160
-678,451	-77,005	-0,082	-0,021
-677,437	-200,000	0,003	-0,090
-676,422	800,000	-0,060	0,189
-675,408	-56,872	0,163	-0,052
-674,393	51,445	-0,050	-0,034
-673,378	-200,000	-0,007	-0,101
-672,364	-200,000	0,026	-0,139
-671,349	249,268	-0,078	-0,096
-670,335	-200,000	-0,007	0,081
-669,320	-200,000	0,004	0,051
-668,305	242,141	-0,118	-0,143
-667,291	731,035	-0,066	-0,128
-666,276	800,000	0,019	-0,061
-665,262	678,748	-0,089	-0,168
-664,247	63,707	0,089	0,064
-663,232	657,543	-0,094	0,175
-662,218	-72,570	0,071	0,019
-661,203	315,536	0,032	-0,043
-660,189	157,687	-0,111	0,111
-659,174	-49,246	0,112	-0,039
-658,159	78,684	-0,102	-0,078
-657,145	800,000	-0,028	-0,065
-656,130	-200,000	0,004	-0,028
-655,116	-101,285	-0,098	0,017
-654,101	800,000	0,021	0,057
-653,086	-2,000	0,131	0,066
-652,072	124,730	-0,015	-0,014
-651,057	800,000	-0,059	-0,135
-650,043	-200,000	0,020	-0,116
-649,028	-69,571	0,077	0,021
-648,014	41,703	-0,084	0,055
-646,999	36,671	0,130	-0,083
-645,984	-88,019	0,030	0,006
-644,970	-189,694	-0,131	0,001
-643,955	-143,904	-0,050	0,003
-642,941	-200,000	-0,012	0,041
-641,926	283,447	0,065	-0,085
-640,911	22,273	0,063	0,037
-639,897	6,590	-0,101	-0,054
-638,882	-200,000	-0,001	0,096
-637,868	374,505	-0,114	0,168
-636,853	-200,000	-0,001	-0,139
-635,838	24,758	0,109	0,065
-634,824	-200,000	-0,027	0,093
-633,809	-137,355	-0,063	0,005
-632,795	108,868	0,070	0,060
-631,780	520,607	0,040	0,069
-630,765	-200,000	-0,019	0,097
-629,751	-200,000	-0,006	0,153
-628,736	-119,356	0,076	0,009
-627,722	-14,367	0,124	0,058
-626,707	204,650	-0,068	-0,076
-625,692	800,000	-0,041	0,089
-624,678	-200,000	0,020	0,095
-623,663	800,000	-0,065	-0,140
-622,649	225,456	-0,055	-0,064
-621,634	-64,728	-0,073	-0,021
-620,619	392,888	-0,147	-0,221
-619,605	69,256	0,087	-0,064
-618,590	96,792	-0,077	0,064
-617,576	166,065	0,121	0,123
-616,561	-70,606	-0,074	-0,020
-615,546	800,000	-0,022	0,057
-614,532	170,488	-0,098	-0,101
-613,517	42,461	-0,015	-0,010
-612,503	109,509	-0,113	0,097
-611,488	60,188	0,076	-0,054
-610,474	104,653	0,057	0,048
-609,459	-200,000	-0,008	0,179
-608,444	283,638	-0,040	-0,052
-607,430	175,906	0,116	-0,121
-606,415	159,595	-0,107	-0,108
-605,401	-2,032	0,083	-0,042
-604,386	-200,000	0,000	-0,017
-603,371	544,727	-0,002	-0,003
-602,357	241,771	-0,040	0,048
-601,342	-200,000	0,016	-0,059
-600,328	211,505	-0,022	0,025
-599,313	-200,000	0,041	-0,149
-598,298	143,189	-0,044	0,042
-597,284	-7,002	-0,108	0,053
-596,269	122,838	0,112	0,101
-595,255	-28,604	0,040	0,016
-594,240	-110,561	-0,083	-0,012
-593,225	232,031	0,018	-0,021
-592,211	-200,000	0,030	-0,159
-591,196	78,939	0,043	-0,033
-590,182	800,000	0,060	0,126
-589,167	103,589	0,061	0,052
-588,152	-200,000	-0,017	-0,064
-587,138	-19,007	0,079	0,035
-586,123	616,941	-0,019	0,035
-585,109	710,993	-0,034	-0,065
-584,094	-115,456	-0,048	0,006
-583,079	790,500	0,026	0,052
-582,065	-200,000	-0,004	-0,041
-581,050	-200,000	0,002	0,115
-580,036	-49,652	-0,069	0,023
-579,021	-118,797	-0,032	0,004
-578,006	800,000	-0,039	-0,105
-576,992	-101,609	-0,165	-0,029
-575,977	-200,000	0,041	0,175
-574,963	53,831	0,086	0,060
-573,948	376,584	-0,069	-0,102
-572,934	36,470	0,011	-0,007
-571,919	582,182	0,020	-0,036
-570,904	110,404	-0,073	0,063
-569,890	203,148	-0,119	-0,133
-568,875	-102,745	0,067	-0,011
-567,861	-5,959	-0,124	-0,061
-566,846	-200,000	0,013	0,087
-565,831	-200,000	0,004	0,062
-564,817	285,987	-0,061	-0,079
-563,802	346,505	-0,021	-0,029
-562,788	113,304	-0,050	-0,044
-561,773	-94,695	-0,079	-0,015
-560,758	160,949	0,077	0,077
-559,744	622,183	-0,048	0,087
-558,729	149,014	0,069	-0,067
-557,715	392,592	-0,045	-0,068
-556,700	2,583	-0,069	-0,036
-555,685	-157,836	0,088	-0,004
-554,671	-164,831	-0,116	-0,004
-553,656	72,539	0,128	-0,096
-552,642	-200,000	0,008	-0,045
-551,627	151,974	-0,113	0,111
-550,612	-200,000	0,007	0,034
-549,598	-130,307	-0,134	0,013
-548,583	-200,000	0,017	-0,093
-547,569	180,992	0,052	-0,055
-546,554	21,116	0,150	-0,087
-545,539	-153,995	-0,043	-0,002
-544,525	195,613	0,078	-0,085
-543,510	-200,000	-0,018	-0,101
-542,496	241,024	-0,029	-0,035
-541,481	-51,431	-0,096	0,032
-540,466	51,849	0,099	-0,068
-539,452	-200,000	-0,002	-0,063
-538,437	-200,000	0,018	0,087
-537,423	23,128	-0,053	-0,031
-536,408	326,905	-0,020	-0,027
-535,393	-31,058	0,043	-0,017
-534,379	-97,556	0,071	-0,013
-533,364	800,000	-0,030	-0,068
-532,350	-200,000	-0,034	0,154
-531,335	76,681	0,069	0,052
-530,321	-200,000	0,008	0,121
-529,306	350,874	0,051	0,072
-528,291	600,464	-0,105	-0,188
-527,277	173,255	0,039	0,040
-526,262	39,037	-0,064	0,041
-525,248	203,121	-0,016	-0,018
-524,233	-32,723	-0,064	-0,026
-523,218	22,000	-0,016	0,009
-522,204	-80,980	0,163	0,039
-521,189	2,295	-0,052	-0,027
-520,175	-55,450	-0,117	-0,037
-519,160	63,753	0,086	-0,062
-518,145	108,446	0,039	-0,034
-517,131	164,363	-0,044	0,045
-516,116	-200,000	0,009	0,062
-515,102	-46,212	0,090	-0,032
-514,087	31,817	-0,060	0,037
-513,072	17,763	-0,114	-0,065
-512,058	-200,000	0,041	0,146
-511,043	404,509	0,021	0,032
-510,029	577,178	-0,051	0,091
-509,014	38,845	0,094	0,060
-507,999	687,723	-0,093	0,176
-506,985	221,004	-0,042	0,049
-505,970	-107,948	0,164	-0,025
-504,956	14,422	-0,098	-0,055
-503,941	-200,000	-0,004	-0,035
-502,926	-200,000	0,039	-0,141
-501,912	420,335	0,025	-0,038
-500,897	800,000	0,033	-0,072
-499,883	-200,000	0,025	0,115
-498,868	-137,214	-0,110	-0,009
-497,853	274,746	0,058	-0,074
-496,839	40,194	-0,097	-0,063
-495,824	67,470	-0,058	0,042
-494,810	-178,411	0,055	-0,001
-493,795	800,000	0,059	-0,134
-492,781	800,000	0,041	-0,084
-491,766	129,144	0,050	0,046
-490,751	-200,000	-0,000	-0,034
-489,737	69,778	-0,136	-0,101
-488,722	800,000	0,037	0,086
-487,708	494,048	-0,048	0,080
-486,693	-169,600	0,139	0,004
-485,678	96,887	-0,063	0,052
-484,664	508,402	0,009	0,016
-483,649	-200,000	-0,057	-0,240
-482,635	-54,429	0,101	-0,033
-481,620	264,801	0,040	-0,049
-480,605	365,693	-0,057	0,083
-479,591	14,106	0,044	0,024
-478,576	-200,000	-0,035	0,123
-477,562	43,995	-0,038	0,025
-476,547	-22,605	0,070	-0,030
-475,532	-67,647	-0,156	-0,044
-474,518	93,993	-0,146	-0,119
-473,503	-58,870	0,167	0,051
-472,489	-200,000	0,004	0,128
-471,474	-68,346	-0,136	0,038
-470,459	-53,653	0,071	0,023
-469,445	800,000	-0,025	-0,074
-468,430	-12,195	-0,051	-0,024
-467,416	800,000	0,039	-0,096
-466,401	-64,388	0,062	-0,018
-465,386	-200,000	0,020	0,106
-464,372	151,086	0,094	-0,091
-463,357	722,772	-0,027	-0,052
-462,343	765,870	-0,048	0,093
-461,328	213,048	-0,079	0,090
-460,313	597,091	-0,044	-0,078
-459,299	800,000	0,027	0,073
-458,284	-70,861	0,127	-0,034
-457,270	-126,588	-0,088	0,009
-456,255	424,586	-0,022	-0,034
-455,241	71,961	-0,069	-0,052
-454,226	336,162	0,010	-0,014
-453,211	-14,785	0,061	0,028
-452,197	150,991	-0,041	0,040
-451,182	103,908	0,071	0,060
-450,168	800,000	-0,020	-0,055
-449,153	800,000	-0,064	0,149
-448,138	191,827	0,097	-0,105
-447,124	-146,663	0,104	0,006
-446,109	435,551	-0,062	-0,096
-445,095	-77,466	0,117	-0,029
-444,080	685,919	-0,021	0,039
-443,065	344,517	0,038	-0,054
-442,051	149,934	-0,035	-0,034
-441,036	-39,305	-0,156	-0,058
-440,022	-200,000	-0,007	-0,057
-439,007	-200,000	-0,001	0,092
-437,992	-46,593	-0,099	-0,035
-436,978	-200,000	0,010	-0,050
-435,963	130,268	0,024	-0,022
-434,949	299,163	0,085	0,112
-433,934	-200,000	-0,013	-0,120
-432,919	-150,684	0,159	0,009
-431,905	459,821	-0,030	-0,048
-430,890	-200,000	0,007	0,048
-429,876	595,939	-0,035	0,063
-428,861	-200,000	0,043	0,159
-427,846	-200,000	0,012	0,118
-426,832	106,586	-0,024	-0,020
-425,817	-54,058	-0,042	0,013
-424,803	44,923	0,123	0,081
-423,788	130,602	0,095	0,087
-422,773	448,328	0,075	0,119
-421,759	-66,541	0,086	0,024
-420,744	-64,291	-0,106	-0,031
-419,730	1,511	0,070	-0,036
-418,715	-152,453	-0,141	-0,007
-417,701	50,246	0,053	-0,035
-416,686	-200,000	-0,002	-0,028
-415,671	-48,566	-0,125	-0,043
-414,657	303,548	0,079	0,104
-413,642	-200,000	-0,034	0,120
-412,628	-200,000	0,006	0,032
-411,613	-24,332	-0,061	-0,026
-410,598	-60,282	-0,080	0,024
-409,584	193,843	0,043	-0,047
-408,569	-40,480	-0,106	0,039
-407,555	-91,233	-0,102	0,021
-406,540	-105,286	0,066	-0,011
-405,525	-27,563	0,068	0,028
-404,511	-200,000	-0,003	0,012
-403,496	-2,929	-0,158	-0,078
-402,482	-37,631	0,049	-0,019
-401,467	-200,000	0,001	0,135
-400,452	284,452	-0,072	-0,093
-399,438	-200,000	0,012	0,044
-398,423	-116,493	-0,137	0,018
-397,409	-200,000	0,023	-0,116
-396,394	115,221	-0,159	-0,138
-395,379	366,682	0,088	-0,127
-394,365	15,221	0,077	-0,043
-393,350	-200,000	0,065	0,000
-392,336	592,686	-0,074	0,132
-391,321	-90,474	0,049	-0,010
-390,306	-200,000	-0,013	0,062
-389,292	800,000	-0,043	-0,099
-388,277	163,199	-0,044	-0,044
-387,263	-70,475	0,155	-0,042
-386,248	-200,000	0,005	0,048
-385,233	-200,000	0,022	0,115
-384,219	-200,000	0,010	0,132
-383,204	800,000	0,085	0,190
-382,190	-159,109	-0,060	0,002
-381,175	91,925	0,031	-0,025
-380,160	-200,000	0,002	-0,039
-379,146	290,126	0,099	0,129
-378,131	800,000	-0,049	-0,110
-377,117	40,894	-0,095	0,061
-376,102	513,541	0,040	-0,066
-375,088	-130,835	-0,098	0,009
-374,073	-24,334	0,055	0,023
-373,058	16,672	0,098	-0,055
-372,044	187,942	-0,013	0,013
-371,029	5,572	0,109	0,057
-370,015	-84,490	-0,107	0,024
-369,000	-57,462	0,138	0,043
-367,985	73,405	-0,019	0,014
-366,971	-200,000	0,011	0,229
-365,956	-200,000	-0,002	-0,055
-364,942	232,937	0,125	0,147
-363,927	221,274	0,060	0,069
-362,912	800,000	-0,049	0,116
-361,898	-26,130	0,044	-0,019
-360,883	-200,000	-0,028	-0,097
-359,869	-200,000	0,003	-0,064
-358,854	90,175	0,035	-0,028
-357,839	-37,871	0,110	0,041
-356,825	398,215	-0,073	0,109
-355,810	683,315	-0,009	-0,017
-354,796	136,907	-0,047	-0,044
-353,781	-20,878	0,066	-0,029
-352,766	-123,789	-0,083	-0,009
-351,752	-200,000	-0,012	0,052
-350,737	-154,713	0,053	0,002
-349,723	-1,232	0,022	0,011
-348,708	-62,447	0,153	-0,045
-347,693	24,918	0,112	-0,066
-346,679	85,250	0,042	0,033
-345,664	-200,000	0,018	-0,112
-344,650	-164,263	-0,075	-0,002
-343,635	800,000	-0,030	-0,093
-342,620	-200,000	0,008	-0,140
-341,606	84,344	0,093	-0,073
-340,591	75,960	-0,103	0,078
-339,577	-161,443	-0,087	-0,003
-338,562	86,934	-0,106	-0,084
-337,548	170,609	-0,019	-0,020
-336,533	-200,000	0,033	0,108
-335,518	438,739	0,012	0,018
-334,504	152,267	-0,107	-0,105
-333,489	-110,223	0,068	-0,010
-332,475	-200,000	0,025	-0,080
-331,460	25,163	0,074	-0,044
-330,445	91,110	0,157	-0,125
-329,431	-80,992	0,122	0,029
-328,416	624,277	-0,033	0,060
-327,402	165,052	0,089	0,090
-326,387	-200,000	-0,009	0,112
-325,372	-154,979	-0,115	-0,005
-324,358	-108,833	-0,098	-0,015
-323,343	800,000	-0,023	-0,049
-322,329	381,980	0,073	0,107
-321,314	435,638	-0,026	-0,041
-320,299	150,406	0,118	0,114
-319,285	-200,000	-0,028	0,125
-318,270	40,901	-0,095	0,061
-317,256	-77,172	-0,061	0,015
-316,241	-86,336	-0,073	-0,016
-315,226	727,058	-0,050	0,096
-314,212	-22,563	0,065	-0,028
-313,197	-38,319	0,029	0,011
-312,183	281,458	0,111	0,142
-311,168	-120,367	0,032	0,004
-310,153	-32,887	-0,100	-0,039
-309,139	146,153	0,086	0,082
-308,124	692,262	0,055	0,103
-307,110	-142,846	0,109	0,007
-306,095	429,259	-0,041	-0,064
-305,080	-200,000	0,015	-0,077
-304,066	-200,000	-0,022	-0,145
-303,051	-80,518	-0,095	-0,022
-302,037	800,000	-0,046	-0,118
-301,022	-6,568	-0,023	0,011
-300,008	-200,000	0,003	-0,105
-298,993	-200,000	0,001	-0,038
-297,978	-200,000	-0,001	0,101
-296,964	-200,000	0,040	-0,161
-295,949	-81,713	-0,039	0,009
-294,935	-200,000	-0,006	-0,111
-293,920	196,497	-0,106	0,115
-292,905	-72,486	0,042	-0,011
-291,891	-200,000	0,035	0,184
-290,876	30,195	0,105	0,063
-289,862	-200,000	-0,017	-0,064
-288,847	244,544	-0,030	0,036
-287,832	-200,000	-0,020	-0,149
-286,818	134,515	0,027	0,025
-285,803	-21,995	0,153	0,066
-284,789	439,645	0,022	-0,034
-283,774	800,000	-0,060	0,183
-282,759	762,065	-0,045	-0,087
-281,745	-123,031	-0,021	0,002
-280,730	-65,062	0,078	0,022
-279,716	-78,529	0,108	0,026
-278,701	77,282	-0,086	0,065
-277,686	333,022	0,026	-0,036
-276,672	-200,000	-0,035	0,114
-275,657	-84,194	0,050	-0,011
-274,643	331,325	-0,043	-0,059
-273,628	495,167	-0,054	0,088
-272,613	767,599	-0,060	0,117
-271,599	68,009	0,070	0,051
-270,584	-129,086	0,056	-0,006
-269,570	291,736	0,080	-0,104
-268,555	-200,000	-0,013	-0,202
-267,540	123,045	-0,085	0,075
-266,526	-200,000	0,005	0,050
-265,511	447,670	-0,018	-0,028
-264,497	317,262	0,028	0,037
-263,482	-13,625	0,111	0,051
-262,467	710,763	0,052	0,098
-261,453	-145,220	0,076	0,005
-260,438	-116,964	-0,065	0,008
-259,424	57,378	0,023	0,016
-258,409	-200,000	0,014	-0,058
-257,395	-200,000	0,001	-0,028
-256,380	605,026	0,017	-0,031
-255,365	26,289	-0,063	-0,037
-254,351	193,102	0,110	-0,118
-253,336	-200,000	-0,001	-0,121
-252,322	-84,411	-0,085	-0,019
-251,307	563,610	0,078	0,135
-250,292	-147,837	-0,050	-0,003
-249,278	169,603	0,109	0,110
-248,263	186,808	0,049	0,052
-247,249	800,000	-0,022	0,052
-246,234	-1,138	0,083	0,042
-245,219	800,000	-0,035	-0,101
-244,205	91,109	-0,133	-0,106
-243,190	53,297	0,084	-0,057
-242,176	-200,000	0,007	0,025
-241,161	800,000	-0,020	0,045
-240,146	-79,855	-0,085	-0,020
-239,132	95,709	0,114	0,092
-238,117	229,570	-0,057	-0,066
-237,103	347,227	0,070	-0,099
-236,088	183,447	-0,102	0,107
-235,073	-80,445	0,117	-0,028
-234,059	800,000	0,042	-0,087
-233,044	364,278	-0,038	-0,055
-232,030	55,384	0,021	-0,014
-231,015	261,333	-0,129	0,158
-230,000	800,000	-0,067	-0,181
-228,986	-96,315	-0,151	0,028
-227,971	224,514	-0,089	-0,103
-226,957	-55,458	-0,012	-0,004
-225,942	75,236	-0,094	-0,071
-224,927	-200,000	-0,008	0,037
-223,913	-119,663	-0,085	0,010
-222,898	23,649	-0,081	-0,047
-221,884	64,417	0,015	0,011
-220,869	-200,000	0,027	0,091
-219,855	269,464	0,072	0,089
-218,840	-200,000	0,028	-0,140
-217,825	-152,969	-0,090	-0,004
-216,811	231,647	-0,076	-0,088
-215,796	800,000	-0,056	-0,124
-214,782	374,999	0,018	-0,026
-213,767	57,419	0,091	-0,063
-212,752	800,000	0,001	-0,001
-211,738	-124,485	0,096	-0,010
-210,723	61,029	-0,060	-0,042
-209,709	20,205	-0,142	-0,081
-208,694	-200,000	-0,012	-0,063
-207,679	136,095	-0,085	0,079
-206,665	-19,474	0,046	0,020
-205,650	800,000	0,050	0,098
-204,636	183,692	0,020	0,021
-203,621	-200,000	0,012	0,040
-202,606	800,000	0,031	0,096
-201,592	85,546	0,079	-0,061
-200,577	0,335	0,033	0,017
-199,563	-200,000	0,012	0,066
-198,548	-97,035	0,035	-0,007
-197,533	111,944	0,095	0,081
-196,519	200,339	0,035	0,038
-195,504	349,509	-0,023	-0,033
-194,490	800,000	0,032	-0,086
-193,475	-200,000	-0,015	-0,097
-192,460	-200,000	-0,020	-0,073
-191,446	800,000	0,085	0,172
-190,431	800,000	0,009	0,028
-189,417	249,023	0,089	-0,107
-188,402	800,000	-0,058	-0,115
-187,387	-24,360	-0,156	-0,065
-186,373	800,000	-0,017	-0,033
-185,358	-2,743	0,107	-0,053
-184,344	-200,000	0,024	0,151
-183,329	800,000	0,034	0,088
-182,315	-200,000	-0,029	0,113
-181,300	800,000	-0,007	-0,022
-180,285	-50,999	-0,093	-0,031
-179,271	-200,000	-0,023	-0,123
-178,256	-146,948	-0,128	-0,008
-177,242	137,904	-0,021	-0,020
-176,227	800,000	0,047	0,145
-175,212	-200,000	-0,015	-0,056
-174,198	-93,109	0,097	-0,019
-173,183	192,943	0,081	-0,087
-172,169	-27,640	0,065	0,027
-171,154	109,102	-0,124	-0,105
-170,139	800,000	0,060	0,145
-169,125	261,945	-0,075	0,093
-168,110	101,392	0,094	-0,077
-167,096	-31,299	-0,111	0,044
-166,081	-121,183	0,030	0,004
-165,066	-200,000	-0,016	-0,160
-164,052	-200,000	-0,012	-0,188
-163,037	284,533	0,030	-0,038
-162,023	33,452	-0,057	-0,035
-161,008	-200,000	-0,016	0,085
-159,993	342,902	0,035	0,048
-158,979	-200,000	-0,002	0,139
-157,964	-200,000	0,015	-0,135
-156,950	800,000	-0,035	-0,082
-155,935	48,461	-0,060	0,039
-154,920	-56,729	0,086	-0,027
-153,906	-118,483	0,161	-0,020
-152,891	800,000	0,020	0,052
-151,877	-105,146	-0,116	0,019
-150,862	361,362	0,064	-0,092
-149,847	100,695	-0,074	0,061
-148,833	-71,118	0,121	-0,032
-147,818	-18,331	0,091	-0,040
-146,804	64,949	-0,028	0,020
-145,789	-200,000	0,010	0,128
-144,775	233,020	0,071	0,083
-143,760	178,519	-0,119	0,124
-142,745	91,991	-0,155	-0,123
-141,731	483,582	-0,082	-0,132
-140,716	57,131	0,039	-0,027
-139,702	-115,597	0,152	-0,020
-138,687	800,000	-0,021	0,053
-137,672	32,927	-0,027	0,017
-136,658	363,547	-0,053	-0,076
-135,643	113,902	0,050	-0,043
-134,629	-200,000	-0,007	-0,091
-133,614	79,078	-0,110	0,083
-132,599	52,019	0,159	0,107
-131,585	-200,000	-0,015	0,125
-130,570	800,000	0,057	0,136
-129,556	-200,000	0,008	-0,027
-128,541	-200,000	0,005	0,040
-127,526	-115,644	0,100	0,013
-126,512	-200,000	0,007	0,062
-125,497	192,496	0,074	0,079
-124,483	-200,000	0,001	0,126
-123,468	-200,000	-0,121	-0,000
-122,453	-121,686	0,126	-0,015
-121,439	60,532	-0,194	0,136
-120,424	-100,638	0,176	-0,030
-119,410	227,258	0,068	0,078
-118,395	234,119	0,052	0,060
-117,380	335,545	0,079	0,109
-116,366	39,766	-0,052	-0,033
-115,351	-35,456	0,065	0,025
-114,337	-200,000	-0,004	-0,067
-113,322	-57,694	-0,051	-0,016
-112,307	-200,000	-0,015	-0,082
-111,293	382,002	0,127	0,185
-110,278	800,000	-0,068	0,152
-109,264	800,000	-0,047	0,133
-108,249	-200,000	0,003	0,041
-107,234	-200,000	-0,002	0,013
-106,220	-88,566	-0,084	-0,018
-105,205	-200,000	-0,012	-0,076
-104,191	595,846	-0,009	0,017
-103,176	-200,000	0,012	0,085
-102,162	-200,000	-0,027	0,147
-101,147	-200,000	0,022	-0,176
-100,132	-162,097	-0,037	0,001
-99,118	-168,644	-0,093	0,002
-98,103	-200,000	0,016	0,060
-97,089	60,047	0,067	0,047
-96,074	-200,000	0,033	0,108
-95,059	15,464	0,061	-0,034
-94,045	-21,967	-0,101	0,043
-93,030	-200,000	0,166	0,000
-92,016	56,446	-0,045	-0,031
-91,001	-95,465	0,103	0,019
-89,986	84,512	0,105	-0,081
-88,972	-165,209	0,096	-0,003
-87,957	-200,000	-0,001	0,077
-86,943	-53,522	0,063	0,020
-85,928	-6,969	-0,125	-0,060
-84,913	-200,000	0,012	0,077
-83,899	210,813	-0,065	-0,072
-82,884	46,753	0,120	0,079
-81,870	-72,575	-0,092	0,024
-80,855	-103,992	-0,083	0,013
-79,840	62,498	-0,037	0,026
-78,826	-163,344	0,063	-0,002
-77,811	572,715	0,048	-0,083
-76,797	800,000	0,000	-0,000
-75,782	585,416	0,044	0,077
-74,767	178,386	0,040	-0,041
-73,753	-200,000	-0,020	-0,069
-72,738	162,807	-0,091	-0,090
-71,724	-200,000	-0,028	-0,096
-70,709	229,521	0,028	0,032
-69,694	351,319	-0,050	-0,070
-68,680	-47,801	0,153	-0,052
-67,665	499,051	-0,041	-0,067
-66,651	409,819	0,081	0,122
-65,636	-200,000	0,004	0,042
-64,622	37,093	-0,069	-0,043
-63,607	-101,047	-0,036	-0,006
-62,592	800,000	0,021	-0,048
-61,578	134,259	0,039	0,036
-60,563	46,258	0,028	0,018
-59,549	800,000	0,048	0,135
-58,534	28,436	-2,059	-1,225
-57,519	591,384	-1,098	-1,919
-56,505	-200,000	-0,319	-4,547
-55,490	407,442	1,057	1,580
-54,476	800,000	5,088	11,434
-53,461	-200,000	21,847	344,556
-52,446	800,000	763,905	2345,094
-51,432	547,795	1663,483	2819,382
-50,417	71,529	1660,453	1214,635
-49,403	17,237	1533,998	855,915
-48,388	11,278	1457,859	784,624
-47,373	19,396	1449,732	819,159
-46,359	14,830	1438,574	791,125
-45,344	9,557	1434,478	763,746
-44,330	9,507	1432,564	762,457
-43,315	9,474	1430,915	761,396
-42,300	9,492	1429,117	760,491
-41,286	9,495	1427,682	759,712
-40,271	9,465	1426,422	758,868
-39,257	9,473	1425,342	758,305
-38,242	9,526	1424,339	757,991
-37,227	9,498	1423,239	757,242
-36,213	9,513	1421,904	756,571
-35,198	9,531	1420,657	755,965
-34,184	9,531	1419,630	755,389
-33,169	9,480	1418,222	754,370
-32,154	9,497	1417,500	754,033
-31,140	9,519	1416,044	753,333
-30,125	9,556	1414,804	752,817
-29,111	9,513	1413,991	752,154
-28,096	9,498	1412,696	751,364
-27,082	9,453	1411,482	750,478
-26,067	9,444	1410,391	749,826
-25,052	9,470	1409,426	749,403
-24,038	9,469	1408,184	748,712
-23,023	9,459	1407,458	748,247
-22,009	9,426	1406,332	747,467
-20,994	9,475	1405,505	747,223
-19,979	9,471	1404,554	746,669
-18,965	9,395	1403,495	745,724
-17,950	9,385	1402,698	745,222
-16,936	9,371	1401,850	744,681
-15,921	9,350	1400,945	744,071
-14,906	9,397	1399,771	743,638
-13,892	9,443	1398,819	743,315
-12,877	9,383	1398,021	742,581
-11,863	9,407	1397,259	742,261
-10,848	9,354	1396,155	741,398
-9,833	9,302	1395,321	740,685
-8,819	9,318	1394,557	740,325
-7,804	9,289	1393,680	739,696
-6,790	9,243	1392,759	738,963
-5,775	9,254	1391,624	738,383
-4,760	9,248	1390,884	737,934
-3,746	9,341	1389,576	737,639
-2,731	9,301	1388,881	737,058
-1,717	9,286	1387,991	736,486
-0,702	9,284	1386,198	735,496
0,313	13,410	1298,456	707,767
1,327	29,702	688,319	412,015
2,342	46,508	118,926	77,624
3,356	3,008	16,477	8,409
4,371	3,202	3,623	1,851
5,386	-30,565	1,192	0,474
6,400	800,000	0,297	0,622
7,415	2,926	-0,234	-0,119
8,429	-3,550	-0,290	-0,142
9,444	102,038	-0,339	-0,278
10,459	-11,133	-0,210	-0,097
11,473	-11,443	-0,384	-0,177
12,488	19,237	-0,317	-0,179
13,502	4,292	-0,286	-0,147
14,517	-48,606	-0,406	-0,137
15,531	151,590	-0,336	-0,323
16,546	64,908	-0,373	-0,265
17,561	-58,685	-0,428	-0,130
18,575	-64,983	-0,106	-0,030
19,590	30,903	-0,190	-0,114
20,604	-38,308	-0,258	-0,096
21,619	222,462	-0,389	-0,441
22,634	67,536	-0,491	-0,352
23,648	69,305	-0,326	-0,236
24,663	-135,373	-0,404	-0,034
25,677	49,810	-0,422	-0,280
26,692	60,148	-0,296	-0,206
27,707	122,601	-0,315	-0,277
28,721	85,089	-0,377	-0,290
29,736	245,000	-0,292	-0,346
30,750	41,963	-0,467	-0,298
31,765	77,550	-0,389	-0,291
32,780	30,246	-0,374	-0,224
33,794	145,016	-0,228	-0,214
34,809	202,064	-0,281	-0,305
35,823	117,710	-0,247	-0,214
36,838	46,002	-0,441	-0,286
37,853	86,679	-0,405	-0,313
38,867	52,740	-0,404	-0,271
39,882	74,676	-0,292	-0,215
40,896	47,882	-0,308	-0,202
41,911	69,754	-0,299	-0,216
42,926	179,366	-0,276	-0,284
43,940	8,444	-0,370	-0,195
44,955	155,632	-0,293	-0,284
45,969	75,741	-0,398	-0,295
46,984	-52,507	-0,395	-0,128
47,999	-172,885	-0,269	-0,006
49,013	22,904	-0,241	-0,138
50,028	55,186	-0,435	-0,294
51,042	247,750	-0,338	-0,402
52,057	132,849	-0,218	-0,198
53,071	23,174	-0,276	-0,159
54,086	-23,952	-0,345	-0,144
55,101	68,794	-0,315	-0,227
56,115	-20,486	-0,303	-0,130
57,130	214,025	-0,338	-0,376
58,144	325,291	-0,273	-0,367
59,159	70,783	-0,415	-0,301
60,174	26,692	-0,307	-0,180
61,188	8,664	-0,379	-0,200
62,203	103,312	-0,283	-0,233
63,217	-55,366	-0,367	-0,115
64,232	-15,707	-0,365	-0,163
65,247	-50,938	-0,256	-0,084
66,261	-35,044	-0,348	-0,132
67,276	4,023	-0,269	-0,137
68,290	7,751	-0,415	-0,217
69,305	-35,374	-0,199	-0,076
70,320	40,689	-0,326	-0,205
71,334	155,305	-0,266	-0,257
72,349	-65,597	-0,252	-0,070
73,363	-12,365	-0,334	-0,152
74,378	109,729	-0,288	-0,241
75,393	202,065	-0,285	-0,308
76,407	-87,782	-0,319	0,067
77,422	-128,546	-0,332	0,032
78,436	-57,361	-0,297	-0,091
79,451	23,163	-0,304	-0,175
80,466	44,518	-0,343	-0,220
81,480	76,071	-0,282	-0,209
82,495	246,236	-0,215	-0,254
83,509	-15,931	-0,331	-0,147
84,524	-42,009	-0,369	-0,132
85,539	22,280	-0,347	-0,198
86,553	94,176	-0,214	-0,169
87,568	-61,112	-0,381	-0,112
88,582	25,003	-0,295	-0,171
89,597	9,044	-0,303	-0,159
90,611	-25,149	-0,233	-0,096
91,626	-0,767	-0,263	-0,130
92,641	152,895	-0,252	-0,241
93,655	-17,891	-0,156	-0,068
94,670	82,148	-0,258	-0,196
95,684	-72,047	-0,357	-0,092
96,699	800,000	-0,127	-0,248
97,714	-13,182	-0,427	-0,193
98,728	59,904	-0,209	-0,144
99,743	101,576	-0,264	-0,215
100,757	29,056	-0,289	-0,171
101,772	84,917	-0,277	-0,212
102,787	-87,120	-0,420	-0,088
103,801	169,876	-0,210	-0,209
104,816	69,959	-0,270	-0,194
105,830	-24,696	-0,160	-0,066
106,845	81,357	-0,142	-0,107
107,860	36,413	-0,213	0,131
108,874	-3,088	-0,255	-0,124
109,889	28,702	-0,408	-0,241
110,903	101,355	-0,326	-0,265
111,918	-47,431	-0,289	-0,098
112,933	-30,039	-0,082	0,032
113,947	-46,525	-0,282	-0,096
114,962	-18,863	-0,243	-0,105
115,976	29,795	-0,298	-0,177
116,991	-64,205	-0,262	-0,074
118,006	55,381	-0,346	-0,233
119,020	134,239	-0,246	-0,223
120,035	-115,985	-0,179	-0,023
121,049	-46,495	-0,243	-0,083
122,064	-187,193	-0,172	0,002
123,079	43,476	-0,250	-0,159
124,093	73,337	-0,329	-0,240
125,108	88,073	-0,260	-0,201
126,122	208,387	-0,139	-0,151
127,137	-1,128	-0,282	-0,139
128,151	-39,240	-0,198	-0,072
129,166	-79,181	-0,277	-0,065
130,181	-70,342	-0,210	-0,055
131,195	18,620	-0,245	-0,136
132,210	147,610	-0,171	-0,161
133,224	195,252	-0,166	-0,176
134,239	50,354	-0,368	-0,242
135,254	45,665	-0,280	-0,180
136,268	82,357	-0,232	-0,175
137,283	34,785	-0,337	-0,205
138,297	35,511	-0,208	-0,127
139,312	12,154	-0,241	-0,129
140,327	17,998	-0,319	-0,176
141,341	50,881	-0,237	-0,156
142,356	251,160	-0,149	-0,177
143,370	110,966	-0,191	-0,160
144,385	17,009	-0,285	-0,157
145,400	116,577	-0,293	-0,250
146,414	70,323	-0,275	-0,197
147,429	34,574	-0,307	-0,186
148,443	-74,529	-0,169	-0,042
149,458	50,686	-0,204	-0,134
150,473	58,896	-0,193	-0,132
151,487	26,313	-0,219	-0,127
152,502	39,224	-0,405	-0,251
153,516	-165,924	-0,255	-0,007
154,531	195,817	-0,167	-0,177
155,546	-34,102	-0,216	-0,082
156,560	518,206	-0,119	-0,194
157,575	-95,824	-0,315	-0,058
158,589	-46,963	-0,292	-0,099
159,604	138,677	-0,224	-0,205
160,619	225,321	-0,234	-0,264
161,633	-69,571	-0,331	-0,087
162,648	135,417	-0,141	-0,128
163,662	89,701	-0,076	-0,059
164,677	-135,414	-0,264	-0,022
165,692	-121,548	-0,207	0,024
166,706	-23,840	-0,359	-0,149
167,721	24,581	-0,348	-0,199
168,735	22,250	-0,323	-0,183
169,750	-22,693	-0,162	-0,067
170,764	-18,764	-0,197	-0,085
171,779	230,449	-0,208	-0,237
172,794	10,422	-0,148	-0,078
173,808	-24,455	-0,295	-0,121
174,823	99,831	-0,354	-0,285
175,837	4,655	-0,389	-0,198
176,852	67,452	-0,211	-0,149
177,867	-137,357	-0,309	-0,024
178,881	228,873	-0,219	-0,249
179,896	119,844	-0,235	-0,202
180,910	423,745	-0,109	-0,163
181,925	-44,813	-0,246	-0,085
182,940	19,541	-0,230	-0,128
183,954	136,367	-0,217	-0,196
184,969	-9,075	-0,253	-0,117
185,983	118,612	-0,071	-0,061
186,998	423,262	-0,130	-0,195
188,013	-131,723	-0,157	-0,014
189,027	-21,113	-0,276	-0,117
190,042	-4,946	-0,335	-0,160
191,056	42,273	-0,178	-0,112
192,071	50,249	-0,207	-0,135
193,086	-134,835	-0,238	-0,020
194,100	-118,652	-0,265	-0,032
195,115	-61,216	-0,275	0,080
196,129	14,066	-0,182	-0,098
197,144	21,938	-0,355	-0,200
198,159	800,000	-0,130	-0,250
199,173	133,461	-0,147	-0,131
200,188	49,411	-0,110	-0,072
201,202	7,506	-0,235	-0,121
202,217	5,389	-0,192	-0,098
203,232	14,245	-0,228	-0,123
204,246	102,015	-0,294	-0,237
205,261	749,504	-0,147	-0,275
206,275	125,891	-0,205	-0,179
207,290	-145,847	-0,281	0,017
208,304	-77,735	-0,264	-0,063
209,319	-78,011	-0,322	-0,076
210,334	327,621	-0,218	-0,290
211,348	339,560	-0,183	-0,248
212,363	800,000	-0,119	-0,248
213,377	-4,329	-0,222	-0,106
214,392	-60,397	-0,142	-0,042
215,407	9,687	-0,211	-0,110
216,421	111,533	-0,159	-0,133
217,436	142,848	-0,180	-0,165
218,450	156,674	-0,237	-0,226
219,465	-200,000	-0,057	-0,284
220,480	-34,706	-0,363	-0,137
221,494	-11,886	-0,226	-0,102
222,509	28,393	0,014	0,008
223,523	371,639	-0,137	-0,192
224,538	-69,006	-0,263	-0,069
225,553	-80,076	-0,282	-0,065
226,567	354,499	-0,121	-0,166
227,582	292,171	-0,205	-0,258
228,596	130,431	-0,242	-0,215
229,611	-118,181	-0,183	0,022
230,626	-29,212	-0,142	-0,056
231,640	277,229	-0,117	-0,144
232,655	17,398	-0,181	-0,099
233,669	11,223	-0,148	-0,078
234,684	201,423	-0,196	-0,209
235,699	-27,522	-0,217	-0,087
236,713	-15,675	-0,184	-0,081
237,728	-103,623	-0,161	-0,026
238,742	265,192	-0,154	-0,185
239,757	-0,123	-0,178	-0,087
240,772	393,543	-0,127	-0,182
241,786	-200,000	-0,023	-0,165
242,801	-67,942	-0,228	-0,061
243,815	371,797	-0,047	-0,066
244,830	118,842	-0,179	-0,153
245,844	147,684	-0,231	-0,215
246,859	474,290	-0,128	-0,199
247,874	11,982	-0,060	-0,032
248,888	800,000	-0,078	-0,176
249,903	85,198	-0,190	-0,143
250,917	-77,602	-0,105	-0,025
251,932	-57,884	-0,149	-0,045
252,947	69,364	-0,172	-0,122
253,961	74,531	-0,236	-0,171
254,976	601,165	-0,097	-0,167
255,990	230,058	-0,145	-0,163
257,005	-200,000	-0,032	-0,182
258,020	557,273	-0,097	-0,162
259,034	426,947	-0,183	-0,273
260,049	-40,250	-0,232	-0,083
261,063	-55,863	-0,161	-0,049
262,078	27,818	-0,259	-0,150
263,093	-31,731	-0,226	-0,087
264,107	-137,322	-0,265	-0,020
265,122	-78,749	-0,238	-0,055
266,136	140,753	-0,208	-0,189
267,151	417,050	-0,113	-0,166
268,166	54,017	-0,336	-0,222
269,180	511,138	-0,107	-0,171
270,195	169,529	-0,220	-0,216
271,209	-91,668	-0,250	-0,048
272,224	7,457	-0,129	-0,066
273,239	3,993	-0,178	-0,089
274,253	-2,016	-0,182	-0,087
275,268	170,569	-0,108	-0,107
276,282	455,037	-0,188	-0,288
277,297	316,432	-0,239	-0,311
278,312	105,292	-0,147	-0,119
279,326	140,484	-0,087	-0,079
280,341	405,403	-0,074	-0,108
281,355	-200,000	-0,001	-0,035
282,370	53,454	-0,198	-0,131
283,384	800,000	-0,099	-0,231
284,399	800,000	-0,123	-0,245
285,414	-124,902	-0,155	-0,016
286,428	-96,954	-0,324	0,058
287,443	156,082	-0,085	-0,080
288,457	438,193	-0,095	-0,143
289,472	-60,531	-0,286	-0,083
290,487	22,777	-0,148	-0,083
291,501	65,121	-0,133	-0,092
292,516	1,168	-0,205	-0,101
293,530	572,538	-0,105	-0,176
294,545	-136,130	-0,134	0,011
295,560	-48,435	-0,210	-0,069
296,574	-118,639	-0,166	0,020
297,589	-120,338	-0,109	-0,013
298,603	-160,868	-0,144	-0,005
299,618	337,492	-0,112	-0,150
300,633	756,557	-0,044	-0,081
301,647	99,693	-0,108	-0,085
302,662	-47,494	-0,076	0,025
303,676	47,189	-0,170	-0,108
304,691	-42,284	-0,129	-0,045
305,706	293,256	-0,218	-0,274
306,720	-64,460	-0,201	-0,056
307,735	-67,945	-0,177	-0,047
308,749	-200,000	-0,030	-0,118
309,764	-110,257	-0,150	0,021
310,779	47,329	-0,120	-0,077
311,793	-78,601	-0,289	-0,067
312,808	613,679	-0,131	-0,227
313,822	455,797	-0,070	-0,107
314,837	73,621	-0,250	-0,180
315,852	101,870	-0,090	-0,072
316,866	290,054	-0,092	-0,114
317,881	361,331	-0,140	-0,192
318,895	-66,745	-0,103	0,028
319,910	-200,000	-0,033	-0,240
320,925	150,964	-0,158	-0,148
321,939	567,148	-0,076	-0,127
322,954	213,873	-0,049	-0,053
323,968	59,183	-0,123	-0,083
324,983	34,373	-0,163	-0,097
325,997	-42,650	-0,249	-0,086
327,012	-21,213	-0,109	-0,045
328,027	800,000	-0,030	-0,069
329,041	-29,232	-0,107	-0,042
330,056	607,854	-0,112	-0,192
331,070	-0,335	-0,078	0,038
332,085	-117,582	-0,053	-0,006
333,100	-200,000	-0,006	-0,068
334,114	149,323	-0,069	-0,064
335,129	166,489	-0,216	-0,210
336,143	-4,935	-0,163	-0,077
337,158	21,585	-0,151	-0,084
338,173	-141,534	-0,176	-0,012
339,187	-106,884	-0,107	-0,016
340,202	38,244	-0,258	-0,157
341,216	-106,560	-0,218	-0,033
342,231	-113,812	-0,206	-0,027
343,246	153,026	-0,179	-0,168
344,260	-76,463	-0,199	0,048
345,275	-7,567	-0,121	-0,056
346,289	-180,555	-0,180	0,002
347,304	-49,798	-0,052	-0,017
348,319	-102,536	-0,121	0,020
349,333	-90,907	-0,163	-0,032
350,348	-118,952	-0,172	0,020
351,362	-84,157	-0,189	0,041
352,377	29,501	-0,072	0,041
353,392	-200,000	-0,032	0,123
354,406	-83,721	-0,122	0,026
355,421	207,957	1311,824	1401,849
356,435	159,994	1472,151	1402,300
