DTS Sentinel unit serial number:	SN410029Multiplexer serial number:	ORYXHardware model number:	OX2-SRSoftware version number:	ORYX F/W v4,00 Oryx Data Collector v3.7.2.0data status	okinstallation	B3 Nyhavnadifferential loss correction	single-endedforward channel	channel 1reverse channel	N/Adate	2023/11/29time	02:42:30forward acquisition time	300,00reverse acquisition time	0,00gamma	499,1914k internal	0,3211k external	0,3211temperature offset calibration	1,0000default loss term (dB/km)	0,3820temperature slope calibration	1,0000multiplexer offset coefficient	1,0000multiplexer slope coefficient	1,0000fibre end	0,00T internal ref (°C)	9,58T ext. ref 1 (°C)	-5,68T ext. ref 2 (°C)	-5,80length (m)	temperature (°C)	Stokes	anti-Stokes-744,400	583,842	-0,197	-0,352
-743,385	-200,000	0,022	0,336
-742,371	52,280	-0,100	-0,069
-741,356	-200,000	0,031	0,457
-740,342	188,877	-0,128	-0,139
-739,327	-200,000	0,022	0,174
-738,312	-200,000	-0,062	-0,241
-737,298	-200,000	-0,027	0,202
-736,283	133,874	-0,165	-0,155
-735,269	800,000	-0,122	0,248
-734,254	800,000	-0,104	-0,260
-733,239	-165,233	-0,135	-0,004
-732,225	800,000	-0,085	-0,266
-731,210	265,904	0,083	0,105
-730,196	-200,000	0,017	-0,080
-729,181	279,231	-0,031	-0,040
-728,167	572,619	-0,024	-0,042
-727,152	800,000	0,023	0,058
-726,137	23,413	-0,148	0,088
-725,123	81,153	-0,091	-0,071
-724,108	96,167	-0,107	-0,089
-723,094	265,682	-0,113	-0,143
-722,079	-200,000	-0,004	-0,107
-721,064	348,454	-0,066	-0,095
-720,050	-46,042	-0,099	-0,035
-719,035	-200,000	-0,005	-0,050
-718,021	-7,423	-0,026	-0,013
-717,006	256,435	-0,059	-0,074
-715,991	-200,000	-0,002	0,018
-714,977	-133,101	-0,173	-0,016
-713,962	102,677	0,118	0,100
-712,948	60,073	-0,036	0,026
-711,933	371,109	0,023	0,035
-710,918	84,889	-0,065	-0,052
-709,904	-4,591	-0,110	0,055
-708,889	-200,000	-0,061	-0,209
-707,875	-200,000	0,003	-0,083
-706,860	-200,000	0,005	-0,042
-705,845	-200,000	0,016	0,138
-704,831	-58,389	0,029	-0,009
-703,816	-200,000	-0,016	-0,053
-702,802	-167,979	0,112	0,003
-701,787	-200,000	0,023	-0,117
-700,772	652,661	-0,078	0,145
-699,758	-110,697	-0,101	0,015
-698,743	-184,538	0,177	0,002
-697,729	273,861	0,023	0,029
-696,714	462,681	0,076	-0,123
-695,699	800,000	-0,023	-0,070
-694,685	-65,305	0,138	-0,040
-693,670	-68,551	0,050	-0,014
-692,656	-200,000	-0,003	0,203
-691,641	-73,666	-0,061	0,016
-690,627	-200,000	-0,002	0,071
-689,612	664,798	-0,076	-0,142
-688,597	673,279	0,070	-0,131
-687,583	-59,645	-0,046	-0,014
-686,568	164,137	0,031	-0,031
-685,554	-77,401	0,086	-0,022
-684,539	48,486	0,039	-0,026
-683,524	-200,000	-0,025	-0,109
-682,510	-200,000	-0,003	-0,055
-681,495	216,030	-0,072	-0,083
-680,481	397,382	-0,037	-0,055
-679,466	-78,853	-0,040	-0,010
-678,451	-153,754	0,056	-0,003
-677,437	88,488	0,069	0,056
-676,422	-200,000	-0,011	-0,115
-675,408	-200,000	-0,025	0,141
-674,393	155,015	0,029	-0,029
-673,378	-60,856	-0,092	-0,028
-672,364	-23,895	-0,094	0,041
-671,349	782,147	0,068	-0,135
-670,335	-118,350	0,094	-0,012
-669,320	-200,000	0,024	0,101
-668,305	-8,477	0,174	0,084
-667,291	-200,000	0,042	0,197
-666,276	-161,539	-0,116	-0,004
-665,262	560,000	-0,047	-0,083
-664,247	-200,000	-0,014	0,090
-663,232	18,970	-0,032	0,019
-662,218	-200,000	0,021	0,088
-661,203	88,628	0,219	0,176
-660,189	-12,543	-0,052	0,024
-659,174	42,702	0,123	-0,081
-658,159	-9,743	-0,058	0,028
-657,145	-163,928	0,101	0,003
-656,130	6,988	-0,085	-0,046
-655,116	34,226	0,049	0,031
-654,101	-55,967	-0,100	0,032
-653,086	222,907	-0,075	0,088
-652,072	-200,000	-0,007	-0,058
-651,057	23,720	-0,090	-0,053
-650,043	-200,000	-0,002	-0,018
-649,028	790,747	0,050	0,100
-648,014	271,405	-0,039	0,049
-646,999	-5,226	0,112	-0,055
-645,984	-192,783	-0,038	-0,000
-644,970	-140,964	-0,079	0,006
-643,955	-178,291	-0,061	-0,001
-642,941	-200,000	0,010	-0,048
-641,926	29,296	0,044	-0,027
-640,911	130,770	-0,038	-0,035
-639,897	198,391	-0,066	-0,073
-638,882	-200,000	0,011	-0,051
-637,868	161,376	-0,029	-0,030
-636,853	-200,000	-0,029	-0,163
-635,838	-164,578	0,090	0,003
-634,824	-200,000	0,013	-0,189
-633,809	-160,622	0,138	-0,005
-632,795	-200,000	-0,003	-0,184
-631,780	137,290	0,071	-0,067
-630,765	-200,000	0,016	-0,070
-629,751	800,000	-0,059	-0,121
-628,736	-200,000	-0,006	-0,152
-627,722	-43,307	-0,143	-0,052
-626,707	321,270	0,116	0,159
-625,692	800,000	-0,037	0,086
-624,678	313,654	-0,032	-0,044
-623,663	800,000	-0,006	-0,013
-622,649	-200,000	0,021	-0,180
-621,634	-200,000	-0,036	0,141
-620,619	-25,146	-0,070	-0,030
-619,605	-124,137	0,050	-0,006
-618,590	292,143	0,044	-0,057
-617,576	361,223	-0,053	-0,076
-616,561	659,589	-0,027	-0,050
-615,546	-47,076	-0,062	0,022
-614,532	433,160	0,005	0,008
-613,517	-94,388	-0,034	0,007
-612,503	-200,000	-0,026	-0,119
-611,488	25,086	0,033	0,020
-610,474	-200,000	-0,001	0,140
-609,459	800,000	-0,045	0,132
-608,444	201,164	0,067	-0,074
-607,430	-200,000	-0,011	-0,148
-606,415	29,192	-0,122	-0,075
-605,401	-200,000	-0,001	-0,109
-604,386	340,193	0,015	0,021
-603,371	-200,000	0,002	0,068
-602,357	-200,000	-0,013	0,042
-601,342	612,226	-0,131	-0,237
-600,328	800,000	0,029	-0,075
-599,313	-166,786	-0,079	-0,002
-598,298	-200,000	0,014	0,092
-597,284	800,000	0,012	-0,037
-596,269	800,000	0,012	-0,034
-595,255	745,178	0,019	-0,037
-594,240	-84,833	0,043	0,010
-593,225	800,000	-0,056	-0,169
-592,211	-3,224	-0,042	0,021
-591,196	-200,000	0,021	-0,102
-590,182	800,000	-0,018	0,043
-589,167	-162,409	0,062	-0,002
-588,152	300,714	-0,037	-0,049
-587,138	-76,080	0,124	0,031
-586,123	41,607	-0,076	-0,050
-585,109	-151,309	0,076	-0,004
-584,094	316,122	0,037	-0,051
-583,079	137,391	0,115	0,109
-582,065	80,727	0,070	0,054
-581,050	-200,000	0,023	-0,106
-580,036	-140,016	-0,148	0,011
-579,021	605,102	0,035	-0,063
-578,006	149,839	-0,108	-0,105
-576,992	-23,108	-0,036	0,016
-575,977	-200,000	0,000	-0,007
-574,963	-200,000	0,003	0,097
-573,948	-118,254	-0,102	-0,013
-572,934	800,000	-0,014	0,033
-571,919	157,198	0,010	0,010
-570,904	0,045	0,051	0,026
-569,890	87,277	-0,078	-0,062
-568,875	38,633	0,009	-0,006
-567,861	22,434	0,053	0,031
-566,846	-136,250	0,173	0,014
-565,831	800,000	-0,031	0,081
-564,817	800,000	-0,033	0,083
-563,802	-133,281	-0,024	-0,002
-562,788	-200,000	0,005	-0,056
-561,773	201,469	0,102	0,114
-560,758	172,425	0,043	-0,045
-559,744	-153,544	0,101	0,005
-558,729	-63,033	-0,093	-0,027
-557,715	800,000	0,035	0,078
-556,700	428,624	-0,045	-0,070
-555,685	197,414	0,008	-0,009
-554,671	118,993	0,132	-0,117
-553,656	-49,927	-0,033	-0,011
-552,642	-200,000	0,032	0,128
-551,627	128,683	0,083	-0,076
-550,612	-200,000	-0,020	-0,189
-549,598	55,535	-0,188	-0,131
-548,583	-147,907	-0,135	0,008
-547,569	349,300	0,081	-0,115
-546,554	33,229	-0,050	0,031
-545,539	76,179	0,138	0,105
-544,525	357,396	-0,060	0,086
-543,510	-26,317	0,146	0,061
-542,496	232,345	-0,039	0,046
-541,481	-200,000	-0,050	-0,162
-540,466	-49,034	-0,107	0,036
-539,452	-6,777	0,067	0,033
-538,437	-74,492	-0,069	-0,018
-537,423	-8,227	0,088	-0,042
-536,408	800,000	0,004	-0,009
-535,393	15,285	0,106	0,059
-534,379	177,641	-0,047	0,049
-533,364	48,177	0,086	-0,058
-532,350	20,507	-0,111	-0,065
-531,335	40,344	-0,118	-0,076
-530,321	151,799	0,083	0,082
-529,306	148,577	0,049	-0,048
-528,291	800,000	-0,034	-0,076
-527,277	-200,000	-0,027	-0,106
-526,262	-200,000	0,013	-0,083
-525,248	800,000	-0,037	0,084
-524,233	45,181	0,102	-0,067
-523,218	48,504	0,033	0,022
-522,204	254,885	0,016	-0,020
-521,189	38,927	-0,071	0,046
-520,175	41,920	-0,029	-0,019
-519,160	26,034	0,023	-0,014
-518,145	800,000	0,082	0,167
-517,131	800,000	0,085	0,193
-516,116	56,079	-0,107	-0,075
-515,102	-15,342	-0,081	0,037
-514,087	212,642	-0,058	0,066
-513,072	-200,000	0,019	-0,066
-512,058	4,155	-0,105	0,055
-511,043	-88,957	0,046	0,010
-510,029	-200,000	0,031	0,122
-509,014	-90,397	-0,165	-0,034
-507,999	-200,000	-0,025	0,122
-506,985	-118,786	0,070	-0,009
-505,970	-108,537	-0,146	-0,022
-504,956	-116,447	-0,075	0,010
-503,941	169,725	-0,043	-0,044
-502,926	-39,420	-0,039	0,014
-501,912	-56,954	-0,126	-0,040
-500,897	183,207	0,070	-0,074
-499,883	228,491	-0,065	-0,076
-498,868	-10,766	-0,199	-0,094
-497,853	70,810	0,108	-0,080
-496,839	443,083	-0,092	0,146
-495,824	-116,017	0,062	-0,008
-494,810	229,266	-0,063	0,074
-493,795	-200,000	-0,002	-0,011
-492,781	500,104	-0,061	0,102
-491,766	-200,000	0,027	-0,112
-490,751	-75,537	0,054	-0,014
-489,737	81,879	-0,018	-0,014
-488,722	-131,725	0,124	0,012
-487,708	-200,000	0,001	-0,024
-486,693	-200,000	0,019	0,162
-485,678	11,826	-0,109	0,060
-484,664	83,932	0,052	-0,041
-483,649	124,353	-0,062	-0,056
-482,635	-83,630	0,188	0,043
-481,620	-200,000	-0,013	0,207
-480,605	73,303	-0,058	0,043
-479,591	-200,000	0,014	0,059
-478,576	523,265	0,101	0,170
-477,562	800,000	0,061	0,150
-476,547	-159,974	-0,096	-0,004
-475,532	800,000	0,037	0,087
-474,518	-200,000	-0,028	0,140
-473,503	800,000	0,023	0,066
-472,489	800,000	-0,054	0,153
-471,474	800,000	-0,011	0,023
-470,459	-200,000	0,011	0,053
-469,445	800,000	0,011	0,034
-468,430	-111,371	-0,093	0,013
-467,416	76,745	0,065	0,050
-466,401	109,011	-0,015	0,013
-465,386	768,186	-0,088	0,172
-464,372	-200,000	0,005	-0,055
-463,357	-200,000	0,021	-0,081
-462,343	-53,830	-0,194	-0,063
-461,328	59,567	0,134	-0,095
-460,313	67,740	0,045	0,033
-459,299	-200,000	0,009	0,057
-458,284	-95,910	0,148	-0,028
-457,270	-115,089	0,142	0,019
-456,255	-200,000	0,028	-0,162
-455,241	-119,353	0,151	-0,019
-454,226	353,839	-0,156	-0,223
-453,211	800,000	0,030	-0,071
-452,197	-200,000	-0,004	-0,130
-451,182	194,131	0,044	-0,048
-450,168	323,776	0,098	-0,134
-449,153	105,507	-0,082	0,070
-448,138	-41,377	-0,175	-0,064
-447,124	-175,202	0,080	-0,002
-446,109	40,861	0,072	-0,046
-445,095	499,846	-0,058	0,096
-444,080	428,750	-0,024	0,037
-443,065	800,000	-0,010	0,025
-442,051	82,692	-0,101	-0,078
-441,036	83,427	0,022	0,017
-440,022	621,594	0,044	-0,079
-439,007	800,000	0,035	0,074
-437,992	273,895	-0,063	0,081
-436,978	-90,602	0,003	-0,001
-435,963	646,583	0,023	0,042
-434,949	340,377	-0,080	0,112
-433,934	800,000	-0,017	0,042
-432,919	291,311	0,025	0,033
-431,905	295,696	0,091	-0,120
-430,890	-200,000	-0,003	-0,037
-429,876	-156,135	-0,040	-0,002
-428,861	-200,000	-0,034	0,174
-427,846	130,581	-0,036	0,033
-426,832	-200,000	0,022	-0,080
-425,817	23,967	-0,129	-0,076
-424,803	800,000	0,007	-0,016
-423,788	800,000	0,034	-0,101
-422,773	-113,700	0,040	0,006
-421,759	-109,789	-0,118	-0,018
-420,744	-200,000	0,024	0,085
-419,730	-200,000	0,015	-0,103
-418,715	-70,922	0,178	-0,048
-417,701	-200,000	0,024	-0,170
-416,686	800,000	-0,036	-0,079
-415,671	800,000	0,042	-0,116
-414,657	-200,000	0,072	-0,000
-413,642	-200,000	0,040	-0,000
-412,628	-92,473	-0,102	0,020
-411,613	220,289	-0,073	-0,084
-410,598	30,097	-0,045	-0,027
-409,584	-200,000	0,001	-0,047
-408,569	-200,000	0,008	0,059
-407,555	-200,000	-0,033	0,113
-406,540	83,592	-0,045	0,035
-405,525	-200,000	0,024	0,000
-404,511	-92,364	0,066	0,013
-403,496	236,437	0,064	0,076
-402,482	-113,672	0,080	-0,011
-401,467	-29,615	0,118	0,048
-400,452	281,018	-0,028	-0,036
-399,438	92,314	0,094	0,076
-398,423	-81,056	-0,095	-0,022
-397,409	444,938	0,083	-0,132
-396,394	-161,369	-0,111	-0,004
-395,379	-55,582	-0,087	-0,028
-394,365	-200,000	0,002	-0,015
-393,350	98,926	0,180	0,149
-392,336	800,000	0,038	-0,081
-391,321	-81,578	-0,111	0,026
-390,306	78,271	-0,078	0,059
-389,292	-52,153	-0,100	0,033
-388,277	-200,000	0,024	-0,097
-387,263	800,000	0,016	0,041
-386,248	800,000	-0,018	-0,046
-385,233	-9,356	-0,095	0,045
-384,219	-200,000	-0,006	0,129
-383,204	364,250	0,036	-0,052
-382,190	516,755	-0,026	-0,043
-381,175	204,763	-0,051	-0,057
-380,160	-73,349	0,033	-0,008
-379,146	216,239	0,044	0,051
-378,131	-200,000	0,012	0,093
-377,117	-200,000	0,000	-0,041
-376,102	129,432	-0,092	0,084
-375,088	-93,253	-0,172	-0,034
-374,073	261,266	0,056	-0,070
-373,058	277,725	0,032	-0,041
-372,044	253,448	0,039	-0,047
-371,029	181,901	-0,056	0,059
-370,015	139,372	0,105	0,099
-369,000	800,000	0,045	-0,090
-367,985	-60,509	-0,166	0,050
-366,971	-200,000	-0,024	0,172
-365,956	-139,675	0,055	-0,004
-364,942	-200,000	0,006	0,088
-363,927	55,180	0,079	0,054
-362,912	356,608	-0,115	0,164
-361,898	100,520	0,029	0,024
-360,883	-115,123	0,054	-0,007
-359,869	-95,300	-0,023	-0,004
-358,854	26,442	0,046	-0,028
-357,839	51,914	0,139	-0,095
-356,825	800,000	-0,006	-0,013
-355,810	90,603	0,093	0,074
-354,796	-108,385	-0,069	0,010
-353,781	-128,879	-0,071	0,007
-352,766	-128,587	0,076	-0,008
-351,752	-62,708	-0,067	0,020
-350,737	-199,167	0,168	0,001
-349,723	-44,690	0,086	0,030
-348,708	-22,724	-0,050	-0,022
-347,693	184,124	-0,010	0,011
-346,679	-200,000	0,022	-0,127
-345,664	-41,799	-0,034	-0,012
-344,650	-18,039	-0,017	-0,008
-343,635	-100,469	0,041	-0,007
-342,620	800,000	0,017	0,050
-341,606	391,713	0,048	-0,072
-340,591	250,108	0,070	-0,085
-339,577	57,066	-0,089	-0,062
-338,562	-113,162	0,040	0,006
-337,548	-200,000	0,006	-0,061
-336,533	-200,000	-0,010	0,079
-335,518	-39,632	0,113	0,042
-334,504	85,679	-0,024	0,019
-333,489	248,304	0,007	0,008
-332,475	-200,000	0,000	-0,004
-331,460	345,514	0,072	-0,101
-330,445	-200,000	0,009	0,032
-329,431	-200,000	0,019	-0,067
-328,416	-39,490	0,127	0,047
-327,402	-200,000	0,000	0,066
-326,387	198,157	0,136	0,148
-325,372	143,001	0,070	0,066
-324,358	-86,368	-0,159	0,035
-323,343	-200,000	0,013	0,060
-322,329	-20,809	0,155	0,068
-321,314	159,339	-0,130	0,129
-320,299	254,800	-0,015	0,018
-319,285	800,000	0,037	-0,105
-318,270	215,350	-0,032	-0,036
-317,256	-200,000	0,003	-0,040
-316,241	800,000	0,031	0,078
-315,226	-48,555	0,078	0,027
-314,212	800,000	-0,065	0,157
-313,197	-200,000	0,014	0,107
-312,183	91,607	0,099	0,080
-311,168	-68,952	0,029	-0,008
-310,153	357,692	0,044	-0,063
-309,139	-92,964	0,100	-0,020
-308,124	-200,000	0,005	0,039
-307,110	66,684	0,041	-0,030
-306,095	800,000	0,029	0,071
-305,080	-52,710	0,061	-0,020
-304,066	800,000	0,022	0,066
-303,051	-200,000	-0,025	-0,092
-302,037	417,454	-0,043	-0,065
-301,022	-200,000	-0,009	0,138
-300,008	800,000	0,012	0,036
-298,993	128,161	-0,078	0,071
-297,978	-79,773	-0,059	-0,014
-296,964	-200,000	0,020	0,125
-295,949	-112,823	-0,102	-0,014
-294,935	800,000	-0,019	-0,053
-293,920	800,000	-0,015	0,039
-292,905	-143,706	-0,108	-0,007
-291,891	-27,053	-0,036	0,015
-290,876	350,798	0,074	-0,105
-289,862	-135,330	-0,088	0,007
-288,847	-125,054	0,012	0,001
-287,832	-200,000	0,019	-0,062
-286,818	265,411	0,065	-0,081
-285,803	-200,000	0,002	0,063
-284,789	6,930	0,165	0,087
-283,774	331,836	-0,072	0,099
-282,759	-33,770	-0,095	0,037
-281,745	-9,560	0,053	0,025
-280,730	-200,000	-0,001	0,025
-279,716	52,775	-0,072	-0,049
-278,701	327,504	-0,048	0,065
-277,686	800,000	0,038	-0,095
-276,672	22,495	-0,105	-0,061
-275,657	800,000	-0,037	-0,100
-274,643	19,115	-0,071	0,040
-273,628	-110,747	-0,151	0,022
-272,613	124,480	-0,092	-0,083
-271,599	68,693	0,060	-0,044
-270,584	355,329	-0,045	0,064
-269,570	-200,000	-0,015	0,075
-268,555	298,139	0,048	0,063
-267,540	69,559	-0,006	-0,004
-266,526	-108,143	-0,167	-0,025
-265,511	-8,482	-0,024	-0,011
-264,497	44,244	-0,050	0,032
-263,482	-200,000	-0,019	0,103
-262,467	-171,637	-0,039	-0,001
-261,453	13,418	-0,062	0,034
-260,438	800,000	0,030	-0,083
-259,424	800,000	-0,009	0,017
-258,409	286,579	0,053	-0,068
-257,395	-5,907	0,096	0,047
-256,380	-13,203	-0,159	0,073
-255,365	-58,206	0,041	-0,013
-254,351	-128,916	-0,146	-0,014
-253,336	-200,000	-0,032	0,113
-252,322	-200,000	-0,020	0,099
-251,307	-42,747	-0,123	0,044
-250,292	800,000	-0,034	-0,086
-249,278	-200,000	0,016	0,089
-248,263	-139,274	0,061	0,005
-247,249	291,818	0,059	0,077
-246,234	-142,964	-0,058	-0,004
-245,219	800,000	-0,035	-0,089
-244,205	92,143	-0,035	-0,028
-243,190	680,955	-0,013	0,025
-242,176	-51,348	0,019	0,006
-241,161	158,939	0,074	-0,073
-240,146	800,000	0,040	-0,110
-239,132	-104,220	0,031	-0,005
-238,117	-146,483	0,091	-0,006
-237,103	468,127	0,021	0,034
-236,088	64,273	-0,056	-0,040
-235,073	-200,000	0,049	0,160
-234,059	153,512	0,062	0,060
-233,044	492,697	0,075	-0,122
-232,030	-200,000	0,028	-0,123
-231,015	134,020	0,075	0,069
-230,000	-166,150	-0,090	0,003
-228,986	-57,166	0,190	0,059
-227,971	117,110	0,092	-0,080
-226,957	370,237	0,052	0,075
-225,942	800,000	-0,014	0,044
-224,927	-200,000	0,040	0,147
-223,913	-0,692	-0,107	-0,054
-222,898	-151,855	0,046	0,002
-221,884	-63,433	-0,074	0,021
-220,869	-43,431	0,104	0,037
-219,855	-48,023	0,064	0,022
-218,840	125,613	0,079	0,071
-217,825	95,039	0,063	0,051
-216,811	72,727	0,052	-0,038
-215,796	-200,000	0,008	-0,086
-214,782	52,924	-0,081	0,055
-213,767	-200,000	0,000	-0,021
-212,752	505,199	0,004	0,007
-211,738	-118,451	-0,057	0,007
-210,723	-75,207	0,015	0,004
-209,709	18,150	0,145	-0,082
-208,694	-200,000	-0,005	-0,043
-207,679	402,496	0,049	-0,073
-206,665	-67,341	-0,119	0,033
-205,650	800,000	0,018	-0,051
-204,636	-23,585	0,057	-0,024
-203,621	225,036	-0,030	0,034
-202,606	277,807	-0,069	-0,087
-201,592	-54,986	-0,044	-0,014
-200,577	-145,165	0,141	0,009
-199,563	800,000	-0,033	0,069
-198,548	-200,000	0,003	0,135
-197,533	7,620	0,044	-0,023
-196,519	145,055	0,016	0,015
-195,504	-200,000	0,005	-0,051
-194,490	76,105	-0,092	0,069
-193,475	-200,000	0,019	0,107
-192,460	800,000	0,015	0,031
-191,446	-12,953	0,038	0,017
-190,431	407,983	0,085	-0,127
-189,417	-38,182	0,095	-0,036
-188,402	463,232	0,079	0,126
-187,387	800,000	0,023	-0,055
-186,373	370,551	0,108	-0,156
-185,358	-200,000	-0,022	-0,086
-184,344	787,104	-0,067	0,130
-183,329	-23,902	0,123	-0,052
-182,315	-200,000	-0,002	-0,033
-181,300	-123,790	-0,158	-0,018
-180,285	-200,000	-0,050	-0,178
-179,271	-102,239	-0,053	-0,009
-178,256	-116,173	-0,174	-0,023
-177,242	461,161	0,039	0,062
-176,227	90,287	0,049	0,039
-175,212	569,840	0,101	0,175
-174,198	666,657	-0,059	0,109
-173,183	702,991	-0,042	0,079
-172,169	-66,451	-0,130	-0,036
-171,154	-117,510	-0,062	-0,008
-170,139	560,088	-0,075	-0,129
-169,125	25,344	0,059	0,035
-168,110	91,417	-0,072	-0,058
-167,096	-200,000	-0,012	-0,068
-166,081	-37,202	-0,165	-0,062
-165,066	-42,768	0,105	0,038
-164,052	-103,089	0,139	0,023
-163,037	475,571	0,022	0,036
-162,023	-124,432	0,119	0,013
-161,008	423,581	-0,023	-0,036
-159,993	800,000	-0,033	0,101
-158,979	-200,000	-0,007	-0,123
-157,964	800,000	0,013	-0,026
-156,950	800,000	-0,019	-0,041
-155,935	-134,935	-0,031	-0,003
-154,920	800,000	0,060	0,129
-153,906	98,705	-0,059	0,048
-152,891	208,791	-0,052	-0,057
-151,877	-74,487	-0,085	0,022
-150,862	477,991	0,050	-0,080
-149,847	196,301	-0,104	-0,113
-148,833	-40,241	0,011	0,004
-147,818	-200,000	-0,014	-0,067
-146,804	207,002	0,111	0,123
-145,789	-200,000	0,004	0,019
-144,775	-194,945	-0,087	-0,000
-143,760	-200,000	0,020	0,069
-142,745	-49,823	0,051	0,017
-141,731	619,693	0,031	0,055
-140,716	-16,405	0,089	-0,040
-139,702	-200,000	0,037	0,165
-138,687	22,800	-0,128	0,074
-137,672	201,108	0,066	0,072
-136,658	-72,311	-0,111	0,029
-135,643	339,900	0,049	-0,068
-134,629	-200,000	-0,013	-0,080
-133,614	800,000	-0,034	0,103
-132,599	-19,820	-0,044	0,019
-131,585	110,403	-0,078	0,067
-130,570	-138,092	-0,064	-0,005
-129,556	-200,000	-0,004	0,135
-128,541	159,018	-0,057	-0,056
-127,526	-200,000	0,011	-0,082
-126,512	-200,000	0,010	0,120
-125,497	800,000	0,020	0,059
-124,483	172,045	0,102	0,103
-123,468	199,508	-0,106	0,115
-122,453	228,952	0,074	-0,086
-121,439	18,729	0,141	-0,080
-120,424	-99,674	-0,101	-0,018
-119,410	-127,694	0,092	-0,009
-118,395	-43,886	0,090	0,032
-117,380	-143,479	-0,096	-0,006
-116,366	177,874	-0,064	0,066
-115,351	674,829	0,032	0,058
-114,337	-99,607	-0,119	-0,021
-113,322	272,564	-0,026	0,033
-112,307	0,705	-0,037	-0,019
-111,293	-44,986	0,077	0,027
-110,278	312,796	-0,010	0,013
-109,264	-81,444	-0,030	0,007
-108,249	601,625	0,056	-0,099
-107,234	275,158	-0,052	0,065
-106,220	-200,000	-0,005	-0,131
-105,205	-10,891	0,130	0,061
-104,191	-200,000	-0,009	0,173
-103,176	-200,000	0,011	-0,138
-102,162	-43,990	0,066	-0,023
-101,147	-39,714	-0,062	-0,023
-100,132	-200,000	0,010	-0,043
-99,118	-49,180	0,076	-0,025
-98,103	527,492	-0,013	0,021
-97,089	-74,437	0,104	0,026
-96,074	-12,056	-0,134	-0,062
-95,059	-38,138	0,199	-0,074
-94,045	-200,000	-0,013	-0,086
-93,030	-200,000	-0,030	0,119
-92,016	-90,805	-0,101	0,020
-91,001	85,488	0,072	-0,056
-89,986	41,934	-0,074	-0,047
-88,972	181,854	0,060	-0,063
-87,957	-200,000	0,023	-0,113
-86,943	800,000	-0,021	0,051
-85,928	800,000	0,071	-0,143
-84,913	88,431	0,059	0,046
-83,899	157,010	0,019	0,018
-82,884	-158,992	0,127	-0,005
-81,870	-200,000	-0,002	-0,054
-80,855	-14,143	-0,071	-0,032
-79,840	167,817	0,051	-0,052
-78,826	83,869	0,012	-0,009
-77,811	800,000	0,046	-0,108
-76,797	800,000	0,048	0,117
-75,782	149,761	-0,041	-0,040
-74,767	97,114	0,121	0,098
-73,753	284,248	0,067	-0,085
-72,738	194,467	0,037	0,040
-71,724	-200,000	0,004	0,025
-70,709	-121,660	-0,011	-0,001
-69,694	800,000	-0,026	-0,061
-68,680	-103,780	0,103	0,017
-67,665	-98,897	0,070	-0,012
-66,651	-200,000	-0,038	0,221
-65,636	392,910	-0,082	0,121
-64,622	58,656	-0,058	0,040
-63,607	50,951	0,088	-0,059
-62,592	-200,000	-0,037	-0,139
-61,578	-200,000	0,001	0,012
-60,563	242,869	0,027	0,032
-59,549	-200,000	0,052	0,204
-58,534	25,540	-1,979	-1,160
-57,519	433,188	-1,264	-1,944
-56,505	-200,000	-0,344	-4,250
-55,490	454,403	0,996	1,563
-54,476	800,000	5,129	11,168
-53,461	-200,000	21,531	343,157
-52,446	800,000	762,792	2353,002
-51,432	550,988	1662,582	2826,735
-50,417	71,986	1658,493	1216,492
-49,403	17,446	1531,919	856,488
-48,388	11,407	1455,901	784,816
-47,373	19,343	1447,471	818,274
-46,359	14,920	1436,574	791,082
-45,344	9,685	1432,454	763,882
-44,330	9,666	1430,437	762,684
-43,315	9,629	1428,721	761,564
-42,300	9,625	1426,955	760,576
-41,286	9,640	1425,645	759,919
-40,271	9,659	1424,337	759,280
-39,257	9,636	1423,309	758,594
-38,242	9,640	1422,186	757,982
-37,227	9,645	1421,205	757,456
-36,213	9,651	1419,943	756,780
-35,198	9,652	1418,657	756,067
-34,184	9,693	1417,614	755,678
-33,169	9,634	1416,314	754,677
-32,154	9,637	1415,188	754,061
-31,140	9,654	1414,174	753,568
-30,125	9,701	1412,644	752,945
-29,111	9,674	1411,481	752,171
-28,096	9,627	1410,418	751,354
-27,082	9,594	1409,173	750,502
-26,067	9,588	1408,365	750,015
-25,052	9,640	1407,204	749,609
-24,038	9,654	1406,206	749,115
-23,023	9,637	1405,442	748,598
-22,009	9,617	1404,310	747,871
-20,994	9,585	1403,376	747,198
-19,979	9,615	1402,422	746,798
-18,965	9,567	1401,504	746,057
-17,950	9,584	1400,573	745,612
-16,936	9,561	1399,707	745,014
-15,921	9,508	1398,811	744,259
-14,906	9,531	1397,777	743,785
-13,892	9,583	1396,795	743,475
-12,877	9,506	1396,123	742,731
-11,863	9,537	1395,236	742,375
-10,848	9,475	1394,372	741,597
-9,833	9,486	1393,416	741,110
-8,819	9,402	1392,571	740,244
-7,804	9,424	1391,674	739,841
-6,790	9,426	1390,509	739,197
-5,775	9,428	1389,386	738,582
-4,760	9,459	1388,514	738,233
-3,746	9,444	1387,353	737,515
-2,731	9,444	1386,847	737,217
-1,717	9,418	1385,911	736,573
-0,702	9,421	1384,142	735,615
0,313	13,385	1296,667	707,246
1,327	29,378	687,351	411,036
2,342	45,635	118,700	77,207
3,356	0,278	16,573	8,313
4,371	8,634	3,644	1,929
5,386	13,571	1,038	0,566
6,400	-200,000	0,176	0,638
7,415	164,765	-0,169	-0,169
8,429	-31,462	-0,294	-0,116
9,444	-29,316	-0,316	-0,127
10,459	-15,945	-0,459	-0,205
11,473	104,897	-0,295	-0,245
12,488	-72,517	-0,245	-0,063
13,502	-84,934	-0,415	-0,091
14,517	217,754	-0,235	-0,265
15,531	143,127	-0,271	-0,254
16,546	1,226	-0,349	-0,176
17,561	360,211	-0,258	-0,365
18,575	-77,052	-0,221	-0,054
19,590	281,597	-0,117	-0,147
20,604	76,754	-0,199	-0,149
21,619	86,189	-0,476	-0,369
22,634	67,177	-0,490	-0,351
23,648	111,497	-0,399	-0,339
24,663	150,510	-0,355	-0,340
25,677	3,347	-0,328	-0,167
26,692	-77,665	-0,238	-0,057
27,707	68,749	-0,378	-0,273
28,721	36,671	-0,372	-0,231
29,736	57,862	-0,297	-0,204
30,750	-20,047	-0,489	-0,211
31,765	-13,318	-0,376	-0,171
32,780	239,908	-0,316	-0,371
33,794	24,467	-0,375	-0,218
34,809	223,685	-0,284	-0,323
35,823	-75,543	-0,327	-0,081
36,838	32,144	-0,356	-0,216
37,853	144,254	-0,335	-0,315
38,867	387,232	-0,196	-0,286
39,882	17,343	-0,289	-0,161
40,896	-22,720	-0,379	-0,160
41,911	-3,560	-0,433	-0,211
42,926	-13,673	-0,449	-0,203
43,940	119,769	-0,330	-0,288
44,955	-70,263	-0,309	-0,082
45,969	19,223	-0,453	-0,255
46,984	527,825	-0,184	-0,306
47,999	58,356	-0,356	-0,245
49,013	800,000	-0,076	-0,219
50,028	98,169	-0,293	-0,237
51,042	376,443	-0,191	-0,275
52,057	40,041	-0,185	-0,116
53,071	77,884	-0,333	-0,249
54,086	6,444	-0,297	-0,154
55,101	-31,058	-0,365	-0,144
56,115	122,367	-0,243	-0,213
57,130	21,879	-0,444	-0,253
58,144	165,912	-0,328	-0,327
59,159	78,801	-0,299	-0,224
60,174	79,761	-0,311	-0,234
61,188	-106,964	-0,417	-0,064
62,203	-15,615	-0,380	-0,170
63,217	42,048	-0,405	-0,257
64,232	59,806	-0,282	-0,195
65,247	2,715	-0,374	-0,190
66,261	147,145	-0,381	-0,359
67,276	44,515	-0,394	-0,253
68,290	17,478	-0,239	-0,133
69,305	142,339	-0,185	-0,172
70,320	132,486	-0,287	-0,259
71,334	329,144	-0,170	-0,230
72,349	-10,500	-0,399	-0,185
73,363	-86,317	-0,446	-0,095
74,378	132,153	-0,307	-0,277
75,393	331,732	-0,256	-0,347
76,407	90,930	-0,144	-0,113
77,422	95,434	-0,361	-0,288
78,436	-20,387	-0,337	-0,145
79,451	-3,166	-0,316	-0,154
80,466	-29,090	-0,425	-0,170
81,480	99,952	-0,313	-0,254
82,495	28,099	-0,370	-0,218
83,509	17,643	-0,277	-0,154
84,524	265,830	-0,192	-0,235
85,539	-88,920	-0,452	-0,093
86,553	86,220	-0,191	-0,147
87,568	-12,655	-0,277	-0,126
88,582	263,773	-0,314	-0,383
89,597	-77,218	-0,382	-0,092
90,611	-1,769	-0,275	-0,135
91,626	118,657	-0,208	-0,180
92,641	90,238	-0,309	-0,241
93,655	-58,435	-0,291	-0,088
94,670	13,492	-0,337	-0,183
95,684	-32,992	-0,294	-0,113
96,699	154,078	-0,262	-0,252
97,714	226,000	-0,316	-0,359
98,728	10,971	-0,253	-0,135
99,743	-77,855	-0,308	-0,074
100,757	78,691	-0,297	-0,222
101,772	33,454	-0,261	-0,158
102,787	38,823	-0,315	-0,196
103,801	-7,095	-0,207	-0,098
104,816	20,238	-0,256	-0,144
105,830	-48,616	-0,277	-0,092
106,845	25,544	-0,188	-0,109
107,860	-121,928	-0,250	0,028
108,874	455,692	-0,228	-0,354
109,889	121,861	-0,369	-0,322
110,903	-20,078	-0,335	-0,144
111,918	327,792	-0,186	-0,250
112,933	18,142	-0,210	-0,117
113,947	136,522	-0,233	-0,212
114,962	-52,589	-0,399	-0,128
115,976	86,442	-0,144	-0,111
116,991	10,953	-0,167	-0,089
118,006	132,068	-0,193	-0,173
119,020	-56,322	-0,309	-0,095
120,035	82,767	-0,204	-0,155
121,049	216,605	-0,211	-0,234
122,064	-0,278	-0,166	-0,082
123,079	687,528	-0,125	-0,228
124,093	214,443	-0,180	-0,199
125,108	8,890	-0,301	-0,158
126,122	-1,129	-0,236	-0,116
127,137	-23,053	-0,212	-0,089
128,151	-125,691	-0,260	-0,027
129,166	-59,068	-0,238	-0,071
130,181	-39,729	-0,349	-0,126
131,195	210,653	-0,180	-0,197
132,210	13,210	-0,216	-0,116
133,224	12,077	-0,356	-0,190
134,239	100,208	-0,262	-0,212
135,254	96,947	-0,188	-0,150
136,268	143,972	-0,204	-0,189
137,283	1,844	-0,381	-0,191
138,297	747,861	-0,119	-0,225
139,312	186,537	-0,193	-0,200
140,327	-55,324	-0,325	-0,101
141,341	36,150	-0,182	-0,112
142,356	305,329	-0,122	-0,159
143,370	78,226	-0,178	-0,132
144,385	83,144	-0,203	-0,154
145,400	302,454	-0,203	-0,263
146,414	232,345	-0,207	-0,237
147,429	-41,466	-0,311	-0,111
148,443	152,064	-0,167	-0,158
149,458	61,498	-0,238	-0,165
150,473	-64,817	-0,160	-0,045
151,487	71,308	-0,254	-0,183
152,502	31,709	-0,201	-0,120
153,516	104,999	-0,185	-0,152
154,531	67,069	-0,333	-0,236
155,546	150,260	-0,200	-0,189
156,560	-19,764	-0,257	-0,110
157,575	0,258	-0,244	-0,121
158,589	-85,857	-0,274	-0,058
159,604	0,459	-0,051	0,025
160,619	95,305	-0,217	-0,172
161,633	127,171	-0,222	-0,196
162,648	288,670	-0,149	-0,188
163,662	-42,024	-0,254	-0,090
164,677	198,876	-0,230	-0,245
165,692	108,930	-0,240	-0,199
166,706	-23,181	-0,294	-0,123
167,721	373,690	-0,161	-0,228
168,735	162,553	-0,241	-0,235
169,750	279,990	-0,227	-0,282
170,764	127,963	-0,177	-0,156
171,779	52,122	-0,166	-0,110
172,794	-129,765	-0,191	0,018
173,808	62,003	-0,119	-0,082
174,823	47,494	-0,315	-0,203
175,837	173,373	-0,182	-0,182
176,852	-87,917	-0,364	-0,075
177,867	325,945	-0,129	-0,172
178,881	-32,820	-0,252	-0,097
179,896	348,240	-0,155	-0,213
180,910	129,332	-0,097	-0,086
181,925	158,425	-0,247	-0,238
182,940	407,916	-0,233	-0,343
183,954	216,385	-0,141	-0,156
184,969	117,845	-0,231	-0,198
185,983	125,471	-0,188	-0,164
186,998	-119,156	-0,273	-0,033
188,013	-16,932	-0,269	-0,117
189,027	19,436	-0,268	-0,149
190,042	224,522	-0,208	-0,234
191,056	-58,141	-0,219	-0,066
192,071	-71,259	-0,210	-0,054
193,086	-0,655	-0,218	-0,107
194,100	348,129	-0,143	-0,196
195,115	-126,059	-0,270	-0,028
196,129	7,146	-0,209	-0,108
197,144	100,474	-0,242	-0,195
198,159	588,862	-0,195	-0,335
199,173	127,246	-0,233	-0,205
200,188	298,029	-0,099	-0,126
201,202	25,073	-0,261	-0,150
202,217	23,565	-0,136	-0,077
203,232	387,855	-0,127	-0,183
204,246	572,182	-0,161	-0,273
205,261	17,374	-0,206	-0,113
206,275	224,824	-0,249	-0,279
207,290	-86,938	-0,053	-0,011
208,304	284,006	-0,166	-0,208
209,319	-176,229	-0,157	0,003
210,334	38,403	-0,224	0,138
211,348	800,000	-0,066	-0,201
212,363	-27,396	-0,171	-0,069
213,377	54,540	-0,221	-0,147
214,392	136,911	-0,136	-0,123
215,407	-127,944	-0,211	-0,021
216,421	52,912	-0,197	-0,130
217,436	-88,312	-0,285	-0,059
218,450	32,737	-0,203	-0,121
219,465	109,216	-0,105	-0,087
220,480	137,026	-0,205	-0,186
221,494	121,768	-0,223	-0,193
222,509	-10,623	-0,171	-0,078
223,523	132,198	-0,095	-0,085
224,538	198,400	-0,180	-0,191
225,553	135,037	-0,207	-0,186
226,567	800,000	-0,161	-0,336
227,582	238,656	-0,124	-0,143
228,596	30,572	-0,188	-0,111
229,611	303,709	-0,166	-0,213
230,626	112,374	-0,167	-0,140
231,640	-192,571	-0,195	-0,001
232,655	105,163	-0,169	-0,138
233,669	800,000	-0,113	-0,245
234,684	199,074	-0,253	-0,268
235,699	800,000	-0,076	-0,222
236,713	-67,487	-0,279	-0,075
237,728	113,986	-0,177	-0,149
238,742	139,189	-0,194	-0,176
239,757	-63,837	-0,215	-0,060
240,772	137,737	-0,188	-0,170
241,786	224,212	-0,164	-0,183
242,801	89,156	-0,250	-0,192
243,815	-44,167	-0,195	-0,067
244,830	-34,827	-0,147	-0,055
245,844	89,905	-0,161	-0,124
246,859	98,173	-0,119	-0,095
247,874	-32,204	-0,238	-0,091
248,888	27,482	-0,235	-0,136
249,903	223,068	-0,119	-0,133
250,917	-58,053	-0,289	-0,087
251,932	-14,751	-0,264	-0,117
252,947	2,961	-0,185	-0,092
253,961	292,536	-0,149	-0,188
254,976	350,735	-0,064	-0,088
255,990	232,740	-0,171	-0,194
257,005	-99,857	-0,197	-0,034
258,020	-2,885	-0,196	-0,094
259,034	-132,147	-0,123	-0,011
260,049	38,786	-0,227	-0,140
261,063	-6,562	-0,141	-0,066
262,078	-54,647	-0,160	-0,050
263,093	120,335	-0,157	-0,134
264,107	27,569	-0,237	-0,137
265,122	-180,600	-0,084	0,001
266,136	-48,759	-0,185	-0,061
267,151	-2,987	-0,170	-0,081
268,166	50,690	-0,160	-0,104
269,180	800,000	0,007	-0,017
270,195	260,440	-0,173	-0,206
271,209	271,464	-0,124	-0,151
272,224	2,390	-0,159	-0,079
273,239	361,662	-0,113	-0,156
274,253	-125,668	-0,144	-0,015
275,268	-200,000	-0,025	-0,192
276,282	-9,116	-0,288	-0,132
277,297	45,528	-0,278	-0,177
278,312	800,000	-0,111	-0,292
279,326	800,000	0,053	-0,110
280,341	-16,586	-0,137	-0,060
281,355	266,691	-0,184	-0,221
282,370	755,470	-0,146	-0,272
283,384	800,000	-0,143	-0,281
284,399	55,172	-0,116	-0,077
285,414	142,777	-0,055	-0,050
286,428	-77,420	-0,118	-0,028
287,443	-35,261	-0,150	-0,056
288,457	127,621	-0,172	-0,150
289,472	-51,898	-0,230	-0,073
290,487	134,654	-0,100	0,089
291,501	12,910	-0,242	-0,128
292,516	-60,044	-0,267	-0,078
293,530	-50,085	-0,221	-0,072
294,545	-200,000	-0,010	-0,087
295,560	51,758	-0,102	-0,067
296,574	-117,352	-0,128	-0,016
297,589	92,139	-0,257	-0,199
298,603	-93,875	-0,205	-0,038
299,618	-57,109	-0,164	-0,049
300,633	-96,415	-0,137	0,025
301,647	-130,656	-0,140	-0,013
302,662	-15,027	-0,188	-0,083
303,676	-200,000	-0,009	-0,174
304,691	-4,757	-0,192	-0,091
305,706	530,876	-0,172	-0,280
306,720	-83,658	-0,325	-0,071
307,735	518,152	-0,087	-0,141
308,749	431,737	-0,141	-0,210
309,764	800,000	-0,049	-0,097
310,779	-102,150	-0,187	-0,031
311,793	56,347	-0,151	-0,100
312,808	222,885	-0,137	-0,152
313,822	698,627	-0,114	-0,206
314,837	289,479	-0,124	-0,155
315,852	28,644	-0,095	-0,055
316,866	166,691	-0,058	-0,057
317,881	307,835	-0,113	-0,145
318,895	21,253	-0,109	0,061
319,910	74,702	-0,109	-0,079
320,925	572,317	-0,153	-0,256
321,939	78,966	-0,070	-0,051
322,954	-117,749	-0,060	-0,007
323,968	-63,754	-0,148	-0,041
324,983	-200,000	-0,007	-0,127
325,997	406,127	-0,029	-0,042
327,012	225,260	-0,113	-0,125
328,027	406,983	-0,124	-0,180
329,041	-200,000	-0,008	-0,243
330,056	-1,165	-0,112	-0,054
331,070	175,117	-0,165	-0,164
332,085	35,223	-0,066	-0,040
333,100	113,492	-0,087	-0,072
334,114	-177,646	-0,161	-0,003
335,129	97,903	-0,126	-0,099
336,143	-42,932	-0,276	-0,095
337,158	184,262	-0,188	-0,191
338,173	38,775	-0,129	-0,079
339,187	50,035	-0,067	-0,043
340,202	800,000	-0,081	-0,193
341,216	800,000	-0,039	-0,082
342,231	-17,419	-0,210	-0,090
343,246	262,861	-0,129	-0,153
344,260	65,205	-0,182	-0,126
345,275	290,834	0,040	-0,050
346,289	394,739	-0,057	-0,082
347,304	96,755	-0,197	-0,154
348,319	-200,000	0,003	-0,050
349,333	-76,326	-0,233	-0,056
350,348	90,015	-0,217	-0,166
351,362	800,000	-0,071	-0,147
352,377	-146,953	-0,048	0,003
353,392	-143,612	-0,128	0,008
354,406	555,465	-0,069	-0,113
355,421	206,672	1307,564	1394,524
356,435	158,958	1467,374	1394,998
