DTS Sentinel unit serial number:	SN410029Multiplexer serial number:	ORYXHardware model number:	OX2-SRSoftware version number:	ORYX F/W v4,00 Oryx Data Collector v3.7.2.0data status	okinstallation	B3 Nyhavnadifferential loss correction	single-endedforward channel	channel 1reverse channel	N/Adate	2023/12/02time	23:27:30forward acquisition time	300,00reverse acquisition time	0,00gamma	499,1914k internal	0,3201k external	0,3201temperature offset calibration	1,0000default loss term (dB/km)	0,3820temperature slope calibration	1,0000multiplexer offset coefficient	1,0000multiplexer slope coefficient	1,0000fibre end	0,00T internal ref (°C)	13,25T ext. ref 1 (°C)	-1,72T ext. ref 2 (°C)	-1,74length (m)	temperature (°C)	Stokes	anti-Stokes-744,400	259,939	-0,187	-0,235
-743,385	800,000	-0,046	0,102
-742,371	193,445	-0,210	-0,231
-741,356	-200,000	0,059	0,319
-740,342	6,650	-0,270	-0,145
-739,327	-200,000	-0,000	0,039
-738,312	132,889	-0,281	-0,264
-737,298	-200,000	-0,024	0,222
-736,283	800,000	-0,098	-0,226
-735,269	800,000	0,159	0,330
-734,254	492,986	-0,087	-0,146
-733,239	201,360	-0,221	0,248
-732,225	-200,000	-0,051	-0,191
-731,210	109,796	0,106	0,092
-730,196	157,455	0,043	-0,044
-729,181	-200,000	0,019	-0,084
-728,167	-49,775	0,134	-0,046
-727,152	448,256	0,047	-0,075
-726,137	375,632	-0,071	-0,106
-725,123	-77,826	-0,103	-0,026
-724,108	426,957	-0,118	-0,186
-723,094	314,168	-0,041	0,056
-722,079	-74,223	-0,062	-0,016
-721,064	302,908	-0,079	-0,107
-720,050	317,265	-0,103	0,142
-719,035	554,432	-0,028	-0,050
-718,021	800,000	-0,056	-0,173
-717,006	86,072	-0,177	-0,141
-715,991	-49,507	-0,156	-0,054
-714,977	-200,000	-0,032	-0,144
-713,962	-191,404	-0,107	0,001
-712,948	800,000	-0,020	-0,052
-711,933	-96,982	0,077	-0,014
-710,918	-124,318	0,215	0,024
-709,904	-200,000	-0,012	-0,139
-708,889	-85,606	-0,052	0,012
-707,875	95,191	-0,117	-0,097
-706,860	170,258	0,010	-0,010
-705,845	-200,000	-0,018	0,113
-704,831	-200,000	-0,002	0,101
-703,816	-141,636	-0,091	-0,007
-702,802	29,457	-0,009	0,006
-701,787	-102,522	-0,112	-0,019
-700,772	-25,208	-0,104	0,045
-699,758	800,000	-0,024	-0,072
-698,743	-200,000	0,002	-0,018
-697,729	18,881	0,076	0,044
-696,714	-200,000	0,012	0,168
-695,699	29,645	0,054	0,033
-694,685	-200,000	-0,014	-0,107
-693,670	-18,745	-0,122	-0,055
-692,656	-28,784	0,035	-0,015
-691,641	800,000	0,067	0,157
-690,627	-200,000	0,014	0,079
-689,612	195,788	-0,050	-0,056
-688,597	-200,000	-0,013	0,066
-687,583	80,293	-0,089	-0,069
-686,568	800,000	0,035	0,072
-685,554	178,949	-0,092	-0,098
-684,539	335,226	0,104	-0,146
-683,524	102,733	0,048	0,041
-682,510	185,830	0,037	0,040
-681,495	-148,375	-0,149	0,009
-680,481	800,000	0,021	-0,055
-679,466	-153,953	-0,122	-0,006
-678,451	613,291	-0,049	-0,090
-677,437	472,349	0,019	-0,031
-676,422	219,550	-0,054	-0,063
-675,408	343,708	-0,010	-0,014
-674,393	-44,436	-0,090	-0,033
-673,378	800,000	0,004	-0,008
-672,364	-13,534	-0,116	-0,054
-671,349	263,998	-0,034	0,044
-670,335	-200,000	0,017	-0,077
-669,320	-200,000	-0,050	0,174
-668,305	510,674	-0,022	-0,037
-667,291	475,137	0,054	0,089
-666,276	210,646	-0,039	0,044
-665,262	-53,460	-0,076	-0,025
-664,247	-19,501	-0,190	-0,085
-663,232	5,532	-0,037	-0,020
-662,218	427,403	0,081	0,127
-661,203	139,981	-0,017	0,016
-660,189	-49,572	0,107	0,037
-659,174	436,498	-0,054	-0,085
-658,159	800,000	-0,031	-0,073
-657,145	-200,000	0,008	-0,202
-656,130	40,529	-0,114	0,074
-655,116	41,893	-0,039	0,026
-654,101	-200,000	-0,015	-0,152
-653,086	800,000	-0,059	-0,147
-652,072	551,977	0,012	0,022
-651,057	708,183	-0,036	-0,070
-650,043	800,000	-0,065	-0,172
-649,028	60,115	0,094	-0,067
-648,014	549,338	-0,086	0,149
-646,999	-75,875	-0,117	0,030
-645,984	435,206	-0,068	-0,107
-644,970	244,574	-0,049	0,060
-643,955	-200,000	-0,008	-0,031
-642,941	800,000	-0,043	-0,105
-641,926	489,858	0,039	0,064
-640,911	13,535	-0,067	0,038
-639,897	-45,906	0,097	-0,034
-638,882	-200,000	0,016	0,063
-637,868	698,001	-0,041	-0,078
-636,853	485,241	-0,064	-0,105
-635,838	-200,000	0,016	-0,102
-634,824	-200,000	0,026	-0,152
-633,809	800,000	-0,022	-0,063
-632,795	-84,851	0,056	-0,013
-631,780	-83,072	0,054	-0,012
-630,765	-1,802	-0,050	0,025
-629,751	-200,000	0,001	-0,071
-628,736	407,391	-0,064	-0,098
-627,722	-79,058	-0,157	0,038
-626,707	256,144	0,054	0,068
-625,692	152,803	-0,029	0,029
-624,678	218,071	0,007	-0,008
-623,663	-200,000	-0,008	-0,055
-622,649	-200,000	0,053	-0,214
-621,634	127,662	-0,036	-0,033
-620,619	-33,705	0,065	0,026
-619,605	212,713	-0,114	-0,130
-618,590	-154,297	0,092	-0,004
-617,576	-200,000	-0,022	-0,077
-616,561	213,981	0,057	0,065
-615,546	-96,966	-0,052	-0,010
-614,532	-200,000	0,001	-0,018
-613,517	240,609	0,041	0,049
-612,503	210,562	0,040	0,045
-611,488	-200,000	0,012	0,101
-610,474	173,580	0,033	0,035
-609,459	800,000	0,014	0,029
-608,444	-171,733	-0,098	0,002
-607,430	169,933	0,103	-0,107
-606,415	800,000	0,045	-0,104
-605,401	800,000	0,045	-0,098
-604,386	6,311	0,067	-0,036
-603,371	-78,638	-0,146	-0,036
-602,357	-197,903	-0,053	0,000
-601,342	-17,204	-0,089	0,040
-600,328	-41,044	-0,147	-0,055
-599,313	-200,000	-0,014	-0,124
-598,298	-200,000	-0,008	-0,082
-597,284	184,843	0,042	-0,045
-596,269	408,516	0,110	-0,169
-595,255	-52,918	0,144	0,048
-594,240	-125,931	-0,156	-0,017
-593,225	701,618	0,017	-0,033
-592,211	-30,339	-0,113	0,046
-591,196	-200,000	-0,011	0,078
-590,182	44,666	0,077	-0,051
-589,167	-25,435	0,049	-0,021
-588,152	-42,974	-0,023	-0,008
-587,138	-94,342	-0,136	-0,027
-586,123	274,896	0,078	0,100
-585,109	800,000	-0,016	-0,032
-584,094	510,024	-0,024	-0,041
-583,079	497,936	-0,003	-0,006
-582,065	-113,074	-0,047	-0,007
-581,050	-200,000	0,008	-0,107
-580,036	-200,000	0,008	-0,033
-579,021	-186,185	-0,052	0,001
-578,006	-200,000	-0,015	-0,077
-576,992	-65,766	-0,032	0,009
-575,977	-200,000	0,014	-0,113
-574,963	135,942	0,051	0,048
-573,948	-200,000	0,022	0,098
-572,934	-200,000	0,014	0,049
-571,919	-151,975	-0,146	0,008
-570,904	431,467	0,020	0,031
-569,890	3,467	-0,040	0,021
-568,875	-150,763	-0,082	-0,004
-567,861	-62,771	0,035	0,010
-566,846	62,234	0,037	0,027
-565,831	404,053	-0,077	0,117
-564,817	144,798	-0,077	-0,075
-563,802	520,946	-0,069	0,118
-562,788	511,658	0,024	-0,040
-561,773	268,691	-0,022	-0,028
-560,758	-27,272	0,065	0,027
-559,744	210,645	-0,099	0,112
-558,729	93,199	0,040	0,033
-557,715	-200,000	0,006	-0,142
-556,700	195,950	-0,046	-0,051
-555,685	61,804	0,042	-0,030
-554,671	39,008	-0,208	0,134
-553,656	138,840	0,057	0,054
-552,642	81,194	0,095	0,074
-551,627	-9,519	-0,085	0,041
-550,612	-158,809	0,187	-0,008
-549,598	800,000	-0,010	0,022
-548,583	-84,763	-0,106	0,024
-547,569	800,000	-0,003	-0,008
-546,554	-200,000	0,004	-0,043
-545,539	-200,000	-0,019	0,131
-544,525	69,991	0,103	0,077
-543,510	-13,581	-0,047	0,022
-542,496	347,369	-0,015	-0,021
-541,481	800,000	-0,039	-0,090
-540,466	-61,188	-0,098	0,030
-539,452	400,661	0,092	0,139
-538,437	800,000	-0,040	0,084
-537,423	72,994	0,046	-0,034
-536,408	678,968	-0,077	0,145
-535,393	50,337	0,090	0,061
-534,379	-166,257	-0,054	-0,002
-533,364	-200,000	0,007	0,106
-532,350	800,000	0,095	0,253
-531,335	800,000	-0,030	0,071
-530,321	800,000	-0,046	0,124
-529,306	104,397	0,064	-0,054
-528,291	591,437	-0,034	0,060
-527,277	-200,000	-0,001	-0,168
-526,262	63,800	0,087	-0,063
-525,248	-109,519	-0,064	-0,010
-524,233	-63,474	0,162	0,048
-523,218	87,060	-0,034	0,027
-522,204	-1,005	-0,080	-0,041
-521,189	800,000	-0,021	-0,043
-520,175	-143,777	-0,138	0,009
-519,160	76,028	0,072	-0,055
-518,145	800,000	0,031	0,074
-517,131	-128,326	0,052	0,005
-516,116	43,905	0,116	0,076
-515,102	-52,731	0,038	0,013
-514,087	31,532	0,114	-0,071
-513,072	114,554	-0,123	-0,108
-512,058	-200,000	0,010	-0,075
-511,043	-150,412	0,101	0,006
-510,029	-200,000	-0,035	0,115
-509,014	-14,340	0,165	0,076
-507,999	100,595	0,117	-0,098
-506,985	-97,355	0,068	-0,013
-505,970	-84,916	-0,155	0,035
-504,956	17,517	-0,100	-0,057
-503,941	103,895	-0,014	-0,012
-502,926	-200,000	0,019	0,093
-501,912	-200,000	-0,026	0,174
-500,897	-200,000	-0,015	0,101
-499,883	800,000	-0,044	-0,119
-498,868	-200,000	-0,015	-0,069
-497,853	34,993	-0,036	-0,022
-496,839	-200,000	0,000	-0,162
-495,824	-25,588	0,068	-0,029
-494,810	-158,675	-0,064	0,003
-493,795	800,000	0,060	0,179
-492,781	172,239	-0,057	0,059
-491,766	-200,000	0,005	-0,096
-490,751	452,197	-0,046	-0,073
-489,737	800,000	-0,047	-0,110
-488,722	-130,320	0,070	-0,007
-487,708	356,156	0,012	0,017
-486,693	475,468	0,051	0,084
-485,678	-108,385	-0,132	-0,020
-484,664	-138,176	-0,224	-0,018
-483,649	-197,365	-0,149	-0,001
-482,635	324,723	-0,030	-0,042
-481,620	-49,664	0,194	-0,066
-480,605	-200,000	0,023	0,202
-479,591	800,000	-0,031	0,077
-478,576	302,157	-0,028	0,037
-477,562	87,994	-0,080	0,064
-476,547	-200,000	-0,004	-0,166
-475,532	38,007	-0,096	-0,061
-474,518	394,542	-0,044	0,066
-473,503	51,499	-0,046	0,032
-472,489	4,132	-0,040	0,021
-471,474	-200,000	-0,016	0,152
-470,459	-200,000	0,010	0,064
-469,445	52,812	0,043	-0,030
-468,430	-200,000	-0,041	-0,143
-467,416	265,371	0,065	-0,081
-466,401	175,880	0,029	0,030
-465,386	66,967	0,014	0,010
-464,372	96,828	-0,065	-0,054
-463,357	-200,000	0,028	-0,090
-462,343	-44,582	-0,171	-0,061
-461,328	338,489	0,069	-0,097
-460,313	-0,262	0,048	-0,024
-459,299	59,930	0,079	0,056
-458,284	-200,000	-0,022	0,152
-457,270	-200,000	0,034	-0,124
-456,255	52,728	0,034	-0,023
-455,241	245,337	-0,075	-0,091
-454,226	800,000	-0,045	-0,133
-453,211	776,324	-0,036	-0,072
-452,197	-79,527	0,021	0,005
-451,182	-200,000	0,010	0,090
-450,168	-64,964	-0,074	0,021
-449,153	-64,368	-0,093	0,027
-448,138	-200,000	-0,024	-0,085
-447,124	-200,000	0,013	-0,111
-446,109	-53,459	0,143	-0,047
-445,095	-56,835	0,169	0,053
-444,080	170,475	-0,012	0,012
-443,065	268,902	-0,044	0,055
-442,051	617,464	0,011	-0,020
-441,036	175,098	-0,045	0,047
-440,022	118,197	-0,063	-0,056
-439,007	800,000	0,078	-0,195
-437,992	-200,000	0,036	0,203
-436,978	-123,721	0,107	-0,012
-435,963	63,924	0,069	0,050
-434,949	-22,381	0,084	0,036
-433,934	33,965	0,054	0,034
-432,919	-21,030	0,079	-0,034
-431,905	-120,667	0,102	-0,012
-430,890	-200,000	-0,034	0,110
-429,876	-200,000	0,014	0,087
-428,861	-200,000	0,019	-0,073
-427,846	-200,000	-0,020	0,137
-426,832	-107,339	0,055	-0,009
-425,817	86,102	0,083	-0,065
-424,803	-110,216	0,026	-0,004
-423,788	13,298	0,068	-0,038
-422,773	684,370	0,084	0,158
-421,759	75,514	0,119	-0,090
-420,744	800,000	0,017	-0,035
-419,730	-22,061	0,131	0,057
-418,715	215,532	-0,084	0,096
-417,701	-200,000	-0,013	0,065
-416,686	-200,000	0,020	0,103
-415,671	-60,059	0,111	0,034
-414,657	60,973	0,021	-0,015
-413,642	16,384	0,063	-0,036
-412,628	259,157	0,033	-0,040
-411,613	214,922	-0,081	0,093
-410,598	-139,203	-0,050	-0,004
-409,584	800,000	-0,025	-0,080
-408,569	-200,000	0,011	0,117
-407,555	-200,000	0,039	0,161
-406,540	378,998	0,069	0,102
-405,525	-93,663	-0,167	-0,033
-404,511	235,492	0,057	0,068
-403,496	219,822	-0,097	-0,112
-402,482	150,199	0,036	0,035
-401,467	-200,000	-0,005	-0,019
-400,452	198,396	-0,039	0,042
-399,438	349,812	0,025	0,036
-398,423	237,570	0,047	-0,056
-397,409	750,041	-0,009	-0,018
-396,394	-110,468	0,014	-0,002
-395,379	132,935	0,150	0,139
-394,365	-200,000	-0,032	0,114
-393,350	58,809	0,081	0,057
-392,336	294,665	0,049	0,064
-391,321	-149,769	-0,125	-0,007
-390,306	-200,000	-0,017	-0,108
-389,292	-61,273	0,116	0,035
-388,277	800,000	-0,042	0,087
-387,263	554,869	-0,029	-0,050
-386,248	-155,970	0,061	-0,003
-385,233	-200,000	0,022	0,077
-384,219	-200,000	-0,001	0,023
-383,204	16,602	0,140	-0,079
-382,190	-200,000	-0,017	-0,132
-381,175	336,072	0,081	0,112
-380,160	67,177	0,083	0,060
-379,146	-35,815	-0,042	0,016
-378,131	-54,117	-0,044	-0,014
-377,117	-200,000	-0,032	-0,137
-376,102	55,988	-0,029	0,020
-375,088	151,527	0,100	-0,098
-374,073	800,000	0,101	-0,220
-373,058	782,409	-0,026	0,051
-372,044	-25,897	0,089	-0,037
-371,029	-59,905	0,055	0,017
-370,015	3,013	0,125	0,065
-369,000	147,067	-0,107	-0,103
-367,985	-94,339	-0,086	0,017
-366,971	-200,000	0,006	0,107
-365,956	-200,000	-0,033	0,113
-364,942	-42,188	-0,012	-0,004
-363,927	-196,573	-0,068	0,000
-362,912	-97,680	-0,167	0,031
-361,898	-200,000	-0,013	-0,082
-360,883	299,818	0,126	-0,167
-359,869	548,116	0,035	0,060
-358,854	541,398	-0,047	0,081
-357,839	214,381	-0,032	0,036
-356,825	466,075	-0,060	0,097
-355,810	-109,753	-0,047	-0,007
-354,796	800,000	-0,057	0,134
-353,781	800,000	0,045	0,094
-352,766	369,152	0,031	-0,045
-351,752	-63,155	-0,060	-0,018
-350,737	-200,000	0,000	0,018
-349,723	800,000	-0,065	0,131
-348,708	-18,657	0,137	0,061
-347,693	-200,000	-0,000	-0,035
-346,679	-11,864	-0,120	-0,056
-345,664	-200,000	-0,015	-0,077
-344,650	20,670	-0,019	0,011
-343,635	800,000	-0,041	-0,110
-342,620	-69,624	-0,111	0,030
-341,606	800,000	-0,064	-0,177
-340,591	169,422	0,051	0,052
-339,577	345,816	-0,032	-0,045
-338,562	57,362	-0,080	0,056
-337,548	-90,274	-0,070	0,014
-336,533	-200,000	0,018	0,121
-335,518	800,000	0,027	0,056
-334,504	-200,000	-0,015	-0,068
-333,489	409,982	-0,077	0,118
-332,475	154,354	0,020	0,019
-331,460	-200,000	-0,012	0,186
-330,445	273,875	0,100	-0,127
-329,431	-31,867	0,038	-0,015
-328,416	-200,000	-0,016	-0,118
-327,402	724,070	0,071	0,136
-326,387	-200,000	-0,018	-0,164
-325,372	-6,869	-0,149	-0,072
-324,358	76,814	0,027	0,021
-323,343	-75,794	0,081	0,020
-322,329	24,116	0,119	0,070
-321,314	0,848	0,139	-0,071
-320,299	45,134	0,161	0,106
-319,285	-158,405	-0,127	-0,005
-318,270	200,074	-0,041	-0,045
-317,256	-42,965	-0,071	-0,026
-316,241	-147,917	0,033	0,002
-315,226	-9,349	-0,064	0,031
-314,212	-200,000	0,011	0,040
-313,197	-184,759	-0,049	-0,001
-312,183	296,545	0,063	-0,083
-311,168	-200,000	0,006	-0,080
-310,153	45,529	-0,086	-0,057
-309,139	297,517	0,021	0,028
-308,124	-55,688	-0,060	0,019
-307,110	-200,000	0,010	-0,080
-306,095	5,464	0,171	0,090
-305,080	2,995	-0,059	-0,031
-304,066	459,357	-0,039	-0,063
-303,051	-37,699	0,097	0,037
-302,037	-22,827	0,176	0,076
-301,022	35,463	0,126	-0,079
-300,008	146,531	0,050	-0,048
-298,993	-178,087	0,058	0,001
-297,978	130,423	-0,070	0,064
-296,964	45,385	-0,105	0,069
-295,949	-54,690	-0,055	0,018
-294,935	800,000	0,035	-0,098
-293,920	266,449	0,052	-0,065
-292,905	-166,888	0,154	0,004
-291,891	45,301	-0,138	0,091
-290,876	234,540	-0,030	0,036
-289,862	219,831	-0,098	-0,112
-288,847	38,668	-0,056	-0,035
-287,832	-114,665	-0,025	0,003
-286,818	-38,507	0,071	-0,027
-285,803	-157,331	0,071	-0,003
-284,789	95,356	-0,127	0,103
-283,774	34,346	0,078	0,049
-282,759	52,541	-0,057	0,039
-281,745	-200,000	-0,043	-0,147
-280,730	800,000	0,032	-0,077
-279,716	355,989	-0,051	-0,073
-278,701	-200,000	0,005	-0,119
-277,686	176,525	0,063	-0,065
-276,672	800,000	0,045	0,116
-275,657	-200,000	0,007	0,083
-274,643	20,315	0,034	-0,020
-273,628	-200,000	-0,019	0,075
-272,613	553,381	-0,063	0,108
-271,599	800,000	0,024	-0,065
-270,584	156,330	0,056	-0,056
-269,570	-200,000	-0,025	-0,209
-268,555	79,545	0,084	-0,064
-267,540	-97,636	-0,160	-0,029
-266,526	60,026	-0,084	-0,059
-265,511	-103,066	-0,017	-0,003
-264,497	74,826	-0,109	0,082
-263,482	-6,249	-0,227	0,110
-262,467	-146,488	0,086	0,005
-261,453	-200,000	-0,008	0,155
-260,438	237,484	-0,046	0,054
-259,424	-149,867	0,077	0,004
-258,409	-86,830	0,092	0,020
-257,395	-64,057	0,088	0,025
-256,380	180,400	0,100	0,105
-255,365	-200,000	-0,030	0,095
-254,351	-200,000	0,034	-0,159
-253,336	800,000	0,003	-0,006
-252,322	1,098	0,077	-0,039
-251,307	800,000	0,040	0,097
-250,292	265,109	0,056	0,070
-249,278	-93,568	-0,092	0,018
-248,263	-200,000	0,015	0,122
-247,249	162,957	-0,053	0,053
-246,234	-50,245	-0,096	-0,032
-245,219	800,000	-0,026	-0,062
-244,205	800,000	-0,047	0,093
-243,190	43,460	0,060	-0,039
-242,176	295,649	0,125	0,164
-241,161	200,901	-0,145	0,159
-240,146	-200,000	0,015	-0,065
-239,132	800,000	0,022	-0,046
-238,117	261,093	-0,139	-0,172
-237,103	-128,302	-0,172	0,017
-236,088	43,491	0,078	-0,051
-235,073	-80,454	0,167	-0,039
-234,059	-22,768	-0,116	0,050
-233,044	-200,000	-0,004	0,065
-232,030	-1,051	-0,137	-0,069
-231,015	800,000	-0,043	-0,091
-230,000	368,201	-0,057	-0,082
-228,986	-200,000	-0,004	0,068
-227,971	-107,283	0,118	-0,018
-226,957	-155,129	-0,049	-0,002
-225,942	96,762	0,032	0,026
-224,927	12,036	-0,072	-0,039
-223,913	-200,000	0,047	-0,159
-222,898	100,117	-0,152	-0,126
-221,884	800,000	-0,023	-0,069
-220,869	594,187	-0,054	0,095
-219,855	326,496	-0,016	0,022
-218,840	-68,069	-0,039	0,011
-217,825	-200,000	-0,006	0,027
-216,811	-200,000	0,011	-0,090
-215,796	-200,000	0,016	-0,112
-214,782	800,000	0,036	-0,106
-213,767	-200,000	-0,015	0,094
-212,752	-52,101	0,133	0,044
-211,738	-105,526	0,136	0,022
-210,723	3,742	-0,151	0,078
-209,709	169,813	-0,065	-0,067
-208,694	331,427	-0,040	-0,055
-207,679	-130,460	0,044	0,004
-206,665	-200,000	-0,007	-0,162
-205,650	800,000	-0,037	0,087
-204,636	800,000	0,017	-0,048
-203,621	11,810	-0,011	0,006
-202,606	-200,000	0,004	-0,040
-201,592	-200,000	-0,023	-0,085
-200,577	-79,544	-0,077	0,018
-199,563	-89,868	0,120	0,025
-198,548	-200,000	0,008	-0,059
-197,533	-9,346	0,083	-0,039
-196,519	73,131	0,033	-0,024
-195,504	-19,959	0,123	0,054
-194,490	19,476	-0,066	0,038
-193,475	-200,000	-0,031	-0,114
-192,460	86,886	0,066	-0,052
-191,446	691,436	0,013	-0,024
-190,431	136,509	0,105	-0,098
-189,417	-109,854	-0,116	-0,017
-188,402	123,683	-0,065	0,058
-187,387	564,701	-0,063	-0,109
-186,373	-51,398	0,090	-0,030
-185,358	106,331	-0,110	-0,093
-184,344	47,939	0,086	0,057
-183,329	-200,000	0,010	0,038
-182,315	443,257	0,082	0,128
-181,300	325,596	-0,060	-0,081
-180,285	-30,504	-0,056	0,022
-179,271	178,675	-0,022	0,023
-178,256	634,390	0,055	0,100
-177,242	222,874	0,030	-0,034
-176,227	145,736	0,126	0,121
-175,212	214,148	0,031	0,035
-174,198	25,448	0,164	0,097
-173,183	-200,000	-0,012	-0,130
-172,169	21,558	-0,105	-0,061
-171,154	634,904	-0,026	0,047
-170,139	-61,345	0,226	-0,067
-169,125	502,951	0,042	-0,069
-168,110	-200,000	-0,015	0,126
-167,096	800,000	-0,026	0,078
-166,081	800,000	-0,037	0,078
-165,066	9,321	-0,049	-0,026
-164,052	-200,000	0,005	-0,096
-163,037	-200,000	0,037	0,168
-162,023	284,405	0,061	0,078
-161,008	104,594	0,118	0,099
-159,993	5,070	0,081	-0,042
-158,979	-200,000	-0,004	-0,041
-157,964	6,705	-0,038	-0,020
-156,950	239,346	-0,135	0,160
-155,935	-200,000	0,004	0,013
-154,920	179,767	-0,016	0,017
-153,906	800,000	-0,014	-0,029
-152,891	-200,000	-0,022	-0,119
-151,877	215,723	-0,107	-0,121
-150,862	359,333	-0,048	0,069
-149,847	-62,669	0,068	-0,020
-148,833	-200,000	-0,033	0,120
-147,818	83,304	0,079	0,061
-146,804	62,454	0,030	-0,021
-145,789	800,000	-0,039	0,102
-144,775	18,423	0,080	0,045
-143,760	-118,541	-0,181	0,022
-142,745	59,116	-0,062	-0,043
-141,731	-98,590	-0,112	-0,020
-140,716	304,090	0,072	0,094
-139,702	39,918	-0,047	-0,030
-138,687	47,360	-0,044	0,029
-137,672	785,631	0,036	0,070
-136,658	42,951	-0,041	0,027
-135,643	-200,000	-0,003	-0,028
-134,629	800,000	-0,035	-0,073
-133,614	-152,134	0,074	-0,004
-132,599	800,000	0,034	0,103
-131,585	350,430	-0,018	0,025
-130,570	65,352	0,036	-0,026
-129,556	-200,000	-0,014	0,047
-128,541	180,852	-0,077	0,080
-127,526	-70,489	-0,089	-0,024
-126,512	-200,000	0,026	-0,111
-125,497	800,000	0,044	0,103
-124,483	-200,000	-0,013	0,185
-123,468	206,411	0,042	-0,047
-122,453	159,794	-0,076	-0,075
-121,439	161,379	0,035	0,035
-120,424	91,681	-0,037	-0,030
-119,410	-0,486	-0,072	-0,036
-118,395	470,636	-0,050	-0,080
-117,380	10,256	0,079	0,042
-116,366	796,032	0,024	0,047
-115,351	-158,392	-0,131	-0,005
-114,337	-42,060	-0,077	-0,028
-113,322	800,000	0,044	-0,110
-112,307	-200,000	0,004	0,109
-111,293	-57,480	0,124	0,038
-110,278	557,817	0,066	0,113
-109,264	-200,000	0,006	-0,068
-108,249	-35,935	0,010	-0,004
-107,234	-46,843	0,095	0,033
-106,220	23,461	0,045	0,026
-105,205	-40,994	-0,107	-0,039
-104,191	-6,227	0,075	-0,036
-103,176	540,234	-0,044	0,075
-102,162	-11,109	-0,104	-0,048
-101,147	-5,897	-0,035	0,017
-100,132	-163,618	0,141	0,005
-99,118	578,835	0,047	-0,082
-98,103	-200,000	-0,006	-0,129
-97,089	800,000	-0,047	0,133
-96,074	201,049	0,104	0,114
-95,059	41,521	0,060	0,038
-94,045	173,918	0,037	-0,038
-93,030	-200,000	0,020	-0,131
-92,016	-64,995	-0,123	-0,035
-91,001	190,176	-0,119	0,126
-89,986	256,127	-0,077	0,094
-88,972	-43,713	-0,069	-0,024
-87,957	800,000	-0,041	0,108
-86,943	607,377	0,037	-0,065
-85,928	183,294	-0,083	0,087
-84,913	-84,382	-0,119	0,026
-83,899	-200,000	0,024	-0,079
-82,884	337,538	-0,023	0,032
-81,870	-200,000	0,008	0,059
-80,855	-1,420	-0,056	0,028
-79,840	-200,000	-0,007	-0,056
-78,826	120,532	0,061	-0,053
-77,811	58,107	-0,019	0,013
-76,797	-200,000	-0,033	-0,204
-75,782	-200,000	0,001	0,040
-74,767	-200,000	-0,002	0,029
-73,753	-176,876	0,062	-0,001
-72,738	-71,126	0,067	-0,018
-71,724	800,000	-0,020	-0,063
-70,709	-142,942	-0,104	-0,007
-69,694	-47,144	0,056	-0,019
-68,680	195,009	0,057	-0,062
-67,665	49,514	0,062	-0,041
-66,651	-27,994	0,059	-0,024
-65,636	610,700	-0,073	0,130
-64,622	-200,000	0,006	0,079
-63,607	12,404	-0,052	-0,028
-62,592	-198,602	-0,026	-0,000
-61,578	120,822	-0,049	-0,043
-60,563	568,446	0,016	0,027
-59,549	254,998	0,107	0,130
-58,534	-9,623	-1,564	-0,735
-57,519	470,885	-1,349	-2,156
-56,505	-200,000	-0,546	-4,588
-55,490	224,689	0,943	1,081
-54,476	800,000	5,033	11,497
-53,461	-200,000	19,264	322,780
-52,446	-200,000	741,907	2337,222
-51,432	572,361	1656,458	2868,577
-50,417	78,098	1671,743	1261,334
-49,403	21,258	1544,480	885,649
-48,388	15,130	1466,781	811,288
-47,373	18,100	1457,143	820,282
-46,359	16,746	1447,062	808,078
-45,344	13,368	1442,487	789,307
-44,330	13,258	1440,339	787,570
-43,315	13,358	1438,560	787,044
-42,300	13,301	1437,036	785,906
-41,286	13,310	1435,744	785,213
-40,271	13,318	1434,486	784,533
-39,257	13,272	1433,142	783,549
-38,242	13,321	1431,946	783,097
-37,227	13,385	1430,428	782,539
-36,213	13,349	1429,379	781,764
-35,198	13,353	1428,231	781,124
-34,184	13,374	1427,208	780,631
-33,169	13,287	1426,017	779,535
-32,154	13,339	1425,054	779,224
-31,140	13,369	1423,387	778,427
-30,125	13,370	1422,662	778,002
-29,111	13,353	1421,334	777,166
-28,096	13,343	1420,186	776,458
-27,082	13,291	1419,177	775,630
-26,067	13,300	1417,830	774,906
-25,052	13,292	1416,904	774,334
-24,038	13,272	1415,936	773,677
-23,023	13,256	1414,937	773,028
-22,009	13,272	1413,769	772,431
-20,994	13,248	1412,993	771,867
-19,979	13,201	1412,296	771,235
-18,965	13,205	1411,237	770,642
-17,950	13,210	1410,257	770,100
-16,936	13,224	1409,323	769,626
-15,921	13,161	1408,282	768,732
-14,906	13,216	1407,347	768,451
-13,892	13,227	1406,380	767,944
-12,877	13,207	1405,546	767,363
-11,863	13,188	1404,650	766,754
-10,848	13,157	1403,896	766,169
-9,833	13,148	1403,045	765,629
-8,819	13,163	1402,054	765,129
-7,804	13,081	1401,227	764,266
-6,790	13,119	1399,959	763,719
-5,775	13,100	1399,004	763,080
-4,760	13,108	1397,918	762,494
-3,746	13,084	1397,207	761,964
-2,731	13,107	1396,301	761,548
-1,717	13,016	1395,610	760,721
-0,702	13,034	1393,694	759,729
0,313	17,058	1310,269	732,842
1,327	33,563	703,499	431,594
2,342	51,422	123,341	82,751
3,356	2,698	16,747	8,562
4,371	24,776	3,068	1,794
5,386	-8,372	0,580	0,275
6,400	-200,000	0,000	0,225
7,415	66,763	-0,275	-0,198
8,429	155,464	-0,289	-0,281
9,444	105,894	-0,336	-0,281
10,459	93,237	-0,254	-0,203
11,473	-11,521	-0,365	-0,169
12,488	-53,542	-0,321	-0,103
13,502	-88,732	-0,432	-0,090
14,517	46,895	-0,389	-0,255
15,531	31,554	-0,388	-0,235
16,546	73,865	-0,298	-0,220
17,561	59,882	-0,454	-0,316
18,575	-66,403	-0,179	-0,050
19,590	293,988	-0,230	-0,298
20,604	-92,706	-0,276	-0,054
21,619	7,535	-0,401	-0,211
22,634	64,227	-0,465	-0,330
23,648	160,151	-0,297	-0,292
24,663	-21,040	-0,417	-0,179
25,677	-52,594	-0,427	-0,139
26,692	21,294	-0,361	-0,207
27,707	80,014	-0,286	-0,217
28,721	78,817	-0,342	-0,258
29,736	94,419	-0,402	-0,322
30,750	28,714	-0,425	-0,253
31,765	88,207	-0,478	-0,374
32,780	45,304	-0,425	-0,276
33,794	-0,018	-0,270	-0,135
34,809	3,919	-0,460	-0,237
35,823	113,597	-0,214	-0,184
36,838	39,134	-0,539	-0,339
37,853	74,460	-0,291	-0,216
38,867	66,325	-0,350	-0,250
39,882	122,348	-0,264	-0,233
40,896	396,533	-0,234	-0,346
41,911	30,177	-0,151	-0,090
42,926	-25,411	-0,382	-0,159
43,940	76,238	-0,376	-0,280
44,955	-15,287	-0,491	-0,220
45,969	126,263	-0,341	-0,304
46,984	96,588	-0,375	-0,302
47,999	431,594	-0,242	-0,370
49,013	75,775	-0,376	-0,280
50,028	268,846	-0,241	-0,298
51,042	181,046	-0,233	-0,241
52,057	-6,703	-0,311	-0,148
53,071	250,445	-0,281	-0,336
54,086	226,107	-0,255	-0,292
55,101	-96,721	-0,343	-0,063
56,115	11,468	-0,338	-0,182
57,130	56,800	-0,331	-0,227
58,144	85,963	-0,406	-0,315
59,159	3,811	-0,397	-0,204
60,174	44,532	-0,318	-0,205
61,188	8,982	-0,451	-0,239
62,203	-70,505	-0,242	-0,064
63,217	51,627	-0,348	-0,233
64,232	18,375	-0,329	-0,184
65,247	56,333	-0,476	-0,325
66,261	84,564	-0,390	-0,300
67,276	-133,862	-0,419	-0,036
68,290	-40,546	-0,304	-0,110
69,305	8,544	-0,284	-0,150
70,320	7,061	-0,339	-0,177
71,334	170,562	-0,221	-0,222
72,349	32,119	-0,401	-0,242
73,363	126,842	-0,314	-0,280
74,378	146,105	-0,286	-0,270
75,393	-75,727	-0,349	-0,086
76,407	-119,383	-0,387	-0,047
77,422	83,392	-0,244	-0,187
78,436	-128,863	-0,224	-0,022
79,451	173,746	-0,306	-0,311
80,466	146,434	-0,295	-0,279
81,480	-64,700	-0,418	-0,118
82,495	-52,229	-0,213	-0,069
83,509	62,120	-0,269	-0,188
84,524	-63,389	-0,237	-0,068
85,539	93,538	-0,203	-0,161
86,553	19,428	-0,255	-0,143
87,568	134,609	-0,267	-0,243
88,582	36,183	-0,403	-0,249
89,597	-22,928	-0,301	-0,127
90,611	99,406	-0,297	-0,241
91,626	-110,397	-0,212	-0,031
92,641	94,716	-0,167	-0,134
93,655	83,528	-0,221	-0,169
94,670	26,729	-0,203	-0,119
95,684	168,469	-0,317	-0,317
96,699	134,887	-0,195	-0,178
97,714	-60,691	-0,317	-0,094
98,728	-141,179	-0,336	-0,024
99,743	800,000	-0,091	-0,212
100,757	-47,339	-0,294	-0,100
101,772	267,123	-0,230	-0,283
102,787	54,089	-0,456	-0,307
103,801	84,861	-0,381	-0,293
104,816	18,143	-0,315	-0,176
105,830	-48,314	-0,264	-0,089
106,845	51,940	-0,289	-0,193
107,860	33,280	-0,293	-0,178
108,874	75,723	-0,203	-0,150
109,889	-31,711	-0,384	-0,150
110,903	109,486	-0,309	-0,259
111,918	52,109	-0,333	-0,222
112,933	-42,401	-0,174	-0,062
113,947	-23,220	-0,287	-0,120
114,962	466,818	-0,116	-0,184
115,976	-17,444	-0,337	-0,148
116,991	218,012	-0,208	-0,233
118,006	311,543	-0,183	-0,241
119,020	26,488	-0,232	-0,136
120,035	-53,633	-0,220	-0,070
121,049	-60,504	-0,299	-0,088
122,064	-103,161	-0,226	-0,037
123,079	-37,502	-0,255	-0,095
124,093	-48,205	-0,348	-0,117
125,108	64,534	-0,349	-0,246
126,122	168,520	-0,228	-0,228
127,137	210,095	-0,180	-0,198
128,151	61,352	-0,181	-0,126
129,166	2,238	-0,331	-0,167
130,181	-37,311	-0,233	-0,087
131,195	-3,939	-0,406	-0,196
132,210	82,849	-0,293	-0,223
133,224	-149,527	-0,163	-0,009
134,239	800,000	-0,099	-0,220
135,254	197,469	-0,201	-0,215
136,268	-111,586	-0,189	-0,027
137,283	10,135	-0,264	-0,140
138,297	413,384	-0,105	-0,156
139,312	31,124	-0,253	-0,151
140,327	171,782	-0,184	-0,185
141,341	46,426	-0,314	-0,203
142,356	29,036	-0,266	-0,157
143,370	9,941	-0,325	-0,172
144,385	24,892	-0,241	-0,139
145,400	251,754	-0,205	-0,244
146,414	-10,729	-0,295	-0,136
147,429	68,519	-0,332	-0,237
148,443	-15,118	-0,173	-0,077
149,458	-17,181	-0,281	-0,123
150,473	404,333	-0,115	-0,169
151,487	-71,474	-0,233	-0,060
152,502	-0,147	-0,308	-0,153
153,516	124,995	-0,294	-0,259
154,531	-200,000	-0,074	-0,310
155,546	133,736	-0,145	-0,131
156,560	800,000	-0,088	-0,212
157,575	8,307	-0,261	-0,136
158,589	115,805	-0,287	-0,245
159,604	461,290	-0,225	-0,351
160,619	100,353	-0,270	-0,218
161,633	-84,139	-0,241	-0,053
162,648	222,581	-0,238	-0,268
163,662	75,173	-0,216	-0,158
164,677	-1,459	-0,174	-0,085
165,692	-63,675	-0,267	-0,076
166,706	-94,111	-0,173	-0,033
167,721	82,051	-0,242	-0,182
168,735	63,237	-0,339	-0,237
169,750	0,992	-0,309	-0,154
170,764	16,124	-0,236	-0,129
171,779	73,712	-0,250	-0,182
172,794	-95,595	-0,266	-0,049
173,808	191,408	-0,105	-0,111
174,823	184,369	-0,195	-0,202
175,837	-21,589	-0,335	-0,142
176,852	108,717	-0,185	-0,154
177,867	32,726	-0,222	-0,134
178,881	407,929	-0,120	-0,177
179,896	2,225	-0,236	-0,118
180,910	-10,421	-0,298	-0,137
181,925	-4,446	-0,158	-0,076
182,940	226,483	-0,288	-0,326
183,954	554,488	-0,104	-0,176
184,969	63,650	-0,266	-0,186
185,983	35,687	-0,273	-0,167
186,998	114,282	-0,248	-0,210
188,013	529,810	-0,172	-0,284
189,027	76,797	-0,214	-0,158
190,042	-200,000	-0,063	-0,231
191,056	-83,401	-0,227	-0,050
192,071	-68,545	-0,175	-0,047
193,086	-120,772	-0,281	-0,033
194,100	-200,000	-0,041	-0,166
195,115	-162,328	-0,201	0,007
196,129	-17,059	-0,130	-0,057
197,144	22,751	-0,240	-0,137
198,159	42,699	-0,223	-0,141
199,173	-111,421	-0,317	-0,044
200,188	500,476	-0,097	-0,157
201,202	556,355	-0,158	-0,265
202,217	-34,851	-0,144	-0,054
203,232	14,295	-0,203	-0,110
204,246	-35,964	-0,358	-0,134
205,261	80,277	-0,254	-0,190
206,275	-12,614	-0,179	-0,081
207,290	-76,238	-0,209	0,051
208,304	119,124	-0,158	-0,136
209,319	105,357	-0,160	-0,131
210,334	63,287	-0,236	-0,164
211,348	-23,717	-0,193	-0,080
212,363	-27,377	-0,184	-0,074
213,377	85,057	-0,219	-0,166
214,392	64,598	-0,190	-0,133
215,407	-200,000	-0,022	-0,161
216,421	51,600	-0,204	-0,134
217,436	53,549	-0,227	-0,151
218,450	105,585	-0,173	-0,142
219,465	74,425	-0,262	-0,191
220,480	800,000	-0,066	-0,194
221,494	52,638	-0,187	-0,124
222,509	-121,044	-0,157	0,018
223,523	-110,764	-0,250	-0,035
224,538	35,752	-0,289	-0,176
225,553	-40,990	-0,204	-0,073
226,567	325,509	-0,183	-0,244
227,582	-183,527	-0,140	0,002
228,596	92,715	-0,203	-0,159
229,611	800,000	-0,078	-0,162
230,626	34,097	-0,226	-0,136
231,640	365,682	-0,124	-0,174
232,655	94,322	-0,195	-0,153
233,669	-200,000	0,003	-0,161
234,684	-107,045	-0,062	-0,009
235,699	800,000	-0,038	-0,077
236,713	-134,029	-0,120	-0,010
237,728	129,664	-0,174	-0,155
238,742	800,000	-0,102	-0,208
239,757	-200,000	-0,182	-0,000
240,772	29,332	-0,254	-0,149
241,786	128,483	-0,187	-0,165
242,801	-43,452	-0,210	-0,073
243,815	67,080	-0,194	-0,137
244,830	85,101	-0,189	-0,144
245,844	-200,000	-0,242	-0,000
246,859	-151,398	-0,239	0,012
247,874	88,205	-0,229	-0,176
248,888	5,602	-0,168	-0,086
249,903	-95,446	-0,237	-0,044
250,917	2,456	-0,166	0,083
251,932	-5,587	-0,229	-0,108
252,947	379,195	-0,147	-0,208
253,961	281,860	-0,241	-0,299
254,976	54,312	-0,190	-0,126
255,990	800,000	-0,103	-0,204
257,005	187,555	-0,095	-0,098
258,020	-135,136	-0,286	-0,023
259,034	72,992	-0,099	-0,071
260,049	60,792	-0,104	-0,071
261,063	-57,431	-0,211	-0,064
262,078	30,690	-0,229	-0,135
263,093	-17,285	-0,072	-0,031
264,107	-137,158	-0,139	-0,011
265,122	-103,134	-0,195	0,032
266,136	-106,725	-0,188	-0,029
267,151	11,156	-0,156	-0,082
268,166	-110,930	-0,222	-0,031
269,180	111,497	-0,080	-0,066
270,195	168,237	-0,121	-0,119
271,209	581,725	-0,098	-0,166
272,224	-44,594	-0,289	-0,099
273,239	-50,548	-0,084	-0,027
274,253	51,113	-0,070	-0,046
275,268	-63,123	-0,266	-0,075
276,282	241,610	-0,204	-0,236
277,297	-44,133	-0,204	-0,070
278,312	289,026	-0,199	-0,250
279,326	800,000	-0,056	-0,130
280,341	585,024	-0,137	-0,234
281,355	-37,510	-0,077	-0,028
282,370	161,611	-0,153	-0,148
283,384	200,705	-0,110	-0,117
284,399	-80,684	-0,290	-0,066
285,414	395,505	-0,116	-0,168
286,428	268,703	-0,109	-0,133
287,443	-200,000	-0,047	-0,171
288,457	800,000	-0,067	-0,133
289,472	423,788	-0,106	-0,158
290,487	800,000	-0,091	-0,240
291,501	241,221	-0,170	-0,197
292,516	505,265	-0,127	-0,203
293,530	-26,932	-0,171	0,069
294,545	324,756	-0,062	-0,082
295,560	-14,148	-0,188	-0,083
296,574	312,009	-0,148	-0,192
297,589	-0,471	-0,212	-0,103
298,603	232,251	-0,095	-0,107
299,618	-90,426	-0,175	-0,035
300,633	-99,435	-0,092	-0,016
301,647	54,538	-0,097	0,064
302,662	-70,349	-0,069	-0,018
303,676	137,064	-0,158	-0,142
304,691	89,307	-0,181	-0,139
305,706	-11,325	-0,268	-0,121
306,720	-72,238	-0,183	-0,046
307,735	-74,895	-0,079	-0,019
308,749	110,084	-0,059	-0,049
309,764	101,106	-0,093	-0,075
310,779	-95,996	-0,102	-0,019
311,793	103,093	-0,082	-0,066
312,808	50,134	-0,222	-0,144
313,822	16,060	-0,211	-0,114
314,837	109,811	-0,091	-0,075
315,852	43,131	-0,169	-0,106
316,866	220,237	-0,220	-0,243
317,881	9,349	-0,089	-0,046
318,895	23,353	-0,121	-0,068
319,910	-115,213	-0,240	-0,031
320,925	344,207	-0,142	-0,193
321,939	-68,255	-0,087	-0,023
322,954	233,097	-0,171	-0,194
323,968	-6,340	-0,077	0,036
324,983	-159,627	-0,211	0,008
325,997	687,425	-0,108	-0,196
327,012	-100,222	-0,233	-0,039
328,027	-38,720	-0,169	-0,061
329,041	18,379	-0,121	-0,066
330,056	130,930	-0,105	-0,092
331,070	-191,547	-0,082	0,001
332,085	12,961	-0,051	0,027
333,100	59,805	-0,175	-0,119
334,114	-54,678	-0,198	-0,061
335,129	203,017	-0,101	-0,107
336,143	-28,026	-0,168	-0,067
337,158	417,084	-0,115	-0,170
338,173	274,365	-0,053	-0,064
339,187	-200,000	0,003	-0,158
340,202	-200,000	-0,012	-0,062
341,216	-47,278	-0,166	-0,055
342,231	-41,982	-0,162	-0,056
343,246	12,095	-0,202	-0,106
344,260	-126,147	-0,133	-0,014
345,275	-98,848	-0,211	-0,036
346,289	800,000	-0,070	-0,187
347,304	-9,729	-0,214	0,097
348,319	80,777	-0,133	-0,099
349,333	-200,000	-0,044	-0,167
350,348	269,504	-0,143	-0,173
351,362	-200,000	-0,000	-0,018
352,377	93,146	-0,147	-0,114
353,392	-200,000	-0,015	-0,101
354,406	-23,035	-0,121	-0,050
355,421	210,244	1312,483	1414,911
356,435	161,844	1472,945	1415,408
