DTS Sentinel unit serial number:	SN410029Multiplexer serial number:	ORYXHardware model number:	OX2-SRSoftware version number:	ORYX F/W v4,00 Oryx Data Collector v3.7.2.0data status	okinstallation	B3 Nyhavnadifferential loss correction	single-endedforward channel	channel 1reverse channel	N/Adate	2023/11/30time	04:47:30forward acquisition time	300,00reverse acquisition time	0,00gamma	499,1914k internal	0,3211k external	0,3211temperature offset calibration	1,0000default loss term (dB/km)	0,3820temperature slope calibration	1,0000multiplexer offset coefficient	1,0000multiplexer slope coefficient	1,0000fibre end	0,00T internal ref (°C)	10,15T ext. ref 1 (°C)	-5,27T ext. ref 2 (°C)	-5,36length (m)	temperature (°C)	Stokes	anti-Stokes-744,400	238,776	-0,282	-0,340
-743,385	800,000	0,080	0,247
-742,371	800,000	-0,118	-0,271
-741,356	-200,000	0,038	0,327
-740,342	208,421	-0,156	-0,177
-739,327	440,761	-0,129	0,205
-738,312	167,633	-0,167	-0,172
-737,298	-200,000	-0,017	0,321
-736,283	632,753	-0,160	-0,296
-735,269	-200,000	-0,073	0,256
-734,254	94,081	-0,234	-0,193
-733,239	8,642	-0,180	0,098
-732,225	-200,000	-0,068	-0,313
-731,210	-200,000	0,026	0,119
-730,196	10,865	0,138	-0,076
-729,181	-105,816	-0,111	-0,018
-728,167	-200,000	0,004	0,034
-727,152	136,582	0,056	0,053
-726,137	-96,186	-0,074	0,014
-725,123	-164,016	-0,106	0,003
-724,108	-142,863	-0,034	0,002
-723,094	-200,000	-0,017	-0,109
-722,079	273,079	-0,053	-0,068
-721,064	-200,000	-0,030	-0,111
-720,050	52,715	-0,080	0,055
-719,035	800,000	-0,031	0,076
-718,021	-116,691	0,006	-0,001
-717,006	-31,118	-0,123	-0,050
-715,991	-200,000	-0,028	-0,187
-714,977	-143,150	-0,144	-0,010
-713,962	-127,324	-0,140	-0,015
-712,948	-81,381	-0,207	-0,049
-711,933	388,169	0,011	-0,016
-710,918	271,580	-0,037	-0,048
-709,904	22,923	-0,040	0,024
-708,889	248,594	-0,057	0,071
-707,875	0,904	-0,056	0,029
-706,860	196,455	-0,039	-0,043
-705,845	-6,759	-0,018	0,009
-704,831	153,627	-0,124	0,123
-703,816	113,039	0,063	0,055
-702,802	-86,190	-0,215	-0,048
-701,787	-200,000	0,016	-0,059
-700,772	800,000	-0,065	-0,144
-699,758	384,995	0,060	-0,090
-698,743	85,062	-0,042	0,033
-697,729	-41,940	0,080	0,029
-696,714	-200,000	0,008	-0,033
-695,699	-93,528	0,074	-0,015
-694,685	-140,983	-0,037	0,003
-693,670	-92,284	-0,052	0,011
-692,656	-200,000	-0,005	0,031
-691,641	752,414	-0,050	-0,098
-690,627	505,270	0,054	0,091
-689,612	800,000	0,056	0,124
-688,597	67,081	0,145	0,107
-687,583	49,232	-0,101	-0,069
-686,568	93,349	-0,171	-0,140
-685,554	-142,624	0,017	-0,001
-684,539	-200,000	-0,002	0,027
-683,524	165,907	0,058	-0,059
-682,510	22,639	-0,140	0,083
-681,495	-200,000	0,021	0,145
-680,481	124,738	-0,133	0,121
-679,466	184,211	0,005	0,006
-678,451	357,595	-0,021	-0,030
-677,437	628,336	-0,065	0,119
-676,422	47,463	0,079	0,053
-675,408	12,645	0,102	0,057
-674,393	-162,334	-0,155	-0,005
-673,378	-18,314	0,162	-0,073
-672,364	-200,000	-0,002	-0,022
-671,349	-2,428	-0,112	-0,056
-670,335	200,737	-0,058	-0,064
-669,320	23,014	0,057	-0,033
-668,305	315,136	0,017	0,023
-667,291	-57,552	-0,100	-0,032
-666,276	800,000	-0,030	-0,072
-665,262	-200,000	0,010	-0,082
-664,247	202,054	0,043	-0,048
-663,232	71,810	0,147	-0,111
-662,218	190,263	-0,026	-0,028
-661,203	-159,719	0,052	-0,002
-660,189	-171,345	0,099	-0,002
-659,174	-200,000	0,012	0,157
-658,159	-200,000	0,005	-0,235
-657,145	-81,312	0,084	0,020
-656,130	387,659	0,027	0,041
-655,116	283,467	0,099	-0,129
-654,101	800,000	-0,034	0,083
-653,086	800,000	-0,044	0,100
-652,072	47,895	-0,097	-0,065
-651,057	-17,651	-0,118	-0,053
-650,043	49,563	-0,075	0,051
-649,028	12,535	-0,075	-0,042
-648,014	-200,000	-0,020	0,118
-646,999	800,000	0,028	0,073
-645,984	800,000	-0,048	0,115
-644,970	-200,000	-0,011	0,132
-643,955	45,364	-0,126	-0,084
-642,941	436,501	-0,082	-0,130
-641,926	3,812	0,162	-0,085
-640,911	-200,000	-0,020	0,081
-639,897	-66,618	0,095	-0,027
-638,882	180,047	0,123	-0,131
-637,868	585,037	-0,048	0,086
-636,853	-10,703	-0,063	0,030
-635,838	122,834	0,100	-0,091
-634,824	-192,057	-0,078	-0,001
-633,809	67,345	0,126	-0,093
-632,795	365,779	0,093	0,135
-631,780	18,780	0,039	0,023
-630,765	-200,000	-0,035	-0,172
-629,751	-200,000	0,008	-0,091
-628,736	-192,798	-0,048	-0,000
-627,722	107,903	0,072	0,062
-626,707	-13,771	0,090	0,042
-625,692	591,102	0,041	0,074
-624,678	671,412	-0,059	-0,111
-623,663	79,457	0,040	-0,031
-622,649	-5,006	-0,142	-0,070
-621,634	15,402	0,035	0,020
-620,619	348,766	0,041	-0,058
-619,605	-50,454	0,048	-0,016
-618,590	800,000	0,033	0,091
-617,576	-200,000	-0,003	-0,054
-616,561	-9,011	-0,161	-0,077
-615,546	800,000	0,093	-0,207
-614,532	-200,000	0,015	-0,107
-613,517	267,308	0,039	-0,050
-612,503	800,000	-0,033	-0,093
-611,488	-200,000	-0,026	0,088
-610,474	800,000	0,045	-0,115
-609,459	659,579	-0,064	0,119
-608,444	-50,229	-0,050	-0,017
-607,430	422,507	-0,056	-0,087
-606,415	800,000	-0,013	-0,028
-605,401	-200,000	-0,032	-0,182
-604,386	-200,000	0,023	0,086
-603,371	800,000	0,008	-0,023
-602,357	54,920	0,044	0,031
-601,342	14,570	0,063	-0,036
-600,328	17,775	0,049	-0,028
-599,313	-200,000	0,011	0,059
-598,298	-65,769	0,130	-0,037
-597,284	-19,147	0,085	-0,038
-596,269	800,000	-0,029	0,069
-595,255	-77,206	0,025	0,006
-594,240	-200,000	-0,008	-0,064
-593,225	-8,399	-0,097	-0,047
-592,211	-74,778	-0,090	0,023
-591,196	-46,686	0,162	-0,057
-590,182	210,639	-0,011	0,013
-589,167	-200,000	0,003	0,054
-588,152	-11,751	0,100	-0,047
-587,138	-137,398	-0,103	-0,008
-586,123	127,579	-0,076	0,069
-585,109	-200,000	-0,009	-0,126
-584,094	558,102	0,042	-0,073
-583,079	36,722	0,028	0,018
-582,065	-11,368	0,171	-0,081
-581,050	469,477	-0,055	0,089
-580,036	324,896	0,148	0,205
-579,021	264,312	-0,058	-0,072
-578,006	74,274	-0,034	-0,026
-576,992	-200,000	0,024	0,086
-575,977	-200,000	0,003	0,067
-574,963	800,000	0,070	0,213
-573,948	509,501	0,036	0,060
-572,934	534,421	-0,015	0,025
-571,919	204,868	-0,144	-0,161
-570,904	-200,000	0,003	-0,125
-569,890	-200,000	-0,028	-0,177
-568,875	-42,510	0,064	-0,023
-567,861	16,920	0,082	-0,046
-566,846	7,981	0,116	0,062
-565,831	800,000	-0,051	0,108
-564,817	104,682	-0,065	0,055
-563,802	800,000	0,022	0,053
-562,788	-200,000	0,006	-0,025
-561,773	749,060	-0,021	-0,042
-560,758	-200,000	-0,005	-0,061
-559,744	49,827	-0,023	-0,016
-558,729	-7,331	-0,148	0,072
-557,715	12,944	-0,036	0,020
-556,700	-70,145	0,103	0,028
-555,685	800,000	0,018	0,057
-554,671	800,000	-0,018	-0,043
-553,656	-134,022	-0,080	0,007
-552,642	-61,476	-0,202	0,061
-551,627	150,815	0,059	0,058
-550,612	-200,000	0,016	0,065
-549,598	15,760	-0,147	0,083
-548,583	800,000	-0,023	-0,070
-547,569	-108,598	0,051	0,008
-546,554	455,171	-0,022	-0,036
-545,539	-119,509	0,109	-0,013
-544,525	-38,966	0,038	0,014
-543,510	628,064	-0,067	-0,123
-542,496	-200,000	-0,027	-0,138
-541,481	-200,000	-0,023	-0,158
-540,466	-60,660	-0,049	0,015
-539,452	381,742	0,062	0,092
-538,437	800,000	0,014	0,028
-537,423	-200,000	-0,008	-0,070
-536,408	-200,000	-0,002	-0,154
-535,393	102,689	0,034	0,029
-534,379	-86,484	-0,063	0,014
-533,364	-200,000	-0,011	-0,061
-532,350	800,000	0,042	0,119
-531,335	-4,395	0,036	-0,018
-530,321	-200,000	0,034	0,130
-529,306	-67,843	-0,060	0,017
-528,291	108,824	0,057	0,049
-527,277	225,547	-0,086	-0,100
-526,262	-111,264	0,073	-0,011
-525,248	79,536	-0,059	-0,046
-524,233	-200,000	0,055	0,257
-523,218	481,984	-0,050	0,083
-522,204	800,000	-0,003	-0,008
-521,189	-200,000	-0,022	-0,139
-520,175	-200,000	-0,064	-0,233
-519,160	-200,000	-0,043	-0,144
-518,145	-67,061	0,031	-0,009
-517,131	119,061	0,054	-0,048
-516,116	16,324	0,046	-0,026
-515,102	494,413	0,074	0,122
-514,087	-151,161	-0,081	-0,004
-513,072	800,000	0,051	-0,109
-512,058	-200,000	-0,007	0,065
-511,043	63,898	0,034	0,024
-510,029	-200,000	-0,026	0,092
-509,014	170,428	-0,018	0,018
-507,999	800,000	0,014	-0,042
-506,985	287,136	-0,046	-0,059
-505,970	-13,555	-0,120	-0,055
-504,956	233,639	-0,063	0,074
-503,941	297,651	-0,033	-0,044
-502,926	-90,798	-0,189	0,039
-501,912	-200,000	0,002	0,154
-500,897	71,799	0,112	0,083
-499,883	153,715	-0,054	0,053
-498,868	-125,318	-0,086	0,009
-497,853	-200,000	0,018	0,059
-496,839	800,000	0,055	0,132
-495,824	181,108	0,113	0,120
-494,810	56,253	-0,065	-0,045
-493,795	-183,172	0,050	-0,001
-492,781	-76,049	-0,118	-0,030
-491,766	-58,595	0,078	-0,024
-490,751	594,292	-0,070	-0,125
-489,737	-200,000	0,004	0,036
-488,722	-200,000	-0,013	0,095
-487,708	-200,000	-0,035	-0,156
-486,693	-96,225	0,081	-0,015
-485,678	800,000	-0,027	0,069
-484,664	-200,000	-0,034	-0,109
-483,649	100,327	-0,041	-0,035
-482,635	-53,835	0,087	0,028
-481,620	-165,050	0,067	0,002
-480,605	37,701	0,094	-0,060
-479,591	-37,504	-0,108	0,041
-478,576	247,057	0,036	-0,044
-477,562	85,019	-0,065	-0,051
-476,547	800,000	-0,020	-0,051
-475,532	-200,000	-0,037	0,208
-474,518	800,000	0,009	-0,025
-473,503	287,423	0,068	0,088
-472,489	271,840	-0,065	0,082
-471,474	800,000	0,053	0,120
-470,459	800,000	0,017	-0,034
-469,445	3,154	-0,171	-0,089
-468,430	33,471	-0,099	-0,061
-467,416	-42,503	0,049	0,018
-466,401	91,201	0,132	-0,106
-465,386	53,916	-0,014	-0,009
-464,372	9,192	0,025	0,013
-463,357	664,213	-0,053	0,098
-462,343	37,665	0,078	-0,050
-461,328	175,180	-0,021	-0,022
-460,313	167,685	0,093	0,094
-459,299	800,000	-0,008	-0,024
-458,284	265,016	-0,038	0,048
-457,270	70,683	-0,098	0,072
-456,255	-200,000	-0,030	-0,199
-455,241	-151,917	-0,064	0,003
-454,226	-138,936	-0,160	-0,012
-453,211	-134,125	-0,096	-0,008
-452,197	599,938	-0,051	0,091
-451,182	54,373	0,081	0,056
-450,168	-52,661	-0,055	-0,018
-449,153	3,322	0,052	-0,027
-448,138	-200,000	0,003	-0,036
-447,124	-200,000	-0,003	-0,049
-446,109	-200,000	-0,003	-0,037
-445,095	800,000	0,029	0,088
-444,080	350,163	0,029	-0,041
-443,065	23,572	0,062	0,037
-442,051	199,239	0,097	0,107
-441,036	199,799	-0,036	0,039
-440,022	145,509	0,081	-0,078
-439,007	-200,000	0,026	-0,089
-437,992	-6,204	0,097	0,047
-436,978	188,329	0,100	0,108
-435,963	-200,000	0,009	0,052
-434,949	-116,015	0,018	0,002
-433,934	-7,371	0,173	-0,084
-432,919	-200,000	-0,005	-0,051
-431,905	-200,000	-0,005	-0,103
-430,890	-131,366	0,132	0,012
-429,876	-47,300	-0,059	-0,021
-428,861	-11,593	-0,088	0,041
-427,846	51,364	-0,139	0,094
-426,832	800,000	-0,051	0,112
-425,817	-141,464	-0,059	0,004
-424,803	108,230	-0,028	0,024
-423,788	-136,032	0,127	-0,011
-422,773	-27,512	0,026	-0,011
-421,759	-200,000	-0,020	0,168
-420,744	108,068	0,084	0,072
-419,730	98,552	-0,155	-0,128
-418,715	141,858	-0,116	-0,110
-417,701	-124,560	-0,138	-0,015
-416,686	10,446	0,092	-0,050
-415,671	800,000	-0,023	0,058
-414,657	-53,631	-0,106	-0,034
-413,642	89,595	0,112	-0,089
-412,628	-200,000	-0,005	-0,018
-411,613	68,985	-0,066	-0,048
-410,598	346,491	-0,099	-0,140
-409,584	85,608	0,048	0,037
-408,569	-200,000	-0,041	0,153
-407,555	721,698	0,064	-0,122
-406,540	800,000	-0,026	-0,063
-405,525	-37,808	-0,125	0,047
-404,511	34,668	-0,115	-0,072
-403,496	-61,320	-0,023	0,007
-402,482	-200,000	0,006	-0,052
-401,467	800,000	0,039	-0,084
-400,452	-200,000	-0,015	-0,072
-399,438	-173,333	-0,082	0,002
-398,423	-12,335	-0,083	-0,039
-397,409	-200,000	-0,009	0,072
-396,394	-38,722	0,084	-0,032
-395,379	336,462	-0,066	-0,092
-394,365	-71,755	-0,087	-0,023
-393,350	138,998	-0,106	0,099
-392,336	-200,000	0,011	0,085
-391,321	-200,000	0,028	0,183
-390,306	-200,000	0,020	-0,075
-389,292	-200,000	-0,022	-0,145
-388,277	138,172	-0,067	-0,063
-387,263	164,101	-0,025	0,025
-386,248	-16,270	0,229	0,103
-385,233	-200,000	0,020	0,163
-384,219	-200,000	0,005	0,023
-383,204	-136,667	-0,045	0,004
-382,190	328,746	-0,048	-0,066
-381,175	230,781	-0,042	0,049
-380,160	-200,000	0,048	0,153
-379,146	34,207	0,152	-0,095
-378,131	-90,225	-0,163	0,034
-377,117	131,688	-0,129	0,119
-376,102	-8,798	0,081	-0,039
-375,088	-200,000	-0,017	0,118
-374,073	-200,000	-0,047	-0,155
-373,058	-200,000	0,005	-0,083
-372,044	-75,661	0,066	-0,017
-371,029	156,688	0,067	0,066
-370,015	134,369	-0,118	0,109
-369,000	472,645	0,014	0,023
-367,985	-200,000	-0,031	-0,159
-366,971	-165,083	-0,090	-0,003
-365,956	-200,000	-0,013	0,068
-364,942	384,224	0,067	0,100
-363,927	800,000	0,022	0,056
-362,912	-172,207	-0,067	-0,001
-361,898	683,207	-0,090	-0,169
-360,883	800,000	-0,040	-0,092
-359,869	504,453	0,089	0,148
-358,854	-78,266	-0,078	-0,019
-357,839	68,866	-0,088	0,065
-356,825	75,919	0,197	0,149
-355,810	19,109	-0,099	-0,056
-354,796	285,421	0,009	0,012
-353,781	-174,331	-0,114	0,002
-352,766	49,501	0,090	0,060
-351,752	-200,000	-0,021	-0,082
-350,737	-0,182	-0,110	0,056
-349,723	37,091	-0,025	0,016
-348,708	-200,000	-0,016	-0,152
-347,693	-69,615	-0,114	0,031
-346,679	800,000	-0,007	0,019
-345,664	23,768	-0,049	-0,029
-344,650	520,119	-0,003	-0,005
-343,635	800,000	-0,025	0,053
-342,620	373,382	-0,065	0,094
-341,606	32,999	0,103	0,063
-340,591	340,612	-0,058	0,081
-339,577	-49,927	0,052	0,017
-338,562	-200,000	0,004	0,027
-337,548	241,264	0,006	0,007
-336,533	116,603	-0,038	0,033
-335,518	800,000	0,064	0,159
-334,504	82,212	0,103	0,079
-333,489	-200,000	-0,014	-0,179
-332,475	-27,954	-0,110	-0,045
-331,460	800,000	0,014	-0,040
-330,445	-200,000	0,006	-0,089
-329,431	195,883	0,127	0,138
-328,416	-200,000	-0,016	0,072
-327,402	-200,000	-0,011	-0,082
-326,387	-27,819	0,043	0,018
-325,372	206,058	0,075	0,083
-324,358	303,759	-0,163	0,217
-323,343	-99,775	0,102	0,018
-322,329	-46,363	0,047	-0,016
-321,314	-119,072	-0,052	-0,006
-320,299	800,000	-0,055	0,161
-319,285	-54,923	0,013	-0,004
-318,270	-200,000	0,030	0,110
-317,256	253,056	-0,097	0,119
-316,241	-200,000	0,004	-0,036
-315,226	-200,000	-0,006	0,082
-314,212	-126,257	0,160	0,017
-313,197	473,302	-0,033	-0,054
-312,183	424,397	-0,021	-0,032
-311,168	-200,000	0,017	0,069
-310,153	229,176	0,145	-0,168
-309,139	20,863	-0,020	0,012
-308,124	-200,000	0,006	-0,081
-307,110	-35,205	0,020	0,008
-306,095	14,157	0,086	-0,048
-305,080	332,259	-0,048	0,066
-304,066	800,000	-0,056	-0,131
-303,051	284,905	0,032	-0,042
-302,037	156,922	-0,084	0,083
-301,022	87,533	0,048	0,038
-300,008	-89,518	-0,097	-0,020
-298,993	800,000	0,035	-0,071
-297,978	-200,000	-0,016	0,102
-296,964	378,899	-0,042	-0,061
-295,949	-94,949	0,117	-0,022
-294,935	148,861	-0,064	-0,061
-293,920	10,254	-0,147	0,079
-292,905	-96,049	0,027	-0,005
-291,891	-130,358	0,217	-0,021
-290,876	-200,000	0,015	0,073
-289,862	-166,122	-0,131	-0,004
-288,847	800,000	-0,030	0,061
-287,832	128,635	0,069	-0,063
-286,818	-200,000	-0,007	-0,095
-285,803	-77,797	0,118	0,029
-284,789	800,000	0,055	0,138
-283,774	-200,000	0,043	0,216
-282,759	800,000	-0,049	0,133
-281,745	-68,353	-0,087	0,024
-280,730	-76,019	0,180	0,045
-279,716	800,000	0,012	-0,031
-278,701	-68,015	0,084	-0,023
-277,686	-66,818	0,083	-0,023
-276,672	800,000	-0,017	-0,041
-275,657	146,467	0,094	-0,090
-274,643	30,260	-0,098	0,060
-273,628	109,654	0,101	-0,086
-272,613	254,699	-0,109	-0,133
-271,599	531,184	0,070	0,119
-270,584	-2,884	0,132	-0,065
-269,570	800,000	-0,009	0,027
-268,555	-200,000	0,021	0,086
-267,540	235,760	0,047	-0,055
-266,526	623,193	0,006	0,011
-265,511	-46,867	0,045	-0,016
-264,497	-145,936	0,101	0,006
-263,482	-200,000	0,059	0,215
-262,467	-200,000	0,020	-0,164
-261,453	4,754	0,074	-0,038
-260,438	-105,523	-0,045	0,007
-259,424	390,051	-0,018	0,026
-258,409	34,376	0,070	-0,043
-257,395	-2,646	0,133	0,066
-256,380	145,246	-0,058	-0,055
-255,365	-37,021	0,056	-0,021
-254,351	-200,000	-0,010	-0,064
-253,336	-200,000	0,004	-0,018
-252,322	800,000	-0,045	0,102
-251,307	537,156	0,028	-0,048
-250,292	25,171	-0,079	0,046
-249,278	800,000	0,011	-0,032
-248,263	-200,000	-0,030	0,128
-247,249	800,000	-0,055	0,116
-246,234	-90,829	0,154	-0,031
-245,219	-30,302	-0,119	-0,048
-244,205	64,888	0,128	-0,092
-243,190	-188,881	-0,233	0,002
-242,176	31,086	-0,007	0,004
-241,161	38,215	-0,041	0,026
-240,146	412,102	0,030	0,046
-239,132	330,911	-0,123	0,168
-238,117	-112,539	-0,046	0,007
-237,103	800,000	-0,058	-0,133
-236,088	-16,693	0,100	0,045
-235,073	-63,951	0,050	0,014
-234,059	-139,733	0,120	-0,009
-233,044	800,000	-0,011	0,033
-232,030	-195,018	0,055	-0,000
-231,015	-31,010	-0,165	-0,066
-230,000	25,170	0,085	-0,050
-228,986	24,893	0,129	-0,076
-227,971	-123,975	-0,137	0,015
-226,957	101,483	0,182	0,150
-225,942	47,788	-0,089	-0,059
-224,927	-188,724	-0,075	-0,001
-223,913	742,348	-0,056	-0,108
-222,898	271,282	0,101	-0,126
-221,884	579,542	-0,054	0,094
-220,869	-122,671	0,083	-0,009
-219,855	-200,000	-0,045	0,000
-218,840	188,194	0,081	0,087
-217,825	800,000	-0,046	-0,124
-216,811	111,776	0,107	0,092
-215,796	26,644	-0,145	-0,086
-214,782	14,348	0,092	-0,051
-213,767	-64,895	0,233	0,066
-212,752	-136,358	-0,036	-0,003
-211,738	-200,000	0,005	0,037
-210,723	606,697	0,010	0,018
-209,709	800,000	-0,041	-0,099
-208,694	-200,000	-0,080	-0,258
-207,679	-200,000	0,002	-0,029
-206,665	-200,000	0,015	-0,127
-205,650	-80,450	0,052	0,012
-204,636	167,267	0,088	0,089
-203,621	-102,363	-0,075	0,013
-202,606	272,744	0,075	-0,094
-201,592	-41,185	-0,102	0,037
-200,577	-30,631	-0,127	-0,051
-199,563	-35,763	0,057	-0,022
-198,548	9,640	-0,063	-0,034
-197,533	601,262	-0,012	-0,021
-196,519	-36,695	-0,148	0,056
-195,504	-193,046	-0,082	-0,001
-194,490	-110,172	-0,037	0,005
-193,475	-200,000	0,033	-0,121
-192,460	38,088	-0,114	-0,072
-191,446	18,468	0,104	0,059
-190,431	27,095	0,046	0,027
-189,417	71,491	0,051	-0,037
-188,402	133,776	0,050	0,046
-187,387	-23,092	-0,100	0,042
-186,373	65,887	0,093	0,067
-185,358	154,898	-0,088	0,086
-184,344	-200,000	0,046	0,214
-183,329	168,017	0,049	-0,050
-182,315	-157,510	-0,042	0,002
-181,300	-200,000	0,047	-0,197
-180,285	290,440	0,042	-0,054
-179,271	166,295	-0,084	0,085
-178,256	-200,000	0,001	0,086
-177,242	121,380	0,046	0,041
-176,227	45,683	0,029	0,019
-175,212	800,000	0,038	-0,084
-174,198	87,416	-0,031	-0,025
-173,183	-83,867	-0,155	-0,035
-172,169	172,579	0,097	0,100
-171,154	-130,093	-0,046	-0,004
-170,139	-200,000	-0,016	-0,064
-169,125	42,411	0,061	-0,039
-168,110	446,360	0,033	0,052
-167,096	-48,752	0,050	-0,017
-166,081	100,983	-0,079	0,065
-165,066	234,862	-0,119	-0,140
-164,052	46,111	0,069	-0,045
-163,037	800,000	0,042	0,129
-162,023	377,107	0,043	-0,063
-161,008	-200,000	0,002	-0,037
-159,993	338,629	0,005	-0,007
-158,979	651,724	0,085	-0,155
-157,964	277,231	-0,029	0,036
-156,950	-120,554	0,012	0,001
-155,935	155,395	-0,023	0,023
-154,920	-200,000	0,013	-0,100
-153,906	-33,719	0,114	0,045
-152,891	226,422	0,085	0,098
-151,877	191,940	-0,083	-0,089
-150,862	-42,273	-0,135	0,049
-149,847	800,000	-0,055	-0,130
-148,833	-44,923	-0,033	-0,012
-147,818	-79,831	-0,071	0,017
-146,804	756,027	0,023	0,044
-145,789	0,419	0,094	0,048
-144,775	38,144	-0,104	0,065
-143,760	-22,590	-0,051	-0,022
-142,745	-200,000	0,007	0,037
-141,731	-200,000	-0,008	-0,048
-140,716	-114,878	0,029	0,004
-139,702	35,479	0,094	0,058
-138,687	-200,000	-0,034	0,121
-137,672	1,106	0,047	0,024
-136,658	-78,381	-0,156	-0,038
-135,643	-200,000	0,006	-0,211
-134,629	212,464	-0,105	0,118
-133,614	-200,000	-0,011	0,077
-132,599	239,483	0,058	-0,069
-131,585	-200,000	0,003	0,090
-130,570	800,000	-0,058	0,123
-129,556	315,967	-0,026	-0,035
-128,541	-200,000	0,004	-0,068
-127,526	514,941	0,004	-0,007
-126,512	-200,000	-0,022	0,087
-125,497	567,365	-0,039	0,068
-124,483	742,639	-0,083	0,158
-123,468	-200,000	0,007	-0,044
-122,453	35,904	-0,202	-0,126
-121,439	800,000	0,062	-0,125
-120,424	800,000	-0,012	0,032
-119,410	-119,927	-0,060	-0,007
-118,395	-132,063	-0,056	0,005
-117,380	13,441	0,070	0,038
-116,366	-200,000	0,013	0,055
-115,351	293,567	-0,056	-0,073
-114,337	-132,694	-0,035	0,003
-113,322	368,086	-0,057	0,082
-112,307	104,667	0,060	-0,050
-111,293	-200,000	0,019	-0,087
-110,278	800,000	0,082	0,177
-109,264	-135,272	0,171	0,014
-108,249	-95,696	-0,100	0,019
-107,234	-153,422	-0,067	0,003
-106,220	-24,916	-0,099	-0,041
-105,205	800,000	0,066	0,180
-104,191	-200,000	0,021	-0,083
-103,176	61,968	0,138	0,097
-102,162	98,307	-0,072	-0,058
-101,147	22,839	0,098	0,057
-100,132	667,156	0,030	0,055
-99,118	-200,000	0,008	-0,066
-98,103	-42,471	0,111	-0,040
-97,089	-200,000	-0,003	-0,032
-96,074	800,000	0,050	-0,116
-95,059	-200,000	-0,003	-0,026
-94,045	203,067	-0,089	-0,098
-93,030	-33,475	0,136	-0,053
-92,016	12,066	-0,049	0,027
-91,001	-39,542	-0,076	0,028
-89,986	-89,152	0,119	0,025
-88,972	-89,407	-0,160	-0,033
-87,957	-62,569	0,023	-0,007
-86,943	-136,711	0,144	0,012
-85,928	-200,000	-0,030	-0,109
-84,913	-37,927	-0,021	-0,008
-83,899	800,000	-0,040	-0,090
-82,884	-200,000	-0,001	0,057
-81,870	104,900	-0,051	0,042
-80,855	-25,872	0,046	0,019
-79,840	-17,323	-0,125	-0,055
-78,826	-35,591	-0,097	0,037
-77,811	509,337	-0,038	-0,063
-76,797	-70,798	-0,022	-0,006
-75,782	10,347	0,062	0,033
-74,767	77,963	-0,114	0,085
-73,753	-101,082	0,075	0,013
-72,738	800,000	-0,062	0,127
-71,724	31,053	0,062	-0,037
-70,709	-75,466	-0,191	-0,048
-69,694	353,763	-0,044	0,062
-68,680	-77,892	0,061	-0,015
-67,665	145,233	-0,023	0,022
-66,651	-200,000	0,009	0,090
-65,636	172,032	0,056	0,057
-64,622	-200,000	0,037	-0,192
-63,607	800,000	-0,012	-0,033
-62,592	-200,000	0,014	-0,048
-61,578	800,000	-0,041	-0,082
-60,563	-66,563	0,150	0,042
-59,549	-200,000	-0,027	0,115
-58,534	30,318	-2,048	-1,232
-57,519	441,276	-1,282	-1,986
-56,505	-200,000	-0,315	-4,426
-55,490	478,428	0,959	1,539
-54,476	800,000	5,095	11,213
-53,461	-200,000	21,146	339,975
-52,446	800,000	759,382	2358,882
-51,432	560,161	1662,330	2845,390
-50,417	73,637	1661,521	1227,210
-49,403	18,051	1534,992	861,330
-48,388	11,951	1458,530	788,916
-47,373	19,352	1449,681	819,620
-46,359	15,455	1438,757	794,880
-45,344	10,254	1434,695	767,839
-44,330	10,171	1432,879	766,443
-43,315	10,195	1430,931	765,486
-42,300	10,169	1429,072	764,335
-41,286	10,189	1427,946	763,799
-40,271	10,204	1426,788	763,219
-39,257	10,186	1425,577	762,456
-38,242	10,235	1424,562	762,115
-37,227	10,226	1423,353	761,397
-36,213	10,218	1421,996	760,601
-35,198	10,251	1420,729	760,050
-34,184	10,267	1419,854	759,626
-33,169	10,209	1418,426	758,558
-32,154	10,249	1417,590	758,271
-31,140	10,269	1416,455	757,726
-30,125	10,274	1415,427	757,170
-29,111	10,237	1414,080	756,245
-28,096	10,223	1413,085	755,618
-27,082	10,224	1411,505	754,747
-26,067	10,185	1410,733	754,121
-25,052	10,196	1409,652	753,565
-24,038	10,212	1408,447	752,970
-23,023	10,161	1407,843	752,375
-22,009	10,160	1406,707	751,734
-20,994	10,150	1405,734	751,136
-19,979	10,205	1404,759	750,846
-18,965	10,159	1403,869	750,124
-17,950	10,130	1402,933	749,459
-16,936	10,143	1402,067	749,026
-15,921	10,082	1401,073	748,180
-14,906	10,075	1400,279	747,697
-13,892	10,139	1399,099	747,332
-12,877	10,082	1398,472	746,706
-11,863	10,081	1397,790	746,306
-10,848	10,074	1396,656	745,637
-9,833	10,037	1395,758	744,959
-8,819	10,005	1394,939	744,342
-7,804	9,988	1394,171	743,826
-6,790	10,019	1392,891	743,256
-5,775	9,999	1391,973	742,643
-4,760	9,989	1390,974	742,035
-3,746	9,969	1390,044	741,418
-2,731	9,949	1389,362	740,930
-1,717	10,007	1388,330	740,621
-0,702	9,962	1386,499	739,409
0,313	14,050	1299,545	711,720
1,327	30,386	690,160	415,008
2,342	46,805	119,511	78,186
3,356	0,475	16,436	8,256
4,371	1,283	3,594	1,815
5,386	-4,532	0,974	0,473
6,400	-200,000	0,146	0,473
7,415	15,080	-0,258	-0,142
8,429	55,572	-0,364	-0,248
9,444	49,653	-0,275	-0,182
10,459	427,639	-0,242	-0,369
11,473	9,636	-0,319	-0,170
12,488	24,256	-0,182	-0,106
13,502	91,994	-0,251	-0,199
14,517	26,086	-0,239	-0,140
15,531	95,860	-0,314	-0,252
16,546	51,410	-0,338	-0,226
17,561	393,538	-0,196	-0,289
18,575	-3,259	-0,048	-0,023
19,590	17,802	-0,410	-0,229
20,604	-90,618	-0,254	-0,051
21,619	157,133	-0,330	-0,322
22,634	19,562	-0,478	-0,270
23,648	184,623	-0,352	-0,368
24,663	84,654	-0,370	-0,285
25,677	4,394	-0,438	-0,225
26,692	82,109	-0,276	-0,211
27,707	46,618	-0,362	-0,236
28,721	42,947	-0,527	-0,338
29,736	180,308	-0,348	-0,359
30,750	36,038	-0,441	-0,272
31,765	153,142	-0,293	-0,282
32,780	-44,558	-0,295	-0,103
33,794	17,024	-0,360	-0,200
34,809	78,196	-0,332	-0,249
35,823	-40,166	-0,485	-0,177
36,838	-31,940	-0,412	-0,161
37,853	-1,975	-0,389	-0,191
38,867	-82,066	-0,511	-0,116
39,882	47,436	-0,459	-0,300
40,896	-72,661	-0,340	-0,088
41,911	220,362	-0,274	-0,309
42,926	46,725	-0,471	-0,307
43,940	119,564	-0,318	-0,277
44,955	120,133	-0,328	-0,286
45,969	186,712	-0,344	-0,361
46,984	800,000	-0,131	-0,256
47,999	109,306	-0,298	-0,251
49,013	-46,255	-0,306	-0,105
50,028	327,661	-0,236	-0,318
51,042	227,937	-0,223	-0,256
52,057	46,529	-0,285	-0,185
53,071	97,028	-0,284	-0,229
54,086	-6,136	-0,412	-0,197
55,101	276,533	-0,223	-0,279
56,115	12,974	-0,270	-0,146
57,130	110,288	-0,357	-0,301
58,144	-1,790	-0,311	-0,153
59,159	71,268	-0,408	-0,296
60,174	93,691	-0,347	-0,275
61,188	43,346	-0,240	-0,153
62,203	110,391	-0,352	-0,296
63,217	-22,682	-0,439	-0,185
64,232	-14,997	-0,341	-0,153
65,247	17,016	-0,285	-0,158
66,261	-42,396	-0,488	-0,174
67,276	167,448	-0,297	-0,297
68,290	14,448	-0,466	-0,254
69,305	-79,871	-0,269	-0,063
70,320	174,475	-0,257	-0,261
71,334	-37,442	-0,287	-0,107
72,349	99,853	-0,329	-0,267
73,363	126,806	-0,205	-0,183
74,378	-41,939	-0,452	-0,161
75,393	63,142	-0,267	-0,187
76,407	-13,758	-0,335	-0,151
77,422	288,529	-0,196	-0,249
78,436	295,639	-0,195	-0,251
79,451	55,299	-0,225	-0,152
80,466	119,611	-0,350	-0,304
81,480	-92,187	-0,268	-0,053
82,495	97,565	-0,323	-0,260
83,509	96,034	-0,280	-0,224
84,524	172,014	-0,317	-0,320
85,539	184,857	-0,249	-0,259
86,553	55,312	-0,288	-0,195
87,568	97,806	-0,345	-0,278
88,582	348,746	-0,230	-0,318
89,597	-122,445	-0,414	-0,047
90,611	-55,861	-0,296	-0,092
91,626	-70,324	-0,343	-0,090
92,641	500,253	-0,141	-0,229
93,655	42,057	-0,337	-0,214
94,670	115,042	-0,208	-0,177
95,684	52,018	-0,230	-0,153
96,699	127,690	-0,245	-0,218
97,714	-72,316	-0,236	-0,061
98,728	78,483	-0,275	-0,206
99,743	18,144	-0,382	-0,213
100,757	-30,809	-0,246	-0,097
101,772	-106,977	-0,248	-0,038
102,787	-52,019	-0,370	-0,120
103,801	222,779	-0,277	-0,312
104,816	-53,549	-0,244	-0,078
105,830	327,996	-0,117	-0,158
106,845	-104,432	-0,276	-0,044
107,860	-3,977	-0,293	-0,141
108,874	80,971	-0,235	-0,177
109,889	74,142	-0,370	-0,271
110,903	102,191	-0,263	-0,214
111,918	-37,717	-0,324	-0,120
112,933	767,886	-0,101	-0,192
113,947	-29,034	-0,160	-0,064
114,962	-57,274	-0,346	-0,106
115,976	22,030	-0,283	-0,161
116,991	117,067	-0,262	-0,225
118,006	-3,861	-0,198	-0,095
119,020	-64,772	-0,266	-0,075
120,035	-106,874	-0,329	-0,050
121,049	-32,467	-0,260	-0,101
122,064	-200,000	-0,032	-0,160
123,079	97,929	-0,221	-0,177
124,093	186,540	-0,194	-0,202
125,108	126,478	-0,237	-0,210
126,122	18,882	-0,265	-0,148
127,137	-105,359	-0,314	-0,049
128,151	-10,922	-0,261	-0,120
129,166	196,375	-0,198	-0,211
130,181	14,907	-0,150	-0,082
131,195	-27,403	-0,279	-0,113
132,210	300,745	-0,281	-0,363
133,224	35,607	-0,339	-0,207
134,239	800,000	-0,129	-0,269
135,254	0,828	-0,196	-0,097
136,268	-31,952	-0,220	-0,086
137,283	-200,000	-0,187	-0,000
138,297	-67,830	-0,353	-0,096
139,312	-200,000	-0,060	-0,221
140,327	134,519	-0,259	-0,234
141,341	720,602	-0,150	-0,278
142,356	-21,439	-0,243	-0,103
143,370	362,246	-0,086	-0,121
144,385	48,381	-0,168	-0,109
145,400	-45,846	-0,317	-0,108
146,414	111,238	-0,250	-0,210
147,429	20,927	-0,341	-0,192
148,443	64,908	-0,241	-0,169
149,458	60,969	-0,212	-0,146
150,473	341,758	-0,167	-0,228
151,487	506,129	-0,142	-0,230
152,502	-21,433	-0,218	-0,092
153,516	-29,713	-0,301	-0,119
154,531	197,870	-0,260	-0,277
155,546	-51,584	-0,198	-0,064
156,560	162,909	-0,181	-0,177
157,575	29,098	-0,241	-0,142
158,589	405,946	-0,114	-0,168
159,604	142,998	-0,256	-0,237
160,619	129,545	-0,242	-0,215
161,633	107,718	-0,165	-0,136
162,648	-103,376	-0,385	-0,063
163,662	-106,820	-0,187	-0,028
164,677	89,362	-0,246	-0,190
165,692	41,690	-0,294	-0,185
166,706	227,012	-0,201	-0,228
167,721	34,940	-0,234	-0,142
168,735	115,391	-0,243	-0,206
169,750	27,484	-0,263	-0,153
170,764	152,165	-0,170	-0,161
171,779	49,255	-0,303	-0,197
172,794	21,176	-0,143	-0,080
173,808	107,114	-0,195	-0,161
174,823	762,101	-0,090	-0,171
175,837	65,010	-0,200	-0,140
176,852	28,923	-0,320	-0,188
177,867	-3,516	-0,233	-0,112
178,881	25,979	-0,335	-0,193
179,896	16,760	-0,303	-0,166
180,910	143,870	-0,222	-0,206
181,925	125,779	-0,186	-0,163
182,940	126,188	-0,240	-0,210
183,954	263,096	-0,270	-0,326
184,969	-8,356	-0,189	-0,088
185,983	-144,093	-0,236	-0,015
186,998	-105,990	-0,179	-0,028
188,013	-6,671	-0,255	-0,120
189,027	-115,345	-0,230	-0,030
190,042	211,511	-0,154	-0,169
191,056	5,251	-0,259	-0,132
192,071	-15,976	-0,200	-0,088
193,086	25,715	-0,062	-0,036
194,100	-108,633	-0,209	0,031
195,115	412,340	-0,179	-0,265
196,129	12,793	-0,227	-0,121
197,144	122,793	-0,299	-0,260
198,159	262,140	-0,173	-0,208
199,173	81,462	-0,144	-0,108
200,188	318,500	-0,157	-0,207
201,202	125,351	-0,096	-0,084
202,217	800,000	-0,101	-0,214
203,232	-43,020	-0,224	-0,078
204,246	162,703	-0,066	-0,064
205,261	212,525	-0,190	-0,208
206,275	-139,933	-0,157	-0,011
207,290	-29,458	-0,161	0,063
208,304	-108,299	-0,198	-0,029
209,319	326,447	-0,091	-0,121
210,334	57,814	-0,169	-0,115
211,348	316,043	-0,106	-0,138
212,363	21,251	-0,281	-0,157
213,377	357,911	-0,246	-0,341
214,392	462,769	-0,128	-0,199
215,407	251,401	-0,142	-0,168
216,421	2,700	-0,202	-0,101
217,436	45,213	-0,226	-0,144
218,450	163,852	-0,192	-0,187
219,465	207,419	-0,130	-0,140
220,480	33,785	-0,174	-0,104
221,494	800,000	-0,049	-0,125
222,509	575,074	-0,162	-0,274
223,523	297,441	-0,168	-0,213
224,538	187,688	-0,191	-0,198
225,553	-18,779	-0,232	-0,099
226,567	114,905	-0,213	-0,180
227,582	18,355	-0,209	-0,115
228,596	71,439	-0,268	-0,192
229,611	135,270	-0,169	-0,152
230,626	-184,521	-0,175	-0,002
231,640	-6,957	-0,194	-0,091
232,655	-130,945	-0,171	-0,016
233,669	-18,007	-0,152	-0,065
234,684	-152,549	-0,219	-0,011
235,699	-39,903	-0,260	-0,093
236,713	6,721	-0,176	-0,090
237,728	-13,748	-0,287	-0,128
238,742	207,777	-0,212	-0,229
239,757	96,484	-0,090	-0,071
240,772	-71,931	-0,211	-0,054
241,786	341,092	-0,161	-0,218
242,801	800,000	-0,057	-0,166
243,815	-17,503	-0,078	-0,034
244,830	-80,773	-0,089	-0,020
245,844	-33,896	-0,208	0,079
246,859	50,807	-0,231	-0,151
247,874	192,096	-0,175	-0,183
248,888	-11,889	-0,284	-0,128
249,903	77,924	-0,142	-0,104
250,917	92,851	-0,268	-0,209
251,932	800,000	-0,069	-0,180
252,947	329,838	-0,138	-0,184
253,961	59,893	-0,270	-0,184
254,976	241,895	-0,128	-0,148
255,990	251,102	-0,113	-0,133
257,005	-120,444	-0,093	-0,011
258,020	-34,583	-0,136	-0,051
259,034	139,209	-0,123	-0,112
260,049	-66,554	-0,092	-0,025
261,063	-23,168	-0,186	-0,077
262,078	241,023	-0,186	-0,214
263,093	35,214	-0,218	-0,131
264,107	37,176	-0,158	-0,097
265,122	362,567	-0,083	-0,116
266,136	-116,633	-0,217	0,027
267,151	-200,000	-0,058	-0,188
268,166	-200,000	-0,061	-0,327
269,180	-16,072	-0,181	-0,079
270,195	174,133	-0,246	-0,245
271,209	-175,417	-0,198	-0,004
272,224	369,157	-0,105	-0,146
273,239	37,830	-0,116	-0,071
274,253	-127,992	-0,202	0,020
275,268	-37,116	-0,320	-0,117
276,282	554,775	-0,169	-0,281
277,297	255,163	-0,137	-0,162
278,312	177,102	-0,160	-0,160
279,326	349,442	-0,081	-0,110
280,341	287,908	-0,162	-0,202
281,355	800,000	-0,059	-0,116
282,370	63,126	-0,133	-0,092
283,384	-46,986	-0,285	-0,095
284,399	-200,000	-0,036	-0,140
285,414	127,843	-0,232	-0,203
286,428	9,618	-0,147	0,076
287,443	21,754	-0,161	-0,090
288,457	188,378	-0,112	-0,115
289,472	478,530	-0,032	-0,050
290,487	-29,666	-0,238	-0,093
291,501	-46,207	-0,278	-0,094
292,516	-26,337	-0,181	-0,073
293,530	331,603	-0,065	-0,086
294,545	16,073	-0,172	-0,093
295,560	-200,000	0,001	-0,014
296,574	50,471	-0,242	-0,157
297,589	61,249	-0,087	-0,059
298,603	28,991	-0,233	-0,135
299,618	255,738	-0,149	-0,176
300,633	-191,055	-0,185	-0,001
301,647	121,280	-0,079	0,067
302,662	-31,563	-0,211	0,081
303,676	800,000	-0,078	-0,206
304,691	-113,026	-0,030	-0,004
305,706	153,587	-0,110	-0,103
306,720	15,510	-0,269	-0,145
307,735	75,950	-0,146	-0,106
308,749	662,865	-0,088	-0,156
309,764	-35,630	-0,043	-0,016
310,779	39,719	-0,216	-0,133
311,793	-200,000	-0,026	-0,168
312,808	363,658	-0,142	-0,197
313,822	-200,000	-0,014	0,091
314,837	77,582	-0,018	-0,013
315,852	-200,000	-0,017	-0,091
316,866	225,039	-0,200	-0,223
317,881	800,000	-0,094	-0,195
318,895	-126,010	-0,208	0,021
319,910	168,628	-0,147	-0,144
320,925	16,216	-0,200	-0,108
321,939	167,831	-0,114	-0,111
322,954	800,000	-0,073	-0,152
323,968	53,005	-0,149	-0,098
324,983	800,000	-0,032	-0,092
325,997	-158,862	-0,171	-0,007
327,012	67,824	-0,256	-0,179
328,027	-62,022	-0,230	-0,065
329,041	209,098	-0,145	-0,155
330,056	169,603	-0,184	-0,180
331,070	-200,000	-0,031	-0,129
332,085	-189,465	-0,185	0,001
333,100	-75,168	-0,089	-0,022
334,114	-13,752	-0,153	-0,067
335,129	-200,000	-0,050	-0,211
336,143	-54,100	-0,168	-0,052
337,158	39,942	0,059	-0,036
338,173	131,614	-0,148	-0,130
339,187	-68,940	-0,130	-0,034
340,202	105,372	-0,096	-0,078
341,216	73,985	-0,137	-0,098
342,231	484,292	-0,144	-0,225
343,246	360,765	-0,103	-0,142
344,260	-12,449	-0,142	-0,063
345,275	192,609	-0,050	-0,051
346,289	-42,154	-0,144	-0,050
347,304	111,174	-0,217	-0,179
348,319	-115,449	-0,174	0,022
349,333	-1,741	-0,156	-0,075
350,348	-8,513	-0,256	-0,117
351,362	800,000	-0,072	-0,145
352,377	800,000	-0,035	-0,085
353,392	800,000	-0,040	-0,109
354,406	-59,766	-0,185	-0,054
355,421	207,765	1310,687	1401,248
356,435	159,841	1470,887	1401,721
