DTS Sentinel unit serial number:	SN410029Multiplexer serial number:	ORYXHardware model number:	OX2-SRSoftware version number:	ORYX F/W v4,00 Oryx Data Collector v3.7.2.0data status	okinstallation	B3 Nyhavnadifferential loss correction	single-endedforward channel	channel 1reverse channel	N/Adate	2023/11/29time	11:42:30forward acquisition time	300,00reverse acquisition time	0,00gamma	499,1914k internal	0,3212k external	0,3212temperature offset calibration	1,0000default loss term (dB/km)	0,3820temperature slope calibration	1,0000multiplexer offset coefficient	1,0000multiplexer slope coefficient	1,0000fibre end	0,00T internal ref (°C)	9,61T ext. ref 1 (°C)	-5,16T ext. ref 2 (°C)	-5,28length (m)	temperature (°C)	Stokes	anti-Stokes-744,400	159,978	-0,219	-0,221
-743,385	800,000	0,076	0,226
-742,371	366,845	-0,112	-0,164
-741,356	-200,000	-0,050	0,177
-740,342	-200,000	-0,088	-0,361
-739,327	-200,000	-0,008	0,330
-738,312	274,160	-0,245	-0,315
-737,298	-200,000	-0,029	0,318
-736,283	110,089	-0,182	-0,159
-735,269	-200,000	0,007	0,237
-734,254	800,000	-0,136	-0,364
-733,239	-38,474	-0,202	0,077
-732,225	121,010	-0,145	-0,131
-731,210	313,109	0,168	0,230
-730,196	670,165	0,013	-0,024
-729,181	146,613	-0,021	-0,020
-728,167	-65,450	-0,044	0,013
-727,152	83,474	0,102	-0,081
-726,137	164,516	-0,102	-0,104
-725,123	-7,625	-0,008	0,004
-724,108	-174,897	-0,060	-0,001
-723,094	800,000	-0,022	0,052
-722,079	76,283	-0,207	-0,158
-721,064	-48,506	-0,123	0,043
-720,050	688,199	-0,062	-0,118
-719,035	5,172	-0,149	-0,079
-718,021	110,353	0,030	-0,026
-717,006	-50,952	-0,028	-0,010
-715,991	-200,000	-0,029	-0,190
-714,977	-19,607	-0,057	0,025
-713,962	-8,071	0,054	-0,026
-712,948	-200,000	0,002	-0,048
-711,933	-200,000	-0,001	0,030
-710,918	137,243	-0,030	0,029
-709,904	180,255	-0,087	0,093
-708,889	-26,612	-0,080	-0,034
-707,875	111,722	0,021	-0,018
-706,860	-200,000	-0,012	0,039
-705,845	120,426	-0,072	-0,064
-704,831	518,102	0,028	0,047
-703,816	71,273	-0,091	0,068
-702,802	-200,000	-0,020	-0,087
-701,787	305,884	-0,151	-0,204
-700,772	-200,000	-0,002	-0,145
-699,758	221,027	0,073	0,085
-698,743	800,000	-0,063	-0,159
-697,729	91,284	-0,085	0,069
-696,714	-200,000	0,001	0,012
-695,699	-48,802	-0,035	0,012
-694,685	110,418	-0,074	-0,065
-693,670	459,504	-0,010	-0,016
-692,656	-36,103	-0,140	0,055
-691,641	800,000	-0,025	0,078
-690,627	-200,000	0,011	0,056
-689,612	-137,749	0,136	0,011
-688,597	367,370	-0,059	-0,086
-687,583	-200,000	0,016	-0,098
-686,568	100,023	-0,071	-0,059
-685,554	272,619	0,007	-0,010
-684,539	550,338	0,021	-0,037
-683,524	-21,312	-0,020	-0,009
-682,510	156,585	0,143	0,143
-681,495	-157,973	-0,116	0,005
-680,481	119,004	-0,088	0,079
-679,466	343,243	-0,030	0,043
-678,451	-59,039	0,071	0,022
-677,437	19,623	0,019	0,011
-676,422	273,409	0,078	0,100
-675,408	63,856	0,141	-0,103
-674,393	112,223	-0,100	0,087
-673,378	-101,708	0,043	0,007
-672,364	622,010	-0,042	0,076
-671,349	-200,000	-0,010	-0,089
-670,335	230,949	-0,050	0,059
-669,320	212,208	0,048	0,054
-668,305	227,765	-0,057	0,067
-667,291	-200,000	-0,001	-0,085
-666,276	-142,105	-0,018	0,001
-665,262	9,689	0,101	-0,055
-664,247	-46,493	-0,100	-0,035
-663,232	5,059	0,040	-0,021
-662,218	-200,000	-0,007	0,113
-661,203	-41,098	-0,030	-0,011
-660,189	800,000	-0,064	-0,141
-659,174	130,501	0,051	0,047
-658,159	-156,231	-0,112	0,005
-657,145	-62,572	-0,066	-0,020
-656,130	-125,050	-0,106	0,012
-655,116	368,330	0,042	-0,061
-654,101	-34,528	-0,138	-0,054
-653,086	752,913	0,032	0,064
-652,072	-66,032	-0,040	0,012
-651,057	-70,606	-0,100	0,027
-650,043	378,134	-0,029	0,042
-649,028	-200,000	0,020	0,066
-648,014	-45,655	0,068	0,024
-646,999	650,603	0,047	-0,088
-645,984	-82,142	0,075	0,018
-644,970	60,021	-0,035	-0,025
-643,955	518,219	-0,066	-0,112
-642,941	340,255	-0,101	-0,143
-641,926	36,183	-0,067	-0,042
-640,911	-200,000	0,005	0,042
-639,897	-200,000	0,006	-0,160
-638,882	-68,437	0,194	-0,054
-637,868	-114,462	-0,025	0,003
-636,853	-200,000	0,013	-0,099
-635,838	474,616	-0,044	-0,072
-634,824	-48,851	-0,104	0,036
-633,809	-200,000	-0,013	0,071
-632,795	120,579	0,077	-0,069
-631,780	230,526	-0,039	-0,046
-630,765	-102,901	-0,082	0,014
-629,751	8,867	-0,109	-0,059
-628,736	-200,000	0,026	-0,091
-627,722	-200,000	0,005	-0,033
-626,707	-200,000	0,028	-0,118
-625,692	665,990	0,088	0,165
-624,678	-200,000	-0,002	0,072
-623,663	-67,127	-0,099	0,028
-622,649	-200,000	-0,027	-0,126
-621,634	-113,194	-0,064	-0,009
-620,619	27,493	-0,013	-0,008
-619,605	-109,698	0,016	0,002
-618,590	-200,000	0,002	-0,084
-617,576	-69,081	0,137	0,038
-616,561	699,794	0,017	0,033
-615,546	48,149	-0,084	-0,057
-614,532	90,327	0,047	-0,038
-613,517	-95,571	-0,092	-0,018
-612,503	84,404	-0,145	-0,114
-611,488	29,472	-0,027	-0,017
-610,474	733,521	-0,060	-0,117
-609,459	40,909	-0,083	0,054
-608,444	800,000	0,009	-0,028
-607,430	800,000	0,057	-0,122
-606,415	728,607	-0,103	-0,200
-605,401	800,000	0,035	0,087
-604,386	800,000	-0,125	0,307
-603,371	800,000	-0,043	0,092
-602,357	109,552	0,031	0,027
-601,342	800,000	-0,051	-0,124
-600,328	-200,000	-0,010	-0,207
-599,313	-200,000	0,014	-0,051
-598,298	255,848	-0,045	-0,056
-597,284	267,775	0,080	0,101
-596,269	414,790	-0,019	0,030
-595,255	29,985	-0,034	0,021
-594,240	-200,000	-0,071	-0,259
-593,225	-200,000	0,000	-0,095
-592,211	17,555	0,041	0,023
-591,196	-120,560	0,071	0,009
-590,182	78,956	-0,058	0,044
-589,167	-200,000	0,005	-0,079
-588,152	517,534	0,059	0,100
-587,138	-98,041	0,014	-0,003
-586,123	423,534	-0,036	-0,056
-585,109	85,563	-0,058	-0,046
-584,094	-1,142	-0,137	-0,069
-583,079	-29,177	0,181	0,074
-582,065	-53,654	0,026	-0,009
-581,050	-200,000	-0,020	0,076
-580,036	800,000	0,016	0,047
-579,021	-65,022	-0,147	-0,042
-578,006	7,936	-0,070	-0,038
-576,992	-200,000	0,019	-0,139
-575,977	-126,632	-0,050	-0,005
-574,963	90,955	0,053	0,042
-573,948	67,497	0,097	0,071
-572,934	-132,713	0,060	-0,005
-571,919	-92,411	-0,088	0,018
-570,904	-17,127	0,019	0,009
-569,890	-44,803	0,081	0,029
-568,875	-67,148	-0,018	-0,005
-567,861	139,612	0,138	0,131
-566,846	-200,000	-0,008	0,116
-565,831	-200,000	0,018	0,127
-564,817	-200,000	0,007	-0,036
-563,802	642,598	0,022	-0,040
-562,788	-200,000	-0,029	-0,150
-561,773	-166,268	0,047	0,001
-560,758	302,042	-0,021	0,028
-559,744	-77,467	0,054	0,013
-558,729	-142,212	-0,092	0,006
-557,715	481,600	-0,078	-0,128
-556,700	722,632	0,039	-0,075
-555,685	-2,111	-0,104	-0,053
-554,671	74,763	-0,027	0,020
-553,656	233,077	0,072	0,085
-552,642	-200,000	-0,016	0,064
-551,627	490,729	-0,038	0,063
-550,612	72,734	0,043	0,032
-549,598	120,695	-0,126	-0,112
-548,583	459,958	-0,074	-0,119
-547,569	800,000	0,032	-0,082
-546,554	-92,827	0,118	0,024
-545,539	49,825	0,111	0,075
-544,525	-146,765	0,094	0,006
-543,510	-200,000	0,019	-0,175
-542,496	-96,582	-0,042	0,008
-541,481	248,619	-0,036	-0,044
-540,466	-27,809	0,012	0,005
-539,452	122,258	0,080	0,072
-538,437	-200,000	0,032	0,143
-537,423	11,871	0,060	0,033
-536,408	588,505	-0,050	0,088
-535,393	246,931	0,064	0,077
-534,379	-84,706	-0,165	-0,037
-533,364	65,500	0,105	0,076
-532,350	796,074	0,034	-0,069
-531,335	217,715	-0,055	0,063
-530,321	641,550	-0,038	-0,070
-529,306	277,407	0,085	-0,109
-528,291	-19,315	0,101	-0,045
-527,277	-200,000	-0,018	-0,112
-526,262	-46,522	0,055	-0,019
-525,248	-15,262	-0,145	-0,066
-524,233	226,904	0,089	0,104
-523,218	209,548	-0,021	-0,024
-522,204	106,732	0,101	0,086
-521,189	605,876	-0,041	0,073
-520,175	-200,000	-0,019	-0,060
-519,160	295,231	-0,038	-0,051
-518,145	800,000	-0,015	-0,033
-517,131	40,412	-0,023	0,015
-516,116	-200,000	0,005	-0,034
-515,102	-200,000	0,044	0,172
-514,087	-200,000	-0,008	-0,130
-513,072	-200,000	-0,020	-0,076
-512,058	-200,000	-0,024	-0,085
-511,043	793,518	0,069	0,137
-510,029	-35,343	-0,060	0,023
-509,014	55,755	-0,051	-0,035
-507,999	133,842	-0,136	0,126
-506,985	-92,802	0,011	0,002
-505,970	-10,408	-0,067	0,032
-504,956	33,656	0,059	-0,037
-503,941	800,000	0,077	-0,168
-502,926	15,065	0,030	-0,017
-501,912	-200,000	-0,006	-0,067
-500,897	2,587	0,072	0,037
-499,883	172,451	0,006	0,007
-498,868	-36,186	0,026	0,010
-497,853	-200,000	-0,015	-0,051
-496,839	-200,000	0,009	-0,217
-495,824	-53,451	0,029	-0,009
-494,810	-200,000	0,020	0,189
-493,795	-200,000	0,002	-0,056
-492,781	-145,408	-0,104	-0,007
-491,766	-56,532	-0,193	-0,061
-490,751	-27,421	-0,093	-0,039
-489,737	-125,946	-0,089	-0,009
-488,722	-82,043	0,042	0,010
-487,708	317,595	0,048	0,066
-486,693	354,820	-0,046	0,066
-485,678	220,709	-0,053	0,061
-484,664	23,928	-0,078	0,046
-483,649	610,692	-0,111	-0,200
-482,635	-200,000	-0,026	0,085
-481,620	-200,000	-0,009	0,063
-480,605	-96,489	0,147	-0,028
-479,591	800,000	0,047	0,147
-478,576	800,000	-0,035	-0,075
-477,562	800,000	0,014	-0,037
-476,547	-200,000	-0,019	0,139
-475,532	-51,273	-0,091	0,030
-474,518	-200,000	0,012	0,068
-473,503	-119,626	0,075	0,009
-472,489	250,666	-0,034	-0,041
-471,474	-200,000	-0,009	0,040
-470,459	42,366	-0,125	-0,081
-469,445	-200,000	-0,005	-0,143
-468,430	137,802	0,098	0,093
-467,416	71,183	-0,133	-0,099
-466,401	-99,684	0,133	0,024
-465,386	-200,000	0,018	-0,100
-464,372	-200,000	0,014	0,131
-463,357	-200,000	0,005	0,081
-462,343	-110,650	0,160	0,023
-461,328	-200,000	-0,033	0,123
-460,313	100,100	-0,059	-0,049
-459,299	70,214	0,032	-0,024
-458,284	-200,000	0,017	0,124
-457,270	416,368	-0,073	0,112
-456,255	-200,000	-0,002	-0,055
-455,241	741,128	-0,023	0,044
-454,226	217,586	0,058	0,067
-453,211	-200,000	-0,011	-0,053
-452,197	-99,567	-0,082	-0,015
-451,182	-200,000	-0,017	-0,063
-450,168	800,000	0,031	0,085
-449,153	198,353	-0,136	-0,149
-448,138	-200,000	0,002	-0,054
-447,124	-169,113	0,154	0,004
-446,109	20,028	-0,093	0,054
-445,095	-200,000	-0,010	-0,055
-444,080	800,000	-0,012	0,030
-443,065	-91,296	-0,044	0,009
-442,051	184,476	0,057	0,061
-441,036	-200,000	0,017	0,068
-440,022	-200,000	-0,009	0,093
-439,007	800,000	0,032	-0,068
-437,992	-123,028	-0,086	0,010
-436,978	-24,679	0,116	0,049
-435,963	-200,000	0,004	-0,222
-434,949	30,045	-0,182	0,111
-433,934	423,870	0,012	-0,018
-432,919	-111,210	0,093	0,014
-431,905	-90,595	-0,136	0,028
-430,890	2,942	-0,061	-0,032
-429,876	-74,756	0,089	-0,023
-428,861	-48,834	-0,074	-0,025
-427,846	-200,000	-0,008	-0,151
-426,832	800,000	0,019	-0,044
-425,817	769,601	-0,052	-0,102
-424,803	-22,139	0,074	0,032
-423,788	-54,551	0,094	0,030
-422,773	800,000	-0,037	0,085
-421,759	52,067	0,135	-0,092
-420,744	-200,000	-0,027	-0,184
-419,730	-200,000	-0,012	-0,067
-418,715	75,057	-0,081	0,061
-417,701	228,533	-0,021	-0,024
-416,686	-88,541	-0,040	0,009
-415,671	143,359	0,060	0,057
-414,657	-65,942	0,152	-0,043
-413,642	639,101	-0,019	-0,035
-412,628	-177,089	0,172	-0,003
-411,613	15,204	0,052	0,029
-410,598	-200,000	-0,005	-0,021
-409,584	800,000	-0,043	0,107
-408,569	755,380	0,043	0,083
-407,555	-200,000	-0,018	0,121
-406,540	166,662	-0,029	0,030
-405,525	1,615	0,074	-0,038
-404,511	-141,756	-0,072	0,005
-403,496	625,124	0,029	-0,053
-402,482	-52,355	0,121	0,040
-401,467	547,993	0,068	0,118
-400,452	37,693	-0,018	-0,011
-399,438	-136,682	-0,106	0,009
-398,423	-105,691	0,080	0,013
-397,409	800,000	0,031	-0,066
-396,394	800,000	0,030	-0,082
-395,379	-200,000	-0,054	0,171
-394,365	-152,525	0,150	0,008
-393,350	-200,000	0,027	0,129
-392,336	-19,474	0,085	-0,037
-391,321	272,607	-0,066	0,083
-390,306	335,361	-0,032	-0,044
-389,292	343,651	0,104	-0,146
-388,277	308,712	-0,063	-0,085
-387,263	-166,387	-0,172	0,005
-386,248	800,000	0,067	0,203
-385,233	-200,000	-0,005	-0,054
-384,219	341,410	-0,121	0,170
-383,204	61,079	-0,049	-0,035
-382,190	503,244	-0,047	-0,078
-381,175	800,000	-0,030	0,081
-380,160	-200,000	0,017	-0,075
-379,146	-71,070	-0,094	0,025
-378,131	-20,204	0,087	0,038
-377,117	230,001	0,088	0,103
-376,102	169,828	0,067	-0,069
-375,088	-200,000	0,019	0,104
-374,073	-200,000	0,030	0,209
-373,058	476,878	0,002	-0,003
-372,044	77,974	0,118	-0,090
-371,029	800,000	0,044	0,107
-370,015	40,516	-0,072	-0,047
-369,000	800,000	0,011	-0,025
-367,985	-132,389	-0,059	-0,005
-366,971	79,762	-0,026	0,020
-365,956	-57,141	0,101	0,032
-364,942	-200,000	-0,024	0,123
-363,927	-106,841	0,101	0,016
-362,912	575,340	-0,054	-0,095
-361,898	-19,740	0,039	0,017
-360,883	105,741	0,074	-0,063
-359,869	15,957	0,079	0,044
-358,854	-27,021	0,067	0,028
-357,839	-64,060	0,066	0,019
-356,825	-26,744	-0,088	-0,037
-355,810	800,000	-0,050	0,156
-354,796	-200,000	0,004	0,030
-353,781	78,502	0,036	0,027
-352,766	-200,000	-0,006	-0,053
-351,752	-82,821	0,044	-0,010
-350,737	476,964	-0,023	0,037
-349,723	628,606	0,072	0,130
-348,708	337,623	0,041	0,057
-347,693	-83,495	0,098	-0,022
-346,679	-200,000	-0,024	-0,103
-345,664	357,720	-0,008	-0,012
-344,650	152,046	0,058	0,057
-343,635	800,000	0,060	0,157
-342,620	800,000	-0,016	-0,035
-341,606	-68,349	-0,062	-0,017
-340,591	-200,000	-0,035	0,123
-339,577	-19,441	-0,058	-0,026
-338,562	75,707	0,153	-0,115
-337,548	226,846	-0,007	-0,008
-336,533	-127,440	0,126	-0,013
-335,518	76,697	0,054	0,041
-334,504	800,000	-0,055	0,134
-333,489	-200,000	-0,002	0,087
-332,475	-200,000	-0,021	-0,097
-331,460	790,097	-0,024	0,047
-330,445	-103,855	0,047	-0,008
-329,431	-200,000	0,001	-0,005
-328,416	-107,526	-0,070	0,011
-327,402	-128,957	0,105	-0,010
-326,387	-200,000	-0,011	0,074
-325,372	391,887	0,020	0,029
-324,358	-200,000	0,000	0,074
-323,343	-200,000	-0,034	0,120
-322,329	316,578	0,075	0,101
-321,314	-146,727	0,100	0,006
-320,299	40,216	0,091	0,058
-319,285	-5,019	0,079	0,039
-318,270	-64,702	-0,135	-0,039
-317,256	428,188	0,050	0,077
-316,241	-41,974	0,062	0,023
-315,226	544,997	0,068	0,117
-314,212	73,308	0,049	0,037
-313,197	800,000	0,049	0,097
-312,183	204,522	-0,047	-0,052
-311,168	-200,000	-0,039	0,144
-310,153	-144,015	0,069	-0,005
-309,139	280,188	-0,017	-0,022
-308,124	-66,999	-0,039	0,011
-307,110	-200,000	0,019	-0,131
-306,095	190,018	-0,018	0,019
-305,080	800,000	0,024	-0,069
-304,066	379,648	-0,105	-0,153
-303,051	254,371	-0,110	-0,135
-302,037	-90,216	-0,097	0,020
-301,022	-13,169	0,134	0,062
-300,008	-200,000	-0,012	0,123
-298,993	186,034	0,021	-0,022
-297,978	156,579	0,014	0,013
-296,964	-200,000	-0,015	0,082
-295,949	550,972	-0,006	0,010
-294,935	-200,000	0,009	-0,044
-293,920	-200,000	-0,002	0,012
-292,905	-50,542	0,073	0,025
-291,891	374,887	-0,064	0,093
-290,876	-31,560	-0,018	0,007
-289,862	74,553	0,075	-0,056
-288,847	800,000	0,030	-0,074
-287,832	-57,965	-0,201	-0,062
-286,818	-56,065	0,101	-0,032
-285,803	171,659	-0,050	0,051
-284,789	-200,000	0,007	0,083
-283,774	148,092	0,113	-0,109
-282,759	34,093	-0,070	-0,043
-281,745	-122,537	0,096	-0,011
-280,730	197,106	-0,036	0,039
-279,716	116,430	0,041	-0,036
-278,701	-200,000	0,007	0,078
-277,686	-68,396	-0,084	-0,023
-276,672	800,000	0,045	0,100
-275,657	-200,000	0,013	0,048
-274,643	800,000	0,053	-0,156
-273,628	-6,477	-0,069	0,033
-272,613	135,566	0,136	0,126
-271,599	18,420	0,033	0,019
-270,584	800,000	0,021	0,049
-269,570	-46,181	0,112	-0,039
-268,555	-200,000	0,021	-0,097
-267,540	17,607	-0,155	-0,087
-266,526	-35,493	-0,060	-0,023
-265,511	800,000	0,068	-0,139
-264,497	-121,431	-0,101	-0,012
-263,482	800,000	-0,017	-0,052
-262,467	-2,953	0,123	-0,061
-261,453	-200,000	0,020	-0,079
-260,438	-200,000	0,003	-0,092
-259,424	75,239	0,093	-0,070
-258,409	33,891	-0,014	-0,009
-257,395	-200,000	-0,017	0,180
-256,380	-15,180	0,083	0,038
-255,365	233,862	0,094	0,110
-254,351	-167,466	0,069	-0,002
-253,336	-200,000	0,002	-0,100
-252,322	-200,000	-0,000	-0,072
-251,307	-108,755	-0,057	0,009
-250,292	-27,959	-0,130	0,053
-249,278	315,760	0,069	0,093
-248,263	-113,313	0,143	0,020
-247,249	-18,658	0,074	-0,033
-246,234	81,249	-0,031	-0,024
-245,219	-27,221	-0,013	-0,005
-244,205	-14,476	-0,101	-0,046
-243,190	-200,000	0,048	-0,226
-242,176	800,000	0,057	0,150
-241,161	-200,000	0,000	-0,013
-240,146	-200,000	-0,029	0,103
-239,132	-40,482	0,051	0,019
-238,117	-200,000	-0,017	-0,079
-237,103	-52,493	-0,161	-0,053
-236,088	196,859	0,041	-0,044
-235,073	368,937	-0,068	-0,098
-234,059	48,788	0,117	0,078
-233,044	-19,597	-0,132	0,058
-232,030	56,356	-0,148	-0,102
-231,015	690,244	0,043	-0,081
-230,000	112,028	-0,170	-0,146
-228,986	19,532	0,166	0,095
-227,971	41,452	0,108	0,069
-226,957	163,409	-0,065	0,065
-225,942	437,354	-0,023	-0,036
-224,927	25,741	0,038	-0,022
-223,913	-15,847	-0,037	0,017
-222,898	146,784	0,060	0,058
-221,884	-101,378	-0,129	0,022
-220,869	-99,004	0,133	0,024
-219,855	-200,000	0,031	-0,098
-218,840	800,000	-0,020	0,059
-217,825	640,575	-0,053	0,095
-216,811	-98,457	-0,086	-0,015
-215,796	327,138	-0,014	-0,019
-214,782	800,000	-0,020	-0,058
-213,767	139,338	0,073	0,068
-212,752	-200,000	0,017	0,098
-211,738	345,960	0,044	0,062
-210,723	29,896	0,053	0,032
-209,709	-63,600	-0,076	-0,022
-208,694	50,703	-0,068	-0,046
-207,679	314,596	0,023	-0,031
-206,665	285,373	0,039	-0,050
-205,650	800,000	-0,040	-0,102
-204,636	46,770	-0,075	0,050
-203,621	-200,000	-0,004	0,040
-202,606	-36,937	-0,110	-0,042
-201,592	88,982	-0,017	-0,013
-200,577	472,264	0,044	-0,070
-199,563	-89,937	-0,109	0,022
-198,548	-200,000	0,045	0,160
-197,533	-129,084	0,139	0,014
-196,519	-200,000	-0,026	0,206
-195,504	-138,282	0,114	-0,009
-194,490	309,752	0,026	-0,034
-193,475	-128,141	-0,009	-0,001
-192,460	-200,000	0,004	-0,057
-191,446	800,000	0,041	-0,085
-190,431	-200,000	0,042	0,160
-189,417	-122,870	-0,095	-0,011
-188,402	800,000	0,026	0,077
-187,387	-25,698	-0,045	0,019
-186,373	-200,000	0,046	-0,232
-185,358	112,118	-0,060	-0,052
-184,344	800,000	0,030	0,063
-183,329	-63,944	-0,086	0,025
-182,315	-29,240	-0,045	0,018
-181,300	-16,900	-0,110	0,049
-180,285	-121,850	-0,043	0,005
-179,271	398,320	-0,057	-0,084
-178,256	-7,806	0,125	0,060
-177,242	-200,000	-0,012	0,041
-176,227	-200,000	0,102	0,000
-175,212	-41,277	-0,100	0,037
-174,198	426,663	-0,016	-0,024
-173,183	-2,770	-0,171	-0,085
-172,169	214,206	-0,097	-0,109
-171,154	7,873	-0,088	0,046
-170,139	800,000	0,029	0,059
-169,125	608,667	-0,046	0,082
-168,110	93,837	0,051	0,041
-167,096	-45,762	-0,097	0,034
-166,081	62,535	-0,091	-0,065
-165,066	-69,611	-0,091	0,025
-164,052	-200,000	0,018	-0,058
-163,037	-200,000	-0,014	-0,074
-162,023	113,723	-0,037	-0,032
-161,008	800,000	0,018	-0,044
-159,993	109,490	-0,119	0,101
-158,979	644,104	0,091	-0,166
-157,964	528,568	-0,099	-0,166
-156,950	101,320	0,081	0,067
-155,935	-11,352	0,081	0,038
-154,920	-45,119	0,031	-0,011
-153,906	800,000	0,036	0,096
-152,891	352,676	-0,071	0,099
-151,877	800,000	-0,101	-0,212
-150,862	-109,501	-0,196	0,029
-149,847	340,479	-0,060	-0,083
-148,833	590,442	-0,017	0,031
-147,818	-200,000	-0,001	0,026
-146,804	389,578	-0,036	0,053
-145,789	413,892	0,108	-0,163
-144,775	-200,000	0,032	0,104
-143,760	295,839	0,055	-0,072
-142,745	-200,000	0,001	0,026
-141,731	100,860	0,126	0,103
-140,716	-200,000	-0,022	0,079
-139,702	41,506	0,027	-0,017
-138,687	800,000	-0,016	-0,034
-137,672	139,686	-0,196	0,183
-136,658	87,258	-0,118	0,092
-135,643	322,705	0,026	-0,036
-134,629	184,829	-0,062	-0,065
-133,614	-64,520	-0,106	0,030
-132,599	800,000	0,070	0,157
-131,585	-163,476	0,062	0,002
-130,570	181,906	0,090	0,094
-129,556	153,068	-0,072	-0,070
-128,541	-200,000	0,015	0,047
-127,526	27,553	-0,115	0,068
-126,512	5,426	-0,047	-0,024
-125,497	73,849	-0,030	0,022
-124,483	633,897	-0,050	0,090
-123,468	800,000	-0,064	-0,126
-122,453	329,180	-0,083	0,114
-121,439	2,922	0,042	-0,021
-120,424	122,351	0,079	-0,070
-119,410	179,476	0,086	0,089
-118,395	-200,000	0,020	0,071
-117,380	-58,811	0,087	-0,026
-116,366	-130,179	0,150	-0,014
-115,351	-85,828	-0,171	-0,037
-114,337	-144,508	-0,119	0,008
-113,322	-200,000	0,006	-0,211
-112,307	-200,000	0,015	0,086
-111,293	144,700	0,044	0,041
-110,278	555,756	-0,027	-0,046
-109,264	-89,937	-0,154	-0,031
-108,249	247,247	-0,047	0,057
-107,234	-62,109	-0,146	-0,043
-106,220	569,435	-0,028	0,048
-105,205	-200,000	-0,025	0,098
-104,191	184,084	-0,034	0,036
-103,176	158,336	-0,048	0,047
-102,162	102,680	0,080	0,067
-101,147	-200,000	-0,005	-0,075
-100,132	195,870	-0,059	-0,064
-99,118	-44,287	-0,029	0,010
-98,103	800,000	0,029	0,077
-97,089	409,130	-0,035	-0,053
-96,074	550,438	0,064	0,109
-95,059	-94,220	-0,043	0,008
-94,045	106,645	-0,055	0,046
-93,030	165,094	0,066	-0,066
-92,016	-0,334	0,072	-0,036
-91,001	623,372	-0,075	-0,134
-89,986	-2,461	0,048	0,024
-88,972	-68,935	0,077	0,021
-87,957	233,288	0,026	0,031
-86,943	580,117	-0,040	-0,070
-85,928	-200,000	0,011	-0,094
-84,913	-48,801	-0,080	-0,027
-83,899	163,657	0,019	0,019
-82,884	-61,896	-0,031	0,009
-81,870	99,386	-0,135	-0,110
-80,855	800,000	0,032	-0,074
-79,840	53,726	-0,125	0,084
-78,826	800,000	0,029	-0,074
-77,811	-43,956	-0,130	-0,046
-76,797	159,029	0,122	0,120
-75,782	-74,696	0,084	0,021
-74,767	-200,000	0,009	-0,050
-73,753	332,495	0,033	0,045
-72,738	-49,522	0,056	0,019
-71,724	-54,961	-0,147	-0,046
-70,709	262,519	0,030	-0,037
-69,694	15,868	-0,066	-0,036
-68,680	-104,291	0,188	0,031
-67,665	4,289	0,055	-0,028
-66,651	-143,029	-0,053	0,004
-65,636	-200,000	0,014	0,065
-64,622	144,511	-0,139	0,131
-63,607	800,000	0,030	-0,061
-62,592	236,833	0,024	-0,028
-61,578	-42,655	0,047	0,017
-60,563	95,930	0,027	-0,021
-59,549	16,086	-0,122	0,068
-58,534	40,761	-1,953	-1,241
-57,519	427,476	-1,316	-2,011
-56,505	-200,000	-0,388	-4,456
-55,490	366,386	0,980	1,399
-54,476	800,000	5,096	11,362
-53,461	-200,000	21,692	344,365
-52,446	800,000	763,666	2356,568
-51,432	552,192	1663,245	2829,614
-50,417	72,187	1659,075	1217,621
-49,403	17,410	1532,757	856,548
-48,388	11,468	1456,188	785,058
-47,373	19,399	1447,972	818,611
-46,359	15,007	1436,776	791,395
-45,344	9,785	1432,503	764,184
-44,330	9,664	1431,015	762,784
-43,315	9,645	1429,129	761,659
-42,300	9,619	1427,465	760,617
-41,286	9,680	1426,087	760,141
-40,271	9,665	1424,667	759,281
-39,257	9,651	1423,653	758,645
-38,242	9,735	1422,416	758,353
-37,227	9,671	1421,672	757,624
-36,213	9,663	1420,081	756,709
-35,198	9,700	1419,102	756,331
-34,184	9,726	1418,140	755,911
-33,169	9,649	1416,662	754,731
-32,154	9,696	1415,675	754,397
-31,140	9,686	1414,316	753,596
-30,125	9,744	1413,348	753,322
-29,111	9,741	1412,011	752,565
-28,096	9,705	1410,923	751,787
-27,082	9,660	1409,539	750,810
-26,067	9,606	1408,825	750,145
-25,052	9,658	1407,653	749,736
-24,038	9,656	1406,656	749,166
-23,023	9,653	1405,958	748,749
-22,009	9,620	1404,831	747,968
-20,994	9,628	1403,719	747,381
-19,979	9,639	1402,788	746,908
-18,965	9,602	1402,002	746,288
-17,950	9,604	1400,766	745,608
-16,936	9,554	1400,168	745,028
-15,921	9,545	1399,182	744,435
-14,906	9,574	1398,291	744,063
-13,892	9,607	1397,348	743,687
-12,877	9,563	1396,580	743,041
-11,863	9,503	1395,728	742,280
-10,848	9,539	1394,719	741,883
-9,833	9,459	1393,885	741,038
-8,819	9,458	1392,945	740,506
-7,804	9,455	1392,038	739,980
-6,790	9,460	1391,012	739,426
-5,775	9,455	1390,069	738,874
-4,760	9,464	1389,020	738,329
-3,746	9,451	1388,165	737,785
-2,731	9,480	1387,436	737,501
-1,717	9,456	1386,434	736,831
-0,702	9,463	1384,607	735,861
0,313	13,462	1296,819	707,472
1,327	29,386	687,523	411,047
2,342	45,557	118,873	77,269
3,356	1,587	16,492	8,342
4,371	-5,693	3,599	1,733
5,386	-30,787	1,043	0,414
6,400	800,000	0,212	0,462
7,415	258,072	-0,239	-0,290
8,429	49,282	-0,232	-0,153
9,444	55,272	-0,391	-0,266
10,459	9,169	-0,281	-0,149
11,473	55,084	-0,297	-0,202
12,488	-13,087	-0,176	-0,080
13,502	30,731	-0,351	-0,211
14,517	55,169	-0,420	-0,285
15,531	127,769	-0,385	-0,344
16,546	46,650	-0,346	-0,226
17,561	107,607	-0,256	-0,214
18,575	84,781	-0,140	-0,108
19,590	172,401	-0,313	-0,317
20,604	-2,442	-0,177	-0,087
21,619	124,497	-0,453	-0,401
22,634	107,460	-0,431	-0,360
23,648	204,647	-0,359	-0,393
24,663	112,561	-0,325	-0,277
25,677	65,577	-0,337	-0,240
26,692	30,270	-0,316	-0,189
27,707	105,464	-0,300	-0,249
28,721	38,661	-0,463	-0,290
29,736	324,432	-0,321	-0,432
30,750	285,828	-0,284	-0,361
31,765	135,053	-0,396	-0,362
32,780	267,994	-0,332	-0,410
33,794	249,641	-0,289	-0,345
34,809	-36,569	-0,393	-0,148
35,823	156,990	-0,319	-0,310
36,838	46,296	-0,320	-0,208
37,853	163,130	-0,351	-0,347
38,867	113,059	-0,398	-0,339
39,882	28,686	-0,422	-0,250
40,896	197,696	-0,236	-0,253
41,911	2,557	-0,383	-0,194
42,926	-124,509	-0,430	-0,046
43,940	54,768	-0,419	-0,283
44,955	52,315	-0,442	-0,295
45,969	111,809	-0,407	-0,345
46,984	150,750	-0,310	-0,296
47,999	193,659	-0,249	-0,265
49,013	61,689	-0,334	-0,233
50,028	91,585	-0,352	-0,277
51,042	39,983	-0,504	-0,317
52,057	158,232	-0,320	-0,312
53,071	247,783	-0,297	-0,353
54,086	-3,981	-0,298	-0,144
55,101	26,926	-0,364	-0,214
56,115	51,785	-0,401	-0,267
57,130	-11,089	-0,393	-0,181
58,144	160,813	-0,346	-0,339
59,159	20,003	-0,378	-0,213
60,174	-4,564	-0,418	-0,202
61,188	130,992	-0,341	-0,307
62,203	143,346	-0,298	-0,278
63,217	44,825	-0,329	-0,212
64,232	60,860	-0,364	-0,253
65,247	219,664	-0,283	-0,318
66,261	308,218	-0,201	-0,264
67,276	76,268	-0,521	-0,387
68,290	31,426	-0,362	-0,218
69,305	-43,026	-0,350	-0,124
70,320	-80,318	-0,246	-0,057
71,334	615,058	-0,177	-0,312
72,349	71,237	-0,360	-0,261
73,363	-9,235	-0,393	-0,183
74,378	242,418	-0,302	-0,355
75,393	-16,433	-0,380	-0,168
76,407	26,682	-0,193	-0,113
77,422	-95,323	-0,352	-0,066
78,436	43,793	-0,399	-0,255
79,451	69,214	-0,368	-0,265
80,466	92,425	-0,321	-0,253
81,480	469,875	-0,161	-0,254
82,495	15,773	-0,347	-0,191
83,509	-32,010	-0,280	-0,109
84,524	-88,160	-0,469	-0,098
85,539	23,978	-0,309	-0,178
86,553	1,077	-0,261	-0,131
87,568	127,208	-0,307	-0,273
88,582	103,140	-0,238	-0,195
89,597	40,941	-0,356	-0,224
90,611	800,000	-0,115	-0,280
91,626	-0,118	-0,280	-0,139
92,641	190,887	-0,225	-0,237
93,655	5,473	-0,382	-0,197
94,670	18,402	-0,241	-0,134
95,684	3,152	-0,405	-0,205
96,699	-101,215	-0,322	-0,055
97,714	-40,134	-0,203	-0,074
98,728	-30,984	-0,231	-0,091
99,743	-115,356	-0,262	-0,034
100,757	-71,664	-0,126	-0,033
101,772	25,930	-0,357	-0,208
102,787	159,829	-0,300	-0,292
103,801	717,444	-0,150	-0,280
104,816	31,747	-0,171	-0,103
105,830	-11,776	-0,297	-0,136
106,845	40,316	-0,278	-0,174
107,860	25,926	-0,321	-0,187
108,874	75,961	-0,218	-0,161
109,889	7,786	-0,384	-0,200
110,903	-16,814	-0,291	-0,128
111,918	-114,291	-0,248	-0,033
112,933	-82,512	-0,234	-0,053
113,947	-14,192	-0,325	-0,146
114,962	-102,570	-0,176	-0,029
115,976	516,602	-0,169	-0,278
116,991	92,433	-0,264	-0,208
118,006	319,179	-0,188	-0,249
119,020	37,133	-0,262	-0,161
120,035	48,082	-0,174	-0,114
121,049	58,407	-0,241	-0,165
122,064	800,000	-0,139	-0,276
123,079	36,452	-0,292	-0,179
124,093	-5,617	-0,221	-0,105
125,108	23,379	-0,227	-0,130
126,122	47,157	-0,334	-0,216
127,137	88,484	-0,259	-0,200
128,151	634,945	-0,101	-0,180
129,166	-54,810	-0,293	-0,092
130,181	-18,270	-0,332	-0,144
131,195	-41,532	-0,314	-0,112
132,210	-1,619	-0,324	-0,158
133,224	67,194	-0,277	-0,196
134,239	49,618	-0,258	-0,169
135,254	-2,622	-0,270	-0,131
136,268	27,373	-0,191	-0,111
137,283	-7,254	-0,245	-0,115
138,297	145,339	-0,166	-0,155
139,312	196,058	-0,279	-0,296
140,327	148,324	-0,323	-0,304
141,341	507,595	-0,083	-0,134
142,356	460,713	-0,166	-0,258
143,370	261,908	-0,240	-0,290
144,385	166,709	-0,185	-0,183
145,400	287,909	-0,183	-0,231
146,414	71,731	-0,279	-0,202
147,429	-26,574	-0,246	-0,100
148,443	291,290	-0,235	-0,299
149,458	-102,745	-0,308	-0,051
150,473	-125,410	-0,248	-0,026
151,487	12,591	-0,136	-0,073
152,502	49,288	-0,311	-0,203
153,516	44,916	-0,347	-0,222
154,531	55,296	-0,183	-0,123
155,546	239,878	-0,252	-0,292
156,560	216,085	-0,220	-0,244
157,575	-140,122	-0,208	-0,015
158,589	112,173	-0,180	-0,151
159,604	-89,483	-0,274	-0,056
160,619	97,672	-0,316	-0,253
161,633	118,546	-0,238	-0,205
162,648	90,730	-0,251	-0,195
163,662	42,037	-0,211	-0,133
164,677	371,983	-0,121	-0,171
165,692	7,677	-0,280	-0,145
166,706	52,552	-0,283	-0,187
167,721	511,112	-0,223	-0,361
168,735	267,674	-0,288	-0,352
169,750	-29,270	-0,264	-0,104
170,764	159,064	-0,158	-0,152
171,779	-4,310	-0,252	-0,121
172,794	614,726	-0,135	-0,235
173,808	47,377	-0,295	-0,190
174,823	101,234	-0,222	-0,180
175,837	800,000	-0,131	-0,308
176,852	-35,906	-0,300	-0,112
177,867	-141,084	-0,253	0,018
178,881	-102,066	-0,163	-0,027
179,896	-16,800	-0,261	-0,114
180,910	-18,238	-0,278	-0,120
181,925	36,539	-0,155	-0,095
182,940	-84,207	-0,285	0,062
183,954	-49,857	-0,297	-0,097
184,969	412,774	-0,176	-0,261
185,983	340,511	-0,131	-0,178
186,998	-9,910	-0,192	-0,088
188,013	-200,000	-0,069	-0,290
189,027	98,309	-0,175	-0,140
190,042	-107,972	-0,249	0,037
191,056	-69,665	-0,275	-0,072
192,071	357,435	-0,191	-0,265
193,086	128,311	-0,250	-0,220
194,100	-25,880	-0,288	-0,117
195,115	416,539	-0,067	-0,100
196,129	61,596	-0,126	-0,087
197,144	321,810	-0,278	-0,368
198,159	-200,000	0,023	-0,144
199,173	693,281	-0,109	-0,199
200,188	466,743	-0,092	-0,144
201,202	106,803	-0,302	-0,248
202,217	-33,000	-0,171	-0,065
203,232	38,625	-0,191	-0,118
204,246	-20,205	-0,279	-0,119
205,261	329,559	-0,125	-0,167
206,275	69,282	-0,246	-0,175
207,290	800,000	-0,085	-0,184
208,304	75,879	-0,230	-0,168
209,319	-65,767	-0,187	-0,052
210,334	44,791	-0,243	-0,154
211,348	-3,619	-0,250	-0,120
212,363	-48,497	-0,301	-0,100
213,377	-200,000	-0,068	-0,297
214,392	73,765	-0,224	-0,163
215,407	-105,705	-0,090	0,014
216,421	-174,065	-0,103	-0,002
217,436	172,222	-0,213	-0,212
218,450	-57,406	-0,202	-0,061
219,465	-134,327	-0,272	-0,023
220,480	116,055	-0,349	-0,295
221,494	800,000	-0,038	-0,078
222,509	164,481	-0,148	-0,144
223,523	-42,939	-0,270	-0,094
224,538	68,602	-0,192	-0,136
225,553	-35,750	-0,232	-0,086
226,567	285,954	-0,214	-0,267
227,582	208,614	-0,279	-0,302
228,596	800,000	-0,067	-0,139
229,611	90,088	-0,195	-0,151
230,626	67,234	-0,062	0,044
231,640	489,966	-0,142	-0,225
232,655	61,462	-0,335	-0,230
233,669	7,363	-0,301	-0,155
234,684	34,717	-0,168	-0,101
235,699	87,236	-0,108	-0,082
236,713	225,511	-0,131	-0,146
237,728	164,749	-0,148	-0,145
238,742	220,034	-0,147	-0,162
239,757	-118,553	-0,250	-0,030
240,772	-36,922	-0,296	-0,109
241,786	-200,000	-0,036	-0,179
242,801	110,004	-0,214	-0,177
243,815	129,660	-0,247	-0,218
244,830	-133,687	-0,175	-0,015
245,844	-20,077	-0,165	-0,070
246,859	83,709	-0,207	-0,156
247,874	38,354	-0,317	-0,195
248,888	60,172	-0,189	-0,129
249,903	52,389	-0,294	-0,194
250,917	-39,052	-0,237	-0,086
251,932	175,361	-0,147	-0,147
252,947	-51,767	-0,315	-0,101
253,961	347,770	-0,214	-0,292
254,976	112,918	-0,181	-0,151
255,990	800,000	-0,092	-0,192
257,005	54,876	-0,067	-0,044
258,020	-200,000	-0,050	-0,153
259,034	404,571	-0,131	-0,192
260,049	140,235	-0,164	-0,150
261,063	-200,000	0,004	-0,060
262,078	-44,795	-0,179	-0,061
263,093	84,824	-0,233	-0,176
264,107	142,967	-0,128	-0,118
265,122	39,483	-0,112	-0,069
266,136	-42,759	-0,158	-0,055
267,151	-22,960	-0,150	-0,062
268,166	4,654	-0,314	-0,158
269,180	98,055	-0,243	-0,192
270,195	800,000	-0,063	-0,146
271,209	562,572	-0,116	-0,193
272,224	-58,914	-0,220	-0,065
273,239	484,530	-0,086	-0,135
274,253	375,681	-0,155	-0,219
275,268	-144,748	-0,201	0,013
276,282	180,366	-0,199	-0,201
277,297	-62,889	-0,198	-0,056
278,312	466,503	-0,112	-0,173
279,326	-198,399	-0,167	-0,001
280,341	781,333	-0,113	-0,214
281,355	126,620	-0,179	-0,156
282,370	44,344	-0,184	-0,116
283,384	715,371	-0,135	-0,248
284,399	-76,824	-0,192	-0,046
285,414	398,969	-0,172	-0,248
286,428	-11,619	-0,093	-0,042
287,443	-172,845	-0,232	-0,005
288,457	-38,323	-0,211	-0,076
289,472	75,931	-0,238	-0,173
290,487	320,869	-0,075	-0,098
291,501	-31,401	-0,212	-0,082
292,516	283,898	-0,058	-0,072
293,530	-200,000	-0,060	-0,298
294,545	-19,314	-0,243	-0,103
295,560	591,954	-0,113	-0,193
296,574	23,036	-0,128	-0,072
297,589	29,358	-0,202	-0,117
298,603	663,525	-0,130	-0,232
299,618	800,000	-0,097	-0,197
300,633	-110,066	-0,123	-0,018
301,647	-11,843	-0,094	-0,042
302,662	-25,783	-0,117	-0,047
303,676	25,379	-0,123	-0,070
304,691	-29,300	-0,259	-0,102
305,706	203,753	-0,174	-0,185
306,720	692,474	-0,133	-0,241
307,735	305,257	-0,063	-0,081
308,749	-200,000	-0,036	-0,111
309,764	800,000	-0,054	-0,119
310,779	292,010	-0,131	-0,164
311,793	112,666	-0,223	-0,185
312,808	-29,890	-0,237	-0,092
313,822	20,616	-0,211	-0,117
314,837	368,260	-0,020	0,029
315,852	800,000	-0,032	-0,091
316,866	-200,000	-0,014	-0,133
317,881	-109,233	-0,048	0,007
318,895	10,064	-0,157	-0,081
319,910	-155,943	-0,179	0,008
320,925	165,549	-0,217	-0,210
321,939	132,341	-0,079	-0,070
322,954	344,609	-0,068	-0,092
323,968	15,456	-0,118	0,064
324,983	-113,929	-0,213	-0,028
325,997	173,010	-0,148	-0,146
327,012	-9,298	-0,125	-0,057
328,027	49,663	-0,157	-0,101
329,041	-71,671	-0,219	-0,056
330,056	59,989	-0,152	-0,102
331,070	-70,985	-0,072	-0,018
332,085	-87,425	-0,137	-0,028
333,100	-114,243	-0,198	-0,026
334,114	-123,675	-0,127	0,014
335,129	121,137	-0,214	-0,182
336,143	-26,598	-0,139	-0,056
337,158	-200,000	0,010	-0,173
338,173	-9,556	-0,110	-0,050
339,187	-67,638	-0,308	-0,082
340,202	-170,021	-0,163	0,004
341,216	340,755	-0,195	-0,261
342,231	23,190	-0,219	-0,123
343,246	359,101	-0,135	-0,185
344,260	248,666	-0,107	-0,125
345,275	-200,000	-0,005	-0,140
346,289	62,448	-0,098	0,067
347,304	-13,248	-0,222	-0,098
348,319	-64,060	-0,296	-0,082
349,333	115,945	-0,160	-0,134
350,348	-39,763	-0,196	0,070
351,362	-22,511	-0,088	-0,036
352,377	-103,462	-0,136	0,022
353,392	-134,440	-0,089	0,007
354,406	1,299	-0,108	-0,053
355,421	207,364	1306,761	1395,388
356,435	159,522	1466,481	1395,881
