DTS Sentinel unit serial number:	SN410029Multiplexer serial number:	ORYXHardware model number:	OX2-SRSoftware version number:	ORYX F/W v4,00 Oryx Data Collector v3.7.2.0data status	okinstallation	B3 Nyhavnadifferential loss correction	single-endedforward channel	channel 1reverse channel	N/Adate	2023/12/02time	01:37:30forward acquisition time	300,00reverse acquisition time	0,00gamma	499,1914k internal	0,3195k external	0,3195temperature offset calibration	1,0000default loss term (dB/km)	0,3820temperature slope calibration	1,0000multiplexer offset coefficient	1,0000multiplexer slope coefficient	1,0000fibre end	0,00T internal ref (°C)	16,53T ext. ref 1 (°C)	1,89T ext. ref 2 (°C)	1,88length (m)	temperature (°C)	Stokes	anti-Stokes-744,400	294,415	-0,247	-0,330
-743,385	800,000	0,136	0,387
-742,371	-5,866	-0,247	-0,123
-741,356	-200,000	0,083	0,372
-740,342	56,165	-0,190	-0,134
-739,327	-200,000	-0,011	0,311
-738,312	147,365	-0,295	-0,290
-737,298	-200,000	-0,008	0,225
-736,283	311,533	-0,185	-0,254
-735,269	-200,000	-0,016	0,370
-734,254	-37,662	-0,324	-0,125
-733,239	-200,000	-0,040	0,204
-732,225	83,482	-0,138	-0,110
-731,210	128,424	0,130	0,121
-730,196	31,977	-0,042	-0,027
-729,181	-160,932	0,090	-0,003
-728,167	13,630	-0,096	0,054
-727,152	456,501	-0,022	0,036
-726,137	183,640	0,053	-0,057
-725,123	-130,976	-0,068	-0,007
-724,108	3,573	0,093	-0,049
-723,094	16,489	0,108	-0,062
-722,079	-69,198	-0,117	-0,033
-721,064	-76,081	-0,058	0,015
-720,050	800,000	0,004	-0,011
-719,035	-68,350	-0,137	0,038
-718,021	-200,000	-0,008	0,081
-717,006	-200,000	0,010	-0,089
-715,991	72,093	-0,079	-0,060
-714,977	-42,039	-0,041	-0,015
-713,962	-89,393	-0,053	-0,011
-712,948	-200,000	-0,020	0,131
-711,933	388,958	-0,025	0,038
-710,918	133,027	0,042	-0,040
-709,904	192,055	0,005	-0,005
-708,889	61,288	-0,069	-0,050
-707,875	-200,000	0,001	-0,117
-706,860	-200,000	-0,012	-0,046
-705,845	8,605	-0,066	-0,036
-704,831	-34,452	-0,096	0,038
-703,816	800,000	-0,052	-0,127
-702,802	800,000	0,065	-0,143
-701,787	80,366	0,070	-0,055
-700,772	-200,000	-0,036	-0,138
-699,758	128,112	-0,061	0,057
-698,743	82,775	-0,064	0,050
-697,729	-144,267	0,172	-0,011
-696,714	237,488	-0,056	0,068
-695,699	-168,398	0,115	-0,003
-694,685	32,898	0,084	0,053
-693,670	-200,000	-0,028	-0,151
-692,656	800,000	-0,021	0,042
-691,641	-200,000	-0,153	0,000
-690,627	96,464	0,023	-0,019
-689,612	27,684	0,041	0,025
-688,597	800,000	0,038	0,108
-687,583	800,000	-0,016	0,046
-686,568	26,958	-0,030	-0,018
-685,554	-35,224	0,105	-0,041
-684,539	-200,000	0,027	0,102
-683,524	176,289	0,120	-0,127
-682,510	-2,988	0,078	0,039
-681,495	139,135	-0,133	-0,127
-680,481	-121,431	-0,113	-0,014
-679,466	296,385	-0,076	-0,102
-678,451	800,000	-0,013	0,034
-677,437	800,000	-0,063	0,129
-676,422	6,427	-0,120	-0,065
-675,408	73,146	-0,048	0,036
-674,393	800,000	-0,025	0,068
-673,378	-91,579	-0,050	0,010
-672,364	208,705	0,097	-0,111
-671,349	800,000	0,015	-0,046
-670,335	-74,268	0,120	-0,031
-669,320	64,055	0,119	-0,087
-668,305	-56,273	0,128	-0,041
-667,291	-200,000	0,026	0,094
-666,276	-200,000	-0,040	-0,162
-665,262	-21,210	-0,156	-0,069
-664,247	-200,000	0,060	-0,201
-663,232	-0,932	-0,098	0,050
-662,218	-200,000	0,010	0,043
-661,203	-200,000	0,021	0,087
-660,189	-200,000	0,000	0,055
-659,174	-37,074	-0,180	-0,070
-658,159	90,633	0,029	-0,024
-657,145	-26,079	-0,150	0,064
-656,130	-89,105	-0,052	-0,011
-655,116	-30,382	-0,072	0,030
-654,101	446,834	0,008	0,013
-653,086	-134,473	0,090	-0,008
-652,072	-200,000	0,006	0,027
-651,057	136,627	0,043	-0,041
-650,043	-98,406	0,028	0,005
-649,028	87,664	0,058	0,046
-648,014	101,311	0,029	0,025
-646,999	-184,448	0,158	0,002
-645,984	120,130	-0,110	0,099
-644,970	-81,536	0,024	0,006
-643,955	62,899	-0,110	-0,080
-642,941	-200,000	0,024	-0,104
-641,926	-83,629	-0,060	-0,014
-640,911	106,402	0,059	0,051
-639,897	163,084	0,061	-0,062
-638,882	75,248	0,074	-0,056
-637,868	-64,259	0,021	-0,006
-636,853	-200,000	0,003	0,124
-635,838	116,952	-0,024	0,022
-634,824	-15,602	-0,098	-0,045
-633,809	-200,000	-0,003	-0,029
-632,795	80,695	0,030	0,023
-631,780	46,291	-0,051	0,034
-630,765	-39,338	-0,107	0,040
-629,751	168,587	0,049	0,051
-628,736	-47,450	-0,061	0,021
-627,722	69,923	0,096	-0,071
-626,707	90,118	0,033	-0,027
-625,692	-200,000	-0,017	-0,086
-624,678	442,470	0,041	0,065
-623,663	-95,729	0,114	-0,022
-622,649	-157,524	-0,021	-0,001
-621,634	-200,000	0,010	-0,076
-620,619	315,554	-0,046	-0,063
-619,605	-81,811	-0,071	-0,017
-618,590	91,053	-0,046	0,038
-617,576	-179,442	0,100	-0,002
-616,561	800,000	-0,033	0,097
-615,546	125,935	-0,047	-0,043
-614,532	-200,000	0,001	-0,121
-613,517	-200,000	-0,014	-0,125
-612,503	800,000	0,017	-0,041
-611,488	32,578	0,057	0,035
-610,474	-125,913	-0,057	0,006
-609,459	-76,492	-0,051	0,013
-608,444	171,396	-0,031	0,032
-607,430	171,706	0,071	0,074
-606,415	-93,054	-0,100	-0,020
-605,401	458,968	0,094	-0,153
-604,386	69,443	0,029	-0,022
-603,371	-200,000	0,001	0,075
-602,357	-109,972	0,134	-0,020
-601,342	-28,267	0,044	0,019
-600,328	800,000	-0,087	0,184
-599,313	800,000	-0,058	-0,117
-598,298	-108,135	-0,106	0,017
-597,284	800,000	0,050	0,131
-596,269	-68,196	-0,087	-0,024
-595,255	488,259	0,026	0,044
-594,240	-200,000	0,026	-0,141
-593,225	-115,156	-0,101	-0,014
-592,211	-80,726	0,042	-0,010
-591,196	800,000	-0,039	-0,101
-590,182	-158,722	-0,039	0,002
-589,167	-200,000	-0,005	0,040
-588,152	135,850	-0,092	-0,087
-587,138	29,697	-0,025	-0,015
-586,123	-120,192	0,081	0,010
-585,109	800,000	-0,031	-0,062
-584,094	800,000	-0,020	0,049
-583,079	-22,332	-0,175	0,077
-582,065	800,000	-0,083	0,194
-581,050	-23,539	-0,043	-0,019
-580,036	-200,000	0,026	-0,124
-579,021	170,344	0,060	0,062
-578,006	-35,831	0,034	0,013
-576,992	-200,000	-0,016	0,098
-575,977	800,000	0,011	0,024
-574,963	-80,683	0,142	-0,034
-573,948	-119,128	0,136	-0,017
-572,934	336,596	-0,104	-0,147
-571,919	258,700	0,010	-0,013
-570,904	-200,000	0,002	-0,025
-569,890	800,000	-0,036	-0,073
-568,875	-60,258	0,095	0,029
-567,861	184,886	0,093	0,100
-566,846	-200,000	-0,009	0,057
-565,831	212,341	-0,034	-0,039
-564,817	-200,000	-0,016	0,095
-563,802	-37,264	-0,078	-0,030
-562,788	-16,141	0,136	-0,062
-561,773	4,166	0,040	0,021
-560,758	-200,000	0,014	0,045
-559,744	-144,535	-0,041	0,003
-558,729	-108,440	-0,105	0,016
-557,715	122,319	-0,046	0,042
-556,700	349,076	-0,036	-0,052
-555,685	-93,426	-0,129	-0,026
-554,671	-24,076	-0,024	0,010
-553,656	-200,000	0,004	0,013
-552,642	656,730	-0,038	0,071
-551,627	84,001	-0,093	-0,074
-550,612	-92,142	0,112	-0,023
-549,598	-50,831	-0,155	-0,052
-548,583	-60,814	0,104	0,032
-547,569	-140,031	-0,068	-0,005
-546,554	-183,997	0,132	-0,002
-545,539	-114,458	0,099	0,014
-544,525	-6,030	0,059	-0,029
-543,510	1,456	-0,087	0,045
-542,496	-3,226	-0,090	-0,045
-541,481	-5,420	0,127	-0,063
-540,466	217,090	-0,028	0,032
-539,452	-200,000	-0,003	0,091
-538,437	-200,000	-0,002	0,151
-537,423	-74,793	-0,005	0,001
-536,408	126,790	0,018	0,017
-535,393	800,000	-0,052	-0,138
-534,379	765,150	0,045	-0,089
-533,364	-200,000	0,010	0,042
-532,350	-200,000	0,026	0,138
-531,335	161,513	0,082	0,082
-530,321	130,826	-0,035	-0,033
-529,306	160,623	0,045	0,046
-528,291	-135,903	-0,056	0,005
-527,277	800,000	-0,054	-0,123
-526,262	-121,197	-0,113	-0,014
-525,248	17,448	-0,039	0,022
-524,233	-121,075	0,132	-0,016
-523,218	-200,000	0,036	0,135
-522,204	800,000	-0,015	-0,041
-521,189	800,000	-0,014	0,028
-520,175	800,000	0,016	-0,034
-519,160	90,908	0,014	-0,011
-518,145	-116,943	-0,161	-0,021
-517,131	-200,000	0,009	0,050
-516,116	-54,148	0,065	-0,021
-515,102	511,841	0,037	-0,062
-514,087	277,003	-0,052	-0,067
-513,072	-86,786	-0,071	0,016
-512,058	-54,657	0,115	0,037
-511,043	681,728	-0,062	0,118
-510,029	51,402	0,079	-0,054
-509,014	-200,000	-0,002	0,051
-507,999	-182,096	0,134	-0,002
-506,985	498,394	0,029	0,048
-505,970	408,822	-0,084	-0,129
-504,956	48,307	-0,020	0,013
-503,941	-98,569	-0,074	-0,013
-502,926	-54,748	0,068	-0,022
-501,912	12,746	-0,055	-0,030
-500,897	112,400	-0,093	-0,081
-499,883	6,496	-0,054	-0,029
-498,868	-200,000	0,003	-0,090
-497,853	774,994	0,052	0,104
-496,839	-120,971	0,053	0,006
-495,824	-200,000	0,002	0,014
-494,810	-51,186	0,072	0,024
-493,795	365,755	-0,026	0,038
-492,781	296,839	-0,055	0,074
-491,766	-200,000	-0,025	-0,123
-490,751	800,000	0,023	-0,073
-489,737	-107,225	0,131	-0,021
-488,722	-64,823	0,072	-0,021
-487,708	-200,000	0,018	-0,131
-486,693	18,985	-0,080	-0,046
-485,678	587,298	0,043	0,076
-484,664	-71,583	-0,084	-0,022
-483,649	-200,000	0,022	0,085
-482,635	-43,596	-0,135	-0,049
-481,620	26,377	0,063	0,038
-480,605	-0,195	-0,079	0,040
-479,591	-74,100	-0,021	0,005
-478,576	-200,000	0,006	0,069
-477,562	49,462	0,120	-0,082
-476,547	472,665	-0,057	-0,093
-475,532	9,270	-0,060	-0,033
-474,518	59,616	0,029	-0,020
-473,503	127,363	0,081	-0,074
-472,489	265,967	0,120	-0,151
-471,474	86,160	0,057	0,045
-470,459	-200,000	-0,050	-0,191
-469,445	-124,845	0,092	-0,010
-468,430	-200,000	-0,007	0,048
-467,416	-31,950	0,003	0,001
-466,401	-34,618	0,106	0,042
-465,386	-99,208	0,081	0,015
-464,372	23,385	-0,112	-0,066
-463,357	247,927	-0,042	-0,051
-462,343	-66,870	0,072	0,020
-461,328	-178,759	0,056	-0,001
-460,313	-60,056	0,024	0,007
-459,299	-173,929	0,003	0,000
-458,284	180,506	0,028	-0,030
-457,270	-200,000	-0,002	-0,231
-456,255	617,834	-0,082	-0,149
-455,241	-37,242	0,135	0,052
-454,226	88,782	-0,062	-0,049
-453,211	-12,065	-0,053	-0,025
-452,197	-200,000	0,007	0,133
-451,182	-200,000	-0,015	0,055
-450,168	31,898	-0,135	0,084
-449,153	-167,786	-0,129	-0,004
-448,138	-153,631	-0,101	0,005
-447,124	790,202	0,041	-0,082
-446,109	800,000	-0,026	0,076
-445,095	340,227	0,063	-0,089
-444,080	552,659	0,036	0,063
-443,065	-1,475	0,029	0,015
-442,051	515,739	-0,067	-0,114
-441,036	800,000	-0,002	-0,005
-440,022	800,000	-0,062	-0,126
-439,007	69,287	-0,029	-0,021
-437,992	153,984	0,081	0,080
-436,978	-111,125	0,074	-0,011
-435,963	-122,596	0,013	0,001
-434,949	-200,000	-0,013	-0,043
-433,934	207,479	0,023	-0,025
-432,919	103,295	-0,052	-0,044
-431,905	-89,338	0,076	0,016
-430,890	714,205	0,034	-0,066
-429,876	-124,382	-0,080	0,009
-428,861	-200,000	0,000	0,071
-427,846	-200,000	0,013	-0,160
-426,832	-200,000	-0,002	0,062
-425,817	-82,625	-0,090	-0,021
-424,803	132,837	-0,085	0,079
-423,788	800,000	0,036	0,102
-422,773	737,212	0,062	0,119
-421,759	137,722	-0,034	0,032
-420,744	-200,000	0,034	0,163
-419,730	-21,073	0,043	-0,019
-418,715	281,123	0,026	0,033
-417,701	-200,000	-0,015	-0,141
-416,686	-200,000	-0,005	0,027
-415,671	-18,218	0,101	-0,045
-414,657	389,541	0,098	0,146
-413,642	394,755	-0,054	-0,081
-412,628	216,350	0,078	-0,089
-411,613	364,791	-0,110	-0,160
-410,598	-200,000	-0,020	-0,078
-409,584	-54,972	0,076	0,024
-408,569	-200,000	0,027	0,171
-407,555	-200,000	0,001	0,090
-406,540	-142,666	0,138	0,010
-405,525	800,000	-0,023	-0,060
-404,511	-200,000	0,014	-0,074
-403,496	-200,000	-0,032	-0,106
-402,482	-57,022	0,035	-0,011
-401,467	11,123	-0,111	-0,061
-400,452	34,902	0,041	-0,026
-399,438	242,309	0,087	0,105
-398,423	-101,151	-0,103	0,018
-397,409	177,569	0,061	-0,064
-396,394	383,081	-0,041	-0,060
-395,379	274,231	-0,023	0,029
-394,365	10,552	0,104	-0,057
-393,350	-16,904	0,071	-0,032
-392,336	161,594	-0,074	0,074
-391,321	-200,000	-0,013	0,114
-390,306	38,265	-0,057	0,037
-389,292	-200,000	0,043	-0,175
-388,277	142,957	0,080	-0,076
-387,263	-108,847	0,128	0,019
-386,248	-5,276	0,028	-0,014
-385,233	198,385	-0,052	-0,057
-384,219	102,591	-0,071	0,059
-383,204	-200,000	-0,007	-0,208
-382,190	800,000	0,056	-0,130
-381,175	-200,000	0,034	-0,126
-380,160	-200,000	0,008	-0,094
-379,146	-200,000	-0,010	0,034
-378,131	-200,000	0,031	0,229
-377,117	-178,177	0,034	-0,001
-376,102	128,037	-0,117	-0,107
-375,088	794,156	0,021	-0,043
-374,073	105,454	0,153	-0,130
-373,058	11,482	0,081	0,045
-372,044	52,403	0,096	0,066
-371,029	-200,000	0,014	-0,069
-370,015	23,435	-0,153	-0,090
-369,000	448,929	0,086	-0,137
-367,985	-115,156	-0,134	0,018
-366,971	72,598	0,129	0,096
-365,956	-105,685	-0,042	0,007
-364,942	-17,050	0,182	0,082
-363,927	411,042	0,057	0,087
-362,912	162,606	-0,068	-0,069
-361,898	277,279	-0,083	-0,107
-360,883	-200,000	0,016	-0,103
-359,869	-200,000	-0,003	0,094
-358,854	-200,000	-0,011	0,098
-357,839	137,530	0,087	-0,082
-356,825	-100,195	0,020	-0,003
-355,810	14,204	-0,070	0,039
-354,796	800,000	-0,031	-0,069
-353,781	38,680	-0,073	0,046
-352,766	98,204	0,041	-0,034
-351,752	-74,002	-0,108	0,028
-350,737	-200,000	-0,016	0,129
-349,723	-200,000	-0,012	0,058
-348,708	371,724	-0,049	0,071
-347,693	-200,000	0,009	-0,076
-346,679	54,233	0,145	-0,100
-345,664	800,000	-0,036	0,079
-344,650	72,483	0,053	0,039
-343,635	-200,000	0,015	-0,082
-342,620	-200,000	0,046	0,226
-341,606	281,315	-0,053	0,068
-340,591	-184,093	0,147	0,002
-339,577	-200,000	0,012	0,059
-338,562	218,252	-0,039	-0,045
-337,548	-200,000	0,008	0,069
-336,533	-135,101	0,125	0,011
-335,518	634,913	0,041	0,076
-334,504	800,000	0,016	0,041
-333,489	492,452	0,065	-0,107
-332,475	693,025	-0,130	-0,245
-331,460	77,726	0,014	-0,011
-330,445	-59,456	-0,078	0,024
-329,431	-2,002	-0,075	0,038
-328,416	-42,192	0,154	-0,056
-327,402	-200,000	0,017	-0,134
-326,387	68,127	-0,038	-0,028
-325,372	136,336	0,078	-0,072
-324,358	800,000	-0,032	0,095
-323,343	-32,445	-0,238	-0,095
-322,329	-139,429	-0,074	-0,006
-321,314	-67,809	0,074	0,021
-320,299	-94,486	0,063	0,012
-319,285	800,000	-0,035	-0,074
-318,270	8,402	0,113	-0,061
-317,256	495,124	-0,063	-0,104
-316,241	75,724	-0,118	-0,090
-315,226	-121,447	-0,112	-0,013
-314,212	-200,000	-0,001	0,040
-313,197	-39,076	-0,051	-0,019
-312,183	-56,604	-0,048	0,015
-311,168	-200,000	-0,020	-0,069
-310,153	800,000	0,014	-0,035
-309,139	66,832	-0,027	-0,020
-308,124	152,402	0,061	0,060
-307,110	123,745	-0,039	-0,035
-306,095	-124,151	0,159	-0,018
-305,080	-200,000	-0,004	0,089
-304,066	-82,580	-0,026	0,006
-303,051	536,972	-0,028	0,048
-302,037	-200,000	0,005	-0,066
-301,022	-103,879	0,062	-0,010
-300,008	-144,207	0,094	-0,006
-298,993	80,061	-0,057	-0,044
-297,978	-53,167	0,114	-0,037
-296,964	-41,073	0,095	0,035
-295,949	-0,869	-0,216	0,109
-294,935	20,968	0,121	-0,070
-293,920	192,628	-0,047	0,051
-292,905	287,222	-0,027	0,036
-291,891	-18,166	0,059	0,027
-290,876	153,483	-0,021	-0,021
-289,862	52,778	0,043	-0,029
-288,847	800,000	-0,056	0,113
-287,832	-26,909	0,088	0,037
-286,818	800,000	-0,082	0,183
-285,803	718,514	0,021	-0,041
-284,789	-200,000	-0,005	0,079
-283,774	182,224	0,060	-0,064
-282,759	-200,000	0,024	0,142
-281,745	295,657	-0,045	0,060
-280,730	206,711	-0,057	0,064
-279,716	80,312	-0,059	-0,045
-278,701	-157,665	-0,102	-0,004
-277,686	-91,651	0,107	0,022
-276,672	-200,000	-0,006	-0,045
-275,657	403,435	0,010	0,015
-274,643	395,976	0,049	-0,073
-273,628	-200,000	0,025	-0,200
-272,613	-200,000	0,003	-0,018
-271,599	-200,000	-0,026	0,186
-270,584	164,209	0,121	0,122
-269,570	800,000	-0,040	0,090
-268,555	-85,197	0,060	-0,013
-267,540	-147,950	-0,101	0,006
-266,526	155,548	-0,020	-0,020
-265,511	351,925	0,073	-0,104
-264,497	800,000	0,043	0,102
-263,482	800,000	-0,030	0,093
-262,467	-43,801	0,087	0,031
-261,453	-200,000	0,019	-0,070
-260,438	106,356	-0,049	0,042
-259,424	236,091	-0,084	-0,100
-258,409	-200,000	0,001	-0,016
-257,395	99,665	0,065	0,054
-256,380	476,058	-0,005	-0,008
-255,365	-200,000	0,036	0,120
-254,351	-30,246	-0,106	-0,043
-253,336	-95,667	-0,014	0,003
-252,322	-85,331	0,062	-0,014
-251,307	-200,000	-0,000	0,081
-250,292	-200,000	-0,017	0,062
-249,278	203,403	-0,106	0,117
-248,263	64,600	-0,202	0,146
-247,249	-200,000	0,014	0,063
-246,234	-200,000	0,001	0,127
-245,219	-52,656	-0,144	0,047
-244,205	-186,639	-0,136	-0,001
-243,190	225,572	-0,061	0,071
-242,176	800,000	-0,019	-0,044
-241,161	-37,467	-0,082	0,031
-240,146	-200,000	-0,019	-0,122
-239,132	800,000	0,021	-0,056
-238,117	-200,000	-0,002	-0,071
-237,103	45,488	0,080	0,052
-236,088	601,443	-0,026	-0,046
-235,073	314,231	0,029	-0,039
-234,059	800,000	0,024	0,056
-233,044	-105,226	-0,041	0,007
-232,030	16,188	0,012	-0,007
-231,015	311,461	0,027	-0,036
-230,000	800,000	0,029	-0,069
-228,986	-200,000	-0,016	0,072
-227,971	-200,000	-0,016	-0,085
-226,957	-176,813	0,078	0,001
-225,942	-58,462	-0,084	0,026
-224,927	370,607	-0,039	0,056
-223,913	-200,000	-0,010	0,045
-222,898	7,714	-0,133	0,071
-221,884	791,916	-0,030	0,060
-220,869	-200,000	-0,010	0,094
-219,855	143,295	0,051	0,048
-218,840	282,572	0,033	0,042
-217,825	157,086	-0,128	0,126
-216,811	-200,000	0,006	-0,049
-215,796	800,000	0,023	-0,065
-214,782	-191,108	-0,103	0,001
-213,767	-1,739	0,021	0,011
-212,752	-200,000	-0,006	0,086
-211,738	800,000	0,024	-0,071
-210,723	-57,111	0,132	-0,041
-209,709	164,742	-0,074	-0,075
-208,694	800,000	0,013	-0,031
-207,679	-200,000	-0,015	-0,054
-206,665	800,000	-0,053	0,153
-205,650	-52,034	-0,031	0,010
-204,636	-78,752	0,104	-0,025
-203,621	-200,000	0,004	-0,073
-202,606	93,925	-0,060	-0,048
-201,592	-122,395	-0,040	-0,005
-200,577	729,610	-0,024	-0,046
-199,563	800,000	0,011	-0,026
-198,548	222,280	0,079	-0,091
-197,533	663,835	-0,028	0,051
-196,519	800,000	0,048	0,148
-195,504	800,000	0,006	-0,019
-194,490	-120,047	-0,121	0,015
-193,475	-10,625	0,032	0,015
-192,460	49,320	-0,103	0,069
-191,446	-200,000	-0,015	0,056
-190,431	-139,034	0,146	-0,011
-189,417	-82,005	0,036	-0,008
-188,402	800,000	-0,066	0,180
-187,387	-55,764	0,083	0,026
-186,373	-200,000	-0,008	0,119
-185,358	16,724	-0,115	-0,065
-184,344	22,714	0,061	0,035
-183,329	33,506	0,092	0,057
-182,315	-128,527	0,149	0,015
-181,300	-200,000	-0,017	0,096
-180,285	800,000	0,009	0,022
-179,271	-200,000	-0,017	0,075
-178,256	190,339	-0,062	-0,066
-177,242	59,874	-0,126	0,088
-176,227	-76,312	0,072	-0,018
-175,212	-200,000	0,010	0,077
-174,198	-57,836	0,060	-0,019
-173,183	598,366	0,053	-0,094
-172,169	248,594	0,042	0,051
-171,154	-112,497	0,062	0,009
-170,139	-200,000	-0,007	0,058
-169,125	800,000	0,028	-0,056
-168,110	-200,000	0,014	0,052
-167,096	412,405	-0,052	0,079
-166,081	-139,797	-0,105	-0,008
-165,066	-200,000	0,013	-0,080
-164,052	800,000	0,073	-0,155
-163,037	51,951	-0,043	0,029
-162,023	-200,000	0,013	-0,087
-161,008	-125,186	0,066	0,007
-159,993	800,000	-0,060	0,130
-158,979	-77,788	-0,041	0,010
-157,964	-85,120	-0,028	-0,006
-156,950	379,228	-0,031	-0,046
-155,935	-200,000	0,033	0,128
-154,920	800,000	0,026	0,076
-153,906	-91,604	-0,160	-0,032
-152,891	199,871	0,101	0,110
-151,877	-43,677	-0,008	-0,003
-150,862	201,848	-0,046	-0,051
-149,847	-200,000	-0,003	-0,191
-148,833	800,000	0,009	-0,022
-147,818	-96,189	0,089	0,017
-146,804	115,270	-0,066	-0,057
-145,789	-130,264	0,148	0,014
-144,775	-200,000	-0,039	0,134
-143,760	-200,000	-0,044	0,142
-142,745	17,604	-0,046	-0,026
-141,731	-68,633	-0,037	-0,010
-140,716	23,320	0,135	0,079
-139,702	-40,883	0,108	-0,039
-138,687	145,679	0,015	-0,015
-137,672	65,706	-0,074	-0,053
-136,658	230,166	-0,042	0,049
-135,643	734,512	0,071	-0,137
-134,629	345,241	0,030	0,043
-133,614	91,597	0,029	-0,024
-132,599	800,000	0,030	0,066
-131,585	198,750	0,118	0,129
-130,570	-65,829	-0,129	0,036
-129,556	24,859	0,056	0,033
-128,541	51,694	-0,081	-0,055
-127,526	-200,000	0,001	0,052
-126,512	-94,133	-0,162	-0,031
-125,497	800,000	-0,047	-0,106
-124,483	-19,002	-0,078	-0,034
-123,468	-200,000	0,016	0,074
-122,453	-200,000	0,002	-0,010
-121,439	680,829	0,009	0,016
-120,424	-102,029	-0,127	-0,022
-119,410	12,770	0,153	0,084
-118,395	-15,535	-0,079	-0,036
-117,380	793,951	-0,030	0,059
-116,366	-200,000	0,019	0,062
-115,351	-200,000	0,014	-0,123
-114,337	-200,000	0,011	-0,081
-113,322	-10,392	0,148	0,069
-112,307	435,121	-0,047	0,073
-111,293	695,219	0,044	0,082
-110,278	-138,238	0,143	-0,011
-109,264	-200,000	0,005	-0,025
-108,249	215,384	0,045	-0,051
-107,234	64,686	0,116	0,083
-106,220	-96,000	-0,196	-0,037
-105,205	280,720	-0,062	-0,079
-104,191	542,568	0,058	0,099
-103,176	-200,000	-0,002	0,064
-102,162	-200,000	-0,006	0,150
-101,147	-200,000	0,021	0,079
-100,132	777,334	-0,039	0,075
-99,118	-200,000	0,006	-0,111
-98,103	418,271	0,030	-0,045
-97,089	800,000	-0,052	0,104
-96,074	800,000	0,034	0,071
-95,059	140,849	0,048	0,045
-94,045	109,433	-0,116	0,099
-93,030	60,591	-0,097	-0,068
-92,016	-200,000	0,004	-0,111
-91,001	-179,597	0,278	0,004
-89,986	-153,251	0,224	-0,011
-88,972	-200,000	0,011	-0,068
-87,957	-200,000	-0,032	0,145
-86,943	-49,907	0,073	0,024
-85,928	-130,735	-0,255	-0,024
-84,913	-129,371	0,129	-0,013
-83,899	-200,000	0,002	-0,048
-82,884	-200,000	0,002	-0,054
-81,870	-200,000	-0,008	0,149
-80,855	463,043	-0,077	0,123
-79,840	599,805	0,037	-0,065
-78,826	800,000	-0,044	-0,120
-77,811	11,446	-0,037	0,020
-76,797	260,042	-0,079	-0,097
-75,782	432,905	-0,078	0,121
-74,767	200,166	-0,060	0,065
-73,753	141,287	0,088	0,083
-72,738	-200,000	-0,026	0,097
-71,724	800,000	-0,043	-0,088
-70,709	5,784	0,087	0,046
-69,694	-139,298	-0,129	0,010
-68,680	-200,000	0,024	-0,148
-67,665	800,000	-0,030	0,081
-66,651	14,480	-0,063	0,035
-65,636	312,502	-0,094	-0,126
-64,622	22,324	-0,119	0,069
-63,607	496,322	-0,090	-0,148
-62,592	-62,521	-0,132	-0,039
-61,578	-200,000	-0,010	-0,124
-60,563	67,407	0,037	0,027
-59,549	-200,000	0,020	0,137
-58,534	-91,070	-1,419	-0,286
-57,519	376,302	-1,532	-2,224
-56,505	-200,000	-0,543	-4,364
-55,490	86,744	0,936	0,732
-54,476	800,000	4,783	11,229
-53,461	-200,000	17,215	268,833
-52,446	800,000	715,232	2180,262
-51,432	551,508	1629,789	2785,800
-50,417	81,248	1655,258	1267,151
-49,403	24,351	1529,766	894,495
-48,388	18,356	1452,954	820,732
-47,373	18,450	1442,595	815,295
-46,359	18,202	1433,345	808,858
-45,344	16,669	1428,762	798,962
-44,330	16,603	1426,753	797,497
-43,315	16,606	1425,067	796,538
-42,300	16,617	1423,483	795,672
-41,286	16,700	1422,314	795,377
-40,271	16,649	1420,839	794,280
-39,257	16,642	1419,664	793,560
-38,242	16,657	1418,327	792,851
-37,227	16,636	1417,393	792,200
-36,213	16,654	1415,946	791,446
-35,198	16,623	1414,776	790,612
-34,184	16,654	1413,790	790,177
-33,169	16,621	1412,404	789,216
-32,154	16,622	1411,721	788,809
-31,140	16,655	1410,167	788,060
-30,125	16,664	1409,099	787,478
-29,111	16,659	1407,860	786,729
-28,096	16,553	1407,092	785,772
-27,082	16,577	1405,640	785,042
-26,067	16,594	1404,532	784,475
-25,052	16,586	1403,782	783,986
-24,038	16,542	1402,557	783,065
-23,023	16,571	1401,331	782,486
-22,009	16,504	1400,496	781,674
-20,994	16,463	1399,681	780,997
-19,979	16,501	1398,796	780,651
-18,965	16,487	1397,829	780,016
-17,950	16,488	1396,669	779,342
-16,936	16,499	1395,812	778,882
-15,921	16,485	1394,536	778,077
-14,906	16,487	1393,662	777,566
-13,892	16,449	1392,827	776,895
-12,877	16,460	1391,991	776,447
-11,863	16,505	1390,951	776,046
-10,848	16,467	1390,082	775,354
-9,833	16,459	1389,124	774,753
-8,819	16,402	1388,314	774,009
-7,804	16,411	1387,226	773,410
-6,790	16,360	1386,302	772,632
-5,775	16,376	1385,040	771,969
-4,760	16,336	1384,439	771,421
-3,746	16,286	1383,870	770,841
-2,731	16,313	1382,912	770,404
-1,717	16,351	1381,804	769,928
-0,702	16,283	1380,134	768,658
0,313	20,058	1302,025	742,556
1,327	36,622	707,907	442,165
2,342	56,058	125,887	86,471
3,356	2,266	16,677	8,518
4,371	6,752	3,084	1,622
5,386	-65,804	0,570	0,161
6,400	-168,161	0,005	-0,000
7,415	-64,619	-0,215	-0,061
8,429	126,196	-0,278	-0,249
9,444	40,887	-0,373	-0,238
10,459	57,379	-0,243	-0,168
11,473	138,282	-0,208	-0,193
12,488	-78,568	-0,364	-0,087
13,502	800,000	-0,083	-0,232
14,517	76,880	-0,408	-0,306
15,531	93,532	-0,343	-0,275
16,546	269,291	-0,255	-0,317
17,561	194,067	-0,413	-0,444
18,575	-111,183	-0,351	-0,050
19,590	115,567	-0,233	-0,201
20,604	-72,914	-0,364	-0,094
21,619	13,826	-0,537	-0,295
22,634	16,717	-0,424	-0,236
23,648	14,189	-0,429	-0,236
24,663	73,849	-0,432	-0,320
25,677	251,081	-0,241	-0,291
26,692	212,653	-0,336	-0,376
27,707	25,909	-0,368	-0,216
28,721	132,494	-0,273	-0,249
29,736	41,797	-0,527	-0,337
30,750	85,114	-0,299	-0,232
31,765	64,681	-0,382	-0,272
32,780	-73,165	-0,258	-0,066
33,794	-20,235	-0,339	-0,147
34,809	67,527	-0,310	-0,224
35,823	-11,753	-0,359	-0,166
36,838	800,000	-0,176	-0,396
37,853	19,858	-0,464	-0,264
38,867	137,662	-0,319	-0,295
39,882	140,648	-0,301	-0,281
40,896	129,020	-0,271	-0,245
41,911	165,007	-0,300	-0,300
42,926	58,316	-0,355	-0,245
43,940	413,937	-0,265	-0,400
44,955	197,747	-0,396	-0,427
45,969	37,088	-0,365	-0,228
46,984	118,591	-0,304	-0,265
47,999	-4,933	-0,217	-0,105
49,013	35,611	-0,376	-0,233
50,028	432,695	-0,202	-0,310
51,042	37,805	-0,402	-0,252
52,057	231,468	-0,256	-0,297
53,071	73,041	-0,363	-0,267
54,086	628,144	-0,192	-0,344
55,101	272,149	-0,306	-0,382
56,115	82,238	-0,277	-0,212
57,130	40,605	-0,383	-0,243
58,144	-1,151	-0,439	-0,218
59,159	22,011	-0,376	-0,216
60,174	15,703	-0,397	-0,220
61,188	50,649	-0,320	-0,213
62,203	56,501	-0,318	-0,218
63,217	183,559	-0,333	-0,347
64,232	26,190	-0,267	-0,157
65,247	61,177	-0,338	-0,236
66,261	42,926	-0,341	-0,218
67,276	35,653	-0,366	-0,226
68,290	74,716	-0,265	-0,197
69,305	22,676	-0,380	-0,219
70,320	113,861	-0,273	-0,234
71,334	-51,390	-0,425	-0,139
72,349	57,398	-0,365	-0,251
73,363	102,012	-0,335	-0,276
74,378	170,477	-0,310	-0,313
75,393	-0,570	-0,207	-0,103
76,407	19,549	-0,225	-0,127
77,422	-161,524	-0,368	-0,013
78,436	-91,320	-0,310	-0,062
79,451	-6,235	-0,320	-0,153
80,466	-77,941	-0,250	-0,060
81,480	383,463	-0,219	-0,318
82,495	0,433	-0,294	-0,147
83,509	-34,934	-0,235	-0,090
84,524	136,850	-0,236	-0,217
85,539	-18,280	-0,271	-0,119
86,553	-118,520	-0,355	-0,044
87,568	-90,109	-0,330	-0,067
88,582	-84,604	-0,309	-0,068
89,597	73,593	-0,252	-0,185
90,611	65,670	-0,214	-0,152
91,626	-32,745	-0,308	-0,120
92,641	172,670	-0,204	-0,206
93,655	-12,729	-0,402	-0,183
94,670	136,137	-0,265	-0,243
95,684	163,172	-0,305	-0,302
96,699	-17,988	-0,377	-0,165
97,714	625,170	-0,144	-0,256
98,728	-121,938	-0,264	-0,030
99,743	32,356	-0,303	-0,184
100,757	-12,780	-0,215	-0,098
101,772	155,790	-0,244	-0,237
102,787	44,734	-0,283	-0,183
103,801	83,976	-0,307	-0,235
104,816	18,550	-0,227	-0,127
105,830	299,107	-0,146	-0,189
106,845	66,950	-0,177	-0,127
107,860	61,661	-0,260	-0,181
108,874	131,798	-0,274	-0,247
109,889	243,801	-0,190	-0,224
110,903	-81,439	-0,382	-0,088
111,918	78,509	-0,252	-0,189
112,933	214,611	-0,191	-0,213
113,947	38,932	-0,194	-0,121
114,962	484,535	-0,185	-0,297
115,976	523,920	-0,133	-0,220
116,991	-12,131	-0,303	-0,138
118,006	129,511	-0,315	-0,282
119,020	72,238	-0,203	-0,148
120,035	165,490	-0,335	-0,332
121,049	165,190	-0,201	-0,199
122,064	46,819	-0,204	-0,133
123,079	198,707	-0,203	-0,218
124,093	103,210	-0,232	-0,191
125,108	196,262	-0,247	-0,264
126,122	182,685	-0,235	-0,243
127,137	-101,190	-0,276	-0,047
128,151	45,139	-0,312	-0,201
129,166	157,544	-0,278	-0,270
130,181	-119,272	-0,113	0,014
131,195	250,259	-0,216	-0,257
132,210	217,972	-0,363	-0,407
133,224	19,196	-0,290	-0,162
134,239	-5,555	-0,246	-0,118
135,254	-71,293	-0,165	-0,043
136,268	-29,397	-0,364	-0,145
137,283	140,690	-0,236	-0,219
138,297	13,222	-0,276	-0,149
139,312	-71,915	-0,340	-0,088
140,327	-69,812	-0,304	-0,081
141,341	-35,218	-0,285	-0,108
142,356	-147,200	-0,232	-0,014
143,370	42,337	-0,197	-0,125
144,385	28,059	-0,267	-0,157
145,400	478,678	-0,139	-0,221
146,414	115,223	-0,254	-0,217
147,429	16,183	-0,290	-0,160
148,443	60,894	-0,185	-0,128
149,458	-29,874	-0,183	-0,073
150,473	-200,000	-0,038	-0,168
151,487	112,186	-0,287	-0,243
152,502	406,219	-0,198	-0,293
153,516	94,620	-0,210	-0,167
154,531	129,260	-0,214	-0,191
155,546	45,180	-0,206	-0,133
156,560	226,805	-0,203	-0,231
157,575	-26,859	-0,174	-0,071
158,589	210,320	-0,226	-0,249
159,604	352,026	-0,180	-0,250
160,619	157,814	-0,183	-0,178
161,633	95,050	-0,176	-0,140
162,648	-33,860	-0,146	-0,056
163,662	484,435	-0,166	-0,265
164,677	371,964	-0,145	-0,206
165,692	-57,971	-0,336	-0,102
166,706	103,105	-0,243	-0,199
167,721	178,637	-0,228	-0,233
168,735	800,000	-0,144	-0,284
169,750	246,135	-0,163	-0,193
170,764	16,047	-0,230	-0,126
171,779	2,130	-0,333	-0,168
172,794	-10,672	-0,227	-0,105
173,808	107,657	-0,183	-0,152
174,823	371,946	-0,119	-0,169
175,837	224,702	-0,128	-0,145
176,852	-84,610	-0,199	-0,043
177,867	-155,355	-0,236	-0,011
178,881	21,944	-0,159	-0,090
179,896	434,481	-0,091	-0,138
180,910	174,152	-0,221	-0,223
181,925	-40,227	-0,306	-0,111
182,940	-46,766	-0,354	-0,120
183,954	288,886	-0,224	-0,284
184,969	276,172	-0,132	-0,164
185,983	78,394	-0,159	-0,118
186,998	59,754	-0,258	-0,177
188,013	105,616	-0,222	-0,183
189,027	425,029	-0,140	-0,210
190,042	106,587	-0,235	-0,194
191,056	67,085	-0,204	-0,145
192,071	-20,543	-0,193	-0,082
193,086	49,090	-0,265	-0,174
194,100	800,000	-0,091	-0,196
195,115	-75,534	-0,205	-0,051
196,129	-84,577	-0,258	-0,056
197,144	145,712	-0,275	-0,257
198,159	800,000	-0,063	-0,156
199,173	33,405	-0,182	-0,110
200,188	81,019	-0,148	-0,111
201,202	-178,089	-0,215	-0,003
202,217	-3,070	-0,212	-0,103
203,232	162,338	-0,344	-0,336
204,246	-116,138	-0,156	0,020
205,261	137,469	-0,244	-0,222
206,275	666,158	-0,060	-0,109
207,290	182,654	-0,083	-0,085
208,304	95,158	-0,137	-0,109
209,319	800,000	-0,075	-0,169
210,334	67,030	-0,181	-0,128
211,348	49,851	-0,292	-0,192
212,363	108,470	-0,208	-0,173
213,377	65,490	-0,260	-0,183
214,392	800,000	-0,041	-0,080
215,407	-29,162	-0,222	-0,088
216,421	13,474	-0,215	-0,116
217,436	84,936	-0,183	-0,139
218,450	-130,590	-0,156	-0,014
219,465	252,173	-0,176	-0,209
220,480	800,000	-0,084	-0,231
221,494	122,628	-0,175	-0,152
222,509	167,293	-0,135	-0,133
223,523	108,248	-0,104	-0,086
224,538	51,699	-0,256	-0,169
225,553	309,540	-0,170	-0,222
226,567	-2,812	-0,190	-0,092
227,582	-2,460	-0,235	-0,114
228,596	-12,007	-0,268	-0,122
229,611	-0,441	-0,132	0,065
230,626	-183,596	-0,143	-0,002
231,640	800,000	-0,048	-0,126
232,655	3,910	-0,211	-0,107
233,669	52,544	-0,256	-0,169
234,684	282,586	-0,251	-0,314
235,699	800,000	-0,114	-0,272
236,713	24,503	-0,193	-0,111
237,728	34,580	-0,396	-0,240
238,742	304,475	-0,071	-0,091
239,757	253,370	-0,161	-0,191
240,772	235,397	-0,146	-0,168
241,786	109,007	-0,207	-0,171
242,801	91,125	-0,238	-0,185
243,815	33,448	-0,228	-0,137
244,830	-17,633	-0,199	-0,086
245,844	-35,135	-0,279	-0,105
246,859	463,550	-0,214	-0,333
247,874	800,000	-0,150	-0,383
248,888	-119,782	-0,283	-0,033
249,903	279,983	-0,121	-0,150
250,917	122,038	-0,092	-0,079
251,932	69,075	-0,186	-0,132
252,947	621,383	-0,098	-0,172
253,961	-92,501	-0,264	-0,051
254,976	-77,937	-0,240	0,057
255,990	263,746	-0,210	-0,254
257,005	196,881	-0,134	-0,142
258,020	298,545	-0,127	-0,163
259,034	-166,340	-0,126	-0,004
260,049	482,312	-0,069	-0,110
261,063	469,530	-0,099	-0,154
262,078	194,228	-0,126	-0,133
263,093	-63,216	-0,236	-0,067
264,107	-187,999	-0,238	-0,002
265,122	-200,000	-0,002	-0,092
266,136	-200,000	-0,040	-0,201
267,151	-134,237	-0,107	0,009
268,166	664,554	-0,106	-0,190
269,180	69,712	-0,070	-0,050
270,195	12,102	-0,274	-0,146
271,209	-42,124	-0,196	-0,069
272,224	309,405	-0,074	-0,095
273,239	749,292	-0,091	-0,171
274,253	-57,630	-0,215	-0,065
275,268	40,610	-0,140	-0,087
276,282	40,349	-0,183	-0,114
277,297	604,374	-0,132	-0,229
278,312	19,861	-0,220	-0,122
279,326	124,302	-0,175	-0,152
280,341	-64,750	-0,120	-0,033
281,355	542,782	-0,080	-0,133
282,370	800,000	-0,121	-0,305
283,384	-200,000	-0,120	0,000
284,399	-65,886	-0,187	-0,051
285,414	-152,063	-0,121	0,006
286,428	35,360	-0,061	-0,037
287,443	-74,961	-0,079	-0,019
288,457	260,888	-0,155	-0,185
289,472	-67,528	-0,170	-0,046
290,487	605,985	-0,121	-0,210
291,501	186,673	-0,178	-0,183
292,516	-42,985	-0,231	-0,080
293,530	800,000	-0,074	-0,167
294,545	800,000	-0,120	-0,267
295,560	356,459	-0,118	-0,162
296,574	182,898	-0,073	-0,075
297,589	129,105	-0,166	-0,147
298,603	-65,786	-0,217	-0,060
299,618	-19,424	-0,159	-0,068
300,633	128,532	-0,184	-0,162
301,647	-122,369	-0,125	-0,014
302,662	251,290	-0,120	-0,141
303,676	762,538	-0,081	-0,153
304,691	-143,598	-0,241	-0,016
305,706	275,450	-0,129	-0,159
306,720	408,544	-0,151	-0,221
307,735	220,558	-0,112	-0,124
308,749	5,766	-0,100	-0,051
309,764	-2,382	-0,159	-0,077
310,779	694,669	-0,077	-0,140
311,793	47,093	-0,133	-0,085
312,808	210,184	-0,230	-0,250
313,822	207,513	-0,161	-0,173
314,837	71,574	-0,102	-0,073
315,852	610,794	-0,095	-0,165
316,866	-41,366	-0,170	-0,060
317,881	-98,310	-0,241	-0,042
318,895	573,910	-0,083	-0,140
319,910	14,382	-0,164	-0,088
320,925	-47,932	-0,207	-0,069
321,939	332,178	-0,130	-0,173
322,954	-64,141	-0,191	-0,053
323,968	18,400	-0,129	-0,071
324,983	351,617	-0,121	-0,166
325,997	-20,700	-0,202	0,085
327,012	27,109	-0,198	-0,114
328,027	229,480	-0,107	-0,120
329,041	-126,366	-0,121	-0,012
330,056	150,882	-0,172	-0,161
331,070	-14,777	-0,155	-0,068
332,085	-116,026	-0,061	-0,008
333,100	-24,619	-0,238	-0,097
334,114	492,013	-0,179	-0,284
335,129	-79,055	-0,162	-0,038
336,143	-78,160	-0,118	0,028
337,158	-102,160	-0,116	-0,019
338,173	190,515	-0,138	-0,143
339,187	-43,065	-0,235	-0,082
340,202	206,398	-0,109	-0,116
341,216	-200,000	-0,001	-0,203
342,231	-4,800	-0,137	-0,065
343,246	-122,643	-0,117	0,013
344,260	444,745	-0,102	-0,154
345,275	800,000	-0,054	-0,107
346,289	-120,372	-0,106	-0,012
347,304	197,017	-0,124	-0,130
348,319	800,000	-0,038	-0,080
349,333	-92,080	-0,137	0,026
350,348	40,193	-0,199	-0,123
351,362	-200,000	-0,024	-0,111
352,377	174,311	-0,105	-0,104
353,392	-94,621	-0,198	-0,037
354,406	-23,646	-0,124	-0,051
355,421	209,177	1315,297	1417,372
356,435	160,980	1476,140	1417,907
