DTS Sentinel unit serial number:	SN410029Multiplexer serial number:	ORYXHardware model number:	OX2-SRSoftware version number:	ORYX F/W v4,00 Oryx Data Collector v3.7.2.0data status	okinstallation	B3 Nyhavnadifferential loss correction	single-endedforward channel	channel 1reverse channel	N/Adate	2023/11/29time	03:32:30forward acquisition time	300,00reverse acquisition time	0,00gamma	499,1914k internal	0,3211k external	0,3211temperature offset calibration	1,0000default loss term (dB/km)	0,3820temperature slope calibration	1,0000multiplexer offset coefficient	1,0000multiplexer slope coefficient	1,0000fibre end	0,00T internal ref (°C)	9,50T ext. ref 1 (°C)	-5,89T ext. ref 2 (°C)	-6,01length (m)	temperature (°C)	Stokes	anti-Stokes-744,400	107,488	-0,334	-0,288
-743,385	800,000	-0,059	0,160
-742,371	234,877	-0,103	-0,123
-741,356	396,812	-0,142	0,216
-740,342	441,442	-0,181	-0,289
-739,327	-200,000	-0,001	0,249
-738,312	528,452	-0,215	-0,369
-737,298	-200,000	-0,028	0,213
-736,283	150,456	-0,232	-0,229
-735,269	-200,000	0,000	0,192
-734,254	218,190	-0,133	-0,154
-733,239	52,194	-0,215	0,148
-732,225	234,442	-0,175	-0,210
-731,210	206,911	0,070	0,080
-730,196	-200,000	0,002	-0,022
-729,181	-31,425	-0,228	0,093
-728,167	280,804	0,041	-0,053
-727,152	125,948	0,020	0,018
-726,137	205,452	-0,084	-0,095
-725,123	101,019	0,064	0,054
-724,108	620,925	-0,058	0,106
-723,094	-91,881	-0,103	0,021
-722,079	-200,000	-0,005	-0,187
-721,064	-54,624	0,090	-0,029
-720,050	-77,892	0,092	0,023
-719,035	800,000	0,007	-0,016
-718,021	318,039	-0,088	-0,121
-717,006	-140,945	-0,190	-0,014
-715,991	-116,553	-0,086	-0,011
-714,977	-11,460	-0,106	0,050
-713,962	-72,359	0,117	-0,031
-712,948	-20,890	-0,046	0,021
-711,933	795,511	0,051	-0,102
-710,918	-200,000	-0,033	-0,107
-709,904	-145,894	-0,164	0,010
-708,889	183,511	-0,008	-0,009
-707,875	-29,419	0,059	-0,024
-706,860	480,985	0,028	-0,046
-705,845	183,738	0,079	-0,085
-704,831	365,668	-0,019	-0,029
-703,816	-196,980	0,079	0,000
-702,802	19,759	0,037	0,022
-701,787	-103,305	-0,088	0,015
-700,772	162,550	-0,057	-0,058
-699,758	25,353	-0,048	0,029
-698,743	800,000	0,024	0,077
-697,729	141,097	0,052	-0,049
-696,714	-62,814	-0,043	-0,013
-695,699	336,861	0,129	-0,181
-694,685	-200,000	-0,027	0,092
-693,670	-67,533	-0,120	-0,034
-692,656	778,217	-0,042	-0,083
-691,641	800,000	-0,027	-0,064
-690,627	33,954	-0,101	0,064
-689,612	-161,345	0,121	0,004
-688,597	35,785	-0,059	0,038
-687,583	-200,000	-0,035	-0,162
-686,568	800,000	0,053	-0,113
-685,554	116,913	-0,036	-0,032
-684,539	-89,735	-0,130	-0,027
-683,524	32,175	-0,036	-0,023
-682,510	-200,000	0,004	0,092
-681,495	333,438	0,014	0,020
-680,481	-126,711	-0,125	-0,013
-679,466	156,277	-0,107	-0,107
-678,451	242,194	0,082	0,099
-677,437	-34,178	0,079	0,031
-676,422	266,207	0,011	0,014
-675,408	800,000	0,064	0,172
-674,393	-200,000	-0,028	-0,102
-673,378	20,187	-0,043	0,025
-672,364	-200,000	0,004	-0,065
-671,349	460,409	-0,018	0,030
-670,335	-200,000	-0,016	0,093
-669,320	-81,150	0,034	-0,008
-668,305	167,355	-0,052	0,053
-667,291	-103,385	-0,118	0,020
-666,276	800,000	-0,009	0,025
-665,262	217,750	-0,061	-0,071
-664,247	462,918	0,044	-0,072
-663,232	-200,000	0,008	-0,069
-662,218	800,000	-0,067	0,166
-661,203	-200,000	-0,007	0,064
-660,189	-99,452	-0,130	-0,023
-659,174	-200,000	0,003	-0,195
-658,159	311,078	0,065	-0,088
-657,145	-76,290	-0,083	0,021
-656,130	800,000	0,026	-0,080
-655,116	-200,000	0,003	-0,081
-654,101	56,214	0,062	0,043
-653,086	153,087	0,002	-0,002
-652,072	800,000	-0,023	0,049
-651,057	-200,000	-0,049	-0,169
-650,043	-34,141	-0,036	-0,014
-649,028	-6,831	-0,078	0,038
-648,014	194,730	0,094	0,103
-646,999	154,944	-0,081	0,081
-645,984	800,000	-0,007	0,015
-644,970	-143,683	-0,028	0,002
-643,955	217,477	-0,084	-0,097
-642,941	-150,297	-0,214	-0,012
-641,926	635,863	0,044	0,081
-640,911	-200,000	0,026	-0,107
-639,897	-44,262	0,070	0,025
-638,882	244,550	-0,095	0,115
-637,868	7,254	-0,023	-0,012
-636,853	-200,000	0,039	-0,135
-635,838	127,621	-0,122	-0,112
-634,824	351,819	0,027	0,039
-633,809	-200,000	-0,016	0,067
-632,795	800,000	0,025	0,064
-631,780	124,234	-0,051	0,046
-630,765	12,682	-0,067	-0,037
-629,751	-200,000	0,003	-0,120
-628,736	-92,305	0,045	-0,009
-627,722	253,324	-0,067	-0,083
-626,707	-174,700	0,115	0,002
-625,692	28,531	0,068	-0,041
-624,678	758,443	-0,032	-0,062
-623,663	1,302	-0,137	-0,071
-622,649	-90,557	-0,150	0,031
-621,634	-133,720	0,059	-0,005
-620,619	-69,880	-0,140	0,038
-619,605	-200,000	-0,011	0,126
-618,590	287,506	-0,104	0,136
-617,576	-200,000	0,006	-0,033
-616,561	-200,000	-0,012	-0,145
-615,546	-65,749	0,049	0,014
-614,532	174,138	-0,051	-0,053
-613,517	409,668	0,033	0,051
-612,503	-200,000	-0,001	0,170
-611,488	449,640	-0,085	-0,136
-610,474	4,406	-0,023	0,012
-609,459	193,785	-0,084	-0,092
-608,444	424,090	-0,078	-0,121
-607,430	137,008	-0,082	-0,077
-606,415	-65,692	-0,142	-0,041
-605,401	14,241	0,047	0,026
-604,386	800,000	0,002	0,007
-603,371	-200,000	-0,037	0,124
-602,357	-200,000	0,003	0,023
-601,342	-200,000	-0,007	0,107
-600,328	13,188	-0,098	0,055
-599,313	-63,217	-0,123	0,036
-598,298	-200,000	0,005	-0,049
-597,284	383,718	0,041	0,061
-596,269	-88,582	-0,158	-0,034
-595,255	-200,000	0,003	-0,135
-594,240	800,000	-0,020	0,052
-593,225	-120,888	-0,033	-0,004
-592,211	-200,000	-0,043	0,151
-591,196	-3,771	0,094	-0,047
-590,182	133,712	0,091	0,085
-589,167	14,429	-0,061	-0,034
-588,152	-200,000	0,000	0,084
-587,138	116,158	-0,049	0,044
-586,123	28,667	0,102	-0,062
-585,109	40,614	-0,007	0,005
-584,094	-200,000	-0,029	0,166
-583,079	-200,000	0,001	0,052
-582,065	194,760	-0,065	-0,071
-581,050	616,310	0,076	-0,138
-580,036	650,642	0,036	0,067
-579,021	-139,395	-0,080	-0,006
-578,006	-200,000	-0,010	-0,072
-576,992	124,810	-0,074	0,067
-575,977	-200,000	-0,028	0,211
-574,963	-91,930	0,049	-0,010
-573,948	718,414	0,057	-0,110
-572,934	800,000	-0,033	-0,099
-571,919	-107,896	-0,098	-0,015
-570,904	176,277	-0,084	-0,088
-569,890	-126,192	-0,078	-0,008
-568,875	29,598	0,076	0,047
-567,861	-14,604	0,054	-0,025
-566,846	-200,000	0,014	0,121
-565,831	-67,993	-0,105	0,029
-564,817	800,000	-0,063	-0,139
-563,802	9,849	-0,128	-0,070
-562,788	-114,195	0,108	-0,015
-561,773	-127,105	0,069	0,007
-560,758	-200,000	-0,007	0,044
-559,744	-124,758	0,145	-0,016
-558,729	206,097	-0,101	0,113
-557,715	-95,370	-0,104	-0,020
-556,700	-200,000	0,000	-0,103
-555,685	800,000	0,030	-0,070
-554,671	-200,000	0,014	0,106
-553,656	-200,000	-0,010	0,122
-552,642	-21,727	0,021	0,009
-551,627	17,472	-0,077	-0,044
-550,612	-200,000	0,031	0,154
-549,598	1,432	-0,136	0,070
-548,583	-200,000	-0,031	-0,136
-547,569	268,364	0,077	0,098
-546,554	-29,646	0,073	0,030
-545,539	-200,000	0,037	0,157
-544,525	-47,284	0,153	0,053
-543,510	-145,477	-0,067	0,004
-542,496	-200,000	0,018	-0,097
-541,481	-126,600	-0,033	0,003
-540,466	-68,214	0,091	-0,025
-539,452	-60,971	0,057	-0,017
-538,437	-200,000	-0,006	0,028
-537,423	57,956	-0,040	0,028
-536,408	-122,039	-0,101	0,012
-535,393	29,169	0,035	-0,021
-534,379	521,686	-0,117	-0,198
-533,364	234,034	-0,074	-0,088
-532,350	-200,000	0,017	0,076
-531,335	-174,540	0,206	0,004
-530,321	-200,000	-0,011	-0,077
-529,306	-40,948	0,113	-0,042
-528,291	-111,269	-0,138	0,020
-527,277	207,754	0,182	-0,204
-526,262	-200,000	-0,009	0,067
-525,248	-65,133	0,059	-0,017
-524,233	-135,806	0,011	-0,001
-523,218	800,000	0,022	0,061
-522,204	435,228	0,027	0,042
-521,189	188,159	-0,065	-0,070
-520,175	-101,019	-0,115	-0,020
-519,160	-200,000	-0,006	-0,200
-518,145	175,696	0,091	-0,095
-517,131	346,418	0,059	-0,084
-516,116	800,000	0,048	0,112
-515,102	205,713	-0,011	0,012
-514,087	-200,000	0,029	0,131
-513,072	-200,000	0,021	-0,102
-512,058	25,034	-0,069	-0,041
-511,043	-122,797	0,102	0,012
-510,029	11,807	0,085	-0,047
-509,014	-200,000	0,017	0,103
-507,999	-27,706	0,118	-0,049
-506,985	161,971	0,058	-0,058
-505,970	-87,322	-0,093	-0,020
-504,956	-70,114	-0,122	0,033
-503,941	713,408	-0,045	-0,087
-502,926	800,000	0,037	0,079
-501,912	-67,373	0,149	0,042
-500,897	-45,669	0,067	-0,024
-499,883	495,574	0,030	-0,050
-498,868	-71,941	-0,024	-0,006
-497,853	-200,000	0,000	-0,011
-496,839	-200,000	-0,019	-0,139
-495,824	-43,392	-0,061	-0,022
-494,810	-77,062	0,124	0,031
-493,795	-200,000	0,006	0,159
-492,781	108,848	0,054	0,046
-491,766	-132,281	-0,063	0,006
-490,751	36,782	-0,091	-0,057
-489,737	-200,000	-0,006	-0,062
-488,722	-93,432	0,090	0,018
-487,708	488,664	0,062	0,101
-486,693	-200,000	0,043	-0,153
-485,678	-200,000	-0,043	-0,148
-484,664	-200,000	0,012	-0,091
-483,649	146,113	-0,069	-0,066
-482,635	109,047	0,085	-0,073
-481,620	45,706	-0,108	-0,071
-480,605	-34,870	-0,151	0,059
-479,591	58,178	0,055	-0,039
-478,576	-143,300	-0,058	0,004
-477,562	-41,042	0,165	-0,061
-476,547	84,425	-0,118	-0,093
-475,532	800,000	0,037	-0,109
-474,518	174,983	0,037	-0,039
-473,503	-22,419	0,102	0,044
-472,489	800,000	0,061	0,137
-471,474	-200,000	0,009	0,079
-470,459	-200,000	-0,030	-0,130
-469,445	364,345	-0,035	0,050
-468,430	-113,558	0,095	0,013
-467,416	-200,000	0,013	0,043
-466,401	271,543	0,074	0,094
-465,386	-200,000	-0,008	0,041
-464,372	-38,262	-0,052	-0,020
-463,357	87,618	0,054	-0,043
-462,343	-200,000	0,003	-0,040
-461,328	-200,000	0,011	-0,078
-460,313	-116,654	0,048	0,006
-459,299	573,458	-0,052	0,091
-458,284	304,315	0,068	0,091
-457,270	775,888	-0,030	0,059
-456,255	800,000	0,025	0,060
-455,241	-200,000	0,022	0,082
-454,226	367,214	0,060	0,087
-453,211	34,934	-0,018	-0,011
-452,197	-200,000	0,028	0,102
-451,182	359,953	-0,061	0,088
-450,168	-38,012	0,100	-0,038
-449,153	-3,560	0,118	-0,059
-448,138	264,750	-0,116	-0,145
-447,124	-200,000	-0,012	-0,057
-446,109	131,174	0,033	0,031
-445,095	-183,240	-0,098	-0,001
-444,080	800,000	-0,032	-0,080
-443,065	-62,748	0,114	-0,033
-442,051	800,000	-0,046	-0,101
-441,036	800,000	0,022	-0,045
-440,022	766,439	-0,079	-0,155
-439,007	63,897	-0,047	-0,034
-437,992	800,000	0,054	0,158
-436,978	565,432	0,034	-0,059
-435,963	-200,000	-0,009	-0,062
-434,949	800,000	0,062	0,126
-433,934	633,807	-0,023	0,042
-432,919	-142,719	-0,072	-0,005
-431,905	-53,605	-0,042	0,014
-430,890	-88,365	-0,101	-0,022
-429,876	800,000	-0,061	-0,137
-428,861	54,922	0,090	0,062
-427,846	800,000	-0,043	-0,115
-426,832	-134,450	0,045	0,004
-425,817	724,134	-0,049	-0,093
-424,803	36,913	-0,069	-0,044
-423,788	800,000	-0,034	0,072
-422,773	-37,967	0,120	-0,046
-421,759	-53,291	-0,141	0,046
-420,744	148,528	0,119	0,115
-419,730	-66,841	-0,077	0,022
-418,715	135,216	-0,027	-0,025
-417,701	120,938	0,072	-0,064
-416,686	-170,464	0,155	-0,004
-415,671	-200,000	-0,002	0,052
-414,657	-21,044	0,143	0,062
-413,642	58,018	-0,049	0,034
-412,628	137,899	0,098	-0,092
-411,613	90,306	0,027	0,021
-410,598	-200,000	-0,006	0,066
-409,584	-200,000	-0,007	-0,022
-408,569	800,000	0,076	-0,203
-407,555	-44,426	0,107	0,038
-406,540	138,908	-0,039	-0,037
-405,525	19,643	-0,039	-0,022
-404,511	-200,000	-0,007	-0,125
-403,496	655,300	0,029	-0,054
-402,482	-106,914	-0,003	-0,000
-401,467	69,021	-0,025	-0,019
-400,452	-144,724	0,083	0,005
-399,438	-148,185	0,105	0,006
-398,423	-115,833	-0,108	0,014
-397,409	-99,978	0,083	-0,015
-396,394	-119,187	0,099	0,012
-395,379	-139,015	0,055	-0,004
-394,365	800,000	-0,023	-0,047
-393,350	66,922	0,068	0,049
-392,336	42,425	-0,075	-0,049
-391,321	112,122	0,086	-0,074
-390,306	800,000	-0,014	0,031
-389,292	-83,339	-0,080	-0,018
-388,277	590,607	0,058	-0,103
-387,263	518,927	-0,041	-0,070
-386,248	-200,000	0,020	0,190
-385,233	345,063	-0,037	-0,053
-384,219	-200,000	0,015	0,152
-383,204	-200,000	0,037	-0,133
-382,190	786,163	-0,040	-0,078
-381,175	-142,038	-0,109	-0,008
-380,160	721,292	-0,028	0,054
-379,146	-21,103	0,116	0,050
-378,131	-38,730	0,063	-0,024
-377,117	-200,000	-0,029	0,119
-376,102	38,067	-0,084	0,053
-375,088	-11,663	-0,163	-0,076
-374,073	578,442	0,025	0,044
-373,058	19,977	0,043	0,024
-372,044	139,221	0,024	-0,023
-371,029	487,283	0,047	0,076
-370,015	-200,000	0,022	-0,081
-369,000	-200,000	-0,028	-0,140
-367,985	-200,000	0,019	0,063
-366,971	426,459	-0,080	0,124
-365,956	800,000	0,027	0,067
-364,942	-200,000	-0,013	-0,053
-363,927	-200,000	0,011	-0,037
-362,912	-200,000	0,018	0,090
-361,898	80,084	-0,055	0,042
-360,883	472,029	0,066	-0,106
-359,869	-170,069	0,060	0,001
-358,854	-80,296	-0,092	-0,022
-357,839	-200,000	0,007	0,046
-356,825	-57,456	0,068	0,021
-355,810	165,942	-0,134	0,136
-354,796	800,000	0,055	-0,142
-353,781	-200,000	0,014	-0,100
-352,766	228,513	-0,028	-0,033
-351,752	9,842	-0,086	0,047
-350,737	274,575	-0,017	0,022
-349,723	-200,000	0,027	0,121
-348,708	-109,964	-0,113	0,017
-347,693	709,690	-0,080	-0,153
-346,679	50,675	0,164	0,111
-345,664	182,549	-0,059	-0,063
-344,650	-77,736	0,152	-0,037
-343,635	448,077	0,056	-0,088
-342,620	800,000	0,017	-0,034
-341,606	585,365	0,067	0,118
-340,591	-163,675	-0,035	-0,001
-339,577	-60,069	0,049	-0,015
-338,562	53,103	-0,085	-0,058
-337,548	-200,000	-0,004	-0,159
-336,533	-89,972	0,090	0,019
-335,518	-200,000	0,010	0,123
-334,504	220,513	0,071	-0,081
-333,489	-200,000	0,008	-0,095
-332,475	274,801	-0,042	0,053
-331,460	-16,869	0,109	-0,049
-330,445	800,000	0,023	-0,060
-329,431	59,810	0,050	0,035
-328,416	-106,505	0,106	-0,017
-327,402	-59,389	0,031	0,010
-326,387	-86,573	-0,109	-0,024
-325,372	-157,818	-0,085	0,004
-324,358	-4,400	-0,024	-0,012
-323,343	-200,000	0,007	-0,057
-322,329	-0,072	0,189	-0,096
-321,314	-200,000	0,004	0,082
-320,299	3,659	0,023	0,012
-319,285	800,000	-0,077	-0,174
-318,270	-200,000	0,007	-0,076
-317,256	-31,275	-0,094	-0,037
-316,241	800,000	-0,080	-0,191
-315,226	239,056	-0,061	-0,073
-314,212	381,896	0,005	0,008
-313,197	800,000	0,018	-0,051
-312,183	4,347	0,067	0,035
-311,168	413,737	0,061	0,092
-310,153	-191,947	-0,043	-0,000
-309,139	207,114	0,044	-0,049
-308,124	14,774	-0,014	-0,008
-307,110	800,000	0,061	0,136
-306,095	118,220	0,114	0,100
-305,080	-200,000	-0,007	0,024
-304,066	-200,000	-0,002	0,112
-303,051	-200,000	-0,024	0,157
-302,037	12,017	-0,099	0,054
-301,022	-200,000	0,008	-0,040
-300,008	-78,750	0,098	0,024
-298,993	-200,000	0,029	0,111
-297,978	800,000	0,057	0,174
-296,964	5,572	-0,050	-0,026
-295,949	415,892	0,022	0,034
-294,935	-200,000	-0,006	-0,022
-293,920	-200,000	-0,069	0,000
-292,905	-200,000	-0,002	0,107
-291,891	-15,406	-0,055	-0,025
-290,876	-1,314	0,052	0,026
-289,862	-121,697	-0,092	0,011
-288,847	-200,000	-0,013	-0,085
-287,832	-120,591	-0,196	0,023
-286,818	-58,370	0,110	-0,034
-285,803	83,590	0,064	0,050
-284,789	-200,000	0,004	0,102
-283,774	-200,000	0,016	-0,111
-282,759	-200,000	0,008	0,136
-281,745	-200,000	0,005	-0,116
-280,730	-43,463	-0,065	0,023
-279,716	-70,734	0,077	0,021
-278,701	207,501	-0,040	0,044
-277,686	-96,979	-0,139	0,026
-276,672	-200,000	-0,011	0,037
-275,657	180,672	-0,136	0,142
-274,643	-34,053	-0,052	-0,020
-273,628	793,381	-0,056	-0,110
-272,613	-200,000	0,001	-0,079
-271,599	-200,000	-0,002	-0,116
-270,584	197,822	-0,058	0,063
-269,570	580,696	0,049	0,085
-268,555	-30,955	-0,051	0,021
-267,540	159,104	-0,063	0,062
-266,526	-71,791	-0,064	0,017
-265,511	-80,741	0,066	0,015
-264,497	61,400	0,150	-0,106
-263,482	13,552	0,087	-0,048
-262,467	0,464	0,047	-0,024
-261,453	-37,471	-0,085	0,032
-260,438	800,000	0,022	0,065
-259,424	-129,084	-0,223	-0,022
-258,409	63,592	-0,085	-0,060
-257,395	-200,000	0,021	-0,097
-256,380	800,000	-0,006	-0,016
-255,365	-200,000	0,010	0,148
-254,351	-200,000	0,027	0,108
-253,336	-124,780	-0,163	-0,018
-252,322	-200,000	0,006	0,082
-251,307	64,953	0,046	-0,033
-250,292	-13,894	-0,036	-0,017
-249,278	-35,204	0,087	-0,034
-248,263	357,159	-0,018	-0,025
-247,249	-200,000	0,001	0,055
-246,234	766,937	0,016	-0,032
-245,219	69,452	0,098	-0,071
-244,205	800,000	-0,050	-0,102
-243,190	-200,000	0,015	-0,085
-242,176	-9,973	-0,076	0,036
-241,161	207,087	0,095	0,105
-240,146	198,927	-0,075	0,081
-239,132	-3,053	0,044	-0,022
-238,117	216,824	0,078	-0,088
-237,103	-151,123	0,059	-0,003
-236,088	563,449	0,081	0,139
-235,073	800,000	0,033	0,079
-234,059	-48,224	0,131	0,045
-233,044	-26,255	-0,073	-0,030
-232,030	-76,041	-0,085	0,021
-231,015	-112,763	0,102	0,014
-230,000	69,166	-0,122	-0,089
-228,986	-44,324	0,092	-0,033
-227,971	-200,000	0,001	0,102
-226,957	-200,000	-0,014	0,135
-225,942	-200,000	0,011	0,074
-224,927	800,000	0,041	0,102
-223,913	69,457	-0,044	0,032
-222,898	64,747	0,021	-0,015
-221,884	74,739	-0,061	-0,045
-220,869	194,075	0,047	0,050
-219,855	-118,375	-0,147	0,018
-218,840	364,066	0,066	-0,095
-217,825	-200,000	-0,054	0,192
-216,811	800,000	0,037	0,090
-215,796	22,402	-0,108	-0,062
-214,782	-200,000	-0,006	-0,052
-213,767	333,905	0,031	-0,043
-212,752	100,396	0,097	0,080
-211,738	-137,664	-0,075	0,006
-210,723	93,862	-0,052	-0,042
-209,709	800,000	0,003	0,006
-208,694	-104,309	-0,074	0,012
-207,679	-109,734	-0,067	0,010
-206,665	-102,910	0,066	0,011
-205,650	-148,071	0,161	-0,009
-204,636	800,000	0,057	0,150
-203,621	262,464	0,034	0,042
-202,606	112,017	0,093	-0,080
-201,592	-200,000	0,007	-0,116
-200,577	-200,000	-0,032	-0,211
-199,563	-200,000	-0,005	0,041
-198,548	-200,000	-0,030	0,124
-197,533	-79,860	0,027	0,006
-196,519	259,660	0,049	0,060
-195,504	-75,313	0,110	-0,028
-194,490	246,884	-0,073	0,087
-193,475	120,152	-0,024	0,021
-192,460	219,540	0,022	0,025
-191,446	173,750	0,115	-0,117
-190,431	800,000	0,078	0,167
-189,417	343,115	-0,078	0,109
-188,402	-49,994	0,068	0,023
-187,387	-91,135	0,055	-0,011
-186,373	45,448	-0,095	-0,062
-185,358	-102,576	0,056	0,009
-184,344	-200,000	0,002	0,104
-183,329	147,073	-0,026	0,024
-182,315	344,968	0,100	0,140
-181,300	-200,000	0,030	-0,101
-180,285	-200,000	-0,014	-0,080
-179,271	-26,624	-0,081	-0,033
-178,256	-26,078	0,128	0,053
-177,242	800,000	0,056	0,130
-176,227	50,222	0,109	-0,073
-175,212	60,194	0,085	0,060
-174,198	-200,000	-0,002	0,078
-173,183	518,676	-0,069	-0,115
-172,169	-92,649	-0,086	-0,017
-171,154	339,116	0,069	-0,095
-170,139	399,868	-0,057	0,085
-169,125	-200,000	0,029	-0,113
-168,110	-37,943	0,058	0,022
-167,096	-200,000	0,000	-0,044
-166,081	-75,809	-0,158	-0,039
-165,066	-180,445	0,046	-0,001
-164,052	-20,475	-0,080	0,035
-163,037	-186,296	-0,088	-0,001
-162,023	22,866	0,084	0,049
-161,008	82,830	-0,133	0,102
-159,993	-88,573	0,099	0,021
-158,979	-200,000	-0,001	-0,058
-157,964	-129,007	-0,091	0,009
-156,950	-19,896	-0,050	0,022
-155,935	3,096	0,050	-0,026
-154,920	-200,000	-0,019	0,062
-153,906	-11,251	0,062	0,029
-152,891	88,228	0,018	-0,014
-151,877	800,000	0,033	-0,079
-150,862	-29,532	0,045	0,018
-149,847	-111,232	0,057	-0,008
-148,833	-200,000	-0,007	-0,106
-147,818	800,000	0,027	-0,071
-146,804	-200,000	0,002	-0,049
-145,789	-200,000	0,008	-0,078
-144,775	-200,000	-0,002	0,085
-143,760	800,000	-0,050	-0,144
-142,745	800,000	-0,021	0,055
-141,731	800,000	0,011	-0,029
-140,716	-74,085	-0,189	0,048
-139,702	187,536	0,137	0,145
-138,687	-12,494	0,083	0,038
-137,672	438,319	-0,085	0,132
-136,658	-200,000	-0,021	0,083
-135,643	62,548	-0,096	0,068
-134,629	234,392	-0,064	-0,074
-133,614	591,055	0,080	-0,141
-132,599	126,440	-0,027	0,024
-131,585	800,000	-0,005	-0,011
-130,570	218,759	0,044	-0,049
-129,556	63,723	0,110	-0,078
-128,541	-200,000	-0,018	0,058
-127,526	57,858	-0,128	0,089
-126,512	308,260	0,076	-0,100
-125,497	800,000	0,016	0,043
-124,483	800,000	0,045	0,120
-123,468	184,863	-0,016	-0,017
-122,453	-60,536	0,059	-0,018
-121,439	45,000	0,098	0,064
-120,424	61,690	-0,105	-0,074
-119,410	77,372	0,065	0,049
-118,395	391,888	0,044	0,065
-117,380	81,241	-0,046	-0,035
-116,366	64,124	-0,021	-0,015
-115,351	102,455	0,129	0,107
-114,337	281,821	-0,093	0,118
-113,322	-73,283	0,087	0,022
-112,307	26,465	-0,019	0,011
-111,293	306,006	-0,046	-0,061
-110,278	393,128	-0,079	0,117
-109,264	800,000	0,024	0,073
-108,249	87,795	0,074	0,058
-107,234	-171,898	0,061	-0,001
-106,220	171,376	-0,059	-0,060
-105,205	-102,399	0,128	-0,021
-104,191	90,643	0,084	0,066
-103,176	-125,307	0,113	0,012
-102,162	-200,000	0,038	0,124
-101,147	-200,000	0,020	-0,140
-100,132	37,106	0,031	-0,019
-99,118	-200,000	0,018	0,122
-98,103	42,696	-0,035	0,023
-97,089	-2,163	0,123	0,061
-96,074	89,013	0,070	0,055
-95,059	-200,000	0,015	-0,055
-94,045	-47,996	-0,071	0,024
-93,030	247,996	0,088	0,106
-92,016	38,267	0,142	-0,089
-91,001	-111,126	-0,017	-0,002
-89,986	789,640	0,041	-0,080
-88,972	101,629	0,054	0,045
-87,957	800,000	0,035	0,086
-86,943	13,200	-0,098	-0,054
-85,928	81,761	-0,048	0,037
-84,913	-124,160	-0,035	0,004
-83,899	-200,000	0,052	-0,194
-82,884	135,124	0,090	-0,083
-81,870	464,709	-0,017	0,027
-80,855	210,284	0,020	0,022
-79,840	-200,000	-0,007	0,102
-78,826	-47,404	-0,073	0,025
-77,811	-73,509	0,070	-0,018
-76,797	-200,000	-0,012	0,039
-75,782	800,000	0,044	0,098
-74,767	51,778	0,069	0,046
-73,753	-200,000	-0,024	0,119
-72,738	590,584	-0,068	0,119
-71,724	317,924	-0,007	0,009
-70,709	406,674	-0,064	0,096
-69,694	-37,091	0,044	-0,016
-68,680	-200,000	-0,015	0,062
-67,665	35,744	0,099	-0,061
-66,651	280,096	0,005	0,007
-65,636	-9,063	0,061	-0,029
-64,622	60,492	0,124	0,086
-63,607	477,955	0,027	0,044
-62,592	41,702	-0,232	-0,148
-61,578	797,984	0,080	-0,156
-60,563	-20,709	-0,045	-0,019
-59,549	291,072	-0,052	0,067
-58,534	66,516	-2,037	-1,460
-57,519	641,414	-1,081	-1,953
-56,505	-200,000	-0,217	-4,227
-55,490	593,076	0,976	1,709
-54,476	800,000	5,118	11,194
-53,461	-200,000	21,657	342,731
-52,446	800,000	762,756	2342,487
-51,432	547,339	1661,126	2816,503
-50,417	71,443	1657,049	1212,600
-49,403	17,253	1530,584	854,716
-48,388	11,326	1454,422	783,582
-47,373	19,324	1446,178	817,406
-46,359	14,815	1435,003	789,670
-45,344	9,606	1431,009	762,691
-44,330	9,550	1429,135	761,395
-43,315	9,534	1427,502	760,420
-42,300	9,572	1425,517	759,512
-41,286	9,568	1424,477	758,912
-40,271	9,516	1423,310	758,013
-39,257	9,517	1421,871	757,221
-38,242	9,559	1420,993	756,920
-37,227	9,588	1420,019	756,511
-36,213	9,614	1418,393	755,735
-35,198	9,607	1417,186	755,028
-34,184	9,595	1416,517	754,588
-33,169	9,552	1414,993	753,545
-32,154	9,617	1413,893	753,232
-31,140	9,581	1412,641	752,365
-30,125	9,608	1411,620	751,919
-29,111	9,576	1410,569	751,180
-28,096	9,574	1409,267	750,446
-27,082	9,537	1408,113	749,630
-26,067	9,515	1406,923	748,865
-25,052	9,578	1405,901	748,586
-24,038	9,573	1405,123	748,118
-23,023	9,494	1404,209	747,234
-22,009	9,536	1402,928	746,717
-20,994	9,490	1402,005	745,982
-19,979	9,521	1401,129	745,631
-18,965	9,489	1400,194	744,952
-17,950	9,487	1399,228	744,401
-16,936	9,460	1398,506	743,860
-15,921	9,448	1397,369	743,169
-14,906	9,457	1396,560	742,755
-13,892	9,428	1395,727	742,144
-12,877	9,467	1394,693	741,749
-11,863	9,463	1394,019	741,344
-10,848	9,406	1393,054	740,537
-9,833	9,389	1392,258	740,003
-8,819	9,387	1391,276	739,443
-7,804	9,354	1390,204	738,690
-6,790	9,362	1389,203	738,165
-5,775	9,318	1388,255	737,432
-4,760	9,371	1387,385	737,184
-3,746	9,355	1386,181	736,441
-2,731	9,394	1385,402	736,180
-1,717	9,361	1384,448	735,492
-0,702	9,376	1382,790	734,651
0,313	13,355	1295,219	706,286
1,327	29,435	686,268	410,491
2,342	46,021	118,463	77,194
3,356	1,064	16,504	8,321
4,371	11,844	3,634	1,963
5,386	15,233	1,055	0,581
6,400	800,000	0,260	0,796
7,415	294,473	-0,216	-0,279
8,429	252,864	-0,206	-0,248
9,444	-37,893	-0,283	-0,105
10,459	-28,082	-0,162	-0,066
11,473	-108,354	-0,353	-0,053
12,488	68,901	-0,192	-0,139
13,502	2,817	-0,279	-0,142
14,517	-89,770	-0,431	-0,088
15,531	129,370	-0,291	-0,262
16,546	137,611	-0,313	-0,289
17,561	78,672	-0,407	-0,307
18,575	130,032	-0,135	-0,122
19,590	94,735	-0,414	-0,332
20,604	-110,537	-0,246	-0,035
21,619	93,091	-0,433	-0,345
22,634	97,508	-0,481	-0,389
23,648	199,234	-0,298	-0,322
24,663	30,648	-0,517	-0,311
25,677	111,161	-0,373	-0,316
26,692	85,830	-0,336	-0,260
27,707	-185,368	-0,285	0,003
28,721	420,880	-0,147	-0,223
29,736	35,033	-0,386	-0,237
30,750	157,668	-0,300	-0,292
31,765	166,014	-0,374	-0,372
32,780	428,086	-0,256	-0,390
33,794	202,170	-0,281	-0,305
34,809	72,613	-0,396	-0,290
35,823	129,318	-0,302	-0,271
36,838	119,774	-0,313	-0,272
37,853	-9,950	-0,368	-0,171
38,867	10,431	-0,365	-0,195
39,882	-31,704	-0,335	-0,131
40,896	-27,797	-0,375	-0,152
41,911	30,254	-0,405	-0,243
42,926	204,998	-0,280	-0,306
43,940	36,942	-0,338	-0,210
44,955	51,134	-0,431	-0,287
45,969	75,869	-0,374	-0,278
46,984	138,560	-0,365	-0,336
47,999	725,963	-0,198	-0,373
49,013	154,794	-0,272	-0,263
50,028	11,455	-0,261	-0,140
51,042	147,850	-0,275	-0,261
52,057	91,644	-0,420	-0,331
53,071	111,969	-0,411	-0,349
54,086	159,597	-0,294	-0,287
55,101	-20,842	-0,343	-0,147
56,115	-58,916	-0,318	-0,096
57,130	-13,111	-0,236	-0,107
58,144	50,126	-0,331	-0,219
59,159	4,956	-0,377	-0,194
60,174	3,356	-0,410	-0,209
61,188	-89,323	-0,296	-0,061
62,203	187,777	-0,147	-0,154
63,217	13,107	-0,387	-0,210
64,232	234,555	-0,312	-0,362
65,247	-50,815	-0,402	-0,132
66,261	87,809	-0,304	-0,236
67,276	97,735	-0,425	-0,342
68,290	-102,744	-0,379	-0,063
69,305	65,801	-0,208	-0,147
70,320	47,190	-0,209	-0,136
71,334	65,263	-0,244	-0,173
72,349	-101,150	-0,333	-0,057
73,363	-46,360	-0,415	-0,142
74,378	92,336	-0,247	-0,195
75,393	40,393	-0,332	-0,209
76,407	126,521	-0,136	-0,121
77,422	78,252	-0,252	-0,188
78,436	-96,076	-0,321	-0,059
79,451	14,033	-0,337	-0,183
80,466	478,274	-0,246	-0,391
81,480	141,586	-0,321	-0,298
82,495	127,158	-0,155	-0,138
83,509	-100,536	-0,382	-0,066
84,524	43,604	-0,161	-0,103
85,539	-74,034	-0,292	-0,074
86,553	-38,702	-0,321	-0,118
87,568	125,550	-0,303	-0,268
88,582	-2,133	-0,316	-0,155
89,597	-65,272	-0,353	-0,099
90,611	-46,171	-0,327	-0,112
91,626	91,231	-0,171	-0,134
92,641	-95,823	-0,291	-0,054
93,655	-93,907	-0,340	-0,065
94,670	393,527	-0,172	-0,251
95,684	47,025	-0,346	-0,225
96,699	17,652	-0,322	-0,179
97,714	84,794	-0,205	-0,157
98,728	-185,600	-0,375	0,004
99,743	11,621	-0,340	-0,182
100,757	-54,489	-0,288	-0,091
101,772	-52,312	-0,391	-0,126
102,787	-22,152	-0,353	-0,149
103,801	139,510	-0,214	-0,197
104,816	205,430	-0,256	-0,279
105,830	-20,081	-0,258	-0,111
106,845	800,000	-0,121	-0,262
107,860	2,057	-0,173	-0,087
108,874	-83,267	-0,274	-0,061
109,889	-59,348	-0,313	-0,093
110,903	34,822	-0,291	-0,178
111,918	246,108	-0,162	-0,191
112,933	168,927	-0,163	-0,162
113,947	-117,222	-0,215	0,027
114,962	41,489	-0,282	-0,178
115,976	-66,085	-0,327	-0,091
116,991	-15,633	-0,396	-0,176
118,006	-81,443	-0,246	-0,056
119,020	77,237	-0,114	-0,085
120,035	-5,487	-0,186	-0,089
121,049	17,824	-0,200	-0,111
122,064	188,716	-0,155	-0,162
123,079	-38,001	-0,192	0,071
124,093	43,738	-0,271	-0,173
125,108	-59,904	-0,313	-0,093
126,122	800,000	-0,075	-0,154
127,137	-71,139	-0,285	-0,074
128,151	82,086	-0,227	-0,171
129,166	-120,853	-0,300	-0,035
130,181	-58,379	-0,160	-0,048
131,195	-181,993	-0,219	-0,003
132,210	141,302	-0,210	-0,194
133,224	84,682	-0,302	-0,231
134,239	282,539	-0,105	-0,132
135,254	-31,868	-0,214	-0,083
136,268	27,185	-0,218	-0,127
137,283	765,873	-0,114	-0,218
138,297	55,292	-0,429	-0,289
139,312	222,614	-0,194	-0,218
140,327	72,893	-0,312	-0,227
141,341	269,309	-0,211	-0,259
142,356	112,116	-0,324	-0,273
143,370	113,025	-0,171	-0,144
144,385	445,758	-0,088	-0,135
145,400	-39,627	-0,326	-0,118
146,414	286,504	-0,212	-0,267
147,429	5,024	-0,416	-0,213
148,443	130,873	-0,202	-0,180
149,458	2,208	-0,275	-0,138
150,473	-200,000	-0,083	-0,295
151,487	-43,743	-0,326	-0,114
152,502	107,441	-0,204	-0,169
153,516	800,000	-0,121	-0,256
154,531	23,345	-0,237	-0,135
155,546	93,357	-0,280	-0,221
156,560	118,807	-0,158	-0,136
157,575	-67,683	-0,225	-0,061
158,589	-43,076	-0,277	-0,097
159,604	71,280	-0,386	-0,278
160,619	271,276	-0,104	-0,127
161,633	43,293	-0,256	-0,162
162,648	-68,820	-0,236	-0,063
163,662	105,888	-0,272	-0,224
164,677	-133,799	-0,118	-0,010
165,692	-131,361	-0,255	-0,023
166,706	-47,437	-0,271	-0,091
167,721	-10,883	-0,187	-0,085
168,735	77,847	-0,250	-0,185
169,750	-200,000	-0,176	0,000
170,764	-47,283	-0,237	-0,080
171,779	219,329	-0,095	-0,105
172,794	162,376	-0,249	-0,242
173,808	252,704	-0,253	-0,300
174,823	113,724	-0,290	-0,245
175,837	306,693	-0,220	-0,285
176,852	-80,968	-0,273	0,062
177,867	-157,732	-0,160	-0,006
178,881	-52,377	-0,141	-0,045
179,896	365,103	-0,085	-0,119
180,910	-144,106	-0,337	-0,022
181,925	70,679	-0,120	-0,086
182,940	-141,696	-0,345	-0,024
183,954	45,634	-0,175	-0,112
184,969	230,021	-0,008	-0,009
185,983	68,123	-0,167	-0,119
186,998	-126,051	-0,290	-0,030
188,013	-11,532	-0,203	-0,092
189,027	13,248	-0,358	-0,192
190,042	72,763	-0,167	-0,121
191,056	15,746	-0,273	-0,149
192,071	185,545	-0,110	-0,114
193,086	303,091	-0,099	-0,128
194,100	-117,700	-0,205	-0,025
195,115	211,520	-0,109	-0,120
196,129	35,998	-0,164	-0,100
197,144	108,679	-0,274	-0,227
198,159	156,784	-0,135	-0,130
199,173	173,248	-0,156	-0,156
200,188	160,850	-0,172	-0,167
201,202	-135,145	-0,224	-0,018
202,217	-172,764	-0,178	0,004
203,232	-23,161	-0,242	-0,101
204,246	62,014	-0,305	-0,211
205,261	-25,512	-0,241	-0,098
206,275	175,086	-0,199	-0,200
207,290	64,573	-0,222	-0,155
208,304	800,000	-0,121	-0,251
209,319	-32,012	-0,169	-0,065
210,334	-75,104	-0,330	-0,081
211,348	11,375	-0,168	-0,089
212,363	109,116	-0,229	-0,190
213,377	-145,845	-0,272	-0,016
214,392	110,621	-0,204	-0,170
215,407	615,261	-0,058	-0,101
216,421	-200,000	-0,046	-0,159
217,436	187,184	-0,146	-0,151
218,450	-182,728	-0,361	0,004
219,465	128,927	-0,213	-0,188
220,480	319,664	-0,132	-0,174
221,494	-157,269	-0,162	-0,007
222,509	-28,662	-0,131	-0,052
223,523	164,615	-0,143	-0,140
224,538	20,250	-0,193	-0,108
225,553	-71,321	-0,232	-0,060
226,567	8,877	-0,203	-0,105
227,582	173,004	-0,182	-0,182
228,596	33,565	-0,124	-0,074
229,611	153,888	-0,121	-0,115
230,626	13,304	-0,153	-0,082
231,640	360,607	-0,047	-0,066
232,655	123,850	-0,138	-0,119
233,669	-23,874	-0,287	-0,118
234,684	625,258	-0,156	-0,273
235,699	0,855	-0,102	-0,050
236,713	204,779	-0,087	-0,094
237,728	1,750	-0,168	-0,084
238,742	-114,505	-0,222	0,029
239,757	109,817	-0,226	-0,187
240,772	220,924	-0,163	-0,181
241,786	800,000	-0,074	-0,170
242,801	-99,146	-0,223	-0,039
243,815	-7,227	-0,204	-0,095
244,830	279,247	-0,081	-0,099
245,844	-145,019	-0,178	0,011
246,859	-27,055	-0,125	-0,050
247,874	324,296	-0,188	-0,248
248,888	68,083	-0,245	-0,173
249,903	-116,770	-0,194	0,024
250,917	587,075	-0,091	-0,155
251,932	175,583	-0,109	0,109
252,947	-72,121	-0,234	-0,060
253,961	309,819	-0,102	-0,132
254,976	-5,915	-0,287	-0,135
255,990	156,413	-0,177	-0,169
257,005	-187,630	-0,184	-0,002
258,020	800,000	-0,075	-0,224
259,034	-35,304	-0,107	-0,040
260,049	107,847	-0,171	-0,140
261,063	-174,296	-0,215	0,004
262,078	340,340	-0,127	-0,171
263,093	-112,026	-0,256	-0,035
264,107	-70,485	-0,282	-0,073
265,122	4,021	-0,135	-0,068
266,136	137,378	-0,084	-0,076
267,151	-114,946	-0,210	0,027
268,166	-0,037	-0,174	-0,085
269,180	-79,384	-0,174	-0,040
270,195	22,206	-0,158	-0,089
271,209	44,018	-0,198	-0,125
272,224	22,999	-0,088	0,050
273,239	209,458	-0,072	-0,077
274,253	-117,809	-0,179	-0,022
275,268	-10,136	-0,146	0,066
276,282	87,819	-0,068	-0,052
277,297	-100,669	-0,133	0,022
278,312	41,695	-0,093	-0,058
279,326	-53,021	-0,097	-0,030
280,341	248,154	-0,089	-0,104
281,355	435,179	-0,124	-0,186
282,370	-140,970	-0,129	0,009
283,384	453,795	-0,145	-0,222
284,399	103,492	-0,161	-0,130
285,414	66,802	-0,244	-0,171
286,428	466,261	-0,159	-0,245
287,443	-64,318	-0,239	-0,066
288,457	-62,326	-0,123	-0,035
289,472	-58,001	-0,147	0,044
290,487	89,650	-0,182	-0,140
291,501	-121,916	-0,250	-0,028
292,516	78,989	-0,118	-0,086
293,530	-200,000	0,008	0,025
294,545	800,000	-0,019	0,043
295,560	-172,645	-0,152	0,003
296,574	11,358	-0,249	-0,131
297,589	-46,639	-0,133	-0,044
298,603	251,679	-0,162	-0,190
299,618	-122,747	-0,186	0,020
300,633	-114,486	-0,091	-0,012
301,647	-94,869	-0,126	-0,023
302,662	44,319	-0,112	-0,070
303,676	205,151	-0,175	-0,186
304,691	40,716	-0,214	-0,132
305,706	22,069	-0,238	-0,133
306,720	-44,136	-0,113	-0,039
307,735	-0,282	-0,199	-0,097
308,749	800,000	-0,085	-0,163
309,764	-200,000	-0,003	-0,017
310,779	91,263	-0,172	-0,132
311,793	-90,308	-0,154	-0,030
312,808	679,879	-0,094	-0,169
313,822	162,002	-0,143	-0,138
314,837	29,573	-0,234	-0,136
315,852	216,042	-0,124	-0,135
316,866	-200,000	0,006	-0,100
317,881	45,881	-0,131	-0,083
318,895	-141,221	-0,175	0,012
319,910	527,750	-0,097	-0,158
320,925	611,454	-0,124	-0,213
321,939	-21,975	-0,203	-0,084
322,954	46,631	-0,132	-0,084
323,968	-42,340	-0,129	0,045
324,983	-200,000	0,004	-0,015
325,997	169,731	-0,217	-0,213
327,012	-78,349	-0,146	0,034
328,027	129,753	-0,097	-0,085
329,041	345,086	-0,092	-0,124
330,056	334,332	-0,037	0,049
331,070	149,873	-0,072	-0,067
332,085	-64,420	-0,113	0,031
333,100	-163,129	-0,178	0,006
334,114	89,717	-0,112	-0,085
335,129	196,437	-0,103	-0,108
336,143	800,000	-0,041	-0,081
337,158	-200,000	-0,031	-0,125
338,173	-96,225	-0,091	-0,016
339,187	327,766	-0,113	-0,148
340,202	39,411	-0,215	-0,132
341,216	27,174	-0,139	-0,080
342,231	-24,337	-0,042	-0,017
343,246	76,861	-0,060	-0,043
344,260	-200,000	-0,059	-0,258
345,275	-200,000	-0,045	-0,196
346,289	800,000	-0,059	-0,133
347,304	70,797	-0,074	-0,053
348,319	-146,741	-0,219	0,013
349,333	-115,219	-0,134	0,017
350,348	800,000	-0,080	-0,191
351,362	-48,773	-0,130	-0,042
352,377	658,427	-0,068	-0,120
353,392	-9,357	-0,213	0,097
354,406	86,678	-0,176	-0,133
355,421	207,413	1307,302	1396,401
356,435	159,555	1467,091	1396,875
