DTS Sentinel unit serial number:	SN410029Multiplexer serial number:	ORYXHardware model number:	OX2-SRSoftware version number:	ORYX F/W v4,00 Oryx Data Collector v3.7.2.0data status	okinstallation	B3 Nyhavnadifferential loss correction	single-endedforward channel	channel 1reverse channel	N/Adate	2023/12/01time	15:52:30forward acquisition time	300,00reverse acquisition time	0,00gamma	499,1914k internal	0,3207k external	0,3207temperature offset calibration	1,0000default loss term (dB/km)	0,3820temperature slope calibration	1,0000multiplexer offset coefficient	1,0000multiplexer slope coefficient	1,0000fibre end	0,00T internal ref (°C)	12,53T ext. ref 1 (°C)	-0,92T ext. ref 2 (°C)	-0,95length (m)	temperature (°C)	Stokes	anti-Stokes-744,400	654,053	-0,126	-0,235
-743,385	-200,000	-0,010	0,206
-742,371	103,545	-0,145	-0,123
-741,356	-200,000	0,012	0,486
-740,342	349,917	-0,223	-0,321
-739,327	800,000	-0,099	0,290
-738,312	111,176	-0,209	-0,183
-737,298	-200,000	0,036	0,191
-736,283	197,487	-0,203	-0,225
-735,269	278,765	-0,155	0,201
-734,254	-200,000	-0,063	-0,202
-733,239	130,465	-0,171	0,159
-732,225	312,508	-0,103	-0,141
-731,210	-200,000	0,026	0,106
-730,196	366,117	-0,051	-0,074
-729,181	60,512	-0,081	-0,058
-728,167	605,047	-0,055	-0,099
-727,152	800,000	-0,027	-0,066
-726,137	31,330	-0,140	-0,087
-725,123	81,002	-0,050	-0,039
-724,108	16,974	-0,075	-0,043
-723,094	-82,417	-0,155	-0,036
-722,079	-119,234	0,080	-0,010
-721,064	800,000	-0,033	0,076
-720,050	-84,590	-0,118	0,027
-719,035	760,506	-0,049	0,097
-718,021	50,544	-0,069	-0,047
-717,006	-111,707	-0,163	0,024
-715,991	-75,015	-0,094	-0,024
-714,977	-75,210	0,057	0,015
-713,962	-157,703	-0,128	-0,005
-712,948	356,745	-0,022	0,031
-711,933	-156,528	-0,039	0,002
-710,918	45,602	0,119	0,079
-709,904	762,704	-0,029	-0,058
-708,889	-160,689	-0,114	-0,004
-707,875	800,000	-0,044	-0,112
-706,860	-25,525	-0,024	0,010
-705,845	-33,052	0,110	0,044
-704,831	621,838	0,028	0,050
-703,816	-200,000	-0,019	0,096
-702,802	-131,822	0,069	0,006
-701,787	-200,000	-0,019	-0,075
-700,772	20,104	-0,131	-0,076
-699,758	282,967	0,080	-0,104
-698,743	-3,369	-0,073	0,036
-697,729	2,106	0,122	-0,064
-696,714	16,022	-0,054	0,031
-695,699	-142,321	-0,063	0,004
-694,685	-48,931	-0,127	-0,044
-693,670	800,000	-0,032	-0,092
-692,656	800,000	0,021	-0,053
-691,641	-200,000	0,011	0,041
-690,627	-132,041	0,040	-0,004
-689,612	800,000	0,043	-0,089
-688,597	-15,392	-0,040	-0,019
-687,583	-73,857	-0,091	-0,024
-686,568	-95,906	-0,141	-0,027
-685,554	208,455	-0,085	-0,096
-684,539	157,480	0,039	-0,039
-683,524	-200,000	0,006	-0,058
-682,510	-186,248	0,011	-0,000
-681,495	29,926	0,084	-0,051
-680,481	-108,578	-0,180	0,028
-679,466	50,860	0,109	-0,074
-678,451	800,000	-0,033	-0,090
-677,437	35,890	-0,100	0,063
-676,422	-28,889	-0,133	0,055
-675,408	337,192	0,063	-0,088
-674,393	-11,341	-0,120	-0,057
-673,378	-9,793	-0,088	-0,042
-672,364	-86,660	-0,145	-0,032
-671,349	257,270	0,085	-0,106
-670,335	-200,000	0,010	-0,138
-669,320	-200,000	0,016	0,059
-668,305	-104,766	0,056	-0,009
-667,291	133,127	0,082	-0,076
-666,276	-22,067	0,020	-0,009
-665,262	-200,000	-0,038	-0,132
-664,247	-31,273	-0,057	-0,023
-663,232	800,000	-0,011	0,025
-662,218	-200,000	0,004	0,056
-661,203	-200,000	0,004	0,143
-660,189	766,078	-0,068	0,135
-659,174	-200,000	0,038	-0,176
-658,159	313,834	-0,058	-0,080
-657,145	140,763	-0,115	-0,110
-656,130	33,854	0,063	0,039
-655,116	339,128	0,066	0,093
-654,101	-134,677	-0,145	0,013
-653,086	-20,735	-0,181	0,080
-652,072	17,668	-0,018	-0,010
-651,057	-200,000	0,007	-0,075
-650,043	434,983	-0,095	0,151
-649,028	233,299	0,067	0,080
-648,014	-132,999	-0,052	0,005
-646,999	9,326	-0,082	-0,045
-645,984	524,667	-0,034	0,058
-644,970	-119,740	0,083	0,010
-643,955	-200,000	0,025	-0,138
-642,941	-200,000	-0,042	-0,162
-641,926	800,000	-0,039	0,106
-640,911	56,897	-0,045	0,032
-639,897	241,888	0,043	-0,052
-638,882	-200,000	0,004	0,093
-637,868	800,000	-0,018	-0,043
-636,853	20,112	-0,125	0,073
-635,838	-200,000	0,027	-0,113
-634,824	-200,000	-0,051	-0,168
-633,809	-200,000	-0,005	-0,043
-632,795	800,000	0,019	-0,047
-631,780	-200,000	-0,011	0,063
-630,765	-66,155	-0,093	0,027
-629,751	225,994	-0,084	-0,098
-628,736	500,155	-0,027	-0,044
-627,722	197,118	-0,129	0,142
-626,707	151,325	0,096	-0,095
-625,692	-200,000	0,001	0,049
-624,678	-74,253	0,122	0,032
-623,663	128,807	-0,136	0,125
-622,649	117,456	-0,031	-0,027
-621,634	-200,000	0,007	-0,067
-620,619	-117,233	0,104	-0,014
-619,605	-200,000	0,009	0,040
-618,590	-145,416	-0,122	-0,008
-617,576	47,015	0,081	0,055
-616,561	39,179	-0,030	0,019
-615,546	-74,754	-0,110	0,028
-614,532	800,000	-0,073	-0,188
-613,517	160,444	-0,037	0,038
-612,503	-101,184	-0,048	-0,008
-611,488	-134,475	0,139	0,012
-610,474	88,405	0,068	-0,054
-609,459	395,026	-0,024	0,037
-608,444	-97,418	0,076	-0,014
-607,430	544,779	-0,045	-0,077
-606,415	77,925	-0,071	0,055
-605,401	119,425	0,080	0,072
-604,386	800,000	0,008	0,023
-603,371	-81,843	0,141	0,033
-602,357	15,766	-0,087	0,049
-601,342	-66,254	0,062	0,018
-600,328	-200,000	-0,016	0,084
-599,313	-200,000	0,006	0,096
-598,298	-57,145	0,099	-0,031
-597,284	-107,698	-0,175	-0,027
-596,269	-17,784	0,161	-0,073
-595,255	139,701	0,057	0,054
-594,240	-200,000	0,025	0,148
-593,225	252,816	0,099	-0,122
-592,211	-125,175	-0,150	0,016
-591,196	-200,000	-0,021	-0,185
-590,182	800,000	0,035	0,076
-589,167	16,371	0,113	0,064
-588,152	-173,982	0,072	0,001
-587,138	-47,191	-0,151	0,053
-586,123	-200,000	0,007	-0,062
-585,109	-96,066	-0,120	0,023
-584,094	-200,000	0,010	0,078
-583,079	-51,559	0,132	-0,044
-582,065	24,016	-0,065	0,038
-581,050	326,930	-0,071	0,098
-580,036	-200,000	0,049	0,157
-579,021	-200,000	-0,009	0,081
-578,006	-200,000	-0,007	-0,049
-576,992	-200,000	0,019	-0,076
-575,977	-53,905	0,053	-0,017
-574,963	-84,325	-0,158	0,036
-573,948	-200,000	0,027	0,170
-572,934	562,244	-0,027	-0,048
-571,919	-200,000	-0,006	-0,134
-570,904	-165,323	0,017	0,001
-569,890	800,000	0,008	-0,018
-568,875	741,720	-0,029	0,056
-567,861	-200,000	0,006	-0,030
-566,846	-200,000	0,003	0,097
-565,831	94,971	-0,111	0,091
-564,817	741,377	-0,068	-0,132
-563,802	174,243	-0,099	0,103
-562,788	-200,000	0,016	-0,172
-561,773	135,217	-0,041	-0,038
-560,758	-102,828	-0,047	-0,008
-559,744	184,433	-0,085	-0,091
-558,729	-55,606	-0,015	0,005
-557,715	-200,000	-0,001	0,085
-556,700	194,527	-0,068	-0,074
-555,685	113,039	-0,175	-0,152
-554,671	800,000	0,038	0,107
-553,656	800,000	0,022	-0,052
-552,642	-75,026	-0,134	-0,034
-551,627	-200,000	0,051	-0,181
-550,612	-13,728	-0,059	0,028
-549,598	800,000	0,030	-0,093
-548,583	403,313	0,019	-0,029
-547,569	-200,000	-0,025	-0,082
-546,554	-200,000	-0,011	0,100
-545,539	147,248	0,080	0,078
-544,525	-50,426	-0,172	0,058
-543,510	-146,837	-0,103	-0,006
-542,496	57,587	0,020	0,014
-541,481	579,111	-0,026	-0,046
-540,466	-200,000	0,013	-0,106
-539,452	114,051	0,033	0,028
-538,437	-200,000	0,001	-0,049
-537,423	-200,000	0,009	0,038
-536,408	435,287	-0,115	-0,181
-535,393	-200,000	-0,022	-0,100
-534,379	-195,128	-0,082	-0,000
-533,364	-166,911	0,109	-0,003
-532,350	-200,000	-0,032	-0,102
-531,335	-54,294	0,079	-0,026
-530,321	-35,789	0,059	0,023
-529,306	-200,000	-0,001	-0,138
-528,291	411,947	0,121	-0,186
-527,277	37,178	-0,074	0,047
-526,262	-200,000	-0,004	-0,029
-525,248	-44,034	0,061	0,022
-524,233	64,230	0,087	0,063
-523,218	-200,000	-0,004	-0,034
-522,204	-200,000	0,004	0,101
-521,189	28,059	-0,166	0,101
-520,175	-104,124	-0,139	0,023
-519,160	-200,000	0,007	0,088
-518,145	-200,000	-0,001	0,119
-517,131	80,672	0,079	0,061
-516,116	800,000	0,062	0,171
-515,102	-39,066	-0,022	0,008
-514,087	81,424	0,064	0,050
-513,072	-45,055	0,040	-0,014
-512,058	-15,047	0,075	-0,034
-511,043	158,092	0,059	-0,059
-510,029	119,642	0,067	-0,060
-509,014	-200,000	-0,000	0,105
-507,999	-67,789	-0,100	0,028
-506,985	53,253	-0,098	-0,067
-505,970	-138,458	-0,057	0,004
-504,956	70,095	-0,060	-0,044
-503,941	117,137	0,077	-0,068
-502,926	-200,000	-0,004	0,038
-501,912	-200,000	0,024	-0,140
-500,897	-163,881	-0,073	-0,002
-499,883	-200,000	-0,006	0,073
-498,868	-200,000	0,004	-0,055
-497,853	-141,830	-0,218	0,015
-496,839	484,566	0,028	-0,046
-495,824	-38,567	0,200	-0,076
-494,810	98,510	0,060	-0,050
-493,795	800,000	0,038	-0,098
-492,781	106,478	-0,056	-0,048
-491,766	228,442	-0,137	-0,161
-490,751	800,000	-0,040	-0,090
-489,737	310,200	-0,054	-0,073
-488,722	-200,000	-0,015	0,059
-487,708	265,661	0,091	0,115
-486,693	86,513	0,074	0,059
-485,678	358,100	0,069	0,100
-484,664	800,000	0,052	-0,126
-483,649	12,547	-0,079	-0,044
-482,635	110,550	-0,110	-0,095
-481,620	800,000	-0,041	0,125
-480,605	800,000	0,045	0,106
-479,591	800,000	0,021	0,066
-478,576	-200,000	0,007	-0,040
-477,562	82,816	-0,091	0,071
-476,547	-200,000	-0,014	-0,123
-475,532	-128,563	-0,057	-0,006
-474,518	-114,307	0,099	-0,014
-473,503	669,657	0,044	-0,082
-472,489	203,522	-0,089	-0,099
-471,474	265,844	0,103	-0,130
-470,459	330,805	-0,073	-0,101
-469,445	-200,000	0,002	-0,079
-468,430	-176,193	-0,116	0,002
-467,416	-51,225	0,111	-0,037
-466,401	-200,000	-0,008	0,081
-465,386	800,000	0,054	-0,120
-464,372	-135,601	0,121	-0,010
-463,357	137,980	0,062	-0,059
-462,343	28,659	-0,101	-0,061
-461,328	548,363	-0,073	-0,127
-460,313	315,043	0,090	0,121
-459,299	-129,051	0,150	0,015
-458,284	-200,000	0,012	0,248
-457,270	-81,668	-0,073	0,017
-456,255	250,958	-0,003	-0,004
-455,241	-0,043	-0,097	-0,049
-454,226	542,185	-0,017	-0,030
-453,211	77,592	0,051	0,039
-452,197	372,084	0,074	-0,108
-451,182	800,000	0,007	-0,020
-450,168	-35,749	0,090	0,035
-449,153	90,724	0,063	0,050
-448,138	-200,000	-0,002	0,024
-447,124	-200,000	-0,004	-0,070
-446,109	-200,000	0,002	-0,053
-445,095	800,000	-0,033	0,074
-444,080	338,880	-0,110	0,154
-443,065	800,000	0,030	0,086
-442,051	-200,000	0,022	0,105
-441,036	49,308	0,043	0,029
-440,022	-27,240	-0,124	-0,051
-439,007	20,285	0,078	-0,045
-437,992	800,000	-0,062	0,172
-436,978	-200,000	0,008	-0,046
-435,963	415,955	-0,049	-0,075
-434,949	-25,459	-0,053	0,022
-433,934	-200,000	-0,013	-0,096
-432,919	800,000	-0,047	-0,125
-431,905	-200,000	0,012	-0,123
-430,890	318,882	0,117	0,159
-429,876	144,330	0,098	0,094
-428,861	11,568	-0,061	-0,034
-427,846	40,061	-0,082	-0,053
-426,832	800,000	0,027	-0,069
-425,817	800,000	-0,025	-0,053
-424,803	36,009	-0,170	0,107
-423,788	-1,482	-0,077	-0,039
-422,773	-55,675	-0,114	0,036
-421,759	369,600	-0,068	0,098
-420,744	69,913	-0,071	-0,052
-419,730	-62,918	0,024	-0,007
-418,715	-61,887	-0,117	0,035
-417,701	15,390	0,059	0,033
-416,686	63,488	0,127	0,091
-415,671	-200,000	0,000	0,060
-414,657	-200,000	0,005	0,059
-413,642	800,000	0,045	-0,091
-412,628	800,000	-0,080	-0,208
-411,613	305,556	-0,049	0,065
-410,598	179,977	0,042	-0,045
-409,584	-11,225	0,125	0,059
-408,569	437,286	-0,061	0,096
-407,555	-200,000	-0,028	0,096
-406,540	-22,127	-0,111	0,048
-405,525	202,953	0,030	0,034
-404,511	-200,000	-0,023	-0,149
-403,496	-200,000	0,019	-0,072
-402,482	76,744	0,074	-0,056
-401,467	92,621	0,054	0,043
-400,452	-163,004	0,127	0,004
-399,438	-200,000	-0,003	-0,036
-398,423	-200,000	0,013	0,120
-397,409	-200,000	0,002	-0,080
-396,394	800,000	-0,017	0,037
-395,379	-200,000	-0,004	0,040
-394,365	-200,000	0,076	0,270
-393,350	-75,933	0,180	0,045
-392,336	-106,366	0,055	0,009
-391,321	800,000	-0,016	-0,048
-390,306	800,000	0,056	-0,167
-389,292	-108,593	-0,216	0,033
-388,277	554,209	-0,025	0,044
-387,263	454,988	-0,048	-0,076
-386,248	-54,248	-0,039	0,013
-385,233	-30,337	-0,035	-0,014
-384,219	-138,382	0,024	-0,002
-383,204	-85,877	0,104	0,023
-382,190	-62,760	0,122	-0,036
-381,175	524,761	-0,078	0,131
-380,160	0,908	0,068	0,035
-379,146	1,377	0,112	0,057
-378,131	378,206	0,044	0,064
-377,117	-103,157	0,052	-0,009
-376,102	800,000	-0,033	-0,072
-375,088	123,874	-0,016	-0,014
-374,073	140,870	-0,050	-0,047
-373,058	-99,208	0,095	0,017
-372,044	169,513	0,086	0,088
-371,029	0,181	0,060	0,030
-370,015	-4,222	0,108	0,053
-369,000	-108,581	-0,139	0,021
-367,985	-140,597	0,216	-0,016
-366,971	-200,000	-0,005	-0,113
-365,956	407,606	-0,050	0,076
-364,942	-163,130	0,112	-0,004
-363,927	281,181	-0,048	0,061
-362,912	466,410	-0,020	0,033
-361,898	-200,000	0,008	0,045
-360,883	-44,134	0,020	0,007
-359,869	84,584	-0,135	-0,106
-358,854	-200,000	-0,030	0,095
-357,839	-112,754	-0,045	-0,006
-356,825	72,005	-0,066	-0,049
-355,810	331,441	0,044	0,060
-354,796	-79,313	-0,106	-0,026
-353,781	9,538	-0,101	0,055
-352,766	106,673	0,038	0,032
-351,752	120,371	-0,058	0,051
-350,737	-65,120	0,142	0,041
-349,723	-147,595	-0,089	-0,005
-348,708	-128,312	-0,076	0,008
-347,693	-200,000	-0,024	-0,094
-346,679	651,239	-0,091	-0,168
-345,664	800,000	0,054	-0,119
-344,650	138,138	-0,142	-0,133
-343,635	-166,372	0,074	-0,002
-342,620	-200,000	0,002	-0,021
-341,606	-200,000	0,005	0,083
-340,591	130,437	-0,074	-0,068
-339,577	-200,000	0,015	-0,104
-338,562	-200,000	0,023	-0,095
-337,548	-10,338	-0,116	-0,055
-336,533	-41,085	0,052	-0,019
-335,518	800,000	0,007	0,020
-334,504	-17,811	-0,114	-0,051
-333,489	-200,000	-0,023	0,119
-332,475	-200,000	0,029	-0,109
-331,460	-200,000	0,010	0,042
-330,445	201,693	0,050	0,055
-329,431	-200,000	0,021	0,086
-328,416	65,782	-0,042	-0,030
-327,402	606,487	-0,033	0,059
-326,387	92,721	-0,058	0,047
-325,372	-23,669	0,098	-0,042
-324,358	589,801	0,041	-0,072
-323,343	-200,000	-0,015	-0,057
-322,329	-200,000	0,009	0,034
-321,314	-157,770	0,039	-0,002
-320,299	-52,550	0,039	-0,013
-319,285	-185,840	-0,042	-0,000
-318,270	73,914	0,125	-0,093
-317,256	800,000	-0,028	-0,058
-316,241	723,616	-0,040	-0,076
-315,226	-70,973	0,091	0,024
-314,212	800,000	0,037	-0,089
-313,197	32,246	0,191	0,117
-312,183	-200,000	-0,035	0,113
-311,168	-39,345	0,063	-0,024
-310,153	-119,531	0,051	0,006
-309,139	-70,998	-0,110	0,029
-308,124	-117,528	0,232	-0,030
-307,110	247,123	0,036	0,043
-306,095	800,000	0,061	0,172
-305,080	301,966	0,036	0,047
-304,066	131,408	-0,082	-0,075
-303,051	800,000	0,063	-0,155
-302,037	-200,000	0,004	-0,045
-301,022	30,269	-0,054	0,033
-300,008	414,602	-0,061	0,093
-298,993	800,000	0,038	-0,102
-297,978	-173,466	-0,057	-0,001
-296,964	800,000	-0,056	-0,164
-295,949	800,000	-0,027	-0,080
-294,935	87,765	-0,083	-0,065
-293,920	-163,752	0,065	0,002
-292,905	-98,558	0,025	-0,005
-291,891	79,907	0,070	0,053
-290,876	-200,000	-0,013	-0,087
-289,862	-167,833	-0,185	-0,005
-288,847	-200,000	-0,008	-0,057
-287,832	85,276	-0,069	-0,054
-286,818	-61,397	0,067	-0,020
-285,803	329,956	0,110	-0,151
-284,789	-200,000	0,018	-0,088
-283,774	-33,289	0,052	0,020
-282,759	-15,484	0,087	-0,039
-281,745	163,725	0,080	-0,080
-280,730	479,770	-0,032	0,052
-279,716	158,858	-0,079	-0,079
-278,701	31,251	0,146	0,089
-277,686	74,805	0,157	0,118
-276,672	455,256	-0,029	0,046
-275,657	83,115	-0,025	0,019
-274,643	235,097	-0,113	-0,133
-273,628	-77,744	0,057	-0,014
-272,613	49,590	-0,105	0,071
-271,599	-200,000	0,006	0,054
-270,584	60,978	0,095	0,067
-269,570	-96,832	0,147	-0,027
-268,555	-200,000	-0,015	-0,081
-267,540	-133,555	-0,195	-0,017
-266,526	800,000	-0,010	0,022
-265,511	548,535	0,045	-0,077
-264,497	-200,000	-0,031	0,145
-263,482	155,390	0,042	0,042
-262,467	421,538	-0,017	0,027
-261,453	-19,095	0,081	0,036
-260,438	-200,000	-0,017	0,060
-259,424	-101,522	0,077	0,013
-258,409	800,000	-0,016	-0,040
-257,395	-2,748	-0,021	-0,011
-256,380	-161,487	0,222	-0,008
-255,365	-108,955	0,020	-0,003
-254,351	-2,403	-0,003	0,002
-253,336	366,171	0,080	0,115
-252,322	105,658	-0,042	0,035
-251,307	-132,685	-0,077	0,007
-250,292	124,760	0,155	0,139
-249,278	-200,000	0,038	-0,152
-248,263	-46,268	0,080	-0,028
-247,249	800,000	0,050	0,134
-246,234	-200,000	-0,013	-0,065
-245,219	-58,482	-0,051	0,016
-244,205	-200,000	0,000	-0,061
-243,190	-10,647	0,054	-0,026
-242,176	-97,558	0,137	-0,025
-241,161	400,242	0,041	0,062
-240,146	-3,069	-0,075	-0,037
-239,132	-200,000	-0,001	0,115
-238,117	167,902	-0,164	-0,166
-237,103	172,057	0,108	-0,111
-236,088	800,000	-0,043	-0,087
-235,073	413,568	0,130	0,197
-234,059	-200,000	0,048	0,181
-233,044	287,709	-0,112	0,145
-232,030	156,673	0,025	-0,025
-231,015	-200,000	0,000	-0,083
-230,000	44,756	-0,122	0,080
-228,986	-200,000	0,019	0,089
-227,971	538,072	0,024	0,040
-226,957	-200,000	0,009	0,073
-225,942	59,515	0,137	0,096
-224,927	-118,120	-0,141	0,018
-223,913	227,067	-0,095	-0,109
-222,898	-73,116	0,053	-0,014
-221,884	189,660	-0,099	-0,105
-220,869	800,000	-0,025	-0,052
-219,855	50,682	0,100	0,067
-218,840	54,301	-0,028	-0,019
-217,825	-60,791	-0,241	0,072
-216,811	86,633	0,054	-0,042
-215,796	29,178	-0,074	0,044
-214,782	366,790	-0,034	-0,048
-213,767	656,645	-0,062	0,114
-212,752	-53,290	0,093	-0,030
-211,738	99,501	0,015	-0,012
-210,723	105,539	-0,071	0,060
-209,709	-7,807	0,151	-0,072
-208,694	1,306	-0,134	-0,068
-207,679	-200,000	-0,004	-0,022
-206,665	-41,822	0,047	0,017
-205,650	-115,017	0,053	-0,007
-204,636	227,813	0,195	0,225
-203,621	800,000	-0,029	0,071
-202,606	-151,726	0,147	0,008
-201,592	-200,000	-0,014	-0,055
-200,577	-200,000	0,010	-0,153
-199,563	-9,091	-0,070	-0,033
-198,548	0,748	0,042	0,021
-197,533	98,217	0,172	0,141
-196,519	-21,560	-0,111	-0,048
-195,504	19,321	0,050	-0,029
-194,490	41,983	-0,133	-0,086
-193,475	800,000	0,042	-0,109
-192,460	-200,000	0,010	-0,088
-191,446	569,234	0,041	0,072
-190,431	-200,000	0,048	0,166
-189,417	381,470	-0,054	0,079
-188,402	66,978	-0,101	0,073
-187,387	-200,000	-0,004	0,034
-186,373	102,675	0,086	-0,072
-185,358	38,583	-0,022	-0,014
-184,344	-200,000	-0,001	0,223
-183,329	-147,636	0,127	0,007
-182,315	68,120	-0,062	-0,045
-181,300	-69,425	-0,046	0,012
-180,285	-59,981	0,110	-0,033
-179,271	134,519	-0,094	0,086
-178,256	7,988	-0,134	0,071
-177,242	109,692	0,156	0,132
-176,227	-78,598	0,071	0,017
-175,212	-8,855	0,077	-0,036
-174,198	-200,000	0,011	0,046
-173,183	-142,628	-0,055	-0,004
-172,169	326,798	0,056	0,077
-171,154	115,795	-0,040	0,035
-170,139	-200,000	-0,000	0,048
-169,125	-45,936	0,039	-0,014
-168,110	-200,000	-0,028	0,150
-167,096	-56,556	-0,042	0,013
-166,081	24,211	-0,057	-0,033
-165,066	203,779	-0,097	-0,107
-164,052	-200,000	-0,009	0,054
-163,037	-88,760	0,129	0,027
-162,023	-200,000	-0,002	0,008
-161,008	184,022	0,146	-0,153
-159,993	-200,000	0,010	0,064
-158,979	-29,178	-0,085	-0,034
-157,964	-200,000	-0,016	-0,059
-156,950	100,834	-0,045	-0,037
-155,935	-142,810	-0,046	-0,003
-154,920	334,849	0,059	0,082
-153,906	-200,000	-0,038	0,152
-152,891	632,313	-0,064	0,115
-151,877	54,248	0,132	-0,090
-150,862	-71,382	0,108	0,028
-149,847	-200,000	0,014	-0,047
-148,833	-94,880	0,058	0,011
-147,818	-35,290	-0,057	0,022
-146,804	800,000	-0,045	-0,106
-145,789	425,908	0,022	-0,034
-144,775	800,000	-0,058	0,118
-143,760	204,761	-0,075	-0,083
-142,745	-200,000	-0,126	0,000
-141,731	47,843	-0,101	0,067
-140,716	800,000	-0,028	0,063
-139,702	206,247	-0,056	0,062
-138,687	66,365	0,088	0,063
-137,672	167,761	-0,050	0,051
-136,658	800,000	-0,032	-0,066
-135,643	-21,507	-0,136	-0,059
-134,629	-59,581	0,037	-0,011
-133,614	-99,943	-0,140	0,025
-132,599	800,000	0,023	0,050
-131,585	782,361	-0,059	-0,115
-130,570	-154,897	0,092	-0,004
-129,556	-200,000	-0,008	-0,123
-128,541	-200,000	0,026	-0,152
-127,526	-200,000	-0,012	-0,137
-126,512	-22,884	0,047	0,020
-125,497	-113,137	0,099	-0,014
-124,483	-200,000	0,048	0,167
-123,468	-200,000	-0,008	0,067
-122,453	242,730	0,036	-0,043
-121,439	-42,664	-0,081	-0,029
-120,424	800,000	0,030	0,060
-119,410	495,504	0,035	-0,056
-118,395	-90,387	0,199	0,040
-117,380	-28,968	-0,114	0,046
-116,366	-83,030	0,138	0,031
-115,351	-157,156	0,018	-0,001
-114,337	150,061	-0,101	-0,097
-113,322	121,024	0,013	0,012
-112,307	-200,000	0,011	-0,105
-111,293	-200,000	0,001	-0,048
-110,278	65,994	0,065	0,046
-109,264	233,750	-0,046	-0,054
-108,249	-118,258	0,125	0,016
-107,234	17,958	-0,176	-0,099
-106,220	265,471	-0,062	-0,077
-105,205	-200,000	-0,017	-0,131
-104,191	768,897	0,015	0,029
-103,176	-91,101	0,062	0,012
-102,162	251,355	-0,069	0,084
-101,147	-22,626	0,123	-0,052
-100,132	-44,156	-0,070	0,025
-99,118	40,566	0,123	0,078
-98,103	-12,813	-0,048	0,022
-97,089	395,354	0,136	0,201
-96,074	689,425	0,055	0,102
-95,059	4,029	-0,020	0,010
-94,045	-200,000	-0,008	0,057
-93,030	13,827	-0,117	-0,064
-92,016	-61,953	-0,183	-0,054
-91,001	348,096	-0,053	0,074
-89,986	11,106	0,164	-0,089
-88,972	-158,884	-0,087	0,003
-87,957	730,181	0,021	0,040
-86,943	800,000	0,064	0,149
-85,928	155,827	-0,049	0,048
-84,913	-200,000	-0,013	0,117
-83,899	-200,000	-0,000	0,031
-82,884	-55,881	0,061	0,019
-81,870	-200,000	0,003	0,079
-80,855	484,241	0,084	0,136
-79,840	122,877	-0,106	-0,093
-78,826	-34,692	-0,124	-0,048
-77,811	-200,000	-0,007	-0,068
-76,797	566,822	-0,066	-0,115
-75,782	561,397	0,042	-0,072
-74,767	-200,000	-0,018	0,181
-73,753	-160,525	0,067	0,002
-72,738	66,833	0,045	0,032
-71,724	800,000	-0,031	-0,063
-70,709	39,821	0,057	0,036
-69,694	122,435	-0,028	0,025
-68,680	-200,000	-0,027	0,108
-67,665	-200,000	0,036	-0,139
-66,651	-154,909	0,063	0,003
-65,636	-20,878	-0,140	-0,060
-64,622	-19,545	-0,029	-0,013
-63,607	800,000	-0,059	-0,152
-62,592	-13,326	0,058	0,027
-61,578	-34,424	-0,072	0,028
-60,563	45,065	0,132	0,086
-59,549	800,000	-0,040	0,081
-58,534	6,867	-1,809	-0,949
-57,519	398,952	-1,505	-2,234
-56,505	-200,000	-0,424	-4,548
-55,490	250,107	0,881	1,059
-54,476	800,000	5,026	11,292
-53,461	-200,000	19,580	328,782
-52,446	-200,000	742,043	2334,391
-51,432	569,972	1651,337	2849,310
-50,417	76,923	1665,385	1248,099
-49,403	20,497	1538,798	876,794
-48,388	14,413	1461,265	803,171
-47,373	18,443	1451,888	817,363
-46,359	16,636	1441,343	802,779
-45,344	12,672	1436,735	781,289
-44,330	12,524	1434,978	779,599
-43,315	12,551	1433,390	778,833
-42,300	12,618	1431,530	778,110
-41,286	12,615	1430,370	777,436
-40,271	12,565	1429,057	776,454
-39,257	12,534	1427,722	775,549
-38,242	12,612	1426,246	775,085
-37,227	12,606	1425,099	774,400
-36,213	12,656	1423,716	773,858
-35,198	12,627	1422,807	773,195
-34,184	12,635	1421,846	772,679
-33,169	12,593	1420,464	771,698
-32,154	12,668	1419,357	771,419
-31,140	12,686	1417,993	770,735
-30,125	12,699	1416,845	770,141
-29,111	12,599	1416,153	769,263
-28,096	12,647	1414,797	768,725
-27,082	12,561	1413,827	767,762
-26,067	12,607	1412,586	767,272
-25,052	12,552	1411,699	766,503
-24,038	12,567	1410,697	765,999
-23,023	12,527	1409,504	765,135
-22,009	12,528	1408,595	764,612
-20,994	12,486	1407,786	763,948
-19,979	12,540	1406,960	763,724
-18,965	12,504	1405,852	762,923
-17,950	12,502	1405,190	762,525
-16,936	12,508	1404,245	762,010
-15,921	12,486	1403,124	761,266
-14,906	12,490	1402,152	760,730
-13,892	12,449	1401,263	760,023
-12,877	12,467	1400,398	759,609
-11,863	12,493	1399,451	759,186
-10,848	12,419	1398,666	758,387
-9,833	12,425	1397,722	757,874
-8,819	12,375	1396,862	757,146
-7,804	12,307	1396,148	756,410
-6,790	12,359	1395,110	756,063
-5,775	12,383	1393,996	755,540
-4,760	12,434	1392,704	755,045
-3,746	12,309	1392,124	754,119
-2,731	12,334	1391,240	753,727
-1,717	12,298	1390,413	753,085
-0,702	12,352	1388,589	752,317
0,313	16,324	1304,966	725,271
1,327	32,734	699,163	426,206
2,342	50,323	122,242	81,426
3,356	0,548	16,585	8,343
4,371	-1,474	3,287	1,631
5,386	147,886	0,518	0,493
6,400	494,295	0,191	0,310
7,415	19,905	-0,302	-0,171
8,429	35,577	-0,163	-0,101
9,444	117,776	-0,376	-0,326
10,459	182,821	-0,156	-0,163
11,473	158,745	-0,262	-0,257
12,488	87,437	-0,256	-0,200
13,502	23,077	-0,437	-0,253
14,517	136,384	-0,276	-0,254
15,531	-34,117	-0,391	-0,151
16,546	50,295	-0,246	-0,164
17,561	91,704	-0,252	-0,200
18,575	93,789	-0,105	-0,083
19,590	-16,210	-0,215	-0,096
20,604	28,338	-0,235	-0,140
21,619	2,951	-0,543	-0,277
22,634	45,775	-0,472	-0,307
23,648	163,139	-0,403	-0,399
24,663	52,321	-0,397	-0,266
25,677	31,488	-0,382	-0,231
26,692	126,598	-0,305	-0,272
27,707	85,096	-0,215	-0,166
28,721	205,935	-0,374	-0,411
29,736	4,610	-0,337	-0,174
30,750	83,830	-0,365	-0,280
31,765	43,318	-0,364	-0,234
32,780	226,256	-0,283	-0,324
33,794	118,615	-0,285	-0,248
34,809	32,439	-0,488	-0,296
35,823	263,315	-0,290	-0,355
36,838	37,915	-0,446	-0,279
37,853	56,165	-0,475	-0,324
38,867	169,821	-0,217	-0,219
39,882	126,873	-0,195	-0,174
40,896	71,336	-0,370	-0,270
41,911	64,296	-0,383	-0,271
42,926	-3,030	-0,387	-0,189
43,940	3,654	-0,402	-0,206
44,955	192,551	-0,252	-0,268
45,969	84,922	-0,333	-0,256
46,984	-70,334	-0,454	-0,120
47,999	193,609	-0,243	-0,259
49,013	282,571	-0,299	-0,378
50,028	72,355	-0,301	-0,221
51,042	23,027	-0,314	-0,181
52,057	39,304	-0,435	-0,273
53,071	105,237	-0,399	-0,331
54,086	127,511	-0,216	-0,193
55,101	63,864	-0,210	-0,148
56,115	-5,255	-0,339	-0,163
57,130	59,565	-0,419	-0,290
58,144	-43,896	-0,363	-0,128
59,159	54,748	-0,423	-0,286
60,174	128,394	-0,330	-0,295
61,188	177,182	-0,312	-0,319
62,203	121,062	-0,245	-0,214
63,217	-55,583	-0,210	-0,066
64,232	120,929	-0,235	-0,205
65,247	-30,466	-0,327	-0,130
66,261	-18,785	-0,384	-0,167
67,276	90,739	-0,449	-0,353
68,290	35,269	-0,347	-0,213
69,305	-7,119	-0,336	-0,160
70,320	-40,107	-0,414	-0,151
71,334	692,612	-0,164	-0,303
72,349	-91,042	-0,352	-0,070
73,363	133,133	-0,319	-0,290
74,378	-9,401	-0,364	-0,170
75,393	53,678	-0,333	-0,224
76,407	17,354	-0,224	-0,125
77,422	9,052	-0,301	-0,159
78,436	204,572	-0,217	-0,236
79,451	-20,535	-0,332	-0,143
80,466	-1,778	-0,379	-0,186
81,480	62,850	-0,318	-0,223
82,495	122,375	-0,159	-0,139
83,509	-19,650	-0,313	-0,135
84,524	53,572	-0,298	-0,200
85,539	-14,413	-0,287	-0,129
86,553	9,763	-0,326	-0,173
87,568	-9,693	-0,483	-0,225
88,582	13,875	-0,300	-0,163
89,597	319,476	-0,163	-0,217
90,611	45,595	-0,230	-0,148
91,626	39,287	-0,211	-0,132
92,641	79,773	-0,165	-0,124
93,655	37,114	-0,262	-0,162
94,670	69,288	-0,359	-0,258
95,684	21,774	-0,325	-0,185
96,699	46,854	-0,425	-0,276
97,714	41,110	-0,374	-0,236
98,728	111,436	-0,230	-0,194
99,743	171,218	-0,327	-0,329
100,757	71,126	-0,368	-0,267
101,772	124,234	-0,281	-0,247
102,787	188,510	-0,253	-0,265
103,801	30,854	-0,364	-0,218
104,816	-58,932	-0,344	-0,103
105,830	216,786	-0,195	-0,218
106,845	41,348	-0,232	-0,146
107,860	57,213	-0,288	-0,196
108,874	110,767	-0,276	-0,233
109,889	27,069	-0,318	-0,186
110,903	47,330	-0,334	-0,217
111,918	21,383	-0,391	-0,222
112,933	21,067	-0,233	-0,132
113,947	-200,000	-0,061	-0,219
114,962	-200,000	-0,240	-0,000
115,976	475,645	-0,116	-0,183
116,991	102,187	-0,253	-0,206
118,006	-40,023	-0,432	-0,157
119,020	-3,465	-0,261	-0,127
120,035	-49,080	-0,251	-0,083
121,049	-132,978	-0,222	0,019
122,064	55,695	-0,291	-0,197
123,079	-75,756	-0,243	-0,060
124,093	-35,149	-0,344	-0,130
125,108	73,298	-0,266	-0,194
126,122	-6,743	-0,258	-0,122
127,137	17,963	-0,227	-0,126
128,151	124,444	-0,237	-0,208
129,166	22,559	-0,222	-0,127
130,181	-33,426	-0,286	-0,110
131,195	116,369	-0,182	-0,155
132,210	58,119	-0,302	-0,206
133,224	-69,492	-0,250	-0,067
134,239	173,229	-0,166	-0,167
135,254	224,473	-0,101	-0,114
136,268	114,766	-0,318	-0,271
137,283	716,088	-0,118	-0,219
138,297	16,717	-0,334	-0,184
139,312	30,991	-0,270	-0,161
140,327	117,199	-0,327	-0,280
141,341	74,472	-0,227	-0,166
142,356	38,230	-0,277	-0,172
143,370	-49,403	-0,301	-0,100
144,385	166,208	-0,143	-0,141
145,400	-126,154	-0,356	-0,037
146,414	322,598	-0,137	-0,182
147,429	123,349	-0,158	-0,138
148,443	38,384	-0,296	-0,183
149,458	177,022	-0,189	-0,192
150,473	13,302	-0,188	-0,101
151,487	800,000	-0,111	-0,248
152,502	118,591	-0,305	-0,263
153,516	162,904	-0,174	-0,171
154,531	49,248	-0,248	-0,162
155,546	590,294	-0,178	-0,307
156,560	75,099	-0,346	-0,254
157,575	18,757	-0,248	-0,138
158,589	90,419	-0,218	-0,170
159,604	460,881	-0,153	-0,239
160,619	76,835	-0,235	-0,174
161,633	29,541	-0,186	-0,110
162,648	-3,492	-0,247	-0,119
163,662	-62,747	-0,248	-0,071
164,677	25,722	-0,207	-0,120
165,692	-111,103	-0,353	-0,050
166,706	20,791	-0,316	-0,178
167,721	314,634	-0,221	-0,290
168,735	385,663	-0,248	-0,358
169,750	150,469	-0,263	-0,248
170,764	-83,051	-0,240	-0,053
171,779	116,110	-0,183	-0,156
172,794	547,249	-0,226	-0,377
173,808	144,632	-0,188	-0,175
174,823	226,058	-0,238	-0,269
175,837	32,861	-0,337	-0,202
176,852	60,926	-0,291	-0,201
177,867	-61,398	-0,319	-0,093
178,881	173,141	-0,147	-0,148
179,896	62,641	-0,233	-0,162
180,910	-20,505	-0,235	-0,100
181,925	-51,355	-0,159	-0,051
182,940	522,796	-0,149	-0,244
183,954	50,452	-0,262	-0,172
184,969	164,252	-0,206	-0,201
185,983	-119,699	-0,291	-0,034
186,998	454,838	-0,130	-0,201
188,013	5,977	-0,227	-0,117
189,027	171,448	-0,208	-0,208
190,042	-30,336	-0,226	-0,089
191,056	49,121	-0,222	-0,145
192,071	-20,127	-0,324	-0,138
193,086	800,000	-0,111	-0,218
194,100	-49,556	-0,178	-0,058
195,115	237,418	-0,103	-0,119
196,129	169,554	-0,224	-0,222
197,144	163,407	-0,302	-0,295
198,159	13,152	-0,252	-0,135
199,173	2,519	-0,095	-0,048
200,188	165,807	-0,159	-0,156
201,202	14,456	-0,204	-0,110
202,217	-16,034	-0,211	-0,093
203,232	-57,911	-0,311	-0,094
204,246	328,700	-0,172	-0,229
205,261	89,312	-0,178	-0,137
206,275	299,585	-0,119	-0,153
207,290	148,344	-0,191	-0,179
208,304	-86,242	-0,148	0,031
209,319	-4,747	-0,236	-0,113
210,334	-51,943	-0,194	-0,062
211,348	20,161	-0,317	-0,177
212,363	800,000	-0,077	-0,154
213,377	36,020	-0,160	-0,097
214,392	-135,298	-0,235	0,019
215,407	-200,000	-0,053	-0,184
216,421	428,534	-0,142	-0,213
217,436	-38,982	-0,118	-0,043
218,450	53,395	-0,223	-0,148
219,465	151,783	-0,242	-0,229
220,480	-200,000	-0,121	-0,424
221,494	-200,000	-0,083	-0,259
222,509	-45,908	-0,248	-0,084
223,523	261,512	-0,135	-0,162
224,538	-58,756	-0,202	-0,060
225,553	-57,993	-0,210	-0,063
226,567	3,820	-0,207	-0,104
227,582	134,071	-0,294	-0,264
228,596	800,000	-0,073	-0,209
229,611	3,287	-0,182	-0,091
230,626	82,907	-0,141	0,106
231,640	-200,000	-0,032	-0,143
232,655	18,572	-0,289	-0,160
233,669	395,410	-0,147	-0,214
234,684	-90,724	-0,181	0,036
235,699	16,519	-0,164	-0,090
236,713	37,750	-0,145	0,089
237,728	124,053	-0,186	-0,161
238,742	-105,024	-0,202	-0,032
239,757	800,000	-0,089	-0,207
240,772	-27,811	-0,293	-0,117
241,786	39,169	-0,228	-0,141
242,801	204,789	-0,141	-0,152
243,815	57,127	-0,242	-0,163
244,830	-96,960	-0,175	-0,031
245,844	-36,136	-0,203	-0,075
246,859	-111,755	-0,080	0,011
247,874	345,747	-0,156	-0,212
248,888	9,673	-0,251	-0,131
249,903	127,841	-0,196	-0,172
250,917	-62,722	-0,172	-0,049
251,932	-40,252	-0,062	-0,022
252,947	328,006	-0,158	-0,211
253,961	-200,000	-0,079	-0,254
254,976	396,691	-0,197	-0,286
255,990	18,402	-0,197	-0,108
257,005	20,368	-0,156	-0,087
258,020	46,868	-0,153	-0,098
259,034	-140,362	-0,126	-0,009
260,049	74,640	-0,069	-0,050
261,063	-16,106	-0,217	-0,095
262,078	-60,662	-0,189	-0,055
263,093	-37,454	-0,225	-0,082
264,107	-126,612	-0,195	-0,020
265,122	246,641	-0,107	-0,125
266,136	17,529	-0,167	-0,091
267,151	-41,469	-0,173	0,061
268,166	-200,000	-0,005	-0,100
269,180	-5,268	-0,134	-0,063
270,195	458,902	-0,186	-0,286
271,209	800,000	-0,084	-0,175
272,224	274,680	-0,186	-0,227
273,239	-112,797	-0,045	0,006
274,253	-31,063	-0,150	-0,058
275,268	608,179	-0,074	-0,128
276,282	113,889	-0,242	-0,202
277,297	-195,753	-0,201	0,001
278,312	-58,185	-0,308	-0,092
279,326	74,255	-0,098	-0,071
280,341	-78,900	-0,200	0,047
281,355	-18,180	-0,186	0,080
282,370	314,924	-0,191	-0,249
283,384	64,685	-0,099	-0,068
284,399	-23,327	-0,167	-0,069
285,414	480,151	-0,074	-0,116
286,428	219,375	-0,180	-0,198
287,443	-10,628	-0,155	-0,071
288,457	334,208	-0,167	-0,223
289,472	221,780	-0,112	-0,124
290,487	141,792	-0,159	-0,145
291,501	34,901	-0,182	-0,110
292,516	316,735	-0,182	-0,237
293,530	198,468	-0,153	-0,161
294,545	232,647	-0,167	-0,189
295,560	-106,936	-0,044	0,007
296,574	-108,842	-0,153	0,022
297,589	-83,643	-0,144	-0,031
298,603	80,392	-0,149	-0,111
299,618	244,205	-0,133	-0,154
300,633	-12,567	-0,153	-0,068
301,647	-17,617	-0,248	-0,107
302,662	301,543	-0,162	-0,207
303,676	-159,065	-0,206	0,008
304,691	-20,072	-0,161	0,068
305,706	286,742	-0,081	-0,101
306,720	259,776	-0,133	-0,158
307,735	421,137	-0,063	-0,094
308,749	800,000	-0,090	-0,239
309,764	134,972	-0,179	-0,160
310,779	48,706	-0,199	-0,128
311,793	-88,047	-0,138	-0,028
312,808	89,194	-0,258	-0,197
313,822	-64,276	-0,184	-0,051
314,837	-135,348	-0,102	-0,008
315,852	-135,321	-0,145	-0,012
316,866	314,726	-0,079	-0,103
317,881	171,852	-0,139	-0,137
318,895	800,000	-0,092	-0,248
319,910	-176,592	-0,169	0,003
320,925	5,163	-0,126	-0,063
321,939	-77,881	-0,180	-0,042
322,954	754,738	-0,085	-0,158
323,968	101,795	-0,184	-0,147
324,983	-181,976	-0,203	0,003
325,997	224,674	-0,113	-0,125
327,012	-77,603	-0,178	-0,042
328,027	-24,372	-0,115	-0,047
329,041	646,455	-0,086	-0,152
330,056	-59,329	-0,157	-0,046
331,070	-200,000	-0,019	-0,084
332,085	34,369	-0,176	-0,105
333,100	255,428	-0,090	-0,106
334,114	45,204	-0,091	-0,058
335,129	-47,483	-0,303	-0,101
336,143	-111,990	-0,186	-0,025
337,158	-200,000	-0,028	-0,115
338,173	172,117	-0,160	-0,158
339,187	109,495	-0,100	-0,082
340,202	230,819	-0,146	-0,164
341,216	200,293	-0,159	-0,167
342,231	800,000	-0,031	-0,063
343,246	-7,611	-0,219	-0,101
344,260	-164,203	-0,056	-0,002
345,275	493,449	-0,110	-0,173
346,289	58,890	-0,156	-0,105
347,304	-170,504	-0,096	0,002
348,319	165,797	-0,126	-0,122
349,333	9,609	-0,319	-0,165
350,348	501,748	-0,100	-0,158
351,362	97,113	-0,132	-0,103
352,377	-200,000	-0,016	-0,073
353,392	178,469	-0,101	-0,101
354,406	-58,077	-0,118	0,035
355,421	207,754	1313,915	1406,128
356,435	159,834	1474,531	1406,632
