DTS Sentinel unit serial number:	SN410029Multiplexer serial number:	ORYXHardware model number:	OX2-SRSoftware version number:	ORYX F/W v4,00 Oryx Data Collector v3.7.2.0data status	okinstallation	B3 Nyhavnadifferential loss correction	single-endedforward channel	channel 1reverse channel	N/Adate	2023/12/03time	06:42:30forward acquisition time	300,00reverse acquisition time	0,00gamma	499,1914k internal	0,3201k external	0,3201temperature offset calibration	1,0000default loss term (dB/km)	0,3820temperature slope calibration	1,0000multiplexer offset coefficient	1,0000multiplexer slope coefficient	1,0000fibre end	0,00T internal ref (°C)	13,31T ext. ref 1 (°C)	-1,78T ext. ref 2 (°C)	-1,80length (m)	temperature (°C)	Stokes	anti-Stokes-744,400	714,491	-0,152	-0,294
-743,385	-200,000	0,030	0,259
-742,371	244,992	-0,181	-0,221
-741,356	-200,000	0,028	0,265
-740,342	39,080	-0,219	-0,142
-739,327	800,000	-0,081	0,224
-738,312	800,000	-0,105	-0,294
-737,298	800,000	-0,080	0,250
-736,283	515,679	-0,136	-0,232
-735,269	174,212	0,179	0,188
-734,254	305,929	-0,154	-0,208
-733,239	800,000	-0,052	0,110
-732,225	800,000	-0,091	-0,291
-731,210	250,530	0,115	0,142
-730,196	-200,000	-0,007	-0,040
-729,181	321,814	0,057	-0,079
-728,167	-200,000	-0,035	-0,132
-727,152	-200,000	0,011	-0,065
-726,137	800,000	-0,025	0,064
-725,123	676,012	0,044	-0,084
-724,108	94,789	-0,041	-0,034
-723,094	42,346	-0,101	-0,067
-722,079	-200,000	0,001	-0,120
-721,064	-74,005	-0,015	0,004
-720,050	800,000	-0,071	0,158
-719,035	309,928	-0,073	-0,100
-718,021	237,107	0,067	-0,081
-717,006	205,548	0,019	-0,022
-715,991	18,075	-0,087	-0,050
-714,977	72,053	-0,147	-0,111
-713,962	800,000	0,012	0,032
-712,948	-66,278	-0,085	0,024
-711,933	-19,511	0,021	-0,009
-710,918	68,373	0,036	0,027
-709,904	800,000	-0,028	0,070
-708,889	-95,464	-0,105	0,020
-707,875	3,095	-0,088	-0,046
-706,860	204,570	0,141	-0,159
-705,845	96,796	-0,013	-0,011
-704,831	-145,690	0,093	-0,006
-703,816	56,497	-0,080	0,056
-702,802	-96,059	-0,167	0,032
-701,787	318,367	0,017	-0,023
-700,772	93,574	-0,072	0,059
-699,758	800,000	-0,031	-0,096
-698,743	-44,495	0,064	-0,023
-697,729	800,000	0,044	0,090
-696,714	-200,000	0,024	-0,112
-695,699	-9,954	-0,139	-0,067
-694,685	-200,000	0,003	0,036
-693,670	-104,002	0,007	-0,001
-692,656	-200,000	-0,002	0,046
-691,641	64,560	0,120	0,088
-690,627	63,757	-0,030	-0,022
-689,612	572,418	0,054	0,095
-688,597	-45,910	0,089	-0,032
-687,583	192,672	-0,153	-0,168
-686,568	73,101	-0,131	-0,100
-685,554	277,690	-0,109	-0,141
-684,539	698,635	0,011	-0,021
-683,524	-92,093	0,096	-0,019
-682,510	251,171	0,053	-0,065
-681,495	-200,000	0,029	-0,135
-680,481	-156,480	0,084	-0,004
-679,466	-200,000	-0,010	-0,041
-678,451	-200,000	0,027	-0,128
-677,437	273,722	-0,065	-0,084
-676,422	800,000	0,038	0,114
-675,408	-9,678	-0,030	0,014
-674,393	568,655	0,045	-0,080
-673,378	-200,000	0,016	-0,068
-672,364	-110,381	-0,111	-0,016
-671,349	80,060	-0,140	0,109
-670,335	344,679	0,031	0,045
-669,320	-68,662	0,154	-0,043
-668,305	-85,399	-0,039	0,009
-667,291	-39,796	0,146	0,055
-666,276	517,349	-0,106	-0,180
-665,262	20,886	0,030	-0,017
-664,247	800,000	0,027	0,082
-663,232	245,318	-0,102	-0,124
-662,218	-200,000	0,007	-0,088
-661,203	268,767	0,010	0,013
-660,189	135,133	-0,107	0,101
-659,174	-200,000	-0,019	-0,131
-658,159	-200,000	0,003	-0,027
-657,145	386,500	-0,070	-0,106
-656,130	48,111	-0,012	-0,008
-655,116	173,971	0,037	0,039
-654,101	469,293	-0,065	-0,106
-653,086	191,932	-0,160	0,176
-652,072	-151,129	0,082	-0,004
-651,057	44,176	-0,063	-0,042
-650,043	-153,953	-0,133	-0,006
-649,028	-5,052	0,087	-0,043
-648,014	430,159	-0,077	0,121
-646,999	-85,005	0,146	-0,033
-645,984	-40,406	-0,038	-0,014
-644,970	-36,888	-0,242	-0,094
-643,955	30,642	-0,033	-0,021
-642,941	-40,376	-0,083	0,031
-641,926	457,603	0,055	0,089
-640,911	348,667	0,034	-0,049
-639,897	710,658	0,027	0,053
-638,882	549,973	0,083	0,144
-637,868	44,949	0,109	-0,072
-636,853	-83,236	0,058	0,013
-635,838	-27,489	0,053	0,022
-634,824	-89,743	-0,121	-0,026
-633,809	-60,308	0,112	-0,034
-632,795	68,105	-0,119	0,088
-631,780	-200,000	0,008	-0,101
-630,765	-200,000	0,003	0,020
-629,751	-200,000	-0,045	-0,150
-628,736	-200,000	0,002	-0,080
-627,722	-24,833	-0,089	0,038
-626,707	800,000	-0,036	0,078
-625,692	49,967	0,060	-0,041
-624,678	114,233	0,070	-0,062
-623,663	6,113	-0,057	0,031
-622,649	-13,517	-0,004	0,002
-621,634	422,610	0,031	-0,048
-620,619	-200,000	-0,029	-0,140
-619,605	-200,000	0,028	-0,126
-618,590	247,493	0,087	0,106
-617,576	778,859	0,035	0,069
-616,561	31,664	-0,059	0,037
-615,546	800,000	0,018	0,056
-614,532	-137,273	-0,122	0,010
-613,517	24,759	-0,106	0,064
-612,503	242,060	-0,099	-0,120
-611,488	26,795	0,121	0,073
-610,474	-56,669	0,075	-0,024
-609,459	-189,882	-0,091	-0,001
-608,444	34,409	0,024	0,015
-607,430	510,776	0,064	-0,108
-606,415	-200,000	-0,005	-0,040
-605,401	-200,000	0,000	-0,085
-604,386	1,459	-0,052	0,027
-603,371	164,466	-0,083	0,085
-602,357	800,000	0,079	-0,161
-601,342	173,688	-0,097	-0,102
-600,328	-200,000	0,001	-0,245
-599,313	196,912	-0,048	-0,053
-598,298	650,710	0,045	-0,084
-597,284	-97,729	0,102	-0,019
-596,269	800,000	0,014	-0,039
-595,255	800,000	-0,064	0,153
-594,240	251,204	0,029	-0,036
-593,225	-61,046	0,071	0,021
-592,211	458,835	0,033	-0,054
-591,196	-95,027	-0,024	0,005
-590,182	-200,000	-0,014	0,085
-589,167	-127,617	0,083	-0,009
-588,152	800,000	0,022	0,067
-587,138	-160,580	-0,066	0,003
-586,123	-10,099	-0,023	0,011
-585,109	-102,250	-0,130	0,022
-584,094	-41,794	0,093	-0,034
-583,079	140,121	0,025	-0,024
-582,065	-200,000	0,012	0,076
-581,050	-65,990	0,128	0,037
-580,036	-200,000	0,005	-0,067
-579,021	800,000	-0,008	-0,025
-578,006	-180,780	-0,117	-0,002
-576,992	-169,483	-0,047	0,001
-575,977	-200,000	-0,025	-0,143
-574,963	-200,000	-0,011	0,131
-573,948	-133,996	-0,127	-0,011
-572,934	-200,000	0,008	-0,088
-571,919	800,000	-0,026	-0,068
-570,904	486,177	-0,061	-0,101
-569,890	-200,000	0,022	-0,125
-568,875	-92,787	0,087	-0,017
-567,861	184,924	0,031	0,033
-566,846	-10,673	0,075	-0,035
-565,831	255,436	0,070	0,087
-564,817	38,360	-0,046	0,029
-563,802	-8,490	0,043	0,021
-562,788	-200,000	0,005	0,070
-561,773	95,128	0,072	0,060
-560,758	-51,460	-0,014	-0,005
-559,744	-200,000	0,008	0,093
-558,729	800,000	0,042	0,114
-557,715	98,280	-0,065	-0,054
-556,700	-200,000	-0,004	0,078
-555,685	101,706	-0,113	-0,096
-554,671	53,158	0,044	0,030
-553,656	-58,267	0,055	0,017
-552,642	437,270	0,106	0,167
-551,627	575,942	-0,067	0,119
-550,612	147,962	-0,100	0,097
-549,598	-200,000	0,008	-0,061
-548,583	52,049	-0,080	-0,055
-547,569	267,326	0,135	0,171
-546,554	800,000	-0,013	-0,036
-545,539	-200,000	0,029	0,117
-544,525	-180,669	0,050	-0,001
-543,510	-200,000	0,026	0,104
-542,496	-124,028	-0,016	-0,002
-541,481	106,998	0,011	0,009
-540,466	-152,535	0,045	0,002
-539,452	162,192	-0,040	0,040
-538,437	-13,936	-0,100	0,046
-537,423	164,399	0,046	0,047
-536,408	800,000	0,022	-0,065
-535,393	-200,000	0,010	-0,087
-534,379	31,850	-0,068	-0,042
-533,364	223,454	-0,027	0,031
-532,350	800,000	0,080	-0,170
-531,335	69,652	0,087	0,065
-530,321	-85,782	0,094	-0,021
-529,306	-200,000	-0,002	-0,049
-528,291	-142,591	-0,157	0,011
-527,277	106,876	0,075	-0,064
-526,262	64,416	-0,130	-0,094
-525,248	-200,000	-0,017	-0,123
-524,233	59,714	-0,125	0,089
-523,218	-200,000	0,014	0,125
-522,204	145,383	0,126	-0,121
-521,189	52,952	0,042	0,029
-520,175	-173,200	-0,116	0,003
-519,160	-95,053	-0,152	-0,029
-518,145	800,000	0,056	0,124
-517,131	-200,000	-0,005	0,061
-516,116	-41,305	-0,127	0,047
-515,102	-200,000	-0,014	0,075
-514,087	-200,000	-0,013	0,119
-513,072	-59,077	-0,073	-0,023
-512,058	-200,000	-0,004	0,078
-511,043	-111,181	-0,166	0,024
-510,029	263,992	0,067	0,084
-509,014	-200,000	0,004	0,134
-507,999	-200,000	0,025	-0,148
-506,985	466,771	-0,034	-0,055
-505,970	595,360	0,015	0,028
-504,956	-57,433	-0,052	-0,016
-503,941	-48,735	0,102	0,035
-502,926	9,538	0,100	-0,054
-501,912	66,613	-0,238	0,175
-500,897	131,668	-0,111	0,103
-499,883	435,924	-0,014	-0,022
-498,868	-200,000	0,005	0,023
-497,853	94,736	0,129	-0,105
-496,839	358,743	0,036	0,052
-495,824	-98,269	-0,053	0,010
-494,810	800,000	-0,051	-0,139
-493,795	520,557	0,100	0,169
-492,781	-48,100	0,070	0,024
-491,766	-86,289	-0,028	0,006
-490,751	735,824	-0,064	-0,125
-489,737	800,000	-0,048	-0,137
-488,722	178,087	-0,043	0,045
-487,708	800,000	0,005	-0,014
-486,693	268,327	0,026	-0,032
-485,678	-53,281	-0,111	0,036
-484,664	187,830	0,047	0,051
-483,649	70,405	-0,098	0,073
-482,635	800,000	0,031	-0,065
-481,620	134,771	0,045	0,042
-480,605	572,721	0,046	0,082
-479,591	54,108	0,089	0,061
-478,576	38,347	0,060	0,038
-477,562	-200,000	-0,001	0,008
-476,547	299,983	-0,122	-0,163
-475,532	119,305	0,086	0,077
-474,518	-200,000	0,002	0,088
-473,503	-200,000	0,006	-0,036
-472,489	800,000	0,070	0,172
-471,474	-14,774	-0,066	-0,031
-470,459	-200,000	-0,023	-0,111
-469,445	800,000	-0,031	0,066
-468,430	-10,823	0,016	-0,008
-467,416	-200,000	-0,010	-0,034
-466,401	800,000	0,046	0,130
-465,386	222,194	-0,102	0,118
-464,372	-200,000	-0,013	0,073
-463,357	138,413	0,040	-0,038
-462,343	-200,000	0,016	-0,102
-461,328	621,846	-0,038	0,069
-460,313	355,999	0,065	0,093
-459,299	98,677	0,100	0,083
-458,284	-61,103	0,013	0,004
-457,270	-181,915	0,059	0,001
-456,255	177,566	-0,107	-0,112
-455,241	-200,000	-0,014	-0,120
-454,226	800,000	-0,027	-0,082
-453,211	31,158	-0,047	0,029
-452,197	170,062	0,057	0,059
-451,182	-37,978	-0,118	-0,045
-450,168	800,000	0,023	-0,071
-449,153	-200,000	0,013	-0,179
-448,138	-152,151	-0,045	-0,002
-447,124	288,540	-0,045	-0,059
-446,109	-1,393	-0,047	0,024
-445,095	108,059	-0,064	0,055
-444,080	-83,434	0,103	0,023
-443,065	216,099	0,034	0,038
-442,051	185,941	0,036	0,039
-441,036	-200,000	0,009	-0,035
-440,022	-200,000	0,023	-0,142
-439,007	800,000	0,039	-0,077
-437,992	-74,635	-0,227	0,058
-436,978	11,539	0,108	0,059
-435,963	59,803	0,100	0,071
-434,949	394,941	-0,024	0,037
-433,934	107,637	-0,134	-0,114
-432,919	800,000	0,015	0,046
-431,905	36,381	-0,081	-0,051
-430,890	-200,000	-0,020	-0,071
-429,876	-200,000	-0,022	0,083
-428,861	-200,000	0,080	-0,000
-427,846	-122,247	-0,068	0,008
-426,832	-24,543	-0,039	-0,017
-425,817	387,349	-0,077	-0,114
-424,803	-127,467	-0,035	-0,004
-423,788	800,000	-0,009	0,018
-422,773	800,000	0,011	0,033
-421,759	141,313	0,071	0,068
-420,744	-200,000	-0,038	0,132
-419,730	556,124	-0,022	0,038
-418,715	255,919	-0,022	-0,028
-417,701	549,094	0,079	-0,137
-416,686	-200,000	0,009	0,126
-415,671	-200,000	-0,043	0,182
-414,657	113,844	0,067	0,059
-413,642	-82,663	-0,070	0,016
-412,628	788,613	-0,045	-0,090
-411,613	304,770	-0,068	-0,091
-410,598	800,000	-0,008	-0,019
-409,584	713,421	-0,037	-0,071
-408,569	-8,059	0,045	0,022
-407,555	-66,283	0,082	0,023
-406,540	-200,000	0,005	-0,070
-405,525	236,309	0,040	-0,048
-404,511	538,955	-0,042	-0,071
-403,496	800,000	0,050	-0,103
-402,482	206,616	0,062	-0,069
-401,467	68,226	0,078	0,057
-400,452	-8,700	-0,072	0,034
-399,438	800,000	-0,042	0,108
-398,423	-30,321	-0,094	-0,038
-397,409	6,793	-0,123	-0,065
-396,394	-200,000	0,031	-0,132
-395,379	-200,000	0,025	-0,093
-394,365	-200,000	0,003	0,036
-393,350	-200,000	-0,001	-0,032
-392,336	-84,645	0,053	-0,012
-391,321	132,472	-0,021	0,019
-390,306	800,000	-0,040	-0,125
-389,292	371,264	-0,072	-0,105
-388,277	85,903	-0,092	0,073
-387,263	800,000	0,056	0,118
-386,248	191,222	-0,085	0,092
-385,233	48,495	0,052	-0,035
-384,219	-6,820	-0,065	-0,031
-383,204	471,294	-0,081	0,131
-382,190	199,349	0,057	0,062
-381,175	-141,253	0,154	0,011
-380,160	-200,000	-0,007	0,071
-379,146	18,812	0,118	-0,067
-378,131	-66,460	-0,070	0,020
-377,117	-200,000	0,003	0,105
-376,102	800,000	0,022	0,052
-375,088	389,125	-0,047	-0,069
-374,073	-200,000	0,037	-0,184
-373,058	-200,000	-0,008	-0,121
-372,044	83,978	0,116	0,090
-371,029	601,100	-0,047	0,083
-370,015	41,078	0,048	0,031
-369,000	2,281	0,189	-0,098
-367,985	179,975	-0,023	0,024
-366,971	-200,000	-0,021	-0,138
-365,956	-200,000	-0,017	0,079
-364,942	-200,000	-0,014	0,166
-363,927	800,000	0,018	-0,037
-362,912	-200,000	-0,026	-0,127
-361,898	346,739	0,030	0,043
-360,883	212,193	0,099	-0,112
-359,869	-92,330	-0,129	-0,026
-358,854	100,693	0,019	-0,016
-357,839	-158,098	0,097	0,004
-356,825	-200,000	-0,035	0,219
-355,810	32,640	0,031	-0,019
-354,796	77,270	-0,066	0,050
-353,781	23,666	-0,193	-0,113
-352,766	-23,274	-0,138	0,059
-351,752	-200,000	0,016	-0,100
-350,737	-25,718	-0,050	0,021
-349,723	800,000	0,038	0,075
-348,708	-82,659	0,077	0,018
-347,693	166,119	-0,061	-0,062
-346,679	668,277	-0,047	-0,087
-345,664	140,527	0,099	-0,094
-344,650	-55,578	0,097	-0,031
-343,635	388,201	-0,019	-0,028
-342,620	541,915	-0,033	-0,057
-341,606	55,180	0,067	-0,046
-340,591	763,950	-0,048	-0,093
-339,577	111,641	-0,082	-0,071
-338,562	-200,000	0,031	-0,173
-337,548	260,983	0,051	0,064
-336,533	146,362	0,063	0,060
-335,518	35,780	0,070	0,044
-334,504	-3,994	0,087	-0,043
-333,489	-6,664	-0,085	0,041
-332,475	643,172	0,057	-0,104
-331,460	125,446	-0,119	-0,107
-330,445	-40,380	0,130	0,048
-329,431	-200,000	0,010	-0,053
-328,416	315,475	0,052	-0,070
-327,402	717,129	0,033	0,063
-326,387	-200,000	-0,019	0,098
-325,372	-200,000	-0,001	-0,048
-324,358	-200,000	0,036	-0,142
-323,343	-21,037	0,070	0,031
-322,329	-68,245	0,113	0,031
-321,314	-200,000	-0,004	0,082
-320,299	433,070	-0,018	0,027
-319,285	800,000	-0,028	-0,060
-318,270	576,785	-0,040	-0,069
-317,256	-200,000	-0,029	0,096
-316,241	-200,000	-0,003	0,075
-315,226	-104,328	0,113	0,019
-314,212	800,000	0,041	0,109
-313,197	78,199	0,076	0,058
-312,183	-107,128	0,034	-0,005
-311,168	25,765	0,173	-0,103
-310,153	-200,000	-0,038	-0,145
-309,139	-200,000	0,006	-0,104
-308,124	-200,000	-0,008	0,095
-307,110	-200,000	0,003	0,023
-306,095	124,035	0,040	-0,036
-305,080	-200,000	-0,023	0,137
-304,066	-112,536	0,176	0,025
-303,051	435,283	-0,079	-0,123
-302,037	800,000	-0,032	-0,088
-301,022	-107,407	0,062	-0,010
-300,008	-23,174	-0,036	-0,015
-298,993	-92,779	0,208	0,041
-297,978	87,434	-0,013	-0,010
-296,964	-200,000	-0,010	-0,084
-295,949	69,650	0,063	0,046
-294,935	-200,000	-0,012	-0,092
-293,920	190,196	-0,067	0,072
-292,905	740,876	-0,006	-0,012
-291,891	11,021	0,036	0,020
-290,876	800,000	-0,017	0,039
-289,862	-200,000	-0,006	0,041
-288,847	767,165	0,026	-0,050
-287,832	350,937	-0,062	-0,088
-286,818	646,241	-0,072	-0,132
-285,803	242,251	0,081	0,097
-284,789	311,731	0,036	-0,049
-283,774	800,000	0,044	-0,102
-282,759	-179,715	0,206	-0,003
-281,745	125,998	-0,067	0,061
-280,730	-96,653	0,107	0,020
-279,716	-200,000	-0,024	0,079
-278,701	654,834	-0,006	-0,011
-277,686	426,053	0,107	0,165
-276,672	484,825	-0,045	0,073
-275,657	-200,000	0,009	-0,043
-274,643	347,853	-0,044	0,061
-273,628	80,055	0,039	-0,030
-272,613	-200,000	-0,002	-0,092
-271,599	46,847	0,054	0,036
-270,584	-26,405	0,062	-0,026
-269,570	585,732	0,016	0,028
-268,555	-34,018	-0,119	0,046
-267,540	22,888	-0,093	0,054
-266,526	387,710	-0,036	0,053
-265,511	-200,000	-0,021	-0,074
-264,497	800,000	0,013	0,029
-263,482	232,544	0,049	0,057
-262,467	800,000	-0,087	0,193
-261,453	79,203	-0,105	0,080
-260,438	82,921	-0,120	-0,093
-259,424	145,510	-0,038	-0,037
-258,409	485,118	-0,043	-0,071
-257,395	375,302	-0,081	0,118
-256,380	-200,000	-0,014	0,085
-255,365	-88,714	-0,042	0,009
-254,351	-62,527	0,156	-0,046
-253,336	-96,903	0,046	-0,009
-252,322	-90,368	0,096	-0,020
-251,307	800,000	-0,008	-0,017
-250,292	-200,000	0,043	0,144
-249,278	143,284	0,068	0,064
-248,263	343,714	0,051	-0,072
-247,249	-200,000	0,045	0,217
-246,234	800,000	-0,041	-0,084
-245,219	320,394	-0,065	-0,088
-244,205	-200,000	-0,003	-0,107
-243,190	-200,000	0,008	-0,026
-242,176	-200,000	-0,001	-0,038
-241,161	-121,882	-0,050	-0,006
-240,146	125,266	0,074	-0,066
-239,132	102,060	-0,166	-0,138
-238,117	-200,000	-0,001	-0,065
-237,103	175,572	-0,032	-0,034
-236,088	211,815	-0,103	-0,116
-235,073	34,825	0,065	0,041
-234,059	-200,000	-0,007	-0,086
-233,044	-200,000	-0,020	0,085
-232,030	702,348	-0,037	0,069
-231,015	368,617	-0,034	-0,049
-230,000	-200,000	-0,009	-0,095
-228,986	89,115	-0,029	0,023
-227,971	-32,224	0,133	0,053
-226,957	-200,000	-0,003	-0,014
-225,942	-200,000	0,005	0,034
-224,927	-200,000	-0,005	-0,040
-223,913	114,346	-0,076	-0,066
-222,898	175,097	-0,011	0,011
-221,884	-200,000	-0,007	0,186
-220,869	-77,013	-0,121	0,030
-219,855	800,000	-0,004	-0,011
-218,840	25,288	0,041	-0,024
-217,825	800,000	-0,028	0,060
-216,811	181,233	0,053	-0,055
-215,796	-163,295	0,078	0,003
-214,782	151,873	0,135	0,132
-213,767	-89,493	-0,132	-0,027
-212,752	105,674	0,038	0,032
-211,738	800,000	-0,046	-0,108
-210,723	-59,457	-0,084	-0,026
-209,709	139,251	0,041	-0,038
-208,694	70,135	-0,161	0,118
-207,679	192,163	0,092	-0,099
-206,665	2,729	0,022	0,011
-205,650	-73,407	0,197	0,051
-204,636	-119,750	0,021	-0,003
-203,621	197,001	-0,129	0,140
-202,606	96,859	-0,099	0,081
-201,592	-6,804	-0,110	0,053
-200,577	643,050	-0,036	-0,065
-199,563	436,341	-0,055	-0,085
-198,548	-101,307	0,232	0,040
-197,533	167,671	-0,100	0,101
-196,519	700,400	0,067	0,126
-195,504	-147,663	0,025	-0,001
-194,490	-200,000	0,017	0,164
-193,475	-200,000	0,003	-0,088
-192,460	-51,289	0,126	0,042
-191,446	-68,056	0,046	0,013
-190,431	-110,922	0,065	0,009
-189,417	280,413	-0,013	-0,016
-188,402	209,643	0,045	-0,050
-187,387	186,027	-0,064	-0,068
-186,373	456,276	-0,075	-0,118
-185,358	-200,000	0,015	0,091
-184,344	341,453	-0,080	-0,111
-183,329	124,919	0,058	0,052
-182,315	-200,000	0,034	0,224
-181,300	-200,000	0,007	-0,026
-180,285	-200,000	0,015	-0,066
-179,271	37,034	-0,021	0,013
-178,256	-200,000	-0,005	-0,110
-177,242	-200,000	0,046	0,161
-176,227	427,990	0,037	0,057
-175,212	-200,000	-0,010	0,097
-174,198	-200,000	-0,023	-0,078
-173,183	621,859	0,012	-0,022
-172,169	-128,283	-0,063	0,006
-171,154	467,866	-0,067	-0,107
-170,139	159,401	0,080	-0,079
-169,125	3,042	0,014	0,007
-168,110	-200,000	0,001	0,094
-167,096	460,310	0,002	-0,003
-166,081	676,995	-0,040	-0,073
-165,066	800,000	0,046	-0,117
-164,052	175,888	0,038	-0,040
-163,037	329,296	0,025	0,034
-162,023	-200,000	-0,007	0,028
-161,008	36,228	0,012	-0,008
-159,993	141,436	-0,069	0,065
-158,979	-50,283	-0,015	0,005
-157,964	-4,739	-0,053	0,026
-156,950	-93,027	0,017	-0,003
-155,935	-100,786	0,041	-0,007
-154,920	27,424	0,142	0,084
-153,906	199,765	-0,060	-0,066
-152,891	316,200	-0,037	0,050
-151,877	800,000	-0,044	0,106
-150,862	800,000	-0,027	-0,058
-149,847	11,132	-0,098	0,053
-148,833	241,156	-0,048	-0,057
-147,818	-200,000	-0,026	-0,121
-146,804	-200,000	0,000	-0,046
-145,789	-200,000	0,016	0,092
-144,775	-62,658	-0,147	0,043
-143,760	800,000	0,053	-0,140
-142,745	-83,422	0,074	0,017
-141,731	140,752	-0,070	0,066
-140,716	800,000	0,039	-0,084
-139,702	-67,453	-0,116	0,032
-138,687	-200,000	0,017	0,098
-137,672	370,759	-0,016	-0,023
-136,658	-155,285	-0,007	-0,000
-135,643	-200,000	-0,031	-0,183
-134,629	62,187	0,067	0,047
-133,614	398,575	0,078	0,116
-132,599	522,931	-0,053	0,089
-131,585	45,527	-0,028	-0,019
-130,570	397,331	-0,033	-0,049
-129,556	533,380	0,037	0,062
-128,541	-200,000	0,008	-0,033
-127,526	81,857	-0,086	-0,066
-126,512	-75,586	-0,033	0,008
-125,497	174,238	0,015	-0,015
-124,483	457,669	-0,022	0,034
-123,468	206,912	0,078	-0,086
-122,453	-67,537	-0,132	0,037
-121,439	191,844	0,024	0,025
-120,424	-200,000	0,039	0,124
-119,410	-173,882	0,155	-0,003
-118,395	53,473	0,062	-0,042
-117,380	60,941	0,154	0,109
-116,366	5,383	0,111	-0,058
-115,351	-200,000	-0,009	-0,096
-114,337	-50,014	0,054	-0,018
-113,322	-200,000	0,008	-0,054
-112,307	491,377	0,033	-0,054
-111,293	800,000	-0,015	-0,033
-110,278	188,444	0,010	0,011
-109,264	719,663	0,040	-0,076
-108,249	-93,986	-0,066	0,013
-107,234	-40,655	-0,131	0,048
-106,220	127,078	-0,017	-0,015
-105,205	800,000	0,053	0,126
-104,191	-18,836	-0,079	0,035
-103,176	-9,432	0,196	-0,092
-102,162	-200,000	0,001	0,139
-101,147	-44,143	-0,150	0,053
-100,132	10,730	-0,045	-0,024
-99,118	-109,585	-0,044	-0,007
-98,103	-20,328	0,097	0,042
-97,089	-200,000	-0,007	0,092
-96,074	-38,566	-0,026	-0,010
-95,059	-200,000	0,020	0,071
-94,045	-200,000	0,028	-0,174
-93,030	-72,064	0,038	-0,010
-92,016	-200,000	-0,006	0,045
-91,001	800,000	0,019	0,038
-89,986	-1,373	0,123	0,061
-88,972	379,998	0,026	0,038
-87,957	718,485	0,029	0,054
-86,943	-60,695	0,098	0,029
-85,928	181,390	-0,127	-0,133
-84,913	-25,345	-0,074	-0,031
-83,899	24,883	0,042	-0,025
-82,884	-72,388	0,094	0,024
-81,870	-137,449	-0,091	0,007
-80,855	416,707	-0,055	-0,084
-79,840	140,677	-0,076	-0,071
-78,826	-127,374	0,031	-0,003
-77,811	17,502	-0,145	-0,081
-76,797	-200,000	0,010	0,111
-75,782	425,392	0,042	-0,064
-74,767	733,009	0,068	0,130
-73,753	-200,000	-0,001	-0,135
-72,738	130,348	0,028	-0,026
-71,724	800,000	0,033	-0,095
-70,709	88,626	-0,056	-0,044
-69,694	-200,000	0,055	-0,184
-68,680	-71,229	-0,051	-0,013
-67,665	-200,000	0,007	-0,062
-66,651	-200,000	0,003	0,053
-65,636	-200,000	-0,006	0,062
-64,622	800,000	-0,022	-0,052
-63,607	-103,169	-0,042	-0,007
-62,592	112,761	-0,121	-0,104
-61,578	800,000	0,058	0,174
-60,563	22,090	-0,129	-0,075
-59,549	-200,000	-0,002	-0,025
-58,534	-13,093	-1,735	-0,795
-57,519	410,918	-1,336	-2,013
-56,505	-200,000	-0,560	-4,590
-55,490	138,419	0,914	0,849
-54,476	800,000	4,934	11,420
-53,461	-200,000	19,392	320,530
-52,446	-200,000	740,965	2334,822
-51,432	572,943	1655,654	2868,050
-50,417	78,245	1670,977	1261,373
-49,403	21,291	1544,017	885,460
-48,388	15,192	1466,395	811,293
-47,373	17,916	1456,727	819,073
-46,359	16,682	1446,437	807,338
-45,344	13,410	1441,766	789,031
-44,330	13,356	1439,981	787,762
-43,315	13,385	1438,125	786,857
-42,300	13,356	1436,547	785,822
-41,286	13,390	1435,379	785,312
-40,271	13,375	1433,983	784,450
-39,257	13,300	1432,623	783,317
-38,242	13,371	1431,535	783,026
-37,227	13,388	1430,095	782,290
-36,213	13,379	1428,868	781,542
-35,198	13,392	1427,861	781,025
-34,184	13,439	1426,795	780,633
-33,169	13,400	1425,557	779,738
-32,154	13,428	1424,369	779,194
-31,140	13,400	1423,222	778,403
-30,125	13,457	1421,917	777,924
-29,111	13,413	1420,939	777,154
-28,096	13,350	1419,738	776,168
-27,082	13,347	1418,670	775,537
-26,067	13,352	1417,686	774,993
-25,052	13,314	1416,657	774,222
-24,038	13,301	1415,523	773,510
-23,023	13,308	1414,437	772,917
-22,009	13,317	1413,464	772,400
-20,994	13,269	1412,717	771,733
-19,979	13,303	1411,819	771,371
-18,965	13,291	1410,718	770,681
-17,950	13,261	1409,741	769,978
-16,936	13,324	1408,730	769,691
-15,921	13,240	1407,805	768,760
-14,906	13,243	1406,947	768,276
-13,892	13,268	1405,911	767,799
-12,877	13,295	1404,974	767,380
-11,863	13,240	1404,088	766,611
-10,848	13,272	1403,323	766,312
-9,833	13,204	1402,439	765,481
-8,819	13,200	1401,681	765,017
-7,804	13,152	1400,763	764,266
-6,790	13,172	1399,577	763,678
-5,775	13,161	1398,606	763,069
-4,760	13,155	1397,525	762,421
-3,746	13,097	1396,798	761,726
-2,731	13,132	1395,829	761,326
-1,717	13,106	1394,887	760,665
-0,702	13,079	1393,281	759,634
0,313	16,977	1309,872	732,195
1,327	33,170	703,738	430,796
2,342	50,997	123,312	82,556
3,356	2,544	16,538	8,446
4,371	-4,176	3,198	1,561
5,386	29,133	0,579	0,347
6,400	-200,000	0,052	0,311
7,415	257,435	-0,105	-0,127
8,429	-26,764	-0,300	-0,123
9,444	-53,319	-0,306	-0,099
10,459	54,022	-0,301	-0,204
11,473	266,198	-0,196	-0,242
12,488	-13,845	-0,279	-0,127
13,502	35,597	-0,319	-0,198
14,517	-30,517	-0,256	-0,102
15,531	150,878	-0,296	-0,285
16,546	187,867	-0,293	-0,310
17,561	92,953	-0,385	-0,307
18,575	22,265	-0,224	-0,129
19,590	185,651	-0,266	-0,280
20,604	16,929	-0,321	-0,179
21,619	94,459	-0,508	-0,408
22,634	111,438	-0,467	-0,397
23,648	115,375	-0,429	-0,370
24,663	800,000	-0,192	-0,378
25,677	175,579	-0,211	-0,217
26,692	19,700	-0,408	-0,231
27,707	174,004	-0,305	-0,312
28,721	24,437	-0,444	-0,259
29,736	33,066	-0,479	-0,292
30,750	46,873	-0,412	-0,270
31,765	74,075	-0,229	-0,169
32,780	311,030	-0,316	-0,419
33,794	50,646	-0,301	-0,201
34,809	90,271	-0,292	-0,230
35,823	210,744	-0,268	-0,298
36,838	41,405	-0,431	-0,274
37,853	-24,022	-0,440	-0,185
38,867	139,049	-0,333	-0,309
39,882	22,092	-0,337	-0,194
40,896	209,711	-0,319	-0,353
41,911	53,325	-0,309	-0,208
42,926	44,085	-0,383	-0,247
43,940	35,033	-0,396	-0,244
44,955	-3,731	-0,340	-0,166
45,969	109,434	-0,386	-0,326
46,984	122,605	-0,358	-0,315
47,999	46,785	-0,371	-0,242
49,013	82,032	-0,285	-0,217
50,028	62,826	-0,383	-0,270
51,042	8,163	-0,402	-0,212
52,057	212,520	-0,341	-0,379
53,071	91,254	-0,224	-0,177
54,086	145,029	-0,310	-0,292
55,101	110,672	-0,275	-0,233
56,115	-13,461	-0,429	-0,195
57,130	178,829	-0,278	-0,287
58,144	28,781	-0,355	-0,211
59,159	88,651	-0,377	-0,295
60,174	81,222	-0,290	-0,220
61,188	96,815	-0,360	-0,290
62,203	87,461	-0,261	-0,203
63,217	211,908	-0,186	-0,206
64,232	11,412	-0,410	-0,220
65,247	112,013	-0,324	-0,275
66,261	168,004	-0,371	-0,371
67,276	98,691	-0,341	-0,276
68,290	80,149	-0,378	-0,286
69,305	459,160	-0,260	-0,408
70,320	800,000	-0,167	-0,353
71,334	255,627	-0,194	-0,234
72,349	-36,265	-0,374	-0,141
73,363	-38,394	-0,510	-0,189
74,378	127,714	-0,226	-0,202
75,393	-5,587	-0,310	-0,149
76,407	144,276	-0,275	-0,258
77,422	312,383	-0,162	-0,215
78,436	2,458	-0,205	-0,104
79,451	186,435	-0,337	-0,353
80,466	49,169	-0,343	-0,226
81,480	113,260	-0,360	-0,307
82,495	17,677	-0,262	-0,146
83,509	1,338	-0,326	-0,164
84,524	-2,775	-0,292	-0,143
85,539	-2,515	-0,410	-0,201
86,553	44,237	-0,365	-0,235
87,568	54,375	-0,324	-0,218
88,582	41,757	-0,386	-0,245
89,597	8,724	-0,320	-0,168
90,611	37,843	-0,356	-0,222
91,626	4,915	-0,256	-0,132
92,641	-11,336	-0,347	-0,160
93,655	38,479	-0,272	-0,170
94,670	-5,826	-0,309	-0,148
95,684	165,884	-0,347	-0,344
96,699	-72,482	-0,437	-0,112
97,714	-48,760	-0,343	-0,115
98,728	398,968	-0,172	-0,253
99,743	-12,863	-0,340	-0,154
100,757	326,094	-0,136	-0,183
101,772	160,378	-0,243	-0,237
102,787	-7,118	-0,272	-0,129
103,801	200,263	-0,252	-0,272
104,816	235,077	-0,234	-0,271
105,830	-11,005	-0,314	-0,145
106,845	406,744	-0,074	-0,110
107,860	199,482	-0,214	-0,231
108,874	86,554	-0,219	-0,169
109,889	302,003	-0,241	-0,312
110,903	247,203	-0,238	-0,283
111,918	-21,196	-0,283	-0,121
112,933	-91,759	-0,224	-0,044
113,947	362,051	-0,188	-0,265
114,962	127,894	-0,194	-0,173
115,976	14,729	-0,292	-0,160
116,991	206,798	-0,198	-0,217
118,006	-5,181	-0,310	-0,149
119,020	104,662	-0,193	-0,159
120,035	152,375	-0,221	-0,211
121,049	239,448	-0,166	-0,194
122,064	175,096	-0,223	-0,226
123,079	88,493	-0,180	-0,140
124,093	90,057	-0,393	-0,307
125,108	235,194	-0,178	-0,206
126,122	62,972	-0,210	-0,147
127,137	44,535	-0,311	-0,200
128,151	142,506	-0,253	-0,236
129,166	182,907	-0,148	-0,153
130,181	-115,298	-0,308	0,040
131,195	205,775	-0,137	-0,149
132,210	124,488	-0,265	-0,233
133,224	739,281	-0,166	-0,313
134,239	-26,692	-0,165	-0,067
135,254	-117,200	-0,339	-0,043
136,268	-139,804	-0,298	-0,022
137,283	679,428	-0,065	-0,119
138,297	-53,637	-0,223	-0,071
139,312	15,124	-0,291	-0,159
140,327	81,630	-0,158	-0,119
141,341	-132,742	-0,180	-0,016
142,356	-200,000	-0,046	-0,148
143,370	140,641	-0,253	-0,234
144,385	140,570	-0,215	-0,199
145,400	10,333	-0,372	-0,197
146,414	175,993	-0,330	-0,335
147,429	38,964	-0,366	-0,228
148,443	103,519	-0,210	-0,172
149,458	-4,894	-0,144	-0,069
150,473	368,954	-0,165	-0,233
151,487	364,083	-0,153	-0,216
152,502	6,954	-0,276	-0,143
153,516	38,249	-0,246	-0,153
154,531	240,359	-0,270	-0,315
155,546	-21,015	-0,210	-0,089
156,560	44,026	-0,207	-0,132
157,575	514,169	-0,104	-0,169
158,589	52,199	-0,150	-0,100
159,604	273,442	-0,198	-0,245
160,619	-7,305	-0,289	-0,136
161,633	-64,472	-0,401	-0,113
162,648	57,702	-0,245	-0,167
163,662	-183,290	-0,220	0,003
164,677	99,531	-0,193	-0,156
165,692	-79,870	-0,270	-0,063
166,706	42,478	-0,309	-0,196
167,721	296,567	-0,214	-0,274
168,735	325,668	-0,164	-0,219
169,750	71,998	-0,226	-0,164
170,764	389,080	-0,199	-0,287
171,779	239,449	-0,192	-0,223
172,794	800,000	-0,100	-0,200
173,808	96,592	-0,253	-0,202
174,823	148,174	-0,207	-0,194
175,837	218,277	-0,288	-0,321
176,852	1,311	-0,209	-0,104
177,867	-8,944	-0,165	-0,077
178,881	22,435	-0,165	-0,094
179,896	459,374	-0,197	-0,306
180,910	30,759	-0,207	-0,123
181,925	-7,422	-0,291	-0,137
182,940	121,297	-0,148	-0,128
183,954	49,957	-0,318	-0,209
184,969	43,963	-0,303	-0,193
185,983	-200,000	-0,064	-0,198
186,998	47,750	-0,185	-0,120
188,013	-43,287	-0,262	-0,092
189,027	355,215	-0,192	-0,267
190,042	800,000	-0,092	-0,228
191,056	179,132	-0,154	-0,157
192,071	201,718	-0,224	-0,241
193,086	21,602	-0,149	-0,084
194,100	-103,605	-0,257	-0,042
195,115	-43,034	-0,148	-0,052
196,129	31,940	-0,297	-0,178
197,144	32,432	-0,259	-0,155
198,159	20,897	-0,281	-0,158
199,173	141,841	-0,245	-0,226
200,188	67,249	-0,205	-0,146
201,202	174,373	-0,294	-0,296
202,217	103,445	-0,278	-0,226
203,232	21,205	-0,218	-0,123
204,246	-200,000	-0,066	-0,240
205,261	44,605	-0,341	-0,218
206,275	133,647	-0,055	-0,050
207,290	349,688	-0,189	-0,261
208,304	92,318	-0,111	-0,087
209,319	36,657	-0,259	-0,159
210,334	37,509	-0,192	-0,118
211,348	800,000	-0,185	-0,406
212,363	15,902	-0,293	-0,160
213,377	20,088	-0,301	-0,168
214,392	-44,542	-0,093	-0,032
215,407	718,717	-0,075	-0,140
216,421	-166,628	-0,159	-0,005
217,436	14,913	-0,144	-0,078
218,450	338,010	-0,187	-0,253
219,465	-95,334	-0,139	-0,026
220,480	-200,000	-0,053	-0,278
221,494	228,254	-0,235	-0,266
222,509	49,426	-0,200	-0,130
223,523	-13,244	-0,220	-0,099
224,538	102,985	-0,234	-0,190
225,553	-116,266	-0,277	-0,035
226,567	193,574	-0,175	-0,184
227,582	-20,847	-0,214	-0,091
228,596	235,684	-0,227	-0,261
229,611	36,431	-0,076	-0,046
230,626	800,000	-0,096	-0,213
231,640	357,726	-0,197	-0,274
232,655	81,669	-0,132	-0,099
233,669	359,246	-0,283	-0,394
234,684	50,699	-0,290	-0,190
235,699	-42,298	-0,111	-0,039
236,713	-87,145	-0,264	-0,055
237,728	331,463	-0,099	-0,132
238,742	800,000	-0,146	-0,354
239,757	126,188	-0,289	-0,253
240,772	59,245	-0,172	-0,117
241,786	317,690	-0,200	-0,263
242,801	-91,951	-0,080	-0,016
243,815	200,356	-0,127	-0,135
244,830	748,118	-0,088	-0,165
245,844	122,168	-0,126	-0,109
246,859	129,585	-0,162	-0,143
247,874	488,788	-0,142	-0,225
248,888	-155,773	-0,258	-0,011
249,903	437,312	-0,119	-0,180
250,917	51,522	-0,149	-0,098
251,932	-200,000	-0,055	-0,190
252,947	-26,632	-0,281	-0,113
253,961	-69,391	-0,108	0,029
254,976	-62,525	-0,166	-0,047
255,990	231,714	-0,222	-0,252
257,005	-24,265	-0,218	-0,089
258,020	-102,357	-0,135	-0,022
259,034	-50,208	-0,137	-0,045
260,049	-63,268	-0,160	-0,045
261,063	174,845	-0,211	-0,211
262,078	-200,000	-0,074	-0,245
263,093	340,752	-0,114	-0,154
264,107	270,567	-0,068	-0,082
265,122	152,380	-0,127	-0,120
266,136	-200,000	-0,020	-0,082
267,151	135,374	-0,167	-0,150
268,166	36,628	-0,174	-0,106
269,180	800,000	-0,126	-0,249
270,195	800,000	-0,131	-0,290
271,209	503,658	-0,099	-0,159
272,224	-11,717	-0,066	0,030
273,239	-26,551	-0,165	-0,067
274,253	569,904	-0,043	-0,072
275,268	52,996	-0,163	-0,107
276,282	77,960	-0,260	-0,191
277,297	-14,359	-0,202	-0,089
278,312	-0,909	-0,178	-0,087
279,326	-71,681	-0,181	-0,046
280,341	-16,890	-0,156	-0,068
281,355	77,865	-0,235	-0,173
282,370	61,634	-0,153	-0,105
283,384	800,000	-0,126	-0,242
284,399	-200,000	-0,066	-0,204
285,414	-137,214	-0,206	-0,016
286,428	81,483	-0,149	-0,111
287,443	61,682	-0,172	-0,118
288,457	-95,451	-0,170	-0,031
289,472	11,907	-0,286	-0,151
290,487	800,000	-0,116	-0,235
291,501	136,400	-0,184	-0,165
292,516	333,493	-0,143	-0,191
293,530	-200,000	0,047	-0,195
294,545	15,360	-0,147	-0,080
295,560	-161,734	-0,161	0,006
296,574	800,000	-0,032	-0,069
297,589	18,944	-0,078	-0,043
298,603	374,714	-0,149	-0,210
299,618	97,203	-0,083	-0,066
300,633	39,153	-0,093	-0,057
301,647	5,072	-0,116	-0,059
302,662	131,788	-0,165	-0,147
303,676	71,658	-0,170	-0,121
304,691	8,344	-0,125	-0,065
305,706	200,135	-0,158	-0,168
306,720	147,001	-0,134	-0,124
307,735	34,005	-0,222	-0,133
308,749	-2,676	-0,050	0,024
309,764	9,772	-0,180	-0,094
310,779	384,756	-0,076	-0,108
311,793	107,376	-0,110	-0,090
312,808	106,488	-0,211	-0,172
313,822	102,262	-0,158	-0,127
314,837	92,748	-0,167	-0,130
315,852	-135,130	-0,041	0,003
316,866	-1,316	-0,135	-0,066
317,881	-200,000	-0,025	-0,119
318,895	-41,568	-0,158	-0,056
319,910	-70,758	-0,134	-0,035
320,925	313,999	-0,176	-0,228
321,939	-67,508	-0,259	-0,069
322,954	-83,348	-0,184	-0,040
323,968	400,859	-0,042	0,061
324,983	-107,454	-0,157	-0,023
325,997	-86,123	-0,178	-0,038
327,012	299,355	-0,111	-0,141
328,027	276,792	-0,177	-0,217
329,041	-200,000	-0,053	-0,191
330,056	314,469	-0,135	-0,175
331,070	185,207	-0,140	-0,143
332,085	10,714	-0,136	-0,071
333,100	-11,254	-0,203	-0,092
334,114	-200,000	-0,063	-0,266
335,129	221,053	-0,200	-0,221
336,143	161,163	-0,139	-0,134
337,158	800,000	-0,104	-0,199
338,173	-200,000	-0,016	-0,076
339,187	-21,455	-0,161	-0,067
340,202	100,003	-0,045	-0,036
341,216	311,389	-0,092	-0,119
342,231	-162,594	-0,312	-0,010
343,246	-104,934	-0,148	0,023
344,260	85,234	-0,179	-0,135
345,275	230,191	-0,117	-0,131
346,289	800,000	0,061	-0,143
347,304	800,000	-0,084	-0,196
348,319	-52,059	-0,222	-0,070
349,333	-39,439	-0,261	-0,094
350,348	152,393	-0,177	-0,165
351,362	800,000	-0,050	-0,099
352,377	765,466	-0,055	-0,103
353,392	-101,469	-0,165	0,027
354,406	-154,710	-0,248	-0,011
355,421	209,918	1311,273	1412,474
356,435	161,576	1471,597	1412,966
