DTS Sentinel unit serial number:	SN410029Multiplexer serial number:	ORYXHardware model number:	OX2-SRSoftware version number:	ORYX F/W v4,00 Oryx Data Collector v3.7.2.0data status	okinstallation	B3 Nyhavnadifferential loss correction	single-endedforward channel	channel 1reverse channel	N/Adate	2023/12/03time	15:47:30forward acquisition time	300,00reverse acquisition time	0,00gamma	499,1914k internal	0,3197k external	0,3197temperature offset calibration	1,0000default loss term (dB/km)	0,3820temperature slope calibration	1,0000multiplexer offset coefficient	1,0000multiplexer slope coefficient	1,0000fibre end	0,00T internal ref (°C)	15,64T ext. ref 1 (°C)	0,18T ext. ref 2 (°C)	0,17length (m)	temperature (°C)	Stokes	anti-Stokes-744,400	87,820	-0,244	-0,197
-743,385	-200,000	-0,069	0,283
-742,371	573,471	-0,125	-0,223
-741,356	-200,000	0,076	0,273
-740,342	800,000	-0,110	-0,304
-739,327	-200,000	0,054	0,271
-738,312	72,322	-0,169	-0,128
-737,298	-200,000	0,025	0,295
-736,283	800,000	-0,109	-0,226
-735,269	-200,000	0,049	0,310
-734,254	134,471	-0,188	-0,178
-733,239	388,104	-0,060	0,091
-732,225	69,253	-0,181	-0,135
-731,210	260,134	0,096	0,121
-730,196	-31,660	0,010	-0,004
-729,181	97,381	-0,130	-0,109
-728,167	-200,000	-0,005	0,035
-727,152	181,627	-0,046	0,049
-726,137	-200,000	0,002	0,076
-725,123	-103,527	-0,055	0,009
-724,108	-13,784	-0,164	-0,077
-723,094	184,894	0,148	-0,160
-722,079	800,000	-0,034	-0,104
-721,064	531,754	0,007	-0,012
-720,050	-200,000	0,013	-0,093
-719,035	-41,932	0,074	0,027
-718,021	-123,957	0,071	0,008
-717,006	-82,710	-0,089	0,021
-715,991	-92,787	-0,064	0,013
-714,977	-61,939	0,138	-0,042
-713,962	800,000	0,029	-0,072
-712,948	4,567	-0,068	0,036
-711,933	-200,000	-0,005	-0,079
-710,918	-30,777	-0,040	0,016
-709,904	-127,188	0,007	-0,001
-708,889	-109,359	-0,132	-0,020
-707,875	198,192	-0,174	-0,193
-706,860	210,983	-0,113	0,129
-705,845	-43,871	0,114	-0,041
-704,831	-22,955	0,089	0,039
-703,816	156,668	-0,035	-0,035
-702,802	-200,000	0,002	-0,016
-701,787	217,493	-0,046	-0,054
-700,772	-4,751	-0,111	0,055
-699,758	-200,000	-0,016	-0,109
-698,743	-200,000	0,012	0,060
-697,729	28,302	0,080	0,049
-696,714	26,120	0,091	0,055
-695,699	138,780	0,045	0,043
-694,685	-20,380	0,041	0,018
-693,670	-123,286	-0,156	0,018
-692,656	-200,000	0,005	0,036
-691,641	-200,000	0,005	0,090
-690,627	-78,666	0,090	-0,022
-689,612	256,786	-0,035	-0,044
-688,597	800,000	-0,021	-0,045
-687,583	-114,874	-0,191	-0,026
-686,568	154,548	-0,070	-0,070
-685,554	539,372	-0,078	0,136
-684,539	405,248	0,043	-0,067
-683,524	47,536	0,055	0,037
-682,510	454,668	0,069	0,112
-681,495	82,643	-0,106	0,083
-680,481	216,831	-0,067	-0,078
-679,466	-121,011	0,109	0,013
-678,451	-200,000	0,033	-0,114
-677,437	-140,141	0,082	-0,006
-676,422	-55,827	0,173	0,056
-675,408	-101,739	-0,036	0,006
-674,393	-110,363	0,059	0,009
-673,378	394,364	-0,100	0,151
-672,364	-200,000	-0,008	-0,039
-671,349	11,132	-0,038	-0,021
-670,335	172,014	-0,087	-0,091
-669,320	-200,000	0,021	0,071
-668,305	-47,380	0,164	0,058
-667,291	-200,000	-0,008	-0,103
-666,276	-200,000	-0,013	0,046
-665,262	373,169	-0,045	-0,067
-664,247	-200,000	-0,013	-0,087
-663,232	230,823	-0,055	-0,065
-662,218	-105,270	-0,095	0,016
-661,203	-200,000	0,014	-0,109
-660,189	-154,846	-0,087	0,004
-659,174	-95,231	-0,135	0,026
-658,159	-200,000	-0,035	-0,197
-657,145	800,000	-0,067	-0,156
-656,130	-200,000	0,003	-0,100
-655,116	-200,000	0,002	0,092
-654,101	-200,000	-0,009	-0,074
-653,086	113,805	-0,143	-0,126
-652,072	800,000	-0,047	-0,115
-651,057	48,879	-0,095	-0,065
-650,043	27,653	0,108	-0,066
-649,028	800,000	-0,014	-0,038
-648,014	344,243	-0,037	-0,053
-646,999	-200,000	-0,011	0,092
-645,984	307,259	0,018	-0,025
-644,970	-37,428	-0,021	0,008
-643,955	-43,452	0,097	-0,035
-642,941	800,000	-0,044	-0,123
-641,926	129,012	-0,075	0,069
-640,911	-200,000	0,004	0,064
-639,897	800,000	-0,026	0,066
-638,882	-200,000	-0,000	0,078
-637,868	496,178	0,005	0,009
-636,853	-200,000	0,002	0,013
-635,838	78,994	0,137	-0,106
-634,824	-140,604	0,010	0,001
-633,809	-200,000	-0,000	0,038
-632,795	-200,000	0,029	0,191
-631,780	225,249	0,046	-0,055
-630,765	-127,311	-0,036	-0,004
-629,751	-200,000	0,025	0,093
-628,736	135,900	0,021	0,020
-627,722	800,000	0,047	-0,105
-626,707	740,615	-0,066	-0,129
-625,692	-69,055	-0,080	0,022
-624,678	800,000	-0,043	0,094
-623,663	800,000	0,024	-0,054
-622,649	-68,947	-0,040	0,011
-621,634	-200,000	-0,012	-0,129
-620,619	800,000	0,066	0,208
-619,605	-200,000	0,013	-0,092
-618,590	-52,908	-0,113	0,037
-617,576	-70,352	0,200	0,055
-616,561	38,620	-0,055	-0,036
-615,546	77,629	-0,075	0,058
-614,532	69,378	-0,024	0,018
-613,517	-30,151	0,101	0,041
-612,503	-17,387	-0,069	0,031
-611,488	-61,062	0,192	0,058
-610,474	147,845	0,061	-0,060
-609,459	118,124	0,054	-0,048
-608,444	228,681	-0,014	0,017
-607,430	-200,000	-0,015	-0,072
-606,415	-200,000	0,049	-0,185
-605,401	173,048	-0,063	-0,066
-604,386	-200,000	0,008	0,058
-603,371	-200,000	0,003	-0,033
-602,357	177,234	-0,112	0,118
-601,342	-135,616	0,112	0,010
-600,328	-200,000	-0,006	-0,131
-599,313	-200,000	-0,021	-0,095
-598,298	260,606	-0,094	-0,118
-597,284	800,000	0,021	-0,051
-596,269	105,486	-0,100	0,086
-595,255	-85,647	0,066	-0,015
-594,240	147,638	-0,074	-0,072
-593,225	323,883	-0,043	0,060
-592,211	220,231	0,027	0,031
-591,196	-99,345	-0,108	0,020
-590,182	-162,236	-0,048	-0,002
-589,167	602,367	0,046	-0,083
-588,152	-200,000	-0,009	0,176
-587,138	253,491	0,023	0,029
-586,123	589,460	0,029	0,052
-585,109	-135,054	-0,111	0,010
-584,094	800,000	-0,054	-0,122
-583,079	-84,695	0,047	0,011
-582,065	-93,433	-0,030	0,006
-581,050	700,561	0,066	0,126
-580,036	800,000	0,009	-0,018
-579,021	-35,324	-0,046	0,018
-578,006	-63,176	-0,106	0,032
-576,992	-38,365	0,066	-0,025
-575,977	55,949	0,149	0,104
-574,963	-200,000	0,020	0,111
-573,948	39,366	0,061	-0,039
-572,934	-124,117	-0,140	0,016
-571,919	427,580	-0,031	-0,048
-570,904	74,780	-0,021	-0,016
-569,890	232,357	-0,047	0,055
-568,875	130,534	-0,084	0,078
-567,861	-200,000	-0,019	0,162
-566,846	1,558	-0,047	0,025
-565,831	-119,995	-0,029	-0,004
-564,817	-98,516	-0,271	-0,050
-563,802	-200,000	0,003	0,038
-562,788	-29,479	0,013	0,006
-561,773	25,051	-0,132	-0,079
-560,758	-200,000	0,008	0,064
-559,744	321,213	-0,034	0,048
-558,729	-20,617	0,091	0,040
-557,715	-140,036	-0,056	-0,004
-556,700	207,566	-0,034	0,039
-555,685	-200,000	-0,006	-0,022
-554,671	-200,000	-0,003	0,060
-553,656	800,000	-0,034	-0,079
-552,642	-200,000	-0,038	0,154
-551,627	-200,000	0,000	-0,059
-550,612	-200,000	-0,001	0,110
-549,598	-200,000	-0,028	-0,119
-548,583	416,255	-0,121	-0,188
-547,569	-200,000	0,019	0,095
-546,554	107,877	0,117	0,100
-545,539	-200,000	0,018	0,141
-544,525	669,195	-0,016	-0,029
-543,510	189,380	-0,070	0,076
-542,496	368,243	-0,044	-0,064
-541,481	270,771	-0,078	-0,100
-540,466	90,531	-0,087	-0,070
-539,452	265,365	0,101	0,127
-538,437	-58,942	0,171	-0,053
-537,423	-200,000	-0,033	0,000
-536,408	71,945	0,015	-0,011
-535,393	26,989	-0,142	0,086
-534,379	-171,912	-0,196	-0,005
-533,364	-141,083	-0,057	0,004
-532,350	-200,000	-0,022	-0,109
-531,335	-200,000	0,017	0,103
-530,321	30,911	0,045	-0,028
-529,306	-0,021	-0,046	0,024
-528,291	-200,000	0,026	-0,099
-527,277	-91,854	-0,084	-0,017
-526,262	-77,270	-0,097	-0,024
-525,248	97,953	0,079	0,065
-524,233	-200,000	0,002	-0,097
-523,218	701,330	-0,015	0,029
-522,204	-75,132	0,049	0,013
-521,189	-187,673	-0,045	-0,000
-520,175	-200,000	-0,010	-0,100
-519,160	-155,467	-0,099	0,005
-518,145	-84,139	0,173	0,039
-517,131	32,914	-0,030	0,019
-516,116	97,892	0,047	0,039
-515,102	-133,281	0,025	-0,002
-514,087	-83,293	-0,104	-0,024
-513,072	800,000	-0,009	0,025
-512,058	172,434	0,037	-0,039
-511,043	-44,161	0,149	0,054
-510,029	238,959	0,159	0,191
-509,014	-200,000	0,011	0,069
-507,999	137,146	0,048	0,046
-506,985	-23,359	0,047	-0,021
-505,970	800,000	-0,082	-0,182
-504,956	-33,963	-0,122	-0,048
-503,941	-200,000	0,009	0,124
-502,926	75,052	0,055	-0,042
-501,912	25,992	0,103	0,062
-500,897	42,417	0,098	0,064
-499,883	-200,000	0,009	-0,215
-498,868	-200,000	0,003	-0,093
-497,853	800,000	0,005	-0,013
-496,839	-152,162	0,054	-0,003
-495,824	800,000	0,033	0,075
-494,810	-200,000	-0,020	-0,076
-493,795	-200,000	-0,007	0,089
-492,781	-98,394	0,121	0,022
-491,766	800,000	0,037	-0,083
-490,751	720,733	0,078	-0,150
-489,737	235,613	-0,034	-0,040
-488,722	-200,000	0,021	0,141
-487,708	70,015	-0,047	-0,035
-486,693	191,860	0,064	-0,070
-485,678	130,130	0,070	-0,064
-484,664	800,000	0,079	-0,188
-483,649	174,314	-0,049	0,051
-482,635	231,645	-0,020	0,024
-481,620	0,783	0,117	-0,060
-480,605	108,913	0,090	-0,078
-479,591	632,101	0,049	0,090
-478,576	-15,832	0,116	-0,053
-477,562	-200,000	-0,019	-0,149
-476,547	-200,000	0,005	-0,031
-475,532	-22,713	-0,028	0,012
-474,518	53,844	0,074	0,051
-473,503	139,639	0,020	-0,019
-472,489	-49,089	0,030	-0,010
-471,474	461,500	-0,082	0,132
-470,459	302,051	0,026	-0,035
-469,445	-200,000	-0,035	-0,122
-468,430	-200,000	0,024	-0,101
-467,416	-155,117	0,091	-0,004
-466,401	538,167	0,039	0,068
-465,386	509,274	-0,039	-0,065
-464,372	99,585	0,091	-0,076
-463,357	433,591	-0,076	0,120
-462,343	757,020	-0,052	-0,101
-461,328	57,248	0,062	-0,044
-460,313	-35,113	-0,103	0,040
-459,299	-160,818	-0,081	0,003
-458,284	146,858	-0,132	0,128
-457,270	645,839	-0,025	-0,046
-456,255	24,067	-0,125	-0,074
-455,241	95,923	-0,140	-0,115
-454,226	180,403	0,055	0,058
-453,211	-59,151	0,048	-0,015
-452,197	-95,471	0,156	0,030
-451,182	-146,848	0,013	0,001
-450,168	-163,622	0,081	0,003
-449,153	-200,000	-0,013	0,084
-448,138	42,747	-0,068	-0,044
-447,124	-200,000	-0,010	0,060
-446,109	-200,000	0,004	-0,046
-445,095	-75,940	0,050	0,013
-444,080	-138,626	0,046	0,004
-443,065	800,000	-0,044	0,092
-442,051	197,480	-0,042	0,046
-441,036	-128,084	-0,089	-0,009
-440,022	-62,495	-0,083	0,025
-439,007	-31,774	-0,055	0,022
-437,992	7,569	0,049	0,026
-436,978	-200,000	0,007	-0,030
-435,963	182,818	-0,054	0,058
-434,949	-200,000	0,028	-0,123
-433,934	600,902	-0,080	0,144
-432,919	-40,924	-0,039	0,014
-431,905	-200,000	0,016	0,070
-430,890	-78,613	0,154	0,037
-429,876	75,422	0,155	0,118
-428,861	800,000	0,061	0,134
-427,846	31,094	0,089	-0,055
-426,832	96,083	0,044	0,036
-425,817	0,547	-0,084	-0,043
-424,803	-200,000	-0,002	-0,069
-423,788	163,735	0,061	0,062
-422,773	-45,119	0,184	0,065
-421,759	800,000	0,043	0,128
-420,744	800,000	-0,034	0,107
-419,730	-39,626	-0,063	-0,024
-418,715	-15,211	-0,179	-0,082
-417,701	47,778	0,074	-0,049
-416,686	-61,650	0,080	0,024
-415,671	77,998	-0,146	0,112
-414,657	-200,000	0,034	0,240
-413,642	-200,000	0,006	-0,118
-412,628	256,641	0,030	-0,037
-411,613	-200,000	0,013	-0,068
-410,598	-200,000	-0,002	-0,069
-409,584	84,494	-0,076	-0,060
-408,569	-52,345	0,087	-0,029
-407,555	233,068	-0,018	0,021
-406,540	-200,000	0,004	-0,065
-405,525	-200,000	-0,039	-0,166
-404,511	-44,509	0,103	-0,037
-403,496	800,000	-0,104	-0,219
-402,482	-100,716	-0,095	-0,017
-401,467	-48,278	0,105	-0,036
-400,452	-3,968	0,042	-0,021
-399,438	-200,000	0,000	0,023
-398,423	-0,075	-0,090	0,046
-397,409	-200,000	0,022	-0,125
-396,394	-200,000	-0,001	-0,046
-395,379	-101,834	-0,185	0,032
-394,365	6,857	0,069	0,037
-393,350	-45,137	-0,011	-0,004
-392,336	207,347	-0,010	0,011
-391,321	800,000	-0,060	-0,157
-390,306	651,024	0,064	-0,118
-389,292	-54,692	-0,027	0,009
-388,277	-162,155	0,046	0,002
-387,263	-77,823	0,095	0,023
-386,248	114,297	0,090	0,079
-385,233	200,333	0,068	0,075
-384,219	-200,000	-0,004	-0,092
-383,204	-200,000	-0,011	-0,058
-382,190	-200,000	-0,002	-0,072
-381,175	77,856	0,038	-0,029
-380,160	-33,789	0,155	0,061
-379,146	-200,000	-0,004	-0,072
-378,131	196,459	-0,015	0,017
-377,117	800,000	0,015	-0,031
-376,102	-21,014	0,048	0,021
-375,088	90,258	-0,021	0,017
-374,073	679,948	0,054	-0,102
-373,058	96,035	0,101	0,082
-372,044	-200,000	-0,040	0,175
-371,029	109,881	0,150	0,129
-370,015	81,869	-0,119	0,092
-369,000	-2,906	0,153	-0,076
-367,985	-84,949	-0,239	-0,053
-366,971	-76,307	-0,093	0,023
-365,956	10,230	0,167	0,091
-364,942	-200,000	0,001	-0,094
-363,927	-154,834	-0,068	0,003
-362,912	6,706	0,044	0,024
-361,898	14,036	-0,144	0,080
-360,883	26,680	-0,115	-0,069
-359,869	-105,641	-0,117	-0,019
-358,854	-98,513	-0,119	-0,022
-357,839	326,916	0,083	0,114
-356,825	41,831	0,027	0,018
-355,810	800,000	-0,041	0,103
-354,796	-118,033	0,099	0,013
-353,781	-200,000	-0,019	-0,167
-352,766	-91,824	-0,109	-0,022
-351,752	446,374	0,073	0,116
-350,737	-85,226	0,050	0,011
-349,723	-26,789	0,042	-0,017
-348,708	-154,122	0,077	-0,004
-347,693	-41,500	0,028	0,010
-346,679	800,000	0,039	-0,079
-345,664	800,000	0,027	-0,055
-344,650	303,826	-0,020	-0,027
-343,635	192,258	0,099	-0,108
-342,620	-153,807	-0,036	0,002
-341,606	-200,000	-0,050	0,162
-340,591	201,905	-0,116	0,129
-339,577	215,177	-0,036	0,041
-338,562	247,253	-0,025	-0,031
-337,548	-200,000	-0,012	-0,070
-336,533	-48,542	0,062	0,021
-335,518	-200,000	0,010	0,097
-334,504	656,373	0,023	0,042
-333,489	109,019	-0,022	0,018
-332,475	690,135	0,049	-0,093
-331,460	23,976	-0,144	-0,085
-330,445	451,657	-0,033	-0,052
-329,431	281,919	0,025	0,032
-328,416	-89,268	0,038	-0,008
-327,402	800,000	-0,064	0,140
-326,387	75,440	-0,043	-0,032
-325,372	-58,549	0,057	0,018
-324,358	-60,010	-0,048	0,015
-323,343	800,000	-0,058	-0,162
-322,329	109,913	-0,057	0,049
-321,314	-130,951	0,149	-0,014
-320,299	88,274	-0,068	0,054
-319,285	-200,000	-0,004	0,048
-318,270	-200,000	-0,008	-0,045
-317,256	800,000	0,024	-0,074
-316,241	33,451	0,086	0,053
-315,226	800,000	0,018	-0,052
-314,212	384,515	0,094	-0,139
-313,197	273,304	-0,079	-0,101
-312,183	-169,923	0,207	0,005
-311,168	-61,168	-0,042	-0,013
-310,153	-200,000	0,039	-0,136
-309,139	97,979	-0,077	-0,063
-308,124	-33,461	0,056	-0,022
-307,110	-200,000	0,009	0,099
-306,095	-200,000	-0,006	-0,093
-305,080	-12,164	0,018	0,008
-304,066	492,998	-0,014	-0,024
-303,051	-62,057	-0,088	0,026
-302,037	800,000	-0,040	0,112
-301,022	-18,636	-0,153	-0,068
-300,008	-200,000	0,002	0,111
-298,993	-200,000	0,006	-0,064
-297,978	168,414	0,007	0,007
-296,964	191,825	0,008	0,009
-295,949	11,491	0,152	0,083
-294,935	-88,631	-0,085	0,018
-293,920	800,000	-0,036	0,075
-292,905	67,773	-0,054	-0,040
-291,891	-200,000	-0,022	0,105
-290,876	-144,907	0,099	0,006
-289,862	35,458	0,071	0,045
-288,847	159,843	0,088	0,087
-287,832	-200,000	-0,021	-0,100
-286,818	-200,000	-0,002	-0,059
-285,803	800,000	0,047	0,102
-284,789	-134,926	-0,115	-0,010
-283,774	800,000	-0,005	0,012
-282,759	-60,234	0,117	0,035
-281,745	52,352	-0,101	-0,069
-280,730	-122,577	-0,076	-0,009
-279,716	228,908	-0,040	0,046
-278,701	-109,078	0,035	0,005
-277,686	75,021	0,090	-0,068
-276,672	-200,000	-0,013	0,079
-275,657	140,619	-0,061	0,058
-274,643	90,072	-0,083	-0,066
-273,628	-164,486	-0,118	-0,004
-272,613	800,000	0,033	-0,086
-271,599	800,000	0,053	-0,124
-270,584	800,000	-0,041	0,101
-269,570	-105,125	0,149	-0,024
-268,555	160,099	0,045	0,045
-267,540	5,219	0,106	0,056
-266,526	-120,566	-0,059	-0,007
-265,511	-98,622	-0,049	-0,009
-264,497	297,720	0,038	0,049
-263,482	87,860	-0,119	0,095
-262,467	44,658	-0,034	-0,022
-261,453	51,981	0,077	0,052
-260,438	18,860	0,074	0,042
-259,424	-200,000	0,002	-0,031
-258,409	30,699	-0,084	-0,051
-257,395	69,158	0,073	-0,054
-256,380	10,702	0,080	-0,043
-255,365	-49,690	0,094	-0,032
-254,351	346,323	0,095	0,134
-253,336	-92,875	-0,058	-0,011
-252,322	60,350	-0,040	0,028
-251,307	-200,000	0,009	-0,110
-250,292	800,000	0,042	-0,111
-249,278	270,832	0,076	-0,096
-248,263	588,070	-0,040	0,071
-247,249	107,727	-0,021	-0,018
-246,234	-157,528	-0,049	0,002
-245,219	-200,000	-0,039	-0,134
-244,205	24,070	-0,060	0,035
-243,190	-129,905	0,045	0,004
-242,176	171,332	-0,072	-0,074
-241,161	559,037	-0,020	0,035
-240,146	270,208	0,016	-0,020
-239,132	-200,000	0,020	-0,089
-238,117	265,002	-0,077	0,096
-237,103	-200,000	-0,013	-0,171
-236,088	-54,152	-0,065	-0,021
-235,073	31,263	0,045	0,028
-234,059	677,240	-0,021	-0,039
-233,044	79,581	0,126	-0,096
-232,030	-148,053	0,013	-0,001
-231,015	37,974	0,110	-0,070
-230,000	-200,000	0,008	-0,077
-228,986	220,671	-0,114	0,131
-227,971	800,000	0,022	0,059
-226,957	21,486	0,150	0,087
-225,942	-17,681	-0,136	0,061
-224,927	800,000	0,048	0,123
-223,913	-81,442	0,067	-0,016
-222,898	-200,000	-0,005	0,019
-221,884	-73,433	-0,122	-0,032
-220,869	33,792	0,064	0,040
-219,855	131,564	-0,038	-0,035
-218,840	-200,000	0,016	0,091
-217,825	141,023	0,041	0,038
-216,811	639,317	-0,055	-0,101
-215,796	-200,000	0,008	-0,077
-214,782	-181,972	-0,122	-0,002
-213,767	-158,324	-0,172	-0,007
-212,752	-200,000	0,013	0,051
-211,738	432,203	-0,084	0,131
-210,723	800,000	0,049	0,110
-209,709	-23,478	-0,036	0,015
-208,694	205,740	-0,126	-0,140
-207,679	800,000	0,034	-0,071
-206,665	800,000	-0,027	0,055
-205,650	800,000	0,025	0,062
-204,636	-106,844	0,004	-0,001
-203,621	-99,277	0,066	-0,012
-202,606	-200,000	0,031	-0,167
-201,592	800,000	-0,034	-0,069
-200,577	800,000	-0,039	0,114
-199,563	93,688	0,099	0,080
-198,548	602,819	0,101	0,179
-197,533	58,972	0,027	0,019
-196,519	208,381	-0,029	0,032
-195,504	191,009	0,047	0,050
-194,490	-200,000	-0,039	-0,163
-193,475	200,920	0,077	-0,084
-192,460	330,248	0,049	0,068
-191,446	56,444	0,047	0,032
-190,431	346,436	-0,053	-0,075
-189,417	-81,493	0,120	-0,028
-188,402	712,805	-0,059	0,112
-187,387	256,678	0,078	0,095
-186,373	-200,000	0,037	-0,162
-185,358	-112,247	0,057	-0,008
-184,344	245,033	0,075	0,090
-183,329	800,000	-0,030	0,060
-182,315	-71,633	0,036	-0,009
-181,300	43,697	-0,098	-0,064
-180,285	326,043	0,065	-0,089
-179,271	-200,000	-0,007	-0,043
-178,256	348,502	-0,018	-0,026
-177,242	347,347	0,098	-0,137
-176,227	-200,000	-0,024	0,153
-175,212	177,902	0,080	-0,083
-174,198	-89,259	-0,149	-0,031
-173,183	-200,000	-0,032	0,129
-172,169	-200,000	0,005	-0,062
-171,154	-200,000	0,011	-0,048
-170,139	345,942	-0,069	0,098
-169,125	-200,000	-0,012	-0,066
-168,110	-132,095	0,056	0,005
-167,096	10,203	-0,194	0,105
-166,081	125,091	-0,059	-0,053
-165,066	721,600	-0,033	-0,063
-164,052	-200,000	0,007	0,099
-163,037	-200,000	-0,015	0,074
-162,023	77,838	-0,049	0,037
-161,008	-200,000	-0,007	0,111
-159,993	-200,000	0,003	0,075
-158,979	-32,032	-0,130	-0,051
-157,964	535,922	0,014	0,024
-156,950	146,632	0,049	-0,047
-155,935	-200,000	0,004	-0,082
-154,920	-130,776	0,178	0,017
-153,906	313,026	-0,060	-0,081
-152,891	403,057	-0,035	0,053
-151,877	151,746	-0,023	-0,023
-150,862	18,891	-0,059	0,034
-149,847	800,000	0,059	-0,120
-148,833	-150,460	-0,143	0,008
-147,818	-82,723	0,164	0,037
-146,804	-61,611	0,076	-0,023
-145,789	-25,379	-0,114	-0,048
-144,775	-89,229	0,055	-0,012
-143,760	124,153	0,071	-0,064
-142,745	-62,411	-0,061	-0,018
-141,731	-14,304	0,070	-0,032
-140,716	18,497	-0,070	0,040
-139,702	800,000	-0,025	-0,070
-138,687	29,823	-0,157	-0,095
-137,672	-98,801	0,071	0,013
-136,658	800,000	0,026	-0,076
-135,643	539,312	-0,051	-0,087
-134,629	-99,063	0,045	-0,008
-133,614	363,567	-0,092	-0,132
-132,599	-109,308	-0,143	0,021
-131,585	203,843	-0,027	-0,030
-130,570	49,145	-0,089	0,060
-129,556	-51,346	0,082	-0,027
-128,541	800,000	-0,098	-0,196
-127,526	-37,472	-0,164	-0,062
-126,512	-106,531	0,161	-0,025
-125,497	-131,237	0,116	0,011
-124,483	-62,320	0,099	0,029
-123,468	-104,261	0,055	0,009
-122,453	-200,000	0,014	-0,066
-121,439	220,718	-0,038	-0,044
-120,424	688,613	-0,032	-0,060
-119,410	800,000	0,021	-0,059
-118,395	77,429	0,061	-0,046
-117,380	114,732	0,055	0,048
-116,366	367,667	0,102	0,147
-115,351	800,000	-0,040	-0,106
-114,337	58,864	0,102	-0,071
-113,322	-61,918	-0,084	0,025
-112,307	-200,000	0,014	0,123
-111,293	18,056	-0,027	0,015
-110,278	-65,618	-0,044	-0,012
-109,264	-160,731	-0,056	0,002
-108,249	800,000	0,024	0,074
-107,234	227,308	-0,056	-0,064
-106,220	-200,000	0,000	0,031
-105,205	-3,203	0,125	-0,062
-104,191	800,000	0,041	0,095
-103,176	-113,092	-0,061	0,008
-102,162	306,535	-0,001	-0,002
-101,147	-199,610	-0,058	-0,000
-100,132	173,001	-0,060	0,061
-99,118	-200,000	-0,059	-0,356
-98,103	188,501	0,117	0,125
-97,089	603,517	-0,041	0,072
-96,074	-21,020	0,156	-0,067
-95,059	-200,000	0,021	0,084
-94,045	12,039	-0,078	-0,042
-93,030	-53,793	0,140	-0,045
-92,016	-200,000	0,007	-0,060
-91,001	28,037	0,113	0,067
-89,986	-200,000	-0,015	0,182
-88,972	584,963	0,035	-0,061
-87,957	163,643	0,106	-0,106
-86,943	144,030	-0,052	-0,049
-85,928	800,000	-0,042	-0,102
-84,913	800,000	-0,024	0,054
-83,899	16,736	-0,032	-0,018
-82,884	78,593	0,101	0,077
-81,870	5,815	-0,064	0,033
-80,855	412,697	-0,012	-0,019
-79,840	-112,528	-0,092	-0,013
-78,826	800,000	-0,037	-0,092
-77,811	-14,042	-0,080	0,036
-76,797	334,860	-0,025	-0,035
-75,782	-49,216	0,125	-0,042
-74,767	1,722	0,068	-0,035
-73,753	132,936	0,075	0,069
-72,738	468,743	0,018	0,029
-71,724	-20,478	0,046	0,020
-70,709	-200,000	-0,002	-0,023
-69,694	86,454	0,033	0,026
-68,680	-133,452	-0,153	-0,013
-67,665	236,945	0,094	0,110
-66,651	-27,025	0,147	-0,061
-65,636	-99,561	-0,061	0,011
-64,622	162,706	-0,095	-0,094
-63,607	-45,856	-0,028	-0,010
-62,592	44,056	-0,110	-0,071
-61,578	-109,731	0,162	-0,024
-60,563	166,382	-0,012	-0,013
-59,549	-200,000	-0,021	0,094
-58,534	-70,505	-1,432	-0,382
-57,519	361,568	-1,464	-2,087
-56,505	-200,000	-0,505	-4,312
-55,490	252,837	0,970	1,175
-54,476	800,000	4,674	10,831
-53,461	-200,000	17,866	285,582
-52,446	800,000	723,770	2232,662
-51,432	561,217	1638,775	2819,665
-50,417	80,491	1661,345	1267,401
-49,403	23,504	1535,412	893,095
-48,388	17,481	1458,749	819,388
-47,373	18,122	1448,598	816,738
-46,359	17,644	1439,163	809,101
-45,344	15,773	1434,532	797,552
-44,330	15,677	1432,477	795,922
-43,315	15,710	1430,739	795,082
-42,300	15,707	1429,258	794,212
-41,286	15,794	1427,910	793,844
-40,271	15,751	1426,734	792,955
-39,257	15,692	1425,599	792,015
-38,242	15,764	1424,163	791,526
-37,227	15,766	1422,944	790,826
-36,213	15,760	1421,627	790,032
-35,198	15,706	1420,606	789,178
-34,184	15,730	1419,666	788,737
-33,169	15,708	1418,410	787,906
-32,154	15,789	1417,216	787,594
-31,140	15,761	1415,935	786,720
-30,125	15,794	1414,780	786,200
-29,111	15,774	1413,767	785,511
-28,096	15,718	1412,658	784,603
-27,082	15,672	1411,426	783,670
-26,067	15,691	1410,217	783,057
-25,052	15,726	1409,259	782,658
-24,038	15,682	1408,434	781,963
-23,023	15,663	1407,289	781,210
-22,009	15,682	1406,256	780,692
-20,994	15,597	1405,552	779,874
-19,979	15,602	1404,526	779,297
-18,965	15,601	1403,522	778,702
-17,950	15,607	1402,524	778,149
-16,936	15,622	1401,663	777,709
-15,921	15,579	1400,412	776,784
-14,906	15,589	1399,389	776,233
-13,892	15,598	1398,384	775,686
-12,877	15,559	1397,739	775,115
-11,863	15,605	1396,558	774,643
-10,848	15,561	1395,675	773,917
-9,833	15,510	1395,056	773,309
-8,819	15,482	1394,024	772,574
-7,804	15,459	1393,113	771,934
-6,790	15,456	1392,121	771,338
-5,775	15,422	1391,212	770,648
-4,760	15,473	1390,152	770,265
-3,746	15,467	1389,334	769,755
-2,731	15,448	1388,624	769,241
-1,717	15,445	1387,584	768,623
-0,702	15,442	1385,809	767,594
0,313	19,169	1305,833	740,541
1,327	35,403	706,778	438,457
2,342	54,163	124,963	85,047
3,356	1,402	16,546	8,399
4,371	7,952	3,093	1,638
5,386	-38,715	0,548	0,204
6,400	-17,215	0,160	0,071
7,415	114,475	-0,271	-0,234
8,429	800,000	-0,072	-0,161
9,444	46,536	-0,311	-0,204
10,459	302,028	-0,169	-0,222
11,473	-3,095	-0,454	-0,223
12,488	-69,729	-0,342	-0,092
13,502	64,635	-0,228	-0,162
14,517	189,114	-0,245	-0,260
15,531	95,246	-0,373	-0,301
16,546	357,861	-0,220	-0,312
17,561	158,500	-0,294	-0,289
18,575	299,033	-0,239	-0,312
19,590	57,892	-0,363	-0,251
20,604	-164,957	-0,349	-0,011
21,619	88,771	-0,415	-0,326
22,634	241,311	-0,423	-0,501
23,648	19,130	-0,318	-0,180
24,663	248,215	-0,263	-0,315
25,677	79,365	-0,264	-0,200
26,692	83,074	-0,398	-0,306
27,707	71,575	-0,383	-0,281
28,721	191,581	-0,403	-0,429
29,736	-13,287	-0,468	-0,214
30,750	-28,976	-0,505	-0,204
31,765	-37,264	-0,248	-0,093
32,780	133,202	-0,381	-0,348
33,794	35,276	-0,398	-0,246
34,809	-76,456	-0,464	-0,114
35,823	148,700	-0,280	-0,267
36,838	-12,991	-0,390	-0,179
37,853	28,559	-0,412	-0,246
38,867	184,624	-0,333	-0,349
39,882	125,360	-0,417	-0,372
40,896	15,702	-0,330	-0,183
41,911	93,010	-0,364	-0,291
42,926	17,455	-0,359	-0,201
43,940	72,920	-0,380	-0,280
44,955	285,429	-0,259	-0,330
45,969	37,207	-0,297	-0,185
46,984	-63,046	-0,359	-0,104
47,999	94,293	-0,283	-0,227
49,013	640,919	-0,148	-0,268
50,028	-61,201	-0,392	-0,116
51,042	-13,800	-0,408	-0,185
52,057	100,792	-0,316	-0,259
53,071	328,920	-0,248	-0,337
54,086	186,511	-0,240	-0,252
55,101	800,000	-0,192	-0,418
56,115	84,531	-0,286	-0,220
57,130	-0,820	-0,388	-0,193
58,144	101,029	-0,365	-0,299
59,159	351,430	-0,330	-0,462
60,174	130,161	-0,343	-0,310
61,188	50,636	-0,313	-0,208
62,203	339,961	-0,175	-0,241
63,217	93,287	-0,354	-0,282
64,232	74,436	-0,275	-0,203
65,247	29,774	-0,354	-0,212
66,261	30,286	-0,297	-0,178
67,276	172,638	-0,337	-0,342
68,290	-30,910	-0,391	-0,155
69,305	-6,841	-0,292	-0,139
70,320	-54,037	-0,315	-0,100
71,334	219,168	-0,196	-0,221
72,349	5,935	-0,368	-0,191
73,363	18,132	-0,368	-0,206
74,378	3,623	-0,283	-0,145
75,393	196,469	-0,190	-0,204
76,407	119,744	-0,361	-0,315
77,422	-16,429	-0,375	-0,167
78,436	343,282	-0,194	-0,268
79,451	148,395	-0,152	-0,144
80,466	-28,206	-0,289	-0,117
81,480	160,182	-0,275	-0,270
82,495	-16,805	-0,357	-0,158
83,509	100,813	-0,335	-0,274
84,524	65,572	-0,209	-0,149
85,539	-40,248	-0,238	-0,087
86,553	57,368	-0,309	-0,212
87,568	-6,534	-0,420	-0,201
88,582	-103,917	-0,414	-0,067
89,597	-7,587	-0,258	-0,122
90,611	21,133	-0,417	-0,238
91,626	38,335	-0,209	-0,130
92,641	-17,831	-0,221	-0,097
93,655	34,078	-0,347	-0,212
94,670	-9,421	-0,275	-0,129
95,684	123,228	-0,322	-0,283
96,699	140,638	-0,205	-0,191
97,714	94,530	-0,384	-0,307
98,728	60,173	-0,313	-0,217
99,743	23,467	-0,278	-0,160
100,757	32,192	-0,213	-0,129
101,772	373,060	-0,188	-0,269
102,787	-44,776	-0,430	-0,150
103,801	-56,945	-0,178	-0,055
104,816	-50,308	-0,352	-0,116
105,830	-38,716	-0,334	-0,123
106,845	800,000	-0,149	-0,331
107,860	71,839	-0,342	-0,249
108,874	49,419	-0,309	-0,204
109,889	263,346	-0,228	-0,279
110,903	57,231	-0,236	-0,161
111,918	196,606	-0,187	-0,200
112,933	76,628	-0,236	-0,175
113,947	36,615	-0,123	-0,076
114,962	61,761	-0,258	-0,180
115,976	5,518	-0,333	-0,172
116,991	36,517	-0,416	-0,257
118,006	185,616	-0,259	-0,270
119,020	41,548	-0,237	-0,150
120,035	565,332	-0,182	-0,310
121,049	-7,911	-0,295	-0,139
122,064	285,049	-0,189	-0,239
123,079	80,286	-0,261	-0,197
124,093	22,684	-0,183	-0,105
125,108	-97,689	-0,301	-0,054
126,122	84,976	-0,249	-0,191
127,137	77,753	-0,187	-0,140
128,151	51,161	-0,321	-0,213
129,166	-36,683	-0,094	-0,035
130,181	-32,578	-0,303	-0,117
131,195	139,715	-0,331	-0,305
132,210	330,742	-0,186	-0,252
133,224	-41,318	-0,285	-0,102
134,239	74,132	-0,227	-0,167
135,254	86,284	-0,184	-0,142
136,268	48,944	-0,246	-0,161
137,283	112,546	-0,131	-0,111
138,297	800,000	-0,162	-0,410
139,312	418,736	-0,274	-0,411
140,327	-8,076	-0,284	-0,134
141,341	-200,000	-0,046	-0,157
142,356	24,936	-0,162	-0,094
143,370	48,828	-0,232	-0,152
144,385	55,895	-0,240	-0,163
145,400	324,125	-0,183	-0,246
146,414	56,732	-0,432	-0,294
147,429	-67,513	-0,252	-0,069
148,443	249,432	-0,201	-0,238
149,458	-53,857	-0,297	-0,094
150,473	-21,263	-0,302	-0,129
151,487	257,689	-0,234	-0,282
152,502	60,217	-0,294	-0,203
153,516	85,866	-0,272	-0,209
154,531	267,569	-0,199	-0,243
155,546	173,529	-0,176	-0,178
156,560	-134,424	-0,173	-0,015
157,575	85,284	-0,207	-0,159
158,589	30,266	-0,218	-0,130
159,604	174,633	-0,207	-0,209
160,619	17,571	-0,196	-0,109
161,633	800,000	-0,174	-0,341
162,648	33,665	-0,219	-0,133
163,662	131,474	-0,216	-0,194
164,677	118,442	-0,166	-0,143
165,692	-43,869	-0,239	-0,084
166,706	800,000	-0,064	-0,184
167,721	82,735	-0,165	-0,125
168,735	359,403	-0,167	-0,233
169,750	213,945	-0,194	-0,214
170,764	223,629	-0,253	-0,286
171,779	143,448	-0,100	-0,093
172,794	13,398	-0,232	-0,125
173,808	-76,118	-0,241	-0,059
174,823	651,989	-0,122	-0,218
175,837	389,906	-0,132	-0,191
176,852	209,907	-0,240	-0,263
177,867	4,359	-0,208	-0,106
178,881	-76,223	-0,234	-0,057
179,896	75,649	-0,102	-0,075
180,910	-200,000	-0,059	-0,196
181,925	186,814	-0,211	-0,219
182,940	62,235	-0,303	-0,210
183,954	238,113	-0,190	-0,220
184,969	128,486	-0,231	-0,205
185,983	-91,292	-0,068	-0,013
186,998	203,604	-0,174	-0,188
188,013	247,548	-0,185	-0,218
189,027	34,310	-0,215	-0,130
190,042	83,005	-0,156	-0,118
191,056	495,205	-0,108	-0,174
192,071	70,015	-0,189	-0,136
193,086	143,243	-0,174	-0,161
194,100	-11,745	-0,145	-0,066
195,115	397,248	-0,165	-0,241
196,129	-78,069	-0,337	-0,080
197,144	593,268	-0,178	-0,307
198,159	194,971	-0,193	-0,204
199,173	550,134	-0,104	-0,175
200,188	40,981	-0,168	-0,106
201,202	-200,000	-0,037	-0,232
202,217	-164,193	-0,150	-0,005
203,232	25,248	-0,273	-0,158
204,246	70,659	-0,251	-0,180
205,261	355,448	-0,192	-0,267
206,275	127,830	-0,206	-0,182
207,290	51,391	-0,260	-0,171
208,304	-155,546	-0,101	0,004
209,319	800,000	-0,069	-0,173
210,334	800,000	-0,090	-0,222
211,348	253,437	-0,144	-0,171
212,363	-17,121	-0,165	-0,072
213,377	-200,000	-0,072	-0,245
214,392	227,398	-0,151	-0,171
215,407	-100,728	-0,200	-0,034
216,421	-27,720	-0,243	-0,098
217,436	106,410	-0,133	-0,110
218,450	212,680	-0,160	-0,176
219,465	-0,986	-0,164	-0,080
220,480	163,413	-0,214	-0,209
221,494	498,169	-0,109	-0,176
222,509	-10,408	-0,165	-0,076
223,523	48,276	-0,214	-0,139
224,538	54,212	-0,238	-0,159
225,553	193,230	-0,164	-0,172
226,567	430,539	-0,172	-0,259
227,582	-2,094	-0,273	-0,133
228,596	181,649	-0,087	-0,089
229,611	117,723	-0,179	-0,153
230,626	238,468	-0,165	-0,191
231,640	178,195	-0,181	-0,183
232,655	652,962	-0,131	-0,234
233,669	-8,100	-0,291	-0,136
234,684	117,656	-0,245	-0,209
235,699	-33,438	-0,214	-0,082
236,713	-65,720	-0,114	0,032
237,728	-55,210	-0,073	-0,023
238,742	800,000	-0,049	-0,104
239,757	-69,246	-0,276	-0,073
240,772	-71,765	-0,275	-0,071
241,786	-105,431	-0,093	-0,014
242,801	-51,595	-0,116	0,037
243,815	233,944	-0,159	-0,182
244,830	12,453	-0,105	-0,056
245,844	34,600	-0,308	-0,186
246,859	523,422	-0,149	-0,244
247,874	-5,694	-0,306	-0,145
248,888	245,507	-0,187	-0,219
249,903	129,276	-0,261	-0,231
250,917	555,537	-0,097	-0,162
251,932	-82,905	-0,151	0,034
252,947	196,233	-0,068	-0,071
253,961	800,000	-0,029	-0,074
254,976	0,961	-0,190	-0,094
255,990	165,177	-0,139	-0,136
257,005	66,466	-0,196	-0,138
258,020	245,524	-0,119	-0,139
259,034	76,843	-0,147	-0,108
260,049	23,209	-0,242	-0,137
261,063	-3,814	-0,284	-0,136
262,078	127,133	-0,157	-0,138
263,093	138,670	-0,131	-0,119
264,107	760,507	-0,104	-0,195
265,122	475,070	-0,146	-0,229
266,136	-127,351	-0,150	-0,015
267,151	-101,899	-0,181	-0,030
268,166	573,783	-0,089	0,151
269,180	24,058	-0,314	-0,179
270,195	-15,357	-0,303	-0,134
271,209	-95,671	-0,298	-0,055
272,224	-135,458	-0,062	-0,005
273,239	35,992	-0,136	0,083
274,253	2,790	-0,207	-0,104
275,268	800,000	-0,029	-0,087
276,282	-77,032	-0,226	-0,054
277,297	36,879	-0,239	-0,146
278,312	274,327	-0,142	-0,174
279,326	-123,710	-0,153	-0,017
280,341	-38,176	-0,101	-0,037
281,355	164,674	-0,045	-0,044
282,370	-200,000	-0,025	-0,087
283,384	48,664	-0,225	-0,146
284,399	-87,556	-0,307	-0,064
285,414	339,526	-0,135	-0,182
286,428	-200,000	-0,003	-0,276
287,443	190,690	-0,112	-0,116
288,457	37,417	-0,158	-0,097
289,472	195,894	-0,176	-0,186
290,487	800,000	-0,094	-0,225
291,501	-8,792	-0,162	-0,075
292,516	9,095	-0,136	-0,071
293,530	627,872	-0,120	-0,211
294,545	-114,091	-0,061	0,008
295,560	-61,767	-0,135	-0,039
296,574	-15,760	-0,151	-0,066
297,589	-122,238	-0,222	-0,025
298,603	800,000	-0,088	-0,177
299,618	-69,403	-0,163	-0,043
300,633	-97,556	-0,251	-0,045
301,647	-151,289	-0,158	0,008
302,662	-200,000	-0,032	-0,125
303,676	-64,838	-0,220	-0,061
304,691	28,541	-0,290	-0,169
305,706	655,495	-0,076	-0,135
306,720	672,131	-0,070	-0,126
307,735	800,000	-0,028	-0,072
308,749	800,000	-0,049	-0,125
309,764	-200,000	0,025	-0,084
310,779	715,150	-0,061	-0,112
311,793	407,354	-0,108	-0,158
312,808	49,768	-0,140	-0,091
313,822	634,183	-0,080	-0,141
314,837	85,285	-0,080	-0,060
315,852	56,376	-0,097	-0,065
316,866	800,000	-0,046	-0,109
317,881	800,000	-0,057	-0,149
318,895	-200,000	-0,027	-0,092
319,910	-119,264	-0,192	-0,023
320,925	-200,000	-0,003	-0,099
321,939	359,901	-0,120	-0,166
322,954	800,000	-0,093	-0,208
323,968	60,973	-0,135	-0,092
324,983	-200,000	-0,001	-0,042
325,997	-8,617	-0,109	0,050
327,012	800,000	-0,028	-0,062
328,027	47,699	-0,156	-0,100
329,041	-146,349	-0,175	0,010
330,056	189,940	-0,116	-0,120
331,070	485,188	0,031	-0,049
332,085	-61,812	-0,118	-0,034
333,100	40,098	-0,146	-0,090
334,114	411,658	-0,096	-0,141
335,129	1,026	-0,148	-0,073
336,143	114,364	-0,130	-0,109
337,158	-104,276	-0,149	0,024
338,173	262,690	-0,073	-0,087
339,187	183,999	-0,112	-0,114
340,202	-0,845	-0,101	-0,049
341,216	-166,455	-0,176	-0,005
342,231	37,314	-0,177	-0,108
343,246	613,423	-0,097	-0,167
344,260	800,000	-0,104	-0,312
345,275	-200,000	-0,049	-0,179
346,289	-9,052	-0,159	-0,073
347,304	65,830	-0,087	-0,060
348,319	-57,934	-0,138	-0,041
349,333	6,008	-0,159	-0,081
350,348	225,692	-0,204	-0,228
351,362	-200,000	-0,004	-0,148
352,377	-79,932	-0,123	-0,028
353,392	-27,712	-0,053	-0,021
354,406	-5,229	-0,226	-0,106
355,421	209,299	1314,468	1416,199
356,435	161,077	1475,200	1416,718
