DTS Sentinel unit serial number:	SN410029Multiplexer serial number:	ORYXHardware model number:	OX2-SRSoftware version number:	ORYX F/W v4,00 Oryx Data Collector v3.7.2.0data status	okinstallation	B3 Nyhavnadifferential loss correction	single-endedforward channel	channel 1reverse channel	N/Adate	2023/12/03time	18:37:30forward acquisition time	300,00reverse acquisition time	0,00gamma	499,1914k internal	0,3198k external	0,3198temperature offset calibration	1,0000default loss term (dB/km)	0,3820temperature slope calibration	1,0000multiplexer offset coefficient	1,0000multiplexer slope coefficient	1,0000fibre end	0,00T internal ref (°C)	14,52T ext. ref 1 (°C)	-0,84T ext. ref 2 (°C)	-0,85length (m)	temperature (°C)	Stokes	anti-Stokes-744,400	321,667	-0,130	-0,180
-743,385	-200,000	-0,069	0,225
-742,371	181,148	-0,270	-0,290
-741,356	-200,000	-0,004	0,288
-740,342	278,553	-0,157	-0,205
-739,327	-200,000	0,009	0,460
-738,312	62,001	-0,247	-0,179
-737,298	-200,000	-0,040	0,304
-736,283	75,604	-0,303	-0,233
-735,269	-200,000	-0,025	0,250
-734,254	103,516	-0,251	-0,214
-733,239	-54,057	-0,180	0,059
-732,225	273,442	-0,167	-0,216
-731,210	81,878	0,114	0,090
-730,196	-162,621	0,081	0,003
-729,181	225,591	-0,063	0,074
-728,167	-172,215	0,134	0,003
-727,152	-200,000	0,011	-0,113
-726,137	66,739	-0,091	-0,067
-725,123	13,354	-0,021	-0,012
-724,108	611,329	-0,035	-0,063
-723,094	800,000	0,028	-0,069
-722,079	-200,000	0,002	0,020
-721,064	-137,449	0,039	-0,003
-720,050	33,994	-0,092	-0,058
-719,035	95,130	0,059	-0,049
-718,021	-66,869	-0,089	-0,026
-717,006	-200,000	0,011	0,061
-715,991	-150,264	-0,143	0,008
-714,977	222,102	-0,089	-0,104
-713,962	1,027	-0,168	-0,087
-712,948	62,773	0,173	0,126
-711,933	-200,000	-0,007	0,065
-710,918	-200,000	-0,034	-0,204
-709,904	81,549	-0,044	0,035
-708,889	-146,894	-0,161	-0,010
-707,875	10,267	-0,092	0,050
-706,860	405,567	-0,034	0,053
-705,845	-143,254	0,128	-0,009
-704,831	800,000	0,043	0,110
-703,816	287,540	0,048	0,063
-702,802	-30,866	-0,036	0,015
-701,787	-200,000	-0,006	-0,198
-700,772	520,470	-0,048	-0,082
-699,758	-200,000	0,032	-0,184
-698,743	179,652	0,010	0,011
-697,729	-90,820	-0,112	0,023
-696,714	-9,532	-0,111	0,054
-695,699	23,665	-0,161	-0,096
-694,685	10,114	0,115	-0,063
-693,670	620,993	-0,058	-0,107
-692,656	800,000	-0,008	-0,025
-691,641	-21,408	0,071	-0,031
-690,627	8,077	0,068	-0,037
-689,612	174,663	-0,091	0,096
-688,597	124,102	-0,016	0,015
-687,583	40,390	-0,180	-0,118
-686,568	-49,487	0,070	-0,024
-685,554	-118,228	-0,024	-0,003
-684,539	57,346	-0,113	-0,080
-683,524	64,428	0,195	0,142
-682,510	311,562	0,059	-0,081
-681,495	-120,470	0,070	0,009
-680,481	-40,559	0,072	0,027
-679,466	-171,702	-0,090	-0,002
-678,451	163,033	-0,092	-0,094
-677,437	-200,000	0,006	-0,244
-676,422	246,508	-0,027	0,033
-675,408	-200,000	-0,003	0,129
-674,393	-62,816	-0,106	-0,032
-673,378	193,415	-0,081	-0,089
-672,364	157,249	-0,125	-0,126
-671,349	800,000	-0,045	-0,141
-670,335	800,000	-0,024	-0,060
-669,320	287,980	-0,050	0,065
-668,305	800,000	-0,046	0,114
-667,291	197,629	0,010	0,011
-666,276	146,720	0,111	-0,108
-665,262	800,000	0,034	-0,098
-664,247	-200,000	0,020	-0,077
-663,232	800,000	0,019	-0,056
-662,218	-103,356	0,126	-0,021
-661,203	342,821	0,077	0,109
-660,189	101,968	0,054	-0,046
-659,174	-200,000	0,007	-0,094
-658,159	1,506	-0,159	-0,082
-657,145	-200,000	-0,012	-0,130
-656,130	208,209	0,066	-0,074
-655,116	39,040	-0,190	-0,123
-654,101	460,668	0,086	-0,139
-653,086	94,469	-0,046	-0,038
-652,072	-3,659	0,032	0,016
-651,057	670,437	0,034	-0,065
-650,043	601,295	-0,040	-0,072
-649,028	800,000	0,028	-0,081
-648,014	-200,000	-0,189	0,001
-646,999	118,156	-0,029	-0,026
-645,984	-93,861	-0,035	-0,007
-644,970	97,255	-0,071	0,059
-643,955	-200,000	0,030	-0,110
-642,941	-65,631	-0,053	0,015
-641,926	-200,000	-0,003	-0,112
-640,911	172,116	-0,035	-0,036
-639,897	-69,495	-0,005	-0,001
-638,882	-181,110	-0,072	0,001
-637,868	47,685	-0,059	-0,040
-636,853	800,000	0,029	0,078
-635,838	148,671	0,010	-0,010
-634,824	800,000	0,054	-0,138
-633,809	-14,953	0,087	-0,040
-632,795	-125,050	-0,084	0,009
-631,780	367,437	-0,092	0,135
-630,765	474,724	0,085	0,140
-629,751	-200,000	-0,007	-0,024
-628,736	800,000	0,054	-0,125
-627,722	-200,000	0,014	-0,115
-626,707	-200,000	-0,016	-0,127
-625,692	-200,000	0,015	0,051
-624,678	529,633	-0,104	0,178
-623,663	-200,000	0,003	0,144
-622,649	63,832	-0,158	-0,115
-621,634	753,737	0,067	0,132
-620,619	18,689	0,096	0,056
-619,605	-200,000	0,003	0,089
-618,590	800,000	0,061	0,131
-617,576	637,676	0,043	-0,079
-616,561	381,772	0,030	0,045
-615,546	-200,000	-0,039	-0,140
-614,532	-155,288	-0,139	0,006
-613,517	132,379	0,027	0,025
-612,503	-200,000	-0,015	0,090
-611,488	203,811	0,048	0,054
-610,474	90,395	-0,054	0,043
-609,459	511,690	0,071	-0,120
-608,444	-200,000	-0,009	-0,057
-607,430	33,564	-0,103	0,065
-606,415	-200,000	-0,003	0,097
-605,401	-134,985	-0,120	0,010
-604,386	800,000	0,022	0,067
-603,371	-200,000	0,029	0,101
-602,357	-200,000	-0,004	-0,163
-601,342	400,489	0,045	-0,069
-600,328	800,000	-0,052	-0,113
-599,313	-96,005	0,085	-0,016
-598,298	-200,000	-0,006	0,078
-597,284	800,000	-0,066	0,137
-596,269	-200,000	0,009	0,067
-595,255	800,000	0,026	-0,065
-594,240	-200,000	0,018	0,107
-593,225	550,939	-0,046	-0,080
-592,211	-86,943	0,015	0,003
-591,196	-116,917	-0,074	-0,010
-590,182	-140,172	0,128	0,010
-589,167	-66,133	0,114	-0,033
-588,152	161,214	-0,007	0,007
-587,138	-78,954	-0,093	-0,023
-586,123	-58,456	-0,024	-0,007
-585,109	800,000	-0,055	-0,134
-584,094	368,378	-0,018	0,026
-583,079	-200,000	-0,021	0,116
-582,065	-146,261	-0,077	-0,005
-581,050	-29,594	0,095	0,039
-580,036	-200,000	-0,003	0,156
-579,021	-74,472	-0,035	-0,009
-578,006	-200,000	-0,006	0,023
-576,992	-124,883	-0,073	-0,008
-575,977	-120,860	-0,124	0,015
-574,963	-85,942	0,139	0,031
-573,948	-200,000	-0,004	-0,101
-572,934	269,839	0,054	0,069
-571,919	-200,000	-0,030	-0,097
-570,904	-200,000	0,028	0,109
-569,890	108,299	-0,032	0,028
-568,875	-200,000	-0,011	-0,067
-567,861	-54,744	0,137	0,045
-566,846	-200,000	0,008	0,213
-565,831	544,217	-0,043	-0,074
-564,817	800,000	0,032	0,080
-563,802	-200,000	-0,001	0,030
-562,788	800,000	0,023	-0,047
-561,773	-200,000	0,018	-0,087
-560,758	-200,000	0,013	-0,062
-559,744	170,205	-0,018	0,019
-558,729	-107,130	-0,077	0,012
-557,715	-127,019	-0,173	0,018
-556,700	-200,000	-0,011	-0,045
-555,685	-200,000	-0,047	-0,177
-554,671	-87,123	0,046	-0,010
-553,656	273,633	-0,019	0,025
-552,642	-200,000	0,004	0,072
-551,627	800,000	-0,027	0,065
-550,612	76,708	-0,167	0,128
-549,598	-200,000	-0,012	-0,062
-548,583	-160,844	-0,109	-0,004
-547,569	-116,024	0,022	-0,003
-546,554	50,705	-0,014	-0,010
-545,539	21,453	-0,016	0,010
-544,525	-104,526	0,087	-0,014
-543,510	-200,000	0,014	-0,163
-542,496	116,023	-0,120	-0,106
-541,481	45,568	0,137	-0,091
-540,466	-12,384	-0,013	0,006
-539,452	-200,000	0,031	-0,163
-538,437	800,000	0,041	0,101
-537,423	800,000	-0,043	0,091
-536,408	-37,481	0,076	-0,029
-535,393	269,782	-0,101	-0,129
-534,379	-134,788	-0,096	-0,008
-533,364	-49,224	-0,039	0,014
-532,350	163,559	0,075	0,076
-531,335	-200,000	-0,011	0,110
-530,321	784,274	0,031	0,061
-529,306	-187,602	0,109	0,001
-528,291	800,000	-0,050	-0,151
-527,277	800,000	-0,039	-0,081
-526,262	750,136	0,044	-0,085
-525,248	-200,000	-0,004	-0,045
-524,233	-171,421	0,078	-0,002
-523,218	-181,745	-0,059	0,001
-522,204	173,206	0,027	-0,028
-521,189	40,949	0,076	-0,050
-520,175	-200,000	-0,041	-0,177
-519,160	-7,102	-0,082	-0,040
-518,145	-38,941	0,045	0,017
-517,131	-174,124	0,118	-0,002
-516,116	800,000	-0,037	0,092
-515,102	-200,000	-0,021	-0,116
-514,087	800,000	0,021	-0,046
-513,072	78,465	-0,089	-0,069
-512,058	-21,353	0,111	-0,049
-511,043	48,839	0,087	-0,059
-510,029	-22,795	0,065	0,028
-509,014	2,318	0,114	0,059
-507,999	-176,666	-0,048	0,001
-506,985	37,102	-0,026	-0,017
-505,970	203,347	-0,026	-0,030
-504,956	113,019	0,053	0,046
-503,941	800,000	-0,026	0,069
-502,926	793,151	0,090	0,180
-501,912	214,048	0,055	-0,063
-500,897	251,020	0,090	-0,111
-499,883	-37,020	-0,195	-0,075
-498,868	-120,049	-0,110	0,013
-497,853	-200,000	-0,013	-0,110
-496,839	-164,172	0,081	0,003
-495,824	387,430	0,055	0,082
-494,810	776,939	0,057	0,113
-493,795	139,608	-0,069	0,066
-492,781	-200,000	-0,017	0,090
-491,766	-200,000	0,011	0,075
-490,751	122,473	-0,056	0,050
-489,737	-200,000	-0,022	0,126
-488,722	-200,000	-0,015	-0,063
-487,708	48,303	0,077	-0,052
-486,693	800,000	0,018	0,045
-485,678	346,667	0,049	-0,069
-484,664	-200,000	-0,005	-0,080
-483,649	389,446	-0,069	-0,103
-482,635	142,416	0,040	-0,038
-481,620	-2,803	0,031	-0,016
-480,605	-200,000	-0,024	0,108
-479,591	261,387	-0,062	-0,078
-478,576	246,514	-0,019	0,023
-477,562	214,097	0,020	-0,023
-476,547	152,219	-0,126	-0,124
-475,532	-100,416	-0,093	0,016
-474,518	-31,938	0,062	0,025
-473,503	-101,122	-0,034	0,006
-472,489	-200,000	0,024	-0,166
-471,474	67,533	0,055	-0,041
-470,459	-200,000	-0,010	0,056
-469,445	21,833	-0,097	0,057
-468,430	-104,684	-0,046	0,007
-467,416	111,454	0,042	-0,036
-466,401	556,057	0,056	0,098
-465,386	405,139	-0,067	0,102
-464,372	800,000	-0,015	-0,036
-463,357	-163,232	-0,064	0,002
-462,343	123,734	-0,150	-0,136
-461,328	518,498	-0,060	-0,102
-460,313	800,000	0,027	-0,082
-459,299	463,338	0,035	0,057
-458,284	-200,000	0,065	0,235
-457,270	-200,000	0,002	0,076
-456,255	-79,395	-0,033	-0,008
-455,241	-200,000	-0,010	0,074
-454,226	552,372	-0,026	0,045
-453,211	-65,093	0,107	-0,031
-452,197	-200,000	-0,055	0,175
-451,182	30,294	0,085	0,052
-450,168	-200,000	0,032	0,113
-449,153	-186,529	-0,044	0,000
-448,138	-200,000	0,015	-0,074
-447,124	339,597	-0,060	0,084
-446,109	-200,000	-0,017	0,072
-445,095	674,947	-0,027	0,052
-444,080	-78,439	0,101	-0,025
-443,065	238,234	-0,078	-0,094
-442,051	800,000	0,016	-0,048
-441,036	-200,000	-0,001	-0,034
-440,022	66,163	0,072	-0,052
-439,007	35,100	-0,050	0,031
-437,992	170,860	-0,068	-0,070
-436,978	26,796	0,106	0,064
-435,963	-19,393	-0,026	0,011
-434,949	80,476	-0,035	0,027
-433,934	-181,037	0,095	0,001
-432,919	531,883	0,052	-0,088
-431,905	-200,000	-0,016	-0,057
-430,890	800,000	-0,018	0,056
-429,876	-43,434	0,160	0,058
-428,861	800,000	-0,044	-0,091
-427,846	-123,149	0,021	-0,002
-426,832	-129,327	0,110	-0,011
-425,817	-72,425	-0,108	0,029
-424,803	172,097	0,026	-0,027
-423,788	800,000	0,032	-0,088
-422,773	-24,810	-0,038	-0,016
-421,759	-200,000	-0,000	0,038
-420,744	-118,591	0,089	-0,011
-419,730	-97,560	-0,165	0,030
-418,715	-68,353	0,011	-0,003
-417,701	81,594	-0,105	0,082
-416,686	285,150	0,081	-0,105
-415,671	120,625	0,044	0,040
-414,657	800,000	0,041	-0,096
-413,642	-36,316	-0,051	-0,020
-412,628	-200,000	-0,003	-0,033
-411,613	74,218	-0,108	-0,082
-410,598	-120,078	-0,059	-0,007
-409,584	-47,515	0,075	0,026
-408,569	-5,415	0,087	0,043
-407,555	-200,000	-0,042	0,137
-406,540	-138,662	0,078	-0,006
-405,525	-128,193	-0,110	0,011
-404,511	192,274	0,013	-0,014
-403,496	344,655	0,046	-0,065
-402,482	800,000	0,011	-0,023
-401,467	-200,000	-0,017	0,201
-400,452	-200,000	0,017	0,116
-399,438	-200,000	0,012	-0,065
-398,423	442,185	0,069	-0,109
-397,409	-200,000	-0,018	-0,253
-396,394	-147,704	0,060	0,004
-395,379	259,560	-0,050	-0,063
-394,365	-129,281	0,093	-0,009
-393,350	-200,000	-0,025	0,080
-392,336	109,292	-0,054	0,046
-391,321	-131,514	-0,086	0,008
-390,306	-200,000	-0,005	0,057
-389,292	-78,956	-0,047	-0,012
-388,277	124,080	-0,063	-0,057
-387,263	-10,595	0,133	0,063
-386,248	17,226	-0,039	0,022
-385,233	235,510	-0,060	-0,071
-384,219	56,761	0,101	0,071
-383,204	-119,497	-0,172	0,021
-382,190	492,377	0,034	-0,056
-381,175	591,585	-0,008	0,014
-380,160	581,569	0,050	-0,089
-379,146	164,869	-0,069	0,070
-378,131	78,239	0,162	0,124
-377,117	-108,700	0,095	0,014
-376,102	406,400	-0,055	-0,084
-375,088	309,187	-0,063	-0,085
-374,073	224,012	0,062	0,072
-373,058	557,007	0,020	-0,035
-372,044	215,185	0,085	0,096
-371,029	-37,418	-0,094	0,036
-370,015	-200,000	0,007	0,045
-369,000	-200,000	-0,005	0,018
-367,985	800,000	0,025	0,064
-366,971	800,000	0,015	-0,036
-365,956	-116,376	0,133	-0,017
-364,942	-31,094	0,099	0,040
-363,927	69,888	0,117	0,086
-362,912	-19,326	-0,093	0,041
-361,898	-53,707	0,044	0,014
-360,883	71,504	0,091	0,067
-359,869	-197,037	-0,119	-0,001
-358,854	730,789	0,040	0,076
-357,839	122,991	-0,029	0,026
-356,825	-95,842	-0,057	-0,011
-355,810	262,871	0,035	0,044
-354,796	800,000	0,022	0,048
-353,781	301,227	-0,037	-0,049
-352,766	384,818	-0,051	-0,075
-351,752	-23,662	0,070	-0,030
-350,737	-200,000	-0,023	0,080
-349,723	-58,082	0,114	0,035
-348,708	28,911	-0,081	0,049
-347,693	-200,000	-0,002	-0,038
-346,679	-200,000	-0,021	-0,179
-345,664	45,999	0,038	-0,025
-344,650	-200,000	0,013	-0,126
-343,635	800,000	0,019	-0,060
-342,620	-13,033	0,114	-0,053
-341,606	26,757	0,170	0,102
-340,591	-8,352	-0,185	0,089
-339,577	-200,000	-0,002	-0,133
-338,562	392,258	0,054	-0,080
-337,548	140,435	0,084	0,079
-336,533	43,777	0,164	0,108
-335,518	329,420	-0,113	0,156
-334,504	252,926	0,033	0,041
-333,489	157,887	-0,070	-0,070
-332,475	800,000	-0,042	0,112
-331,460	-82,045	-0,047	-0,011
-330,445	800,000	0,042	-0,124
-329,431	391,904	-0,014	-0,021
-328,416	444,661	0,051	-0,080
-327,402	-136,803	0,126	0,010
-326,387	8,548	-0,124	0,067
-325,372	800,000	0,056	-0,144
-324,358	-200,000	-0,012	-0,047
-323,343	197,949	-0,076	0,084
-322,329	-37,107	0,197	0,075
-321,314	232,158	0,069	0,081
-320,299	-89,502	0,079	0,017
-319,285	-30,000	0,041	0,017
-318,270	219,216	0,038	0,044
-317,256	121,235	-0,063	-0,056
-316,241	800,000	-0,040	0,103
-315,226	182,393	-0,085	-0,090
-314,212	-1,154	0,048	-0,024
-313,197	282,111	0,065	0,083
-312,183	800,000	0,029	0,079
-311,168	-200,000	0,002	-0,070
-310,153	161,731	-0,073	0,073
-309,139	375,659	-0,017	0,025
-308,124	-200,000	-0,011	-0,049
-307,110	-200,000	0,005	-0,031
-306,095	-200,000	0,008	0,138
-305,080	380,539	-0,007	0,010
-304,066	645,071	0,007	-0,012
-303,051	218,116	-0,078	-0,089
-302,037	231,397	0,082	-0,097
-301,022	-180,635	0,106	0,002
-300,008	-75,704	-0,053	0,013
-298,993	-200,000	-0,018	0,151
-297,978	793,775	0,021	-0,041
-296,964	-200,000	-0,000	-0,121
-295,949	-200,000	-0,008	-0,056
-294,935	127,098	0,093	0,084
-293,920	627,424	-0,019	0,035
-292,905	800,000	0,050	0,133
-291,891	571,627	0,110	0,193
-290,876	-200,000	-0,015	0,081
-289,862	-200,000	-0,016	0,086
-288,847	-161,719	-0,151	-0,005
-287,832	281,750	-0,043	-0,055
-286,818	473,207	-0,037	-0,060
-285,803	-200,000	0,112	0,000
-284,789	-200,000	0,024	-0,115
-283,774	-54,823	0,104	0,033
-282,759	274,409	-0,020	0,026
-281,745	-200,000	0,019	-0,237
-280,730	-200,000	-0,001	-0,082
-279,716	-41,582	0,066	-0,024
-278,701	-200,000	0,002	0,193
-277,686	-200,000	0,002	0,014
-276,672	-77,063	-0,074	0,018
-275,657	-200,000	-0,058	0,268
-274,643	18,578	-0,028	-0,016
-273,628	-200,000	-0,001	-0,101
-272,613	800,000	-0,059	0,132
-271,599	116,223	0,060	-0,052
-270,584	800,000	-0,018	0,044
-269,570	800,000	0,049	0,151
-268,555	4,358	0,115	-0,060
-267,540	211,912	-0,037	-0,042
-266,526	-200,000	-0,004	0,047
-265,511	800,000	0,065	-0,194
-264,497	1,814	-0,080	0,041
-263,482	800,000	-0,009	-0,026
-262,467	273,608	0,073	0,092
-261,453	88,595	0,021	0,017
-260,438	800,000	-0,033	0,079
-259,424	409,539	0,018	-0,028
-258,409	-136,441	-0,061	-0,005
-257,395	494,349	0,032	0,052
-256,380	-119,675	0,063	0,008
-255,365	-200,000	0,036	0,117
-254,351	-40,771	-0,043	0,016
-253,336	89,228	0,101	-0,080
-252,322	-200,000	-0,019	-0,114
-251,307	-200,000	0,003	-0,072
-250,292	309,269	0,085	-0,114
-249,278	15,537	0,043	-0,024
-248,263	-200,000	-0,004	0,030
-247,249	-3,873	0,108	0,053
-246,234	-200,000	0,006	0,060
-245,219	126,584	-0,066	-0,060
-244,205	-200,000	-0,023	-0,246
-243,190	800,000	0,010	-0,023
-242,176	-101,163	0,102	-0,018
-241,161	-200,000	0,007	-0,118
-240,146	-174,952	0,039	0,001
-239,132	-99,364	-0,199	-0,035
-238,117	134,711	-0,152	-0,141
-237,103	-78,883	0,130	-0,031
-236,088	800,000	0,072	-0,171
-235,073	-167,850	0,128	-0,004
-234,059	318,766	-0,068	0,093
-233,044	-59,238	0,048	0,015
-232,030	549,271	0,063	0,108
-231,015	597,677	0,043	0,076
-230,000	103,329	-0,025	-0,021
-228,986	-200,000	-0,016	0,053
-227,971	262,502	0,032	0,040
-226,957	280,041	0,007	0,008
-225,942	97,483	0,068	0,056
-224,927	800,000	-0,034	-0,084
-223,913	-172,805	-0,075	0,002
-222,898	112,508	-0,077	-0,066
-221,884	-200,000	-0,016	-0,120
-220,869	-200,000	0,017	0,106
-219,855	-200,000	0,003	-0,017
-218,840	-200,000	0,007	0,039
-217,825	55,234	0,038	-0,026
-216,811	-200,000	-0,037	-0,123
-215,796	5,873	-0,142	-0,075
-214,782	800,000	-0,032	-0,099
-213,767	800,000	0,023	0,045
-212,752	191,018	0,065	-0,069
-211,738	-67,495	-0,063	0,017
-210,723	-101,010	0,080	0,014
-209,709	-164,620	-0,157	-0,005
-208,694	-200,000	0,028	-0,126
-207,679	-25,963	-0,154	-0,064
-206,665	800,000	0,016	-0,033
-205,650	-107,895	0,080	0,012
-204,636	-137,244	0,120	-0,010
-203,621	-200,000	-0,018	0,089
-202,606	-71,212	-0,129	-0,034
-201,592	223,959	-0,020	-0,023
-200,577	-200,000	-0,027	-0,092
-199,563	-25,405	0,010	0,004
-198,548	101,943	-0,024	-0,020
-197,533	353,704	0,058	-0,082
-196,519	30,665	-0,145	0,088
-195,504	-4,792	-0,044	-0,021
-194,490	-88,960	-0,078	-0,016
-193,475	241,820	0,042	0,050
-192,460	-200,000	-0,014	-0,138
-191,446	79,145	-0,067	-0,051
-190,431	586,156	-0,065	0,114
-189,417	36,684	0,128	0,081
-188,402	14,084	0,110	0,061
-187,387	393,619	-0,056	-0,083
-186,373	-81,637	-0,038	-0,009
-185,358	66,930	-0,042	-0,031
-184,344	-199,386	0,167	-0,001
-183,329	288,412	0,047	0,060
-182,315	319,879	0,051	0,069
-181,300	-74,165	-0,079	0,020
-180,285	515,088	0,079	-0,131
-179,271	-126,712	0,061	-0,006
-178,256	-200,000	0,037	-0,145
-177,242	-200,000	-0,001	0,141
-176,227	143,321	-0,190	0,180
-175,212	281,387	-0,063	0,081
-174,198	-17,369	0,108	0,048
-173,183	338,413	0,057	0,079
-172,169	368,515	0,071	-0,102
-171,154	582,297	-0,047	-0,083
-170,139	-100,375	0,065	-0,011
-169,125	280,963	0,047	0,060
-168,110	800,000	0,049	0,102
-167,096	-64,349	-0,070	-0,020
-166,081	-200,000	-0,017	0,149
-165,066	-64,581	-0,052	-0,015
-164,052	-200,000	-0,002	-0,009
-163,037	-117,330	-0,131	0,017
-162,023	-24,080	0,155	0,066
-161,008	158,488	-0,031	-0,030
-159,993	-113,062	-0,114	0,016
-158,979	-98,193	-0,200	-0,036
-157,964	-106,461	-0,067	0,011
-156,950	-200,000	0,015	-0,102
-155,935	144,434	-0,083	0,079
-154,920	725,161	-0,039	0,075
-153,906	106,813	-0,070	0,059
-152,891	-200,000	0,009	-0,166
-151,877	227,281	-0,048	0,056
-150,862	57,465	0,029	0,020
-149,847	221,911	-0,085	-0,098
-148,833	-26,645	0,095	-0,039
-147,818	-200,000	0,007	-0,125
-146,804	800,000	0,030	0,090
-145,789	800,000	0,024	0,057
-144,775	443,271	0,058	-0,090
-143,760	-17,343	0,021	-0,009
-142,745	240,206	0,044	0,052
-141,731	-200,000	0,006	0,062
-140,716	800,000	-0,084	-0,167
-139,702	18,078	-0,062	-0,035
-138,687	-69,255	0,053	0,014
-137,672	531,373	-0,054	0,090
-136,658	-200,000	-0,014	0,094
-135,643	800,000	0,053	0,107
-134,629	-1,191	-0,052	-0,026
-133,614	-1,409	0,096	-0,048
-132,599	381,956	0,043	-0,063
-131,585	-200,000	-0,026	0,112
-130,570	180,068	0,031	0,032
-129,556	-200,000	-0,001	-0,055
-128,541	70,171	0,074	-0,054
-127,526	541,955	0,068	0,116
-126,512	408,536	0,036	-0,055
-125,497	175,722	0,072	0,074
-124,483	-85,472	-0,057	-0,013
-123,468	800,000	-0,063	-0,147
-122,453	-27,677	0,007	-0,003
-121,439	3,461	-0,156	-0,081
-120,424	800,000	-0,008	-0,020
-119,410	-36,751	0,022	-0,008
-118,395	-85,441	-0,049	-0,011
-117,380	-170,592	-0,065	-0,002
-116,366	-200,000	-0,007	0,079
-115,351	-119,069	0,110	-0,014
-114,337	-65,787	-0,135	-0,038
-113,322	-21,144	0,049	0,021
-112,307	99,953	0,041	0,034
-111,293	800,000	-0,019	0,041
-110,278	-200,000	-0,025	0,155
-109,264	-200,000	0,015	-0,142
-108,249	23,626	-0,022	-0,013
-107,234	149,928	-0,009	0,009
-106,220	533,932	-0,030	-0,051
-105,205	60,002	0,042	-0,030
-104,191	-200,000	0,024	0,081
-103,176	6,981	0,113	0,059
-102,162	264,527	0,054	-0,067
-101,147	70,553	0,079	0,058
-100,132	510,330	-0,031	0,051
-99,118	126,132	0,076	0,068
-98,103	-195,949	0,046	0,000
-97,089	-200,000	-0,017	0,088
-96,074	206,885	0,087	0,096
-95,059	180,302	-0,036	-0,037
-94,045	800,000	-0,024	-0,068
-93,030	-200,000	0,024	-0,154
-92,016	-200,000	-0,047	-0,148
-91,001	-64,828	-0,048	0,014
-89,986	-200,000	0,038	-0,127
-88,972	-48,305	0,070	-0,024
-87,957	-200,000	-0,019	-0,060
-86,943	-200,000	-0,016	0,096
-85,928	275,984	-0,025	0,031
-84,913	-200,000	-0,007	0,121
-83,899	-200,000	0,002	-0,018
-82,884	115,467	0,189	-0,164
-81,870	24,512	0,026	-0,015
-80,855	-85,352	-0,037	0,008
-79,840	-84,184	0,054	-0,012
-78,826	-200,000	0,019	-0,060
-77,811	-16,409	-0,129	0,058
-76,797	800,000	0,010	-0,029
-75,782	-200,000	0,013	0,126
-74,767	26,828	0,043	0,025
-73,753	388,645	0,028	0,041
-72,738	-109,674	-0,051	0,008
-71,724	155,583	-0,035	-0,034
-70,709	210,663	-0,086	-0,096
-69,694	144,363	-0,047	0,045
-68,680	311,423	0,089	-0,119
-67,665	-200,000	0,000	-0,067
-66,651	236,093	0,042	0,049
-65,636	-200,000	-0,001	0,108
-64,622	-200,000	-0,000	-0,020
-63,607	239,998	0,029	-0,034
-62,592	66,595	-0,018	0,013
-61,578	456,905	0,126	0,200
-60,563	-200,000	0,006	0,032
-59,549	-65,728	0,070	-0,020
-58,534	-23,176	-1,505	-0,639
-57,519	400,066	-1,446	-2,156
-56,505	-200,000	-0,456	-4,561
-55,490	231,882	0,959	1,116
-54,476	800,000	4,735	11,026
-53,461	-200,000	18,599	296,767
-52,446	800,000	731,613	2257,813
-51,432	559,527	1647,895	2830,387
-50,417	78,824	1667,543	1262,971
-49,403	22,424	1540,636	890,160
-48,388	16,381	1463,909	816,499
-47,373	17,799	1453,882	817,718
-46,359	17,058	1444,114	808,641
-45,344	14,680	1439,183	794,475
-44,330	14,541	1437,726	792,973
-43,315	14,533	1435,981	791,944
-42,300	14,576	1434,175	791,121
-41,286	14,616	1432,961	790,612
-40,271	14,594	1431,744	789,802
-39,257	14,537	1430,734	788,942
-38,242	14,658	1429,021	788,542
-37,227	14,667	1427,972	787,975
-36,213	14,612	1426,820	787,046
-35,198	14,596	1425,512	786,220
-34,184	14,638	1424,485	785,819
-33,169	14,588	1423,224	784,858
-32,154	14,674	1422,063	784,593
-31,140	14,613	1420,937	783,652
-30,125	14,664	1419,530	783,083
-29,111	14,669	1418,467	782,490
-28,096	14,599	1417,415	781,551
-27,082	14,506	1416,693	780,684
-26,067	14,545	1415,394	780,120
-25,052	14,572	1414,387	779,660
-24,038	14,553	1413,312	778,946
-23,023	14,541	1412,365	778,338
-22,009	14,533	1411,263	777,662
-20,994	14,487	1410,687	777,099
-19,979	14,488	1409,489	776,413
-18,965	14,434	1408,608	775,644
-17,950	14,476	1407,717	775,317
-16,936	14,493	1406,649	774,777
-15,921	14,425	1405,515	773,806
-14,906	14,456	1404,850	773,553
-13,892	14,473	1403,700	772,971
-12,877	14,450	1402,892	772,388
-11,863	14,483	1401,913	771,970
-10,848	14,462	1401,048	771,364
-9,833	14,429	1400,187	770,706
-8,819	14,351	1399,413	769,887
-7,804	14,358	1398,505	769,391
-6,790	14,400	1397,182	768,827
-5,775	14,353	1396,433	768,166
-4,760	14,373	1395,301	767,608
-3,746	14,394	1394,613	767,293
-2,731	14,352	1393,756	766,596
-1,717	14,335	1393,011	766,080
-0,702	14,373	1391,008	765,123
0,313	18,119	1309,373	737,595
1,327	34,442	705,895	435,467
2,342	52,993	124,256	84,058
3,356	2,393	16,632	8,494
4,371	11,869	3,135	1,700
5,386	-9,974	0,592	0,278
6,400	800,000	0,146	0,319
7,415	-63,407	-0,305	-0,088
8,429	201,330	-0,242	-0,264
9,444	101,725	-0,331	-0,273
10,459	71,782	-0,290	-0,213
11,473	124,438	-0,343	-0,305
12,488	73,696	-0,195	-0,145
13,502	-47,693	-0,242	-0,082
14,517	57,932	-0,340	-0,235
15,531	-63,536	-0,403	-0,116
16,546	-123,764	-0,380	-0,042
17,561	125,271	-0,390	-0,348
18,575	624,685	-0,129	-0,231
19,590	800,000	-0,132	-0,303
20,604	388,625	-0,160	-0,235
21,619	85,779	-0,436	-0,339
22,634	269,118	-0,346	-0,430
23,648	96,964	-0,346	-0,281
24,663	139,692	-0,325	-0,303
25,677	85,014	-0,348	-0,270
26,692	70,882	-0,285	-0,208
27,707	17,560	-0,310	-0,174
28,721	17,614	-0,467	-0,261
29,736	112,433	-0,423	-0,361
30,750	144,070	-0,428	-0,403
31,765	87,027	-0,513	-0,400
32,780	73,677	-0,458	-0,338
33,794	55,635	-0,368	-0,252
34,809	207,593	-0,329	-0,363
35,823	232,006	-0,393	-0,456
36,838	220,611	-0,368	-0,418
37,853	68,454	-0,477	-0,345
38,867	171,459	-0,321	-0,325
39,882	189,871	-0,213	-0,225
40,896	201,270	-0,242	-0,263
41,911	141,184	-0,285	-0,266
42,926	299,823	-0,244	-0,319
43,940	54,495	-0,352	-0,239
44,955	182,721	-0,365	-0,381
45,969	51,881	-0,453	-0,304
46,984	128,401	-0,331	-0,298
47,999	42,514	-0,232	-0,149
49,013	99,444	-0,308	-0,251
50,028	-40,240	-0,330	-0,120
51,042	21,086	-0,277	-0,158
52,057	469,800	-0,265	-0,421
53,071	54,771	-0,336	-0,228
54,086	142,626	-0,262	-0,246
55,101	215,276	-0,248	-0,277
56,115	103,977	-0,386	-0,319
57,130	80,492	-0,390	-0,295
58,144	81,787	-0,405	-0,308
59,159	141,995	-0,302	-0,283
60,174	105,330	-0,403	-0,335
61,188	195,647	-0,212	-0,227
62,203	21,502	-0,225	-0,128
63,217	-13,445	-0,332	-0,151
64,232	2,483	-0,353	-0,180
65,247	-140,794	-0,408	0,029
66,261	52,789	-0,333	-0,224
67,276	142,842	-0,229	-0,214
68,290	21,856	-0,389	-0,223
69,305	-53,267	-0,340	-0,109
70,320	43,317	-0,248	-0,159
71,334	361,336	-0,278	-0,393
72,349	-48,172	-0,378	-0,128
73,363	68,045	-0,470	-0,338
74,378	-27,219	-0,480	-0,196
75,393	-46,276	-0,376	-0,130
76,407	-73,364	-0,332	-0,085
77,422	18,831	-0,286	-0,161
78,436	167,121	-0,253	-0,253
79,451	297,741	-0,211	-0,273
80,466	152,673	-0,219	-0,210
81,480	40,955	-0,368	-0,233
82,495	132,074	-0,259	-0,235
83,509	-34,663	-0,288	-0,110
84,524	28,716	-0,222	-0,132
85,539	3,654	-0,316	-0,161
86,553	-18,317	-0,366	-0,160
87,568	204,971	-0,257	-0,280
88,582	272,569	-0,193	-0,240
89,597	-20,929	-0,289	-0,124
90,611	48,935	-0,274	-0,180
91,626	-14,554	-0,211	-0,095
92,641	-5,611	-0,315	-0,151
93,655	51,967	-0,277	-0,185
94,670	190,316	-0,258	-0,273
95,684	84,221	-0,407	-0,312
96,699	1,429	-0,366	-0,184
97,714	-172,397	-0,126	0,003
98,728	-35,630	-0,193	-0,073
99,743	324,639	-0,166	-0,223
100,757	164,560	-0,344	-0,340
101,772	115,322	-0,305	-0,262
102,787	68,450	-0,377	-0,271
103,801	237,493	-0,261	-0,305
104,816	117,056	-0,204	-0,176
105,830	-51,044	-0,353	-0,116
106,845	18,523	-0,213	-0,119
107,860	8,057	-0,351	-0,184
108,874	115,336	-0,210	-0,180
109,889	65,719	-0,249	-0,177
110,903	150,439	-0,261	-0,249
111,918	211,472	-0,156	-0,173
112,933	143,441	-0,263	-0,246
113,947	-16,435	-0,280	-0,124
114,962	154,778	-0,129	-0,124
115,976	46,272	-0,374	-0,243
116,991	800,000	-0,120	-0,275
118,006	56,171	-0,350	-0,238
119,020	49,534	-0,214	-0,141
120,035	262,625	-0,207	-0,253
121,049	-46,136	-0,326	-0,112
122,064	81,316	-0,301	-0,227
123,079	-24,130	-0,289	-0,121
124,093	176,202	-0,320	-0,326
125,108	-31,797	-0,317	-0,124
126,122	16,658	-0,205	-0,113
127,137	800,000	-0,054	-0,143
128,151	21,084	-0,374	-0,212
129,166	-1,271	-0,259	-0,128
130,181	-49,859	-0,323	-0,107
131,195	70,679	-0,248	-0,180
132,210	208,694	-0,254	-0,279
133,224	107,163	-0,228	-0,189
134,239	69,616	-0,317	-0,228
135,254	441,721	-0,156	-0,239
136,268	138,687	-0,179	-0,164
137,283	167,764	-0,259	-0,258
138,297	48,745	-0,315	-0,206
139,312	116,255	-0,272	-0,233
140,327	-193,085	-0,296	-0,002
141,341	195,343	-0,212	-0,225
142,356	-17,647	-0,408	-0,179
143,370	32,073	-0,183	-0,110
144,385	316,296	-0,203	-0,269
145,400	7,842	-0,161	-0,084
146,414	219,093	-0,302	-0,338
147,429	121,340	-0,299	-0,260
148,443	117,006	-0,321	-0,276
149,458	187,125	-0,215	-0,225
150,473	14,321	-0,264	-0,143
151,487	-34,061	-0,188	-0,072
152,502	183,301	-0,236	-0,244
153,516	94,939	-0,267	-0,212
154,531	38,570	-0,265	-0,165
155,546	-63,134	-0,335	-0,096
156,560	459,762	-0,140	-0,219
157,575	-93,499	-0,187	0,036
158,589	-128,591	-0,245	0,024
159,604	-41,639	-0,339	-0,121
160,619	27,814	-0,258	-0,151
161,633	-8,515	-0,305	-0,143
162,648	-63,999	-0,283	-0,080
163,662	-89,122	-0,185	-0,038
164,677	-95,258	-0,150	-0,028
165,692	8,206	-0,335	-0,175
166,706	-163,571	-0,215	0,007
167,721	79,502	-0,200	-0,150
168,735	48,100	-0,184	-0,120
169,750	800,000	-0,087	-0,269
170,764	91,327	-0,248	-0,194
171,779	21,830	-0,163	-0,092
172,794	120,704	-0,199	-0,173
173,808	718,798	-0,065	-0,120
174,823	124,095	-0,251	-0,220
175,837	46,421	-0,252	-0,163
176,852	92,642	-0,223	-0,176
177,867	79,172	-0,206	-0,154
178,881	247,411	-0,173	-0,204
179,896	84,260	-0,206	-0,157
180,910	-139,002	-0,289	-0,022
181,925	173,551	-0,243	-0,244
182,940	-48,686	-0,291	-0,097
183,954	46,690	-0,291	-0,188
184,969	153,112	-0,291	-0,278
185,983	40,294	-0,238	-0,149
186,998	17,461	-0,328	-0,181
188,013	-134,627	-0,199	-0,017
189,027	86,035	-0,351	-0,269
190,042	-67,041	-0,267	-0,073
191,056	-59,313	-0,237	-0,070
192,071	201,556	-0,196	-0,210
193,086	800,000	-0,098	-0,214
194,100	-135,949	-0,230	-0,019
195,115	316,568	-0,142	-0,187
196,129	235,848	-0,204	-0,235
197,144	282,979	-0,220	-0,275
198,159	105,381	-0,282	-0,232
199,173	178,939	-0,134	-0,136
200,188	64,691	-0,150	-0,105
201,202	269,997	-0,123	-0,150
202,217	216,864	-0,216	-0,240
203,232	36,046	-0,238	-0,145
204,246	104,091	-0,246	-0,201
205,261	572,459	-0,153	-0,261
206,275	800,000	-0,089	-0,191
207,290	234,888	-0,177	-0,203
208,304	134,479	-0,135	-0,122
209,319	-82,398	-0,267	-0,060
210,334	238,320	-0,108	-0,125
211,348	10,306	-0,316	-0,167
212,363	-49,696	-0,152	-0,050
213,377	317,282	-0,116	-0,153
214,392	-68,899	-0,179	-0,048
215,407	93,773	-0,179	-0,141
216,421	46,892	-0,166	-0,107
217,436	479,841	-0,145	-0,229
218,450	800,000	0,030	-0,061
219,465	-69,747	-0,261	-0,069
220,480	81,898	-0,229	-0,172
221,494	800,000	-0,024	-0,061
222,509	-49,567	-0,184	0,061
223,523	113,612	-0,227	-0,192
224,538	123,271	-0,214	-0,186
225,553	800,000	-0,112	-0,262
226,567	-11,835	-0,193	-0,087
227,582	-6,581	-0,114	-0,054
228,596	186,762	-0,153	-0,159
229,611	-46,539	-0,216	-0,073
230,626	-200,000	0,034	-0,106
231,640	-35,983	-0,149	-0,056
232,655	208,595	-0,155	-0,168
233,669	365,342	-0,159	-0,223
234,684	377,858	-0,187	-0,266
235,699	114,188	-0,227	-0,192
236,713	57,122	-0,176	-0,119
237,728	284,637	-0,118	-0,148
238,742	-140,646	-0,156	-0,011
239,757	226,466	-0,216	-0,244
240,772	-200,000	-0,007	-0,245
241,786	760,688	-0,066	-0,125
242,801	-200,000	-0,079	-0,306
243,815	-23,678	-0,207	-0,086
244,830	-1,685	-0,201	-0,098
245,844	275,979	-0,046	-0,057
246,859	99,043	-0,135	-0,108
247,874	153,031	-0,164	-0,155
248,888	143,821	-0,210	-0,194
249,903	-3,447	-0,240	-0,115
250,917	800,000	-0,065	-0,156
251,932	138,093	-0,201	-0,182
252,947	315,908	-0,149	-0,196
253,961	116,533	-0,168	-0,142
254,976	56,239	-0,280	-0,188
255,990	145,463	-0,148	-0,137
257,005	190,892	-0,140	-0,146
258,020	800,000	-0,054	-0,138
259,034	9,487	-0,154	-0,081
260,049	302,121	-0,202	-0,259
261,063	-15,446	-0,197	-0,087
262,078	-6,891	-0,186	-0,087
263,093	364,270	-0,182	-0,254
264,107	19,694	-0,259	-0,144
265,122	74,867	-0,208	-0,151
266,136	298,692	-0,136	-0,174
267,151	-14,126	-0,299	-0,133
268,166	-99,468	-0,200	-0,034
269,180	243,938	-0,143	-0,167
270,195	40,208	-0,211	-0,131
271,209	348,263	-0,090	-0,123
272,224	800,000	-0,104	-0,210
273,239	78,384	-0,133	-0,098
274,253	602,617	-0,093	-0,160
275,268	-104,518	-0,165	-0,026
276,282	-32,195	-0,210	-0,081
277,297	156,231	-0,194	-0,185
278,312	-1,449	-0,189	-0,092
279,326	564,878	-0,113	-0,190
280,341	274,208	-0,132	-0,162
281,355	603,563	-0,062	-0,107
282,370	8,959	-0,181	-0,094
283,384	84,565	-0,206	-0,155
284,399	84,093	-0,162	-0,122
285,414	-131,376	-0,190	-0,017
286,428	800,000	-0,087	-0,216
287,443	196,049	-0,157	-0,165
288,457	36,716	-0,217	-0,132
289,472	39,591	-0,116	-0,072
290,487	514,862	-0,115	-0,187
291,501	709,860	-0,134	-0,246
292,516	230,459	-0,160	-0,180
293,530	388,261	-0,091	-0,131
294,545	-31,249	-0,105	-0,040
295,560	54,983	-0,100	-0,067
296,574	511,318	-0,091	0,147
297,589	-124,359	-0,211	0,022
298,603	116,624	-0,246	-0,208
299,618	-200,000	-0,068	-0,256
300,633	541,405	-0,114	-0,189
301,647	196,520	-0,186	-0,196
302,662	182,208	-0,124	-0,126
303,676	-132,322	-0,216	-0,019
304,691	102,740	-0,167	-0,135
305,706	683,240	-0,058	-0,104
306,720	572,570	-0,112	-0,188
307,735	657,840	-0,121	-0,215
308,749	80,340	-0,100	-0,074
309,764	246,726	-0,071	-0,082
310,779	463,544	-0,077	-0,118
311,793	75,302	-0,185	-0,135
312,808	417,813	-0,133	-0,197
313,822	44,952	-0,218	-0,138
314,837	-25,102	-0,170	-0,069
315,852	-45,818	-0,044	-0,015
316,866	-23,919	-0,151	-0,062
317,881	16,454	-0,151	-0,082
318,895	-147,521	-0,182	-0,010
319,910	66,954	-0,177	-0,124
320,925	49,406	-0,121	-0,079
321,939	723,808	-0,114	-0,210
322,954	64,151	-0,075	-0,052
323,968	541,761	-0,071	-0,117
324,983	800,000	-0,061	-0,186
325,997	487,451	-0,175	-0,276
327,012	-108,042	-0,217	-0,032
328,027	-30,596	-0,161	-0,062
329,041	34,567	-0,161	-0,096
330,056	551,375	-0,086	-0,143
331,070	37,374	-0,128	-0,078
332,085	10,099	-0,164	-0,086
333,100	-81,616	-0,261	0,058
334,114	-6,447	-0,155	-0,072
335,129	800,000	-0,070	-0,170
336,143	-6,354	-0,159	-0,074
337,158	-139,283	-0,198	-0,014
338,173	26,195	-0,079	0,045
339,187	17,405	-0,062	-0,034
340,202	-23,339	-0,170	-0,070
341,216	800,000	-0,013	-0,036
342,231	187,882	-0,138	-0,142
343,246	32,592	-0,128	-0,076
344,260	131,104	-0,185	-0,163
345,275	101,950	-0,258	-0,207
346,289	-177,098	-0,128	-0,002
347,304	299,728	-0,118	-0,150
348,319	-200,000	-0,011	-0,155
349,333	-24,984	-0,231	-0,094
350,348	253,887	-0,093	-0,109
351,362	90,277	-0,114	-0,088
352,377	798,817	-0,049	-0,093
353,392	76,805	-0,121	-0,088
354,406	139,444	-0,082	-0,074
355,421	209,031	1315,186	1415,393
356,435	160,863	1475,980	1415,896
