DTS Sentinel unit serial number:	SN410029Multiplexer serial number:	ORYXHardware model number:	OX2-SRSoftware version number:	ORYX F/W v4,00 Oryx Data Collector v3.7.2.0data status	okinstallation	B3 Nyhavnadifferential loss correction	single-endedforward channel	channel 1reverse channel	N/Adate	2023/12/01time	22:27:30forward acquisition time	300,00reverse acquisition time	0,00gamma	499,1914k internal	0,3196k external	0,3196temperature offset calibration	1,0000default loss term (dB/km)	0,3820temperature slope calibration	1,0000multiplexer offset coefficient	1,0000multiplexer slope coefficient	1,0000fibre end	0,00T internal ref (°C)	15,87T ext. ref 1 (°C)	0,84T ext. ref 2 (°C)	0,81length (m)	temperature (°C)	Stokes	anti-Stokes-744,400	291,678	-0,133	-0,177
-743,385	-200,000	-0,030	0,224
-742,371	53,855	-0,248	-0,174
-741,356	-200,000	-0,060	0,299
-740,342	487,671	-0,071	-0,118
-739,327	-200,000	-0,016	0,357
-738,312	138,968	-0,234	-0,224
-737,298	85,537	-0,080	0,064
-736,283	149,321	-0,277	-0,273
-735,269	-200,000	0,071	0,327
-734,254	646,077	-0,155	-0,289
-733,239	-10,373	-0,178	0,086
-732,225	800,000	-0,098	-0,205
-731,210	-200,000	0,051	0,293
-730,196	800,000	-0,048	0,125
-729,181	-107,665	-0,026	0,004
-728,167	-200,000	-0,000	0,070
-727,152	-32,394	-0,120	0,048
-726,137	-135,170	-0,190	0,016
-725,123	144,728	0,058	-0,056
-724,108	-29,802	-0,163	-0,067
-723,094	292,125	-0,037	0,049
-722,079	-9,583	0,045	-0,022
-721,064	1,372	-0,080	-0,042
-720,050	-200,000	-0,052	-0,182
-719,035	-101,083	0,158	-0,028
-718,021	330,859	-0,061	-0,086
-717,006	508,583	-0,068	-0,116
-715,991	635,478	-0,089	-0,166
-714,977	301,270	-0,092	0,124
-713,962	402,601	-0,059	-0,091
-712,948	-42,827	0,064	0,024
-711,933	687,230	0,052	-0,099
-710,918	-32,344	-0,061	-0,025
-709,904	-200,000	0,006	0,036
-708,889	800,000	-0,055	-0,141
-707,875	-161,003	-0,082	-0,003
-706,860	359,161	0,022	-0,032
-705,845	800,000	0,050	0,109
-704,831	-81,212	-0,077	0,018
-703,816	223,007	-0,098	0,115
-702,802	-11,949	-0,097	0,046
-701,787	-200,000	0,030	-0,119
-700,772	267,799	-0,057	0,073
-699,758	-200,000	0,004	0,040
-698,743	732,237	-0,031	-0,060
-697,729	122,354	-0,016	0,015
-696,714	241,276	0,047	-0,057
-695,699	-125,359	-0,066	-0,007
-694,685	286,968	0,039	0,051
-693,670	-200,000	0,013	-0,179
-692,656	-103,304	-0,060	0,010
-691,641	-200,000	-0,032	0,189
-690,627	-154,189	0,125	0,006
-689,612	222,875	0,016	0,019
-688,597	800,000	-0,026	-0,062
-687,583	68,737	-0,086	-0,064
-686,568	90,309	0,026	-0,021
-685,554	309,504	-0,096	-0,130
-684,539	-87,612	0,044	-0,010
-683,524	-62,184	-0,040	0,012
-682,510	800,000	0,051	0,145
-681,495	-200,000	0,023	-0,205
-680,481	-181,123	-0,108	-0,002
-679,466	-124,353	-0,179	-0,020
-678,451	-200,000	-0,065	-0,232
-677,437	178,261	0,057	-0,061
-676,422	-41,789	0,168	-0,062
-675,408	-158,557	-0,151	-0,006
-674,393	800,000	-0,060	0,123
-673,378	198,807	-0,052	-0,058
-672,364	-5,115	-0,120	-0,060
-671,349	201,965	-0,051	0,057
-670,335	463,724	-0,010	-0,016
-669,320	-31,709	0,049	-0,020
-668,305	-88,616	0,123	0,026
-667,291	-45,006	-0,120	0,043
-666,276	-27,921	-0,094	-0,039
-665,262	-171,674	-0,034	-0,001
-664,247	74,528	0,032	-0,024
-663,232	-200,000	-0,002	0,037
-662,218	-200,000	-0,023	-0,116
-661,203	535,232	0,010	-0,018
-660,189	-200,000	-0,004	-0,030
-659,174	-43,404	-0,163	-0,059
-658,159	95,255	0,114	-0,094
-657,145	409,787	-0,095	-0,146
-656,130	534,591	0,061	0,105
-655,116	-37,480	0,098	0,038
-654,101	800,000	0,031	0,077
-653,086	74,969	-0,117	0,090
-652,072	-40,500	0,035	-0,013
-651,057	-200,000	-0,020	0,123
-650,043	173,058	-0,047	0,049
-649,028	-200,000	-0,010	-0,071
-648,014	-200,000	0,016	0,160
-646,999	493,479	0,057	0,095
-645,984	-87,996	0,080	-0,017
-644,970	-82,331	-0,024	0,006
-643,955	639,112	0,016	-0,030
-642,941	800,000	-0,097	-0,201
-641,926	800,000	-0,033	-0,070
-640,911	-200,000	-0,003	0,034
-639,897	772,169	0,023	-0,045
-638,882	75,396	-0,112	-0,086
-637,868	-2,418	0,107	0,054
-636,853	27,878	-0,119	0,072
-635,838	-57,593	-0,115	-0,036
-634,824	800,000	0,014	-0,034
-633,809	35,153	0,064	0,040
-632,795	224,715	-0,086	0,101
-631,780	-200,000	-0,008	-0,064
-630,765	783,310	0,055	-0,111
-629,751	800,000	-0,037	0,106
-628,736	-25,330	-0,181	0,077
-627,722	2,497	-0,087	-0,045
-626,707	735,188	0,017	0,034
-625,692	-200,000	0,003	-0,035
-624,678	-200,000	-0,009	0,126
-623,663	-154,661	-0,060	-0,003
-622,649	293,866	-0,024	-0,032
-621,634	-13,293	-0,106	-0,050
-620,619	800,000	-0,014	-0,035
-619,605	-200,000	0,017	0,093
-618,590	-53,954	0,017	-0,006
-617,576	-145,681	0,095	0,006
-616,561	-200,000	0,015	-0,070
-615,546	672,213	0,053	-0,101
-614,532	62,320	-0,067	-0,049
-613,517	181,508	-0,012	-0,013
-612,503	800,000	-0,047	-0,130
-611,488	269,952	-0,065	-0,083
-610,474	20,265	-0,068	0,039
-609,459	-200,000	-0,053	0,221
-608,444	-200,000	-0,007	0,076
-607,430	-200,000	0,017	-0,082
-606,415	16,946	0,073	0,042
-605,401	800,000	0,038	-0,094
-604,386	-19,011	-0,067	-0,030
-603,371	234,530	0,025	-0,029
-602,357	-82,816	-0,073	0,017
-601,342	90,201	-0,068	0,055
-600,328	-200,000	0,000	0,032
-599,313	234,747	-0,025	-0,030
-598,298	-98,576	0,181	-0,033
-597,284	-135,112	0,075	0,006
-596,269	-160,487	-0,041	0,002
-595,255	-190,525	0,055	0,000
-594,240	227,539	-0,061	0,072
-593,225	-200,000	0,021	-0,198
-592,211	67,972	-0,060	-0,045
-591,196	-91,132	0,040	0,008
-590,182	-12,250	0,060	0,028
-589,167	-200,000	-0,006	-0,050
-588,152	250,456	-0,063	-0,078
-587,138	-51,092	-0,084	-0,028
-586,123	-200,000	-0,047	-0,172
-585,109	800,000	-0,011	-0,036
-584,094	150,076	0,045	-0,044
-583,079	-111,924	0,080	0,012
-582,065	-65,059	0,060	-0,017
-581,050	-200,000	-0,006	-0,081
-580,036	-32,561	-0,073	0,029
-579,021	-200,000	-0,002	-0,064
-578,006	640,443	0,021	0,040
-576,992	44,854	0,092	-0,061
-575,977	-54,623	-0,118	-0,038
-574,963	425,505	-0,073	-0,113
-573,948	472,832	0,036	0,059
-572,934	4,202	0,022	0,011
-571,919	800,000	0,018	-0,045
-570,904	-200,000	-0,005	-0,017
-569,890	-141,078	-0,072	0,005
-568,875	-200,000	-0,002	0,074
-567,861	-117,646	0,165	-0,021
-566,846	177,700	-0,008	0,009
-565,831	166,492	-0,054	-0,056
-564,817	-200,000	-0,004	-0,057
-563,802	-110,860	-0,136	0,020
-562,788	63,271	-0,019	-0,014
-561,773	57,069	-0,104	-0,073
-560,758	-105,871	0,088	0,014
-559,744	-200,000	-0,026	0,214
-558,729	26,967	0,166	0,100
-557,715	24,148	0,059	-0,035
-556,700	-200,000	0,033	-0,166
-555,685	-64,203	0,036	-0,011
-554,671	800,000	-0,051	0,159
-553,656	215,713	0,024	0,027
-552,642	539,565	-0,092	0,158
-551,627	523,720	0,038	0,064
-550,612	-171,105	-0,081	0,002
-549,598	198,654	0,104	-0,115
-548,583	-77,795	-0,115	-0,029
-547,569	-30,171	0,174	-0,071
-546,554	136,572	0,093	0,088
-545,539	127,744	0,090	0,083
-544,525	800,000	-0,018	0,040
-543,510	800,000	0,049	-0,124
-542,496	218,454	-0,050	-0,058
-541,481	-200,000	-0,044	-0,162
-540,466	239,769	-0,040	-0,048
-539,452	630,055	0,058	0,107
-538,437	-200,000	0,029	-0,107
-537,423	-78,775	-0,115	0,028
-536,408	800,000	-0,010	0,030
-535,393	241,132	0,046	0,055
-534,379	-4,058	-0,181	-0,090
-533,364	790,811	-0,024	0,048
-532,350	-69,445	0,104	-0,029
-531,335	219,973	0,045	-0,053
-530,321	800,000	-0,044	0,135
-529,306	203,262	-0,037	-0,041
-528,291	597,514	-0,073	-0,130
-527,277	-200,000	-0,022	-0,155
-526,262	-200,000	-0,022	-0,161
-525,248	103,809	-0,112	-0,095
-524,233	371,199	0,045	0,066
-523,218	130,967	0,073	-0,068
-522,204	312,986	-0,056	-0,076
-521,189	686,279	-0,038	-0,072
-520,175	767,220	0,039	-0,077
-519,160	128,111	-0,119	0,110
-518,145	-200,000	0,007	-0,083
-517,131	609,098	-0,067	0,122
-516,116	687,112	-0,047	-0,090
-515,102	-108,657	-0,117	0,018
-514,087	64,061	-0,030	0,022
-513,072	338,735	-0,100	0,141
-512,058	-122,680	-0,028	0,003
-511,043	153,283	0,115	-0,114
-510,029	-159,229	0,103	0,004
-509,014	-200,000	0,038	0,172
-507,999	796,168	-0,013	0,027
-506,985	-45,003	-0,046	-0,017
-505,970	-37,765	-0,157	-0,060
-504,956	800,000	-0,043	-0,104
-503,941	-200,000	-0,033	0,116
-502,926	-200,000	-0,020	0,193
-501,912	380,007	0,023	-0,034
-500,897	-1,378	-0,056	0,028
-499,883	240,737	0,043	0,051
-498,868	161,731	0,019	0,019
-497,853	-29,756	0,034	0,014
-496,839	-200,000	-0,044	-0,192
-495,824	-200,000	0,017	0,122
-494,810	173,913	0,035	0,037
-493,795	10,419	0,038	-0,021
-492,781	66,464	0,031	-0,023
-491,766	-200,000	-0,005	-0,031
-490,751	54,072	0,109	-0,076
-489,737	-200,000	-0,004	-0,012
-488,722	800,000	0,021	-0,055
-487,708	393,955	0,052	0,079
-486,693	-93,161	-0,080	0,016
-485,678	60,358	-0,028	-0,020
-484,664	-85,350	0,071	-0,016
-483,649	-85,251	-0,061	-0,014
-482,635	291,131	0,016	-0,021
-481,620	-200,000	-0,018	0,067
-480,605	59,061	0,093	-0,066
-479,591	-127,584	-0,072	0,007
-478,576	-71,910	0,095	-0,025
-477,562	-9,678	-0,025	0,012
-476,547	-23,362	-0,116	0,050
-475,532	148,681	0,091	-0,088
-474,518	-124,176	0,098	0,011
-473,503	-79,456	0,148	0,036
-472,489	119,723	0,055	-0,049
-471,474	-200,000	-0,014	0,084
-470,459	-5,128	0,078	0,038
-469,445	-11,877	0,061	-0,029
-468,430	-200,000	-0,017	0,273
-467,416	241,128	-0,070	0,084
-466,401	-35,541	0,085	0,033
-465,386	-200,000	-0,001	0,003
-464,372	-161,157	-0,110	0,004
-463,357	800,000	0,063	0,140
-462,343	29,719	0,157	-0,096
-461,328	-144,278	-0,033	-0,002
-460,313	-106,247	0,011	-0,002
-459,299	-91,658	0,113	0,023
-458,284	0,951	0,050	0,026
-457,270	-200,000	0,009	-0,103
-456,255	148,172	-0,082	-0,080
-455,241	-200,000	-0,010	-0,059
-454,226	-200,000	-0,010	-0,043
-453,211	188,111	0,116	0,125
-452,197	581,317	-0,030	-0,053
-451,182	797,596	-0,046	0,093
-450,168	-200,000	-0,010	0,092
-449,153	398,893	-0,041	-0,062
-448,138	-200,000	-0,004	-0,153
-447,124	740,801	-0,030	-0,059
-446,109	194,806	0,079	-0,086
-445,095	-169,239	-0,125	-0,003
-444,080	80,087	0,166	-0,128
-443,065	163,538	0,092	0,093
-442,051	800,000	-0,008	0,020
-441,036	179,129	-0,063	-0,067
-440,022	78,727	-0,152	-0,117
-439,007	-200,000	0,018	0,088
-437,992	673,132	0,054	0,102
-436,978	711,973	0,061	0,116
-435,963	40,245	0,017	0,011
-434,949	-123,145	0,035	0,004
-433,934	357,194	0,003	0,005
-432,919	-200,000	-0,002	-0,077
-431,905	-61,361	-0,137	-0,041
-430,890	-200,000	0,006	0,127
-429,876	-112,181	0,078	0,011
-428,861	369,460	-0,061	-0,090
-427,846	-169,147	0,139	0,004
-426,832	89,492	-0,039	-0,031
-425,817	-200,000	-0,026	-0,154
-424,803	54,183	-0,137	-0,095
-423,788	-16,342	0,085	0,039
-422,773	406,276	-0,064	-0,097
-421,759	125,937	-0,051	-0,046
-420,744	-200,000	-0,018	0,069
-419,730	92,271	-0,087	-0,070
-418,715	741,847	0,007	-0,014
-417,701	-125,015	-0,025	0,003
-416,686	69,379	0,053	0,039
-415,671	224,345	0,099	0,115
-414,657	-200,000	0,012	0,041
-413,642	-200,000	0,046	0,215
-412,628	75,889	-0,064	0,049
-411,613	44,320	-0,094	-0,062
-410,598	-109,748	-0,092	-0,014
-409,584	-108,038	-0,061	0,009
-408,569	223,477	-0,033	-0,038
-407,555	7,974	-0,047	-0,025
-406,540	422,957	0,030	0,046
-405,525	687,527	-0,106	0,200
-404,511	-115,031	-0,058	-0,008
-403,496	-33,124	-0,061	0,024
-402,482	93,843	0,100	0,082
-401,467	19,992	0,117	-0,068
-400,452	800,000	0,023	-0,064
-399,438	800,000	0,037	0,077
-398,423	-200,000	-0,036	-0,117
-397,409	-10,778	-0,080	-0,038
-396,394	33,736	0,066	0,041
-395,379	-200,000	-0,002	-0,025
-394,365	-24,659	-0,024	-0,010
-393,350	800,000	0,041	0,101
-392,336	-126,861	0,035	-0,004
-391,321	-200,000	0,005	0,022
-390,306	800,000	-0,021	-0,057
-389,292	800,000	-0,024	0,060
-388,277	175,073	-0,093	-0,097
-387,263	800,000	0,034	-0,080
-386,248	-200,000	0,032	0,129
-385,233	800,000	0,039	-0,078
-384,219	56,745	0,056	-0,039
-383,204	800,000	-0,047	-0,128
-382,190	-81,048	0,063	-0,015
-381,175	-200,000	-0,007	0,074
-380,160	-200,000	0,003	-0,054
-379,146	-200,000	-0,020	0,163
-378,131	-162,856	0,101	-0,003
-377,117	-200,000	-0,010	-0,056
-376,102	-39,400	-0,060	-0,022
-375,088	-200,000	-0,040	-0,134
-374,073	497,162	-0,039	-0,065
-373,058	139,538	0,032	0,030
-372,044	-200,000	-0,022	0,154
-371,029	77,998	-0,088	-0,067
-370,015	-42,044	0,140	-0,051
-369,000	756,186	0,044	0,086
-367,985	-24,625	-0,086	0,036
-366,971	-200,000	0,012	0,074
-365,956	449,143	-0,021	-0,033
-364,942	200,898	-0,044	-0,049
-363,927	79,127	0,104	0,080
-362,912	599,633	-0,041	0,073
-361,898	-200,000	-0,000	0,110
-360,883	-128,763	0,054	0,005
-359,869	-48,219	0,115	0,040
-358,854	-92,856	-0,233	0,046
-357,839	523,068	0,009	-0,015
-356,825	-200,000	0,010	0,052
-355,810	295,321	0,075	0,098
-354,796	-200,000	0,000	-0,039
-353,781	27,937	0,050	0,030
-352,766	58,607	0,039	-0,027
-351,752	800,000	-0,017	0,047
-350,737	-200,000	-0,034	-0,163
-349,723	-200,000	0,022	0,076
-348,708	536,274	0,030	0,051
-347,693	-200,000	0,018	-0,077
-346,679	800,000	-0,062	-0,135
-345,664	-200,000	-0,006	-0,124
-344,650	-66,024	-0,054	-0,015
-343,635	-76,532	-0,029	-0,007
-342,620	-200,000	-0,004	0,068
-341,606	-200,000	-0,048	0,163
-340,591	-9,495	0,073	0,035
-339,577	-50,506	0,050	0,017
-338,562	-200,000	0,006	-0,080
-337,548	-120,863	0,046	-0,006
-336,533	800,000	-0,006	0,014
-335,518	-74,273	0,075	-0,019
-334,504	-200,000	0,018	0,075
-333,489	-125,506	-0,039	-0,004
-332,475	74,071	-0,115	-0,086
-331,460	-35,166	-0,108	-0,042
-330,445	445,534	0,013	-0,021
-329,431	33,408	-0,071	0,044
-328,416	-119,704	0,090	0,011
-327,402	-200,000	-0,022	-0,158
-326,387	-96,782	-0,130	-0,024
-325,372	-79,868	0,101	-0,024
-324,358	-33,890	-0,186	-0,073
-323,343	-200,000	0,016	0,123
-322,329	-127,984	0,085	0,009
-321,314	754,536	0,070	0,137
-320,299	167,007	0,048	0,049
-319,285	170,174	-0,128	-0,131
-318,270	800,000	0,060	-0,133
-317,256	295,627	-0,074	-0,098
-316,241	800,000	0,025	-0,067
-315,226	-79,678	-0,164	-0,039
-314,212	309,842	-0,119	-0,160
-313,197	800,000	0,032	0,070
-312,183	-200,000	0,006	-0,025
-311,168	-200,000	-0,034	-0,121
-310,153	194,588	-0,128	-0,140
-309,139	526,474	-0,027	-0,047
-308,124	-73,586	0,118	-0,030
-307,110	-107,830	0,167	0,026
-306,095	267,488	-0,055	0,070
-305,080	800,000	0,036	-0,106
-304,066	3,518	0,041	0,021
-303,051	-200,000	0,004	0,015
-302,037	273,029	-0,064	-0,081
-301,022	514,692	-0,023	0,038
-300,008	-48,515	-0,111	0,038
-298,993	-200,000	0,008	-0,064
-297,978	800,000	0,039	0,084
-296,964	800,000	-0,052	-0,133
-295,949	550,435	-0,115	-0,198
-294,935	49,677	-0,101	-0,068
-293,920	-200,000	-0,017	-0,078
-292,905	389,633	0,049	-0,073
-291,891	-109,069	0,149	0,022
-290,876	208,781	-0,062	0,069
-289,862	800,000	0,085	0,204
-288,847	-147,229	-0,065	-0,004
-287,832	800,000	0,028	-0,073
-286,818	-200,000	-0,016	0,081
-285,803	-56,597	0,055	0,017
-284,789	-44,298	0,049	-0,018
-283,774	-55,634	0,145	-0,046
-282,759	28,517	-0,116	-0,070
-281,745	354,518	0,049	0,070
-280,730	-100,290	-0,011	0,002
-279,716	584,889	-0,020	0,035
-278,701	-95,929	0,053	0,010
-277,686	-62,753	0,053	0,016
-276,672	800,000	0,084	0,173
-275,657	800,000	0,050	-0,131
-274,643	26,186	-0,038	0,023
-273,628	202,662	0,051	-0,056
-272,613	83,787	-0,082	-0,064
-271,599	-200,000	-0,012	-0,074
-270,584	241,096	0,032	-0,038
-269,570	-200,000	0,009	0,162
-268,555	-3,780	0,080	0,040
-267,540	800,000	0,028	-0,058
-266,526	-200,000	0,022	-0,104
-265,511	99,727	-0,050	0,041
-264,497	145,550	-0,020	0,019
-263,482	72,602	0,133	0,099
-262,467	800,000	0,024	0,070
-261,453	215,460	0,044	0,050
-260,438	-200,000	0,012	0,041
-259,424	-78,235	0,031	0,008
-258,409	-103,956	0,030	-0,005
-257,395	-75,156	0,053	-0,013
-256,380	-80,890	0,133	0,031
-255,365	372,252	-0,039	-0,057
-254,351	-53,379	-0,050	0,016
-253,336	-200,000	0,016	0,053
-252,322	-200,000	0,003	0,060
-251,307	-29,051	0,073	-0,030
-250,292	-142,410	0,081	0,006
-249,278	-184,029	0,126	0,001
-248,263	-129,092	-0,167	-0,016
-247,249	-84,719	0,118	0,026
-246,234	191,689	0,034	0,037
-245,219	112,596	0,025	0,021
-244,205	-108,061	-0,030	0,005
-243,190	800,000	-0,046	-0,126
-242,176	-150,545	0,040	-0,002
-241,161	-200,000	-0,005	0,161
-240,146	-200,000	0,009	-0,040
-239,132	800,000	-0,025	-0,060
-238,117	304,008	0,047	-0,063
-237,103	-85,975	-0,125	0,027
-236,088	132,806	0,089	0,082
-235,073	3,394	0,065	-0,034
-234,059	-67,216	-0,083	0,023
-233,044	695,972	-0,075	0,141
-232,030	60,588	0,057	0,040
-231,015	800,000	-0,105	0,254
-230,000	289,755	-0,095	0,123
-228,986	-200,000	0,020	0,182
-227,971	-200,000	-0,025	0,157
-226,957	-3,750	0,078	0,038
-225,942	309,968	-0,041	0,055
-224,927	199,746	0,021	0,023
-223,913	4,222	0,141	-0,073
-222,898	-116,154	0,017	-0,002
-221,884	262,371	-0,053	0,065
-220,869	412,753	0,121	0,185
-219,855	-200,000	-0,001	0,042
-218,840	171,970	-0,074	0,076
-217,825	-63,771	0,070	-0,020
-216,811	-200,000	0,015	-0,079
-215,796	131,333	-0,089	-0,082
-214,782	-60,536	-0,031	-0,009
-213,767	800,000	0,108	0,235
-212,752	-28,462	0,097	-0,040
-211,738	-130,261	-0,063	0,006
-210,723	800,000	-0,032	0,065
-209,709	-11,555	-0,041	0,019
-208,694	-102,903	0,106	-0,018
-207,679	54,518	-0,168	-0,115
-206,665	-89,062	0,163	0,034
-205,650	258,369	0,094	0,116
-204,636	66,205	0,091	-0,066
-203,621	-200,000	0,022	0,087
-202,606	154,991	-0,142	0,140
-201,592	-30,483	-0,072	0,029
-200,577	-27,032	-0,128	-0,053
-199,563	145,118	-0,123	0,117
-198,548	800,000	0,046	0,096
-197,533	-200,000	0,012	-0,153
-196,519	486,124	0,039	0,064
-195,504	349,762	0,043	-0,060
-194,490	88,332	-0,042	0,033
-193,475	-164,235	-0,030	0,001
-192,460	174,566	-0,085	0,088
-191,446	340,719	-0,068	0,095
-190,431	-93,990	0,068	0,013
-189,417	-174,831	0,045	-0,001
-188,402	-40,209	-0,047	0,017
-187,387	247,393	0,081	-0,098
-186,373	358,799	0,029	0,042
-185,358	299,188	-0,090	-0,118
-184,344	-168,561	0,018	-0,000
-183,329	-53,320	0,054	0,018
-182,315	-24,786	0,093	0,039
-181,300	-112,967	-0,084	-0,012
-180,285	117,556	0,020	-0,017
-179,271	800,000	0,024	0,076
-178,256	201,471	0,062	0,068
-177,242	-200,000	0,027	0,105
-176,227	10,221	0,075	-0,041
-175,212	44,151	0,183	0,119
-174,198	-129,494	-0,117	-0,011
-173,183	-200,000	-0,030	-0,094
-172,169	254,745	-0,118	-0,144
-171,154	459,303	-0,070	-0,111
-170,139	768,784	0,072	-0,140
-169,125	-200,000	0,037	-0,147
-168,110	259,828	0,019	0,023
-167,096	800,000	0,013	-0,040
-166,081	-200,000	0,005	0,027
-165,066	178,144	-0,090	-0,094
-164,052	800,000	-0,050	0,127
-163,037	-53,716	0,074	0,024
-162,023	-65,029	0,068	-0,019
-161,008	-127,968	0,193	0,020
-159,993	-200,000	-0,041	0,152
-158,979	-11,057	-0,083	-0,039
-157,964	11,562	-0,088	-0,048
-156,950	110,872	-0,047	-0,040
-155,935	620,986	0,028	0,051
-154,920	-200,000	-0,004	0,100
-153,906	-72,570	0,069	-0,018
-152,891	44,786	0,154	0,101
-151,877	6,782	-0,090	0,047
-150,862	-200,000	0,004	-0,046
-149,847	-73,796	-0,051	0,013
-148,833	301,380	-0,021	-0,027
-147,818	173,282	0,056	0,057
-146,804	-200,000	-0,058	-0,189
-145,789	-200,000	0,022	-0,100
-144,775	-103,307	-0,072	-0,012
-143,760	-200,000	-0,011	-0,142
-142,745	-200,000	0,038	0,141
-141,731	-99,386	-0,073	-0,013
-140,716	138,133	-0,081	-0,076
-139,702	65,392	-0,048	0,035
-138,687	126,294	0,032	-0,029
-137,672	625,238	0,034	0,061
-136,658	93,391	0,071	-0,057
-135,643	-200,000	-0,010	-0,127
-134,629	685,372	-0,011	0,020
-133,614	15,773	0,040	0,022
-132,599	800,000	-0,032	0,078
-131,585	800,000	0,035	0,077
-130,570	-200,000	0,003	-0,099
-129,556	582,263	-0,119	-0,208
-128,541	-80,703	-0,070	0,017
-127,526	495,654	-0,047	-0,076
-126,512	800,000	-0,029	0,072
-125,497	-0,335	-0,115	0,058
-124,483	-113,733	0,184	0,025
-123,468	-200,000	-0,024	-0,107
-122,453	-55,186	-0,086	-0,027
-121,439	800,000	-0,040	-0,087
-120,424	-200,000	0,025	-0,081
-119,410	168,681	0,152	-0,154
-118,395	-17,258	-0,025	0,011
-117,380	-200,000	0,008	0,041
-116,366	-200,000	0,004	-0,135
-115,351	-200,000	-0,010	0,106
-114,337	800,000	0,037	0,085
-113,322	-87,755	-0,074	0,016
-112,307	-200,000	0,002	0,048
-111,293	321,470	0,047	-0,064
-110,278	249,743	0,064	0,077
-109,264	141,158	-0,090	0,085
-108,249	-200,000	-0,009	-0,087
-107,234	-132,414	-0,034	-0,003
-106,220	392,422	0,033	-0,048
-105,205	-200,000	0,000	-0,043
-104,191	427,247	0,023	0,036
-103,176	-54,528	0,010	0,003
-102,162	188,809	0,049	0,052
-101,147	-54,955	0,011	-0,003
-100,132	0,994	-0,054	-0,028
-99,118	-106,553	-0,018	0,003
-98,103	800,000	-0,007	-0,022
-97,089	-151,193	0,082	0,004
-96,074	38,146	0,057	0,036
-95,059	4,025	0,143	-0,074
-94,045	-135,732	-0,172	-0,014
-93,030	-105,199	-0,026	-0,004
-92,016	137,123	0,066	0,061
-91,001	90,931	0,019	-0,015
-89,986	18,801	-0,082	0,047
-88,972	-26,004	0,054	-0,022
-87,957	-140,581	-0,064	0,005
-86,943	-200,000	-0,007	-0,028
-85,928	270,847	-0,062	-0,078
-84,913	-103,263	-0,151	-0,025
-83,899	17,465	-0,125	-0,070
-82,884	5,862	0,101	0,053
-81,870	-200,000	-0,004	0,056
-80,855	-85,900	-0,097	-0,021
-79,840	800,000	0,040	-0,087
-78,826	-200,000	-0,008	-0,147
-77,811	43,475	-0,084	-0,055
-76,797	-132,995	-0,039	-0,003
-75,782	360,434	0,066	-0,094
-74,767	-159,695	-0,041	0,002
-73,753	39,178	-0,058	0,037
-72,738	9,562	0,047	-0,025
-71,724	-115,985	-0,003	0,000
-70,709	-24,276	-0,107	-0,045
-69,694	551,394	-0,041	-0,069
-68,680	-176,657	0,118	-0,002
-67,665	800,000	0,019	0,049
-66,651	112,752	-0,055	-0,047
-65,636	-151,994	-0,145	-0,007
-64,622	287,328	0,064	0,082
-63,607	-73,888	-0,099	-0,025
-62,592	523,509	0,041	-0,069
-61,578	-56,503	0,138	-0,043
-60,563	-114,954	0,116	-0,015
-59,549	800,000	-0,023	0,060
-58,534	-18,719	-1,338	-0,589
-57,519	263,407	-1,750	-2,161
-56,505	-200,000	-0,430	-4,468
-55,490	77,594	1,042	0,786
-54,476	800,000	4,826	11,281
-53,461	-200,000	17,759	283,288
-52,446	800,000	721,091	2227,573
-51,432	562,933	1635,168	2817,270
-50,417	80,935	1658,305	1267,480
-49,403	23,743	1532,674	892,824
-48,388	17,716	1456,221	819,207
-47,373	18,234	1445,828	815,814
-46,359	17,829	1436,352	808,504
-45,344	15,953	1431,915	797,056
-44,330	15,920	1429,638	795,597
-43,315	15,949	1428,140	794,870
-42,300	15,933	1426,482	793,841
-41,286	15,985	1425,213	793,349
-40,271	15,923	1424,171	792,442
-39,257	15,970	1422,441	791,672
-38,242	15,987	1421,651	791,283
-37,227	16,042	1420,103	790,648
-36,213	15,971	1418,930	789,626
-35,198	15,988	1417,716	789,001
-34,184	16,019	1416,699	788,552
-33,169	15,923	1415,713	787,518
-32,154	15,951	1414,582	786,988
-31,140	15,992	1413,265	786,419
-30,125	16,030	1411,931	785,822
-29,111	15,987	1410,998	785,069
-28,096	15,958	1409,730	784,196
-27,082	15,908	1408,813	783,423
-26,067	15,945	1407,399	782,778
-25,052	15,926	1406,532	782,175
-24,038	15,863	1405,474	781,260
-23,023	15,894	1404,433	780,800
-22,009	15,874	1403,592	780,207
-20,994	15,798	1402,666	779,307
-19,979	15,878	1401,599	779,054
-18,965	15,826	1400,931	778,412
-17,950	15,823	1399,856	777,768
-16,936	15,826	1398,731	777,127
-15,921	15,831	1397,335	776,342
-14,906	15,823	1396,509	775,818
-13,892	15,804	1395,498	775,137
-12,877	15,791	1394,844	774,680
-11,863	15,821	1393,858	774,245
-10,848	15,845	1392,789	773,731
-9,833	15,781	1391,939	772,932
-8,819	15,723	1391,120	772,178
-7,804	15,756	1389,903	771,623
-6,790	15,652	1389,261	770,754
-5,775	15,696	1388,079	770,272
-4,760	15,699	1387,259	769,799
-3,746	15,704	1386,679	769,472
-2,731	15,714	1385,602	768,890
-1,717	15,687	1384,654	768,210
-0,702	15,691	1382,976	767,264
0,313	19,415	1303,355	740,295
1,327	35,645	706,119	438,659
2,342	54,751	124,932	85,270
3,356	1,503	16,597	8,432
4,371	-10,137	3,154	1,478
5,386	-38,938	0,570	0,212
6,400	-54,420	-0,087	-0,028
7,415	412,119	-0,164	-0,248
8,429	183,839	-0,251	-0,263
9,444	159,271	-0,272	-0,268
10,459	110,885	-0,250	-0,213
11,473	6,730	-0,309	-0,162
12,488	29,920	-0,210	-0,126
13,502	58,046	-0,177	-0,123
14,517	44,414	-0,294	-0,191
15,531	48,975	-0,462	-0,306
16,546	37,672	-0,398	-0,250
17,561	376,881	-0,239	-0,346
18,575	180,140	-0,168	-0,175
19,590	281,370	-0,247	-0,314
20,604	219,012	-0,220	-0,249
21,619	51,650	-0,426	-0,286
22,634	108,928	-0,413	-0,349
23,648	46,608	-0,368	-0,241
24,663	13,167	-0,454	-0,248
25,677	91,256	-0,313	-0,248
26,692	153,904	-0,275	-0,267
27,707	72,999	-0,351	-0,259
28,721	71,460	-0,463	-0,339
29,736	119,984	-0,374	-0,328
30,750	274,571	-0,284	-0,356
31,765	138,220	-0,388	-0,360
32,780	56,951	-0,391	-0,269
33,794	-21,715	-0,436	-0,187
34,809	-5,040	-0,491	-0,238
35,823	155,465	-0,298	-0,290
36,838	103,291	-0,466	-0,386
37,853	58,837	-0,530	-0,367
38,867	324,734	-0,284	-0,384
39,882	94,264	-0,327	-0,262
40,896	27,830	-0,334	-0,198
41,911	67,045	-0,302	-0,217
42,926	-17,854	-0,351	-0,155
43,940	32,184	-0,307	-0,186
44,955	2,023	-0,419	-0,213
45,969	189,310	-0,302	-0,320
46,984	333,847	-0,295	-0,403
47,999	92,086	-0,290	-0,230
49,013	-56,030	-0,366	-0,114
50,028	51,878	-0,360	-0,241
51,042	177,252	-0,270	-0,277
52,057	147,749	-0,302	-0,287
53,071	444,135	-0,280	-0,434
54,086	406,733	-0,255	-0,381
55,101	134,743	-0,305	-0,279
56,115	101,772	-0,317	-0,261
57,130	-93,183	-0,375	-0,073
58,144	262,975	-0,271	-0,333
59,159	3,164	-0,569	-0,291
60,174	190,870	-0,315	-0,334
61,188	53,666	-0,335	-0,226
62,203	111,258	-0,210	-0,178
63,217	85,820	-0,285	-0,221
64,232	-104,488	-0,335	-0,054
65,247	103,538	-0,361	-0,298
66,261	82,171	-0,381	-0,291
67,276	254,876	-0,229	-0,276
68,290	-4,374	-0,286	-0,139
69,305	-8,973	-0,340	-0,160
70,320	29,373	-0,296	-0,177
71,334	115,286	-0,233	-0,200
72,349	121,185	-0,298	-0,262
73,363	152,455	-0,291	-0,279
74,378	32,893	-0,326	-0,198
75,393	-86,811	-0,264	-0,056
76,407	7,681	-0,237	-0,125
77,422	116,743	-0,242	-0,209
78,436	-4,193	-0,237	-0,115
79,451	-94,466	-0,468	-0,089
80,466	70,765	-0,335	-0,244
81,480	-12,800	-0,485	-0,221
82,495	-108,678	-0,218	-0,033
83,509	128,772	-0,287	-0,257
84,524	-45,969	-0,184	-0,064
85,539	59,958	-0,354	-0,246
86,553	148,727	-0,197	-0,188
87,568	92,436	-0,297	-0,235
88,582	130,174	-0,387	-0,349
89,597	9,400	-0,245	-0,130
90,611	20,244	-0,299	-0,169
91,626	196,884	-0,259	-0,278
92,641	121,571	-0,154	-0,135
93,655	28,517	-0,361	-0,214
94,670	800,000	-0,143	-0,340
95,684	9,581	-0,266	-0,141
96,699	-21,858	-0,199	-0,085
97,714	-16,469	-0,240	-0,107
98,728	486,899	-0,188	-0,302
99,743	294,327	-0,205	-0,264
100,757	26,402	-0,234	-0,137
101,772	-35,107	-0,245	-0,093
102,787	-27,039	-0,245	-0,100
103,801	41,566	-0,330	-0,209
104,816	195,748	-0,159	-0,170
105,830	-131,970	-0,264	-0,024
106,845	149,865	-0,133	-0,127
107,860	117,000	-0,284	-0,245
108,874	139,602	-0,323	-0,298
109,889	175,007	-0,269	-0,273
110,903	26,928	-0,303	-0,178
111,918	154,074	-0,197	-0,190
112,933	800,000	-0,158	-0,336
113,947	-29,473	-0,332	-0,133
114,962	74,469	-0,244	-0,180
115,976	-14,312	-0,414	-0,186
116,991	148,018	-0,275	-0,260
118,006	176,285	-0,275	-0,280
119,020	-16,729	-0,256	-0,113
120,035	42,032	-0,208	-0,132
121,049	7,468	-0,288	-0,150
122,064	-81,919	-0,287	-0,065
123,079	66,586	-0,214	-0,153
124,093	153,160	-0,181	-0,173
125,108	58,490	-0,345	-0,237
126,122	159,180	-0,240	-0,234
127,137	0,661	-0,277	-0,139
128,151	40,976	-0,249	-0,157
129,166	-10,019	-0,192	-0,089
130,181	201,816	-0,217	-0,235
131,195	563,122	-0,070	-0,118
132,210	166,577	-0,273	-0,271
133,224	451,259	-0,149	-0,232
134,239	-71,116	-0,299	-0,078
135,254	-74,077	-0,237	-0,060
136,268	174,743	-0,232	-0,235
137,283	60,775	-0,296	-0,205
138,297	110,278	-0,236	-0,198
139,312	436,870	-0,175	-0,267
140,327	140,457	-0,323	-0,299
141,341	17,731	-0,282	-0,156
142,356	692,449	-0,159	-0,293
143,370	-2,862	-0,262	-0,128
144,385	524,542	-0,151	-0,250
145,400	-77,313	-0,242	-0,058
146,414	203,914	-0,239	-0,260
147,429	-34,371	-0,142	-0,054
148,443	209,953	-0,077	-0,085
149,458	353,242	-0,179	-0,249
150,473	146,360	-0,246	-0,231
151,487	138,211	-0,260	-0,238
152,502	30,531	-0,299	-0,178
153,516	75,330	-0,251	-0,185
154,531	46,876	-0,276	-0,179
155,546	396,340	-0,122	-0,178
156,560	141,732	-0,188	-0,175
157,575	-200,000	-0,047	-0,246
158,589	327,934	-0,078	-0,105
159,604	-49,042	-0,276	-0,092
160,619	0,823	-0,326	-0,163
161,633	720,996	-0,123	-0,230
162,648	-63,731	-0,249	-0,071
163,662	235,120	-0,293	-0,339
164,677	-49,826	-0,218	-0,072
165,692	176,825	-0,133	-0,136
166,706	301,757	-0,178	-0,230
167,721	155,706	-0,246	-0,236
168,735	-12,631	-0,194	-0,088
169,750	132,416	-0,215	-0,193
170,764	19,467	-0,217	-0,121
171,779	800,000	-0,113	-0,312
172,794	45,790	-0,253	-0,163
173,808	-20,541	-0,232	-0,099
174,823	470,369	-0,083	-0,131
175,837	24,906	-0,265	-0,153
176,852	-100,085	-0,235	-0,041
177,867	481,365	-0,128	-0,203
178,881	126,615	-0,140	-0,123
179,896	158,791	-0,138	-0,134
180,910	-200,000	-0,048	-0,210
181,925	241,926	-0,158	-0,185
182,940	26,906	-0,317	-0,185
183,954	193,802	-0,204	-0,215
184,969	11,296	-0,237	-0,126
185,983	-166,989	-0,120	-0,003
186,998	35,058	-0,097	-0,059
188,013	268,427	-0,181	-0,221
189,027	20,702	-0,323	-0,182
190,042	146,373	-0,273	-0,255
191,056	-29,493	-0,215	-0,085
192,071	671,980	-0,103	-0,187
193,086	-120,745	-0,296	-0,034
194,100	177,296	-0,164	-0,166
195,115	190,418	-0,073	-0,076
196,129	63,867	-0,233	-0,163
197,144	-18,869	-0,283	-0,122
198,159	88,800	-0,183	-0,142
199,173	39,890	-0,271	-0,169
200,188	34,832	-0,183	-0,111
201,202	111,725	-0,109	-0,092
202,217	368,446	-0,206	-0,291
203,232	82,545	-0,168	-0,127
204,246	800,000	-0,120	-0,311
205,261	153,583	-0,206	-0,196
206,275	246,107	-0,120	-0,141
207,290	55,361	-0,254	-0,171
208,304	274,852	-0,116	-0,143
209,319	-13,491	-0,367	-0,165
210,334	-95,814	-0,178	-0,033
211,348	116,276	-0,169	-0,144
212,363	800,000	-0,180	-0,362
213,377	-78,685	-0,176	-0,042
214,392	-50,312	-0,211	-0,069
215,407	109,389	-0,236	-0,196
216,421	800,000	-0,042	-0,104
217,436	493,981	-0,079	-0,127
218,450	-105,111	-0,144	-0,023
219,465	44,012	-0,212	-0,135
220,480	670,580	-0,144	-0,260
221,494	27,993	-0,295	-0,172
222,509	-35,545	-0,156	0,059
223,523	-200,000	-0,016	-0,203
224,538	75,955	-0,193	-0,142
225,553	194,383	-0,174	-0,183
226,567	3,646	-0,259	-0,131
227,582	466,269	-0,156	-0,244
228,596	529,872	-0,112	-0,185
229,611	-119,473	-0,249	-0,030
230,626	58,106	-0,210	-0,142
231,640	253,814	-0,169	-0,201
232,655	294,393	-0,184	-0,234
233,669	525,169	-0,114	-0,186
234,684	197,732	-0,143	-0,151
235,699	290,525	-0,146	-0,185
236,713	201,188	-0,154	-0,164
237,728	432,304	-0,124	-0,187
238,742	-14,840	-0,131	-0,058
239,757	396,749	-0,105	-0,153
240,772	-149,203	-0,192	-0,010
241,786	28,177	-0,112	-0,066
242,801	264,355	-0,158	-0,192
243,815	14,221	-0,196	-0,106
244,830	513,124	-0,063	-0,102
245,844	78,403	-0,182	-0,135
246,859	7,455	-0,266	-0,137
247,874	527,928	-0,162	-0,266
248,888	100,878	-0,187	-0,151
249,903	470,563	-0,111	-0,174
250,917	184,595	-0,080	-0,083
251,932	164,111	-0,159	-0,156
252,947	-199,461	-0,181	0,001
253,961	-120,089	-0,191	-0,022
254,976	-68,015	-0,224	0,060
255,990	-7,456	-0,204	-0,095
257,005	220,671	-0,084	-0,094
258,020	98,945	-0,069	-0,055
259,034	9,468	-0,188	-0,098
260,049	-48,726	-0,184	-0,061
261,063	-139,762	-0,312	-0,023
262,078	800,000	-0,128	-0,288
263,093	48,330	-0,164	-0,106
264,107	800,000	-0,086	-0,168
265,122	-95,883	-0,072	-0,013
266,136	-95,242	-0,107	-0,020
267,151	378,836	-0,116	-0,165
268,166	215,165	-0,206	-0,227
269,180	25,403	-0,274	-0,157
270,195	37,621	-0,216	-0,133
271,209	53,526	-0,189	-0,126
272,224	354,123	-0,156	-0,215
273,239	-200,000	-0,032	-0,127
274,253	2,370	-0,089	-0,044
275,268	-146,680	-0,150	0,009
276,282	87,480	-0,201	-0,154
277,297	180,441	-0,102	-0,104
278,312	-8,401	-0,204	-0,095
279,326	73,544	-0,277	-0,200
280,341	-47,222	-0,178	-0,060
281,355	167,924	-0,144	-0,142
282,370	127,388	-0,159	-0,139
283,384	88,502	-0,142	-0,109
284,399	-12,138	-0,148	-0,067
285,414	201,487	-0,135	-0,144
286,428	128,236	-0,067	0,059
287,443	10,311	-0,180	-0,094
288,457	-190,014	-0,195	0,001
289,472	-47,810	-0,140	0,047
290,487	800,000	-0,129	-0,248
291,501	77,746	-0,184	-0,135
292,516	176,205	-0,166	-0,167
293,530	166,590	-0,154	-0,151
294,545	272,028	-0,074	-0,090
295,560	-133,279	-0,191	-0,016
296,574	78,753	-0,165	-0,121
297,589	-82,597	-0,127	-0,028
298,603	453,067	-0,181	-0,278
299,618	-125,515	-0,135	-0,014
300,633	327,101	-0,152	-0,202
301,647	-49,151	-0,147	-0,048
302,662	-28,385	-0,180	-0,072
303,676	152,105	-0,151	-0,142
304,691	-200,000	-0,022	-0,116
305,706	178,646	-0,160	-0,161
306,720	-129,537	-0,222	0,021
307,735	146,651	-0,120	-0,112
308,749	-103,466	-0,029	-0,005
309,764	-69,464	-0,235	-0,062
310,779	158,764	-0,036	-0,035
311,793	110,955	-0,202	-0,168
312,808	-70,457	-0,193	-0,050
313,822	405,351	-0,143	-0,209
314,837	32,407	-0,141	-0,084
315,852	91,298	-0,217	-0,168
316,866	57,178	-0,069	0,046
317,881	249,810	-0,093	-0,109
318,895	21,589	-0,152	-0,085
319,910	83,059	-0,122	-0,091
320,925	-10,425	-0,159	-0,072
321,939	800,000	-0,036	-0,104
322,954	-77,572	-0,174	-0,041
323,968	296,744	-0,114	-0,144
324,983	234,010	-0,077	-0,087
325,997	10,775	-0,117	-0,062
327,012	800,000	-0,084	-0,204
328,027	161,882	-0,141	-0,136
329,041	530,733	-0,066	-0,107
330,056	-122,354	-0,116	-0,013
331,070	459,119	-0,128	-0,197
332,085	4,994	-0,134	-0,068
333,100	800,000	-0,051	-0,116
334,114	-70,633	-0,185	-0,048
335,129	129,212	-0,128	-0,112
336,143	157,961	-0,169	-0,161
337,158	-35,076	-0,079	-0,029
338,173	138,849	0,058	-0,053
339,187	510,106	-0,067	-0,107
340,202	100,159	-0,156	-0,124
341,216	-200,000	0,001	-0,071
342,231	800,000	-0,086	-0,178
343,246	237,652	-0,181	-0,206
344,260	23,887	-0,182	-0,103
345,275	-141,442	-0,231	0,016
346,289	-200,000	-0,026	-0,101
347,304	-200,000	-0,031	-0,114
348,319	-47,890	-0,131	0,044
349,333	376,211	-0,109	-0,153
350,348	252,266	-0,179	-0,211
351,362	800,000	-0,045	-0,111
352,377	-118,664	-0,070	-0,008
353,392	51,034	-0,119	-0,077
354,406	104,311	-0,220	-0,178
355,421	209,388	1313,683	1415,800
356,435	161,149	1474,336	1416,334
