DTS Sentinel unit serial number:	SN410029Multiplexer serial number:	ORYXHardware model number:	OX2-SRSoftware version number:	ORYX F/W v4,00 Oryx Data Collector v3.7.2.0data status	okinstallation	B3 Nyhavnadifferential loss correction	single-endedforward channel	channel 1reverse channel	N/Adate	2023/12/03time	09:42:30forward acquisition time	300,00reverse acquisition time	0,00gamma	499,1914k internal	0,3201k external	0,3201temperature offset calibration	1,0000default loss term (dB/km)	0,3820temperature slope calibration	1,0000multiplexer offset coefficient	1,0000multiplexer slope coefficient	1,0000fibre end	0,00T internal ref (°C)	13,36T ext. ref 1 (°C)	-1,66T ext. ref 2 (°C)	-1,67length (m)	temperature (°C)	Stokes	anti-Stokes-744,400	13,039	-0,261	-0,147
-743,385	-200,000	-0,049	0,254
-742,371	142,139	-0,109	-0,105
-741,356	-200,000	-0,071	0,406
-740,342	429,596	-0,093	-0,146
-739,327	-200,000	0,026	0,315
-738,312	119,224	-0,272	-0,245
-737,298	800,000	-0,040	0,102
-736,283	-18,517	-0,235	-0,106
-735,269	-200,000	-0,048	0,401
-734,254	800,000	-0,120	-0,242
-733,239	-26,763	-0,102	0,043
-732,225	268,700	-0,104	-0,133
-731,210	-200,000	0,062	0,227
-730,196	800,000	-0,060	-0,124
-729,181	-71,066	-0,149	-0,041
-728,167	-19,927	-0,022	-0,010
-727,152	119,810	-0,077	-0,069
-726,137	135,384	0,059	-0,056
-725,123	-38,177	-0,141	0,054
-724,108	-29,192	-0,065	0,027
-723,094	386,761	0,040	-0,061
-722,079	-200,000	0,007	-0,037
-721,064	316,144	0,116	0,160
-720,050	-67,001	0,057	-0,016
-719,035	98,813	0,046	-0,039
-718,021	230,518	-0,010	0,011
-717,006	-200,000	-0,017	-0,079
-715,991	800,000	-0,043	0,108
-714,977	-129,301	-0,142	-0,014
-713,962	-200,000	0,021	0,114
-712,948	236,202	-0,026	-0,032
-711,933	13,182	-0,022	0,013
-710,918	800,000	-0,060	-0,174
-709,904	640,178	-0,070	-0,130
-708,889	209,806	0,083	-0,094
-707,875	-50,945	-0,086	-0,029
-706,860	101,970	-0,048	-0,040
-705,845	800,000	-0,043	-0,118
-704,831	800,000	-0,029	0,059
-703,816	-200,000	-0,014	-0,285
-702,802	180,737	-0,044	-0,047
-701,787	110,704	-0,131	-0,115
-700,772	-118,901	-0,062	-0,008
-699,758	-77,121	0,053	0,013
-698,743	-165,911	0,063	0,002
-697,729	44,815	-0,147	0,098
-696,714	356,764	0,024	0,035
-695,699	-25,690	-0,049	-0,021
-694,685	800,000	-0,021	-0,046
-693,670	-32,815	-0,102	-0,041
-692,656	169,150	-0,079	0,082
-691,641	-200,000	-0,006	-0,031
-690,627	-71,005	0,123	-0,033
-689,612	-61,549	0,122	0,037
-688,597	-200,000	-0,017	-0,077
-687,583	-200,000	-0,012	-0,107
-686,568	-28,900	0,064	-0,027
-685,554	-200,000	-0,003	-0,023
-684,539	271,931	-0,074	-0,095
-683,524	245,565	0,043	-0,053
-682,510	-200,000	-0,014	0,095
-681,495	112,130	-0,033	0,029
-680,481	55,392	-0,105	-0,074
-679,466	-200,000	-0,013	-0,091
-678,451	-200,000	0,012	-0,083
-677,437	146,325	-0,059	-0,058
-676,422	-200,000	0,009	0,087
-675,408	718,038	0,034	0,066
-674,393	395,664	-0,040	-0,061
-673,378	711,190	0,023	0,045
-672,364	-173,688	-0,060	0,001
-671,349	194,901	0,097	-0,107
-670,335	243,566	0,047	0,057
-669,320	542,051	-0,021	0,037
-668,305	141,508	-0,060	0,058
-667,291	-200,000	0,006	0,019
-666,276	-87,600	-0,041	0,009
-665,262	159,970	-0,087	-0,088
-664,247	-71,781	0,055	0,015
-663,232	-97,542	-0,164	-0,031
-662,218	449,297	-0,054	0,087
-661,203	-19,623	0,104	-0,046
-660,189	800,000	0,018	-0,037
-659,174	800,000	-0,038	-0,103
-658,159	-110,905	-0,018	-0,003
-657,145	87,249	-0,086	-0,069
-656,130	52,996	0,074	0,051
-655,116	123,908	-0,035	0,032
-654,101	11,228	0,112	0,062
-653,086	-200,000	-0,001	-0,018
-652,072	-200,000	-0,021	-0,202
-651,057	-200,000	-0,036	-0,115
-650,043	-180,180	-0,041	0,001
-649,028	89,493	-0,088	-0,071
-648,014	147,245	-0,109	-0,106
-646,999	-200,000	0,006	0,078
-645,984	-68,925	0,114	-0,032
-644,970	-49,623	-0,034	-0,012
-643,955	-200,000	0,011	-0,096
-642,941	241,143	-0,086	-0,104
-641,926	-196,985	0,197	-0,001
-640,911	644,827	0,041	0,076
-639,897	53,301	-0,067	-0,047
-638,882	800,000	-0,013	0,038
-637,868	-49,581	0,052	0,018
-636,853	-105,632	-0,196	0,032
-635,838	-163,656	0,109	0,004
-634,824	-200,000	0,015	0,082
-633,809	229,868	0,053	0,062
-632,795	97,157	0,124	-0,103
-631,780	800,000	0,028	-0,066
-630,765	-200,000	-0,003	0,116
-629,751	91,314	-0,044	-0,036
-628,736	800,000	-0,026	-0,069
-627,722	259,178	-0,082	-0,102
-626,707	237,287	0,054	0,065
-625,692	-200,000	0,002	-0,059
-624,678	-200,000	0,004	-0,076
-623,663	-38,779	-0,143	0,054
-622,649	-200,000	0,027	-0,115
-621,634	-152,955	-0,081	0,004
-620,619	-200,000	-0,007	-0,103
-619,605	-108,079	0,126	0,020
-618,590	722,355	0,026	0,050
-617,576	-105,871	0,074	-0,012
-616,561	-200,000	-0,004	0,131
-615,546	-94,416	-0,081	0,016
-614,532	-1,832	-0,154	-0,078
-613,517	-107,090	-0,037	0,006
-612,503	-200,000	0,004	-0,064
-611,488	13,922	0,119	-0,067
-610,474	-112,713	0,088	0,012
-609,459	-200,000	-0,019	0,072
-608,444	194,288	0,052	-0,057
-607,430	57,209	-0,093	0,066
-606,415	43,757	-0,094	-0,062
-605,401	800,000	-0,050	0,116
-604,386	-200,000	-0,005	0,052
-603,371	-200,000	0,003	0,111
-602,357	-200,000	-0,010	0,157
-601,342	-21,857	0,121	0,053
-600,328	-199,844	0,106	0,000
-599,313	-200,000	-0,001	-0,099
-598,298	800,000	0,047	-0,148
-597,284	417,005	-0,096	-0,149
-596,269	-78,071	0,071	0,018
-595,255	622,450	-0,031	-0,058
-594,240	255,609	0,032	0,040
-593,225	-124,544	-0,197	-0,022
-592,211	-200,000	-0,014	-0,152
-591,196	332,475	-0,001	-0,002
-590,182	-105,395	0,062	-0,010
-589,167	800,000	0,015	-0,044
-588,152	54,828	0,120	0,084
-587,138	238,603	-0,124	-0,149
-586,123	-1,026	-0,190	0,097
-585,109	-200,000	0,001	-0,048
-584,094	800,000	-0,051	-0,116
-583,079	-13,665	0,079	-0,037
-582,065	800,000	-0,038	0,089
-581,050	-6,124	0,067	-0,033
-580,036	-114,629	-0,051	-0,007
-579,021	340,777	-0,093	-0,132
-578,006	72,839	0,066	0,050
-576,992	480,591	-0,033	-0,054
-575,977	-200,000	0,032	0,165
-574,963	275,966	0,015	0,020
-573,948	800,000	-0,012	0,024
-572,934	87,177	0,074	0,059
-571,919	-142,744	-0,110	-0,008
-570,904	800,000	-0,075	0,169
-569,890	800,000	0,051	-0,109
-568,875	213,526	0,025	-0,028
-567,861	50,242	0,093	-0,063
-566,846	-200,000	0,006	0,051
-565,831	60,211	0,044	-0,031
-564,817	10,318	0,089	-0,049
-563,802	-200,000	-0,044	-0,173
-562,788	216,729	-0,085	-0,098
-561,773	-33,655	0,049	0,019
-560,758	-52,207	0,136	-0,045
-559,744	285,527	-0,064	0,084
-558,729	-200,000	-0,001	-0,061
-557,715	85,863	-0,083	0,066
-556,700	800,000	-0,081	-0,176
-555,685	800,000	0,037	-0,094
-554,671	161,760	0,078	0,078
-553,656	-86,399	-0,024	-0,005
-552,642	-200,000	0,036	0,150
-551,627	778,827	-0,075	0,149
-550,612	-200,000	-0,007	-0,094
-549,598	7,806	0,075	-0,041
-548,583	-200,000	-0,003	-0,046
-547,569	-200,000	0,060	-0,268
-546,554	800,000	-0,035	0,098
-545,539	22,697	-0,104	0,062
-544,525	-44,235	-0,049	-0,018
-543,510	231,000	-0,087	0,103
-542,496	-200,000	0,014	0,078
-541,481	-39,785	-0,107	-0,040
-540,466	-200,000	0,007	-0,023
-539,452	-58,257	-0,042	-0,013
-538,437	800,000	-0,033	0,096
-537,423	-66,651	0,079	0,022
-536,408	-44,314	-0,139	-0,050
-535,393	-200,000	0,013	-0,159
-534,379	2,964	-0,084	0,044
-533,364	165,601	-0,026	-0,026
-532,350	486,765	0,103	-0,170
-531,335	71,223	-0,103	0,077
-530,321	-200,000	-0,035	0,114
-529,306	242,168	0,065	0,079
-528,291	800,000	0,041	0,096
-527,277	654,714	0,043	0,081
-526,262	28,907	-0,106	-0,064
-525,248	-200,000	0,017	-0,074
-524,233	-200,000	-0,019	0,063
-523,218	-143,586	0,068	0,005
-522,204	-71,349	-0,096	0,026
-521,189	651,194	0,052	0,096
-520,175	-200,000	0,013	0,138
-519,160	547,710	0,044	-0,077
-518,145	-200,000	0,009	-0,079
-517,131	-200,000	0,007	0,085
-516,116	788,200	-0,073	0,145
-515,102	212,051	0,031	0,035
-514,087	-82,423	-0,042	-0,010
-513,072	380,495	-0,125	-0,186
-512,058	-156,520	-0,084	-0,004
-511,043	287,257	0,044	0,057
-510,029	-93,284	0,194	-0,038
-509,014	35,852	0,073	-0,046
-507,999	213,905	0,084	-0,096
-506,985	-99,736	0,040	-0,007
-505,970	122,832	-0,112	0,101
-504,956	-4,946	-0,106	-0,053
-503,941	-91,596	-0,055	0,011
-502,926	-22,749	-0,065	-0,028
-501,912	166,671	-0,051	-0,052
-500,897	35,646	0,089	-0,056
-499,883	676,327	-0,042	-0,080
-498,868	-200,000	-0,015	0,053
-497,853	86,686	0,058	-0,046
-496,839	-200,000	0,001	-0,129
-495,824	-138,478	-0,123	0,010
-494,810	-200,000	0,011	0,156
-493,795	-18,915	0,167	-0,075
-492,781	800,000	-0,034	-0,093
-491,766	-200,000	0,001	-0,209
-490,751	800,000	0,017	-0,035
-489,737	800,000	0,044	0,103
-488,722	-40,780	-0,025	-0,009
-487,708	220,597	0,085	0,098
-486,693	800,000	-0,035	-0,097
-485,678	-200,000	0,000	-0,102
-484,664	-200,000	0,008	-0,181
-483,649	210,994	-0,069	-0,078
-482,635	60,674	-0,124	0,088
-481,620	28,627	0,037	0,022
-480,605	-68,624	0,132	-0,037
-479,591	328,802	-0,080	0,110
-478,576	-39,208	-0,032	0,012
-477,562	-135,608	-0,108	-0,009
-476,547	-200,000	-0,016	-0,072
-475,532	-200,000	0,001	-0,091
-474,518	136,192	-0,048	-0,045
-473,503	167,730	0,060	0,061
-472,489	321,526	-0,059	0,081
-471,474	129,909	0,093	-0,086
-470,459	546,376	0,053	-0,091
-469,445	-66,047	-0,047	0,013
-468,430	11,965	0,034	0,019
-467,416	253,828	0,053	-0,066
-466,401	-118,281	-0,052	-0,007
-465,386	800,000	-0,047	-0,109
-464,372	168,656	-0,086	0,088
-463,357	227,753	-0,039	0,046
-462,343	135,329	-0,059	-0,055
-461,328	-200,000	-0,029	-0,098
-460,313	-7,084	0,093	-0,045
-459,299	-13,311	0,073	0,034
-458,284	14,675	0,009	0,005
-457,270	240,494	0,098	0,117
-456,255	-200,000	-0,014	0,058
-455,241	303,248	-0,068	-0,091
-454,226	196,797	0,071	0,078
-453,211	-200,000	0,004	0,069
-452,197	-22,240	0,161	0,070
-451,182	-200,000	0,002	0,127
-450,168	-200,000	-0,015	0,068
-449,153	17,273	0,056	-0,032
-448,138	301,734	-0,052	-0,069
-447,124	-157,149	-0,047	0,002
-446,109	4,770	0,054	-0,028
-445,095	800,000	0,054	0,141
-444,080	188,839	0,015	0,017
-443,065	-150,969	-0,060	0,003
-442,051	413,567	0,033	-0,050
-441,036	-200,000	0,028	-0,093
-440,022	-8,350	-0,043	0,021
-439,007	800,000	0,042	-0,094
-437,992	23,490	0,101	0,060
-436,978	424,854	0,087	-0,134
-435,963	-5,078	0,048	-0,024
-434,949	-200,000	-0,012	0,122
-433,934	273,449	-0,085	-0,108
-432,919	-200,000	0,016	-0,095
-431,905	223,921	0,049	0,057
-430,890	-200,000	-0,014	0,044
-429,876	323,234	0,118	0,162
-428,861	-136,604	0,065	0,005
-427,846	-200,000	-0,031	0,102
-426,832	-200,000	0,022	-0,177
-425,817	-200,000	0,012	0,087
-424,803	800,000	-0,048	-0,098
-423,788	-200,000	0,000	-0,029
-422,773	-128,459	0,043	0,004
-421,759	-103,540	0,012	0,002
-420,744	193,750	-0,061	0,066
-419,730	-117,444	-0,111	-0,014
-418,715	-122,280	0,080	-0,009
-417,701	-200,000	0,034	-0,119
-416,686	-93,074	0,048	-0,010
-415,671	-106,375	0,170	-0,027
-414,657	-200,000	-0,028	0,148
-413,642	-137,313	0,054	-0,004
-412,628	-116,290	-0,166	0,022
-411,613	800,000	-0,041	-0,086
-410,598	59,456	-0,094	0,067
-409,584	800,000	0,077	0,158
-408,569	-200,000	-0,016	0,073
-407,555	630,261	0,070	0,127
-406,540	-56,638	0,130	-0,041
-405,525	800,000	0,025	0,066
-404,511	559,219	-0,054	-0,093
-403,496	568,982	-0,043	0,075
-402,482	-200,000	0,006	0,076
-401,467	-200,000	0,015	-0,098
-400,452	-132,964	0,175	0,016
-399,438	800,000	-0,053	-0,125
-398,423	264,592	0,077	-0,097
-397,409	91,406	-0,048	-0,038
-396,394	800,000	0,088	-0,190
-395,379	-13,840	-0,083	-0,038
-394,365	-96,215	0,155	-0,029
-393,350	243,178	0,095	0,114
-392,336	-200,000	-0,014	0,110
-391,321	70,372	-0,085	-0,063
-390,306	-134,064	0,134	0,012
-389,292	-9,115	-0,106	0,050
-388,277	169,760	-0,048	-0,049
-387,263	324,724	-0,090	0,124
-386,248	116,116	-0,051	-0,045
-385,233	800,000	0,045	0,139
-384,219	-108,489	-0,086	-0,013
-383,204	-120,785	0,168	-0,020
-382,190	800,000	0,014	-0,033
-381,175	677,798	-0,029	-0,055
-380,160	-191,424	-0,026	0,000
-379,146	800,000	0,021	0,050
-378,131	-122,597	0,103	0,012
-377,117	800,000	0,036	0,098
-376,102	-200,000	0,004	-0,052
-375,088	-171,371	0,172	0,004
-374,073	800,000	0,044	0,108
-373,058	-145,366	0,064	0,004
-372,044	288,037	0,116	0,151
-371,029	378,382	0,064	0,094
-370,015	-200,000	-0,004	0,088
-369,000	428,598	0,058	-0,090
-367,985	-200,000	-0,003	-0,127
-366,971	36,636	0,098	0,062
-365,956	74,069	0,105	0,079
-364,942	800,000	0,023	-0,049
-363,927	283,557	0,091	0,118
-362,912	99,294	0,132	0,109
-361,898	-26,578	0,116	-0,049
-360,883	258,133	-0,045	-0,055
-359,869	800,000	-0,023	-0,061
-358,854	117,703	0,125	0,111
-357,839	-129,458	0,035	0,003
-356,825	-200,000	0,014	-0,079
-355,810	-200,000	0,034	0,181
-354,796	-200,000	-0,009	0,118
-353,781	-135,033	-0,062	0,005
-352,766	31,842	-0,091	0,056
-351,752	-200,000	0,003	0,017
-350,737	283,200	-0,052	0,067
-349,723	258,040	-0,089	0,110
-348,708	-93,373	-0,074	-0,015
-347,693	154,405	0,018	0,017
-346,679	-5,037	-0,110	0,054
-345,664	292,135	0,081	-0,107
-344,650	292,943	-0,028	-0,036
-343,635	-200,000	-0,014	0,145
-342,620	519,724	-0,082	0,138
-341,606	16,078	-0,056	-0,031
-340,591	-200,000	0,014	0,063
-339,577	248,238	-0,030	0,036
-338,562	800,000	0,023	-0,055
-337,548	284,686	-0,021	-0,028
-336,533	455,211	-0,047	-0,075
-335,518	167,537	-0,119	0,121
-334,504	82,639	0,046	0,035
-333,489	-200,000	-0,004	-0,024
-332,475	-114,551	-0,070	0,010
-331,460	787,941	0,035	-0,070
-330,445	-200,000	0,003	0,023
-329,431	-200,000	0,001	-0,031
-328,416	-200,000	-0,029	-0,163
-327,402	-200,000	0,021	0,082
-326,387	38,689	-0,058	-0,037
-325,372	198,091	0,076	0,084
-324,358	800,000	-0,023	-0,064
-323,343	29,063	0,055	-0,034
-322,329	-5,798	0,172	-0,084
-321,314	-200,000	0,013	-0,057
-320,299	300,258	0,088	-0,116
-319,285	-200,000	-0,022	0,070
-318,270	23,976	-0,076	-0,045
-317,256	403,923	-0,052	-0,079
-316,241	146,318	-0,105	-0,100
-315,226	-43,546	0,008	0,003
-314,212	112,138	-0,053	0,046
-313,197	251,691	-0,066	0,080
-312,183	-32,855	0,046	0,018
-311,168	-200,000	-0,008	0,034
-310,153	-200,000	0,007	-0,164
-309,139	169,191	-0,126	0,129
-308,124	-200,000	0,002	-0,044
-307,110	-200,000	-0,001	0,064
-306,095	-200,000	-0,046	0,177
-305,080	-97,593	-0,146	0,027
-304,066	-91,245	-0,081	-0,016
-303,051	256,328	-0,068	-0,083
-302,037	-200,000	-0,002	-0,099
-301,022	-200,000	0,014	0,047
-300,008	158,469	0,045	0,045
-298,993	336,416	-0,071	0,099
-297,978	800,000	-0,060	0,119
-296,964	439,565	-0,026	0,040
-295,949	-1,501	-0,171	-0,086
-294,935	-55,945	0,177	-0,056
-293,920	-121,533	-0,065	-0,008
-292,905	-76,372	0,088	-0,022
-291,891	228,926	0,039	0,045
-290,876	-200,000	0,013	-0,138
-289,862	-200,000	0,012	0,128
-288,847	800,000	-0,047	-0,100
-287,832	800,000	0,018	0,040
-286,818	-28,027	-0,067	-0,028
-285,803	-73,040	-0,043	-0,011
-284,789	-200,000	0,005	0,144
-283,774	411,483	-0,039	-0,059
-282,759	-54,779	0,110	-0,035
-281,745	100,846	0,051	-0,043
-280,730	145,900	-0,047	-0,045
-279,716	8,853	0,062	0,033
-278,701	-200,000	0,001	0,020
-277,686	-164,957	-0,022	0,001
-276,672	-5,662	0,155	0,076
-275,657	800,000	-0,027	0,084
-274,643	109,239	-0,086	0,074
-273,628	366,704	0,075	-0,108
-272,613	48,243	-0,079	0,053
-271,599	800,000	0,072	0,173
-270,584	181,077	0,029	0,030
-269,570	-48,228	0,145	-0,050
-268,555	92,831	0,055	0,045
-267,540	78,272	-0,096	0,073
-266,526	-89,851	-0,040	0,008
-265,511	-33,524	-0,072	0,028
-264,497	-46,292	0,102	0,036
-263,482	-108,078	0,149	0,023
-262,467	-187,512	-0,062	-0,001
-261,453	554,511	0,042	0,073
-260,438	-200,000	0,014	-0,066
-259,424	57,757	0,071	-0,049
-258,409	-200,000	0,000	0,085
-257,395	-43,471	0,078	0,028
-256,380	-200,000	-0,016	0,265
-255,365	-200,000	0,015	0,123
-254,351	-168,612	-0,076	0,002
-253,336	315,361	-0,005	0,007
-252,322	-93,257	-0,067	0,013
-251,307	35,015	0,053	-0,033
-250,292	-28,005	0,103	-0,042
-249,278	26,669	-0,093	0,055
-248,263	-200,000	-0,022	-0,117
-247,249	269,106	-0,018	0,023
-246,234	800,000	0,028	-0,083
-245,219	122,471	-0,031	-0,028
-244,205	-121,511	0,111	-0,013
-243,190	-3,860	0,069	0,034
-242,176	-125,034	-0,081	0,009
-241,161	-200,000	-0,008	0,069
-240,146	800,000	0,048	0,113
-239,132	16,404	-0,076	-0,043
-238,117	-73,962	0,088	0,023
-237,103	770,026	0,063	-0,122
-236,088	-200,000	0,039	-0,147
-235,073	-200,000	0,043	-0,184
-234,059	-200,000	-0,027	0,087
-233,044	71,169	0,067	0,050
-232,030	-16,848	0,095	-0,043
-231,015	-99,509	-0,115	-0,020
-230,000	-200,000	-0,036	-0,182
-228,986	326,006	-0,017	0,023
-227,971	485,402	0,083	-0,135
-226,957	800,000	0,067	0,133
-225,942	588,529	-0,054	0,095
-224,927	140,831	-0,051	-0,048
-223,913	800,000	0,021	-0,051
-222,898	800,000	0,029	-0,064
-221,884	-200,000	0,000	-0,121
-220,869	129,853	0,021	0,019
-219,855	-168,390	0,114	-0,003
-218,840	-38,951	-0,051	-0,019
-217,825	800,000	-0,038	0,083
-216,811	-96,353	0,049	-0,009
-215,796	-51,586	-0,114	-0,038
-214,782	-83,083	-0,004	0,001
-213,767	-160,143	0,038	-0,001
-212,752	-79,558	0,115	-0,027
-211,738	-46,606	0,071	-0,025
-210,723	-40,918	0,045	-0,016
-209,709	453,729	-0,048	0,076
-208,694	-20,986	0,046	-0,020
-207,679	-25,746	-0,100	-0,042
-206,665	-49,073	-0,026	-0,009
-205,650	141,411	-0,148	0,140
-204,636	-200,000	-0,017	0,120
-203,621	261,747	0,095	0,117
-202,606	63,676	0,029	0,021
-201,592	-98,972	-0,170	-0,030
-200,577	-200,000	-0,030	-0,137
-199,563	800,000	0,070	0,178
-198,548	800,000	0,031	-0,094
-197,533	800,000	-0,034	-0,080
-196,519	187,133	-0,065	0,069
-195,504	3,436	-0,073	-0,038
-194,490	414,001	-0,049	-0,075
-193,475	-200,000	0,019	-0,080
-192,460	-87,760	-0,242	-0,051
-191,446	-200,000	0,024	0,080
-190,431	409,382	-0,036	0,054
-189,417	61,185	-0,074	0,052
-188,402	612,274	-0,029	0,052
-187,387	-200,000	-0,022	0,106
-186,373	-200,000	0,003	0,021
-185,358	800,000	-0,028	0,065
-184,344	-200,000	-0,001	-0,071
-183,329	-200,000	0,004	0,059
-182,315	22,722	0,066	0,038
-181,300	800,000	0,031	-0,069
-180,285	-200,000	0,012	-0,106
-179,271	-200,000	0,022	-0,095
-178,256	-136,071	-0,117	0,010
-177,242	-97,308	0,082	0,015
-176,227	800,000	0,027	0,079
-175,212	-152,687	-0,134	0,007
-174,198	122,280	-0,030	0,027
-173,183	800,000	0,052	-0,128
-172,169	800,000	-0,089	-0,179
-171,154	245,401	-0,093	-0,112
-170,139	-93,644	-0,088	-0,017
-169,125	-200,000	0,010	0,080
-168,110	-200,000	-0,003	0,167
-167,096	800,000	0,039	0,081
-166,081	800,000	0,031	-0,066
-165,066	-200,000	-0,010	-0,114
-164,052	753,276	-0,052	0,101
-163,037	15,130	0,101	-0,056
-162,023	707,090	-0,012	0,023
-161,008	-87,372	-0,151	0,032
-159,993	-200,000	-0,003	-0,119
-158,979	-148,466	0,038	-0,002
-157,964	97,476	-0,065	0,053
-156,950	-92,453	-0,106	-0,021
-155,935	800,000	0,046	-0,102
-154,920	12,282	-0,055	0,030
-153,906	561,620	0,028	0,049
-152,891	-200,000	-0,003	0,126
-151,877	800,000	-0,037	-0,077
-150,862	-200,000	-0,005	0,058
-149,847	-138,393	0,122	-0,009
-148,833	-200,000	-0,033	-0,207
-147,818	-200,000	-0,019	0,129
-146,804	84,179	-0,075	0,058
-145,789	214,119	0,051	0,058
-144,775	346,234	-0,105	-0,147
-143,760	22,381	-0,118	-0,068
-142,745	18,022	-0,083	-0,047
-141,731	-115,365	0,153	0,020
-140,716	-15,247	-0,038	-0,017
-139,702	800,000	-0,025	0,051
-138,687	193,847	0,036	0,038
-137,672	-200,000	-0,008	0,048
-136,658	-200,000	-0,024	-0,098
-135,643	-151,024	0,104	-0,005
-134,629	-90,684	0,124	-0,025
-133,614	63,262	0,120	0,085
-132,599	-174,841	0,054	0,001
-131,585	-200,000	0,007	0,067
-130,570	800,000	-0,024	-0,064
-129,556	18,034	0,062	0,035
-128,541	-200,000	-0,013	-0,115
-127,526	410,205	0,026	-0,039
-126,512	150,693	-0,150	0,145
-125,497	-200,000	0,024	0,084
-124,483	-139,620	0,089	0,007
-123,468	163,720	-0,061	0,061
-122,453	-38,157	0,016	0,006
-121,439	85,271	0,017	0,013
-120,424	179,651	-0,103	-0,107
-119,410	-200,000	0,004	-0,032
-118,395	-50,734	-0,054	-0,018
-117,380	737,482	0,036	-0,069
-116,366	-16,035	0,092	0,041
-115,351	-116,735	-0,085	0,011
-114,337	16,761	-0,086	0,048
-113,322	146,116	0,013	-0,013
-112,307	-120,879	0,076	-0,009
-111,293	57,755	0,093	0,065
-110,278	257,418	0,040	-0,049
-109,264	-150,472	0,074	-0,004
-108,249	-200,000	-0,031	0,104
-107,234	122,276	-0,114	-0,101
-106,220	800,000	-0,088	0,231
-105,205	-200,000	0,017	0,093
-104,191	-200,000	0,003	0,064
-103,176	800,000	0,046	0,094
-102,162	-137,162	-0,120	0,010
-101,147	-93,686	0,076	0,015
-100,132	-145,929	-0,083	0,005
-99,118	518,455	0,106	-0,176
-98,103	74,896	-0,071	0,053
-97,089	323,250	0,053	-0,071
-96,074	99,369	-0,153	0,126
-95,059	97,659	0,075	-0,061
-94,045	24,237	-0,090	-0,053
-93,030	-105,770	-0,015	0,002
-92,016	800,000	0,058	0,129
-91,001	800,000	-0,020	0,039
-89,986	-200,000	-0,003	-0,058
-88,972	404,525	0,052	0,079
-87,957	197,847	0,062	0,067
-86,943	-200,000	-0,007	0,114
-85,928	257,195	0,077	-0,094
-84,913	-200,000	0,003	0,013
-83,899	-200,000	-0,008	-0,137
-82,884	56,355	0,089	0,061
-81,870	315,561	-0,049	0,066
-80,855	-155,143	0,099	-0,004
-79,840	800,000	-0,016	0,036
-78,826	-200,000	-0,001	-0,007
-77,811	800,000	-0,027	0,060
-76,797	-71,069	-0,090	-0,024
-75,782	660,377	-0,031	0,056
-74,767	54,588	-0,027	-0,018
-73,753	-39,813	-0,162	0,060
-72,738	-200,000	-0,019	-0,166
-71,724	-200,000	-0,008	-0,054
-70,709	800,000	0,078	-0,176
-69,694	-39,378	-0,180	-0,067
-68,680	-200,000	0,012	0,123
-67,665	-99,624	0,176	0,031
-66,651	32,523	0,044	0,027
-65,636	142,942	0,056	-0,053
-64,622	-24,201	-0,073	-0,031
-63,607	-156,714	-0,042	0,002
-62,592	-55,920	-0,182	0,057
-61,578	65,364	0,059	0,042
-60,563	327,167	0,054	-0,073
-59,549	-200,000	0,029	0,147
-58,534	-52,943	-1,540	-0,499
-57,519	432,038	-1,411	-2,174
-56,505	-200,000	-0,702	-4,458
-55,490	229,837	1,097	1,271
-54,476	800,000	4,841	11,077
-53,461	-200,000	19,094	319,841
-52,446	-200,000	740,488	2335,251
-51,432	573,957	1655,350	2870,182
-50,417	78,340	1671,262	1262,354
-49,403	21,365	1543,992	886,021
-48,388	15,223	1466,534	811,699
-47,373	17,982	1456,595	819,499
-46,359	16,721	1446,484	807,732
-45,344	13,477	1441,920	789,611
-44,330	13,378	1440,087	788,100
-43,315	13,431	1438,170	787,275
-42,300	13,388	1436,632	786,197
-41,286	13,428	1435,315	785,635
-40,271	13,388	1433,894	784,636
-39,257	13,424	1432,625	784,081
-38,242	13,465	1431,419	783,586
-37,227	13,434	1430,202	782,737
-36,213	13,459	1428,790	782,054
-35,198	13,441	1427,848	781,423
-34,184	13,495	1426,853	781,101
-33,169	13,429	1425,526	780,032
-32,154	13,475	1424,478	779,646
-31,140	13,479	1423,045	778,850
-30,125	13,498	1422,107	778,393
-29,111	13,424	1421,018	777,417
-28,096	13,435	1419,762	776,752
-27,082	13,360	1418,847	775,870
-26,067	13,373	1417,653	775,243
-25,052	13,362	1416,592	774,580
-24,038	13,370	1415,519	774,002
-23,023	13,372	1414,449	773,398
-22,009	13,416	1413,521	773,064
-20,994	13,356	1412,831	772,373
-19,979	13,344	1411,821	771,735
-18,965	13,334	1410,765	771,082
-17,950	13,304	1409,814	770,388
-16,936	13,306	1409,040	769,943
-15,921	13,304	1407,731	769,190
-14,906	13,300	1406,981	768,730
-13,892	13,321	1405,870	768,190
-12,877	13,319	1405,082	767,721
-11,863	13,279	1404,233	767,042
-10,848	13,282	1403,295	766,511
-9,833	13,297	1402,358	766,040
-8,819	13,221	1401,750	765,324
-7,804	13,167	1400,787	764,513
-6,790	13,203	1399,745	764,083
-5,775	13,212	1398,626	763,486
-4,760	13,232	1397,502	762,935
-3,746	13,199	1396,748	762,338
-2,731	13,174	1396,083	761,829
-1,717	13,139	1395,072	761,085
-0,702	13,136	1393,356	760,106
0,313	17,042	1309,971	732,695
1,327	33,194	703,863	431,021
2,342	51,321	123,167	82,605
3,356	1,650	16,709	8,485
4,371	12,668	3,176	1,730
5,386	-35,393	0,618	0,236
6,400	-200,000	-0,019	0,199
7,415	562,521	-0,166	-0,286
8,429	-23,332	-0,229	-0,097
9,444	19,939	-0,293	-0,167
10,459	37,327	-0,382	-0,239
11,473	-11,480	-0,300	-0,139
12,488	-37,816	-0,284	-0,106
13,502	66,755	-0,273	-0,196
14,517	24,322	-0,314	-0,183
15,531	40,491	-0,369	-0,235
16,546	169,589	-0,311	-0,314
17,561	456,347	-0,246	-0,386
18,575	-25,292	-0,183	-0,076
19,590	141,636	-0,272	-0,255
20,604	-34,650	-0,336	-0,129
21,619	184,837	-0,300	-0,314
22,634	33,504	-0,502	-0,307
23,648	43,896	-0,435	-0,281
24,663	138,471	-0,368	-0,341
25,677	-32,466	-0,510	-0,200
26,692	230,925	-0,203	-0,234
27,707	126,086	-0,381	-0,340
28,721	67,013	-0,385	-0,276
29,736	65,415	-0,497	-0,355
30,750	90,694	-0,366	-0,290
31,765	120,687	-0,327	-0,287
32,780	113,047	-0,386	-0,330
33,794	-5,666	-0,386	-0,186
34,809	27,056	-0,389	-0,230
35,823	260,954	-0,188	-0,230
36,838	47,257	-0,437	-0,286
37,853	154,266	-0,343	-0,332
38,867	104,245	-0,410	-0,340
39,882	73,815	-0,311	-0,229
40,896	-22,794	-0,316	-0,134
41,911	154,969	-0,348	-0,337
42,926	-58,331	-0,431	-0,131
43,940	69,937	-0,309	-0,224
44,955	86,824	-0,396	-0,308
45,969	-46,566	-0,278	-0,096
46,984	-15,300	-0,371	-0,167
47,999	315,300	-0,212	-0,282
49,013	33,826	-0,331	-0,203
50,028	35,077	-0,465	-0,286
51,042	89,484	-0,291	-0,229
52,057	279,697	-0,238	-0,300
53,071	16,210	-0,376	-0,208
54,086	37,412	-0,364	-0,227
55,101	77,987	-0,349	-0,262
56,115	109,700	-0,266	-0,224
57,130	90,210	-0,317	-0,249
58,144	24,009	-0,429	-0,249
59,159	28,043	-0,412	-0,244
60,174	216,379	-0,295	-0,331
61,188	29,286	-0,276	-0,165
62,203	77,289	-0,301	-0,225
63,217	273,047	-0,281	-0,350
64,232	45,580	-0,362	-0,235
65,247	0,895	-0,371	-0,186
66,261	-14,675	-0,428	-0,193
67,276	-29,780	-0,242	-0,097
68,290	217,902	-0,190	-0,213
69,305	3,536	-0,307	-0,157
70,320	20,631	-0,269	-0,153
71,334	78,932	-0,288	-0,216
72,349	217,086	-0,217	-0,243
73,363	9,106	-0,296	-0,157
74,378	127,717	-0,347	-0,310
75,393	124,004	-0,284	-0,251
76,407	159,036	-0,254	-0,249
77,422	-86,624	-0,372	-0,080
78,436	-38,258	-0,225	-0,083
79,451	68,597	-0,316	-0,228
80,466	35,534	-0,312	-0,192
81,480	259,235	-0,285	-0,346
82,495	-37,420	-0,252	-0,094
83,509	337,418	-0,204	-0,280
84,524	2,045	-0,270	-0,136
85,539	65,899	-0,285	-0,203
86,553	111,754	-0,224	-0,190
87,568	87,556	-0,352	-0,273
88,582	31,594	-0,317	-0,191
89,597	800,000	-0,125	-0,279
90,611	-158,921	-0,395	-0,015
91,626	84,051	-0,168	-0,129
92,641	-52,200	-0,219	-0,071
93,655	108,144	-0,331	-0,277
94,670	-85,151	-0,293	-0,064
95,684	6,938	-0,265	-0,138
96,699	-27,316	-0,300	-0,122
97,714	62,181	-0,295	-0,206
98,728	-31,900	-0,318	-0,125
99,743	49,839	-0,169	-0,112
100,757	8,469	-0,277	-0,145
101,772	329,915	-0,255	-0,346
102,787	102,360	-0,313	-0,257
103,801	128,689	-0,432	-0,387
104,816	121,547	-0,301	-0,263
105,830	89,258	-0,245	-0,192
106,845	-29,084	-0,326	-0,131
107,860	320,680	-0,277	-0,370
108,874	-34,903	-0,290	-0,110
109,889	95,931	-0,291	-0,233
110,903	215,354	-0,246	-0,274
111,918	74,143	-0,258	-0,189
112,933	290,553	-0,145	-0,185
113,947	92,238	-0,206	-0,163
114,962	116,834	-0,215	-0,185
115,976	349,179	-0,144	-0,200
116,991	-62,300	-0,322	-0,093
118,006	-35,366	-0,272	-0,103
119,020	37,060	-0,178	-0,110
120,035	121,017	-0,273	-0,238
121,049	-22,111	-0,231	-0,098
122,064	37,094	-0,250	-0,154
123,079	222,308	-0,160	-0,181
124,093	192,165	-0,223	-0,236
125,108	527,407	-0,164	-0,272
126,122	-200,000	-0,053	-0,211
127,137	-166,853	-0,193	-0,005
128,151	26,252	-0,200	-0,116
129,166	93,885	-0,163	-0,130
130,181	-24,125	-0,293	-0,122
131,195	322,404	-0,166	-0,222
132,210	252,152	-0,235	-0,281
133,224	-61,197	-0,160	-0,047
134,239	23,535	-0,203	-0,117
135,254	140,620	-0,267	-0,246
136,268	-56,139	-0,269	-0,083
137,283	-86,351	-0,318	-0,068
138,297	116,014	-0,360	-0,308
139,312	314,915	-0,232	-0,306
140,327	501,659	-0,222	-0,360
141,341	350,905	-0,222	-0,308
142,356	117,143	-0,151	-0,130
143,370	176,403	-0,263	-0,268
144,385	146,942	-0,195	-0,183
145,400	154,167	-0,344	-0,330
146,414	164,773	-0,289	-0,285
147,429	73,385	-0,259	-0,189
148,443	204,147	-0,223	-0,242
149,458	-1,312	-0,159	0,078
150,473	-169,922	-0,174	0,004
151,487	113,443	-0,234	-0,199
152,502	293,928	-0,191	-0,244
153,516	65,364	-0,202	-0,143
154,531	140,216	-0,194	-0,178
155,546	86,260	-0,320	-0,246
156,560	-66,684	-0,226	-0,062
157,575	-54,994	-0,249	-0,078
158,589	109,059	-0,137	-0,114
159,604	65,074	-0,311	-0,219
160,619	164,047	-0,264	-0,259
161,633	149,055	-0,255	-0,240
162,648	38,806	-0,224	-0,139
163,662	212,900	-0,189	-0,208
164,677	-27,502	-0,242	-0,098
165,692	-200,000	-0,082	-0,258
166,706	-109,689	-0,268	0,039
167,721	-27,356	-0,277	-0,112
168,735	338,849	-0,230	-0,313
169,750	48,936	-0,341	-0,223
170,764	-1,504	-0,260	-0,127
171,779	313,448	-0,201	-0,264
172,794	12,936	-0,185	-0,099
173,808	295,797	-0,201	-0,257
174,823	143,654	-0,187	-0,174
175,837	186,148	-0,267	-0,277
176,852	-36,929	-0,203	-0,075
177,867	624,564	-0,126	-0,222
178,881	616,742	-0,137	-0,240
179,896	207,930	-0,190	-0,207
180,910	-6,913	-0,338	-0,159
181,925	96,805	-0,193	-0,154
182,940	177,709	-0,271	-0,276
183,954	-56,420	-0,240	-0,074
184,969	32,528	-0,332	-0,199
185,983	-39,134	-0,319	-0,116
186,998	81,375	-0,212	-0,159
188,013	279,843	-0,213	-0,265
189,027	269,680	-0,226	-0,277
190,042	38,384	-0,230	-0,143
191,056	206,659	-0,200	-0,217
192,071	313,107	-0,081	-0,106
193,086	57,328	-0,190	-0,129
194,100	800,000	-0,030	-0,083
195,115	263,142	-0,191	-0,232
196,129	-66,521	-0,284	-0,078
197,144	48,819	-0,192	-0,125
198,159	344,661	-0,195	-0,266
199,173	116,782	-0,307	-0,262
200,188	78,905	-0,118	-0,088
201,202	-75,046	-0,272	-0,067
202,217	-200,000	-0,077	-0,295
203,232	800,000	-0,153	-0,297
204,246	800,000	-0,124	-0,334
205,261	95,723	-0,219	-0,173
206,275	-44,722	-0,363	-0,125
207,290	26,271	-0,192	-0,111
208,304	60,105	-0,151	-0,103
209,319	55,595	-0,138	-0,093
210,334	-110,646	-0,290	-0,041
211,348	-33,229	-0,143	-0,055
212,363	56,597	-0,280	-0,189
213,377	-15,188	-0,271	-0,120
214,392	283,094	-0,055	-0,069
215,407	-72,916	-0,072	-0,018
216,421	228,542	-0,176	-0,200
217,436	146,806	-0,192	-0,179
218,450	126,370	-0,253	-0,223
219,465	139,775	-0,150	-0,137
220,480	-3,260	-0,249	-0,120
221,494	-64,347	-0,203	-0,057
222,509	45,222	-0,266	-0,170
223,523	800,000	-0,071	-0,155
224,538	-126,844	-0,256	-0,026
225,553	150,204	-0,327	-0,308
226,567	-6,446	-0,184	-0,087
227,582	-13,600	-0,307	-0,137
228,596	72,091	-0,145	-0,105
229,611	-23,730	-0,261	-0,108
230,626	-113,197	-0,196	-0,026
231,640	87,379	-0,111	-0,085
232,655	342,838	-0,167	-0,227
233,669	35,108	-0,274	-0,166
234,684	266,668	-0,169	-0,205
235,699	-200,000	-0,033	-0,131
236,713	61,810	-0,187	-0,129
237,728	98,176	-0,083	-0,067
238,742	-18,804	-0,197	-0,085
239,757	475,792	-0,151	-0,237
240,772	-12,294	-0,337	-0,152
241,786	-0,311	-0,252	-0,124
242,801	-37,008	-0,246	-0,091
243,815	-48,832	-0,154	-0,051
244,830	-200,000	-0,032	-0,206
245,844	144,239	-0,248	-0,229
246,859	-200,000	-0,059	-0,183
247,874	104,644	-0,232	-0,189
248,888	-22,966	-0,214	-0,089
249,903	-155,587	-0,177	-0,008
250,917	-81,462	-0,157	-0,036
251,932	101,730	-0,077	0,062
252,947	373,178	-0,066	-0,093
253,961	17,425	-0,169	-0,093
254,976	438,630	-0,181	-0,274
255,990	800,000	-0,110	-0,283
257,005	41,511	-0,168	-0,105
258,020	-200,000	-0,046	-0,180
259,034	87,595	-0,198	-0,152
260,049	-36,678	-0,226	-0,083
261,063	-64,845	-0,209	-0,058
262,078	81,094	-0,101	-0,075
263,093	63,456	-0,219	-0,152
264,107	56,096	-0,252	-0,169
265,122	-98,118	-0,180	0,032
266,136	227,631	-0,171	-0,193
267,151	140,476	-0,160	-0,146
268,166	503,075	-0,149	-0,239
269,180	221,996	-0,170	-0,190
270,195	53,610	-0,259	-0,172
271,209	115,398	-0,084	-0,071
272,224	173,747	-0,186	-0,186
273,239	96,430	-0,104	-0,082
274,253	124,899	-0,084	-0,073
275,268	800,000	-0,033	-0,101
276,282	-19,814	-0,152	-0,065
277,297	-58,615	-0,212	-0,063
278,312	-200,000	-0,051	-0,190
279,326	357,409	-0,148	-0,205
280,341	800,000	0,041	-0,083
281,355	394,447	-0,178	-0,258
282,370	202,031	-0,173	-0,184
283,384	5,918	-0,255	-0,130
284,399	20,624	-0,161	-0,090
285,414	800,000	-0,103	-0,243
286,428	206,752	-0,101	0,108
287,443	-96,825	-0,223	-0,040
288,457	-82,093	-0,207	0,046
289,472	-75,858	-0,205	-0,050
290,487	213,082	-0,117	-0,128
291,501	12,094	-0,203	-0,107
292,516	187,101	-0,224	-0,230
293,530	-99,358	-0,153	0,026
294,545	88,012	-0,091	-0,069
295,560	306,529	-0,106	-0,137
296,574	77,796	-0,112	-0,082
297,589	41,784	-0,185	-0,116
298,603	76,865	-0,132	-0,097
299,618	155,165	-0,177	-0,168
300,633	88,322	-0,151	-0,116
301,647	88,028	-0,134	-0,103
302,662	800,000	-0,020	-0,053
303,676	-200,000	-0,017	-0,103
304,691	800,000	-0,076	-0,161
305,706	179,654	-0,145	-0,146
306,720	-200,000	-0,044	-0,152
307,735	134,072	-0,158	-0,141
308,749	-16,102	-0,110	-0,048
309,764	190,042	-0,084	-0,087
310,779	-21,372	-0,116	-0,049
311,793	-87,424	-0,133	-0,028
312,808	50,484	-0,199	-0,129
313,822	386,916	-0,155	-0,221
314,837	-51,337	-0,148	-0,047
315,852	78,198	-0,164	-0,121
316,866	-127,199	-0,117	0,012
317,881	323,413	-0,059	-0,078
318,895	74,682	-0,172	-0,124
319,910	507,911	-0,109	-0,175
320,925	8,583	-0,195	-0,101
321,939	461,043	-0,190	-0,293
322,954	800,000	-0,084	-0,188
323,968	460,999	-0,034	-0,053
324,983	-104,022	-0,154	-0,024
325,997	298,096	-0,120	-0,152
327,012	800,000	-0,115	-0,238
328,027	152,342	-0,107	-0,100
329,041	-96,677	-0,145	0,026
330,056	154,717	-0,138	-0,130
331,070	-35,982	-0,092	-0,034
332,085	-117,646	-0,196	-0,024
333,100	253,853	-0,173	-0,204
334,114	-142,443	-0,191	0,013
335,129	440,171	-0,069	-0,103
336,143	800,000	-0,082	-0,168
337,158	-124,208	-0,067	0,007
338,173	179,013	-0,008	-0,008
339,187	-101,358	-0,100	-0,017
340,202	323,435	-0,136	-0,179
341,216	203,653	-0,094	-0,100
342,231	-105,620	-0,100	-0,015
343,246	38,997	-0,136	-0,084
344,260	199,051	-0,102	-0,107
345,275	-100,589	-0,073	-0,012
346,289	-39,487	-0,040	0,014
347,304	-64,977	-0,158	-0,044
348,319	-58,868	-0,173	-0,051
349,333	-68,045	-0,205	-0,054
350,348	190,064	-0,124	-0,128
351,362	-200,000	-0,013	-0,174
352,377	-78,053	-0,156	0,037
353,392	800,000	-0,039	-0,115
354,406	268,598	-0,151	-0,182
355,421	209,264	1313,438	1413,136
356,435	161,051	1474,012	1413,631
