DTS Sentinel unit serial number:	SN410029Multiplexer serial number:	ORYXHardware model number:	OX2-SRSoftware version number:	ORYX F/W v4,00 Oryx Data Collector v3.7.2.0data status	okinstallation	B3 Nyhavnadifferential loss correction	single-endedforward channel	channel 1reverse channel	N/Adate	2023/11/30time	22:52:30forward acquisition time	300,00reverse acquisition time	0,00gamma	499,1914k internal	0,3210k external	0,3210temperature offset calibration	1,0000default loss term (dB/km)	0,3820temperature slope calibration	1,0000multiplexer offset coefficient	1,0000multiplexer slope coefficient	1,0000fibre end	0,00T internal ref (°C)	9,88T ext. ref 1 (°C)	-5,22T ext. ref 2 (°C)	-5,36length (m)	temperature (°C)	Stokes	anti-Stokes-744,400	39,926	-0,256	-0,167
-743,385	-200,000	-0,020	0,210
-742,371	800,000	-0,033	-0,081
-741,356	-200,000	0,015	0,291
-740,342	-10,205	-0,141	-0,067
-739,327	-200,000	-0,003	0,318
-738,312	800,000	-0,131	-0,326
-737,298	800,000	-0,064	0,196
-736,283	127,376	-0,198	-0,183
-735,269	400,955	0,069	0,106
-734,254	409,038	-0,223	-0,343
-733,239	235,786	-0,275	0,330
-732,225	-75,557	-0,185	-0,047
-731,210	-109,281	0,030	-0,005
-730,196	-51,473	0,021	-0,007
-729,181	751,391	-0,021	0,042
-728,167	-200,000	0,014	-0,063
-727,152	144,616	0,085	0,082
-726,137	21,828	-0,041	0,024
-725,123	26,206	-0,089	-0,054
-724,108	24,747	0,025	-0,015
-723,094	-78,392	-0,179	-0,044
-722,079	-51,750	-0,095	0,032
-721,064	134,389	-0,085	-0,080
-720,050	38,021	-0,061	0,039
-719,035	800,000	-0,023	-0,062
-718,021	-200,000	-0,036	-0,166
-717,006	800,000	-0,045	-0,108
-715,991	-61,131	-0,217	0,066
-714,977	-166,725	-0,068	-0,002
-713,962	-200,000	-0,017	-0,164
-712,948	4,885	-0,044	-0,023
-711,933	255,144	0,062	-0,078
-710,918	133,945	-0,141	0,132
-709,904	800,000	-0,047	-0,140
-708,889	92,669	-0,099	-0,081
-707,875	-200,000	-0,015	-0,078
-706,860	-110,971	0,154	0,023
-705,845	-117,444	-0,078	0,010
-704,831	-39,816	0,100	0,038
-703,816	374,061	-0,021	0,031
-702,802	-101,107	-0,238	-0,042
-701,787	17,048	-0,080	-0,046
-700,772	-79,944	-0,042	0,010
-699,758	800,000	-0,017	-0,052
-698,743	-200,000	0,012	0,082
-697,729	-27,086	0,067	-0,028
-696,714	-154,796	-0,072	0,003
-695,699	37,131	0,124	0,079
-694,685	-49,684	-0,119	-0,041
-693,670	-109,391	-0,053	0,008
-692,656	338,809	-0,074	-0,105
-691,641	-200,000	-0,007	-0,057
-690,627	-200,000	0,007	0,099
-689,612	800,000	-0,005	-0,012
-688,597	201,329	-0,059	0,066
-687,583	-147,594	-0,205	-0,012
-686,568	800,000	0,120	-0,252
-685,554	-86,761	-0,010	-0,002
-684,539	-200,000	0,012	0,050
-683,524	-200,000	-0,016	0,135
-682,510	-200,000	-0,016	0,066
-681,495	-200,000	-0,006	-0,092
-680,481	-173,092	-0,127	-0,003
-679,466	800,000	0,021	0,042
-678,451	-35,377	0,122	-0,048
-677,437	-200,000	0,003	-0,025
-676,422	-97,204	-0,084	-0,016
-675,408	725,639	0,047	0,092
-674,393	800,000	0,015	-0,038
-673,378	-200,000	-0,024	-0,086
-672,364	-13,899	-0,182	-0,085
-671,349	-124,967	-0,057	0,006
-670,335	306,506	0,022	-0,030
-669,320	234,854	-0,043	0,051
-668,305	453,877	0,087	-0,139
-667,291	800,000	-0,043	-0,101
-666,276	-93,864	-0,116	0,023
-665,262	129,771	-0,136	-0,126
-664,247	307,104	0,078	-0,105
-663,232	800,000	-0,056	-0,137
-662,218	-25,651	0,088	0,038
-661,203	407,557	-0,079	0,122
-660,189	141,843	0,069	-0,066
-659,174	800,000	-0,057	-0,131
-658,159	-79,609	0,056	-0,014
-657,145	-200,000	0,006	-0,160
-656,130	23,305	-0,023	0,014
-655,116	800,000	0,027	-0,079
-654,101	484,341	-0,074	-0,122
-653,086	-130,497	-0,099	-0,010
-652,072	-200,000	0,008	0,068
-651,057	32,559	-0,161	-0,100
-650,043	324,856	-0,058	-0,080
-649,028	-200,000	0,007	-0,086
-648,014	77,249	-0,045	0,035
-646,999	-200,000	0,012	0,042
-645,984	-124,844	0,020	-0,002
-644,970	130,581	-0,061	-0,057
-643,955	-200,000	-0,010	-0,046
-642,941	235,724	-0,100	-0,120
-641,926	-200,000	-0,015	0,073
-640,911	146,020	0,082	0,079
-639,897	-200,000	-0,020	0,071
-638,882	-84,043	-0,063	-0,014
-637,868	-124,553	-0,119	-0,013
-636,853	546,749	0,055	-0,096
-635,838	145,589	0,052	-0,050
-634,824	330,819	0,053	-0,074
-633,809	404,394	0,013	-0,020
-632,795	319,459	-0,073	-0,100
-631,780	370,335	0,037	0,054
-630,765	219,346	-0,078	0,090
-629,751	310,573	0,040	0,054
-628,736	-110,672	-0,087	0,013
-627,722	-70,789	-0,077	0,021
-626,707	118,977	-0,070	-0,063
-625,692	114,806	0,065	0,058
-624,678	-199,419	-0,066	0,000
-623,663	-102,898	-0,094	-0,016
-622,649	-200,000	-0,016	-0,057
-621,634	508,302	-0,017	-0,029
-620,619	-200,000	0,003	0,044
-619,605	-147,350	0,125	-0,008
-618,590	800,000	0,040	0,095
-617,576	-0,932	0,066	-0,034
-616,561	-157,029	0,048	0,002
-615,546	800,000	-0,096	-0,192
-614,532	194,714	-0,147	-0,161
-613,517	342,322	-0,076	-0,108
-612,503	-106,752	0,091	-0,014
-611,488	119,142	-0,031	-0,027
-610,474	-40,179	-0,042	-0,016
-609,459	-200,000	0,002	0,136
-608,444	-109,945	0,005	0,001
-607,430	-56,341	-0,099	0,032
-606,415	-111,768	0,118	0,017
-605,401	39,229	0,033	0,021
-604,386	800,000	-0,019	-0,043
-603,371	68,462	0,084	0,062
-602,357	-158,996	-0,030	0,001
-601,342	-59,290	-0,180	0,055
-600,328	-48,209	-0,075	-0,026
-599,313	-200,000	-0,008	-0,047
-598,298	204,719	0,082	-0,092
-597,284	91,572	-0,051	0,041
-596,269	-36,078	-0,122	-0,047
-595,255	499,941	0,088	-0,146
-594,240	800,000	0,036	-0,098
-593,225	-122,264	-0,189	0,022
-592,211	179,820	-0,043	-0,046
-591,196	800,000	0,040	-0,112
-590,182	13,359	-0,077	-0,043
-589,167	-200,000	-0,068	0,000
-588,152	800,000	0,007	0,021
-587,138	83,118	0,103	-0,081
-586,123	449,042	0,042	-0,067
-585,109	-119,105	-0,164	-0,020
-584,094	-34,270	-0,052	0,020
-583,079	205,197	0,064	0,072
-582,065	-200,000	-0,004	0,027
-581,050	-200,000	-0,001	0,125
-580,036	-200,000	0,040	-0,166
-579,021	38,011	0,066	0,042
-578,006	597,476	-0,012	-0,022
-576,992	-200,000	-0,009	0,086
-575,977	-54,877	0,062	0,020
-574,963	70,690	0,008	-0,006
-573,948	-200,000	0,020	-0,065
-572,934	777,205	-0,051	-0,100
-571,919	800,000	0,031	-0,064
-570,904	-81,463	-0,032	0,007
-569,890	175,025	0,099	-0,103
-568,875	275,878	0,035	-0,045
-567,861	53,569	0,057	0,039
-566,846	-123,591	-0,083	0,009
-565,831	139,252	0,048	0,045
-564,817	-200,000	-0,021	-0,085
-563,802	-200,000	0,021	-0,212
-562,788	405,249	0,076	0,116
-561,773	800,000	0,026	0,059
-560,758	330,383	0,053	-0,074
-559,744	-137,225	-0,175	-0,014
-558,729	-55,976	0,036	-0,012
-557,715	-129,333	-0,027	-0,003
-556,700	651,915	0,036	-0,066
-555,685	800,000	-0,032	-0,085
-554,671	64,627	0,046	0,033
-553,656	27,032	0,057	-0,034
-552,642	-200,000	0,007	0,107
-551,627	-200,000	-0,036	0,132
-550,612	-77,930	-0,243	0,060
-549,598	-200,000	-0,012	-0,184
-548,583	-200,000	-0,052	-0,229
-547,569	-19,898	-0,063	0,028
-546,554	-127,641	0,072	-0,007
-545,539	323,218	-0,002	-0,003
-544,525	-113,584	-0,108	0,015
-543,510	126,270	-0,051	-0,046
-542,496	-125,116	-0,025	0,003
-541,481	576,193	0,040	-0,071
-540,466	21,022	-0,183	0,106
-539,452	-131,569	-0,118	-0,011
-538,437	800,000	-0,033	0,069
-537,423	352,670	-0,070	0,101
-536,408	-85,819	-0,019	-0,004
-535,393	-200,000	-0,011	0,058
-534,379	-132,638	-0,058	-0,005
-533,364	36,471	-0,125	0,079
-532,350	-52,298	0,084	0,028
-531,335	-200,000	0,007	-0,099
-530,321	140,606	-0,045	0,043
-529,306	193,354	0,060	-0,065
-528,291	800,000	-0,051	0,159
-527,277	-111,790	-0,056	0,008
-526,262	32,183	-0,092	-0,057
-525,248	-14,405	-0,129	-0,060
-524,233	690,752	0,044	0,084
-523,218	-49,683	0,085	-0,029
-522,204	-200,000	-0,027	-0,132
-521,189	-200,000	-0,032	-0,215
-520,175	800,000	-0,052	-0,122
-519,160	74,340	-0,053	0,040
-518,145	-125,806	0,142	0,015
-517,131	-200,000	-0,001	-0,061
-516,116	-84,340	0,161	-0,036
-515,102	-37,951	-0,073	0,028
-514,087	296,121	0,071	0,094
-513,072	-120,043	-0,040	-0,005
-512,058	-52,517	0,085	-0,028
-511,043	4,165	-0,061	0,032
-510,029	10,329	0,030	0,016
-509,014	-163,032	0,126	-0,004
-507,999	-200,000	-0,019	0,089
-506,985	-200,000	-0,001	0,066
-505,970	195,042	0,077	-0,084
-504,956	-92,574	-0,165	-0,033
-503,941	4,593	-0,162	-0,085
-502,926	-200,000	-0,011	0,043
-501,912	-45,557	0,016	0,006
-500,897	84,196	0,052	0,041
-499,883	87,619	-0,109	0,087
-498,868	-200,000	0,022	-0,150
-497,853	-68,160	0,036	-0,010
-496,839	-200,000	-0,008	0,077
-495,824	-90,299	-0,054	-0,011
-494,810	-200,000	0,010	0,153
-493,795	-200,000	-0,015	-0,106
-492,781	-144,249	0,070	-0,005
-491,766	-34,612	-0,071	-0,028
-490,751	-107,880	0,105	-0,016
-489,737	27,950	0,038	0,023
-488,722	-63,933	0,235	-0,069
-487,708	190,146	0,073	0,079
-486,693	800,000	-0,037	0,076
-485,678	244,379	0,064	-0,077
-484,664	-200,000	-0,000	-0,028
-483,649	-89,537	-0,076	0,016
-482,635	-200,000	0,026	-0,158
-481,620	-200,000	0,015	-0,102
-480,605	660,241	0,079	0,147
-479,591	800,000	-0,022	0,057
-478,576	800,000	-0,046	-0,140
-477,562	-108,777	0,047	-0,007
-476,547	207,843	-0,112	0,125
-475,532	84,146	-0,089	0,069
-474,518	765,797	0,034	0,066
-473,503	-200,000	0,002	0,028
-472,489	359,821	0,086	0,124
-471,474	-169,246	0,036	-0,001
-470,459	-116,010	0,120	-0,016
-469,445	53,699	-0,136	0,094
-468,430	-200,000	0,103	0,000
-467,416	576,745	-0,033	-0,058
-466,401	-50,750	0,112	0,038
-465,386	-79,035	0,093	0,022
-464,372	54,377	0,080	-0,055
-463,357	171,652	-0,043	0,044
-462,343	281,860	0,064	-0,083
-461,328	800,000	-0,012	0,034
-460,313	106,773	0,053	-0,045
-459,299	-200,000	0,010	0,152
-458,284	-200,000	0,011	0,146
-457,270	-200,000	-0,010	-0,097
-456,255	800,000	0,023	-0,070
-455,241	84,281	-0,095	-0,075
-454,226	-200,000	0,010	-0,040
-453,211	-40,253	0,077	0,029
-452,197	800,000	-0,066	-0,134
-451,182	-200,000	0,013	-0,081
-450,168	80,200	0,040	-0,031
-449,153	326,721	-0,054	-0,074
-448,138	420,258	-0,091	0,140
-447,124	-117,690	-0,167	0,021
-446,109	800,000	-0,022	-0,050
-445,095	421,951	0,103	0,159
-444,080	-200,000	-0,022	0,099
-443,065	415,342	-0,033	0,050
-442,051	125,302	-0,033	0,030
-441,036	-127,435	-0,170	0,018
-440,022	800,000	0,037	0,106
-439,007	-22,618	0,027	0,012
-437,992	258,329	0,049	-0,061
-436,978	140,503	0,116	0,110
-435,963	126,309	-0,088	-0,080
-434,949	-200,000	0,038	-0,183
-433,934	-87,512	-0,161	-0,035
-432,919	-200,000	-0,000	-0,068
-431,905	261,180	0,015	0,018
-430,890	0,400	0,010	0,005
-429,876	-137,447	-0,046	-0,004
-428,861	-91,832	0,084	0,017
-427,846	58,004	0,082	0,057
-426,832	-148,473	-0,125	-0,007
-425,817	800,000	-0,040	-0,084
-424,803	-200,000	0,011	-0,091
-423,788	214,464	0,035	-0,040
-422,773	676,572	0,066	0,123
-421,759	78,525	0,125	-0,095
-420,744	197,499	0,049	-0,053
-419,730	446,445	-0,008	-0,012
-418,715	724,188	-0,033	-0,063
-417,701	-26,320	0,065	-0,027
-416,686	-200,000	0,013	0,060
-415,671	-200,000	-0,004	-0,175
-414,657	800,000	-0,052	-0,115
-413,642	800,000	-0,014	-0,042
-412,628	-147,853	-0,062	-0,004
-411,613	-200,000	0,016	-0,104
-410,598	-200,000	-0,016	-0,122
-409,584	26,266	-0,058	-0,035
-408,569	14,592	0,082	0,046
-407,555	224,421	-0,064	-0,074
-406,540	8,681	-0,089	0,048
-405,525	646,610	-0,032	-0,059
-404,511	-200,000	-0,010	-0,098
-403,496	-104,454	-0,052	-0,009
-402,482	-9,672	0,083	0,039
-401,467	800,000	-0,022	-0,045
-400,452	449,847	0,094	0,149
-399,438	-200,000	-0,039	0,143
-398,423	-33,772	0,131	-0,051
-397,409	160,364	-0,077	-0,077
-396,394	-85,524	-0,064	0,014
-395,379	38,091	0,065	-0,041
-394,365	628,245	-0,027	0,050
-393,350	38,294	0,084	0,054
-392,336	-66,747	-0,104	-0,029
-391,321	-88,578	-0,097	0,020
-390,306	-200,000	0,026	-0,150
-389,292	227,434	-0,119	-0,138
-388,277	420,230	-0,042	-0,065
-387,263	-45,670	0,088	0,031
-386,248	162,720	0,039	-0,039
-385,233	-60,910	0,074	-0,022
-384,219	204,603	0,019	0,021
-383,204	606,082	-0,078	-0,140
-382,190	163,372	-0,098	-0,098
-381,175	-109,140	-0,121	-0,018
-380,160	114,210	0,126	0,110
-379,146	170,750	0,063	0,065
-378,131	-200,000	0,016	0,097
-377,117	129,126	0,058	0,053
-376,102	800,000	0,039	0,096
-375,088	38,962	-0,155	-0,099
-374,073	-114,148	0,034	-0,005
-373,058	317,744	0,037	0,050
-372,044	-73,317	0,123	0,032
-371,029	-177,014	0,045	0,001
-370,015	375,461	-0,098	0,143
-369,000	800,000	0,091	0,217
-367,985	800,000	0,030	0,062
-366,971	514,465	-0,039	-0,066
-365,956	-200,000	0,061	-0,200
-364,942	574,923	0,068	0,119
-363,927	-69,772	-0,113	-0,031
-362,912	-175,684	0,133	0,003
-361,898	237,314	-0,080	-0,095
-360,883	-200,000	0,030	-0,129
-359,869	-9,944	-0,057	0,027
-358,854	55,641	0,103	0,071
-357,839	-10,454	-0,094	0,044
-356,825	-200,000	0,038	0,152
-355,810	214,169	0,044	0,049
-354,796	-200,000	-0,025	0,109
-353,781	800,000	-0,027	-0,083
-352,766	800,000	0,023	0,066
-351,752	800,000	0,064	-0,130
-350,737	-107,779	0,109	0,017
-349,723	-55,538	-0,014	0,004
-348,708	189,593	-0,115	0,123
-347,693	-150,417	0,089	-0,005
-346,679	-200,000	-0,002	-0,044
-345,664	-140,110	-0,090	0,007
-344,650	-200,000	0,002	0,052
-343,635	-45,160	0,048	0,017
-342,620	-200,000	0,033	0,150
-341,606	17,206	0,082	0,046
-340,591	705,699	-0,034	-0,064
-339,577	56,496	0,061	-0,042
-338,562	228,770	-0,043	0,050
-337,548	-200,000	0,027	0,090
-336,533	269,535	0,067	0,084
-335,518	71,028	0,044	0,033
-334,504	-98,000	0,081	-0,015
-333,489	1,998	0,057	-0,029
-332,475	243,930	-0,057	-0,068
-331,460	-200,000	0,005	0,058
-330,445	185,859	0,104	0,111
-329,431	-63,962	0,172	0,050
-328,416	537,542	0,044	0,074
-327,402	-73,851	-0,167	0,043
-326,387	800,000	0,020	0,044
-325,372	800,000	-0,009	0,019
-324,358	31,018	0,071	-0,043
-323,343	-200,000	-0,017	-0,134
-322,329	-200,000	-0,003	-0,064
-321,314	-46,500	-0,047	0,016
-320,299	310,630	0,068	0,091
-319,285	216,073	0,121	0,137
-318,270	-200,000	-0,009	-0,039
-317,256	3,710	-0,171	-0,089
-316,241	133,759	0,067	-0,062
-315,226	-27,753	0,046	-0,019
-314,212	131,251	0,074	-0,068
-313,197	-110,964	0,094	-0,014
-312,183	35,491	-0,113	0,071
-311,168	289,846	-0,018	-0,024
-310,153	-165,369	-0,070	-0,002
-309,139	800,000	0,002	0,006
-308,124	-200,000	-0,001	0,203
-307,110	-200,000	-0,013	0,090
-306,095	46,857	-0,109	0,072
-305,080	-81,052	0,047	-0,011
-304,066	-200,000	0,022	-0,183
-303,051	388,283	-0,051	-0,075
-302,037	-200,000	-0,013	-0,047
-301,022	-109,073	0,099	0,015
-300,008	279,141	-0,067	-0,085
-298,993	171,431	0,011	0,011
-297,978	367,024	-0,061	0,088
-296,964	-200,000	0,000	-0,021
-295,949	-200,000	0,046	-0,208
-294,935	-111,474	-0,049	-0,007
-293,920	12,695	0,037	-0,020
-292,905	61,544	0,046	0,033
-291,891	2,364	-0,054	-0,028
-290,876	139,934	0,080	0,075
-289,862	-6,521	-0,024	-0,011
-288,847	800,000	0,039	-0,084
-287,832	-142,132	0,073	-0,005
-286,818	71,754	0,067	-0,050
-285,803	275,178	0,068	0,086
-284,789	-200,000	-0,017	0,181
-283,774	650,404	-0,079	0,145
-282,759	501,399	-0,090	-0,148
-281,745	-181,645	-0,106	0,001
-280,730	-77,127	-0,057	-0,014
-279,716	338,005	-0,027	0,038
-278,701	221,055	-0,030	0,034
-277,686	800,000	0,056	0,123
-276,672	-7,540	0,068	0,033
-275,657	-200,000	-0,002	0,055
-274,643	309,166	0,049	-0,065
-273,628	662,952	0,051	-0,095
-272,613	53,404	0,059	0,040
-271,599	455,845	-0,063	0,100
-270,584	399,088	0,093	0,139
-269,570	-200,000	-0,008	0,093
-268,555	-200,000	0,003	0,125
-267,540	422,819	0,050	0,076
-266,526	31,004	-0,133	-0,081
-265,511	-115,522	-0,101	0,013
-264,497	-74,099	-0,057	0,015
-263,482	800,000	-0,034	0,067
-262,467	282,693	0,051	0,065
-261,453	800,000	-0,023	-0,049
-260,438	121,328	-0,062	0,055
-259,424	47,619	0,050	-0,033
-258,409	624,867	0,025	-0,045
-257,395	433,270	0,082	0,127
-256,380	125,262	0,133	0,120
-255,365	-200,000	0,006	0,126
-254,351	50,478	0,073	0,049
-253,336	800,000	-0,025	0,059
-252,322	-26,336	-0,027	-0,011
-251,307	800,000	-0,055	-0,116
-250,292	58,809	0,106	-0,074
-249,278	800,000	0,083	0,253
-248,263	-50,331	0,091	0,030
-247,249	214,674	0,122	0,137
-246,234	800,000	-0,079	-0,180
-245,219	-48,818	-0,210	-0,071
-244,205	172,531	0,007	-0,007
-243,190	-200,000	0,022	0,169
-242,176	-200,000	0,000	0,064
-241,161	360,132	0,097	0,139
-240,146	539,307	-0,027	-0,045
-239,132	98,606	-0,085	0,069
-238,117	160,716	-0,074	-0,074
-237,103	-200,000	-0,021	-0,074
-236,088	-200,000	0,001	0,031
-235,073	-200,000	0,007	0,132
-234,059	-96,349	-0,062	-0,012
-233,044	522,168	0,084	0,141
-232,030	-77,669	0,188	-0,046
-231,015	-200,000	0,005	-0,094
-230,000	-139,655	-0,045	0,003
-228,986	-46,454	0,080	0,028
-227,971	-200,000	-0,011	0,074
-226,957	-200,000	0,009	-0,054
-225,942	-200,000	-0,016	0,057
-224,927	128,940	-0,024	0,021
-223,913	236,945	0,083	0,098
-222,898	-200,000	0,003	-0,179
-221,884	-33,964	-0,112	0,044
-220,869	-86,406	0,083	-0,018
-219,855	-200,000	-0,000	0,087
-218,840	800,000	0,053	-0,112
-217,825	-164,916	0,098	0,003
-216,811	-154,648	-0,055	-0,003
-215,796	-86,899	-0,181	-0,039
-214,782	753,389	-0,037	-0,072
-213,767	306,030	0,025	-0,033
-212,752	-14,689	-0,081	0,037
-211,738	-93,463	0,123	0,024
-210,723	95,664	0,090	-0,073
-209,709	-200,000	0,008	0,040
-208,694	-200,000	-0,003	-0,065
-207,679	365,519	-0,041	0,059
-206,665	800,000	-0,030	0,066
-205,650	164,327	0,041	-0,041
-204,636	458,259	0,090	0,142
-203,621	83,040	-0,052	-0,040
-202,606	800,000	-0,051	0,130
-201,592	-200,000	0,016	-0,121
-200,577	800,000	-0,044	0,089
-199,563	59,082	0,059	-0,041
-198,548	-200,000	0,004	-0,055
-197,533	-200,000	0,017	0,067
-196,519	561,696	0,045	0,077
-195,504	340,686	0,122	-0,169
-194,490	-200,000	-0,021	-0,198
-193,475	108,139	-0,060	0,051
-192,460	7,894	0,087	-0,046
-191,446	-147,835	0,067	0,004
-190,431	534,962	0,030	0,050
-189,417	-200,000	0,011	0,088
-188,402	31,477	-0,071	0,043
-187,387	-200,000	0,020	-0,098
-186,373	-200,000	0,003	-0,037
-185,358	48,822	-0,133	-0,088
-184,344	-36,149	0,073	0,028
-183,329	-118,757	0,097	0,012
-182,315	-200,000	0,010	-0,034
-181,300	140,948	-0,115	-0,108
-180,285	297,914	-0,058	0,076
-179,271	-193,565	0,135	0,001
-178,256	-200,000	-0,015	0,078
-177,242	-22,638	0,029	0,012
-176,227	-200,000	0,017	0,064
-175,212	100,552	-0,069	-0,057
-174,198	48,070	-0,069	-0,046
-173,183	-200,000	0,011	-0,107
-172,169	800,000	0,024	0,074
-171,154	800,000	-0,037	-0,090
-170,139	-200,000	-0,008	0,036
-169,125	-200,000	0,001	0,096
-168,110	-9,697	-0,048	-0,023
-167,096	57,896	0,054	0,037
-166,081	-200,000	-0,001	0,008
-165,066	19,278	-0,078	-0,044
-164,052	-200,000	0,035	0,141
-163,037	-3,113	0,077	0,038
-162,023	-200,000	-0,008	-0,096
-161,008	440,873	0,045	0,069
-159,993	-200,000	0,006	0,117
-158,979	-143,371	0,093	0,006
-157,964	210,779	-0,034	-0,038
-156,950	202,998	-0,057	-0,063
-155,935	38,384	-0,041	-0,026
-154,920	-167,133	0,159	-0,004
-153,906	-200,000	0,005	0,026
-152,891	-68,357	-0,108	0,030
-151,877	-200,000	0,001	0,024
-150,862	325,444	0,014	-0,019
-149,847	11,749	0,042	-0,023
-148,833	800,000	-0,039	0,121
-147,818	-44,811	-0,148	-0,052
-146,804	30,592	0,120	0,073
-145,789	800,000	0,017	-0,045
-144,775	-64,189	-0,048	0,014
-143,760	679,209	-0,058	-0,107
-142,745	233,361	-0,105	0,122
-141,731	800,000	0,049	0,117
-140,716	800,000	0,009	0,019
-139,702	62,748	-0,139	0,098
-138,687	-34,911	0,105	0,040
-137,672	107,720	0,045	0,038
-136,658	-48,451	-0,099	-0,033
-135,643	278,278	-0,075	0,095
-134,629	800,000	-0,028	-0,068
-133,614	175,876	0,109	0,112
-132,599	800,000	0,026	0,080
-131,585	-200,000	-0,018	0,095
-130,570	100,173	-0,043	0,035
-129,556	800,000	-0,016	-0,036
-128,541	283,474	0,023	0,029
-127,526	29,941	-0,043	0,026
-126,512	-200,000	0,034	0,147
-125,497	-200,000	-0,012	0,064
-124,483	456,353	-0,051	0,081
-123,468	52,500	0,065	-0,044
-122,453	112,331	-0,138	-0,118
-121,439	232,184	0,042	-0,049
-120,424	-73,810	-0,166	-0,042
-119,410	-200,000	0,010	0,039
-118,395	142,457	-0,046	-0,043
-117,380	143,002	-0,099	0,093
-116,366	24,306	-0,129	0,075
-115,351	59,845	-0,023	-0,016
-114,337	800,000	-0,010	0,023
-113,322	-200,000	-0,004	-0,064
-112,307	130,316	0,069	0,062
-111,293	-28,152	0,024	-0,010
-110,278	68,091	0,096	-0,069
-109,264	-1,056	-0,094	0,047
-108,249	-151,387	-0,039	-0,002
-107,234	61,561	-0,074	-0,052
-106,220	7,003	0,113	0,059
-105,205	800,000	0,040	0,094
-104,191	-200,000	0,005	0,132
-103,176	-21,211	-0,098	0,042
-102,162	-200,000	0,046	0,206
-101,147	640,891	-0,033	-0,060
-100,132	-200,000	-0,009	-0,079
-99,118	-200,000	0,016	0,063
-98,103	95,892	-0,071	0,057
-97,089	-130,890	0,070	-0,007
-96,074	595,826	0,007	0,012
-95,059	-200,000	-0,002	0,015
-94,045	-146,359	0,065	0,004
-93,030	172,264	0,042	0,042
-92,016	40,927	-0,020	-0,013
-91,001	-93,140	-0,124	-0,024
-89,986	-52,777	0,070	-0,023
-88,972	-200,000	0,013	0,044
-87,957	104,372	-0,094	0,078
-86,943	162,502	0,072	0,071
-85,928	-45,798	-0,158	0,055
-84,913	-200,000	0,005	0,089
-83,899	394,869	0,069	0,102
-82,884	518,187	0,009	-0,015
-81,870	-85,448	0,033	-0,007
-80,855	-200,000	0,000	0,068
-79,840	-70,402	-0,129	0,034
-78,826	47,875	0,042	0,028
-77,811	179,824	-0,087	0,090
-76,797	-100,010	-0,080	-0,014
-75,782	322,437	0,067	0,090
-74,767	800,000	-0,008	0,024
-73,753	441,484	-0,020	0,031
-72,738	-200,000	0,027	0,121
-71,724	-200,000	0,028	-0,206
-70,709	575,914	0,067	-0,116
-69,694	177,547	-0,084	-0,086
-68,680	-194,898	0,240	-0,001
-67,665	-71,004	0,063	-0,017
-66,651	13,966	-0,066	0,036
-65,636	800,000	0,038	-0,075
-64,622	50,436	-0,055	-0,036
-63,607	-107,501	-0,105	0,016
-62,592	800,000	0,052	-0,150
-61,578	-200,000	-0,002	-0,033
-60,563	15,309	-0,081	-0,045
-59,549	180,782	-0,050	-0,052
-58,534	28,161	-1,956	-1,163
-57,519	374,420	-1,220	-1,759
-56,505	-200,000	-0,393	-4,500
-55,490	454,364	0,858	1,346
-54,476	800,000	5,243	11,891
-53,461	-200,000	21,478	345,149
-52,446	800,000	762,953	2364,943
-51,432	555,817	1666,134	2843,546
-50,417	72,878	1663,295	1224,898
-49,403	17,755	1536,431	860,810
-48,388	11,676	1460,311	788,710
-47,373	19,605	1451,570	822,068
-46,359	15,272	1440,651	795,215
-45,344	10,004	1436,565	767,806
-44,330	9,926	1434,589	766,345
-43,315	9,901	1432,954	765,323
-42,300	9,939	1431,074	764,467
-41,286	9,958	1429,737	763,814
-40,271	9,891	1428,713	762,917
-39,257	9,954	1427,465	762,520
-38,242	9,996	1426,312	762,076
-37,227	9,914	1425,261	761,094
-36,213	9,960	1423,943	760,576
-35,198	9,947	1422,757	759,853
-34,184	10,033	1421,774	759,704
-33,169	9,926	1420,504	758,491
-32,154	9,947	1419,385	757,959
-31,140	9,991	1417,964	757,382
-30,125	10,043	1416,905	757,028
-29,111	9,943	1416,030	756,061
-28,096	9,949	1414,583	755,287
-27,082	9,927	1413,410	754,526
-26,067	9,909	1412,550	753,951
-25,052	9,927	1411,417	753,403
-24,038	9,927	1410,373	752,815
-23,023	9,896	1409,656	752,259
-22,009	9,904	1408,356	751,571
-20,994	9,924	1407,526	751,191
-19,979	9,907	1406,563	750,567
-18,965	9,911	1405,521	750,003
-17,950	9,843	1404,831	749,288
-16,936	9,837	1403,879	748,723
-15,921	9,807	1403,079	748,123
-14,906	9,804	1402,048	747,531
-13,892	9,859	1400,987	747,194
-12,877	9,827	1400,491	746,748
-11,863	9,826	1399,507	746,190
-10,848	9,796	1398,405	745,434
-9,833	9,738	1397,609	744,710
-8,819	9,729	1396,839	744,228
-7,804	9,737	1395,773	743,668
-6,790	9,747	1394,712	743,122
-5,775	9,724	1393,644	742,415
-4,760	9,756	1392,609	741,981
-3,746	9,707	1391,939	741,370
-2,731	9,698	1391,087	740,844
-1,717	9,724	1390,162	740,443
-0,702	9,692	1388,375	739,313
0,313	13,753	1300,372	711,040
1,327	29,778	690,164	413,728
2,342	46,442	119,343	77,953
3,356	3,361	16,493	8,445
4,371	2,851	3,569	1,821
5,386	3,086	0,990	0,506
6,400	800,000	0,235	0,607
7,415	-181,136	-0,249	-0,003
8,429	64,938	-0,187	-0,133
9,444	-35,977	-0,479	-0,182
10,459	92,979	-0,244	-0,194
11,473	168,780	-0,223	-0,224
12,488	-97,046	-0,213	-0,039
13,502	78,825	-0,324	-0,244
14,517	105,570	-0,327	-0,272
15,531	107,144	-0,318	-0,267
16,546	78,435	-0,366	-0,276
17,561	210,038	-0,242	-0,268
18,575	-110,309	-0,210	-0,030
19,590	40,727	-0,390	-0,247
20,604	-182,384	-0,231	0,003
21,619	160,088	-0,374	-0,367
22,634	129,884	-0,507	-0,457
23,648	40,010	-0,398	-0,251
24,663	133,620	-0,460	-0,419
25,677	30,076	-0,322	-0,193
26,692	-24,860	-0,226	-0,094
27,707	59,889	-0,293	-0,203
28,721	211,670	-0,285	-0,316
29,736	168,099	-0,331	-0,332
30,750	255,254	-0,373	-0,451
31,765	75,580	-0,410	-0,304
32,780	10,353	-0,335	-0,179
33,794	125,293	-0,306	-0,272
34,809	-22,957	-0,334	-0,141
35,823	49,310	-0,351	-0,232
36,838	93,911	-0,385	-0,307
37,853	129,582	-0,382	-0,343
38,867	-32,959	-0,334	-0,130
39,882	322,009	-0,301	-0,404
40,896	125,629	-0,258	-0,229
41,911	-48,399	-0,391	-0,132
42,926	-0,008	-0,341	-0,170
43,940	7,220	-0,281	-0,147
44,955	116,427	-0,313	-0,270
45,969	238,888	-0,237	-0,277
46,984	65,813	-0,317	-0,225
47,999	144,291	-0,228	-0,214
49,013	-27,759	-0,483	-0,196
50,028	66,436	-0,372	-0,266
51,042	209,485	-0,165	-0,182
52,057	27,936	-0,391	-0,231
53,071	139,297	-0,328	-0,303
54,086	73,755	-0,331	-0,243
55,101	23,736	-0,217	-0,125
56,115	38,040	-0,404	-0,252
57,130	-12,540	-0,371	-0,169
58,144	204,084	-0,232	-0,252
59,159	140,397	-0,352	-0,326
60,174	9,421	-0,536	-0,284
61,188	44,266	-0,359	-0,231
62,203	65,794	-0,287	-0,204
63,217	307,434	-0,227	-0,297
64,232	5,929	-0,342	-0,177
65,247	16,792	-0,460	-0,255
66,261	50,613	-0,396	-0,262
67,276	81,505	-0,367	-0,278
68,290	-18,794	-0,389	-0,169
69,305	-95,224	-0,398	-0,074
70,320	-32,298	-0,319	-0,124
71,334	36,816	-0,391	-0,242
72,349	-73,960	-0,241	-0,061
73,363	158,656	-0,250	-0,244
74,378	11,017	-0,271	-0,145
75,393	-45,080	-0,368	-0,128
76,407	-95,854	-0,231	-0,043
77,422	64,447	-0,292	-0,206
78,436	-61,956	-0,337	-0,098
79,451	17,522	-0,307	-0,171
80,466	53,735	-0,325	-0,219
81,480	13,840	-0,313	-0,170
82,495	88,772	-0,405	-0,315
83,509	2,197	-0,312	-0,158
84,524	232,712	-0,129	-0,149
85,539	12,151	-0,347	-0,186
86,553	50,070	-0,203	-0,134
87,568	116,979	-0,253	-0,217
88,582	36,173	-0,385	-0,237
89,597	46,514	-0,364	-0,236
90,611	44,927	-0,265	-0,171
91,626	-25,811	-0,218	-0,090
92,641	301,659	-0,174	-0,225
93,655	12,828	-0,220	-0,119
94,670	113,019	-0,299	-0,254
95,684	68,034	-0,322	-0,230
96,699	31,147	-0,272	-0,163
97,714	194,026	-0,219	-0,232
98,728	-58,946	-0,237	-0,071
99,743	7,391	-0,218	-0,114
100,757	-183,899	-0,240	-0,003
101,772	-90,267	-0,278	-0,056
102,787	6,891	-0,314	-0,163
103,801	384,545	-0,186	-0,269
104,816	-60,819	-0,320	-0,094
105,830	39,605	-0,144	-0,090
106,845	89,721	-0,257	-0,201
107,860	-139,671	-0,277	0,020
108,874	29,720	-0,375	-0,223
109,889	74,639	-0,301	-0,221
110,903	-158,187	-0,249	-0,010
111,918	302,970	-0,190	-0,247
112,933	-155,061	-0,265	0,012
113,947	-28,208	-0,160	-0,064
114,962	-87,825	-0,290	-0,061
115,976	-7,189	-0,190	-0,090
116,991	-29,658	-0,392	-0,155
118,006	-23,873	-0,402	-0,167
119,020	119,630	-0,228	-0,198
120,035	-81,845	-0,258	-0,059
121,049	-34,054	-0,169	-0,065
122,064	12,459	-0,256	-0,137
123,079	-119,693	-0,284	-0,034
124,093	83,347	-0,219	-0,167
125,108	-102,935	-0,195	-0,032
126,122	-52,707	-0,247	-0,079
127,137	800,000	-0,091	-0,213
128,151	-102,978	-0,255	0,042
129,166	-90,449	-0,109	0,022
130,181	363,923	-0,112	-0,157
131,195	41,615	-0,218	-0,137
132,210	30,514	-0,200	-0,119
133,224	206,815	-0,143	-0,155
134,239	106,213	-0,140	-0,116
135,254	38,025	-0,305	-0,189
136,268	48,375	-0,170	-0,111
137,283	27,219	-0,162	-0,094
138,297	31,748	-0,189	-0,113
139,312	93,216	-0,228	-0,180
140,327	129,457	-0,242	-0,215
141,341	-35,115	-0,196	-0,074
142,356	391,182	-0,199	-0,289
143,370	55,827	-0,278	-0,187
144,385	59,187	-0,204	-0,140
145,400	10,217	-0,245	-0,129
146,414	169,953	-0,217	-0,217
147,429	61,251	-0,275	-0,190
148,443	-28,153	-0,302	-0,121
149,458	79,484	-0,157	-0,117
150,473	17,340	-0,200	-0,110
151,487	-28,662	-0,172	-0,068
152,502	-26,068	-0,323	-0,132
153,516	-78,453	-0,280	-0,066
154,531	54,555	-0,155	-0,104
155,546	39,706	-0,318	-0,198
156,560	-200,000	-0,027	-0,190
157,575	6,098	-0,223	-0,115
158,589	-57,637	-0,208	-0,063
159,604	-43,389	-0,307	-0,107
160,619	7,130	-0,157	-0,081
161,633	89,703	-0,234	-0,182
162,648	197,233	-0,248	-0,263
163,662	18,992	-0,213	-0,119
164,677	-51,287	-0,256	-0,083
165,692	-142,149	-0,160	0,011
166,706	-151,449	-0,124	0,006
167,721	-200,000	-0,082	-0,268
168,735	179,171	-0,282	-0,287
169,750	138,711	-0,178	-0,162
170,764	-19,389	-0,280	-0,120
171,779	177,356	-0,172	-0,174
172,794	-49,437	-0,350	-0,115
173,808	-41,961	-0,244	-0,086
174,823	-42,013	-0,206	-0,073
175,837	223,377	-0,128	-0,144
176,852	166,331	-0,214	-0,211
177,867	800,000	-0,109	-0,231
178,881	174,987	-0,069	-0,069
179,896	48,056	-0,218	-0,141
180,910	293,856	-0,175	-0,223
181,925	172,250	-0,152	-0,152
182,940	125,798	-0,295	-0,259
183,954	17,014	-0,212	-0,116
184,969	-22,969	-0,342	-0,143
185,983	15,726	-0,130	-0,071
186,998	-16,534	-0,140	-0,061
188,013	-52,849	-0,141	-0,045
189,027	800,000	-0,137	-0,370
190,042	52,299	-0,242	-0,160
191,056	135,355	-0,163	-0,147
192,071	172,511	-0,277	-0,277
193,086	-113,232	-0,172	-0,023
194,100	-105,054	-0,179	-0,028
195,115	74,612	-0,329	-0,240
196,129	40,458	-0,155	-0,097
197,144	437,728	-0,124	-0,188
198,159	94,078	-0,146	-0,115
199,173	309,276	-0,131	-0,170
200,188	3,533	-0,231	-0,116
201,202	115,041	-0,105	-0,089
202,217	240,652	-0,141	-0,163
203,232	9,976	-0,077	-0,040
204,246	352,744	-0,179	-0,246
205,261	-98,641	-0,120	0,021
206,275	195,190	-0,102	-0,107
207,290	166,232	-0,216	-0,212
208,304	-43,584	-0,182	-0,063
209,319	-79,264	-0,236	-0,055
210,334	-48,185	-0,262	-0,087
211,348	7,916	-0,251	-0,130
212,363	132,996	-0,210	-0,188
213,377	113,175	-0,212	-0,178
214,392	94,810	-0,205	-0,162
215,407	27,348	-0,177	-0,103
216,421	262,833	-0,261	-0,314
217,436	33,835	-0,248	-0,149
218,450	10,911	-0,219	-0,115
219,465	46,193	-0,226	-0,145
220,480	-14,441	-0,132	0,058
221,494	45,669	-0,233	-0,149
222,509	800,000	-0,048	-0,114
223,523	-174,192	-0,185	-0,004
224,538	800,000	-0,064	-0,166
225,553	-58,056	-0,253	-0,076
226,567	-43,546	-0,242	-0,084
227,582	74,983	-0,094	-0,068
228,596	-10,591	-0,237	-0,108
229,611	-159,498	-0,048	-0,002
230,626	73,601	-0,151	-0,109
231,640	81,936	-0,158	-0,118
232,655	-32,114	-0,206	-0,079
233,669	-22,637	-0,222	-0,093
234,684	-78,694	-0,272	-0,064
235,699	-137,324	-0,249	0,019
236,713	-141,839	-0,234	-0,016
237,728	-145,471	-0,143	-0,009
238,742	132,872	-0,153	-0,137
239,757	249,608	-0,167	-0,196
240,772	-0,697	-0,255	-0,125
241,786	662,974	-0,109	-0,194
242,801	72,721	-0,085	-0,061
243,815	54,780	-0,210	-0,140
244,830	26,473	-0,195	-0,112
245,844	652,871	-0,109	-0,193
246,859	43,870	-0,182	-0,115
247,874	800,000	-0,090	-0,184
248,888	43,340	-0,181	-0,114
249,903	-86,124	-0,246	-0,052
250,917	-102,394	-0,304	-0,050
251,932	48,647	-0,118	-0,076
252,947	-125,889	-0,246	-0,025
253,961	84,434	-0,080	-0,061
254,976	-66,806	-0,107	-0,029
255,990	23,259	-0,180	-0,102
257,005	12,488	-0,264	-0,140
258,020	616,357	-0,096	-0,167
259,034	-200,000	-0,015	-0,052
260,049	81,308	-0,262	-0,195
261,063	95,787	-0,184	-0,145
262,078	24,343	-0,227	-0,129
263,093	426,162	-0,101	-0,151
264,107	618,311	-0,055	-0,096
265,122	-104,846	-0,107	-0,017
266,136	247,376	-0,068	-0,080
267,151	56,987	-0,146	0,098
268,166	34,069	-0,118	0,071
269,180	-14,536	-0,180	-0,079
270,195	-80,161	-0,281	-0,064
271,209	221,046	-0,142	-0,157
272,224	382,013	-0,073	-0,103
273,239	25,314	-0,043	-0,025
274,253	-74,513	-0,087	-0,021
275,268	7,888	-0,130	-0,067
276,282	113,957	-0,063	-0,053
277,297	-77,327	-0,152	-0,036
278,312	434,466	-0,089	-0,134
279,326	-59,765	-0,170	-0,050
280,341	-87,894	-0,120	-0,025
281,355	435,100	-0,146	-0,219
282,370	-96,611	-0,187	-0,034
283,384	-72,444	-0,156	-0,039
284,399	464,607	-0,148	-0,228
285,414	800,000	-0,070	-0,181
286,428	-200,000	-0,022	-0,098
287,443	119,958	-0,131	-0,112
288,457	-42,896	-0,223	-0,078
289,472	89,774	-0,072	-0,055
290,487	-124,515	-0,154	-0,016
291,501	163,977	-0,149	-0,144
292,516	-64,241	-0,209	-0,058
293,530	-25,711	-0,157	0,063
294,545	800,000	-0,083	-0,174
295,560	128,529	-0,046	-0,041
296,574	52,092	-0,186	-0,121
297,589	27,898	-0,200	-0,115
298,603	345,288	-0,107	-0,145
299,618	168,846	-0,171	-0,168
300,633	-107,570	-0,091	0,014
301,647	562,069	-0,085	-0,141
302,662	398,362	-0,136	-0,197
303,676	-157,231	-0,118	-0,005
304,691	-125,006	-0,216	0,022
305,706	-41,302	-0,258	-0,091
306,720	493,417	-0,087	-0,138
307,735	173,962	-0,150	-0,149
308,749	-200,000	0,045	-0,138
309,764	165,473	-0,101	-0,099
310,779	285,205	-0,137	-0,170
311,793	-162,482	-0,199	0,007
312,808	-136,964	-0,192	-0,015
313,822	-10,798	-0,132	-0,060
314,837	78,720	-0,138	-0,101
315,852	39,250	-0,164	-0,101
316,866	230,461	-0,183	-0,206
317,881	-20,300	-0,202	0,085
318,895	155,808	-0,077	-0,073
319,910	-115,300	-0,184	-0,024
320,925	-200,000	-0,065	-0,237
321,939	-158,022	-0,160	-0,006
322,954	107,337	-0,111	-0,090
323,968	12,227	-0,067	-0,035
324,983	-76,469	-0,071	-0,017
325,997	101,404	-0,188	-0,150
327,012	-200,000	-0,015	-0,079
328,027	78,072	-0,201	-0,147
329,041	-200,000	-0,021	-0,069
330,056	-47,147	-0,132	-0,044
331,070	17,914	-0,126	-0,068
332,085	-51,736	-0,168	-0,053
333,100	215,324	-0,071	-0,077
334,114	212,569	-0,065	-0,070
335,129	-22,446	-0,093	-0,038
336,143	478,082	-0,110	-0,171
337,158	-121,592	-0,134	-0,015
338,173	-5,663	-0,153	-0,071
339,187	6,560	-0,094	-0,047
340,202	69,726	-0,116	-0,082
341,216	121,042	-0,117	-0,100
342,231	800,000	-0,042	-0,103
343,246	-200,000	0,033	-0,174
344,260	-33,551	-0,122	-0,046
345,275	800,000	-0,029	0,065
346,289	800,000	-0,046	-0,129
347,304	21,876	-0,200	-0,111
348,319	-68,107	-0,236	-0,062
349,333	106,832	-0,136	-0,110
350,348	272,846	-0,090	-0,108
351,362	267,200	-0,034	-0,041
352,377	295,163	-0,061	-0,077
353,392	23,243	-0,042	-0,024
354,406	21,076	-0,142	0,078
355,421	208,708	1309,342	1402,945
356,435	160,604	1469,368	1403,404
