DTS Sentinel unit serial number:	SN410029Multiplexer serial number:	ORYXHardware model number:	OX2-SRSoftware version number:	ORYX F/W v4,00 Oryx Data Collector v3.7.2.0data status	okinstallation	B3 Nyhavnadifferential loss correction	single-endedforward channel	channel 1reverse channel	N/Adate	2023/12/05time	08:42:30forward acquisition time	300,00reverse acquisition time	0,00gamma	499,1914k internal	0,3190k external	0,3190temperature offset calibration	1,0000default loss term (dB/km)	0,3820temperature slope calibration	1,0000multiplexer offset coefficient	1,0000multiplexer slope coefficient	1,0000fibre end	0,00T internal ref (°C)	12,70T ext. ref 1 (°C)	-3,55T ext. ref 2 (°C)	-3,77length (m)	temperature (°C)	Stokes	anti-Stokes-744,400	131,451	-0,051	-0,048
-743,385	800,000	-0,074	0,232
-742,371	-46,443	-0,094	-0,033
-741,356	730,057	-0,120	0,236
-740,342	-173,531	0,018	-0,000
-739,327	800,000	-0,062	0,181
-738,312	-200,000	0,027	-0,088
-737,298	-200,000	-0,050	0,267
-736,283	19,726	-0,084	0,049
-735,269	389,457	-0,159	0,241
-734,254	138,435	-0,146	-0,140
-733,239	-128,844	-0,264	0,027
-732,225	294,203	0,108	-0,144
-731,210	-123,531	0,158	-0,018
-730,196	800,000	-0,050	-0,140
-729,181	29,969	-0,183	-0,114
-728,167	46,779	-0,144	-0,097
-727,152	800,000	-0,013	-0,039
-726,137	382,077	-0,084	-0,126
-725,123	16,470	-0,066	0,038
-724,108	800,000	-0,034	-0,110
-723,094	-200,000	0,035	-0,169
-722,079	-200,000	0,015	-0,145
-721,064	26,015	-0,026	-0,016
-720,050	-65,398	-0,178	0,052
-719,035	800,000	-0,064	-0,189
-718,021	560,558	-0,055	0,097
-717,006	-200,000	-0,014	-0,074
-715,991	263,951	-0,109	-0,138
-714,977	-200,000	0,017	-0,107
-713,962	256,039	0,068	-0,085
-712,948	126,962	-0,037	0,034
-711,933	-131,958	0,146	0,014
-710,918	48,745	-0,171	0,117
-709,904	-200,000	0,048	-0,162
-708,889	-41,986	0,010	-0,004
-707,875	800,000	0,013	0,030
-706,860	-200,000	-0,010	-0,184
-705,845	-157,907	0,009	0,000
-704,831	-68,731	-0,065	-0,018
-703,816	-133,475	-0,058	0,005
-702,802	-164,788	-0,040	0,001
-701,787	-84,058	-0,228	-0,052
-700,772	-200,000	0,015	0,128
-699,758	-200,000	-0,001	0,010
-698,743	90,305	0,080	0,065
-697,729	-102,575	-0,126	-0,022
-696,714	-4,273	0,069	-0,035
-695,699	148,462	0,025	-0,024
-694,685	-200,000	-0,005	-0,047
-693,670	-120,526	-0,143	0,017
-692,656	79,858	0,024	-0,019
-691,641	-23,475	-0,163	-0,071
-690,627	241,705	-0,017	0,020
-689,612	-200,000	-0,016	-0,057
-688,597	-148,031	-0,051	-0,003
-687,583	-69,377	-0,106	-0,030
-686,568	392,041	0,033	-0,050
-685,554	-1,786	-0,040	0,021
-684,539	-155,718	0,047	-0,002
-683,524	800,000	-0,021	-0,047
-682,510	-200,000	0,003	-0,025
-681,495	800,000	0,049	-0,112
-680,481	77,714	-0,090	-0,069
-679,466	775,081	0,050	-0,101
-678,451	-42,056	-0,033	-0,012
-677,437	800,000	-0,034	0,084
-676,422	-200,000	-0,002	0,054
-675,408	-77,702	-0,024	0,006
-674,393	-16,126	-0,158	0,073
-673,378	-104,245	-0,078	-0,013
-672,364	-200,000	-0,002	-0,105
-671,349	-200,000	-0,002	-0,029
-670,335	-200,000	0,005	0,049
-669,320	-200,000	-0,017	-0,081
-668,305	-200,000	-0,026	0,141
-667,291	-200,000	-0,039	0,146
-666,276	-144,250	-0,200	-0,013
-665,262	800,000	-0,045	-0,095
-664,247	800,000	0,036	-0,097
-663,232	160,088	-0,071	-0,072
-662,218	-105,236	-0,137	0,023
-661,203	87,188	-0,052	0,042
-660,189	-99,274	0,078	0,014
-659,174	528,304	-0,020	-0,035
-658,159	-154,626	-0,268	0,013
-657,145	-0,085	-0,058	-0,030
-656,130	-200,000	-0,017	0,085
-655,116	223,003	0,033	0,039
-654,101	232,916	-0,088	0,106
-653,086	-90,569	-0,053	-0,011
-652,072	-111,325	-0,109	-0,016
-651,057	-200,000	-0,033	-0,130
-650,043	-134,056	-0,074	-0,007
-649,028	619,756	-0,047	-0,086
-648,014	-123,736	0,094	0,011
-646,999	-100,313	0,065	0,012
-645,984	145,258	-0,102	0,099
-644,970	-86,538	0,084	0,019
-643,955	-185,384	-0,099	0,001
-642,941	-49,894	-0,068	0,023
-641,926	-70,696	0,114	0,031
-640,911	-33,980	0,127	-0,050
-639,897	51,374	-0,061	0,042
-638,882	294,535	-0,001	0,002
-637,868	-97,998	0,141	-0,026
-636,853	139,785	0,040	0,039
-635,838	-40,196	-0,057	0,021
-634,824	-200,000	0,005	-0,026
-633,809	130,925	0,066	-0,061
-632,795	800,000	0,053	-0,157
-631,780	172,116	0,078	-0,082
-630,765	14,013	0,105	-0,059
-629,751	800,000	-0,046	-0,102
-628,736	-49,171	-0,060	-0,021
-627,722	446,650	-0,071	-0,114
-626,707	-200,000	0,024	0,109
-625,692	-200,000	0,014	-0,059
-624,678	-164,406	0,138	0,004
-623,663	-130,572	-0,109	0,011
-622,649	609,474	-0,015	0,027
-621,634	-200,000	0,011	-0,058
-620,619	-43,227	-0,083	0,030
-619,605	462,403	0,033	-0,054
-618,590	-168,994	0,145	-0,004
-617,576	189,107	-0,039	0,042
-616,561	51,213	0,072	-0,049
-615,546	-124,358	-0,107	-0,012
-614,532	206,109	-0,073	0,082
-613,517	406,349	-0,060	0,093
-612,503	-200,000	-0,004	-0,064
-611,488	572,265	-0,059	0,105
-610,474	-3,122	0,078	0,039
-609,459	503,088	0,037	0,063
-608,444	-6,936	-0,124	-0,061
-607,430	-200,000	-0,066	-0,218
-606,415	-200,000	-0,015	-0,092
-605,401	-64,906	0,023	0,007
-604,386	32,736	-0,094	-0,059
-603,371	-50,550	0,089	-0,030
-602,357	-133,282	0,194	-0,018
-601,342	173,740	-0,067	-0,070
-600,328	-169,240	-0,117	-0,003
-599,313	-200,000	-0,002	0,028
-598,298	-200,000	-0,044	-0,148
-597,284	-200,000	-0,020	-0,194
-596,269	31,035	0,118	-0,073
-595,255	-200,000	-0,030	0,099
-594,240	-200,000	0,019	0,117
-593,225	-145,955	0,065	-0,004
-592,211	237,397	-0,035	-0,042
-591,196	800,000	0,011	0,024
-590,182	-1,637	-0,163	-0,083
-589,167	552,030	0,077	-0,135
-588,152	-200,000	0,010	-0,050
-587,138	-200,000	0,015	0,074
-586,123	273,848	-0,071	0,091
-585,109	-69,972	-0,101	-0,028
-584,094	-88,911	-0,113	-0,024
-583,079	-0,285	-0,066	0,034
-582,065	203,163	0,095	0,107
-581,050	-200,000	-0,026	-0,120
-580,036	-200,000	0,041	-0,149
-579,021	440,388	-0,060	-0,095
-578,006	800,000	-0,035	-0,074
-576,992	33,807	-0,084	-0,053
-575,977	-30,816	0,108	0,044
-574,963	-129,826	0,136	0,013
-573,948	800,000	-0,011	-0,034
-572,934	134,889	0,078	0,073
-571,919	-123,950	-0,104	-0,012
-570,904	800,000	0,018	-0,042
-569,890	12,582	-0,098	-0,055
-568,875	-200,000	0,009	-0,044
-567,861	145,140	0,060	-0,058
-566,846	309,693	0,029	0,040
-565,831	-64,867	0,038	0,011
-564,817	-0,207	-0,078	0,040
-563,802	175,265	-0,175	-0,184
-562,788	256,553	-0,023	-0,029
-561,773	-200,000	0,002	-0,024
-560,758	575,992	-0,008	-0,015
-559,744	197,007	-0,046	0,051
-558,729	290,277	-0,022	-0,029
-557,715	356,092	-0,076	-0,109
-556,700	-200,000	-0,008	-0,038
-555,685	-200,000	-0,018	-0,133
-554,671	20,956	0,009	0,006
-553,656	-200,000	-0,012	0,098
-552,642	609,927	-0,034	0,062
-551,627	800,000	-0,047	0,106
-550,612	-43,039	-0,088	-0,032
-549,598	-66,545	-0,093	-0,026
-548,583	-200,000	-0,010	0,049
-547,569	-200,000	0,013	0,056
-546,554	-76,793	-0,187	0,047
-545,539	87,262	0,097	-0,078
-544,525	-42,669	-0,032	-0,012
-543,510	375,185	-0,094	-0,139
-542,496	800,000	0,008	-0,019
-541,481	410,348	-0,032	-0,049
-540,466	800,000	-0,025	0,074
-539,452	166,847	0,063	0,065
-538,437	-1,113	0,064	-0,033
-537,423	-200,000	-0,019	0,144
-536,408	-139,870	-0,119	0,009
-535,393	777,343	0,031	-0,062
-534,379	-77,060	0,223	0,056
-533,364	-139,372	-0,027	0,002
-532,350	16,160	0,072	-0,041
-531,335	193,161	0,077	0,085
-530,321	447,520	-0,036	-0,057
-529,306	800,000	0,054	-0,136
-528,291	-126,641	0,166	-0,018
-527,277	-200,000	-0,025	-0,144
-526,262	49,282	-0,103	-0,070
-525,248	503,518	0,001	0,002
-524,233	283,899	-0,066	0,086
-523,218	47,272	0,048	0,032
-522,204	800,000	0,011	-0,029
-521,189	522,519	0,106	-0,181
-520,175	800,000	-0,022	-0,052
-519,160	-200,000	-0,017	-0,083
-518,145	-200,000	-0,008	0,141
-517,131	309,006	0,030	0,040
-516,116	-200,000	0,022	0,122
-515,102	800,000	0,028	0,060
-514,087	-97,967	-0,075	0,014
-513,072	152,238	-0,064	0,063
-512,058	21,361	-0,146	0,086
-511,043	800,000	-0,030	0,062
-510,029	-124,224	0,067	0,007
-509,014	-200,000	0,004	-0,073
-507,999	45,650	0,140	-0,093
-506,985	63,954	-0,032	0,024
-505,970	800,000	-0,036	-0,088
-504,956	-164,953	-0,059	0,002
-503,941	-84,150	-0,036	0,008
-502,926	-200,000	0,020	0,125
-501,912	-200,000	-0,014	-0,070
-500,897	5,476	-0,098	0,052
-499,883	12,459	0,136	0,076
-498,868	-13,340	-0,074	-0,034
-497,853	134,313	0,034	-0,032
-496,839	-3,146	-0,123	-0,062
-495,824	21,934	0,106	0,063
-494,810	142,886	0,074	0,071
-493,795	-117,621	0,184	0,024
-492,781	-200,000	-0,004	0,059
-491,766	-108,307	-0,085	0,013
-490,751	-200,000	0,014	-0,123
-489,737	104,332	-0,123	0,105
-488,722	800,000	-0,055	0,126
-487,708	-200,000	-0,016	-0,084
-486,693	139,210	-0,064	-0,061
-485,678	-200,000	-0,008	-0,086
-484,664	800,000	-0,037	-0,094
-483,649	501,713	-0,078	-0,130
-482,635	494,260	-0,069	0,115
-481,620	112,412	0,064	-0,056
-480,605	-28,166	-0,044	0,018
-479,591	800,000	-0,027	0,063
-478,576	228,883	0,039	0,046
-477,562	79,223	0,161	-0,125
-476,547	-200,000	0,023	-0,073
-475,532	619,866	0,030	-0,055
-474,518	-84,477	-0,058	0,013
-473,503	182,193	0,079	0,085
-472,489	37,559	0,077	0,049
-471,474	-176,696	-0,060	-0,001
-470,459	-36,352	-0,017	-0,006
-469,445	-142,977	0,017	-0,001
-468,430	177,865	-0,078	-0,082
-467,416	-47,417	-0,041	-0,014
-466,401	-200,000	0,003	0,034
-465,386	-115,714	0,054	-0,007
-464,372	138,277	0,103	-0,098
-463,357	721,778	0,017	0,033
-462,343	10,717	0,029	0,016
-461,328	-155,348	0,056	0,003
-460,313	122,460	-0,128	-0,116
-459,299	-72,086	0,069	0,018
-458,284	-200,000	-0,033	0,114
-457,270	24,931	-0,114	0,068
-456,255	-200,000	-0,001	-0,117
-455,241	-33,694	-0,112	0,044
-454,226	209,616	0,065	-0,073
-453,211	154,086	-0,110	-0,109
-452,197	-124,524	0,190	-0,021
-451,182	305,281	-0,018	-0,024
-450,168	87,149	0,039	0,031
-449,153	8,270	-0,041	0,022
-448,138	228,105	0,017	0,020
-447,124	-147,025	-0,108	-0,007
-446,109	589,468	0,057	-0,102
-445,095	222,404	0,030	0,035
-444,080	-14,873	0,060	0,028
-443,065	-30,337	-0,117	0,048
-442,051	173,707	0,124	0,130
-441,036	-124,804	0,021	-0,002
-440,022	9,651	-0,133	-0,072
-439,007	-200,000	-0,040	-0,241
-437,992	800,000	0,014	-0,035
-436,978	-200,000	-0,007	0,104
-435,963	800,000	0,024	0,066
-434,949	-139,417	0,085	-0,006
-433,934	-42,437	-0,106	-0,039
-432,919	486,527	0,082	-0,135
-431,905	89,273	-0,112	0,090
-430,890	31,557	0,174	0,108
-429,876	-28,546	0,057	-0,023
-428,861	115,739	-0,037	0,032
-427,846	371,399	0,089	-0,130
-426,832	800,000	0,029	-0,082
-425,817	414,190	0,057	0,088
-424,803	-45,918	-0,046	-0,016
-423,788	50,259	-0,050	-0,034
-422,773	700,534	-0,043	0,083
-421,759	632,361	0,102	0,186
-420,744	163,966	0,007	0,007
-419,730	-200,000	-0,003	0,144
-418,715	27,163	-0,104	0,063
-417,701	272,120	0,052	-0,067
-416,686	408,684	0,114	0,175
-415,671	-153,498	0,140	0,007
-414,657	-90,069	0,137	0,029
-413,642	800,000	0,039	-0,099
-412,628	-200,000	-0,018	0,068
-411,613	350,504	-0,041	-0,059
-410,598	35,304	-0,031	-0,019
-409,584	-75,626	0,182	-0,046
-408,569	665,802	-0,072	0,135
-407,555	-200,000	0,021	0,212
-406,540	147,083	0,057	0,055
-405,525	800,000	0,063	-0,149
-404,511	610,855	-0,054	-0,098
-403,496	133,570	-0,056	0,052
-402,482	800,000	-0,042	-0,125
-401,467	64,090	0,054	0,039
-400,452	-58,831	0,054	-0,017
-399,438	45,987	-0,132	0,088
-398,423	-152,647	-0,051	0,003
-397,409	-84,100	0,151	0,034
-396,394	62,650	-0,116	0,083
-395,379	-200,000	-0,040	-0,179
-394,365	183,675	-0,049	0,053
-393,350	-200,000	0,031	0,219
-392,336	-200,000	-0,018	0,059
-391,321	-179,389	-0,038	0,001
-390,306	53,133	-0,091	-0,062
-389,292	-29,513	0,047	0,019
-388,277	-200,000	0,010	-0,160
-387,263	313,330	0,012	0,016
-386,248	-200,000	0,009	0,028
-385,233	800,000	-0,028	0,060
-384,219	-200,000	0,008	0,026
-383,204	-83,780	-0,155	-0,035
-382,190	-88,354	0,082	0,017
-381,175	-160,169	-0,075	-0,003
-380,160	275,050	0,090	-0,115
-379,146	800,000	0,025	0,066
-378,131	-41,713	-0,037	-0,014
-377,117	-28,148	0,094	0,039
-376,102	-73,611	0,111	-0,029
-375,088	-12,100	-0,109	0,051
-374,073	-200,000	0,015	0,052
-373,058	383,090	0,060	0,089
-372,044	-127,460	-0,102	-0,010
-371,029	728,187	-0,050	-0,097
-370,015	-200,000	-0,006	0,094
-369,000	-200,000	0,014	-0,088
-367,985	-200,000	0,001	-0,094
-366,971	-160,206	-0,027	0,001
-365,956	800,000	-0,051	-0,110
-364,942	68,904	-0,083	0,061
-363,927	194,137	-0,057	0,062
-362,912	-74,477	-0,068	-0,018
-361,898	180,091	0,068	0,072
-360,883	-200,000	-0,011	-0,096
-359,869	-47,990	-0,052	-0,018
-358,854	98,007	-0,066	0,055
-357,839	-144,048	-0,049	-0,003
-356,825	208,263	0,090	-0,101
-355,810	-33,167	0,091	0,036
-354,796	56,477	-0,044	0,031
-353,781	-41,715	-0,077	0,028
-352,766	800,000	-0,081	-0,176
-351,752	-88,470	0,141	-0,030
-350,737	-200,000	-0,020	0,192
-349,723	446,296	0,021	0,033
-348,708	10,517	0,056	0,031
-347,693	101,468	-0,060	0,050
-346,679	11,874	0,061	-0,034
-345,664	28,852	0,003	-0,002
-344,650	-142,195	-0,058	0,004
-343,635	96,575	0,128	0,105
-342,620	-98,981	-0,053	0,010
-341,606	-106,270	0,113	0,018
-340,591	-24,016	-0,190	-0,081
-339,577	65,974	-0,073	-0,053
-338,562	164,677	0,025	0,025
-337,548	-200,000	-0,018	0,098
-336,533	800,000	0,036	0,077
-335,518	-200,000	0,046	-0,180
-334,504	-200,000	0,004	0,027
-333,489	253,645	-0,083	0,102
-332,475	138,198	-0,034	0,032
-331,460	276,086	-0,072	-0,091
-330,445	8,652	0,112	0,061
-329,431	800,000	0,025	0,064
-328,416	435,362	0,013	-0,021
-327,402	-24,159	-0,029	0,012
-326,387	800,000	0,023	-0,049
-325,372	800,000	0,010	-0,027
-324,358	35,121	0,074	-0,047
-323,343	33,628	-0,099	-0,062
-322,329	1,438	0,095	0,049
-321,314	800,000	0,031	0,075
-320,299	800,000	0,007	0,015
-319,285	800,000	-0,029	-0,059
-318,270	-34,261	0,088	0,034
-317,256	-200,000	0,002	-0,027
-316,241	172,307	-0,090	-0,093
-315,226	13,235	-0,022	0,012
-314,212	362,679	-0,005	-0,008
-313,197	-200,000	0,011	0,204
-312,183	138,200	-0,071	0,067
-311,168	-31,000	-0,095	0,038
-310,153	-98,156	0,124	-0,023
-309,139	481,698	-0,036	0,060
-308,124	146,977	0,105	-0,101
-307,110	-200,000	0,019	0,094
-306,095	-200,000	-0,030	0,105
-305,080	-113,483	0,056	0,008
-304,066	800,000	-0,048	-0,126
-303,051	75,625	0,043	-0,033
-302,037	409,352	-0,053	0,080
-301,022	-101,562	0,039	0,007
-300,008	800,000	0,032	-0,079
-298,993	91,950	0,079	0,064
-297,978	-200,000	-0,021	0,151
-296,964	-21,072	-0,155	0,068
-295,949	82,936	-0,091	-0,071
-294,935	277,034	0,080	-0,102
-293,920	-101,754	-0,046	-0,008
-292,905	-154,888	0,256	-0,012
-291,891	699,284	0,030	-0,058
-290,876	-200,000	0,013	0,122
-289,862	186,499	0,141	-0,151
-288,847	-200,000	-0,033	-0,134
-287,832	314,051	0,079	-0,106
-286,818	245,980	0,078	0,095
-285,803	-200,000	0,015	-0,132
-284,789	33,603	0,126	-0,079
-283,774	-200,000	-0,007	0,034
-282,759	43,606	-0,091	0,060
-281,745	-70,883	0,051	0,014
-280,730	-200,000	-0,007	-0,171
-279,716	-200,000	-0,012	-0,078
-278,701	-200,000	-0,010	-0,033
-277,686	-52,461	0,036	0,012
-276,672	521,733	-0,045	0,076
-275,657	-22,099	-0,032	-0,014
-274,643	45,629	-0,116	-0,077
-273,628	-200,000	-0,004	0,055
-272,613	-23,409	0,120	-0,052
-271,599	463,846	0,031	-0,049
-270,584	280,396	0,061	0,078
-269,570	432,363	0,123	0,191
-268,555	562,536	0,059	0,103
-267,540	109,223	-0,102	0,088
-266,526	-200,000	0,036	-0,000
-265,511	-200,000	0,011	-0,090
-264,497	-17,922	0,029	0,013
-263,482	54,970	0,132	0,091
-262,467	384,670	0,064	0,094
-261,453	-113,154	-0,156	0,022
-260,438	788,331	0,071	-0,139
-259,424	-70,600	-0,043	0,011
-258,409	-128,455	-0,096	-0,010
-257,395	-200,000	-0,041	0,210
-256,380	-73,061	0,063	-0,016
-255,365	-200,000	0,044	0,143
-254,351	557,409	0,093	-0,162
-253,336	800,000	0,007	-0,022
-252,322	562,512	-0,039	-0,068
-251,307	214,077	0,061	0,069
-250,292	800,000	0,008	0,023
-249,278	425,417	-0,031	0,047
-248,263	-200,000	0,003	0,044
-247,249	-73,498	-0,241	0,062
-246,234	246,606	0,035	-0,042
-245,219	209,002	-0,069	0,077
-244,205	-63,406	-0,111	-0,032
-243,190	136,083	0,106	-0,099
-242,176	30,150	0,126	0,076
-241,161	-200,000	0,027	0,150
-240,146	68,498	0,071	-0,052
-239,132	-27,459	0,027	0,011
-238,117	20,352	-0,080	0,046
-237,103	-200,000	0,010	0,090
-236,088	345,852	0,066	0,092
-235,073	-172,099	0,059	0,001
-234,059	-120,635	0,007	-0,001
-233,044	-81,047	-0,082	0,019
-232,030	17,983	-0,084	-0,048
-231,015	561,719	-0,042	-0,073
-230,000	24,039	-0,007	-0,004
-228,986	-200,000	-0,029	-0,103
-227,971	246,521	0,018	-0,022
-226,957	737,417	-0,043	0,083
-225,942	800,000	-0,025	0,054
-224,927	-10,379	0,018	0,009
-223,913	44,591	0,072	-0,047
-222,898	117,857	-0,056	-0,050
-221,884	-119,189	-0,042	0,005
-220,869	800,000	0,042	0,092
-219,855	800,000	-0,014	-0,039
-218,840	-116,148	0,060	0,008
-217,825	240,787	0,064	-0,077
-216,811	41,647	0,122	-0,079
-215,796	-16,875	-0,169	-0,076
-214,782	-30,257	-0,130	-0,053
-213,767	-200,000	-0,011	-0,067
-212,752	91,732	0,066	0,053
-211,738	-131,647	0,087	0,008
-210,723	-69,457	0,020	-0,005
-209,709	-73,194	0,081	0,021
-208,694	33,289	0,092	-0,057
-207,679	-161,837	-0,046	-0,002
-206,665	-163,341	0,098	0,003
-205,650	-85,110	0,187	-0,041
-204,636	800,000	0,046	0,143
-203,621	-8,234	-0,156	-0,075
-202,606	610,821	-0,053	0,096
-201,592	-159,128	-0,120	-0,005
-200,577	-115,409	-0,120	0,016
-199,563	-27,099	-0,082	-0,034
-198,548	-200,000	-0,114	-0,000
-197,533	64,583	0,076	0,055
-196,519	73,052	0,043	0,032
-195,504	-187,017	-0,045	0,000
-194,490	-97,959	-0,184	0,034
-193,475	-200,000	0,015	-0,060
-192,460	-200,000	-0,057	-0,209
-191,446	-92,962	0,087	0,017
-190,431	800,000	-0,034	0,069
-189,417	-200,000	-0,010	0,056
-188,402	800,000	-0,027	-0,084
-187,387	302,762	0,056	-0,075
-186,373	-200,000	0,000	-0,049
-185,358	800,000	0,031	0,073
-184,344	-200,000	-0,013	0,065
-183,329	625,265	-0,021	0,038
-182,315	-84,022	0,091	0,021
-181,300	-200,000	-0,046	0,217
-180,285	7,135	-0,140	-0,074
-179,271	22,069	0,040	0,023
-178,256	79,489	-0,145	0,111
-177,242	322,310	-0,054	0,073
-176,227	471,435	0,095	0,153
-175,212	548,966	0,097	0,166
-174,198	-200,000	-0,031	0,195
-173,183	-200,000	0,007	0,044
-172,169	326,982	-0,025	-0,034
-171,154	68,364	-0,076	-0,055
-170,139	238,189	0,023	0,027
-169,125	-87,278	-0,107	0,023
-168,110	232,112	0,030	-0,035
-167,096	-56,910	0,089	0,028
-166,081	-95,537	-0,085	-0,016
-165,066	-8,230	-0,088	0,042
-164,052	-167,182	0,044	-0,001
-163,037	-200,000	-0,000	0,051
-162,023	800,000	0,058	0,166
-161,008	-157,500	-0,067	-0,003
-159,993	-10,130	0,100	-0,047
-158,979	183,488	-0,088	-0,093
-157,964	106,470	0,178	-0,150
-156,950	-96,403	0,124	0,023
-155,935	-26,921	-0,050	-0,021
-154,920	616,935	-0,028	0,051
-153,906	800,000	0,038	0,113
-152,891	-99,894	0,042	-0,007
-151,877	142,132	-0,077	0,073
-150,862	800,000	-0,035	-0,089
-149,847	0,357	-0,022	0,011
-148,833	689,416	0,118	-0,220
-147,818	-99,402	0,119	-0,021
-146,804	-200,000	0,011	0,091
-145,789	51,095	0,086	0,058
-144,775	-103,236	0,027	-0,004
-143,760	8,533	-0,036	0,019
-142,745	-112,542	-0,146	0,021
-141,731	-135,842	0,076	0,006
-140,716	-82,952	-0,054	-0,012
-139,702	541,569	0,104	0,178
-138,687	-200,000	-0,013	0,086
-137,672	-39,238	-0,026	-0,010
-136,658	-30,697	-0,107	-0,043
-135,643	92,901	-0,017	-0,013
-134,629	473,269	0,041	0,067
-133,614	222,865	0,041	-0,047
-132,599	-73,481	0,108	0,028
-131,585	526,501	0,039	-0,066
-130,570	-104,381	0,021	-0,003
-129,556	-85,513	0,043	-0,009
-128,541	-200,000	-0,007	-0,032
-127,526	115,578	-0,060	-0,052
-126,512	-100,871	0,209	-0,036
-125,497	411,264	0,040	0,061
-124,483	74,273	0,032	-0,024
-123,468	-121,477	-0,043	0,005
-122,453	-200,000	0,015	-0,064
-121,439	-122,894	0,067	-0,008
-120,424	800,000	-0,027	0,064
-119,410	-98,058	-0,033	-0,006
-118,395	-200,000	0,014	0,049
-117,380	-200,000	0,011	0,063
-116,366	-3,342	0,076	0,037
-115,351	27,503	0,102	-0,061
-114,337	90,569	-0,081	-0,064
-113,322	-127,304	-0,042	-0,004
-112,307	22,931	0,017	-0,010
-111,293	764,488	0,094	0,183
-110,278	-89,728	0,038	0,008
-109,264	-200,000	-0,001	-0,067
-108,249	-104,744	0,029	0,005
-107,234	-185,110	0,114	0,001
-106,220	-200,000	0,001	0,086
-105,205	356,823	0,031	-0,044
-104,191	-200,000	0,019	0,111
-103,176	-20,587	-0,110	0,048
-102,162	800,000	-0,031	-0,062
-101,147	-188,964	0,148	0,001
-100,132	-200,000	0,016	0,096
-99,118	-85,929	-0,105	-0,023
-98,103	-200,000	-0,017	0,089
-97,089	410,091	-0,031	0,046
-96,074	213,261	0,135	0,152
-95,059	-200,000	-0,002	0,112
-94,045	-102,841	-0,142	0,024
-93,030	-83,361	-0,109	-0,025
-92,016	125,656	0,013	-0,011
-91,001	72,316	0,109	0,081
-89,986	-200,000	0,007	0,090
-88,972	800,000	-0,051	0,139
-87,957	448,253	-0,081	0,127
-86,943	-31,426	-0,141	-0,056
-85,928	-200,000	-0,006	0,036
-84,913	24,977	-0,112	-0,066
-83,899	-200,000	0,010	0,055
-82,884	-55,220	0,215	0,068
-81,870	390,446	-0,069	0,102
-80,855	740,659	0,054	0,104
-79,840	-200,000	0,006	-0,103
-78,826	-86,294	-0,059	-0,013
-77,811	-153,377	-0,169	0,008
-76,797	-200,000	-0,012	-0,058
-75,782	544,924	0,051	0,087
-74,767	643,930	0,067	0,122
-73,753	166,183	0,057	0,057
-72,738	-23,233	-0,059	-0,025
-71,724	800,000	-0,019	0,045
-70,709	800,000	0,046	-0,098
-69,694	-200,000	0,006	-0,027
-68,680	800,000	-0,009	0,026
-67,665	520,060	-0,058	0,096
-66,651	62,467	0,099	-0,070
-65,636	800,000	0,056	-0,129
-64,622	22,455	-0,149	0,086
-63,607	-69,773	-0,170	-0,046
-62,592	800,000	-0,024	-0,061
-61,578	-200,000	-0,004	-0,111
-60,563	-200,000	-0,005	-0,065
-59,549	800,000	-0,036	0,103
-58,534	30,242	-1,948	-1,179
-57,519	800,000	-0,636	-1,327
-56,505	-200,000	-0,878	-4,819
-55,490	228,255	0,801	0,928
-54,476	800,000	5,404	11,688
-53,461	-200,000	19,895	332,432
-52,446	800,000	750,009	2342,112
-51,432	557,503	1661,000	2855,818
-50,417	76,183	1672,478	1256,314
-49,403	20,502	1545,892	885,577
-48,388	14,505	1468,442	811,882
-47,373	18,229	1458,429	824,399
-46,359	16,482	1448,120	810,123
-45,344	12,831	1443,578	789,975
-44,330	12,776	1441,816	788,715
-43,315	12,723	1440,165	787,527
-42,300	12,739	1438,450	786,632
-41,286	12,816	1437,031	786,197
-40,271	12,726	1435,767	785,044
-39,257	12,733	1434,547	784,379
-38,242	12,759	1433,221	783,746
-37,227	12,776	1431,927	783,090
-36,213	12,765	1430,738	782,356
-35,198	12,779	1429,509	781,720
-34,184	12,833	1428,529	781,411
-33,169	12,804	1427,078	780,447
-32,154	12,842	1425,895	779,947
-31,140	12,831	1424,770	779,253
-30,125	12,802	1423,709	778,504
-29,111	12,828	1422,517	777,943
-28,096	12,827	1421,360	777,273
-27,082	12,760	1420,286	776,339
-26,067	12,748	1419,109	775,608
-25,052	12,731	1418,339	775,075
-24,038	12,723	1417,239	774,405
-23,023	12,656	1416,258	773,520
-22,009	12,738	1415,016	773,200
-20,994	12,737	1414,169	772,701
-19,979	12,670	1413,355	771,911
-18,965	12,671	1412,494	771,414
-17,950	12,651	1411,599	770,799
-16,936	12,666	1410,601	770,296
-15,921	12,667	1409,645	769,748
-14,906	12,615	1408,717	768,964
-13,892	12,659	1407,642	768,556
-12,877	12,623	1406,930	767,966
-11,863	12,654	1405,984	767,565
-10,848	12,610	1405,066	766,826
-9,833	12,604	1404,234	766,316
-8,819	12,562	1403,367	765,614
-7,804	12,520	1402,580	764,959
-6,790	12,518	1401,359	764,252
-5,775	12,580	1400,224	763,892
-4,760	12,549	1399,310	763,220
-3,746	12,537	1398,326	762,595
-2,731	12,565	1397,392	762,186
-1,717	12,499	1396,784	761,519
-0,702	12,533	1394,992	760,668
0,313	16,428	1310,060	732,452
1,327	32,712	700,584	429,306
2,342	49,964	122,169	81,672
3,356	-0,168	16,464	8,287
4,371	20,170	3,144	1,796
5,386	37,358	0,578	0,363
6,400	-200,000	0,037	0,238
7,415	242,660	-0,277	-0,330
8,429	79,990	-0,299	-0,228
9,444	78,255	-0,321	-0,243
10,459	110,334	-0,249	-0,212
11,473	116,316	-0,280	-0,244
12,488	-29,542	-0,395	-0,159
13,502	-42,942	-0,380	-0,136
14,517	-88,525	-0,331	-0,069
15,531	154,084	-0,263	-0,255
16,546	-7,679	-0,309	-0,148
17,561	90,545	-0,314	-0,249
18,575	-124,929	-0,279	-0,030
19,590	37,969	-0,122	-0,077
20,604	59,130	-0,261	-0,182
21,619	227,275	-0,309	-0,356
22,634	98,732	-0,413	-0,337
23,648	123,935	-0,420	-0,374
24,663	48,165	-0,477	-0,316
25,677	86,586	-0,389	-0,304
26,692	48,130	-0,388	-0,257
27,707	53,026	-0,379	-0,256
28,721	113,906	-0,337	-0,290
29,736	-15,329	-0,480	-0,217
30,750	127,575	-0,325	-0,292
31,765	112,908	-0,299	-0,257
32,780	15,444	-0,433	-0,240
33,794	-4,712	-0,427	-0,208
34,809	58,853	-0,318	-0,221
35,823	0,447	-0,383	-0,193
36,838	82,419	-0,370	-0,284
37,853	25,534	-0,464	-0,272
38,867	146,800	-0,316	-0,301
39,882	44,545	-0,436	-0,283
40,896	126,616	-0,364	-0,326
41,911	54,152	-0,281	-0,191
42,926	325,146	-0,249	-0,338
43,940	110,825	-0,356	-0,303
44,955	156,803	-0,361	-0,353
45,969	43,233	-0,374	-0,241
46,984	79,581	-0,396	-0,300
47,999	185,876	-0,326	-0,343
49,013	64,038	-0,313	-0,223
50,028	96,073	-0,353	-0,285
51,042	46,985	-0,294	-0,193
52,057	13,573	-0,382	-0,209
53,071	10,835	-0,261	-0,140
54,086	84,691	-0,209	-0,162
55,101	-35,258	-0,210	-0,080
56,115	19,828	-0,297	-0,169
57,130	137,586	-0,277	-0,257
58,144	-14,939	-0,474	-0,214
59,159	40,601	-0,423	-0,269
60,174	37,183	-0,333	-0,208
61,188	36,720	-0,209	-0,130
62,203	-11,820	-0,485	-0,224
63,217	-11,347	-0,388	-0,179
64,232	-20,216	-0,316	-0,137
65,247	419,814	-0,235	-0,357
66,261	15,492	-0,419	-0,232
67,276	156,329	-0,246	-0,240
68,290	48,976	-0,407	-0,269
69,305	62,889	-0,323	-0,228
70,320	42,750	-0,358	-0,230
71,334	12,402	-0,432	-0,234
72,349	119,635	-0,257	-0,224
73,363	-77,894	-0,302	-0,073
74,378	167,059	-0,298	-0,299
75,393	121,649	-0,295	-0,259
76,407	132,381	-0,311	-0,283
77,422	-48,262	-0,354	-0,120
78,436	-1,255	-0,326	-0,162
79,451	32,214	-0,294	-0,178
80,466	-100,421	-0,367	-0,064
81,480	-31,534	-0,253	-0,100
82,495	68,961	-0,294	-0,213
83,509	21,862	-0,302	-0,173
84,524	65,233	-0,249	-0,177
85,539	-116,421	-0,277	-0,036
86,553	-123,723	-0,330	-0,036
87,568	120,438	-0,331	-0,289
88,582	-2,582	-0,373	-0,183
89,597	34,494	-0,179	-0,110
90,611	-85,951	-0,322	-0,070
91,626	0,199	-0,221	-0,111
92,641	-100,256	-0,254	-0,044
93,655	215,850	-0,235	-0,263
94,670	119,563	-0,311	-0,271
95,684	-62,741	-0,360	-0,104
96,699	109,828	-0,245	-0,207
97,714	36,162	-0,218	-0,135
98,728	432,745	-0,153	-0,234
99,743	-48,571	-0,300	-0,101
100,757	289,042	-0,185	-0,237
101,772	150,333	-0,296	-0,283
102,787	171,926	-0,184	-0,186
103,801	70,426	-0,304	-0,221
104,816	-48,371	-0,365	-0,123
105,830	198,012	-0,219	-0,236
106,845	140,881	-0,226	-0,210
107,860	18,363	-0,196	-0,110
108,874	-21,022	-0,331	-0,142
109,889	29,062	-0,358	-0,213
110,903	125,384	-0,221	-0,196
111,918	144,770	-0,290	-0,273
112,933	204,763	-0,204	-0,223
113,947	86,425	-0,194	-0,150
114,962	72,319	-0,195	-0,143
115,976	403,463	-0,175	-0,259
116,991	-13,979	-0,201	-0,091
118,006	53,034	-0,206	-0,138
119,020	287,641	-0,182	-0,231
120,035	28,993	-0,230	-0,136
121,049	187,106	-0,117	-0,123
122,064	457,003	-0,113	-0,176
123,079	-93,396	-0,184	-0,036
124,093	-27,172	-0,257	-0,105
125,108	1,984	-0,221	-0,112
126,122	-40,490	-0,197	-0,071
127,137	-41,838	-0,272	-0,098
128,151	154,278	-0,160	-0,155
129,166	-115,221	-0,222	0,029
130,181	-65,757	-0,212	-0,059
131,195	-41,784	-0,282	-0,101
132,210	-0,854	-0,353	-0,175
133,224	87,826	-0,300	-0,233
134,239	-22,187	-0,221	-0,094
135,254	-24,922	-0,266	-0,110
136,268	-176,594	-0,328	0,006
137,283	-41,588	-0,285	-0,102
138,297	66,069	-0,166	-0,118
139,312	144,414	-0,274	-0,256
140,327	282,544	-0,221	-0,279
141,341	69,407	-0,308	-0,222
142,356	5,787	-0,116	-0,060
143,370	-17,124	-0,318	-0,140
144,385	-15,531	-0,294	-0,131
145,400	-130,766	-0,221	-0,021
146,414	41,006	-0,355	-0,224
147,429	-29,200	-0,266	-0,106
148,443	136,608	-0,234	-0,214
149,458	151,019	-0,240	-0,229
150,473	52,127	-0,293	-0,195
151,487	336,137	-0,119	-0,162
152,502	121,441	-0,265	-0,232
153,516	121,784	-0,302	-0,264
154,531	490,810	-0,146	-0,235
155,546	132,281	-0,162	-0,146
156,560	-87,795	-0,083	0,017
157,575	312,467	-0,145	-0,191
158,589	343,211	-0,111	-0,153
159,604	119,716	-0,246	-0,213
160,619	28,865	-0,370	-0,219
161,633	23,376	-0,299	-0,172
162,648	800,000	-0,097	-0,211
163,662	78,999	-0,185	-0,138
164,677	-200,000	-0,051	-0,194
165,692	-164,290	-0,302	0,010
166,706	-26,546	-0,235	-0,096
167,721	129,606	-0,254	-0,227
168,735	77,297	-0,293	-0,217
169,750	21,964	-0,231	-0,131
170,764	127,197	-0,171	-0,152
171,779	10,691	-0,124	-0,066
172,794	-63,910	-0,253	-0,072
173,808	-10,083	-0,197	-0,091
174,823	224,966	-0,220	-0,249
175,837	63,021	-0,392	-0,274
176,852	256,493	-0,137	-0,165
177,867	-200,000	-0,083	-0,276
178,881	71,425	-0,270	-0,196
179,896	320,534	-0,144	-0,191
180,910	99,885	-0,202	-0,163
181,925	-21,321	-0,302	-0,128
182,940	-22,177	-0,279	-0,118
183,954	81,562	-0,207	-0,156
184,969	-12,417	-0,180	-0,082
185,983	677,274	-0,088	-0,160
186,998	280,372	-0,177	-0,221
188,013	-21,471	-0,143	-0,061
189,027	400,031	-0,170	-0,250
190,042	-137,120	-0,223	-0,017
191,056	798,350	-0,138	-0,267
192,071	550,331	-0,119	-0,201
193,086	800,000	-0,153	-0,323
194,100	94,557	-0,172	-0,137
195,115	5,440	-0,142	-0,073
196,129	58,930	-0,214	-0,147
197,144	521,984	-0,174	-0,286
198,159	-4,422	-0,224	-0,108
199,173	-14,881	-0,286	-0,128
200,188	800,000	-0,081	-0,176
201,202	-115,803	-0,235	0,030
202,217	-85,733	-0,198	-0,043
203,232	-102,316	-0,203	-0,034
204,246	800,000	-0,135	-0,263
205,261	16,656	-0,382	-0,210
206,275	76,133	-0,242	-0,178
207,290	578,045	-0,129	-0,220
208,304	-200,000	-0,071	-0,312
209,319	172,180	-0,205	-0,206
210,334	20,524	-0,226	-0,127
211,348	-63,621	-0,244	-0,069
212,363	107,044	-0,156	-0,129
213,377	720,634	-0,140	-0,261
214,392	212,443	-0,065	-0,071
215,407	56,721	-0,208	-0,141
216,421	-125,703	-0,155	0,016
217,436	24,924	-0,089	0,051
218,450	-64,565	-0,195	-0,055
219,465	163,552	-0,041	-0,040
220,480	12,243	-0,181	-0,097
221,494	182,085	-0,050	-0,051
222,509	-102,774	-0,155	-0,025
223,523	96,104	-0,179	-0,142
224,538	14,150	-0,277	-0,150
225,553	-34,779	-0,345	-0,131
226,567	-33,257	-0,252	-0,097
227,582	222,730	-0,139	-0,156
228,596	14,568	-0,150	-0,081
229,611	175,476	-0,106	-0,107
230,626	3,285	-0,151	-0,076
231,640	193,971	-0,268	-0,283
232,655	-3,648	-0,189	-0,091
233,669	21,749	-0,380	-0,215
234,684	148,838	-0,226	-0,212
235,699	11,597	-0,209	-0,111
236,713	-80,931	-0,273	-0,063
237,728	120,106	-0,100	-0,087
238,742	355,947	-0,112	-0,156
239,757	700,750	-0,113	-0,209
240,772	270,311	-0,134	-0,164
241,786	-91,471	-0,130	-0,026
242,801	-165,032	-0,060	0,002
243,815	79,588	-0,128	-0,095
244,830	-82,697	-0,111	0,025
245,844	238,859	-0,145	-0,167
246,859	171,227	-0,282	-0,282
247,874	-27,391	-0,353	-0,142
248,888	76,853	-0,188	-0,139
249,903	185,878	-0,139	-0,144
250,917	-200,000	-0,004	-0,060
251,932	104,682	-0,201	-0,164
252,947	135,196	-0,168	-0,152
253,961	217,483	-0,145	-0,161
254,976	-92,404	-0,275	-0,053
255,990	93,954	-0,065	-0,051
257,005	800,000	-0,063	-0,135
258,020	372,764	-0,112	-0,158
259,034	-142,540	-0,164	-0,011
260,049	-76,512	-0,115	-0,028
261,063	0,804	-0,175	-0,087
262,078	-0,813	-0,306	-0,150
263,093	210,432	-0,054	-0,059
264,107	104,579	-0,112	-0,091
265,122	-126,668	-0,266	-0,027
266,136	438,740	-0,109	-0,166
267,151	366,838	-0,085	-0,120
268,166	212,953	-0,169	-0,185
269,180	177,020	-0,125	-0,126
270,195	504,774	-0,082	-0,131
271,209	142,141	-0,163	-0,150
272,224	-50,981	-0,112	-0,036
273,239	-128,400	-0,111	-0,011
274,253	777,097	-0,106	-0,201
275,268	25,305	-0,127	-0,073
276,282	66,569	-0,170	-0,120
277,297	127,745	-0,251	-0,221
278,312	226,480	-0,177	-0,200
279,326	595,414	-0,134	-0,230
280,341	-167,811	-0,220	-0,006
281,355	193,240	-0,209	-0,219
282,370	76,919	-0,138	-0,102
283,384	57,368	-0,268	-0,181
284,399	34,203	-0,130	-0,078
285,414	394,618	-0,143	-0,206
286,428	143,371	-0,042	0,038
287,443	245,884	-0,160	-0,187
288,457	154,846	-0,174	-0,166
289,472	-147,941	-0,107	0,006
290,487	10,371	-0,183	-0,096
291,501	-81,459	-0,211	-0,048
292,516	-106,049	-0,233	-0,036
293,530	90,850	-0,122	-0,094
294,545	473,976	-0,121	-0,190
295,560	-40,263	-0,184	-0,066
296,574	-200,000	0,022	-0,161
297,589	215,442	-0,131	-0,144
298,603	-35,647	-0,167	-0,062
299,618	543,309	-0,135	-0,224
300,633	267,079	-0,113	-0,136
301,647	-158,401	-0,164	0,006
302,662	138,867	-0,106	0,096
303,676	432,753	-0,117	-0,177
304,691	56,765	-0,147	-0,099
305,706	210,857	-0,095	-0,103
306,720	54,505	-0,244	-0,162
307,735	3,460	-0,197	-0,099
308,749	169,602	-0,090	-0,089
309,764	800,000	-0,058	-0,168
310,779	-151,404	-0,157	-0,008
311,793	800,000	-0,036	-0,096
312,808	5,759	-0,193	-0,098
313,822	347,673	-0,081	-0,110
314,837	154,581	-0,133	-0,126
315,852	800,000	-0,004	-0,009
316,866	149,078	-0,084	0,079
317,881	54,036	-0,116	0,077
318,895	111,588	-0,143	-0,119
319,910	119,444	-0,107	0,092
320,925	97,356	-0,137	-0,108
321,939	24,793	-0,158	-0,090
322,954	543,284	-0,068	-0,113
323,968	800,000	0,029	-0,085
324,983	22,573	-0,201	-0,113
325,997	37,718	-0,068	-0,041
327,012	-47,072	-0,083	0,028
328,027	68,833	-0,196	-0,139
329,041	-200,000	-0,024	-0,089
330,056	-19,175	-0,210	-0,090
331,070	-200,000	-0,032	-0,112
332,085	-200,000	-0,068	-0,248
333,100	125,320	-0,078	-0,068
334,114	155,868	-0,142	-0,135
335,129	-200,000	-0,019	-0,093
336,143	-200,000	-0,036	-0,150
337,158	-164,977	-0,105	0,003
338,173	800,000	-0,064	-0,161
339,187	21,178	-0,172	-0,096
340,202	-20,067	-0,148	-0,063
341,216	41,153	-0,147	-0,091
342,231	47,224	-0,158	-0,101
343,246	-69,730	-0,060	-0,016
344,260	175,310	-0,136	-0,136
345,275	376,152	-0,093	-0,131
346,289	30,746	-0,174	-0,102
347,304	800,000	-0,057	-0,162
348,319	193,351	-0,158	-0,165
349,333	800,000	-0,086	-0,176
350,348	305,787	-0,208	-0,268
351,362	39,368	-0,213	-0,131
352,377	-151,858	-0,163	-0,008
353,392	-77,931	-0,086	0,020
354,406	681,827	-0,053	-0,095
355,421	209,096	1313,679	1417,488
356,435	160,916	1474,018	1417,731
