DTS Sentinel unit serial number:	SN410029Multiplexer serial number:	ORYXHardware model number:	OX2-SRSoftware version number:	ORYX F/W v4,00 Oryx Data Collector v3.7.2.0data status	okinstallation	B3 Nyhavnadifferential loss correction	single-endedforward channel	channel 1reverse channel	N/Adate	2023/11/28time	23:37:30forward acquisition time	300,00reverse acquisition time	0,00gamma	499,1914k internal	0,3212k external	0,3212temperature offset calibration	1,0000default loss term (dB/km)	0,3820temperature slope calibration	1,0000multiplexer offset coefficient	1,0000multiplexer slope coefficient	1,0000fibre end	0,00T internal ref (°C)	8,83T ext. ref 1 (°C)	-5,58T ext. ref 2 (°C)	-5,71length (m)	temperature (°C)	Stokes	anti-Stokes-744,400	800,000	-0,114	-0,265
-743,385	800,000	-0,081	0,183
-742,371	529,026	-0,087	-0,149
-741,356	800,000	-0,120	0,255
-740,342	15,056	-0,199	-0,113
-739,327	-200,000	0,017	0,202
-738,312	762,703	-0,163	-0,323
-737,298	-200,000	-0,066	0,266
-736,283	314,995	-0,144	-0,197
-735,269	590,408	-0,179	0,320
-734,254	15,244	-0,194	-0,110
-733,239	-171,649	-0,115	-0,003
-732,225	263,125	-0,135	-0,170
-731,210	313,177	0,109	0,149
-730,196	361,204	-0,102	-0,149
-729,181	-76,363	-0,082	0,021
-728,167	-93,757	0,042	0,008
-727,152	106,803	0,012	-0,010
-726,137	120,339	-0,112	-0,101
-725,123	-200,000	-0,022	0,096
-724,108	99,711	-0,058	-0,049
-723,094	-200,000	-0,036	-0,286
-722,079	-66,205	-0,083	0,024
-721,064	800,000	-0,070	0,142
-720,050	85,937	-0,021	-0,016
-719,035	-200,000	-0,031	0,122
-718,021	-112,435	-0,129	0,018
-717,006	-95,457	-0,198	-0,038
-715,991	800,000	-0,055	-0,137
-714,977	228,534	0,028	-0,034
-713,962	140,614	-0,067	-0,065
-712,948	-10,844	0,034	0,016
-711,933	400,924	-0,048	0,074
-710,918	-41,764	-0,051	0,019
-709,904	-24,057	0,056	-0,024
-708,889	-95,544	-0,130	0,025
-707,875	800,000	-0,022	-0,052
-706,860	76,486	0,047	-0,036
-705,845	800,000	0,013	0,026
-704,831	-200,000	-0,004	0,175
-703,816	-200,000	0,007	0,069
-702,802	-110,032	-0,071	-0,011
-701,787	43,051	-0,057	0,037
-700,772	162,188	-0,048	-0,049
-699,758	-102,770	0,110	0,019
-698,743	-99,976	-0,072	-0,013
-697,729	139,829	-0,020	0,019
-696,714	52,284	-0,033	-0,023
-695,699	661,338	-0,041	-0,078
-694,685	197,680	-0,031	0,035
-693,670	800,000	-0,045	-0,127
-692,656	-200,000	0,010	0,055
-691,641	112,820	0,051	0,044
-690,627	800,000	0,026	0,056
-689,612	800,000	0,035	0,073
-688,597	-200,000	0,024	0,150
-687,583	-0,636	-0,198	-0,101
-686,568	497,575	0,019	-0,032
-685,554	710,636	-0,065	-0,126
-684,539	86,046	-0,029	0,023
-683,524	60,070	-0,097	0,069
-682,510	378,799	-0,011	0,017
-681,495	-61,213	-0,088	-0,027
-680,481	500,138	0,034	0,057
-679,466	193,441	-0,065	-0,071
-678,451	522,828	-0,038	0,065
-677,437	238,845	-0,078	0,094
-676,422	-103,657	0,035	-0,006
-675,408	-97,332	-0,124	-0,023
-674,393	-146,879	0,124	0,008
-673,378	153,836	-0,065	-0,064
-672,364	57,885	-0,149	-0,106
-671,349	712,021	-0,048	-0,091
-670,335	52,935	-0,123	0,085
-669,320	-130,972	0,009	0,001
-668,305	-66,042	-0,169	-0,048
-667,291	-200,000	0,039	0,128
-666,276	-8,395	-0,118	-0,057
-665,262	-88,797	-0,049	0,010
-664,247	800,000	0,055	-0,144
-663,232	279,020	0,044	-0,056
-662,218	-200,000	-0,021	0,070
-661,203	-200,000	0,031	0,185
-660,189	-200,000	0,003	0,181
-659,174	-200,000	-0,014	-0,081
-658,159	89,976	0,061	0,049
-657,145	800,000	0,015	0,042
-656,130	-35,357	-0,120	-0,047
-655,116	670,460	0,064	0,121
-654,101	-56,128	0,130	-0,042
-653,086	224,363	-0,056	0,065
-652,072	-5,195	-0,074	0,037
-651,057	800,000	-0,094	-0,214
-650,043	-67,690	-0,108	-0,030
-649,028	150,477	0,048	-0,047
-648,014	-110,274	0,076	0,011
-646,999	-200,000	-0,056	0,205
-645,984	-200,000	-0,029	-0,148
-644,970	-79,555	-0,153	-0,037
-643,955	469,045	-0,058	-0,095
-642,941	98,213	0,025	-0,020
-641,926	311,279	-0,078	0,106
-640,911	245,262	-0,038	-0,046
-639,897	121,575	0,141	0,127
-638,882	188,453	-0,081	0,087
-637,868	-200,000	-0,013	0,102
-636,853	319,901	0,065	-0,090
-635,838	-138,091	-0,161	-0,013
-634,824	39,560	-0,056	-0,036
-633,809	162,782	0,041	0,041
-632,795	-200,000	0,030	-0,162
-631,780	28,446	-0,076	0,047
-630,765	91,160	0,133	0,108
-629,751	320,731	0,033	-0,046
-628,736	306,220	-0,008	-0,011
-627,722	52,704	0,074	-0,051
-626,707	800,000	-0,020	-0,051
-625,692	72,176	-0,049	0,037
-624,678	-92,187	-0,214	-0,043
-623,663	40,308	-0,072	-0,047
-622,649	93,210	-0,082	0,067
-621,634	-200,000	-0,007	0,092
-620,619	800,000	0,045	-0,121
-619,605	70,655	0,056	0,042
-618,590	-115,912	0,119	0,016
-617,576	40,120	-0,077	0,050
-616,561	-22,285	-0,106	-0,046
-615,546	-200,000	-0,010	0,050
-614,532	800,000	0,028	-0,078
-613,517	170,377	-0,045	-0,046
-612,503	67,316	-0,153	-0,112
-611,488	-191,996	0,062	-0,000
-610,474	-200,000	-0,001	0,183
-609,459	-200,000	0,017	0,130
-608,444	178,126	-0,093	-0,098
-607,430	23,396	-0,097	-0,058
-606,415	-99,687	0,061	0,011
-605,401	72,140	0,027	-0,020
-604,386	9,476	-0,068	-0,037
-603,371	-84,245	0,087	0,020
-602,357	397,916	-0,093	0,140
-601,342	-200,000	-0,023	-0,188
-600,328	91,235	-0,036	-0,029
-599,313	-28,051	-0,062	0,026
-598,298	19,246	-0,075	-0,043
-597,284	6,703	0,073	-0,039
-596,269	800,000	-0,058	0,127
-595,255	-63,079	0,099	0,029
-594,240	-49,804	0,038	0,013
-593,225	800,000	-0,009	-0,024
-592,211	11,046	0,017	0,009
-591,196	800,000	-0,079	-0,184
-590,182	-57,796	0,044	-0,014
-589,167	121,276	0,123	0,110
-588,152	-46,888	0,122	0,043
-587,138	26,191	-0,117	0,070
-586,123	-178,965	-0,158	0,003
-585,109	-200,000	-0,010	0,087
-584,094	-64,199	-0,077	-0,022
-583,079	386,426	-0,052	-0,078
-582,065	-126,633	0,124	-0,013
-581,050	-200,000	0,037	0,151
-580,036	-70,161	-0,083	-0,023
-579,021	-167,326	-0,121	-0,003
-578,006	-129,117	-0,186	-0,018
-576,992	126,342	-0,082	-0,075
-575,977	331,381	0,031	0,043
-574,963	476,795	0,038	-0,063
-573,948	800,000	-0,013	-0,032
-572,934	-161,674	-0,123	0,004
-571,919	800,000	-0,024	-0,069
-570,904	85,888	0,044	-0,034
-569,890	-200,000	-0,030	0,127
-568,875	800,000	0,052	0,137
-567,861	-141,123	0,124	0,009
-566,846	152,107	0,069	-0,067
-565,831	-28,348	0,053	-0,022
-564,817	-200,000	0,022	-0,154
-563,802	4,857	-0,048	-0,025
-562,788	-200,000	0,006	-0,025
-561,773	363,765	-0,019	-0,027
-560,758	383,483	-0,031	0,046
-559,744	245,908	0,110	-0,134
-558,729	-200,000	0,020	0,179
-557,715	105,880	-0,078	-0,067
-556,700	-200,000	0,017	-0,075
-555,685	-151,261	-0,004	-0,000
-554,671	-7,115	-0,032	0,015
-553,656	259,779	-0,018	-0,022
-552,642	-8,114	0,029	-0,014
-551,627	36,504	-0,118	0,075
-550,612	95,221	-0,094	0,077
-549,598	800,000	-0,045	0,095
-548,583	142,347	-0,027	0,025
-547,569	-200,000	0,007	-0,038
-546,554	289,373	-0,129	0,168
-545,539	10,420	0,062	0,034
-544,525	152,973	0,089	-0,087
-543,510	663,337	-0,015	-0,028
-542,496	-200,000	0,013	-0,055
-541,481	19,641	0,096	-0,055
-540,466	-74,459	-0,081	-0,021
-539,452	138,400	0,085	0,080
-538,437	235,680	0,109	-0,130
-537,423	-200,000	0,007	0,136
-536,408	-97,900	0,227	0,042
-535,393	287,553	-0,035	-0,045
-534,379	75,013	-0,072	0,054
-533,364	-28,398	0,036	-0,015
-532,350	-200,000	0,008	-0,062
-531,335	-73,049	-0,075	-0,020
-530,321	-200,000	-0,011	0,172
-529,306	162,791	0,077	0,078
-528,291	-200,000	-0,009	0,078
-527,277	800,000	-0,025	-0,074
-526,262	-101,500	-0,158	-0,027
-525,248	-198,058	0,257	-0,001
-524,233	-50,539	-0,101	0,034
-523,218	-99,913	0,131	0,023
-522,204	-200,000	-0,004	-0,035
-521,189	82,278	0,089	-0,069
-520,175	-200,000	-0,024	-0,092
-519,160	-200,000	-0,008	-0,074
-518,145	-114,035	0,062	-0,009
-517,131	-200,000	-0,002	0,059
-516,116	464,928	0,046	0,075
-515,102	800,000	-0,049	-0,132
-514,087	611,239	-0,083	0,149
-513,072	-134,806	0,039	0,003
-512,058	-67,199	0,142	0,040
-511,043	71,961	-0,027	-0,020
-510,029	800,000	0,005	0,015
-509,014	391,534	0,030	0,045
-507,999	85,031	0,080	-0,063
-506,985	618,321	-0,029	-0,052
-505,970	88,057	-0,157	-0,125
-504,956	-23,411	0,076	0,033
-503,941	50,091	-0,104	0,070
-502,926	-200,000	-0,021	0,090
-501,912	-128,048	0,102	0,010
-500,897	-29,122	0,080	-0,033
-499,883	-108,168	0,030	0,005
-498,868	-121,776	0,092	0,011
-497,853	-133,640	-0,065	0,006
-496,839	631,228	-0,024	-0,044
-495,824	-87,995	0,068	0,015
-494,810	800,000	0,074	0,199
-493,795	94,852	-0,092	-0,075
-492,781	800,000	-0,062	0,147
-491,766	-144,871	-0,184	0,012
-490,751	42,509	0,077	0,050
-489,737	-200,000	0,025	-0,141
-488,722	-37,107	0,063	-0,024
-487,708	88,535	-0,028	0,022
-486,693	800,000	0,033	0,082
-485,678	-22,661	-0,059	0,025
-484,664	-167,066	-0,201	0,006
-483,649	-200,000	-0,013	-0,073
-482,635	-116,718	-0,142	-0,018
-481,620	398,166	-0,107	0,161
-480,605	800,000	0,042	0,097
-479,591	390,948	0,063	0,095
-478,576	-86,332	0,084	0,018
-477,562	-139,498	-0,183	-0,014
-476,547	800,000	0,072	-0,199
-475,532	-200,000	-0,004	0,014
-474,518	-10,699	-0,046	-0,022
-473,503	74,605	0,036	-0,027
-472,489	175,706	-0,048	0,050
-471,474	-200,000	0,007	-0,025
-470,459	-91,953	-0,033	0,007
-469,445	800,000	-0,061	-0,168
-468,430	136,848	0,079	-0,074
-467,416	-149,847	0,108	0,006
-466,401	800,000	0,053	0,132
-465,386	-156,310	0,154	-0,007
-464,372	-129,706	-0,074	-0,007
-463,357	242,309	0,039	0,047
-462,343	800,000	-0,062	-0,174
-461,328	165,403	-0,098	-0,099
-460,313	-121,283	0,166	-0,020
-459,299	-79,507	-0,069	0,017
-458,284	152,059	0,127	-0,124
-457,270	800,000	-0,077	0,162
-456,255	288,915	-0,036	0,046
-455,241	-200,000	-0,000	-0,118
-454,226	-31,531	0,161	-0,065
-453,211	15,053	0,095	0,053
-452,197	-200,000	-0,010	0,187
-451,182	193,889	-0,114	0,123
-450,168	-200,000	-0,002	-0,070
-449,153	-44,493	0,026	-0,009
-448,138	-156,668	-0,086	-0,004
-447,124	-200,000	0,003	-0,133
-446,109	-160,675	0,145	0,005
-445,095	129,384	0,132	0,121
-444,080	-65,828	0,105	-0,030
-443,065	-62,226	0,094	-0,028
-442,051	28,886	-0,099	0,060
-441,036	-71,682	0,008	-0,002
-440,022	39,159	-0,032	-0,021
-439,007	-65,006	0,084	0,024
-437,992	800,000	0,026	0,082
-436,978	56,136	0,011	0,008
-435,963	800,000	0,042	0,104
-434,949	-169,991	-0,095	0,002
-433,934	-200,000	0,018	-0,071
-432,919	365,849	-0,079	-0,114
-431,905	129,912	0,074	-0,068
-430,890	-79,389	0,125	0,030
-429,876	-15,069	0,085	0,039
-428,861	585,839	0,097	0,171
-427,846	85,312	-0,155	-0,122
-426,832	-90,482	0,037	-0,008
-425,817	358,070	-0,079	-0,114
-424,803	-200,000	0,010	-0,102
-423,788	-47,636	0,055	0,019
-422,773	167,984	-0,095	0,097
-421,759	-16,186	-0,044	0,020
-420,744	521,288	0,066	-0,111
-419,730	-200,000	-0,008	-0,086
-418,715	-7,186	-0,018	-0,009
-417,701	-92,826	-0,116	-0,023
-416,686	-55,931	-0,051	0,016
-415,671	-200,000	0,062	0,195
-414,657	252,590	0,061	0,074
-413,642	385,700	-0,097	0,144
-412,628	667,202	-0,025	-0,046
-411,613	-55,790	-0,140	0,044
-410,598	-59,003	-0,142	-0,044
-409,584	36,627	0,088	0,056
-408,569	-200,000	-0,001	-0,020
-407,555	121,607	0,060	-0,054
-406,540	-159,123	-0,041	-0,002
-405,525	184,808	0,030	0,032
-404,511	800,000	0,033	-0,080
-403,496	800,000	0,072	-0,166
-402,482	-200,000	0,019	-0,094
-401,467	162,475	-0,063	0,063
-400,452	-144,840	0,047	0,003
-399,438	-125,506	-0,168	0,018
-398,423	-200,000	0,011	0,069
-397,409	-90,641	-0,023	-0,005
-396,394	800,000	-0,014	-0,039
-395,379	50,643	0,048	-0,033
-394,365	185,251	0,064	0,068
-393,350	-200,000	-0,003	-0,038
-392,336	-86,198	-0,100	-0,022
-391,321	-41,623	-0,074	0,027
-390,306	751,138	-0,033	-0,063
-389,292	258,467	-0,017	-0,022
-388,277	-117,393	0,081	-0,010
-387,263	210,103	0,089	0,100
-386,248	-6,326	0,074	-0,036
-385,233	800,000	-0,030	0,066
-384,219	258,452	0,094	0,116
-383,204	-20,596	-0,100	-0,044
-382,190	-200,000	-0,009	0,040
-381,175	-178,288	0,114	0,002
-380,160	-200,000	-0,013	0,068
-379,146	800,000	0,056	-0,139
-378,131	800,000	-0,054	-0,148
-377,117	-54,002	-0,284	-0,092
-376,102	-200,000	0,015	-0,091
-375,088	-3,823	-0,069	-0,034
-374,073	204,584	-0,049	-0,054
-373,058	-71,479	0,067	-0,018
-372,044	800,000	-0,036	0,103
-371,029	-140,638	0,134	-0,010
-370,015	269,336	0,061	0,077
-369,000	206,973	0,071	0,080
-367,985	69,234	-0,069	0,050
-366,971	615,458	-0,096	0,172
-365,956	-200,000	0,013	0,053
-364,942	29,450	0,110	-0,067
-363,927	-32,548	0,071	0,028
-362,912	-200,000	-0,010	-0,106
-361,898	800,000	0,009	-0,021
-360,883	339,225	-0,042	0,059
-359,869	41,857	0,057	0,037
-358,854	735,697	0,047	0,091
-357,839	159,599	0,157	0,156
-356,825	110,552	0,050	0,043
-355,810	-56,507	0,100	0,031
-354,796	800,000	0,041	-0,094
-353,781	-76,148	-0,100	0,025
-352,766	-100,381	0,004	0,001
-351,752	-200,000	0,007	-0,029
-350,737	5,400	-0,092	-0,048
-349,723	145,428	0,083	0,080
-348,708	69,930	0,042	0,031
-347,693	800,000	-0,026	-0,057
-346,679	-181,696	-0,071	-0,001
-345,664	511,531	0,126	-0,210
-344,650	-22,351	0,087	0,037
-343,635	14,450	0,093	0,052
-342,620	-200,000	-0,029	0,174
-341,606	-109,050	-0,187	0,028
-340,591	800,000	0,006	0,014
-339,577	-200,000	0,002	-0,052
-338,562	332,397	-0,116	0,160
-337,548	-7,678	0,058	-0,028
-336,533	43,140	0,107	0,069
-335,518	-153,175	0,027	0,001
-334,504	95,199	0,098	0,079
-333,489	-200,000	0,034	0,152
-332,475	-200,000	-0,017	-0,145
-331,460	280,317	-0,086	0,110
-330,445	-200,000	-0,005	0,105
-329,431	72,106	0,053	0,039
-328,416	-25,992	0,053	0,022
-327,402	148,925	-0,052	0,051
-326,387	-46,601	0,132	0,046
-325,372	269,834	-0,028	-0,035
-324,358	45,128	0,016	0,010
-323,343	800,000	0,058	-0,161
-322,329	15,673	-0,036	0,020
-321,314	490,975	-0,047	0,077
-320,299	165,114	0,043	0,043
-319,285	67,425	0,125	-0,091
-318,270	63,550	-0,164	0,117
-317,256	250,500	0,119	-0,144
-316,241	-23,071	0,077	-0,033
-315,226	-103,849	0,139	0,023
-314,212	-200,000	-0,003	0,033
-313,197	-200,000	0,007	-0,110
-312,183	-200,000	-0,006	-0,083
-311,168	-139,706	-0,210	0,016
-310,153	-200,000	0,007	-0,027
-309,139	76,834	0,037	0,028
-308,124	185,741	0,001	-0,001
-307,110	800,000	-0,006	0,015
-306,095	800,000	-0,029	0,088
-305,080	-80,377	-0,056	-0,013
-304,066	-160,668	0,034	-0,001
-303,051	-57,110	-0,086	0,027
-302,037	42,711	-0,031	0,020
-301,022	24,940	-0,025	-0,014
-300,008	237,079	0,097	-0,115
-298,993	185,344	-0,116	0,122
-297,978	634,075	0,041	-0,074
-296,964	-200,000	0,009	-0,114
-295,949	-200,000	-0,004	-0,145
-294,935	0,014	0,083	-0,042
-293,920	-8,506	0,048	0,023
-292,905	-200,000	0,024	0,177
-291,891	-200,000	-0,020	0,076
-290,876	-200,000	0,017	-0,060
-289,862	49,855	0,108	-0,072
-288,847	-7,711	0,096	0,046
-287,832	-71,351	0,090	-0,024
-286,818	343,977	0,077	-0,107
-285,803	-1,954	-0,023	0,011
-284,789	-200,000	0,032	0,144
-283,774	230,063	-0,025	-0,030
-282,759	-30,080	0,129	0,052
-281,745	-200,000	-0,016	-0,101
-280,730	-186,839	-0,121	-0,001
-279,716	67,347	-0,046	-0,033
-278,701	201,364	0,037	0,040
-277,686	-200,000	0,010	0,092
-276,672	296,424	-0,100	0,131
-275,657	410,732	-0,014	0,021
-274,643	172,080	-0,089	-0,091
-273,628	-200,000	-0,026	-0,091
-272,613	800,000	0,055	-0,125
-271,599	-200,000	-0,002	-0,032
-270,584	-57,012	0,149	-0,046
-269,570	162,340	0,065	0,065
-268,555	800,000	-0,018	-0,044
-267,540	800,000	-0,017	-0,033
-266,526	-200,000	0,021	0,140
-265,511	-200,000	-0,008	-0,127
-264,497	-200,000	-0,016	-0,087
-263,482	-30,011	-0,065	0,026
-262,467	207,911	0,115	-0,128
-261,453	270,804	-0,035	-0,044
-260,438	495,672	0,041	-0,067
-259,424	-145,383	-0,095	-0,006
-258,409	27,186	0,146	-0,087
-257,395	-200,000	0,015	-0,140
-256,380	-200,000	-0,024	-0,074
-255,365	-139,039	0,070	0,005
-254,351	-117,801	0,054	0,007
-253,336	47,616	-0,011	-0,007
-252,322	-200,000	0,002	-0,032
-251,307	57,147	-0,164	0,113
-250,292	-168,998	-0,108	0,003
-249,278	-78,006	0,083	-0,020
-248,263	1,762	-0,114	-0,058
-247,249	45,487	-0,022	0,015
-246,234	62,466	0,016	-0,011
-245,219	-200,000	0,009	-0,136
-244,205	-85,782	0,072	0,016
-243,190	-12,233	-0,034	-0,016
-242,176	800,000	0,016	-0,042
-241,161	295,056	0,114	0,148
-240,146	247,351	-0,061	-0,074
-239,132	9,885	-0,179	-0,096
-238,117	-97,661	-0,075	0,014
-237,103	-91,383	0,063	-0,013
-236,088	-200,000	0,004	-0,018
-235,073	-97,255	-0,116	-0,021
-234,059	270,718	0,093	0,116
-233,044	-200,000	-0,017	0,074
-232,030	-200,000	-0,028	0,133
-231,015	800,000	-0,040	0,107
-230,000	-61,097	-0,152	0,045
-228,986	-200,000	-0,007	0,087
-227,971	91,308	0,096	-0,076
-226,957	-0,555	0,115	0,058
-225,942	136,899	0,086	0,079
-224,927	800,000	-0,068	-0,150
-223,913	-200,000	0,004	-0,050
-222,898	454,941	0,061	-0,096
-221,884	800,000	-0,035	0,107
-220,869	31,111	-0,034	-0,021
-219,855	214,324	0,088	0,099
-218,840	800,000	0,056	0,154
-217,825	344,496	-0,044	-0,061
-216,811	-99,121	-0,149	0,027
-215,796	-200,000	0,033	-0,126
-214,782	425,725	-0,025	-0,038
-213,767	331,220	-0,066	0,091
-212,752	800,000	0,064	-0,137
-211,738	480,376	0,017	0,028
-210,723	-200,000	0,045	0,172
-209,709	-101,830	0,099	0,017
-208,694	-26,279	0,062	-0,026
-207,679	-124,291	-0,125	0,014
-206,665	76,513	0,069	0,052
-205,650	548,789	-0,099	0,169
-204,636	-47,636	0,022	0,007
-203,621	-200,000	0,025	-0,111
-202,606	-200,000	0,010	-0,065
-201,592	800,000	-0,018	-0,035
-200,577	-200,000	-0,014	-0,213
-199,563	648,417	-0,011	-0,019
-198,548	-6,242	0,083	0,040
-197,533	450,771	0,035	0,055
-196,519	-37,761	-0,072	0,027
-195,504	53,872	-0,150	-0,102
-194,490	682,071	-0,096	-0,179
-193,475	800,000	-0,066	-0,138
-192,460	262,720	0,064	-0,080
-191,446	-95,288	0,045	-0,009
-190,431	227,051	0,073	0,085
-189,417	611,800	-0,074	-0,132
-188,402	-143,714	0,077	0,005
-187,387	329,639	0,015	-0,020
-186,373	152,853	-0,073	-0,070
-185,358	-200,000	-0,018	-0,060
-184,344	55,308	0,131	0,089
-183,329	-200,000	-0,002	-0,118
-182,315	-200,000	-0,039	0,186
-181,300	2,564	-0,072	0,037
-180,285	-103,102	0,058	-0,010
-179,271	-135,062	0,045	0,004
-178,256	-49,831	-0,109	-0,036
-177,242	-114,520	0,054	0,007
-176,227	-49,466	-0,050	0,017
-175,212	-137,377	0,060	-0,005
-174,198	194,078	-0,051	-0,055
-173,183	-57,494	-0,087	-0,027
-172,169	459,727	-0,017	-0,028
-171,154	75,139	0,101	-0,075
-170,139	-200,000	0,003	-0,116
-169,125	800,000	-0,037	-0,080
-168,110	800,000	0,013	-0,041
-167,096	-200,000	-0,025	-0,081
-166,081	23,294	-0,119	0,069
-165,066	800,000	0,038	0,100
-164,052	102,452	0,104	0,086
-163,037	-200,000	0,180	0,000
-162,023	131,633	-0,179	0,163
-161,008	427,528	-0,082	0,125
-159,993	75,876	0,089	-0,067
-158,979	3,623	-0,054	0,028
-157,964	-75,812	-0,149	0,037
-156,950	-119,636	-0,083	-0,010
-155,935	-19,197	0,140	-0,061
-154,920	18,879	-0,042	0,024
-153,906	800,000	0,022	0,058
-152,891	88,575	0,076	0,060
-151,877	-100,665	-0,064	-0,011
-150,862	156,328	-0,167	0,164
-149,847	22,151	-0,038	0,022
-148,833	151,248	0,054	0,052
-147,818	46,286	0,126	-0,082
-146,804	800,000	-0,027	-0,059
-145,789	15,669	0,054	0,030
-144,775	-8,959	0,140	-0,066
-143,760	666,612	0,043	0,078
-142,745	-106,177	-0,098	0,015
-141,731	367,504	-0,027	-0,039
-140,716	-13,935	-0,018	-0,008
-139,702	-92,264	-0,080	0,016
-138,687	19,462	-0,062	-0,035
-137,672	-200,000	0,011	-0,120
-136,658	11,039	-0,094	-0,051
-135,643	-19,221	-0,073	-0,032
-134,629	-27,691	0,132	-0,054
-133,614	342,444	0,045	-0,062
-132,599	-200,000	-0,005	0,049
-131,585	-200,000	-0,012	0,104
-130,570	116,523	0,066	-0,057
-129,556	302,178	-0,012	-0,016
-128,541	110,994	-0,188	-0,160
-127,526	-15,673	-0,134	-0,060
-126,512	-175,320	0,029	0,001
-125,497	-200,000	-0,004	-0,081
-124,483	201,395	0,071	0,078
-123,468	256,807	0,034	0,042
-122,453	33,565	-0,088	-0,054
-121,439	-200,000	0,022	-0,092
-120,424	800,000	0,053	0,107
-119,410	-200,000	0,004	-0,019
-118,395	-35,271	-0,095	-0,036
-117,380	267,701	0,064	-0,079
-116,366	-56,231	0,093	0,029
-115,351	800,000	0,066	-0,197
-114,337	50,569	0,068	0,046
-113,322	132,980	-0,026	0,024
-112,307	10,551	0,107	0,058
-111,293	-200,000	-0,006	0,118
-110,278	-200,000	0,009	0,137
-109,264	800,000	0,035	0,094
-108,249	-134,252	0,053	0,005
-107,234	323,580	0,036	0,049
-106,220	73,887	0,024	0,018
-105,205	-145,188	0,112	0,007
-104,191	-200,000	0,033	0,107
-103,176	-68,147	0,048	-0,013
-102,162	-200,000	0,060	-0,215
-101,147	427,274	0,045	-0,069
-100,132	-63,182	-0,122	0,035
-99,118	-63,470	0,097	-0,028
-98,103	251,062	-0,041	0,049
-97,089	-27,578	0,019	0,008
-96,074	116,497	0,156	0,135
-95,059	-33,828	-0,015	0,006
-94,045	-89,213	-0,183	0,038
-93,030	71,441	-0,117	-0,086
-92,016	155,659	-0,042	0,041
-91,001	-135,789	0,195	-0,016
-89,986	108,757	0,097	0,082
-88,972	280,610	0,086	-0,109
-87,957	-200,000	0,016	0,137
-86,943	-200,000	0,010	0,132
-85,928	116,217	-0,010	-0,009
-84,913	-200,000	-0,003	0,037
-83,899	-16,881	0,037	0,016
-82,884	-90,631	0,063	0,013
-81,870	89,354	0,158	0,124
-80,855	-99,104	-0,056	0,010
-79,840	257,759	-0,078	-0,095
-78,826	-6,823	-0,187	0,090
-77,811	-58,586	0,054	-0,016
-76,797	48,147	-0,091	-0,060
-75,782	-6,931	0,046	0,022
-74,767	268,804	-0,057	0,070
-73,753	-200,000	0,028	-0,114
-72,738	-200,000	0,012	0,061
-71,724	-13,198	-0,083	0,038
-70,709	-200,000	0,028	0,107
-69,694	115,998	0,010	0,009
-68,680	-200,000	0,014	-0,087
-67,665	800,000	-0,018	-0,043
-66,651	-3,622	0,097	0,048
-65,636	-200,000	0,009	0,039
-64,622	-200,000	-0,038	-0,131
-63,607	-200,000	-0,013	-0,057
-62,592	-133,447	-0,084	0,007
-61,578	17,727	0,077	-0,043
-60,563	18,553	0,079	0,045
-59,549	-1,496	-0,060	-0,030
-58,534	47,514	-2,139	-1,405
-57,519	479,288	-1,189	-1,908
-56,505	-200,000	-0,336	-4,286
-55,490	800,000	0,842	1,667
-54,476	800,000	5,112	11,223
-53,461	-200,000	21,863	337,366
-52,446	800,000	757,944	2293,317
-51,432	532,524	1651,130	2767,879
-50,417	69,018	1649,150	1194,261
-49,403	16,507	1523,908	847,070
-48,388	10,688	1448,427	777,134
-47,373	19,000	1440,637	812,580
-46,359	14,063	1429,205	782,768
-45,344	8,990	1425,277	756,570
-44,330	8,892	1423,473	755,117
-43,315	8,914	1421,507	754,151
-42,300	8,902	1419,786	753,149
-41,286	8,918	1418,654	752,594
-40,271	8,865	1417,256	751,574
-39,257	8,895	1416,162	751,105
-38,242	8,952	1415,011	750,733
-37,227	8,909	1414,019	749,973
-36,213	8,939	1412,719	749,398
-35,198	8,969	1411,468	748,846
-34,184	8,953	1410,461	748,204
-33,169	8,857	1409,331	747,128
-32,154	8,888	1408,311	746,700
-31,140	8,857	1407,063	745,862
-30,125	8,935	1405,834	745,549
-29,111	8,897	1404,733	744,756
-28,096	8,918	1403,295	744,064
-27,082	8,843	1402,269	743,140
-26,067	8,836	1401,317	742,574
-25,052	8,862	1400,299	742,126
-24,038	8,881	1399,161	741,580
-23,023	8,875	1398,470	741,159
-22,009	8,838	1397,358	740,366
-20,994	8,867	1396,041	739,776
-19,979	8,851	1395,462	739,365
-18,965	8,819	1394,521	738,689
-17,950	8,784	1393,502	737,957
-16,936	8,753	1392,744	737,383
-15,921	8,761	1391,567	736,766
-14,906	8,767	1390,542	736,222
-13,892	8,819	1389,720	735,997
-12,877	8,787	1388,930	735,402
-11,863	8,824	1388,016	735,058
-10,848	8,796	1387,125	734,428
-9,833	8,700	1386,393	733,573
-8,819	8,694	1385,403	732,992
-7,804	8,708	1384,494	732,543
-6,790	8,719	1383,340	731,956
-5,775	8,643	1382,466	731,115
-4,760	8,716	1381,306	730,809
-3,746	8,698	1380,541	730,291
-2,731	8,692	1379,782	729,833
-1,717	8,684	1378,925	729,314
-0,702	8,683	1376,959	728,243
0,313	12,784	1288,740	700,176
1,327	28,984	681,318	406,451
2,342	45,327	117,268	76,141
3,356	-0,987	16,520	8,214
4,371	3,082	3,711	1,896
5,386	-23,403	1,141	0,481
6,400	550,938	0,385	0,654
7,415	-153,436	-0,173	0,008
8,429	-60,951	-0,336	-0,100
9,444	-13,003	-0,441	-0,201
10,459	-14,803	-0,355	-0,160
11,473	65,271	-0,192	-0,137
12,488	96,312	-0,257	-0,207
13,502	-81,027	-0,317	-0,073
14,517	111,608	-0,282	-0,239
15,531	-5,701	-0,502	-0,241
16,546	-49,745	-0,375	-0,125
17,561	157,270	-0,312	-0,304
18,575	153,336	-0,056	-0,054
19,590	65,867	-0,243	-0,173
20,604	-60,531	-0,235	-0,070
21,619	139,020	-0,358	-0,331
22,634	28,028	-0,430	-0,255
23,648	40,688	-0,547	-0,346
24,663	67,208	-0,307	-0,220
25,677	-18,175	-0,334	-0,146
26,692	123,527	-0,331	-0,293
27,707	96,189	-0,334	-0,268
28,721	152,756	-0,342	-0,329
29,736	289,529	-0,285	-0,365
30,750	41,071	-0,397	-0,252
31,765	43,898	-0,431	-0,277
32,780	45,822	-0,473	-0,307
33,794	65,337	-0,197	-0,140
34,809	31,390	-0,466	-0,281
35,823	41,457	-0,278	-0,176
36,838	51,151	-0,382	-0,254
37,853	41,522	-0,445	-0,283
38,867	211,671	-0,211	-0,234
39,882	114,439	-0,452	-0,387
40,896	47,479	-0,295	-0,193
41,911	-7,826	-0,425	-0,201
42,926	142,846	-0,240	-0,224
43,940	223,057	-0,338	-0,383
44,955	19,389	-0,440	-0,248
45,969	78,620	-0,355	-0,266
46,984	-33,982	-0,288	-0,111
47,999	62,221	-0,361	-0,253
49,013	12,197	-0,353	-0,190
50,028	-9,610	-0,221	-0,103
51,042	34,256	-0,349	-0,213
52,057	10,542	-0,303	-0,161
53,071	166,034	-0,266	-0,264
54,086	139,939	-0,299	-0,276
55,101	138,466	-0,303	-0,279
56,115	235,854	-0,266	-0,309
57,130	95,848	-0,321	-0,257
58,144	125,427	-0,331	-0,293
59,159	14,553	-0,324	-0,177
60,174	58,585	-0,315	-0,217
61,188	151,969	-0,255	-0,244
62,203	-5,381	-0,325	-0,156
63,217	18,373	-0,313	-0,175
64,232	-54,859	-0,328	-0,103
65,247	-11,949	-0,417	-0,191
66,261	-112,647	-0,319	-0,044
67,276	54,908	-0,315	-0,213
68,290	265,775	-0,267	-0,327
69,305	-0,595	-0,352	-0,175
70,320	-38,401	-0,260	-0,096
71,334	-83,304	-0,297	-0,066
72,349	-43,022	-0,142	-0,050
73,363	159,123	-0,334	-0,325
74,378	189,499	-0,237	-0,250
75,393	294,299	-0,178	-0,228
76,407	34,790	-0,383	-0,234
77,422	189,891	-0,159	-0,167
78,436	32,860	-0,248	-0,150
79,451	76,387	-0,255	-0,189
80,466	18,802	-0,352	-0,197
81,480	68,735	-0,262	-0,188
82,495	251,008	-0,310	-0,370
83,509	-0,722	-0,404	-0,200
84,524	-169,956	-0,217	0,005
85,539	-46,992	-0,384	-0,131
86,553	176,888	-0,310	-0,315
87,568	-16,722	-0,338	-0,149
88,582	223,088	-0,266	-0,300
89,597	-65,228	-0,303	-0,085
90,611	-3,982	-0,329	-0,159
91,626	-1,910	-0,248	-0,122
92,641	176,890	-0,187	-0,191
93,655	-21,005	-0,355	-0,152
94,670	9,804	-0,444	-0,235
95,684	-52,435	-0,348	-0,112
96,699	194,295	-0,135	-0,143
97,714	254,883	-0,273	-0,327
98,728	201,480	-0,176	-0,190
99,743	19,847	-0,332	-0,186
100,757	17,029	-0,279	-0,154
101,772	-25,417	-0,339	-0,139
102,787	75,174	-0,270	-0,198
103,801	186,571	-0,314	-0,327
104,816	26,086	-0,236	-0,137
105,830	84,005	-0,160	-0,122
106,845	-16,979	-0,173	-0,076
107,860	72,799	-0,301	-0,219
108,874	14,965	-0,339	-0,185
109,889	31,898	-0,282	-0,169
110,903	50,939	-0,286	-0,189
111,918	85,887	-0,249	-0,191
112,933	-5,790	-0,203	-0,097
113,947	10,483	-0,359	-0,190
114,962	34,895	-0,290	-0,177
115,976	62,794	-0,279	-0,195
116,991	-112,085	-0,218	-0,030
118,006	243,569	-0,186	-0,218
119,020	-42,893	-0,177	-0,063
120,035	-26,604	-0,246	-0,100
121,049	-67,068	-0,143	-0,039
122,064	-157,363	-0,262	0,011
123,079	3,523	-0,332	-0,168
124,093	-38,712	-0,206	-0,075
125,108	8,477	-0,273	-0,143
126,122	187,821	-0,266	-0,277
127,137	42,453	-0,269	-0,170
128,151	188,056	-0,201	-0,209
129,166	10,602	-0,173	-0,092
130,181	130,272	-0,240	-0,214
131,195	251,302	-0,189	-0,224
132,210	163,447	-0,240	-0,235
133,224	-4,056	-0,339	-0,163
134,239	24,571	-0,238	-0,137
135,254	202,006	-0,210	-0,226
136,268	56,784	-0,212	-0,144
137,283	49,724	-0,221	-0,145
138,297	7,926	-0,378	-0,197
139,312	91,357	-0,237	-0,185
140,327	8,565	-0,204	-0,107
141,341	293,668	-0,090	-0,115
142,356	24,884	-0,249	-0,144
143,370	26,179	-0,228	-0,132
144,385	98,870	-0,184	-0,148
145,400	0,946	-0,236	-0,118
146,414	283,264	-0,223	-0,280
147,429	374,034	-0,148	-0,210
148,443	286,538	-0,211	-0,266
149,458	800,000	-0,058	-0,118
150,473	22,394	-0,220	-0,125
151,487	63,615	-0,281	-0,196
152,502	33,250	-0,236	-0,142
153,516	51,801	-0,304	-0,201
154,531	-69,803	-0,280	-0,074
155,546	45,243	-0,295	-0,189
156,560	-102,083	-0,336	-0,056
157,575	226,702	-0,107	-0,121
158,589	61,203	-0,251	-0,173
159,604	544,223	-0,137	-0,229
160,619	102,345	-0,254	-0,207
161,633	800,000	-0,145	-0,295
162,648	429,335	-0,112	-0,169
163,662	-88,150	-0,290	-0,060
164,677	155,121	-0,225	-0,215
165,692	361,980	-0,141	-0,198
166,706	392,201	-0,126	-0,182
167,721	223,174	-0,196	-0,220
168,735	91,878	-0,218	-0,170
169,750	-58,401	-0,279	-0,084
170,764	311,250	-0,093	-0,122
171,779	360,602	-0,180	-0,252
172,794	-47,764	-0,212	-0,071
173,808	71,159	-0,134	-0,097
174,823	157,172	-0,160	-0,154
175,837	243,526	-0,226	-0,264
176,852	656,574	-0,079	-0,142
177,867	26,364	-0,236	-0,136
178,881	-137,184	-0,318	-0,025
179,896	153,882	-0,155	-0,148
180,910	5,038	-0,286	-0,145
181,925	74,055	-0,256	-0,186
182,940	624,562	-0,158	-0,278
183,954	-88,036	-0,327	-0,068
184,969	-85,735	-0,200	0,043
185,983	10,145	-0,157	-0,083
186,998	71,303	-0,225	-0,162
188,013	292,093	-0,122	-0,155
189,027	-8,075	-0,198	-0,092
190,042	-18,376	-0,334	-0,144
191,056	158,111	-0,212	-0,204
192,071	-38,230	-0,081	-0,030
193,086	15,505	-0,296	-0,161
194,100	30,234	-0,123	-0,073
195,115	15,896	-0,144	-0,078
196,129	95,851	-0,250	-0,198
197,144	75,412	-0,168	-0,123
198,159	414,816	-0,106	-0,157
199,173	-30,364	-0,292	-0,114
200,188	800,000	-0,044	-0,114
201,202	48,751	-0,228	-0,148
202,217	58,367	-0,260	-0,177
203,232	-29,563	-0,306	-0,121
204,246	162,964	-0,233	-0,227
205,261	-24,215	-0,212	-0,087
206,275	-131,684	-0,229	-0,021
207,290	-48,005	-0,167	-0,056
208,304	-159,586	-0,309	-0,012
209,319	51,093	-0,184	-0,121
210,334	167,429	-0,211	-0,207
211,348	87,252	-0,209	-0,160
212,363	109,056	-0,279	-0,231
213,377	-44,027	-0,300	-0,104
214,392	800,000	-0,075	-0,204
215,407	126,036	-0,188	-0,164
216,421	49,187	-0,176	-0,114
217,436	102,041	-0,285	-0,230
218,450	161,886	-0,203	-0,197
219,465	147,020	-0,250	-0,232
220,480	152,253	-0,181	-0,171
221,494	182,678	-0,181	-0,185
222,509	-113,906	-0,164	-0,022
223,523	-200,000	-0,056	-0,199
224,538	82,987	-0,175	-0,132
225,553	125,505	-0,171	-0,149
226,567	78,148	-0,132	-0,097
227,582	84,799	-0,219	-0,166
228,596	-89,777	-0,223	-0,045
229,611	-36,054	-0,183	-0,068
230,626	-93,166	-0,140	0,027
231,640	118,763	-0,164	-0,140
232,655	46,053	-0,219	-0,140
233,669	800,000	-0,140	-0,296
234,684	-36,391	-0,192	-0,071
235,699	6,034	-0,210	-0,107
236,713	-4,581	-0,116	-0,055
237,728	134,904	-0,186	-0,167
238,742	8,259	-0,251	-0,130
239,757	351,409	-0,207	-0,284
240,772	800,000	-0,133	-0,303
241,786	-1,622	-0,232	-0,113
242,801	-124,536	-0,148	-0,016
243,815	-13,564	-0,162	-0,072
244,830	-139,821	-0,061	-0,004
245,844	-130,550	-0,163	0,015
246,859	176,703	-0,155	-0,156
247,874	134,848	-0,195	-0,175
248,888	383,569	-0,129	-0,184
249,903	71,944	-0,205	-0,147
250,917	-8,112	-0,076	-0,035
251,932	211,937	-0,148	-0,161
252,947	-99,440	-0,131	-0,022
253,961	80,950	-0,208	-0,154
254,976	34,605	-0,170	-0,102
255,990	102,528	-0,215	-0,173
257,005	-19,034	-0,267	-0,114
258,020	278,082	-0,135	-0,166
259,034	-61,474	-0,259	-0,074
260,049	-1,855	-0,167	-0,081
261,063	218,569	-0,147	-0,162
262,078	102,170	-0,213	-0,171
263,093	82,584	-0,194	-0,145
264,107	252,929	-0,159	-0,187
265,122	-200,000	-0,013	-0,048
266,136	127,491	-0,126	-0,110
267,151	146,751	-0,174	-0,161
268,166	75,140	-0,237	-0,172
269,180	-136,532	-0,118	-0,009
270,195	157,824	-0,196	-0,187
271,209	-16,226	-0,138	-0,060
272,224	331,991	-0,157	-0,210
273,239	-9,902	-0,115	-0,053
274,253	4,176	-0,204	-0,103
275,268	-64,678	-0,125	-0,035
276,282	69,287	-0,251	-0,178
277,297	85,362	-0,205	-0,155
278,312	-120,058	-0,221	-0,026
279,326	195,925	-0,163	-0,171
280,341	72,784	-0,048	-0,035
281,355	-87,004	-0,219	-0,045
282,370	270,752	-0,116	-0,140
283,384	45,512	-0,176	-0,112
284,399	-127,404	-0,213	-0,021
285,414	-200,000	-0,014	-0,078
286,428	19,816	-0,227	-0,125
287,443	-76,668	-0,104	0,025
288,457	-200,000	0,005	-0,062
289,472	800,000	-0,073	-0,141
290,487	302,975	-0,195	-0,249
291,501	-77,448	-0,270	-0,064
292,516	77,177	-0,232	-0,169
293,530	-109,483	-0,243	-0,035
294,545	132,902	-0,055	-0,049
295,560	209,264	-0,174	-0,187
296,574	139,825	-0,129	-0,116
297,589	82,237	-0,164	-0,122
298,603	-52,545	-0,238	-0,075
299,618	77,894	-0,190	-0,139
300,633	262,597	-0,132	-0,157
301,647	800,000	-0,039	-0,091
302,662	-66,412	-0,084	-0,023
303,676	-107,326	-0,058	-0,009
304,691	62,845	-0,146	-0,100
305,706	28,582	-0,117	0,068
306,720	-69,958	-0,159	-0,041
307,735	-2,786	-0,220	-0,105
308,749	800,000	-0,045	-0,108
309,764	-77,631	-0,132	-0,031
310,779	60,728	-0,196	-0,133
311,793	-98,879	-0,186	-0,032
312,808	-36,051	-0,252	0,093
313,822	-200,000	-0,018	-0,083
314,837	-27,586	-0,261	-0,103
315,852	-145,903	-0,193	-0,012
316,866	-6,301	-0,123	-0,057
317,881	153,306	-0,118	0,111
318,895	94,571	-0,185	-0,144
319,910	499,374	-0,123	-0,196
320,925	9,636	-0,232	-0,120
321,939	-168,238	-0,134	0,003
322,954	28,844	-0,176	-0,102
323,968	429,481	-0,101	-0,151
324,983	-78,589	-0,177	-0,041
325,997	37,218	-0,117	-0,071
327,012	-24,724	-0,162	-0,066
328,027	800,000	-0,050	-0,142
329,041	-55,416	-0,087	-0,027
330,056	93,745	-0,055	-0,042
331,070	211,848	-0,139	-0,150
332,085	-19,283	-0,102	-0,043
333,100	800,000	-0,054	-0,106
334,114	40,888	-0,141	-0,087
335,129	800,000	-0,091	-0,229
336,143	-78,608	-0,253	-0,059
337,158	124,460	-0,139	-0,120
338,173	-16,312	-0,161	-0,070
339,187	-200,000	0,011	-0,095
340,202	-157,986	-0,074	0,003
341,216	5,912	-0,117	-0,059
342,231	78,683	-0,224	-0,164
343,246	-200,000	-0,057	-0,261
344,260	614,813	-0,052	0,090
345,275	-54,657	-0,106	-0,033
346,289	59,505	-0,051	-0,035
347,304	65,301	-0,092	0,063
348,319	-42,448	-0,117	0,041
349,333	362,173	-0,094	-0,129
350,348	-144,485	-0,109	-0,007
351,362	360,783	-0,102	-0,139
352,377	-58,643	-0,115	-0,034
353,392	249,287	-0,141	-0,164
354,406	109,632	-0,215	-0,176
355,421	207,174	1305,740	1393,748
356,435	159,360	1465,350	1394,225
