DTS Sentinel unit serial number:	SN410029Multiplexer serial number:	ORYXHardware model number:	OX2-SRSoftware version number:	ORYX F/W v4,00 Oryx Data Collector v3.7.2.0data status	okinstallation	B3 Nyhavnadifferential loss correction	single-endedforward channel	channel 1reverse channel	N/Adate	2023/12/02time	02:07:30forward acquisition time	300,00reverse acquisition time	0,00gamma	499,1914k internal	0,3194k external	0,3194temperature offset calibration	1,0000default loss term (dB/km)	0,3820temperature slope calibration	1,0000multiplexer offset coefficient	1,0000multiplexer slope coefficient	1,0000fibre end	0,00T internal ref (°C)	16,62T ext. ref 1 (°C)	1,91T ext. ref 2 (°C)	1,90length (m)	temperature (°C)	Stokes	anti-Stokes-744,400	239,949	-0,240	-0,292
-743,385	301,833	0,171	0,232
-742,371	-105,450	-0,252	-0,041
-741,356	-200,000	0,106	0,351
-740,342	800,000	-0,093	-0,246
-739,327	-200,000	-0,056	0,302
-738,312	641,565	-0,100	-0,186
-737,298	-200,000	-0,033	0,224
-736,283	44,462	-0,297	-0,199
-735,269	405,931	0,127	0,196
-734,254	120,873	-0,227	-0,206
-733,239	16,497	-0,286	0,164
-732,225	162,855	-0,189	-0,194
-731,210	228,416	-0,054	0,064
-730,196	-42,137	0,083	-0,031
-729,181	800,000	0,054	0,116
-728,167	-189,567	-0,050	0,000
-727,152	118,641	-0,046	0,042
-726,137	-200,000	-0,038	-0,156
-725,123	223,855	0,097	-0,115
-724,108	-42,485	-0,148	-0,055
-723,094	800,000	-0,081	-0,215
-722,079	294,055	0,077	0,103
-721,064	-136,601	-0,086	-0,007
-720,050	-102,273	-0,139	0,024
-719,035	-16,873	0,052	0,024
-718,021	-155,648	-0,109	-0,005
-717,006	-110,257	-0,053	-0,008
-715,991	-23,216	-0,083	-0,036
-714,977	169,662	-0,094	0,098
-713,962	-200,000	-0,003	0,034
-712,948	-14,286	0,078	0,037
-711,933	-121,386	0,072	-0,009
-710,918	800,000	-0,023	0,073
-709,904	661,748	-0,028	0,052
-708,889	-69,118	-0,032	0,009
-707,875	800,000	-0,049	-0,139
-706,860	-200,000	-0,018	-0,098
-705,845	-200,000	-0,012	0,040
-704,831	-200,000	0,032	0,181
-703,816	-93,730	0,081	0,016
-702,802	619,652	0,077	-0,142
-701,787	-200,000	-0,031	-0,137
-700,772	448,182	0,029	-0,046
-699,758	-3,353	-0,172	0,087
-698,743	-134,808	-0,072	0,006
-697,729	210,023	-0,103	0,118
-696,714	-144,993	-0,101	-0,007
-695,699	-200,000	-0,000	-0,037
-694,685	-132,220	-0,126	0,012
-693,670	-63,484	-0,079	-0,024
-692,656	-200,000	-0,005	0,061
-691,641	-38,149	0,085	-0,033
-690,627	-80,065	0,062	-0,015
-689,612	800,000	-0,055	0,158
-688,597	13,093	0,036	-0,020
-687,583	800,000	-0,081	-0,198
-686,568	23,834	-0,140	-0,084
-685,554	659,791	0,037	-0,070
-684,539	420,714	-0,037	0,058
-683,524	-9,316	-0,152	0,074
-682,510	-178,586	0,131	0,002
-681,495	-21,671	-0,093	0,041
-680,481	238,744	-0,085	-0,103
-679,466	-200,000	0,002	-0,092
-678,451	-91,477	0,057	-0,012
-677,437	-200,000	-0,005	-0,071
-676,422	-18,294	-0,111	-0,050
-675,408	800,000	-0,043	-0,102
-674,393	58,813	-0,055	-0,039
-673,378	84,618	0,066	-0,053
-672,364	324,405	-0,020	0,028
-671,349	-96,779	-0,052	0,010
-670,335	109,070	0,051	0,045
-669,320	-200,000	-0,027	-0,171
-668,305	-11,553	0,122	0,058
-667,291	323,855	0,058	-0,081
-666,276	292,576	-0,118	-0,157
-665,262	275,355	-0,093	-0,119
-664,247	77,094	-0,033	-0,025
-663,232	-68,123	0,060	-0,017
-662,218	-31,165	-0,099	0,040
-661,203	-41,552	-0,174	0,065
-660,189	144,535	0,019	0,019
-659,174	-1,533	0,022	0,011
-658,159	134,397	-0,084	0,080
-657,145	18,239	-0,065	-0,037
-656,130	77,130	0,039	-0,030
-655,116	-10,022	-0,080	0,038
-654,101	234,309	0,053	0,064
-653,086	800,000	0,056	-0,117
-652,072	-200,000	0,019	-0,080
-651,057	17,426	-0,137	-0,079
-650,043	-100,076	0,071	-0,013
-649,028	-14,617	-0,076	-0,035
-648,014	800,000	0,014	0,031
-646,999	59,373	0,142	0,102
-645,984	431,751	0,082	0,130
-644,970	800,000	-0,042	-0,105
-643,955	-90,126	-0,185	-0,039
-642,941	800,000	0,016	-0,050
-641,926	-7,514	-0,090	-0,044
-640,911	-113,703	0,139	0,019
-639,897	-200,000	-0,002	-0,053
-638,882	68,139	0,079	0,059
-637,868	365,905	0,033	-0,048
-636,853	-134,543	-0,069	-0,006
-635,838	387,357	0,016	0,023
-634,824	-44,940	-0,012	0,004
-633,809	800,000	0,023	-0,057
-632,795	800,000	-0,022	0,063
-631,780	-63,813	0,136	0,040
-630,765	-62,520	0,100	0,030
-629,751	-69,501	-0,115	-0,032
-628,736	71,909	-0,080	-0,060
-627,722	-200,000	-0,006	0,038
-626,707	-188,295	-0,099	-0,001
-625,692	-200,000	-0,021	0,114
-624,678	-200,000	0,041	0,186
-623,663	-153,499	0,126	0,006
-622,649	800,000	-0,042	0,104
-621,634	-23,389	-0,099	-0,043
-620,619	-42,081	-0,159	-0,059
-619,605	-200,000	0,003	0,031
-618,590	-114,674	0,057	0,008
-617,576	-124,700	0,062	0,007
-616,561	494,182	0,065	-0,109
-615,546	464,542	-0,074	-0,120
-614,532	317,678	-0,080	-0,110
-613,517	44,474	-0,048	-0,032
-612,503	176,959	0,074	0,078
-611,488	800,000	0,032	0,102
-610,474	-130,555	0,017	-0,002
-609,459	-200,000	0,000	0,066
-608,444	-85,136	-0,131	-0,029
-607,430	800,000	0,056	0,120
-606,415	153,967	-0,031	-0,031
-605,401	-21,630	-0,052	-0,023
-604,386	17,774	-0,109	-0,063
-603,371	800,000	-0,017	0,041
-602,357	237,596	-0,049	-0,060
-601,342	-148,138	0,119	-0,007
-600,328	-40,381	0,131	-0,049
-599,313	302,552	-0,094	-0,126
-598,298	-200,000	-0,005	-0,074
-597,284	-155,666	0,164	-0,007
-596,269	-200,000	0,009	0,083
-595,255	334,087	-0,086	-0,121
-594,240	575,718	-0,071	-0,127
-593,225	-11,789	-0,075	-0,036
-592,211	-20,007	-0,074	-0,033
-591,196	-46,270	0,100	0,035
-590,182	19,644	-0,060	0,035
-589,167	-65,580	0,094	-0,027
-588,152	-200,000	0,005	-0,037
-587,138	800,000	-0,025	0,050
-586,123	628,428	-0,072	-0,133
-585,109	-130,697	-0,071	0,007
-584,094	502,515	-0,039	0,066
-583,079	125,962	-0,037	-0,034
-582,065	550,797	-0,070	0,121
-581,050	16,825	-0,098	0,056
-580,036	-200,000	0,014	0,064
-579,021	-37,588	-0,047	-0,018
-578,006	262,394	-0,030	0,037
-576,992	93,772	-0,104	-0,086
-575,977	-103,050	0,172	-0,029
-574,963	-200,000	-0,001	0,011
-573,948	-145,323	-0,106	-0,007
-572,934	-117,804	0,043	0,005
-571,919	-15,142	-0,142	-0,065
-570,904	-191,132	0,101	0,001
-569,890	-137,333	0,056	0,005
-568,875	-71,237	-0,069	0,019
-567,861	-0,950	0,061	-0,031
-566,846	-200,000	0,010	0,106
-565,831	114,268	-0,089	-0,079
-564,817	334,108	-0,060	-0,084
-563,802	800,000	-0,049	-0,113
-562,788	800,000	-0,022	-0,067
-561,773	169,098	-0,021	-0,022
-560,758	552,716	0,045	0,078
-559,744	262,779	0,045	-0,056
-558,729	-111,754	-0,175	0,025
-557,715	-49,251	-0,073	-0,025
-556,700	-200,000	0,035	-0,192
-555,685	20,439	-0,064	-0,037
-554,671	800,000	0,032	0,076
-553,656	223,561	0,073	-0,086
-552,642	800,000	-0,018	-0,045
-551,627	-200,000	0,031	-0,124
-550,612	150,386	0,039	0,038
-549,598	-84,788	-0,192	0,043
-548,583	-200,000	0,009	-0,041
-547,569	71,789	-0,107	-0,080
-546,554	-200,000	-0,016	-0,229
-545,539	-200,000	0,002	0,030
-544,525	41,860	0,020	0,013
-543,510	95,383	0,096	-0,079
-542,496	373,767	-0,012	-0,018
-541,481	800,000	-0,044	0,117
-540,466	800,000	-0,035	-0,080
-539,452	114,115	-0,127	0,112
-538,437	-11,567	0,068	0,032
-537,423	-21,025	0,108	-0,048
-536,408	440,763	-0,039	-0,061
-535,393	-200,000	0,022	-0,086
-534,379	105,915	-0,107	-0,092
-533,364	800,000	-0,030	-0,076
-532,350	397,172	0,040	0,060
-531,335	113,465	-0,075	0,066
-530,321	-200,000	-0,016	0,063
-529,306	180,365	-0,053	0,056
-528,291	200,935	-0,046	-0,051
-527,277	-200,000	0,008	0,072
-526,262	192,595	-0,041	0,044
-525,248	-200,000	-0,016	-0,090
-524,233	-200,000	0,005	0,024
-523,218	750,870	0,063	0,124
-522,204	-200,000	0,002	-0,029
-521,189	443,716	-0,087	-0,139
-520,175	179,432	-0,060	0,064
-519,160	-200,000	-0,021	-0,092
-518,145	-138,230	-0,098	-0,008
-517,131	430,089	-0,011	0,018
-516,116	-45,686	0,022	-0,008
-515,102	-127,656	-0,065	-0,007
-514,087	366,072	-0,118	-0,173
-513,072	-200,000	-0,015	-0,139
-512,058	160,532	-0,116	-0,117
-511,043	800,000	0,042	0,108
-510,029	-200,000	-0,013	0,045
-509,014	85,401	0,057	0,045
-507,999	-200,000	-0,004	-0,083
-506,985	-200,000	-0,004	0,012
-505,970	37,111	-0,111	-0,071
-504,956	1,315	-0,109	-0,056
-503,941	-200,000	0,002	-0,016
-502,926	232,798	0,117	0,139
-501,912	207,562	0,157	0,177
-500,897	-200,000	-0,025	0,092
-499,883	199,769	-0,097	-0,108
-498,868	-200,000	0,011	-0,119
-497,853	800,000	-0,038	-0,077
-496,839	9,458	-0,053	0,029
-495,824	-200,000	-0,025	0,089
-494,810	48,011	0,074	-0,050
-493,795	-6,251	-0,081	-0,040
-492,781	-151,370	-0,118	0,006
-491,766	-200,000	-0,033	-0,125
-490,751	437,903	0,048	-0,075
-489,737	-178,917	0,056	-0,001
-488,722	-200,000	0,024	0,096
-487,708	-200,000	-0,046	0,169
-486,693	506,061	-0,063	-0,105
-485,678	-78,575	0,084	0,021
-484,664	227,518	0,073	-0,086
-483,649	20,979	-0,079	0,046
-482,635	-122,711	-0,024	0,003
-481,620	-95,724	0,121	0,023
-480,605	-95,108	0,096	0,018
-479,591	713,640	0,032	-0,062
-478,576	-200,000	-0,009	-0,144
-477,562	800,000	-0,032	-0,066
-476,547	131,650	-0,070	-0,065
-475,532	-127,640	-0,152	-0,016
-474,518	211,328	0,061	0,069
-473,503	-19,586	0,062	0,028
-472,489	-19,585	0,090	0,040
-471,474	-167,253	-0,110	-0,003
-470,459	800,000	-0,033	0,096
-469,445	471,894	0,066	0,107
-468,430	-100,660	-0,071	-0,012
-467,416	-120,033	-0,035	-0,004
-466,401	-200,000	-0,013	0,167
-465,386	-200,000	0,006	-0,112
-464,372	-200,000	-0,004	-0,138
-463,357	2,720	0,088	0,046
-462,343	-78,314	-0,042	-0,010
-461,328	452,489	0,077	0,123
-460,313	39,798	0,094	-0,061
-459,299	-200,000	-0,021	0,154
-458,284	123,047	-0,051	0,046
-457,270	800,000	-0,054	0,114
-456,255	-200,000	0,025	0,101
-455,241	-44,577	-0,127	-0,045
-454,226	800,000	0,033	-0,076
-453,211	-98,597	0,029	-0,005
-452,197	-123,022	0,056	-0,006
-451,182	-62,842	0,070	-0,021
-450,168	800,000	-0,019	-0,047
-449,153	-20,279	-0,077	-0,034
-448,138	-200,000	-0,012	0,094
-447,124	-200,000	-0,009	-0,036
-446,109	800,000	-0,047	0,110
-445,095	23,892	-0,065	-0,039
-444,080	-200,000	0,038	0,138
-443,065	-200,000	-0,053	0,182
-442,051	-200,000	0,007	0,153
-441,036	89,911	0,014	0,012
-440,022	8,486	-0,187	-0,101
-439,007	-65,639	-0,090	0,026
-437,992	569,440	-0,033	0,059
-436,978	130,362	-0,080	0,074
-435,963	-101,059	0,107	0,019
-434,949	-122,194	0,083	-0,010
-433,934	-200,000	0,015	-0,080
-432,919	153,478	0,015	-0,015
-431,905	529,776	-0,019	0,033
-430,890	85,972	-0,078	0,062
-429,876	557,991	0,048	0,083
-428,861	-200,000	0,010	0,085
-427,846	-165,802	0,056	0,002
-426,832	-74,702	-0,185	0,048
-425,817	800,000	-0,018	0,044
-424,803	800,000	-0,020	-0,057
-423,788	-200,000	0,004	0,058
-422,773	-200,000	-0,003	0,135
-421,759	-130,924	0,013	0,001
-420,744	-200,000	-0,014	0,081
-419,730	-108,107	-0,118	-0,018
-418,715	-79,071	-0,188	-0,046
-417,701	-54,931	0,039	0,013
-416,686	425,260	-0,039	-0,061
-415,671	-200,000	0,000	0,044
-414,657	-73,649	0,077	0,020
-413,642	155,982	-0,042	0,042
-412,628	-200,000	-0,007	0,044
-411,613	-200,000	0,006	-0,029
-410,598	233,399	-0,047	-0,056
-409,584	-68,126	0,122	0,034
-408,569	-53,956	0,154	0,050
-407,555	-200,000	0,008	0,032
-406,540	63,537	-0,032	-0,023
-405,525	-134,361	-0,109	0,009
-404,511	125,162	0,109	-0,099
-403,496	-200,000	0,060	-0,193
-402,482	-26,054	-0,044	-0,019
-401,467	55,332	-0,046	0,032
-400,452	800,000	0,058	-0,122
-399,438	-85,498	0,176	-0,039
-398,423	23,309	0,033	-0,019
-397,409	-200,000	-0,011	-0,079
-396,394	65,660	-0,047	-0,034
-395,379	-200,000	0,018	0,067
-394,365	642,430	-0,038	0,070
-393,350	-94,990	0,118	-0,023
-392,336	-200,000	0,006	0,060
-391,321	800,000	-0,010	0,026
-390,306	332,010	-0,102	0,142
-389,292	30,149	0,063	-0,039
-388,277	275,104	0,098	0,125
-387,263	713,697	0,056	0,107
-386,248	22,304	0,060	0,035
-385,233	315,901	0,062	-0,084
-384,219	147,873	0,010	-0,010
-383,204	10,833	0,075	0,041
-382,190	123,991	0,058	0,052
-381,175	681,031	0,048	0,089
-380,160	19,348	0,070	0,040
-379,146	441,402	0,046	-0,073
-378,131	-93,785	0,142	-0,028
-377,117	-200,000	0,012	0,102
-376,102	-200,000	-0,017	-0,114
-375,088	39,912	-0,142	0,092
-374,073	-5,932	-0,019	-0,009
-373,058	800,000	0,010	-0,022
-372,044	108,712	0,037	0,032
-371,029	-129,627	-0,065	-0,006
-370,015	-52,983	0,042	0,014
-369,000	-200,000	-0,007	0,082
-367,985	90,255	-0,070	0,056
-366,971	-55,101	0,065	-0,021
-365,956	-113,182	0,182	0,025
-364,942	-200,000	0,092	-0,000
-363,927	-14,745	-0,056	-0,026
-362,912	154,387	-0,075	-0,074
-361,898	425,220	0,067	0,104
-360,883	139,375	-0,025	0,024
-359,869	14,792	-0,092	0,051
-358,854	17,278	0,120	0,068
-357,839	-200,000	0,007	0,096
-356,825	-84,368	0,201	-0,045
-355,810	-200,000	-0,000	0,094
-354,796	-200,000	0,017	0,079
-353,781	800,000	-0,024	0,062
-352,766	800,000	0,053	-0,106
-351,752	47,872	-0,052	-0,035
-350,737	253,389	-0,104	-0,127
-349,723	-200,000	0,002	-0,052
-348,708	-116,963	-0,156	-0,020
-347,693	254,310	0,063	0,077
-346,679	-124,635	-0,010	-0,001
-345,664	-19,766	-0,206	-0,091
-344,650	-200,000	0,007	-0,152
-343,635	64,991	0,073	0,053
-342,620	184,658	0,054	0,058
-341,606	-200,000	-0,012	0,131
-340,591	-96,019	0,054	-0,010
-339,577	-134,436	0,066	-0,006
-338,562	800,000	0,022	-0,056
-337,548	-124,151	0,060	-0,007
-336,533	-133,322	0,149	0,013
-335,518	-200,000	-0,010	0,156
-334,504	432,180	0,053	0,082
-333,489	510,099	-0,027	0,045
-332,475	-200,000	-0,026	-0,089
-331,460	-58,376	0,160	-0,050
-330,445	800,000	-0,044	0,125
-329,431	-68,419	0,172	-0,048
-328,416	-200,000	0,017	0,110
-327,402	-17,647	0,131	0,059
-326,387	495,292	-0,070	-0,116
-325,372	800,000	-0,008	-0,021
-324,358	154,634	-0,051	0,051
-323,343	-200,000	-0,013	0,093
-322,329	-200,000	-0,015	0,157
-321,314	-200,000	0,019	-0,130
-320,299	-103,284	0,178	0,030
-319,285	-200,000	0,019	-0,123
-318,270	-200,000	0,016	0,083
-317,256	-200,000	-0,005	-0,112
-316,241	675,394	-0,046	-0,086
-315,226	-22,005	0,121	0,053
-314,212	47,169	0,111	0,074
-313,197	-99,276	0,075	-0,013
-312,183	253,963	-0,074	0,091
-311,168	50,382	0,091	0,061
-310,153	-45,906	-0,129	-0,045
-309,139	800,000	0,049	-0,104
-308,124	-3,578	-0,099	-0,049
-307,110	374,230	0,023	0,033
-306,095	98,649	0,118	0,098
-305,080	-153,371	-0,141	0,007
-304,066	-4,135	0,056	0,028
-303,051	-162,073	-0,156	-0,006
-302,037	59,697	0,040	-0,029
-301,022	231,862	0,047	-0,055
-300,008	369,431	-0,024	0,035
-298,993	646,220	0,063	0,115
-297,978	53,154	-0,150	0,103
-296,964	15,365	0,087	-0,049
-295,949	-200,000	-0,045	-0,186
-294,935	-200,000	-0,009	-0,038
-293,920	-188,635	-0,028	-0,000
-292,905	504,628	-0,019	0,032
-291,891	103,855	0,017	0,015
-290,876	21,512	0,150	-0,087
-289,862	800,000	-0,028	-0,077
-288,847	86,873	-0,036	-0,029
-287,832	-52,490	-0,095	-0,031
-286,818	134,111	-0,025	-0,023
-285,803	676,767	-0,033	0,063
-284,789	-200,000	0,020	0,152
-283,774	287,797	-0,077	0,100
-282,759	160,982	-0,110	0,110
-281,745	-200,000	-0,006	-0,056
-280,730	-200,000	-0,002	-0,150
-279,716	95,102	-0,040	-0,033
-278,701	-146,902	0,031	-0,002
-277,686	-7,866	0,057	-0,028
-276,672	-200,000	0,015	0,059
-275,657	-113,367	0,110	-0,015
-274,643	800,000	0,040	0,103
-273,628	-78,568	-0,055	0,013
-272,613	-77,067	0,061	-0,015
-271,599	73,446	0,047	-0,035
-270,584	800,000	0,082	-0,201
-269,570	-32,365	-0,052	-0,021
-268,555	310,271	-0,046	0,061
-267,540	594,115	0,052	-0,093
-266,526	-200,000	-0,022	-0,151
-265,511	48,520	-0,104	0,070
-264,497	-85,263	0,154	0,034
-263,482	-200,000	0,000	-0,021
-262,467	647,579	0,060	-0,110
-261,453	126,454	0,093	-0,084
-260,438	-200,000	-0,019	-0,139
-259,424	-200,000	-0,025	-0,135
-258,409	66,742	0,076	0,055
-257,395	-182,526	0,128	-0,002
-256,380	-162,650	0,157	-0,005
-255,365	-200,000	-0,006	0,024
-254,351	-22,585	0,088	-0,038
-253,336	35,192	0,079	-0,050
-252,322	-82,163	-0,171	-0,040
-251,307	-115,209	0,037	0,005
-250,292	38,261	0,026	0,017
-249,278	-91,068	0,197	0,040
-248,263	-35,345	-0,047	0,018
-247,249	495,657	-0,044	0,073
-246,234	77,355	0,070	0,053
-245,219	-60,164	-0,129	0,039
-244,205	800,000	-0,059	0,129
-243,190	773,866	0,054	0,107
-242,176	-133,426	0,031	0,003
-241,161	-17,865	-0,070	-0,031
-240,146	-200,000	-0,002	0,059
-239,132	-50,019	0,074	0,025
-238,117	-57,981	-0,078	-0,024
-237,103	23,856	-0,049	0,029
-236,088	-200,000	-0,033	-0,110
-235,073	800,000	0,029	-0,082
-234,059	69,813	0,055	0,041
-233,044	-200,000	-0,002	0,039
-232,030	800,000	-0,014	0,042
-231,015	-200,000	0,003	-0,089
-230,000	231,988	0,055	0,065
-228,986	-163,631	0,112	-0,004
-227,971	-118,988	0,062	0,008
-226,957	800,000	0,045	0,094
-225,942	-3,757	0,090	0,045
-224,927	-104,824	0,066	0,011
-223,913	156,449	-0,110	-0,108
-222,898	356,751	-0,038	-0,054
-221,884	-200,000	-0,012	-0,045
-220,869	390,999	0,043	-0,064
-219,855	-159,226	0,032	0,001
-218,840	-44,313	0,100	-0,035
-217,825	533,413	-0,055	-0,093
-216,811	-200,000	-0,007	-0,088
-215,796	-131,762	0,170	-0,016
-214,782	244,586	0,040	0,048
-213,767	239,685	-0,088	-0,105
-212,752	-39,803	-0,033	-0,012
-211,738	-127,570	0,134	-0,014
-210,723	135,452	-0,029	0,027
-209,709	-200,000	-0,011	-0,076
-208,694	-200,000	0,005	-0,086
-207,679	-2,761	-0,072	-0,036
-206,665	-200,000	-0,001	-0,074
-205,650	-28,726	0,103	0,042
-204,636	-200,000	0,030	-0,131
-203,621	167,370	0,080	0,081
-202,606	-200,000	0,020	0,067
-201,592	-200,000	0,036	-0,119
-200,577	269,738	-0,043	0,054
-199,563	31,966	0,053	0,032
-198,548	-10,084	-0,113	0,053
-197,533	35,782	0,087	0,055
-196,519	800,000	-0,028	0,082
-195,504	-177,752	-0,089	0,001
-194,490	27,442	-0,085	-0,051
-193,475	200,807	-0,031	-0,034
-192,460	-100,164	0,064	0,011
-191,446	800,000	-0,029	-0,066
-190,431	98,407	0,109	0,089
-189,417	184,896	-0,046	0,048
-188,402	-29,499	-0,061	0,025
-187,387	800,000	-0,018	-0,044
-186,373	-51,767	-0,025	-0,008
-185,358	-200,000	0,042	-0,178
-184,344	214,362	0,064	-0,072
-183,329	-97,155	0,108	0,020
-182,315	-200,000	0,038	0,169
-181,300	-200,000	-0,029	0,095
-180,285	-200,000	0,012	-0,161
-179,271	-18,711	-0,086	-0,038
-178,256	-40,356	-0,031	-0,012
-177,242	-200,000	-0,035	0,192
-176,227	-200,000	0,000	0,018
-175,212	-200,000	-0,009	0,070
-174,198	-79,770	-0,075	-0,018
-173,183	-200,000	0,002	-0,195
-172,169	147,162	0,023	0,022
-171,154	30,155	-0,074	-0,045
-170,139	-200,000	-0,016	0,138
-169,125	800,000	0,068	0,147
-168,110	-0,897	-0,054	0,027
-167,096	-159,325	0,089	-0,003
-166,081	-200,000	0,002	0,015
-165,066	-200,000	-0,003	-0,102
-164,052	-200,000	-0,012	0,133
-163,037	800,000	0,050	-0,102
-162,023	-200,000	-0,006	-0,026
-161,008	-1,066	-0,040	0,020
-159,993	800,000	0,037	0,097
-158,979	-200,000	0,009	0,028
-157,964	-200,000	0,020	-0,086
-156,950	-81,754	-0,205	0,047
-155,935	800,000	-0,022	0,057
-154,920	-200,000	-0,006	0,057
-153,906	-17,368	0,083	0,037
-152,891	-22,303	-0,108	-0,046
-151,877	-53,225	-0,027	0,009
-150,862	222,918	-0,035	0,041
-149,847	-138,891	-0,031	-0,002
-148,833	-34,819	0,092	-0,036
-147,818	-200,000	0,007	0,036
-146,804	47,134	0,068	0,045
-145,789	16,977	-0,076	-0,043
-144,775	283,710	-0,039	-0,050
-143,760	-57,257	-0,015	0,005
-142,745	-14,532	-0,092	-0,042
-141,731	173,676	0,071	0,073
-140,716	-50,067	0,041	0,014
-139,702	-9,201	0,066	0,031
-138,687	37,437	0,073	-0,046
-137,672	-2,606	0,076	-0,038
-136,658	-200,000	-0,046	-0,188
-135,643	200,692	-0,107	-0,117
-134,629	39,592	0,132	-0,084
-133,614	-200,000	0,018	-0,097
-132,599	-20,485	-0,062	0,027
-131,585	-40,434	-0,050	0,018
-130,570	20,513	-0,089	-0,051
-129,556	-117,210	0,145	-0,019
-128,541	-106,711	-0,070	0,011
-127,526	541,614	-0,033	0,057
-126,512	-16,407	0,151	0,068
-125,497	102,188	0,022	-0,019
-124,483	-77,159	0,006	0,001
-123,468	9,631	-0,065	0,035
-122,453	-200,000	0,003	0,018
-121,439	800,000	0,023	0,048
-120,424	-45,494	-0,083	-0,029
-119,410	-200,000	0,003	-0,033
-118,395	-119,183	0,043	-0,005
-117,380	800,000	0,083	-0,173
-116,366	-200,000	0,020	-0,133
-115,351	-200,000	0,005	-0,034
-114,337	-75,416	-0,041	0,010
-113,322	-200,000	-0,012	-0,127
-112,307	800,000	0,059	0,124
-111,293	114,951	-0,097	0,084
-110,278	-200,000	-0,001	0,090
-109,264	800,000	0,034	0,083
-108,249	152,737	-0,090	0,087
-107,234	-163,461	-0,045	0,001
-106,220	-73,343	-0,044	0,011
-105,205	-26,457	0,129	0,053
-104,191	19,046	0,147	0,084
-103,176	800,000	0,047	-0,121
-102,162	800,000	0,059	-0,124
-101,147	-29,605	-0,124	0,050
-100,132	53,848	-0,066	-0,045
-99,118	269,620	-0,088	0,110
-98,103	0,405	0,058	-0,029
-97,089	380,123	0,048	0,070
-96,074	-100,373	-0,049	-0,009
-95,059	765,344	-0,074	-0,144
-94,045	-16,796	0,115	-0,051
-93,030	151,018	-0,068	0,066
-92,016	-200,000	0,015	-0,065
-91,001	800,000	0,019	-0,050
-89,986	-8,849	0,077	0,037
-88,972	-19,941	0,018	0,008
-87,957	596,410	0,060	0,106
-86,943	578,956	-0,027	-0,048
-85,928	800,000	0,021	-0,054
-84,913	-49,012	-0,103	-0,035
-83,899	-200,000	-0,009	-0,147
-82,884	-100,640	0,107	0,019
-81,870	270,827	0,052	0,066
-80,855	-17,919	-0,053	-0,023
-79,840	281,799	0,092	-0,118
-78,826	-200,000	-0,022	-0,110
-77,811	-108,498	-0,029	-0,004
-76,797	319,957	-0,048	-0,065
-75,782	644,248	0,041	0,074
-74,767	64,300	0,055	0,039
-73,753	-43,029	0,096	0,034
-72,738	-200,000	0,015	0,088
-71,724	-44,572	-0,082	-0,029
-70,709	274,031	-0,069	-0,086
-69,694	516,338	-0,058	-0,097
-68,680	-200,000	-0,002	0,036
-67,665	-200,000	-0,007	-0,069
-66,651	77,448	0,174	0,131
-65,636	185,769	0,081	0,085
-64,622	65,173	-0,122	-0,087
-63,607	-200,000	-0,153	-0,000
-62,592	-200,000	0,022	-0,107
-61,578	-75,989	-0,063	-0,016
-60,563	598,110	0,084	0,148
-59,549	397,516	0,008	-0,012
-58,534	-94,922	-1,390	-0,265
-57,519	350,747	-1,514	-2,131
-56,505	-200,000	-0,462	-4,337
-55,490	107,705	0,953	0,805
-54,476	800,000	4,672	11,075
-53,461	-200,000	17,279	268,565
-52,446	800,000	714,672	2178,909
-51,432	551,619	1629,199	2785,617
-50,417	81,377	1655,306	1268,109
-49,403	24,395	1529,689	894,865
-48,388	18,420	1453,231	821,373
-47,373	18,560	1442,316	815,840
-46,359	18,263	1433,445	809,375
-45,344	16,695	1428,868	799,317
-44,330	16,730	1426,777	798,283
-43,315	16,702	1425,062	797,159
-42,300	16,740	1423,267	796,303
-41,286	16,799	1422,297	796,010
-40,271	16,722	1420,882	794,822
-39,257	16,684	1419,731	793,967
-38,242	16,743	1418,282	793,402
-37,227	16,733	1417,035	792,625
-36,213	16,753	1415,963	792,089
-35,198	16,709	1414,626	791,101
-34,184	16,741	1413,609	790,655
-33,169	16,693	1412,532	789,794
-32,154	16,737	1411,545	789,418
-31,140	16,737	1410,297	788,690
-30,125	16,756	1409,027	788,036
-29,111	16,734	1407,796	787,212
-28,096	16,732	1406,781	786,604
-27,082	16,656	1405,759	785,646
-26,067	16,695	1404,521	785,105
-25,052	16,642	1403,665	784,347
-24,038	16,651	1402,480	783,698
-23,023	16,647	1401,360	783,021
-22,009	16,565	1400,547	782,157
-20,994	16,554	1399,578	781,531
-19,979	16,609	1398,764	781,301
-18,965	16,568	1397,740	780,509
-17,950	16,563	1396,812	779,936
-16,936	16,552	1395,796	779,287
-15,921	16,552	1394,530	778,550
-14,906	16,553	1393,816	778,125
-13,892	16,592	1392,914	777,773
-12,877	16,590	1391,746	777,078
-11,863	16,591	1390,870	776,562
-10,848	16,526	1390,226	775,874
-9,833	16,546	1389,188	775,356
-8,819	16,535	1388,255	774,753
-7,804	16,461	1387,359	773,882
-6,790	16,453	1386,013	773,063
-5,775	16,446	1385,226	772,560
-4,760	16,419	1384,613	772,064
-3,746	16,423	1383,662	771,523
-2,731	16,472	1382,865	771,271
-1,717	16,454	1381,681	770,499
-0,702	16,445	1379,873	769,417
0,313	20,191	1301,835	743,183
1,327	36,603	707,952	442,245
2,342	56,468	125,863	86,636
3,356	2,049	16,682	8,510
4,371	11,292	3,030	1,639
5,386	11,561	0,488	0,264
6,400	-100,911	-0,079	0,014
7,415	28,739	-0,283	-0,170
8,429	63,831	-0,314	-0,223
9,444	79,761	-0,257	-0,195
10,459	225,830	-0,307	-0,353
11,473	-53,323	-0,362	-0,117
12,488	123,838	-0,185	-0,164
13,502	299,788	-0,243	-0,317
14,517	-22,666	-0,446	-0,190
15,531	80,759	-0,263	-0,201
16,546	31,062	-0,423	-0,256
17,561	350,006	-0,299	-0,420
18,575	-119,667	-0,299	-0,036
19,590	243,949	-0,181	-0,216
20,604	5,780	-0,324	-0,169
21,619	48,686	-0,392	-0,260
22,634	-13,536	-0,428	-0,195
23,648	39,070	-0,314	-0,198
24,663	84,365	-0,422	-0,326
25,677	122,201	-0,433	-0,383
26,692	313,163	-0,214	-0,285
27,707	25,923	-0,345	-0,203
28,721	-3,980	-0,488	-0,238
29,736	192,223	-0,339	-0,362
30,750	164,689	-0,408	-0,408
31,765	93,981	-0,410	-0,329
32,780	123,191	-0,312	-0,276
33,794	125,093	-0,384	-0,342
34,809	65,542	-0,312	-0,223
35,823	369,913	-0,206	-0,296
36,838	58,784	-0,350	-0,243
37,853	176,285	-0,318	-0,327
38,867	198,602	-0,271	-0,293
39,882	142,479	-0,322	-0,303
40,896	151,494	-0,279	-0,268
41,911	26,541	-0,350	-0,207
42,926	189,854	-0,372	-0,395
43,940	137,868	-0,407	-0,377
44,955	28,156	-0,454	-0,270
45,969	509,922	-0,203	-0,335
46,984	89,952	-0,365	-0,288
47,999	205,928	-0,283	-0,311
49,013	220,394	-0,336	-0,381
50,028	96,742	-0,408	-0,330
51,042	119,667	-0,277	-0,242
52,057	163,042	-0,320	-0,318
53,071	-7,049	-0,451	-0,215
54,086	12,433	-0,303	-0,164
55,101	152,405	-0,280	-0,270
56,115	-16,276	-0,327	-0,146
57,130	42,966	-0,399	-0,256
58,144	-43,582	-0,354	-0,125
59,159	-40,393	-0,419	-0,153
60,174	133,526	-0,298	-0,272
61,188	54,203	-0,319	-0,216
62,203	81,850	-0,376	-0,287
63,217	89,754	-0,293	-0,230
64,232	11,701	-0,374	-0,202
65,247	-53,981	-0,511	-0,163
66,261	58,627	-0,330	-0,228
67,276	-18,850	-0,387	-0,169
68,290	-11,126	-0,341	-0,158
69,305	61,127	-0,329	-0,230
70,320	-6,900	-0,226	-0,108
71,334	-37,122	-0,418	-0,157
72,349	73,278	-0,196	-0,145
73,363	189,542	-0,337	-0,356
74,378	0,724	-0,363	-0,182
75,393	-98,016	-0,338	-0,061
76,407	12,186	-0,240	-0,130
77,422	-21,842	-0,403	-0,172
78,436	261,068	-0,224	-0,274
79,451	-24,414	-0,318	-0,133
80,466	-42,692	-0,356	-0,127
81,480	11,738	-0,302	-0,163
82,495	52,138	-0,192	-0,128
83,509	171,214	-0,330	-0,334
84,524	47,828	-0,267	-0,175
85,539	172,045	-0,206	-0,208
86,553	-27,210	-0,392	-0,160
87,568	-22,794	-0,321	-0,136
88,582	163,728	-0,266	-0,264
89,597	4,411	-0,378	-0,194
90,611	75,989	-0,180	-0,134
91,626	123,594	-0,233	-0,206
92,641	-45,893	-0,240	-0,083
93,655	2,941	-0,321	-0,163
94,670	92,346	-0,193	-0,153
95,684	7,923	-0,306	-0,161
96,699	307,471	-0,236	-0,310
97,714	23,038	-0,214	-0,123
98,728	-9,111	-0,284	-0,133
99,743	149,184	-0,244	-0,233
100,757	28,232	-0,216	-0,128
101,772	61,102	-0,258	-0,180
102,787	-0,920	-0,305	-0,151
103,801	30,674	-0,356	-0,214
104,816	112,432	-0,156	-0,133
105,830	-2,869	-0,315	-0,154
106,845	-33,823	-0,178	-0,069
107,860	-17,202	-0,274	-0,121
108,874	98,467	-0,333	-0,269
109,889	43,928	-0,418	-0,268
110,903	100,846	-0,384	-0,313
111,918	34,026	-0,176	-0,107
112,933	-60,484	-0,188	-0,056
113,947	-41,326	-0,296	-0,107
114,962	-70,712	-0,222	-0,058
115,976	-51,028	-0,284	-0,093
116,991	757,924	-0,134	-0,256
118,006	59,018	-0,386	-0,266
119,020	99,295	-0,261	-0,212
120,035	390,351	-0,198	-0,289
121,049	51,224	-0,294	-0,196
122,064	-133,621	-0,297	-0,026
123,079	49,360	-0,189	-0,124
124,093	-46,014	-0,292	-0,100
125,108	-154,785	-0,265	0,012
126,122	226,845	-0,263	-0,300
127,137	51,214	-0,297	-0,197
128,151	48,373	-0,200	-0,131
129,166	75,371	-0,144	-0,107
130,181	29,825	-0,236	-0,141
131,195	239,996	-0,225	-0,263
132,210	155,546	-0,227	-0,219
133,224	23,150	-0,183	-0,105
134,239	32,880	-0,276	-0,167
135,254	250,688	-0,193	-0,230
136,268	80,276	-0,263	-0,198
137,283	82,402	-0,289	-0,220
138,297	90,583	-0,208	-0,163
139,312	0,109	-0,223	-0,111
140,327	166,650	-0,211	-0,210
141,341	-63,371	-0,293	-0,084
142,356	111,733	-0,222	-0,188
143,370	800,000	-0,061	-0,118
144,385	124,575	-0,265	-0,233
145,400	3,019	-0,280	-0,142
146,414	144,927	-0,212	-0,199
147,429	-200,000	-0,366	0,001
148,443	-8,967	-0,294	-0,137
149,458	102,586	-0,155	-0,127
150,473	73,164	-0,180	-0,132
151,487	249,414	-0,211	-0,251
152,502	180,509	-0,250	-0,257
153,516	38,368	-0,245	-0,152
154,531	270,760	-0,201	-0,248
155,546	40,740	-0,301	-0,189
156,560	-200,000	-0,076	-0,244
157,575	-162,030	-0,246	0,009
158,589	-57,065	-0,336	-0,103
159,604	-37,010	-0,303	-0,113
160,619	77,224	-0,302	-0,224
161,633	180,776	-0,194	-0,200
162,648	117,322	-0,292	-0,251
163,662	-49,837	-0,339	-0,112
164,677	-99,692	-0,184	-0,032
165,692	-28,942	-0,223	-0,089
166,706	213,793	-0,214	-0,237
167,721	-31,088	-0,215	-0,084
168,735	106,199	-0,255	-0,211
169,750	-7,842	-0,174	-0,082
170,764	-30,395	-0,104	-0,041
171,779	-87,779	-0,256	-0,053
172,794	175,007	-0,111	-0,112
173,808	270,609	-0,241	-0,297
174,823	30,565	-0,204	-0,122
175,837	67,435	-0,327	-0,233
176,852	176,627	-0,274	-0,278
177,867	507,294	-0,193	-0,314
178,881	9,464	-0,151	-0,079
179,896	-8,289	-0,182	-0,085
180,910	570,618	-0,108	-0,184
181,925	301,350	-0,129	-0,166
182,940	120,601	-0,234	-0,203
183,954	394,979	-0,176	-0,257
184,969	318,192	-0,187	-0,248
185,983	-148,033	-0,211	-0,012
186,998	191,440	-0,224	-0,236
188,013	168,135	-0,240	-0,238
189,027	105,763	-0,255	-0,210
190,042	62,096	-0,249	-0,173
191,056	12,821	-0,306	-0,165
192,071	618,414	-0,092	-0,162
193,086	-114,889	-0,178	0,023
194,100	15,925	-0,181	-0,099
195,115	-17,951	-0,279	-0,121
196,129	28,569	-0,191	-0,112
197,144	309,969	-0,230	-0,301
198,159	419,407	-0,195	-0,292
199,173	321,526	-0,265	-0,352
200,188	744,657	-0,091	-0,171
201,202	109,156	-0,144	-0,120
202,217	-40,325	-0,238	-0,086
203,232	800,000	-0,156	-0,367
204,246	-32,349	-0,296	-0,114
205,261	102,376	-0,271	-0,220
206,275	176,447	-0,155	-0,157
207,290	-29,674	-0,214	-0,085
208,304	-71,018	-0,229	-0,060
209,319	421,441	-0,122	-0,182
210,334	427,273	-0,137	-0,206
211,348	-120,336	-0,262	-0,031
212,363	-66,814	-0,227	-0,062
213,377	-200,000	-0,053	-0,225
214,392	57,956	-0,154	-0,105
215,407	770,441	-0,128	-0,243
216,421	-184,785	-0,132	-0,001
217,436	173,157	-0,211	-0,212
218,450	800,000	-0,100	-0,193
219,465	605,606	-0,091	-0,157
220,480	-42,525	-0,165	-0,058
221,494	-79,235	-0,283	-0,066
222,509	600,171	-0,120	-0,207
223,523	255,516	-0,119	-0,143
224,538	338,503	-0,141	-0,191
225,553	157,231	-0,208	-0,200
226,567	59,087	-0,253	-0,173
227,582	135,997	-0,157	-0,142
228,596	86,690	-0,143	-0,110
229,611	-91,015	-0,172	0,034
230,626	235,512	-0,073	-0,084
231,640	44,657	-0,219	-0,140
232,655	204,712	-0,148	-0,159
233,669	588,658	-0,141	-0,243
234,684	-10,269	-0,175	-0,080
235,699	25,213	-0,175	-0,101
236,713	7,626	-0,211	-0,109
237,728	45,400	-0,378	-0,241
238,742	173,224	-0,173	-0,173
239,757	139,287	-0,192	-0,175
240,772	132,779	-0,204	-0,183
241,786	-11,951	-0,251	-0,114
242,801	-89,846	-0,230	-0,046
243,815	117,945	-0,175	-0,150
244,830	-200,000	-0,036	-0,187
245,844	-22,753	-0,318	-0,133
246,859	-42,520	-0,203	-0,071
247,874	113,303	-0,296	-0,249
248,888	48,517	-0,224	-0,145
249,903	52,310	-0,162	-0,107
250,917	28,831	-0,153	-0,090
251,932	530,267	-0,110	-0,182
252,947	556,786	-0,099	-0,166
253,961	71,200	-0,218	-0,157
254,976	540,070	-0,130	-0,215
255,990	171,393	-0,162	-0,162
257,005	-94,349	-0,184	-0,035
258,020	-106,332	-0,190	0,029
259,034	36,235	-0,084	-0,051
260,049	286,984	-0,133	-0,167
261,063	15,464	-0,201	-0,109
262,078	213,234	-0,124	-0,136
263,093	82,201	-0,170	-0,128
264,107	29,506	-0,286	-0,168
265,122	293,338	-0,080	-0,101
266,136	-139,826	-0,192	0,014
267,151	-115,605	-0,184	0,024
268,166	-24,030	-0,203	-0,084
269,180	-56,330	-0,196	-0,060
270,195	152,428	-0,247	-0,234
271,209	-200,000	-0,035	-0,174
272,224	23,604	-0,170	-0,097
273,239	252,739	-0,175	-0,207
274,253	-84,828	-0,224	-0,048
275,268	800,000	-0,107	-0,207
276,282	137,277	-0,176	-0,159
277,297	35,903	-0,246	-0,149
278,312	270,290	-0,190	-0,231
279,326	95,394	-0,189	-0,149
280,341	-200,000	-0,073	-0,233
281,355	-73,503	-0,306	-0,077
282,370	81,795	-0,158	-0,118
283,384	-200,000	-0,040	-0,230
284,399	12,499	-0,163	-0,087
285,414	54,127	-0,214	-0,142
286,428	88,747	-0,144	-0,111
287,443	26,153	-0,070	-0,040
288,457	-90,304	-0,180	-0,036
289,472	-18,996	-0,185	-0,079
290,487	537,254	-0,112	-0,184
291,501	731,005	-0,146	-0,272
292,516	-13,003	-0,307	-0,137
293,530	523,567	-0,122	-0,198
294,545	281,363	-0,172	-0,214
295,560	5,621	-0,376	-0,191
296,574	10,258	-0,074	-0,039
297,589	526,336	-0,125	-0,205
298,603	82,604	-0,225	-0,169
299,618	483,958	-0,148	-0,233
300,633	-51,358	-0,158	-0,051
301,647	629,625	-0,083	-0,146
302,662	798,918	-0,086	-0,164
303,676	318,096	-0,057	-0,075
304,691	461,875	-0,133	-0,206
305,706	83,569	-0,064	-0,048
306,720	649,356	-0,082	-0,145
307,735	29,295	-0,193	-0,113
308,749	260,001	-0,075	-0,089
309,764	20,254	-0,119	-0,066
310,779	-9,297	-0,146	-0,067
311,793	169,933	-0,174	-0,172
312,808	47,607	-0,265	-0,170
313,822	82,101	-0,187	-0,140
314,837	800,000	-0,047	-0,141
315,852	15,755	-0,172	-0,093
316,866	191,754	-0,158	-0,164
317,881	388,165	-0,108	-0,154
318,895	-200,000	-0,053	-0,296
319,910	-43,951	-0,196	-0,068
320,925	3,592	-0,230	-0,115
321,939	634,731	-0,105	-0,184
322,954	239,385	-0,101	-0,116
323,968	77,644	-0,196	-0,144
324,983	-77,218	-0,129	0,031
325,997	-52,720	-0,135	-0,043
327,012	-81,452	-0,185	-0,042
328,027	41,952	-0,183	-0,114
329,041	165,976	-0,200	-0,195
330,056	632,404	-0,105	-0,183
331,070	-62,696	-0,140	0,040
332,085	800,000	-0,026	0,080
333,100	315,417	-0,051	-0,067
334,114	8,252	-0,228	-0,118
335,129	-67,296	-0,312	-0,084
336,143	322,914	-0,090	-0,118
337,158	55,642	-0,092	-0,061
338,173	72,499	-0,128	-0,092
339,187	45,207	-0,052	-0,033
340,202	-95,402	-0,213	0,039
341,216	40,651	-0,047	-0,029
342,231	122,979	-0,177	-0,153
343,246	172,844	-0,165	-0,164
344,260	800,000	-0,031	-0,080
345,275	17,667	-0,211	-0,115
346,289	-56,243	-0,122	-0,037
347,304	-143,336	-0,197	-0,013
348,319	103,646	-0,152	-0,123
349,333	-0,859	-0,175	-0,085
350,348	307,944	-0,200	-0,257
351,362	-92,482	-0,155	0,030
352,377	-21,263	-0,127	-0,053
353,392	-159,457	-0,147	-0,006
354,406	653,335	-0,149	-0,264
355,421	210,263	1314,480	1420,094
356,435	161,858	1475,231	1420,630
