DTS Sentinel unit serial number:	SN410029Multiplexer serial number:	ORYXHardware model number:	OX2-SRSoftware version number:	ORYX F/W v4,00 Oryx Data Collector v3.7.2.0data status	okinstallation	B3 Nyhavnadifferential loss correction	single-endedforward channel	channel 1reverse channel	N/Adate	2023/11/29time	05:17:30forward acquisition time	300,00reverse acquisition time	0,00gamma	499,1914k internal	0,3211k external	0,3211temperature offset calibration	1,0000default loss term (dB/km)	0,3820temperature slope calibration	1,0000multiplexer offset coefficient	1,0000multiplexer slope coefficient	1,0000fibre end	0,00T internal ref (°C)	9,13T ext. ref 1 (°C)	-6,18T ext. ref 2 (°C)	-6,30length (m)	temperature (°C)	Stokes	anti-Stokes-744,400	800,000	-0,091	-0,189
-743,385	287,326	-0,116	0,152
-742,371	286,906	-0,117	-0,154
-741,356	-200,000	0,066	0,293
-740,342	-200,000	-0,077	-0,256
-739,327	-200,000	-0,028	0,241
-738,312	399,936	-0,172	-0,262
-737,298	-200,000	-0,084	0,302
-736,283	-200,000	-0,031	-0,230
-735,269	800,000	-0,130	0,308
-734,254	-35,799	-0,113	-0,044
-733,239	49,192	-0,321	0,219
-732,225	-200,000	-0,056	-0,305
-731,210	-200,000	-0,003	0,170
-730,196	573,968	0,090	0,159
-729,181	-153,587	-0,084	-0,004
-728,167	-28,440	-0,093	0,039
-727,152	554,281	0,058	-0,101
-726,137	102,498	-0,098	0,083
-725,123	290,094	-0,025	0,033
-724,108	-200,000	0,014	-0,066
-723,094	192,646	-0,080	-0,087
-722,079	-48,152	-0,087	-0,030
-721,064	-167,030	0,051	0,001
-720,050	-141,731	-0,185	-0,013
-719,035	654,804	0,065	0,121
-718,021	46,570	0,057	0,038
-717,006	-105,767	-0,045	-0,007
-715,991	-200,000	0,003	-0,041
-714,977	56,558	-0,218	0,153
-713,962	-7,391	0,047	-0,023
-712,948	239,530	-0,060	0,072
-711,933	-70,687	0,109	0,029
-710,918	-200,000	-0,008	-0,046
-709,904	492,923	-0,017	-0,028
-708,889	800,000	-0,066	-0,141
-707,875	-96,409	-0,099	0,019
-706,860	-200,000	-0,017	0,073
-705,845	-156,050	0,096	0,004
-704,831	-200,000	0,040	0,163
-703,816	65,690	0,059	0,043
-702,802	-200,000	-0,028	-0,139
-701,787	59,937	-0,186	-0,133
-700,772	-200,000	-0,015	0,058
-699,758	-77,392	0,169	0,042
-698,743	145,972	0,020	0,020
-697,729	-54,104	0,169	-0,055
-696,714	-200,000	0,003	0,090
-695,699	501,896	0,056	-0,094
-694,685	-153,264	-0,029	-0,001
-693,670	-45,120	-0,088	0,031
-692,656	54,492	-0,061	0,042
-691,641	-53,790	0,140	0,046
-690,627	-41,402	0,151	0,056
-689,612	553,764	0,052	-0,090
-688,597	-200,000	-0,010	0,037
-687,583	-38,724	0,052	-0,020
-686,568	49,491	-0,079	0,054
-685,554	77,355	0,066	0,051
-684,539	-101,014	-0,009	0,002
-683,524	800,000	0,032	0,071
-682,510	39,016	-0,059	-0,038
-681,495	87,002	-0,006	0,005
-680,481	420,927	-0,125	-0,195
-679,466	800,000	0,075	-0,195
-678,451	455,541	-0,082	0,132
-677,437	-85,245	0,074	-0,017
-676,422	234,016	0,053	0,064
-675,408	800,000	0,038	0,094
-674,393	-63,687	0,112	-0,033
-673,378	-118,942	-0,149	-0,019
-672,364	553,019	0,065	-0,114
-671,349	-78,130	-0,093	-0,023
-670,335	682,506	0,024	0,045
-669,320	-5,142	0,135	0,067
-668,305	188,569	0,086	0,093
-667,291	-200,000	-0,026	0,119
-666,276	44,837	-0,094	-0,062
-665,262	280,036	0,141	0,183
-664,247	-103,728	-0,104	0,017
-663,232	629,982	0,033	-0,060
-662,218	284,461	0,052	0,068
-661,203	-200,000	0,007	-0,063
-660,189	321,313	0,018	0,025
-659,174	-200,000	0,007	-0,122
-658,159	-200,000	-0,005	-0,023
-657,145	-147,366	-0,066	0,004
-656,130	-200,000	-0,053	-0,201
-655,116	291,516	0,067	0,088
-654,101	205,182	0,056	-0,063
-653,086	84,198	0,045	0,036
-652,072	800,000	-0,054	-0,125
-651,057	-200,000	0,010	-0,197
-650,043	1,730	-0,080	-0,041
-649,028	-96,487	-0,073	-0,014
-648,014	-200,000	0,006	-0,031
-646,999	-200,000	0,017	0,157
-645,984	-78,029	-0,120	0,030
-644,970	5,731	-0,085	-0,045
-643,955	-200,000	-0,002	0,044
-642,941	248,235	0,041	-0,050
-641,926	-15,079	0,070	0,032
-640,911	-200,000	0,000	-0,008
-639,897	454,657	-0,061	-0,097
-638,882	109,577	0,095	0,082
-637,868	800,000	0,029	0,083
-636,853	316,957	0,039	-0,053
-635,838	-200,000	0,011	-0,150
-634,824	-110,594	0,035	-0,005
-633,809	-200,000	0,003	-0,045
-632,795	-200,000	0,013	0,063
-631,780	53,615	-0,082	-0,057
-630,765	-33,102	0,027	0,011
-629,751	-64,617	0,018	-0,005
-628,736	-17,730	-0,128	-0,058
-627,722	107,903	-0,140	0,121
-626,707	-200,000	0,019	0,102
-625,692	24,921	-0,100	-0,060
-624,678	-200,000	0,007	0,111
-623,663	111,107	-0,057	-0,049
-622,649	-200,000	-0,011	0,061
-621,634	-185,780	-0,242	0,003
-620,619	800,000	-0,034	-0,078
-619,605	169,903	0,049	0,050
-618,590	-200,000	-0,008	-0,072
-617,576	387,112	0,063	-0,094
-616,561	-90,332	0,094	-0,020
-615,546	-174,392	-0,045	-0,001
-614,532	-200,000	0,001	0,020
-613,517	-200,000	-0,004	0,057
-612,503	-200,000	-0,015	-0,061
-611,488	-133,266	0,057	0,005
-610,474	-137,721	0,130	0,010
-609,459	800,000	-0,029	0,082
-608,444	147,975	0,121	0,117
-607,430	34,657	-0,162	-0,102
-606,415	-45,519	-0,049	0,017
-605,401	116,534	0,133	0,118
-604,386	-200,000	-0,026	0,121
-603,371	-107,528	-0,096	-0,015
-602,357	95,819	-0,031	-0,026
-601,342	139,333	-0,094	0,089
-600,328	266,263	-0,046	-0,058
-599,313	-200,000	0,010	-0,042
-598,298	-21,538	-0,064	-0,028
-597,284	-128,683	0,171	0,017
-596,269	800,000	0,029	0,070
-595,255	-94,030	0,066	0,013
-594,240	-25,813	-0,065	-0,028
-593,225	-200,000	0,032	-0,118
-592,211	223,514	0,086	-0,100
-591,196	-77,394	-0,098	0,024
-590,182	68,414	0,059	-0,044
-589,167	-1,485	0,073	-0,037
-588,152	800,000	-0,032	0,066
-587,138	154,196	-0,136	0,134
-586,123	-96,553	0,022	-0,004
-585,109	-16,914	-0,085	-0,038
-584,094	-200,000	0,013	-0,058
-583,079	-191,967	-0,118	-0,001
-582,065	326,342	0,129	0,179
-581,050	-200,000	0,014	0,089
-580,036	800,000	-0,064	-0,140
-579,021	-200,000	-0,022	-0,104
-578,006	45,389	-0,117	-0,077
-576,992	421,814	-0,057	-0,089
-575,977	-78,558	0,088	-0,021
-574,963	-200,000	-0,013	-0,122
-573,948	-89,453	0,147	0,031
-572,934	375,631	-0,042	0,062
-571,919	-11,791	-0,069	0,032
-570,904	-200,000	-0,035	0,174
-569,890	-153,851	-0,065	0,003
-568,875	-43,216	0,171	0,062
-567,861	189,332	-0,134	0,145
-566,846	-176,847	0,070	0,001
-565,831	-10,635	-0,120	0,057
-564,817	371,521	0,027	-0,039
-563,802	144,394	0,084	-0,081
-562,788	286,838	0,025	0,033
-561,773	-200,000	0,004	0,098
-560,758	-102,087	0,108	-0,019
-559,744	1,322	0,111	0,057
-558,729	-200,000	-0,021	0,090
-557,715	255,559	-0,091	0,112
-556,700	111,514	0,043	0,037
-555,685	15,922	-0,085	-0,048
-554,671	-66,254	-0,054	0,015
-553,656	-68,388	0,071	-0,020
-552,642	3,074	-0,147	0,076
-551,627	-200,000	0,007	0,000
-550,612	-200,000	-0,014	-0,113
-549,598	-200,000	0,000	-0,132
-548,583	-200,000	0,015	-0,157
-547,569	-135,042	0,083	-0,007
-546,554	158,391	0,044	0,044
-545,539	-87,378	-0,112	-0,024
-544,525	114,027	0,117	-0,102
-543,510	-200,000	-0,017	-0,073
-542,496	-104,331	0,176	-0,029
-541,481	298,229	0,032	0,043
-540,466	-13,780	0,019	-0,009
-539,452	3,762	-0,016	-0,008
-538,437	288,395	0,058	0,076
-537,423	466,657	0,023	0,037
-536,408	-65,431	0,130	-0,037
-535,393	245,634	0,051	-0,062
-534,379	800,000	0,027	0,066
-533,364	-64,523	0,059	0,017
-532,350	-105,474	0,096	-0,016
-531,335	-65,219	0,051	0,015
-530,321	-101,166	0,113	-0,020
-529,306	279,101	0,014	-0,018
-528,291	800,000	-0,039	-0,084
-527,277	800,000	-0,021	-0,053
-526,262	-111,242	0,025	0,004
-525,248	289,526	-0,047	-0,061
-524,233	-14,079	0,169	0,078
-523,218	-200,000	-0,003	0,102
-522,204	-22,398	0,079	0,034
-521,189	-165,244	-0,139	0,004
-520,175	112,594	0,063	-0,055
-519,160	-200,000	-0,009	0,086
-518,145	165,702	-0,027	-0,028
-517,131	225,442	0,059	0,068
-516,116	800,000	-0,016	-0,039
-515,102	-124,029	0,147	0,016
-514,087	-127,560	-0,097	0,010
-513,072	-77,418	-0,078	-0,019
-512,058	-52,115	-0,126	0,042
-511,043	-46,640	0,030	0,010
-510,029	601,985	0,052	-0,094
-509,014	-146,114	-0,102	-0,006
-507,999	-200,000	0,025	-0,112
-506,985	800,000	0,013	0,031
-505,970	479,702	-0,056	-0,092
-504,956	-1,248	-0,046	0,023
-503,941	-200,000	-0,001	0,092
-502,926	13,004	0,099	0,055
-501,912	-200,000	-0,002	-0,080
-500,897	-200,000	-0,002	-0,074
-499,883	154,952	-0,113	-0,112
-498,868	-103,570	-0,117	-0,020
-497,853	-82,600	-0,101	-0,023
-496,839	52,771	0,060	0,041
-495,824	800,000	0,028	0,061
-494,810	-185,391	-0,212	-0,002
-493,795	386,694	0,047	0,070
-492,781	800,000	0,025	0,076
-491,766	-200,000	-0,019	-0,162
-490,751	-200,000	-0,001	-0,152
-489,737	-98,151	0,014	0,003
-488,722	800,000	-0,025	0,060
-487,708	-200,000	0,016	-0,107
-486,693	161,548	0,087	-0,088
-485,678	-12,319	0,103	-0,048
-484,664	241,263	-0,070	0,084
-483,649	83,929	-0,031	0,024
-482,635	-41,392	-0,179	-0,066
-481,620	-86,980	0,036	0,008
-480,605	335,948	0,046	-0,064
-479,591	800,000	0,010	0,025
-478,576	-27,861	-0,072	0,030
-477,562	502,253	0,045	0,075
-476,547	-97,090	-0,051	0,009
-475,532	-200,000	-0,042	-0,200
-474,518	2,779	-0,052	-0,027
-473,503	800,000	-0,039	0,118
-472,489	242,315	0,069	0,083
-471,474	-200,000	-0,004	-0,190
-470,459	300,918	-0,116	-0,155
-469,445	290,811	0,053	-0,069
-468,430	-200,000	-0,039	-0,151
-467,416	-200,000	0,014	-0,071
-466,401	427,511	0,114	0,177
-465,386	-151,691	-0,111	-0,006
-464,372	-111,113	-0,076	0,011
-463,357	34,893	-0,089	-0,056
-462,343	116,365	0,034	-0,030
-461,328	773,917	0,007	0,015
-460,313	-200,000	0,038	0,121
-459,299	-200,000	0,003	0,066
-458,284	800,000	0,046	0,129
-457,270	-200,000	0,035	-0,119
-456,255	-175,763	-0,132	0,002
-455,241	-52,647	-0,102	0,034
-454,226	511,960	0,076	-0,127
-453,211	-98,572	0,053	0,010
-452,197	800,000	0,036	0,081
-451,182	792,573	0,054	0,106
-450,168	26,482	-0,140	0,084
-449,153	800,000	-0,042	0,084
-448,138	91,780	-0,043	0,035
-447,124	800,000	-0,028	-0,056
-446,109	-5,344	0,086	0,042
-445,095	32,321	0,145	0,089
-444,080	-200,000	-0,002	-0,063
-443,065	195,573	0,044	0,048
-442,051	-86,041	-0,096	0,021
-441,036	800,000	-0,025	0,053
-440,022	-96,644	-0,078	-0,015
-439,007	-200,000	-0,004	0,012
-437,992	-137,535	0,043	-0,003
-436,978	-174,364	-0,046	0,001
-435,963	-200,000	-0,030	0,145
-434,949	-200,000	0,021	-0,201
-433,934	-39,811	0,026	0,010
-432,919	-104,445	-0,065	-0,011
-431,905	133,232	0,046	-0,043
-430,890	-111,987	0,041	-0,006
-429,876	80,214	-0,083	-0,064
-428,861	-40,545	0,116	0,043
-427,846	-105,454	0,036	0,006
-426,832	-200,000	-0,002	-0,015
-425,817	-200,000	-0,003	-0,015
-424,803	29,495	-0,069	0,042
-423,788	-200,000	0,002	-0,007
-422,773	714,585	-0,070	0,134
-421,759	28,125	-0,005	0,003
-420,744	800,000	0,033	-0,080
-419,730	164,844	-0,038	-0,039
-418,715	128,586	-0,066	0,060
-417,701	-46,070	0,056	-0,020
-416,686	-200,000	0,021	0,138
-415,671	256,745	-0,046	0,056
-414,657	-200,000	0,009	0,051
-413,642	-111,461	0,080	0,012
-412,628	335,336	0,080	-0,112
-411,613	800,000	-0,038	-0,111
-410,598	282,040	-0,008	0,010
-409,584	199,377	-0,023	0,025
-408,569	800,000	-0,051	0,118
-407,555	105,913	0,167	0,142
-406,540	99,578	-0,067	-0,055
-405,525	-200,000	0,034	-0,187
-404,511	-13,439	-0,141	-0,065
-403,496	800,000	0,014	-0,033
-402,482	-107,390	0,033	-0,005
-401,467	74,438	0,096	-0,072
-400,452	-24,373	-0,035	0,015
-399,438	-98,388	-0,090	-0,016
-398,423	-200,000	-0,026	0,104
-397,409	-200,000	0,002	0,066
-396,394	-135,869	-0,078	-0,007
-395,379	-200,000	-0,007	-0,064
-394,365	-45,929	0,181	0,064
-393,350	155,749	-0,062	-0,061
-392,336	207,519	-0,067	-0,075
-391,321	800,000	0,027	0,066
-390,306	800,000	0,035	0,080
-389,292	216,946	0,083	-0,095
-388,277	-200,000	-0,004	0,091
-387,263	-94,709	-0,083	-0,016
-386,248	-200,000	0,020	0,073
-385,233	-32,210	-0,186	-0,074
-384,219	18,094	-0,116	-0,066
-383,204	-59,071	-0,128	-0,039
-382,190	-22,798	-0,052	-0,022
-381,175	800,000	-0,024	0,062
-380,160	-200,000	0,010	0,099
-379,146	-51,030	-0,011	-0,004
-378,131	-136,311	-0,023	0,002
-377,117	445,588	0,022	-0,035
-376,102	-76,280	-0,164	-0,041
-375,088	461,292	-0,094	-0,150
-374,073	617,153	-0,043	-0,078
-373,058	165,989	0,027	-0,028
-372,044	477,684	-0,032	0,052
-371,029	-200,000	0,046	0,171
-370,015	476,211	-0,025	0,041
-369,000	79,941	0,096	0,073
-367,985	-157,535	-0,025	0,001
-366,971	-200,000	0,012	0,043
-365,956	-200,000	0,021	-0,144
-364,942	-92,416	0,086	0,017
-363,927	-83,957	0,141	0,032
-362,912	-103,650	0,118	0,020
-361,898	230,199	0,073	-0,085
-360,883	85,182	-0,064	-0,050
-359,869	247,379	-0,043	-0,052
-358,854	-200,000	0,000	0,079
-357,839	-102,693	-0,134	0,023
-356,825	-20,162	-0,117	0,051
-355,810	615,051	0,040	0,071
-354,796	-200,000	0,015	0,108
-353,781	-101,118	-0,054	-0,009
-352,766	435,643	-0,109	-0,170
-351,752	-39,557	0,150	0,056
-350,737	-200,000	0,045	0,212
-349,723	-39,151	0,104	-0,039
-348,708	-200,000	0,004	-0,155
-347,693	348,332	-0,018	0,026
-346,679	800,000	0,026	-0,053
-345,664	164,468	0,024	0,024
-344,650	800,000	-0,030	0,084
-343,635	-9,703	0,016	0,008
-342,620	-200,000	-0,025	0,146
-341,606	14,766	-0,053	0,029
-340,591	27,966	0,049	0,030
-339,577	477,190	-0,122	-0,198
-338,562	-48,024	0,085	0,029
-337,548	800,000	0,011	-0,033
-336,533	800,000	0,062	0,164
-335,518	-188,021	0,043	0,000
-334,504	-12,387	-0,046	0,021
-333,489	81,904	-0,058	0,044
-332,475	0,062	0,129	-0,065
-331,460	550,571	-0,072	-0,124
-330,445	-200,000	0,033	-0,107
-329,431	-200,000	0,008	-0,098
-328,416	308,971	0,042	0,056
-327,402	467,565	-0,037	0,059
-326,387	-1,900	0,027	0,013
-325,372	624,369	-0,117	0,212
-324,358	-173,066	-0,121	-0,003
-323,343	-200,000	-0,021	-0,115
-322,329	23,061	0,039	-0,023
-321,314	3,354	-0,067	-0,034
-320,299	800,000	0,044	-0,093
-319,285	217,749	0,069	-0,078
-318,270	-25,192	-0,097	-0,041
-317,256	-29,613	-0,081	-0,033
-316,241	675,684	0,049	0,092
-315,226	-51,895	0,068	-0,022
-314,212	-200,000	-0,002	0,020
-313,197	-139,734	-0,096	0,007
-312,183	800,000	-0,035	0,094
-311,168	800,000	-0,026	0,073
-310,153	548,182	-0,054	-0,093
-309,139	697,492	-0,014	-0,027
-308,124	699,474	0,067	0,126
-307,110	-146,074	-0,098	-0,006
-306,095	800,000	0,036	0,088
-305,080	537,924	-0,074	0,127
-304,066	184,451	-0,155	-0,164
-303,051	294,411	-0,036	-0,047
-302,037	-56,975	-0,036	-0,011
-301,022	12,713	0,079	0,043
-300,008	198,444	-0,042	0,046
-298,993	563,800	-0,057	0,099
-297,978	-200,000	0,016	-0,084
-296,964	-92,674	0,113	-0,022
-295,949	-200,000	0,045	-0,167
-294,935	-111,360	0,086	0,012
-293,920	654,353	-0,026	0,047
-292,905	29,557	0,104	0,063
-291,891	65,956	0,028	0,020
-290,876	88,876	0,049	0,039
-289,862	-1,688	0,038	0,019
-288,847	800,000	-0,078	-0,163
-287,832	-200,000	0,015	-0,147
-286,818	170,379	0,125	-0,127
-285,803	-200,000	0,010	-0,077
-284,789	-200,000	-0,043	0,155
-283,774	-34,318	-0,095	0,037
-282,759	-35,705	0,052	0,020
-281,745	-200,000	0,017	0,070
-280,730	-200,000	-0,008	-0,138
-279,716	601,141	-0,018	-0,033
-278,701	44,409	0,062	0,041
-277,686	-200,000	-0,025	0,084
-276,672	76,596	0,118	0,089
-275,657	-200,000	0,025	0,079
-274,643	-200,000	-0,028	-0,165
-273,628	-200,000	-0,011	-0,037
-272,613	800,000	0,033	0,068
-271,599	389,273	0,051	-0,075
-270,584	17,275	0,131	0,074
-269,570	-183,547	-0,118	-0,001
-268,555	706,997	-0,040	-0,076
-267,540	-191,947	-0,113	-0,001
-266,526	-200,000	0,005	0,072
-265,511	-200,000	0,005	-0,046
-264,497	147,547	-0,117	0,112
-263,482	-200,000	0,206	-0,001
-262,467	86,647	0,126	0,099
-261,453	11,158	-0,078	-0,043
-260,438	33,294	0,058	0,036
-259,424	223,851	0,086	0,099
-258,409	-103,227	0,033	0,006
-257,395	-200,000	0,014	-0,108
-256,380	-125,996	0,092	-0,010
-255,365	7,844	-0,012	0,006
-254,351	800,000	0,022	0,054
-253,336	224,526	0,068	0,079
-252,322	800,000	-0,032	-0,094
-251,307	225,745	-0,034	-0,040
-250,292	-116,914	-0,141	0,018
-249,278	132,003	0,070	-0,064
-248,263	-200,000	-0,016	0,143
-247,249	-200,000	-0,009	0,095
-246,234	-200,000	-0,007	0,067
-245,219	-160,358	-0,152	0,006
-244,205	-30,858	-0,080	0,032
-243,190	-200,000	0,018	-0,096
-242,176	-47,111	0,087	0,030
-241,161	800,000	0,021	0,049
-240,146	24,378	0,112	0,065
-239,132	72,965	-0,054	-0,040
-238,117	60,600	-0,022	0,016
-237,103	800,000	-0,047	-0,105
-236,088	34,290	-0,058	-0,036
-235,073	-200,000	-0,027	0,138
-234,059	11,950	0,093	0,051
-233,044	-200,000	-0,022	-0,197
-232,030	-99,878	-0,038	0,007
-231,015	406,227	-0,078	-0,117
-230,000	159,553	0,089	0,088
-228,986	-200,000	0,006	0,064
-227,971	-9,477	0,049	-0,023
-226,957	-200,000	0,024	0,104
-225,942	136,358	0,048	0,044
-224,927	57,600	0,110	0,076
-223,913	-83,013	-0,095	-0,022
-222,898	-200,000	-0,012	-0,129
-221,884	84,481	0,109	-0,085
-220,869	133,093	0,113	0,104
-219,855	-200,000	0,030	0,098
-218,840	-200,000	-0,010	-0,059
-217,825	-34,637	-0,104	0,040
-216,811	-151,263	0,074	0,004
-215,796	638,145	-0,044	0,080
-214,782	45,930	0,016	-0,010
-213,767	59,297	0,029	0,020
-212,752	729,194	0,056	0,106
-211,738	438,930	-0,018	-0,029
-210,723	466,837	0,036	-0,058
-209,709	50,088	0,091	-0,061
-208,694	-196,495	-0,115	0,001
-207,679	-200,000	-0,007	-0,063
-206,665	626,332	-0,058	-0,105
-205,650	62,543	0,059	-0,042
-204,636	-173,886	-0,084	0,002
-203,621	204,824	0,090	-0,099
-202,606	-21,018	-0,144	-0,062
-201,592	428,019	-0,067	0,104
-200,577	74,252	0,029	-0,022
-199,563	471,054	0,021	-0,033
-198,548	-133,227	0,117	-0,010
-197,533	-200,000	-0,006	0,124
-196,519	800,000	-0,043	0,099
-195,504	-200,000	-0,001	0,098
-194,490	66,103	-0,033	-0,024
-193,475	166,808	0,082	0,083
-192,460	-127,054	0,125	-0,013
-191,446	48,732	-0,019	0,013
-190,431	159,773	0,057	-0,056
-189,417	-200,000	-0,005	-0,090
-188,402	-133,358	0,163	-0,014
-187,387	22,965	-0,064	0,037
-186,373	-148,217	0,045	0,003
-185,358	-26,154	0,121	-0,050
-184,344	-130,817	0,048	0,005
-183,329	315,574	-0,057	0,077
-182,315	70,697	0,067	-0,049
-181,300	743,685	0,108	-0,207
-180,285	208,183	-0,042	0,047
-179,271	354,080	-0,069	-0,098
-178,256	-51,185	0,058	-0,019
-177,242	207,866	-0,026	-0,029
-176,227	800,000	0,042	0,121
-175,212	-107,015	0,087	-0,013
-174,198	-200,000	0,007	0,079
-173,183	662,897	0,026	-0,048
-172,169	-79,633	0,025	-0,006
-171,154	133,577	0,067	0,062
-170,139	-18,420	-0,048	0,021
-169,125	-160,908	0,114	0,004
-168,110	145,377	-0,114	-0,108
-167,096	743,029	0,030	-0,057
-166,081	-200,000	-0,005	-0,060
-165,066	-200,000	-0,034	-0,121
-164,052	-86,050	0,118	0,026
-163,037	800,000	-0,004	0,009
-162,023	71,471	0,092	0,068
-161,008	19,913	-0,061	0,035
-159,993	65,338	0,051	-0,037
-158,979	800,000	-0,054	0,119
-157,964	216,999	-0,093	-0,105
-156,950	253,440	-0,028	0,034
-155,935	-29,650	0,203	-0,082
-154,920	-71,311	-0,146	0,039
-153,906	160,384	-0,049	-0,049
-152,891	-200,000	0,003	-0,027
-151,877	-46,691	-0,052	-0,018
-150,862	-200,000	-0,006	-0,088
-149,847	-200,000	-0,022	-0,092
-148,833	-101,881	0,146	0,025
-147,818	-200,000	-0,028	-0,095
-146,804	-13,266	0,110	-0,050
-145,789	537,864	-0,081	-0,137
-144,775	-200,000	-0,013	0,080
-143,760	55,961	-0,067	-0,046
-142,745	-200,000	0,006	-0,093
-141,731	-1,974	0,068	-0,034
-140,716	-200,000	-0,010	0,046
-139,702	-50,563	0,047	-0,016
-138,687	88,493	-0,088	-0,069
-137,672	-48,596	0,063	0,021
-136,658	443,138	-0,043	-0,067
-135,643	-143,963	0,003	0,000
-134,629	116,896	0,082	0,071
-133,614	75,505	0,016	0,012
-132,599	800,000	-0,032	0,068
-131,585	215,926	-0,035	0,039
-130,570	800,000	-0,066	-0,132
-129,556	-191,334	-0,200	0,001
-128,541	506,617	-0,042	0,069
-127,526	-200,000	-0,005	-0,025
-126,512	71,154	0,028	0,021
-125,497	-119,044	0,145	0,018
-124,483	652,456	0,053	0,097
-123,468	-176,111	0,095	0,002
-122,453	800,000	0,025	0,066
-121,439	-137,966	-0,098	0,008
-120,424	-9,746	0,112	-0,053
-119,410	-56,255	0,056	0,017
-118,395	35,991	0,093	-0,058
-117,380	-200,000	0,027	0,185
-116,366	-200,000	-0,011	-0,106
-115,351	-20,468	0,157	-0,068
-114,337	-200,000	-0,022	-0,141
-113,322	1,329	-0,064	0,032
-112,307	-43,787	0,137	0,049
-111,293	190,356	0,059	0,063
-110,278	-81,387	0,104	-0,024
-109,264	65,651	-0,093	0,066
-108,249	236,580	-0,076	-0,089
-107,234	800,000	-0,038	0,103
-106,220	-81,704	0,032	0,007
-105,205	60,593	0,088	-0,061
-104,191	37,628	0,037	0,023
-103,176	625,189	-0,006	-0,010
-102,162	211,003	0,068	0,076
-101,147	-124,665	-0,060	0,006
-100,132	-126,969	-0,114	0,012
-99,118	244,208	0,051	-0,061
-98,103	-63,853	-0,090	-0,026
-97,089	-91,149	0,073	-0,015
-96,074	56,055	-0,024	-0,016
-95,059	312,144	-0,045	-0,060
-94,045	-5,663	0,119	0,057
-93,030	800,000	-0,040	0,116
-92,016	241,911	-0,059	-0,070
-91,001	-200,000	0,006	-0,025
-89,986	273,809	0,048	-0,061
-88,972	-200,000	0,006	-0,028
-87,957	-71,273	0,066	0,017
-86,943	799,048	0,039	-0,076
-85,928	65,052	-0,038	-0,027
-84,913	-60,907	-0,079	0,024
-83,899	15,537	0,036	-0,020
-82,884	-200,000	0,003	0,086
-81,870	-183,964	0,071	0,001
-80,855	198,147	0,107	-0,116
-79,840	800,000	-0,068	-0,146
-78,826	-92,070	-0,021	-0,004
-77,811	-200,000	-0,005	-0,083
-76,797	-63,023	0,099	0,029
-75,782	174,551	0,059	-0,061
-74,767	668,370	0,075	0,138
-73,753	19,531	0,047	-0,027
-72,738	661,971	-0,038	-0,069
-71,724	-200,000	-0,040	-0,147
-70,709	246,074	0,045	-0,054
-69,694	800,000	0,015	-0,032
-68,680	254,663	0,081	-0,098
-67,665	-99,941	-0,035	0,006
-66,651	-33,086	0,144	-0,056
-65,636	-200,000	0,049	0,184
-64,622	-136,748	-0,109	0,009
-63,607	47,763	-0,119	-0,078
-62,592	-17,668	0,093	0,041
-61,578	-77,717	-0,047	-0,011
-60,563	800,000	0,041	-0,091
-59,549	-200,000	-0,037	0,130
-58,534	20,456	-2,119	-1,206
-57,519	427,363	-1,191	-1,820
-56,505	-200,000	-0,396	-4,340
-55,490	683,744	0,915	1,693
-54,476	800,000	5,195	11,212
-53,461	-200,000	21,761	337,348
-52,446	800,000	760,361	2306,445
-51,432	536,704	1655,215	2784,119
-50,417	69,833	1652,344	1200,948
-49,403	16,773	1526,794	850,169
-48,388	10,957	1450,962	779,931
-47,373	19,025	1443,003	814,184
-46,359	14,320	1432,053	785,692
-45,344	9,289	1427,925	759,532
-44,330	9,188	1425,988	757,995
-43,315	9,219	1423,891	756,998
-42,300	9,217	1422,031	755,970
-41,286	9,230	1420,999	755,452
-40,271	9,158	1420,088	754,595
-39,257	9,204	1418,633	754,011
-38,242	9,183	1417,647	753,359
-37,227	9,185	1416,577	752,766
-36,213	9,238	1415,082	752,196
-35,198	9,250	1413,907	751,598
-34,184	9,266	1412,828	751,067
-33,169	9,189	1411,562	750,004
-32,154	9,199	1410,720	749,572
-31,140	9,226	1409,500	749,024
-30,125	9,261	1408,137	748,434
-29,111	9,246	1406,854	747,648
-28,096	9,192	1405,936	746,879
-27,082	9,128	1404,691	745,888
-26,067	9,125	1403,716	745,329
-25,052	9,131	1402,859	744,872
-24,038	9,196	1401,682	744,522
-23,023	9,167	1400,774	743,874
-22,009	9,145	1399,752	743,199
-20,994	9,166	1398,625	742,667
-19,979	9,167	1397,641	742,121
-18,965	9,148	1396,591	741,446
-17,950	9,125	1395,747	740,861
-16,936	9,086	1395,213	740,369
-15,921	9,024	1394,147	739,487
-14,906	9,086	1393,042	739,157
-13,892	9,125	1392,231	738,877
-12,877	9,076	1391,374	738,167
-11,863	9,127	1390,313	737,809
-10,848	9,086	1389,636	737,231
-9,833	9,031	1388,640	736,419
-8,819	9,003	1387,709	735,767
-7,804	8,984	1386,876	735,212
-6,790	8,971	1385,875	734,590
-5,775	8,978	1384,756	734,001
-4,760	8,999	1383,801	733,563
-3,746	9,053	1382,824	733,263
-2,731	9,000	1382,255	732,688
-1,717	9,014	1381,319	732,230
-0,702	8,968	1379,438	730,991
0,313	12,914	1291,716	702,477
1,327	28,869	683,455	407,542
2,342	44,515	117,781	76,182
3,356	-1,237	16,408	8,146
4,371	-1,467	3,724	1,846
5,386	2,694	1,189	0,606
6,400	800,000	0,276	0,580
7,415	75,862	-0,336	-0,250
8,429	214,147	-0,163	-0,182
9,444	101,473	-0,190	-0,156
10,459	0,846	-0,302	-0,152
11,473	26,440	-0,280	-0,164
12,488	53,422	-0,224	-0,151
13,502	122,393	-0,298	-0,263
14,517	66,098	-0,265	-0,190
15,531	65,778	-0,300	-0,214
16,546	35,498	-0,334	-0,206
17,561	426,829	-0,247	-0,376
18,575	-144,548	-0,271	-0,017
19,590	244,307	-0,214	-0,253
20,604	55,118	-0,301	-0,205
21,619	58,930	-0,515	-0,356
22,634	22,100	-0,423	-0,243
23,648	54,487	-0,416	-0,282
24,663	84,606	-0,477	-0,367
25,677	336,494	-0,193	-0,265
26,692	54,221	-0,304	-0,205
27,707	-48,135	-0,329	-0,111
28,721	43,585	-0,296	-0,190
29,736	-17,563	-0,388	-0,171
30,750	-39,060	-0,444	-0,163
31,765	64,955	-0,299	-0,212
32,780	51,993	-0,357	-0,239
33,794	-6,626	-0,315	-0,150
34,809	-29,469	-0,334	-0,134
35,823	29,982	-0,388	-0,232
36,838	-36,733	-0,361	-0,136
37,853	173,197	-0,344	-0,349
38,867	101,035	-0,331	-0,271
39,882	102,253	-0,308	-0,253
40,896	299,431	-0,242	-0,314
41,911	13,039	-0,448	-0,243
42,926	35,671	-0,334	-0,206
43,940	56,361	-0,405	-0,276
44,955	19,161	-0,386	-0,217
45,969	155,316	-0,378	-0,366
46,984	274,820	-0,209	-0,260
47,999	-4,796	-0,424	-0,204
49,013	70,938	-0,244	-0,177
50,028	298,759	-0,283	-0,367
51,042	71,139	-0,287	-0,209
52,057	-2,133	-0,302	-0,148
53,071	115,691	-0,355	-0,305
54,086	22,375	-0,297	-0,170
55,101	70,613	-0,225	-0,163
56,115	187,118	-0,310	-0,325
57,130	-78,054	-0,373	-0,089
58,144	17,362	-0,363	-0,202
59,159	122,266	-0,397	-0,348
60,174	-1,172	-0,375	-0,185
61,188	75,757	-0,430	-0,319
62,203	-78,788	-0,459	-0,109
63,217	-21,766	-0,277	-0,118
64,232	26,186	-0,293	-0,171
65,247	-9,250	-0,289	-0,135
66,261	36,447	-0,388	-0,239
67,276	3,144	-0,351	-0,179
68,290	20,788	-0,255	-0,144
69,305	-66,082	-0,365	-0,101
70,320	160,523	-0,309	-0,302
71,334	16,036	-0,255	-0,141
72,349	-1,002	-0,358	-0,177
73,363	-87,215	-0,366	-0,077
74,378	9,520	-0,270	-0,143
75,393	168,504	-0,287	-0,286
76,407	800,000	-0,087	-0,187
77,422	30,263	-0,225	-0,134
78,436	-89,446	-0,415	-0,085
79,451	73,702	-0,213	-0,156
80,466	46,959	-0,446	-0,290
81,480	-118,390	-0,318	-0,039
82,495	-66,813	-0,355	-0,098
83,509	58,294	-0,288	-0,198
84,524	-111,605	-0,209	0,029
85,539	-61,201	-0,319	-0,093
86,553	-62,514	-0,167	-0,048
87,568	-7,145	-0,294	-0,139
88,582	-15,929	-0,463	-0,205
89,597	129,064	-0,319	-0,285
90,611	123,658	-0,165	-0,145
91,626	88,610	-0,249	-0,194
92,641	-187,636	-0,259	0,002
93,655	82,106	-0,285	-0,216
94,670	43,679	-0,325	-0,208
95,684	256,313	-0,196	-0,236
96,699	128,939	-0,208	-0,185
97,714	95,070	-0,194	-0,154
98,728	177,493	-0,140	-0,142
99,743	-183,690	-0,259	0,003
100,757	-50,604	-0,125	-0,041
101,772	-65,492	-0,361	-0,101
102,787	184,792	-0,269	-0,279
103,801	-59,315	-0,209	-0,063
104,816	26,662	-0,079	-0,046
105,830	42,884	-0,238	-0,151
106,845	46,611	-0,230	-0,149
107,860	-1,162	-0,229	-0,113
108,874	99,117	-0,245	-0,198
109,889	75,095	-0,309	-0,227
110,903	62,593	-0,260	-0,181
111,918	-11,176	-0,331	-0,152
112,933	-200,000	-0,045	-0,233
113,947	39,519	-0,235	-0,147
114,962	147,798	-0,278	-0,262
115,976	116,483	-0,233	-0,200
116,991	641,266	-0,162	-0,290
118,006	278,789	-0,185	-0,231
119,020	-2,187	-0,212	-0,104
120,035	83,768	-0,205	-0,156
121,049	1,087	-0,273	-0,136
122,064	-121,608	-0,245	-0,028
123,079	-42,244	-0,306	-0,108
124,093	66,806	-0,270	-0,191
125,108	95,221	-0,212	-0,168
126,122	92,734	-0,255	-0,200
127,137	132,910	-0,101	-0,091
128,151	-66,753	-0,230	-0,063
129,166	-52,651	-0,131	-0,042
130,181	34,851	-0,203	-0,124
131,195	135,902	-0,252	-0,229
132,210	239,924	-0,175	-0,204
133,224	-117,411	-0,311	0,039
134,239	41,940	-0,319	-0,201
135,254	-101,281	-0,171	-0,029
136,268	-31,514	-0,258	-0,101
137,283	-159,901	-0,261	-0,010
138,297	74,521	-0,320	-0,234
139,312	16,740	-0,340	-0,187
140,327	76,458	-0,286	-0,211
141,341	770,232	-0,163	-0,310
142,356	91,985	-0,204	-0,160
143,370	259,704	-0,124	-0,149
144,385	-64,397	-0,306	-0,086
145,400	11,275	-0,196	-0,104
146,414	0,539	-0,273	-0,135
147,429	-200,000	-0,050	-0,278
148,443	-52,145	-0,252	-0,081
149,458	138,709	-0,161	-0,147
150,473	93,030	-0,207	-0,163
151,487	-20,818	-0,300	-0,128
152,502	-45,435	-0,226	-0,078
153,516	101,657	-0,166	-0,134
154,531	-61,425	-0,328	-0,095
155,546	-89,200	-0,217	-0,044
156,560	-40,741	-0,203	-0,073
157,575	427,756	-0,059	-0,089
158,589	321,899	-0,182	-0,241
159,604	417,896	-0,184	-0,275
160,619	88,655	-0,272	-0,210
161,633	73,553	-0,305	-0,222
162,648	-49,008	-0,081	-0,027
163,662	-35,254	-0,182	-0,069
164,677	-81,854	-0,245	-0,055
165,692	66,135	-0,110	-0,078
166,706	142,156	-0,235	-0,217
167,721	480,411	-0,205	-0,325
168,735	180,643	-0,258	-0,263
169,750	372,103	-0,159	-0,226
170,764	380,821	-0,113	-0,162
171,779	42,942	-0,120	-0,076
172,794	-93,745	-0,197	-0,037
173,808	-59,695	-0,270	-0,080
174,823	215,098	-0,250	-0,276
175,837	60,349	-0,254	-0,174
176,852	128,701	-0,177	-0,157
177,867	21,632	-0,237	-0,134
178,881	-145,145	-0,178	-0,011
179,896	359,870	-0,100	-0,140
180,910	31,408	-0,266	-0,158
181,925	85,400	-0,268	-0,204
182,940	129,006	-0,188	-0,166
183,954	179,058	-0,314	-0,319
184,969	638,986	-0,106	-0,189
185,983	126,898	-0,203	-0,179
186,998	-112,920	-0,178	-0,024
188,013	-163,794	-0,229	0,007
189,027	47,261	-0,218	-0,141
190,042	800,000	-0,110	-0,304
191,056	396,536	-0,165	-0,239
192,071	165,308	-0,217	-0,213
193,086	551,435	-0,182	-0,305
194,100	146,979	-0,159	-0,148
195,115	384,828	-0,167	-0,240
196,129	661,648	-0,113	-0,203
197,144	663,526	-0,164	-0,295
198,159	-164,235	-0,219	-0,007
199,173	60,945	-0,271	-0,186
200,188	65,051	-0,215	-0,151
201,202	-23,706	-0,205	-0,085
202,217	4,983	-0,204	-0,104
203,232	-67,451	-0,200	-0,054
204,246	-22,029	-0,225	-0,094
205,261	32,271	-0,215	-0,128
206,275	117,445	-0,196	-0,167
207,290	-200,000	-0,005	-0,094
208,304	125,999	-0,209	-0,183
209,319	-2,100	-0,281	-0,136
210,334	32,165	-0,269	-0,160
211,348	12,952	-0,214	-0,114
212,363	800,000	-0,133	-0,295
213,377	254,514	-0,152	-0,180
214,392	743,859	-0,133	-0,248
215,407	597,765	-0,085	-0,147
216,421	800,000	-0,035	-0,085
217,436	-66,293	-0,172	-0,047
218,450	800,000	-0,061	-0,170
219,465	227,153	-0,175	-0,197
220,480	0,253	-0,333	-0,164
221,494	620,561	-0,050	-0,087
222,509	96,545	-0,151	-0,119
223,523	-128,614	-0,181	0,017
224,538	-200,000	-0,171	-0,000
225,553	122,666	-0,241	-0,209
226,567	-10,522	-0,196	-0,089
227,582	104,210	-0,155	-0,126
228,596	285,445	-0,139	-0,174
229,611	194,192	-0,150	-0,157
230,626	418,010	-0,128	-0,189
231,640	-23,267	-0,089	-0,037
232,655	40,272	-0,272	-0,169
233,669	188,913	-0,294	-0,304
234,684	444,578	-0,116	-0,177
235,699	800,000	-0,059	-0,133
236,713	314,411	-0,077	-0,101
237,728	-150,189	-0,285	0,015
238,742	205,085	-0,170	-0,183
239,757	91,268	-0,243	-0,188
240,772	159,435	-0,166	-0,159
241,786	1,689	-0,216	-0,107
242,801	-23,198	-0,015	-0,006
243,815	334,587	-0,126	-0,169
244,830	543,625	-0,089	-0,148
245,844	-200,000	-0,027	-0,132
246,859	43,075	-0,210	-0,132
247,874	309,533	-0,233	-0,301
248,888	89,614	-0,166	-0,128
249,903	-161,275	-0,111	-0,004
250,917	11,803	-0,141	-0,075
251,932	300,092	-0,082	-0,104
252,947	297,290	-0,152	-0,193
253,961	201,465	-0,140	-0,148
254,976	289,670	-0,208	-0,261
255,990	40,409	-0,205	-0,127
257,005	-13,265	-0,318	-0,142
258,020	409,215	-0,120	-0,176
259,034	74,410	-0,062	-0,045
260,049	-25,352	-0,183	0,074
261,063	-71,307	-0,211	-0,054
262,078	270,862	-0,211	-0,256
263,093	121,107	-0,226	-0,193
264,107	-200,000	-0,042	-0,136
265,122	132,402	-0,118	-0,105
266,136	-101,987	-0,167	-0,028
267,151	-8,822	-0,154	-0,071
268,166	517,947	-0,130	-0,210
269,180	92,194	-0,189	-0,147
270,195	55,699	-0,159	-0,106
271,209	-12,014	-0,085	-0,038
272,224	272,912	-0,100	-0,122
273,239	-200,000	-0,053	-0,214
274,253	-85,150	-0,029	-0,006
275,268	88,299	-0,161	-0,123
276,282	82,832	-0,121	-0,090
277,297	63,939	-0,221	-0,153
278,312	-200,000	-0,028	-0,244
279,326	-58,408	-0,044	0,013
280,341	75,563	-0,235	-0,171
281,355	425,949	-0,199	-0,296
282,370	-89,927	-0,171	-0,034
283,384	-57,072	-0,111	-0,034
284,399	800,000	-0,064	-0,129
285,414	281,432	-0,171	-0,211
286,428	131,563	-0,131	-0,116
287,443	-129,002	-0,116	0,011
288,457	-200,000	0,015	-0,135
289,472	256,017	-0,107	-0,126
290,487	-29,065	-0,194	-0,076
291,501	35,209	-0,251	-0,151
292,516	71,748	-0,192	-0,137
293,530	-200,000	-0,036	-0,194
294,545	-1,581	-0,163	0,079
295,560	-200,000	-0,008	-0,124
296,574	14,605	-0,178	-0,095
297,589	-158,105	-0,230	-0,009
298,603	212,965	-0,207	-0,225
299,618	95,959	-0,118	-0,092
300,633	-108,994	-0,114	-0,017
301,647	761,421	-0,047	-0,088
302,662	-200,000	-0,011	-0,046
303,676	16,082	-0,214	-0,115
304,691	97,470	-0,249	-0,196
305,706	-31,480	-0,139	-0,054
306,720	191,259	-0,156	-0,162
307,735	113,360	-0,164	-0,136
308,749	-200,000	0,006	-0,084
309,764	242,856	-0,116	-0,134
310,779	46,800	-0,151	-0,096
311,793	407,183	-0,140	-0,204
312,808	332,094	-0,149	-0,198
313,822	72,352	-0,197	-0,140
314,837	100,073	-0,137	-0,109
315,852	448,032	-0,084	-0,128
316,866	120,002	-0,158	-0,134
317,881	-78,302	-0,139	-0,032
318,895	139,351	-0,123	-0,111
319,910	800,000	-0,111	-0,225
320,925	-17,898	-0,228	-0,098
321,939	-134,655	-0,191	-0,016
322,954	-5,634	-0,198	-0,093
323,968	-59,092	-0,152	-0,045
324,983	36,652	-0,122	-0,073
325,997	573,873	-0,113	-0,190
327,012	-200,000	-0,158	-0,000
328,027	800,000	-0,075	-0,150
329,041	51,840	-0,165	-0,107
330,056	93,006	-0,055	-0,043
331,070	-158,497	-0,097	0,004
332,085	-200,000	-0,024	-0,148
333,100	252,631	-0,119	-0,140
334,114	-186,170	-0,162	0,002
335,129	-26,065	-0,238	-0,096
336,143	191,799	-0,093	-0,096
337,158	800,000	-0,118	-0,286
338,173	-200,000	-0,013	-0,138
339,187	-108,038	-0,142	0,021
340,202	353,732	-0,107	-0,145
341,216	-48,711	-0,096	-0,032
342,231	-165,176	-0,137	0,004
343,246	-200,000	0,020	-0,084
344,260	-163,640	-0,029	-0,001
345,275	-91,511	-0,212	0,041
346,289	-200,000	0,056	-0,181
347,304	300,730	-0,089	-0,113
348,319	252,992	-0,133	-0,155
349,333	199,227	-0,136	-0,142
350,348	-89,661	-0,220	-0,044
351,362	800,000	-0,064	-0,177
352,377	-45,848	-0,140	-0,047
353,392	-7,686	-0,137	-0,063
354,406	800,000	-0,046	-0,125
355,421	206,601	1306,358	1392,928
356,435	158,901	1466,013	1393,396
