DTS Sentinel unit serial number:	SN410029Multiplexer serial number:	ORYXHardware model number:	OX2-SRSoftware version number:	ORYX F/W v4,00 Oryx Data Collector v3.7.2.0data status	okinstallation	B3 Nyhavnadifferential loss correction	single-endedforward channel	channel 1reverse channel	N/Adate	2023/12/04time	15:07:30forward acquisition time	300,00reverse acquisition time	0,00gamma	499,1914k internal	0,3200k external	0,3200temperature offset calibration	1,0000default loss term (dB/km)	0,3820temperature slope calibration	1,0000multiplexer offset coefficient	1,0000multiplexer slope coefficient	1,0000fibre end	0,00T internal ref (°C)	15,06T ext. ref 1 (°C)	0,36T ext. ref 2 (°C)	0,35length (m)	temperature (°C)	Stokes	anti-Stokes-744,400	800,000	-0,119	-0,264
-743,385	-200,000	-0,040	0,271
-742,371	62,455	-0,189	-0,137
-741,356	-200,000	-0,063	0,239
-740,342	354,344	-0,148	-0,214
-739,327	800,000	-0,090	0,215
-738,312	151,559	-0,267	-0,265
-737,298	-200,000	0,056	0,206
-736,283	165,261	-0,315	-0,324
-735,269	-200,000	0,012	0,235
-734,254	70,523	-0,254	-0,191
-733,239	121,262	-0,150	0,136
-732,225	289,660	-0,200	-0,265
-731,210	-55,253	0,109	0,035
-730,196	292,405	-0,048	0,064
-729,181	105,150	-0,104	0,089
-728,167	201,897	-0,015	0,016
-727,152	502,787	-0,023	0,039
-726,137	302,315	-0,082	0,111
-725,123	155,904	-0,081	0,082
-724,108	53,608	-0,122	-0,085
-723,094	800,000	-0,056	-0,119
-722,079	25,231	-0,064	-0,038
-721,064	-52,048	0,066	0,022
-720,050	597,171	-0,061	0,110
-719,035	-55,914	0,121	0,039
-718,021	-125,524	-0,059	0,006
-717,006	-116,350	-0,079	0,010
-715,991	-200,000	-0,035	-0,143
-714,977	-107,833	-0,059	0,009
-713,962	-22,513	-0,169	0,074
-712,948	-21,250	0,166	-0,074
-711,933	733,532	0,030	-0,059
-710,918	-54,980	0,088	-0,029
-709,904	800,000	-0,019	-0,042
-708,889	-55,656	0,070	0,023
-707,875	66,207	-0,050	0,037
-706,860	-83,225	-0,012	-0,003
-705,845	-142,307	0,078	-0,006
-704,831	-64,046	-0,114	0,034
-703,816	347,692	0,031	-0,045
-702,802	-28,498	-0,009	-0,004
-701,787	-161,725	-0,069	-0,002
-700,772	365,126	0,042	-0,062
-699,758	4,294	0,047	0,025
-698,743	-63,591	0,118	0,035
-697,729	-56,874	-0,080	-0,026
-696,714	-130,454	-0,113	0,011
-695,699	-162,130	-0,015	-0,001
-694,685	-90,862	0,049	-0,010
-693,670	-114,100	-0,135	-0,019
-692,656	628,863	0,052	-0,095
-691,641	-200,000	0,004	0,048
-690,627	74,855	0,076	0,058
-689,612	800,000	0,012	-0,031
-688,597	800,000	0,063	-0,154
-687,583	-36,151	-0,058	-0,022
-686,568	-200,000	-0,005	-0,039
-685,554	-101,765	-0,058	-0,010
-684,539	599,203	-0,032	0,057
-683,524	-200,000	-0,004	0,150
-682,510	15,995	-0,124	0,071
-681,495	-124,969	0,030	-0,003
-680,481	-129,121	0,148	-0,015
-679,466	76,826	-0,115	-0,088
-678,451	10,706	-0,092	-0,051
-677,437	-200,000	0,005	0,170
-676,422	-165,275	-0,035	0,001
-675,408	-200,000	0,007	0,113
-674,393	800,000	-0,045	-0,090
-673,378	7,299	-0,127	-0,069
-672,364	14,795	-0,032	0,018
-671,349	29,111	-0,093	0,057
-670,335	98,610	-0,052	-0,043
-669,320	800,000	0,066	-0,137
-668,305	6,020	-0,024	-0,013
-667,291	-105,175	-0,080	0,013
-666,276	209,241	0,024	-0,028
-665,262	800,000	-0,056	-0,141
-664,247	-200,000	-0,017	-0,130
-663,232	800,000	0,072	-0,167
-662,218	218,613	0,034	0,040
-661,203	-200,000	0,021	0,122
-660,189	518,036	0,013	0,022
-659,174	125,916	-0,112	-0,102
-658,159	59,804	0,084	-0,060
-657,145	23,340	-0,105	-0,062
-656,130	-38,828	0,107	0,041
-655,116	-29,965	0,043	0,018
-654,101	800,000	-0,020	-0,051
-653,086	492,940	0,063	-0,105
-652,072	27,966	-0,065	-0,040
-651,057	3,560	-0,172	-0,091
-650,043	-165,904	-0,039	0,001
-649,028	94,423	0,064	0,052
-648,014	86,292	0,044	-0,035
-646,999	452,087	-0,064	0,104
-645,984	547,802	-0,044	0,076
-644,970	140,807	-0,022	0,021
-643,955	45,670	-0,155	-0,104
-642,941	179,015	-0,065	-0,069
-641,926	-51,419	-0,097	0,033
-640,911	724,695	0,032	-0,063
-639,897	789,758	0,047	-0,094
-638,882	-32,588	-0,078	0,031
-637,868	800,000	-0,026	0,056
-636,853	77,869	-0,088	-0,068
-635,838	47,656	-0,048	-0,032
-634,824	245,185	0,080	-0,098
-633,809	297,121	-0,018	-0,025
-632,795	-200,000	-0,019	0,065
-631,780	12,584	0,018	-0,010
-630,765	19,864	-0,036	0,021
-629,751	-46,864	0,040	-0,014
-628,736	10,474	-0,107	-0,059
-627,722	-42,221	-0,103	-0,038
-626,707	800,000	-0,028	0,073
-625,692	44,460	0,146	0,097
-624,678	-91,256	-0,118	0,024
-623,663	19,894	-0,107	-0,062
-622,649	319,445	-0,016	-0,022
-621,634	800,000	0,032	0,076
-620,619	-200,000	-0,015	-0,112
-619,605	198,027	-0,162	-0,179
-618,590	186,319	0,082	0,088
-617,576	208,059	-0,072	0,082
-616,561	800,000	-0,019	0,053
-615,546	-74,078	-0,122	-0,032
-614,532	236,317	-0,065	0,078
-613,517	800,000	-0,014	-0,036
-612,503	-200,000	-0,013	-0,083
-611,488	5,622	0,031	0,017
-610,474	-87,552	-0,170	-0,037
-609,459	42,896	-0,170	0,112
-608,444	67,795	-0,036	0,026
-607,430	304,274	-0,080	-0,107
-606,415	274,561	0,100	-0,129
-605,401	-197,334	0,050	0,000
-604,386	-200,000	-0,010	0,060
-603,371	-62,069	0,046	-0,014
-602,357	63,256	-0,144	0,104
-601,342	800,000	-0,026	-0,071
-600,328	240,966	-0,068	-0,083
-599,313	-98,955	-0,061	-0,011
-598,298	337,057	0,108	-0,152
-597,284	-200,000	-0,010	-0,087
-596,269	-95,009	0,051	0,010
-595,255	800,000	-0,013	0,034
-594,240	109,462	-0,021	-0,018
-593,225	-200,000	-0,012	-0,077
-592,211	252,012	0,027	0,033
-591,196	-102,998	0,093	0,016
-590,182	495,189	-0,047	-0,079
-589,167	116,778	-0,040	0,036
-588,152	-153,280	-0,046	-0,002
-587,138	-200,000	0,015	0,118
-586,123	-73,071	-0,137	-0,036
-585,109	-200,000	-0,010	0,179
-584,094	14,130	0,078	-0,044
-583,079	-2,276	-0,078	-0,039
-582,065	216,895	0,062	0,071
-581,050	230,686	0,025	0,030
-580,036	30,700	-0,073	-0,045
-579,021	115,199	-0,062	-0,054
-578,006	-151,252	0,029	-0,002
-576,992	-200,000	0,009	-0,172
-575,977	-62,291	-0,091	-0,027
-574,963	313,532	0,046	0,063
-573,948	-19,659	0,020	0,009
-572,934	-155,561	0,149	0,007
-571,919	-95,902	-0,109	-0,021
-570,904	800,000	-0,039	-0,120
-569,890	800,000	-0,044	-0,096
-568,875	800,000	-0,028	0,084
-567,861	126,489	-0,064	-0,058
-566,846	411,371	-0,062	0,095
-565,831	42,476	-0,026	-0,017
-564,817	-151,007	0,075	0,004
-563,802	-83,554	-0,063	-0,014
-562,788	332,001	0,010	-0,014
-561,773	-144,102	0,091	0,006
-560,758	-35,546	0,058	0,023
-559,744	583,868	-0,091	0,162
-558,729	-200,000	0,024	0,110
-557,715	800,000	-0,013	-0,031
-556,700	-68,256	0,074	-0,021
-555,685	-200,000	0,003	-0,070
-554,671	356,715	0,053	-0,077
-553,656	120,876	0,053	0,047
-552,642	-117,373	-0,122	0,016
-551,627	-40,244	-0,172	0,064
-550,612	-171,331	-0,027	-0,001
-549,598	187,045	0,045	-0,049
-548,583	800,000	-0,029	-0,085
-547,569	109,849	-0,042	-0,037
-546,554	-62,792	0,118	0,035
-545,539	-71,242	0,045	0,012
-544,525	335,738	0,042	0,059
-543,510	581,274	-0,015	-0,027
-542,496	-151,894	-0,123	-0,006
-541,481	100,157	-0,063	-0,053
-540,466	140,131	0,102	0,097
-539,452	-97,704	-0,129	0,024
-538,437	-125,113	0,064	0,007
-537,423	96,192	0,043	0,036
-536,408	-42,790	0,068	-0,025
-535,393	-200,000	0,006	-0,130
-534,379	-200,000	-0,015	-0,145
-533,364	-93,934	0,074	0,015
-532,350	800,000	-0,020	0,041
-531,335	-200,000	-0,005	0,063
-530,321	800,000	0,045	0,108
-529,306	101,995	-0,055	-0,046
-528,291	30,857	-0,102	0,063
-527,277	6,727	-0,116	0,062
-526,262	658,922	-0,022	-0,042
-525,248	58,575	-0,071	0,050
-524,233	-111,124	0,117	0,017
-523,218	-200,000	0,008	0,035
-522,204	127,532	0,091	0,084
-521,189	-17,473	0,116	0,053
-520,175	265,511	-0,041	-0,051
-519,160	112,774	-0,090	-0,079
-518,145	-115,634	0,031	-0,004
-517,131	-119,529	-0,045	0,006
-516,116	800,000	0,061	0,180
-515,102	-200,000	-0,026	-0,127
-514,087	800,000	-0,029	0,078
-513,072	47,370	-0,075	-0,050
-512,058	294,145	-0,034	-0,045
-511,043	-15,685	0,125	0,057
-510,029	-116,168	-0,083	0,011
-509,014	41,847	0,018	0,012
-507,999	106,192	0,097	-0,083
-506,985	78,441	0,007	0,006
-505,970	124,959	-0,145	0,131
-504,956	-90,838	-0,041	0,009
-503,941	-49,431	-0,044	0,015
-502,926	169,695	0,083	-0,085
-501,912	-26,302	-0,057	-0,024
-500,897	-62,181	-0,052	0,016
-499,883	-68,369	-0,142	-0,039
-498,868	11,852	-0,057	-0,031
-497,853	215,808	-0,058	0,067
-496,839	-93,154	-0,012	0,002
-495,824	-72,681	0,138	-0,036
-494,810	-99,731	0,045	0,008
-493,795	800,000	-0,013	0,031
-492,781	-91,130	-0,072	0,015
-491,766	800,000	-0,033	-0,076
-490,751	800,000	0,051	-0,105
-489,737	82,766	0,056	-0,044
-488,722	800,000	-0,040	0,103
-487,708	22,708	0,168	0,099
-486,693	-200,000	-0,006	0,052
-485,678	79,647	0,030	-0,023
-484,664	512,757	-0,005	0,008
-483,649	-200,000	0,004	-0,054
-482,635	32,717	-0,128	0,080
-481,620	800,000	0,028	0,067
-480,605	242,456	0,037	0,045
-479,591	253,662	0,025	-0,030
-478,576	164,641	-0,083	-0,084
-477,562	125,499	0,154	-0,140
-476,547	116,697	-0,083	-0,073
-475,532	81,701	-0,087	0,068
-474,518	-32,131	0,062	0,025
-473,503	81,028	-0,066	0,051
-472,489	-200,000	0,006	0,055
-471,474	322,413	-0,067	-0,092
-470,459	338,509	-0,047	-0,066
-469,445	55,041	0,034	0,024
-468,430	227,402	-0,102	-0,120
-467,416	-200,000	-0,006	0,043
-466,401	9,660	0,029	0,016
-465,386	659,942	0,060	-0,111
-464,372	800,000	-0,056	0,141
-463,357	-200,000	0,008	0,041
-462,343	-200,000	-0,019	-0,103
-461,328	800,000	0,037	-0,091
-460,313	516,280	0,084	-0,142
-459,299	-109,442	-0,098	-0,015
-458,284	110,798	0,071	0,062
-457,270	16,364	-0,068	-0,039
-456,255	-121,409	0,081	-0,010
-455,241	-8,850	-0,100	-0,048
-454,226	393,348	-0,021	-0,032
-453,211	16,628	0,022	-0,013
-452,197	-61,626	-0,068	0,021
-451,182	2,301	-0,131	-0,068
-450,168	-99,091	-0,120	-0,022
-449,153	362,268	-0,033	-0,048
-448,138	215,598	0,009	-0,011
-447,124	-200,000	-0,010	0,051
-446,109	-200,000	0,032	0,000
-445,095	198,980	0,080	-0,088
-444,080	62,281	0,076	0,055
-443,065	113,318	0,078	0,068
-442,051	-133,718	0,021	0,002
-441,036	260,399	-0,125	-0,155
-440,022	-200,000	0,015	-0,090
-439,007	-200,000	-0,001	0,012
-437,992	-0,728	0,092	0,047
-436,978	-29,069	0,055	-0,023
-435,963	-131,504	0,022	0,002
-434,949	800,000	0,015	-0,042
-433,934	-200,000	-0,040	-0,152
-432,919	-200,000	0,011	-0,109
-431,905	-110,846	0,094	-0,014
-430,890	-200,000	-0,016	0,093
-429,876	250,325	0,089	0,109
-428,861	208,313	0,048	0,054
-427,846	319,891	0,025	-0,034
-426,832	-200,000	0,033	-0,166
-425,817	250,524	-0,099	-0,121
-424,803	-26,126	0,138	0,058
-423,788	-185,927	0,073	-0,001
-422,773	-200,000	0,011	0,074
-421,759	-18,820	0,060	0,027
-420,744	800,000	0,013	-0,031
-419,730	-134,251	-0,056	0,005
-418,715	56,510	-0,053	-0,037
-417,701	659,803	-0,073	-0,135
-416,686	-41,184	0,107	-0,039
-415,671	685,635	-0,041	0,077
-414,657	-200,000	-0,025	0,128
-413,642	-47,926	0,121	0,042
-412,628	241,776	0,025	-0,029
-411,613	439,963	-0,032	-0,050
-410,598	-200,000	-0,008	-0,065
-409,584	166,446	0,055	0,056
-408,569	431,113	-0,032	0,050
-407,555	-200,000	0,012	-0,103
-406,540	-200,000	0,031	0,145
-405,525	-74,590	0,040	-0,010
-404,511	-25,202	0,133	0,056
-403,496	800,000	0,010	-0,022
-402,482	49,834	0,153	0,103
-401,467	-93,137	-0,062	0,012
-400,452	-80,117	0,169	0,040
-399,438	-122,562	0,036	0,004
-398,423	-200,000	0,006	-0,051
-397,409	-158,311	-0,034	0,001
-396,394	-23,952	0,101	-0,043
-395,379	-200,000	0,044	0,141
-394,365	3,904	0,098	0,051
-393,350	42,826	0,015	-0,010
-392,336	353,408	-0,070	-0,100
-391,321	-53,622	0,180	0,059
-390,306	-165,635	-0,145	0,004
-389,292	-42,745	-0,073	-0,026
-388,277	97,395	-0,061	-0,050
-387,263	1,345	0,091	0,047
-386,248	-157,296	-0,031	0,001
-385,233	-200,000	-0,041	0,145
-384,219	800,000	-0,010	0,020
-383,204	-200,000	-0,031	-0,127
-382,190	376,900	-0,044	-0,065
-381,175	-200,000	0,027	-0,168
-380,160	-68,532	0,118	-0,033
-379,146	44,186	-0,048	0,031
-378,131	-48,473	-0,095	0,033
-377,117	-200,000	0,016	-0,143
-376,102	-165,753	-0,100	0,003
-375,088	-91,596	-0,094	-0,019
-374,073	29,005	0,088	0,053
-373,058	-94,768	0,058	-0,011
-372,044	75,111	0,086	-0,065
-371,029	177,575	-0,093	-0,098
-370,015	-119,958	0,148	-0,018
-369,000	-200,000	-0,007	0,109
-367,985	-65,334	0,126	-0,036
-366,971	-162,571	-0,103	0,004
-365,956	800,000	-0,023	0,052
-364,942	150,884	0,037	0,036
-363,927	176,252	0,038	-0,040
-362,912	92,239	0,082	-0,066
-361,898	-200,000	-0,017	-0,144
-360,883	-44,896	-0,009	0,003
-359,869	162,615	-0,067	-0,067
-358,854	354,107	0,071	0,101
-357,839	-41,115	0,082	0,030
-356,825	-187,336	-0,024	-0,000
-355,810	-50,996	0,161	-0,054
-354,796	-200,000	-0,035	0,147
-353,781	-171,023	-0,109	0,003
-352,766	-200,000	0,036	-0,114
-351,752	99,076	0,034	0,028
-350,737	280,815	0,039	0,049
-349,723	65,666	0,076	-0,055
-348,708	-190,293	-0,114	-0,001
-347,693	800,000	0,024	-0,052
-346,679	348,318	-0,075	-0,106
-345,664	-159,575	-0,102	-0,004
-344,650	228,437	0,058	0,068
-343,635	800,000	0,071	-0,150
-342,620	192,107	-0,092	0,100
-341,606	-16,143	0,218	-0,099
-340,591	-94,374	-0,049	-0,010
-339,577	-67,687	-0,169	-0,047
-338,562	-70,866	0,139	-0,037
-337,548	232,168	0,026	-0,030
-336,533	0,775	0,115	0,059
-335,518	617,779	0,034	-0,062
-334,504	-200,000	0,010	0,133
-333,489	800,000	0,003	-0,006
-332,475	103,162	0,012	-0,010
-331,460	42,972	0,177	-0,115
-330,445	-200,000	0,012	-0,201
-329,431	187,154	0,076	0,081
-328,416	19,901	0,113	0,065
-327,402	800,000	0,022	0,053
-326,387	234,193	0,062	0,073
-325,372	101,189	-0,026	0,021
-324,358	-200,000	0,007	0,053
-323,343	-200,000	-0,037	-0,126
-322,329	-200,000	0,032	0,132
-321,314	-107,958	-0,037	-0,006
-320,299	-130,076	0,115	-0,011
-319,285	800,000	-0,040	-0,106
-318,270	539,726	0,033	0,057
-317,256	2,310	-0,143	-0,074
-316,241	479,173	-0,046	-0,075
-315,226	173,527	0,030	0,031
-314,212	606,765	0,009	0,017
-313,197	82,959	-0,094	-0,073
-312,183	-49,587	0,166	0,056
-311,168	800,000	0,026	-0,062
-310,153	-200,000	-0,003	-0,245
-309,139	-200,000	0,030	0,145
-308,124	-0,739	-0,055	0,028
-307,110	800,000	0,038	0,083
-306,095	345,435	0,022	0,031
-305,080	-200,000	-0,038	0,179
-304,066	69,890	0,067	0,049
-303,051	-64,973	-0,030	-0,009
-302,037	-21,911	-0,043	-0,019
-301,022	800,000	-0,047	0,099
-300,008	800,000	0,034	0,089
-298,993	25,536	-0,070	-0,042
-297,978	800,000	0,040	0,084
-296,964	80,979	0,044	-0,034
-295,949	-200,000	-0,016	-0,177
-294,935	-145,189	-0,108	-0,007
-293,920	800,000	0,071	0,143
-292,905	113,132	-0,097	0,084
-291,891	-200,000	0,021	0,082
-290,876	-200,000	-0,014	0,068
-289,862	-200,000	0,006	-0,046
-288,847	75,988	-0,052	0,039
-287,832	-98,844	-0,052	0,009
-286,818	582,190	0,048	-0,085
-285,803	-124,980	0,005	0,001
-284,789	255,637	0,058	0,071
-283,774	-200,000	0,019	0,127
-282,759	-57,911	0,047	-0,015
-281,745	118,979	-0,091	0,080
-280,730	535,871	0,041	-0,070
-279,716	-73,104	0,127	-0,033
-278,701	-172,206	-0,110	-0,002
-277,686	-200,000	0,010	0,201
-276,672	800,000	-0,038	0,112
-275,657	296,270	-0,032	-0,042
-274,643	800,000	0,026	-0,075
-273,628	-126,866	-0,094	-0,010
-272,613	800,000	-0,082	0,195
-271,599	518,529	-0,010	0,017
-270,584	-101,454	0,147	0,025
-269,570	-77,321	0,156	0,038
-268,555	-200,000	-0,000	0,002
-267,540	4,131	0,058	0,030
-266,526	409,157	-0,061	0,093
-265,511	800,000	0,061	-0,148
-264,497	253,724	0,067	0,081
-263,482	174,452	0,083	-0,085
-262,467	800,000	0,012	0,026
-261,453	268,407	0,033	-0,041
-260,438	285,493	0,015	0,019
-259,424	109,859	0,095	-0,081
-258,409	-138,795	-0,135	0,010
-257,395	-103,563	0,032	-0,005
-256,380	-200,000	0,014	0,131
-255,365	82,835	0,073	0,056
-254,351	-200,000	0,012	0,088
-253,336	-118,415	0,099	-0,012
-252,322	800,000	-0,038	-0,104
-251,307	89,371	-0,114	0,090
-250,292	-200,000	-0,004	0,126
-249,278	719,270	0,027	-0,052
-248,263	24,951	0,099	-0,058
-247,249	272,363	0,030	-0,037
-246,234	309,962	0,022	-0,029
-245,219	-200,000	0,055	-0,185
-244,205	-64,608	-0,062	0,018
-243,190	-15,408	0,045	0,021
-242,176	-200,000	0,038	0,127
-241,161	-200,000	-0,008	0,082
-240,146	164,994	-0,041	0,042
-239,132	262,004	0,016	-0,019
-238,117	102,692	-0,080	-0,066
-237,103	34,828	-0,085	-0,053
-236,088	10,151	-0,085	-0,046
-235,073	-0,298	0,138	-0,070
-234,059	406,522	0,017	0,025
-233,044	-200,000	-0,015	0,133
-232,030	83,780	-0,066	0,051
-231,015	-81,770	-0,100	-0,023
-230,000	800,000	-0,048	-0,127
-228,986	-86,923	0,023	-0,005
-227,971	800,000	0,044	0,114
-226,957	-2,271	0,234	0,117
-225,942	349,249	-0,048	0,067
-224,927	62,886	-0,122	-0,087
-223,913	-61,159	-0,124	-0,037
-222,898	-52,436	-0,076	0,025
-221,884	800,000	-0,054	-0,113
-220,869	687,357	0,039	-0,072
-219,855	-146,540	-0,106	0,006
-218,840	-51,902	0,160	0,053
-217,825	-123,713	-0,088	0,010
-216,811	235,187	0,074	-0,087
-215,796	561,776	-0,021	-0,037
-214,782	800,000	0,044	0,128
-213,767	319,658	0,026	-0,035
-212,752	-200,000	0,032	0,181
-211,738	-200,000	0,043	0,170
-210,723	800,000	0,039	0,106
-209,709	-53,479	0,066	0,021
-208,694	-65,670	-0,025	0,007
-207,679	-200,000	-0,005	-0,021
-206,665	-132,564	-0,063	0,006
-205,650	-200,000	-0,005	0,090
-204,636	49,112	0,141	0,094
-203,621	-9,838	-0,068	0,032
-202,606	-11,577	-0,033	0,015
-201,592	800,000	-0,033	-0,076
-200,577	-6,133	-0,088	0,043
-199,563	800,000	0,030	0,059
-198,548	-52,216	0,204	0,067
-197,533	800,000	0,081	0,171
-196,519	800,000	0,033	-0,073
-195,504	-33,728	0,142	0,056
-194,490	-115,085	-0,055	0,007
-193,475	99,435	-0,062	-0,051
-192,460	800,000	0,027	0,057
-191,446	793,862	-0,045	0,089
-190,431	108,258	0,128	-0,108
-189,417	-54,784	0,068	-0,022
-188,402	-70,446	-0,179	0,048
-187,387	279,233	-0,062	-0,079
-186,373	550,209	-0,017	-0,030
-185,358	628,364	0,060	0,109
-184,344	800,000	-0,034	0,072
-183,329	800,000	0,079	0,216
-182,315	800,000	0,046	0,092
-181,300	-79,566	-0,045	-0,011
-180,285	800,000	0,041	0,083
-179,271	-150,756	-0,051	0,003
-178,256	271,917	0,051	-0,064
-177,242	317,567	0,129	0,174
-176,227	800,000	-0,042	0,092
-175,212	-200,000	0,004	-0,056
-174,198	-26,849	-0,104	0,043
-173,183	107,933	0,074	-0,063
-172,169	-143,224	-0,117	-0,008
-171,154	259,733	0,044	0,055
-170,139	-99,631	0,225	0,040
-169,125	-200,000	0,001	0,055
-168,110	692,662	-0,037	-0,070
-167,096	-200,000	0,020	-0,258
-166,081	24,139	-0,196	-0,115
-165,066	-200,000	0,027	-0,121
-164,052	256,513	-0,123	-0,151
-163,037	172,779	0,047	-0,049
-162,023	344,446	-0,016	0,023
-161,008	159,792	-0,037	-0,037
-159,993	43,532	-0,041	0,027
-158,979	-127,341	-0,085	-0,009
-157,964	38,449	0,086	-0,055
-156,950	-75,265	-0,074	0,019
-155,935	162,257	-0,018	-0,018
-154,920	296,674	0,081	-0,106
-153,906	800,000	-0,030	0,077
-152,891	800,000	-0,029	-0,063
-151,877	800,000	-0,071	-0,154
-150,862	800,000	-0,008	-0,022
-149,847	-200,000	0,015	-0,111
-148,833	30,750	-0,038	-0,023
-147,818	790,515	-0,011	-0,022
-146,804	-200,000	0,024	0,100
-145,789	218,488	-0,088	0,100
-144,775	150,457	0,113	0,109
-143,760	-200,000	0,007	0,049
-142,745	800,000	0,013	-0,027
-141,731	271,272	0,048	0,060
-140,716	-200,000	0,037	0,125
-139,702	621,191	-0,021	0,037
-138,687	105,213	-0,044	-0,036
-137,672	-90,469	-0,092	0,019
-136,658	-200,000	-0,024	0,079
-135,643	46,159	-0,058	-0,038
-134,629	-200,000	0,018	-0,137
-133,614	-72,781	0,107	0,028
-132,599	51,299	0,072	0,049
-131,585	494,746	0,039	-0,064
-130,570	417,613	-0,038	-0,058
-129,556	87,363	-0,067	-0,052
-128,541	-87,224	0,024	0,005
-127,526	800,000	-0,040	-0,124
-126,512	297,124	-0,098	0,128
-125,497	-200,000	0,017	0,072
-124,483	800,000	-0,006	0,013
-123,468	-200,000	-0,035	0,180
-122,453	239,171	-0,052	0,062
-121,439	800,000	0,040	-0,105
-120,424	94,099	-0,066	-0,053
-119,410	-14,444	0,082	-0,037
-118,395	221,389	0,033	0,037
-117,380	-137,562	0,138	-0,011
-116,366	800,000	-0,017	-0,039
-115,351	420,226	-0,086	-0,131
-114,337	800,000	0,024	-0,052
-113,322	-200,000	0,023	0,075
-112,307	-200,000	0,017	-0,073
-111,293	294,174	-0,050	0,064
-110,278	534,649	0,073	0,124
-109,264	-6,376	0,062	-0,030
-108,249	-116,844	-0,098	0,013
-107,234	506,345	0,076	-0,125
-106,220	13,921	-0,087	-0,048
-105,205	-175,126	0,085	-0,002
-104,191	800,000	0,038	-0,101
-103,176	574,930	0,026	0,045
-102,162	-156,025	-0,117	-0,005
-101,147	-22,344	-0,056	-0,024
-100,132	-200,000	0,001	-0,050
-99,118	-200,000	-0,018	-0,108
-98,103	-200,000	0,012	0,152
-97,089	771,586	0,058	0,113
-96,074	31,229	0,197	-0,120
-95,059	346,700	0,015	-0,021
-94,045	696,813	0,016	0,030
-93,030	667,297	0,050	-0,092
-92,016	-200,000	0,022	-0,172
-91,001	-48,245	-0,054	0,018
-89,986	800,000	0,035	0,074
-88,972	-81,635	0,248	-0,057
-87,957	-158,854	-0,226	-0,009
-86,943	-200,000	0,097	0,000
-85,928	-43,765	-0,135	-0,048
-84,913	800,000	0,016	-0,036
-83,899	14,535	-0,009	-0,005
-82,884	800,000	-0,009	-0,024
-81,870	42,017	0,108	0,070
-80,855	-200,000	-0,027	0,089
-79,840	800,000	0,037	0,083
-78,826	-200,000	-0,003	-0,029
-77,811	180,442	-0,084	0,088
-76,797	-76,847	-0,060	0,015
-75,782	-151,419	0,077	-0,004
-74,767	-93,827	0,115	-0,022
-73,753	550,959	0,022	0,038
-72,738	-200,000	0,003	0,011
-71,724	140,567	-0,066	0,062
-70,709	-200,000	0,014	-0,052
-69,694	800,000	0,040	-0,107
-68,680	-200,000	0,014	0,057
-67,665	208,330	-0,074	-0,082
-66,651	-196,732	-0,073	-0,000
-65,636	-69,024	0,094	0,025
-64,622	-53,149	-0,085	-0,027
-63,607	200,182	-0,117	-0,128
-62,592	800,000	-0,038	-0,104
-61,578	-93,206	0,141	0,028
-60,563	467,715	0,047	-0,075
-59,549	800,000	-0,035	0,093
-58,534	-21,983	-1,380	-0,592
-57,519	352,516	-1,502	-2,115
-56,505	-200,000	-0,564	-4,455
-55,490	159,602	0,959	0,946
-54,476	800,000	4,829	11,315
-53,461	-200,000	18,208	287,531
-52,446	800,000	727,380	2226,511
-51,432	554,090	1642,979	2809,052
-50,417	79,343	1665,117	1262,962
-49,403	22,918	1538,914	891,103
-48,388	16,930	1462,156	817,663
-47,373	17,867	1452,285	816,625
-46,359	17,278	1442,800	808,443
-45,344	15,235	1437,871	795,897
-44,330	15,132	1435,976	794,326
-43,315	15,106	1434,420	793,307
-42,300	15,128	1432,705	792,435
-41,286	15,146	1431,660	791,911
-40,271	15,152	1430,128	791,059
-39,257	15,127	1429,013	790,291
-38,242	15,175	1427,604	789,707
-37,227	15,215	1426,384	789,194
-36,213	15,204	1425,206	788,456
-35,198	15,181	1424,075	787,689
-34,184	15,174	1423,376	787,243
-33,169	15,097	1422,031	786,103
-32,154	15,151	1421,015	785,764
-31,140	15,197	1419,471	785,094
-30,125	15,247	1418,461	784,741
-29,111	15,190	1417,331	783,818
-28,096	15,138	1416,330	782,987
-27,082	15,075	1415,240	782,060
-26,067	15,086	1414,116	781,456
-25,052	15,119	1412,875	780,897
-24,038	15,076	1412,054	780,208
-23,023	15,058	1410,863	779,438
-22,009	15,091	1409,787	778,966
-20,994	15,002	1409,197	778,190
-19,979	15,056	1408,111	777,812
-18,965	15,043	1407,139	777,186
-17,950	15,018	1406,299	776,575
-16,936	15,040	1405,361	776,127
-15,921	14,966	1404,122	775,069
-14,906	14,972	1403,228	774,573
-13,892	15,035	1402,204	774,267
-12,877	14,978	1401,357	773,505
-11,863	14,966	1400,467	772,929
-10,848	14,986	1399,636	772,531
-9,833	14,955	1398,731	771,858
-8,819	14,916	1397,832	771,149
-7,804	14,921	1396,896	770,627
-6,790	14,922	1395,759	769,972
-5,775	14,881	1395,003	769,333
-4,760	14,908	1393,791	768,760
-3,746	14,889	1393,311	768,375
-2,731	14,923	1392,221	767,904
-1,717	14,875	1391,438	767,217
-0,702	14,893	1389,510	766,210
0,313	18,690	1308,674	739,206
1,327	35,008	707,039	437,195
2,342	53,980	124,848	84,796
3,356	1,758	16,644	8,459
4,371	11,253	3,044	1,643
5,386	7,781	0,497	0,263
6,400	800,000	0,014	0,042
7,415	-47,352	-0,252	-0,086
8,429	48,656	-0,272	-0,180
9,444	161,718	-0,340	-0,337
10,459	-148,197	-0,348	-0,020
11,473	102,579	-0,249	-0,206
12,488	-68,676	-0,402	-0,109
13,502	172,518	-0,265	-0,270
14,517	206,738	-0,255	-0,281
15,531	56,134	-0,316	-0,217
16,546	23,894	-0,376	-0,219
17,561	50,139	-0,365	-0,243
18,575	-37,934	-0,230	-0,086
19,590	494,530	-0,163	-0,265
20,604	66,182	-0,321	-0,230
21,619	115,190	-0,487	-0,420
22,634	25,285	-0,510	-0,298
23,648	176,796	-0,319	-0,328
24,663	33,982	-0,491	-0,301
25,677	193,394	-0,347	-0,371
26,692	85,260	-0,426	-0,330
27,707	-21,534	-0,388	-0,167
28,721	63,703	-0,421	-0,298
29,736	114,471	-0,524	-0,450
30,750	106,628	-0,264	-0,221
31,765	325,306	-0,207	-0,281
32,780	-7,321	-0,500	-0,238
33,794	511,240	-0,194	-0,320
34,809	-4,372	-0,403	-0,196
35,823	-77,021	-0,490	-0,120
36,838	21,664	-0,464	-0,266
37,853	32,561	-0,400	-0,243
38,867	43,990	-0,403	-0,260
39,882	90,502	-0,249	-0,197
40,896	71,196	-0,331	-0,242
41,911	-25,176	-0,459	-0,191
42,926	58,225	-0,420	-0,290
43,940	68,241	-0,557	-0,401
44,955	80,745	-0,399	-0,303
45,969	-44,057	-0,363	-0,128
46,984	479,200	-0,222	-0,356
47,999	78,105	-0,338	-0,254
49,013	204,787	-0,187	-0,204
50,028	-44,736	-0,385	-0,135
51,042	230,094	-0,273	-0,315
52,057	291,918	-0,206	-0,265
53,071	62,312	-0,291	-0,204
54,086	8,944	-0,400	-0,212
55,101	148,345	-0,284	-0,271
56,115	48,245	-0,285	-0,187
57,130	-18,016	-0,403	-0,177
58,144	16,044	-0,368	-0,204
59,159	55,482	-0,346	-0,235
60,174	39,239	-0,304	-0,191
61,188	-99,061	-0,516	-0,091
62,203	114,722	-0,267	-0,229
63,217	-49,541	-0,270	-0,090
64,232	63,688	-0,343	-0,242
65,247	112,955	-0,308	-0,263
66,261	254,326	-0,365	-0,440
67,276	187,336	-0,267	-0,280
68,290	178,842	-0,251	-0,259
69,305	318,855	-0,174	-0,232
70,320	-7,219	-0,328	-0,156
71,334	-20,715	-0,453	-0,195
72,349	0,270	-0,313	-0,157
73,363	160,186	-0,358	-0,351
74,378	26,658	-0,348	-0,204
75,393	4,724	-0,294	-0,151
76,407	92,862	-0,234	-0,186
77,422	-158,098	-0,149	0,006
78,436	85,494	-0,135	-0,104
79,451	-37,023	-0,353	-0,132
80,466	210,372	-0,253	-0,280
81,480	100,198	-0,332	-0,271
82,495	17,951	-0,362	-0,202
83,509	-11,303	-0,304	-0,140
84,524	179,330	-0,221	-0,228
85,539	-106,571	-0,386	-0,060
86,553	147,738	-0,228	-0,216
87,568	-36,759	-0,401	-0,150
88,582	-200,000	-0,080	-0,255
89,597	51,999	-0,409	-0,273
90,611	-11,470	-0,277	-0,127
91,626	8,790	-0,248	-0,131
92,641	18,380	-0,278	-0,156
93,655	83,719	-0,225	-0,172
94,670	-136,530	-0,303	-0,024
95,684	101,563	-0,241	-0,197
96,699	-101,467	-0,421	-0,071
97,714	222,576	-0,192	-0,217
98,728	178,425	-0,202	-0,207
99,743	-131,774	-0,274	0,025
100,757	71,278	-0,289	-0,210
101,772	62,555	-0,317	-0,222
102,787	119,257	-0,245	-0,212
103,801	77,673	-0,226	-0,169
104,816	48,957	-0,234	-0,154
105,830	4,739	-0,180	-0,092
106,845	118,109	-0,159	-0,138
107,860	81,227	-0,247	-0,187
108,874	31,876	-0,288	-0,174
109,889	200,034	-0,295	-0,318
110,903	83,166	-0,263	-0,200
111,918	191,296	-0,164	-0,173
112,933	460,128	-0,107	-0,168
113,947	97,090	-0,144	-0,115
114,962	504,575	-0,132	-0,215
115,976	103,981	-0,207	-0,170
116,991	45,074	-0,265	-0,171
118,006	119,038	-0,271	-0,235
119,020	195,162	-0,271	-0,288
120,035	179,937	-0,234	-0,241
121,049	133,058	-0,160	-0,144
122,064	13,722	-0,310	-0,168
123,079	72,981	-0,228	-0,167
124,093	-39,640	-0,165	-0,060
125,108	18,562	-0,184	-0,103
126,122	70,903	-0,288	-0,208
127,137	-27,719	-0,216	-0,087
128,151	-102,493	-0,239	-0,040
129,166	747,819	-0,101	-0,191
130,181	470,017	-0,180	-0,284
131,195	280,248	-0,189	-0,237
132,210	-45,400	-0,278	-0,096
133,224	13,640	-0,350	-0,190
134,239	-23,740	-0,214	-0,089
135,254	48,147	-0,215	-0,140
136,268	-48,409	-0,179	-0,060
137,283	72,952	-0,286	-0,209
138,297	116,106	-0,253	-0,217
139,312	520,542	-0,172	-0,283
140,327	34,398	-0,200	-0,122
141,341	8,943	-0,227	-0,120
142,356	-18,202	-0,240	-0,105
143,370	-125,593	-0,201	-0,021
144,385	-12,652	-0,396	-0,180
145,400	138,269	-0,311	-0,285
146,414	-45,030	-0,290	-0,100
147,429	25,933	-0,313	-0,182
148,443	2,257	-0,226	-0,114
149,458	12,948	-0,272	-0,147
150,473	-44,450	-0,220	-0,076
151,487	56,983	-0,323	-0,220
152,502	203,284	-0,181	-0,195
153,516	60,710	-0,296	-0,205
154,531	-2,555	-0,253	-0,123
155,546	56,163	-0,283	-0,191
156,560	11,368	-0,195	-0,104
157,575	280,461	-0,163	-0,204
158,589	27,038	-0,337	-0,197
159,604	223,358	-0,207	-0,233
160,619	32,416	-0,319	-0,192
161,633	630,022	-0,145	-0,258
162,648	-43,878	-0,362	-0,126
163,662	-52,739	-0,170	-0,054
164,677	71,830	-0,238	-0,172
165,692	-49,404	-0,215	-0,071
166,706	23,303	-0,253	-0,145
167,721	103,841	-0,206	-0,169
168,735	79,013	-0,268	-0,200
169,750	121,303	-0,250	-0,217
170,764	-167,031	-0,128	0,004
171,779	32,878	-0,189	-0,114
172,794	1,576	-0,198	-0,099
173,808	68,440	-0,244	-0,174
174,823	154,654	-0,182	-0,175
175,837	150,028	-0,319	-0,302
176,852	-54,448	-0,317	-0,099
177,867	17,471	-0,296	-0,163
178,881	302,381	-0,088	-0,114
179,896	-26,371	-0,290	-0,118
180,910	215,981	-0,173	-0,192
181,925	800,000	-0,132	-0,268
182,940	-16,884	-0,369	-0,162
183,954	72,178	-0,206	-0,149
184,969	187,410	-0,137	-0,142
185,983	52,737	-0,162	-0,108
186,998	34,240	-0,145	-0,088
188,013	163,869	-0,176	-0,172
189,027	24,207	-0,250	-0,144
190,042	306,414	-0,091	-0,118
191,056	116,923	-0,233	-0,199
192,071	57,333	-0,295	-0,200
193,086	41,832	-0,125	-0,079
194,100	83,177	-0,166	-0,126
195,115	800,000	-0,087	-0,182
196,129	41,532	-0,176	-0,111
197,144	210,723	-0,209	-0,229
198,159	-4,316	-0,283	-0,136
199,173	259,511	-0,194	-0,234
200,188	-6,117	-0,267	-0,126
201,202	-148,017	-0,182	0,010
202,217	-9,314	-0,253	-0,117
203,232	0,252	-0,251	-0,124
204,246	170,040	-0,212	-0,211
205,261	277,446	-0,166	-0,206
206,275	-48,102	-0,210	-0,070
207,290	161,429	-0,202	-0,196
208,304	-200,000	-0,050	-0,195
209,319	69,125	-0,240	-0,171
210,334	129,378	-0,149	-0,133
211,348	368,253	-0,123	-0,173
212,363	656,676	-0,124	-0,223
213,377	-102,953	-0,161	-0,026
214,392	800,000	-0,088	-0,248
215,407	414,423	-0,122	-0,181
216,421	-19,263	-0,269	-0,116
217,436	-144,422	-0,262	0,017
218,450	116,221	-0,215	-0,183
219,465	32,832	-0,178	-0,107
220,480	-73,470	-0,112	-0,028
221,494	105,366	-0,156	-0,128
222,509	73,193	-0,138	-0,100
223,523	-23,565	-0,156	-0,065
224,538	262,640	-0,164	-0,198
225,553	156,754	-0,263	-0,252
226,567	800,000	-0,100	-0,252
227,582	238,580	-0,170	-0,196
228,596	272,561	-0,076	-0,093
229,611	103,702	-0,147	-0,120
230,626	-83,687	-0,279	-0,061
231,640	83,958	-0,149	-0,113
232,655	-28,287	-0,226	-0,090
233,669	-113,623	-0,160	0,021
234,684	53,125	-0,255	-0,169
235,699	127,876	-0,130	-0,115
236,713	-27,147	-0,153	-0,062
237,728	109,147	-0,194	-0,161
238,742	13,565	-0,124	-0,066
239,757	-23,791	-0,243	-0,101
240,772	142,127	-0,202	-0,186
241,786	-200,000	-0,055	-0,181
242,801	64,241	-0,214	-0,149
243,815	459,618	-0,115	-0,178
244,830	66,061	-0,220	-0,154
245,844	143,978	-0,205	-0,190
246,859	266,109	-0,189	-0,229
247,874	14,338	-0,117	-0,063
248,888	-77,727	-0,235	-0,056
249,903	303,908	-0,125	-0,161
250,917	800,000	-0,043	-0,128
251,932	-47,362	-0,223	-0,075
252,947	26,037	-0,236	-0,136
253,961	285,442	-0,161	-0,201
254,976	800,000	-0,095	-0,193
255,990	219,309	-0,167	-0,185
257,005	1,126	-0,175	-0,087
258,020	23,209	-0,116	-0,066
259,034	188,598	-0,138	-0,143
260,049	-132,169	-0,211	0,019
261,063	67,747	-0,105	-0,074
262,078	129,509	-0,289	-0,256
263,093	81,225	-0,309	-0,230
264,107	-151,814	-0,093	0,005
265,122	5,658	-0,161	-0,082
266,136	10,779	-0,207	-0,109
267,151	-200,000	-0,011	-0,108
268,166	-103,412	-0,231	-0,037
269,180	-57,714	-0,207	-0,062
270,195	-33,437	-0,127	-0,048
271,209	53,556	-0,110	-0,073
272,224	28,891	-0,148	-0,086
273,239	800,000	-0,058	-0,165
274,253	152,186	-0,245	-0,231
275,268	-121,884	-0,191	-0,021
276,282	79,356	-0,208	-0,154
277,297	401,237	-0,124	-0,180
278,312	-129,706	-0,266	-0,025
279,326	78,542	-0,192	-0,141
280,341	142,328	-0,129	-0,118
281,355	122,574	-0,294	-0,254
282,370	33,388	-0,103	-0,062
283,384	-141,803	-0,128	-0,009
284,399	95,347	-0,133	-0,104
285,414	266,974	-0,124	-0,150
286,428	-41,395	-0,112	-0,040
287,443	191,502	-0,149	-0,155
288,457	-29,031	-0,152	-0,060
289,472	67,863	-0,154	-0,109
290,487	-70,598	-0,063	0,016
291,501	732,955	-0,086	-0,160
292,516	-115,486	-0,171	0,022
293,530	4,439	-0,083	-0,042
294,545	-73,405	-0,332	-0,083
295,560	800,000	-0,055	-0,111
296,574	-9,043	-0,167	-0,077
297,589	-30,633	-0,189	-0,074
298,603	231,181	-0,119	-0,135
299,618	800,000	-0,068	-0,173
300,633	-102,892	-0,170	0,028
301,647	275,260	-0,104	-0,128
302,662	27,799	-0,147	-0,085
303,676	-200,000	-0,044	-0,147
304,691	-54,610	-0,193	-0,060
305,706	-38,744	-0,263	-0,095
306,720	79,541	-0,224	-0,165
307,735	208,201	-0,171	-0,184
308,749	-164,348	-0,105	0,003
309,764	-136,857	-0,100	0,008
310,779	-115,599	-0,184	0,024
311,793	-53,749	-0,174	-0,054
312,808	782,653	-0,183	-0,347
313,822	443,744	-0,109	-0,165
314,837	43,531	-0,205	-0,129
315,852	222,391	-0,133	0,147
316,866	623,431	-0,047	0,083
317,881	-0,896	-0,103	-0,050
318,895	-200,000	-0,041	-0,189
319,910	307,886	-0,119	-0,153
320,925	242,543	-0,165	-0,190
321,939	96,999	-0,151	-0,119
322,954	319,761	-0,114	-0,149
323,968	98,788	-0,210	-0,167
324,983	-22,251	-0,228	-0,095
325,997	800,000	-0,147	-0,304
327,012	-100,554	-0,194	-0,033
328,027	141,962	-0,140	-0,128
329,041	-200,000	-0,047	-0,194
330,056	100,467	-0,030	0,024
331,070	-63,297	-0,040	0,011
332,085	262,164	0,041	-0,049
333,100	165,510	-0,146	-0,142
334,114	5,133	-0,176	-0,089
335,129	-111,598	-0,226	-0,031
336,143	73,548	-0,175	-0,125
337,158	-92,515	-0,189	0,036
338,173	800,000	-0,049	-0,113
339,187	-55,679	-0,183	-0,056
340,202	90,896	-0,060	-0,046
341,216	-200,000	-0,000	-0,107
342,231	42,728	-0,158	-0,099
343,246	800,000	-0,089	-0,191
344,260	-41,418	-0,091	-0,032
345,275	85,281	-0,088	0,067
346,289	-114,049	-0,267	-0,035
347,304	-124,896	-0,112	0,012
348,319	-120,359	-0,074	-0,009
349,333	16,267	-0,192	-0,104
350,348	118,971	-0,159	-0,135
351,362	-200,000	-0,055	-0,231
352,377	-78,594	-0,137	-0,032
353,392	-200,000	-0,040	-0,157
354,406	203,021	-0,119	-0,126
355,421	209,520	1316,103	1416,960
356,435	161,251	1477,027	1417,453
