DTS Sentinel unit serial number:	SN410029Multiplexer serial number:	ORYXHardware model number:	OX2-SRSoftware version number:	ORYX F/W v4,00 Oryx Data Collector v3.7.2.0data status	okinstallation	B3 Nyhavnadifferential loss correction	single-endedforward channel	channel 1reverse channel	N/Adate	2023/12/02time	13:07:30forward acquisition time	300,00reverse acquisition time	0,00gamma	499,1914k internal	0,3198k external	0,3198temperature offset calibration	1,0000default loss term (dB/km)	0,3820temperature slope calibration	1,0000multiplexer offset coefficient	1,0000multiplexer slope coefficient	1,0000fibre end	0,00T internal ref (°C)	14,31T ext. ref 1 (°C)	-0,00T ext. ref 2 (°C)	-0,02length (m)	temperature (°C)	Stokes	anti-Stokes-744,400	800,000	-0,104	-0,224
-743,385	-200,000	0,028	0,215
-742,371	800,000	-0,047	-0,119
-741,356	800,000	0,140	0,337
-740,342	247,657	-0,125	-0,154
-739,327	-200,000	0,004	0,282
-738,312	800,000	-0,159	-0,337
-737,298	-200,000	0,059	0,327
-736,283	-22,182	-0,239	-0,105
-735,269	569,183	0,156	0,277
-734,254	87,893	-0,244	-0,197
-733,239	192,857	-0,143	0,158
-732,225	680,278	-0,057	-0,108
-731,210	125,488	0,089	0,082
-730,196	-171,733	0,069	-0,002
-729,181	54,630	-0,106	0,075
-728,167	-127,036	-0,143	-0,015
-727,152	57,418	0,097	-0,069
-726,137	-200,000	-0,047	-0,244
-725,123	103,572	-0,080	-0,069
-724,108	270,210	-0,068	-0,087
-723,094	187,392	-0,083	-0,090
-722,079	694,713	-0,058	-0,112
-721,064	-56,706	-0,121	-0,039
-720,050	-200,000	-0,003	-0,028
-719,035	-88,839	-0,130	-0,028
-718,021	-134,920	-0,153	-0,013
-717,006	-200,000	0,004	-0,055
-715,991	366,979	0,062	-0,092
-714,977	-200,000	0,022	-0,165
-713,962	-169,601	-0,129	-0,003
-712,948	61,910	-0,107	-0,078
-711,933	-200,000	-0,003	0,091
-710,918	18,010	-0,077	-0,045
-709,904	-11,359	0,067	-0,032
-708,889	-101,974	-0,083	-0,014
-707,875	88,817	-0,055	0,044
-706,860	49,426	-0,062	0,042
-705,845	129,371	0,030	-0,028
-704,831	-116,129	0,093	0,012
-703,816	800,000	0,065	-0,154
-702,802	204,997	0,080	-0,091
-701,787	-22,105	-0,150	-0,066
-700,772	-8,087	-0,160	0,078
-699,758	-200,000	0,001	0,104
-698,743	399,339	0,067	0,103
-697,729	181,524	-0,072	0,077
-696,714	-61,399	-0,141	0,043
-695,699	-200,000	0,008	0,033
-694,685	-32,655	-0,107	-0,043
-693,670	-200,000	-0,005	-0,115
-692,656	263,231	-0,086	-0,108
-691,641	42,840	0,170	-0,113
-690,627	-200,000	-0,029	0,125
-689,612	-128,720	0,155	0,016
-688,597	-46,019	0,093	-0,033
-687,583	-112,934	-0,077	0,011
-686,568	-31,687	-0,076	-0,031
-685,554	-200,000	0,029	-0,100
-684,539	-122,117	0,098	-0,012
-683,524	515,727	-0,073	-0,124
-682,510	129,022	0,079	-0,073
-681,495	99,790	0,021	-0,018
-680,481	46,381	0,092	-0,062
-679,466	-200,000	-0,027	-0,102
-678,451	-142,851	-0,146	0,010
-677,437	205,824	-0,052	-0,059
-676,422	258,899	-0,054	-0,067
-675,408	-60,060	-0,025	0,008
-674,393	-29,846	-0,048	-0,020
-673,378	268,638	-0,117	-0,150
-672,364	-141,216	-0,037	0,003
-671,349	-91,865	-0,073	-0,015
-670,335	79,739	0,086	-0,067
-669,320	330,464	-0,045	-0,063
-668,305	293,047	-0,026	-0,034
-667,291	333,126	0,008	-0,011
-666,276	-8,803	-0,049	0,024
-665,262	-200,000	-0,033	-0,163
-664,247	193,695	-0,016	-0,018
-663,232	-60,503	0,076	-0,023
-662,218	112,198	-0,071	0,062
-661,203	-99,641	0,025	0,005
-660,189	175,181	0,063	-0,066
-659,174	-200,000	-0,008	-0,130
-658,159	225,950	-0,052	-0,061
-657,145	334,574	-0,045	-0,063
-656,130	-78,837	-0,031	0,008
-655,116	-200,000	-0,026	-0,106
-654,101	-10,800	0,018	-0,008
-653,086	-200,000	-0,026	0,092
-652,072	-200,000	-0,007	0,063
-651,057	12,542	-0,195	-0,109
-650,043	28,032	-0,085	-0,052
-649,028	-200,000	-0,018	-0,110
-648,014	251,980	-0,036	0,045
-646,999	-200,000	-0,001	0,095
-645,984	-81,807	0,037	-0,009
-644,970	800,000	-0,019	-0,044
-643,955	-200,000	0,022	-0,129
-642,941	508,137	-0,034	-0,058
-641,926	781,880	-0,048	0,096
-640,911	80,554	0,096	0,075
-639,897	-200,000	-0,025	0,121
-638,882	800,000	0,016	-0,045
-637,868	800,000	-0,026	0,076
-636,853	22,282	-0,134	-0,079
-635,838	800,000	-0,042	0,108
-634,824	-200,000	0,013	-0,173
-633,809	126,621	0,019	0,017
-632,795	-103,273	0,073	0,012
-631,780	44,891	0,048	-0,032
-630,765	-200,000	-0,021	-0,123
-629,751	-200,000	-0,038	-0,126
-628,736	-65,734	-0,121	-0,035
-627,722	369,702	-0,076	-0,112
-626,707	202,135	0,034	-0,038
-625,692	-200,000	0,009	-0,161
-624,678	800,000	-0,050	-0,118
-623,663	-200,000	0,005	0,057
-622,649	285,832	-0,018	-0,023
-621,634	-200,000	0,002	-0,042
-620,619	-200,000	0,014	-0,052
-619,605	-139,112	-0,169	0,013
-618,590	-200,000	0,016	0,154
-617,576	-36,795	0,058	-0,023
-616,561	-40,848	-0,027	-0,010
-615,546	112,944	-0,053	-0,046
-614,532	-200,000	-0,006	-0,170
-613,517	631,081	-0,008	-0,015
-612,503	800,000	-0,048	0,129
-611,488	223,233	-0,053	0,062
-610,474	800,000	-0,039	0,079
-609,459	-91,667	0,080	0,016
-608,444	-200,000	0,012	0,096
-607,430	753,924	0,045	0,088
-606,415	-200,000	-0,014	-0,053
-605,401	-200,000	0,005	0,052
-604,386	800,000	-0,034	0,079
-603,371	-121,710	0,097	0,012
-602,357	-23,620	0,073	-0,032
-601,342	219,240	0,020	0,023
-600,328	-200,000	-0,003	-0,115
-599,313	-200,000	-0,015	-0,140
-598,298	-68,750	0,054	0,015
-597,284	-200,000	0,009	0,143
-596,269	182,435	-0,058	0,062
-595,255	317,806	-0,042	0,058
-594,240	-200,000	0,017	-0,091
-593,225	-8,147	0,077	-0,037
-592,211	166,300	0,088	-0,090
-591,196	571,936	-0,057	-0,100
-590,182	337,667	-0,012	-0,017
-589,167	-200,000	-0,002	0,163
-588,152	38,524	-0,047	-0,031
-587,138	280,234	-0,042	-0,054
-586,123	144,239	-0,105	0,101
-585,109	340,216	-0,018	-0,025
-584,094	-200,000	-0,002	-0,125
-583,079	-200,000	0,006	-0,060
-582,065	209,871	0,082	0,093
-581,050	414,783	0,079	0,122
-580,036	-97,294	0,067	0,013
-579,021	-101,925	0,068	-0,012
-578,006	8,042	-0,100	0,054
-576,992	-200,000	0,020	-0,118
-575,977	-200,000	-0,033	0,157
-574,963	-95,965	0,146	0,028
-573,948	-200,000	0,028	0,104
-572,934	21,159	-0,202	-0,118
-571,919	-21,623	0,076	-0,033
-570,904	-141,616	-0,137	-0,010
-569,890	-200,000	0,004	-0,057
-568,875	-14,237	0,085	-0,039
-567,861	-149,097	-0,083	-0,005
-566,846	-48,968	0,056	-0,019
-565,831	-141,135	0,107	-0,008
-564,817	800,000	-0,050	-0,107
-563,802	-61,301	-0,119	0,036
-562,788	-200,000	0,009	-0,052
-561,773	-200,000	0,005	0,056
-560,758	-200,000	0,009	0,074
-559,744	-200,000	-0,010	0,084
-558,729	-65,059	-0,125	0,036
-557,715	248,552	0,065	0,080
-556,700	800,000	0,026	-0,080
-555,685	-76,927	-0,184	-0,046
-554,671	-59,054	-0,132	0,041
-553,656	-197,216	0,118	-0,001
-552,642	729,934	0,045	0,086
-551,627	-72,842	0,056	0,015
-550,612	-157,949	-0,069	0,003
-549,598	-200,000	-0,034	-0,151
-548,583	2,452	-0,041	0,022
-547,569	-200,000	-0,004	0,053
-546,554	139,986	0,117	0,111
-545,539	217,006	0,062	0,071
-544,525	-133,993	-0,077	-0,007
-543,510	-132,866	0,124	0,011
-542,496	-200,000	-0,019	-0,177
-541,481	800,000	-0,022	-0,051
-540,466	800,000	0,037	0,082
-539,452	-138,589	0,199	0,016
-538,437	-48,770	0,020	0,007
-537,423	193,013	0,043	0,046
-536,408	-31,037	-0,118	0,048
-535,393	-7,287	-0,150	-0,073
-534,379	-104,495	0,057	0,009
-533,364	222,778	-0,043	0,050
-532,350	-98,929	0,159	0,029
-531,335	202,118	0,052	-0,058
-530,321	-20,612	-0,045	0,020
-529,306	184,268	-0,089	0,095
-528,291	-200,000	-0,027	-0,134
-527,277	2,529	-0,092	0,048
-526,262	273,034	0,019	0,024
-525,248	52,565	0,114	0,078
-524,233	-61,617	0,054	0,016
-523,218	800,000	0,058	-0,166
-522,204	-146,031	-0,181	-0,011
-521,189	438,350	-0,056	-0,089
-520,175	800,000	0,013	-0,030
-519,160	-100,768	-0,146	0,026
-518,145	-200,000	0,018	-0,176
-517,131	-90,141	0,143	-0,030
-516,116	206,458	-0,069	0,077
-515,102	-47,683	0,021	0,007
-514,087	-200,000	0,012	-0,075
-513,072	-112,364	-0,110	-0,016
-512,058	-200,000	0,018	-0,095
-511,043	34,856	0,167	-0,105
-510,029	-38,766	0,062	0,023
-509,014	-52,494	0,063	-0,021
-507,999	159,968	-0,087	0,088
-506,985	-47,836	-0,126	0,044
-505,970	184,123	-0,138	0,147
-504,956	-191,496	-0,059	-0,000
-503,941	-200,000	-0,002	-0,101
-502,926	800,000	0,027	0,067
-501,912	-60,361	0,032	-0,010
-500,897	239,228	0,092	-0,110
-499,883	800,000	-0,012	-0,037
-498,868	292,330	-0,068	-0,090
-497,853	151,388	-0,084	-0,082
-496,839	-90,371	0,082	0,017
-495,824	-101,544	0,098	0,017
-494,810	4,330	0,074	0,039
-493,795	229,498	-0,015	0,018
-492,781	139,649	-0,110	-0,105
-491,766	-200,000	0,029	-0,141
-490,751	-2,225	-0,045	-0,023
-489,737	200,376	0,044	-0,049
-488,722	256,601	0,079	-0,098
-487,708	-200,000	-0,001	0,088
-486,693	-161,018	0,093	-0,003
-485,678	800,000	-0,028	0,062
-484,664	-44,902	-0,076	0,027
-483,649	151,155	0,098	0,096
-482,635	29,700	-0,086	0,053
-481,620	-200,000	0,002	0,190
-480,605	487,103	-0,042	0,070
-479,591	410,999	0,048	0,074
-478,576	334,158	-0,084	0,117
-477,562	800,000	0,030	0,069
-476,547	-138,741	-0,063	0,005
-475,532	-200,000	-0,012	0,040
-474,518	-53,669	-0,103	0,034
-473,503	-200,000	0,036	0,137
-472,489	166,217	-0,020	0,020
-471,474	2,199	-0,096	-0,050
-470,459	53,523	-0,015	-0,011
-469,445	144,318	-0,083	0,080
-468,430	21,292	-0,055	-0,032
-467,416	-200,000	-0,016	0,073
-466,401	33,901	-0,058	-0,036
-465,386	682,034	-0,074	0,139
-464,372	800,000	0,021	-0,042
-463,357	800,000	0,061	-0,150
-462,343	95,321	-0,081	0,067
-461,328	144,011	-0,101	-0,097
-460,313	436,650	-0,034	0,053
-459,299	-200,000	-0,027	0,113
-458,284	-25,910	0,075	-0,032
-457,270	-59,406	0,061	0,019
-456,255	273,100	-0,099	0,126
-455,241	-200,000	0,001	0,073
-454,226	-1,953	-0,125	0,063
-453,211	-17,516	0,083	-0,037
-452,197	-17,482	0,079	-0,036
-451,182	94,729	-0,055	0,045
-450,168	137,812	0,064	-0,060
-449,153	-200,000	-0,049	0,205
-448,138	565,981	-0,059	-0,103
-447,124	784,591	0,050	-0,099
-446,109	-200,000	-0,012	0,143
-445,095	-126,096	-0,023	0,002
-444,080	154,128	0,042	-0,041
-443,065	-200,000	0,003	-0,017
-442,051	608,551	-0,060	-0,109
-441,036	-67,386	-0,069	-0,019
-440,022	-7,131	0,136	0,066
-439,007	-117,890	0,123	0,016
-437,992	-200,000	0,005	0,078
-436,978	800,000	0,028	0,082
-435,963	-119,014	0,128	0,016
-434,949	-100,159	-0,062	-0,011
-433,934	-25,537	-0,070	0,030
-432,919	800,000	0,039	0,104
-431,905	-48,155	-0,097	-0,034
-430,890	155,282	0,166	0,164
-429,876	-81,628	-0,036	-0,008
-428,861	115,136	0,053	0,047
-427,846	361,340	0,043	0,063
-426,832	-200,000	0,016	-0,079
-425,817	5,009	-0,057	0,030
-424,803	73,611	-0,033	-0,025
-423,788	46,290	0,046	0,031
-422,773	-200,000	0,009	0,062
-421,759	-200,000	-0,025	0,196
-420,744	62,162	-0,122	0,087
-419,730	-200,000	0,016	-0,129
-418,715	-91,822	0,093	0,019
-417,701	199,577	0,014	-0,015
-416,686	44,441	-0,058	-0,038
-415,671	-10,182	0,086	0,041
-414,657	158,197	0,024	-0,024
-413,642	-200,000	0,008	0,033
-412,628	-200,000	-0,007	-0,063
-411,613	542,890	-0,080	-0,138
-410,598	800,000	0,034	-0,107
-409,584	-76,200	0,122	0,031
-408,569	-134,569	0,062	-0,005
-407,555	-200,000	0,012	-0,093
-406,540	25,016	-0,086	0,051
-405,525	350,576	-0,054	0,077
-404,511	2,788	-0,145	0,075
-403,496	219,774	-0,093	-0,107
-402,482	-110,312	-0,095	-0,014
-401,467	0,785	0,097	0,050
-400,452	220,869	0,047	0,054
-399,438	-14,033	-0,033	-0,015
-398,423	-200,000	-0,001	-0,050
-397,409	800,000	0,022	0,061
-396,394	800,000	0,059	-0,131
-395,379	800,000	0,035	-0,070
-394,365	24,043	0,092	0,054
-393,350	260,979	-0,039	-0,048
-392,336	167,703	0,129	0,132
-391,321	-52,248	-0,040	-0,013
-390,306	169,708	-0,119	0,123
-389,292	212,948	-0,003	-0,003
-388,277	765,941	0,071	0,139
-387,263	407,853	0,062	0,095
-386,248	-200,000	-0,001	-0,059
-385,233	800,000	0,014	0,040
-384,219	-200,000	0,003	-0,065
-383,204	460,137	-0,051	-0,082
-382,190	255,614	0,044	-0,055
-381,175	-200,000	0,015	-0,120
-380,160	800,000	0,023	0,050
-379,146	-77,537	0,073	-0,018
-378,131	800,000	-0,047	-0,104
-377,117	800,000	-0,042	0,121
-376,102	365,138	-0,106	0,154
-375,088	359,288	-0,026	0,037
-374,073	129,862	0,063	-0,057
-373,058	718,117	-0,045	-0,086
-372,044	800,000	-0,039	0,103
-371,029	-200,000	-0,017	0,247
-370,015	-200,000	0,003	0,243
-369,000	402,870	0,063	-0,095
-367,985	6,120	-0,046	-0,024
-366,971	-10,497	0,079	-0,037
-365,956	-200,000	0,009	-0,099
-364,942	-35,249	-0,023	-0,009
-363,927	-200,000	0,009	0,177
-362,912	-68,942	-0,072	0,020
-361,898	172,999	-0,029	-0,030
-360,883	-200,000	-0,036	-0,129
-359,869	-90,022	0,082	0,017
-358,854	-200,000	0,013	0,141
-357,839	277,588	-0,029	0,037
-356,825	-52,375	-0,029	-0,010
-355,810	-76,909	0,183	-0,045
-354,796	-59,889	-0,020	0,006
-353,781	222,100	-0,088	-0,101
-352,766	-9,754	0,109	-0,052
-351,752	230,591	0,022	0,026
-350,737	-200,000	-0,013	0,167
-349,723	-200,000	0,003	-0,069
-348,708	-50,916	-0,176	0,059
-347,693	208,944	-0,035	-0,039
-346,679	241,377	-0,078	-0,093
-345,664	36,334	0,075	0,048
-344,650	-53,833	-0,093	0,030
-343,635	-44,627	0,119	-0,042
-342,620	169,395	0,065	0,066
-341,606	-108,463	0,110	0,017
-340,591	-200,000	-0,024	-0,080
-339,577	-109,157	0,128	-0,019
-338,562	-71,115	-0,038	-0,010
-337,548	-141,621	-0,095	0,007
-336,533	95,417	0,101	0,083
-335,518	-200,000	-0,044	0,171
-334,504	-109,024	-0,112	0,017
-333,489	9,906	-0,023	0,013
-332,475	164,190	0,002	-0,002
-331,460	133,750	-0,039	0,036
-330,445	412,238	-0,055	-0,083
-329,431	-58,491	0,035	0,011
-328,416	75,598	0,093	0,070
-327,402	376,604	0,091	0,133
-326,387	283,372	-0,048	0,062
-325,372	800,000	-0,012	-0,027
-324,358	-200,000	-0,013	-0,144
-323,343	-52,418	-0,027	0,009
-322,329	71,702	0,136	0,101
-321,314	212,698	0,022	-0,025
-320,299	800,000	-0,024	-0,063
-319,285	-78,883	0,044	0,011
-318,270	398,337	-0,071	-0,106
-317,256	31,274	0,075	-0,046
-316,241	317,860	-0,099	0,135
-315,226	-55,226	0,125	-0,040
-314,212	-19,874	0,239	0,105
-313,197	86,848	-0,055	-0,043
-312,183	-200,000	0,015	-0,074
-311,168	62,199	-0,063	-0,045
-310,153	-146,774	-0,231	0,014
-309,139	-200,000	0,043	-0,165
-308,124	-132,825	0,084	0,008
-307,110	-122,490	0,135	0,016
-306,095	-200,000	0,027	0,097
-305,080	-90,941	0,073	0,015
-304,066	411,312	-0,054	0,082
-303,051	-49,793	-0,139	0,047
-302,037	-158,783	0,064	-0,003
-301,022	-60,289	0,133	-0,040
-300,008	-78,557	0,156	0,038
-298,993	-200,000	-0,015	-0,061
-297,978	-200,000	-0,003	-0,056
-296,964	-50,899	0,097	0,032
-295,949	480,519	-0,091	-0,148
-294,935	-200,000	-0,013	0,063
-293,920	-200,000	0,004	-0,036
-292,905	334,179	0,090	-0,125
-291,891	800,000	0,048	0,137
-290,876	-34,729	-0,035	0,014
-289,862	376,207	-0,029	-0,042
-288,847	-4,349	-0,133	-0,066
-287,832	340,636	0,071	-0,099
-286,818	-200,000	0,027	-0,206
-285,803	-150,090	0,085	0,005
-284,789	-58,151	0,094	-0,029
-283,774	-200,000	-0,000	0,072
-282,759	-117,268	-0,065	-0,008
-281,745	-200,000	-0,015	-0,106
-280,730	60,999	-0,068	-0,049
-279,716	-200,000	0,012	-0,045
-278,701	800,000	0,037	0,100
-277,686	722,070	-0,022	0,043
-276,672	800,000	-0,020	0,058
-275,657	-200,000	-0,003	-0,066
-274,643	123,864	-0,063	-0,057
-273,628	-200,000	0,002	0,050
-272,613	39,999	-0,100	0,064
-271,599	-200,000	0,014	0,122
-270,584	-200,000	-0,005	0,128
-269,570	107,086	0,098	0,083
-268,555	-67,028	-0,055	0,015
-267,540	175,021	0,041	0,042
-266,526	347,653	-0,025	-0,036
-265,511	97,744	-0,027	0,022
-264,497	76,595	-0,043	-0,032
-263,482	9,546	0,181	-0,097
-262,467	-200,000	-0,014	-0,045
-261,453	-200,000	0,019	0,067
-260,438	-200,000	-0,008	0,148
-259,424	68,006	0,141	0,103
-258,409	61,209	-0,037	-0,026
-257,395	-200,000	0,002	0,066
-256,380	-200,000	0,024	0,113
-255,365	-200,000	-0,014	0,047
-254,351	-200,000	0,018	-0,142
-253,336	-114,243	0,126	-0,017
-252,322	781,915	-0,078	-0,154
-251,307	102,861	0,108	-0,090
-250,292	-93,898	0,078	0,015
-249,278	-200,000	0,028	0,114
-248,263	-200,000	-0,036	0,124
-247,249	56,715	-0,095	0,066
-246,234	478,987	-0,005	0,009
-245,219	40,632	-0,028	0,018
-244,205	-95,790	0,044	-0,008
-243,190	-200,000	0,001	-0,075
-242,176	-7,032	-0,052	-0,025
-241,161	-73,968	0,110	-0,028
-240,146	608,334	0,071	0,127
-239,132	-80,788	-0,169	0,040
-238,117	276,778	-0,085	-0,108
-237,103	-200,000	-0,011	-0,097
-236,088	-189,649	0,118	0,001
-235,073	155,147	-0,082	-0,080
-234,059	-95,260	0,158	-0,030
-233,044	-200,000	0,005	0,036
-232,030	800,000	0,034	-0,082
-231,015	-150,350	0,120	0,006
-230,000	-90,994	-0,042	0,009
-228,986	116,893	-0,108	0,095
-227,971	-200,000	-0,004	-0,021
-226,957	-44,193	0,135	0,048
-225,942	511,163	-0,099	0,165
-224,927	-67,133	0,025	-0,007
-223,913	-200,000	0,020	-0,167
-222,898	-200,000	-0,014	-0,051
-221,884	-200,000	-0,006	-0,193
-220,869	-26,460	0,026	-0,011
-219,855	218,115	0,045	0,052
-218,840	-200,000	0,047	0,152
-217,825	-89,493	-0,029	0,006
-216,811	-14,237	-0,162	-0,074
-215,796	155,674	0,149	-0,146
-214,782	324,191	-0,038	-0,052
-213,767	800,000	0,040	-0,092
-212,752	-148,185	0,039	-0,002
-211,738	-47,451	-0,092	0,032
-210,723	89,347	0,094	-0,075
-209,709	800,000	-0,035	-0,104
-208,694	-97,397	0,016	0,003
-207,679	-41,329	0,100	-0,037
-206,665	800,000	0,041	0,111
-205,650	-200,000	-0,017	-0,077
-204,636	101,684	-0,038	-0,032
-203,621	800,000	-0,021	-0,062
-202,606	800,000	0,028	0,086
-201,592	-200,000	-0,013	-0,052
-200,577	252,497	-0,109	-0,132
-199,563	-67,119	-0,044	-0,012
-198,548	-74,575	0,056	-0,014
-197,533	-77,065	-0,124	0,031
-196,519	-200,000	-0,002	-0,093
-195,504	92,578	-0,044	-0,036
-194,490	-200,000	-0,063	-0,000
-193,475	25,752	0,093	-0,055
-192,460	-66,559	-0,135	-0,038
-191,446	-200,000	0,000	0,031
-190,431	-71,185	0,020	-0,005
-189,417	-200,000	0,016	-0,057
-188,402	800,000	-0,025	0,050
-187,387	95,104	-0,093	-0,075
-186,373	800,000	-0,013	-0,026
-185,358	77,097	-0,016	0,012
-184,344	-14,321	-0,053	0,024
-183,329	-42,953	0,096	-0,035
-182,315	800,000	-0,029	0,064
-181,300	800,000	-0,064	-0,142
-180,285	-200,000	0,015	-0,132
-179,271	-22,338	-0,040	-0,017
-178,256	204,301	-0,007	0,008
-177,242	-200,000	0,021	0,068
-176,227	-83,324	-0,044	-0,010
-175,212	34,633	0,033	-0,020
-174,198	48,298	-0,027	0,018
-173,183	248,584	0,060	0,073
-172,169	-200,000	-0,020	0,207
-171,154	-127,500	-0,088	-0,009
-170,139	-18,463	0,094	-0,042
-169,125	197,639	0,063	-0,068
-168,110	-137,125	-0,078	0,006
-167,096	800,000	-0,014	-0,040
-166,081	19,889	0,142	-0,081
-165,066	-163,695	-0,093	-0,003
-164,052	98,673	-0,102	-0,084
-163,037	74,405	-0,014	0,010
-162,023	197,440	0,056	-0,061
-161,008	449,876	0,027	0,043
-159,993	323,501	0,059	0,080
-158,979	57,998	0,098	-0,068
-157,964	-200,000	0,028	-0,255
-156,950	-94,179	-0,126	0,024
-155,935	-14,154	0,124	-0,057
-154,920	-44,177	-0,048	0,017
-153,906	-200,000	0,010	0,086
-152,891	165,770	-0,009	0,009
-151,877	21,548	-0,026	-0,015
-150,862	-200,000	0,020	-0,103
-149,847	79,219	-0,065	-0,049
-148,833	55,833	0,051	-0,035
-147,818	510,681	-0,025	0,041
-146,804	164,547	-0,095	-0,095
-145,789	184,405	-0,070	-0,074
-144,775	85,040	-0,098	-0,076
-143,760	-44,698	-0,095	0,034
-142,745	-23,509	0,123	0,052
-141,731	44,019	-0,127	0,083
-140,716	290,477	-0,073	-0,095
-139,702	800,000	0,067	0,154
-138,687	118,779	-0,059	0,052
-137,672	-27,698	-0,071	0,029
-136,658	46,489	0,030	-0,020
-135,643	-200,000	-0,023	-0,163
-134,629	-200,000	-0,002	-0,023
-133,614	96,778	-0,022	-0,018
-132,599	-200,000	0,017	0,099
-131,585	150,180	-0,081	-0,079
-130,570	-200,000	0,011	-0,082
-129,556	-15,564	-0,140	-0,063
-128,541	184,085	0,076	-0,080
-127,526	-200,000	0,017	0,100
-126,512	582,994	0,097	-0,171
-125,497	52,286	0,037	-0,025
-124,483	144,363	0,013	0,012
-123,468	146,420	-0,083	0,080
-122,453	-200,000	0,007	-0,126
-121,439	-118,088	-0,083	-0,010
-120,424	-200,000	-0,026	-0,098
-119,410	-143,567	0,086	-0,006
-118,395	800,000	0,037	-0,110
-117,380	-33,396	0,066	0,026
-116,366	17,605	-0,005	-0,003
-115,351	243,656	-0,032	-0,038
-114,337	103,417	-0,083	-0,069
-113,322	-12,280	-0,128	-0,059
-112,307	800,000	0,038	0,115
-111,293	-190,919	-0,077	0,001
-110,278	240,915	-0,041	0,048
-109,264	800,000	-0,006	0,014
-108,249	-41,300	-0,041	-0,015
-107,234	-136,984	-0,053	0,004
-106,220	-96,266	0,174	0,032
-105,205	-100,507	-0,044	-0,008
-104,191	800,000	0,028	0,066
-103,176	-40,616	0,170	0,062
-102,162	-143,329	0,175	-0,012
-101,147	-159,925	0,008	-0,000
-100,132	216,482	-0,044	-0,050
-99,118	35,999	-0,046	0,029
-98,103	401,350	-0,042	0,063
-97,089	-14,000	0,065	0,030
-96,074	276,538	-0,033	-0,042
-95,059	151,622	0,015	0,015
-94,045	800,000	-0,023	-0,047
-93,030	-53,650	-0,061	-0,020
-92,016	-42,504	-0,117	-0,042
-91,001	-70,958	0,192	-0,051
-89,986	-200,000	-0,014	-0,050
-88,972	-89,541	0,062	0,013
-87,957	800,000	0,042	0,102
-86,943	-29,261	-0,070	-0,028
-85,928	-103,586	0,126	-0,021
-84,913	-198,608	-0,172	0,001
-83,899	-200,000	0,038	-0,122
-82,884	36,179	0,106	-0,066
-81,870	320,875	0,045	0,061
-80,855	-200,000	0,049	0,176
-79,840	-93,441	-0,064	-0,012
-78,826	26,349	0,066	0,039
-77,811	800,000	-0,061	-0,180
-76,797	-200,000	0,008	-0,056
-75,782	-200,000	-0,009	-0,033
-74,767	-121,376	-0,065	-0,008
-73,753	800,000	0,097	0,206
-72,738	236,621	-0,013	0,016
-71,724	0,404	-0,119	-0,060
-70,709	782,752	-0,059	-0,115
-69,694	-147,531	0,062	0,004
-68,680	-76,417	0,012	0,003
-67,665	-200,000	-0,014	-0,056
-66,651	-52,757	-0,068	-0,022
-65,636	-67,020	-0,047	0,013
-64,622	106,368	0,056	0,047
-63,607	5,279	0,100	-0,052
-62,592	800,000	-0,033	-0,090
-61,578	265,070	0,043	0,053
-60,563	800,000	-0,069	0,157
-59,549	683,249	-0,069	0,128
-58,534	-39,649	-1,609	-0,594
-57,519	376,064	-1,513	-2,194
-56,505	-200,000	-0,453	-4,441
-55,490	119,596	0,978	0,859
-54,476	800,000	4,878	11,280
-53,461	-200,000	18,538	299,310
-52,446	800,000	732,996	2266,445
-51,432	561,886	1649,029	2837,006
-50,417	78,841	1667,718	1263,131
-49,403	22,256	1540,644	889,270
-48,388	16,220	1463,476	815,437
-47,373	17,824	1453,416	817,539
-46,359	16,960	1443,903	808,013
-45,344	14,463	1439,000	793,300
-44,330	14,369	1437,099	791,771
-43,315	14,378	1435,516	790,909
-42,300	14,390	1433,753	789,963
-41,286	14,436	1432,743	789,594
-40,271	14,416	1431,435	788,751
-39,257	14,354	1430,000	787,633
-38,242	14,417	1428,702	787,183
-37,227	14,416	1427,551	786,515
-36,213	14,434	1426,096	785,766
-35,198	14,459	1424,785	785,130
-34,184	14,430	1424,150	784,616
-33,169	14,394	1422,810	783,676
-32,154	14,440	1421,740	783,269
-31,140	14,414	1420,464	782,415
-30,125	14,432	1419,315	781,833
-29,111	14,415	1418,098	781,052
-28,096	14,468	1417,049	780,695
-27,082	14,334	1416,147	779,536
-26,067	14,324	1414,922	778,783
-25,052	14,356	1413,894	778,338
-24,038	14,297	1412,891	777,476
-23,023	14,264	1411,997	776,799
-22,009	14,309	1410,936	776,398
-20,994	14,282	1410,323	775,903
-19,979	14,285	1409,262	775,302
-18,965	14,274	1408,113	774,584
-17,950	14,263	1407,210	774,008
-16,936	14,313	1406,247	773,679
-15,921	14,241	1405,132	772,701
-14,906	14,246	1404,383	772,282
-13,892	14,271	1403,485	771,872
-12,877	14,232	1402,692	771,222
-11,863	14,234	1401,604	770,605
-10,848	14,247	1400,673	770,122
-9,833	14,218	1399,769	769,461
-8,819	14,129	1399,066	768,628
-7,804	14,175	1398,033	768,245
-6,790	14,147	1397,002	767,519
-5,775	14,139	1395,812	766,799
-4,760	14,135	1394,976	766,287
-3,746	14,131	1394,150	765,786
-2,731	14,123	1393,352	765,278
-1,717	14,130	1392,423	764,774
-0,702	14,120	1390,830	763,821
0,313	18,040	1309,352	737,206
1,327	34,515	705,832	435,575
2,342	52,833	124,111	83,894
3,356	5,082	16,554	8,603
4,371	14,936	3,135	1,732
5,386	-32,642	0,478	0,188
6,400	177,652	0,062	0,064
7,415	32,437	-0,421	-0,257
8,429	79,410	-0,218	-0,165
9,444	84,194	-0,352	-0,272
10,459	-88,786	-0,351	-0,073
11,473	69,607	-0,371	-0,270
12,488	-25,477	-0,222	-0,092
13,502	91,863	-0,320	-0,255
14,517	-173,243	-0,323	0,007
15,531	0,337	-0,501	-0,252
16,546	66,339	-0,260	-0,186
17,561	467,482	-0,244	-0,388
18,575	88,569	-0,166	-0,130
19,590	351,851	-0,215	-0,301
20,604	-43,145	-0,331	-0,118
21,619	-76,988	-0,439	-0,107
22,634	110,098	-0,386	-0,328
23,648	73,716	-0,540	-0,400
24,663	154,670	-0,300	-0,292
25,677	120,650	-0,310	-0,272
26,692	-38,895	-0,404	-0,150
27,707	-89,007	-0,373	-0,077
28,721	61,805	-0,386	-0,271
29,736	185,423	-0,286	-0,300
30,750	-11,194	-0,497	-0,231
31,765	-23,262	-0,499	-0,211
32,780	81,918	-0,270	-0,206
33,794	3,012	-0,296	-0,152
34,809	130,906	-0,271	-0,245
35,823	-22,961	-0,422	-0,179
36,838	-31,278	-0,476	-0,188
37,853	138,772	-0,400	-0,371
38,867	272,692	-0,303	-0,378
39,882	32,246	-0,410	-0,249
40,896	242,144	-0,304	-0,360
41,911	120,054	-0,306	-0,268
42,926	-37,287	-0,380	-0,143
43,940	149,430	-0,334	-0,319
44,955	81,641	-0,440	-0,335
45,969	302,729	-0,276	-0,361
46,984	31,946	-0,306	-0,185
47,999	209,665	-0,326	-0,360
49,013	170,608	-0,224	-0,227
50,028	48,160	-0,320	-0,210
51,042	140,469	-0,331	-0,308
52,057	124,868	-0,320	-0,284
53,071	46,845	-0,452	-0,296
54,086	29,643	-0,410	-0,246
55,101	78,400	-0,423	-0,318
56,115	5,712	-0,321	-0,167
57,130	29,056	-0,388	-0,232
58,144	105,029	-0,404	-0,336
59,159	34,893	-0,348	-0,214
60,174	260,972	-0,375	-0,458
61,188	69,941	-0,326	-0,237
62,203	-87,624	-0,371	-0,078
63,217	19,640	-0,434	-0,246
64,232	1,204	-0,515	-0,260
65,247	68,772	-0,256	-0,185
66,261	135,162	-0,305	-0,279
67,276	82,271	-0,273	-0,209
68,290	50,131	-0,369	-0,245
69,305	137,939	-0,246	-0,227
70,320	-29,976	-0,184	-0,074
71,334	-11,081	-0,482	-0,223
72,349	9,992	-0,368	-0,196
73,363	93,855	-0,226	-0,181
74,378	74,395	-0,302	-0,223
75,393	-12,607	-0,309	-0,141
76,407	-0,130	-0,314	-0,157
77,422	173,465	-0,190	-0,193
78,436	97,667	-0,303	-0,245
79,451	323,856	-0,201	-0,270
80,466	20,192	-0,385	-0,218
81,480	620,071	-0,201	-0,357
82,495	413,956	-0,177	-0,265
83,509	117,329	-0,290	-0,251
84,524	70,216	-0,293	-0,213
85,539	74,881	-0,242	-0,179
86,553	1,579	-0,360	-0,181
87,568	165,623	-0,216	-0,214
88,582	-38,189	-0,217	-0,081
89,597	25,487	-0,367	-0,214
90,611	61,549	-0,347	-0,242
91,626	124,132	-0,187	-0,165
92,641	145,075	-0,249	-0,234
93,655	-14,656	-0,348	-0,156
94,670	-28,890	-0,193	-0,077
95,684	-77,226	-0,219	-0,053
96,699	78,297	-0,251	-0,188
97,714	249,098	-0,264	-0,315
98,728	-84,840	-0,211	-0,046
99,743	57,477	-0,191	-0,131
100,757	58,629	-0,235	-0,162
101,772	35,373	-0,369	-0,227
102,787	122,035	-0,243	-0,213
103,801	129,708	-0,304	-0,273
104,816	73,551	-0,166	-0,122
105,830	-28,477	-0,234	-0,094
106,845	-104,358	-0,182	0,029
107,860	85,703	-0,306	-0,236
108,874	33,288	-0,235	-0,142
109,889	12,360	-0,413	-0,222
110,903	110,226	-0,258	-0,217
111,918	325,146	-0,076	-0,102
112,933	-29,236	-0,278	-0,111
113,947	136,168	-0,159	-0,146
114,962	158,484	-0,215	-0,209
115,976	120,824	-0,206	-0,180
116,991	-9,911	-0,391	-0,181
118,006	-46,526	-0,325	-0,111
119,020	161,587	-0,193	-0,189
120,035	205,808	-0,160	-0,174
121,049	65,039	-0,255	-0,180
122,064	-13,942	-0,196	-0,088
123,079	264,514	-0,202	-0,247
124,093	190,178	-0,235	-0,247
125,108	235,636	-0,235	-0,273
126,122	22,814	-0,221	-0,127
127,137	-10,762	-0,229	-0,105
128,151	-79,342	-0,150	-0,035
129,166	-72,757	-0,349	-0,089
130,181	32,166	-0,141	-0,085
131,195	235,888	-0,190	-0,220
132,210	134,557	-0,248	-0,225
133,224	55,419	-0,279	-0,188
134,239	157,740	-0,209	-0,203
135,254	208,923	-0,195	-0,214
136,268	36,097	-0,263	-0,161
137,283	58,063	-0,264	-0,181
138,297	5,874	-0,374	-0,193
139,312	41,251	-0,232	-0,146
140,327	-63,012	-0,273	-0,078
141,341	123,526	-0,273	-0,240
142,356	-14,069	-0,309	-0,139
143,370	-118,662	-0,306	-0,037
144,385	297,113	-0,195	-0,251
145,400	500,015	-0,199	-0,321
146,414	174,323	-0,259	-0,262
147,429	106,577	-0,249	-0,207
148,443	142,948	-0,173	-0,161
149,458	4,776	-0,223	-0,114
150,473	154,409	-0,284	-0,273
151,487	40,505	-0,169	-0,106
152,502	-128,050	-0,214	-0,021
153,516	37,159	-0,225	-0,139
154,531	420,669	-0,201	-0,302
155,546	-84,920	-0,222	-0,048
156,560	25,782	-0,259	-0,151
157,575	94,261	-0,126	-0,100
158,589	63,789	-0,146	-0,102
159,604	-2,434	-0,289	-0,141
160,619	197,240	-0,191	-0,204
161,633	-31,885	-0,379	-0,148
162,648	800,000	-0,111	-0,263
163,662	271,297	-0,140	-0,173
164,677	426,817	-0,165	-0,250
165,692	11,453	-0,315	-0,168
166,706	18,720	-0,181	-0,101
167,721	168,600	-0,273	-0,272
168,735	122,514	-0,235	-0,205
169,750	19,784	-0,302	-0,169
170,764	155,054	-0,130	-0,125
171,779	81,621	-0,181	-0,136
172,794	139,578	-0,197	-0,181
173,808	62,237	-0,221	-0,153
174,823	98,195	-0,288	-0,232
175,837	-81,549	-0,243	-0,055
176,852	-86,996	-0,169	0,036
177,867	229,828	-0,154	-0,176
178,881	-121,705	-0,140	-0,016
179,896	59,392	-0,242	-0,166
180,910	-4,773	-0,236	-0,113
181,925	23,840	-0,301	-0,172
182,940	800,000	-0,136	-0,335
183,954	417,798	-0,217	-0,325
184,969	176,993	-0,167	-0,169
185,983	-2,494	-0,133	-0,065
186,998	120,555	-0,157	-0,136
188,013	742,112	-0,121	-0,228
189,027	39,784	-0,369	-0,230
190,042	74,948	-0,224	-0,165
191,056	-68,940	-0,274	-0,073
192,071	282,538	-0,192	-0,241
193,086	130,269	-0,240	-0,214
194,100	282,945	-0,117	-0,147
195,115	-0,865	-0,233	-0,114
196,129	665,805	-0,171	-0,309
197,144	67,573	-0,308	-0,219
198,159	486,240	-0,159	-0,254
199,173	800,000	-0,058	-0,152
200,188	-93,149	-0,138	-0,026
201,202	800,000	-0,093	-0,192
202,217	-118,572	-0,109	-0,013
203,232	617,505	-0,197	-0,345
204,246	437,046	-0,110	-0,167
205,261	14,226	-0,301	-0,163
206,275	155,620	-0,223	-0,214
207,290	581,093	-0,137	-0,235
208,304	281,207	-0,152	-0,189
209,319	298,140	-0,139	-0,178
210,334	-8,833	-0,273	-0,127
211,348	117,777	-0,244	-0,209
212,363	23,682	-0,251	-0,143
213,377	452,205	-0,132	-0,203
214,392	43,678	-0,171	-0,108
215,407	1,062	-0,141	-0,070
216,421	226,421	-0,135	-0,152
217,436	284,626	-0,190	-0,238
218,450	49,509	-0,227	-0,148
219,465	647,873	-0,133	-0,237
220,480	50,951	-0,256	-0,168
221,494	319,634	-0,044	-0,059
222,509	-79,448	-0,215	-0,050
223,523	59,198	-0,165	-0,112
224,538	437,124	0,102	-0,155
225,553	66,404	-0,189	-0,133
226,567	-30,845	-0,135	-0,053
227,582	188,466	-0,166	-0,173
228,596	460,503	-0,049	-0,076
229,611	190,914	-0,079	-0,083
230,626	181,544	-0,174	-0,178
231,640	150,598	-0,180	-0,170
232,655	108,893	-0,163	-0,135
233,669	536,452	-0,075	-0,124
234,684	50,585	-0,296	-0,194
235,699	114,071	-0,181	-0,153
236,713	98,481	-0,208	-0,166
237,728	81,083	-0,102	-0,077
238,742	440,219	-0,130	-0,198
239,757	141,470	-0,242	-0,223
240,772	12,273	-0,343	-0,183
241,786	-107,005	-0,236	-0,036
242,801	800,000	-0,115	-0,235
243,815	-32,482	-0,158	-0,061
244,830	-114,864	-0,243	-0,032
245,844	22,337	-0,194	-0,110
246,859	55,125	-0,150	-0,100
247,874	59,634	-0,130	-0,089
248,888	171,918	-0,246	-0,245
249,903	800,000	-0,046	-0,098
250,917	5,320	-0,172	-0,088
251,932	66,637	-0,078	-0,055
252,947	60,422	-0,116	-0,079
253,961	248,022	-0,203	-0,238
254,976	203,866	-0,240	-0,258
255,990	150,659	-0,168	-0,159
257,005	12,754	-0,172	-0,092
258,020	194,342	-0,123	-0,129
259,034	-103,954	-0,154	-0,025
260,049	447,634	-0,092	-0,140
261,063	800,000	-0,097	-0,229
262,078	204,078	-0,145	-0,155
263,093	184,972	-0,157	-0,161
264,107	723,761	-0,153	-0,283
265,122	800,000	-0,109	-0,218
266,136	-200,000	-0,033	-0,168
267,151	25,870	-0,132	-0,076
268,166	800,000	-0,096	-0,194
269,180	70,926	-0,209	-0,149
270,195	-142,679	-0,144	-0,010
271,209	181,893	-0,208	-0,212
272,224	565,553	-0,076	-0,128
273,239	194,969	-0,152	-0,160
274,253	148,398	-0,225	-0,210
275,268	76,512	-0,098	-0,072
276,282	32,172	-0,168	-0,100
277,297	60,309	-0,164	-0,112
278,312	314,277	-0,201	-0,262
279,326	370,302	-0,112	-0,157
280,341	40,005	-0,160	-0,099
281,355	-31,860	-0,114	-0,044
282,370	169,852	-0,146	-0,144
283,384	-64,310	-0,222	-0,062
284,399	100,353	-0,218	-0,175
285,414	-51,962	-0,214	-0,068
286,428	217,842	-0,127	-0,140
287,443	-9,396	-0,132	-0,061
288,457	30,321	-0,215	-0,126
289,472	44,146	-0,153	-0,097
290,487	-128,601	-0,203	-0,020
291,501	206,528	-0,126	-0,135
292,516	42,485	-0,167	-0,105
293,530	-3,752	-0,142	-0,068
294,545	-16,629	-0,048	-0,021
295,560	-17,618	-0,146	-0,063
296,574	138,985	-0,188	-0,171
297,589	100,575	-0,221	-0,177
298,603	37,920	-0,302	-0,185
299,618	-200,000	-0,035	-0,108
300,633	800,000	-0,113	-0,223
301,647	-200,000	-0,016	-0,093
302,662	217,720	-0,104	-0,114
303,676	82,786	-0,163	-0,122
304,691	171,086	-0,195	-0,193
305,706	-61,837	-0,168	-0,048
306,720	6,268	-0,176	-0,090
307,735	291,134	-0,113	-0,141
308,749	-33,706	-0,225	-0,085
309,764	-62,650	-0,159	-0,045
310,779	280,377	-0,129	-0,159
311,793	-56,866	-0,027	-0,008
312,808	-38,637	-0,209	-0,076
313,822	57,416	-0,102	-0,069
314,837	119,180	-0,040	0,034
315,852	-5,316	-0,043	-0,020
316,866	800,000	-0,062	-0,143
317,881	14,927	-0,071	-0,038
318,895	-86,436	-0,243	-0,051
319,910	-30,066	-0,196	-0,076
320,925	-19,479	-0,210	-0,089
321,939	800,000	-0,100	-0,241
322,954	800,000	-0,079	-0,163
323,968	5,249	-0,253	-0,128
324,983	419,888	-0,066	-0,098
325,997	-110,423	-0,210	-0,030
327,012	646,218	-0,085	-0,149
328,027	-61,754	-0,173	-0,050
329,041	452,701	-0,086	-0,132
330,056	480,652	-0,047	-0,074
331,070	281,261	-0,128	-0,158
332,085	-74,305	-0,145	0,036
333,100	73,585	-0,148	-0,106
334,114	800,000	-0,053	-0,148
335,129	508,937	-0,091	-0,146
336,143	308,153	-0,142	-0,183
337,158	484,389	-0,140	-0,220
338,173	-16,981	-0,029	0,013
339,187	-197,156	-0,181	0,001
340,202	-44,979	-0,189	-0,064
341,216	-167,735	-0,251	-0,007
342,231	-162,761	-0,109	-0,004
343,246	-173,127	-0,146	-0,003
344,260	-112,525	-0,257	0,035
345,275	10,734	-0,220	-0,115
346,289	523,815	-0,070	-0,114
347,304	-76,652	-0,211	-0,050
348,319	-200,000	-0,041	-0,159
349,333	421,274	-0,123	-0,182
350,348	456,946	-0,126	-0,193
351,362	178,970	-0,241	-0,242
352,377	257,424	-0,048	0,057
353,392	409,967	0,067	-0,098
354,406	737,984	-0,082	-0,152
355,421	208,551	1310,977	1409,342
356,435	160,476	1471,251	1409,847
