DTS Sentinel unit serial number:	SN410029Multiplexer serial number:	ORYXHardware model number:	OX2-SRSoftware version number:	ORYX F/W v4,00 Oryx Data Collector v3.7.2.0data status	okinstallation	B3 Nyhavnadifferential loss correction	single-endedforward channel	channel 1reverse channel	N/Adate	2023/11/29time	05:12:30forward acquisition time	300,00reverse acquisition time	0,00gamma	499,1914k internal	0,3211k external	0,3211temperature offset calibration	1,0000default loss term (dB/km)	0,3820temperature slope calibration	1,0000multiplexer offset coefficient	1,0000multiplexer slope coefficient	1,0000fibre end	0,00T internal ref (°C)	9,15T ext. ref 1 (°C)	-6,27T ext. ref 2 (°C)	-6,39length (m)	temperature (°C)	Stokes	anti-Stokes-744,400	461,405	-0,115	-0,187
-743,385	-200,000	-0,021	0,108
-742,371	153,107	-0,098	-0,098
-741,356	-200,000	-0,060	0,274
-740,342	800,000	-0,118	-0,356
-739,327	800,000	0,108	0,341
-738,312	62,820	-0,300	-0,217
-737,298	-200,000	-0,040	0,248
-736,283	800,000	-0,118	-0,287
-735,269	-200,000	0,105	0,444
-734,254	142,258	-0,288	-0,277
-733,239	-64,407	-0,124	0,036
-732,225	82,367	-0,137	-0,107
-731,210	254,363	0,080	0,099
-730,196	218,150	0,045	-0,053
-729,181	10,527	-0,026	-0,015
-728,167	102,530	-0,103	-0,087
-727,152	-200,000	0,011	-0,064
-726,137	-200,000	-0,014	-0,188
-725,123	-79,203	-0,208	-0,051
-724,108	-100,303	-0,029	-0,005
-723,094	-200,000	-0,005	-0,078
-722,079	538,399	-0,031	-0,054
-721,064	294,256	0,053	-0,071
-720,050	324,850	-0,023	0,032
-719,035	57,929	0,022	0,016
-718,021	367,497	-0,100	-0,146
-717,006	694,260	-0,033	-0,062
-715,991	-200,000	0,010	-0,082
-714,977	285,412	-0,022	-0,028
-713,962	100,074	-0,037	-0,031
-712,948	-23,802	0,059	0,025
-711,933	-200,000	0,006	0,090
-710,918	-200,000	-0,012	-0,045
-709,904	-200,000	0,010	-0,040
-708,889	6,049	0,094	-0,050
-707,875	-200,000	-0,049	-0,188
-706,860	800,000	0,015	-0,034
-705,845	-200,000	-0,025	0,105
-704,831	-69,697	0,103	0,028
-703,816	-22,910	0,046	-0,020
-702,802	-75,853	-0,061	0,016
-701,787	-200,000	-0,092	-0,000
-700,772	-200,000	0,002	-0,022
-699,758	-200,000	-0,003	-0,042
-698,743	45,955	0,072	-0,048
-697,729	-200,000	0,023	0,078
-696,714	-27,012	0,087	-0,036
-695,699	-200,000	-0,012	0,050
-694,685	-7,488	-0,074	0,036
-693,670	-137,319	-0,055	0,004
-692,656	800,000	-0,020	0,048
-691,641	-146,233	-0,031	-0,002
-690,627	-96,115	0,075	-0,014
-689,612	58,685	-0,091	0,065
-688,597	-200,000	-0,012	-0,068
-687,583	-108,593	-0,023	-0,004
-686,568	197,719	-0,076	-0,084
-685,554	-200,000	0,006	0,093
-684,539	-200,000	0,017	0,086
-683,524	-200,000	0,025	0,126
-682,510	683,124	0,083	-0,158
-681,495	-200,000	0,016	0,073
-680,481	10,498	-0,098	-0,054
-679,466	153,753	-0,038	-0,038
-678,451	-200,000	0,001	-0,006
-677,437	800,000	-0,045	-0,119
-676,422	-134,904	-0,056	-0,005
-675,408	337,401	-0,059	0,083
-674,393	-200,000	0,007	-0,028
-673,378	-146,535	0,061	-0,004
-672,364	-58,411	-0,127	-0,040
-671,349	23,669	0,060	0,036
-670,335	3,747	0,190	0,100
-669,320	-40,518	0,062	-0,023
-668,305	-102,303	0,090	-0,015
-667,291	167,857	-0,071	-0,073
-666,276	190,737	-0,097	-0,105
-665,262	-200,000	-0,015	-0,176
-664,247	284,063	-0,025	-0,032
-663,232	2,845	0,110	-0,057
-662,218	523,394	0,075	0,128
-661,203	-200,000	0,010	-0,079
-660,189	92,380	0,063	0,052
-659,174	50,635	0,071	0,049
-658,159	-200,000	-0,031	-0,132
-657,145	-140,483	-0,077	-0,006
-656,130	800,000	-0,011	-0,024
-655,116	683,834	0,027	-0,051
-654,101	-91,626	0,049	0,010
-653,086	-200,000	0,001	-0,015
-652,072	-7,615	-0,131	-0,064
-651,057	-79,034	-0,117	-0,029
-650,043	-116,825	-0,143	-0,019
-649,028	800,000	0,018	-0,057
-648,014	638,531	0,074	-0,136
-646,999	-75,977	-0,028	0,007
-645,984	31,011	0,066	-0,041
-644,970	-200,000	0,043	-0,142
-643,955	-7,132	-0,148	-0,072
-642,941	-187,186	-0,055	-0,001
-641,926	8,413	0,077	0,042
-640,911	284,115	0,046	0,060
-639,897	-121,350	0,063	-0,007
-638,882	800,000	-0,021	0,049
-637,868	644,644	-0,025	-0,046
-636,853	153,844	-0,032	-0,032
-635,838	-200,000	-0,014	-0,154
-634,824	-64,429	-0,146	-0,043
-633,809	800,000	-0,043	0,098
-632,795	-70,943	-0,013	-0,004
-631,780	-200,000	-0,008	0,126
-630,765	303,208	-0,083	-0,112
-629,751	-200,000	-0,005	-0,052
-628,736	800,000	-0,020	-0,055
-627,722	-167,259	-0,087	0,002
-626,707	-12,575	0,102	0,048
-625,692	26,844	0,054	0,032
-624,678	527,489	0,049	0,084
-623,663	-70,584	0,042	-0,011
-622,649	-16,714	0,022	-0,010
-621,634	166,299	0,100	-0,102
-620,619	197,101	-0,132	-0,146
-619,605	189,320	0,053	-0,057
-618,590	-57,242	0,119	0,038
-617,576	248,449	-0,046	-0,056
-616,561	-128,240	0,017	-0,002
-615,546	42,807	-0,059	-0,039
-614,532	-79,885	0,025	-0,006
-613,517	-130,412	-0,132	-0,013
-612,503	-107,076	0,155	-0,025
-611,488	-74,114	-0,050	0,013
-610,474	-200,000	0,024	0,084
-609,459	-41,028	0,080	-0,030
-608,444	260,791	-0,067	0,084
-607,430	-114,833	-0,092	-0,013
-606,415	780,871	-0,061	-0,121
-605,401	295,448	-0,040	-0,053
-604,386	-57,401	0,063	-0,020
-603,371	227,015	0,073	-0,086
-602,357	581,958	-0,010	-0,019
-601,342	-32,050	-0,167	-0,067
-600,328	-185,662	-0,101	-0,001
-599,313	502,944	-0,068	0,114
-598,298	150,786	0,041	-0,040
-597,284	-200,000	-0,007	0,123
-596,269	470,703	0,038	0,061
-595,255	396,917	-0,059	0,089
-594,240	-162,952	-0,114	0,004
-593,225	-65,850	-0,020	-0,006
-592,211	-187,688	0,034	-0,000
-591,196	-10,254	-0,036	0,017
-590,182	-50,542	0,121	-0,041
-589,167	97,778	0,046	0,038
-588,152	51,800	0,088	0,060
-587,138	800,000	-0,041	-0,093
-586,123	800,000	0,023	0,055
-585,109	-200,000	0,028	0,094
-584,094	257,350	-0,077	-0,096
-583,079	-200,000	-0,007	0,027
-582,065	-26,498	0,089	-0,037
-581,050	-200,000	0,007	0,042
-580,036	65,342	0,011	0,008
-579,021	7,075	0,055	0,029
-578,006	171,355	-0,053	-0,055
-576,992	227,839	-0,058	0,068
-575,977	91,122	0,093	0,075
-574,963	215,301	-0,028	-0,032
-573,948	-131,145	0,022	0,002
-572,934	56,833	-0,126	0,088
-571,919	-116,709	-0,049	-0,006
-570,904	-36,613	-0,143	-0,055
-569,890	149,224	-0,117	-0,114
-568,875	-28,885	-0,045	-0,018
-567,861	-145,519	0,088	-0,006
-566,846	10,577	0,028	0,015
-565,831	4,338	-0,064	-0,034
-564,817	-120,603	0,058	0,007
-563,802	239,341	-0,099	-0,119
-562,788	800,000	0,015	0,042
-561,773	-200,000	-0,003	0,012
-560,758	-40,312	0,035	-0,013
-559,744	46,976	0,132	0,088
-558,729	38,286	-0,053	-0,034
-557,715	0,017	0,163	-0,083
-556,700	-200,000	-0,035	-0,141
-555,685	-62,702	-0,153	0,045
-554,671	-200,000	-0,015	-0,104
-553,656	-26,404	0,121	-0,051
-552,642	54,842	0,039	0,027
-551,627	-99,828	0,134	-0,024
-550,612	142,263	-0,068	-0,065
-549,598	25,546	0,121	0,072
-548,583	-10,307	-0,100	0,048
-547,569	-132,586	0,020	-0,002
-546,554	-11,286	-0,064	-0,030
-545,539	296,650	-0,033	0,044
-544,525	160,940	-0,105	0,105
-543,510	-117,913	-0,034	0,004
-542,496	-200,000	0,038	0,173
-541,481	84,687	0,135	-0,106
-540,466	-71,166	0,024	0,006
-539,452	357,746	-0,047	0,067
-538,437	-101,283	-0,065	-0,011
-537,423	4,813	0,035	-0,018
-536,408	251,136	0,045	0,055
-535,393	246,029	0,028	-0,034
-534,379	-200,000	0,010	-0,038
-533,364	19,087	-0,064	-0,037
-532,350	-200,000	-0,008	0,042
-531,335	-15,840	0,146	-0,067
-530,321	49,038	-0,106	0,071
-529,306	-200,000	0,001	-0,162
-528,291	-167,108	-0,113	0,003
-527,277	800,000	-0,020	-0,059
-526,262	256,431	-0,042	0,052
-525,248	149,625	0,068	0,067
-524,233	16,038	0,124	0,070
-523,218	-2,617	-0,131	0,066
-522,204	-200,000	-0,012	-0,038
-521,189	-60,112	-0,086	-0,026
-520,175	-115,027	-0,057	-0,008
-519,160	363,709	-0,026	0,037
-518,145	-40,175	-0,018	0,007
-517,131	-121,264	0,169	-0,020
-516,116	-51,232	0,072	-0,024
-515,102	-200,000	-0,020	-0,092
-514,087	-81,374	-0,098	0,023
-513,072	-50,766	-0,126	-0,042
-512,058	318,294	0,092	-0,126
-511,043	339,441	-0,055	-0,077
-510,029	-200,000	0,014	0,048
-509,014	-171,560	0,065	0,002
-507,999	-200,000	-0,012	-0,069
-506,985	-126,170	-0,051	0,005
-505,970	800,000	-0,061	-0,125
-504,956	-50,154	-0,050	0,017
-503,941	-33,184	0,120	0,048
-502,926	287,477	0,072	0,094
-501,912	-200,000	-0,004	0,016
-500,897	538,172	-0,013	-0,022
-499,883	15,696	0,051	0,029
-498,868	-80,243	-0,108	-0,026
-497,853	-29,626	-0,081	0,033
-496,839	-68,622	0,091	0,025
-495,824	281,795	0,038	0,049
-494,810	359,050	0,041	0,059
-493,795	-200,000	-0,011	-0,085
-492,781	800,000	0,046	0,123
-491,766	-200,000	0,019	0,071
-490,751	53,234	0,088	-0,061
-489,737	383,700	0,085	-0,126
-488,722	-84,050	-0,040	-0,009
-487,708	-150,786	0,057	-0,003
-486,693	-200,000	0,003	0,083
-485,678	20,439	-0,057	0,033
-484,664	-22,402	-0,028	-0,012
-483,649	171,406	0,071	-0,073
-482,635	800,000	-0,039	-0,101
-481,620	603,389	-0,022	0,039
-480,605	16,289	-0,110	-0,062
-479,591	-39,244	0,168	0,063
-478,576	-158,705	-0,171	-0,007
-477,562	388,857	-0,061	-0,091
-476,547	-87,370	-0,093	-0,020
-475,532	-200,000	-0,015	-0,053
-474,518	-200,000	0,021	0,110
-473,503	800,000	-0,011	-0,021
-472,489	-200,000	-0,019	-0,087
-471,474	-200,000	0,005	-0,018
-470,459	-65,823	-0,094	0,027
-469,445	374,217	-0,065	0,094
-468,430	-64,343	0,052	0,015
-467,416	87,105	-0,035	0,028
-466,401	154,830	-0,039	-0,038
-465,386	95,637	0,012	-0,010
-464,372	-100,916	0,109	0,019
-463,357	-200,000	-0,008	-0,177
-462,343	166,105	-0,067	-0,068
-461,328	-200,000	0,014	0,046
-460,313	-200,000	0,038	0,131
-459,299	-200,000	0,003	0,093
-458,284	45,497	-0,100	0,066
-457,270	-72,362	0,060	0,016
-456,255	251,987	-0,108	-0,133
-455,241	-200,000	0,008	-0,149
-454,226	-25,545	0,032	0,014
-453,211	800,000	-0,036	0,080
-452,197	-200,000	-0,015	0,132
-451,182	-101,236	0,044	-0,008
-450,168	800,000	0,025	0,058
-449,153	-23,628	-0,068	-0,029
-448,138	60,067	-0,134	-0,095
-447,124	-200,000	-0,026	-0,124
-446,109	407,802	-0,090	-0,136
-445,095	-200,000	-0,001	0,075
-444,080	-53,986	-0,086	0,028
-443,065	800,000	-0,067	-0,147
-442,051	189,577	0,080	0,086
-441,036	-200,000	-0,003	0,024
-440,022	-200,000	-0,002	0,029
-439,007	-108,315	-0,029	-0,004
-437,992	800,000	-0,011	-0,023
-436,978	800,000	0,054	0,149
-435,963	175,198	-0,057	0,059
-434,949	-200,000	0,022	0,139
-433,934	32,713	-0,014	-0,009
-432,919	-200,000	0,020	-0,092
-431,905	-46,776	0,177	0,062
-430,890	-200,000	-0,038	-0,180
-429,876	3,778	0,062	-0,032
-428,861	208,636	-0,055	-0,061
-427,846	13,332	0,116	0,064
-426,832	117,132	0,090	0,079
-425,817	-175,289	0,096	0,002
-424,803	25,083	0,032	0,019
-423,788	-200,000	-0,031	-0,119
-422,773	800,000	0,019	0,046
-421,759	-9,946	-0,074	-0,035
-420,744	337,470	-0,054	-0,076
-419,730	-160,918	0,082	0,003
-418,715	-200,000	0,027	-0,162
-417,701	800,000	-0,046	-0,091
-416,686	-200,000	0,031	-0,138
-415,671	-200,000	-0,012	0,133
-414,657	285,157	0,141	0,182
-413,642	-87,470	0,092	-0,020
-412,628	800,000	0,012	-0,027
-411,613	-20,654	0,043	0,019
-410,598	686,344	0,028	0,052
-409,584	96,330	-0,110	-0,090
-408,569	800,000	0,024	0,062
-407,555	-125,220	0,148	-0,016
-406,540	-37,495	0,079	0,030
-405,525	661,667	-0,043	-0,079
-404,511	-77,039	0,163	-0,040
-403,496	800,000	-0,048	-0,134
-402,482	800,000	-0,016	0,036
-401,467	512,173	0,073	0,122
-400,452	800,000	-0,035	0,097
-399,438	-200,000	0,020	0,083
-398,423	-112,148	0,051	-0,007
-397,409	349,175	0,054	-0,076
-396,394	-47,705	-0,045	0,015
-395,379	558,601	0,020	0,035
-394,365	-70,001	0,159	0,043
-393,350	219,925	-0,044	0,050
-392,336	-200,000	0,001	-0,086
-391,321	800,000	-0,039	-0,095
-390,306	762,708	0,055	0,107
-389,292	-200,000	-0,010	0,048
-388,277	800,000	-0,018	-0,049
-387,263	186,533	0,100	0,107
-386,248	-71,714	0,105	-0,028
-385,233	167,339	-0,035	0,036
-384,219	-59,477	-0,101	-0,031
-383,204	-50,559	0,103	0,035
-382,190	-62,857	-0,114	-0,034
-381,175	61,570	0,028	0,020
-380,160	-18,080	-0,063	-0,028
-379,146	-42,854	0,033	-0,012
-378,131	-40,915	0,141	0,052
-377,117	800,000	0,020	-0,048
-376,102	134,008	0,077	0,071
-375,088	-9,623	-0,132	-0,063
-374,073	-200,000	0,031	0,099
-373,058	-200,000	-0,022	0,087
-372,044	135,730	0,068	0,063
-371,029	399,258	0,087	0,131
-370,015	-148,203	-0,138	0,008
-369,000	-63,553	-0,149	-0,043
-367,985	-85,981	0,045	-0,010
-366,971	717,330	-0,073	-0,139
-365,956	800,000	0,086	-0,184
-364,942	800,000	-0,013	0,032
-363,927	-140,954	0,087	-0,006
-362,912	-200,000	0,000	0,062
-361,898	8,465	-0,165	0,089
-360,883	-96,071	-0,110	-0,021
-359,869	187,992	0,125	0,134
-358,854	-200,000	-0,047	0,153
-357,839	142,979	0,081	-0,077
-356,825	-110,643	-0,119	0,017
-355,810	-128,825	-0,022	-0,002
-354,796	-200,000	0,026	-0,088
-353,781	247,192	0,055	-0,067
-352,766	-200,000	-0,030	0,122
-351,752	-73,290	0,123	-0,032
-350,737	303,993	0,001	-0,002
-349,723	-173,203	-0,065	0,001
-348,708	179,573	-0,058	-0,061
-347,693	-200,000	0,010	0,089
-346,679	98,432	-0,030	0,025
-345,664	-77,718	0,008	-0,002
-344,650	239,477	-0,022	0,027
-343,635	733,348	0,062	-0,119
-342,620	213,788	-0,083	0,094
-341,606	800,000	0,027	-0,060
-340,591	-46,941	0,039	-0,013
-339,577	41,526	-0,083	-0,054
-338,562	117,504	0,067	-0,059
-337,548	800,000	-0,054	0,145
-336,533	-200,000	-0,006	0,054
-335,518	-27,877	-0,060	0,025
-334,504	279,854	-0,047	0,060
-333,489	800,000	0,026	0,069
-332,475	-200,000	0,003	0,029
-331,460	108,053	-0,112	-0,095
-330,445	376,163	-0,065	-0,094
-329,431	-54,526	-0,044	-0,014
-328,416	-200,000	0,021	0,100
-327,402	89,308	0,063	0,050
-326,387	621,223	-0,050	-0,090
-325,372	-26,503	-0,126	0,052
-324,358	149,408	0,026	0,025
-323,343	481,986	0,043	0,070
-322,329	-7,442	0,073	-0,035
-321,314	228,913	0,034	0,040
-320,299	-149,787	0,094	0,005
-319,285	-41,202	-0,032	-0,012
-318,270	34,254	-0,111	0,069
-317,256	88,534	-0,122	-0,097
-316,241	76,745	0,050	0,038
-315,226	502,532	-0,001	-0,002
-314,212	204,691	-0,055	-0,061
-313,197	800,000	0,022	0,047
-312,183	34,112	0,052	-0,032
-311,168	-200,000	0,003	0,064
-310,153	-200,000	0,007	-0,034
-309,139	202,646	-0,035	-0,038
-308,124	-200,000	0,003	0,036
-307,110	360,518	-0,012	-0,018
-306,095	800,000	-0,053	0,161
-305,080	-82,576	-0,075	0,017
-304,066	-6,305	-0,023	0,011
-303,051	76,081	0,073	-0,055
-302,037	42,162	-0,065	0,042
-301,022	-200,000	0,019	-0,101
-300,008	33,650	0,117	0,073
-298,993	-200,000	-0,025	0,092
-297,978	137,063	-0,064	0,060
-296,964	-156,254	0,074	0,003
-295,949	-200,000	-0,019	-0,155
-294,935	186,843	0,087	-0,092
-293,920	-58,677	0,112	0,034
-292,905	-2,423	-0,122	0,061
-291,891	99,099	-0,032	-0,026
-290,876	-200,000	-0,022	0,104
-289,862	-29,744	-0,053	0,021
-288,847	800,000	0,027	0,054
-287,832	-145,170	-0,116	0,007
-286,818	-200,000	-0,003	-0,011
-285,803	-200,000	-0,009	0,053
-284,789	-200,000	0,006	-0,026
-283,774	800,000	-0,050	0,118
-282,759	25,825	-0,101	0,060
-281,745	-54,266	0,090	0,029
-280,730	0,026	0,120	-0,060
-279,716	-200,000	-0,040	-0,207
-278,701	-50,418	0,083	0,028
-277,686	-123,299	0,238	0,027
-276,672	-200,000	0,009	0,045
-275,657	-200,000	0,067	-0,212
-274,643	800,000	-0,041	-0,126
-273,628	783,024	0,054	-0,106
-272,613	-112,275	-0,107	-0,015
-271,599	179,207	0,055	-0,058
-270,584	-123,653	0,128	0,014
-269,570	-39,130	-0,125	0,047
-268,555	180,464	0,113	-0,118
-267,540	-200,000	0,005	0,028
-266,526	309,465	-0,070	-0,094
-265,511	-187,201	-0,082	0,001
-264,497	257,460	-0,074	-0,091
-263,482	-200,000	0,041	0,147
-262,467	-155,420	0,081	0,004
-261,453	-112,138	-0,140	-0,020
-260,438	800,000	-0,037	-0,083
-259,424	-118,662	0,108	0,013
-258,409	-200,000	0,010	0,042
-257,395	-200,000	-0,009	0,029
-256,380	-200,000	0,003	0,043
-255,365	-56,262	-0,098	0,031
-254,351	101,237	0,133	0,110
-253,336	800,000	0,035	0,075
-252,322	316,759	-0,036	-0,048
-251,307	93,798	0,057	0,046
-250,292	800,000	-0,041	0,087
-249,278	75,235	0,005	0,004
-248,263	46,223	-0,075	-0,049
-247,249	-200,000	0,036	0,133
-246,234	448,158	0,047	0,075
-245,219	44,675	-0,100	-0,066
-244,205	580,069	-0,043	-0,075
-243,190	255,649	-0,037	-0,045
-242,176	484,031	-0,054	0,088
-241,161	170,011	0,055	0,056
-240,146	530,941	-0,014	0,024
-239,132	800,000	-0,029	0,064
-238,117	618,437	-0,080	0,144
-237,103	800,000	0,017	0,050
-236,088	-200,000	0,005	0,136
-235,073	355,406	0,062	0,087
-234,059	-161,496	0,097	-0,003
-233,044	-133,394	-0,074	0,006
-232,030	800,000	0,042	-0,110
-231,015	-123,696	0,165	0,018
-230,000	59,456	-0,093	-0,065
-228,986	797,582	0,022	-0,044
-227,971	329,021	0,028	-0,039
-226,957	800,000	0,010	0,028
-225,942	343,653	-0,028	0,039
-224,927	-84,549	-0,034	-0,008
-223,913	-118,414	-0,122	0,015
-222,898	227,686	-0,131	-0,152
-221,884	-18,976	0,036	-0,016
-220,869	800,000	0,023	-0,070
-219,855	55,192	-0,035	-0,024
-218,840	800,000	0,058	-0,126
-217,825	-84,807	-0,095	-0,021
-216,811	-167,793	-0,059	0,002
-215,796	-124,666	0,037	0,004
-214,782	145,760	-0,075	-0,071
-213,767	-102,712	0,093	0,016
-212,752	-200,000	-0,003	0,105
-211,738	-200,000	0,036	0,120
-210,723	-117,224	0,066	0,008
-209,709	-200,000	0,016	-0,095
-208,694	31,801	-0,161	-0,098
-207,679	22,692	0,085	-0,049
-206,665	635,840	0,005	-0,010
-205,650	800,000	0,031	0,089
-204,636	-39,061	0,171	-0,063
-203,621	-70,668	-0,116	-0,031
-202,606	62,734	0,029	-0,021
-201,592	534,050	0,024	-0,041
-200,577	-71,529	-0,193	0,051
-199,563	-91,247	-0,048	0,010
-198,548	-55,019	0,055	-0,017
-197,533	-200,000	0,018	-0,081
-196,519	-144,059	-0,162	0,011
-195,504	96,478	-0,096	0,078
-194,490	800,000	-0,028	-0,073
-193,475	586,518	-0,055	-0,096
-192,460	800,000	0,045	0,109
-191,446	-82,726	0,137	0,031
-190,431	-80,802	0,083	0,019
-189,417	-134,330	0,063	-0,005
-188,402	267,226	0,057	-0,071
-187,387	-27,115	-0,140	-0,058
-186,373	-200,000	0,003	-0,071
-185,358	-7,233	0,174	0,083
-184,344	-9,679	0,082	0,038
-183,329	333,918	0,035	0,048
-182,315	-65,453	0,116	0,033
-181,300	-21,180	0,119	-0,052
-180,285	800,000	-0,038	0,081
-179,271	110,095	0,040	0,034
-178,256	-200,000	0,030	0,104
-177,242	800,000	-0,039	0,097
-176,227	-9,552	0,045	0,021
-175,212	-30,669	0,096	-0,038
-174,198	-64,874	0,030	0,009
-173,183	-37,758	-0,070	-0,026
-172,169	70,864	-0,145	-0,107
-171,154	-142,946	-0,034	-0,002
-170,139	-75,273	0,100	-0,025
-169,125	-200,000	-0,021	-0,083
-168,110	800,000	0,027	0,080
-167,096	800,000	-0,044	-0,117
-166,081	161,146	0,039	0,039
-165,066	800,000	-0,053	0,127
-164,052	402,024	-0,051	-0,076
-163,037	129,741	-0,074	0,067
-162,023	-141,695	0,053	0,004
-161,008	-200,000	0,056	0,177
-159,993	800,000	-0,006	-0,018
-158,979	-200,000	-0,004	0,049
-157,964	43,810	-0,093	0,060
-156,950	-200,000	0,004	-0,023
-155,935	74,192	0,117	0,087
-154,920	15,400	0,151	0,083
-153,906	-200,000	0,021	0,105
-152,891	214,852	0,058	-0,066
-151,877	422,072	-0,073	-0,111
-150,862	-40,395	-0,179	0,065
-149,847	-22,065	0,096	-0,041
-148,833	800,000	0,010	-0,027
-147,818	-200,000	0,018	0,232
-146,804	66,977	0,125	0,090
-145,789	-87,288	0,027	0,006
-144,775	-55,355	-0,041	0,013
-143,760	-11,093	-0,105	-0,049
-142,745	-200,000	-0,015	0,067
-141,731	-12,173	0,008	-0,004
-140,716	-200,000	-0,004	-0,040
-139,702	187,835	-0,085	0,090
-138,687	402,925	-0,026	-0,038
-137,672	104,179	-0,018	-0,015
-136,658	123,124	-0,058	0,051
-135,643	457,119	-0,036	-0,057
-134,629	-200,000	0,005	-0,059
-133,614	-200,000	-0,009	0,053
-132,599	143,804	-0,029	-0,028
-131,585	-19,602	0,062	-0,027
-130,570	-101,108	0,110	-0,019
-129,556	-155,031	-0,137	-0,006
-128,541	800,000	0,073	-0,163
-127,526	-152,600	-0,044	0,002
-126,512	65,205	0,049	-0,035
-125,497	5,868	0,080	0,042
-124,483	-128,531	-0,077	0,008
-123,468	800,000	-0,030	0,067
-122,453	800,000	0,036	-0,098
-121,439	-116,502	-0,104	0,013
-120,424	202,259	-0,010	0,011
-119,410	8,328	0,104	-0,055
-118,395	310,505	-0,059	0,078
-117,380	-200,000	-0,009	0,112
-116,366	-58,530	0,176	-0,054
-115,351	193,940	-0,023	0,024
-114,337	381,140	-0,106	-0,155
-113,322	-184,266	-0,182	0,002
-112,307	-151,411	0,065	-0,003
-111,293	-200,000	-0,026	0,086
-110,278	-174,677	0,094	-0,002
-109,264	-200,000	-0,030	-0,128
-108,249	326,881	-0,025	-0,034
-107,234	-71,822	-0,097	-0,025
-106,220	-175,984	-0,047	0,001
-105,205	800,000	0,019	0,056
-104,191	23,753	-0,053	0,031
-103,176	800,000	-0,024	0,053
-102,162	-200,000	-0,027	0,101
-101,147	-200,000	-0,010	0,055
-100,132	228,040	-0,092	-0,106
-99,118	176,574	0,064	0,065
-98,103	800,000	-0,023	-0,070
-97,089	-50,546	0,169	0,056
-96,074	800,000	0,044	0,102
-95,059	800,000	0,047	0,104
-94,045	800,000	-0,031	0,066
-93,030	9,341	-0,046	0,025
-92,016	248,847	-0,017	-0,020
-91,001	-200,000	-0,000	-0,065
-89,986	101,164	0,156	0,128
-88,972	74,498	0,039	0,029
-87,957	-150,010	-0,050	0,003
-86,943	135,662	-0,070	0,064
-85,928	494,002	0,078	-0,128
-84,913	169,143	0,091	-0,091
-83,899	-91,974	0,054	0,011
-82,884	800,000	-0,041	0,112
-81,870	800,000	0,062	0,147
-80,855	800,000	0,034	0,070
-79,840	167,880	-0,069	0,069
-78,826	461,494	-0,039	0,062
-77,811	-200,000	0,019	-0,171
-76,797	221,071	0,079	0,089
-75,782	-165,404	-0,032	0,001
-74,767	-200,000	0,006	0,101
-73,753	-200,000	0,044	0,208
-72,738	373,515	-0,056	0,081
-71,724	800,000	0,046	-0,144
-70,709	-46,002	-0,050	-0,017
-69,694	32,339	-0,091	-0,055
-68,680	170,590	0,114	0,116
-67,665	-200,000	-0,037	0,123
-66,651	-200,000	-0,008	0,076
-65,636	800,000	-0,018	0,038
-64,622	-200,000	-0,003	0,050
-63,607	-16,765	-0,171	0,076
-62,592	-79,167	0,085	-0,020
-61,578	-19,669	-0,204	-0,089
-60,563	340,052	0,029	0,040
-59,549	-200,000	-0,006	0,024
-58,534	27,665	-2,216	-1,314
-57,519	611,640	-1,101	-1,952
-56,505	-200,000	-0,310	-4,259
-55,490	800,000	0,813	1,691
-54,476	800,000	5,121	11,263
-53,461	-200,000	21,798	338,546
-52,446	800,000	760,773	2308,793
-51,432	536,886	1655,633	2785,299
-50,417	69,876	1652,427	1201,266
-49,403	16,811	1526,822	850,404
-48,388	10,950	1451,201	780,052
-47,373	18,978	1443,176	814,083
-46,359	14,325	1431,822	785,612
-45,344	9,275	1427,653	759,347
-44,330	9,200	1426,024	758,097
-43,315	9,216	1424,028	757,079
-42,300	9,228	1422,352	756,215
-41,286	9,178	1421,211	755,345
-40,271	9,215	1419,912	754,798
-39,257	9,204	1418,867	754,161
-38,242	9,224	1417,799	753,657
-37,227	9,222	1416,445	752,898
-36,213	9,262	1415,096	752,339
-35,198	9,229	1414,019	751,579
-34,184	9,246	1412,965	751,074
-33,169	9,221	1411,699	750,253
-32,154	9,256	1410,816	749,914
-31,140	9,240	1409,652	749,193
-30,125	9,306	1408,200	748,701
-29,111	9,241	1406,984	747,722
-28,096	9,234	1405,978	747,124
-27,082	9,194	1404,713	746,236
-26,067	9,137	1403,765	745,436
-25,052	9,193	1402,654	745,077
-24,038	9,176	1401,885	744,562
-23,023	9,213	1400,881	744,171
-22,009	9,198	1399,642	743,411
-20,994	9,218	1398,639	742,944
-19,979	9,153	1398,010	742,278
-18,965	9,120	1396,927	741,517
-17,950	9,086	1395,979	740,827
-16,936	9,128	1395,172	740,567
-15,921	9,094	1394,029	739,770
-14,906	9,067	1393,416	739,290
-13,892	9,125	1392,211	738,891
-12,877	9,102	1391,583	738,424
-11,863	9,064	1390,812	737,809
-10,848	9,061	1389,664	737,158
-9,833	9,050	1388,776	736,607
-8,819	9,021	1387,926	735,989
-7,804	9,001	1386,897	735,326
-6,790	8,981	1386,032	734,743
-5,775	8,971	1385,075	734,161
-4,760	8,996	1383,973	733,664
-3,746	9,051	1383,125	733,439
-2,731	9,086	1381,996	732,971
-1,717	9,002	1381,375	732,225
-0,702	8,946	1379,678	731,043
0,313	12,923	1291,683	702,521
1,327	28,802	683,496	407,431
2,342	45,203	117,761	76,431
3,356	-1,062	16,512	8,208
4,371	6,487	3,643	1,902
5,386	6,733	1,210	0,633
6,400	788,921	0,256	0,498
7,415	-21,654	-0,139	-0,060
8,429	34,565	-0,253	-0,155
9,444	25,976	-0,325	-0,190
10,459	-109,532	-0,337	-0,050
11,473	318,555	-0,169	-0,227
12,488	114,351	-0,252	-0,216
13,502	183,449	-0,281	-0,293
14,517	5,309	-0,237	-0,123
15,531	55,054	-0,391	-0,266
16,546	44,461	-0,309	-0,199
17,561	169,786	-0,358	-0,361
18,575	289,895	-0,101	-0,130
19,590	-77,556	-0,365	-0,088
20,604	-195,786	-0,328	-0,002
21,619	246,728	-0,325	-0,387
22,634	6,356	-0,478	-0,249
23,648	208,152	-0,395	-0,435
24,663	38,943	-0,390	-0,245
25,677	190,748	-0,352	-0,372
26,692	1,239	-0,293	-0,148
27,707	-11,380	-0,415	-0,191
28,721	196,184	-0,268	-0,287
29,736	5,312	-0,431	-0,223
30,750	110,581	-0,435	-0,368
31,765	140,267	-0,362	-0,336
32,780	73,263	-0,366	-0,269
33,794	79,268	-0,258	-0,194
34,809	91,523	-0,323	-0,255
35,823	175,767	-0,271	-0,277
36,838	98,217	-0,291	-0,236
37,853	150,156	-0,372	-0,355
38,867	40,297	-0,323	-0,204
39,882	56,034	-0,365	-0,249
40,896	200,284	-0,221	-0,238
41,911	18,205	-0,350	-0,196
42,926	97,028	-0,416	-0,335
43,940	313,329	-0,222	-0,295
44,955	-78,740	-0,358	-0,085
45,969	38,542	-0,354	-0,222
46,984	51,060	-0,234	-0,156
47,999	31,433	-0,376	-0,226
49,013	116,064	-0,272	-0,234
50,028	28,809	-0,277	-0,164
51,042	-5,817	-0,328	-0,157
52,057	-5,902	-0,343	-0,164
53,071	116,860	-0,311	-0,268
54,086	282,205	-0,293	-0,369
55,101	42,897	-0,400	-0,256
56,115	43,718	-0,275	-0,176
57,130	-37,273	-0,314	-0,117
58,144	25,416	-0,371	-0,216
59,159	132,645	-0,299	-0,271
60,174	93,073	-0,324	-0,257
61,188	-10,888	-0,350	-0,161
62,203	118,698	-0,210	-0,182
63,217	40,791	-0,429	-0,271
64,232	35,743	-0,297	-0,183
65,247	64,004	-0,449	-0,316
66,261	30,292	-0,358	-0,214
67,276	97,659	-0,389	-0,314
68,290	-60,494	-0,451	-0,134
69,305	212,244	-0,276	-0,306
70,320	-69,261	-0,195	-0,052
71,334	1,058	-0,346	-0,173
72,349	246,344	-0,202	-0,239
73,363	214,419	-0,287	-0,319
74,378	-68,967	-0,283	-0,076
75,393	-16,974	-0,381	-0,168
76,407	165,856	-0,294	-0,291
77,422	96,075	-0,194	0,155
78,436	-71,846	-0,359	-0,093
79,451	-49,169	-0,323	-0,107
80,466	103,399	-0,280	-0,230
81,480	98,542	-0,344	-0,277
82,495	97,936	-0,220	-0,177
83,509	-32,572	-0,172	-0,067
84,524	51,371	-0,331	-0,219
85,539	37,120	-0,247	-0,152
86,553	10,329	-0,267	-0,142
87,568	-15,997	-0,355	-0,157
88,582	117,373	-0,244	-0,210
89,597	127,407	-0,313	-0,278
90,611	800,000	-0,129	-0,281
91,626	87,029	-0,259	-0,200
92,641	800,000	-0,159	-0,331
93,655	204,888	-0,114	-0,124
94,670	153,091	-0,169	-0,162
95,684	6,815	-0,248	-0,129
96,699	-22,251	-0,217	-0,092
97,714	268,288	-0,161	-0,198
98,728	800,000	-0,095	-0,191
99,743	17,674	-0,318	-0,177
100,757	55,228	-0,348	-0,235
101,772	-157,624	-0,319	0,013
102,787	124,328	-0,309	-0,272
103,801	19,014	-0,332	-0,186
104,816	-91,924	-0,258	-0,051
105,830	174,286	-0,176	-0,178
106,845	73,693	-0,237	-0,173
107,860	56,514	-0,306	-0,208
108,874	-40,316	-0,228	-0,082
109,889	83,487	-0,250	-0,190
110,903	75,815	-0,182	-0,134
111,918	-66,296	-0,242	-0,067
112,933	90,346	-0,208	-0,162
113,947	328,836	-0,132	-0,178
114,962	-70,062	-0,259	-0,068
115,976	394,609	-0,124	-0,181
116,991	107,908	-0,298	-0,248
118,006	382,095	-0,249	-0,359
119,020	225,894	-0,211	-0,240
120,035	167,540	-0,281	-0,279
121,049	13,262	-0,277	-0,149
122,064	-4,454	-0,230	-0,110
123,079	619,049	-0,156	-0,274
124,093	-4,366	-0,210	-0,101
125,108	-25,618	-0,223	-0,091
126,122	101,883	-0,252	-0,205
127,137	80,471	-0,294	-0,220
128,151	-59,739	-0,232	-0,069
129,166	-43,844	-0,242	-0,084
130,181	-71,589	-0,298	-0,077
131,195	17,925	-0,278	-0,154
132,210	83,091	-0,261	-0,198
133,224	140,386	-0,316	-0,290
134,239	534,205	-0,138	-0,229
135,254	-19,865	-0,335	-0,144
136,268	260,411	-0,144	-0,174
137,283	569,711	-0,116	-0,198
138,297	-80,001	-0,263	-0,061
139,312	44,551	-0,284	-0,182
140,327	18,425	-0,325	-0,180
141,341	28,386	-0,264	-0,155
142,356	-108,798	-0,321	-0,047
143,370	-122,899	-0,254	-0,028
144,385	-3,638	-0,176	-0,085
145,400	158,492	-0,140	-0,136
146,414	-52,420	-0,166	-0,053
147,429	-2,181	-0,339	-0,165
148,443	25,167	-0,265	-0,153
149,458	51,973	-0,202	-0,134
150,473	41,459	-0,187	-0,118
151,487	-31,244	-0,156	-0,061
152,502	40,125	-0,355	-0,221
153,516	237,916	-0,160	-0,185
154,531	77,721	-0,243	-0,180
155,546	77,388	-0,144	-0,106
156,560	-40,967	-0,335	-0,120
157,575	84,420	-0,148	-0,112
158,589	93,231	-0,121	-0,095
159,604	-167,546	-0,298	-0,008
160,619	-57,834	-0,159	-0,048
161,633	282,605	-0,298	-0,373
162,648	334,052	-0,143	-0,193
163,662	-102,856	-0,126	-0,021
164,677	174,206	-0,262	-0,263
165,692	-12,446	-0,177	-0,080
166,706	177,631	-0,259	-0,263
167,721	-32,673	-0,156	-0,060
168,735	638,731	-0,193	-0,343
169,750	186,705	-0,256	-0,265
170,764	-100,331	-0,177	-0,030
171,779	82,999	-0,134	-0,101
172,794	800,000	-0,089	-0,244
173,808	74,733	-0,279	-0,204
174,823	6,117	-0,251	-0,129
175,837	0,886	-0,242	-0,120
176,852	-88,814	-0,204	-0,042
177,867	409,546	-0,086	-0,127
178,881	-67,875	-0,347	-0,094
179,896	204,275	-0,110	-0,118
180,910	30,058	-0,317	-0,187
181,925	83,864	-0,279	-0,211
182,940	93,656	-0,232	-0,183
183,954	-97,514	-0,243	-0,043
184,969	-36,542	-0,267	-0,099
185,983	267,817	-0,188	-0,230
186,998	-40,895	-0,293	-0,105
188,013	166,654	-0,076	-0,075
189,027	175,309	-0,189	-0,190
190,042	62,163	-0,327	-0,226
191,056	297,676	-0,145	-0,185
192,071	94,522	-0,153	-0,121
193,086	26,874	-0,251	-0,145
194,100	227,177	-0,207	-0,233
195,115	-68,910	-0,128	-0,034
196,129	195,587	-0,131	-0,139
197,144	8,959	-0,288	-0,150
198,159	800,000	-0,067	-0,156
199,173	43,583	-0,166	-0,105
200,188	225,530	-0,130	-0,147
201,202	296,991	-0,121	-0,154
202,217	-68,751	-0,275	-0,073
203,232	205,075	-0,143	-0,154
204,246	42,486	-0,178	-0,112
205,261	16,393	-0,232	-0,127
206,275	552,840	-0,071	-0,118
207,290	75,462	-0,174	-0,127
208,304	142,932	-0,133	-0,122
209,319	28,216	-0,091	0,053
210,334	56,748	-0,106	-0,071
211,348	183,455	-0,185	-0,189
212,363	800,000	-0,103	-0,237
213,377	420,022	-0,176	-0,262
214,392	-3,562	-0,251	-0,120
215,407	-88,737	-0,166	-0,034
216,421	206,450	-0,107	-0,116
217,436	-36,182	-0,183	-0,068
218,450	-15,801	-0,215	-0,095
219,465	800,000	-0,094	-0,183
220,480	145,741	-0,195	-0,181
221,494	9,205	-0,143	-0,075
222,509	800,000	-0,093	-0,198
223,523	1,634	-0,190	-0,094
224,538	384,636	-0,105	-0,150
225,553	-115,371	-0,237	-0,031
226,567	26,756	-0,205	-0,119
227,582	-40,390	-0,184	-0,066
228,596	4,024	-0,215	-0,108
229,611	-129,665	-0,157	0,015
230,626	800,000	-0,063	-0,149
231,640	35,833	-0,256	-0,155
232,655	64,363	-0,254	-0,177
233,669	383,688	-0,161	-0,230
234,684	127,492	-0,178	-0,156
235,699	800,000	-0,086	-0,219
236,713	341,067	-0,091	-0,122
237,728	308,413	-0,067	-0,087
238,742	800,000	-0,101	-0,262
239,757	281,191	-0,211	-0,262
240,772	588,338	-0,159	-0,272
241,786	202,309	-0,216	-0,230
242,801	64,210	-0,185	-0,129
243,815	196,501	-0,082	-0,086
244,830	165,031	-0,115	-0,112
245,844	-60,474	-0,147	-0,043
246,859	-5,748	-0,263	-0,124
247,874	621,111	-0,123	-0,214
248,888	800,000	-0,068	-0,165
249,903	4,249	-0,212	-0,107
250,917	614,342	0,023	-0,039
251,932	231,440	-0,096	-0,109
252,947	134,669	-0,186	-0,167
253,961	315,597	-0,158	-0,206
254,976	190,516	-0,225	-0,233
255,990	175,719	-0,154	-0,154
257,005	800,000	-0,075	-0,171
258,020	263,723	-0,137	-0,165
259,034	97,696	-0,237	-0,188
260,049	800,000	-0,085	-0,207
261,063	-47,769	-0,190	-0,063
262,078	6,257	-0,191	-0,097
263,093	-9,049	-0,094	0,043
264,107	443,577	-0,063	-0,095
265,122	365,937	-0,208	-0,290
266,136	-1,361	-0,056	-0,027
267,151	29,513	-0,166	-0,097
268,166	-75,402	-0,214	-0,052
269,180	51,021	-0,231	-0,151
270,195	233,314	-0,195	-0,221
271,209	391,595	-0,142	-0,204
272,224	149,934	-0,236	-0,221
273,239	-11,115	-0,079	0,036
274,253	-69,927	-0,106	0,028
275,268	200,201	-0,143	-0,152
276,282	44,810	-0,140	-0,089
277,297	800,000	-0,135	-0,261
278,312	196,248	-0,161	-0,169
279,326	-200,000	-0,024	-0,192
280,341	-152,006	-0,162	-0,008
281,355	346,227	-0,095	-0,129
282,370	-73,241	-0,230	-0,058
283,384	74,617	-0,207	-0,150
284,399	117,524	-0,224	-0,190
285,414	-200,000	-0,075	-0,233
286,428	109,642	-0,119	-0,098
287,443	125,978	-0,084	-0,073
288,457	-60,739	-0,134	-0,039
289,472	271,337	-0,142	-0,172
290,487	510,774	-0,088	-0,141
291,501	-40,328	-0,206	-0,073
292,516	263,416	-0,103	-0,123
293,530	232,014	-0,139	-0,157
294,545	97,882	-0,091	-0,072
295,560	103,886	-0,138	-0,111
296,574	74,192	-0,205	-0,148
297,589	-182,649	-0,106	0,001
298,603	291,569	-0,244	-0,306
299,618	237,768	-0,229	-0,262
300,633	-110,481	-0,239	-0,034
301,647	279,320	-0,045	0,055
302,662	156,825	-0,184	-0,175
303,676	42,323	-0,136	0,085
304,691	-71,942	-0,220	-0,056
305,706	800,000	-0,138	-0,342
306,720	-60,615	-0,205	0,059
307,735	-71,066	-0,120	-0,031
308,749	-200,000	-0,032	-0,104
309,764	-124,541	-0,163	-0,017
310,779	376,358	-0,138	-0,194
311,793	-37,625	-0,194	-0,070
312,808	529,264	-0,139	-0,225
313,822	262,783	-0,178	-0,212
314,837	345,011	-0,169	-0,229
315,852	-97,457	-0,166	-0,029
316,866	-105,708	-0,105	-0,016
317,881	-200,000	0,013	-0,193
318,895	-111,215	-0,154	-0,021
319,910	800,000	-0,030	-0,066
320,925	321,598	-0,187	-0,245
321,939	-63,901	-0,168	0,047
322,954	-133,594	-0,214	-0,018
323,968	800,000	-0,074	-0,148
324,983	800,000	-0,010	-0,030
325,997	233,950	-0,162	-0,183
327,012	-112,564	-0,280	-0,038
328,027	101,648	-0,127	-0,101
329,041	184,437	-0,182	-0,185
330,056	-121,938	-0,165	-0,018
331,070	-24,682	-0,098	-0,040
332,085	146,585	-0,157	-0,144
333,100	143,471	-0,063	-0,058
334,114	800,000	-0,042	-0,111
335,129	-5,688	-0,147	0,069
336,143	65,175	-0,093	-0,064
337,158	57,393	-0,087	-0,058
338,173	-127,385	-0,144	0,014
339,187	-118,014	-0,186	-0,023
340,202	800,000	-0,023	0,062
341,216	37,641	-0,142	-0,086
342,231	299,418	-0,055	-0,070
343,246	-200,000	-0,013	-0,199
344,260	138,666	-0,059	0,053
345,275	256,234	-0,071	-0,083
346,289	768,205	-0,120	-0,224
347,304	45,528	-0,096	-0,061
348,319	429,574	-0,123	-0,182
349,333	-199,227	-0,272	-0,001
350,348	47,303	-0,125	-0,079
351,362	800,000	-0,102	-0,267
352,377	-195,409	-0,112	-0,001
353,392	-200,000	-0,026	0,101
354,406	45,101	-0,148	-0,093
355,421	206,884	1306,275	1393,742
356,435	159,122	1465,947	1394,206
