DTS Sentinel unit serial number:	SN410029Multiplexer serial number:	ORYXHardware model number:	OX2-SRSoftware version number:	ORYX F/W v4,00 Oryx Data Collector v3.7.2.0data status	okinstallation	B3 Nyhavnadifferential loss correction	single-endedforward channel	channel 1reverse channel	N/Adate	2023/12/03time	09:22:30forward acquisition time	300,00reverse acquisition time	0,00gamma	499,1914k internal	0,3200k external	0,3200temperature offset calibration	1,0000default loss term (dB/km)	0,3820temperature slope calibration	1,0000multiplexer offset coefficient	1,0000multiplexer slope coefficient	1,0000fibre end	0,00T internal ref (°C)	13,34T ext. ref 1 (°C)	-1,66T ext. ref 2 (°C)	-1,68length (m)	temperature (°C)	Stokes	anti-Stokes-744,400	415,897	-0,150	-0,234
-743,385	-200,000	0,009	0,232
-742,371	676,252	-0,155	-0,293
-741,356	-200,000	0,013	0,260
-740,342	57,739	-0,195	-0,138
-739,327	-200,000	-0,013	0,273
-738,312	87,632	-0,279	-0,225
-737,298	-200,000	0,045	0,201
-736,283	781,697	-0,175	-0,351
-735,269	-200,000	0,101	0,446
-734,254	105,471	-0,165	-0,142
-733,239	-1,955	-0,121	0,062
-732,225	800,000	-0,092	-0,214
-731,210	-44,462	0,221	0,080
-730,196	43,029	0,049	-0,033
-729,181	121,661	0,088	-0,080
-728,167	241,582	-0,052	-0,063
-727,152	103,170	0,059	-0,051
-726,137	26,652	-0,097	0,059
-725,123	381,671	-0,093	-0,139
-724,108	250,285	-0,024	0,030
-723,094	800,000	-0,086	-0,188
-722,079	-200,000	-0,002	0,009
-721,064	-200,000	0,016	-0,088
-720,050	800,000	-0,030	-0,083
-719,035	63,767	-0,063	-0,046
-718,021	-100,216	0,070	0,012
-717,006	13,757	-0,164	-0,092
-715,991	800,000	-0,016	-0,034
-714,977	-127,259	-0,052	0,005
-713,962	-59,631	-0,078	-0,024
-712,948	-88,038	0,081	-0,018
-711,933	-61,511	-0,044	0,013
-710,918	800,000	0,029	0,074
-709,904	-90,690	-0,120	0,025
-708,889	-200,000	-0,042	-0,140
-707,875	404,470	-0,058	-0,090
-706,860	800,000	-0,028	0,089
-705,845	-200,000	-0,021	0,142
-704,831	-10,953	-0,060	0,029
-703,816	162,303	0,036	0,037
-702,802	-106,568	-0,079	0,013
-701,787	107,130	-0,129	-0,112
-700,772	-200,000	-0,011	-0,111
-699,758	118,138	-0,081	0,073
-698,743	-121,909	0,063	0,007
-697,729	217,144	0,058	0,067
-696,714	365,040	-0,061	0,090
-695,699	389,886	-0,056	-0,084
-694,685	252,905	-0,033	-0,041
-693,670	15,905	-0,042	0,024
-692,656	-118,154	0,033	-0,004
-691,641	44,066	-0,132	-0,088
-690,627	-200,000	0,026	0,167
-689,612	38,010	-0,013	-0,008
-688,597	-200,000	-0,001	-0,024
-687,583	265,739	-0,071	-0,090
-686,568	433,248	0,033	-0,053
-685,554	791,442	-0,057	-0,113
-684,539	-200,000	-0,003	-0,026
-683,524	145,815	-0,059	0,057
-682,510	800,000	-0,029	0,062
-681,495	-164,608	-0,019	-0,001
-680,481	131,338	-0,061	-0,056
-679,466	800,000	-0,039	-0,102
-678,451	4,651	-0,127	-0,067
-677,437	47,732	-0,127	0,086
-676,422	223,640	0,078	-0,091
-675,408	-106,225	0,087	0,014
-674,393	117,703	-0,093	-0,083
-673,378	110,692	-0,098	-0,085
-672,364	125,274	-0,122	-0,111
-671,349	-200,000	-0,005	-0,029
-670,335	-195,914	0,088	0,000
-669,320	-200,000	0,010	0,185
-668,305	-101,598	-0,093	0,016
-667,291	72,295	-0,087	0,066
-666,276	164,420	0,063	-0,065
-665,262	340,315	0,032	-0,046
-664,247	69,590	0,080	-0,060
-663,232	-107,202	-0,081	0,013
-662,218	45,563	0,080	-0,053
-661,203	209,470	0,140	0,159
-660,189	-59,900	-0,067	-0,021
-659,174	208,700	0,046	-0,053
-658,159	85,773	-0,086	-0,068
-657,145	-50,070	0,077	-0,026
-656,130	310,278	0,043	-0,059
-655,116	39,349	-0,103	0,067
-654,101	-200,000	-0,007	-0,054
-653,086	-200,000	-0,028	0,093
-652,072	3,579	0,061	-0,032
-651,057	-146,627	-0,036	0,002
-650,043	800,000	-0,052	-0,108
-649,028	-92,034	0,059	0,012
-648,014	108,367	-0,051	0,044
-646,999	3,233	0,138	0,073
-645,984	384,377	-0,073	-0,109
-644,970	-163,094	0,134	0,005
-643,955	175,429	-0,072	-0,076
-642,941	174,858	-0,125	-0,131
-641,926	-200,000	0,000	0,046
-640,911	-78,590	-0,011	-0,003
-639,897	146,669	-0,032	-0,032
-638,882	-200,000	0,009	0,047
-637,868	800,000	-0,038	0,083
-636,853	387,093	0,031	-0,046
-635,838	294,354	-0,093	-0,124
-634,824	-200,000	0,008	0,174
-633,809	-200,000	0,008	0,044
-632,795	-200,000	0,001	0,148
-631,780	233,906	0,056	0,067
-630,765	153,957	-0,041	-0,040
-629,751	-68,906	0,100	-0,028
-628,736	800,000	0,055	-0,147
-627,722	71,845	-0,036	0,027
-626,707	-52,608	-0,178	-0,059
-625,692	278,482	0,093	0,120
-624,678	12,066	-0,093	0,052
-623,663	-22,577	0,080	0,035
-622,649	-118,399	-0,206	0,026
-621,634	73,713	-0,056	-0,043
-620,619	47,384	0,064	0,043
-619,605	161,213	-0,027	-0,028
-618,590	-1,777	0,097	-0,049
-617,576	-25,392	0,126	0,054
-616,561	-200,000	0,010	-0,079
-615,546	-127,786	-0,129	0,013
-614,532	102,774	-0,082	0,069
-613,517	112,212	-0,094	-0,082
-612,503	100,147	0,079	-0,067
-611,488	-138,213	0,090	-0,007
-610,474	-21,691	-0,105	-0,046
-609,459	169,588	0,046	-0,047
-608,444	18,879	-0,073	0,042
-607,430	80,522	0,070	0,055
-606,415	800,000	-0,032	-0,073
-605,401	127,139	0,045	0,041
-604,386	40,478	0,088	0,057
-603,371	-63,850	0,089	0,026
-602,357	601,876	-0,088	0,159
-601,342	-200,000	-0,007	-0,106
-600,328	-4,465	0,037	0,019
-599,313	800,000	-0,031	-0,070
-598,298	711,310	-0,063	-0,120
-597,284	-200,000	-0,004	0,053
-596,269	424,044	-0,069	0,108
-595,255	-200,000	0,002	0,037
-594,240	-8,247	-0,102	0,049
-593,225	158,486	-0,102	-0,102
-592,211	-200,000	-0,036	-0,121
-591,196	-156,413	-0,085	-0,004
-590,182	85,794	-0,023	0,018
-589,167	-36,179	-0,024	-0,009
-588,152	-159,248	-0,085	0,003
-587,138	-59,363	0,223	0,069
-586,123	152,425	-0,172	-0,170
-585,109	126,160	-0,098	-0,090
-584,094	85,787	0,021	-0,016
-583,079	-200,000	0,015	0,070
-582,065	51,417	0,030	-0,020
-581,050	-103,904	0,054	-0,009
-580,036	800,000	-0,073	-0,153
-579,021	571,548	-0,048	-0,085
-578,006	-169,443	0,107	-0,003
-576,992	-101,441	-0,193	-0,034
-575,977	349,655	-0,038	-0,055
-574,963	-200,000	-0,009	0,041
-573,948	-200,000	-0,006	0,085
-572,934	-200,000	0,010	0,100
-571,919	310,506	0,044	-0,060
-570,904	268,898	-0,115	-0,146
-569,890	-123,557	-0,131	0,015
-568,875	800,000	-0,046	0,118
-567,861	-32,556	0,038	0,015
-566,846	-200,000	0,016	0,063
-565,831	314,918	-0,041	-0,056
-564,817	-200,000	0,010	-0,047
-563,802	-142,577	-0,086	0,006
-562,788	-9,912	0,056	0,027
-561,773	88,318	-0,087	-0,070
-560,758	559,533	0,055	0,097
-559,744	-187,646	-0,086	0,001
-558,729	196,639	0,097	-0,107
-557,715	443,045	-0,056	0,088
-556,700	-27,829	-0,010	0,004
-555,685	-37,925	-0,198	-0,076
-554,671	-141,559	0,042	-0,003
-553,656	-47,029	0,105	0,037
-552,642	-113,467	0,083	0,012
-551,627	56,544	-0,081	-0,057
-550,612	-200,000	-0,023	0,093
-549,598	-129,872	-0,136	0,013
-548,583	367,762	-0,057	-0,083
-547,569	133,839	-0,071	0,066
-546,554	-61,706	-0,053	-0,016
-545,539	-200,000	-0,018	0,136
-544,525	-200,000	0,014	0,074
-543,510	-98,603	0,036	0,007
-542,496	-94,249	-0,135	-0,026
-541,481	402,483	0,051	-0,078
-540,466	79,517	-0,078	-0,060
-539,452	-113,319	0,148	0,021
-538,437	707,459	-0,006	-0,011
-537,423	-200,000	0,001	0,051
-536,408	-97,367	0,056	0,010
-535,393	-48,345	-0,083	-0,029
-534,379	-136,306	-0,103	0,009
-533,364	279,624	0,074	0,096
-532,350	-21,893	0,064	0,028
-531,335	433,958	0,069	0,109
-530,321	-4,487	0,122	0,061
-529,306	130,172	0,063	-0,058
-528,291	-125,854	-0,076	-0,008
-527,277	162,977	-0,106	-0,107
-526,262	-200,000	-0,004	-0,047
-525,248	-98,346	-0,020	0,004
-524,233	79,415	0,033	0,026
-523,218	-39,011	-0,004	-0,001
-522,204	-66,592	0,059	0,017
-521,189	-57,920	-0,033	0,010
-520,175	-200,000	-0,008	-0,050
-519,160	800,000	0,035	0,109
-518,145	-200,000	0,026	0,121
-517,131	19,167	-0,036	-0,021
-516,116	189,872	0,063	-0,068
-515,102	-100,791	0,150	-0,026
-514,087	481,650	-0,065	0,106
-513,072	-92,713	-0,176	0,035
-512,058	800,000	-0,018	-0,048
-511,043	-200,000	-0,012	-0,052
-510,029	349,223	0,101	0,145
-509,014	-163,774	-0,047	0,002
-507,999	800,000	-0,043	0,103
-506,985	323,962	-0,091	-0,125
-505,970	-74,820	-0,163	-0,042
-504,956	-200,000	-0,010	-0,058
-503,941	413,859	0,028	-0,043
-502,926	-129,759	-0,147	0,014
-501,912	-34,861	0,055	0,021
-500,897	-94,495	-0,076	-0,015
-499,883	7,383	0,113	0,060
-498,868	47,282	0,106	-0,071
-497,853	-200,000	-0,011	0,123
-496,839	556,743	-0,033	-0,057
-495,824	800,000	-0,015	0,035
-494,810	-154,625	0,086	-0,004
-493,795	206,465	-0,088	0,099
-492,781	39,978	-0,108	0,070
-491,766	800,000	-0,068	-0,153
-490,751	-200,000	0,012	0,055
-489,737	800,000	0,035	0,100
-488,722	-37,572	0,062	-0,024
-487,708	800,000	0,049	-0,118
-486,693	800,000	-0,051	0,161
-485,678	256,412	-0,035	0,043
-484,664	800,000	-0,027	-0,066
-483,649	-102,894	-0,219	0,037
-482,635	16,210	0,102	0,057
-481,620	-132,895	-0,073	0,007
-480,605	103,754	0,037	-0,032
-479,591	-63,343	-0,028	0,008
-478,576	115,458	-0,053	-0,047
-477,562	2,756	-0,100	-0,052
-476,547	-200,000	-0,017	-0,096
-475,532	-119,044	0,148	-0,018
-474,518	-68,861	0,061	0,017
-473,503	656,080	-0,020	0,037
-472,489	-90,554	-0,091	0,019
-471,474	-200,000	0,006	0,115
-470,459	434,978	-0,045	-0,070
-469,445	800,000	-0,034	-0,084
-468,430	-200,000	-0,025	-0,100
-467,416	-6,183	0,097	-0,048
-466,401	-17,629	0,118	0,053
-465,386	756,512	0,044	0,085
-464,372	-69,170	-0,043	-0,012
-463,357	306,720	-0,118	0,159
-462,343	-118,575	-0,137	0,017
-461,328	11,523	0,164	-0,090
-460,313	800,000	-0,027	0,075
-459,299	-155,242	-0,059	-0,003
-458,284	23,223	0,066	-0,039
-457,270	800,000	0,022	-0,053
-456,255	358,540	0,030	-0,044
-455,241	-35,445	-0,101	-0,039
-454,226	-200,000	-0,005	-0,041
-453,211	-74,332	0,123	0,032
-452,197	463,721	-0,038	0,061
-451,182	757,057	0,019	-0,037
-450,168	361,604	-0,077	0,112
-449,153	36,505	-0,027	0,017
-448,138	-78,776	-0,101	-0,025
-447,124	-200,000	-0,016	0,129
-446,109	43,224	-0,078	0,051
-445,095	-122,770	0,130	0,015
-444,080	800,000	0,019	0,039
-443,065	151,770	-0,037	0,036
-442,051	-62,559	-0,051	-0,015
-441,036	174,717	0,067	0,070
-440,022	-200,000	-0,030	0,135
-439,007	-39,711	-0,117	-0,044
-437,992	214,425	0,052	-0,059
-436,978	800,000	0,022	0,064
-435,963	392,059	0,045	0,067
-434,949	-200,000	0,004	0,060
-433,934	347,932	-0,079	-0,113
-432,919	200,319	-0,101	-0,112
-431,905	-150,767	-0,063	-0,003
-430,890	-200,000	-0,055	-0,191
-429,876	13,625	0,097	0,054
-428,861	-35,328	0,048	-0,019
-427,846	-156,296	0,072	-0,003
-426,832	14,609	-0,140	-0,079
-425,817	113,038	0,047	0,041
-424,803	-50,631	0,054	0,018
-423,788	164,297	0,052	0,052
-422,773	40,055	-0,063	0,041
-421,759	800,000	0,065	0,159
-420,744	278,488	-0,024	0,031
-419,730	-200,000	-0,000	-0,034
-418,715	82,815	-0,052	0,041
-417,701	-200,000	-0,008	-0,153
-416,686	702,713	-0,033	0,063
-415,671	18,543	0,115	-0,066
-414,657	800,000	0,030	0,089
-413,642	75,594	0,037	0,028
-412,628	-200,000	0,013	-0,139
-411,613	-200,000	0,018	-0,199
-410,598	-187,171	-0,101	-0,001
-409,584	466,998	0,062	-0,101
-408,569	-117,388	-0,082	0,010
-407,555	-200,000	0,015	-0,059
-406,540	-135,959	-0,134	0,011
-405,525	-160,594	0,248	0,009
-404,511	252,570	0,038	-0,047
-403,496	101,388	0,142	-0,119
-402,482	-83,012	-0,129	-0,030
-401,467	282,116	-0,043	0,056
-400,452	-15,692	0,052	0,024
-399,438	-200,000	0,012	0,118
-398,423	463,188	0,026	-0,042
-397,409	-177,824	0,131	0,002
-396,394	-200,000	-0,025	-0,105
-395,379	-164,218	-0,075	0,002
-394,365	-47,096	0,068	0,024
-393,350	-200,000	0,021	-0,081
-392,336	-200,000	0,004	0,013
-391,321	300,303	0,056	-0,074
-390,306	143,006	0,096	-0,092
-389,292	-200,000	-0,011	-0,166
-388,277	-29,070	-0,056	-0,023
-387,263	321,590	0,019	0,025
-386,248	800,000	-0,064	0,137
-385,233	131,572	0,071	0,065
-384,219	70,156	-0,088	0,065
-383,204	-200,000	0,003	-0,137
-382,190	241,553	0,065	-0,079
-381,175	800,000	0,044	0,097
-380,160	61,436	0,107	0,076
-379,146	-56,633	0,085	0,027
-378,131	800,000	0,019	0,044
-377,117	-200,000	0,018	0,077
-376,102	-200,000	0,014	0,066
-375,088	-51,854	0,100	-0,033
-374,073	-200,000	0,018	0,148
-373,058	-61,746	0,123	0,037
-372,044	-131,098	0,118	-0,011
-371,029	-111,970	0,089	0,013
-370,015	-200,000	-0,035	0,129
-369,000	-200,000	-0,006	-0,026
-367,985	-98,298	-0,136	-0,025
-366,971	800,000	0,025	-0,076
-365,956	-160,455	-0,097	0,004
-364,942	-112,620	0,075	-0,011
-363,927	-72,396	0,177	0,047
-362,912	490,213	-0,082	0,136
-361,898	99,035	-0,103	0,085
-360,883	-2,287	-0,062	-0,031
-359,869	-64,767	-0,167	-0,048
-358,854	-103,918	0,132	0,022
-357,839	-129,780	-0,049	-0,005
-356,825	-200,000	-0,042	0,134
-355,810	-73,523	-0,084	0,022
-354,796	-102,940	0,066	0,011
-353,781	800,000	-0,035	-0,075
-352,766	-88,612	0,039	-0,008
-351,752	800,000	0,051	0,126
-350,737	-75,984	0,149	-0,037
-349,723	271,490	-0,118	0,149
-348,708	402,396	-0,032	-0,049
-347,693	191,846	0,058	-0,063
-346,679	521,081	-0,050	-0,085
-345,664	-200,000	0,037	0,000
-344,650	-200,000	0,002	-0,034
-343,635	68,226	-0,092	-0,068
-342,620	-93,828	0,122	0,024
-341,606	591,407	0,042	0,075
-340,591	-63,810	0,116	0,034
-339,577	406,034	0,118	-0,179
-338,562	144,348	-0,090	-0,086
-337,548	8,268	0,023	-0,012
-336,533	71,604	0,133	0,099
-335,518	57,642	0,139	0,097
-334,504	-200,000	-0,011	0,045
-333,489	42,924	0,111	-0,072
-332,475	171,204	-0,099	0,102
-331,460	650,734	-0,025	-0,046
-330,445	-200,000	-0,007	-0,120
-329,431	-45,938	0,080	0,028
-328,416	800,000	0,091	0,212
-327,402	-63,072	-0,087	-0,025
-326,387	4,709	-0,040	0,021
-325,372	39,619	-0,009	0,006
-324,358	-123,093	0,102	-0,012
-323,343	-47,286	-0,083	0,029
-322,329	28,904	0,109	0,066
-321,314	20,399	-0,113	0,065
-320,299	12,108	0,092	0,051
-319,285	258,219	0,055	0,068
-318,270	-56,638	-0,078	0,024
-317,256	43,221	0,049	-0,032
-316,241	-200,000	0,001	0,080
-315,226	-200,000	-0,005	-0,056
-314,212	-200,000	-0,010	0,066
-313,197	-200,000	-0,017	0,160
-312,183	17,350	-0,067	0,038
-311,168	800,000	-0,023	-0,073
-310,153	203,866	-0,037	0,041
-309,139	-200,000	0,000	-0,002
-308,124	24,535	0,054	0,032
-307,110	81,539	0,114	-0,088
-306,095	239,923	0,043	0,052
-305,080	-200,000	-0,010	0,106
-304,066	378,298	-0,068	0,099
-303,051	79,148	0,065	-0,049
-302,037	-40,184	0,120	0,044
-301,022	-69,905	0,116	0,031
-300,008	239,405	0,030	0,036
-298,993	45,739	0,070	0,046
-297,978	-200,000	0,027	0,105
-296,964	-200,000	0,007	0,190
-295,949	800,000	0,074	-0,182
-294,935	-200,000	0,031	-0,182
-293,920	800,000	0,023	0,065
-292,905	-172,509	0,171	-0,004
-291,891	-200,000	-0,034	-0,115
-290,876	-93,018	0,056	-0,011
-289,862	146,748	-0,101	-0,097
-288,847	-10,818	0,059	-0,028
-287,832	406,166	0,086	-0,130
-286,818	307,731	-0,042	-0,056
-285,803	578,540	0,097	0,170
-284,789	800,000	-0,036	-0,090
-283,774	305,257	-0,051	0,068
-282,759	95,013	-0,085	-0,069
-281,745	-66,405	-0,159	-0,045
-280,730	-200,000	-0,022	0,077
-279,716	-46,788	-0,062	-0,022
-278,701	175,182	0,053	-0,055
-277,686	49,699	0,062	0,042
-276,672	584,732	-0,035	0,062
-275,657	800,000	-0,021	-0,060
-274,643	-200,000	-0,029	-0,094
-273,628	800,000	-0,053	-0,143
-272,613	33,435	-0,120	0,074
-271,599	-200,000	0,011	0,179
-270,584	-200,000	0,033	0,106
-269,570	-61,259	0,129	0,039
-268,555	213,011	-0,071	0,081
-267,540	-98,690	0,055	0,010
-266,526	-200,000	0,002	-0,048
-265,511	-200,000	-0,028	-0,131
-264,497	-158,026	0,105	-0,004
-263,482	579,795	0,059	0,104
-262,467	-64,562	0,085	-0,025
-261,453	-200,000	-0,031	-0,150
-260,438	79,799	-0,047	0,036
-259,424	800,000	-0,024	-0,052
-258,409	-130,510	0,096	-0,009
-257,395	-51,608	-0,115	-0,038
-256,380	-200,000	-0,031	-0,140
-255,365	274,653	-0,066	0,083
-254,351	116,028	-0,048	-0,042
-253,336	-200,000	0,042	-0,145
-252,322	26,862	0,074	-0,044
-251,307	800,000	-0,021	-0,053
-250,292	-166,637	-0,115	-0,003
-249,278	-200,000	-0,020	0,082
-248,263	-200,000	-0,000	0,030
-247,249	267,616	-0,047	-0,058
-246,234	-96,584	0,118	0,022
-245,219	800,000	0,069	-0,182
-244,205	60,522	-0,117	-0,083
-243,190	-200,000	0,008	0,072
-242,176	-200,000	-0,004	0,022
-241,161	-116,368	0,026	-0,003
-240,146	-200,000	0,009	-0,071
-239,132	612,994	-0,013	0,024
-238,117	-97,651	0,071	-0,013
-237,103	800,000	0,035	-0,081
-236,088	800,000	0,038	-0,089
-235,073	556,625	-0,018	-0,031
-234,059	217,560	0,052	0,059
-233,044	-200,000	-0,040	0,224
-232,030	-117,382	0,025	0,003
-231,015	800,000	0,036	-0,087
-230,000	-200,000	0,026	-0,120
-228,986	-173,509	0,084	0,002
-227,971	45,793	0,045	-0,030
-226,957	187,739	0,065	0,069
-225,942	428,747	-0,034	0,053
-224,927	341,158	0,131	0,183
-223,913	-200,000	-0,021	-0,107
-222,898	129,421	0,071	-0,064
-221,884	407,435	0,034	-0,051
-220,869	496,892	-0,017	-0,028
-219,855	-200,000	-0,003	0,074
-218,840	49,734	0,170	0,114
-217,825	-200,000	-0,003	-0,153
-216,811	-169,329	-0,166	-0,004
-215,796	-72,596	0,070	0,018
-214,782	-101,383	-0,189	-0,033
-213,767	-200,000	-0,021	-0,136
-212,752	-140,185	0,065	0,005
-211,738	120,274	0,008	0,007
-210,723	-51,567	-0,109	-0,036
-209,709	800,000	0,018	0,048
-208,694	-44,248	-0,102	0,036
-207,679	18,043	0,039	-0,022
-206,665	-200,000	-0,001	0,089
-205,650	800,000	0,033	-0,081
-204,636	-200,000	-0,006	-0,080
-203,621	-200,000	-0,023	-0,093
-202,606	44,815	-0,160	-0,105
-201,592	159,853	-0,087	-0,086
-200,577	684,111	-0,056	0,105
-199,563	-200,000	-0,011	0,055
-198,548	48,835	-0,069	-0,046
-197,533	346,257	0,070	0,099
-196,519	262,129	0,069	0,085
-195,504	-200,000	0,005	0,055
-194,490	-123,017	-0,169	0,019
-193,475	240,977	-0,036	0,043
-192,460	186,446	0,051	-0,054
-191,446	800,000	0,043	-0,114
-190,431	548,344	0,017	0,029
-189,417	-156,623	-0,050	0,002
-188,402	156,385	0,074	0,073
-187,387	-120,568	0,072	0,009
-186,373	-200,000	-0,001	0,014
-185,358	-200,000	0,014	0,061
-184,344	800,000	0,043	-0,105
-183,329	-154,548	0,176	-0,008
-182,315	-46,351	0,039	-0,014
-181,300	-200,000	0,005	0,020
-180,285	26,225	0,050	-0,030
-179,271	-200,000	0,015	-0,084
-178,256	800,000	-0,034	0,093
-177,242	-200,000	-0,028	0,108
-176,227	-200,000	0,034	-0,138
-175,212	800,000	-0,066	-0,135
-174,198	404,999	0,036	-0,054
-173,183	-200,000	-0,013	-0,044
-172,169	-102,563	-0,050	0,008
-171,154	178,061	-0,045	-0,047
-170,139	-80,785	0,091	-0,021
-169,125	-194,921	0,100	-0,001
-168,110	-97,820	0,016	0,003
-167,096	-200,000	0,007	-0,072
-166,081	124,103	-0,057	0,051
-165,066	-200,000	0,015	-0,143
-164,052	-103,827	-0,111	-0,018
-163,037	-65,517	-0,140	-0,040
-162,023	-108,555	-0,127	0,019
-161,008	168,227	0,063	-0,064
-159,993	119,306	0,126	0,111
-158,979	235,531	0,054	-0,063
-157,964	557,597	0,058	-0,100
-156,950	-28,507	0,082	-0,033
-155,935	-167,186	0,067	0,002
-154,920	-200,000	0,056	0,192
-153,906	-62,739	-0,060	0,018
-152,891	800,000	-0,053	0,131
-151,877	800,000	-0,035	0,106
-150,862	800,000	-0,035	-0,072
-149,847	-106,217	-0,076	-0,012
-148,833	-147,503	-0,011	-0,001
-147,818	800,000	0,048	0,103
-146,804	-200,000	0,001	0,057
-145,789	47,582	0,093	0,062
-144,775	-200,000	0,038	0,128
-143,760	118,137	0,056	-0,049
-142,745	-53,904	-0,066	-0,021
-141,731	-7,618	0,094	0,045
-140,716	-77,580	-0,004	-0,001
-139,702	800,000	-0,018	0,055
-138,687	-158,575	0,022	0,001
-137,672	-19,586	-0,043	0,019
-136,658	23,376	0,050	0,029
-135,643	-200,000	0,002	0,059
-134,629	-200,000	0,025	0,098
-133,614	371,480	0,085	0,123
-132,599	-200,000	-0,009	0,039
-131,585	88,718	0,031	0,024
-130,570	117,471	-0,105	-0,092
-129,556	600,963	-0,037	-0,066
-128,541	800,000	-0,043	-0,133
-127,526	85,828	-0,131	-0,102
-126,512	102,080	-0,074	0,062
-125,497	-200,000	0,011	0,163
-124,483	261,339	-0,067	0,082
-123,468	686,946	-0,068	0,126
-122,453	20,547	-0,157	0,090
-121,439	-81,460	-0,051	0,012
-120,424	-45,342	-0,136	0,048
-119,410	-200,000	-0,013	0,169
-118,395	-200,000	-0,023	0,108
-117,380	-200,000	-0,038	0,157
-116,366	-200,000	0,007	-0,026
-115,351	129,360	-0,084	-0,076
-114,337	800,000	-0,044	-0,113
-113,322	-200,000	-0,012	-0,079
-112,307	133,450	0,028	-0,026
-111,293	800,000	0,061	0,130
-110,278	-200,000	-0,024	0,098
-109,264	-124,925	0,131	0,014
-108,249	-200,000	-0,015	-0,085
-107,234	-10,544	-0,130	-0,061
-106,220	330,353	-0,054	-0,074
-105,205	140,212	0,066	0,061
-104,191	800,000	0,041	-0,098
-103,176	410,922	0,096	0,145
-102,162	4,222	0,122	-0,063
-101,147	-12,089	-0,181	-0,084
-100,132	30,742	-0,095	0,058
-99,118	-200,000	-0,005	-0,088
-98,103	-57,777	0,181	0,056
-97,089	-200,000	-0,004	0,049
-96,074	800,000	0,018	0,047
-95,059	515,944	-0,050	0,082
-94,045	140,513	-0,042	-0,040
-93,030	-200,000	-0,047	-0,213
-92,016	-200,000	0,043	-0,152
-91,001	212,665	-0,091	0,102
-89,986	-144,952	0,112	-0,007
-88,972	194,381	0,165	0,177
-87,957	-166,584	-0,153	-0,004
-86,943	4,905	-0,030	0,015
-85,928	247,379	-0,049	-0,059
-84,913	800,000	0,010	0,021
-83,899	448,694	-0,022	0,034
-82,884	40,899	0,062	-0,040
-81,870	349,481	0,057	0,080
-80,855	-200,000	-0,054	0,193
-79,840	50,785	-0,065	-0,043
-78,826	98,011	-0,053	-0,044
-77,811	50,723	-0,019	0,013
-76,797	109,141	-0,025	0,021
-75,782	68,141	0,050	-0,036
-74,767	800,000	0,047	0,110
-73,753	17,845	0,026	0,015
-72,738	-2,894	-0,039	-0,019
-71,724	-70,658	-0,178	0,047
-70,709	-200,000	0,004	-0,028
-69,694	406,550	0,073	0,110
-68,680	148,019	-0,023	-0,022
-67,665	-200,000	0,012	0,104
-66,651	109,545	0,107	0,091
-65,636	-53,174	0,099	-0,032
-64,622	32,581	-0,152	-0,093
-63,607	-200,000	-0,014	-0,101
-62,592	106,440	0,058	-0,049
-61,578	-131,876	-0,040	-0,004
-60,563	696,737	-0,029	0,055
-59,549	41,883	-0,026	0,017
-58,534	-27,830	-1,585	-0,648
-57,519	376,754	-1,330	-1,928
-56,505	-200,000	-0,552	-4,461
-55,490	339,958	0,901	1,247
-54,476	800,000	4,660	11,083
-53,461	-200,000	19,229	319,890
-52,446	-200,000	740,123	2335,323
-51,432	574,325	1655,221	2871,074
-50,417	78,367	1671,170	1262,590
-49,403	21,325	1544,057	885,971
-48,388	15,198	1466,539	811,685
-47,373	17,981	1456,810	819,723
-46,359	16,719	1446,773	807,992
-45,344	13,467	1442,027	789,725
-44,330	13,342	1440,024	787,999
-43,315	13,389	1438,283	787,237
-42,300	13,427	1436,500	786,415
-41,286	13,428	1435,344	785,753
-40,271	13,378	1433,954	784,724
-39,257	13,399	1432,787	784,153
-38,242	13,409	1431,392	783,405
-37,227	13,453	1430,219	782,943
-36,213	13,421	1429,158	782,179
-35,198	13,389	1427,813	781,258
-34,184	13,482	1426,822	781,127
-33,169	13,397	1425,619	780,033
-32,154	13,458	1424,399	779,625
-31,140	13,458	1423,196	778,936
-30,125	13,488	1421,950	778,363
-29,111	13,407	1421,142	777,510
-28,096	13,443	1419,938	776,991
-27,082	13,436	1418,573	776,181
-26,067	13,347	1417,562	775,176
-25,052	13,400	1416,561	774,844
-24,038	13,335	1415,646	774,010
-23,023	13,377	1414,341	773,464
-22,009	13,375	1413,620	773,028
-20,994	13,336	1412,838	772,385
-19,979	13,328	1411,687	771,689
-18,965	13,347	1410,814	771,269
-17,950	13,292	1410,008	770,544
-16,936	13,340	1409,004	770,189
-15,921	13,277	1407,931	769,277
-14,906	13,279	1407,076	768,787
-13,892	13,308	1405,933	768,267
-12,877	13,292	1405,130	767,724
-11,863	13,319	1404,198	767,309
-10,848	13,285	1403,305	766,631
-9,833	13,219	1402,678	765,954
-8,819	13,197	1401,851	765,368
-7,804	13,175	1400,699	764,607
-6,790	13,170	1399,781	764,053
-5,775	13,193	1398,644	763,509
-4,760	13,176	1397,550	762,802
-3,746	13,162	1396,868	762,332
-2,731	13,136	1396,123	761,777
-1,717	13,135	1394,958	761,106
-0,702	13,140	1393,343	760,215
0,313	17,019	1310,155	732,795
1,327	33,147	704,197	431,176
2,342	51,317	123,326	82,720
3,356	0,777	16,600	8,382
4,371	21,100	3,167	1,813
5,386	-9,945	0,655	0,307
6,400	-200,000	0,068	0,224
7,415	308,142	-0,274	-0,362
8,429	28,516	-0,356	-0,212
9,444	31,095	-0,167	-0,101
10,459	5,235	-0,236	-0,123
11,473	59,864	-0,298	-0,208
12,488	223,927	-0,190	-0,218
13,502	62,626	-0,257	-0,182
14,517	3,986	-0,324	-0,167
15,531	-65,145	-0,440	-0,125
16,546	-0,539	-0,364	-0,182
17,561	191,382	-0,321	-0,342
18,575	-58,448	-0,141	-0,043
19,590	70,344	-0,164	-0,119
20,604	3,378	-0,256	-0,131
21,619	91,697	-0,425	-0,338
22,634	272,166	-0,379	-0,473
23,648	-24,560	-0,434	-0,182
24,663	139,576	-0,321	-0,299
25,677	-65,949	-0,340	-0,095
26,692	126,106	-0,394	-0,352
27,707	267,595	-0,182	-0,226
28,721	148,672	-0,332	-0,316
29,736	20,822	-0,404	-0,230
30,750	57,939	-0,517	-0,357
31,765	95,706	-0,321	-0,258
32,780	163,329	-0,278	-0,276
33,794	148,504	-0,295	-0,282
34,809	110,758	-0,409	-0,347
35,823	112,505	-0,312	-0,266
36,838	61,553	-0,394	-0,276
37,853	319,014	-0,352	-0,472
38,867	220,037	-0,326	-0,369
39,882	98,379	-0,336	-0,273
40,896	-9,422	-0,342	-0,161
41,911	80,552	-0,149	-0,113
42,926	79,591	-0,452	-0,342
43,940	53,780	-0,372	-0,251
44,955	141,114	-0,425	-0,396
45,969	42,403	-0,466	-0,298
46,984	142,913	-0,403	-0,378
47,999	411,501	-0,172	-0,259
49,013	-65,850	-0,379	-0,106
50,028	-4,174	-0,391	-0,190
51,042	44,648	-0,219	-0,142
52,057	-10,420	-0,367	-0,171
53,071	186,183	-0,301	-0,316
54,086	-106,951	-0,319	-0,049
55,101	58,459	-0,343	-0,236
56,115	65,352	-0,440	-0,313
57,130	34,531	-0,245	-0,151
58,144	102,266	-0,376	-0,309
59,159	11,503	-0,346	-0,186
60,174	216,912	-0,390	-0,438
61,188	15,217	-0,335	-0,185
62,203	76,258	-0,228	-0,170
63,217	55,705	-0,384	-0,262
64,232	178,351	-0,192	-0,198
65,247	72,396	-0,397	-0,291
66,261	69,459	-0,383	-0,277
67,276	119,479	-0,417	-0,363
68,290	45,394	-0,290	-0,188
69,305	49,997	-0,363	-0,241
70,320	-12,086	-0,353	-0,162
71,334	-63,608	-0,298	-0,085
72,349	-9,724	-0,358	-0,167
73,363	-63,037	-0,421	-0,121
74,378	45,183	-0,366	-0,237
75,393	48,612	-0,347	-0,228
76,407	22,700	-0,291	-0,167
77,422	90,769	-0,230	-0,181
78,436	61,504	-0,307	-0,215
79,451	444,874	-0,201	-0,312
80,466	108,667	-0,318	-0,267
81,480	171,260	-0,311	-0,314
82,495	-19,687	-0,371	-0,161
83,509	101,034	-0,278	-0,227
84,524	-116,055	-0,374	-0,048
85,539	-125,921	-0,346	-0,036
86,553	-92,313	-0,238	-0,047
87,568	-18,135	-0,375	-0,164
88,582	173,654	-0,208	-0,211
89,597	34,566	-0,349	-0,213
90,611	-84,538	-0,424	-0,093
91,626	96,818	-0,325	-0,261
92,641	168,166	-0,275	-0,275
93,655	-189,842	-0,341	0,003
94,670	15,022	-0,277	-0,152
95,684	39,446	-0,299	-0,188
96,699	172,569	-0,226	-0,229
97,714	-11,192	-0,257	-0,118
98,728	-77,753	-0,177	-0,043
99,743	50,803	-0,212	-0,140
100,757	-36,486	-0,230	-0,086
101,772	-26,890	-0,409	-0,167
102,787	50,399	-0,260	-0,172
103,801	-38,406	-0,407	-0,150
104,816	158,706	-0,302	-0,294
105,830	41,753	-0,127	-0,081
106,845	16,568	-0,241	-0,133
107,860	-11,135	-0,289	-0,133
108,874	95,717	-0,217	-0,174
109,889	5,936	-0,260	-0,135
110,903	135,559	-0,277	-0,253
111,918	-6,050	-0,158	-0,075
112,933	24,304	-0,219	-0,126
113,947	84,659	-0,169	-0,129
114,962	10,374	-0,257	-0,137
115,976	90,110	-0,202	-0,158
116,991	180,042	-0,227	-0,234
118,006	-7,037	-0,438	-0,208
119,020	800,000	0,051	-0,119
120,035	82,196	-0,185	-0,140
121,049	-70,944	-0,245	-0,064
122,064	13,147	-0,241	-0,130
123,079	-42,028	-0,209	-0,075
124,093	-30,075	-0,323	-0,128
125,108	-14,535	-0,359	-0,161
126,122	7,288	-0,215	-0,112
127,137	3,802	-0,196	-0,100
128,151	800,000	-0,127	-0,260
129,166	71,137	-0,344	-0,249
130,181	-11,160	-0,163	-0,075
131,195	-40,141	-0,425	-0,154
132,210	30,360	-0,315	-0,188
133,224	152,815	-0,272	-0,261
134,239	76,239	-0,259	-0,191
135,254	-46,003	-0,212	-0,073
136,268	101,888	-0,241	-0,196
137,283	120,616	-0,111	-0,096
138,297	800,000	-0,097	-0,207
139,312	-37,992	-0,247	-0,091
140,327	166,667	-0,312	-0,309
141,341	-13,707	-0,235	-0,106
142,356	113,712	-0,223	-0,190
143,370	237,435	-0,195	-0,226
144,385	173,031	-0,215	-0,216
145,400	15,893	-0,245	-0,134
146,414	234,297	-0,226	-0,260
147,429	-14,356	-0,280	-0,125
148,443	42,749	-0,217	-0,138
149,458	157,167	-0,238	-0,230
150,473	-76,427	-0,096	-0,023
151,487	46,449	-0,351	-0,227
152,502	46,893	-0,326	-0,212
153,516	247,493	-0,242	-0,286
154,531	-71,150	-0,230	-0,060
155,546	39,271	-0,190	-0,118
156,560	-17,098	-0,335	-0,147
157,575	-135,494	-0,188	-0,015
158,589	-98,881	-0,297	-0,052
159,604	10,164	-0,278	-0,147
160,619	44,248	-0,182	-0,116
161,633	77,155	-0,184	-0,137
162,648	93,211	-0,267	-0,211
163,662	13,750	-0,183	-0,099
164,677	158,580	-0,291	-0,282
165,692	242,096	-0,149	-0,174
166,706	24,879	-0,190	-0,110
167,721	358,495	-0,160	-0,224
168,735	54,867	-0,284	-0,191
169,750	118,822	-0,203	-0,175
170,764	-83,617	-0,218	-0,048
171,779	543,300	-0,087	-0,146
172,794	47,120	-0,229	-0,148
173,808	-147,874	-0,249	-0,014
174,823	99,665	-0,259	-0,209
175,837	62,224	-0,208	-0,145
176,852	1,278	-0,126	-0,063
177,867	85,114	-0,224	-0,171
178,881	77,732	-0,161	-0,120
179,896	26,623	-0,209	-0,121
180,910	54,141	-0,239	-0,160
181,925	36,214	-0,364	-0,223
182,940	111,471	-0,241	-0,203
183,954	12,931	-0,264	-0,142
184,969	612,846	-0,114	-0,199
185,983	-200,000	-0,022	-0,124
186,998	-121,186	-0,191	-0,022
188,013	15,648	-0,224	-0,122
189,027	130,952	-0,247	-0,220
190,042	83,184	-0,201	-0,152
191,056	56,936	-0,259	-0,175
192,071	50,291	-0,177	-0,116
193,086	-46,184	-0,196	-0,067
194,100	44,372	-0,229	-0,146
195,115	68,918	-0,188	-0,135
196,129	-12,907	-0,248	-0,112
197,144	-53,365	-0,220	-0,070
198,159	-16,921	-0,267	-0,117
199,173	86,060	-0,198	-0,151
200,188	78,032	-0,114	-0,084
201,202	-30,805	-0,101	-0,040
202,217	160,658	-0,179	-0,174
203,232	99,718	-0,080	-0,064
204,246	-71,517	-0,281	-0,072
205,261	429,260	-0,120	-0,181
206,275	17,965	-0,207	-0,115
207,290	31,071	-0,208	-0,124
208,304	665,598	-0,116	-0,209
209,319	800,000	-0,082	-0,184
210,334	208,312	-0,190	-0,206
211,348	25,536	-0,303	-0,174
212,363	42,853	-0,307	-0,194
213,377	-86,915	-0,211	-0,044
214,392	-112,414	-0,210	0,029
215,407	110,768	-0,199	-0,166
216,421	5,942	-0,135	-0,069
217,436	233,432	-0,244	-0,280
218,450	346,224	-0,170	-0,233
219,465	467,993	-0,188	-0,294
220,480	21,321	-0,183	-0,103
221,494	800,000	-0,085	-0,184
222,509	652,716	-0,121	-0,217
223,523	183,297	-0,120	-0,123
224,538	-96,264	-0,331	-0,060
225,553	22,368	-0,300	-0,170
226,567	-40,999	-0,214	-0,076
227,582	2,522	-0,208	-0,104
228,596	-10,021	-0,133	-0,061
229,611	155,742	-0,142	-0,135
230,626	-6,063	-0,128	-0,061
231,640	22,240	-0,242	-0,137
232,655	77,739	-0,233	-0,172
233,669	93,141	-0,252	-0,198
234,684	-155,136	-0,220	-0,010
235,699	143,754	-0,216	-0,200
236,713	13,122	-0,178	-0,095
237,728	-12,856	-0,164	-0,074
238,742	62,818	-0,121	-0,084
239,757	86,972	-0,214	-0,164
240,772	139,792	-0,234	-0,214
241,786	-91,163	-0,228	-0,045
242,801	21,326	-0,113	-0,063
243,815	124,003	-0,206	-0,179
244,830	299,525	-0,151	-0,193
245,844	-33,817	-0,292	-0,111
246,859	148,808	-0,215	-0,202
247,874	201,019	-0,187	-0,199
248,888	70,862	-0,225	-0,161
249,903	-32,273	-0,090	0,034
250,917	-14,224	-0,157	-0,070
251,932	-110,505	-0,143	-0,020
252,947	-111,695	-0,202	0,028
253,961	-41,715	-0,192	-0,068
254,976	304,736	-0,159	-0,205
255,990	-64,110	-0,306	-0,086
257,005	800,000	-0,048	-0,095
258,020	-44,112	-0,190	-0,066
259,034	3,718	-0,120	0,060
260,049	-46,363	-0,116	-0,039
261,063	-95,244	-0,233	-0,043
262,078	324,718	-0,120	-0,160
263,093	48,984	-0,170	-0,110
264,107	-64,488	-0,095	-0,027
265,122	324,867	-0,075	-0,100
266,136	-77,389	-0,188	-0,045
267,151	-118,376	-0,139	-0,017
268,166	-200,000	-0,024	-0,106
269,180	-72,167	-0,308	-0,079
270,195	-200,000	-0,028	-0,167
271,209	15,624	-0,212	-0,115
272,224	-48,687	-0,180	-0,059
273,239	-98,332	-0,126	-0,022
274,253	127,772	-0,154	-0,135
275,268	340,579	-0,104	-0,140
276,282	209,205	-0,196	-0,213
277,297	1,966	-0,209	-0,104
278,312	263,225	-0,137	-0,164
279,326	800,000	-0,135	-0,303
280,341	80,009	-0,029	-0,021
281,355	119,693	-0,168	-0,144
282,370	117,405	-0,137	-0,116
283,384	24,068	-0,206	-0,117
284,399	20,412	-0,225	-0,125
285,414	-0,224	-0,128	-0,063
286,428	315,748	0,071	-0,093
287,443	118,294	-0,133	-0,113
288,457	-13,620	-0,203	-0,090
289,472	188,239	-0,099	-0,102
290,487	114,331	-0,173	-0,145
291,501	248,107	-0,113	-0,133
292,516	167,090	-0,175	-0,171
293,530	-3,624	-0,151	-0,072
294,545	-92,638	-0,230	-0,044
295,560	-39,023	-0,157	-0,057
296,574	153,294	-0,100	-0,094
297,589	172,622	-0,168	-0,167
298,603	-157,786	-0,184	0,007
299,618	-52,125	-0,174	-0,055
300,633	116,555	-0,205	-0,173
301,647	386,407	-0,048	-0,069
302,662	3,311	-0,129	-0,065
303,676	-52,709	-0,118	-0,037
304,691	-200,000	-0,032	-0,110
305,706	13,336	-0,182	-0,097
306,720	134,014	-0,124	-0,111
307,735	-109,095	-0,065	0,009
308,749	158,911	-0,046	-0,044
309,764	306,961	-0,158	-0,203
310,779	-82,943	-0,130	0,029
311,793	-76,280	-0,249	-0,060
312,808	-60,044	-0,248	-0,072
313,822	800,000	-0,089	-0,201
314,837	288,939	-0,108	-0,135
315,852	-26,763	-0,111	-0,044
316,866	-115,683	-0,154	-0,020
317,881	-61,413	-0,142	-0,041
318,895	177,020	-0,135	-0,135
319,910	265,341	0,129	-0,156
320,925	115,757	-0,206	-0,173
321,939	232,444	-0,097	-0,110
322,954	140,398	-0,201	-0,183
323,968	750,077	-0,087	-0,161
324,983	78,594	0,034	-0,025
325,997	-60,811	-0,195	-0,056
327,012	29,382	-0,183	-0,107
328,027	211,593	-0,235	-0,255
329,041	152,020	-0,186	-0,174
330,056	77,313	-0,111	-0,081
331,070	222,702	-0,108	-0,120
332,085	-137,222	-0,175	0,014
333,100	-60,857	-0,033	0,010
334,114	-20,113	-0,185	-0,078
335,129	-83,695	-0,205	-0,045
336,143	-39,950	-0,196	-0,070
337,158	800,000	-0,046	-0,113
338,173	-93,754	-0,085	0,016
339,187	-94,998	-0,180	-0,033
340,202	-165,444	-0,257	0,008
341,216	-31,198	-0,175	-0,067
342,231	7,174	-0,251	-0,128
343,246	27,820	-0,172	-0,099
344,260	156,908	-0,235	-0,223
345,275	-200,000	-0,013	-0,074
346,289	5,753	-0,089	-0,045
347,304	195,938	-0,056	0,059
348,319	800,000	-0,091	-0,214
349,333	147,211	-0,166	-0,154
350,348	22,597	-0,164	-0,092
351,362	-70,996	-0,085	-0,022
352,377	402,354	-0,112	-0,162
353,392	57,286	-0,125	0,084
354,406	-130,418	-0,174	0,016
355,421	208,653	1316,518	1414,782
356,435	160,552	1477,475	1415,270
