DTS Sentinel unit serial number:	SN410029Multiplexer serial number:	ORYXHardware model number:	OX2-SRSoftware version number:	ORYX F/W v4,00 Oryx Data Collector v3.7.2.0data status	okinstallation	B3 Nyhavnadifferential loss correction	single-endedforward channel	channel 1reverse channel	N/Adate	2023/12/02time	18:07:30forward acquisition time	300,00reverse acquisition time	0,00gamma	499,1914k internal	0,3199k external	0,3199temperature offset calibration	1,0000default loss term (dB/km)	0,3820temperature slope calibration	1,0000multiplexer offset coefficient	1,0000multiplexer slope coefficient	1,0000fibre end	0,00T internal ref (°C)	13,66T ext. ref 1 (°C)	-1,62T ext. ref 2 (°C)	-1,63length (m)	temperature (°C)	Stokes	anti-Stokes-744,400	800,000	-0,125	-0,391
-743,385	-200,000	-0,054	0,306
-742,371	460,963	-0,167	-0,272
-741,356	-200,000	0,035	0,141
-740,342	402,838	-0,163	-0,250
-739,327	-200,000	-0,008	0,312
-738,312	69,252	-0,153	-0,114
-737,298	-200,000	0,038	0,171
-736,283	445,212	-0,221	-0,355
-735,269	-200,000	0,062	0,265
-734,254	274,927	-0,156	-0,201
-733,239	-51,553	-0,146	0,049
-732,225	800,000	-0,082	-0,203
-731,210	375,224	-0,028	0,042
-730,196	-200,000	-0,011	-0,208
-729,181	-200,000	0,023	-0,179
-728,167	-200,000	-0,005	-0,022
-727,152	800,000	0,065	-0,130
-726,137	800,000	0,022	-0,065
-725,123	800,000	-0,069	0,159
-724,108	262,688	-0,071	-0,089
-723,094	-200,000	-0,034	0,122
-722,079	241,138	-0,063	-0,077
-721,064	-200,000	-0,010	0,038
-720,050	188,226	0,090	-0,098
-719,035	236,110	-0,079	0,096
-718,021	-101,606	-0,111	-0,019
-717,006	-35,486	-0,058	-0,023
-715,991	9,884	-0,118	-0,065
-714,977	121,985	-0,101	-0,092
-713,962	-132,798	-0,013	0,001
-712,948	571,046	-0,056	-0,099
-711,933	-194,526	0,075	0,000
-710,918	-164,137	-0,141	0,005
-709,904	708,207	-0,029	0,056
-708,889	-200,000	0,016	-0,051
-707,875	-78,592	-0,067	0,017
-706,860	-200,000	0,015	-0,052
-705,845	-134,625	0,078	0,007
-704,831	146,211	0,042	0,041
-703,816	224,969	-0,103	-0,121
-702,802	135,067	-0,116	-0,109
-701,787	-200,000	-0,008	-0,124
-700,772	377,294	-0,122	-0,181
-699,758	23,252	0,067	-0,040
-698,743	319,845	0,089	-0,122
-697,729	-69,469	-0,067	0,018
-696,714	181,289	-0,030	-0,032
-695,699	-164,922	-0,152	0,005
-694,685	800,000	-0,017	0,046
-693,670	120,321	-0,045	-0,041
-692,656	-29,117	-0,048	0,020
-691,641	-200,000	-0,021	0,084
-690,627	800,000	0,045	0,097
-689,612	248,142	-0,067	-0,083
-688,597	218,257	0,069	-0,081
-687,583	-81,049	-0,055	0,013
-686,568	-101,742	-0,136	-0,024
-685,554	-200,000	-0,057	0,185
-684,539	800,000	-0,074	0,191
-683,524	132,287	0,113	0,106
-682,510	-200,000	0,001	0,009
-681,495	-200,000	-0,023	-0,156
-680,481	329,175	0,032	-0,045
-679,466	-200,000	0,005	0,076
-678,451	800,000	0,026	0,072
-677,437	800,000	-0,023	0,059
-676,422	-122,829	-0,014	0,002
-675,408	377,442	-0,036	0,053
-674,393	-77,587	0,088	-0,022
-673,378	632,622	-0,053	-0,097
-672,364	498,308	-0,125	-0,210
-671,349	0,537	0,143	-0,074
-670,335	-75,750	-0,046	-0,012
-669,320	209,915	0,069	0,078
-668,305	-200,000	0,007	-0,090
-667,291	327,862	0,115	-0,160
-666,276	-200,000	0,009	-0,040
-665,262	164,418	-0,115	-0,118
-664,247	634,938	-0,024	-0,045
-663,232	-82,776	-0,072	0,017
-662,218	236,288	0,043	0,052
-661,203	-173,301	-0,029	0,001
-660,189	-200,000	-0,012	-0,065
-659,174	689,857	0,033	-0,062
-658,159	-99,398	-0,151	0,027
-657,145	-200,000	0,004	-0,127
-656,130	779,722	-0,018	-0,036
-655,116	-200,000	0,008	0,048
-654,101	-200,000	0,003	0,111
-653,086	-27,650	-0,098	-0,041
-652,072	-200,000	0,007	-0,093
-651,057	556,910	-0,033	-0,059
-650,043	800,000	0,059	-0,146
-649,028	-200,000	-0,013	-0,050
-648,014	616,383	-0,047	0,086
-646,999	96,172	0,043	-0,035
-645,984	125,349	-0,015	0,013
-644,970	-54,653	-0,079	0,026
-643,955	123,919	0,093	-0,085
-642,941	45,444	-0,011	-0,007
-641,926	159,800	0,027	0,027
-640,911	551,714	0,036	0,064
-639,897	122,531	0,074	0,067
-638,882	-25,226	0,087	-0,037
-637,868	400,791	-0,106	-0,162
-636,853	-200,000	0,021	-0,106
-635,838	379,888	-0,088	-0,132
-634,824	-40,582	0,114	-0,043
-633,809	-104,332	0,258	0,043
-632,795	29,581	0,042	0,026
-631,780	-200,000	0,021	-0,108
-630,765	748,635	0,096	0,188
-629,751	331,842	0,026	-0,036
-628,736	-185,062	-0,136	0,002
-627,722	131,411	0,053	-0,049
-626,707	-48,151	-0,107	-0,037
-625,692	-58,194	0,061	-0,019
-624,678	-200,000	0,021	-0,072
-623,663	-69,857	-0,041	-0,011
-622,649	-68,526	0,060	0,017
-621,634	234,580	-0,056	-0,067
-620,619	66,432	0,107	-0,079
-619,605	800,000	0,050	0,151
-618,590	59,109	0,045	-0,032
-617,576	800,000	0,053	0,140
-616,561	-200,000	-0,017	0,097
-615,546	-87,462	0,081	0,018
-614,532	800,000	-0,015	-0,040
-613,517	20,891	0,076	-0,044
-612,503	-53,799	0,075	0,025
-611,488	167,727	0,113	0,116
-610,474	-200,000	0,020	0,216
-609,459	152,377	-0,113	0,112
-608,444	-200,000	-0,015	-0,048
-607,430	281,456	-0,103	-0,134
-606,415	800,000	-0,028	-0,060
-605,401	-200,000	0,032	-0,113
-604,386	-12,067	-0,104	0,049
-603,371	-200,000	0,003	0,125
-602,357	141,518	-0,087	0,083
-601,342	800,000	0,038	-0,108
-600,328	-200,000	0,009	-0,038
-599,313	203,229	0,070	-0,079
-598,298	1,743	-0,076	0,040
-597,284	0,666	-0,049	-0,025
-596,269	131,022	0,117	0,109
-595,255	-56,119	-0,194	0,062
-594,240	-200,000	0,010	0,087
-593,225	476,993	0,069	-0,113
-592,211	35,703	-0,036	0,023
-591,196	11,794	-0,014	-0,008
-590,182	0,412	0,029	-0,015
-589,167	-131,189	0,125	-0,012
-588,152	-200,000	-0,007	0,067
-587,138	-52,093	-0,030	0,010
-586,123	-10,257	-0,137	0,065
-585,109	800,000	-0,050	-0,108
-584,094	-17,511	-0,113	0,051
-583,079	-90,832	0,113	0,023
-582,065	-151,750	0,066	-0,003
-581,050	-11,855	0,117	-0,055
-580,036	-200,000	-0,038	-0,132
-579,021	-27,083	-0,182	-0,076
-578,006	60,227	0,071	-0,050
-576,992	19,102	-0,089	-0,052
-575,977	-180,269	0,118	-0,002
-574,963	-60,342	0,024	-0,007
-573,948	73,649	0,075	0,056
-572,934	1,967	0,123	-0,064
-571,919	-75,012	0,080	0,021
-570,904	-200,000	-0,023	0,108
-569,890	-200,000	0,019	0,074
-568,875	-200,000	0,019	0,092
-567,861	-200,000	-0,050	-0,161
-566,846	-200,000	0,004	-0,051
-565,831	565,914	-0,015	-0,027
-564,817	100,610	0,067	0,057
-563,802	-200,000	-0,004	0,072
-562,788	307,405	0,064	-0,087
-561,773	97,791	-0,159	-0,132
-560,758	800,000	0,051	-0,135
-559,744	-57,937	0,030	0,009
-558,729	144,482	-0,151	-0,146
-557,715	511,620	-0,055	-0,093
-556,700	392,229	-0,053	0,080
-555,685	-200,000	-0,007	-0,089
-554,671	-77,653	-0,053	0,013
-553,656	269,259	-0,059	0,074
-552,642	-171,390	0,046	0,001
-551,627	276,076	0,040	-0,052
-550,612	-200,000	-0,029	-0,102
-549,598	800,000	-0,055	-0,165
-548,583	-200,000	-0,006	0,061
-547,569	-89,371	-0,077	-0,016
-546,554	800,000	0,043	0,117
-545,539	800,000	-0,011	0,026
-544,525	-200,000	0,013	-0,056
-543,510	326,341	0,132	-0,183
-542,496	-200,000	0,026	-0,152
-541,481	800,000	-0,022	0,052
-540,466	413,280	0,102	0,158
-539,452	-7,495	-0,140	0,068
-538,437	800,000	-0,055	0,110
-537,423	-169,397	0,045	0,001
-536,408	100,597	0,055	-0,046
-535,393	800,000	-0,043	-0,136
-534,379	800,000	0,014	-0,038
-533,364	-21,576	0,016	-0,007
-532,350	-123,824	0,061	0,007
-531,335	800,000	-0,051	0,118
-530,321	81,965	0,034	-0,027
-529,306	-70,454	0,167	0,045
-528,291	361,966	-0,088	0,128
-527,277	-200,000	-0,009	-0,127
-526,262	-75,250	0,017	0,004
-525,248	-144,802	0,056	0,004
-524,233	136,237	-0,019	0,018
-523,218	-200,000	-0,039	-0,167
-522,204	-200,000	0,014	-0,085
-521,189	677,511	-0,044	-0,082
-520,175	-61,207	0,084	-0,025
-519,160	9,246	-0,040	0,022
-518,145	-200,000	-0,002	-0,103
-517,131	-135,711	0,089	-0,007
-516,116	-153,202	0,205	-0,010
-515,102	-42,997	0,076	0,028
-514,087	-200,000	-0,007	-0,054
-513,072	608,613	-0,044	0,079
-512,058	-54,457	-0,108	-0,035
-511,043	-200,000	-0,000	0,055
-510,029	284,719	0,067	0,087
-509,014	24,760	0,084	0,050
-507,999	800,000	-0,024	0,072
-506,985	78,661	-0,066	-0,051
-505,970	-116,934	-0,089	-0,012
-504,956	-49,007	0,064	0,022
-503,941	-17,852	-0,055	-0,025
-502,926	-138,226	-0,034	-0,003
-501,912	800,000	0,059	-0,121
-500,897	-200,000	-0,121	0,000
-499,883	295,557	0,055	0,073
-498,868	800,000	-0,023	-0,053
-497,853	145,864	-0,126	0,121
-496,839	496,547	0,035	-0,058
-495,824	33,254	0,094	0,059
-494,810	-68,989	0,184	-0,051
-493,795	-116,872	-0,093	0,012
-492,781	144,070	-0,039	-0,038
-491,766	111,295	-0,068	-0,059
-490,751	671,272	0,052	-0,097
-489,737	800,000	-0,043	0,104
-488,722	-44,258	-0,117	0,042
-487,708	74,579	0,145	0,109
-486,693	800,000	-0,033	0,101
-485,678	800,000	-0,042	-0,093
-484,664	800,000	-0,057	-0,180
-483,649	-22,012	-0,039	0,017
-482,635	-200,000	-0,052	-0,214
-481,620	-123,689	0,072	0,008
-480,605	255,271	-0,010	0,013
-479,591	335,464	0,067	0,094
-478,576	-67,788	0,076	-0,021
-477,562	-200,000	0,027	-0,097
-476,547	384,840	-0,063	-0,093
-475,532	-200,000	-0,010	-0,043
-474,518	-200,000	0,005	-0,018
-473,503	27,743	-0,022	0,013
-472,489	-113,893	0,094	-0,013
-471,474	797,158	0,052	0,104
-470,459	621,453	-0,064	0,117
-469,445	78,849	0,086	-0,066
-468,430	-200,000	-0,002	0,087
-467,416	107,354	0,116	0,099
-466,401	440,165	-0,102	0,160
-465,386	-200,000	-0,028	0,105
-464,372	800,000	-0,038	0,094
-463,357	599,904	-0,037	0,067
-462,343	-13,744	-0,091	0,042
-461,328	-74,281	0,081	0,021
-460,313	-152,081	0,189	0,010
-459,299	-85,757	0,042	0,009
-458,284	338,580	-0,076	0,107
-457,270	-200,000	-0,034	-0,113
-456,255	-119,160	-0,049	0,006
-455,241	100,795	-0,149	0,124
-454,226	-44,298	0,138	-0,050
-453,211	800,000	-0,020	0,045
-452,197	800,000	0,018	0,054
-451,182	-142,691	0,033	0,002
-450,168	402,950	0,057	-0,087
-449,153	-180,976	-0,099	0,001
-448,138	-102,417	0,129	-0,022
-447,124	-144,307	-0,138	0,009
-446,109	-200,000	0,006	0,090
-445,095	-200,000	0,046	0,198
-444,080	190,966	0,071	0,077
-443,065	-200,000	0,002	0,092
-442,051	-168,639	-0,065	-0,002
-441,036	-44,749	-0,150	-0,054
-440,022	569,794	0,014	-0,024
-439,007	784,655	0,027	-0,054
-437,992	-104,541	0,059	-0,010
-436,978	-200,000	-0,006	-0,167
-435,963	-200,000	-0,003	-0,033
-434,949	307,530	0,046	-0,061
-433,934	20,566	-0,100	0,058
-432,919	-153,646	-0,102	0,005
-431,905	-200,000	-0,015	-0,132
-430,890	400,203	-0,076	0,114
-429,876	535,211	0,033	-0,056
-428,861	-183,445	-0,089	-0,001
-427,846	-91,158	-0,037	0,008
-426,832	26,484	0,031	-0,018
-425,817	231,348	-0,147	-0,173
-424,803	74,883	-0,111	-0,084
-423,788	-181,014	0,093	-0,001
-422,773	69,025	0,078	-0,057
-421,759	51,803	0,120	0,082
-420,744	-61,981	0,096	0,029
-419,730	800,000	0,024	0,074
-418,715	-70,728	-0,073	0,020
-417,701	-162,229	0,079	0,003
-416,686	-177,291	-0,006	-0,000
-415,671	-200,000	0,013	0,094
-414,657	53,243	0,047	0,033
-413,642	800,000	0,052	0,106
-412,628	30,574	-0,103	0,063
-411,613	-200,000	-0,000	-0,030
-410,598	651,277	-0,037	-0,069
-409,584	-6,717	-0,063	0,031
-408,569	800,000	0,055	-0,160
-407,555	-137,206	-0,037	0,003
-406,540	-200,000	-0,017	0,069
-405,525	37,327	-0,030	-0,019
-404,511	5,146	0,050	0,027
-403,496	335,225	-0,067	-0,093
-402,482	276,183	-0,063	0,081
-401,467	800,000	0,074	0,160
-400,452	800,000	0,022	0,068
-399,438	196,507	0,039	-0,042
-398,423	-55,668	0,160	0,051
-397,409	384,197	0,016	-0,024
-396,394	273,180	-0,045	-0,057
-395,379	-113,069	0,146	-0,021
-394,365	22,098	0,009	0,005
-393,350	407,575	0,069	0,106
-392,336	-63,301	-0,097	0,028
-391,321	162,934	0,035	0,035
-390,306	-28,536	-0,093	-0,038
-389,292	50,798	0,071	0,048
-388,277	-89,757	0,147	0,031
-387,263	-200,000	0,002	-0,167
-386,248	52,544	-0,075	0,052
-385,233	-78,638	-0,071	-0,017
-384,219	46,156	0,067	-0,045
-383,204	364,792	0,024	-0,035
-382,190	-27,140	-0,108	-0,045
-381,175	47,018	0,034	0,023
-380,160	800,000	0,036	0,103
-379,146	-96,894	0,065	-0,012
-378,131	-200,000	-0,005	-0,101
-377,117	-200,000	0,018	-0,134
-376,102	5,654	-0,150	-0,079
-375,088	-18,294	0,111	-0,050
-374,073	18,023	0,130	0,074
-373,058	-200,000	0,019	-0,134
-372,044	800,000	0,053	-0,168
-371,029	800,000	-0,022	0,044
-370,015	220,842	-0,034	0,039
-369,000	123,876	-0,121	0,109
-367,985	-184,307	0,132	-0,002
-366,971	-200,000	0,007	0,070
-365,956	-57,934	-0,117	0,036
-364,942	-104,733	-0,128	-0,021
-363,927	518,590	0,025	0,042
-362,912	800,000	-0,049	0,107
-361,898	126,262	0,050	-0,046
-360,883	693,912	-0,041	-0,077
-359,869	152,294	-0,086	0,084
-358,854	-85,817	0,045	0,010
-357,839	-200,000	0,025	-0,088
-356,825	227,671	0,141	0,164
-355,810	-134,492	0,036	-0,003
-354,796	35,288	-0,044	0,028
-353,781	180,603	0,034	0,035
-352,766	-200,000	-0,004	0,139
-351,752	-200,000	-0,033	-0,129
-350,737	135,106	0,087	0,081
-349,723	-200,000	-0,034	-0,116
-348,708	207,338	0,098	0,110
-347,693	-100,935	-0,020	-0,003
-346,679	-125,034	-0,036	-0,004
-345,664	-65,701	-0,090	-0,026
-344,650	136,145	-0,102	-0,095
-343,635	103,138	0,153	0,128
-342,620	-20,216	-0,048	0,021
-341,606	260,498	0,028	-0,035
-340,591	4,971	0,165	0,086
-339,577	-121,188	-0,081	-0,010
-338,562	101,232	-0,051	-0,043
-337,548	800,000	0,052	0,109
-336,533	-200,000	-0,007	0,066
-335,518	-57,336	0,124	0,039
-334,504	-37,543	0,148	0,056
-333,489	717,876	-0,035	0,067
-332,475	193,409	-0,097	-0,105
-331,460	-200,000	0,015	-0,082
-330,445	800,000	0,029	0,084
-329,431	-164,265	-0,100	-0,003
-328,416	-88,267	0,032	0,007
-327,402	-74,342	-0,066	-0,017
-326,387	-38,805	-0,067	-0,025
-325,372	-49,205	-0,023	0,008
-324,358	800,000	-0,055	-0,117
-323,343	269,237	0,097	0,122
-322,329	433,069	0,039	-0,060
-321,314	-9,043	0,075	-0,036
-320,299	-200,000	0,001	-0,039
-319,285	50,381	-0,073	0,049
-318,270	800,000	-0,065	0,153
-317,256	286,473	0,032	-0,041
-316,241	12,778	0,070	-0,038
-315,226	-161,695	0,072	0,003
-314,212	-200,000	0,029	0,108
-313,197	-4,048	0,080	0,039
-312,183	363,276	-0,099	0,142
-311,168	-130,539	-0,115	-0,011
-310,153	16,095	-0,086	0,049
-309,139	100,589	0,106	-0,088
-308,124	-128,035	0,125	0,013
-307,110	-29,890	-0,026	-0,010
-306,095	159,225	-0,021	-0,021
-305,080	249,351	0,032	-0,039
-304,066	-18,292	-0,097	0,043
-303,051	-121,632	-0,193	-0,023
-302,037	349,054	-0,061	-0,087
-301,022	-19,783	-0,039	0,017
-300,008	800,000	-0,050	-0,106
-298,993	800,000	-0,024	0,055
-297,978	-76,575	0,085	-0,021
-296,964	326,834	-0,076	-0,104
-295,949	232,157	0,047	-0,055
-294,935	108,217	0,101	-0,086
-293,920	508,002	-0,013	0,022
-292,905	196,364	0,061	-0,066
-291,891	800,000	0,044	0,092
-290,876	370,201	0,049	0,071
-289,862	-200,000	0,009	-0,061
-288,847	126,645	-0,050	-0,045
-287,832	473,383	-0,046	0,074
-286,818	603,428	-0,034	0,060
-285,803	-200,000	0,006	-0,052
-284,789	-200,000	0,020	-0,064
-283,774	800,000	-0,046	0,092
-282,759	-200,000	-0,040	0,145
-281,745	226,666	-0,118	0,137
-280,730	-200,000	0,010	0,045
-279,716	-15,500	-0,005	0,002
-278,701	-137,089	0,174	-0,014
-277,686	18,321	0,170	-0,097
-276,672	-200,000	0,008	0,099
-275,657	265,949	-0,047	-0,059
-274,643	-61,373	-0,158	-0,047
-273,628	-200,000	-0,031	-0,112
-272,613	119,782	0,157	-0,139
-271,599	-103,836	-0,134	0,022
-270,584	-156,448	0,089	-0,004
-269,570	-63,633	0,114	0,033
-268,555	156,150	-0,104	-0,103
-267,540	-200,000	-0,007	-0,029
-266,526	76,015	-0,127	0,096
-265,511	111,390	0,057	-0,049
-264,497	51,411	0,054	-0,037
-263,482	-37,149	-0,109	-0,041
-262,467	37,955	-0,085	0,054
-261,453	-127,808	-0,145	-0,015
-260,438	4,315	0,151	-0,079
-259,424	233,345	-0,068	-0,080
-258,409	27,707	0,069	0,041
-257,395	800,000	0,045	0,110
-256,380	-34,743	0,063	0,025
-255,365	2,254	0,045	-0,023
-254,351	-167,962	-0,028	-0,001
-253,336	16,130	-0,206	-0,116
-252,322	628,847	-0,056	-0,101
-251,307	-44,224	0,085	0,030
-250,292	-200,000	-0,012	0,057
-249,278	4,779	0,072	0,038
-248,263	-81,958	0,107	-0,025
-247,249	140,692	-0,072	0,068
-246,234	130,511	-0,044	0,040
-245,219	21,434	-0,021	-0,012
-244,205	3,488	-0,086	-0,044
-243,190	-200,000	-0,017	0,128
-242,176	68,839	0,014	-0,010
-241,161	-100,835	0,106	-0,018
-240,146	800,000	0,054	0,166
-239,132	-121,680	-0,045	0,005
-238,117	800,000	0,008	0,022
-237,103	-200,000	0,009	-0,045
-236,088	-200,000	0,007	0,043
-235,073	156,721	0,101	-0,100
-234,059	-200,000	-0,008	0,052
-233,044	96,077	0,022	0,018
-232,030	-200,000	-0,013	0,126
-231,015	-199,396	-0,093	-0,000
-230,000	-200,000	-0,015	-0,086
-228,986	-200,000	0,007	-0,044
-227,971	767,981	-0,017	-0,034
-226,957	502,690	-0,063	0,105
-225,942	-168,275	-0,032	-0,001
-224,927	136,268	-0,051	-0,047
-223,913	-123,030	-0,065	-0,007
-222,898	84,025	-0,112	-0,087
-221,884	87,513	0,036	0,028
-220,869	-200,000	0,004	-0,070
-219,855	-131,944	0,132	-0,012
-218,840	80,328	0,058	-0,045
-217,825	-154,592	-0,088	0,004
-216,811	-25,296	-0,132	-0,056
-215,796	800,000	0,035	-0,098
-214,782	-80,816	-0,042	-0,010
-213,767	-79,226	-0,050	0,012
-212,752	125,410	0,062	0,056
-211,738	800,000	-0,030	0,079
-210,723	-179,469	0,057	-0,001
-209,709	-200,000	-0,008	-0,075
-208,694	-200,000	-0,048	-0,153
-207,679	-110,602	-0,058	-0,008
-206,665	-76,438	0,115	0,029
-205,650	800,000	-0,055	0,160
-204,636	447,994	0,024	0,038
-203,621	382,817	-0,058	0,086
-202,606	50,691	-0,041	0,028
-201,592	-8,439	-0,115	-0,055
-200,577	243,130	-0,096	-0,115
-199,563	14,572	0,055	0,030
-198,548	111,386	-0,090	0,077
-197,533	352,540	0,030	-0,043
-196,519	-86,397	0,014	-0,003
-195,504	-153,289	0,153	-0,007
-194,490	-9,646	0,068	0,032
-193,475	485,921	0,034	-0,055
-192,460	800,000	0,014	-0,032
-191,446	29,488	-0,160	0,097
-190,431	138,423	-0,108	0,101
-189,417	307,996	-0,081	0,108
-188,402	-118,280	0,072	0,009
-187,387	-128,201	0,092	0,009
-186,373	-42,530	-0,175	-0,063
-185,358	42,077	-0,124	-0,080
-184,344	524,408	0,043	-0,072
-183,329	144,591	0,128	0,122
-182,315	-200,000	0,023	0,091
-181,300	89,335	-0,063	0,050
-180,285	-146,659	-0,066	-0,004
-179,271	92,517	0,054	-0,043
-178,256	-78,353	-0,037	-0,009
-177,242	-200,000	-0,011	-0,050
-176,227	-200,000	-0,001	0,041
-175,212	800,000	0,019	0,058
-174,198	800,000	0,037	-0,106
-173,183	-200,000	0,007	-0,047
-172,169	27,357	0,044	0,026
-171,154	0,574	0,087	-0,044
-170,139	-200,000	0,018	0,244
-169,125	384,248	-0,043	0,063
-168,110	800,000	0,036	0,088
-167,096	-200,000	0,010	0,035
-166,081	-67,257	-0,184	-0,051
-165,066	-200,000	0,015	-0,054
-164,052	-76,203	-0,130	-0,032
-163,037	-164,936	-0,062	-0,002
-162,023	-99,468	0,129	-0,023
-161,008	41,624	-0,112	-0,072
-159,993	25,709	0,086	-0,051
-158,979	-2,840	-0,042	-0,021
-157,964	-125,384	0,234	-0,025
-156,950	157,243	-0,116	-0,114
-155,935	332,927	-0,071	0,098
-154,920	-121,812	-0,092	0,011
-153,906	516,726	0,034	-0,057
-152,891	228,259	-0,064	0,074
-151,877	-200,000	-0,021	0,140
-150,862	149,475	-0,014	0,013
-149,847	-78,695	-0,025	0,006
-148,833	552,477	-0,053	0,091
-147,818	115,227	-0,019	0,016
-146,804	800,000	-0,020	-0,045
-145,789	408,547	-0,055	-0,083
-144,775	800,000	0,017	0,043
-143,760	-200,000	-0,007	-0,061
-142,745	-200,000	0,005	-0,036
-141,731	308,905	0,041	0,055
-140,716	-200,000	0,003	0,045
-139,702	9,128	0,168	0,090
-138,687	387,167	0,106	0,156
-137,672	-200,000	-0,015	0,076
-136,658	-200,000	-0,018	-0,096
-135,643	800,000	-0,057	-0,142
-134,629	-2,624	0,043	0,021
-133,614	-163,166	-0,016	0,001
-132,599	211,192	0,047	0,052
-131,585	313,779	0,112	-0,150
-130,570	-20,571	-0,089	-0,039
-129,556	800,000	0,048	-0,094
-128,541	-200,000	-0,046	-0,175
-127,526	-24,416	0,075	0,031
-126,512	29,502	-0,034	0,020
-125,497	5,562	0,126	0,066
-124,483	219,961	0,102	0,116
-123,468	800,000	0,048	-0,099
-122,453	-200,000	-0,024	-0,141
-121,439	-91,145	0,050	-0,010
-120,424	-200,000	-0,006	-0,102
-119,410	-18,949	0,074	-0,032
-118,395	-200,000	0,007	0,123
-117,380	-18,060	-0,115	0,051
-116,366	65,813	0,063	0,045
-115,351	800,000	0,023	0,065
-114,337	-129,304	-0,020	-0,002
-113,322	-45,708	-0,070	0,024
-112,307	-66,791	0,135	-0,038
-111,293	104,497	-0,069	0,058
-110,278	344,410	0,079	0,110
-109,264	-180,503	0,135	0,002
-108,249	-166,914	-0,053	0,002
-107,234	-200,000	-0,003	-0,018
-106,220	87,323	-0,126	-0,099
-105,205	800,000	0,041	-0,111
-104,191	-200,000	-0,028	0,156
-103,176	800,000	0,061	0,140
-102,162	-200,000	-0,021	-0,102
-101,147	-173,833	-0,026	0,001
-100,132	-200,000	-0,032	-0,236
-99,118	-200,000	-0,027	0,092
-98,103	-200,000	-0,004	0,016
-97,089	800,000	0,070	-0,183
-96,074	800,000	0,055	0,129
-95,059	800,000	0,011	-0,027
-94,045	336,367	-0,019	0,027
-93,030	-200,000	0,009	-0,035
-92,016	-68,196	-0,028	-0,008
-91,001	-124,704	-0,078	0,008
-89,986	-200,000	0,030	0,136
-88,972	264,947	0,091	0,113
-87,957	414,731	-0,052	0,079
-86,943	-200,000	0,041	-0,153
-85,928	-200,000	-0,018	-0,083
-84,913	-200,000	-0,002	-0,049
-83,899	-200,000	0,002	-0,020
-82,884	80,332	0,050	0,038
-81,870	29,034	-0,042	0,025
-80,855	255,398	-0,097	0,118
-79,840	186,239	0,080	-0,084
-78,826	-77,832	-0,160	0,039
-77,811	79,355	0,081	0,061
-76,797	-200,000	-0,013	0,073
-75,782	-70,727	-0,011	-0,003
-74,767	800,000	-0,029	0,071
-73,753	197,078	0,035	-0,038
-72,738	800,000	-0,025	-0,057
-71,724	-200,000	0,014	-0,081
-70,709	49,410	-0,072	-0,048
-69,694	-200,000	-0,012	-0,092
-68,680	49,186	0,063	-0,042
-67,665	800,000	-0,046	0,115
-66,651	98,949	0,046	0,037
-65,636	26,730	0,078	-0,046
-64,622	-138,366	-0,090	0,007
-63,607	-200,000	-0,029	-0,110
-62,592	-200,000	-0,025	-0,100
-61,578	587,774	0,014	0,025
-60,563	-86,152	0,079	-0,017
-59,549	632,024	-0,058	0,104
-58,534	-28,228	-1,641	-0,669
-57,519	417,671	-1,402	-2,130
-56,505	-200,000	-0,509	-4,531
-55,490	253,802	0,931	1,129
-54,476	800,000	4,872	11,417
-53,461	-200,000	19,042	316,584
-52,446	-200,000	740,084	2332,146
-51,432	575,085	1655,697	2874,491
-50,417	78,759	1671,230	1265,107
-49,403	21,679	1543,516	887,798
-48,388	15,540	1466,183	813,459
-47,373	17,924	1456,248	819,438
-46,359	16,798	1446,442	808,487
-45,344	13,768	1441,728	791,303
-44,330	13,689	1439,882	789,879
-43,315	13,716	1437,996	788,943
-42,300	13,688	1436,536	787,975
-41,286	13,737	1435,059	787,366
-40,271	13,715	1433,947	786,620
-39,257	13,713	1432,451	785,759
-38,242	13,776	1431,254	785,375
-37,227	13,735	1430,215	784,575
-36,213	13,724	1428,870	783,755
-35,198	13,768	1427,584	783,227
-34,184	13,799	1426,743	782,883
-33,169	13,737	1425,295	781,762
-32,154	13,781	1424,227	781,354
-31,140	13,780	1423,024	780,657
-30,125	13,841	1421,841	780,266
-29,111	13,795	1420,705	779,394
-28,096	13,774	1419,625	778,672
-27,082	13,720	1418,604	777,828
-26,067	13,669	1417,508	776,954
-25,052	13,687	1416,379	776,391
-24,038	13,678	1415,268	775,710
-23,023	13,660	1414,425	775,131
-22,009	13,635	1413,450	774,445
-20,994	13,630	1412,532	773,889
-19,979	13,602	1411,717	773,280
-18,965	13,628	1410,621	772,773
-17,950	13,663	1409,571	772,331
-16,936	13,616	1408,863	771,693
-15,921	13,606	1407,698	770,975
-14,906	13,589	1406,753	770,348
-13,892	13,630	1405,805	769,992
-12,877	13,624	1404,976	769,478
-11,863	13,581	1404,200	768,822
-10,848	13,580	1403,228	768,256
-9,833	13,571	1402,239	767,641
-8,819	13,523	1401,452	766,954
-7,804	13,522	1400,433	766,365
-6,790	13,494	1399,617	765,758
-5,775	13,536	1398,383	765,246
-4,760	13,455	1397,815	764,529
-3,746	13,459	1396,702	763,905
-2,731	13,472	1395,797	763,443
-1,717	13,512	1394,785	763,043
-0,702	13,448	1393,324	761,917
0,313	17,248	1310,524	734,269
1,327	33,221	704,835	431,898
2,342	51,022	123,614	82,829
3,356	2,556	16,651	8,510
4,371	10,340	3,298	1,771
5,386	-11,182	0,659	0,306
6,400	-200,000	-0,014	0,058
7,415	343,492	-0,127	-0,177
8,429	161,422	-0,274	-0,272
9,444	123,095	-0,321	-0,285
10,459	276,485	-0,256	-0,322
11,473	-12,720	-0,319	-0,146
12,488	-23,386	-0,265	-0,112
13,502	-46,378	-0,411	-0,142
14,517	192,129	-0,328	-0,350
15,531	79,062	-0,301	-0,228
16,546	82,253	-0,379	-0,290
17,561	329,832	-0,236	-0,322
18,575	213,969	-0,188	-0,211
19,590	-6,620	-0,222	-0,107
20,604	8,918	-0,182	-0,097
21,619	-10,867	-0,420	-0,195
22,634	59,158	-0,463	-0,322
23,648	194,163	-0,284	-0,304
24,663	89,371	-0,470	-0,370
25,677	176,173	-0,369	-0,378
26,692	57,485	-0,373	-0,257
27,707	-4,974	-0,456	-0,221
28,721	34,980	-0,385	-0,237
29,736	89,458	-0,414	-0,326
30,750	115,615	-0,331	-0,285
31,765	-29,414	-0,442	-0,178
32,780	128,788	-0,403	-0,363
33,794	84,321	-0,367	-0,283
34,809	59,379	-0,364	-0,253
35,823	89,409	-0,390	-0,306
36,838	20,510	-0,425	-0,242
37,853	168,279	-0,321	-0,323
38,867	10,457	-0,458	-0,246
39,882	81,677	-0,369	-0,282
40,896	-40,359	-0,344	-0,125
41,911	26,667	-0,415	-0,244
42,926	-65,459	-0,473	-0,133
43,940	396,911	-0,184	-0,271
44,955	21,322	-0,343	-0,196
45,969	104,682	-0,391	-0,325
46,984	-71,493	-0,402	-0,105
47,999	-55,015	-0,379	-0,120
49,013	21,824	-0,256	-0,147
50,028	-15,389	-0,398	-0,179
51,042	457,582	-0,252	-0,396
52,057	93,871	-0,383	-0,305
53,071	33,298	-0,261	-0,159
54,086	-16,529	-0,355	-0,158
55,101	39,409	-0,326	-0,205
56,115	-43,269	-0,301	-0,107
57,130	-2,679	-0,306	-0,150
58,144	238,117	-0,247	-0,289
59,159	0,206	-0,419	-0,210
60,174	59,956	-0,310	-0,216
61,188	-3,602	-0,496	-0,242
62,203	75,626	-0,393	-0,292
63,217	96,067	-0,273	-0,219
64,232	8,282	-0,367	-0,194
65,247	80,105	-0,371	-0,281
66,261	69,147	-0,448	-0,324
67,276	-5,657	-0,451	-0,217
68,290	233,553	-0,095	-0,110
69,305	39,600	-0,294	-0,185
70,320	85,800	-0,178	-0,138
71,334	69,776	-0,407	-0,295
72,349	18,793	-0,305	-0,171
73,363	142,079	-0,315	-0,294
74,378	33,869	-0,386	-0,236
75,393	32,401	-0,297	-0,180
76,407	158,088	-0,240	-0,235
77,422	-32,091	-0,290	-0,114
78,436	90,235	-0,233	-0,183
79,451	101,956	-0,243	-0,199
80,466	-57,186	-0,317	-0,098
81,480	116,684	-0,329	-0,284
82,495	0,597	-0,345	-0,173
83,509	-40,066	-0,318	-0,116
84,524	144,904	-0,198	-0,186
85,539	-14,760	-0,340	-0,153
86,553	114,033	-0,327	-0,279
87,568	134,269	-0,233	-0,212
88,582	93,066	-0,390	-0,309
89,597	-10,777	-0,366	-0,170
90,611	406,223	-0,165	-0,245
91,626	42,038	-0,377	-0,240
92,641	-13,035	-0,351	-0,160
93,655	51,301	-0,380	-0,253
94,670	140,760	-0,252	-0,234
95,684	283,773	-0,218	-0,276
96,699	100,723	-0,276	-0,225
97,714	42,721	-0,450	-0,287
98,728	20,954	-0,216	-0,123
99,743	222,175	-0,200	-0,226
100,757	-103,206	-0,259	-0,043
101,772	49,004	-0,381	-0,251
102,787	75,268	-0,235	-0,173
103,801	1,140	-0,331	-0,166
104,816	27,748	-0,381	-0,224
105,830	14,637	-0,269	-0,147
106,845	249,289	-0,296	-0,352
107,860	180,891	-0,249	-0,256
108,874	234,340	-0,185	-0,214
109,889	-77,102	-0,452	-0,110
110,903	-5,057	-0,203	-0,098
111,918	10,492	-0,348	-0,186
112,933	-51,430	-0,255	-0,083
113,947	-8,262	-0,264	-0,124
114,962	-60,196	-0,220	-0,065
115,976	25,584	-0,226	-0,132
116,991	457,311	-0,227	-0,355
118,006	226,339	-0,208	-0,237
119,020	160,263	-0,293	-0,287
120,035	158,816	-0,123	-0,120
121,049	328,625	-0,144	-0,194
122,064	-75,556	-0,287	-0,071
123,079	205,079	-0,233	-0,254
124,093	104,595	-0,335	-0,277
125,108	269,322	-0,226	-0,279
126,122	224,484	-0,164	-0,186
127,137	77,917	-0,205	-0,153
128,151	76,221	-0,224	-0,166
129,166	-138,421	-0,182	0,014
130,181	-107,993	-0,337	-0,051
131,195	141,342	-0,177	-0,164
132,210	-7,619	-0,253	-0,119
133,224	3,367	-0,325	-0,165
134,239	137,131	-0,138	-0,127
135,254	-23,612	-0,164	-0,068
136,268	287,676	-0,176	-0,223
137,283	-14,196	-0,219	-0,098
138,297	94,242	-0,232	-0,184
139,312	136,866	-0,227	-0,208
140,327	188,325	-0,286	-0,299
141,341	123,264	-0,256	-0,224
142,356	770,082	-0,118	-0,225
143,370	195,608	-0,206	-0,220
144,385	68,068	-0,212	-0,152
145,400	30,034	-0,264	-0,157
146,414	51,317	-0,262	-0,174
147,429	270,651	-0,203	-0,250
148,443	527,923	-0,151	-0,251
149,458	52,157	-0,208	-0,138
150,473	-78,263	-0,286	-0,068
151,487	559,307	-0,067	-0,113
152,502	-120,477	-0,254	0,030
153,516	510,579	-0,160	-0,261
154,531	23,300	-0,298	-0,171
155,546	152,220	-0,197	-0,187
156,560	196,045	-0,245	-0,261
157,575	-35,184	-0,201	-0,076
158,589	312,893	-0,209	-0,275
159,604	345,522	-0,200	-0,275
160,619	233,897	-0,214	-0,246
161,633	18,392	-0,313	-0,174
162,648	-56,264	-0,228	-0,070
163,662	184,724	-0,146	-0,151
164,677	-124,547	-0,203	-0,022
165,692	800,000	-0,059	-0,116
166,706	154,174	-0,247	-0,237
167,721	-66,237	-0,302	-0,083
168,735	206,659	-0,187	-0,204
169,750	171,111	-0,265	-0,265
170,764	359,568	-0,124	-0,173
171,779	-10,066	-0,105	-0,048
172,794	-25,366	-0,297	-0,122
173,808	227,157	-0,178	-0,202
174,823	-134,018	-0,206	-0,018
175,837	164,249	-0,199	-0,195
176,852	77,509	-0,292	-0,216
177,867	31,326	-0,104	0,062
178,881	-1,568	-0,246	-0,121
179,896	4,521	-0,163	-0,083
180,910	293,899	-0,228	-0,291
181,925	134,990	-0,297	-0,269
182,940	7,059	-0,339	-0,175
183,954	50,041	-0,221	-0,145
184,969	-10,711	-0,151	-0,069
185,983	279,727	-0,155	-0,193
186,998	75,186	-0,291	-0,213
188,013	25,436	-0,188	-0,108
189,027	146,879	-0,239	-0,224
190,042	-45,247	-0,246	-0,085
191,056	40,257	-0,229	-0,143
192,071	233,674	-0,230	-0,264
193,086	-1,451	-0,320	-0,156
194,100	13,050	-0,224	-0,120
195,115	-53,557	-0,231	-0,073
196,129	94,180	-0,143	-0,113
197,144	66,382	-0,192	-0,136
198,159	54,857	-0,172	-0,115
199,173	164,544	-0,247	-0,243
200,188	259,447	-0,135	-0,162
201,202	161,190	-0,232	-0,226
202,217	800,000	-0,159	-0,344
203,232	5,887	-0,264	-0,135
204,246	477,393	-0,194	-0,306
205,261	321,412	-0,183	-0,243
206,275	11,991	-0,148	-0,079
207,290	-180,622	-0,218	-0,003
208,304	62,019	-0,262	-0,181
209,319	170,044	-0,292	-0,291
210,334	131,514	-0,228	-0,203
211,348	160,019	-0,192	-0,186
212,363	68,411	-0,296	-0,210
213,377	343,679	-0,171	-0,234
214,392	800,000	-0,037	-0,096
215,407	-49,138	-0,281	-0,093
216,421	-51,384	-0,163	-0,052
217,436	458,921	-0,149	-0,231
218,450	343,496	-0,153	-0,208
219,465	56,948	-0,249	-0,168
220,480	322,089	-0,123	-0,164
221,494	192,650	-0,213	-0,223
222,509	129,701	-0,189	-0,168
223,523	250,034	-0,138	-0,162
224,538	306,022	-0,163	-0,211
225,553	800,000	-0,127	-0,318
226,567	15,247	-0,213	-0,116
227,582	-48,955	-0,240	-0,079
228,596	1,365	-0,190	-0,094
229,611	-118,050	-0,175	-0,021
230,626	19,956	-0,261	-0,145
231,640	-165,512	-0,171	0,005
232,655	374,541	-0,142	-0,201
233,669	241,423	-0,181	-0,210
234,684	-200,000	-0,052	-0,163
235,699	800,000	-0,082	-0,168
236,713	40,561	-0,130	-0,081
237,728	324,671	-0,172	-0,228
238,742	410,806	-0,099	-0,145
239,757	-56,635	-0,286	-0,087
240,772	-84,238	-0,313	-0,068
241,786	58,988	-0,238	-0,162
242,801	18,718	-0,268	-0,148
243,815	-200,000	-0,036	-0,154
244,830	38,826	-0,274	-0,169
245,844	-42,654	-0,248	-0,087
246,859	-4,916	-0,302	-0,144
247,874	576,608	-0,105	-0,179
248,888	481,012	-0,118	-0,187
249,903	4,365	-0,183	-0,093
250,917	59,493	-0,181	-0,123
251,932	-30,262	-0,152	-0,059
252,947	-95,231	-0,148	-0,027
253,961	106,645	-0,234	-0,192
254,976	23,916	-0,226	-0,129
255,990	98,323	-0,244	-0,194
257,005	127,240	-0,159	-0,140
258,020	-30,646	-0,204	-0,079
259,034	37,129	-0,247	-0,151
260,049	-23,042	-0,103	-0,043
261,063	-97,368	-0,275	-0,049
262,078	128,406	-0,116	-0,102
263,093	-31,465	-0,274	-0,106
264,107	-28,268	-0,180	-0,071
265,122	81,295	-0,141	-0,105
266,136	322,093	-0,064	-0,085
267,151	-101,153	-0,191	-0,032
268,166	165,607	-0,153	-0,149
269,180	20,337	-0,263	-0,147
270,195	-200,000	-0,025	-0,164
271,209	-161,540	-0,198	-0,007
272,224	80,767	-0,149	-0,111
273,239	69,481	-0,170	-0,121
274,253	210,389	-0,109	-0,118
275,268	410,558	-0,145	-0,213
276,282	35,144	-0,218	-0,132
277,297	22,472	-0,243	-0,137
278,312	83,765	-0,207	-0,156
279,326	-200,000	-0,032	-0,111
280,341	-138,284	-0,187	-0,014
281,355	396,875	-0,131	-0,189
282,370	-43,510	-0,240	-0,083
283,384	-94,499	-0,251	-0,047
284,399	-3,877	-0,326	-0,156
285,414	105,219	-0,260	-0,212
286,428	70,269	-0,165	0,117
287,443	77,539	-0,144	0,106
288,457	-200,000	-0,003	-0,046
289,472	-161,923	-0,101	0,003
290,487	-88,761	-0,124	-0,025
291,501	106,514	-0,075	-0,061
292,516	84,289	-0,216	-0,163
293,530	109,185	-0,143	-0,118
294,545	12,682	-0,078	-0,041
295,560	-32,047	-0,177	-0,068
296,574	-103,780	-0,110	0,018
297,589	122,506	-0,064	-0,055
298,603	97,283	-0,087	-0,069
299,618	23,840	-0,250	-0,141
300,633	53,477	-0,196	-0,129
301,647	134,481	-0,188	-0,168
302,662	-41,393	-0,292	-0,103
303,676	64,216	-0,062	-0,043
304,691	-36,708	-0,137	-0,051
305,706	-69,898	-0,123	-0,032
306,720	262,755	-0,105	-0,126
307,735	236,185	-0,097	-0,110
308,749	28,028	-0,217	-0,126
309,764	23,028	-0,126	-0,071
310,779	23,123	-0,157	-0,089
311,793	-200,000	-0,014	-0,093
312,808	-77,169	-0,258	-0,061
313,822	258,542	-0,194	-0,231
314,837	723,377	-0,099	-0,182
315,852	-30,139	-0,126	-0,049
316,866	-154,163	-0,104	-0,005
317,881	37,216	-0,175	-0,107
318,895	1,984	-0,131	-0,065
319,910	-97,631	-0,134	0,024
320,925	170,013	-0,106	-0,105
321,939	1,338	-0,177	-0,087
322,954	-200,000	0,032	-0,218
323,968	38,453	-0,104	-0,064
324,983	9,535	-0,079	-0,041
325,997	12,091	-0,126	-0,067
327,012	203,105	-0,127	-0,135
328,027	-35,776	-0,195	-0,072
329,041	-42,989	-0,204	-0,071
330,056	131,420	-0,135	-0,119
331,070	53,575	-0,083	-0,055
332,085	800,000	-0,094	-0,203
333,100	421,672	-0,110	-0,163
334,114	178,467	-0,193	-0,194
335,129	259,664	-0,195	-0,231
336,143	800,000	-0,097	-0,235
337,158	800,000	-0,080	-0,205
338,173	30,847	-0,135	-0,079
339,187	-200,000	-0,005	-0,110
340,202	234,609	-0,147	0,167
341,216	-16,605	-0,221	0,096
342,231	-200,000	-0,121	-0,000
343,246	39,096	-0,097	-0,059
344,260	-117,617	-0,244	0,030
345,275	38,637	-0,074	0,045
346,289	-23,670	-0,097	0,040
347,304	45,008	-0,209	-0,132
348,319	202,754	-0,130	-0,138
349,333	228,306	-0,101	-0,113
350,348	130,321	-0,188	-0,165
351,362	408,563	-0,137	-0,200
352,377	-57,960	-0,104	-0,031
353,392	8,937	-0,261	-0,135
354,406	68,902	-0,173	-0,122
355,421	209,433	1313,240	1414,155
356,435	161,185	1473,797	1414,647
