DTS Sentinel unit serial number:	SN410029Multiplexer serial number:	ORYXHardware model number:	OX2-SRSoftware version number:	ORYX F/W v4,00 Oryx Data Collector v3.7.2.0data status	okinstallation	B3 Nyhavnadifferential loss correction	single-endedforward channel	channel 1reverse channel	N/Adate	2023/12/01time	23:02:30forward acquisition time	300,00reverse acquisition time	0,00gamma	499,1914k internal	0,3196k external	0,3196temperature offset calibration	1,0000default loss term (dB/km)	0,3820temperature slope calibration	1,0000multiplexer offset coefficient	1,0000multiplexer slope coefficient	1,0000fibre end	0,00T internal ref (°C)	15,84T ext. ref 1 (°C)	1,12T ext. ref 2 (°C)	1,10length (m)	temperature (°C)	Stokes	anti-Stokes-744,400	44,438	-0,319	-0,213
-743,385	-200,000	0,087	0,376
-742,371	141,366	-0,088	-0,085
-741,356	515,200	0,217	0,370
-740,342	125,479	-0,164	-0,151
-739,327	-200,000	0,083	0,333
-738,312	392,391	-0,144	-0,218
-737,298	800,000	-0,068	0,172
-736,283	77,374	-0,242	-0,187
-735,269	-200,000	-0,032	0,357
-734,254	69,820	-0,270	-0,202
-733,239	-42,423	-0,247	0,091
-732,225	679,018	-0,100	-0,191
-731,210	800,000	-0,039	0,117
-730,196	42,931	-0,031	0,021
-729,181	423,987	-0,044	-0,069
-728,167	-200,000	0,007	-0,066
-727,152	28,987	-0,032	-0,020
-726,137	-122,462	0,115	0,014
-725,123	-123,431	-0,126	-0,014
-724,108	-111,319	-0,105	-0,015
-723,094	90,168	-0,087	0,071
-722,079	47,539	-0,091	0,062
-721,064	152,050	-0,027	0,026
-720,050	-200,000	0,008	-0,060
-719,035	383,453	0,057	-0,086
-718,021	-200,000	-0,045	-0,161
-717,006	-91,840	-0,071	-0,014
-715,991	255,034	-0,040	-0,050
-714,977	-139,961	0,131	-0,010
-713,962	220,244	0,043	-0,050
-712,948	110,483	0,093	0,081
-711,933	-106,645	0,127	0,020
-710,918	40,881	-0,053	-0,035
-709,904	-200,000	0,002	-0,024
-708,889	800,000	-0,037	-0,109
-707,875	280,889	-0,080	-0,104
-706,860	-73,239	0,098	0,026
-705,845	-200,000	0,024	0,092
-704,831	-200,000	0,000	-0,013
-703,816	261,511	-0,065	-0,083
-702,802	23,878	-0,073	-0,044
-701,787	-200,000	-0,026	-0,147
-700,772	800,000	-0,065	-0,174
-699,758	-51,268	-0,080	0,027
-698,743	41,826	0,055	0,036
-697,729	-6,161	0,125	0,062
-696,714	800,000	-0,033	-0,093
-695,699	146,973	0,046	-0,045
-694,685	-200,000	0,001	-0,007
-693,670	22,223	-0,048	-0,029
-692,656	-53,932	-0,026	0,009
-691,641	-200,000	-0,002	0,095
-690,627	87,041	0,094	0,076
-689,612	489,300	-0,026	0,043
-688,597	24,090	0,020	0,012
-687,583	301,577	-0,091	-0,123
-686,568	225,992	-0,029	-0,034
-685,554	-119,359	0,175	-0,022
-684,539	8,093	-0,069	-0,038
-683,524	-76,433	-0,108	-0,027
-682,510	800,000	0,018	0,040
-681,495	80,587	0,139	-0,109
-680,481	-128,245	-0,056	0,006
-679,466	71,558	-0,047	-0,035
-678,451	-200,000	0,005	-0,016
-677,437	94,463	0,028	-0,023
-676,422	197,803	-0,122	0,135
-675,408	14,594	0,029	0,016
-674,393	-26,696	-0,052	-0,022
-673,378	217,658	-0,117	-0,136
-672,364	531,152	-0,047	-0,081
-671,349	-200,000	0,032	0,141
-670,335	44,056	0,092	0,061
-669,320	-98,645	-0,031	0,006
-668,305	-200,000	-0,009	0,097
-667,291	-48,643	-0,054	-0,019
-666,276	-73,831	-0,167	0,044
-665,262	372,544	-0,081	-0,120
-664,247	359,158	0,095	-0,138
-663,232	-129,032	-0,146	0,015
-662,218	388,471	-0,032	-0,048
-661,203	-130,437	0,109	-0,011
-660,189	66,326	-0,088	0,065
-659,174	-200,000	0,006	0,035
-658,159	-21,682	0,148	0,065
-657,145	442,360	-0,033	-0,053
-656,130	-200,000	0,017	0,151
-655,116	-200,000	0,012	0,167
-654,101	-200,000	0,003	-0,102
-653,086	258,324	-0,086	-0,108
-652,072	-200,000	0,007	-0,033
-651,057	-200,000	-0,019	-0,070
-650,043	-200,000	0,003	0,023
-649,028	-135,128	-0,139	-0,012
-648,014	247,413	0,096	0,118
-646,999	1,393	0,117	0,061
-645,984	-15,422	-0,055	-0,025
-644,970	-200,000	-0,006	0,086
-643,955	122,794	-0,066	-0,060
-642,941	-134,101	-0,193	-0,017
-641,926	449,442	0,029	-0,047
-640,911	-142,409	0,143	-0,010
-639,897	-147,018	0,095	-0,006
-638,882	-63,555	-0,040	-0,012
-637,868	-98,850	-0,185	-0,034
-636,853	-9,621	-0,038	0,018
-635,838	289,261	0,067	-0,088
-634,824	800,000	0,044	-0,094
-633,809	800,000	-0,034	-0,083
-632,795	800,000	-0,004	-0,009
-631,780	-34,587	0,010	0,004
-630,765	413,908	0,028	-0,043
-629,751	-12,126	0,159	-0,075
-628,736	139,594	-0,068	-0,065
-627,722	-200,000	0,011	-0,058
-626,707	-200,000	-0,002	0,035
-625,692	18,151	-0,021	0,012
-624,678	-62,858	-0,141	0,042
-623,663	38,402	-0,071	0,046
-622,649	800,000	-0,005	0,011
-621,634	-116,187	-0,055	0,007
-620,619	66,763	-0,052	0,039
-619,605	461,288	-0,022	0,036
-618,590	-200,000	-0,011	0,063
-617,576	-200,000	0,005	0,068
-616,561	-200,000	-0,014	0,124
-615,546	688,383	0,067	0,128
-614,532	594,014	-0,039	-0,070
-613,517	-67,336	-0,066	0,019
-612,503	-75,478	0,055	0,014
-611,488	236,554	0,089	-0,107
-610,474	800,000	-0,075	0,189
-609,459	707,939	-0,019	0,037
-608,444	450,824	-0,044	0,071
-607,430	70,022	-0,193	-0,144
-606,415	-200,000	-0,032	-0,110
-605,401	-200,000	-0,010	0,124
-604,386	-25,551	0,014	0,006
-603,371	-200,000	0,008	-0,050
-602,357	800,000	0,003	0,008
-601,342	-200,000	0,034	-0,174
-600,328	232,153	-0,123	-0,146
-599,313	800,000	0,032	0,092
-598,298	54,938	-0,016	0,011
-597,284	-29,635	0,173	0,071
-596,269	-60,247	0,079	0,024
-595,255	-200,000	-0,031	-0,143
-594,240	-16,040	0,106	-0,049
-593,225	550,033	0,020	0,034
-592,211	800,000	-0,050	0,133
-591,196	-200,000	0,017	0,061
-590,182	-200,000	0,014	0,072
-589,167	-200,000	-0,014	0,058
-588,152	157,248	0,149	0,150
-587,138	89,754	-0,103	0,083
-586,123	-72,864	-0,063	0,017
-585,109	-200,000	-0,034	-0,190
-584,094	-200,000	-0,013	-0,116
-583,079	-200,000	0,017	-0,063
-582,065	202,238	0,112	-0,125
-581,050	800,000	-0,046	0,121
-580,036	-36,227	-0,091	0,036
-579,021	270,013	-0,051	0,065
-578,006	-40,907	-0,087	-0,032
-576,992	-200,000	0,044	-0,147
-575,977	-200,000	-0,008	-0,041
-574,963	-41,427	-0,041	0,015
-573,948	274,369	0,064	-0,082
-572,934	-150,931	-0,074	-0,004
-571,919	-141,610	-0,126	-0,009
-570,904	111,821	-0,108	-0,094
-569,890	800,000	0,056	-0,172
-568,875	-12,936	-0,189	0,089
-567,861	-115,639	0,071	-0,010
-566,846	66,888	0,056	-0,041
-565,831	72,281	0,062	-0,046
-564,817	-200,000	-0,009	-0,125
-563,802	60,376	-0,036	-0,025
-562,788	-98,574	-0,012	-0,002
-561,773	-200,000	0,003	0,052
-560,758	253,242	-0,034	-0,042
-559,744	-30,748	0,196	0,080
-558,729	-103,856	-0,080	0,013
-557,715	171,294	0,078	-0,081
-556,700	-200,000	-0,018	-0,129
-555,685	800,000	0,038	-0,112
-554,671	245,034	0,040	0,048
-553,656	-26,230	0,032	-0,013
-552,642	319,051	0,048	0,066
-551,627	136,585	0,056	-0,053
-550,612	233,553	-0,072	-0,086
-549,598	-200,000	-0,009	-0,092
-548,583	-200,000	0,044	-0,148
-547,569	-200,000	0,024	-0,154
-546,554	54,470	0,089	0,062
-545,539	-92,963	0,087	0,017
-544,525	-49,793	-0,116	0,039
-543,510	480,093	0,039	0,064
-542,496	39,994	-0,139	-0,090
-541,481	-200,000	0,001	-0,079
-540,466	185,087	0,021	0,023
-539,452	545,536	0,077	0,134
-538,437	-127,989	0,059	0,006
-537,423	800,000	0,039	-0,112
-536,408	-100,978	-0,034	-0,006
-535,393	-84,180	-0,117	-0,027
-534,379	-200,000	0,009	-0,119
-533,364	156,506	-0,060	-0,060
-532,350	-200,000	-0,011	-0,044
-531,335	-93,874	0,147	-0,029
-530,321	-81,528	0,089	-0,021
-529,306	278,659	0,059	-0,077
-528,291	429,874	-0,106	-0,165
-527,277	28,275	-0,145	-0,089
-526,262	-200,000	-0,012	-0,076
-525,248	-127,894	-0,083	-0,009
-524,233	370,955	0,088	0,129
-523,218	80,902	0,117	0,091
-522,204	-8,832	-0,080	0,039
-521,189	151,373	0,133	-0,131
-520,175	43,387	-0,093	-0,062
-519,160	800,000	-0,086	-0,224
-518,145	-5,991	0,066	-0,032
-517,131	294,832	0,137	0,181
-516,116	63,510	-0,054	-0,039
-515,102	-200,000	-0,007	0,127
-514,087	-78,758	-0,032	0,008
-513,072	-149,497	-0,103	-0,006
-512,058	611,396	-0,047	-0,086
-511,043	-79,037	0,060	-0,015
-510,029	-6,806	-0,066	0,032
-509,014	56,698	0,082	0,057
-507,999	53,235	-0,062	0,043
-506,985	57,188	0,058	-0,041
-505,970	800,000	-0,028	0,063
-504,956	-200,000	-0,017	0,120
-503,941	-73,401	0,129	0,034
-502,926	800,000	0,077	0,203
-501,912	220,479	-0,101	0,117
-500,897	148,201	-0,041	0,040
-499,883	2,144	-0,071	0,037
-498,868	169,874	-0,110	-0,114
-497,853	107,410	-0,092	-0,079
-496,839	310,146	0,072	0,097
-495,824	-65,797	0,090	0,026
-494,810	570,625	-0,023	0,041
-493,795	320,256	0,058	-0,079
-492,781	4,374	-0,099	-0,052
-491,766	45,937	-0,074	-0,049
-490,751	-200,000	-0,002	-0,147
-489,737	-47,325	-0,107	0,037
-488,722	-200,000	0,001	0,035
-487,708	-200,000	-0,000	0,110
-486,693	-200,000	0,007	0,134
-485,678	116,344	0,089	0,079
-484,664	154,294	0,065	0,065
-483,649	-174,179	0,072	-0,001
-482,635	-166,624	-0,004	0,000
-481,620	-200,000	-0,014	0,075
-480,605	-200,000	0,030	0,123
-479,591	40,035	0,045	0,029
-478,576	800,000	-0,018	-0,058
-477,562	153,466	0,012	-0,012
-476,547	37,777	-0,107	-0,068
-475,532	-18,785	0,022	-0,010
-474,518	378,449	-0,044	-0,066
-473,503	151,116	0,078	0,077
-472,489	-200,000	0,025	-0,116
-471,474	182,481	-0,068	0,073
-470,459	67,608	0,003	-0,002
-469,445	215,897	-0,116	-0,132
-468,430	-128,742	0,038	0,004
-467,416	42,926	-0,039	-0,026
-466,401	14,704	0,161	0,091
-465,386	800,000	0,078	0,182
-464,372	-138,704	-0,042	-0,003
-463,357	-45,640	0,146	-0,052
-462,343	384,717	-0,034	0,050
-461,328	181,937	-0,063	0,067
-460,313	-88,355	0,148	-0,032
-459,299	800,000	0,027	-0,058
-458,284	-61,909	0,164	0,049
-457,270	48,424	0,085	-0,058
-456,255	400,231	-0,060	-0,091
-455,241	144,683	0,042	-0,040
-454,226	800,000	-0,058	-0,123
-453,211	-188,153	0,076	0,001
-452,197	173,305	0,054	-0,057
-451,182	651,316	0,082	0,152
-450,168	99,108	-0,037	-0,031
-449,153	439,009	-0,032	-0,050
-448,138	-200,000	-0,009	-0,078
-447,124	800,000	0,055	-0,161
-446,109	800,000	0,014	-0,029
-445,095	-200,000	-0,017	0,175
-444,080	-96,932	0,064	0,012
-443,065	-117,750	-0,062	0,008
-442,051	132,597	-0,071	0,066
-441,036	202,980	-0,031	0,034
-440,022	-200,000	0,019	-0,140
-439,007	800,000	0,033	0,096
-437,992	-200,000	0,004	0,070
-436,978	-200,000	-0,002	0,112
-435,963	-17,967	-0,122	0,055
-434,949	-79,614	0,079	0,019
-433,934	-63,006	-0,250	0,074
-432,919	-115,641	0,029	0,004
-431,905	39,605	-0,064	-0,041
-430,890	728,444	0,022	-0,043
-429,876	-130,660	0,184	0,018
-428,861	191,302	-0,079	-0,086
-427,846	-166,372	0,073	0,002
-426,832	-170,209	0,094	-0,002
-425,817	800,000	-0,031	-0,081
-424,803	-200,000	-0,043	-0,137
-423,788	-90,511	0,101	-0,021
-422,773	20,272	0,035	0,020
-421,759	34,172	-0,006	-0,003
-420,744	174,520	0,017	0,017
-419,730	167,780	0,095	-0,098
-418,715	800,000	0,039	-0,109
-417,701	-49,308	-0,136	0,046
-416,686	19,477	-0,060	0,035
-415,671	800,000	-0,071	0,149
-414,657	-76,882	0,135	-0,034
-413,642	25,060	-0,143	0,085
-412,628	800,000	0,015	-0,041
-411,613	442,022	-0,039	-0,062
-410,598	98,971	0,049	0,040
-409,584	-200,000	-0,032	0,116
-408,569	197,185	0,023	0,026
-407,555	555,873	-0,032	0,056
-406,540	800,000	0,007	-0,014
-405,525	-200,000	-0,019	-0,081
-404,511	800,000	0,030	0,072
-403,496	-200,000	-0,015	0,096
-402,482	800,000	0,031	0,065
-401,467	800,000	-0,053	0,117
-400,452	27,431	0,102	0,062
-399,438	85,003	-0,029	0,023
-398,423	748,579	-0,056	0,109
-397,409	-136,030	-0,034	-0,003
-396,394	235,606	0,040	-0,047
-395,379	386,027	0,028	-0,041
-394,365	354,795	0,080	0,115
-393,350	89,969	-0,074	0,059
-392,336	748,004	-0,092	-0,179
-391,321	-200,000	0,015	0,052
-390,306	417,118	-0,017	-0,026
-389,292	211,935	-0,012	-0,014
-388,277	289,608	-0,070	-0,092
-387,263	-200,000	-0,004	0,029
-386,248	12,797	-0,182	0,100
-385,233	-169,283	0,096	0,002
-384,219	790,768	-0,074	-0,147
-383,204	618,038	-0,025	-0,046
-382,190	41,557	-0,094	0,061
-381,175	-200,000	0,006	-0,047
-380,160	-78,873	0,096	0,023
-379,146	-199,408	-0,056	-0,000
-378,131	800,000	-0,022	-0,056
-377,117	-97,612	-0,088	0,016
-376,102	571,922	0,023	0,041
-375,088	48,487	-0,096	-0,064
-374,073	768,862	-0,027	-0,054
-373,058	-200,000	0,001	0,120
-372,044	51,410	-0,076	0,052
-371,029	116,095	0,036	-0,032
-370,015	451,963	-0,067	0,106
-369,000	305,595	-0,090	-0,120
-367,985	178,815	-0,027	-0,029
-366,971	56,170	-0,072	-0,050
-365,956	-40,932	0,102	-0,038
-364,942	215,212	-0,039	0,044
-363,927	75,547	0,055	0,041
-362,912	-114,855	-0,093	-0,013
-361,898	145,050	0,048	0,046
-360,883	406,903	0,017	-0,026
-359,869	-28,198	-0,121	0,050
-358,854	-5,537	-0,147	0,072
-357,839	149,413	0,088	0,085
-356,825	30,168	0,018	-0,011
-355,810	-21,700	-0,029	0,013
-354,796	463,061	0,022	-0,036
-353,781	-200,000	0,006	-0,099
-352,766	800,000	-0,006	0,016
-351,752	-76,998	0,080	-0,020
-350,737	-76,781	0,021	0,005
-349,723	27,058	0,029	0,017
-348,708	800,000	-0,021	-0,048
-347,693	-200,000	-0,046	0,194
-346,679	-140,583	-0,015	0,001
-345,664	-200,000	-0,026	-0,127
-344,650	-200,000	0,004	-0,027
-343,635	800,000	0,004	0,013
-342,620	210,000	0,047	-0,053
-341,606	800,000	-0,024	0,053
-340,591	9,292	-0,026	-0,014
-339,577	322,102	0,076	0,104
-338,562	800,000	0,028	-0,065
-337,548	-8,741	0,116	-0,055
-336,533	258,575	0,013	-0,016
-335,518	372,275	0,046	0,067
-334,504	-69,335	0,085	0,023
-333,489	-118,610	-0,033	-0,004
-332,475	212,071	-0,088	0,100
-331,460	14,451	-0,037	0,021
-330,445	-49,499	-0,106	0,036
-329,431	-200,000	0,003	0,119
-328,416	-123,624	0,162	0,018
-327,402	-200,000	-0,004	0,029
-326,387	-103,743	0,185	0,031
-325,372	-94,177	-0,076	0,015
-324,358	800,000	-0,033	-0,066
-323,343	-200,000	-0,014	0,089
-322,329	800,000	-0,007	0,015
-321,314	-200,000	-0,019	0,079
-320,299	-200,000	0,000	0,011
-319,285	-69,419	0,098	0,027
-318,270	-70,631	-0,109	0,029
-317,256	800,000	-0,023	0,069
-316,241	437,622	0,008	-0,012
-315,226	16,907	-0,117	-0,066
-314,212	-200,000	0,007	0,023
-313,197	338,231	0,090	-0,125
-312,183	384,333	-0,037	0,054
-311,168	-87,708	-0,078	-0,017
-310,153	-131,511	-0,116	-0,011
-309,139	800,000	0,056	-0,118
-308,124	-2,219	-0,051	-0,025
-307,110	-200,000	-0,001	0,092
-306,095	-77,264	0,114	0,028
-305,080	-11,919	0,041	0,019
-304,066	5,365	0,112	0,059
-303,051	81,997	0,010	0,008
-302,037	591,241	-0,038	0,067
-301,022	335,697	0,085	0,118
-300,008	82,469	-0,063	0,049
-298,993	67,055	0,112	0,082
-297,978	-70,870	-0,055	-0,015
-296,964	302,513	-0,013	0,017
-295,949	592,077	-0,037	0,065
-294,935	415,745	-0,027	-0,041
-293,920	800,000	0,066	-0,145
-292,905	-200,000	0,012	0,070
-291,891	80,956	0,112	-0,086
-290,876	95,221	-0,075	0,061
-289,862	-200,000	0,014	-0,075
-288,847	24,123	-0,110	-0,065
-287,832	-37,217	0,114	-0,044
-286,818	-57,562	-0,152	0,048
-285,803	228,533	0,060	-0,070
-284,789	-113,582	0,091	0,013
-283,774	253,636	0,061	0,075
-282,759	-16,071	-0,090	-0,041
-281,745	-7,765	0,091	-0,044
-280,730	-74,303	-0,150	0,038
-279,716	800,000	-0,021	-0,052
-278,701	-40,257	0,131	-0,048
-277,686	-190,232	-0,069	-0,001
-276,672	-50,537	-0,053	0,018
-275,657	-34,647	0,034	0,013
-274,643	-7,621	-0,005	-0,002
-273,628	234,974	0,067	-0,080
-272,613	-200,000	-0,051	0,000
-271,599	148,139	0,047	0,045
-270,584	142,688	0,076	0,072
-269,570	180,713	-0,024	0,025
-268,555	379,329	0,029	-0,043
-267,540	800,000	-0,005	0,011
-266,526	-200,000	-0,033	-0,104
-265,511	98,622	0,077	-0,063
-264,497	800,000	-0,018	-0,041
-263,482	6,840	0,052	-0,028
-262,467	201,914	-0,044	0,049
-261,453	800,000	-0,047	-0,113
-260,438	123,659	-0,100	0,090
-259,424	-133,722	-0,040	-0,004
-258,409	-200,000	0,001	-0,183
-257,395	219,951	-0,044	-0,051
-256,380	-45,702	0,079	-0,028
-255,365	279,675	0,122	0,156
-254,351	-148,214	0,118	-0,007
-253,336	-200,000	-0,033	-0,188
-252,322	-81,568	0,068	0,016
-251,307	36,882	-0,045	-0,028
-250,292	158,855	0,054	-0,054
-249,278	-200,000	0,061	0,290
-248,263	54,510	0,154	0,106
-247,249	474,721	0,042	0,068
-246,234	22,929	-0,112	0,065
-245,219	340,016	-0,017	0,023
-244,205	800,000	-0,024	-0,055
-243,190	-200,000	0,050	0,181
-242,176	542,251	0,018	-0,031
-241,161	372,114	-0,020	-0,030
-240,146	46,639	0,107	-0,071
-239,132	525,775	-0,052	0,087
-238,117	-151,373	-0,020	-0,001
-237,103	-200,000	0,011	0,060
-236,088	-134,207	-0,037	-0,003
-235,073	-48,955	-0,092	0,031
-234,059	-200,000	0,024	0,144
-233,044	98,942	0,099	0,081
-232,030	90,985	0,098	-0,078
-231,015	-200,000	0,004	0,027
-230,000	800,000	0,075	-0,226
-228,986	270,637	-0,040	-0,050
-227,971	-118,928	0,099	-0,012
-226,957	323,211	0,027	0,036
-225,942	163,952	0,123	-0,124
-224,927	-92,316	-0,114	0,023
-223,913	396,371	0,026	0,040
-222,898	514,404	0,052	-0,087
-221,884	-104,477	-0,169	0,028
-220,869	-200,000	0,019	0,094
-219,855	626,909	0,045	0,081
-218,840	441,168	-0,054	0,085
-217,825	-117,947	-0,075	-0,009
-216,811	-82,381	-0,105	0,024
-215,796	18,585	-0,149	-0,085
-214,782	525,580	-0,025	0,042
-213,767	-105,058	0,175	-0,028
-212,752	122,014	0,069	0,061
-211,738	308,615	0,050	0,067
-210,723	196,775	0,015	0,016
-209,709	226,020	0,020	-0,023
-208,694	-200,000	-0,001	0,014
-207,679	-200,000	0,001	-0,038
-206,665	-200,000	0,029	0,182
-205,650	49,280	0,124	0,083
-204,636	-136,784	0,079	0,006
-203,621	-200,000	-0,008	0,087
-202,606	-77,329	-0,099	0,024
-201,592	329,051	0,037	-0,051
-200,577	156,169	-0,054	0,053
-199,563	800,000	-0,034	0,095
-198,548	-178,705	-0,094	-0,001
-197,533	-64,765	0,050	-0,014
-196,519	-139,516	0,108	0,008
-195,504	60,560	0,006	0,005
-194,490	-200,000	-0,028	-0,102
-193,475	132,627	0,011	-0,010
-192,460	121,535	-0,082	-0,073
-191,446	1,674	-0,095	0,049
-190,431	16,966	0,028	-0,016
-189,417	649,406	0,015	0,028
-188,402	-87,559	-0,066	0,014
-187,387	18,000	-0,111	-0,063
-186,373	2,584	-0,153	-0,079
-185,358	-200,000	-0,023	0,112
-184,344	-36,967	0,167	-0,063
-183,329	6,357	0,088	0,046
-182,315	184,536	-0,044	0,046
-181,300	170,517	0,064	-0,066
-180,285	209,501	0,069	-0,077
-179,271	-200,000	0,007	-0,068
-178,256	800,000	0,038	-0,088
-177,242	152,297	0,047	0,045
-176,227	177,479	0,064	0,067
-175,212	-77,830	-0,063	0,015
-174,198	3,079	-0,104	0,054
-173,183	545,110	0,029	-0,050
-172,169	526,746	0,006	0,010
-171,154	40,488	0,044	-0,028
-170,139	-111,570	0,038	0,005
-169,125	-200,000	0,002	0,096
-168,110	389,095	-0,043	-0,063
-167,096	-2,192	-0,049	-0,024
-166,081	691,049	-0,011	-0,021
-165,066	96,581	-0,019	-0,016
-164,052	2,014	0,021	-0,011
-163,037	28,724	0,032	-0,019
-162,023	-171,991	0,106	0,002
-161,008	75,442	0,082	0,061
-159,993	-67,283	0,105	0,029
-158,979	-179,970	-0,061	0,001
-157,964	-200,000	0,003	-0,095
-156,950	0,455	-0,142	-0,072
-155,935	236,590	-0,052	-0,061
-154,920	676,147	0,021	-0,039
-153,906	8,473	0,023	-0,013
-152,891	-200,000	0,004	-0,103
-151,877	-200,000	-0,009	-0,064
-150,862	-200,000	-0,004	0,034
-149,847	53,592	0,056	-0,038
-148,833	252,857	0,114	0,139
-147,818	203,138	0,079	-0,086
-146,804	-117,996	0,025	0,003
-145,789	800,000	0,054	-0,125
-144,775	39,860	-0,086	-0,055
-143,760	65,429	-0,075	-0,054
-142,745	-122,586	-0,021	-0,002
-141,731	-200,000	0,045	-0,148
-140,716	-200,000	-0,080	0,000
-139,702	547,131	0,043	0,074
-138,687	800,000	-0,049	0,123
-137,672	-200,000	-0,015	0,092
-136,658	-44,947	-0,070	-0,025
-135,643	347,045	0,069	0,096
-134,629	800,000	-0,041	0,091
-133,614	-33,220	0,067	-0,026
-132,599	519,392	0,030	-0,050
-131,585	192,432	0,033	0,036
-130,570	736,992	-0,057	-0,108
-129,556	595,506	-0,048	-0,085
-128,541	800,000	0,033	-0,083
-127,526	800,000	-0,030	-0,062
-126,512	321,258	0,013	0,017
-125,497	800,000	-0,051	0,141
-124,483	65,051	-0,111	0,079
-123,468	179,214	0,044	-0,046
-122,453	800,000	-0,039	-0,104
-121,439	192,269	0,022	-0,023
-120,424	644,351	-0,079	-0,144
-119,410	560,635	0,011	-0,020
-118,395	739,800	0,062	0,119
-117,380	139,839	-0,028	-0,026
-116,366	-76,130	0,150	-0,037
-115,351	-4,160	-0,064	-0,031
-114,337	-108,717	-0,169	0,026
-113,322	-24,191	0,010	-0,004
-112,307	-122,261	-0,069	-0,008
-111,293	-53,798	0,077	0,025
-110,278	-111,715	0,048	-0,007
-109,264	800,000	-0,050	0,140
-108,249	138,129	-0,041	0,038
-107,234	145,400	-0,056	0,053
-106,220	-200,000	0,009	-0,102
-105,205	-137,337	-0,041	0,003
-104,191	276,853	-0,068	0,087
-103,176	-61,072	-0,180	0,054
-102,162	663,557	-0,082	0,150
-101,147	584,207	-0,094	-0,164
-100,132	-140,735	-0,174	0,013
-99,118	-145,276	-0,020	-0,001
-98,103	595,736	-0,019	-0,034
-97,089	259,797	-0,031	0,038
-96,074	-7,329	-0,046	-0,022
-95,059	506,501	0,072	-0,118
-94,045	130,147	-0,077	0,070
-93,030	-21,610	-0,046	0,020
-92,016	-78,466	-0,057	-0,014
-91,001	-200,000	-0,021	-0,085
-89,986	161,260	0,022	-0,022
-88,972	-200,000	-0,003	0,114
-87,957	740,887	0,077	0,147
-86,943	-200,000	0,022	0,110
-85,928	800,000	0,011	-0,025
-84,913	-200,000	0,024	-0,093
-83,899	221,460	0,052	0,059
-82,884	106,038	-0,070	-0,059
-81,870	-114,663	0,015	-0,002
-80,855	282,017	0,036	0,046
-79,840	-200,000	-0,002	0,130
-78,826	119,951	0,082	-0,072
-77,811	-80,819	-0,114	0,027
-76,797	18,245	-0,032	-0,018
-75,782	-200,000	-0,005	0,087
-74,767	-200,000	0,028	0,141
-73,753	-41,858	0,203	-0,073
-72,738	800,000	0,043	0,121
-71,724	-200,000	0,015	-0,052
-70,709	-200,000	0,019	0,070
-69,694	84,549	-0,123	-0,095
-68,680	800,000	0,011	-0,021
-67,665	140,318	0,084	0,079
-66,651	-200,000	0,033	0,122
-65,636	203,840	-0,098	0,108
-64,622	266,025	0,031	0,039
-63,607	-200,000	0,029	-0,121
-62,592	800,000	-0,082	-0,190
-61,578	-148,372	-0,044	0,003
-60,563	-35,209	0,117	-0,045
-59,549	-9,374	0,028	0,013
-58,534	-72,881	-1,408	-0,365
-57,519	383,636	-1,495	-2,189
-56,505	-200,000	-0,470	-4,477
-55,490	84,304	0,935	0,724
-54,476	800,000	4,915	11,288
-53,461	-200,000	17,666	282,263
-52,446	800,000	720,422	2226,906
-51,432	563,930	1635,038	2818,938
-50,417	80,925	1658,877	1267,817
-49,403	23,710	1532,907	892,755
-48,388	17,688	1456,331	819,104
-47,373	18,187	1446,069	815,692
-46,359	17,827	1436,502	808,547
-45,344	15,975	1431,877	797,105
-44,330	15,901	1429,851	795,594
-43,315	15,906	1428,405	794,783
-42,300	15,885	1426,613	793,652
-41,286	16,001	1425,198	793,384
-40,271	15,916	1424,206	792,398
-39,257	15,933	1422,862	791,700
-38,242	15,956	1421,380	790,954
-37,227	15,992	1420,200	790,435
-36,213	15,950	1419,155	789,623
-35,198	15,934	1417,902	788,819
-34,184	15,984	1416,869	788,448
-33,169	15,865	1415,786	787,254
-32,154	15,950	1414,755	787,049
-31,140	15,967	1413,277	786,275
-30,125	15,955	1412,089	785,527
-29,111	15,963	1410,922	784,887
-28,096	15,919	1409,907	784,082
-27,082	15,868	1408,906	783,257
-26,067	15,898	1407,584	782,632
-25,052	15,877	1406,748	782,036
-24,038	15,852	1405,710	781,310
-23,023	15,846	1404,594	780,632
-22,009	15,841	1403,471	779,953
-20,994	15,780	1402,704	779,215
-19,979	15,861	1401,708	779,008
-18,965	15,791	1400,790	778,137
-17,950	15,781	1399,971	777,607
-16,936	15,796	1399,024	777,119
-15,921	15,838	1397,519	776,450
-14,906	15,799	1396,611	775,732
-13,892	15,775	1395,745	775,107
-12,877	15,767	1394,995	774,624
-11,863	15,766	1394,042	774,058
-10,848	15,756	1393,086	773,452
-9,833	15,743	1392,165	772,851
-8,819	15,745	1391,155	772,269
-7,804	15,721	1390,231	771,613
-6,790	15,684	1389,129	770,798
-5,775	15,681	1388,195	770,239
-4,760	15,709	1387,329	769,856
-3,746	15,651	1386,592	769,151
-2,731	15,615	1386,007	768,627
-1,717	15,610	1384,983	768,009
-0,702	15,659	1382,967	767,083
0,313	19,440	1303,727	740,583
1,327	35,600	706,843	438,989
2,342	54,521	125,301	85,426
3,356	1,481	16,668	8,466
4,371	-2,019	3,107	1,541
5,386	-7,894	0,507	0,241
6,400	-200,000	0,006	0,176
7,415	-68,629	-0,212	-0,058
8,429	127,241	-0,300	-0,269
9,444	262,165	-0,242	-0,298
10,459	90,082	-0,230	-0,182
11,473	-11,610	-0,318	-0,147
12,488	46,740	-0,310	-0,203
13,502	63,477	-0,356	-0,253
14,517	213,254	-0,282	-0,316
15,531	83,985	-0,340	-0,262
16,546	45,858	-0,253	-0,165
17,561	99,954	-0,378	-0,310
18,575	-31,249	-0,229	-0,091
19,590	342,361	-0,306	-0,425
20,604	33,100	-0,160	-0,098
21,619	58,662	-0,426	-0,295
22,634	137,424	-0,409	-0,378
23,648	47,183	-0,526	-0,345
24,663	114,812	-0,301	-0,260
25,677	-56,176	-0,327	-0,102
26,692	43,299	-0,346	-0,223
27,707	68,871	-0,432	-0,313
28,721	64,359	-0,313	-0,223
29,736	19,991	-0,423	-0,240
30,750	182,523	-0,422	-0,440
31,765	94,659	-0,303	-0,243
32,780	121,376	-0,386	-0,339
33,794	8,235	-0,369	-0,195
34,809	-9,961	-0,406	-0,190
35,823	87,859	-0,341	-0,267
36,838	66,503	-0,377	-0,270
37,853	-38,519	-0,542	-0,201
38,867	191,824	-0,434	-0,463
39,882	82,057	-0,306	-0,234
40,896	0,136	-0,332	-0,167
41,911	34,003	-0,358	-0,220
42,926	9,029	-0,359	-0,191
43,940	191,518	-0,371	-0,395
44,955	264,824	-0,336	-0,414
45,969	-102,034	-0,426	-0,072
46,984	67,442	-0,315	-0,227
47,999	144,777	-0,311	-0,294
49,013	169,321	-0,215	-0,217
50,028	70,146	-0,391	-0,284
51,042	10,648	-0,425	-0,228
52,057	118,489	-0,327	-0,285
53,071	-3,520	-0,290	-0,142
54,086	4,104	-0,324	-0,167
55,101	15,073	-0,318	-0,175
56,115	123,971	-0,327	-0,289
57,130	9,641	-0,392	-0,209
58,144	76,228	-0,335	-0,250
59,159	141,124	-0,429	-0,400
60,174	229,071	-0,302	-0,348
61,188	177,267	-0,281	-0,288
62,203	-38,939	-0,346	-0,128
63,217	54,565	-0,331	-0,224
64,232	38,107	-0,240	-0,150
65,247	-40,722	-0,339	-0,123
66,261	96,954	-0,396	-0,320
67,276	113,021	-0,296	-0,253
68,290	116,181	-0,267	-0,230
69,305	-73,439	-0,411	-0,105
70,320	94,731	-0,185	-0,148
71,334	263,877	-0,230	-0,283
72,349	-42,477	-0,429	-0,153
73,363	10,193	-0,363	-0,194
74,378	78,339	-0,272	-0,204
75,393	30,548	-0,323	-0,194
76,407	133,351	-0,221	-0,201
77,422	-76,182	-0,344	-0,085
78,436	150,320	-0,242	-0,231
79,451	-20,628	-0,360	-0,155
80,466	-36,652	-0,391	-0,147
81,480	146,489	-0,259	-0,244
82,495	5,094	-0,303	-0,157
83,509	39,128	-0,325	-0,204
84,524	-64,179	-0,310	-0,088
85,539	-79,479	-0,357	-0,084
86,553	14,252	-0,283	-0,155
87,568	58,387	-0,332	-0,229
88,582	30,260	-0,255	-0,153
89,597	179,263	-0,246	-0,253
90,611	27,782	-0,368	-0,217
91,626	415,639	-0,119	-0,179
92,641	-18,322	-0,282	-0,123
93,655	-133,580	-0,259	-0,022
94,670	-11,946	-0,378	-0,173
95,684	11,945	-0,267	-0,144
96,699	51,331	-0,257	-0,171
97,714	-30,961	-0,287	-0,113
98,728	284,669	-0,225	-0,286
99,743	-8,411	-0,257	-0,121
100,757	-14,897	-0,191	-0,086
101,772	-33,882	-0,371	-0,143
102,787	142,731	-0,323	-0,301
103,801	133,150	-0,231	-0,210
104,816	-110,297	-0,270	-0,039
105,830	-70,148	-0,210	-0,056
106,845	42,219	-0,223	-0,142
107,860	-113,736	-0,357	-0,048
108,874	169,467	-0,223	-0,224
109,889	107,036	-0,218	-0,182
110,903	124,531	-0,287	-0,253
111,918	-97,814	-0,303	-0,055
112,933	-56,987	-0,217	-0,067
113,947	88,747	-0,158	-0,123
114,962	182,880	-0,237	-0,246
115,976	118,638	-0,202	-0,175
116,991	128,536	-0,257	-0,229
118,006	74,837	-0,255	-0,188
119,020	-84,771	-0,366	-0,080
120,035	197,610	-0,128	-0,137
121,049	800,000	-0,114	-0,229
122,064	575,169	-0,147	-0,252
123,079	261,885	-0,141	-0,171
124,093	324,340	-0,217	-0,291
125,108	-47,334	-0,275	-0,093
126,122	672,905	-0,135	-0,247
127,137	-70,015	-0,222	-0,059
128,151	242,516	-0,205	-0,241
129,166	214,161	-0,193	-0,214
130,181	-70,889	-0,341	-0,090
131,195	-7,661	-0,242	-0,114
132,210	60,802	-0,235	-0,163
133,224	35,034	-0,289	-0,177
134,239	343,498	-0,135	-0,186
135,254	76,427	-0,329	-0,244
136,268	91,275	-0,307	-0,241
137,283	731,207	-0,130	-0,244
138,297	80,200	-0,224	-0,169
139,312	-63,392	-0,221	-0,063
140,327	92,802	-0,273	-0,216
141,341	800,000	-0,099	-0,251
142,356	-111,366	-0,245	-0,035
143,370	95,932	-0,222	-0,178
144,385	21,976	-0,354	-0,201
145,400	580,981	-0,175	-0,301
146,414	48,748	-0,302	-0,198
147,429	259,328	-0,172	-0,208
148,443	181,847	-0,207	-0,213
149,458	112,871	-0,290	-0,246
150,473	109,934	-0,164	-0,137
151,487	252,282	-0,233	-0,278
152,502	-34,130	-0,392	-0,150
153,516	12,219	-0,424	-0,227
154,531	389,162	-0,224	-0,326
155,546	10,386	-0,249	-0,132
156,560	129,141	-0,248	-0,221
157,575	-22,916	-0,323	-0,136
158,589	174,879	-0,282	-0,285
159,604	142,643	-0,187	-0,174
160,619	390,313	-0,150	-0,219
161,633	151,129	-0,205	-0,195
162,648	32,876	-0,248	-0,150
163,662	71,665	-0,204	-0,148
164,677	634,486	-0,111	-0,197
165,692	-31,457	-0,232	-0,091
166,706	225,101	-0,170	-0,193
167,721	33,327	-0,245	-0,148
168,735	195,062	-0,180	-0,191
169,750	129,984	-0,208	-0,186
170,764	4,940	-0,204	-0,105
171,779	197,357	-0,130	-0,138
172,794	-84,072	-0,264	-0,058
173,808	358,687	-0,116	-0,162
174,823	261,607	-0,133	-0,161
175,837	83,462	-0,331	-0,251
176,852	199,028	-0,209	-0,224
177,867	47,358	-0,267	-0,174
178,881	408,536	-0,155	-0,230
179,896	542,432	-0,124	-0,207
180,910	-48,554	-0,353	-0,118
181,925	44,942	-0,294	-0,189
182,940	349,384	-0,121	-0,167
183,954	50,832	-0,277	-0,183
184,969	800,000	-0,050	-0,114
185,983	62,135	-0,144	-0,100
186,998	667,185	-0,086	-0,156
188,013	141,012	-0,219	-0,202
189,027	126,399	-0,288	-0,254
190,042	42,533	-0,248	-0,157
191,056	759,202	-0,146	-0,276
192,071	-36,520	-0,234	-0,087
193,086	-23,816	-0,248	-0,103
194,100	54,372	-0,202	-0,135
195,115	238,245	-0,199	-0,230
196,129	-121,190	-0,312	-0,036
197,144	-47,379	-0,337	-0,114
198,159	225,752	-0,155	-0,175
199,173	98,502	-0,183	-0,147
200,188	105,407	-0,123	-0,101
201,202	115,219	-0,135	-0,115
202,217	12,921	-0,253	-0,136
203,232	126,808	-0,201	-0,177
204,246	-76,288	-0,253	-0,062
205,261	-4,109	-0,187	-0,090
206,275	206,260	-0,220	-0,238
207,290	226,791	-0,170	-0,193
208,304	45,368	-0,068	-0,044
209,319	144,184	-0,246	-0,228
210,334	-167,376	-0,230	0,006
211,348	40,327	-0,203	-0,127
212,363	121,455	-0,218	-0,189
213,377	194,436	-0,137	-0,144
214,392	-84,972	-0,148	-0,032
215,407	-200,000	-0,057	-0,228
216,421	-152,987	-0,084	0,004
217,436	121,661	-0,184	-0,160
218,450	212,512	-0,161	-0,177
219,465	240,220	-0,153	-0,178
220,480	115,584	-0,264	-0,225
221,494	18,870	-0,247	-0,137
222,509	430,864	-0,150	-0,227
223,523	-18,362	-0,278	-0,120
224,538	-114,303	-0,085	0,011
225,553	800,000	-0,155	-0,300
226,567	58,813	-0,262	-0,178
227,582	-41,013	-0,203	-0,072
228,596	572,004	-0,129	-0,219
229,611	234,896	-0,143	-0,164
230,626	800,000	-0,096	-0,232
231,640	75,967	-0,223	-0,164
232,655	-6,063	-0,214	-0,101
233,669	80,796	-0,218	-0,163
234,684	248,467	-0,204	-0,240
235,699	79,990	-0,216	-0,161
236,713	236,430	-0,111	-0,128
237,728	-96,432	-0,143	-0,026
238,742	48,155	-0,211	-0,137
239,757	91,435	-0,338	-0,263
240,772	54,108	-0,088	-0,059
241,786	182,396	-0,259	-0,265
242,801	-27,686	-0,169	-0,068
243,815	28,756	-0,181	-0,106
244,830	-4,688	-0,248	-0,118
245,844	353,117	-0,200	-0,276
246,859	-9,074	-0,248	-0,114
247,874	419,125	-0,123	-0,182
248,888	107,390	-0,145	-0,119
249,903	336,865	-0,060	-0,081
250,917	-51,236	-0,200	-0,064
251,932	148,524	-0,119	-0,111
252,947	166,796	-0,094	-0,092
253,961	800,000	-0,105	-0,231
254,976	89,435	-0,147	-0,114
255,990	190,134	-0,220	-0,229
257,005	-200,000	-0,045	-0,182
258,020	-122,197	-0,103	0,012
259,034	-200,000	-0,204	0,000
260,049	-79,750	-0,379	-0,088
261,063	81,915	-0,191	-0,143
262,078	304,177	-0,114	-0,147
263,093	501,110	-0,131	-0,210
264,107	132,794	-0,258	-0,231
265,122	-22,221	-0,234	-0,098
266,136	-70,664	-0,199	-0,052
267,151	56,551	-0,107	-0,072
268,166	-13,581	-0,223	-0,100
269,180	36,468	-0,149	-0,091
270,195	22,361	-0,336	-0,189
271,209	-143,839	-0,187	-0,012
272,224	165,572	-0,174	-0,171
273,239	-38,723	-0,187	-0,068
274,253	-34,267	-0,196	-0,074
275,268	21,732	-0,186	-0,104
276,282	48,522	-0,306	-0,198
277,297	800,000	-0,064	-0,154
278,312	12,616	-0,297	-0,158
279,326	378,961	-0,082	-0,116
280,341	-177,751	-0,238	-0,004
281,355	597,371	-0,083	-0,143
282,370	84,722	-0,176	-0,133
283,384	123,691	-0,271	-0,235
284,399	376,559	-0,139	-0,196
285,414	1,629	-0,312	-0,155
286,428	124,846	-0,182	-0,158
287,443	269,617	-0,032	-0,039
288,457	800,000	-0,087	-0,208
289,472	-24,302	-0,273	-0,112
290,487	124,610	-0,149	-0,129
291,501	800,000	-0,107	-0,258
292,516	346,135	-0,137	-0,187
293,530	65,565	-0,181	-0,126
294,545	74,783	-0,113	-0,082
295,560	413,494	-0,102	-0,151
296,574	-76,990	-0,089	-0,021
297,589	8,226	-0,198	-0,102
298,603	-50,587	-0,175	-0,056
299,618	-176,336	-0,207	-0,004
300,633	-200,000	-0,056	-0,176
301,647	-200,000	-0,036	-0,128
302,662	-58,830	-0,260	-0,077
303,676	101,278	-0,231	-0,185
304,691	2,457	-0,210	-0,105
305,706	134,912	-0,154	-0,138
306,720	19,695	-0,145	-0,080
307,735	49,938	-0,081	-0,053
308,749	275,081	-0,155	-0,190
309,764	-97,569	-0,158	0,028
310,779	-79,547	-0,190	-0,044
311,793	-57,810	-0,186	-0,056
312,808	284,586	-0,086	-0,107
313,822	107,788	-0,203	-0,166
314,837	178,265	-0,242	-0,244
315,852	243,708	-0,082	-0,095
316,866	148,812	-0,147	-0,137
317,881	11,696	-0,134	-0,071
318,895	332,405	-0,081	-0,108
319,910	-200,000	-0,062	-0,207
320,925	263,318	-0,113	-0,136
321,939	17,812	-0,246	-0,134
322,954	554,346	-0,055	-0,092
323,968	341,051	-0,118	-0,160
324,983	648,589	-0,076	-0,135
325,997	418,189	-0,126	-0,186
327,012	168,180	-0,171	-0,167
328,027	176,698	-0,192	-0,193
329,041	114,068	-0,120	-0,100
330,056	285,635	-0,204	-0,253
331,070	-41,251	-0,127	-0,045
332,085	152,228	-0,052	0,049
333,100	800,000	-0,059	-0,170
334,114	298,449	-0,127	-0,162
335,129	629,150	-0,099	-0,173
336,143	30,006	-0,165	-0,096
337,158	110,011	-0,176	-0,145
338,173	-59,724	-0,134	-0,039
339,187	-44,072	-0,045	0,015
340,202	146,142	-0,082	-0,075
341,216	7,587	-0,069	0,035
342,231	176,917	-0,138	-0,139
343,246	472,445	-0,085	-0,133
344,260	-200,000	-0,014	-0,180
345,275	159,336	-0,116	-0,111
346,289	15,441	-0,125	-0,067
347,304	113,953	-0,112	-0,094
348,319	213,376	-0,083	-0,090
349,333	62,179	-0,071	-0,048
350,348	173,649	-0,135	-0,134
351,362	178,353	-0,218	-0,218
352,377	22,785	-0,197	-0,111
353,392	726,762	-0,043	0,079
354,406	-33,618	-0,158	-0,060
355,421	209,921	1313,642	1417,317
356,435	161,581	1474,277	1417,841
