DTS Sentinel unit serial number:	SN410029Multiplexer serial number:	ORYXHardware model number:	OX2-SRSoftware version number:	ORYX F/W v4,00 Oryx Data Collector v3.7.2.0data status	okinstallation	B3 Nyhavnadifferential loss correction	single-endedforward channel	channel 1reverse channel	N/Adate	2023/12/03time	20:47:30forward acquisition time	300,00reverse acquisition time	0,00gamma	499,1914k internal	0,3199k external	0,3199temperature offset calibration	1,0000default loss term (dB/km)	0,3820temperature slope calibration	1,0000multiplexer offset coefficient	1,0000multiplexer slope coefficient	1,0000fibre end	0,00T internal ref (°C)	13,85T ext. ref 1 (°C)	-1,55T ext. ref 2 (°C)	-1,56length (m)	temperature (°C)	Stokes	anti-Stokes-744,400	-200,000	-0,096	-0,329
-743,385	-200,000	0,019	0,268
-742,371	300,020	-0,278	-0,374
-741,356	364,244	0,114	0,167
-740,342	131,037	-0,194	-0,182
-739,327	-200,000	-0,072	0,270
-738,312	372,326	-0,176	-0,261
-737,298	376,513	-0,147	0,218
-736,283	490,660	-0,146	-0,245
-735,269	-200,000	-0,030	0,327
-734,254	800,000	-0,191	-0,392
-733,239	-41,143	-0,204	0,076
-732,225	-200,000	-0,048	-0,165
-731,210	43,104	0,195	0,129
-730,196	-96,557	-0,101	0,019
-729,181	-59,818	0,072	0,022
-728,167	-144,703	0,069	-0,005
-727,152	-200,000	-0,032	-0,126
-726,137	141,542	-0,110	-0,106
-725,123	305,971	-0,050	-0,068
-724,108	800,000	0,033	-0,080
-723,094	-200,000	-0,023	-0,080
-722,079	384,976	-0,074	-0,111
-721,064	492,236	-0,057	-0,095
-720,050	-88,101	0,133	-0,029
-719,035	721,632	0,030	0,058
-718,021	-94,398	0,094	0,018
-717,006	-29,379	-0,137	-0,057
-715,991	-124,097	-0,070	0,008
-714,977	-41,898	-0,135	-0,050
-713,962	-200,000	-0,014	-0,059
-712,948	-200,000	-0,009	0,032
-711,933	734,818	-0,038	0,074
-710,918	-4,428	-0,043	0,022
-709,904	174,198	-0,053	-0,055
-708,889	-71,802	-0,175	-0,047
-707,875	55,543	-0,155	-0,109
-706,860	-5,212	-0,064	0,032
-705,845	318,165	0,024	0,033
-704,831	320,785	-0,068	0,094
-703,816	52,320	-0,028	0,019
-702,802	174,453	-0,071	-0,075
-701,787	247,948	-0,014	-0,017
-700,772	-116,174	-0,147	-0,020
-699,758	67,407	0,053	0,039
-698,743	172,228	-0,054	0,056
-697,729	351,655	0,022	-0,031
-696,714	-200,000	0,008	0,175
-695,699	-200,000	0,007	-0,128
-694,685	47,207	-0,223	-0,151
-693,670	-9,030	-0,117	0,057
-692,656	62,676	-0,040	0,029
-691,641	38,300	0,044	-0,029
-690,627	-200,000	0,020	0,086
-689,612	-200,000	-0,011	0,094
-688,597	-90,072	-0,119	-0,025
-687,583	800,000	-0,055	-0,161
-686,568	597,024	-0,018	0,033
-685,554	-200,000	0,011	0,067
-684,539	800,000	0,019	-0,055
-683,524	700,078	0,022	0,042
-682,510	800,000	0,038	0,099
-681,495	-11,898	0,056	-0,026
-680,481	-55,529	0,114	-0,037
-679,466	-200,000	-0,037	-0,147
-678,451	-153,895	0,115	0,006
-677,437	-200,000	-0,029	0,216
-676,422	444,414	-0,032	-0,051
-675,408	-200,000	-0,009	-0,054
-674,393	274,354	-0,017	0,022
-673,378	-124,637	-0,165	-0,018
-672,364	22,242	-0,119	-0,070
-671,349	168,829	0,021	0,022
-670,335	-200,000	0,004	-0,048
-669,320	71,648	-0,099	0,075
-668,305	201,700	0,029	-0,032
-667,291	-8,465	-0,050	-0,024
-666,276	-200,000	0,008	-0,117
-665,262	800,000	-0,028	-0,059
-664,247	1,386	0,058	-0,030
-663,232	238,686	-0,074	-0,090
-662,218	610,214	-0,023	0,042
-661,203	-24,448	0,053	0,023
-660,189	-156,576	0,025	-0,001
-659,174	234,783	0,104	-0,125
-658,159	14,217	-0,164	-0,092
-657,145	394,040	0,013	0,019
-656,130	86,777	-0,035	0,028
-655,116	800,000	0,059	0,127
-654,101	-101,167	-0,070	-0,012
-653,086	800,000	0,034	0,076
-652,072	104,802	-0,070	-0,060
-651,057	-200,000	0,008	-0,040
-650,043	358,986	0,063	0,091
-649,028	27,535	0,092	0,056
-648,014	-200,000	-0,002	-0,022
-646,999	307,550	0,052	0,070
-645,984	109,824	-0,059	0,051
-644,970	78,850	-0,020	0,016
-643,955	-32,157	-0,085	-0,034
-642,941	-46,145	-0,160	0,057
-641,926	800,000	-0,059	-0,133
-640,911	-74,368	-0,170	-0,044
-639,897	658,424	0,072	0,134
-638,882	-9,629	0,122	0,059
-637,868	572,191	-0,084	0,149
-636,853	23,801	-0,176	-0,105
-635,838	431,825	-0,049	-0,078
-634,824	800,000	-0,039	0,101
-633,809	-30,834	0,072	-0,029
-632,795	-125,296	0,109	0,012
-631,780	-146,731	-0,168	-0,010
-630,765	800,000	0,012	0,032
-629,751	798,736	-0,045	-0,090
-628,736	205,118	-0,058	-0,065
-627,722	116,517	0,025	0,022
-626,707	277,943	-0,048	-0,062
-625,692	98,456	-0,038	0,032
-624,678	35,851	-0,062	0,040
-623,663	-103,350	-0,094	0,016
-622,649	30,868	-0,084	-0,052
-621,634	-200,000	0,032	-0,170
-620,619	800,000	0,018	0,049
-619,605	663,745	-0,017	0,031
-618,590	-200,000	-0,005	0,109
-617,576	-8,422	0,075	-0,037
-616,561	800,000	0,020	0,059
-615,546	-200,000	0,016	-0,081
-614,532	-200,000	0,021	0,094
-613,517	11,318	0,080	0,044
-612,503	-42,514	0,102	0,037
-611,488	-55,710	0,045	-0,015
-610,474	98,965	0,078	0,065
-609,459	-200,000	0,003	0,039
-608,444	-132,662	-0,091	-0,008
-607,430	-103,507	-0,042	-0,007
-606,415	800,000	-0,024	0,048
-605,401	-155,184	-0,016	0,001
-604,386	-73,145	-0,027	-0,007
-603,371	-9,247	0,107	-0,052
-602,357	172,952	-0,008	-0,008
-601,342	227,717	0,034	-0,041
-600,328	93,673	-0,121	-0,099
-599,313	800,000	-0,068	-0,188
-598,298	-37,943	-0,126	-0,048
-597,284	-200,000	0,009	0,058
-596,269	34,519	0,061	-0,038
-595,255	800,000	0,071	-0,149
-594,240	-162,922	-0,182	0,006
-593,225	800,000	0,011	0,024
-592,211	-81,887	-0,151	0,035
-591,196	-110,712	0,054	-0,008
-590,182	-107,950	0,072	0,011
-589,167	-200,000	0,056	0,191
-588,152	140,036	0,050	0,047
-587,138	-200,000	-0,029	-0,122
-586,123	-120,582	-0,158	-0,019
-585,109	76,873	0,103	0,079
-584,094	-130,062	-0,054	0,005
-583,079	800,000	-0,041	0,087
-582,065	681,206	0,094	0,178
-581,050	-200,000	0,019	0,130
-580,036	-123,276	-0,120	-0,014
-579,021	79,548	0,063	-0,049
-578,006	1,434	-0,026	-0,014
-576,992	-200,000	-0,017	0,068
-575,977	-46,444	-0,127	0,045
-574,963	-53,389	0,094	-0,031
-573,948	-108,272	-0,050	-0,008
-572,934	67,711	-0,094	-0,070
-571,919	-200,000	-0,027	-0,152
-570,904	800,000	0,051	-0,109
-569,890	-200,000	-0,003	0,215
-568,875	11,271	-0,088	-0,049
-567,861	50,662	0,011	-0,008
-566,846	-200,000	-0,013	0,069
-565,831	-200,000	0,018	-0,191
-564,817	186,904	-0,071	-0,076
-563,802	-93,080	-0,113	-0,022
-562,788	89,135	-0,075	-0,060
-561,773	199,817	0,046	-0,051
-560,758	-200,000	0,053	0,182
-559,744	800,000	0,009	-0,021
-558,729	21,724	0,065	0,038
-557,715	280,584	-0,055	-0,072
-556,700	148,118	-0,152	-0,149
-555,685	800,000	0,062	-0,159
-554,671	118,107	-0,090	-0,080
-553,656	-200,000	-0,018	-0,207
-552,642	366,523	0,033	0,049
-551,627	-200,000	-0,001	0,019
-550,612	-168,334	-0,044	-0,001
-549,598	309,909	-0,079	-0,108
-548,583	-200,000	-0,014	-0,122
-547,569	724,916	-0,032	0,062
-546,554	737,972	0,087	0,170
-545,539	800,000	-0,022	-0,060
-544,525	-54,303	0,189	-0,062
-543,510	154,524	0,146	-0,145
-542,496	-23,324	-0,094	-0,041
-541,481	-27,296	0,027	0,011
-540,466	-159,926	-0,102	0,004
-539,452	-75,007	-0,056	0,014
-538,437	16,707	0,083	-0,047
-537,423	-49,428	0,090	-0,031
-536,408	800,000	0,036	-0,107
-535,393	-141,449	-0,110	0,008
-534,379	54,459	0,061	0,042
-533,364	-120,832	0,083	-0,010
-532,350	-200,000	0,003	0,080
-531,335	543,379	0,047	0,081
-530,321	451,803	0,062	0,099
-529,306	22,570	-0,029	0,017
-528,291	511,326	-0,007	0,012
-527,277	172,156	-0,101	-0,105
-526,262	-117,269	-0,125	0,016
-525,248	267,264	-0,087	0,110
-524,233	287,674	0,076	-0,099
-523,218	800,000	-0,032	-0,084
-522,204	-120,530	0,072	-0,009
-521,189	298,163	-0,026	-0,034
-520,175	342,288	-0,017	0,025
-519,160	-200,000	0,027	-0,088
-518,145	97,768	0,113	0,094
-517,131	800,000	-0,057	0,153
-516,116	-200,000	0,016	0,052
-515,102	-200,000	-0,002	-0,032
-514,087	-200,000	-0,027	-0,130
-513,072	800,000	0,057	0,126
-512,058	-96,312	-0,044	0,008
-511,043	800,000	-0,034	-0,072
-510,029	149,264	0,034	0,033
-509,014	81,892	0,100	0,078
-507,999	-200,000	0,005	0,033
-506,985	234,359	-0,024	-0,029
-505,970	219,726	-0,008	0,009
-504,956	-200,000	0,016	-0,068
-503,941	-61,608	-0,041	-0,012
-502,926	222,308	0,073	0,085
-501,912	-40,082	-0,112	0,042
-500,897	100,764	-0,084	-0,070
-499,883	-62,838	0,183	0,054
-498,868	-200,000	-0,017	-0,072
-497,853	800,000	0,071	-0,160
-496,839	800,000	-0,074	-0,196
-495,824	280,594	0,070	0,090
-494,810	241,978	0,023	-0,028
-493,795	-200,000	0,014	-0,069
-492,781	-94,322	-0,121	0,024
-491,766	800,000	-0,027	-0,056
-490,751	454,408	0,037	-0,059
-489,737	-200,000	-0,002	0,058
-488,722	-200,000	0,000	0,077
-487,708	96,740	0,136	0,112
-486,693	568,903	-0,006	-0,010
-485,678	82,915	-0,020	0,016
-484,664	238,584	0,095	-0,113
-483,649	76,176	-0,101	-0,077
-482,635	-81,631	0,081	-0,019
-481,620	-21,273	0,142	-0,062
-480,605	142,224	-0,054	0,051
-479,591	182,124	0,055	0,058
-478,576	-132,901	0,018	-0,002
-477,562	301,731	-0,057	-0,076
-476,547	-9,403	-0,137	-0,066
-475,532	-86,352	0,039	0,009
-474,518	-200,000	-0,008	-0,069
-473,503	281,493	-0,042	0,054
-472,489	800,000	0,063	0,144
-471,474	763,291	-0,012	0,024
-470,459	122,703	-0,075	-0,068
-469,445	-200,000	-0,003	0,037
-468,430	447,483	0,006	0,010
-467,416	-180,805	-0,032	-0,000
-466,401	48,041	0,152	-0,102
-465,386	18,172	-0,051	-0,030
-464,372	-200,000	-0,013	0,102
-463,357	132,526	-0,030	0,028
-462,343	86,395	0,080	0,063
-461,328	7,034	0,061	0,032
-460,313	351,045	0,101	-0,144
-459,299	800,000	0,014	0,031
-458,284	229,972	-0,094	-0,111
-457,270	262,079	-0,089	0,112
-456,255	74,196	-0,129	-0,097
-455,241	800,000	-0,017	-0,044
-454,226	-200,000	0,010	-0,112
-453,211	-165,641	0,096	-0,003
-452,197	263,387	0,066	-0,082
-451,182	101,077	-0,065	0,054
-450,168	-42,649	0,025	-0,009
-449,153	-200,000	-0,020	-0,123
-448,138	43,674	0,098	-0,064
-447,124	480,185	-0,037	-0,060
-446,109	26,207	-0,027	0,016
-445,095	15,037	0,092	0,052
-444,080	-200,000	0,026	0,161
-443,065	78,004	-0,212	0,162
-442,051	-75,697	0,080	-0,020
-441,036	800,000	-0,054	-0,143
-440,022	-200,000	0,026	-0,131
-439,007	-74,365	-0,025	0,006
-437,992	44,760	-0,024	0,016
-436,978	-140,965	0,066	-0,005
-435,963	573,286	-0,018	0,031
-434,949	-200,000	0,015	-0,130
-433,934	-104,310	0,061	0,010
-432,919	-48,660	0,103	0,035
-431,905	209,708	-0,036	0,041
-430,890	317,191	0,024	-0,032
-429,876	-136,291	-0,075	0,006
-428,861	-104,052	0,057	-0,009
-427,846	-120,377	-0,079	0,010
-426,832	-169,880	0,031	-0,001
-425,817	-156,200	-0,145	-0,006
-424,803	800,000	0,061	-0,126
-423,788	336,273	0,045	-0,063
-422,773	800,000	-0,100	0,246
-421,759	800,000	0,034	0,101
-420,744	800,000	0,044	-0,112
-419,730	164,271	0,127	0,128
-418,715	175,652	0,093	-0,097
-417,701	800,000	-0,077	0,186
-416,686	390,900	0,107	0,160
-415,671	-97,397	0,073	-0,014
-414,657	-114,567	0,051	0,007
-413,642	800,000	0,013	-0,032
-412,628	218,980	-0,052	0,059
-411,613	800,000	-0,046	0,099
-410,598	116,580	-0,080	-0,070
-409,584	-200,000	-0,013	-0,078
-408,569	-185,104	0,160	-0,002
-407,555	-65,728	-0,063	-0,018
-406,540	551,573	0,078	-0,135
-405,525	-200,000	-0,003	0,071
-404,511	-29,804	-0,141	-0,058
-403,496	7,488	-0,016	0,009
-402,482	42,430	0,056	0,036
-401,467	-200,000	0,001	0,087
-400,452	361,921	0,031	0,045
-399,438	800,000	-0,026	0,062
-398,423	800,000	0,019	0,038
-397,409	38,433	-0,128	-0,082
-396,394	173,424	-0,033	-0,035
-395,379	-200,000	0,007	-0,078
-394,365	-200,000	0,020	0,172
-393,350	224,375	-0,024	0,027
-392,336	23,157	0,044	0,026
-391,321	-190,055	-0,150	-0,001
-390,306	800,000	-0,057	-0,136
-389,292	503,121	-0,026	-0,044
-388,277	761,978	-0,035	0,068
-387,263	95,368	-0,020	-0,016
-386,248	-116,179	0,155	-0,020
-385,233	-200,000	-0,019	-0,076
-384,219	56,660	-0,174	-0,121
-383,204	580,568	-0,065	-0,115
-382,190	391,194	-0,033	-0,049
-381,175	99,451	0,097	-0,080
-380,160	-200,000	-0,001	-0,036
-379,146	93,656	0,139	0,113
-378,131	404,657	-0,012	-0,018
-377,117	-117,302	0,071	-0,009
-376,102	800,000	-0,039	-0,115
-375,088	-191,348	0,094	0,001
-374,073	736,501	-0,020	-0,039
-373,058	-51,303	0,178	0,060
-372,044	729,182	-0,025	-0,049
-371,029	-148,697	0,047	0,003
-370,015	-200,000	0,002	0,028
-369,000	800,000	-0,030	0,071
-367,985	264,841	-0,043	-0,054
-366,971	-109,418	0,122	0,018
-365,956	44,484	0,062	-0,041
-364,942	28,351	0,121	0,073
-363,927	23,947	-0,030	0,018
-362,912	800,000	-0,028	0,062
-361,898	-18,345	0,023	0,010
-360,883	-200,000	0,022	0,098
-359,869	-80,374	-0,105	-0,025
-358,854	-200,000	-0,006	0,049
-357,839	800,000	0,014	-0,042
-356,825	800,000	0,022	-0,056
-355,810	471,015	0,014	0,023
-354,796	-32,680	-0,170	-0,067
-353,781	-116,952	-0,050	-0,007
-352,766	-184,324	0,074	-0,001
-351,752	800,000	-0,025	0,073
-350,737	332,518	-0,048	0,067
-349,723	-109,754	0,095	-0,014
-348,708	-18,555	-0,089	0,039
-347,693	-101,527	-0,077	-0,013
-346,679	222,397	-0,088	-0,101
-345,664	-26,115	0,171	-0,072
-344,650	-166,597	0,152	0,004
-343,635	800,000	-0,006	0,015
-342,620	-101,147	0,094	0,016
-341,606	-9,342	0,062	-0,030
-340,591	-62,827	0,096	-0,028
-339,577	442,474	-0,060	0,094
-338,562	-200,000	-0,000	-0,120
-337,548	178,951	-0,091	0,095
-336,533	63,859	0,071	-0,051
-335,518	800,000	0,029	0,080
-334,504	-70,251	0,072	0,019
-333,489	10,420	0,031	0,017
-332,475	-105,743	-0,085	0,014
-331,460	-200,000	0,014	-0,054
-330,445	-106,455	0,086	-0,014
-329,431	71,068	-0,059	0,044
-328,416	800,000	-0,003	-0,010
-327,402	764,429	0,110	0,214
-326,387	363,663	0,065	0,095
-325,372	44,640	-0,080	-0,053
-324,358	-200,000	0,004	-0,044
-323,343	202,177	0,026	-0,028
-322,329	-200,000	0,015	0,114
-321,314	-9,808	0,036	-0,017
-320,299	-200,000	0,003	0,120
-319,285	800,000	0,036	-0,073
-318,270	22,913	0,052	0,030
-317,256	635,918	0,031	0,057
-316,241	766,297	-0,042	0,082
-315,226	-25,102	0,047	0,020
-314,212	79,559	0,079	0,061
-313,197	800,000	-0,039	-0,099
-312,183	-5,763	0,131	0,064
-311,168	-200,000	0,005	-0,100
-310,153	89,342	-0,027	0,022
-309,139	178,364	-0,070	0,074
-308,124	-140,893	0,156	-0,011
-307,110	-86,860	0,035	-0,008
-306,095	459,970	0,018	0,029
-305,080	-200,000	0,008	0,068
-304,066	286,809	-0,038	-0,050
-303,051	229,131	-0,052	0,061
-302,037	-200,000	0,016	-0,073
-301,022	-200,000	-0,012	0,078
-300,008	224,580	0,079	-0,092
-298,993	-156,111	-0,094	0,004
-297,978	800,000	0,034	0,075
-296,964	100,491	-0,030	-0,025
-295,949	424,347	-0,023	0,036
-294,935	384,392	-0,072	-0,106
-293,920	-28,659	0,072	-0,030
-292,905	2,635	-0,115	0,060
-291,891	-200,000	-0,023	0,079
-290,876	472,690	0,039	0,063
-289,862	133,983	0,030	-0,028
-288,847	-109,479	-0,025	-0,004
-287,832	196,330	0,060	-0,065
-286,818	-49,679	-0,096	-0,032
-285,803	56,140	0,014	-0,010
-284,789	57,582	0,062	0,043
-283,774	17,372	-0,130	-0,073
-282,759	-200,000	0,001	0,056
-281,745	331,334	0,103	0,142
-280,730	-133,975	-0,082	-0,007
-279,716	-27,764	0,048	0,020
-278,701	-39,415	-0,048	0,018
-277,686	-200,000	0,030	-0,098
-276,672	-31,678	0,146	-0,058
-275,657	120,228	-0,074	-0,066
-274,643	-167,040	-0,061	-0,002
-273,628	-0,068	0,019	-0,010
-272,613	-18,527	-0,027	-0,012
-271,599	800,000	0,036	0,102
-270,584	-141,177	0,060	-0,004
-269,570	88,893	0,032	0,025
-268,555	19,241	-0,069	-0,040
-267,540	494,970	-0,108	0,179
-266,526	-200,000	-0,002	0,106
-265,511	-23,392	-0,032	0,014
-264,497	427,240	0,020	-0,031
-263,482	-36,808	0,040	-0,015
-262,467	-200,000	-0,022	0,117
-261,453	90,489	0,086	-0,068
-260,438	800,000	0,045	-0,128
-259,424	80,724	-0,075	-0,058
-258,409	0,619	0,049	-0,025
-257,395	-0,131	0,123	0,063
-256,380	234,137	0,077	0,091
-255,365	-200,000	0,008	-0,025
-254,351	450,230	-0,037	0,059
-253,336	10,388	0,092	-0,050
-252,322	-13,347	-0,152	-0,070
-251,307	253,541	-0,122	-0,149
-250,292	-200,000	0,001	0,160
-249,278	-3,530	-0,022	-0,011
-248,263	486,485	0,019	-0,032
-247,249	-200,000	0,010	0,069
-246,234	-200,000	-0,003	-0,039
-245,219	800,000	-0,024	-0,053
-244,205	-141,562	-0,082	0,006
-243,190	-200,000	-0,030	-0,207
-242,176	-82,497	0,122	0,028
-241,161	244,555	-0,075	0,090
-240,146	-144,079	0,023	0,001
-239,132	-154,172	-0,121	0,006
-238,117	723,649	0,067	-0,127
-237,103	800,000	-0,013	-0,037
-236,088	800,000	-0,019	-0,046
-235,073	135,936	0,096	-0,089
-234,059	609,436	0,069	0,123
-233,044	227,822	0,076	0,088
-232,030	594,791	0,044	0,078
-231,015	90,021	0,061	0,048
-230,000	68,838	0,033	0,024
-228,986	-63,568	-0,063	-0,018
-227,971	518,049	-0,062	0,104
-226,957	-126,372	0,080	0,008
-225,942	273,883	0,140	0,177
-224,927	653,182	-0,019	0,035
-223,913	-82,109	-0,125	0,029
-222,898	130,737	-0,062	0,056
-221,884	-200,000	0,000	0,015
-220,869	-146,713	0,101	-0,006
-219,855	-118,974	0,126	-0,016
-218,840	-91,240	-0,102	-0,021
-217,825	82,913	-0,054	0,042
-216,811	-200,000	-0,005	-0,052
-215,796	97,381	0,042	-0,034
-214,782	378,594	0,040	0,059
-213,767	12,105	0,064	0,035
-212,752	516,481	0,045	-0,076
-211,738	245,067	0,043	0,051
-210,723	-200,000	0,001	0,015
-209,709	-146,185	-0,073	0,005
-208,694	-26,805	-0,188	-0,078
-207,679	-200,000	-0,008	-0,068
-206,665	-200,000	0,005	-0,051
-205,650	90,193	-0,103	0,082
-204,636	-200,000	-0,022	0,249
-203,621	-114,362	-0,126	0,017
-202,606	188,840	-0,059	0,063
-201,592	-89,824	-0,115	-0,024
-200,577	530,038	-0,012	-0,020
-199,563	-200,000	0,010	0,034
-198,548	242,709	0,071	0,085
-197,533	269,730	-0,017	0,021
-196,519	-200,000	-0,030	0,156
-195,504	800,000	-0,060	0,130
-194,490	-200,000	0,012	0,039
-193,475	110,680	-0,029	-0,025
-192,460	-200,000	0,008	-0,157
-191,446	800,000	0,043	-0,120
-190,431	-200,000	0,003	0,097
-189,417	91,717	-0,057	-0,046
-188,402	800,000	-0,064	-0,142
-187,387	250,193	0,069	0,083
-186,373	800,000	-0,055	-0,112
-185,358	70,270	-0,016	-0,012
-184,344	0,581	0,018	-0,009
-183,329	334,609	0,057	0,079
-182,315	-74,600	0,038	-0,010
-181,300	1,661	-0,139	0,071
-180,285	-200,000	0,016	0,108
-179,271	364,795	-0,022	0,031
-178,256	800,000	0,010	0,022
-177,242	83,498	-0,100	-0,078
-176,227	548,918	-0,049	0,084
-175,212	-87,802	0,068	0,014
-174,198	521,608	-0,071	0,119
-173,183	-200,000	0,005	-0,074
-172,169	-200,000	-0,026	0,175
-171,154	-200,000	0,023	0,080
-170,139	273,273	0,035	-0,044
-169,125	736,774	-0,055	0,105
-168,110	185,167	0,136	0,143
-167,096	207,997	0,072	-0,080
-166,081	800,000	0,032	0,077
-165,066	486,532	-0,097	-0,158
-164,052	-25,850	-0,138	-0,058
-163,037	422,709	0,092	-0,140
-162,023	-200,000	0,002	-0,142
-161,008	245,006	0,087	-0,104
-159,993	219,542	0,078	-0,089
-158,979	800,000	0,033	0,103
-157,964	80,331	0,096	-0,074
-156,950	800,000	-0,068	-0,176
-155,935	-22,774	0,098	0,042
-154,920	-200,000	0,005	-0,069
-153,906	-108,722	0,141	-0,021
-152,891	-200,000	0,020	0,094
-151,877	186,752	0,126	0,134
-150,862	-200,000	-0,017	-0,070
-149,847	-200,000	0,007	0,087
-148,833	-102,620	-0,118	-0,020
-147,818	-128,522	0,151	0,015
-146,804	222,171	0,043	0,050
-145,789	800,000	0,029	0,058
-144,775	204,665	-0,088	-0,098
-143,760	-2,265	-0,104	0,052
-142,745	61,848	-0,080	0,057
-141,731	486,543	0,103	-0,167
-140,716	-96,759	-0,068	-0,013
-139,702	101,751	0,120	0,099
-138,687	289,876	-0,055	-0,071
-137,672	-200,000	0,020	-0,069
-136,658	128,387	-0,070	-0,064
-135,643	217,917	0,049	0,056
-134,629	-200,000	0,011	0,122
-133,614	67,236	0,169	-0,122
-132,599	800,000	0,023	-0,058
-131,585	-133,630	0,128	0,011
-130,570	467,009	-0,096	0,153
-129,556	-200,000	-0,068	-0,000
-128,541	800,000	0,042	-0,113
-127,526	-200,000	-0,011	-0,104
-126,512	-200,000	-0,032	0,110
-125,497	-155,305	0,140	-0,006
-124,483	-200,000	0,031	-0,126
-123,468	-32,971	0,121	-0,047
-122,453	-46,652	-0,043	0,015
-121,439	-200,000	-0,017	0,087
-120,424	41,193	0,093	-0,059
-119,410	98,057	0,076	0,062
-118,395	800,000	-0,013	-0,037
-117,380	26,529	0,099	0,059
-116,366	-200,000	0,009	-0,088
-115,351	4,201	-0,072	0,037
-114,337	-165,952	-0,220	0,007
-113,322	-200,000	-0,008	-0,046
-112,307	626,781	-0,057	-0,103
-111,293	-106,671	-0,079	-0,012
-110,278	-18,173	-0,061	0,027
-109,264	-200,000	0,044	0,153
-108,249	-124,237	-0,086	0,009
-107,234	141,682	-0,014	0,013
-106,220	-122,494	0,174	-0,020
-105,205	-200,000	0,025	0,162
-104,191	-200,000	-0,003	-0,017
-103,176	-100,168	0,089	-0,016
-102,162	-31,436	0,076	0,030
-101,147	103,650	-0,076	-0,063
-100,132	-185,586	0,198	-0,002
-99,118	-32,789	-0,075	-0,029
-98,103	127,548	-0,121	-0,109
-97,089	64,480	0,021	-0,015
-96,074	185,701	-0,060	0,063
-95,059	-176,931	0,118	0,002
-94,045	-200,000	-0,002	0,008
-93,030	-200,000	-0,006	-0,022
-92,016	-125,331	-0,093	0,010
-91,001	-124,499	0,197	-0,021
-89,986	-131,793	-0,098	-0,009
-88,972	59,441	0,055	-0,038
-87,957	27,983	0,078	-0,047
-86,943	-200,000	0,050	0,165
-85,928	83,015	-0,026	-0,020
-84,913	385,607	0,027	-0,039
-83,899	6,793	-0,099	-0,052
-82,884	768,514	-0,051	0,098
-81,870	-200,000	-0,011	0,086
-80,855	-39,797	-0,080	0,029
-79,840	-81,980	0,117	-0,027
-78,826	-200,000	-0,001	0,040
-77,811	800,000	0,044	-0,089
-76,797	84,615	0,029	0,023
-75,782	35,821	0,085	0,053
-74,767	-200,000	0,004	-0,064
-73,753	-1,660	0,041	-0,020
-72,738	-200,000	0,037	0,211
-71,724	3,062	0,084	-0,043
-70,709	-200,000	-0,017	-0,067
-69,694	-200,000	-0,008	0,116
-68,680	115,558	-0,030	-0,026
-67,665	14,612	-0,081	0,045
-66,651	800,000	-0,046	0,107
-65,636	-114,452	-0,055	-0,007
-64,622	19,978	-0,172	-0,098
-63,607	527,098	0,006	0,011
-62,592	153,661	0,069	0,067
-61,578	93,001	0,027	0,022
-60,563	102,751	0,057	0,047
-59,549	204,566	0,156	0,171
-58,534	-40,365	-1,624	-0,595
-57,519	322,635	-1,401	-1,897
-56,505	-200,000	-0,420	-4,490
-55,490	247,474	0,933	1,119
-54,476	800,000	4,812	11,053
-53,461	-200,000	18,936	312,646
-52,446	-200,000	739,489	2322,652
-51,432	574,515	1655,341	2873,159
-50,417	78,917	1670,928	1265,869
-49,403	21,818	1543,848	888,825
-48,388	15,731	1466,179	814,508
-47,373	17,868	1456,242	819,286
-46,359	16,822	1446,598	808,809
-45,344	14,005	1441,820	792,607
-44,330	13,932	1439,759	791,090
-43,315	13,940	1438,009	790,138
-42,300	13,882	1436,609	789,061
-41,286	13,933	1435,303	788,556
-40,271	13,872	1434,103	787,573
-39,257	13,901	1432,722	786,921
-38,242	13,968	1431,455	786,511
-37,227	13,940	1430,341	785,737
-36,213	13,938	1428,970	784,942
-35,198	13,940	1427,779	784,265
-34,184	13,978	1426,908	783,939
-33,169	13,915	1425,563	782,871
-32,154	13,949	1424,528	782,431
-31,140	13,954	1423,177	781,681
-30,125	13,966	1422,086	781,105
-29,111	13,996	1420,802	780,513
-28,096	13,944	1419,778	779,674
-27,082	13,932	1418,533	778,904
-26,067	13,895	1417,613	778,193
-25,052	13,907	1416,557	777,636
-24,038	13,837	1415,731	776,826
-23,023	13,859	1414,526	776,236
-22,009	13,904	1413,445	775,823
-20,994	13,867	1412,736	775,230
-19,979	13,807	1411,800	774,403
-18,965	13,794	1410,935	773,839
-17,950	13,839	1409,790	773,388
-16,936	13,846	1409,009	772,964
-15,921	13,770	1407,858	771,947
-14,906	13,775	1407,093	771,520
-13,892	13,775	1406,046	770,914
-12,877	13,794	1405,245	770,533
-11,863	13,828	1404,225	770,101
-10,848	13,760	1403,410	769,308
-9,833	13,765	1402,559	768,834
-8,819	13,726	1401,805	768,207
-7,804	13,709	1400,720	767,502
-6,790	13,646	1399,691	766,616
-5,775	13,726	1398,446	766,276
-4,760	13,710	1397,819	765,825
-3,746	13,656	1396,995	765,096
-2,731	13,729	1395,915	764,809
-1,717	13,628	1395,279	763,965
-0,702	13,646	1393,383	762,980
0,313	17,440	1310,808	735,371
1,327	33,647	705,135	433,125
2,342	51,680	123,687	83,148
3,356	1,247	16,606	8,416
4,371	0,296	3,234	1,628
5,386	-48,859	0,552	0,186
6,400	-200,000	0,010	0,095
7,415	43,208	-0,237	-0,153
8,429	52,791	-0,345	-0,233
9,444	47,092	-0,288	-0,189
10,459	18,327	-0,306	-0,173
11,473	45,118	-0,208	-0,135
12,488	-87,594	-0,346	-0,073
13,502	3,638	-0,387	-0,199
14,517	294,143	-0,237	-0,307
15,531	205,626	-0,343	-0,378
16,546	98,068	-0,372	-0,303
17,561	-16,265	-0,448	-0,200
18,575	95,149	-0,216	-0,174
19,590	211,116	-0,224	-0,249
20,604	71,539	-0,173	-0,127
21,619	61,213	-0,447	-0,314
22,634	138,218	-0,434	-0,402
23,648	195,844	-0,376	-0,405
24,663	31,850	-0,561	-0,341
25,677	35,898	-0,273	-0,169
26,692	170,854	-0,369	-0,374
27,707	-29,556	-0,381	-0,153
28,721	18,900	-0,393	-0,222
29,736	140,547	-0,375	-0,349
30,750	-39,824	-0,367	-0,135
31,765	-38,341	-0,471	-0,175
32,780	246,886	-0,295	-0,352
33,794	83,536	-0,213	-0,164
34,809	-34,950	-0,445	-0,170
35,823	96,555	-0,354	-0,286
36,838	75,994	-0,388	-0,289
37,853	75,624	-0,410	-0,305
38,867	85,169	-0,524	-0,405
39,882	60,769	-0,391	-0,273
40,896	346,900	-0,246	-0,343
41,911	89,817	-0,379	-0,299
42,926	-7,229	-0,498	-0,237
43,940	98,490	-0,244	-0,199
44,955	296,761	-0,306	-0,397
45,969	38,163	-0,401	-0,251
46,984	74,279	-0,387	-0,286
47,999	176,357	-0,372	-0,382
49,013	81,415	-0,307	-0,234
50,028	55,990	-0,381	-0,260
51,042	29,602	-0,387	-0,231
52,057	123,363	-0,252	-0,223
53,071	71,437	-0,321	-0,235
54,086	209,816	-0,292	-0,323
55,101	52,812	-0,428	-0,288
56,115	-27,322	-0,384	-0,157
57,130	51,779	-0,342	-0,229
58,144	244,023	-0,281	-0,333
59,159	146,177	-0,361	-0,342
60,174	37,229	-0,420	-0,262
61,188	129,489	-0,268	-0,241
62,203	66,884	-0,319	-0,229
63,217	53,648	-0,227	-0,153
64,232	79,997	-0,305	-0,230
65,247	146,672	-0,253	-0,239
66,261	7,746	-0,368	-0,194
67,276	13,358	-0,370	-0,202
68,290	56,704	-0,435	-0,298
69,305	38,750	-0,333	-0,209
70,320	246,184	-0,245	-0,291
71,334	49,667	-0,313	-0,207
72,349	800,000	-0,137	-0,273
73,363	61,407	-0,363	-0,254
74,378	65,945	-0,322	-0,229
75,393	48,356	-0,168	-0,111
76,407	5,272	-0,265	-0,137
77,422	59,454	-0,227	-0,157
78,436	38,103	-0,324	-0,202
79,451	24,787	-0,342	-0,199
80,466	26,437	-0,432	-0,254
81,480	236,697	-0,195	-0,227
82,495	60,333	-0,373	-0,259
83,509	-53,466	-0,314	-0,100
84,524	257,548	-0,227	-0,274
85,539	165,047	-0,242	-0,240
86,553	-9,050	-0,334	-0,156
87,568	-150,479	-0,351	0,019
88,582	157,795	-0,192	-0,187
89,597	145,992	-0,264	-0,249
90,611	-41,473	-0,360	-0,130
91,626	15,653	-0,351	-0,193
92,641	400,540	-0,237	-0,351
93,655	18,075	-0,388	-0,216
94,670	48,380	-0,340	-0,223
95,684	70,059	-0,410	-0,297
96,699	6,094	-0,217	-0,113
97,714	-128,636	-0,204	-0,020
98,728	-91,569	-0,222	-0,044
99,743	39,282	-0,237	-0,149
100,757	252,976	-0,191	-0,229
101,772	170,150	-0,300	-0,302
102,787	165,438	-0,271	-0,269
103,801	31,950	-0,224	-0,135
104,816	375,478	-0,184	-0,263
105,830	74,207	-0,233	-0,172
106,845	133,961	-0,218	-0,199
107,860	127,212	-0,210	-0,186
108,874	35,484	-0,252	-0,155
109,889	80,733	-0,192	-0,145
110,903	118,627	-0,264	-0,228
111,918	-83,231	-0,201	-0,045
112,933	-74,589	-0,205	-0,051
113,947	441,319	-0,123	-0,190
114,962	-12,582	-0,345	-0,157
115,976	569,312	-0,161	-0,275
116,991	177,996	-0,279	-0,286
118,006	63,034	-0,148	-0,104
119,020	-75,649	-0,312	0,077
120,035	354,296	-0,113	-0,157
121,049	231,442	-0,209	-0,241
122,064	149,296	-0,141	-0,134
123,079	52,023	-0,273	-0,182
124,093	184,059	-0,194	-0,201
125,108	170,332	-0,265	-0,266
126,122	141,694	-0,260	-0,241
127,137	305,732	-0,148	-0,194
128,151	800,000	-0,048	-0,105
129,166	-49,524	-0,259	-0,086
130,181	438,886	-0,149	-0,228
131,195	160,767	-0,303	-0,296
132,210	39,582	-0,262	-0,164
133,224	-16,014	-0,309	-0,137
134,239	14,293	-0,250	-0,136
135,254	-102,328	-0,179	-0,030
136,268	34,538	-0,221	-0,135
137,283	-88,124	-0,243	-0,051
138,297	114,240	-0,334	-0,285
139,312	335,756	-0,124	-0,169
140,327	54,664	-0,306	-0,206
141,341	138,974	-0,300	-0,276
142,356	412,396	-0,208	-0,311
143,370	-77,284	-0,265	-0,064
144,385	167,375	-0,173	-0,172
145,400	146,463	-0,266	-0,250
146,414	129,635	-0,231	-0,206
147,429	73,371	-0,272	-0,199
148,443	126,048	-0,223	-0,197
149,458	-69,576	-0,260	-0,069
150,473	13,828	-0,323	-0,175
151,487	-38,571	-0,333	-0,122
152,502	128,792	-0,251	-0,223
153,516	-18,095	-0,355	-0,155
154,531	631,728	-0,109	-0,193
155,546	133,529	-0,253	-0,229
156,560	151,345	-0,157	-0,149
157,575	4,051	-0,239	-0,122
158,589	800,000	-0,136	-0,271
159,604	77,574	-0,294	-0,218
160,619	235,167	-0,260	-0,301
161,633	348,023	-0,225	-0,310
162,648	71,294	-0,266	-0,193
163,662	71,626	-0,137	-0,099
164,677	138,739	-0,208	-0,191
165,692	-36,505	-0,243	-0,091
166,706	-168,974	-0,309	0,008
167,721	264,805	-0,158	-0,192
168,735	-47,852	-0,216	-0,072
169,750	32,151	-0,288	-0,173
170,764	64,664	-0,270	-0,190
171,779	215,033	-0,192	-0,213
172,794	553,052	-0,147	-0,248
173,808	800,000	-0,099	-0,230
174,823	183,264	-0,209	-0,216
175,837	6,861	-0,321	-0,166
176,852	800,000	-0,109	-0,268
177,867	263,409	-0,201	-0,244
178,881	106,690	-0,159	-0,132
179,896	23,038	-0,150	-0,086
180,910	-132,960	-0,223	-0,020
181,925	-65,122	-0,248	-0,069
182,940	134,587	-0,162	-0,147
183,954	168,664	-0,209	-0,208
184,969	-81,716	-0,239	0,054
185,983	42,917	-0,193	-0,122
186,998	73,333	-0,242	-0,176
188,013	-31,252	-0,155	-0,061
189,027	63,983	-0,132	-0,092
190,042	-26,799	-0,309	-0,125
191,056	258,167	-0,178	-0,214
192,071	479,105	-0,163	-0,258
193,086	-200,000	-0,021	-0,086
194,100	413,595	-0,121	-0,180
195,115	170,613	-0,239	-0,239
196,129	143,380	-0,216	-0,200
197,144	106,762	-0,199	-0,165
198,159	311,762	-0,174	-0,228
199,173	81,876	-0,148	-0,111
200,188	-126,441	-0,117	0,012
201,202	-74,529	-0,157	-0,039
202,217	-80,413	-0,159	-0,037
203,232	85,244	-0,159	-0,122
204,246	126,470	-0,223	-0,197
205,261	140,041	-0,169	-0,155
206,275	-102,052	-0,206	-0,034
207,290	327,496	-0,108	-0,145
208,304	-21,229	-0,296	-0,125
209,319	188,829	-0,154	-0,161
210,334	297,647	-0,149	-0,191
211,348	607,238	-0,167	-0,291
212,363	186,810	-0,190	-0,197
213,377	112,394	-0,238	-0,200
214,392	-98,479	-0,245	-0,043
215,407	0,367	-0,228	-0,113
216,421	-200,000	-0,022	-0,096
217,436	-74,379	-0,159	-0,040
218,450	14,144	-0,178	-0,096
219,465	144,617	-0,217	-0,202
220,480	15,006	-0,184	-0,100
221,494	-88,016	-0,345	-0,071
222,509	122,378	-0,147	-0,128
223,523	800,000	-0,076	-0,228
224,538	338,371	-0,136	-0,185
225,553	110,318	-0,144	-0,120
226,567	334,494	-0,159	-0,214
227,582	-119,320	-0,210	-0,025
228,596	-200,000	-0,032	-0,175
229,611	477,321	-0,103	-0,163
230,626	-104,845	-0,176	-0,028
231,640	-62,485	-0,277	-0,079
232,655	55,963	-0,248	-0,167
233,669	123,740	-0,168	-0,146
234,684	131,279	-0,182	-0,162
235,699	44,420	-0,209	-0,133
236,713	91,129	-0,128	-0,099
237,728	665,702	-0,087	-0,156
238,742	92,210	-0,192	-0,150
239,757	-145,037	-0,113	0,007
240,772	-18,108	-0,209	-0,090
241,786	446,895	-0,163	-0,249
242,801	157,842	-0,100	-0,096
243,815	670,207	-0,146	-0,263
244,830	30,976	-0,140	-0,083
245,844	201,498	-0,227	-0,242
246,859	70,304	-0,126	-0,090
247,874	168,438	-0,234	-0,231
248,888	192,162	-0,129	-0,134
249,903	44,442	-0,206	-0,131
250,917	-179,893	-0,307	-0,004
251,932	43,844	-0,253	-0,160
252,947	800,000	-0,060	-0,157
253,961	800,000	-0,125	-0,263
254,976	481,272	-0,106	-0,167
255,990	348,786	-0,212	-0,290
257,005	64,093	-0,175	-0,122
258,020	163,054	-0,193	-0,188
259,034	11,704	-0,192	-0,102
260,049	-42,746	-0,142	-0,050
261,063	61,415	-0,206	-0,141
262,078	209,087	-0,164	-0,178
263,093	-87,182	-0,275	-0,057
264,107	372,160	-0,134	-0,189
265,122	310,722	-0,157	-0,204
266,136	222,892	-0,207	-0,232
267,151	117,599	-0,209	-0,178
268,166	-82,313	-0,247	-0,055
269,180	-150,490	-0,257	-0,013
270,195	-51,839	-0,241	-0,077
271,209	184,409	-0,296	-0,304
272,224	196,897	-0,167	-0,176
273,239	800,000	-0,035	-0,107
274,253	-98,858	-0,256	-0,044
275,268	45,028	-0,164	-0,104
276,282	32,533	-0,253	-0,151
277,297	-28,978	-0,184	-0,072
278,312	209,103	-0,185	-0,200
279,326	759,374	-0,111	-0,210
280,341	-200,000	-0,044	-0,159
281,355	152,635	-0,156	-0,148
282,370	70,169	-0,166	-0,118
283,384	179,865	-0,208	-0,211
284,399	-81,037	-0,323	0,073
285,414	9,384	-0,100	-0,052
286,428	21,267	-0,104	-0,058
287,443	29,204	-0,257	-0,150
288,457	-139,835	-0,114	-0,008
289,472	800,000	-0,093	-0,197
290,487	320,646	-0,205	-0,270
291,501	108,137	-0,144	-0,118
292,516	26,109	-0,078	-0,045
293,530	-54,317	-0,166	0,052
294,545	-200,000	-0,045	-0,247
295,560	61,883	-0,196	-0,135
296,574	421,485	-0,062	-0,092
297,589	207,109	-0,049	-0,053
298,603	-200,000	-0,051	-0,158
299,618	-200,000	0,000	-0,154
300,633	800,000	-0,043	-0,089
301,647	397,626	-0,098	-0,141
302,662	10,605	-0,140	-0,073
303,676	55,206	-0,201	-0,134
304,691	12,266	-0,209	-0,111
305,706	124,708	-0,297	-0,258
306,720	114,236	-0,140	-0,118
307,735	-173,888	-0,153	-0,003
308,749	311,290	-0,083	-0,107
309,764	800,000	-0,102	-0,253
310,779	-136,327	-0,192	0,015
311,793	-200,000	0,025	-0,101
312,808	161,735	-0,161	-0,155
313,822	-9,690	-0,127	-0,058
314,837	30,626	-0,227	-0,134
315,852	-110,672	-0,178	-0,025
316,866	373,495	-0,105	-0,148
317,881	-200,000	-0,036	-0,131
318,895	-20,975	-0,228	-0,096
319,910	382,424	-0,066	-0,094
320,925	507,795	-0,087	-0,139
321,939	44,625	-0,133	0,084
322,954	223,922	-0,120	-0,133
323,968	-22,266	-0,169	-0,070
324,983	-200,000	0,000	-0,076
325,997	800,000	-0,077	-0,200
327,012	-139,458	-0,099	-0,007
328,027	66,913	-0,232	-0,162
329,041	12,342	-0,115	0,061
330,056	132,710	-0,207	-0,184
331,070	800,000	0,031	-0,081
332,085	39,718	-0,064	0,039
333,100	498,257	-0,092	-0,146
334,114	672,642	-0,080	-0,144
335,129	-200,000	-0,082	-0,309
336,143	257,607	-0,193	-0,229
337,158	28,853	-0,211	-0,123
338,173	-77,158	-0,046	-0,011
339,187	738,674	-0,062	-0,114
340,202	167,495	-0,053	-0,052
341,216	281,558	-0,087	-0,107
342,231	-38,054	-0,226	-0,082
343,246	231,913	-0,073	-0,083
344,260	-21,088	-0,135	-0,057
345,275	98,938	-0,056	0,044
346,289	273,172	-0,058	-0,071
347,304	800,000	-0,028	-0,055
348,319	-200,000	-0,020	-0,142
349,333	-53,729	-0,234	-0,073
350,348	800,000	-0,063	-0,138
351,362	-200,000	-0,007	-0,169
352,377	-200,000	-0,010	-0,033
353,392	220,138	-0,105	-0,115
354,406	81,437	-0,097	-0,072
355,421	208,648	1315,348	1414,248
356,435	160,557	1476,137	1414,744
