DTS Sentinel unit serial number:	SN410029Multiplexer serial number:	ORYXHardware model number:	OX2-SRSoftware version number:	ORYX F/W v4,00 Oryx Data Collector v3.7.2.0data status	okinstallation	B3 Nyhavnadifferential loss correction	single-endedforward channel	channel 1reverse channel	N/Adate	2023/12/01time	01:37:30forward acquisition time	300,00reverse acquisition time	0,00gamma	499,1914k internal	0,3211k external	0,3211temperature offset calibration	1,0000default loss term (dB/km)	0,3820temperature slope calibration	1,0000multiplexer offset coefficient	1,0000multiplexer slope coefficient	1,0000fibre end	0,00T internal ref (°C)	8,86T ext. ref 1 (°C)	-6,14T ext. ref 2 (°C)	-6,26length (m)	temperature (°C)	Stokes	anti-Stokes-744,400	4,507	-0,301	-0,160
-743,385	464,755	0,093	0,151
-742,371	-200,000	0,006	-0,151
-741,356	800,000	-0,129	0,288
-740,342	-200,000	-0,019	-0,158
-739,327	-200,000	-0,014	0,123
-738,312	118,198	-0,233	-0,209
-737,298	-200,000	0,014	0,303
-736,283	146,013	-0,160	-0,156
-735,269	717,617	-0,104	0,201
-734,254	181,484	-0,177	-0,189
-733,239	-118,644	-0,346	0,044
-732,225	800,000	-0,109	-0,235
-731,210	80,507	0,115	0,090
-730,196	219,632	0,108	-0,126
-729,181	-20,174	-0,100	0,044
-728,167	125,102	-0,081	-0,074
-727,152	-87,713	0,118	0,026
-726,137	-200,000	-0,022	-0,072
-725,123	-200,000	0,017	0,119
-724,108	800,000	-0,072	-0,147
-723,094	601,681	-0,069	-0,124
-722,079	-47,982	-0,083	-0,029
-721,064	-200,000	-0,003	0,071
-720,050	419,971	0,025	-0,039
-719,035	29,057	-0,201	-0,123
-718,021	252,189	-0,021	0,026
-717,006	800,000	-0,045	-0,096
-715,991	-105,216	0,088	0,014
-714,977	-200,000	-0,040	-0,166
-713,962	125,546	-0,119	-0,109
-712,948	-200,000	0,024	-0,096
-711,933	-200,000	-0,020	0,105
-710,918	130,727	-0,062	0,057
-709,904	-200,000	-0,000	0,024
-708,889	800,000	-0,056	-0,164
-707,875	-200,000	-0,037	-0,198
-706,860	390,308	0,129	-0,195
-705,845	-135,595	-0,070	0,006
-704,831	22,526	0,056	0,033
-703,816	-126,045	-0,113	-0,012
-702,802	-62,704	0,155	-0,046
-701,787	698,897	0,037	-0,070
-700,772	800,000	-0,047	-0,135
-699,758	180,045	-0,079	-0,084
-698,743	-159,967	0,107	-0,004
-697,729	-159,753	-0,119	-0,005
-696,714	-104,578	-0,189	0,031
-695,699	-200,000	0,018	-0,079
-694,685	-38,525	-0,049	-0,019
-693,670	800,000	-0,056	0,138
-692,656	54,719	-0,072	0,050
-691,641	173,554	-0,116	-0,122
-690,627	606,772	-0,017	0,031
-689,612	208,021	0,057	0,065
-688,597	-39,772	-0,062	-0,023
-687,583	297,558	-0,067	-0,089
-686,568	-200,000	0,050	-0,214
-685,554	-200,000	0,015	0,086
-684,539	3,709	0,098	0,051
-683,524	-200,000	0,012	-0,076
-682,510	48,919	0,072	0,049
-681,495	-200,000	0,048	-0,154
-680,481	113,610	0,124	-0,109
-679,466	634,478	-0,054	-0,100
-678,451	-96,533	-0,080	-0,015
-677,437	110,418	-0,148	0,129
-676,422	-57,673	0,045	-0,014
-675,408	800,000	-0,046	0,099
-674,393	50,873	-0,067	0,046
-673,378	-132,528	-0,016	-0,001
-672,364	361,714	-0,030	-0,043
-671,349	-200,000	0,026	-0,104
-670,335	-69,276	-0,046	-0,013
-669,320	800,000	-0,044	0,122
-668,305	340,617	0,114	0,161
-667,291	-200,000	-0,027	0,153
-666,276	-127,265	-0,154	-0,016
-665,262	-200,000	0,004	-0,088
-664,247	26,667	-0,094	-0,057
-663,232	140,643	0,061	0,058
-662,218	-155,889	0,166	0,008
-661,203	-200,000	-0,068	0,223
-660,189	-200,000	-0,001	0,052
-659,174	655,569	-0,077	-0,143
-658,159	-99,410	0,071	0,013
-657,145	39,613	-0,043	0,028
-656,130	68,553	-0,056	-0,041
-655,116	20,267	0,099	0,058
-654,101	-60,458	-0,083	-0,025
-653,086	297,569	-0,053	-0,070
-652,072	18,249	0,052	0,030
-651,057	-99,604	0,047	0,009
-650,043	67,243	0,020	-0,015
-649,028	-55,839	-0,085	-0,027
-648,014	-200,000	-0,017	0,084
-646,999	586,793	-0,053	0,094
-645,984	360,023	0,053	0,077
-644,970	-173,999	-0,168	-0,003
-643,955	508,227	-0,071	-0,120
-642,941	800,000	0,029	-0,069
-641,926	-125,062	0,034	0,004
-640,911	139,282	-0,071	-0,067
-639,897	-200,000	-0,001	-0,066
-638,882	-200,000	0,009	0,072
-637,868	-106,323	-0,053	-0,008
-636,853	-157,375	-0,126	0,005
-635,838	249,391	-0,113	-0,139
-634,824	143,342	-0,063	-0,061
-633,809	38,850	0,085	0,055
-632,795	-66,465	0,051	0,015
-631,780	12,588	-0,046	0,025
-630,765	-23,508	-0,044	-0,019
-629,751	757,733	0,032	-0,064
-628,736	48,852	-0,220	-0,149
-627,722	-78,756	-0,022	-0,005
-626,707	-57,924	-0,173	-0,054
-625,692	553,804	0,042	-0,073
-624,678	54,854	-0,032	-0,023
-623,663	800,000	-0,050	-0,106
-622,649	-200,000	0,042	-0,141
-621,634	-200,000	-0,017	-0,072
-620,619	-101,616	-0,081	-0,014
-619,605	28,631	0,025	0,016
-618,590	-200,000	-0,008	0,043
-617,576	126,270	-0,033	-0,030
-616,561	-200,000	-0,013	0,093
-615,546	79,387	-0,084	0,065
-614,532	800,000	0,019	-0,050
-613,517	-200,000	0,009	0,240
-612,503	-200,000	-0,028	0,203
-611,488	318,755	0,069	0,094
-610,474	800,000	-0,046	0,123
-609,459	-127,161	0,106	-0,011
-608,444	23,356	0,046	0,027
-607,430	-50,670	-0,020	0,007
-606,415	-200,000	-0,007	-0,071
-605,401	404,895	0,055	0,084
-604,386	19,353	0,058	0,033
-603,371	-200,000	0,004	0,016
-602,357	-200,000	0,020	0,128
-601,342	-21,530	0,087	0,038
-600,328	115,324	-0,060	-0,053
-599,313	800,000	-0,017	-0,039
-598,298	-134,763	0,151	0,013
-597,284	11,484	-0,073	-0,040
-596,269	308,609	-0,060	0,080
-595,255	28,444	0,068	-0,041
-594,240	121,974	-0,060	0,054
-593,225	473,734	-0,075	-0,122
-592,211	110,962	-0,069	-0,060
-591,196	800,000	-0,062	0,137
-590,182	-59,343	0,040	0,012
-589,167	-112,532	-0,079	-0,011
-588,152	-140,792	0,030	-0,002
-587,138	142,227	-0,087	-0,083
-586,123	-200,000	0,028	-0,117
-585,109	-200,000	-0,042	-0,168
-584,094	-200,000	-0,007	0,080
-583,079	-5,340	0,062	-0,031
-582,065	403,907	0,003	-0,005
-581,050	-200,000	-0,017	0,067
-580,036	-200,000	-0,009	0,045
-579,021	496,192	-0,035	-0,058
-578,006	800,000	-0,021	-0,062
-576,992	-200,000	0,005	-0,038
-575,977	-73,190	-0,090	0,024
-574,963	-36,101	0,157	0,061
-573,948	16,576	-0,085	-0,048
-572,934	800,000	-0,063	-0,171
-571,919	186,013	-0,124	-0,132
-570,904	49,329	-0,127	-0,086
-569,890	800,000	-0,062	-0,143
-568,875	-200,000	0,026	0,135
-567,861	-200,000	0,019	0,172
-566,846	340,272	0,084	0,118
-565,831	-47,969	-0,125	0,043
-564,817	700,928	-0,027	-0,052
-563,802	800,000	-0,091	-0,209
-562,788	-200,000	0,009	0,072
-561,773	-200,000	-0,025	-0,123
-560,758	277,179	0,091	0,116
-559,744	-200,000	-0,009	-0,042
-558,729	-200,000	0,005	0,055
-557,715	-186,792	0,063	0,001
-556,700	-106,205	-0,070	0,011
-555,685	12,314	-0,126	0,070
-554,671	62,506	-0,034	0,025
-553,656	126,471	-0,060	-0,055
-552,642	-200,000	0,009	0,042
-551,627	32,126	-0,033	-0,021
-550,612	560,880	0,034	-0,060
-549,598	-160,578	0,029	-0,001
-548,583	-200,000	0,022	-0,179
-547,569	-26,325	0,025	-0,010
-546,554	-200,000	-0,027	0,086
-545,539	-200,000	0,014	-0,078
-544,525	80,864	-0,113	0,088
-543,510	-37,016	0,031	0,012
-542,496	254,739	-0,113	-0,140
-541,481	50,929	-0,065	-0,044
-540,466	800,000	-0,020	0,045
-539,452	-129,115	0,184	-0,018
-538,437	-117,054	0,049	0,006
-537,423	-129,229	0,072	0,007
-536,408	-10,698	0,022	0,010
-535,393	36,045	0,044	-0,028
-534,379	-173,865	0,065	0,001
-533,364	16,553	-0,058	0,033
-532,350	-118,123	0,022	0,003
-531,335	412,654	-0,034	0,052
-530,321	-200,000	-0,012	0,138
-529,306	-200,000	-0,002	0,010
-528,291	4,633	-0,119	-0,062
-527,277	129,193	-0,127	-0,117
-526,262	-52,965	0,103	0,034
-525,248	9,064	0,146	-0,079
-524,233	-39,919	-0,067	-0,025
-523,218	105,497	0,068	0,058
-522,204	800,000	-0,016	-0,039
-521,189	-23,834	-0,118	-0,051
-520,175	95,956	-0,093	-0,077
-519,160	473,633	-0,070	0,113
-518,145	-200,000	0,183	0,000
-517,131	-56,897	-0,128	0,040
-516,116	3,425	0,053	0,028
-515,102	-200,000	-0,008	0,091
-514,087	135,662	0,026	-0,024
-513,072	-200,000	0,001	0,036
-512,058	312,499	-0,069	-0,094
-511,043	41,284	0,148	-0,096
-510,029	800,000	-0,012	0,036
-509,014	800,000	0,042	-0,096
-507,999	-75,558	-0,015	0,004
-506,985	-200,000	-0,009	-0,166
-505,970	-59,448	-0,076	-0,023
-504,956	204,883	-0,022	0,025
-503,941	566,039	0,052	0,092
-502,926	-153,097	-0,144	-0,007
-501,912	667,818	0,074	0,137
-500,897	153,480	0,104	0,102
-499,883	139,200	-0,015	-0,015
-498,868	-128,823	-0,048	-0,005
-497,853	96,005	0,100	-0,082
-496,839	538,093	0,014	-0,024
-495,824	-60,725	0,078	0,023
-494,810	-57,687	-0,083	-0,026
-493,795	53,547	0,092	-0,063
-492,781	-77,662	-0,070	-0,017
-491,766	-200,000	-0,016	0,134
-490,751	-200,000	-0,019	0,081
-489,737	-200,000	-0,017	0,100
-488,722	800,000	0,045	-0,110
-487,708	-165,331	0,022	-0,001
-486,693	728,654	-0,049	0,095
-485,678	-119,573	0,099	0,012
-484,664	17,109	0,095	0,054
-483,649	-45,011	-0,020	-0,007
-482,635	245,827	0,062	0,075
-481,620	-200,000	-0,022	0,124
-480,605	656,440	-0,037	0,069
-479,591	79,778	-0,055	-0,042
-478,576	-200,000	0,010	-0,047
-477,562	266,607	0,044	-0,055
-476,547	800,000	0,043	-0,119
-475,532	9,255	-0,147	0,079
-474,518	542,672	0,090	-0,154
-473,503	95,709	0,083	0,068
-472,489	800,000	0,055	-0,149
-471,474	-145,856	0,087	-0,005
-470,459	96,046	0,152	-0,124
-469,445	-200,000	-0,012	-0,146
-468,430	-200,000	-0,002	-0,061
-467,416	188,980	0,078	0,083
-466,401	-112,134	-0,119	0,017
-465,386	800,000	-0,045	0,116
-464,372	205,962	0,084	0,093
-463,357	6,704	-0,120	0,064
-462,343	800,000	-0,024	-0,061
-461,328	505,696	0,047	0,079
-460,313	-200,000	-0,018	-0,102
-459,299	69,045	-0,031	-0,023
-458,284	-200,000	0,024	0,086
-457,270	84,630	0,086	0,068
-456,255	-200,000	0,006	-0,153
-455,241	800,000	-0,025	-0,055
-454,226	-200,000	-0,016	-0,065
-453,211	-200,000	0,025	0,112
-452,197	-200,000	-0,001	0,088
-451,182	185,800	0,032	0,035
-450,168	13,141	0,149	0,082
-449,153	-200,000	0,000	-0,018
-448,138	77,321	-0,057	-0,044
-447,124	-200,000	-0,019	-0,101
-446,109	160,654	-0,038	-0,038
-445,095	-108,706	0,098	-0,015
-444,080	-168,308	-0,031	0,001
-443,065	565,845	0,053	-0,092
-442,051	-200,000	-0,005	-0,053
-441,036	-200,000	-0,018	-0,088
-440,022	-127,804	-0,105	0,011
-439,007	-64,936	-0,106	-0,030
-437,992	6,047	-0,173	0,092
-436,978	-200,000	0,009	0,059
-435,963	-1,311	0,059	-0,030
-434,949	-200,000	0,015	-0,204
-433,934	-65,890	-0,120	0,034
-432,919	-112,174	-0,092	0,013
-431,905	-178,007	-0,121	0,002
-430,890	-105,048	0,128	-0,021
-429,876	800,000	0,028	0,081
-428,861	-200,000	0,025	0,141
-427,846	290,616	-0,090	0,117
-426,832	-168,986	-0,010	-0,000
-425,817	-121,256	-0,119	0,014
-424,803	800,000	-0,028	0,070
-423,788	-200,000	0,026	0,117
-422,773	-19,557	0,087	0,039
-421,759	-200,000	0,004	0,148
-420,744	117,397	0,062	0,055
-419,730	175,275	0,112	0,116
-418,715	287,299	0,016	-0,021
-417,701	800,000	0,061	-0,160
-416,686	-200,000	-0,003	-0,042
-415,671	211,511	0,015	-0,017
-414,657	455,563	0,104	0,166
-413,642	100,361	-0,133	0,110
-412,628	226,459	0,099	-0,115
-411,613	107,762	-0,047	-0,040
-410,598	-200,000	0,042	-0,163
-409,584	-111,950	0,025	0,004
-408,569	764,904	-0,021	0,041
-407,555	171,559	0,095	0,097
-406,540	678,067	0,017	0,032
-405,525	184,511	-0,067	0,071
-404,511	85,387	-0,126	-0,099
-403,496	-70,913	-0,082	-0,022
-402,482	177,970	0,082	-0,086
-401,467	21,288	0,114	0,066
-400,452	25,356	-0,066	-0,039
-399,438	800,000	0,002	0,007
-398,423	39,792	0,049	0,032
-397,409	800,000	-0,038	-0,113
-396,394	-200,000	0,027	-0,091
-395,379	-200,000	-0,028	0,090
-394,365	217,935	0,114	0,130
-393,350	302,195	-0,115	-0,153
-392,336	-174,847	-0,035	-0,001
-391,321	-200,000	-0,006	-0,067
-390,306	-200,000	0,010	-0,039
-389,292	800,000	0,019	-0,053
-388,277	164,998	-0,045	0,045
-387,263	-1,955	0,197	-0,099
-386,248	-89,252	0,077	-0,016
-385,233	800,000	-0,016	0,035
-384,219	192,213	-0,057	0,062
-383,204	176,579	0,079	-0,082
-382,190	800,000	-0,016	-0,045
-381,175	-84,118	-0,029	-0,007
-380,160	-200,000	0,010	0,128
-379,146	-200,000	0,068	0,000
-378,131	-46,111	0,042	-0,015
-377,117	183,982	0,033	-0,035
-376,102	800,000	-0,033	-0,090
-375,088	-52,310	-0,136	-0,045
-374,073	-5,379	0,047	0,023
-373,058	800,000	0,055	0,167
-372,044	-200,000	0,034	0,109
-371,029	800,000	0,014	0,042
-370,015	800,000	0,003	-0,011
-369,000	217,892	-0,053	-0,061
-367,985	-53,796	0,015	0,005
-366,971	161,783	0,072	0,073
-365,956	149,195	-0,039	-0,038
-364,942	-200,000	0,020	0,068
-363,927	-132,144	-0,091	-0,008
-362,912	-105,055	-0,079	-0,013
-361,898	156,794	-0,068	-0,067
-360,883	800,000	-0,028	-0,066
-359,869	-56,857	0,032	-0,010
-358,854	261,692	0,086	-0,107
-357,839	287,741	0,100	-0,130
-356,825	132,854	0,081	0,074
-355,810	-95,012	-0,132	-0,025
-354,796	457,172	0,095	-0,151
-353,781	-65,287	-0,062	-0,018
-352,766	-68,374	0,155	-0,043
-351,752	159,180	-0,128	0,127
-350,737	-86,775	0,020	0,004
-349,723	-42,634	-0,013	0,005
-348,708	-189,037	0,178	0,001
-347,693	-85,680	-0,103	0,023
-346,679	-200,000	-0,001	-0,024
-345,664	800,000	-0,044	-0,094
-344,650	-200,000	0,006	0,038
-343,635	15,381	0,043	0,024
-342,620	-2,342	0,073	0,036
-341,606	643,109	0,036	0,066
-340,591	800,000	0,020	0,043
-339,577	36,222	-0,052	-0,033
-338,562	-200,000	-0,002	0,054
-337,548	800,000	-0,029	0,071
-336,533	-129,718	0,153	-0,015
-335,518	-200,000	0,013	0,156
-334,504	220,532	-0,102	0,117
-333,489	44,163	0,134	-0,088
-332,475	-200,000	0,007	-0,052
-331,460	-110,511	-0,102	0,015
-330,445	134,661	0,119	-0,111
-329,431	-28,385	0,043	0,018
-328,416	176,393	-0,077	0,080
-327,402	-106,205	0,102	0,016
-326,387	62,354	-0,083	0,059
-325,372	-145,838	-0,084	0,005
-324,358	-31,779	-0,105	-0,042
-323,343	105,742	0,082	-0,069
-322,329	-4,239	0,151	-0,074
-321,314	-168,046	0,089	-0,002
-320,299	12,615	-0,011	-0,006
-319,285	106,893	0,082	-0,070
-318,270	-200,000	-0,020	-0,128
-317,256	800,000	-0,017	0,053
-316,241	178,389	-0,011	-0,012
-315,226	491,755	0,013	-0,022
-314,212	-137,028	0,085	-0,007
-313,197	800,000	0,017	0,037
-312,183	-3,626	0,102	0,050
-311,168	800,000	-0,035	-0,075
-310,153	545,658	-0,025	-0,042
-309,139	-200,000	-0,039	-0,134
-308,124	-200,000	0,001	0,080
-307,110	-200,000	0,012	-0,132
-306,095	-200,000	-0,037	0,173
-305,080	-200,000	-0,001	0,123
-304,066	-90,117	-0,107	-0,022
-303,051	800,000	0,024	0,054
-302,037	-30,009	-0,010	0,004
-301,022	394,579	0,032	-0,048
-300,008	439,401	-0,008	-0,012
-298,993	-200,000	-0,005	-0,070
-297,978	683,882	-0,065	0,122
-296,964	-13,869	-0,031	-0,014
-295,949	-94,727	-0,048	0,009
-294,935	-125,825	-0,131	-0,014
-293,920	800,000	-0,012	-0,030
-292,905	-200,000	-0,009	0,081
-291,891	-200,000	-0,017	0,093
-290,876	635,421	-0,041	-0,075
-289,862	83,939	-0,049	0,038
-288,847	637,087	-0,059	-0,106
-287,832	-91,876	-0,221	-0,044
-286,818	-200,000	-0,022	0,098
-285,803	140,395	0,147	0,138
-284,789	-200,000	-0,022	0,092
-283,774	42,044	-0,033	-0,022
-282,759	424,082	-0,020	0,030
-281,745	606,373	0,048	-0,086
-280,730	-71,342	0,079	0,021
-279,716	-200,000	-0,035	0,165
-278,701	580,615	0,026	0,046
-277,686	91,165	0,027	-0,021
-276,672	-200,000	0,003	-0,016
-275,657	-200,000	-0,001	0,109
-274,643	-13,192	-0,030	0,014
-273,628	800,000	-0,042	0,085
-272,613	-11,365	-0,184	-0,086
-271,599	743,533	-0,030	0,057
-270,584	-200,000	-0,032	0,139
-269,570	75,764	0,057	-0,043
-268,555	-39,827	0,073	-0,027
-267,540	288,181	-0,068	0,088
-266,526	108,460	-0,029	0,025
-265,511	-200,000	-0,017	-0,112
-264,497	-200,000	-0,018	-0,073
-263,482	525,116	-0,062	0,105
-262,467	9,154	0,077	0,041
-261,453	349,817	0,061	0,086
-260,438	-24,003	-0,135	-0,057
-259,424	-200,000	-0,005	-0,128
-258,409	93,608	0,047	-0,038
-257,395	49,037	-0,146	0,097
-256,380	1,534	0,082	0,042
-255,365	83,335	0,059	-0,046
-254,351	-73,475	0,084	-0,022
-253,336	2,245	-0,067	-0,035
-252,322	-11,773	-0,096	-0,045
-251,307	-165,591	-0,087	-0,003
-250,292	389,589	-0,044	0,066
-249,278	224,519	-0,030	0,034
-248,263	278,700	0,046	0,058
-247,249	496,614	0,054	0,089
-246,234	-200,000	-0,032	0,184
-245,219	215,291	0,086	-0,097
-244,205	800,000	0,011	-0,032
-243,190	478,408	-0,035	-0,057
-242,176	245,373	0,032	0,038
-241,161	69,697	0,146	0,107
-240,146	800,000	-0,024	0,049
-239,132	-34,430	0,066	0,026
-238,117	312,577	-0,051	-0,068
-237,103	275,384	-0,048	0,061
-236,088	-200,000	0,016	0,088
-235,073	261,905	0,065	0,080
-234,059	171,952	0,033	-0,034
-233,044	-200,000	0,050	0,178
-232,030	-200,000	0,017	-0,077
-231,015	522,449	-0,026	-0,044
-230,000	680,369	0,034	-0,064
-228,986	-77,178	0,135	-0,033
-227,971	-200,000	-0,014	0,063
-226,957	285,978	0,062	0,080
-225,942	-47,741	0,098	0,034
-224,927	103,859	-0,034	-0,028
-223,913	75,371	0,032	-0,024
-222,898	-200,000	0,036	-0,117
-221,884	-200,000	0,019	0,060
-220,869	531,745	0,021	-0,035
-219,855	513,955	0,022	-0,036
-218,840	-200,000	0,010	0,083
-217,825	101,209	-0,058	-0,048
-216,811	-200,000	-0,016	-0,068
-215,796	-94,711	-0,137	-0,026
-214,782	-140,887	0,198	0,014
-213,767	541,637	-0,049	0,084
-212,752	-24,428	0,171	0,072
-211,738	351,212	-0,043	0,061
-210,723	-54,498	0,109	-0,035
-209,709	287,245	-0,029	-0,037
-208,694	800,000	0,051	-0,111
-207,679	-200,000	-0,011	-0,079
-206,665	800,000	0,014	0,033
-205,650	352,338	-0,064	0,091
-204,636	-200,000	0,005	0,109
-203,621	-200,000	0,012	0,159
-202,606	800,000	-0,005	-0,011
-201,592	99,267	0,075	-0,062
-200,577	620,861	-0,036	-0,064
-199,563	56,389	-0,030	-0,021
-198,548	170,950	-0,026	-0,026
-197,533	39,116	0,099	0,063
-196,519	63,255	-0,054	-0,039
-195,504	-200,000	0,009	0,085
-194,490	-200,000	0,039	-0,122
-193,475	-154,845	-0,128	-0,006
-192,460	-97,677	0,264	0,048
-191,446	-116,468	0,171	0,022
-190,431	-200,000	-0,014	0,068
-189,417	-189,922	0,075	-0,001
-188,402	7,357	0,010	0,005
-187,387	-200,000	0,032	-0,213
-186,373	-200,000	-0,006	0,051
-185,358	-200,000	-0,009	-0,168
-184,344	-36,066	0,092	0,035
-183,329	-54,036	-0,059	0,019
-182,315	320,972	-0,042	-0,057
-181,300	-200,000	0,008	-0,062
-180,285	-200,000	0,014	-0,105
-179,271	301,957	0,079	-0,103
-178,256	-200,000	0,022	-0,110
-177,242	-200,000	-0,004	0,099
-176,227	73,493	0,101	-0,075
-175,212	-200,000	-0,026	-0,095
-174,198	332,863	0,039	0,054
-173,183	-89,666	-0,141	0,029
-172,169	17,661	0,031	0,018
-171,154	421,536	-0,038	0,058
-170,139	-200,000	0,003	0,091
-169,125	-100,219	0,185	-0,032
-168,110	-129,622	0,172	-0,017
-167,096	95,191	0,071	0,057
-166,081	315,536	0,030	0,041
-165,066	-58,094	-0,226	-0,069
-164,052	226,625	0,057	-0,065
-163,037	329,518	-0,041	-0,056
-162,023	93,722	0,044	-0,035
-161,008	-200,000	-0,000	0,023
-159,993	-101,020	0,063	0,011
-158,979	800,000	-0,021	-0,051
-157,964	339,545	-0,093	-0,128
-156,950	800,000	-0,024	-0,068
-155,935	-200,000	-0,048	0,170
-154,920	2,209	-0,034	-0,017
-153,906	-200,000	0,004	0,049
-152,891	30,572	0,066	0,040
-151,877	-200,000	0,012	-0,070
-150,862	-6,628	-0,168	-0,081
-149,847	423,260	0,030	0,046
-148,833	-200,000	-0,003	0,097
-147,818	-64,660	0,082	0,023
-146,804	9,330	-0,025	-0,013
-145,789	-200,000	-0,008	0,139
-144,775	93,372	-0,112	-0,089
-143,760	-75,505	0,150	0,038
-142,745	800,000	0,032	-0,080
-141,731	3,195	-0,175	-0,090
-140,716	-200,000	0,010	0,049
-139,702	800,000	0,057	0,140
-138,687	252,866	-0,021	0,026
-137,672	250,521	-0,117	0,141
-136,658	18,803	-0,076	-0,043
-135,643	-200,000	0,008	-0,046
-134,629	-22,091	-0,146	0,063
-133,614	-200,000	0,014	0,063
-132,599	39,992	0,084	0,053
-131,585	-200,000	0,002	0,023
-130,570	-200,000	-0,029	-0,142
-129,556	-200,000	0,004	-0,017
-128,541	784,350	0,042	-0,082
-127,526	567,044	-0,007	0,012
-126,512	39,476	0,097	0,061
-125,497	452,136	-0,030	-0,047
-124,483	-200,000	-0,001	0,082
-123,468	176,374	-0,059	0,060
-122,453	-200,000	-0,001	-0,129
-121,439	-103,296	0,131	0,022
-120,424	42,152	0,047	-0,030
-119,410	199,953	0,062	-0,067
-118,395	-200,000	0,011	0,175
-117,380	568,884	-0,040	-0,070
-116,366	-200,000	0,001	0,088
-115,351	-28,783	0,062	-0,025
-114,337	-200,000	-0,020	0,094
-113,322	132,682	0,114	-0,104
-112,307	-200,000	0,046	-0,152
-111,293	-200,000	0,007	-0,054
-110,278	-200,000	-0,001	0,108
-109,264	793,056	-0,051	0,099
-108,249	-170,125	0,072	-0,002
-107,234	-125,663	0,087	-0,009
-106,220	800,000	-0,039	-0,083
-105,205	135,544	0,138	-0,127
-104,191	-94,197	0,074	0,014
-103,176	-200,000	-0,003	-0,041
-102,162	-200,000	0,030	0,106
-101,147	180,548	-0,038	0,040
-100,132	-22,512	-0,124	-0,053
-99,118	-71,426	-0,047	-0,012
-98,103	-200,000	0,029	-0,113
-97,089	705,755	0,024	0,046
-96,074	117,838	0,073	0,063
-95,059	-200,000	0,005	-0,068
-94,045	268,702	-0,074	-0,092
-93,030	233,401	-0,063	-0,073
-92,016	800,000	-0,053	-0,158
-91,001	-129,661	0,166	-0,016
-89,986	-200,000	-0,004	0,115
-88,972	-101,103	0,114	0,020
-87,957	800,000	0,012	-0,033
-86,943	-200,000	-0,006	-0,164
-85,928	-27,779	-0,081	-0,033
-84,913	36,712	-0,025	0,016
-83,899	-200,000	0,006	-0,047
-82,884	-200,000	0,012	-0,059
-81,870	65,482	-0,083	0,060
-80,855	-51,655	-0,054	0,018
-79,840	-4,029	-0,025	-0,012
-78,826	-13,303	-0,084	-0,038
-77,811	-200,000	0,047	-0,159
-76,797	96,859	0,131	-0,106
-75,782	743,305	0,041	-0,078
-74,767	153,501	-0,091	0,088
-73,753	800,000	0,048	-0,147
-72,738	800,000	-0,013	-0,037
-71,724	-200,000	0,002	-0,052
-70,709	800,000	-0,007	-0,020
-69,694	137,462	-0,070	-0,065
-68,680	255,779	0,058	0,070
-67,665	-200,000	0,010	-0,047
-66,651	800,000	0,029	0,072
-65,636	-137,956	0,044	0,003
-64,622	-157,009	-0,128	-0,005
-63,607	34,313	-0,108	-0,066
-62,592	387,274	0,057	-0,084
-61,578	-58,906	0,023	0,007
-60,563	-200,000	0,005	-0,123
-59,549	205,208	-0,061	0,067
-58,534	47,130	-2,038	-1,337
-57,519	442,892	-1,211	-1,879
-56,505	-200,000	-0,441	-4,766
-55,490	323,540	0,917	1,237
-54,476	800,000	5,414	12,037
-53,461	-200,000	21,979	340,040
-52,446	800,000	759,246	2295,220
-51,432	531,634	1653,236	2769,836
-50,417	69,025	1651,631	1196,237
-49,403	16,507	1526,636	848,682
-48,388	10,696	1451,309	778,807
-47,373	19,134	1443,169	814,743
-46,359	14,116	1431,983	784,635
-45,344	9,034	1427,980	758,302
-44,330	8,956	1425,955	756,828
-43,315	8,930	1424,269	755,780
-42,300	8,919	1422,769	754,900
-41,286	8,997	1421,110	754,362
-40,271	8,950	1419,983	753,508
-39,257	8,918	1418,958	752,785
-38,242	8,922	1417,694	752,102
-37,227	8,936	1416,604	751,563
-36,213	8,997	1415,301	751,126
-35,198	8,957	1414,157	750,303
-34,184	9,015	1413,057	749,959
-33,169	8,873	1412,007	748,707
-32,154	8,959	1410,839	748,462
-31,140	8,926	1409,660	747,650
-30,125	8,957	1408,138	746,960
-29,111	8,940	1407,341	746,430
-28,096	8,889	1406,085	745,495
-27,082	8,889	1404,623	744,691
-26,067	8,867	1403,764	744,101
-25,052	8,888	1402,639	743,573
-24,038	8,924	1401,861	743,299
-23,023	8,888	1400,891	742,587
-22,009	8,882	1399,891	741,998
-20,994	8,866	1398,798	741,318
-19,979	8,861	1397,896	740,787
-18,965	8,854	1396,808	740,148
-17,950	8,784	1395,984	739,355
-16,936	8,809	1395,293	739,079
-15,921	8,776	1394,162	738,295
-14,906	8,809	1393,119	737,869
-13,892	8,867	1392,086	737,558
-12,877	8,850	1391,531	737,159
-11,863	8,815	1390,699	736,526
-10,848	8,794	1389,792	735,917
-9,833	8,748	1388,921	735,217
-8,819	8,729	1388,053	734,641
-7,804	8,702	1387,106	733,986
-6,790	8,749	1385,976	733,573
-5,775	8,723	1385,088	732,957
-4,760	8,721	1384,043	732,365
-3,746	8,774	1383,071	732,064
-2,731	8,757	1382,176	731,484
-1,717	8,707	1381,571	730,907
-0,702	8,757	1379,512	730,014
0,313	12,812	1290,892	701,549
1,327	28,939	682,128	406,882
2,342	45,223	117,566	76,305
3,356	-0,370	16,618	8,298
4,371	6,558	3,671	1,918
5,386	34,097	1,251	0,767
6,400	800,000	0,276	0,569
7,415	95,208	-0,179	-0,143
8,429	15,994	-0,252	-0,139
9,444	13,410	-0,295	-0,161
10,459	338,090	-0,187	-0,257
11,473	10,148	-0,233	-0,125
12,488	376,966	-0,104	-0,150
13,502	5,410	-0,336	-0,174
14,517	51,050	-0,274	-0,182
15,531	114,593	-0,306	-0,262
16,546	-7,749	-0,283	-0,134
17,561	53,357	-0,336	-0,227
18,575	-53,046	-0,212	-0,068
19,590	462,294	-0,251	-0,395
20,604	58,117	-0,152	-0,105
21,619	27,891	-0,448	-0,266
22,634	140,366	-0,354	-0,329
23,648	68,914	-0,387	-0,279
24,663	63,326	-0,289	-0,203
25,677	-12,786	-0,295	-0,135
26,692	136,190	-0,271	-0,249
27,707	175,404	-0,260	-0,265
28,721	86,263	-0,335	-0,259
29,736	47,264	-0,468	-0,306
30,750	87,094	-0,367	-0,285
31,765	34,782	-0,420	-0,258
32,780	94,797	-0,281	-0,224
33,794	167,620	-0,333	-0,333
34,809	35,367	-0,385	-0,237
35,823	31,523	-0,462	-0,278
36,838	102,867	-0,364	-0,300
37,853	135,676	-0,355	-0,325
38,867	53,225	-0,416	-0,280
39,882	79,259	-0,383	-0,289
40,896	42,477	-0,203	-0,130
41,911	-64,042	-0,328	-0,094
42,926	0,816	-0,374	-0,188
43,940	118,151	-0,285	-0,247
44,955	-28,385	-0,510	-0,206
45,969	169,198	-0,259	-0,260
46,984	473,823	-0,187	-0,297
47,999	-18,876	-0,357	-0,156
49,013	800,000	-0,154	-0,363
50,028	-55,873	-0,419	-0,131
51,042	136,005	-0,307	-0,281
52,057	248,584	-0,262	-0,312
53,071	106,981	-0,353	-0,294
54,086	202,824	-0,215	-0,234
55,101	29,100	-0,302	-0,180
56,115	27,632	-0,214	-0,126
57,130	8,634	-0,312	-0,165
58,144	91,704	-0,448	-0,354
59,159	11,146	-0,472	-0,253
60,174	111,412	-0,386	-0,327
61,188	710,673	-0,124	-0,232
62,203	77,210	-0,320	-0,239
63,217	76,993	-0,279	-0,207
64,232	-6,760	-0,398	-0,189
65,247	189,218	-0,222	-0,233
66,261	46,376	-0,318	-0,206
67,276	144,209	-0,358	-0,335
68,290	128,976	-0,245	-0,219
69,305	128,609	-0,255	-0,228
70,320	14,031	-0,346	-0,188
71,334	47,793	-0,330	-0,216
72,349	97,598	-0,315	-0,254
73,363	75,385	-0,248	-0,184
74,378	88,371	-0,354	-0,275
75,393	106,548	-0,251	-0,208
76,407	-61,102	-0,330	-0,097
77,422	170,542	-0,319	-0,320
78,436	-32,087	-0,400	-0,156
79,451	28,199	-0,261	-0,154
80,466	-81,758	-0,357	-0,081
81,480	2,970	-0,377	-0,191
82,495	93,415	-0,333	-0,264
83,509	379,221	-0,277	-0,398
84,524	148,976	-0,239	-0,226
85,539	-153,775	-0,220	-0,010
86,553	22,697	-0,365	-0,209
87,568	45,927	-0,295	-0,191
88,582	53,879	-0,283	-0,190
89,597	345,247	-0,266	-0,367
90,611	7,828	-0,168	-0,088
91,626	18,735	-0,255	-0,142
92,641	-72,829	-0,301	-0,077
93,655	16,822	-0,157	-0,087
94,670	155,667	-0,266	-0,257
95,684	97,116	-0,248	-0,199
96,699	756,926	-0,102	-0,194
97,714	167,335	-0,203	-0,202
98,728	279,996	-0,159	-0,199
99,743	17,230	-0,295	-0,163
100,757	48,894	-0,288	-0,188
101,772	82,844	-0,298	-0,226
102,787	135,401	-0,368	-0,335
103,801	73,740	-0,287	-0,210
104,816	33,460	-0,210	-0,127
105,830	-41,884	-0,206	-0,073
106,845	41,313	-0,207	-0,130
107,860	696,685	-0,113	-0,209
108,874	-12,256	-0,324	-0,147
109,889	95,674	-0,325	-0,259
110,903	139,248	-0,294	-0,270
111,918	800,000	-0,120	-0,314
112,933	33,871	-0,236	-0,143
113,947	37,459	-0,365	-0,226
114,962	250,116	-0,219	-0,260
115,976	0,611	-0,315	-0,157
116,991	-27,195	-0,327	-0,133
118,006	-23,965	-0,229	-0,095
119,020	168,689	-0,290	-0,288
120,035	189,699	-0,145	-0,152
121,049	-200,000	-0,054	-0,222
122,064	449,233	-0,199	-0,307
123,079	371,229	-0,148	-0,210
124,093	200,984	-0,217	-0,233
125,108	136,535	-0,219	-0,200
126,122	-0,886	-0,289	-0,142
127,137	53,684	-0,179	-0,120
128,151	53,467	-0,116	-0,078
129,166	342,779	-0,206	-0,281
130,181	66,932	-0,302	-0,214
131,195	541,471	-0,142	-0,236
132,210	340,379	-0,184	-0,252
133,224	71,785	-0,222	-0,161
134,239	12,267	-0,296	-0,159
135,254	139,423	-0,271	-0,248
136,268	174,854	-0,221	-0,223
137,283	31,842	-0,278	-0,166
138,297	-23,414	-0,266	-0,111
139,312	-19,112	-0,246	-0,106
140,327	17,511	-0,219	-0,121
141,341	119,697	-0,220	-0,190
142,356	-32,355	-0,137	-0,053
143,370	178,703	-0,155	-0,158
144,385	800,000	-0,086	-0,190
145,400	126,260	-0,270	-0,238
146,414	-15,129	-0,271	-0,120
147,429	205,123	-0,203	-0,220
148,443	170,334	-0,211	-0,211
149,458	29,588	-0,218	-0,129
150,473	117,908	-0,194	-0,166
151,487	142,482	-0,128	-0,118
152,502	168,130	-0,172	-0,171
153,516	259,290	-0,274	-0,329
154,531	538,358	-0,210	-0,349
155,546	653,724	-0,144	-0,258
156,560	-11,323	-0,205	-0,094
157,575	61,811	-0,172	-0,119
158,589	144,016	-0,194	-0,180
159,604	112,729	-0,300	-0,252
160,619	276,634	-0,214	-0,266
161,633	-0,903	-0,362	-0,178
162,648	504,152	-0,078	-0,126
163,662	25,999	-0,087	-0,050
164,677	-21,896	-0,242	-0,102
165,692	56,079	-0,260	-0,175
166,706	34,821	-0,215	-0,130
167,721	259,794	-0,182	-0,219
168,735	5,522	-0,320	-0,164
169,750	53,460	-0,247	-0,165
170,764	24,205	-0,251	-0,144
171,779	64,516	-0,212	-0,148
172,794	-79,962	-0,224	-0,052
173,808	140,905	-0,240	-0,220
174,823	205,530	-0,243	-0,263
175,837	223,045	-0,211	-0,236
176,852	304,501	-0,200	-0,259
177,867	-24,185	-0,179	-0,074
178,881	-145,601	-0,187	0,011
179,896	242,473	-0,123	-0,143
180,910	317,049	-0,181	-0,238
181,925	458,881	-0,123	-0,191
182,940	49,153	-0,300	-0,195
183,954	160,828	-0,170	-0,165
184,969	204,813	-0,183	-0,198
185,983	-200,000	-0,041	-0,131
186,998	58,714	-0,128	-0,087
188,013	454,620	-0,116	-0,180
189,027	432,692	-0,138	-0,208
190,042	800,000	-0,074	-0,194
191,056	800,000	-0,139	-0,291
192,071	-155,862	-0,185	-0,008
193,086	270,864	-0,103	-0,126
194,100	-200,000	-0,064	-0,199
195,115	-2,919	-0,245	-0,118
196,129	117,374	-0,192	-0,164
197,144	800,000	-0,043	-0,094
198,159	98,187	-0,307	-0,245
199,173	509,222	-0,142	-0,229
200,188	150,000	-0,084	-0,079
201,202	604,698	-0,078	-0,135
202,217	93,895	-0,203	-0,159
203,232	-61,102	-0,254	-0,074
204,246	155,327	-0,176	-0,168
205,261	153,793	-0,266	-0,252
206,275	159,428	-0,128	-0,123
207,290	-134,577	-0,255	0,021
208,304	21,338	-0,208	-0,117
209,319	209,791	-0,121	-0,131
210,334	28,408	-0,239	-0,140
211,348	800,000	-0,074	-0,188
212,363	167,315	-0,198	-0,195
213,377	-5,624	-0,293	-0,138
214,392	53,756	-0,254	-0,169
215,407	76,489	-0,163	-0,120
216,421	-21,163	-0,219	-0,092
217,436	40,106	-0,190	-0,118
218,450	-6,814	-0,105	-0,049
219,465	165,511	-0,208	-0,203
220,480	65,276	-0,086	-0,060
221,494	800,000	-0,087	-0,226
222,509	-105,263	-0,253	-0,040
223,523	-150,984	-0,328	0,017
224,538	8,770	-0,228	-0,118
225,553	800,000	-0,090	-0,231
226,567	-12,664	-0,163	-0,073
227,582	373,373	-0,145	-0,204
228,596	110,435	-0,291	-0,242
229,611	184,347	-0,145	-0,149
230,626	210,189	-0,139	-0,151
231,640	-200,000	-0,027	-0,119
232,655	256,663	-0,210	-0,250
233,669	410,022	-0,205	-0,301
234,684	219,534	-0,190	-0,210
235,699	380,039	-0,098	-0,140
236,713	-60,234	-0,233	-0,068
237,728	77,836	-0,152	-0,112
238,742	175,108	-0,140	-0,140
239,757	26,859	-0,379	-0,219
240,772	-13,126	-0,298	-0,133
241,786	299,826	-0,098	-0,125
242,801	86,283	-0,162	-0,123
243,815	438,198	-0,151	-0,229
244,830	-103,452	-0,161	0,026
245,844	37,418	-0,247	-0,151
246,859	-181,331	-0,158	-0,002
247,874	-200,000	-0,016	-0,377
248,888	0,954	-0,255	-0,126
249,903	163,341	-0,155	-0,150
250,917	-73,056	-0,183	-0,046
251,932	30,565	-0,151	-0,089
252,947	46,791	-0,226	-0,145
253,961	-105,989	-0,101	-0,016
254,976	-51,942	-0,231	-0,074
255,990	723,799	-0,093	-0,172
257,005	-27,716	-0,138	0,055
258,020	-120,113	-0,267	0,031
259,034	33,336	-0,178	-0,106
260,049	181,421	-0,105	-0,107
261,063	71,165	-0,285	-0,204
262,078	398,871	-0,189	-0,273
263,093	471,068	-0,161	-0,251
264,107	-19,946	-0,195	-0,083
265,122	-200,000	0,010	-0,107
266,136	-200,000	-0,012	-0,081
267,151	122,281	-0,163	-0,140
268,166	-200,000	0,013	-0,218
269,180	166,293	-0,148	-0,145
270,195	99,392	-0,143	-0,114
271,209	-200,000	-0,068	-0,218
272,224	222,467	-0,115	-0,128
273,239	-2,978	-0,141	-0,067
274,253	-98,406	-0,128	-0,022
275,268	800,000	-0,061	-0,166
276,282	800,000	-0,086	-0,183
277,297	133,038	-0,124	-0,110
278,312	133,127	-0,216	-0,192
279,326	800,000	-0,109	-0,214
280,341	-18,677	-0,121	-0,052
281,355	7,736	-0,167	-0,086
282,370	179,466	-0,111	-0,112
283,384	-8,697	-0,302	-0,139
284,399	124,188	-0,141	-0,122
285,414	-25,380	-0,196	-0,080
286,428	-102,413	-0,093	-0,015
287,443	-92,540	-0,152	-0,029
288,457	-124,929	-0,159	-0,017
289,472	181,240	-0,126	-0,127
290,487	568,997	-0,124	-0,208
291,501	644,308	-0,125	-0,219
292,516	99,083	-0,155	-0,123
293,530	-51,725	-0,195	-0,062
294,545	506,893	-0,098	-0,157
295,560	-76,195	-0,109	-0,026
296,574	17,989	-0,077	-0,042
297,589	89,734	-0,185	-0,142
298,603	-200,000	-0,083	-0,258
299,618	264,597	-0,192	-0,231
300,633	-200,000	-0,002	-0,069
301,647	-77,154	-0,143	-0,034
302,662	177,558	-0,102	0,103
303,676	123,011	-0,128	-0,110
304,691	800,000	-0,093	-0,236
305,706	569,908	-0,102	-0,170
306,720	44,866	-0,112	-0,071
307,735	-126,846	-0,141	-0,014
308,749	-200,000	0,013	-0,211
309,764	-135,349	-0,124	0,010
310,779	-92,337	-0,137	-0,026
311,793	-16,621	-0,169	-0,073
312,808	-31,121	-0,111	0,043
313,822	15,072	-0,190	-0,102
314,837	-84,772	-0,278	-0,059
315,852	-121,243	-0,179	-0,020
316,866	-200,000	-0,012	-0,235
317,881	126,793	-0,085	0,074
318,895	112,006	-0,120	-0,099
319,910	-29,242	-0,171	-0,067
320,925	487,922	-0,100	-0,157
321,939	332,127	-0,125	-0,166
322,954	491,797	-0,091	-0,144
323,968	227,005	-0,109	-0,121
324,983	18,900	-0,200	-0,110
325,997	10,726	-0,172	-0,090
327,012	-59,899	-0,182	-0,053
328,027	67,313	-0,239	-0,167
329,041	800,000	-0,071	-0,170
330,056	-200,000	-0,028	-0,172
331,070	800,000	-0,050	-0,101
332,085	800,000	-0,042	0,094
333,100	43,204	-0,048	0,030
334,114	800,000	-0,066	-0,139
335,129	-200,000	-0,053	-0,192
336,143	14,568	-0,139	-0,074
337,158	-73,238	-0,100	-0,025
338,173	-53,704	-0,128	-0,040
339,187	-95,407	-0,175	-0,032
340,202	308,594	-0,078	-0,100
341,216	152,028	-0,188	-0,175
342,231	509,100	-0,135	-0,215
343,246	380,847	-0,108	-0,153
344,260	-18,692	-0,066	0,028
345,275	-102,379	-0,096	-0,016
346,289	-131,067	-0,228	-0,021
347,304	-47,148	-0,056	0,019
348,319	-132,614	-0,154	0,013
349,333	190,316	-0,114	-0,118
350,348	96,355	-0,146	-0,114
351,362	-163,331	-0,137	0,004
352,377	-69,366	-0,071	-0,019
353,392	33,024	-0,127	-0,075
354,406	-110,879	-0,037	-0,005
355,421	206,416	1310,621	1396,826
356,435	158,752	1470,777	1397,281
