DTS Sentinel unit serial number:	SN410029Multiplexer serial number:	ORYXHardware model number:	OX2-SRSoftware version number:	ORYX F/W v4,00 Oryx Data Collector v3.7.2.0data status	okinstallation	B3 Nyhavnadifferential loss correction	single-endedforward channel	channel 1reverse channel	N/Adate	2023/12/04time	23:17:30forward acquisition time	300,00reverse acquisition time	0,00gamma	499,1914k internal	0,3200k external	0,3200temperature offset calibration	1,0000default loss term (dB/km)	0,3820temperature slope calibration	1,0000multiplexer offset coefficient	1,0000multiplexer slope coefficient	1,0000fibre end	0,00T internal ref (°C)	14,26T ext. ref 1 (°C)	-1,07T ext. ref 2 (°C)	-1,08length (m)	temperature (°C)	Stokes	anti-Stokes-744,400	437,168	-0,152	-0,243
-743,385	-200,000	0,054	0,224
-742,371	-21,771	-0,175	-0,077
-741,356	-200,000	0,020	0,249
-740,342	243,077	-0,127	-0,155
-739,327	-200,000	-0,027	0,159
-738,312	244,832	-0,155	-0,189
-737,298	149,829	-0,152	0,150
-736,283	628,279	-0,139	-0,257
-735,269	-200,000	-0,017	0,313
-734,254	157,042	-0,193	-0,194
-733,239	-72,359	-0,193	0,052
-732,225	158,255	-0,150	-0,152
-731,210	187,982	0,110	0,120
-730,196	-71,634	-0,147	0,040
-729,181	-200,000	-0,032	-0,112
-728,167	244,751	-0,082	-0,100
-727,152	35,269	0,049	0,031
-726,137	33,191	-0,104	-0,065
-725,123	52,897	-0,140	-0,097
-724,108	-27,856	-0,119	-0,050
-723,094	106,366	-0,140	-0,120
-722,079	-200,000	0,005	-0,173
-721,064	413,819	0,013	0,020
-720,050	-156,713	-0,091	-0,004
-719,035	143,935	-0,046	0,044
-718,021	304,443	0,057	-0,077
-717,006	-200,000	-0,004	-0,314
-715,991	800,000	-0,078	-0,180
-714,977	-150,542	0,071	0,004
-713,962	130,133	0,067	-0,062
-712,948	126,033	-0,068	-0,063
-711,933	-94,038	-0,081	-0,016
-710,918	77,481	-0,073	-0,056
-709,904	-200,000	0,020	-0,104
-708,889	109,247	-0,066	0,057
-707,875	251,793	-0,070	0,087
-706,860	204,706	0,082	-0,093
-705,845	350,814	0,070	-0,101
-704,831	-200,000	-0,010	-0,076
-703,816	800,000	0,039	0,119
-702,802	97,817	-0,093	0,078
-701,787	12,129	0,089	0,050
-700,772	-200,000	-0,015	-0,111
-699,758	52,496	0,054	-0,038
-698,743	-48,000	0,011	0,004
-697,729	92,129	0,013	0,011
-696,714	-137,467	-0,099	-0,008
-695,699	387,053	-0,044	0,066
-694,685	344,408	-0,062	-0,088
-693,670	800,000	-0,032	-0,073
-692,656	302,325	-0,063	-0,085
-691,641	97,737	-0,041	0,034
-690,627	-200,000	0,030	0,135
-689,612	-200,000	-0,026	0,093
-688,597	-200,000	0,023	0,087
-687,583	800,000	-0,023	0,053
-686,568	-4,222	-0,117	-0,058
-685,554	408,229	0,009	-0,014
-684,539	-103,789	-0,091	-0,015
-683,524	-153,775	-0,117	-0,006
-682,510	-88,532	0,104	0,022
-681,495	133,352	0,032	0,030
-680,481	-200,000	-0,004	-0,077
-679,466	524,283	-0,030	0,052
-678,451	473,316	-0,039	-0,065
-677,437	-200,000	-0,029	-0,111
-676,422	92,449	-0,079	0,065
-675,408	-46,164	0,059	-0,021
-674,393	-118,804	-0,147	-0,019
-673,378	213,772	-0,049	-0,056
-672,364	800,000	-0,074	-0,154
-671,349	9,617	0,060	-0,033
-670,335	-115,379	0,033	-0,004
-669,320	-40,735	-0,106	-0,040
-668,305	186,780	-0,069	-0,075
-667,291	-200,000	0,021	-0,079
-666,276	66,083	0,030	-0,022
-665,262	-200,000	-0,016	-0,137
-664,247	68,536	-0,064	0,047
-663,232	-56,054	0,075	-0,024
-662,218	61,916	0,045	0,032
-661,203	800,000	0,032	-0,086
-660,189	445,344	0,050	-0,080
-659,174	-68,772	-0,077	-0,021
-658,159	617,514	0,023	-0,042
-657,145	-113,699	-0,113	0,016
-656,130	0,452	-0,052	-0,027
-655,116	-200,000	0,013	0,068
-654,101	-70,961	0,182	0,049
-653,086	-88,629	-0,115	0,025
-652,072	-200,000	0,030	0,111
-651,057	-77,681	-0,178	-0,044
-650,043	51,596	0,105	0,073
-649,028	-2,057	0,085	0,043
-648,014	334,015	-0,080	0,112
-646,999	68,116	0,043	0,032
-645,984	649,676	-0,017	-0,031
-644,970	77,399	-0,158	-0,122
-643,955	394,789	0,018	-0,028
-642,941	-200,000	-0,011	-0,052
-641,926	-145,146	-0,079	-0,005
-640,911	-200,000	-0,009	-0,108
-639,897	102,629	-0,094	0,080
-638,882	48,830	0,029	0,020
-637,868	-200,000	0,002	0,044
-636,853	-43,351	-0,057	0,021
-635,838	85,198	-0,047	0,037
-634,824	30,850	0,124	-0,077
-633,809	-200,000	0,003	-0,029
-632,795	-67,398	-0,084	-0,024
-631,780	-39,055	0,040	0,015
-630,765	-200,000	-0,003	-0,140
-629,751	611,058	-0,100	-0,183
-628,736	-200,000	0,010	-0,057
-627,722	-115,832	-0,086	-0,012
-626,707	-35,138	0,106	0,041
-625,692	64,499	-0,039	0,029
-624,678	308,887	0,052	0,070
-623,663	-128,081	-0,020	0,002
-622,649	-86,124	-0,112	-0,025
-621,634	-76,074	0,044	-0,011
-620,619	-80,927	-0,112	0,027
-619,605	-200,000	-0,023	-0,075
-618,590	-11,871	0,147	-0,069
-617,576	419,567	-0,077	0,120
-616,561	-74,941	0,039	-0,010
-615,546	94,570	-0,140	0,115
-614,532	10,359	-0,105	-0,058
-613,517	196,864	-0,090	-0,100
-612,503	176,444	0,106	0,112
-611,488	284,082	-0,044	0,057
-610,474	-29,284	0,108	0,044
-609,459	559,430	-0,015	-0,026
-608,444	-130,604	-0,151	-0,015
-607,430	8,817	-0,054	0,029
-606,415	67,097	-0,239	-0,176
-605,401	-78,826	-0,023	0,006
-604,386	307,285	-0,051	0,069
-603,371	553,365	-0,030	0,052
-602,357	-200,000	0,014	0,073
-601,342	231,988	0,103	0,123
-600,328	49,040	0,061	0,041
-599,313	103,146	0,024	0,020
-598,298	77,062	0,146	-0,112
-597,284	-200,000	-0,009	0,127
-596,269	-200,000	0,006	0,054
-595,255	712,370	0,019	0,036
-594,240	171,770	-0,155	-0,161
-593,225	7,157	-0,096	-0,052
-592,211	-2,613	0,095	-0,048
-591,196	221,581	-0,103	0,120
-590,182	-107,897	0,089	-0,014
-589,167	107,443	0,065	0,055
-588,152	800,000	0,017	0,040
-587,138	58,365	0,059	0,042
-586,123	-200,000	-0,008	-0,031
-585,109	-200,000	0,007	-0,092
-584,094	-157,557	0,079	-0,003
-583,079	-135,732	0,058	-0,005
-582,065	80,032	0,091	0,071
-581,050	149,989	0,066	0,065
-580,036	800,000	0,028	0,067
-579,021	115,423	0,092	-0,081
-578,006	-74,024	0,024	0,006
-576,992	563,480	-0,080	-0,140
-575,977	472,775	0,026	-0,043
-574,963	-177,555	-0,093	0,002
-573,948	-200,000	0,028	0,095
-572,934	737,822	0,039	0,076
-571,919	467,120	-0,048	0,078
-570,904	541,791	-0,062	0,108
-569,890	-200,000	0,003	-0,015
-568,875	85,984	0,074	0,059
-567,861	-129,330	-0,077	0,008
-566,846	-200,000	0,038	0,127
-565,831	-200,000	0,019	-0,096
-564,817	152,500	0,035	-0,035
-563,802	-200,000	-0,013	-0,116
-562,788	-105,714	-0,050	-0,008
-561,773	133,541	0,015	-0,014
-560,758	98,682	0,057	0,048
-559,744	-88,877	0,116	-0,025
-558,729	82,246	0,121	0,095
-557,715	-180,990	-0,076	-0,001
-556,700	387,298	0,038	-0,057
-555,685	-93,118	-0,170	-0,034
-554,671	-200,000	-0,001	0,059
-553,656	-51,088	0,031	0,010
-552,642	-37,188	0,131	0,050
-551,627	-98,702	0,057	0,010
-550,612	96,787	0,104	-0,086
-549,598	-107,219	-0,097	0,015
-548,583	-200,000	-0,012	0,056
-547,569	-200,000	-0,010	-0,108
-546,554	-200,000	0,003	-0,051
-545,539	-105,561	-0,083	-0,013
-544,525	32,392	0,062	-0,039
-543,510	661,835	-0,046	-0,086
-542,496	-200,000	0,027	-0,093
-541,481	-112,963	0,164	-0,023
-540,466	-159,792	-0,074	0,003
-539,452	87,938	0,102	-0,082
-538,437	-200,000	0,005	0,089
-537,423	-58,958	-0,075	0,023
-536,408	-200,000	-0,003	-0,060
-535,393	202,679	-0,117	-0,130
-534,379	-117,433	-0,023	-0,003
-533,364	-200,000	-0,025	0,109
-532,350	275,037	0,073	0,094
-531,335	463,543	0,028	0,046
-530,321	-200,000	0,018	0,085
-529,306	-200,000	0,007	-0,148
-528,291	-200,000	-0,009	-0,050
-527,277	-200,000	0,030	-0,111
-526,262	-141,296	-0,043	0,003
-525,248	48,753	0,118	0,080
-524,233	223,783	0,085	0,100
-523,218	134,746	0,063	-0,059
-522,204	-91,901	-0,177	0,036
-521,189	-116,610	-0,013	-0,002
-520,175	-200,000	0,004	-0,017
-519,160	-111,048	-0,057	0,008
-518,145	-7,231	0,041	0,020
-517,131	-196,301	0,112	-0,001
-516,116	-95,511	0,055	-0,011
-515,102	-56,557	-0,129	0,041
-514,087	-24,390	-0,111	-0,048
-513,072	-200,000	-0,002	-0,087
-512,058	-200,000	-0,003	-0,025
-511,043	268,619	0,025	0,032
-510,029	142,592	0,045	0,043
-509,014	272,270	-0,041	-0,053
-507,999	-80,427	-0,107	-0,026
-506,985	-0,373	-0,067	-0,034
-505,970	60,132	-0,192	-0,137
-504,956	-28,790	-0,072	-0,030
-503,941	-154,666	-0,066	0,003
-502,926	198,832	0,075	0,083
-501,912	-200,000	-0,032	0,144
-500,897	416,636	0,031	0,048
-499,883	-200,000	0,002	0,121
-498,868	-200,000	0,032	-0,108
-497,853	-81,143	-0,128	-0,030
-496,839	-127,261	-0,045	-0,005
-495,824	99,481	-0,088	0,073
-494,810	24,976	-0,089	0,053
-493,795	129,383	0,133	-0,123
-492,781	-61,575	-0,091	0,027
-491,766	-200,000	0,005	0,042
-490,751	-107,345	0,029	-0,005
-489,737	124,069	-0,049	-0,045
-488,722	-63,092	-0,027	0,008
-487,708	313,119	0,074	0,100
-486,693	28,111	0,083	0,050
-485,678	800,000	0,018	-0,039
-484,664	293,948	0,016	0,021
-483,649	-200,000	0,017	-0,081
-482,635	190,249	-0,012	0,013
-481,620	232,715	-0,046	0,055
-480,605	-186,590	0,065	-0,001
-479,591	171,465	0,111	0,115
-478,576	-200,000	0,014	0,122
-477,562	-200,000	-0,005	-0,083
-476,547	-138,605	-0,058	-0,005
-475,532	69,245	0,056	-0,041
-474,518	175,156	0,074	-0,077
-473,503	-39,985	-0,053	0,020
-472,489	-92,168	0,056	-0,011
-471,474	800,000	0,022	0,053
-470,459	54,771	-0,077	0,053
-469,445	-37,677	0,091	-0,035
-468,430	405,306	0,021	0,032
-467,416	162,286	-0,028	-0,029
-466,401	120,517	-0,108	-0,097
-465,386	372,349	-0,066	-0,097
-464,372	-14,906	0,022	-0,010
-463,357	-200,000	-0,004	0,048
-462,343	13,338	0,077	0,043
-461,328	800,000	-0,024	-0,058
-460,313	-37,215	0,139	0,053
-459,299	-79,698	0,078	0,019
-458,284	138,876	0,112	0,106
-457,270	129,960	-0,052	-0,048
-456,255	-200,000	0,016	-0,068
-455,241	637,060	-0,057	-0,105
-454,226	12,523	-0,073	0,040
-453,211	-200,000	-0,008	0,103
-452,197	800,000	0,048	0,145
-451,182	-200,000	-0,005	-0,016
-450,168	800,000	0,025	0,066
-449,153	70,486	-0,021	0,016
-448,138	165,810	0,035	0,035
-447,124	-200,000	0,008	-0,090
-446,109	-79,692	-0,136	0,033
-445,095	-125,464	0,104	0,011
-444,080	8,574	0,107	0,058
-443,065	-40,688	0,037	-0,014
-442,051	-200,000	0,008	-0,050
-441,036	-200,000	-0,000	0,045
-440,022	3,546	-0,065	-0,034
-439,007	-200,000	0,013	0,044
-437,992	800,000	0,027	0,055
-436,978	-200,000	0,004	0,048
-435,963	66,548	0,088	0,065
-434,949	800,000	-0,060	0,166
-433,934	273,021	0,032	0,041
-432,919	284,782	-0,011	0,014
-431,905	-200,000	0,002	0,188
-430,890	-200,000	-0,003	-0,041
-429,876	-200,000	-0,032	0,139
-428,861	-200,000	-0,043	0,185
-427,846	800,000	-0,053	-0,117
-426,832	800,000	0,046	-0,147
-425,817	157,748	0,057	-0,057
-424,803	-45,197	-0,106	-0,038
-423,788	-44,198	0,096	0,034
-422,773	-33,847	0,056	-0,022
-421,759	-48,671	-0,081	-0,028
-420,744	211,393	0,038	-0,043
-419,730	-14,972	-0,097	-0,044
-418,715	202,920	-0,126	-0,140
-417,701	-200,000	-0,022	-0,071
-416,686	-200,000	-0,028	-0,176
-415,671	-200,000	0,002	-0,148
-414,657	-200,000	-0,009	0,063
-413,642	800,000	-0,012	0,025
-412,628	-200,000	0,020	0,072
-411,613	-26,393	0,136	0,057
-410,598	800,000	-0,020	-0,046
-409,584	-200,000	-0,014	0,075
-408,569	800,000	0,031	0,063
-407,555	786,388	-0,061	-0,121
-406,540	800,000	0,020	0,048
-405,525	-35,958	0,086	-0,033
-404,511	-164,101	-0,037	-0,001
-403,496	113,241	-0,040	0,035
-402,482	183,633	0,081	-0,086
-401,467	385,476	-0,095	0,140
-400,452	-49,089	0,195	-0,067
-399,438	800,000	-0,024	-0,063
-398,423	234,486	0,068	0,081
-397,409	85,153	0,058	-0,045
-396,394	-119,593	0,065	-0,008
-395,379	716,810	0,019	-0,036
-394,365	-99,128	-0,110	0,020
-393,350	-200,000	-0,003	0,053
-392,336	113,013	0,099	0,086
-391,321	393,007	-0,059	-0,088
-390,306	-91,603	0,072	-0,014
-389,292	800,000	0,014	-0,036
-388,277	-200,000	0,023	0,082
-387,263	800,000	0,033	-0,066
-386,248	209,359	0,020	0,023
-385,233	-200,000	0,006	-0,052
-384,219	-200,000	-0,007	0,031
-383,204	800,000	0,070	-0,184
-382,190	331,754	0,041	-0,057
-381,175	-200,000	-0,003	-0,135
-380,160	47,367	0,122	0,081
-379,146	800,000	0,045	0,092
-378,131	-151,095	0,035	-0,002
-377,117	800,000	0,027	0,057
-376,102	-70,187	-0,184	0,050
-375,088	-96,174	0,072	0,014
-374,073	-200,000	-0,003	-0,102
-373,058	800,000	-0,031	-0,090
-372,044	-138,014	0,037	-0,003
-371,029	325,925	0,061	0,083
-370,015	474,217	-0,034	-0,054
-369,000	800,000	0,051	-0,109
-367,985	-156,070	0,027	-0,001
-366,971	90,655	0,089	0,072
-365,956	-200,000	-0,014	-0,058
-364,942	20,401	0,064	-0,037
-363,927	115,788	-0,044	0,038
-362,912	-45,967	-0,049	0,017
-361,898	800,000	0,054	0,143
-360,883	-123,518	0,040	0,005
-359,869	800,000	0,061	-0,148
-358,854	129,776	0,025	0,023
-357,839	344,420	0,027	-0,038
-356,825	-45,016	0,082	0,029
-355,810	-200,000	0,020	-0,068
-354,796	-200,000	0,009	0,070
-353,781	-49,169	-0,158	-0,054
-352,766	-93,130	0,019	-0,004
-351,752	800,000	0,110	0,228
-350,737	-175,810	-0,132	0,002
-349,723	126,985	0,060	0,054
-348,708	-200,000	0,011	0,076
-347,693	134,298	0,091	0,084
-346,679	123,823	0,014	0,013
-345,664	-44,434	0,070	-0,025
-344,650	-200,000	-0,001	-0,014
-343,635	-109,230	-0,108	0,016
-342,620	-200,000	-0,001	0,065
-341,606	338,659	0,035	-0,049
-340,591	252,568	-0,041	0,050
-339,577	-18,250	-0,042	0,019
-338,562	311,228	0,107	-0,144
-337,548	800,000	-0,106	-0,234
-336,533	511,653	-0,050	-0,083
-335,518	800,000	0,033	0,071
-334,504	4,117	-0,097	0,051
-333,489	-98,977	0,172	0,031
-332,475	-130,819	-0,181	0,017
-331,460	-21,040	-0,092	-0,040
-330,445	18,786	-0,081	0,046
-329,431	-200,000	-0,035	0,178
-328,416	283,354	0,087	0,112
-327,402	497,101	0,048	-0,080
-326,387	-108,187	-0,086	-0,013
-325,372	-200,000	0,024	-0,077
-324,358	505,162	-0,072	0,120
-323,343	517,956	-0,040	0,068
-322,329	-147,905	-0,155	0,009
-321,314	33,027	0,099	-0,061
-320,299	225,189	-0,040	-0,047
-319,285	-200,000	0,001	-0,069
-318,270	219,797	-0,068	-0,078
-317,256	369,095	-0,044	0,064
-316,241	75,606	0,059	-0,044
-315,226	-128,600	0,070	-0,007
-314,212	356,246	0,034	0,048
-313,197	569,757	-0,010	0,017
-312,183	-200,000	-0,000	0,118
-311,168	-200,000	-0,004	-0,159
-310,153	0,512	0,056	-0,028
-309,139	-200,000	-0,002	-0,021
-308,124	421,791	-0,019	-0,030
-307,110	800,000	0,021	-0,055
-306,095	-102,314	0,060	0,010
-305,080	505,130	0,066	0,110
-304,066	79,092	-0,143	-0,110
-303,051	156,656	-0,063	0,062
-302,037	332,745	-0,063	0,087
-301,022	-200,000	-0,000	-0,010
-300,008	209,036	-0,146	0,164
-298,993	235,432	0,121	0,143
-297,978	84,750	-0,053	-0,041
-296,964	-69,117	-0,135	0,037
-295,949	65,971	-0,027	0,020
-294,935	-166,656	0,053	-0,002
-293,920	-112,725	0,140	-0,020
-292,905	-200,000	-0,002	0,047
-291,891	36,390	0,133	0,083
-290,876	765,707	-0,018	-0,035
-289,862	213,590	0,019	0,021
-288,847	446,044	-0,126	-0,199
-287,832	-200,000	0,024	-0,182
-286,818	124,465	0,063	-0,057
-285,803	-27,584	0,059	0,024
-284,789	185,857	0,096	0,102
-283,774	-32,084	0,031	-0,012
-282,759	-29,948	-0,118	-0,048
-281,745	192,830	0,028	0,030
-280,730	-163,297	-0,023	-0,001
-279,716	197,756	-0,037	0,041
-278,701	-26,003	0,115	-0,048
-277,686	800,000	0,020	0,058
-276,672	397,423	0,016	0,024
-275,657	-200,000	0,000	0,184
-274,643	-2,401	-0,055	0,027
-273,628	-200,000	0,018	-0,065
-272,613	388,764	0,112	0,167
-271,599	24,932	0,093	0,055
-270,584	800,000	0,045	0,109
-269,570	205,759	-0,094	0,104
-268,555	-200,000	-0,003	0,027
-267,540	-200,000	-0,023	-0,161
-266,526	-200,000	-0,004	-0,168
-265,511	800,000	-0,033	-0,071
-264,497	101,365	0,115	-0,096
-263,482	1,467	0,072	-0,037
-262,467	-113,622	-0,088	0,012
-261,453	-200,000	0,033	0,128
-260,438	-200,000	0,004	-0,074
-259,424	-200,000	-0,037	-0,159
-258,409	-200,000	-0,004	-0,022
-257,395	456,274	0,079	-0,126
-256,380	800,000	0,047	-0,136
-255,365	-129,496	-0,066	0,006
-254,351	344,257	0,030	0,041
-253,336	49,831	-0,093	0,062
-252,322	-92,020	-0,033	-0,007
-251,307	-52,857	-0,088	-0,029
-250,292	-124,151	0,092	-0,010
-249,278	-200,000	0,034	-0,134
-248,263	-200,000	-0,012	-0,088
-247,249	-200,000	-0,019	-0,118
-246,234	45,208	0,040	-0,026
-245,219	-200,000	-0,195	0,000
-244,205	-139,049	-0,033	-0,003
-243,190	-30,288	-0,113	-0,045
-242,176	386,206	0,032	0,048
-241,161	18,696	-0,005	0,003
-240,146	49,206	-0,057	-0,038
-239,132	-27,357	-0,059	-0,024
-238,117	-89,743	-0,153	-0,032
-237,103	9,441	-0,114	-0,062
-236,088	140,345	0,038	0,036
-235,073	-200,000	0,018	0,091
-234,059	61,180	-0,044	-0,031
-233,044	161,655	0,106	0,106
-232,030	89,177	0,041	0,032
-231,015	800,000	-0,043	0,097
-230,000	800,000	0,027	-0,073
-228,986	768,931	-0,017	0,033
-227,971	-200,000	-0,016	0,134
-226,957	800,000	-0,035	0,073
-225,942	-160,575	-0,158	0,006
-224,927	17,679	-0,114	-0,064
-223,913	-32,282	0,033	-0,013
-222,898	-58,856	0,022	0,007
-221,884	-40,323	0,062	-0,023
-220,869	-200,000	0,025	0,135
-219,855	222,393	0,074	0,085
-218,840	270,891	-0,051	0,064
-217,825	-131,330	-0,119	0,011
-216,811	800,000	0,047	0,098
-215,796	-200,000	0,032	-0,140
-214,782	-200,000	0,071	-0,296
-213,767	-200,000	-0,015	-0,123
-212,752	800,000	0,021	0,042
-211,738	-71,343	0,074	-0,020
-210,723	-200,000	-0,009	0,043
-209,709	-118,870	-0,022	-0,003
-208,694	-161,667	-0,021	0,001
-207,679	64,519	-0,034	0,025
-206,665	800,000	0,024	0,067
-205,650	663,895	0,026	0,048
-204,636	58,750	0,068	-0,047
-203,621	-200,000	-0,022	0,147
-202,606	800,000	0,034	-0,071
-201,592	-200,000	0,010	-0,147
-200,577	-137,468	-0,118	-0,009
-199,563	312,159	0,052	0,070
-198,548	-170,604	0,174	-0,004
-197,533	800,000	0,044	0,090
-196,519	318,311	-0,043	0,059
-195,504	152,970	0,019	0,019
-194,490	525,619	0,026	-0,043
-193,475	164,735	-0,051	-0,052
-192,460	800,000	0,055	0,118
-191,446	800,000	0,020	0,048
-190,431	728,457	0,037	0,071
-189,417	357,330	-0,027	-0,038
-188,402	90,687	0,158	0,126
-187,387	-200,000	-0,046	-0,153
-186,373	800,000	-0,021	-0,049
-185,358	800,000	-0,033	-0,098
-184,344	-66,959	0,076	-0,021
-183,329	83,277	0,053	0,041
-182,315	-69,896	-0,101	0,027
-181,300	-26,712	0,009	0,004
-180,285	-75,923	-0,069	0,017
-179,271	-34,382	-0,077	-0,030
-178,256	318,880	0,067	0,090
-177,242	128,538	0,028	0,026
-176,227	800,000	0,061	0,164
-175,212	368,701	-0,075	0,108
-174,198	-63,965	-0,137	0,040
-173,183	-82,997	-0,047	-0,011
-172,169	225,448	-0,109	0,125
-171,154	602,120	0,084	-0,149
-170,139	479,697	0,025	-0,040
-169,125	-75,809	0,130	-0,032
-168,110	800,000	-0,007	-0,020
-167,096	-56,283	-0,095	-0,030
-166,081	609,239	0,030	-0,054
-165,066	225,754	-0,072	-0,083
-164,052	-43,929	0,042	-0,015
-163,037	557,361	-0,082	-0,141
-162,023	-200,000	0,012	-0,042
-161,008	-200,000	0,006	0,028
-159,993	-9,658	0,093	-0,044
-158,979	639,906	-0,068	-0,124
-157,964	-126,678	0,060	-0,006
-156,950	492,634	-0,017	-0,028
-155,935	-200,000	0,029	-0,119
-154,920	23,229	0,103	-0,060
-153,906	63,375	-0,168	0,120
-152,891	384,412	0,034	0,050
-151,877	800,000	-0,016	-0,042
-150,862	72,087	-0,068	-0,050
-149,847	-200,000	0,018	0,060
-148,833	800,000	-0,092	-0,188
-147,818	35,811	0,088	0,055
-146,804	91,846	-0,071	0,057
-145,789	-81,767	-0,053	0,012
-144,775	2,338	-0,087	0,044
-143,760	142,591	0,039	-0,037
-142,745	306,140	0,064	0,085
-141,731	402,424	-0,099	0,148
-140,716	800,000	0,079	0,201
-139,702	64,958	-0,086	-0,062
-138,687	-200,000	0,025	0,148
-137,672	-179,808	0,123	-0,002
-136,658	-36,373	-0,149	0,057
-135,643	-200,000	-0,025	-0,166
-134,629	-200,000	-0,004	0,023
-133,614	-115,675	0,078	0,010
-132,599	-5,543	0,239	0,116
-131,585	-84,112	0,057	-0,013
-130,570	-103,039	-0,109	0,018
-129,556	-200,000	-0,003	-0,018
-128,541	-200,000	0,009	-0,034
-127,526	-200,000	-0,025	-0,087
-126,512	800,000	0,029	0,066
-125,497	-125,585	-0,087	-0,009
-124,483	-200,000	0,009	-0,058
-123,468	-167,510	0,124	0,003
-122,453	148,593	-0,050	-0,048
-121,439	245,575	0,014	-0,016
-120,424	176,564	0,050	0,052
-119,410	800,000	-0,031	0,068
-118,395	-56,834	0,050	-0,016
-117,380	800,000	-0,032	-0,068
-116,366	-82,195	-0,081	-0,019
-115,351	-200,000	0,001	-0,067
-114,337	800,000	-0,043	-0,112
-113,322	-99,401	0,026	-0,005
-112,307	-200,000	-0,018	0,063
-111,293	-108,382	-0,083	-0,013
-110,278	-122,344	0,060	-0,007
-109,264	-99,864	0,029	0,005
-108,249	-148,967	-0,093	-0,005
-107,234	56,945	-0,068	-0,047
-106,220	-160,147	-0,103	-0,004
-105,205	10,393	-0,022	0,012
-104,191	800,000	0,032	0,085
-103,176	-60,675	0,023	-0,007
-102,162	-51,956	-0,108	0,035
-101,147	800,000	-0,020	-0,049
-100,132	-200,000	0,007	-0,088
-99,118	606,144	0,047	-0,084
-98,103	40,120	0,102	0,065
-97,089	-94,052	0,088	0,017
-96,074	742,902	0,050	0,096
-95,059	137,385	-0,053	0,049
-94,045	-144,141	-0,053	-0,003
-93,030	39,113	0,086	0,054
-92,016	-29,871	0,150	-0,060
-91,001	-31,425	-0,042	0,017
-89,986	32,001	0,109	-0,067
-88,972	-146,673	-0,093	-0,006
-87,957	-200,000	0,021	0,079
-86,943	-125,717	0,168	0,018
-85,928	255,876	-0,061	-0,074
-84,913	560,749	0,022	-0,039
-83,899	539,996	0,070	-0,119
-82,884	241,904	0,036	0,042
-81,870	-200,000	-0,028	0,000
-80,855	154,341	0,029	-0,028
-79,840	3,242	0,103	0,053
-78,826	-200,000	0,006	-0,026
-77,811	118,902	-0,165	-0,145
-76,797	-115,659	-0,148	0,019
-75,782	-88,890	-0,132	-0,028
-74,767	6,422	-0,048	0,025
-73,753	800,000	0,066	0,153
-72,738	-200,000	0,014	0,047
-71,724	-200,000	0,001	-0,078
-70,709	-200,000	-0,007	-0,041
-69,694	45,131	-0,053	-0,034
-68,680	53,209	0,123	0,084
-67,665	800,000	0,050	0,140
-66,651	386,375	0,060	0,088
-65,636	800,000	-0,017	-0,049
-64,622	-200,000	-0,010	0,033
-63,607	53,057	-0,136	-0,092
-62,592	0,955	0,104	-0,053
-61,578	280,447	0,097	-0,124
-60,563	800,000	0,037	-0,084
-59,549	-18,276	0,026	0,012
-58,534	-21,246	-1,604	-0,692
-57,519	395,103	-1,374	-2,035
-56,505	-200,000	-0,631	-4,704
-55,490	178,657	0,835	0,865
-54,476	800,000	4,913	11,417
-53,461	-200,000	18,819	303,490
-52,446	800,000	735,414	2283,353
-51,432	564,452	1651,584	2845,146
-50,417	78,922	1669,662	1264,365
-49,403	22,182	1542,743	889,647
-48,388	16,128	1465,459	815,676
-47,373	17,786	1455,423	818,062
-46,359	16,947	1445,678	808,530
-45,344	14,354	1441,302	793,639
-44,330	14,333	1439,111	792,300
-43,315	14,305	1437,482	791,236
-42,300	14,331	1435,865	790,439
-41,286	14,345	1434,723	789,848
-40,271	14,324	1433,401	788,986
-39,257	14,301	1432,087	788,121
-38,242	14,355	1430,854	787,670
-37,227	14,373	1429,597	787,033
-36,213	14,399	1428,240	786,379
-35,198	14,337	1427,283	785,525
-34,184	14,412	1426,348	785,334
-33,169	14,341	1424,972	784,213
-32,154	14,362	1423,888	783,683
-31,140	14,378	1422,547	782,987
-30,125	14,427	1421,372	782,544
-29,111	14,402	1420,224	781,759
-28,096	14,366	1419,278	781,039
-27,082	14,292	1418,147	780,036
-26,067	14,279	1417,021	779,324
-25,052	14,259	1416,193	778,747
-24,038	14,241	1415,109	778,035
-23,023	14,269	1414,041	777,548
-22,009	14,284	1413,202	777,127
-20,994	14,199	1412,272	776,185
-19,979	14,233	1411,136	775,689
-18,965	14,218	1410,344	775,152
-17,950	14,239	1409,157	774,567
-16,936	14,230	1408,454	774,106
-15,921	14,189	1407,456	773,338
-14,906	14,203	1406,521	772,858
-13,892	14,176	1405,662	772,231
-12,877	14,190	1404,630	771,696
-11,863	14,218	1403,663	771,266
-10,848	14,201	1402,762	770,658
-9,833	14,147	1401,923	769,920
-8,819	14,091	1401,272	769,267
-7,804	14,049	1400,322	768,521
-6,790	14,133	1398,967	768,135
-5,775	14,068	1397,967	767,254
-4,760	14,096	1396,903	766,773
-3,746	14,075	1396,331	766,332
-2,731	14,142	1395,263	766,026
-1,717	14,109	1394,731	765,546
-0,702	14,048	1392,865	764,210
0,313	17,928	1310,751	737,128
1,327	34,402	705,743	435,037
2,342	52,776	124,150	83,855
3,356	2,379	16,588	8,466
4,371	14,379	3,171	1,745
5,386	2,065	0,612	0,312
6,400	-200,000	-0,044	0,200
7,415	-19,643	-0,225	-0,098
8,429	-15,324	-0,359	-0,162
9,444	195,475	-0,332	-0,357
10,459	88,301	-0,253	-0,198
11,473	-71,260	-0,268	-0,071
12,488	27,756	-0,241	-0,143
13,502	103,340	-0,409	-0,339
14,517	28,581	-0,315	-0,188
15,531	37,627	-0,399	-0,250
16,546	80,865	-0,424	-0,323
17,561	70,288	-0,280	-0,204
18,575	-81,038	-0,239	0,056
19,590	230,272	-0,221	-0,255
20,604	45,991	-0,192	-0,125
21,619	2,313	-0,422	-0,215
22,634	45,649	-0,530	-0,345
23,648	-42,495	-0,491	-0,176
24,663	131,704	-0,450	-0,409
25,677	128,478	-0,387	-0,348
26,692	7,529	-0,261	-0,137
27,707	-54,848	-0,306	-0,097
28,721	-5,997	-0,454	-0,218
29,736	102,758	-0,324	-0,268
30,750	101,230	-0,390	-0,320
31,765	277,113	-0,339	-0,426
32,780	135,331	-0,355	-0,326
33,794	136,860	-0,249	-0,230
34,809	173,474	-0,351	-0,358
35,823	195,533	-0,299	-0,321
36,838	220,925	-0,295	-0,335
37,853	87,130	-0,436	-0,340
38,867	47,006	-0,350	-0,229
39,882	527,732	-0,135	-0,226
40,896	194,986	-0,240	-0,258
41,911	18,032	-0,363	-0,203
42,926	35,231	-0,364	-0,225
43,940	74,859	-0,280	-0,208
44,955	135,444	-0,387	-0,355
45,969	-15,978	-0,382	-0,171
46,984	13,260	-0,456	-0,248
47,999	36,985	-0,309	-0,192
49,013	-75,970	-0,393	-0,097
50,028	7,082	-0,337	-0,176
51,042	-52,361	-0,341	-0,111
52,057	54,643	-0,330	-0,224
53,071	82,228	-0,308	-0,235
54,086	-24,353	-0,525	-0,220
55,101	93,993	-0,273	-0,218
56,115	22,033	-0,258	-0,148
57,130	33,740	-0,411	-0,251
58,144	114,335	-0,335	-0,287
59,159	67,718	-0,402	-0,289
60,174	121,939	-0,299	-0,263
61,188	18,519	-0,246	-0,138
62,203	29,259	-0,216	-0,129
63,217	0,610	-0,322	-0,162
64,232	109,030	-0,216	-0,181
65,247	106,389	-0,382	-0,319
66,261	99,955	-0,246	-0,201
67,276	74,233	-0,401	-0,296
68,290	-57,869	-0,290	-0,089
69,305	75,327	-0,235	-0,174
70,320	157,442	-0,189	-0,184
71,334	511,383	-0,166	-0,272
72,349	8,535	-0,411	-0,217
73,363	257,680	-0,218	-0,264
74,378	83,830	-0,378	-0,290
75,393	664,222	-0,188	-0,343
76,407	69,542	-0,299	-0,216
77,422	800,000	-0,147	-0,368
78,436	63,904	-0,227	-0,160
79,451	27,038	-0,312	-0,183
80,466	216,451	-0,220	-0,247
81,480	24,444	-0,365	-0,212
82,495	180,830	-0,293	-0,303
83,509	30,274	-0,391	-0,234
84,524	-7,823	-0,285	-0,135
85,539	135,597	-0,252	-0,230
86,553	108,691	-0,277	-0,232
87,568	161,129	-0,298	-0,293
88,582	98,563	-0,222	-0,180
89,597	59,279	-0,281	-0,194
90,611	-23,377	-0,339	-0,142
91,626	18,407	-0,215	-0,120
92,641	104,928	-0,318	-0,263
93,655	127,011	-0,186	-0,166
94,670	-1,720	-0,391	-0,193
95,684	44,037	-0,401	-0,257
96,699	226,109	-0,220	-0,251
97,714	112,582	-0,320	-0,272
98,728	5,969	-0,207	-0,107
99,743	59,827	-0,282	-0,195
100,757	209,505	-0,281	-0,309
101,772	97,758	-0,305	-0,246
102,787	154,048	-0,276	-0,265
103,801	44,837	-0,360	-0,232
104,816	55,827	-0,285	-0,193
105,830	447,833	-0,131	-0,203
106,845	73,125	-0,320	-0,234
107,860	-79,496	-0,150	-0,035
108,874	77,393	-0,297	-0,221
109,889	121,964	-0,331	-0,290
110,903	178,599	-0,239	-0,245
111,918	28,344	-0,312	-0,184
112,933	-44,334	-0,239	-0,083
113,947	60,485	-0,239	-0,165
114,962	15,573	-0,254	-0,139
115,976	-30,976	-0,268	-0,106
116,991	-46,827	-0,310	-0,106
118,006	268,292	-0,233	-0,287
119,020	94,955	-0,145	-0,115
120,035	172,656	-0,118	-0,119
121,049	-62,918	-0,354	-0,102
122,064	-46,036	-0,160	-0,055
123,079	81,123	-0,248	-0,188
124,093	236,230	-0,242	-0,281
125,108	179,911	-0,297	-0,305
126,122	800,000	-0,136	-0,301
127,137	83,486	-0,241	-0,184
128,151	243,249	-0,245	-0,287
129,166	415,349	-0,159	-0,238
130,181	101,442	-0,263	-0,214
131,195	57,373	-0,328	-0,224
132,210	16,616	-0,352	-0,194
133,224	258,862	-0,203	-0,245
134,239	263,922	-0,184	-0,224
135,254	800,000	-0,080	-0,208
136,268	59,850	-0,213	-0,147
137,283	288,008	-0,213	-0,271
138,297	220,194	-0,288	-0,324
139,312	227,156	-0,192	-0,218
140,327	130,192	-0,091	-0,082
141,341	-36,680	-0,387	-0,145
142,356	155,008	-0,224	-0,216
143,370	22,134	-0,216	-0,123
144,385	214,637	-0,180	-0,200
145,400	70,575	-0,353	-0,255
146,414	411,135	-0,219	-0,326
147,429	-30,987	-0,351	-0,138
148,443	260,254	-0,142	-0,172
149,458	78,740	-0,235	-0,175
150,473	-16,815	-0,194	-0,086
151,487	183,271	-0,213	-0,220
152,502	-18,419	-0,374	-0,162
153,516	225,563	-0,283	-0,321
154,531	121,096	-0,185	-0,161
155,546	298,172	-0,265	-0,341
156,560	497,757	-0,149	-0,241
157,575	124,611	-0,230	-0,202
158,589	108,616	-0,301	-0,251
159,604	196,052	-0,232	-0,247
160,619	45,913	-0,311	-0,201
161,633	-95,648	-0,232	-0,043
162,648	212,393	-0,195	-0,215
163,662	47,961	-0,223	-0,145
164,677	30,584	-0,289	-0,172
165,692	102,562	-0,185	-0,151
166,706	147,228	-0,301	-0,282
167,721	722,334	-0,134	-0,251
168,735	148,879	-0,232	-0,219
169,750	73,713	-0,238	-0,174
170,764	-140,750	-0,052	-0,004
171,779	444,068	-0,120	-0,184
172,794	-131,834	-0,131	-0,012
173,808	344,283	-0,101	-0,138
174,823	38,296	-0,230	-0,142
175,837	436,477	-0,123	-0,187
176,852	33,765	-0,217	-0,131
177,867	-69,543	-0,286	-0,076
178,881	49,256	-0,229	-0,149
179,896	-13,409	-0,155	0,070
180,910	-89,132	-0,236	0,048
181,925	46,363	-0,337	-0,217
182,940	118,827	-0,198	-0,171
183,954	149,626	-0,227	-0,214
184,969	393,366	-0,172	-0,249
185,983	-24,104	-0,252	-0,104
186,998	38,533	-0,215	-0,133
188,013	56,212	-0,207	-0,140
189,027	800,000	-0,104	-0,258
190,042	-2,184	-0,268	-0,130
191,056	389,570	-0,263	-0,381
192,071	426,435	-0,142	-0,213
193,086	-19,529	-0,265	-0,114
194,100	80,317	-0,185	-0,139
195,115	160,702	-0,232	-0,226
196,129	52,370	-0,235	-0,156
197,144	191,533	-0,272	-0,285
198,159	800,000	-0,052	-0,119
199,173	25,553	-0,158	-0,091
200,188	-64,482	-0,266	-0,075
201,202	33,997	-0,220	-0,133
202,217	800,000	-0,043	-0,121
203,232	90,904	-0,241	-0,188
204,246	204,778	-0,218	-0,235
205,261	28,188	-0,351	-0,206
206,275	-23,246	-0,172	-0,072
207,290	99,533	-0,127	-0,102
208,304	12,648	-0,249	-0,133
209,319	422,876	-0,143	-0,214
210,334	50,074	-0,264	-0,173
211,348	-40,788	-0,203	-0,073
212,363	800,000	-0,127	-0,302
213,377	760,731	-0,105	-0,199
214,392	800,000	-0,141	-0,275
215,407	-166,553	-0,175	0,005
216,421	202,161	-0,127	-0,137
217,436	800,000	-0,098	-0,267
218,450	143,102	-0,179	-0,165
219,465	222,456	-0,220	-0,246
220,480	218,493	-0,214	-0,237
221,494	-62,894	-0,233	-0,067
222,509	169,868	-0,191	-0,190
223,523	242,197	-0,106	-0,123
224,538	14,634	-0,247	-0,133
225,553	39,261	-0,297	-0,184
226,567	-200,000	-0,045	-0,232
227,582	-86,060	-0,166	-0,035
228,596	97,759	-0,169	-0,135
229,611	72,207	-0,183	-0,132
230,626	591,469	-0,077	-0,132
231,640	800,000	-0,094	-0,206
232,655	107,139	-0,141	-0,117
233,669	191,867	-0,170	-0,178
234,684	448,017	-0,227	-0,348
235,699	23,412	-0,205	-0,117
236,713	24,889	-0,157	-0,090
237,728	744,133	-0,081	-0,152
238,742	203,701	-0,214	-0,230
239,757	173,072	-0,177	-0,177
240,772	99,986	-0,239	-0,192
241,786	163,510	-0,118	-0,115
242,801	57,292	-0,272	-0,184
243,815	800,000	-0,056	-0,129
244,830	-127,588	-0,212	0,021
245,844	-68,880	-0,204	-0,054
246,859	85,452	-0,135	-0,103
247,874	69,768	-0,156	-0,111
248,888	385,304	-0,131	-0,188
249,903	40,271	-0,206	-0,128
250,917	286,914	-0,100	-0,126
251,932	266,638	-0,097	-0,117
252,947	-85,628	-0,332	-0,071
253,961	408,022	-0,132	-0,194
254,976	37,418	-0,141	-0,086
255,990	415,573	-0,152	-0,225
257,005	344,240	-0,120	-0,163
258,020	106,142	-0,194	-0,159
259,034	36,100	-0,166	-0,101
260,049	119,708	-0,142	-0,122
261,063	542,939	-0,068	-0,112
262,078	10,907	-0,152	-0,080
263,093	381,555	-0,184	-0,263
264,107	128,837	-0,172	-0,152
265,122	-110,695	-0,129	-0,018
266,136	-74,960	-0,092	-0,023
267,151	216,026	-0,094	-0,104
268,166	107,071	-0,207	-0,170
269,180	10,582	-0,204	-0,107
270,195	-125,291	-0,193	-0,020
271,209	-80,469	-0,120	-0,027
272,224	37,641	-0,162	-0,099
273,239	-200,000	0,005	-0,105
274,253	-45,909	-0,283	-0,096
275,268	320,076	-0,149	-0,196
276,282	34,603	-0,177	-0,107
277,297	43,339	-0,117	-0,074
278,312	-15,091	-0,241	-0,106
279,326	62,436	-0,092	-0,064
280,341	800,000	-0,061	-0,141
281,355	179,336	-0,169	-0,171
282,370	127,424	-0,235	-0,206
283,384	-135,251	-0,078	-0,006
284,399	179,377	-0,162	-0,164
285,414	-200,000	-0,004	-0,132
286,428	-42,248	-0,141	-0,050
287,443	226,120	-0,099	0,111
288,457	91,523	-0,225	-0,174
289,472	221,837	-0,114	-0,127
290,487	234,231	-0,114	-0,130
291,501	-173,351	-0,038	-0,001
292,516	25,414	-0,170	-0,098
293,530	86,625	-0,151	-0,115
294,545	-200,000	-0,016	-0,061
295,560	-122,042	-0,165	-0,018
296,574	-137,170	-0,131	0,010
297,589	91,562	-0,172	-0,133
298,603	42,718	-0,155	-0,097
299,618	-188,339	-0,181	-0,002
300,633	-17,535	-0,135	0,058
301,647	85,000	-0,049	0,037
302,662	235,137	-0,065	-0,074
303,676	204,391	-0,175	-0,188
304,691	68,631	-0,215	-0,152
305,706	-200,000	-0,068	-0,274
306,720	800,000	-0,118	-0,246
307,735	106,141	-0,233	-0,190
308,749	222,899	-0,154	-0,171
309,764	664,617	-0,120	-0,214
310,779	67,062	-0,216	-0,151
311,793	152,882	-0,113	-0,107
312,808	8,007	-0,154	-0,079
313,822	132,591	-0,139	-0,123
314,837	-1,734	-0,069	-0,033
315,852	276,831	-0,050	-0,061
316,866	209,309	-0,136	-0,147
317,881	43,727	-0,059	-0,037
318,895	156,232	-0,185	-0,176
319,910	-16,593	-0,202	-0,088
320,925	-133,188	-0,161	-0,014
321,939	-132,924	-0,142	0,012
322,954	409,696	-0,110	-0,161
323,968	107,989	-0,058	-0,048
324,983	103,724	-0,152	-0,123
325,997	241,909	-0,110	-0,127
327,012	-171,948	-0,118	-0,003
328,027	97,273	-0,224	-0,177
329,041	425,533	-0,127	-0,188
330,056	174,001	-0,155	-0,154
331,070	-53,456	-0,088	-0,027
332,085	251,292	-0,131	-0,153
333,100	-200,000	-0,028	-0,129
334,114	800,000	-0,065	-0,164
335,129	-144,093	-0,196	-0,012
336,143	800,000	-0,073	-0,198
337,158	72,743	-0,102	-0,073
338,173	-200,000	-0,026	-0,108
339,187	691,491	-0,076	-0,138
340,202	372,308	-0,051	-0,071
341,216	144,980	-0,237	-0,218
342,231	50,392	-0,119	-0,077
343,246	800,000	-0,115	-0,253
344,260	-25,293	-0,198	-0,080
345,275	44,460	-0,167	-0,105
346,289	277,548	-0,123	-0,150
347,304	87,975	-0,068	0,052
348,319	-128,452	-0,153	-0,015
349,333	159,177	-0,171	-0,163
350,348	-200,000	-0,107	-0,000
351,362	-42,719	-0,154	-0,053
352,377	-130,543	-0,171	0,016
353,392	151,404	-0,135	0,126
354,406	-95,057	-0,228	-0,042
355,421	208,134	1316,627	1413,422
356,435	160,130	1477,609	1413,912
