DTS Sentinel unit serial number:	SN410029Multiplexer serial number:	ORYXHardware model number:	OX2-SRSoftware version number:	ORYX F/W v4,00 Oryx Data Collector v3.7.2.0data status	okinstallation	B3 Nyhavnadifferential loss correction	single-endedforward channel	channel 1reverse channel	N/Adate	2023/12/03time	05:12:30forward acquisition time	300,00reverse acquisition time	0,00gamma	499,1914k internal	0,3201k external	0,3201temperature offset calibration	1,0000default loss term (dB/km)	0,3820temperature slope calibration	1,0000multiplexer offset coefficient	1,0000multiplexer slope coefficient	1,0000fibre end	0,00T internal ref (°C)	13,29T ext. ref 1 (°C)	-1,79T ext. ref 2 (°C)	-1,80length (m)	temperature (°C)	Stokes	anti-Stokes-744,400	-200,000	-0,081	-0,266
-743,385	-200,000	-0,019	0,303
-742,371	412,484	-0,142	-0,220
-741,356	-200,000	0,109	0,386
-740,342	48,152	-0,122	0,083
-739,327	800,000	0,111	0,269
-738,312	-200,000	-0,082	-0,339
-737,298	-200,000	-0,055	0,295
-736,283	137,886	-0,176	-0,168
-735,269	-200,000	-0,066	0,271
-734,254	800,000	-0,120	-0,278
-733,239	128,488	-0,142	0,132
-732,225	693,402	-0,134	-0,256
-731,210	-92,825	0,201	0,040
-730,196	3,358	0,008	0,004
-729,181	292,104	0,024	-0,031
-728,167	741,375	0,077	-0,151
-727,152	-4,042	0,077	-0,039
-726,137	134,734	-0,159	-0,150
-725,123	69,561	-0,047	-0,035
-724,108	-61,381	-0,116	-0,035
-723,094	105,586	0,074	-0,064
-722,079	-51,861	-0,126	-0,042
-721,064	-44,673	-0,108	0,039
-720,050	800,000	-0,021	0,045
-719,035	-200,000	0,002	0,060
-718,021	-122,965	-0,111	-0,013
-717,006	800,000	0,058	-0,130
-715,991	542,448	-0,081	-0,141
-714,977	128,023	-0,021	-0,019
-713,962	11,420	0,063	-0,035
-712,948	479,315	-0,067	-0,111
-711,933	-15,703	0,040	-0,019
-710,918	249,742	-0,111	0,137
-709,904	-186,910	0,112	0,001
-708,889	-176,912	-0,152	0,003
-707,875	800,000	-0,038	-0,078
-706,860	28,303	0,125	0,077
-705,845	91,118	0,060	0,049
-704,831	-156,276	0,070	0,003
-703,816	448,041	0,011	-0,018
-702,802	91,068	-0,097	0,079
-701,787	-71,343	-0,095	-0,026
-700,772	366,848	-0,096	-0,142
-699,758	787,564	-0,037	-0,074
-698,743	134,996	0,068	0,064
-697,729	-200,000	-0,003	-0,018
-696,714	-34,271	-0,036	-0,014
-695,699	6,500	-0,028	0,015
-694,685	-200,000	-0,039	0,150
-693,670	-200,000	0,004	-0,193
-692,656	-200,000	-0,015	-0,085
-691,641	-200,000	0,023	-0,097
-690,627	-200,000	0,039	-0,190
-689,612	-152,382	-0,036	0,002
-688,597	-84,466	-0,115	0,026
-687,583	261,004	0,072	0,091
-686,568	221,035	-0,024	-0,028
-685,554	800,000	0,076	-0,232
-684,539	67,065	-0,054	-0,040
-683,524	-71,928	0,062	0,017
-682,510	-200,000	0,004	-0,034
-681,495	490,417	-0,011	-0,018
-680,481	478,320	-0,030	0,049
-679,466	52,056	-0,091	0,063
-678,451	252,976	-0,035	-0,043
-677,437	-89,211	0,084	0,018
-676,422	-133,780	0,100	0,009
-675,408	-200,000	-0,016	0,115
-674,393	191,697	-0,034	-0,037
-673,378	-200,000	0,002	-0,080
-672,364	-200,000	-0,003	-0,101
-671,349	330,969	0,043	0,061
-670,335	350,735	0,050	0,072
-669,320	45,521	0,133	-0,089
-668,305	-103,257	0,025	-0,004
-667,291	-163,363	0,025	-0,001
-666,276	518,159	0,062	-0,105
-665,262	106,686	0,005	-0,004
-664,247	143,739	-0,072	0,069
-663,232	-22,953	0,155	-0,067
-662,218	-200,000	-0,012	-0,144
-661,203	800,000	0,052	0,143
-660,189	394,143	-0,049	-0,075
-659,174	237,585	-0,081	-0,097
-658,159	-16,430	-0,170	-0,078
-657,145	122,188	0,025	-0,022
-656,130	-200,000	-0,010	-0,086
-655,116	-200,000	-0,033	0,107
-654,101	-4,502	-0,045	-0,022
-653,086	795,482	-0,022	0,043
-652,072	223,460	0,084	0,099
-651,057	-174,658	-0,155	-0,003
-650,043	-39,318	-0,154	-0,058
-649,028	-200,000	0,006	-0,033
-648,014	32,756	0,014	0,009
-646,999	-200,000	-0,046	0,162
-645,984	641,334	0,033	-0,062
-644,970	58,747	-0,106	-0,076
-643,955	-156,699	-0,127	-0,006
-642,941	-200,000	0,011	-0,052
-641,926	550,211	0,043	-0,075
-640,911	86,434	-0,087	0,070
-639,897	800,000	0,043	0,134
-638,882	800,000	-0,031	-0,083
-637,868	-200,000	0,008	-0,165
-636,853	-200,000	0,004	-0,029
-635,838	800,000	-0,025	0,070
-634,824	161,224	0,077	-0,078
-633,809	-131,507	-0,133	0,013
-632,795	125,171	0,074	0,067
-631,780	-146,572	0,098	0,006
-630,765	731,575	-0,056	-0,108
-629,751	-133,260	0,129	-0,012
-628,736	-200,000	0,007	0,034
-627,722	-164,360	0,109	-0,004
-626,707	-150,682	-0,112	0,006
-625,692	-73,345	0,119	0,031
-624,678	-39,817	0,086	0,033
-623,663	-200,000	-0,007	-0,107
-622,649	800,000	-0,043	-0,088
-621,634	415,984	-0,037	-0,057
-620,619	-164,269	0,195	-0,006
-619,605	776,671	0,047	0,094
-618,590	-174,846	-0,113	-0,002
-617,576	201,737	0,057	-0,063
-616,561	-200,000	0,001	0,021
-615,546	177,592	-0,079	-0,083
-614,532	72,480	0,065	-0,049
-613,517	800,000	-0,030	-0,082
-612,503	-200,000	0,035	0,117
-611,488	-43,052	0,046	-0,017
-610,474	147,150	-0,057	-0,055
-609,459	-14,829	-0,052	-0,024
-608,444	-200,000	-0,008	-0,123
-607,430	-200,000	0,018	-0,137
-606,415	-64,266	-0,196	-0,057
-605,401	-21,679	-0,072	-0,032
-604,386	4,461	0,080	0,042
-603,371	-51,451	0,054	0,018
-602,357	234,148	0,085	0,101
-601,342	-131,948	-0,091	-0,009
-600,328	34,053	-0,014	-0,009
-599,313	73,505	-0,054	-0,041
-598,298	-124,004	0,098	0,011
-597,284	-33,802	0,039	0,016
-596,269	-84,838	0,121	0,027
-595,255	142,647	-0,122	0,117
-594,240	-62,799	-0,023	-0,007
-593,225	-183,335	-0,019	0,000
-592,211	800,000	-0,019	0,052
-591,196	-8,330	0,018	-0,009
-590,182	-41,455	0,069	-0,025
-589,167	-200,000	0,027	-0,091
-588,152	-200,000	-0,010	0,086
-587,138	27,315	-0,021	-0,013
-586,123	131,185	-0,048	-0,044
-585,109	402,720	-0,101	0,155
-584,094	800,000	-0,023	0,053
-583,079	-200,000	0,029	0,126
-582,065	287,490	-0,053	0,069
-581,050	-54,193	-0,097	0,032
-580,036	-200,000	-0,008	-0,068
-579,021	25,313	-0,141	-0,084
-578,006	-136,105	0,061	-0,005
-576,992	257,144	-0,034	0,042
-575,977	396,220	-0,015	0,023
-574,963	-70,574	-0,078	0,021
-573,948	-101,983	-0,071	0,012
-572,934	282,991	0,040	-0,052
-571,919	-124,220	-0,121	-0,013
-570,904	800,000	0,014	-0,031
-569,890	-67,640	-0,145	0,041
-568,875	194,989	-0,081	0,089
-567,861	800,000	-0,022	-0,054
-566,846	-164,623	-0,164	-0,005
-565,831	630,500	-0,085	0,156
-564,817	800,000	-0,050	0,111
-563,802	800,000	-0,026	-0,053
-562,788	11,099	-0,175	-0,096
-561,773	-200,000	0,009	0,126
-560,758	-200,000	-0,001	0,105
-559,744	460,013	0,059	0,095
-558,729	206,994	-0,060	0,068
-557,715	-15,479	-0,054	-0,025
-556,700	-123,591	-0,089	-0,010
-555,685	-200,000	0,028	-0,164
-554,671	-83,713	0,071	0,016
-553,656	800,000	-0,031	-0,087
-552,642	137,299	0,044	0,041
-551,627	411,937	-0,048	0,074
-550,612	-64,255	-0,101	0,030
-549,598	-200,000	-0,005	-0,110
-548,583	18,663	0,129	-0,074
-547,569	-80,865	-0,121	0,029
-546,554	-19,871	0,155	-0,069
-545,539	-69,366	0,057	0,016
-544,525	214,304	-0,007	0,008
-543,510	113,314	-0,098	0,086
-542,496	-98,768	-0,056	-0,010
-541,481	11,890	0,031	-0,017
-540,466	219,304	0,084	0,097
-539,452	336,782	0,084	-0,117
-538,437	-18,317	-0,095	-0,043
-537,423	402,378	-0,045	0,069
-536,408	58,205	-0,102	-0,072
-535,393	118,564	-0,047	0,042
-534,379	-200,000	0,014	0,089
-533,364	6,505	-0,105	-0,056
-532,350	52,875	0,109	-0,075
-531,335	-200,000	-0,021	-0,152
-530,321	800,000	0,052	-0,118
-529,306	-133,907	0,070	0,006
-528,291	239,748	0,058	-0,069
-527,277	-65,308	-0,054	0,016
-526,262	-200,000	0,005	-0,031
-525,248	214,020	0,031	0,035
-524,233	-200,000	0,030	0,099
-523,218	688,535	-0,038	-0,072
-522,204	350,367	-0,048	-0,068
-521,189	-161,577	-0,057	0,002
-520,175	389,519	-0,026	0,038
-519,160	-200,000	-0,014	0,052
-518,145	603,123	-0,033	0,059
-517,131	-27,425	0,179	0,075
-516,116	-75,726	-0,108	0,027
-515,102	158,867	0,018	-0,018
-514,087	229,391	-0,063	0,075
-513,072	800,000	-0,021	0,065
-512,058	800,000	-0,030	-0,064
-511,043	13,657	-0,062	-0,035
-510,029	584,084	0,052	0,092
-509,014	-187,886	-0,109	0,001
-507,999	23,219	-0,072	0,042
-506,985	53,271	0,064	0,044
-505,970	800,000	-0,046	-0,140
-504,956	241,799	-0,163	-0,196
-503,941	-39,820	-0,150	-0,056
-502,926	-200,000	0,016	-0,120
-501,912	325,718	-0,028	0,039
-500,897	-153,135	0,063	0,003
-499,883	171,029	-0,072	-0,074
-498,868	-200,000	-0,017	-0,156
-497,853	80,589	0,050	0,039
-496,839	125,398	-0,013	-0,012
-495,824	323,968	0,044	0,061
-494,810	-72,635	0,078	-0,021
-493,795	56,578	0,145	-0,102
-492,781	-200,000	0,045	-0,200
-491,766	800,000	-0,026	-0,056
-490,751	-65,035	-0,095	0,028
-489,737	-200,000	-0,005	0,018
-488,722	-64,441	-0,106	-0,031
-487,708	471,055	-0,060	0,097
-486,693	80,508	0,036	0,028
-485,678	-47,113	0,013	-0,005
-484,664	160,923	-0,105	-0,106
-483,649	800,000	-0,049	-0,105
-482,635	-200,000	0,013	-0,122
-481,620	6,911	0,056	0,030
-480,605	-200,000	0,018	-0,086
-479,591	-25,846	-0,081	0,034
-478,576	9,084	0,104	0,056
-477,562	101,726	-0,025	-0,021
-476,547	402,679	0,099	-0,150
-475,532	-200,000	0,010	-0,148
-474,518	219,613	-0,047	0,054
-473,503	800,000	0,053	0,158
-472,489	721,179	0,070	0,134
-471,474	800,000	0,056	-0,153
-470,459	23,590	-0,060	0,035
-469,445	189,189	-0,046	-0,049
-468,430	32,622	-0,058	0,036
-467,416	-200,000	-0,004	-0,124
-466,401	-130,207	0,057	0,006
-465,386	-200,000	0,028	0,102
-464,372	-175,738	0,079	-0,001
-463,357	-149,160	0,013	-0,001
-462,343	-74,761	-0,163	0,042
-461,328	-200,000	-0,006	0,132
-460,313	149,625	0,135	0,132
-459,299	-31,667	0,069	0,028
-458,284	-200,000	0,018	0,098
-457,270	-97,515	0,100	-0,018
-456,255	-62,018	-0,053	-0,016
-455,241	-74,758	-0,145	0,037
-454,226	800,000	0,051	-0,106
-453,211	-133,722	-0,032	0,003
-452,197	14,974	0,061	0,034
-451,182	-4,503	0,056	-0,028
-450,168	-146,349	-0,064	-0,004
-449,153	800,000	-0,022	-0,062
-448,138	-110,331	0,039	0,006
-447,124	-200,000	0,021	-0,132
-446,109	172,501	-0,056	-0,058
-445,095	-200,000	-0,028	-0,141
-444,080	-200,000	0,000	0,068
-443,065	-129,612	0,034	0,003
-442,051	-200,000	0,005	-0,102
-441,036	-200,000	-0,004	0,085
-440,022	-200,000	0,011	-0,047
-439,007	800,000	-0,029	-0,091
-437,992	28,556	0,091	0,055
-436,978	215,652	0,090	0,103
-435,963	86,147	0,021	0,016
-434,949	-47,251	-0,090	-0,031
-433,934	-200,000	0,000	-0,107
-432,919	-200,000	0,004	-0,012
-431,905	225,508	-0,123	-0,144
-430,890	402,726	-0,040	-0,060
-429,876	-87,817	-0,082	-0,018
-428,861	-11,763	0,079	0,037
-427,846	800,000	0,048	-0,146
-426,832	-110,629	0,029	-0,004
-425,817	171,436	0,056	-0,057
-424,803	136,272	-0,069	0,064
-423,788	-200,000	-0,023	0,139
-422,773	0,836	0,088	0,045
-421,759	-49,581	-0,022	0,007
-420,744	-200,000	-0,001	0,021
-419,730	-74,485	-0,144	0,037
-418,715	-200,000	-0,009	-0,063
-417,701	-200,000	0,031	-0,145
-416,686	83,613	0,149	0,116
-415,671	26,953	0,085	-0,051
-414,657	64,724	0,029	-0,021
-413,642	17,760	0,031	-0,018
-412,628	800,000	0,012	0,034
-411,613	-18,096	-0,031	0,014
-410,598	139,580	0,007	0,006
-409,584	49,638	-0,075	0,051
-408,569	-98,920	0,139	0,025
-407,555	61,443	-0,063	-0,045
-406,540	-200,000	-0,011	-0,088
-405,525	-42,902	-0,105	-0,038
-404,511	-51,764	-0,210	0,070
-403,496	800,000	0,035	-0,090
-402,482	-123,756	0,028	0,003
-401,467	-77,541	-0,068	0,017
-400,452	299,467	0,059	0,079
-399,438	-151,440	0,056	0,003
-398,423	-200,000	-0,005	0,097
-397,409	800,000	-0,074	-0,155
-396,394	-124,265	-0,014	-0,002
-395,379	800,000	-0,035	0,099
-394,365	-194,654	0,074	-0,000
-393,350	-200,000	0,005	0,036
-392,336	636,651	0,065	-0,119
-391,321	123,095	-0,000	0,000
-390,306	-200,000	-0,011	-0,097
-389,292	62,685	-0,146	0,104
-388,277	-114,114	-0,046	-0,006
-387,263	37,591	0,077	0,049
-386,248	800,000	0,065	0,199
-385,233	110,864	-0,052	-0,045
-384,219	-200,000	0,015	-0,095
-383,204	-68,659	-0,106	-0,029
-382,190	-85,962	0,038	-0,008
-381,175	179,750	0,085	-0,089
-380,160	344,151	0,098	0,138
-379,146	288,458	-0,053	0,068
-378,131	800,000	0,029	-0,059
-377,117	-200,000	-0,003	0,122
-376,102	147,753	-0,039	0,038
-375,088	177,188	0,057	-0,059
-374,073	800,000	-0,016	-0,047
-373,058	-200,000	0,012	0,082
-372,044	38,972	0,185	0,118
-371,029	-200,000	-0,001	0,069
-370,015	-76,190	-0,101	0,025
-369,000	10,505	0,097	0,053
-367,985	255,661	0,060	-0,074
-366,971	-41,810	-0,067	-0,024
-365,956	800,000	-0,026	-0,056
-364,942	264,079	0,058	0,072
-363,927	-200,000	-0,018	0,103
-362,912	-137,109	0,058	0,005
-361,898	382,137	-0,029	0,043
-360,883	151,885	-0,023	-0,022
-359,869	139,587	-0,069	0,065
-358,854	33,015	0,092	0,057
-357,839	-200,000	-0,006	-0,067
-356,825	-200,000	0,004	0,068
-355,810	120,602	-0,088	0,078
-354,796	800,000	0,010	0,024
-353,781	596,728	-0,013	0,023
-352,766	-33,100	0,035	-0,014
-351,752	272,625	0,022	-0,028
-350,737	-200,000	0,007	0,063
-349,723	-120,134	0,089	0,011
-348,708	-74,214	0,130	0,033
-347,693	-200,000	-0,019	-0,129
-346,679	-30,933	0,094	-0,038
-345,664	199,561	-0,083	0,092
-344,650	155,394	0,080	0,079
-343,635	46,287	-0,077	0,051
-342,620	190,046	0,039	-0,042
-341,606	7,606	-0,022	0,012
-340,591	-200,000	0,013	0,044
-339,577	800,000	-0,023	0,049
-338,562	-200,000	0,055	-0,244
-337,548	-142,763	0,158	0,011
-336,533	-15,781	-0,116	0,053
-335,518	15,268	0,088	-0,049
-334,504	-37,082	0,041	0,015
-333,489	-125,594	-0,163	-0,017
-332,475	-121,380	0,043	0,005
-331,460	-200,000	-0,001	-0,106
-330,445	-32,913	0,101	-0,040
-329,431	100,841	0,046	-0,038
-328,416	-171,893	0,105	0,002
-327,402	800,000	0,032	-0,101
-326,387	800,000	0,037	-0,083
-325,372	800,000	0,012	-0,037
-324,358	4,694	-0,186	-0,097
-323,343	408,978	-0,046	-0,070
-322,329	-200,000	0,003	0,025
-321,314	-200,000	-0,002	0,051
-320,299	-200,000	-0,008	0,226
-319,285	-25,638	0,123	-0,052
-318,270	3,580	0,076	-0,040
-317,256	-54,415	-0,035	0,011
-316,241	-149,629	0,066	-0,004
-315,226	-90,608	-0,028	-0,006
-314,212	-136,432	0,089	-0,007
-313,197	-126,935	0,121	0,013
-312,183	-156,516	0,195	-0,009
-311,168	50,839	-0,126	-0,085
-310,153	-200,000	-0,012	-0,143
-309,139	475,883	-0,037	-0,060
-308,124	-200,000	0,025	0,111
-307,110	-200,000	0,000	0,084
-306,095	355,103	0,023	-0,033
-305,080	418,447	0,054	0,083
-304,066	800,000	-0,012	0,033
-303,051	-37,454	0,022	-0,008
-302,037	-131,887	-0,028	-0,003
-301,022	0,760	0,106	0,054
-300,008	-109,059	-0,127	-0,019
-298,993	71,014	0,021	-0,015
-297,978	685,491	0,016	0,030
-296,964	52,933	-0,085	0,058
-295,949	799,346	-0,056	0,111
-294,935	11,314	0,050	-0,027
-293,920	169,127	-0,024	0,025
-292,905	800,000	0,044	-0,110
-291,891	107,336	-0,074	-0,063
-290,876	800,000	-0,031	0,071
-289,862	-200,000	-0,006	-0,039
-288,847	800,000	0,046	-0,127
-287,832	8,737	-0,116	0,062
-286,818	-43,957	-0,086	-0,031
-285,803	-35,700	-0,112	0,043
-284,789	-200,000	0,003	0,092
-283,774	156,221	0,126	0,124
-282,759	290,989	0,049	-0,064
-281,745	682,356	-0,058	0,109
-280,730	-11,135	-0,019	0,009
-279,716	118,735	0,114	-0,101
-278,701	-113,889	0,176	-0,024
-277,686	272,881	0,085	0,107
-276,672	52,071	0,047	0,032
-275,657	565,259	0,048	-0,083
-274,643	0,198	-0,122	-0,062
-273,628	88,293	0,089	0,070
-272,613	800,000	0,067	-0,141
-271,599	-110,513	-0,113	-0,017
-270,584	800,000	0,045	0,103
-269,570	41,348	0,090	0,058
-268,555	800,000	0,045	0,111
-267,540	-200,000	0,010	-0,055
-266,526	324,710	-0,067	-0,092
-265,511	-29,529	0,015	-0,006
-264,497	188,026	-0,019	0,020
-263,482	-200,000	-0,003	0,018
-262,467	-200,000	-0,020	0,147
-261,453	-56,236	0,044	0,014
-260,438	-119,065	0,025	0,003
-259,424	-156,239	0,086	0,004
-258,409	-157,474	0,043	-0,002
-257,395	-200,000	0,019	0,097
-256,380	52,521	0,070	0,048
-255,365	-200,000	-0,035	0,159
-254,351	800,000	-0,019	-0,048
-253,336	-25,336	-0,039	-0,016
-252,322	473,888	0,056	-0,090
-251,307	800,000	-0,056	-0,121
-250,292	-177,158	0,120	0,002
-249,278	153,356	-0,096	0,094
-248,263	-200,000	-0,001	-0,029
-247,249	161,006	0,093	0,092
-246,234	-139,964	-0,104	-0,008
-245,219	-23,868	-0,084	-0,036
-244,205	-95,205	-0,049	-0,009
-243,190	310,988	-0,036	0,049
-242,176	-200,000	0,006	-0,035
-241,161	569,963	0,038	-0,067
-240,146	-200,000	0,001	0,141
-239,132	241,519	-0,037	-0,044
-238,117	800,000	0,015	-0,036
-237,103	365,532	0,017	0,025
-236,088	800,000	-0,030	0,061
-235,073	324,634	0,076	0,103
-234,059	800,000	0,021	0,049
-233,044	-200,000	0,012	0,090
-232,030	64,601	-0,080	0,057
-231,015	573,881	0,060	0,104
-230,000	-39,958	-0,031	0,011
-228,986	-20,671	0,046	-0,020
-227,971	9,505	0,012	0,007
-226,957	-66,039	-0,062	0,018
-225,942	-64,131	0,170	-0,049
-224,927	34,725	-0,118	-0,074
-223,913	-150,341	-0,110	0,006
-222,898	686,315	0,068	0,127
-221,884	-200,000	0,023	-0,073
-220,869	-49,678	0,109	0,037
-219,855	-200,000	0,024	0,128
-218,840	-60,807	0,065	0,020
-217,825	606,842	-0,028	0,050
-216,811	206,726	-0,072	0,080
-215,796	-114,226	0,023	-0,003
-214,782	800,000	-0,076	-0,169
-213,767	-44,359	0,172	0,061
-212,752	292,392	0,076	0,099
-211,738	800,000	0,011	0,025
-210,723	622,856	0,090	-0,163
-209,709	84,624	-0,067	0,052
-208,694	800,000	0,030	-0,093
-207,679	800,000	0,034	-0,079
-206,665	-45,470	0,078	0,027
-205,650	-15,014	-0,116	-0,053
-204,636	-200,000	-0,011	-0,115
-203,621	-63,825	-0,063	0,018
-202,606	-200,000	0,002	-0,046
-201,592	119,067	0,030	-0,026
-200,577	-200,000	-0,013	0,117
-199,563	-86,733	0,024	0,005
-198,548	800,000	0,014	-0,043
-197,533	313,407	0,097	0,130
-196,519	-200,000	0,021	-0,115
-195,504	-3,821	0,129	-0,064
-194,490	465,290	-0,046	-0,074
-193,475	131,056	-0,112	-0,103
-192,460	-200,000	-0,019	-0,072
-191,446	-109,474	0,090	0,013
-190,431	43,677	0,120	-0,078
-189,417	-200,000	0,008	-0,043
-188,402	-64,627	0,108	0,031
-187,387	-200,000	-0,015	0,086
-186,373	365,653	-0,076	0,109
-185,358	-1,103	-0,114	0,057
-184,344	-200,000	-0,003	0,065
-183,329	82,923	0,066	-0,051
-182,315	174,716	0,076	-0,078
-181,300	-57,916	0,039	-0,012
-180,285	-20,087	-0,139	-0,061
-179,271	7,245	-0,154	-0,082
-178,256	-200,000	-0,020	0,072
-177,242	-200,000	-0,018	0,087
-176,227	-200,000	-0,036	0,118
-175,212	151,351	-0,077	0,074
-174,198	96,429	0,069	-0,056
-173,183	800,000	-0,036	-0,074
-172,169	-70,832	-0,074	-0,020
-171,154	-79,477	0,068	0,016
-170,139	-56,879	0,106	0,033
-169,125	369,383	-0,057	0,083
-168,110	-200,000	-0,009	0,084
-167,096	635,921	0,027	-0,050
-166,081	-200,000	-0,011	0,053
-165,066	196,465	-0,128	0,139
-164,052	-59,674	0,085	0,026
-163,037	-50,629	0,116	0,039
-162,023	-146,257	0,163	-0,010
-161,008	-200,000	0,007	-0,027
-159,993	-1,022	-0,080	0,040
-158,979	253,003	-0,046	-0,056
-157,964	79,197	-0,096	0,073
-156,950	761,123	0,070	0,135
-155,935	346,781	-0,019	-0,027
-154,920	-60,521	0,113	0,034
-153,906	-91,661	-0,151	0,030
-152,891	800,000	-0,037	-0,095
-151,877	239,774	-0,072	-0,085
-150,862	-147,386	-0,035	0,002
-149,847	165,811	0,083	0,084
-148,833	-122,995	-0,145	0,016
-147,818	-2,900	0,102	0,050
-146,804	278,166	-0,072	0,091
-145,789	-68,546	-0,059	0,016
-144,775	800,000	-0,063	-0,138
-143,760	353,309	0,080	-0,113
-142,745	-200,000	0,004	-0,107
-141,731	650,123	-0,021	-0,038
-140,716	412,157	0,034	0,051
-139,702	417,477	-0,038	0,058
-138,687	-200,000	-0,004	-0,058
-137,672	800,000	0,015	0,039
-136,658	800,000	-0,011	0,024
-135,643	-39,405	-0,013	0,005
-134,629	-200,000	0,013	-0,167
-133,614	-200,000	-0,014	0,131
-132,599	-200,000	0,022	0,104
-131,585	-148,166	0,069	-0,004
-130,570	-4,529	-0,158	-0,077
-129,556	800,000	-0,072	-0,147
-128,541	-200,000	-0,066	-0,241
-127,526	-102,432	0,111	-0,019
-126,512	176,957	0,048	-0,050
-125,497	657,391	0,052	-0,095
-124,483	-18,276	0,140	0,062
-123,468	93,201	0,029	0,023
-122,453	-200,000	0,000	0,016
-121,439	800,000	-0,014	-0,031
-120,424	-28,922	-0,148	-0,060
-119,410	-200,000	0,001	-0,005
-118,395	-140,247	0,151	0,011
-117,380	329,398	0,090	0,123
-116,366	-70,158	0,060	-0,016
-115,351	-200,000	0,022	-0,072
-114,337	-62,386	-0,121	-0,036
-113,322	-152,150	-0,123	-0,006
-112,307	127,111	0,131	0,118
-111,293	-112,665	0,209	-0,029
-110,278	-80,037	-0,071	-0,017
-109,264	-177,149	-0,143	-0,002
-108,249	800,000	-0,028	0,068
-107,234	228,031	0,008	-0,009
-106,220	349,229	-0,078	0,109
-105,205	800,000	0,056	-0,146
-104,191	-4,758	0,131	0,064
-103,176	322,639	0,040	0,054
-102,162	-200,000	-0,016	0,068
-101,147	126,760	0,092	0,083
-100,132	-8,990	-0,096	0,046
-99,118	108,431	-0,042	-0,036
-98,103	200,519	0,020	0,021
-97,089	-64,312	-0,068	-0,020
-96,074	800,000	0,052	-0,107
-95,059	-200,000	0,022	0,123
-94,045	-66,298	-0,054	0,015
-93,030	5,752	-0,047	0,025
-92,016	-85,432	-0,061	-0,013
-91,001	-200,000	0,001	0,018
-89,986	-200,000	-0,012	0,193
-88,972	252,934	0,013	0,016
-87,957	-200,000	-0,010	0,071
-86,943	1,278	-0,087	-0,044
-85,928	-94,083	0,069	0,013
-84,913	800,000	0,046	-0,130
-83,899	-200,000	-0,035	-0,144
-82,884	-78,016	0,081	-0,020
-81,870	96,176	0,147	0,119
-80,855	-33,679	0,045	-0,018
-79,840	-200,000	0,009	0,077
-78,826	-66,857	-0,118	-0,033
-77,811	-200,000	0,014	-0,086
-76,797	800,000	0,041	0,095
-75,782	-35,222	0,124	0,048
-74,767	-146,569	0,094	-0,006
-73,753	35,527	0,104	-0,065
-72,738	516,244	-0,017	-0,028
-71,724	797,493	0,020	0,039
-70,709	310,260	-0,084	0,111
-69,694	180,551	-0,094	-0,098
-68,680	-200,000	0,027	-0,111
-67,665	588,173	0,012	-0,021
-66,651	197,761	-0,043	-0,047
-65,636	-125,939	0,092	-0,010
-64,622	-172,674	0,084	-0,002
-63,607	573,306	-0,054	-0,093
-62,592	122,037	0,035	0,031
-61,578	-4,819	0,089	0,043
-60,563	515,802	-0,024	0,040
-59,549	20,072	0,071	0,041
-58,534	-9,543	-1,582	-0,744
-57,519	466,364	-1,293	-2,057
-56,505	-200,000	-0,571	-4,493
-55,490	106,421	1,082	0,908
-54,476	800,000	5,114	11,541
-53,461	-200,000	19,216	320,717
-52,446	-200,000	741,132	2334,794
-51,432	572,601	1656,329	2868,648
-50,417	78,198	1671,293	1261,425
-49,403	21,262	1544,518	885,637
-48,388	15,154	1466,862	811,398
-47,373	17,984	1457,093	819,641
-46,359	16,657	1446,921	807,520
-45,344	13,404	1442,225	789,285
-44,330	13,338	1440,449	787,965
-43,315	13,385	1438,392	787,034
-42,300	13,341	1436,915	785,980
-41,286	13,362	1435,808	785,444
-40,271	13,321	1434,301	784,395
-39,257	13,346	1433,091	783,820
-38,242	13,370	1431,824	783,212
-37,227	13,419	1430,483	782,677
-36,213	13,390	1429,356	781,893
-35,198	13,359	1428,191	781,077
-34,184	13,391	1427,244	780,680
-33,169	13,331	1425,820	779,585
-32,154	13,394	1424,791	779,290
-31,140	13,413	1423,360	778,567
-30,125	13,433	1422,263	778,032
-29,111	13,435	1421,063	777,353
-28,096	13,411	1420,076	776,671
-27,082	13,345	1419,079	775,783
-26,067	13,336	1417,933	775,084
-25,052	13,326	1416,841	774,409
-24,038	13,304	1415,645	773,620
-23,023	13,290	1414,888	773,111
-22,009	13,302	1413,731	772,504
-20,994	13,258	1412,997	771,864
-19,979	13,323	1411,933	771,559
-18,965	13,272	1411,263	770,924
-17,950	13,275	1410,149	770,297
-16,936	13,239	1409,285	769,626
-15,921	13,262	1408,193	769,109
-14,906	13,207	1407,216	768,286
-13,892	13,250	1406,319	767,967
-12,877	13,231	1405,413	767,353
-11,863	13,221	1404,473	766,760
-10,848	13,247	1403,670	766,413
-9,833	13,194	1402,845	765,687
-8,819	13,147	1402,090	765,024
-7,804	13,125	1400,977	764,284
-6,790	13,139	1400,025	763,798
-5,775	13,145	1399,018	763,246
-4,760	13,167	1397,921	762,723
-3,746	13,168	1396,957	762,172
-2,731	13,134	1396,249	761,598
-1,717	13,100	1395,428	760,959
-0,702	13,109	1393,585	759,966
0,313	16,924	1310,307	732,237
1,327	33,195	703,857	430,942
2,342	51,043	123,320	82,583
3,356	1,032	16,674	8,431
4,371	2,874	3,321	1,700
5,386	-43,939	0,653	0,231
6,400	-200,000	0,099	0,333
7,415	67,519	-0,153	-0,111
8,429	36,039	-0,261	-0,162
9,444	62,208	-0,329	-0,232
10,459	-200,000	-0,032	-0,294
11,473	49,445	-0,335	-0,222
12,488	-15,497	-0,241	-0,108
13,502	-1,887	-0,269	-0,133
14,517	98,127	-0,292	-0,238
15,531	6,285	-0,326	-0,170
16,546	266,545	-0,294	-0,364
17,561	-39,409	-0,341	-0,126
18,575	243,503	-0,236	-0,280
19,590	309,305	-0,231	-0,305
20,604	-85,241	-0,362	-0,079
21,619	88,833	-0,342	-0,268
22,634	8,430	-0,404	-0,214
23,648	407,134	-0,270	-0,405
24,663	36,619	-0,401	-0,249
25,677	95,158	-0,366	-0,294
26,692	100,023	-0,383	-0,313
27,707	42,088	-0,402	-0,257
28,721	43,339	-0,403	-0,259
29,736	6,044	-0,364	-0,190
30,750	141,662	-0,337	-0,315
31,765	135,568	-0,313	-0,287
32,780	21,244	-0,320	-0,183
33,794	73,883	-0,304	-0,225
34,809	-28,746	-0,413	-0,167
35,823	106,457	-0,361	-0,302
36,838	-6,764	-0,463	-0,221
37,853	138,148	-0,297	-0,274
38,867	30,205	-0,525	-0,315
39,882	-81,625	-0,331	-0,076
40,896	134,456	-0,254	-0,232
41,911	34,685	-0,260	-0,160
42,926	43,528	-0,338	-0,217
43,940	-93,608	-0,438	-0,085
44,955	140,598	-0,334	-0,311
45,969	-10,489	-0,374	-0,174
46,984	78,549	-0,384	-0,289
47,999	174,082	-0,267	-0,272
49,013	384,358	-0,270	-0,393
50,028	1,604	-0,391	-0,198
51,042	54,849	-0,355	-0,241
52,057	145,619	-0,364	-0,344
53,071	41,505	-0,357	-0,227
54,086	138,388	-0,320	-0,296
55,101	129,093	-0,335	-0,301
56,115	-12,938	-0,464	-0,212
57,130	-69,869	-0,304	-0,081
58,144	13,954	-0,273	-0,149
59,159	42,293	-0,346	-0,221
60,174	122,014	-0,301	-0,264
61,188	113,324	-0,337	-0,288
62,203	167,899	-0,251	-0,252
63,217	-43,678	-0,199	-0,070
64,232	517,594	-0,201	-0,332
65,247	24,338	-0,568	-0,329
66,261	102,492	-0,331	-0,272
67,276	33,998	-0,401	-0,245
68,290	215,579	-0,220	-0,246
69,305	-4,967	-0,235	-0,113
70,320	272,487	-0,174	-0,217
71,334	182,493	-0,197	-0,205
72,349	53,376	-0,392	-0,263
73,363	-31,417	-0,386	-0,152
74,378	197,160	-0,281	-0,301
75,393	256,947	-0,271	-0,328
76,407	86,977	-0,209	-0,162
77,422	-33,919	-0,241	-0,093
78,436	67,331	-0,166	-0,119
79,451	268,128	-0,169	-0,209
80,466	-21,136	-0,365	-0,156
81,480	55,546	-0,458	-0,311
82,495	6,567	-0,391	-0,204
83,509	110,013	-0,261	-0,220
84,524	9,062	-0,277	-0,147
85,539	51,065	-0,300	-0,199
86,553	65,160	-0,255	-0,181
87,568	189,799	-0,194	-0,204
88,582	61,739	-0,254	-0,177
89,597	336,529	-0,236	-0,322
90,611	24,404	-0,249	-0,144
91,626	212,720	-0,228	-0,253
92,641	134,249	-0,249	-0,226
93,655	189,219	-0,195	-0,206
94,670	31,744	-0,223	-0,134
95,684	169,714	-0,209	-0,210
96,699	-29,045	-0,279	-0,112
97,714	311,257	-0,149	-0,196
98,728	-2,456	-0,239	-0,117
99,743	380,877	-0,122	-0,176
100,757	70,237	-0,261	-0,189
101,772	-65,201	-0,339	-0,095
102,787	185,577	-0,277	-0,289
103,801	36,609	-0,306	-0,189
104,816	74,635	-0,230	-0,170
105,830	-75,270	-0,317	-0,079
106,845	92,116	-0,201	-0,159
107,860	151,894	-0,157	-0,150
108,874	221,564	-0,172	-0,194
109,889	-17,397	-0,289	-0,127
110,903	213,272	-0,248	-0,275
111,918	286,124	-0,195	-0,248
112,933	160,057	-0,211	-0,206
113,947	228,278	-0,137	-0,156
114,962	13,460	-0,206	-0,112
115,976	131,718	-0,166	-0,150
116,991	36,347	-0,312	-0,192
118,006	-1,234	-0,228	-0,112
119,020	87,128	-0,262	-0,202
120,035	-69,532	-0,191	-0,051
121,049	16,563	-0,153	-0,085
122,064	109,385	-0,196	-0,165
123,079	6,025	-0,220	-0,113
124,093	35,647	-0,329	-0,202
125,108	-28,101	-0,319	-0,129
126,122	130,588	-0,258	-0,232
127,137	214,896	-0,176	-0,196
128,151	268,985	-0,170	-0,209
129,166	-73,680	-0,266	-0,067
130,181	-37,177	-0,358	-0,133
131,195	800,000	-0,147	-0,310
132,210	223,575	-0,273	-0,308
133,224	800,000	-0,143	-0,341
134,239	-65,203	-0,219	-0,061
135,254	13,925	-0,284	-0,154
136,268	76,273	-0,238	-0,176
137,283	-43,730	-0,275	-0,096
138,297	93,524	-0,264	-0,209
139,312	629,446	-0,173	-0,307
140,327	-11,634	-0,282	-0,129
141,341	59,711	-0,254	-0,175
142,356	145,186	-0,170	-0,159
143,370	348,401	-0,234	-0,323
144,385	13,677	-0,238	-0,129
145,400	48,529	-0,232	-0,152
146,414	-91,837	-0,277	-0,055
147,429	317,948	-0,239	-0,316
148,443	102,087	-0,321	-0,262
149,458	174,783	-0,269	-0,273
150,473	192,560	-0,280	-0,295
151,487	41,663	-0,265	-0,167
152,502	26,393	-0,231	-0,135
153,516	127,880	-0,236	-0,209
154,531	85,060	-0,217	-0,166
155,546	-123,853	-0,184	-0,020
156,560	18,625	-0,205	-0,114
157,575	47,679	-0,188	-0,122
158,589	-87,781	-0,316	-0,066
159,604	-71,753	-0,278	-0,072
160,619	-65,350	-0,365	-0,102
161,633	28,001	-0,252	-0,148
162,648	329,753	-0,151	-0,203
163,662	107,232	-0,154	-0,128
164,677	405,946	-0,207	-0,305
165,692	-157,792	-0,286	-0,012
166,706	-52,474	-0,313	-0,100
167,721	53,393	-0,260	-0,173
168,735	389,734	-0,150	-0,218
169,750	100,917	-0,150	-0,122
170,764	-0,856	-0,260	-0,128
171,779	800,000	-0,147	-0,295
172,794	-67,962	-0,279	-0,075
173,808	95,797	-0,155	-0,124
174,823	229,715	-0,214	-0,244
175,837	96,384	-0,218	-0,174
176,852	94,127	-0,223	-0,177
177,867	159,911	-0,138	-0,134
178,881	48,509	-0,165	-0,108
179,896	17,480	-0,243	-0,134
180,910	21,034	-0,153	-0,086
181,925	800,000	-0,088	-0,266
182,940	109,224	-0,264	-0,220
183,954	127,107	-0,189	-0,167
184,969	74,037	-0,236	-0,172
185,983	12,496	-0,270	-0,144
186,998	12,202	-0,117	-0,063
188,013	71,463	-0,151	-0,109
189,027	-11,817	-0,226	-0,103
190,042	242,851	-0,173	-0,202
191,056	11,883	-0,271	-0,144
192,071	213,649	-0,197	-0,217
193,086	-13,948	-0,237	-0,106
194,100	313,028	-0,141	-0,185
195,115	100,881	-0,285	-0,231
196,129	-100,682	-0,266	-0,045
197,144	-31,428	-0,325	-0,127
198,159	106,375	-0,154	-0,127
199,173	-35,420	-0,157	-0,059
200,188	800,000	-0,077	-0,178
201,202	6,029	-0,132	-0,068
202,217	423,826	-0,138	-0,207
203,232	95,569	-0,220	-0,174
204,246	373,228	-0,150	-0,213
205,261	7,347	-0,298	-0,154
206,275	519,569	-0,160	-0,261
207,290	22,209	-0,182	-0,103
208,304	241,968	-0,061	-0,071
209,319	-53,231	-0,231	-0,073
210,334	100,501	-0,214	-0,172
211,348	-4,903	-0,139	-0,066
212,363	79,086	-0,137	-0,102
213,377	-19,039	-0,110	-0,047
214,392	-200,000	-0,032	-0,117
215,407	142,951	-0,203	-0,188
216,421	800,000	-0,064	-0,129
217,436	250,381	-0,124	-0,147
218,450	-35,566	-0,251	-0,094
219,465	-12,992	-0,265	-0,119
220,480	-56,349	-0,230	-0,070
221,494	149,138	-0,175	-0,164
222,509	41,637	-0,268	-0,168
223,523	123,411	-0,163	-0,141
224,538	800,000	-0,059	-0,138
225,553	-59,210	-0,374	-0,111
226,567	168,268	-0,270	-0,267
227,582	-83,198	-0,166	-0,037
228,596	800,000	-0,050	-0,099
229,611	-112,348	-0,293	-0,040
230,626	626,258	-0,154	-0,271
231,640	205,845	-0,165	-0,178
232,655	-41,244	-0,146	-0,052
233,669	-200,000	-0,079	-0,263
234,684	119,881	-0,178	-0,153
235,699	-3,610	-0,271	-0,130
236,713	189,846	-0,163	-0,170
237,728	37,415	-0,162	-0,099
238,742	-45,596	-0,221	-0,075
239,757	711,825	-0,092	-0,170
240,772	366,355	-0,173	-0,242
241,786	791,757	-0,073	-0,139
242,801	-200,000	-0,020	-0,124
243,815	800,000	-0,089	-0,202
244,830	800,000	-0,100	-0,217
245,844	165,094	-0,176	-0,172
246,859	16,028	-0,165	-0,090
247,874	-29,487	-0,296	-0,117
248,888	113,755	-0,145	-0,122
249,903	-75,981	-0,095	-0,023
250,917	111,629	-0,133	-0,111
251,932	174,263	-0,153	-0,153
252,947	799,691	-0,111	-0,213
253,961	-123,687	-0,236	0,026
254,976	336,805	-0,160	-0,216
255,990	75,573	-0,194	-0,142
257,005	-100,474	-0,221	-0,037
258,020	181,190	-0,076	-0,078
259,034	492,505	-0,066	-0,105
260,049	266,380	-0,067	-0,081
261,063	400,557	-0,150	-0,219
262,078	211,017	-0,241	-0,262
263,093	1,171	-0,197	-0,098
264,107	201,742	-0,174	-0,186
265,122	-104,809	-0,121	-0,019
266,136	11,462	-0,067	-0,035
267,151	116,769	0,079	-0,067
268,166	4,497	-0,191	0,096
269,180	800,000	-0,073	-0,199
270,195	265,791	-0,170	-0,206
271,209	800,000	-0,066	-0,158
272,224	800,000	-0,087	-0,174
273,239	23,198	-0,086	-0,049
274,253	141,144	-0,151	-0,138
275,268	-119,510	-0,214	-0,025
276,282	65,433	-0,155	-0,109
277,297	800,000	-0,085	-0,193
278,312	41,148	-0,142	-0,088
279,326	27,498	-0,188	-0,109
280,341	371,642	-0,100	-0,140
281,355	272,476	-0,060	0,073
282,370	22,980	-0,274	-0,155
283,384	-66,390	-0,154	-0,042
284,399	448,414	-0,122	-0,187
285,414	133,152	-0,162	-0,144
286,428	182,548	-0,130	-0,132
287,443	-11,336	-0,125	-0,057
288,457	318,358	-0,110	-0,144
289,472	127,388	-0,193	-0,169
290,487	-5,399	-0,077	-0,036
291,501	800,000	-0,101	-0,218
292,516	200,353	-0,156	-0,165
293,530	114,415	-0,094	-0,079
294,545	77,320	-0,194	-0,142
295,560	74,478	-0,178	-0,129
296,574	-200,000	-0,032	-0,236
297,589	-200,000	-0,041	-0,143
298,603	377,594	-0,152	-0,215
299,618	391,886	-0,097	-0,140
300,633	488,544	-0,113	-0,179
301,647	-200,000	-0,041	-0,138
302,662	-18,601	-0,157	0,067
303,676	133,190	-0,179	-0,159
304,691	106,667	-0,183	-0,150
305,706	-12,846	-0,146	-0,065
306,720	-63,380	-0,213	-0,060
307,735	110,674	-0,167	-0,138
308,749	9,415	-0,123	-0,064
309,764	-134,015	-0,110	-0,009
310,779	56,939	-0,183	-0,123
311,793	-70,299	-0,216	-0,056
312,808	172,019	-0,217	-0,215
313,822	-200,000	-0,033	-0,178
314,837	-200,000	-0,046	-0,266
315,852	-200,000	0,005	-0,132
316,866	-192,148	-0,189	0,001
317,881	-41,763	-0,119	-0,042
318,895	82,810	-0,089	-0,067
319,910	-200,000	-0,013	-0,179
320,925	800,000	-0,069	-0,196
321,939	723,035	-0,105	-0,193
322,954	344,538	-0,096	-0,130
323,968	158,428	-0,083	0,079
324,983	153,195	-0,077	-0,073
325,997	-57,162	-0,148	-0,045
327,012	500,680	-0,103	-0,165
328,027	-125,135	-0,149	-0,016
329,041	781,558	-0,082	-0,155
330,056	163,737	-0,089	-0,086
331,070	165,594	-0,167	-0,162
332,085	208,661	-0,093	-0,100
333,100	800,000	-0,071	-0,167
334,114	225,366	-0,120	-0,134
335,129	-40,218	-0,112	-0,040
336,143	-95,940	-0,173	-0,031
337,158	-124,868	-0,211	0,022
338,173	-24,160	-0,219	-0,089
339,187	-87,878	-0,112	-0,023
340,202	-52,846	-0,119	0,037
341,216	-7,279	-0,131	-0,061
342,231	154,658	-0,132	-0,125
343,246	12,541	-0,147	-0,078
344,260	340,273	-0,132	-0,177
345,275	-48,607	-0,110	-0,036
346,289	-200,000	-0,028	-0,143
347,304	-22,953	-0,143	-0,059
348,319	-56,385	-0,266	-0,081
349,333	89,157	-0,208	-0,159
350,348	71,378	-0,199	-0,142
351,362	800,000	-0,087	-0,168
352,377	-51,172	-0,121	-0,039
353,392	800,000	-0,085	-0,176
354,406	-61,239	-0,116	0,033
355,421	208,829	1313,491	1411,620
356,435	160,696	1474,071	1412,105
