DTS Sentinel unit serial number:	SN410029Multiplexer serial number:	ORYXHardware model number:	OX2-SRSoftware version number:	ORYX F/W v4,00 Oryx Data Collector v3.7.2.0data status	okinstallation	B3 Nyhavnadifferential loss correction	single-endedforward channel	channel 1reverse channel	N/Adate	2023/12/04time	19:07:30forward acquisition time	300,00reverse acquisition time	0,00gamma	499,1914k internal	0,3200k external	0,3200temperature offset calibration	1,0000default loss term (dB/km)	0,3820temperature slope calibration	1,0000multiplexer offset coefficient	1,0000multiplexer slope coefficient	1,0000fibre end	0,00T internal ref (°C)	14,77T ext. ref 1 (°C)	-0,62T ext. ref 2 (°C)	-0,63length (m)	temperature (°C)	Stokes	anti-Stokes-744,400	800,000	-0,071	-0,168
-743,385	702,544	-0,112	0,217
-742,371	321,570	-0,211	-0,293
-741,356	-200,000	0,068	0,388
-740,342	800,000	-0,112	-0,279
-739,327	-200,000	0,049	0,292
-738,312	-57,644	-0,267	-0,084
-737,298	800,000	-0,084	0,206
-736,283	412,358	-0,188	-0,292
-735,269	-200,000	0,067	0,293
-734,254	76,776	-0,182	-0,140
-733,239	26,923	-0,247	0,150
-732,225	-8,354	-0,190	-0,093
-731,210	85,884	0,075	0,060
-730,196	-60,089	-0,101	0,031
-729,181	578,528	-0,048	-0,086
-728,167	86,743	-0,025	-0,020
-727,152	-40,227	-0,029	0,011
-726,137	139,029	-0,057	0,055
-725,123	292,458	0,058	-0,078
-724,108	145,663	0,012	-0,011
-723,094	220,871	-0,044	-0,051
-722,079	118,422	0,041	0,037
-721,064	178,950	-0,066	-0,070
-720,050	-139,216	0,031	0,002
-719,035	217,371	-0,034	0,040
-718,021	-103,669	-0,095	-0,016
-717,006	153,851	-0,199	-0,199
-715,991	-200,000	-0,019	-0,066
-714,977	-60,924	0,084	-0,026
-713,962	800,000	-0,020	-0,059
-712,948	579,190	0,028	-0,049
-711,933	138,165	-0,039	-0,038
-710,918	-11,678	0,170	-0,081
-709,904	-200,000	-0,005	-0,067
-708,889	800,000	-0,062	-0,169
-707,875	-105,705	-0,192	0,031
-706,860	486,859	0,018	0,030
-705,845	-51,131	0,048	0,016
-704,831	160,340	0,104	-0,105
-703,816	-200,000	0,007	0,045
-702,802	-71,459	-0,081	-0,022
-701,787	280,623	-0,093	-0,121
-700,772	214,941	-0,028	0,032
-699,758	-1,674	0,052	0,027
-698,743	205,280	-0,089	0,101
-697,729	-200,000	0,020	-0,074
-696,714	-95,471	-0,057	-0,011
-695,699	42,510	-0,127	-0,084
-694,685	-44,499	0,083	0,030
-693,670	-104,220	0,012	-0,002
-692,656	-200,000	0,012	-0,119
-691,641	-125,344	0,047	0,005
-690,627	69,073	-0,062	-0,046
-689,612	-74,134	0,047	-0,012
-688,597	195,870	0,144	0,159
-687,583	-117,805	0,035	0,004
-686,568	-82,623	0,062	0,015
-685,554	-200,000	-0,028	0,128
-684,539	-110,088	-0,100	0,015
-683,524	150,618	-0,075	0,074
-682,510	-182,184	0,088	0,001
-681,495	800,000	-0,038	-0,077
-680,481	16,526	-0,099	-0,057
-679,466	800,000	-0,055	-0,128
-678,451	-144,177	0,052	-0,003
-677,437	-14,991	-0,067	0,031
-676,422	-200,000	0,036	-0,150
-675,408	-200,000	-0,001	0,047
-674,393	-92,801	-0,131	0,026
-673,378	-96,784	-0,086	-0,016
-672,364	800,000	-0,048	-0,133
-671,349	-54,427	-0,108	0,035
-670,335	93,740	0,019	-0,015
-669,320	672,234	0,018	-0,033
-668,305	-200,000	0,009	0,130
-667,291	-151,853	-0,042	0,002
-666,276	-200,000	-0,012	-0,074
-665,262	-200,000	0,012	-0,151
-664,247	168,549	-0,108	-0,111
-663,232	-200,000	-0,023	0,109
-662,218	-4,532	-0,055	-0,027
-661,203	403,864	0,052	-0,079
-660,189	267,776	-0,058	0,074
-659,174	219,298	0,075	0,087
-658,159	123,862	-0,026	-0,024
-657,145	16,222	-0,025	0,014
-656,130	251,048	0,036	0,045
-655,116	-140,107	0,100	-0,008
-654,101	800,000	0,006	-0,014
-653,086	800,000	-0,018	-0,037
-652,072	-200,000	0,003	-0,167
-651,057	263,370	0,037	-0,047
-650,043	297,884	0,023	-0,030
-649,028	800,000	-0,018	-0,050
-648,014	360,039	0,036	-0,052
-646,999	-200,000	-0,027	-0,196
-645,984	20,547	-0,097	0,056
-644,970	108,042	-0,021	0,018
-643,955	57,601	0,062	-0,044
-642,941	146,302	-0,041	-0,040
-641,926	800,000	0,057	-0,122
-640,911	-200,000	0,014	-0,050
-639,897	634,115	-0,036	-0,066
-638,882	74,154	-0,061	-0,046
-637,868	-200,000	-0,015	-0,122
-636,853	-200,000	0,003	-0,167
-635,838	36,084	-0,043	0,027
-634,824	-200,000	0,010	0,053
-633,809	-79,926	-0,088	0,021
-632,795	-116,790	-0,060	-0,008
-631,780	63,185	-0,096	0,070
-630,765	74,337	-0,099	0,075
-629,751	275,374	0,076	-0,098
-628,736	-200,000	-0,012	-0,078
-627,722	-200,000	0,000	0,002
-626,707	-35,452	-0,034	-0,013
-625,692	-200,000	0,007	0,050
-624,678	50,240	0,096	-0,065
-623,663	310,268	-0,062	0,085
-622,649	68,182	0,092	0,068
-621,634	-70,002	-0,040	-0,011
-620,619	-109,922	-0,103	-0,015
-619,605	-9,601	-0,095	0,046
-618,590	-200,000	0,014	0,054
-617,576	302,522	-0,037	0,050
-616,561	80,841	0,084	0,065
-615,546	421,287	-0,070	-0,108
-614,532	530,614	-0,097	-0,166
-613,517	148,016	-0,102	-0,100
-612,503	323,536	0,065	-0,090
-611,488	-152,253	0,126	0,006
-610,474	30,773	-0,132	0,082
-609,459	279,006	-0,035	-0,045
-608,444	41,224	-0,078	-0,051
-607,430	677,907	-0,031	-0,058
-606,415	186,357	-0,030	-0,033
-605,401	-200,000	0,003	-0,086
-604,386	-14,525	0,030	0,014
-603,371	135,327	-0,015	-0,014
-602,357	-50,665	0,046	0,015
-601,342	800,000	-0,014	-0,041
-600,328	-96,005	-0,116	-0,022
-599,313	-45,211	0,086	-0,031
-598,298	431,191	-0,094	0,148
-597,284	800,000	-0,026	0,084
-596,269	800,000	0,062	-0,152
-595,255	800,000	0,035	0,074
-594,240	800,000	0,026	-0,066
-593,225	-200,000	-0,006	-0,189
-592,211	-200,000	0,051	-0,273
-591,196	-200,000	-0,002	-0,022
-590,182	-11,880	-0,076	0,036
-589,167	-110,249	-0,060	-0,009
-588,152	138,391	0,072	-0,068
-587,138	-10,291	-0,031	-0,015
-586,123	-200,000	0,002	-0,119
-585,109	-90,041	-0,055	0,012
-584,094	-2,431	0,108	-0,054
-583,079	-200,000	-0,012	-0,141
-582,065	-120,890	-0,089	-0,011
-581,050	331,519	0,131	0,182
-580,036	4,234	-0,121	0,064
-579,021	-200,000	0,027	-0,107
-578,006	-200,000	-0,047	-0,263
-576,992	800,000	-0,027	-0,058
-575,977	-37,870	0,004	0,002
-574,963	327,914	-0,037	-0,052
-573,948	129,574	-0,054	-0,050
-572,934	-110,415	0,068	0,010
-571,919	109,497	-0,057	-0,049
-570,904	765,312	-0,083	-0,165
-569,890	50,545	0,169	-0,116
-568,875	-199,616	-0,025	0,000
-567,861	-12,775	0,069	0,032
-566,846	-84,181	0,068	0,016
-565,831	493,973	0,037	-0,062
-564,817	-200,000	-0,007	-0,083
-563,802	287,115	-0,121	-0,159
-562,788	-200,000	0,001	0,052
-561,773	-140,127	0,168	0,013
-560,758	35,976	0,064	-0,040
-559,744	800,000	-0,030	0,068
-558,729	595,165	-0,048	0,086
-557,715	-69,884	0,077	-0,021
-556,700	400,942	-0,076	-0,116
-555,685	800,000	0,076	-0,176
-554,671	-200,000	-0,024	0,078
-553,656	-200,000	0,002	0,072
-552,642	-5,274	0,091	0,045
-551,627	108,109	-0,064	-0,055
-550,612	53,703	-0,036	0,025
-549,598	-200,000	-0,029	-0,098
-548,583	73,854	-0,087	-0,066
-547,569	140,587	-0,133	-0,127
-546,554	-200,000	0,003	0,069
-545,539	311,553	-0,040	0,054
-544,525	-17,073	0,050	0,023
-543,510	-54,550	0,078	-0,025
-542,496	93,282	-0,042	0,035
-541,481	-62,498	-0,123	-0,037
-540,466	-200,000	-0,001	0,032
-539,452	113,597	0,069	-0,060
-538,437	800,000	0,013	0,033
-537,423	-156,875	0,108	-0,005
-536,408	-200,000	-0,005	0,038
-535,393	92,888	-0,082	-0,066
-534,379	-200,000	0,029	-0,217
-533,364	-200,000	-0,018	-0,102
-532,350	-200,000	-0,003	0,036
-531,335	102,890	0,053	0,045
-530,321	-25,583	0,075	0,032
-529,306	-27,734	-0,079	0,033
-528,291	-126,843	-0,068	-0,007
-527,277	-200,000	0,018	-0,062
-526,262	518,925	-0,029	-0,050
-525,248	86,410	0,131	0,104
-524,233	12,805	0,139	-0,077
-523,218	136,115	-0,022	0,021
-522,204	-77,663	-0,005	-0,001
-521,189	-129,647	0,058	-0,006
-520,175	39,365	-0,014	0,009
-519,160	34,953	-0,066	-0,042
-518,145	-200,000	-0,011	0,088
-517,131	-200,000	0,011	0,056
-516,116	222,802	0,086	0,100
-515,102	423,021	0,038	0,059
-514,087	-83,786	-0,118	0,027
-513,072	-200,000	0,015	-0,102
-512,058	-14,765	0,088	-0,041
-511,043	51,868	-0,037	0,025
-510,029	141,222	0,127	0,121
-509,014	-39,551	0,101	0,038
-507,999	109,964	-0,073	0,063
-506,985	2,103	-0,149	0,077
-505,970	87,599	-0,022	0,018
-504,956	-183,421	-0,138	-0,002
-503,941	-30,016	0,050	-0,020
-502,926	-36,178	-0,061	-0,024
-501,912	800,000	0,055	0,157
-500,897	321,456	-0,061	-0,084
-499,883	19,490	-0,147	-0,085
-498,868	0,793	-0,106	0,055
-497,853	-131,119	-0,076	-0,007
-496,839	-200,000	0,038	0,125
-495,824	384,942	0,068	0,102
-494,810	288,263	-0,109	0,142
-493,795	800,000	0,012	0,030
-492,781	-200,000	-0,006	-0,038
-491,766	80,323	-0,092	-0,071
-490,751	22,710	-0,103	0,060
-489,737	11,710	-0,088	-0,048
-488,722	-200,000	-0,006	0,034
-487,708	311,920	0,039	0,052
-486,693	-200,000	0,010	0,172
-485,678	-97,580	0,062	0,012
-484,664	105,122	-0,076	-0,065
-483,649	-200,000	-0,047	-0,196
-482,635	-200,000	0,030	-0,230
-481,620	-66,025	0,150	0,043
-480,605	-99,741	0,204	0,036
-479,591	-100,093	-0,024	0,004
-478,576	168,806	-0,066	0,068
-477,562	-144,668	-0,125	0,008
-476,547	-36,950	-0,029	0,011
-475,532	344,150	0,051	0,072
-474,518	-110,357	0,076	-0,011
-473,503	538,556	0,090	-0,154
-472,489	156,468	0,074	0,074
-471,474	-200,000	0,001	0,012
-470,459	-200,000	0,010	0,112
-469,445	504,414	-0,109	-0,183
-468,430	4,739	-0,090	-0,048
-467,416	-200,000	-0,001	-0,057
-466,401	54,880	0,023	-0,016
-465,386	217,933	0,086	0,099
-464,372	800,000	-0,026	0,081
-463,357	-75,125	-0,153	-0,039
-462,343	19,842	-0,140	0,081
-461,328	-200,000	-0,007	-0,279
-460,313	-200,000	-0,020	-0,085
-459,299	-200,000	-0,009	-0,074
-458,284	-200,000	0,006	-0,079
-457,270	132,475	-0,105	0,098
-456,255	397,631	0,090	0,135
-455,241	8,959	-0,148	-0,080
-454,226	800,000	-0,013	-0,037
-453,211	-200,000	0,008	-0,037
-452,197	800,000	0,076	-0,153
-451,182	-161,651	0,033	-0,001
-450,168	800,000	0,033	0,103
-449,153	-148,420	0,080	0,005
-448,138	-200,000	-0,030	-0,095
-447,124	554,531	0,010	0,017
-446,109	-200,000	-0,026	0,092
-445,095	-200,000	0,029	0,250
-444,080	229,284	0,096	0,112
-443,065	-200,000	0,007	-0,071
-442,051	-2,973	-0,092	-0,046
-441,036	-91,404	-0,066	0,013
-440,022	-200,000	0,026	-0,097
-439,007	185,963	-0,116	-0,124
-437,992	87,959	0,040	-0,032
-436,978	-200,000	0,016	-0,101
-435,963	122,835	0,209	0,188
-434,949	606,096	0,045	-0,081
-433,934	154,955	-0,039	-0,039
-432,919	-15,641	-0,118	0,054
-431,905	-22,494	0,035	-0,015
-430,890	800,000	0,051	0,116
-429,876	58,844	0,074	-0,052
-428,861	251,928	0,081	-0,099
-427,846	27,191	-0,142	-0,086
-426,832	800,000	-0,010	-0,024
-425,817	53,417	-0,035	-0,024
-424,803	258,210	0,061	0,075
-423,788	-117,113	0,015	0,002
-422,773	388,112	0,047	0,071
-421,759	39,414	-0,065	0,042
-420,744	119,131	0,065	0,058
-419,730	-17,017	-0,017	0,007
-418,715	-200,000	0,026	-0,115
-417,701	-130,573	-0,093	0,009
-416,686	185,835	-0,002	-0,002
-415,671	196,777	0,107	-0,117
-414,657	-78,966	0,081	0,020
-413,642	-200,000	0,018	-0,203
-412,628	800,000	0,016	0,043
-411,613	-78,749	-0,032	0,008
-410,598	800,000	-0,044	-0,110
-409,584	367,031	0,047	-0,069
-408,569	-112,757	-0,004	0,001
-407,555	-200,000	-0,018	0,097
-406,540	-200,000	-0,026	0,238
-405,525	696,465	-0,026	-0,050
-404,511	285,493	0,079	-0,103
-403,496	-200,000	-0,032	-0,115
-402,482	-200,000	-0,014	0,185
-401,467	-95,546	0,121	0,023
-400,452	68,390	0,085	-0,062
-399,438	-200,000	0,001	0,036
-398,423	-200,000	0,012	-0,198
-397,409	110,634	-0,109	-0,094
-396,394	723,918	0,003	-0,007
-395,379	-100,782	-0,066	-0,012
-394,365	604,512	0,070	0,126
-393,350	251,368	0,041	0,050
-392,336	273,940	0,032	0,040
-391,321	-200,000	-0,005	-0,083
-390,306	310,397	-0,079	-0,106
-389,292	80,373	0,069	0,053
-388,277	-148,957	-0,096	0,005
-387,263	210,074	0,094	0,106
-386,248	76,967	0,060	0,045
-385,233	-165,458	0,110	0,003
-384,219	-92,876	-0,067	-0,013
-383,204	38,316	-0,082	0,052
-382,190	9,692	-0,134	0,073
-381,175	357,414	0,022	0,031
-380,160	-200,000	0,046	0,266
-379,146	800,000	0,012	0,027
-378,131	127,584	0,160	0,146
-377,117	-200,000	-0,001	-0,014
-376,102	-200,000	-0,003	-0,096
-375,088	138,089	-0,067	-0,063
-374,073	800,000	-0,041	0,122
-373,058	800,000	-0,055	0,157
-372,044	-177,525	-0,011	0,000
-371,029	57,375	-0,053	0,037
-370,015	-200,000	-0,002	0,059
-369,000	257,377	0,101	-0,125
-367,985	800,000	-0,037	-0,080
-366,971	-78,329	-0,110	0,027
-365,956	18,500	0,082	0,047
-364,942	-79,767	0,085	-0,020
-363,927	-131,635	0,110	0,010
-362,912	205,928	-0,078	-0,087
-361,898	-200,000	-0,029	-0,118
-360,883	800,000	-0,061	-0,129
-359,869	384,901	-0,080	0,118
-358,854	-200,000	0,030	0,119
-357,839	800,000	-0,021	-0,057
-356,825	471,594	0,057	0,092
-355,810	11,682	0,119	0,065
-354,796	-200,000	-0,006	-0,058
-353,781	-200,000	-0,013	-0,119
-352,766	800,000	-0,012	-0,030
-351,752	-153,539	-0,027	-0,001
-350,737	-69,865	0,086	-0,023
-349,723	170,884	-0,047	-0,048
-348,708	793,494	0,034	-0,067
-347,693	-200,000	0,015	-0,061
-346,679	304,477	0,049	0,066
-345,664	-97,184	0,045	0,008
-344,650	268,439	0,037	0,047
-343,635	-200,000	0,032	-0,115
-342,620	-139,473	0,149	0,011
-341,606	52,645	0,076	0,052
-340,591	166,706	-0,051	0,052
-339,577	-119,528	-0,090	0,011
-338,562	-200,000	0,015	0,072
-337,548	-49,456	0,045	0,015
-336,533	88,823	0,056	-0,045
-335,518	529,410	0,035	0,059
-334,504	99,762	-0,091	0,075
-333,489	573,409	0,068	-0,119
-332,475	-113,274	-0,169	0,024
-331,460	800,000	0,021	-0,043
-330,445	-200,000	0,021	-0,093
-329,431	2,214	-0,060	0,031
-328,416	37,533	0,114	0,072
-327,402	110,502	0,106	-0,091
-326,387	-1,882	0,089	-0,044
-325,372	-118,078	0,075	-0,010
-324,358	759,327	0,007	0,013
-323,343	70,588	0,051	-0,038
-322,329	161,743	0,089	0,090
-321,314	-200,000	0,004	0,131
-320,299	-72,427	-0,098	0,026
-319,285	-21,054	-0,082	-0,036
-318,270	-26,697	-0,069	-0,029
-317,256	726,744	-0,039	-0,075
-316,241	-200,000	-0,026	0,115
-315,226	-200,000	0,033	0,111
-314,212	498,899	-0,030	0,050
-313,197	800,000	0,028	-0,079
-312,183	-200,000	0,033	-0,205
-311,168	74,028	0,048	0,036
-310,153	-79,467	-0,129	-0,031
-309,139	-12,996	0,078	-0,036
-308,124	354,499	0,025	-0,036
-307,110	-95,769	0,077	-0,014
-306,095	39,639	0,109	-0,070
-305,080	344,525	-0,082	-0,115
-304,066	-200,000	0,008	-0,035
-303,051	-81,822	0,098	-0,023
-302,037	800,000	0,047	-0,095
-301,022	667,339	-0,017	-0,032
-300,008	258,598	0,103	0,127
-298,993	514,308	-0,017	0,029
-297,978	173,683	-0,049	-0,051
-296,964	800,000	0,037	0,112
-295,949	800,000	-0,069	-0,160
-294,935	-200,000	0,005	-0,022
-293,920	36,277	-0,141	-0,089
-292,905	-59,006	0,118	-0,036
-291,891	14,026	0,114	0,063
-290,876	-200,000	0,028	0,109
-289,862	32,353	-0,064	0,040
-288,847	-90,052	0,087	0,018
-287,832	131,766	0,053	-0,049
-286,818	278,133	-0,033	0,042
-285,803	-118,145	0,096	0,012
-284,789	-79,807	-0,035	0,008
-283,774	-15,911	0,080	0,036
-282,759	276,823	-0,059	-0,076
-281,745	-113,257	-0,015	0,002
-280,730	-200,000	0,027	-0,122
-279,716	-139,588	-0,032	-0,002
-278,701	-35,853	-0,120	0,046
-277,686	736,301	0,061	-0,117
-276,672	-184,802	-0,148	-0,002
-275,657	226,395	0,037	-0,043
-274,643	130,063	-0,074	0,067
-273,628	-200,000	-0,008	0,028
-272,613	-158,427	-0,069	0,003
-271,599	448,737	0,039	0,061
-270,584	113,502	0,129	0,112
-269,570	208,965	0,102	0,114
-268,555	800,000	0,039	0,088
-267,540	-52,059	-0,034	0,011
-266,526	121,347	0,018	-0,016
-265,511	70,571	-0,034	0,025
-264,497	-69,665	0,041	-0,011
-263,482	-200,000	0,001	0,144
-262,467	800,000	0,018	0,044
-261,453	115,432	0,084	0,073
-260,438	120,630	-0,163	-0,144
-259,424	-200,000	0,010	0,057
-258,409	287,547	-0,076	-0,099
-257,395	-18,159	0,049	-0,022
-256,380	78,761	0,025	0,019
-255,365	-20,411	0,102	0,045
-254,351	-90,013	0,089	0,018
-253,336	457,168	0,006	-0,010
-252,322	-200,000	0,010	-0,053
-251,307	66,007	-0,119	0,086
-250,292	-24,729	-0,062	-0,026
-249,278	-28,116	0,065	0,027
-248,263	-200,000	0,027	0,111
-247,249	-200,000	-0,039	0,128
-246,234	69,048	-0,019	0,014
-245,219	123,720	-0,029	-0,026
-244,205	-200,000	-0,051	-0,162
-243,190	-128,345	-0,049	-0,005
-242,176	800,000	-0,055	-0,119
-241,161	-200,000	0,013	0,163
-240,146	-62,175	0,137	0,040
-239,132	-200,000	-0,003	-0,089
-238,117	-129,706	0,061	-0,006
-237,103	-200,000	-0,021	-0,086
-236,088	-23,970	-0,125	-0,053
-235,073	-71,097	0,159	0,042
-234,059	-117,823	0,040	0,005
-233,044	87,596	0,070	0,055
-232,030	-67,445	-0,095	-0,026
-231,015	6,988	0,058	-0,031
-230,000	105,572	-0,120	0,101
-228,986	-93,495	-0,033	-0,006
-227,971	-130,712	0,096	0,009
-226,957	171,157	0,074	0,076
-225,942	-200,000	0,000	0,065
-224,927	57,629	-0,054	0,038
-223,913	-174,525	-0,086	0,002
-222,898	430,288	-0,029	0,045
-221,884	-18,016	0,099	0,044
-220,869	198,081	0,113	0,123
-219,855	800,000	-0,061	0,164
-218,840	-62,996	0,068	0,020
-217,825	-200,000	-0,023	0,138
-216,811	96,103	0,151	-0,123
-215,796	419,176	-0,017	0,025
-214,782	192,558	-0,088	0,095
-213,767	-91,086	0,141	-0,029
-212,752	322,220	-0,090	0,123
-211,738	-80,832	-0,045	-0,010
-210,723	535,894	-0,083	0,142
-209,709	347,476	0,063	0,088
-208,694	800,000	0,050	0,116
-207,679	-200,000	-0,003	0,036
-206,665	-200,000	-0,019	0,077
-205,650	182,651	0,013	-0,014
-204,636	-101,430	-0,034	0,006
-203,621	333,765	0,041	-0,057
-202,606	-177,637	-0,042	-0,001
-201,592	-94,951	-0,048	0,009
-200,577	94,692	0,066	0,054
-199,563	750,567	-0,094	0,182
-198,548	-200,000	0,036	0,207
-197,533	729,228	0,108	0,206
-196,519	-61,933	0,072	0,021
-195,504	-105,228	0,015	0,002
-194,490	-200,000	-0,019	-0,096
-193,475	-126,576	-0,112	-0,012
-192,460	80,896	0,182	0,140
-191,446	-188,151	0,039	-0,000
-190,431	-99,066	-0,012	0,002
-189,417	187,364	0,039	0,042
-188,402	-200,000	0,003	0,048
-187,387	-200,000	0,010	-0,043
-186,373	-200,000	-0,002	-0,034
-185,358	-82,276	0,064	0,015
-184,344	21,611	0,021	-0,012
-183,329	800,000	-0,012	0,033
-182,315	-200,000	-0,001	0,071
-181,300	-134,501	0,056	-0,005
-180,285	-91,744	-0,142	-0,028
-179,271	-200,000	0,001	-0,096
-178,256	-2,356	0,049	0,024
-177,242	800,000	0,092	0,189
-176,227	800,000	-0,043	0,134
-175,212	232,407	0,090	0,105
-174,198	180,360	-0,098	0,103
-173,183	-161,885	0,067	0,002
-172,169	800,000	-0,019	0,058
-171,154	800,000	-0,028	0,067
-170,139	36,062	0,063	-0,039
-169,125	800,000	-0,028	-0,064
-168,110	-21,018	-0,054	0,024
-167,096	-60,921	-0,114	0,034
-166,081	-200,000	0,012	-0,089
-165,066	-177,815	-0,040	-0,001
-164,052	233,874	-0,089	0,104
-163,037	-141,439	-0,027	0,002
-162,023	-200,000	-0,013	0,147
-161,008	-6,226	0,114	0,055
-159,993	-65,587	-0,153	-0,043
-158,979	-200,000	0,020	-0,083
-157,964	800,000	-0,021	0,045
-156,950	-48,556	-0,120	0,041
-155,935	800,000	0,004	0,013
-154,920	-68,518	0,034	-0,009
-153,906	355,011	0,005	0,007
-152,891	-22,567	-0,124	0,053
-151,877	-79,355	-0,080	-0,019
-150,862	38,676	-0,041	-0,026
-149,847	-200,000	-0,006	0,034
-148,833	276,841	0,079	0,100
-147,818	17,007	0,100	-0,056
-146,804	800,000	-0,037	-0,083
-145,789	-200,000	-0,014	0,047
-144,775	-127,673	0,024	0,002
-143,760	-142,262	-0,141	-0,010
-142,745	719,887	0,026	-0,049
-141,731	-146,843	0,175	0,011
-140,716	79,599	0,051	0,039
-139,702	351,780	-0,103	0,145
-138,687	-7,560	-0,121	0,058
-137,672	5,468	-0,079	-0,041
-136,658	433,047	-0,087	0,134
-135,643	65,447	-0,019	-0,014
-134,629	800,000	0,034	-0,075
-133,614	-195,811	0,144	-0,001
-132,599	-200,000	0,007	0,093
-131,585	146,016	0,071	0,068
-130,570	158,825	0,103	0,101
-129,556	494,338	0,028	-0,046
-128,541	115,962	-0,041	-0,036
-127,526	800,000	0,031	-0,075
-126,512	95,770	-0,066	-0,053
-125,497	-200,000	-0,018	0,061
-124,483	-73,646	0,061	0,016
-123,468	-9,457	0,121	0,057
-122,453	-37,140	0,052	0,020
-121,439	450,848	-0,024	-0,039
-120,424	-200,000	-0,006	-0,035
-119,410	-200,000	0,005	-0,052
-118,395	-57,020	-0,066	0,021
-117,380	195,643	0,122	0,132
-116,366	-200,000	0,010	-0,061
-115,351	-41,336	-0,098	-0,036
-114,337	800,000	0,063	-0,129
-113,322	-67,647	-0,007	-0,002
-112,307	-200,000	0,015	-0,098
-111,293	69,344	-0,035	-0,026
-110,278	-200,000	-0,026	-0,108
-109,264	-200,000	0,013	-0,086
-108,249	800,000	-0,022	-0,067
-107,234	135,819	0,068	0,063
-106,220	471,702	0,017	0,028
-105,205	-107,049	0,082	0,013
-104,191	29,362	0,134	-0,080
-103,176	146,332	0,108	0,103
-102,162	-200,000	0,012	0,115
-101,147	50,849	-0,103	-0,069
-100,132	-115,209	-0,155	-0,021
-99,118	-200,000	0,018	0,092
-98,103	-200,000	-0,009	0,086
-97,089	279,476	-0,056	0,071
-96,074	-55,007	0,072	-0,023
-95,059	-200,000	0,015	0,108
-94,045	800,000	-0,034	-0,086
-93,030	514,380	-0,017	-0,029
-92,016	800,000	-0,031	-0,095
-91,001	-200,000	-0,012	-0,080
-89,986	-147,652	0,092	-0,005
-88,972	102,704	-0,051	0,043
-87,957	-200,000	-0,010	0,084
-86,943	358,983	0,081	-0,116
-85,928	451,975	0,053	-0,083
-84,913	122,793	0,109	-0,097
-83,899	-69,252	-0,089	-0,024
-82,884	-24,638	0,068	0,028
-81,870	323,184	0,018	0,025
-80,855	-72,302	0,084	-0,022
-79,840	335,525	-0,030	0,041
-78,826	146,207	-0,094	0,090
-77,811	150,380	-0,119	-0,115
-76,797	165,493	0,129	-0,129
-75,782	800,000	0,057	0,129
-74,767	-114,514	0,095	0,013
-73,753	-200,000	-0,005	-0,018
-72,738	-114,413	0,098	0,013
-71,724	-200,000	-0,020	0,125
-70,709	193,681	-0,038	0,040
-69,694	-200,000	0,022	-0,097
-68,680	124,320	0,071	0,063
-67,665	-200,000	0,017	0,114
-66,651	66,392	-0,118	0,085
-65,636	36,800	-0,018	0,011
-64,622	-38,667	0,052	-0,020
-63,607	104,471	0,028	-0,023
-62,592	-200,000	0,004	-0,050
-61,578	441,275	-0,007	-0,011
-60,563	-200,000	-0,006	0,022
-59,549	800,000	0,056	0,116
-58,534	-49,252	-1,557	-0,524
-57,519	416,333	-1,417	-2,147
-56,505	-200,000	-0,588	-4,557
-55,490	164,714	0,886	0,886
-54,476	800,000	4,863	11,340
-53,461	-200,000	18,314	292,646
-52,446	800,000	729,169	2244,313
-51,432	556,983	1645,670	2819,567
-50,417	79,089	1666,991	1263,089
-49,403	22,658	1540,398	890,638
-48,388	16,642	1463,606	817,072
-47,373	17,821	1453,594	817,136
-46,359	17,118	1443,978	808,332
-45,344	14,908	1439,419	795,186
-44,330	14,830	1437,541	793,744
-43,315	14,820	1435,800	792,704
-42,300	14,839	1434,121	791,835
-41,286	14,831	1433,021	791,160
-40,271	14,853	1431,751	790,529
-39,257	14,832	1430,427	789,670
-38,242	14,855	1429,247	789,099
-37,227	14,890	1427,843	788,456
-36,213	14,862	1426,726	787,676
-35,198	14,843	1425,501	786,877
-34,184	14,882	1424,440	786,446
-33,169	14,808	1423,269	785,419
-32,154	14,874	1422,397	785,216
-31,140	14,901	1420,746	784,401
-30,125	14,908	1419,824	783,893
-29,111	14,872	1418,663	783,051
-28,096	14,865	1417,488	782,342
-27,082	14,824	1416,396	781,515
-26,067	14,840	1415,272	780,939
-25,052	14,808	1414,373	780,261
-24,038	14,815	1413,187	779,606
-23,023	14,789	1412,460	779,055
-22,009	14,804	1411,173	778,384
-20,994	14,701	1410,592	777,550
-19,979	14,735	1409,730	777,203
-18,965	14,723	1408,556	776,471
-17,950	14,716	1407,546	775,847
-16,936	14,715	1406,758	775,378
-15,921	14,691	1405,410	774,494
-14,906	14,679	1404,552	773,935
-13,892	14,722	1403,573	773,564
-12,877	14,699	1402,811	773,007
-11,863	14,672	1401,987	772,397
-10,848	14,655	1401,091	771,790
-9,833	14,686	1400,036	771,326
-8,819	14,633	1399,143	770,555
-7,804	14,635	1398,350	770,095
-6,790	14,617	1397,278	769,391
-5,775	14,626	1396,207	768,815
-4,760	14,631	1395,280	768,295
-3,746	14,594	1394,666	767,758
-2,731	14,570	1393,834	767,156
-1,717	14,570	1392,946	766,638
-0,702	14,582	1390,988	765,584
0,313	18,348	1309,624	738,258
1,327	34,616	706,274	435,820
2,342	52,886	124,590	84,189
3,356	4,178	16,585	8,564
4,371	10,709	3,119	1,678
5,386	11,615	0,484	0,262
6,400	-200,000	-0,006	0,245
7,415	7,095	-0,246	-0,130
8,429	10,644	-0,409	-0,220
9,444	38,917	-0,283	-0,178
10,459	85,926	-0,296	-0,230
11,473	126,797	-0,284	-0,254
12,488	-12,269	-0,245	-0,113
13,502	49,642	-0,400	-0,266
14,517	37,257	-0,320	-0,200
15,531	-11,998	-0,403	-0,186
16,546	-49,009	-0,360	-0,121
17,561	-7,687	-0,512	-0,243
18,575	603,292	-0,189	-0,333
19,590	199,283	-0,275	-0,298
20,604	11,278	-0,264	-0,143
21,619	53,673	-0,466	-0,315
22,634	87,753	-0,488	-0,382
23,648	16,237	-0,346	-0,192
24,663	-38,374	-0,385	-0,143
25,677	135,853	-0,364	-0,335
26,692	122,474	-0,359	-0,317
27,707	114,761	-0,344	-0,296
28,721	52,269	-0,376	-0,253
29,736	201,887	-0,351	-0,383
30,750	249,967	-0,304	-0,365
31,765	287,133	-0,234	-0,299
32,780	10,954	-0,415	-0,223
33,794	270,709	-0,298	-0,371
34,809	333,545	-0,238	-0,325
35,823	-36,777	-0,357	-0,135
36,838	27,280	-0,498	-0,294
37,853	177,294	-0,417	-0,428
38,867	-37,006	-0,515	-0,194
39,882	184,386	-0,300	-0,313
40,896	56,825	-0,353	-0,242
41,911	-13,503	-0,394	-0,179
42,926	60,290	-0,355	-0,247
43,940	-19,187	-0,370	-0,161
44,955	72,037	-0,468	-0,343
45,969	158,069	-0,358	-0,350
46,984	61,090	-0,276	-0,193
47,999	81,393	-0,260	-0,198
49,013	-56,820	-0,323	-0,100
50,028	-2,302	-0,320	-0,157
51,042	66,444	-0,324	-0,231
52,057	254,658	-0,301	-0,363
53,071	132,364	-0,297	-0,270
54,086	86,584	-0,242	-0,188
55,101	77,119	-0,399	-0,298
56,115	141,950	-0,305	-0,285
57,130	25,432	-0,499	-0,291
58,144	-23,109	-0,327	-0,138
59,159	64,051	-0,389	-0,275
60,174	-31,961	-0,455	-0,179
61,188	211,746	-0,303	-0,337
62,203	153,600	-0,217	-0,209
63,217	-127,187	-0,205	-0,021
64,232	-8,793	-0,281	-0,132
65,247	91,830	-0,235	-0,186
66,261	-56,142	-0,412	-0,128
67,276	122,231	-0,243	-0,213
68,290	-84,272	-0,277	-0,061
69,305	-44,298	-0,305	-0,107
70,320	-20,763	-0,320	-0,137
71,334	12,819	-0,411	-0,223
72,349	-37,648	-0,272	-0,101
73,363	218,481	-0,291	-0,327
74,378	16,798	-0,365	-0,202
75,393	65,285	-0,322	-0,229
76,407	-200,000	-0,062	-0,257
77,422	-1,898	-0,323	-0,159
78,436	-30,247	-0,219	-0,087
79,451	-2,166	-0,400	-0,197
80,466	96,912	-0,249	-0,200
81,480	-81,461	-0,360	-0,083
82,495	16,120	-0,243	-0,134
83,509	27,423	-0,337	-0,198
84,524	47,924	-0,221	-0,145
85,539	2,092	-0,347	-0,175
86,553	83,741	-0,275	-0,211
87,568	191,687	-0,367	-0,389
88,582	75,835	-0,377	-0,279
89,597	-60,603	-0,174	-0,051
90,611	238,797	-0,197	-0,230
91,626	-30,463	-0,358	-0,142
92,641	44,752	-0,241	-0,156
93,655	104,270	-0,239	-0,197
94,670	115,347	-0,271	-0,232
95,684	348,684	-0,240	-0,334
96,699	205,058	-0,193	-0,211
97,714	23,669	-0,430	-0,248
98,728	48,386	-0,219	-0,143
99,743	-41,609	-0,270	-0,097
100,757	-168,022	-0,273	0,007
101,772	-21,779	-0,207	-0,088
102,787	29,497	-0,378	-0,225
103,801	101,222	-0,243	-0,199
104,816	-3,071	-0,323	-0,157
105,830	12,365	-0,264	-0,142
106,845	-134,338	-0,247	-0,021
107,860	-54,576	-0,226	-0,071
108,874	138,995	-0,220	-0,202
109,889	-113,415	-0,271	-0,037
110,903	-36,002	-0,301	-0,113
111,918	130,056	-0,287	-0,258
112,933	74,036	-0,246	-0,180
113,947	-148,142	-0,225	-0,013
114,962	13,088	-0,337	-0,182
115,976	13,824	-0,387	-0,210
116,991	4,009	-0,275	-0,140
118,006	38,177	-0,328	-0,204
119,020	115,407	-0,140	-0,120
120,035	18,867	-0,203	-0,114
121,049	-108,621	-0,372	-0,055
122,064	-38,860	-0,291	-0,107
123,079	111,186	-0,215	-0,182
124,093	245,484	-0,169	-0,199
125,108	318,917	-0,313	-0,416
126,122	43,543	-0,341	-0,218
127,137	-85,987	-0,308	-0,066
128,151	76,542	-0,156	-0,116
129,166	206,430	-0,135	-0,147
130,181	-2,071	-0,242	-0,118
131,195	-66,592	-0,387	-0,107
132,210	455,851	-0,210	-0,327
133,224	430,175	-0,257	-0,391
134,239	46,165	-0,243	-0,157
135,254	79,087	-0,238	-0,178
136,268	560,408	-0,132	-0,224
137,283	150,647	-0,176	-0,167
138,297	-4,171	-0,339	-0,164
139,312	211,795	-0,309	-0,341
140,327	43,620	-0,308	-0,196
141,341	23,089	-0,317	-0,181
142,356	-60,159	-0,299	-0,089
143,370	-54,502	-0,160	-0,050
144,385	-200,000	-0,092	-0,305
145,400	37,521	-0,329	-0,203
146,414	124,399	-0,273	-0,240
147,429	123,537	-0,197	-0,173
148,443	327,928	-0,128	-0,172
149,458	40,357	-0,199	-0,125
150,473	-96,789	-0,213	-0,039
151,487	44,957	-0,199	-0,128
152,502	218,684	-0,205	-0,229
153,516	121,723	-0,362	-0,315
154,531	223,956	-0,244	-0,275
155,546	1,215	-0,224	-0,112
156,560	82,370	-0,272	-0,206
157,575	30,250	-0,176	-0,105
158,589	46,999	-0,226	-0,146
159,604	-11,200	-0,175	-0,080
160,619	294,048	-0,185	-0,236
161,633	150,657	-0,202	-0,191
162,648	584,811	-0,167	-0,288
163,662	-39,141	-0,211	-0,077
164,677	253,035	-0,168	-0,201
165,692	176,221	-0,194	-0,196
166,706	161,164	-0,202	-0,197
167,721	193,793	-0,175	-0,185
168,735	349,749	-0,172	-0,238
169,750	274,678	-0,118	-0,146
170,764	-35,275	-0,250	-0,094
171,779	800,000	-0,068	-0,190
172,794	91,948	-0,131	-0,102
173,808	166,410	-0,266	-0,263
174,823	520,883	-0,095	-0,156
175,837	215,399	-0,139	-0,154
176,852	250,815	-0,221	-0,262
177,867	45,572	-0,257	-0,165
178,881	-72,458	-0,251	-0,064
179,896	-29,898	-0,199	-0,078
180,910	-95,781	-0,283	-0,052
181,925	89,286	-0,218	-0,169
182,940	105,305	-0,302	-0,248
183,954	800,000	-0,094	-0,213
184,969	67,401	-0,208	-0,148
185,983	168,605	-0,162	-0,161
186,998	-60,218	-0,061	0,018
188,013	86,978	-0,189	-0,145
189,027	11,133	-0,272	-0,144
190,042	19,878	-0,226	-0,126
191,056	23,724	-0,173	-0,099
192,071	-133,137	-0,051	0,004
193,086	200,774	-0,186	-0,199
194,100	-138,267	-0,120	-0,009
195,115	315,268	-0,183	-0,241
196,129	-30,799	-0,235	-0,092
197,144	800,000	-0,152	-0,296
198,159	53,601	-0,278	-0,185
199,173	154,852	-0,235	-0,225
200,188	-85,312	-0,231	-0,050
201,202	-6,525	-0,120	-0,057
202,217	179,450	-0,221	-0,225
203,232	25,287	-0,261	-0,150
204,246	225,065	-0,194	-0,219
205,261	81,388	-0,172	-0,129
206,275	417,484	-0,149	-0,221
207,290	254,158	-0,161	-0,191
208,304	800,000	-0,077	-0,185
209,319	87,069	-0,278	-0,214
210,334	-17,246	-0,273	-0,119
211,348	163,401	-0,346	-0,338
212,363	800,000	-0,083	-0,229
213,377	540,351	-0,153	-0,254
214,392	83,181	-0,186	-0,141
215,407	-11,909	-0,300	-0,136
216,421	182,374	-0,135	-0,138
217,436	-39,262	-0,286	-0,104
218,450	65,650	-0,161	-0,113
219,465	20,707	-0,189	-0,106
220,480	50,917	-0,264	-0,173
221,494	399,942	-0,088	-0,128
222,509	-140,637	-0,157	-0,011
223,523	-4,444	-0,221	-0,105
224,538	-59,212	-0,268	-0,080
225,553	115,317	-0,221	-0,187
226,567	227,727	-0,184	-0,209
227,582	451,595	-0,115	-0,177
228,596	397,296	-0,132	-0,192
229,611	214,143	-0,150	-0,165
230,626	-73,089	-0,126	0,032
231,640	448,693	-0,144	-0,221
232,655	164,826	-0,205	-0,201
233,669	136,238	-0,249	-0,225
234,684	-63,562	-0,161	-0,046
235,699	12,403	-0,184	-0,098
236,713	-200,000	-0,010	0,040
237,728	800,000	-0,049	-0,112
238,742	-113,522	-0,191	-0,026
239,757	-40,273	-0,145	-0,052
240,772	398,263	-0,114	-0,166
241,786	800,000	-0,101	-0,270
242,801	223,491	-0,136	-0,152
243,815	-200,000	-0,038	-0,128
244,830	-200,000	-0,008	0,106
245,844	394,015	-0,138	-0,200
246,859	114,266	-0,192	-0,162
247,874	403,731	-0,075	-0,110
248,888	213,101	-0,232	-0,254
249,903	48,307	-0,262	-0,170
250,917	224,555	-0,197	-0,221
251,932	-142,382	-0,260	-0,017
252,947	-30,906	-0,185	-0,072
253,961	247,076	-0,225	-0,263
254,976	114,759	-0,252	-0,213
255,990	-31,487	-0,219	-0,085
257,005	366,552	-0,111	-0,155
258,020	444,781	-0,124	-0,189
259,034	-111,316	-0,154	-0,022
260,049	162,216	-0,081	0,078
261,063	-8,992	-0,205	-0,095
262,078	382,771	-0,189	-0,270
263,093	-47,676	-0,272	-0,091
264,107	24,357	-0,183	-0,104
265,122	800,000	-0,082	-0,198
266,136	-52,317	-0,209	-0,067
267,151	-191,340	-0,187	0,001
268,166	545,752	-0,146	-0,242
269,180	-80,489	-0,117	-0,027
270,195	657,501	-0,125	-0,222
271,209	187,589	-0,073	-0,075
272,224	268,898	-0,190	-0,230
273,239	17,256	-0,137	-0,075
274,253	-56,430	-0,086	-0,026
275,268	61,046	-0,164	-0,112
276,282	51,013	-0,274	-0,179
277,297	300,062	-0,131	-0,168
278,312	424,303	-0,127	-0,189
279,326	-17,696	-0,232	-0,100
280,341	295,750	-0,188	-0,239
281,355	-22,506	-0,237	-0,099
282,370	-16,643	-0,137	-0,060
283,384	15,904	-0,196	-0,106
284,399	32,993	-0,166	-0,099
285,414	107,488	-0,207	-0,170
286,428	61,326	-0,080	-0,054
287,443	28,050	-0,146	-0,085
288,457	104,608	-0,076	-0,062
289,472	-43,852	-0,187	-0,064
290,487	173,951	-0,118	-0,118
291,501	175,147	-0,121	-0,121
292,516	23,487	-0,212	-0,120
293,530	27,060	-0,172	-0,099
294,545	125,820	-0,200	-0,174
295,560	54,764	-0,184	-0,122
296,574	-110,392	-0,133	-0,019
297,589	-81,330	-0,217	-0,049
298,603	192,060	-0,168	-0,175
299,618	121,126	-0,226	-0,194
300,633	800,000	-0,047	-0,133
301,647	527,124	-0,141	-0,230
302,662	106,342	-0,119	-0,097
303,676	49,734	-0,144	0,094
304,691	215,618	-0,150	-0,164
305,706	-45,429	-0,213	-0,072
306,720	-29,840	-0,155	-0,060
307,735	800,000	-0,078	-0,150
308,749	-24,586	-0,127	-0,052
309,764	-200,000	-0,100	-0,336
310,779	-200,000	-0,029	-0,095
311,793	-119,493	-0,149	0,018
312,808	800,000	-0,122	-0,239
313,822	-200,000	-0,083	-0,279
314,837	96,563	-0,066	-0,052
315,852	-84,446	-0,134	0,029
316,866	-107,458	-0,102	-0,015
317,881	23,415	-0,082	-0,046
318,895	94,801	-0,198	-0,155
319,910	4,117	-0,206	-0,103
320,925	385,098	-0,090	-0,128
321,939	572,034	-0,104	-0,176
322,954	321,193	-0,106	-0,140
323,968	99,618	-0,041	-0,033
324,983	33,442	-0,241	-0,143
325,997	296,052	-0,088	-0,111
327,012	-27,005	-0,267	-0,107
328,027	1,546	-0,165	-0,081
329,041	-87,955	-0,158	-0,032
330,056	48,025	-0,134	-0,086
331,070	-200,000	-0,012	-0,164
332,085	50,141	-0,084	-0,054
333,100	47,488	-0,227	-0,145
334,114	-134,841	-0,109	0,009
335,129	406,316	-0,158	-0,229
336,143	86,845	-0,130	-0,099
337,158	177,341	-0,133	-0,133
338,173	-63,892	-0,164	0,046
339,187	-105,867	-0,139	-0,021
340,202	71,289	-0,123	-0,087
341,216	181,467	-0,143	-0,144
342,231	101,477	-0,199	-0,159
343,246	558,463	-0,150	-0,249
344,260	561,816	-0,100	-0,167
345,275	-200,000	-0,035	-0,124
346,289	41,792	-0,168	-0,104
347,304	81,019	-0,106	-0,078
348,319	800,000	-0,117	-0,238
349,333	96,601	-0,272	-0,214
350,348	135,848	-0,133	-0,119
351,362	-62,200	-0,145	-0,041
352,377	-200,000	-0,027	-0,108
353,392	11,348	-0,143	-0,075
354,406	111,290	-0,187	-0,154
355,421	207,340	1317,402	1411,714
356,435	159,485	1478,482	1412,206
