DTS Sentinel unit serial number:	SN410029Multiplexer serial number:	ORYXHardware model number:	OX2-SRSoftware version number:	ORYX F/W v4,00 Oryx Data Collector v3.7.2.0data status	okinstallation	B3 Nyhavnadifferential loss correction	single-endedforward channel	channel 1reverse channel	N/Adate	2023/11/30time	18:47:30forward acquisition time	300,00reverse acquisition time	0,00gamma	499,1914k internal	0,3205k external	0,3205temperature offset calibration	1,0000default loss term (dB/km)	0,3820temperature slope calibration	1,0000multiplexer offset coefficient	1,0000multiplexer slope coefficient	1,0000fibre end	0,00T internal ref (°C)	12,47T ext. ref 1 (°C)	-2,79T ext. ref 2 (°C)	-2,88length (m)	temperature (°C)	Stokes	anti-Stokes-744,400	312,692	-0,157	-0,215
-743,385	-200,000	-0,057	0,295
-742,371	14,955	-0,209	-0,119
-741,356	800,000	0,148	0,330
-740,342	261,732	-0,225	-0,284
-739,327	-200,000	0,045	0,162
-738,312	-51,717	-0,343	-0,115
-737,298	-200,000	0,007	0,223
-736,283	270,525	-0,162	-0,207
-735,269	-200,000	-0,045	0,331
-734,254	150,882	-0,259	-0,256
-733,239	6,859	-0,248	0,134
-732,225	82,702	-0,190	-0,150
-731,210	800,000	0,077	0,218
-730,196	-19,607	0,108	-0,048
-729,181	-152,495	-0,119	0,006
-728,167	-200,000	-0,013	-0,132
-727,152	-56,912	-0,142	0,045
-726,137	800,000	-0,009	-0,023
-725,123	116,849	-0,031	-0,027
-724,108	800,000	-0,023	-0,055
-723,094	-200,000	0,008	-0,059
-722,079	-200,000	-0,012	-0,067
-721,064	-153,712	-0,059	-0,003
-720,050	-58,427	-0,153	0,048
-719,035	163,432	0,088	-0,090
-718,021	190,804	-0,107	-0,117
-717,006	-152,844	-0,215	-0,011
-715,991	31,847	0,050	0,031
-714,977	4,745	-0,024	-0,012
-713,962	-191,490	-0,178	-0,001
-712,948	-146,057	0,073	-0,005
-711,933	216,666	-0,028	-0,032
-710,918	-52,425	-0,129	-0,043
-709,904	-200,000	-0,003	-0,028
-708,889	610,425	-0,081	-0,148
-707,875	123,467	-0,130	-0,119
-706,860	61,214	-0,038	0,028
-705,845	361,845	0,068	0,100
-704,831	800,000	-0,051	0,159
-703,816	-200,000	0,004	-0,076
-702,802	49,436	-0,131	-0,089
-701,787	34,900	-0,026	-0,017
-700,772	-200,000	-0,002	0,034
-699,758	-11,563	-0,046	-0,022
-698,743	-56,946	0,150	-0,048
-697,729	-200,000	0,001	0,037
-696,714	-200,000	0,001	0,113
-695,699	-162,618	0,144	-0,005
-694,685	119,823	-0,048	0,044
-693,670	474,407	-0,030	-0,050
-692,656	-63,916	-0,137	0,040
-691,641	291,926	0,130	0,172
-690,627	-200,000	0,019	-0,077
-689,612	-200,000	0,004	-0,053
-688,597	21,147	-0,049	0,029
-687,583	-152,420	-0,077	-0,004
-686,568	39,337	0,059	0,038
-685,554	91,446	-0,058	0,047
-684,539	800,000	-0,044	-0,098
-683,524	-12,308	-0,045	-0,021
-682,510	-133,169	-0,034	0,003
-681,495	550,090	-0,045	-0,078
-680,481	330,494	0,025	0,035
-679,466	320,193	-0,021	-0,029
-678,451	800,000	0,048	-0,097
-677,437	-67,995	-0,061	-0,017
-676,422	70,686	-0,034	-0,026
-675,408	800,000	-0,046	-0,138
-674,393	-77,448	-0,180	-0,045
-673,378	226,277	-0,066	-0,078
-672,364	-200,000	-0,029	-0,101
-671,349	-17,634	-0,083	-0,037
-670,335	13,890	0,066	-0,037
-669,320	106,860	-0,057	0,049
-668,305	-100,260	-0,028	0,005
-667,291	-77,810	-0,149	0,037
-666,276	651,403	-0,028	-0,053
-665,262	-14,327	-0,023	-0,011
-664,247	800,000	-0,005	-0,014
-663,232	-178,363	0,087	0,001
-662,218	259,038	-0,049	0,061
-661,203	316,731	-0,027	0,037
-660,189	-200,000	-0,005	-0,015
-659,174	-63,552	-0,230	0,068
-658,159	-50,330	-0,123	-0,042
-657,145	135,483	0,173	-0,163
-656,130	-200,000	0,027	-0,144
-655,116	-200,000	-0,013	-0,100
-654,101	-70,473	0,063	-0,017
-653,086	-200,000	0,032	0,127
-652,072	-154,804	-0,192	-0,009
-651,057	173,770	-0,042	0,044
-650,043	34,571	-0,081	-0,051
-649,028	585,642	-0,078	-0,139
-648,014	45,017	-0,017	0,011
-646,999	-200,000	0,004	-0,064
-645,984	100,846	-0,054	0,045
-644,970	208,884	0,059	0,067
-643,955	379,566	0,027	-0,040
-642,941	800,000	-0,030	-0,079
-641,926	800,000	0,016	-0,037
-640,911	-200,000	-0,007	-0,068
-639,897	-90,559	0,018	-0,004
-638,882	800,000	0,029	-0,060
-637,868	800,000	-0,017	-0,039
-636,853	127,261	-0,075	-0,069
-635,838	-75,778	-0,123	-0,031
-634,824	334,745	-0,091	-0,128
-633,809	309,222	0,032	0,044
-632,795	98,327	-0,065	-0,054
-631,780	-79,466	0,038	-0,009
-630,765	44,458	-0,148	0,098
-629,751	77,471	-0,011	0,009
-628,736	-78,589	0,034	-0,008
-627,722	800,000	0,019	0,048
-626,707	1,113	0,148	0,077
-625,692	-118,628	-0,072	0,009
-624,678	-200,000	-0,006	0,099
-623,663	-200,000	0,000	0,090
-622,649	320,374	-0,062	-0,085
-621,634	-119,897	-0,057	-0,007
-620,619	-200,000	0,029	-0,097
-619,605	337,606	0,084	-0,119
-618,590	18,969	-0,102	-0,059
-617,576	-200,000	-0,021	0,127
-616,561	261,573	-0,072	-0,090
-615,546	-75,599	0,052	-0,013
-614,532	-52,292	-0,056	-0,019
-613,517	-66,305	-0,117	0,033
-612,503	55,349	0,092	-0,064
-611,488	13,473	-0,066	-0,037
-610,474	-200,000	0,009	0,046
-609,459	-44,612	-0,207	0,074
-608,444	-200,000	-0,015	0,094
-607,430	-200,000	-0,005	0,138
-606,415	-13,128	-0,068	-0,032
-605,401	560,300	-0,020	-0,035
-604,386	-200,000	-0,025	0,084
-603,371	-84,237	0,069	-0,016
-602,357	-132,157	-0,051	0,005
-601,342	88,992	0,077	0,062
-600,328	-157,758	-0,155	-0,007
-599,313	545,034	-0,069	-0,120
-598,298	443,100	-0,053	0,084
-597,284	312,057	0,035	0,047
-596,269	311,376	-0,063	0,086
-595,255	-200,000	0,002	-0,057
-594,240	-200,000	0,004	-0,031
-593,225	-180,215	-0,100	-0,001
-592,211	35,623	0,062	-0,039
-591,196	351,383	-0,040	-0,057
-590,182	800,000	0,061	0,177
-589,167	29,221	0,066	-0,040
-588,152	-40,225	0,062	-0,023
-587,138	679,480	0,095	-0,179
-586,123	71,682	-0,178	-0,134
-585,109	-89,356	-0,114	-0,024
-584,094	61,456	-0,021	-0,015
-583,079	-102,128	-0,032	-0,005
-582,065	155,085	0,051	0,051
-581,050	-200,000	-0,027	0,095
-580,036	-63,706	-0,120	0,035
-579,021	-200,000	-0,016	-0,070
-578,006	-200,000	-0,008	-0,075
-576,992	777,058	-0,055	-0,109
-575,977	75,313	0,117	0,089
-574,963	800,000	-0,073	0,208
-573,948	-1,243	0,059	-0,030
-572,934	84,374	0,062	0,049
-571,919	130,614	0,049	0,046
-570,904	-200,000	0,049	-0,183
-569,890	142,715	0,039	-0,037
-568,875	164,972	-0,050	-0,051
-567,861	36,953	0,146	0,093
-566,846	11,885	-0,096	-0,053
-565,831	107,117	-0,036	0,031
-564,817	3,463	-0,159	-0,083
-563,802	317,522	0,015	0,020
-562,788	-143,735	-0,048	-0,003
-561,773	-72,394	-0,081	0,021
-560,758	-200,000	0,003	0,095
-559,744	-200,000	-0,011	0,051
-558,729	-121,627	0,045	0,005
-557,715	77,527	-0,009	0,007
-556,700	-200,000	-0,007	0,104
-555,685	68,714	0,058	0,043
-554,671	-134,001	-0,038	-0,003
-553,656	317,601	0,089	0,121
-552,642	196,755	-0,029	0,031
-551,627	800,000	-0,060	0,153
-550,612	456,458	-0,043	0,068
-549,598	201,787	-0,081	-0,091
-548,583	-200,000	0,041	0,141
-547,569	-43,239	-0,038	0,014
-546,554	82,945	-0,114	0,089
-545,539	245,540	0,102	0,124
-544,525	-177,537	0,190	0,003
-543,510	-90,891	-0,276	0,057
-542,496	-60,398	-0,066	-0,020
-541,481	-144,700	-0,067	-0,004
-540,466	-108,477	0,076	0,012
-539,452	-14,605	-0,014	0,006
-538,437	-65,131	0,017	0,005
-537,423	516,571	-0,046	-0,078
-536,408	7,555	0,006	-0,003
-535,393	-125,528	-0,022	0,002
-534,379	-200,000	-0,016	-0,070
-533,364	-11,761	-0,097	0,046
-532,350	124,799	0,058	-0,052
-531,335	-200,000	0,016	-0,082
-530,321	-43,013	-0,125	0,046
-529,306	103,650	-0,030	0,025
-528,291	-67,830	-0,098	-0,027
-527,277	-101,234	-0,102	0,018
-526,262	612,876	-0,036	-0,065
-525,248	62,906	0,077	-0,055
-524,233	93,843	0,043	0,035
-523,218	190,966	0,059	0,064
-522,204	-200,000	0,003	0,022
-521,189	800,000	-0,047	-0,105
-520,175	-200,000	0,028	-0,118
-519,160	-200,000	0,064	-0,215
-518,145	-200,000	-0,003	-0,203
-517,131	629,557	0,030	-0,054
-516,116	532,753	0,052	0,089
-515,102	59,253	0,046	0,033
-514,087	-33,544	-0,040	-0,016
-513,072	4,255	-0,086	-0,045
-512,058	-141,685	-0,042	-0,003
-511,043	124,291	0,062	-0,056
-510,029	-200,000	0,051	0,228
-509,014	180,263	0,104	0,110
-507,999	-155,896	-0,215	-0,010
-506,985	-200,000	-0,009	0,060
-505,970	800,000	-0,016	-0,036
-504,956	-200,000	0,018	0,101
-503,941	45,780	-0,098	0,065
-502,926	273,754	0,086	0,110
-501,912	-124,817	0,142	-0,016
-500,897	-8,517	-0,113	-0,055
-499,883	-85,383	-0,042	0,009
-498,868	-38,665	-0,048	-0,018
-497,853	-134,923	-0,111	0,010
-496,839	-200,000	-0,010	0,056
-495,824	-55,354	-0,082	0,026
-494,810	-171,691	-0,045	-0,001
-493,795	-200,000	0,026	-0,116
-492,781	177,618	0,054	0,057
-491,766	26,534	-0,123	-0,074
-490,751	800,000	0,073	-0,216
-489,737	242,437	0,081	-0,098
-488,722	306,101	0,086	-0,116
-487,708	130,746	0,047	-0,043
-486,693	799,228	-0,064	0,128
-485,678	667,021	0,076	-0,141
-484,664	-200,000	0,021	-0,079
-483,649	370,264	0,068	-0,099
-482,635	118,826	0,126	-0,112
-481,620	-200,000	-0,002	-0,012
-480,605	570,970	0,050	-0,089
-479,591	-16,175	0,154	-0,070
-478,576	-200,000	-0,012	0,160
-477,562	-200,000	0,001	-0,073
-476,547	800,000	0,003	0,010
-475,532	800,000	0,021	0,056
-474,518	-49,863	0,117	0,040
-473,503	287,723	0,037	-0,048
-472,489	-57,916	0,111	-0,035
-471,474	411,862	0,058	0,089
-470,459	-200,000	0,023	0,082
-469,445	-6,223	-0,060	-0,029
-468,430	-49,595	0,150	0,051
-467,416	176,678	0,052	0,054
-466,401	111,613	-0,012	0,011
-465,386	-123,340	0,137	-0,016
-464,372	161,750	0,063	0,063
-463,357	-64,334	-0,162	0,047
-462,343	55,251	-0,029	0,020
-461,328	800,000	0,058	0,129
-460,313	-200,000	-0,013	-0,042
-459,299	158,821	0,050	-0,050
-458,284	-73,696	0,169	-0,044
-457,270	-113,272	0,001	-0,000
-456,255	-141,658	-0,028	0,002
-455,241	696,008	0,068	-0,128
-454,226	-85,174	-0,036	-0,008
-453,211	12,938	0,123	-0,068
-452,197	800,000	-0,033	-0,069
-451,182	50,880	-0,073	-0,049
-450,168	162,611	-0,128	-0,129
-449,153	-163,845	0,071	-0,002
-448,138	-200,000	0,032	-0,118
-447,124	-2,281	-0,049	0,025
-446,109	3,528	-0,096	-0,050
-445,095	-86,308	0,024	0,005
-444,080	371,229	0,033	0,048
-443,065	49,123	0,019	-0,013
-442,051	319,965	-0,053	0,073
-441,036	-132,242	-0,053	0,005
-440,022	800,000	0,024	-0,062
-439,007	589,836	-0,019	0,034
-437,992	170,899	0,054	0,056
-436,978	800,000	-0,044	0,113
-435,963	8,928	0,125	0,067
-434,949	-200,000	-0,017	0,073
-433,934	800,000	0,017	0,043
-432,919	800,000	-0,032	-0,098
-431,905	-200,000	0,003	-0,128
-430,890	64,323	0,152	0,110
-429,876	-42,872	0,035	0,013
-428,861	800,000	-0,021	-0,064
-427,846	540,276	-0,052	-0,089
-426,832	800,000	0,024	0,062
-425,817	-200,000	-0,015	-0,103
-424,803	-117,077	-0,011	0,001
-423,788	151,524	-0,035	0,034
-422,773	195,372	-0,053	0,057
-421,759	165,502	-0,027	0,027
-420,744	-93,803	-0,161	-0,032
-419,730	0,870	0,058	0,030
-418,715	174,326	0,047	-0,049
-417,701	233,048	-0,049	0,058
-416,686	-200,000	0,010	0,092
-415,671	-200,000	0,014	-0,102
-414,657	800,000	0,021	0,055
-413,642	-35,637	-0,144	0,056
-412,628	-104,877	-0,088	0,014
-411,613	660,302	-0,063	-0,117
-410,598	-58,952	-0,070	-0,022
-409,584	60,341	0,086	0,061
-408,569	-28,745	0,173	0,071
-407,555	150,156	0,003	-0,003
-406,540	-200,000	0,015	0,150
-405,525	-200,000	-0,039	-0,141
-404,511	-5,253	0,077	0,038
-403,496	594,436	-0,031	-0,055
-402,482	-90,316	-0,085	-0,017
-401,467	-200,000	0,009	-0,053
-400,452	-200,000	-0,019	0,098
-399,438	800,000	0,041	-0,113
-398,423	-122,158	-0,070	-0,008
-397,409	-200,000	0,015	-0,194
-396,394	-113,132	-0,048	-0,007
-395,379	-200,000	0,000	-0,095
-394,365	800,000	-0,019	-0,039
-393,350	225,358	0,061	0,071
-392,336	-200,000	-0,014	-0,110
-391,321	800,000	-0,056	0,172
-390,306	38,761	0,038	-0,024
-389,292	637,824	0,010	0,018
-388,277	96,637	0,022	-0,018
-387,263	-21,345	0,173	-0,075
-386,248	36,906	-0,113	0,072
-385,233	402,073	0,029	0,044
-384,219	273,258	-0,025	-0,032
-383,204	-200,000	-0,018	-0,104
-382,190	22,085	-0,048	0,028
-381,175	-61,218	0,155	-0,046
-380,160	25,819	-0,083	-0,049
-379,146	-55,060	-0,069	0,022
-378,131	800,000	-0,029	-0,059
-377,117	-122,891	-0,206	0,023
-376,102	131,449	-0,081	0,074
-375,088	104,579	0,034	0,029
-374,073	149,647	0,048	0,047
-373,058	-135,414	0,106	-0,009
-372,044	-29,366	0,051	0,021
-371,029	-161,102	0,195	0,007
-370,015	-200,000	-0,002	-0,012
-369,000	-75,063	-0,201	-0,051
-367,985	-200,000	0,026	-0,110
-366,971	800,000	-0,037	-0,073
-365,956	344,387	-0,090	0,127
-364,942	89,870	0,103	0,082
-363,927	439,006	-0,011	-0,018
-362,912	800,000	-0,055	0,111
-361,898	494,111	0,041	-0,067
-360,883	158,986	-0,114	-0,114
-359,869	800,000	-0,008	-0,022
-358,854	687,950	-0,038	0,072
-357,839	293,595	-0,066	0,087
-356,825	-114,657	0,110	-0,015
-355,810	153,723	-0,054	0,053
-354,796	-200,000	-0,025	-0,108
-353,781	-200,000	0,000	-0,153
-352,766	88,844	-0,070	0,056
-351,752	249,454	0,063	0,077
-350,737	-129,490	0,109	0,011
-349,723	792,788	-0,043	0,086
-348,708	22,083	0,034	-0,020
-347,693	7,824	-0,105	-0,056
-346,679	-200,000	-0,012	-0,181
-345,664	-31,288	0,072	-0,029
-344,650	-65,266	0,072	-0,021
-343,635	159,236	0,093	0,093
-342,620	-125,304	0,147	0,016
-341,606	30,902	-0,077	0,047
-340,591	155,744	0,077	0,076
-339,577	-57,853	0,034	-0,010
-338,562	113,126	-0,084	-0,073
-337,548	-27,889	0,087	0,036
-336,533	-18,298	0,022	0,010
-335,518	-132,966	0,026	0,002
-334,504	-21,354	-0,057	-0,025
-333,489	300,879	-0,030	-0,039
-332,475	6,470	-0,078	-0,041
-331,460	540,932	-0,020	0,035
-330,445	167,100	0,085	-0,086
-329,431	234,783	-0,030	0,035
-328,416	800,000	-0,069	0,155
-327,402	-89,265	0,154	0,032
-326,387	-116,720	0,179	0,023
-325,372	-133,102	0,083	0,007
-324,358	237,826	0,092	0,109
-323,343	28,802	-0,094	-0,057
-322,329	-200,000	0,046	0,152
-321,314	785,411	0,070	0,138
-320,299	168,106	0,054	0,055
-319,285	-121,509	0,043	-0,005
-318,270	800,000	0,032	0,096
-317,256	-200,000	-0,022	-0,109
-316,241	-30,020	-0,088	0,036
-315,226	-17,208	0,144	0,064
-314,212	675,551	0,027	0,049
-313,197	587,131	0,026	0,047
-312,183	-79,191	-0,143	0,034
-311,168	-200,000	-0,002	0,014
-310,153	50,344	-0,039	0,026
-309,139	138,498	-0,122	0,115
-308,124	-200,000	0,010	0,035
-307,110	-33,528	0,094	-0,037
-306,095	339,578	-0,079	0,110
-305,080	800,000	0,026	0,053
-304,066	168,548	-0,058	0,059
-303,051	-200,000	0,014	-0,047
-302,037	-158,665	-0,127	0,005
-301,022	28,658	0,083	0,050
-300,008	800,000	0,053	0,159
-298,993	-200,000	0,008	-0,063
-297,978	155,305	-0,097	0,096
-296,964	-6,459	-0,026	-0,013
-295,949	-129,188	-0,104	0,010
-294,935	122,987	0,053	-0,048
-293,920	474,888	-0,022	0,035
-292,905	76,386	0,142	0,107
-291,891	-75,163	0,176	0,045
-290,876	-200,000	0,000	0,030
-289,862	-200,000	0,000	-0,048
-288,847	89,919	-0,009	0,007
-287,832	-17,453	-0,075	-0,034
-286,818	800,000	0,011	0,022
-285,803	-20,124	0,098	-0,043
-284,789	800,000	-0,023	-0,045
-283,774	-24,700	0,042	0,018
-282,759	371,005	0,048	0,070
-281,745	221,405	0,045	0,052
-280,730	-200,000	0,009	-0,150
-279,716	-200,000	0,015	0,136
-278,701	-200,000	-0,005	0,092
-277,686	800,000	0,029	0,071
-276,672	86,277	0,088	0,069
-275,657	-47,776	0,074	-0,026
-274,643	87,995	-0,123	0,098
-273,628	-152,294	-0,170	-0,009
-272,613	-49,820	0,029	-0,010
-271,599	800,000	0,042	-0,114
-270,584	57,963	0,133	0,093
-269,570	280,711	0,021	-0,027
-268,555	-200,000	-0,005	-0,045
-267,540	181,258	-0,078	0,082
-266,526	-9,793	-0,055	-0,026
-265,511	441,720	0,042	-0,066
-264,497	20,773	-0,072	-0,041
-263,482	116,410	0,130	0,114
-262,467	-34,017	0,187	-0,073
-261,453	47,024	-0,086	0,057
-260,438	126,638	-0,087	-0,078
-259,424	-87,930	-0,074	-0,016
-258,409	-200,000	0,023	-0,102
-257,395	80,281	0,122	-0,093
-256,380	-94,198	0,113	-0,022
-255,365	-200,000	-0,001	-0,021
-254,351	192,485	0,104	-0,112
-253,336	-200,000	-0,020	-0,078
-252,322	106,224	-0,025	-0,021
-251,307	-113,345	0,096	-0,013
-250,292	-200,000	0,002	-0,104
-249,278	-91,104	-0,105	0,021
-248,263	352,742	0,016	-0,023
-247,249	-200,000	0,050	0,198
-246,234	603,202	0,031	-0,055
-245,219	-200,000	-0,007	-0,175
-244,205	-200,000	-0,015	0,060
-243,190	-200,000	-0,004	0,111
-242,176	800,000	0,042	0,087
-241,161	-172,406	0,167	0,004
-240,146	800,000	0,015	0,041
-239,132	107,015	-0,096	-0,081
-238,117	74,894	-0,079	0,060
-237,103	-61,127	-0,033	0,010
-236,088	-200,000	0,003	-0,084
-235,073	-75,165	0,053	-0,013
-234,059	-26,527	0,111	-0,046
-233,044	495,355	-0,022	-0,036
-232,030	24,350	-0,039	-0,023
-231,015	29,530	-0,061	0,037
-230,000	-0,996	0,032	0,016
-228,986	-200,000	-0,020	-0,139
-227,971	12,606	-0,039	0,022
-226,957	-200,000	-0,001	0,109
-225,942	-200,000	-0,024	0,121
-224,927	-31,885	-0,089	0,035
-223,913	-200,000	0,006	-0,059
-222,898	-200,000	0,010	0,033
-221,884	-200,000	-0,032	-0,150
-220,869	800,000	-0,013	-0,035
-219,855	800,000	0,042	0,093
-218,840	73,722	0,133	0,099
-217,825	-57,247	0,048	0,015
-216,811	-27,617	-0,071	0,029
-215,796	-200,000	-0,035	0,120
-214,782	93,635	-0,060	0,048
-213,767	358,881	-0,037	-0,053
-212,752	-112,592	0,065	0,009
-211,738	-84,290	0,086	-0,019
-210,723	509,845	0,087	0,144
-209,709	623,568	-0,029	-0,052
-208,694	-108,447	-0,077	-0,012
-207,679	47,478	0,019	-0,013
-206,665	-200,000	-0,002	-0,106
-205,650	-200,000	-0,003	0,078
-204,636	-200,000	0,018	0,109
-203,621	20,233	-0,068	-0,039
-202,606	140,413	-0,087	-0,082
-201,592	-200,000	-0,006	-0,038
-200,577	54,456	-0,031	0,021
-199,563	-65,678	-0,068	0,019
-198,548	800,000	0,065	-0,181
-197,533	-31,048	0,144	-0,057
-196,519	54,768	-0,039	-0,027
-195,504	635,353	0,056	-0,102
-194,490	-200,000	-0,003	-0,018
-193,475	-17,374	0,120	0,054
-192,460	-200,000	0,026	-0,102
-191,446	-24,570	0,038	0,016
-190,431	-138,383	0,070	0,005
-189,417	-98,153	-0,114	-0,021
-188,402	-200,000	-0,013	0,064
-187,387	-200,000	-0,012	-0,068
-186,373	246,290	-0,041	-0,049
-185,358	-200,000	0,005	0,078
-184,344	-200,000	0,018	-0,059
-183,329	-68,992	0,107	0,029
-182,315	800,000	-0,022	0,061
-181,300	-200,000	-0,006	0,150
-180,285	11,262	0,054	0,029
-179,271	-200,000	0,016	-0,067
-178,256	446,308	-0,111	-0,174
-177,242	-93,907	0,081	-0,016
-176,227	-77,729	0,074	-0,018
-175,212	-200,000	-0,024	0,119
-174,198	-125,621	-0,091	-0,010
-173,183	449,223	-0,100	-0,157
-172,169	-200,000	0,011	-0,094
-171,154	54,937	0,117	-0,080
-170,139	-200,000	-0,007	0,076
-169,125	56,568	0,123	-0,085
-168,110	-23,480	0,022	-0,009
-167,096	800,000	0,011	0,030
-166,081	260,829	0,016	-0,020
-165,066	685,983	-0,069	-0,129
-164,052	-62,402	-0,074	0,022
-163,037	-200,000	-0,001	0,146
-162,023	800,000	0,038	0,109
-161,008	-200,000	-0,003	0,031
-159,993	-80,003	0,046	-0,011
-158,979	-76,016	-0,091	-0,023
-157,964	-136,593	-0,128	-0,010
-156,950	-104,455	-0,024	-0,004
-155,935	-91,152	0,063	0,013
-154,920	318,262	0,052	0,070
-153,906	163,783	0,085	0,085
-152,891	-79,193	-0,107	-0,026
-151,877	800,000	-0,053	0,113
-150,862	-10,869	-0,084	0,039
-149,847	-200,000	-0,005	0,107
-148,833	-129,479	0,052	-0,005
-147,818	-4,385	-0,198	0,097
-146,804	800,000	0,026	-0,060
-145,789	-135,335	0,145	-0,012
-144,775	-13,636	-0,036	0,016
-143,760	184,477	0,082	0,086
-142,745	-132,834	-0,102	0,009
-141,731	329,334	-0,069	0,095
-140,716	-200,000	0,002	0,019
-139,702	-200,000	0,032	-0,140
-138,687	476,909	0,077	0,125
-137,672	565,704	-0,067	0,116
-136,658	-200,000	0,008	-0,101
-135,643	300,033	0,014	-0,018
-134,629	91,356	0,022	0,017
-133,614	173,302	-0,032	-0,033
-132,599	272,204	-0,059	-0,074
-131,585	271,646	0,068	-0,085
-130,570	-187,584	0,091	-0,001
-129,556	-45,753	0,129	0,045
-128,541	-157,674	-0,077	-0,003
-127,526	98,715	-0,069	-0,056
-126,512	-61,683	0,107	0,032
-125,497	32,475	-0,156	0,095
-124,483	287,545	0,120	0,154
-123,468	-15,337	-0,175	0,079
-122,453	-60,126	0,059	0,018
-121,439	-61,452	-0,104	-0,031
-120,424	800,000	-0,033	0,073
-119,410	216,979	-0,017	-0,020
-118,395	-28,801	0,116	-0,047
-117,380	-155,747	0,098	0,004
-116,366	800,000	-0,022	0,056
-115,351	77,024	-0,079	0,059
-114,337	-57,086	0,092	-0,028
-113,322	-44,647	-0,079	-0,028
-112,307	-200,000	0,005	-0,045
-111,293	196,660	0,060	0,065
-110,278	429,457	-0,070	0,107
-109,264	-200,000	-0,038	-0,123
-108,249	344,954	0,024	-0,034
-107,234	800,000	0,032	-0,091
-106,220	173,236	-0,075	0,076
-105,205	-124,249	-0,064	-0,007
-104,191	-200,000	0,000	0,086
-103,176	-164,224	-0,080	-0,003
-102,162	-200,000	0,011	0,076
-101,147	41,699	0,018	0,011
-100,132	-200,000	0,006	-0,080
-99,118	-135,432	-0,077	-0,006
-98,103	-200,000	-0,010	-0,042
-97,089	-122,667	0,066	-0,008
-96,074	-200,000	0,013	-0,112
-95,059	-180,954	0,137	-0,002
-94,045	-200,000	-0,019	-0,121
-93,030	78,867	0,079	0,060
-92,016	-45,906	0,096	-0,033
-91,001	490,520	-0,094	-0,153
-89,986	-144,377	0,060	-0,004
-88,972	-107,323	0,109	-0,017
-87,957	-200,000	0,008	0,114
-86,943	-200,000	0,011	-0,099
-85,928	-148,625	-0,092	0,005
-84,913	165,905	-0,042	-0,042
-83,899	-14,386	0,076	-0,035
-82,884	428,124	0,077	0,119
-81,870	371,304	0,019	-0,028
-80,855	634,244	-0,048	0,086
-79,840	185,124	-0,092	-0,097
-78,826	-200,000	0,015	0,110
-77,811	336,475	-0,053	0,073
-76,797	-21,217	-0,040	-0,017
-75,782	554,620	0,068	-0,117
-74,767	-41,873	0,231	0,083
-73,753	-17,298	0,080	0,035
-72,738	-98,366	-0,042	0,008
-71,724	-200,000	-0,021	0,109
-70,709	-200,000	0,002	-0,022
-69,694	-200,000	-0,023	-0,101
-68,680	-73,533	-0,008	0,002
-67,665	-84,577	0,146	0,032
-66,651	29,568	0,048	-0,029
-65,636	485,310	0,051	-0,083
-64,622	-2,804	0,046	-0,023
-63,607	-176,365	-0,058	-0,001
-62,592	-124,942	0,028	0,003
-61,578	-186,327	0,106	-0,001
-60,563	-200,000	0,014	-0,058
-59,549	800,000	0,037	0,086
-58,534	-36,468	-1,789	-0,678
-57,519	465,346	-1,325	-2,105
-56,505	-200,000	-0,409	-4,364
-55,490	371,650	0,832	1,198
-54,476	800,000	5,019	11,330
-53,461	-200,000	19,840	330,197
-52,446	800,000	747,228	2332,187
-51,432	561,876	1655,944	2843,248
-50,417	76,286	1667,338	1247,345
-49,403	20,362	1540,796	877,973
-48,388	14,345	1463,056	804,489
-47,373	18,697	1453,366	820,088
-46,359	16,769	1443,000	805,000
-45,344	12,589	1438,598	782,549
-44,330	12,553	1436,585	781,252
-43,315	12,517	1434,911	780,138
-42,300	12,509	1433,211	779,146
-41,286	12,537	1432,010	778,598
-40,271	12,515	1430,604	777,694
-39,257	12,513	1429,445	777,025
-38,242	12,564	1428,039	776,472
-37,227	12,559	1426,954	775,827
-36,213	12,566	1425,578	775,083
-35,198	12,544	1424,530	774,375
-34,184	12,611	1423,406	774,055
-33,169	12,525	1422,293	773,010
-32,154	12,584	1421,067	772,591
-31,140	12,593	1419,733	771,876
-30,125	12,613	1418,646	771,352
-29,111	12,601	1417,511	770,648
-28,096	12,598	1416,423	770,012
-27,082	12,532	1415,442	769,137
-26,067	12,492	1414,596	768,458
-25,052	12,516	1413,104	767,728
-24,038	12,532	1412,142	767,251
-23,023	12,436	1411,504	766,426
-22,009	12,461	1410,375	765,896
-20,994	12,498	1409,277	765,443
-19,979	12,495	1408,247	764,842
-18,965	12,443	1407,744	764,294
-17,950	12,423	1406,707	763,609
-16,936	12,465	1405,709	763,232
-15,921	12,412	1404,654	762,383
-14,906	12,415	1403,871	761,940
-13,892	12,410	1402,621	761,207
-12,877	12,406	1402,010	760,825
-11,863	12,416	1401,018	760,307
-10,848	12,362	1400,196	759,577
-9,833	12,338	1399,346	758,974
-8,819	12,333	1398,450	758,437
-7,804	12,303	1397,668	757,843
-6,790	12,295	1396,680	757,237
-5,775	12,332	1395,509	756,744
-4,760	12,339	1394,505	756,204
-3,746	12,305	1393,550	755,497
-2,731	12,328	1392,632	755,077
-1,717	12,252	1391,979	754,340
-0,702	12,287	1389,915	753,355
0,313	16,116	1305,869	725,472
1,327	32,460	699,058	425,871
2,342	50,174	121,890	81,200
3,356	0,374	16,527	8,311
4,371	3,277	3,197	1,639
5,386	-55,135	0,684	0,216
6,400	-200,000	0,032	0,311
7,415	435,560	-0,063	-0,097
8,429	77,431	-0,266	-0,199
9,444	103,080	-0,401	-0,332
10,459	232,473	-0,221	-0,256
11,473	58,804	-0,306	-0,212
12,488	-108,183	-0,315	-0,048
13,502	62,068	-0,253	-0,178
14,517	-16,414	-0,411	-0,183
15,531	36,922	-0,460	-0,286
16,546	137,704	-0,293	-0,271
17,561	154,948	-0,354	-0,343
18,575	11,899	-0,291	-0,157
19,590	288,965	-0,182	-0,233
20,604	-23,960	-0,196	-0,082
21,619	48,247	-0,501	-0,330
22,634	198,696	-0,388	-0,420
23,648	56,795	-0,440	-0,302
24,663	44,288	-0,433	-0,280
25,677	51,524	-0,315	-0,211
26,692	66,308	-0,343	-0,245
27,707	119,463	-0,265	-0,231
28,721	-119,372	-0,547	-0,066
29,736	6,491	-0,522	-0,273
30,750	125,870	-0,353	-0,314
31,765	26,879	-0,396	-0,233
32,780	37,448	-0,416	-0,259
33,794	40,629	-0,282	-0,179
34,809	106,192	-0,296	-0,247
35,823	19,213	-0,368	-0,208
36,838	55,403	-0,311	-0,211
37,853	151,416	-0,330	-0,317
38,867	80,105	-0,369	-0,279
39,882	273,377	-0,257	-0,321
40,896	111,297	-0,375	-0,318
41,911	-2,060	-0,369	-0,182
42,926	5,621	-0,412	-0,213
43,940	243,108	-0,367	-0,434
44,955	102,738	-0,377	-0,310
45,969	193,960	-0,270	-0,288
46,984	323,077	-0,197	-0,264
47,999	-9,688	-0,394	-0,184
49,013	20,400	-0,321	-0,182
50,028	131,041	-0,312	-0,282
51,042	-10,086	-0,412	-0,192
52,057	146,395	-0,370	-0,350
53,071	130,144	-0,295	-0,265
54,086	325,551	-0,245	-0,331
55,101	-25,002	-0,302	-0,125
56,115	113,792	-0,332	-0,284
57,130	-66,931	-0,352	-0,097
58,144	-4,396	-0,439	-0,213
59,159	162,702	-0,374	-0,369
60,174	125,405	-0,277	-0,246
61,188	105,694	-0,317	-0,264
62,203	102,209	-0,229	-0,188
63,217	183,521	-0,309	-0,321
64,232	66,630	-0,339	-0,242
65,247	94,268	-0,440	-0,351
66,261	54,023	-0,372	-0,251
67,276	49,284	-0,463	-0,305
68,290	-7,389	-0,345	-0,163
69,305	-125,066	-0,406	-0,043
70,320	136,585	-0,284	-0,260
71,334	38,778	-0,332	-0,208
72,349	8,039	-0,340	-0,179
73,363	54,859	-0,404	-0,274
74,378	37,689	-0,378	-0,235
75,393	45,916	-0,297	-0,192
76,407	286,838	-0,174	-0,221
77,422	-48,389	-0,374	-0,126
78,436	-30,923	-0,297	-0,117
79,451	-13,197	-0,363	-0,165
80,466	37,169	-0,323	-0,201
81,480	65,560	-0,357	-0,253
82,495	58,381	-0,269	-0,185
83,509	270,131	-0,271	-0,335
84,524	-131,579	-0,279	-0,025
85,539	43,194	-0,250	-0,159
86,553	-82,961	-0,347	-0,078
87,568	-29,299	-0,281	-0,113
88,582	143,788	-0,309	-0,289
89,597	19,057	-0,264	-0,148
90,611	118,895	-0,137	-0,119
91,626	172,709	-0,265	-0,268
92,641	-33,989	-0,287	-0,110
93,655	-18,404	-0,293	-0,128
94,670	31,611	-0,253	-0,152
95,684	114,723	-0,225	-0,192
96,699	31,555	-0,323	-0,194
97,714	62,608	-0,283	-0,198
98,728	-100,921	-0,225	-0,038
99,743	-105,003	-0,244	-0,039
100,757	105,349	-0,243	-0,201
101,772	49,426	-0,270	-0,178
102,787	-6,513	-0,422	-0,201
103,801	3,716	-0,336	-0,171
104,816	-21,457	-0,209	-0,089
105,830	226,872	-0,178	-0,203
106,845	-82,899	-0,275	0,062
107,860	-69,027	-0,362	-0,097
108,874	800,000	-0,122	-0,362
109,889	101,275	-0,252	-0,205
110,903	92,443	-0,224	-0,177
111,918	84,092	-0,272	-0,208
112,933	800,000	-0,114	-0,277
113,947	-89,135	-0,171	-0,035
114,962	74,470	-0,256	-0,188
115,976	212,048	-0,262	-0,289
116,991	-71,579	-0,277	-0,072
118,006	30,865	-0,353	-0,211
119,020	89,175	-0,236	-0,183
120,035	-89,275	-0,278	-0,057
121,049	-99,694	-0,219	-0,038
122,064	54,862	-0,137	-0,092
123,079	221,346	-0,125	-0,140
124,093	-28,235	-0,357	-0,143
125,108	114,340	-0,282	-0,240
126,122	244,886	-0,184	-0,217
127,137	242,734	-0,192	-0,225
128,151	800,000	-0,087	-0,216
129,166	196,344	-0,199	-0,213
130,181	-59,033	-0,308	-0,092
131,195	-29,046	-0,303	-0,121
132,210	35,647	-0,167	-0,103
133,224	33,333	-0,268	-0,162
134,239	96,899	-0,160	-0,128
135,254	-24,423	-0,312	-0,129
136,268	-84,080	-0,375	-0,082
137,283	-134,487	-0,205	-0,017
138,297	10,993	-0,410	-0,218
139,312	-63,481	-0,366	-0,104
140,327	-18,015	-0,357	-0,155
141,341	12,758	-0,279	-0,150
142,356	357,243	-0,140	-0,195
143,370	347,948	-0,120	-0,165
144,385	84,297	-0,210	-0,160
145,400	150,190	-0,244	-0,232
146,414	508,927	-0,174	-0,283
147,429	139,377	-0,290	-0,267
148,443	147,384	-0,198	-0,186
149,458	-4,963	-0,333	-0,160
150,473	-137,315	-0,366	-0,029
151,487	446,978	-0,098	-0,151
152,502	177,756	-0,162	-0,164
153,516	105,859	-0,288	-0,238
154,531	-23,967	-0,268	-0,111
155,546	38,375	-0,263	-0,163
156,560	8,262	-0,272	-0,142
157,575	3,733	-0,281	-0,143
158,589	72,013	-0,274	-0,199
159,604	52,975	-0,210	-0,140
160,619	-34,112	-0,304	-0,116
161,633	104,550	-0,220	-0,180
162,648	-92,956	-0,280	-0,054
163,662	365,087	-0,149	-0,209
164,677	-14,959	-0,340	-0,151
165,692	387,953	-0,115	-0,167
166,706	-13,845	-0,337	-0,151
167,721	48,759	-0,309	-0,201
168,735	217,341	-0,157	-0,174
169,750	56,098	-0,201	-0,136
170,764	73,518	-0,236	-0,172
171,779	267,347	-0,164	-0,200
172,794	-35,732	-0,108	-0,041
173,808	800,000	-0,120	-0,243
174,823	-132,837	-0,337	-0,030
175,837	52,501	-0,143	-0,095
176,852	-75,201	-0,279	-0,069
177,867	133,650	-0,169	-0,153
178,881	-4,151	-0,192	-0,092
179,896	27,164	-0,230	-0,134
180,910	95,048	-0,303	-0,240
181,925	48,139	-0,200	-0,130
182,940	-13,411	-0,199	-0,090
183,954	32,026	-0,233	-0,139
184,969	153,306	-0,162	-0,155
185,983	147,251	-0,140	-0,131
186,998	-55,261	-0,282	-0,087
188,013	-37,882	-0,323	-0,119
189,027	519,172	-0,125	-0,205
190,042	9,743	-0,159	-0,084
191,056	223,213	-0,228	-0,256
192,071	-200,000	-0,060	-0,191
193,086	149,531	-0,115	-0,109
194,100	318,744	-0,243	-0,321
195,115	72,322	-0,224	-0,162
196,129	210,674	-0,153	-0,168
197,144	-196,886	-0,359	-0,002
198,159	-25,193	-0,203	-0,083
199,173	91,557	-0,216	-0,169
200,188	-25,621	-0,171	-0,070
201,202	-52,548	-0,181	-0,058
202,217	81,148	-0,205	-0,153
203,232	455,498	-0,099	-0,153
204,246	20,873	-0,232	-0,130
205,261	109,861	-0,122	-0,101
206,275	156,813	-0,034	-0,033
207,290	-12,263	-0,280	-0,127
208,304	-200,000	-0,030	-0,134
209,319	-0,544	-0,275	-0,135
210,334	110,228	-0,174	-0,145
211,348	32,736	-0,245	-0,147
212,363	172,055	-0,243	-0,243
213,377	317,987	-0,162	-0,213
214,392	-106,884	-0,251	-0,038
215,407	-93,134	-0,155	-0,030
216,421	-30,833	-0,190	-0,074
217,436	24,059	-0,206	-0,118
218,450	34,873	-0,218	-0,132
219,465	51,861	-0,204	-0,134
220,480	-200,000	-0,093	-0,323
221,494	33,595	-0,272	-0,164
222,509	94,992	-0,106	-0,084
223,523	-51,585	-0,160	0,051
224,538	10,262	-0,119	-0,063
225,553	719,582	-0,164	-0,304
226,567	29,256	-0,250	-0,147
227,582	398,316	-0,138	-0,201
228,596	-121,817	-0,182	-0,021
229,611	304,817	-0,052	-0,067
230,626	727,771	-0,056	0,104
231,640	88,452	-0,195	-0,150
232,655	-35,729	-0,078	-0,029
233,669	156,879	-0,150	-0,144
234,684	192,316	-0,005	0,006
235,699	800,000	-0,081	-0,213
236,713	423,184	-0,068	-0,102
237,728	85,846	-0,062	-0,047
238,742	614,054	-0,180	-0,314
239,757	234,891	-0,179	-0,205
240,772	800,000	-0,045	-0,135
241,786	445,616	-0,157	-0,239
242,801	519,474	-0,146	-0,238
243,815	-42,728	-0,103	-0,036
244,830	204,547	-0,154	-0,165
245,844	55,879	-0,231	-0,155
246,859	6,475	-0,104	-0,053
247,874	230,873	-0,222	-0,252
248,888	147,426	-0,081	-0,076
249,903	14,497	-0,128	-0,069
250,917	-22,527	-0,200	-0,083
251,932	101,279	-0,132	-0,106
252,947	-13,764	-0,251	-0,112
253,961	-75,390	-0,105	-0,026
254,976	327,585	-0,208	-0,277
255,990	126,860	-0,250	-0,219
257,005	133,364	-0,116	-0,104
258,020	-117,373	-0,112	0,014
259,034	479,763	-0,076	-0,119
260,049	16,634	-0,233	-0,127
261,063	126,726	-0,152	-0,133
262,078	242,985	-0,199	-0,231
263,093	37,582	-0,187	-0,115
264,107	162,156	-0,145	-0,141
265,122	-178,628	-0,089	-0,001
266,136	-61,146	-0,288	-0,083
267,151	176,530	-0,153	-0,154
268,166	142,892	-0,235	-0,215
269,180	416,187	-0,146	-0,216
270,195	115,021	-0,129	-0,109
271,209	753,456	-0,121	-0,226
272,224	-101,745	-0,270	-0,045
273,239	670,603	-0,062	0,111
274,253	31,060	-0,275	-0,162
275,268	-200,000	-0,038	-0,121
276,282	87,001	-0,231	-0,176
277,297	288,808	-0,112	-0,140
278,312	42,220	-0,126	-0,079
279,326	-200,000	-0,017	-0,067
280,341	116,766	-0,161	-0,136
281,355	-59,154	-0,141	0,042
282,370	-13,481	-0,330	-0,147
283,384	71,155	-0,189	-0,135
284,399	408,063	-0,106	-0,155
285,414	720,222	-0,061	-0,112
286,428	-97,118	-0,218	0,039
287,443	253,889	-0,083	-0,098
288,457	800,000	-0,041	-0,114
289,472	481,612	-0,071	-0,111
290,487	182,062	-0,121	-0,123
291,501	800,000	-0,128	-0,285
292,516	61,257	-0,275	-0,188
293,530	-89,800	-0,226	-0,045
294,545	310,605	-0,024	-0,031
295,560	37,607	-0,119	-0,072
296,574	46,107	-0,113	-0,072
297,589	298,930	-0,113	-0,143
298,603	269,071	-0,114	-0,138
299,618	-62,071	-0,150	-0,043
300,633	575,168	-0,130	-0,220
301,647	-14,822	-0,017	-0,008
302,662	-49,744	-0,164	-0,053
303,676	93,423	-0,200	-0,156
304,691	143,040	-0,128	-0,117
305,706	-9,795	-0,170	-0,078
306,720	-154,865	-0,286	0,013
307,735	70,263	-0,116	-0,082
308,749	21,996	0,028	-0,016
309,764	-200,000	-0,019	-0,159
310,779	-200,000	-0,002	-0,188
311,793	600,495	-0,132	-0,227
312,808	411,756	-0,145	-0,213
313,822	-200,000	-0,058	-0,242
314,837	800,000	-0,088	-0,207
315,852	-120,432	-0,220	-0,025
316,866	800,000	-0,036	-0,080
317,881	-92,597	-0,132	-0,025
318,895	800,000	-0,096	-0,260
319,910	238,268	-0,223	-0,255
320,925	18,234	-0,219	-0,120
321,939	-11,267	-0,033	0,015
322,954	53,285	-0,219	-0,144
323,968	90,222	-0,011	-0,008
324,983	153,574	-0,265	-0,249
325,997	-46,885	-0,112	-0,037
327,012	379,345	-0,119	-0,168
328,027	190,352	-0,120	-0,124
329,041	800,000	-0,090	-0,173
330,056	1,384	-0,068	-0,033
331,070	75,695	-0,122	-0,088
332,085	55,661	-0,066	0,044
333,100	800,000	-0,076	-0,162
334,114	71,628	-0,214	-0,152
335,129	-20,756	-0,172	-0,072
336,143	135,711	-0,170	0,152
337,158	317,420	-0,081	-0,105
338,173	83,155	-0,080	0,060
339,187	739,436	-0,079	-0,146
340,202	123,287	-0,124	-0,107
341,216	425,975	-0,138	-0,205
342,231	252,078	-0,202	-0,236
343,246	-60,868	-0,255	-0,073
344,260	-200,000	-0,016	-0,119
345,275	324,293	-0,118	-0,155
346,289	299,402	-0,075	-0,095
347,304	168,433	-0,041	-0,040
348,319	110,710	-0,184	-0,151
349,333	-158,099	-0,149	0,006
350,348	-200,000	-0,016	-0,054
351,362	800,000	-0,055	-0,119
352,377	97,080	-0,076	0,060
353,392	266,111	-0,033	-0,040
354,406	-161,459	-0,180	-0,006
355,421	207,667	1312,543	1405,557
356,435	159,756	1473,018	1406,055
