DTS Sentinel unit serial number:	SN410029Multiplexer serial number:	ORYXHardware model number:	OX2-SRSoftware version number:	ORYX F/W v4,00 Oryx Data Collector v3.7.2.0data status	okinstallation	B3 Nyhavnadifferential loss correction	single-endedforward channel	channel 1reverse channel	N/Adate	2023/12/04time	10:27:30forward acquisition time	300,00reverse acquisition time	0,00gamma	499,1914k internal	0,3203k external	0,3203temperature offset calibration	1,0000default loss term (dB/km)	0,3820temperature slope calibration	1,0000multiplexer offset coefficient	1,0000multiplexer slope coefficient	1,0000fibre end	0,00T internal ref (°C)	13,56T ext. ref 1 (°C)	-0,87T ext. ref 2 (°C)	-0,90length (m)	temperature (°C)	Stokes	anti-Stokes-744,400	68,814	-0,295	-0,220
-743,385	800,000	0,069	0,207
-742,371	34,949	-0,319	-0,202
-741,356	-200,000	0,045	0,463
-740,342	167,764	-0,132	-0,137
-739,327	-200,000	0,082	0,340
-738,312	267,024	-0,225	-0,287
-737,298	800,000	-0,064	0,193
-736,283	-103,742	-0,218	-0,037
-735,269	800,000	0,091	0,209
-734,254	-2,341	-0,218	-0,111
-733,239	23,743	-0,200	0,119
-732,225	283,836	-0,204	-0,267
-731,210	-81,456	0,079	0,019
-730,196	228,860	0,095	-0,113
-729,181	-200,000	-0,004	-0,179
-728,167	-200,000	-0,003	0,130
-727,152	279,089	-0,057	-0,075
-726,137	-200,000	-0,005	0,073
-725,123	304,778	-0,035	-0,047
-724,108	-50,574	0,153	-0,052
-723,094	-111,505	-0,200	-0,029
-722,079	-70,515	0,108	-0,029
-721,064	-200,000	-0,019	-0,111
-720,050	-200,000	0,042	-0,203
-719,035	-86,744	-0,023	0,005
-718,021	-200,000	-0,040	-0,167
-717,006	261,807	-0,027	0,033
-715,991	-200,000	0,027	-0,115
-714,977	-200,000	-0,034	-0,131
-713,962	-165,010	-0,077	-0,002
-712,948	-200,000	-0,021	-0,178
-711,933	-67,147	-0,202	-0,058
-710,918	-61,201	0,167	-0,051
-709,904	-200,000	-0,016	-0,112
-708,889	-22,448	-0,049	0,021
-707,875	-200,000	0,012	-0,127
-706,860	-200,000	0,002	0,061
-705,845	-200,000	-0,003	-0,039
-704,831	-6,681	0,156	0,077
-703,816	578,667	-0,052	-0,092
-702,802	29,543	-0,093	-0,057
-701,787	166,131	0,034	0,034
-700,772	-85,105	-0,164	-0,037
-699,758	-117,869	-0,035	0,004
-698,743	81,935	0,052	0,041
-697,729	458,049	0,027	0,044
-696,714	120,183	-0,035	-0,031
-695,699	276,720	-0,062	-0,081
-694,685	-200,000	-0,033	-0,134
-693,670	-10,699	-0,144	-0,069
-692,656	336,599	-0,035	-0,050
-691,641	157,940	0,089	-0,090
-690,627	800,000	0,019	0,059
-689,612	349,083	-0,087	0,126
-688,597	105,560	0,032	0,028
-687,583	61,210	-0,141	-0,101
-686,568	800,000	-0,023	-0,067
-685,554	145,573	-0,027	-0,026
-684,539	-97,222	0,091	0,017
-683,524	87,187	0,035	-0,028
-682,510	-200,000	0,000	-0,045
-681,495	800,000	0,013	-0,033
-680,481	204,284	-0,096	-0,107
-679,466	-200,000	-0,020	-0,115
-678,451	21,856	-0,036	-0,021
-677,437	-200,000	0,012	0,073
-676,422	-21,129	0,066	-0,029
-675,408	757,992	0,042	0,083
-674,393	42,265	-0,035	-0,023
-673,378	234,739	-0,111	-0,133
-672,364	454,228	-0,044	-0,071
-671,349	-200,000	0,008	-0,090
-670,335	-200,000	-0,027	0,090
-669,320	3,272	-0,085	-0,045
-668,305	-55,727	0,078	-0,025
-667,291	-200,000	0,006	-0,095
-666,276	-200,000	-0,004	0,074
-665,262	747,643	-0,053	-0,103
-664,247	351,628	-0,021	0,030
-663,232	-200,000	-0,003	-0,110
-662,218	-61,906	0,078	0,023
-661,203	-200,000	-0,024	0,119
-660,189	-200,000	-0,006	-0,057
-659,174	3,706	-0,183	0,097
-658,159	800,000	-0,078	-0,157
-657,145	800,000	0,017	-0,045
-656,130	18,030	-0,078	0,045
-655,116	-200,000	-0,010	-0,041
-654,101	29,441	0,086	-0,053
-653,086	-200,000	-0,013	0,111
-652,072	795,209	-0,084	-0,168
-651,057	-132,703	-0,204	0,019
-650,043	-49,522	-0,017	-0,006
-649,028	-200,000	0,046	-0,176
-648,014	-14,635	0,059	-0,027
-646,999	800,000	0,027	0,056
-645,984	-1,639	-0,065	-0,033
-644,970	233,211	-0,129	-0,154
-643,955	-52,312	-0,174	-0,058
-642,941	-200,000	0,018	0,077
-641,926	-132,003	-0,036	-0,003
-640,911	236,348	0,022	-0,026
-639,897	-19,479	0,066	-0,029
-638,882	800,000	-0,015	0,034
-637,868	-137,459	-0,156	0,013
-636,853	-200,000	-0,013	-0,092
-635,838	576,273	-0,034	0,061
-634,824	-32,149	0,077	0,031
-633,809	800,000	-0,056	0,123
-632,795	4,736	-0,099	0,052
-631,780	28,582	-0,074	-0,045
-630,765	61,423	-0,093	-0,067
-629,751	20,521	-0,081	0,047
-628,736	127,845	-0,026	0,024
-627,722	800,000	0,018	0,038
-626,707	-73,713	-0,113	0,030
-625,692	166,867	0,024	0,025
-624,678	800,000	-0,043	0,094
-623,663	800,000	0,072	0,193
-622,649	-59,925	-0,177	-0,054
-621,634	-200,000	0,013	0,054
-620,619	-200,000	0,001	0,117
-619,605	-200,000	-0,007	0,079
-618,590	-200,000	-0,006	-0,122
-617,576	-200,000	-0,006	0,031
-616,561	-172,167	-0,054	0,001
-615,546	86,674	0,117	-0,093
-614,532	-200,000	0,012	-0,138
-613,517	-200,000	0,003	-0,013
-612,503	-200,000	0,005	-0,181
-611,488	288,818	0,044	0,058
-610,474	695,112	-0,044	0,083
-609,459	800,000	-0,038	0,095
-608,444	189,272	-0,119	-0,129
-607,430	128,436	0,125	-0,115
-606,415	-32,285	-0,151	0,061
-605,401	332,521	-0,077	0,108
-604,386	140,161	0,105	-0,101
-603,371	-200,000	-0,010	-0,092
-602,357	-200,000	0,005	-0,058
-601,342	7,892	-0,022	-0,012
-600,328	800,000	-0,001	-0,003
-599,313	800,000	-0,019	0,050
-598,298	-38,327	-0,156	-0,059
-597,284	-63,391	0,100	-0,030
-596,269	-200,000	0,001	-0,055
-595,255	-200,000	-0,019	0,069
-594,240	51,295	0,051	0,035
-593,225	-89,631	0,037	-0,008
-592,211	70,590	-0,101	-0,075
-591,196	-28,903	0,101	-0,042
-590,182	-91,034	0,155	-0,032
-589,167	-17,447	0,107	-0,049
-588,152	265,025	0,071	0,089
-587,138	-200,000	0,021	-0,083
-586,123	134,614	0,008	-0,008
-585,109	800,000	-0,046	-0,098
-584,094	-200,000	0,008	-0,047
-583,079	285,572	-0,042	-0,055
-582,065	-73,457	0,107	0,028
-581,050	73,577	-0,038	-0,028
-580,036	793,631	0,026	0,053
-579,021	-200,000	-0,027	-0,111
-578,006	-97,429	0,038	-0,007
-576,992	184,355	0,015	-0,016
-575,977	423,802	0,028	-0,043
-574,963	2,723	0,033	0,017
-573,948	-200,000	-0,012	0,142
-572,934	475,818	-0,031	-0,050
-571,919	63,729	-0,143	-0,103
-570,904	800,000	-0,042	-0,119
-569,890	51,342	-0,113	0,077
-568,875	-200,000	-0,001	-0,066
-567,861	-111,322	0,083	-0,012
-566,846	175,568	0,007	-0,007
-565,831	38,128	-0,076	-0,049
-564,817	-200,000	-0,064	-0,000
-563,802	-34,679	-0,134	-0,053
-562,788	800,000	0,024	-0,065
-561,773	41,154	-0,042	-0,027
-560,758	800,000	0,039	0,122
-559,744	744,353	0,039	0,076
-558,729	-200,000	0,006	0,053
-557,715	-17,208	-0,031	0,014
-556,700	800,000	-0,035	-0,074
-555,685	-109,960	-0,168	-0,025
-554,671	-200,000	-0,029	0,104
-553,656	669,903	0,057	0,108
-552,642	-86,538	0,050	-0,011
-551,627	-102,389	0,133	0,023
-550,612	507,599	-0,104	-0,175
-549,598	141,539	-0,017	-0,016
-548,583	74,980	-0,062	-0,047
-547,569	234,549	0,031	-0,036
-546,554	-84,168	0,024	0,005
-545,539	-17,526	-0,114	0,052
-544,525	800,000	-0,017	-0,042
-543,510	-128,926	-0,095	-0,009
-542,496	-81,856	0,063	-0,015
-541,481	800,000	-0,021	0,043
-540,466	-200,000	-0,051	0,175
-539,452	-133,320	0,060	-0,005
-538,437	116,337	0,088	-0,078
-537,423	-128,342	-0,074	0,007
-536,408	380,734	0,048	0,071
-535,393	-11,444	-0,144	0,068
-534,379	434,029	0,021	-0,032
-533,364	800,000	0,016	0,050
-532,350	-29,067	0,128	-0,053
-531,335	41,339	0,061	0,040
-530,321	-89,693	0,061	-0,013
-529,306	-200,000	-0,039	0,124
-528,291	800,000	0,037	-0,076
-527,277	412,512	0,055	0,084
-526,262	-200,000	0,008	-0,036
-525,248	-200,000	-0,018	-0,068
-524,233	85,348	-0,037	0,029
-523,218	-99,932	-0,041	0,007
-522,204	341,408	0,008	-0,011
-521,189	-29,694	-0,046	-0,019
-520,175	132,525	-0,068	-0,063
-519,160	-1,930	0,072	-0,037
-518,145	208,747	0,051	-0,057
-517,131	-136,764	0,243	0,020
-516,116	-200,000	-0,002	0,100
-515,102	-200,000	-0,012	-0,048
-514,087	-200,000	0,014	0,083
-513,072	25,735	0,027	0,016
-512,058	-45,046	-0,060	-0,021
-511,043	-66,183	-0,112	0,032
-510,029	-200,000	-0,011	-0,122
-509,014	328,684	0,079	-0,109
-507,999	-107,729	0,052	0,008
-506,985	-200,000	0,005	-0,091
-505,970	68,798	-0,111	-0,082
-504,956	800,000	0,013	-0,027
-503,941	539,341	0,026	0,045
-502,926	-200,000	-0,024	0,082
-501,912	-200,000	-0,022	0,173
-500,897	280,315	0,084	0,108
-499,883	-200,000	-0,011	-0,111
-498,868	-200,000	-0,008	0,030
-497,853	-200,000	-0,008	-0,055
-496,839	794,001	-0,020	0,039
-495,824	-171,396	0,154	0,004
-494,810	206,167	0,050	0,056
-493,795	-126,326	-0,113	0,012
-492,781	-77,800	0,068	0,017
-491,766	-200,000	0,004	-0,023
-490,751	215,727	-0,052	-0,060
-489,737	-55,170	0,052	0,017
-488,722	256,049	0,013	-0,016
-487,708	-200,000	-0,011	0,055
-486,693	-44,897	-0,055	0,020
-485,678	800,000	-0,023	0,055
-484,664	800,000	-0,034	0,070
-483,649	800,000	0,041	-0,109
-482,635	-39,824	-0,020	0,007
-481,620	93,079	0,064	-0,052
-480,605	225,324	0,037	0,043
-479,591	255,787	-0,051	-0,063
-478,576	134,795	-0,092	-0,086
-477,562	46,226	0,098	0,065
-476,547	704,535	0,030	-0,058
-475,532	-84,523	-0,172	-0,039
-474,518	-200,000	0,034	-0,121
-473,503	-200,000	-0,014	-0,101
-472,489	800,000	0,008	0,025
-471,474	243,159	0,031	0,037
-470,459	-77,847	-0,153	-0,038
-469,445	634,937	-0,023	-0,042
-468,430	29,068	0,048	0,029
-467,416	-200,000	-0,002	0,028
-466,401	325,135	-0,143	0,197
-465,386	115,737	0,115	-0,101
-464,372	-154,235	-0,137	0,007
-463,357	324,394	-0,039	0,053
-462,343	165,490	-0,057	-0,058
-461,328	616,220	-0,051	-0,092
-460,313	1,707	0,006	-0,003
-459,299	229,493	0,101	0,119
-458,284	800,000	-0,035	-0,093
-457,270	244,697	-0,044	-0,053
-456,255	-200,000	-0,004	0,144
-455,241	-92,242	-0,097	0,020
-454,226	800,000	0,029	-0,069
-453,211	571,724	0,052	0,092
-452,197	-40,954	-0,006	-0,002
-451,182	-2,201	0,065	-0,033
-450,168	358,268	0,083	0,120
-449,153	-16,570	-0,123	0,056
-448,138	23,607	-0,142	-0,084
-447,124	-200,000	0,014	0,097
-446,109	292,276	0,093	0,123
-445,095	385,165	0,058	-0,085
-444,080	-120,978	0,127	0,015
-443,065	-93,435	-0,067	0,013
-442,051	255,734	0,060	0,074
-441,036	800,000	-0,037	0,080
-440,022	-126,435	-0,032	-0,003
-439,007	-121,450	0,044	0,005
-437,992	-73,029	0,039	0,010
-436,978	800,000	-0,054	-0,115
-435,963	-200,000	0,017	0,080
-434,949	779,892	-0,064	0,126
-433,934	245,930	0,069	0,084
-432,919	30,850	-0,065	0,040
-431,905	154,279	0,062	-0,061
-430,890	-168,855	0,145	0,004
-429,876	461,846	0,042	0,068
-428,861	95,978	-0,044	-0,036
-427,846	148,113	0,014	-0,013
-426,832	-200,000	0,002	-0,074
-425,817	-74,318	-0,062	-0,016
-424,803	-142,019	-0,094	0,007
-423,788	60,799	0,047	-0,033
-422,773	-100,962	0,171	0,030
-421,759	600,740	0,168	0,300
-420,744	529,496	-0,042	0,072
-419,730	800,000	-0,051	0,129
-418,715	800,000	-0,027	-0,076
-417,701	-84,528	-0,070	0,016
-416,686	800,000	-0,031	-0,087
-415,671	-8,198	0,015	-0,007
-414,657	-200,000	-0,011	0,104
-413,642	-200,000	0,005	-0,032
-412,628	418,148	0,008	0,012
-411,613	-65,103	-0,088	0,025
-410,598	800,000	0,025	-0,061
-409,584	-200,000	0,022	-0,079
-408,569	-23,043	0,110	0,047
-407,555	-76,861	-0,085	-0,021
-406,540	800,000	-0,059	-0,177
-405,525	57,213	0,112	-0,078
-404,511	17,217	-0,070	-0,040
-403,496	66,899	-0,105	-0,077
-402,482	31,381	0,068	0,042
-401,467	-111,789	0,066	0,010
-400,452	-12,311	0,075	0,035
-399,438	-72,311	-0,014	-0,004
-398,423	-200,000	-0,010	0,094
-397,409	329,871	-0,116	-0,161
-396,394	800,000	0,004	0,011
-395,379	-40,462	-0,004	0,002
-394,365	-112,286	0,076	0,011
-393,350	369,362	0,080	0,117
-392,336	36,858	0,045	-0,029
-391,321	800,000	-0,047	-0,114
-390,306	-64,950	-0,081	0,023
-389,292	-200,000	0,005	-0,058
-388,277	262,270	-0,012	-0,015
-387,263	440,577	-0,061	0,096
-386,248	800,000	-0,025	-0,065
-385,233	227,134	0,058	0,068
-384,219	-200,000	0,012	0,108
-383,204	-52,072	0,128	-0,042
-382,190	123,974	-0,079	0,071
-381,175	800,000	0,042	-0,107
-380,160	-200,000	-0,015	0,053
-379,146	-200,000	-0,026	0,086
-378,131	-200,000	-0,004	0,057
-377,117	-200,000	0,014	0,052
-376,102	800,000	0,005	-0,013
-375,088	-26,221	0,061	0,026
-374,073	-144,399	0,029	0,002
-373,058	-90,851	-0,143	-0,029
-372,044	-4,119	0,074	0,037
-371,029	59,523	0,108	0,076
-370,015	-154,803	-0,019	-0,001
-369,000	33,079	-0,132	0,082
-367,985	92,521	0,020	0,016
-366,971	254,251	0,062	-0,076
-365,956	614,083	-0,057	-0,103
-364,942	-8,205	0,055	0,026
-363,927	78,408	0,086	-0,066
-362,912	-14,777	0,057	-0,026
-361,898	443,780	0,067	-0,105
-360,883	385,474	-0,072	-0,107
-359,869	-200,000	-0,011	0,169
-358,854	-116,640	0,045	0,006
-357,839	-200,000	0,018	-0,129
-356,825	119,151	0,028	0,025
-355,810	74,446	-0,069	0,052
-354,796	24,812	-0,058	0,034
-353,781	-2,917	-0,078	0,039
-352,766	800,000	0,029	-0,062
-351,752	800,000	0,013	0,034
-350,737	-200,000	-0,015	0,150
-349,723	-101,796	0,105	0,018
-348,708	663,632	-0,056	-0,104
-347,693	68,562	-0,175	-0,128
-346,679	-140,724	-0,073	0,005
-345,664	800,000	0,036	-0,084
-344,650	84,991	-0,040	-0,032
-343,635	-158,979	0,123	-0,005
-342,620	90,275	-0,070	-0,056
-341,606	251,779	0,057	-0,070
-340,591	-200,000	0,016	-0,095
-339,577	548,658	-0,064	0,111
-338,562	-40,023	-0,034	0,013
-337,548	80,969	-0,046	0,036
-336,533	593,225	0,035	0,062
-335,518	321,245	-0,037	-0,050
-334,504	82,843	0,160	-0,124
-333,489	61,248	-0,016	-0,011
-332,475	414,285	-0,006	0,010
-331,460	-200,000	-0,028	0,123
-330,445	35,027	0,165	-0,103
-329,431	42,483	-0,043	-0,028
-328,416	-118,255	0,122	0,015
-327,402	24,998	-0,097	0,058
-326,387	-142,555	-0,066	0,005
-325,372	-200,000	-0,003	0,040
-324,358	800,000	-0,076	-0,155
-323,343	128,249	0,011	0,010
-322,329	-185,693	0,130	-0,001
-321,314	-200,000	-0,053	0,201
-320,299	218,219	-0,035	-0,040
-319,285	35,431	0,077	-0,048
-318,270	800,000	0,049	0,125
-317,256	800,000	0,062	0,139
-316,241	165,974	-0,050	0,050
-315,226	39,650	0,014	0,009
-314,212	252,562	0,060	0,073
-313,197	49,044	-0,117	0,078
-312,183	-33,801	0,117	0,046
-311,168	-182,389	0,030	0,000
-310,153	-23,664	-0,075	-0,032
-309,139	-73,029	-0,121	0,031
-308,124	517,393	-0,068	0,114
-307,110	17,010	0,079	-0,045
-306,095	573,240	-0,042	0,074
-305,080	31,314	-0,017	0,010
-304,066	-200,000	-0,004	0,039
-303,051	529,116	-0,028	-0,047
-302,037	292,078	-0,071	-0,093
-301,022	-200,000	0,008	-0,092
-300,008	-163,112	-0,046	0,002
-298,993	800,000	-0,028	-0,082
-297,978	-2,066	0,062	0,031
-296,964	341,827	-0,049	-0,069
-295,949	-153,147	0,078	0,004
-294,935	-15,631	-0,062	-0,028
-293,920	-104,342	-0,079	0,013
-292,905	-8,145	0,093	0,044
-291,891	-200,000	0,025	-0,082
-290,876	19,091	-0,040	-0,023
-289,862	218,629	0,105	0,120
-288,847	800,000	0,066	-0,132
-287,832	800,000	0,050	-0,131
-286,818	-63,359	-0,116	-0,034
-285,803	336,716	0,006	-0,008
-284,789	-200,000	-0,017	0,070
-283,774	-200,000	0,007	0,043
-282,759	403,114	0,077	0,116
-281,745	297,312	-0,073	-0,095
-280,730	41,011	0,073	0,047
-279,716	616,351	-0,054	-0,097
-278,701	800,000	0,043	-0,096
-277,686	-200,000	-0,005	-0,087
-276,672	-136,468	0,133	-0,011
-275,657	755,399	0,013	-0,026
-274,643	-200,000	-0,011	0,091
-273,628	-180,530	0,117	-0,002
-272,613	-53,312	-0,104	-0,034
-271,599	-200,000	0,034	0,138
-270,584	413,003	0,050	0,077
-269,570	16,281	-0,189	0,106
-268,555	-200,000	-0,011	0,085
-267,540	-27,531	-0,069	-0,029
-266,526	542,300	-0,079	-0,135
-265,511	-115,784	0,170	-0,022
-264,497	-200,000	0,008	-0,041
-263,482	42,029	0,133	0,086
-262,467	66,724	0,053	-0,038
-261,453	-200,000	-0,011	0,046
-260,438	-96,794	0,073	-0,014
-259,424	-200,000	-0,052	-0,225
-258,409	-118,406	-0,037	0,005
-257,395	-200,000	0,002	0,080
-256,380	-59,794	0,134	-0,041
-255,365	397,349	0,047	0,070
-254,351	-72,597	0,038	0,010
-253,336	-200,000	0,011	0,047
-252,322	-200,000	0,001	0,003
-251,307	-200,000	-0,005	-0,044
-250,292	138,594	-0,029	0,027
-249,278	-44,002	-0,088	0,031
-248,263	-200,000	0,012	0,081
-247,249	-200,000	-0,020	0,074
-246,234	800,000	0,067	-0,145
-245,219	372,593	0,027	-0,039
-244,205	-184,709	0,062	-0,001
-243,190	-20,895	0,097	-0,042
-242,176	-200,000	0,000	-0,007
-241,161	-135,117	-0,050	0,004
-240,146	-115,969	-0,067	-0,009
-239,132	64,836	-0,022	0,016
-238,117	-200,000	-0,004	0,082
-237,103	-112,052	-0,070	-0,010
-236,088	235,756	-0,090	0,106
-235,073	268,588	0,064	0,080
-234,059	172,293	0,079	-0,081
-233,044	28,935	0,106	0,064
-232,030	-200,000	0,014	0,054
-231,015	106,645	0,086	-0,072
-230,000	-87,536	-0,190	0,041
-228,986	-200,000	-0,016	-0,120
-227,971	-69,606	0,040	0,011
-226,957	92,733	0,090	0,072
-225,942	800,000	0,014	0,043
-224,927	-48,799	-0,152	0,052
-223,913	-72,487	-0,035	0,009
-222,898	37,151	0,071	0,045
-221,884	-200,000	0,004	0,059
-220,869	-200,000	0,048	-0,197
-219,855	-47,069	0,100	0,035
-218,840	155,900	0,068	0,067
-217,825	-200,000	0,007	0,070
-216,811	49,325	-0,158	-0,106
-215,796	-200,000	0,000	-0,049
-214,782	800,000	-0,030	0,071
-213,767	168,516	-0,042	-0,042
-212,752	495,555	0,059	0,097
-211,738	-200,000	-0,011	0,061
-210,723	-65,325	0,061	0,017
-209,709	-200,000	-0,007	0,090
-208,694	800,000	0,023	-0,055
-207,679	800,000	-0,021	0,048
-206,665	-200,000	0,000	-0,039
-205,650	272,132	0,052	0,066
-204,636	-10,944	0,046	0,021
-203,621	800,000	0,050	0,099
-202,606	-45,043	0,050	-0,018
-201,592	267,856	0,071	-0,089
-200,577	-200,000	-0,031	0,112
-199,563	-200,000	-0,016	0,054
-198,548	800,000	-0,058	0,137
-197,533	-29,663	-0,059	0,024
-196,519	800,000	0,047	0,094
-195,504	75,946	0,100	0,075
-194,490	-200,000	-0,055	-0,225
-193,475	43,313	-0,049	0,031
-192,460	138,266	0,047	0,044
-191,446	-114,676	-0,040	-0,005
-190,431	100,557	-0,116	-0,096
-189,417	348,750	-0,022	-0,031
-188,402	140,438	0,041	-0,038
-187,387	-10,439	-0,103	-0,048
-186,373	-200,000	-0,004	-0,071
-185,358	-34,617	0,058	0,023
-184,344	-200,000	-0,011	0,059
-183,329	-113,935	0,038	-0,005
-182,315	46,628	0,063	-0,041
-181,300	-200,000	-0,015	0,046
-180,285	-149,138	0,109	0,006
-179,271	358,839	0,050	-0,071
-178,256	-88,088	0,039	-0,008
-177,242	311,189	0,023	0,031
-176,227	-70,580	0,157	-0,042
-175,212	-200,000	-0,007	-0,071
-174,198	-200,000	-0,008	-0,065
-173,183	800,000	-0,027	-0,063
-172,169	-200,000	0,012	-0,164
-171,154	-85,472	-0,097	-0,021
-170,139	-200,000	0,031	-0,096
-169,125	181,194	0,098	-0,103
-168,110	225,515	-0,123	0,141
-167,096	-2,658	-0,021	-0,010
-166,081	-200,000	-0,001	0,048
-165,066	800,000	0,053	-0,134
-164,052	-55,686	0,057	0,018
-163,037	735,811	-0,033	0,063
-162,023	274,828	-0,046	-0,058
-161,008	1,280	-0,047	0,024
-159,993	-12,221	0,036	0,017
-158,979	576,221	0,038	-0,066
-157,964	11,172	0,097	0,052
-156,950	800,000	-0,051	-0,144
-155,935	800,000	0,013	-0,027
-154,920	506,233	0,058	0,095
-153,906	-200,000	-0,007	0,089
-152,891	800,000	-0,037	0,098
-151,877	-200,000	-0,007	-0,112
-150,862	421,001	0,045	-0,069
-149,847	-200,000	0,033	-0,116
-148,833	4,378	0,070	0,036
-147,818	800,000	0,034	0,106
-146,804	121,661	-0,105	-0,093
-145,789	511,555	0,043	0,072
-144,775	599,224	0,008	0,014
-143,760	-200,000	0,010	0,067
-142,745	-200,000	0,005	0,018
-141,731	-200,000	-0,024	-0,099
-140,716	523,182	-0,072	0,120
-139,702	-200,000	0,012	0,105
-138,687	-200,000	0,035	0,160
-137,672	800,000	-0,050	-0,154
-136,658	173,137	0,050	0,051
-135,643	233,027	0,070	-0,081
-134,629	67,533	-0,004	0,003
-133,614	-37,752	-0,136	-0,051
-132,599	216,166	0,063	-0,071
-131,585	-32,680	-0,078	-0,031
-130,570	-83,926	-0,101	0,023
-129,556	519,408	0,023	0,039
-128,541	149,320	-0,108	0,104
-127,526	-19,445	0,020	0,009
-126,512	-200,000	0,023	-0,096
-125,497	397,197	-0,048	0,071
-124,483	-200,000	0,004	0,095
-123,468	-174,963	-0,154	-0,003
-122,453	-200,000	-0,020	0,125
-121,439	800,000	0,051	0,117
-120,424	12,037	-0,054	-0,030
-119,410	445,464	-0,052	0,081
-118,395	576,543	0,023	-0,040
-117,380	40,620	0,083	0,053
-116,366	-200,000	-0,009	-0,036
-115,351	-200,000	0,051	-0,180
-114,337	800,000	-0,042	0,126
-113,322	560,291	0,041	-0,071
-112,307	19,598	-0,053	-0,030
-111,293	800,000	0,022	0,061
-110,278	-200,000	-0,015	0,065
-109,264	800,000	0,039	0,106
-108,249	113,541	-0,059	-0,051
-107,234	127,141	-0,143	-0,129
-106,220	800,000	-0,075	-0,222
-105,205	-77,055	-0,054	-0,013
-104,191	-52,084	0,186	-0,061
-103,176	-10,217	-0,046	-0,021
-102,162	-82,753	-0,091	-0,021
-101,147	127,892	0,034	-0,031
-100,132	800,000	-0,052	-0,138
-99,118	800,000	-0,033	0,089
-98,103	254,389	-0,031	-0,037
-97,089	800,000	-0,009	0,021
-96,074	-200,000	0,030	0,131
-95,059	-200,000	-0,039	-0,124
-94,045	174,635	-0,078	-0,080
-93,030	-59,888	0,061	-0,018
-92,016	692,276	-0,041	0,077
-91,001	66,433	0,121	-0,087
-89,986	-2,970	0,042	0,021
-88,972	99,535	0,069	-0,057
-87,957	800,000	0,032	0,081
-86,943	314,748	0,037	0,050
-85,928	-119,924	-0,170	0,020
-84,913	-96,093	0,054	0,010
-83,899	-56,528	-0,115	-0,036
-82,884	-200,000	-0,011	-0,051
-81,870	406,906	0,013	-0,020
-80,855	61,342	0,103	0,072
-79,840	136,793	0,132	-0,122
-78,826	413,299	-0,037	-0,056
-77,811	118,241	0,025	0,022
-76,797	270,563	-0,018	0,022
-75,782	188,416	0,092	0,097
-74,767	-64,627	0,122	-0,035
-73,753	-7,838	0,067	0,032
-72,738	76,653	-0,068	-0,051
-71,724	-99,096	-0,092	0,016
-70,709	7,092	-0,190	0,100
-69,694	188,349	0,080	0,084
-68,680	-59,799	-0,070	-0,021
-67,665	312,440	-0,077	0,102
-66,651	-200,000	0,054	0,180
-65,636	72,535	0,033	0,024
-64,622	800,000	-0,023	-0,052
-63,607	75,805	-0,086	-0,064
-62,592	-87,739	0,055	-0,012
-61,578	102,940	0,059	-0,049
-60,563	278,215	0,049	0,062
-59,549	95,872	0,079	0,064
-58,534	-33,465	-1,783	-0,694
-57,519	444,613	-1,355	-2,111
-56,505	-200,000	-0,546	-4,583
-55,490	196,601	1,132	1,222
-54,476	800,000	4,748	10,853
-53,461	-200,000	19,072	315,966
-52,446	-200,000	739,121	2330,926
-51,432	576,360	1654,574	2872,003
-50,417	78,857	1670,320	1263,563
-49,403	21,562	1543,501	886,243
-48,388	15,429	1465,783	811,828
-47,373	17,803	1456,034	817,859
-46,359	16,700	1445,912	806,856
-45,344	13,665	1441,396	789,777
-44,330	13,634	1439,462	788,540
-43,315	13,618	1437,784	787,514
-42,300	13,617	1436,067	786,534
-41,286	13,606	1434,983	785,858
-40,271	13,603	1433,681	785,098
-39,257	13,603	1432,251	784,287
-38,242	13,650	1431,125	783,860
-37,227	13,625	1429,876	783,026
-36,213	13,648	1428,522	782,365
-35,198	13,678	1427,201	781,753
-34,184	13,714	1426,250	781,371
-33,169	13,652	1425,205	780,473
-32,154	13,681	1423,892	779,863
-31,140	13,711	1422,535	779,231
-30,125	13,706	1421,471	778,592
-29,111	13,704	1420,369	777,946
-28,096	13,631	1419,318	776,998
-27,082	13,571	1418,296	776,124
-26,067	13,611	1417,092	775,623
-25,052	13,559	1416,198	774,858
-24,038	13,590	1415,317	774,491
-23,023	13,561	1414,152	773,687
-22,009	13,543	1413,175	773,037
-20,994	13,540	1412,207	772,462
-19,979	13,550	1411,233	771,944
-18,965	13,522	1410,420	771,341
-17,950	13,518	1409,479	770,777
-16,936	13,505	1408,499	770,149
-15,921	13,527	1407,277	769,551
-14,906	13,474	1406,528	768,863
-13,892	13,501	1405,418	768,351
-12,877	13,456	1404,820	767,785
-11,863	13,498	1403,856	767,424
-10,848	13,424	1403,117	766,645
-9,833	13,476	1402,132	766,317
-8,819	13,427	1401,253	765,582
-7,804	13,397	1400,253	764,861
-6,790	13,384	1399,288	764,246
-5,775	13,410	1398,020	763,642
-4,760	13,442	1397,018	763,214
-3,746	13,398	1396,455	762,671
-2,731	13,393	1395,590	762,146
-1,717	13,402	1394,450	761,533
-0,702	13,355	1392,946	760,466
0,313	17,260	1309,967	733,225
1,327	33,602	704,197	431,919
2,342	51,379	123,327	82,688
3,356	1,120	16,648	8,420
4,371	13,267	3,156	1,724
5,386	-62,236	0,709	0,207
6,400	800,000	-0,095	0,219
7,415	196,775	-0,238	-0,257
8,429	16,481	-0,353	-0,197
9,444	123,733	-0,267	-0,237
10,459	101,493	-0,354	-0,291
11,473	32,377	-0,309	-0,188
12,488	147,280	-0,233	-0,222
13,502	8,221	-0,298	-0,158
14,517	71,415	-0,213	-0,156
15,531	217,820	-0,331	-0,373
16,546	79,213	-0,377	-0,285
17,561	210,809	-0,270	-0,301
18,575	331,435	-0,204	-0,278
19,590	-130,887	-0,281	-0,026
20,604	31,150	-0,302	-0,182
21,619	8,398	-0,538	-0,285
22,634	209,010	-0,424	-0,469
23,648	177,133	-0,355	-0,365
24,663	152,002	-0,405	-0,390
25,677	104,277	-0,332	-0,276
26,692	5,917	-0,470	-0,245
27,707	93,369	-0,320	-0,255
28,721	3,162	-0,417	-0,213
29,736	25,009	-0,436	-0,255
30,750	139,018	-0,398	-0,369
31,765	638,383	-0,276	-0,496
32,780	35,622	-0,323	-0,200
33,794	112,322	-0,296	-0,252
34,809	152,273	-0,202	-0,194
35,823	42,016	-0,464	-0,297
36,838	158,818	-0,312	-0,306
37,853	43,390	-0,414	-0,266
38,867	244,350	-0,294	-0,348
39,882	486,194	-0,169	-0,273
40,896	128,802	-0,225	-0,202
41,911	161,020	-0,310	-0,305
42,926	-13,186	-0,365	-0,166
43,940	-44,165	-0,434	-0,153
44,955	168,617	-0,303	-0,304
45,969	3,914	-0,427	-0,219
46,984	-18,409	-0,427	-0,187
47,999	-4,177	-0,349	-0,170
49,013	75,037	-0,402	-0,298
50,028	-76,293	-0,329	-0,081
51,042	116,624	-0,454	-0,392
52,057	516,563	-0,173	-0,285
53,071	-23,594	-0,507	-0,213
54,086	31,663	-0,406	-0,245
55,101	213,633	-0,232	-0,258
56,115	-14,931	-0,413	-0,186
57,130	69,701	-0,418	-0,303
58,144	29,258	-0,371	-0,221
59,159	20,981	-0,423	-0,241
60,174	307,675	-0,334	-0,439
61,188	108,849	-0,381	-0,320
62,203	-34,842	-0,289	-0,111
63,217	302,390	-0,168	-0,219
64,232	-33,608	-0,394	-0,152
65,247	-3,194	-0,234	-0,114
66,261	165,112	-0,392	-0,390
67,276	150,407	-0,250	-0,239
68,290	121,737	-0,317	-0,278
69,305	-48,387	-0,148	-0,050
70,320	68,568	-0,280	-0,202
71,334	317,284	-0,211	-0,281
72,349	40,773	-0,354	-0,224
73,363	154,746	-0,309	-0,299
74,378	141,192	-0,205	-0,191
75,393	126,549	-0,279	-0,248
76,407	-70,092	-0,312	-0,083
77,422	-53,110	-0,259	-0,083
78,436	127,937	-0,180	-0,161
79,451	66,395	-0,342	-0,243
80,466	-73,632	-0,365	-0,093
81,480	3,805	-0,293	-0,150
82,495	-18,725	-0,198	-0,086
83,509	-18,633	-0,314	-0,137
84,524	-30,939	-0,174	-0,069
85,539	-12,797	-0,437	-0,199
86,553	5,832	-0,364	-0,188
87,568	170,494	-0,305	-0,307
88,582	63,557	-0,307	-0,216
89,597	107,356	-0,237	-0,198
90,611	-30,147	-0,338	-0,134
91,626	38,428	-0,258	-0,161
92,641	-20,899	-0,270	-0,116
93,655	19,376	-0,275	-0,155
94,670	197,306	-0,255	-0,273
95,684	15,117	-0,279	-0,153
96,699	91,283	-0,219	-0,173
97,714	591,299	-0,184	-0,320
98,728	98,479	-0,264	-0,213
99,743	42,958	-0,249	-0,159
100,757	90,042	-0,212	-0,166
101,772	24,372	-0,334	-0,193
102,787	30,352	-0,244	-0,146
103,801	134,105	-0,310	-0,282
104,816	765,029	-0,189	-0,362
105,830	114,369	-0,183	-0,156
106,845	188,850	-0,245	-0,257
107,860	-17,272	-0,196	-0,086
108,874	-13,319	-0,297	-0,135
109,889	83,421	-0,304	-0,232
110,903	194,821	-0,301	-0,320
111,918	47,503	-0,355	-0,231
112,933	-101,583	-0,207	0,035
113,947	292,341	-0,193	-0,247
114,962	-11,851	-0,355	-0,163
115,976	-2,687	-0,257	-0,125
116,991	195,298	-0,240	-0,255
118,006	40,211	-0,299	-0,188
119,020	-103,757	-0,199	-0,032
120,035	14,506	-0,225	-0,123
121,049	393,063	-0,202	-0,295
122,064	174,840	-0,146	-0,148
123,079	194,680	-0,197	-0,209
124,093	-21,347	-0,264	-0,112
125,108	138,399	-0,283	-0,260
126,122	-113,784	-0,192	-0,026
127,137	-116,451	-0,264	-0,034
128,151	79,293	-0,220	-0,165
129,166	-8,547	-0,337	-0,158
130,181	196,632	-0,231	-0,247
131,195	-44,531	-0,202	-0,070
132,210	348,335	-0,216	-0,298
133,224	88,825	-0,250	-0,195
134,239	-35,145	-0,235	-0,089
135,254	-32,371	-0,313	-0,122
136,268	182,516	-0,220	-0,227
137,283	-21,049	-0,220	-0,094
138,297	248,149	-0,174	-0,206
139,312	76,304	-0,288	-0,213
140,327	6,477	-0,323	-0,167
141,341	-135,759	-0,112	-0,009
142,356	74,203	-0,247	-0,181
143,370	282,035	-0,258	-0,324
144,385	216,304	-0,265	-0,295
145,400	56,497	-0,233	-0,158
146,414	20,397	-0,403	-0,227
147,429	-31,060	-0,284	-0,111
148,443	-14,727	-0,274	-0,122
149,458	96,972	-0,196	-0,157
150,473	86,605	-0,272	-0,209
151,487	-14,744	-0,302	-0,135
152,502	157,650	-0,238	-0,231
153,516	152,736	-0,197	-0,188
154,531	140,260	-0,279	-0,257
155,546	480,727	-0,200	-0,317
156,560	338,118	-0,208	-0,283
157,575	33,849	-0,250	-0,152
158,589	634,186	-0,094	-0,166
159,604	17,292	-0,312	-0,172
160,619	497,624	-0,257	-0,414
161,633	-42,492	-0,415	-0,147
162,648	-44,057	-0,286	-0,100
163,662	-98,205	-0,207	-0,037
164,677	-30,234	-0,288	-0,114
165,692	220,377	-0,173	-0,194
166,706	144,779	-0,206	-0,192
167,721	180,222	-0,260	-0,266
168,735	33,936	-0,130	-0,079
169,750	184,113	-0,264	-0,272
170,764	3,405	-0,268	-0,136
171,779	162,707	-0,199	-0,195
172,794	800,000	-0,109	-0,243
173,808	151,820	-0,159	-0,151
174,823	141,893	-0,229	-0,211
175,837	-2,569	-0,369	-0,179
176,852	159,409	-0,188	-0,182
177,867	568,124	-0,135	-0,229
178,881	109,423	-0,145	-0,121
179,896	-13,534	-0,241	-0,108
180,910	-115,369	-0,290	-0,038
181,925	-102,612	-0,200	-0,033
182,940	124,692	-0,284	-0,249
183,954	-64,720	-0,188	-0,053
184,969	342,396	-0,244	-0,333
185,983	446,567	-0,210	-0,323
186,998	254,894	-0,138	-0,165
188,013	800,000	-0,106	-0,253
189,027	17,095	-0,294	-0,162
190,042	29,726	-0,221	-0,130
191,056	351,393	-0,142	-0,196
192,071	-154,166	-0,295	-0,014
193,086	376,434	-0,137	-0,195
194,100	761,903	-0,150	-0,284
195,115	-76,478	-0,283	0,069
196,129	251,001	-0,153	-0,181
197,144	11,647	-0,190	-0,101
198,159	45,546	-0,145	-0,093
199,173	-55,889	-0,162	-0,050
200,188	800,000	-0,053	-0,113
201,202	89,618	-0,194	-0,150
202,217	12,773	-0,255	-0,136
203,232	85,862	-0,157	-0,120
204,246	-65,552	-0,212	-0,059
205,261	-200,000	0,004	-0,091
206,275	504,883	-0,160	-0,258
207,290	463,510	-0,144	-0,224
208,304	-63,137	-0,141	-0,040
209,319	190,293	-0,132	-0,137
210,334	-111,644	-0,119	-0,017
211,348	153,439	-0,247	-0,235
212,363	474,772	-0,166	-0,260
213,377	259,121	-0,145	-0,173
214,392	-200,000	0,020	-0,085
215,407	800,000	-0,081	-0,162
216,421	109,873	-0,145	-0,120
217,436	-23,355	-0,280	-0,116
218,450	57,733	-0,282	-0,191
219,465	121,044	-0,278	-0,240
220,480	121,467	-0,243	-0,210
221,494	206,617	-0,143	-0,154
222,509	-51,535	-0,184	-0,059
223,523	46,745	-0,225	-0,145
224,538	490,659	-0,109	-0,174
225,553	39,186	-0,270	-0,167
226,567	134,042	-0,192	-0,172
227,582	108,715	-0,251	-0,208
228,596	49,459	-0,244	-0,159
229,611	310,852	-0,122	-0,159
230,626	800,000	-0,072	-0,189
231,640	14,550	-0,166	-0,090
232,655	43,519	-0,167	-0,105
233,669	0,117	-0,286	-0,141
234,684	-67,255	-0,208	-0,056
235,699	185,203	-0,174	-0,180
236,713	73,457	-0,134	-0,097
237,728	-19,774	-0,188	-0,080
238,742	60,062	-0,118	-0,081
239,757	39,664	-0,281	-0,174
240,772	32,926	-0,181	-0,108
241,786	-43,175	-0,149	-0,052
242,801	341,917	-0,155	-0,210
243,815	530,197	-0,038	-0,062
244,830	409,859	-0,129	-0,191
245,844	4,274	-0,221	-0,112
246,859	17,071	-0,229	-0,125
247,874	126,298	-0,063	-0,056
248,888	-70,498	-0,216	-0,056
249,903	32,814	-0,184	-0,110
250,917	68,603	-0,145	-0,103
251,932	735,773	-0,100	-0,186
252,947	476,290	-0,155	-0,242
253,961	96,366	-0,306	-0,242
254,976	115,906	-0,199	-0,168
255,990	70,273	-0,118	-0,084
257,005	800,000	-0,098	-0,248
258,020	800,000	-0,096	-0,262
259,034	69,767	-0,151	-0,108
260,049	-78,146	-0,122	-0,029
261,063	-112,023	-0,262	-0,036
262,078	526,425	-0,141	-0,230
263,093	111,127	-0,183	-0,152
264,107	127,746	-0,179	-0,158
265,122	188,330	-0,193	-0,199
266,136	-132,136	-0,226	0,020
267,151	-33,702	-0,126	-0,048
268,166	800,000	-0,122	-0,240
269,180	63,437	-0,195	-0,135
270,195	34,562	-0,250	-0,151
271,209	-24,808	-0,120	-0,049
272,224	-39,316	-0,143	-0,052
273,239	-172,046	-0,176	0,004
274,253	172,265	-0,122	-0,121
275,268	336,666	-0,106	-0,143
276,282	-99,242	-0,351	-0,061
277,297	210,681	-0,205	-0,223
278,312	-17,387	-0,167	-0,072
279,326	-56,728	-0,278	-0,084
280,341	-200,000	-0,040	-0,225
281,355	402,674	-0,074	-0,107
282,370	47,433	-0,161	-0,104
283,384	68,691	-0,200	-0,141
284,399	703,047	-0,159	-0,291
285,414	800,000	-0,057	-0,125
286,428	-6,034	-0,193	-0,091
287,443	70,388	-0,141	-0,100
288,457	-100,632	-0,180	-0,030
289,472	3,673	-0,080	0,040
290,487	800,000	-0,096	-0,204
291,501	10,352	-0,191	-0,100
292,516	90,043	-0,101	-0,078
293,530	36,971	-0,159	-0,097
294,545	388,735	-0,086	-0,123
295,560	-93,351	-0,115	0,022
296,574	332,917	-0,125	-0,166
297,589	156,918	-0,161	-0,153
298,603	129,276	-0,176	-0,155
299,618	139,515	-0,198	-0,180
300,633	3,945	-0,152	-0,076
301,647	800,000	-0,117	-0,240
302,662	137,365	-0,037	-0,034
303,676	96,351	-0,130	-0,102
304,691	-200,000	-0,016	-0,156
305,706	196,577	-0,057	-0,060
306,720	244,506	-0,063	-0,073
307,735	-147,791	-0,117	0,007
308,749	-148,779	-0,133	-0,007
309,764	-27,173	-0,188	-0,075
310,779	206,046	-0,116	-0,124
311,793	8,535	-0,103	-0,053
312,808	28,487	-0,187	-0,108
313,822	80,839	-0,187	-0,139
314,837	-164,834	-0,162	0,005
315,852	-0,984	-0,239	-0,116
316,866	575,490	-0,122	-0,205
317,881	166,635	-0,162	-0,158
318,895	173,697	-0,106	-0,105
319,910	90,508	-0,229	-0,176
320,925	564,007	-0,059	-0,099
321,939	167,740	-0,189	-0,184
322,954	-50,519	-0,065	0,021
323,968	-200,000	0,003	0,055
324,983	237,701	-0,145	-0,166
325,997	-200,000	-0,001	-0,093
327,012	421,244	-0,084	-0,124
328,027	-54,825	-0,267	-0,082
329,041	-141,495	-0,094	-0,006
330,056	-40,076	-0,143	-0,051
331,070	60,531	-0,080	-0,054
332,085	-200,000	-0,030	-0,103
333,100	-200,000	-0,052	-0,167
334,114	185,514	-0,093	-0,095
335,129	252,124	-0,102	-0,120
336,143	43,276	-0,183	-0,115
337,158	-15,728	-0,204	-0,089
338,173	-31,078	-0,062	0,024
339,187	278,924	-0,097	-0,119
340,202	-105,998	-0,166	-0,025
341,216	-162,457	-0,180	-0,006
342,231	72,987	-0,212	-0,152
343,246	-77,135	-0,139	-0,033
344,260	140,885	-0,103	-0,093
345,275	211,826	-0,095	-0,103
346,289	-66,446	-0,077	-0,021
347,304	-131,655	-0,019	0,002
348,319	120,452	-0,068	-0,058
349,333	266,813	-0,172	-0,206
350,348	-200,000	-0,020	-0,290
351,362	-200,000	-0,002	-0,037
352,377	216,233	-0,115	-0,126
353,392	800,000	-0,050	-0,139
354,406	-188,637	-0,268	-0,002
355,421	207,356	1316,834	1410,186
356,435	159,500	1477,834	1410,673
