DTS Sentinel unit serial number:	SN410029Multiplexer serial number:	ORYXHardware model number:	OX2-SRSoftware version number:	ORYX F/W v4,00 Oryx Data Collector v3.7.2.0data status	okinstallation	B3 Nyhavnadifferential loss correction	single-endedforward channel	channel 1reverse channel	N/Adate	2023/12/03time	04:12:30forward acquisition time	300,00reverse acquisition time	0,00gamma	499,1914k internal	0,3201k external	0,3201temperature offset calibration	1,0000default loss term (dB/km)	0,3820temperature slope calibration	1,0000multiplexer offset coefficient	1,0000multiplexer slope coefficient	1,0000fibre end	0,00T internal ref (°C)	13,31T ext. ref 1 (°C)	-1,73T ext. ref 2 (°C)	-1,73length (m)	temperature (°C)	Stokes	anti-Stokes-744,400	800,000	-0,110	-0,262
-743,385	-200,000	-0,024	0,241
-742,371	28,460	-0,146	-0,090
-741,356	-200,000	0,060	0,276
-740,342	165,203	-0,139	-0,143
-739,327	-200,000	0,010	0,261
-738,312	52,565	-0,170	-0,118
-737,298	-200,000	-0,044	0,349
-736,283	49,045	-0,190	-0,130
-735,269	-200,000	0,068	0,324
-734,254	800,000	-0,079	-0,193
-733,239	197,829	-0,097	0,108
-732,225	800,000	-0,077	-0,211
-731,210	158,237	0,134	0,135
-730,196	347,540	-0,041	-0,059
-729,181	581,853	-0,022	-0,040
-728,167	800,000	0,035	-0,078
-727,152	-128,048	-0,160	0,016
-726,137	-200,000	-0,013	0,111
-725,123	281,216	-0,051	-0,066
-724,108	203,060	-0,060	0,068
-723,094	-200,000	0,031	-0,130
-722,079	-33,161	-0,106	0,042
-721,064	-179,329	0,073	-0,001
-720,050	800,000	-0,057	-0,137
-719,035	800,000	-0,053	-0,131
-718,021	-200,000	0,034	-0,143
-717,006	-146,372	-0,143	-0,009
-715,991	276,155	0,068	-0,088
-714,977	800,000	0,023	-0,060
-713,962	-166,082	-0,079	0,002
-712,948	579,757	0,047	-0,085
-711,933	800,000	0,009	-0,023
-710,918	800,000	0,033	-0,081
-709,904	-15,134	-0,075	-0,035
-708,889	33,277	-0,028	-0,018
-707,875	-200,000	0,003	-0,036
-706,860	800,000	-0,016	0,040
-705,845	108,280	0,095	0,082
-704,831	707,132	-0,040	0,078
-703,816	135,590	-0,036	0,034
-702,802	800,000	0,042	-0,094
-701,787	280,323	0,037	-0,048
-700,772	-121,354	-0,084	-0,010
-699,758	-29,947	-0,040	-0,016
-698,743	20,361	-0,070	-0,041
-697,729	72,271	-0,078	0,059
-696,714	800,000	-0,034	-0,103
-695,699	92,752	-0,055	-0,045
-694,685	-200,000	0,042	-0,158
-693,670	299,021	-0,099	-0,132
-692,656	-58,705	0,026	-0,008
-691,641	341,544	0,017	0,024
-690,627	193,183	-0,088	0,097
-689,612	-200,000	-0,018	0,062
-688,597	62,564	-0,102	-0,074
-687,583	4,285	0,094	-0,050
-686,568	257,605	-0,074	-0,093
-685,554	-46,877	0,038	0,013
-684,539	-200,000	-0,020	0,120
-683,524	-45,964	0,116	-0,041
-682,510	-4,236	-0,154	-0,077
-681,495	-200,000	-0,008	-0,037
-680,481	-200,000	-0,004	-0,061
-679,466	30,843	-0,101	-0,063
-678,451	-68,613	-0,092	-0,026
-677,437	-43,895	-0,102	0,037
-676,422	-82,413	-0,125	-0,029
-675,408	44,092	-0,060	0,040
-674,393	-63,495	-0,092	0,027
-673,378	40,320	-0,191	-0,125
-672,364	-200,000	0,014	-0,048
-671,349	483,328	-0,069	-0,114
-670,335	-200,000	-0,015	-0,070
-669,320	121,127	-0,095	0,086
-668,305	322,141	0,066	0,091
-667,291	287,563	-0,069	-0,091
-666,276	66,835	-0,153	-0,113
-665,262	-121,428	0,076	-0,009
-664,247	-143,044	-0,119	0,008
-663,232	-143,585	0,066	0,004
-662,218	439,278	0,048	0,076
-661,203	-200,000	-0,004	0,070
-660,189	800,000	0,020	0,043
-659,174	4,104	-0,135	-0,071
-658,159	-200,000	0,011	-0,102
-657,145	201,132	-0,121	-0,135
-656,130	-200,000	0,035	-0,210
-655,116	-144,370	-0,039	0,003
-654,101	-200,000	0,010	0,051
-653,086	156,106	-0,060	-0,060
-652,072	-200,000	-0,005	-0,056
-651,057	800,000	-0,089	-0,182
-650,043	-113,793	0,021	-0,003
-649,028	293,418	0,028	-0,038
-648,014	532,337	0,049	-0,085
-646,999	-34,337	0,075	0,030
-645,984	-200,000	0,042	0,153
-644,970	181,338	-0,018	-0,019
-643,955	800,000	-0,100	-0,237
-642,941	800,000	-0,009	-0,020
-641,926	-200,000	-0,012	-0,055
-640,911	70,897	0,111	-0,083
-639,897	-0,735	0,047	-0,024
-638,882	-147,666	-0,110	-0,007
-637,868	236,734	-0,057	0,069
-636,853	800,000	-0,034	-0,080
-635,838	569,096	-0,040	0,071
-634,824	-157,932	-0,058	-0,002
-633,809	-52,585	0,101	0,034
-632,795	101,314	0,050	-0,042
-631,780	-200,000	-0,113	0,000
-630,765	305,013	0,031	-0,042
-629,751	-192,560	-0,094	-0,001
-628,736	-200,000	-0,039	-0,158
-627,722	800,000	0,088	-0,218
-626,707	41,907	0,074	0,048
-625,692	279,079	-0,046	0,059
-624,678	-200,000	0,003	0,080
-623,663	-200,000	0,012	-0,038
-622,649	194,372	-0,125	-0,137
-621,634	-18,917	-0,043	-0,019
-620,619	602,882	-0,019	-0,035
-619,605	455,683	0,026	0,042
-618,590	-200,000	-0,037	0,254
-617,576	-132,980	0,094	0,009
-616,561	127,869	-0,180	-0,165
-615,546	-73,489	0,037	-0,010
-614,532	2,777	-0,141	-0,074
-613,517	-124,378	-0,101	0,011
-612,503	241,985	-0,077	0,093
-611,488	800,000	-0,044	0,094
-610,474	124,832	-0,072	0,066
-609,459	800,000	-0,049	-0,130
-608,444	79,996	-0,117	-0,091
-607,430	-20,216	-0,086	0,038
-606,415	91,498	-0,057	0,046
-605,401	576,496	0,010	0,018
-604,386	-8,337	0,085	-0,041
-603,371	-156,387	-0,143	-0,006
-602,357	295,897	-0,088	-0,116
-601,342	8,579	-0,030	-0,016
-600,328	-79,019	-0,112	-0,027
-599,313	224,229	-0,015	0,017
-598,298	-183,753	-0,250	-0,003
-597,284	54,099	0,037	0,026
-596,269	-200,000	0,006	0,043
-595,255	-200,000	0,008	0,049
-594,240	-68,946	0,070	-0,019
-593,225	270,890	-0,011	0,014
-592,211	800,000	-0,014	-0,040
-591,196	293,373	-0,078	0,103
-590,182	465,383	-0,046	0,076
-589,167	151,057	0,127	0,125
-588,152	42,101	0,054	-0,036
-587,138	-140,643	-0,061	-0,004
-586,123	-42,927	-0,147	-0,054
-585,109	286,029	0,077	-0,101
-584,094	-180,134	-0,045	0,001
-583,079	1,131	0,067	-0,035
-582,065	4,380	0,064	0,034
-581,050	83,493	-0,121	0,096
-580,036	-200,000	-0,035	0,141
-579,021	-200,000	-0,020	-0,101
-578,006	133,440	-0,098	0,092
-576,992	-200,000	-0,005	0,064
-575,977	-200,000	-0,008	0,128
-574,963	116,115	0,042	0,037
-573,948	-15,874	0,040	0,018
-572,934	595,155	-0,057	0,102
-571,919	264,283	-0,070	-0,088
-570,904	-200,000	0,000	-0,041
-569,890	292,253	0,081	-0,107
-568,875	-200,000	-0,016	-0,135
-567,861	-200,000	-0,001	0,042
-566,846	42,700	0,062	0,040
-565,831	87,823	-0,102	0,081
-564,817	-200,000	-0,014	0,092
-563,802	112,210	-0,072	-0,063
-562,788	6,440	0,019	-0,010
-561,773	800,000	0,052	0,118
-560,758	211,200	0,146	0,166
-559,744	-45,520	-0,119	0,042
-558,729	-200,000	-0,012	0,069
-557,715	-17,913	0,035	0,016
-556,700	-67,359	-0,119	-0,034
-555,685	518,187	0,088	-0,150
-554,671	-200,000	-0,057	0,187
-553,656	800,000	-0,021	0,059
-552,642	800,000	-0,029	-0,091
-551,627	-200,000	0,019	-0,200
-550,612	-20,055	-0,050	-0,022
-549,598	27,721	-0,118	0,072
-548,583	-200,000	0,046	-0,151
-547,569	13,073	-0,016	0,009
-546,554	800,000	0,026	0,061
-545,539	-92,421	-0,019	-0,004
-544,525	112,305	-0,110	0,096
-543,510	419,879	-0,022	-0,034
-542,496	-80,985	-0,052	0,012
-541,481	-180,162	-0,104	0,002
-540,466	380,463	0,048	-0,072
-539,452	800,000	-0,035	-0,085
-538,437	800,000	0,027	-0,073
-537,423	223,521	0,019	0,023
-536,408	134,864	0,114	-0,107
-535,393	-200,000	0,021	-0,120
-534,379	-72,456	0,120	-0,032
-533,364	800,000	0,051	0,120
-532,350	103,296	-0,089	0,075
-531,335	6,436	-0,014	0,007
-530,321	800,000	0,020	0,057
-529,306	117,802	0,134	0,119
-528,291	-62,323	-0,121	-0,036
-527,277	-153,022	-0,116	-0,006
-526,262	-14,773	0,080	-0,037
-525,248	485,303	0,075	0,124
-524,233	-65,207	-0,030	0,009
-523,218	9,814	-0,160	0,087
-522,204	-98,843	-0,095	0,017
-521,189	-200,000	0,002	-0,134
-520,175	684,062	0,006	-0,012
-519,160	-174,694	-0,101	-0,002
-518,145	-168,730	0,104	-0,003
-517,131	2,465	-0,018	-0,009
-516,116	25,356	0,030	-0,018
-515,102	800,000	-0,029	0,064
-514,087	-125,896	0,125	-0,013
-513,072	-200,000	-0,012	-0,068
-512,058	-141,831	0,109	-0,008
-511,043	800,000	0,011	-0,028
-510,029	-62,810	0,126	0,037
-509,014	-120,517	0,138	-0,017
-507,999	288,950	-0,054	0,071
-506,985	-111,710	-0,107	0,015
-505,970	36,634	-0,104	0,066
-504,956	189,068	-0,059	-0,064
-503,941	290,684	-0,049	0,064
-502,926	800,000	0,104	0,266
-501,912	-66,627	0,083	0,023
-500,897	-200,000	0,017	-0,076
-499,883	469,029	-0,086	-0,139
-498,868	-200,000	0,021	-0,131
-497,853	-200,000	-0,025	-0,100
-496,839	800,000	-0,026	0,068
-495,824	-116,904	-0,063	0,008
-494,810	-200,000	-0,005	0,060
-493,795	419,842	-0,059	-0,092
-492,781	800,000	0,039	0,123
-491,766	274,610	-0,115	0,147
-490,751	-177,488	-0,130	-0,002
-489,737	-200,000	-0,025	-0,079
-488,722	476,357	0,061	-0,100
-487,708	-47,936	0,125	-0,043
-486,693	-200,000	0,001	-0,111
-485,678	-181,972	-0,078	-0,001
-484,664	-157,317	0,075	-0,003
-483,649	-200,000	0,007	-0,150
-482,635	-11,985	-0,161	-0,075
-481,620	-200,000	0,015	0,062
-480,605	176,211	0,114	0,119
-479,591	800,000	-0,013	-0,030
-478,576	-200,000	0,045	0,211
-477,562	-28,897	-0,099	-0,041
-476,547	-57,827	0,052	0,016
-475,532	-2,766	0,124	0,062
-474,518	-200,000	-0,023	0,093
-473,503	605,551	0,019	0,035
-472,489	800,000	0,088	0,204
-471,474	60,442	-0,085	-0,060
-470,459	-200,000	-0,014	-0,079
-469,445	25,413	-0,029	-0,017
-468,430	641,085	-0,085	-0,157
-467,416	132,790	0,025	0,024
-466,401	-64,892	-0,030	0,009
-465,386	-200,000	-0,004	0,096
-464,372	-50,250	-0,081	0,027
-463,357	-140,035	0,063	0,005
-462,343	-102,260	-0,194	-0,033
-461,328	-56,031	0,072	0,023
-460,313	-77,217	0,097	0,024
-459,299	-2,199	-0,083	0,042
-458,284	-200,000	0,005	-0,064
-457,270	387,008	-0,028	0,042
-456,255	-94,508	-0,150	0,029
-455,241	183,021	0,049	-0,052
-454,226	200,334	0,015	0,017
-453,211	800,000	0,024	0,073
-452,197	-15,525	0,076	0,035
-451,182	282,841	-0,059	0,076
-450,168	800,000	0,036	-0,090
-449,153	-30,953	-0,050	-0,020
-448,138	60,812	-0,064	0,045
-447,124	294,220	0,051	-0,068
-446,109	-156,281	0,094	-0,004
-445,095	-200,000	0,010	0,074
-444,080	371,420	0,059	0,086
-443,065	186,670	-0,051	-0,055
-442,051	-200,000	0,016	-0,089
-441,036	765,225	0,073	-0,143
-440,022	-200,000	-0,021	-0,146
-439,007	191,172	0,093	-0,101
-437,992	306,717	0,083	-0,112
-436,978	389,889	0,079	-0,117
-435,963	800,000	-0,010	0,023
-434,949	-58,381	-0,074	-0,023
-433,934	57,853	-0,050	-0,035
-432,919	-200,000	0,003	-0,138
-431,905	-81,711	-0,100	-0,023
-430,890	298,212	0,088	0,116
-429,876	-0,842	0,046	-0,023
-428,861	-200,000	-0,016	-0,134
-427,846	-121,104	-0,120	0,014
-426,832	513,418	-0,073	-0,123
-425,817	312,718	-0,046	-0,062
-424,803	179,939	0,111	-0,117
-423,788	131,612	0,113	-0,104
-422,773	-108,786	-0,101	-0,015
-421,759	800,000	0,033	0,098
-420,744	-93,497	-0,032	-0,006
-419,730	-200,000	-0,001	-0,131
-418,715	-35,841	-0,125	0,048
-417,701	118,005	-0,042	0,037
-416,686	-88,215	-0,087	-0,019
-415,671	-200,000	-0,013	-0,050
-414,657	22,550	0,131	0,077
-413,642	-5,173	0,053	-0,026
-412,628	-146,605	0,064	0,004
-411,613	446,502	-0,097	-0,153
-410,598	28,161	0,116	-0,070
-409,584	577,001	-0,015	0,026
-408,569	-200,000	0,008	0,125
-407,555	-200,000	0,006	-0,044
-406,540	-200,000	0,010	0,142
-405,525	-149,731	-0,025	-0,001
-404,511	-118,880	0,099	-0,012
-403,496	-200,000	-0,008	-0,041
-402,482	129,677	-0,090	0,082
-401,467	625,776	0,034	-0,062
-400,452	89,459	0,078	0,062
-399,438	-142,526	0,123	-0,009
-398,423	-165,106	-0,186	-0,006
-397,409	-141,113	-0,064	-0,005
-396,394	-28,287	-0,107	0,044
-395,379	-109,715	0,085	-0,013
-394,365	800,000	0,018	0,041
-393,350	-9,211	0,105	-0,050
-392,336	-200,000	0,006	-0,075
-391,321	-200,000	0,009	0,134
-390,306	60,233	-0,106	-0,075
-389,292	-200,000	0,017	-0,065
-388,277	-200,000	0,022	0,112
-387,263	-200,000	0,008	0,081
-386,248	-200,000	-0,020	0,086
-385,233	216,320	-0,127	0,145
-384,219	154,431	-0,060	-0,059
-383,204	674,461	-0,057	0,107
-382,190	-200,000	0,003	-0,011
-381,175	-110,563	-0,038	0,006
-380,160	615,951	0,020	0,036
-379,146	59,981	0,216	0,152
-378,131	77,371	0,037	-0,028
-377,117	-100,507	-0,034	-0,006
-376,102	-200,000	-0,006	-0,087
-375,088	-69,220	0,042	-0,011
-374,073	-200,000	0,028	-0,137
-373,058	187,945	0,077	-0,083
-372,044	-200,000	-0,006	0,092
-371,029	-200,000	0,003	-0,124
-370,015	77,687	0,097	0,074
-369,000	-200,000	0,000	-0,016
-367,985	800,000	-0,057	-0,166
-366,971	-200,000	-0,023	-0,099
-365,956	273,633	-0,068	0,087
-364,942	-51,449	0,096	-0,032
-363,927	140,577	-0,040	0,037
-362,912	-89,652	-0,094	-0,020
-361,898	-81,519	0,069	-0,016
-360,883	-200,000	0,004	-0,029
-359,869	634,457	-0,014	-0,025
-358,854	-200,000	-0,019	0,079
-357,839	39,925	0,083	0,053
-356,825	-200,000	-0,022	0,080
-355,810	290,172	0,060	0,079
-354,796	16,431	-0,037	-0,021
-353,781	14,151	-0,090	-0,050
-352,766	-126,350	0,114	-0,012
-351,752	-200,000	-0,012	-0,085
-350,737	-200,000	-0,013	0,102
-349,723	42,773	0,059	-0,038
-348,708	-127,479	-0,122	0,013
-347,693	279,805	0,037	0,047
-346,679	-200,000	0,021	-0,141
-345,664	-156,799	-0,069	-0,003
-344,650	-120,298	-0,049	0,006
-343,635	-200,000	-0,003	-0,014
-342,620	800,000	0,031	0,077
-341,606	70,208	0,083	0,062
-340,591	-200,000	-0,000	0,035
-339,577	586,613	-0,028	0,050
-338,562	109,412	0,070	-0,060
-337,548	-99,972	0,089	-0,016
-336,533	-137,450	0,106	0,008
-335,518	-200,000	-0,011	0,080
-334,504	-63,873	0,086	0,025
-333,489	-58,711	-0,161	0,050
-332,475	594,288	0,024	0,043
-331,460	-18,741	0,130	-0,058
-330,445	-200,000	0,018	-0,102
-329,431	-200,000	0,026	0,084
-328,416	-88,416	0,062	0,013
-327,402	632,368	-0,020	-0,036
-326,387	-27,237	0,024	0,010
-325,372	-200,000	0,002	0,044
-324,358	134,353	0,023	0,021
-323,343	-131,860	-0,032	-0,003
-322,329	9,530	0,057	0,031
-321,314	-200,000	0,011	-0,175
-320,299	508,582	-0,015	0,025
-319,285	-116,518	0,018	-0,002
-318,270	291,412	-0,022	-0,028
-317,256	64,156	-0,138	-0,099
-316,241	250,639	0,091	0,111
-315,226	305,632	0,052	-0,069
-314,212	-96,634	0,042	0,008
-313,197	-200,000	-0,005	0,121
-312,183	157,614	0,072	0,072
-311,168	-200,000	-0,001	0,056
-310,153	-42,924	-0,092	0,033
-309,139	-89,371	-0,053	-0,011
-308,124	-73,289	0,038	0,010
-307,110	-50,057	0,059	0,020
-306,095	-113,498	-0,070	0,010
-305,080	800,000	0,043	-0,109
-304,066	-200,000	-0,008	0,076
-303,051	-200,000	-0,037	0,162
-302,037	800,000	0,045	-0,122
-301,022	800,000	-0,012	-0,031
-300,008	-21,299	0,117	-0,051
-298,993	-72,452	0,138	0,036
-297,978	311,606	-0,045	0,061
-296,964	-26,713	0,143	0,059
-295,949	800,000	-0,046	-0,139
-294,935	-104,239	0,106	0,017
-293,920	-200,000	0,009	0,031
-292,905	84,389	-0,019	0,015
-291,891	800,000	0,034	0,074
-290,876	-200,000	-0,021	0,070
-289,862	-91,529	0,032	0,007
-288,847	-200,000	0,000	0,070
-287,832	157,634	0,039	-0,039
-286,818	-144,134	0,063	0,004
-285,803	122,540	0,100	0,090
-284,789	800,000	0,022	-0,068
-283,774	-200,000	0,032	-0,123
-282,759	88,923	-0,020	-0,016
-281,745	218,064	-0,039	0,044
-280,730	609,871	-0,047	0,084
-279,716	800,000	0,077	-0,174
-278,701	78,077	0,062	0,047
-277,686	309,638	-0,053	0,071
-276,672	115,938	-0,060	0,052
-275,657	22,973	-0,063	-0,037
-274,643	-200,000	0,015	-0,123
-273,628	163,974	-0,010	0,010
-272,613	-200,000	0,004	0,119
-271,599	95,393	0,153	0,124
-270,584	187,512	-0,043	-0,046
-269,570	147,248	-0,029	0,028
-268,555	25,907	0,034	0,020
-267,540	23,936	0,116	0,068
-266,526	5,536	-0,096	-0,050
-265,511	800,000	-0,020	-0,059
-264,497	106,637	-0,120	-0,102
-263,482	-40,457	0,155	-0,057
-262,467	-30,453	-0,116	-0,047
-261,453	800,000	0,009	0,020
-260,438	181,529	-0,059	-0,062
-259,424	-109,377	0,098	0,015
-258,409	-200,000	-0,007	0,084
-257,395	800,000	-0,019	-0,038
-256,380	-34,200	-0,117	0,046
-255,365	-11,832	0,062	0,029
-254,351	-56,216	0,152	-0,048
-253,336	-33,190	0,119	0,047
-252,322	-200,000	-0,036	-0,166
-251,307	286,439	-0,024	0,030
-250,292	-65,445	0,115	0,033
-249,278	-200,000	-0,012	-0,120
-248,263	354,099	-0,038	-0,055
-247,249	-200,000	-0,032	0,148
-246,234	-200,000	0,012	-0,145
-245,219	538,238	0,054	-0,093
-244,205	-129,002	0,028	-0,003
-243,190	71,627	0,041	-0,031
-242,176	-153,299	0,096	-0,005
-241,161	310,420	0,114	0,153
-240,146	-74,647	-0,026	0,007
-239,132	800,000	-0,056	0,151
-238,117	-10,016	-0,088	0,041
-237,103	319,634	0,057	-0,077
-236,088	688,737	-0,116	-0,217
-235,073	142,682	0,089	0,084
-234,059	61,429	-0,098	0,069
-233,044	800,000	0,063	0,152
-232,030	100,073	0,070	0,058
-231,015	-200,000	-0,008	0,025
-230,000	-200,000	0,009	-0,079
-228,986	413,656	-0,029	-0,044
-227,971	-45,159	0,125	0,044
-226,957	-200,000	0,019	0,129
-225,942	800,000	-0,055	0,112
-224,927	102,573	-0,157	-0,131
-223,913	242,135	-0,033	-0,039
-222,898	41,230	0,085	0,055
-221,884	-200,000	0,028	-0,102
-220,869	426,055	-0,015	0,024
-219,855	33,527	0,061	-0,037
-218,840	39,150	-0,035	0,022
-217,825	-19,835	0,031	0,014
-216,811	106,391	0,024	0,021
-215,796	121,827	-0,099	0,088
-214,782	122,377	0,092	-0,082
-213,767	104,319	0,076	0,064
-212,752	-24,644	-0,032	-0,013
-211,738	-200,000	-0,009	-0,075
-210,723	-200,000	0,032	-0,169
-209,709	800,000	-0,023	-0,048
-208,694	-200,000	-0,002	0,039
-207,679	-180,114	-0,086	-0,001
-206,665	427,021	-0,007	-0,011
-205,650	-84,539	0,122	-0,027
-204,636	-154,091	-0,038	-0,002
-203,621	223,606	-0,018	0,021
-202,606	112,936	0,082	-0,070
-201,592	32,898	0,071	0,044
-200,577	-200,000	0,001	-0,096
-199,563	515,271	-0,045	-0,075
-198,548	127,355	0,171	0,154
-197,533	195,331	0,072	0,078
-196,519	-51,286	0,072	-0,024
-195,504	-200,000	0,027	-0,098
-194,490	362,920	-0,033	0,047
-193,475	-40,347	-0,076	-0,028
-192,460	-11,285	-0,045	-0,021
-191,446	333,575	-0,032	0,044
-190,431	-37,926	0,100	0,038
-189,417	800,000	-0,053	0,132
-188,402	-200,000	0,010	0,074
-187,387	-134,545	-0,042	0,004
-186,373	81,122	0,058	0,044
-185,358	-3,713	-0,075	0,037
-184,344	-82,831	-0,103	0,023
-183,329	-114,799	0,066	-0,009
-182,315	128,441	-0,117	-0,106
-181,300	800,000	0,068	0,182
-180,285	-200,000	-0,026	-0,158
-179,271	-40,832	0,039	-0,014
-178,256	103,573	-0,028	0,023
-177,242	-48,096	0,145	-0,049
-176,227	-43,097	0,093	0,033
-175,212	-200,000	0,002	0,102
-174,198	128,522	-0,024	0,021
-173,183	-200,000	0,032	0,142
-172,169	800,000	-0,053	-0,133
-171,154	121,695	-0,022	0,020
-170,139	-200,000	0,012	0,061
-169,125	98,088	0,086	-0,070
-168,110	-87,052	-0,092	-0,020
-167,096	-200,000	0,009	0,036
-166,081	-3,022	-0,172	-0,085
-165,066	19,509	-0,039	0,022
-164,052	-200,000	-0,001	0,061
-163,037	374,638	0,058	-0,084
-162,023	-127,458	0,017	-0,002
-161,008	800,000	0,022	-0,050
-159,993	-143,121	0,063	0,004
-158,979	-200,000	-0,009	-0,049
-157,964	-160,397	-0,040	-0,001
-156,950	-59,605	0,083	-0,025
-155,935	-127,588	0,180	0,018
-154,920	151,235	0,060	0,058
-153,906	-200,000	-0,023	0,143
-152,891	269,272	-0,041	0,051
-151,877	-14,190	0,140	-0,064
-150,862	-200,000	0,017	-0,117
-149,847	-87,022	0,048	-0,010
-148,833	-200,000	0,018	-0,057
-147,818	800,000	0,039	0,084
-146,804	-81,325	-0,053	0,012
-145,789	496,509	0,063	0,103
-144,775	-132,989	-0,051	-0,004
-143,760	800,000	-0,032	-0,072
-142,745	-200,000	0,018	-0,087
-141,731	577,842	-0,027	0,048
-140,716	800,000	0,032	0,070
-139,702	-91,398	0,154	-0,031
-138,687	144,996	0,075	-0,071
-137,672	-200,000	0,016	0,097
-136,658	51,717	-0,098	-0,066
-135,643	800,000	-0,033	0,070
-134,629	59,303	0,018	-0,012
-133,614	93,418	0,167	-0,134
-132,599	136,638	0,047	-0,043
-131,585	800,000	0,020	0,050
-130,570	800,000	0,036	0,079
-129,556	-124,571	-0,043	-0,005
-128,541	-200,000	-0,022	-0,128
-127,526	-179,082	-0,050	0,001
-126,512	-45,024	-0,010	0,004
-125,497	107,271	0,135	0,114
-124,483	320,561	0,047	0,064
-123,468	92,642	-0,088	0,070
-122,453	229,329	0,111	0,129
-121,439	-200,000	-0,011	-0,168
-120,424	-200,000	0,019	-0,062
-119,410	280,984	-0,023	0,030
-118,395	-200,000	-0,020	0,137
-117,380	-77,495	0,235	-0,057
-116,366	167,604	-0,040	0,040
-115,351	-8,230	-0,248	-0,118
-114,337	324,115	-0,044	-0,060
-113,322	6,497	-0,054	-0,029
-112,307	-116,662	-0,046	-0,006
-111,293	-12,467	0,098	-0,045
-110,278	-200,000	0,008	0,047
-109,264	54,392	-0,094	-0,064
-108,249	507,437	-0,028	0,047
-107,234	294,270	-0,003	-0,003
-106,220	453,296	0,035	-0,055
-105,205	255,849	0,053	0,064
-104,191	218,205	0,031	0,035
-103,176	37,214	0,057	0,036
-102,162	27,498	0,053	0,032
-101,147	-200,000	0,002	0,067
-100,132	-200,000	-0,001	-0,087
-99,118	282,040	0,081	-0,103
-98,103	279,809	-0,046	-0,059
-97,089	800,000	0,047	-0,103
-96,074	121,552	0,115	0,102
-95,059	-200,000	-0,040	0,134
-94,045	-8,401	0,066	0,031
-93,030	800,000	-0,064	-0,188
-92,016	-34,678	0,096	-0,037
-91,001	72,578	-0,149	0,110
-89,986	-117,130	0,078	-0,010
-88,972	255,762	0,156	0,191
-87,957	800,000	0,039	0,096
-86,943	638,686	-0,030	0,055
-85,928	321,066	-0,079	-0,107
-84,913	25,380	0,047	0,028
-83,899	-200,000	0,003	0,145
-82,884	800,000	0,052	-0,111
-81,870	71,509	0,071	0,052
-80,855	-200,000	-0,008	0,047
-79,840	455,443	0,035	0,056
-78,826	223,742	0,067	0,076
-77,811	229,848	-0,041	0,047
-76,797	270,718	0,032	-0,040
-75,782	378,707	0,057	-0,083
-74,767	725,680	0,081	0,153
-73,753	47,433	0,117	-0,077
-72,738	-122,351	-0,053	0,006
-71,724	800,000	-0,059	-0,129
-70,709	800,000	-0,009	-0,026
-69,694	-149,774	-0,147	0,008
-68,680	409,302	-0,028	-0,042
-67,665	336,895	0,031	0,043
-66,651	-200,000	0,038	0,130
-65,636	-137,600	0,058	0,005
-64,622	-200,000	0,005	-0,209
-63,607	665,443	-0,028	-0,051
-62,592	-104,474	-0,083	0,014
-61,578	-152,233	0,110	0,006
-60,563	121,894	-0,109	0,096
-59,549	-88,688	0,089	-0,019
-58,534	-23,709	-1,699	-0,718
-57,519	332,031	-1,442	-1,975
-56,505	-200,000	-0,549	-4,535
-55,490	208,569	0,968	1,074
-54,476	800,000	5,028	11,410
-53,461	-200,000	19,250	320,678
-52,446	-200,000	740,617	2335,096
-51,432	573,191	1655,778	2869,028
-50,417	78,318	1671,187	1262,021
-49,403	21,310	1544,228	885,761
-48,388	15,206	1466,564	811,530
-47,373	17,969	1456,739	819,415
-46,359	16,702	1446,723	807,671
-45,344	13,443	1442,068	789,426
-44,330	13,339	1440,068	787,804
-43,315	13,384	1438,167	786,948
-42,300	13,377	1436,557	786,000
-41,286	13,369	1435,498	785,354
-40,271	13,354	1434,017	784,439
-39,257	13,334	1432,815	783,657
-38,242	13,356	1431,620	783,077
-37,227	13,432	1430,406	782,741
-36,213	13,401	1429,060	781,825
-35,198	13,407	1427,930	781,204
-34,184	13,415	1427,068	780,743
-33,169	13,355	1425,771	779,715
-32,154	13,420	1424,513	779,303
-31,140	13,428	1423,309	778,652
-30,125	13,478	1422,033	778,160
-29,111	13,409	1421,059	777,273
-28,096	13,412	1419,892	776,616
-27,082	13,388	1418,743	775,845
-26,067	13,304	1417,814	774,907
-25,052	13,360	1416,541	774,447
-24,038	13,351	1415,651	773,886
-23,023	13,296	1414,775	773,120
-22,009	13,312	1413,752	772,605
-20,994	13,296	1412,657	771,899
-19,979	13,336	1411,784	771,578
-18,965	13,292	1410,846	770,831
-17,950	13,254	1410,045	770,182
-16,936	13,266	1409,186	769,743
-15,921	13,254	1408,074	769,048
-14,906	13,253	1406,938	768,391
-13,892	13,267	1406,063	767,946
-12,877	13,242	1405,306	767,388
-11,863	13,239	1404,488	766,898
-10,848	13,252	1403,328	766,293
-9,833	13,215	1402,528	765,653
-8,819	13,164	1401,743	764,955
-7,804	13,158	1400,808	764,386
-6,790	13,133	1399,858	763,722
-5,775	13,176	1398,754	763,291
-4,760	13,138	1397,792	762,557
-3,746	13,186	1396,697	762,152
-2,731	13,132	1396,057	761,525
-1,717	13,123	1395,392	761,091
-0,702	13,120	1393,281	759,893
0,313	16,988	1310,201	732,494
1,327	33,271	703,828	431,122
2,342	51,055	123,348	82,611
3,356	0,151	16,757	8,424
4,371	4,091	3,222	1,662
5,386	-48,611	0,415	0,140
6,400	-200,000	0,044	0,301
7,415	22,763	-0,279	-0,161
8,429	-44,581	-0,388	-0,136
9,444	129,666	-0,270	-0,244
10,459	22,434	-0,373	-0,215
11,473	-2,563	-0,425	-0,210
12,488	153,843	-0,198	-0,192
13,502	35,792	-0,297	-0,184
14,517	63,716	-0,318	-0,226
15,531	21,265	-0,259	-0,148
16,546	-83,959	-0,391	-0,087
17,561	192,042	-0,351	-0,374
18,575	-98,313	-0,132	0,024
19,590	-21,045	-0,202	-0,087
20,604	25,141	-0,298	-0,174
21,619	131,118	-0,402	-0,364
22,634	117,201	-0,433	-0,376
23,648	119,614	-0,480	-0,420
24,663	254,787	-0,223	-0,270
25,677	180,094	-0,285	-0,295
26,692	-36,008	-0,371	-0,141
27,707	9,954	-0,400	-0,214
28,721	-0,769	-0,345	-0,172
29,736	71,742	-0,462	-0,339
30,750	90,884	-0,425	-0,336
31,765	5,995	-0,314	-0,164
32,780	75,124	-0,391	-0,291
33,794	264,374	-0,277	-0,341
34,809	-9,433	-0,386	-0,181
35,823	53,993	-0,369	-0,250
36,838	26,550	-0,422	-0,249
37,853	-24,642	-0,425	-0,178
38,867	72,547	-0,398	-0,292
39,882	-45,969	-0,407	-0,141
40,896	-14,291	-0,380	-0,172
41,911	130,140	-0,290	-0,262
42,926	-12,636	-0,360	-0,165
43,940	2,535	-0,400	-0,204
44,955	120,292	-0,444	-0,388
45,969	-52,766	-0,388	-0,125
46,984	-35,413	-0,312	-0,119
47,999	165,489	-0,258	-0,257
49,013	-56,081	-0,283	-0,088
50,028	222,901	-0,300	-0,342
51,042	66,424	-0,313	-0,224
52,057	254,920	-0,249	-0,301
53,071	49,384	-0,383	-0,253
54,086	-19,778	-0,248	-0,107
55,101	109,877	-0,326	-0,275
56,115	21,765	-0,279	-0,159
57,130	34,156	-0,301	-0,185
58,144	129,166	-0,273	-0,245
59,159	99,560	-0,406	-0,330
60,174	68,900	-0,322	-0,233
61,188	-44,222	-0,455	-0,160
62,203	-29,211	-0,418	-0,168
63,217	6,498	-0,376	-0,196
64,232	71,920	-0,316	-0,231
65,247	130,380	-0,320	-0,288
66,261	41,000	-0,289	-0,183
67,276	46,922	-0,277	-0,181
68,290	-73,806	-0,381	-0,097
69,305	125,417	-0,277	-0,246
70,320	2,263	-0,310	-0,157
71,334	148,888	-0,310	-0,295
72,349	23,571	-0,321	-0,185
73,363	15,291	-0,445	-0,245
74,378	93,622	-0,309	-0,246
75,393	-25,235	-0,302	-0,125
76,407	76,208	-0,357	-0,265
77,422	48,658	-0,203	-0,134
78,436	-141,124	-0,317	-0,022
79,451	-17,254	-0,273	-0,120
80,466	-17,853	-0,443	-0,195
81,480	92,095	-0,445	-0,352
82,495	-2,031	-0,243	-0,120
83,509	44,593	-0,214	-0,138
84,524	-120,334	-0,264	-0,031
85,539	25,602	-0,244	-0,142
86,553	8,605	-0,416	-0,219
87,568	443,851	-0,151	-0,233
88,582	0,306	-0,340	-0,170
89,597	3,121	-0,327	-0,166
90,611	35,606	-0,311	-0,191
91,626	37,574	-0,222	-0,138
92,641	91,480	-0,256	-0,202
93,655	64,914	-0,343	-0,243
94,670	103,616	-0,292	-0,240
95,684	-67,691	-0,183	-0,050
96,699	-74,851	-0,432	-0,108
97,714	-41,617	-0,297	-0,106
98,728	127,262	-0,217	-0,193
99,743	50,984	-0,281	-0,187
100,757	459,584	-0,227	-0,355
101,772	497,431	-0,125	-0,202
102,787	-82,988	-0,405	-0,091
103,801	-123,626	-0,357	-0,039
104,816	42,850	-0,238	-0,152
105,830	-1,909	-0,183	-0,090
106,845	200,913	-0,169	-0,183
107,860	11,108	-0,201	-0,107
108,874	106,392	-0,261	-0,216
109,889	71,668	-0,348	-0,253
110,903	270,179	-0,207	-0,255
111,918	800,000	-0,090	-0,247
112,933	281,986	-0,229	-0,288
113,947	58,395	-0,208	-0,142
114,962	-15,399	-0,447	-0,199
115,976	80,968	-0,293	-0,221
116,991	-137,758	-0,315	-0,024
118,006	160,579	-0,260	-0,254
119,020	-28,150	-0,246	-0,099
120,035	-89,363	-0,336	-0,069
121,049	36,876	-0,189	-0,117
122,064	82,965	-0,229	-0,175
123,079	-2,363	-0,184	-0,090
124,093	125,857	-0,195	-0,172
125,108	-63,547	-0,326	-0,093
126,122	-13,281	-0,301	-0,136
127,137	74,510	-0,349	-0,257
128,151	146,490	-0,114	-0,107
129,166	-84,965	-0,279	-0,061
130,181	-14,558	-0,264	-0,118
131,195	23,227	-0,165	-0,094
132,210	183,556	-0,202	-0,210
133,224	104,354	-0,197	-0,162
134,239	259,223	-0,185	-0,224
135,254	-99,070	-0,199	-0,035
136,268	74,867	-0,234	-0,172
137,283	6,963	-0,320	-0,166
138,297	-21,039	-0,300	-0,128
139,312	-38,729	-0,222	-0,081
140,327	800,000	-0,122	-0,299
141,341	111,044	-0,231	-0,194
142,356	534,107	-0,175	-0,290
143,370	293,688	-0,102	-0,131
144,385	324,940	-0,167	-0,223
145,400	45,581	-0,336	-0,216
146,414	53,470	-0,243	-0,162
147,429	106,316	-0,190	-0,158
148,443	-2,215	-0,275	-0,134
149,458	89,002	-0,188	-0,146
150,473	181,797	-0,194	-0,200
151,487	-145,846	-0,217	-0,013
152,502	109,009	-0,279	-0,233
153,516	78,823	-0,352	-0,263
154,531	274,385	-0,222	-0,275
155,546	70,510	-0,228	-0,165
156,560	-84,563	-0,116	0,025
157,575	-12,477	-0,150	-0,068
158,589	-32,887	-0,144	-0,056
159,604	-15,881	-0,224	-0,099
160,619	-10,014	-0,254	-0,118
161,633	114,860	-0,236	-0,200
162,648	514,135	-0,176	-0,287
163,662	25,028	-0,289	-0,167
164,677	23,878	-0,296	-0,170
165,692	37,023	-0,223	-0,137
166,706	220,876	-0,161	-0,181
167,721	84,432	-0,252	-0,192
168,735	161,741	-0,219	-0,214
169,750	800,000	-0,139	-0,275
170,764	243,155	-0,123	-0,144
171,779	-25,593	-0,335	-0,137
172,794	-30,210	-0,242	-0,095
173,808	81,710	-0,186	-0,140
174,823	314,244	-0,101	-0,133
175,837	-66,641	-0,357	-0,098
176,852	110,904	-0,145	-0,122
177,867	68,957	-0,233	-0,166
178,881	204,299	-0,174	-0,188
179,896	119,934	-0,249	-0,215
180,910	532,780	-0,136	-0,225
181,925	-200,000	-0,023	-0,239
182,940	160,398	-0,274	-0,266
183,954	55,471	-0,205	-0,138
184,969	-69,473	-0,298	-0,079
185,983	-6,776	-0,194	-0,091
186,998	151,243	-0,158	-0,150
188,013	396,193	-0,189	-0,276
189,027	501,258	-0,126	-0,203
190,042	500,764	-0,155	-0,250
191,056	8,486	-0,242	-0,127
192,071	33,590	-0,174	-0,105
193,086	-200,000	-0,067	-0,210
194,100	-39,497	-0,210	-0,076
195,115	112,054	-0,093	-0,078
196,129	-96,470	-0,188	-0,034
197,144	35,010	-0,186	-0,113
198,159	229,148	-0,221	-0,251
199,173	139,872	-0,172	-0,158
200,188	800,000	-0,097	-0,292
201,202	-200,000	-0,080	-0,253
202,217	55,282	-0,107	-0,072
203,232	54,115	-0,200	-0,134
204,246	66,950	-0,178	-0,126
205,261	-57,522	-0,146	-0,044
206,275	292,881	-0,175	-0,222
207,290	800,000	-0,101	-0,261
208,304	105,329	-0,192	-0,158
209,319	459,457	-0,151	-0,234
210,334	136,777	-0,202	-0,184
211,348	95,773	-0,286	-0,226
212,363	228,482	-0,132	-0,150
213,377	-39,962	-0,273	-0,098
214,392	-101,712	-0,138	-0,023
215,407	16,667	-0,126	-0,069
216,421	273,459	-0,117	-0,143
217,436	-13,729	-0,161	-0,072
218,450	225,313	-0,204	-0,229
219,465	60,176	-0,240	-0,164
220,480	146,655	-0,247	-0,231
221,494	-196,988	-0,229	0,001
222,509	-140,173	-0,145	0,010
223,523	180,311	-0,193	-0,197
224,538	-37,417	-0,193	-0,071
225,553	-39,208	-0,210	-0,076
226,567	-87,828	-0,286	-0,059
227,582	-27,938	-0,207	-0,083
228,596	271,490	-0,068	-0,083
229,611	17,545	-0,208	-0,114
230,626	145,257	-0,197	-0,183
231,640	68,226	-0,183	-0,130
232,655	57,213	-0,252	-0,170
233,669	-119,032	-0,227	-0,027
234,684	383,502	-0,169	-0,242
235,699	84,388	-0,226	-0,171
236,713	-131,291	-0,208	0,019
237,728	-104,605	-0,171	-0,027
238,742	4,251	-0,178	-0,090
239,757	7,952	-0,223	-0,116
240,772	494,465	-0,189	-0,302
241,786	-200,000	-0,041	-0,253
242,801	490,559	-0,142	-0,226
243,815	686,558	-0,070	-0,127
244,830	678,354	-0,099	-0,179
245,844	11,857	-0,181	-0,096
246,859	-9,860	-0,297	-0,136
247,874	-77,373	-0,184	-0,044
248,888	-86,235	-0,196	-0,041
249,903	31,149	-0,175	-0,104
250,917	-150,925	-0,243	-0,012
251,932	-127,783	-0,092	0,009
252,947	-92,215	-0,218	-0,042
253,961	-182,925	-0,159	-0,002
254,976	159,962	-0,192	-0,185
255,990	421,486	-0,160	-0,238
257,005	37,449	-0,246	-0,151
258,020	256,385	-0,120	-0,143
259,034	328,882	-0,084	-0,112
260,049	232,244	-0,138	-0,157
261,063	-54,449	-0,266	-0,083
262,078	142,351	-0,181	-0,166
263,093	-15,050	-0,226	-0,100
264,107	135,297	-0,152	-0,137
265,122	53,998	-0,031	-0,021
266,136	-131,898	-0,142	-0,013
267,151	110,346	-0,130	-0,108
268,166	150,340	-0,143	-0,134
269,180	137,969	-0,124	-0,113
270,195	142,265	-0,237	-0,218
271,209	147,277	-0,148	-0,138
272,224	-117,024	-0,204	-0,025
273,239	58,057	-0,137	-0,093
274,253	91,185	-0,091	-0,070
275,268	516,922	-0,119	-0,193
276,282	800,000	-0,124	-0,272
277,297	98,211	-0,212	-0,168
278,312	6,653	-0,203	-0,104
279,326	187,152	-0,152	-0,157
280,341	-200,000	-0,021	-0,090
281,355	-7,775	-0,197	-0,092
282,370	230,790	-0,130	-0,147
283,384	224,426	-0,179	-0,200
284,399	503,475	-0,112	-0,179
285,414	160,857	-0,148	-0,142
286,428	800,000	-0,117	-0,266
287,443	83,728	-0,113	0,085
288,457	-200,000	0,017	0,078
289,472	133,276	-0,128	-0,114
290,487	-165,557	-0,285	-0,008
291,501	-155,895	-0,256	0,011
292,516	-8,053	-0,223	-0,103
293,530	234,053	-0,136	-0,155
294,545	2,266	-0,107	-0,053
295,560	-44,365	-0,179	-0,062
296,574	800,000	0,033	-0,068
297,589	721,861	-0,124	-0,228
298,603	163,455	-0,235	-0,227
299,618	13,925	-0,216	-0,116
300,633	-23,887	-0,175	-0,072
301,647	-200,000	-0,029	-0,098
302,662	800,000	0,006	-0,017
303,676	47,224	-0,028	-0,018
304,691	-200,000	-0,009	-0,148
305,706	800,000	-0,108	-0,240
306,720	326,492	-0,152	-0,201
307,735	-117,401	-0,093	0,011
308,749	-200,000	-0,014	-0,105
309,764	695,959	-0,104	-0,188
310,779	-92,787	-0,123	-0,023
311,793	539,943	-0,077	-0,127
312,808	463,652	-0,113	-0,175
313,822	-33,069	-0,166	-0,063
314,837	-157,223	-0,163	-0,007
315,852	0,572	-0,077	-0,038
316,866	-132,535	-0,224	-0,020
317,881	-9,574	-0,089	-0,041
318,895	69,053	-0,152	-0,108
319,910	85,451	-0,126	-0,095
320,925	129,250	-0,145	-0,127
321,939	-200,000	-0,044	-0,156
322,954	800,000	-0,042	-0,097
323,968	-200,000	-0,031	-0,096
324,983	81,788	-0,088	-0,065
325,997	201,303	-0,089	-0,094
327,012	800,000	-0,083	-0,208
328,027	89,939	-0,242	-0,186
329,041	26,820	-0,068	-0,039
330,056	66,510	-0,116	-0,081
331,070	163,410	-0,133	-0,128
332,085	77,435	-0,097	-0,071
333,100	270,131	-0,088	-0,106
334,114	182,578	-0,211	-0,214
335,129	-200,000	-0,033	-0,298
336,143	39,221	-0,037	0,023
337,158	88,084	-0,175	-0,133
338,173	62,059	-0,205	-0,140
339,187	84,301	-0,046	-0,035
340,202	-74,943	-0,047	0,012
341,216	-42,531	-0,203	-0,070
342,231	-95,259	-0,211	-0,039
343,246	221,640	-0,144	-0,159
344,260	56,315	-0,160	-0,107
345,275	118,511	-0,097	-0,082
346,289	71,917	-0,160	-0,114
347,304	-200,000	-0,045	-0,280
348,319	273,371	-0,145	-0,177
349,333	198,352	-0,154	-0,162
350,348	17,167	-0,172	-0,094
351,362	369,605	-0,100	-0,140
352,377	108,628	-0,193	-0,158
353,392	123,754	-0,128	-0,111
354,406	-200,000	-0,018	0,056
355,421	209,069	1312,489	1411,348
356,435	160,895	1472,928	1411,829
