DTS Sentinel unit serial number:	SN410029Multiplexer serial number:	ORYXHardware model number:	OX2-SRSoftware version number:	ORYX F/W v4,00 Oryx Data Collector v3.7.2.0data status	okinstallation	B3 Nyhavnadifferential loss correction	single-endedforward channel	channel 1reverse channel	N/Adate	2023/12/05time	03:52:30forward acquisition time	300,00reverse acquisition time	0,00gamma	499,1914k internal	0,3201k external	0,3201temperature offset calibration	1,0000default loss term (dB/km)	0,3820temperature slope calibration	1,0000multiplexer offset coefficient	1,0000multiplexer slope coefficient	1,0000fibre end	0,00T internal ref (°C)	14,14T ext. ref 1 (°C)	-0,65T ext. ref 2 (°C)	-0,67length (m)	temperature (°C)	Stokes	anti-Stokes-744,400	127,446	-0,207	-0,191
-743,385	-200,000	0,013	0,418
-742,371	183,990	-0,192	-0,207
-741,356	252,332	0,201	0,249
-740,342	-130,063	-0,251	-0,025
-739,327	-200,000	-0,016	0,202
-738,312	-200,000	-0,051	-0,308
-737,298	-200,000	-0,074	0,277
-736,283	800,000	-0,101	-0,249
-735,269	800,000	0,093	0,244
-734,254	78,713	-0,288	-0,224
-733,239	78,485	-0,236	0,183
-732,225	-159,319	-0,139	-0,006
-731,210	-46,126	0,118	-0,042
-730,196	-117,670	-0,140	-0,018
-729,181	-200,000	0,004	-0,035
-728,167	44,118	-0,112	-0,074
-727,152	448,683	0,015	-0,024
-726,137	-187,936	-0,100	-0,001
-725,123	58,141	-0,084	-0,060
-724,108	-8,035	-0,127	-0,062
-723,094	482,975	-0,065	-0,108
-722,079	800,000	-0,007	-0,019
-721,064	800,000	-0,024	0,053
-720,050	800,000	-0,116	0,234
-719,035	645,727	-0,035	0,066
-718,021	800,000	-0,035	0,108
-717,006	49,612	-0,011	-0,007
-715,991	-98,320	0,055	0,010
-714,977	288,971	-0,092	-0,122
-713,962	-200,000	-0,010	0,077
-712,948	-200,000	-0,028	0,120
-711,933	429,623	0,062	0,098
-710,918	-200,000	0,007	-0,050
-709,904	154,829	-0,120	-0,120
-708,889	197,165	0,043	0,048
-707,875	-200,000	-0,002	-0,273
-706,860	15,188	0,053	-0,030
-705,845	800,000	-0,052	0,125
-704,831	-200,000	-0,008	-0,145
-703,816	75,082	-0,065	0,050
-702,802	-4,603	-0,176	-0,088
-701,787	-200,000	0,018	-0,194
-700,772	800,000	-0,073	-0,232
-699,758	223,302	0,048	0,056
-698,743	800,000	-0,009	-0,030
-697,729	-18,259	0,082	-0,037
-696,714	-200,000	0,001	0,143
-695,699	-180,669	0,071	0,001
-694,685	5,433	-0,066	-0,035
-693,670	398,011	-0,065	-0,098
-692,656	-200,000	0,000	0,007
-691,641	-200,000	-0,005	0,028
-690,627	-56,134	-0,194	0,062
-689,612	324,231	0,027	0,038
-688,597	-200,000	-0,098	0,000
-687,583	69,692	0,089	0,066
-686,568	-200,000	-0,003	-0,027
-685,554	110,754	0,036	0,032
-684,539	-36,747	0,027	-0,010
-683,524	-200,000	-0,023	0,125
-682,510	800,000	-0,031	0,064
-681,495	190,993	-0,076	0,083
-680,481	264,530	0,069	-0,088
-679,466	184,155	0,069	-0,074
-678,451	-200,000	-0,023	-0,097
-677,437	-200,000	-0,011	-0,155
-676,422	-200,000	-0,013	-0,140
-675,408	-97,656	0,021	-0,004
-674,393	-31,602	0,097	0,039
-673,378	-67,199	-0,152	-0,043
-672,364	12,473	-0,035	-0,020
-671,349	-15,283	-0,098	0,045
-670,335	144,065	0,048	-0,046
-669,320	528,271	-0,058	0,099
-668,305	-200,000	0,003	-0,098
-667,291	706,197	-0,046	-0,089
-666,276	354,134	-0,109	-0,157
-665,262	800,000	-0,057	-0,131
-664,247	-191,959	-0,092	-0,001
-663,232	161,685	-0,061	-0,062
-662,218	800,000	0,029	0,079
-661,203	-200,000	0,014	0,056
-660,189	-127,871	-0,116	-0,012
-659,174	-14,764	-0,114	-0,053
-658,159	-200,000	-0,028	-0,091
-657,145	441,622	-0,054	0,086
-656,130	-28,943	-0,052	-0,021
-655,116	-200,000	-0,012	0,076
-654,101	156,185	-0,089	0,089
-653,086	-200,000	0,006	0,023
-652,072	529,095	-0,051	0,087
-651,057	591,828	-0,037	-0,067
-650,043	800,000	-0,053	-0,135
-649,028	-96,600	0,045	0,009
-648,014	-200,000	0,016	0,144
-646,999	68,102	-0,018	-0,014
-645,984	800,000	-0,057	0,124
-644,970	-98,830	0,061	-0,011
-643,955	-36,183	-0,114	-0,044
-642,941	-12,431	-0,039	-0,019
-641,926	87,689	0,076	-0,061
-640,911	212,802	0,063	0,072
-639,897	266,985	-0,045	-0,058
-638,882	-200,000	-0,007	-0,111
-637,868	-142,098	-0,066	0,005
-636,853	19,969	0,053	0,031
-635,838	12,213	-0,137	-0,076
-634,824	-24,964	-0,165	-0,071
-633,809	-90,070	0,042	-0,009
-632,795	800,000	0,075	0,155
-631,780	-200,000	0,004	-0,043
-630,765	-200,000	0,021	-0,088
-629,751	-121,586	-0,044	0,005
-628,736	94,357	-0,112	-0,092
-627,722	162,199	0,005	-0,005
-626,707	-70,008	-0,063	-0,017
-625,692	-24,838	0,012	0,005
-624,678	435,772	-0,076	0,121
-623,663	69,756	-0,106	-0,079
-622,649	-200,000	-0,001	-0,058
-621,634	800,000	0,024	-0,074
-620,619	-42,776	-0,055	0,020
-619,605	315,086	0,115	0,157
-618,590	706,039	0,048	0,093
-617,576	260,668	0,076	0,095
-616,561	180,145	-0,073	0,077
-615,546	800,000	-0,055	-0,116
-614,532	800,000	-0,025	-0,074
-613,517	800,000	-0,053	0,117
-612,503	78,769	-0,105	0,081
-611,488	-200,000	-0,002	0,016
-610,474	-30,916	0,056	-0,023
-609,459	-132,960	-0,109	-0,010
-608,444	281,580	-0,031	-0,040
-607,430	170,482	-0,056	-0,058
-606,415	109,727	0,073	-0,063
-605,401	115,927	0,099	-0,088
-604,386	-21,123	0,054	-0,024
-603,371	-74,280	-0,093	0,024
-602,357	-200,000	0,005	0,043
-601,342	-200,000	0,005	-0,042
-600,328	34,247	-0,132	-0,083
-599,313	-200,000	-0,013	-0,073
-598,298	-200,000	0,000	-0,015
-597,284	800,000	-0,017	-0,047
-596,269	464,749	0,052	-0,085
-595,255	-64,424	0,056	0,016
-594,240	333,833	0,009	-0,012
-593,225	-113,952	0,061	-0,009
-592,211	-66,803	0,108	-0,031
-591,196	489,246	-0,042	-0,070
-590,182	129,470	-0,041	-0,038
-589,167	226,437	0,066	0,078
-588,152	-41,430	0,082	-0,030
-587,138	800,000	0,063	-0,130
-586,123	-56,656	0,019	-0,006
-585,109	-200,000	0,001	-0,031
-584,094	-76,516	0,088	-0,022
-583,079	-48,274	0,112	-0,039
-582,065	335,266	-0,014	0,019
-581,050	-41,856	0,121	0,045
-580,036	-200,000	-0,029	0,102
-579,021	-200,000	0,018	-0,085
-578,006	800,000	-0,019	0,048
-576,992	-200,000	-0,003	-0,031
-575,977	800,000	-0,030	-0,077
-574,963	81,658	0,157	-0,122
-573,948	-200,000	0,006	-0,117
-572,934	239,105	-0,091	0,110
-571,919	-52,362	-0,059	-0,020
-570,904	18,728	0,095	0,055
-569,890	-200,000	0,005	0,027
-568,875	458,845	-0,028	-0,046
-567,861	-25,955	-0,061	-0,026
-566,846	342,409	-0,027	-0,038
-565,831	-137,830	-0,152	-0,012
-564,817	-86,804	0,074	-0,016
-563,802	-77,473	-0,031	0,008
-562,788	-200,000	-0,018	-0,065
-561,773	800,000	0,080	0,191
-560,758	-200,000	-0,040	0,136
-559,744	358,971	0,038	0,055
-558,729	663,309	0,047	0,088
-557,715	594,405	-0,060	0,108
-556,700	800,000	0,043	-0,099
-555,685	288,760	-0,044	-0,058
-554,671	260,397	-0,020	0,025
-553,656	249,382	0,052	-0,063
-552,642	-200,000	0,003	0,127
-551,627	179,718	0,069	0,073
-550,612	-85,759	-0,018	0,004
-549,598	18,079	-0,157	-0,090
-548,583	782,972	-0,030	-0,060
-547,569	-109,607	0,030	-0,004
-546,554	-125,119	0,174	0,019
-545,539	-200,000	0,010	-0,104
-544,525	-200,000	0,028	0,094
-543,510	191,278	-0,094	0,102
-542,496	308,700	0,053	0,072
-541,481	567,645	-0,018	0,032
-540,466	336,059	0,082	0,115
-539,452	17,022	-0,046	-0,026
-538,437	774,794	-0,029	-0,057
-537,423	-126,937	0,126	-0,013
-536,408	-63,105	-0,067	0,020
-535,393	800,000	0,025	-0,076
-534,379	515,182	-0,024	0,041
-533,364	500,595	0,062	-0,103
-532,350	55,648	0,045	0,032
-531,335	800,000	-0,035	0,075
-530,321	245,055	0,054	0,065
-529,306	-154,142	0,134	-0,006
-528,291	-175,156	-0,104	-0,002
-527,277	250,926	0,027	-0,033
-526,262	676,307	0,078	-0,147
-525,248	800,000	0,011	-0,029
-524,233	15,203	0,121	0,068
-523,218	-78,649	-0,056	0,014
-522,204	112,039	0,066	-0,058
-521,189	-27,474	0,135	0,056
-520,175	102,087	-0,059	-0,049
-519,160	-200,000	-0,028	-0,112
-518,145	800,000	0,055	0,154
-517,131	120,881	0,086	0,077
-516,116	-200,000	-0,011	0,091
-515,102	133,860	0,068	-0,063
-514,087	154,252	-0,073	-0,073
-513,072	460,973	0,084	0,135
-512,058	-10,019	-0,156	0,074
-511,043	489,404	0,069	-0,113
-510,029	-200,000	0,025	0,099
-509,014	-153,015	-0,088	-0,004
-507,999	140,764	-0,071	-0,067
-506,985	191,550	-0,126	-0,136
-505,970	-10,182	-0,022	0,010
-504,956	-84,194	-0,062	-0,014
-503,941	-122,998	0,108	-0,012
-502,926	-200,000	-0,022	0,150
-501,912	-56,691	-0,069	0,022
-500,897	36,510	0,120	0,076
-499,883	-200,000	-0,012	-0,179
-498,868	800,000	-0,019	0,046
-497,853	-9,553	-0,195	-0,093
-496,839	-200,000	0,005	-0,119
-495,824	-38,345	0,053	-0,020
-494,810	-200,000	-0,031	0,100
-493,795	596,401	0,042	0,075
-492,781	-29,119	0,046	-0,019
-491,766	-89,396	-0,099	-0,021
-490,751	213,381	0,125	-0,142
-489,737	35,313	0,139	-0,088
-488,722	126,865	-0,032	-0,030
-487,708	662,907	0,035	0,066
-486,693	-58,025	0,010	-0,003
-485,678	-200,000	-0,003	0,053
-484,664	30,146	0,050	-0,031
-483,649	-59,567	-0,018	-0,006
-482,635	800,000	0,059	0,122
-481,620	404,168	-0,036	-0,055
-480,605	-130,576	-0,144	-0,014
-479,591	405,724	-0,053	-0,081
-478,576	-200,000	-0,009	0,092
-477,562	52,145	-0,084	0,058
-476,547	160,170	-0,098	-0,099
-475,532	-200,000	-0,014	-0,107
-474,518	-74,690	0,116	-0,030
-473,503	487,774	-0,020	0,032
-472,489	-41,322	0,054	0,020
-471,474	-83,683	0,074	0,017
-470,459	423,918	-0,047	-0,073
-469,445	3,118	-0,055	-0,029
-468,430	439,091	0,075	-0,119
-467,416	98,142	0,105	0,087
-466,401	162,022	0,090	0,091
-465,386	374,573	0,044	-0,065
-464,372	-123,124	-0,123	-0,014
-463,357	136,604	-0,068	-0,063
-462,343	-200,000	-0,045	-0,170
-461,328	800,000	-0,022	-0,052
-460,313	-43,099	0,138	-0,050
-459,299	234,474	-0,035	-0,042
-458,284	726,789	0,067	0,129
-457,270	800,000	0,014	0,042
-456,255	-119,985	-0,149	0,018
-455,241	-200,000	0,045	-0,160
-454,226	-200,000	0,049	-0,162
-453,211	-200,000	-0,024	-0,097
-452,197	-36,770	-0,083	0,032
-451,182	585,929	0,020	-0,036
-450,168	-200,000	0,090	-0,000
-449,153	-200,000	0,036	-0,140
-448,138	326,669	-0,090	-0,125
-447,124	-70,472	0,107	0,029
-446,109	276,028	-0,039	0,050
-445,095	-102,654	-0,097	0,017
-444,080	214,676	-0,032	0,037
-443,065	-200,000	-0,004	-0,165
-442,051	101,314	0,042	0,035
-441,036	-143,109	-0,123	-0,008
-440,022	-36,352	0,033	-0,013
-439,007	115,598	-0,106	0,094
-437,992	-200,000	0,002	-0,010
-436,978	287,205	0,028	0,036
-435,963	237,268	-0,026	0,031
-434,949	-37,087	-0,109	-0,042
-433,934	223,659	-0,026	0,030
-432,919	-200,000	0,005	0,095
-431,905	-194,584	0,126	-0,001
-430,890	-200,000	-0,039	-0,174
-429,876	-200,000	0,023	0,108
-428,861	377,246	0,055	0,080
-427,846	104,050	-0,067	0,056
-426,832	-200,000	-0,015	-0,061
-425,817	159,484	0,048	-0,048
-424,803	-200,000	0,008	0,076
-423,788	800,000	-0,044	0,091
-422,773	800,000	-0,025	-0,076
-421,759	800,000	0,040	0,094
-420,744	800,000	0,010	-0,030
-419,730	-68,215	-0,051	-0,014
-418,715	-200,000	0,011	0,136
-417,701	298,232	-0,026	0,034
-416,686	116,405	0,194	0,171
-415,671	86,802	0,045	0,036
-414,657	-200,000	-0,001	-0,041
-413,642	47,421	-0,027	-0,018
-412,628	157,304	0,018	0,018
-411,613	-200,000	-0,047	-0,213
-410,598	368,600	-0,032	-0,046
-409,584	55,721	0,034	0,023
-408,569	-149,420	0,054	0,003
-407,555	-69,360	0,124	-0,034
-406,540	184,047	-0,098	0,104
-405,525	800,000	-0,017	0,040
-404,511	-10,272	-0,131	-0,062
-403,496	-200,000	0,017	-0,171
-402,482	-200,000	0,074	0,000
-401,467	217,382	0,069	0,079
-400,452	11,042	0,070	0,038
-399,438	-16,811	0,136	0,062
-398,423	-72,850	0,009	-0,002
-397,409	-43,228	-0,003	-0,001
-396,394	800,000	-0,044	0,105
-395,379	434,321	-0,084	-0,131
-394,365	11,955	0,060	-0,033
-393,350	-90,460	0,089	-0,018
-392,336	800,000	-0,030	-0,070
-391,321	800,000	-0,028	-0,063
-390,306	-37,114	-0,109	-0,042
-389,292	183,466	-0,039	0,041
-388,277	12,862	-0,017	0,009
-387,263	571,937	-0,053	-0,092
-386,248	296,339	0,054	-0,071
-385,233	40,154	-0,067	-0,043
-384,219	10,474	0,061	-0,033
-383,204	32,672	-0,090	-0,056
-382,190	-200,000	-0,029	-0,124
-381,175	-200,000	0,016	0,092
-380,160	278,187	0,039	0,050
-379,146	800,000	0,041	0,084
-378,131	2,630	0,133	0,069
-377,117	101,725	-0,101	0,085
-376,102	-62,285	-0,075	-0,022
-375,088	-200,000	0,002	-0,009
-374,073	739,777	-0,053	0,102
-373,058	165,266	0,137	-0,138
-372,044	-133,012	-0,059	-0,005
-371,029	138,299	0,149	0,140
-370,015	-200,000	0,024	0,095
-369,000	-54,815	-0,135	0,043
-367,985	-190,077	-0,026	-0,000
-366,971	-95,524	0,079	-0,015
-365,956	84,637	0,076	0,060
-364,942	-25,322	0,065	0,027
-363,927	144,998	0,042	0,040
-362,912	800,000	0,059	-0,129
-361,898	-127,881	-0,057	-0,006
-360,883	322,477	-0,042	-0,057
-359,869	-23,316	-0,062	-0,027
-358,854	-119,600	0,065	0,008
-357,839	-200,000	0,019	-0,070
-356,825	-21,646	-0,100	0,043
-355,810	13,075	-0,088	0,049
-354,796	495,459	0,031	0,052
-353,781	-114,618	-0,014	0,002
-352,766	-47,834	-0,135	-0,046
-351,752	800,000	0,061	0,150
-350,737	800,000	-0,041	0,113
-349,723	2,366	0,115	0,059
-348,708	14,397	-0,056	0,031
-347,693	-200,000	0,012	-0,085
-346,679	185,153	-0,037	0,039
-345,664	800,000	-0,033	0,073
-344,650	110,162	0,038	0,033
-343,635	208,039	0,053	-0,059
-342,620	274,479	0,035	0,045
-341,606	-150,842	0,145	-0,008
-340,591	157,496	-0,002	0,002
-339,577	92,445	-0,120	-0,097
-338,562	142,727	-0,083	-0,079
-337,548	-0,824	-0,055	0,028
-336,533	-59,425	0,108	-0,033
-335,518	124,518	0,091	0,082
-334,504	-84,672	-0,023	-0,005
-333,489	-200,000	0,005	0,032
-332,475	800,000	0,021	0,050
-331,460	344,882	-0,084	-0,118
-330,445	-7,649	0,103	0,050
-329,431	-54,360	-0,089	0,029
-328,416	-21,589	0,062	0,027
-327,402	-200,000	-0,010	0,173
-326,387	-200,000	0,005	0,107
-325,372	111,685	-0,129	0,112
-324,358	-50,876	-0,133	-0,045
-323,343	-26,074	-0,048	0,020
-322,329	155,717	-0,064	0,063
-321,314	118,189	0,168	0,148
-320,299	205,426	-0,089	0,099
-319,285	-62,215	-0,078	-0,023
-318,270	-138,819	0,101	0,008
-317,256	-115,483	-0,086	-0,011
-316,241	-51,247	-0,130	-0,043
-315,226	-200,000	0,010	0,103
-314,212	-200,000	0,014	0,162
-313,197	8,928	0,070	-0,038
-312,183	-43,660	0,098	-0,035
-311,168	800,000	-0,025	-0,073
-310,153	125,657	-0,016	0,014
-309,139	293,435	-0,037	-0,048
-308,124	-200,000	-0,003	0,152
-307,110	-200,000	0,029	0,111
-306,095	79,380	-0,046	0,035
-305,080	52,263	-0,046	-0,031
-304,066	-111,118	-0,122	-0,018
-303,051	166,090	-0,053	0,053
-302,037	330,448	0,064	0,088
-301,022	-200,000	0,009	-0,103
-300,008	147,737	0,062	0,060
-298,993	-96,197	-0,034	0,006
-297,978	-122,785	-0,082	-0,009
-296,964	158,339	-0,056	-0,055
-295,949	800,000	0,023	-0,048
-294,935	-25,598	-0,075	-0,032
-293,920	38,510	-0,123	-0,078
-292,905	90,728	0,021	0,016
-291,891	-41,443	-0,072	0,026
-290,876	-87,572	-0,018	0,004
-289,862	-140,371	-0,062	-0,005
-288,847	76,048	0,118	-0,089
-287,832	800,000	-0,012	-0,030
-286,818	8,554	0,037	-0,020
-285,803	150,224	0,021	0,020
-284,789	34,712	0,179	0,111
-283,774	-100,779	-0,100	-0,017
-282,759	-0,319	0,014	-0,007
-281,745	-200,000	0,001	-0,129
-280,730	800,000	-0,049	-0,111
-279,716	228,939	0,037	0,043
-278,701	-116,100	0,074	-0,010
-277,686	-15,161	0,132	0,060
-276,672	800,000	0,045	0,115
-275,657	800,000	-0,059	0,138
-274,643	269,726	0,023	0,029
-273,628	114,678	0,107	-0,093
-272,613	-14,633	-0,115	-0,052
-271,599	-200,000	0,013	0,181
-270,584	-90,953	0,091	-0,019
-269,570	-200,000	-0,006	-0,065
-268,555	-200,000	-0,012	-0,111
-267,540	493,467	-0,058	-0,095
-266,526	-153,824	-0,102	0,005
-265,511	-200,000	-0,022	-0,086
-264,497	75,664	0,026	0,019
-263,482	-200,000	-0,055	0,189
-262,467	46,681	0,163	0,108
-261,453	-200,000	-0,007	0,055
-260,438	-200,000	-0,005	0,044
-259,424	299,626	-0,003	-0,004
-258,409	-200,000	0,002	0,076
-257,395	800,000	0,048	-0,106
-256,380	800,000	0,064	0,127
-255,365	-77,954	0,075	0,018
-254,351	800,000	0,021	0,061
-253,336	-200,000	-0,021	0,087
-252,322	-200,000	0,008	0,000
-251,307	-200,000	-0,016	-0,145
-250,292	800,000	0,003	0,009
-249,278	225,509	0,039	0,045
-248,263	5,273	0,021	-0,011
-247,249	167,589	0,134	0,136
-246,234	800,000	-0,011	0,025
-245,219	637,152	0,079	-0,144
-244,205	596,860	-0,039	0,069
-243,190	-200,000	-0,035	0,132
-242,176	22,000	0,171	0,099
-241,161	-200,000	0,004	0,064
-240,146	673,219	-0,048	0,090
-239,132	-200,000	-0,007	0,112
-238,117	46,014	-0,088	-0,058
-237,103	-50,358	-0,022	0,007
-236,088	800,000	-0,018	0,046
-235,073	-77,697	0,122	-0,030
-234,059	-200,000	-0,007	0,073
-233,044	465,525	-0,070	0,113
-232,030	-119,545	-0,056	-0,007
-231,015	258,524	-0,091	-0,112
-230,000	-200,000	-0,000	-0,126
-228,986	16,423	-0,070	-0,039
-227,971	139,364	0,028	0,026
-226,957	-88,525	0,242	0,051
-225,942	800,000	-0,026	0,056
-224,927	587,099	-0,053	-0,093
-223,913	-119,176	-0,081	-0,010
-222,898	327,840	-0,083	-0,113
-221,884	-48,786	-0,057	0,019
-220,869	551,923	-0,045	0,077
-219,855	-200,000	-0,018	0,144
-218,840	800,000	-0,058	0,135
-217,825	-200,000	0,001	-0,010
-216,811	226,704	-0,059	-0,068
-215,796	-200,000	-0,023	-0,107
-214,782	34,972	-0,205	-0,127
-213,767	-144,100	0,141	-0,009
-212,752	7,007	0,086	-0,045
-211,738	800,000	-0,024	0,062
-210,723	-77,362	-0,071	0,017
-209,709	135,667	-0,048	-0,044
-208,694	39,694	-0,071	-0,045
-207,679	-104,476	0,089	-0,015
-206,665	536,466	-0,032	0,054
-205,650	800,000	0,032	-0,077
-204,636	-200,000	0,012	0,120
-203,621	-200,000	0,010	-0,112
-202,606	-200,000	-0,006	-0,078
-201,592	800,000	0,007	-0,018
-200,577	414,104	-0,084	-0,128
-199,563	-200,000	-0,016	0,059
-198,548	-200,000	0,026	0,186
-197,533	800,000	-0,036	0,104
-196,519	7,598	0,100	-0,053
-195,504	-200,000	0,013	-0,072
-194,490	-69,395	-0,110	0,030
-193,475	-200,000	-0,024	-0,163
-192,460	-57,158	-0,118	-0,037
-191,446	-58,188	0,064	-0,020
-190,431	56,049	0,122	0,084
-189,417	70,221	0,044	0,033
-188,402	-136,514	0,082	0,007
-187,387	-200,000	-0,008	-0,037
-186,373	-180,744	-0,064	-0,001
-185,358	-65,329	0,041	-0,012
-184,344	800,000	0,056	0,115
-183,329	184,517	-0,092	0,097
-182,315	243,546	0,038	0,046
-181,300	-200,000	0,012	0,087
-180,285	-200,000	0,022	-0,110
-179,271	198,235	0,088	-0,096
-178,256	-200,000	-0,006	-0,079
-177,242	-6,833	-0,072	-0,035
-176,227	-95,289	0,086	-0,016
-175,212	392,043	0,022	0,033
-174,198	-82,093	-0,166	0,038
-173,183	-122,427	-0,125	0,014
-172,169	103,443	0,025	-0,021
-171,154	800,000	-0,031	-0,071
-170,139	124,956	0,066	0,059
-169,125	-149,128	0,145	0,008
-168,110	-143,850	-0,081	0,005
-167,096	-200,000	0,042	-0,147
-166,081	-200,000	0,049	-0,208
-165,066	-162,052	-0,219	0,008
-164,052	-169,060	0,093	-0,002
-163,037	666,782	-0,032	-0,059
-162,023	-200,000	0,003	-0,119
-161,008	53,123	-0,052	-0,036
-159,993	-200,000	-0,018	0,095
-158,979	311,108	0,048	-0,064
-157,964	189,487	0,102	-0,109
-156,950	800,000	0,014	-0,029
-155,935	207,631	0,025	0,027
-154,920	-125,917	-0,041	-0,004
-153,906	36,792	0,119	-0,074
-152,891	165,208	0,069	0,069
-151,877	-4,115	0,083	-0,041
-150,862	-38,606	-0,182	-0,068
-149,847	-200,000	-0,019	-0,103
-148,833	496,311	-0,051	0,083
-147,818	341,226	0,090	0,126
-146,804	-172,945	0,049	-0,001
-145,789	486,803	-0,045	0,074
-144,775	-200,000	0,028	-0,140
-143,760	-28,760	-0,098	-0,040
-142,745	359,355	-0,102	-0,145
-141,731	-200,000	0,005	-0,066
-140,716	-200,000	-0,004	0,055
-139,702	800,000	-0,052	0,134
-138,687	800,000	0,053	0,124
-137,672	459,051	0,042	0,067
-136,658	448,105	-0,017	0,027
-135,643	82,676	0,138	-0,106
-134,629	-15,476	0,114	0,052
-133,614	-200,000	-0,001	0,067
-132,599	-55,184	-0,105	0,033
-131,585	-103,324	0,099	-0,016
-130,570	-200,000	0,011	0,075
-129,556	-49,071	-0,077	-0,026
-128,541	103,379	-0,053	0,044
-127,526	-200,000	0,007	-0,124
-126,512	22,094	0,086	-0,050
-125,497	-200,000	0,015	0,067
-124,483	90,789	-0,047	0,037
-123,468	86,348	-0,046	0,036
-122,453	41,951	0,066	-0,042
-121,439	-178,212	-0,024	0,000
-120,424	-43,700	-0,086	0,031
-119,410	800,000	0,057	-0,135
-118,395	-28,865	-0,045	-0,018
-117,380	58,492	0,069	0,048
-116,366	34,711	0,106	-0,066
-115,351	-8,342	-0,068	0,032
-114,337	198,140	-0,128	0,139
-113,322	362,817	-0,043	-0,061
-112,307	-200,000	0,002	-0,099
-111,293	-200,000	-0,012	0,046
-110,278	-200,000	0,014	-0,076
-109,264	50,922	0,079	0,053
-108,249	237,839	-0,062	-0,073
-107,234	408,037	-0,062	-0,093
-106,220	4,309	-0,186	0,096
-105,205	800,000	0,014	0,035
-104,191	401,150	-0,045	0,067
-103,176	-144,422	0,078	0,005
-102,162	-88,203	-0,136	0,029
-101,147	800,000	-0,021	-0,064
-100,132	-50,340	-0,084	-0,028
-99,118	800,000	-0,004	-0,013
-98,103	-53,798	0,088	0,028
-97,089	-108,886	0,063	-0,009
-96,074	25,865	0,061	-0,036
-95,059	800,000	0,037	-0,079
-94,045	91,850	-0,037	0,030
-93,030	-200,000	-0,141	-0,000
-92,016	800,000	-0,019	-0,044
-91,001	800,000	-0,019	0,045
-89,986	123,160	0,148	0,131
-88,972	193,524	0,091	0,098
-87,957	491,654	-0,074	0,121
-86,943	250,660	0,072	-0,087
-85,928	59,101	0,042	0,030
-84,913	284,914	-0,084	-0,108
-83,899	96,775	-0,061	-0,049
-82,884	-108,431	0,089	0,013
-81,870	209,022	-0,040	-0,044
-80,855	-96,782	0,119	-0,022
-79,840	-200,000	-0,011	-0,038
-78,826	-26,371	0,087	-0,036
-77,811	-200,000	-0,010	-0,106
-76,797	-200,000	0,016	-0,071
-75,782	330,122	0,006	0,008
-74,767	725,207	0,092	0,174
-73,753	-200,000	-0,009	0,097
-72,738	-200,000	0,008	-0,190
-71,724	-200,000	0,020	-0,095
-70,709	398,000	-0,061	-0,091
-69,694	479,193	-0,039	-0,063
-68,680	-200,000	-0,074	0,242
-67,665	-100,584	0,102	0,018
-66,651	-100,296	0,048	0,008
-65,636	-200,000	-0,001	0,093
-64,622	800,000	0,010	0,024
-63,607	800,000	0,034	0,107
-62,592	-200,000	0,041	-0,170
-61,578	-135,096	-0,073	0,006
-60,563	-20,077	0,112	0,049
-59,549	167,586	-0,080	0,080
-58,534	-22,674	-1,494	-0,637
-57,519	397,796	-1,411	-2,096
-56,505	-200,000	-0,548	-4,765
-55,490	61,874	1,051	0,740
-54,476	800,000	4,974	11,428
-53,461	-200,000	18,720	304,326
-52,446	800,000	735,565	2288,242
-51,432	566,754	1651,880	2849,290
-50,417	79,026	1669,955	1264,666
-49,403	22,100	1542,973	889,041
-48,388	16,037	1465,649	815,048
-47,373	17,706	1455,640	817,506
-46,359	16,874	1445,874	808,002
-45,344	14,305	1441,076	792,995
-44,330	14,243	1439,373	791,729
-43,315	14,222	1437,687	790,669
-42,300	14,195	1436,150	789,663
-41,286	14,252	1434,762	789,142
-40,271	14,235	1433,351	788,255
-39,257	14,182	1432,292	787,387
-38,242	14,244	1430,894	786,885
-37,227	14,269	1429,637	786,277
-36,213	14,244	1428,571	785,545
-35,198	14,242	1427,294	784,802
-34,184	14,283	1426,476	784,515
-33,169	14,222	1424,893	783,321
-32,154	14,269	1423,815	782,921
-31,140	14,248	1422,810	782,238
-30,125	14,258	1421,726	781,661
-29,111	14,274	1420,425	780,989
-28,096	14,259	1419,321	780,279
-27,082	14,177	1418,331	779,319
-26,067	14,130	1417,342	778,521
-25,052	14,210	1415,968	778,114
-24,038	14,168	1415,064	777,390
-23,023	14,164	1414,127	776,821
-22,009	14,148	1413,355	776,292
-20,994	14,141	1412,225	775,609
-19,979	14,099	1411,560	775,018
-18,965	14,077	1410,537	774,321
-17,950	14,100	1409,591	773,876
-16,936	14,146	1408,350	773,382
-15,921	14,035	1407,577	772,406
-14,906	14,084	1406,629	772,087
-13,892	14,087	1405,645	771,527
-12,877	14,096	1404,691	771,017
-11,863	14,123	1403,824	770,637
-10,848	14,051	1402,977	769,806
-9,833	14,006	1402,233	769,155
-8,819	14,035	1401,019	768,593
-7,804	14,041	1400,286	768,188
-6,790	13,942	1399,431	767,230
-5,775	13,980	1398,150	766,676
-4,760	14,013	1397,173	766,264
-3,746	13,949	1396,521	765,574
-2,731	13,982	1395,708	765,255
-1,717	13,934	1394,988	764,606
-0,702	13,986	1392,880	763,659
0,313	17,742	1311,141	736,278
1,327	33,921	706,396	434,178
2,342	51,606	124,243	83,426
3,356	1,400	16,752	8,492
4,371	16,172	3,210	1,785
5,386	59,436	0,528	0,367
6,400	269,456	0,109	0,136
7,415	172,390	-0,142	-0,145
8,429	-95,144	-0,409	-0,077
9,444	309,855	-0,268	-0,355
10,459	430,994	-0,197	-0,303
11,473	114,770	-0,340	-0,293
12,488	-108,554	-0,247	-0,037
13,502	97,932	-0,271	-0,221
14,517	28,960	-0,432	-0,258
15,531	111,819	-0,406	-0,346
16,546	27,459	-0,479	-0,284
17,561	173,139	-0,263	-0,268
18,575	137,973	-0,201	-0,186
19,590	7,193	-0,321	-0,169
20,604	137,181	-0,197	-0,182
21,619	56,632	-0,477	-0,327
22,634	242,542	-0,324	-0,384
23,648	80,313	-0,543	-0,412
24,663	73,999	-0,407	-0,301
25,677	316,821	-0,313	-0,418
26,692	13,863	-0,214	-0,117
27,707	-9,411	-0,420	-0,197
28,721	11,405	-0,410	-0,221
29,736	152,627	-0,344	-0,332
30,750	110,405	-0,374	-0,317
31,765	66,139	-0,424	-0,303
32,780	11,461	-0,272	-0,147
33,794	293,847	-0,276	-0,356
34,809	120,490	-0,251	-0,220
35,823	26,056	-0,349	-0,205
36,838	44,787	-0,326	-0,211
37,853	68,181	-0,436	-0,315
38,867	138,482	-0,304	-0,281
39,882	168,775	-0,281	-0,283
40,896	193,449	-0,264	-0,282
41,911	73,997	-0,372	-0,275
42,926	150,656	-0,325	-0,311
43,940	68,555	-0,427	-0,308
44,955	183,573	-0,269	-0,280
45,969	8,417	-0,398	-0,210
46,984	71,984	-0,218	-0,160
47,999	168,579	-0,258	-0,259
49,013	70,757	-0,300	-0,218
50,028	100,169	-0,273	-0,223
51,042	25,800	-0,295	-0,173
52,057	128,839	-0,353	-0,317
53,071	294,913	-0,281	-0,362
54,086	51,393	-0,239	-0,159
55,101	84,644	-0,319	-0,246
56,115	-23,923	-0,408	-0,171
57,130	1,590	-0,399	-0,202
58,144	-101,767	-0,374	-0,063
59,159	46,478	-0,346	-0,226
60,174	-69,719	-0,543	-0,145
61,188	130,620	-0,206	-0,186
62,203	98,802	-0,353	-0,287
63,217	20,448	-0,342	-0,194
64,232	23,155	-0,391	-0,225
65,247	52,792	-0,394	-0,265
66,261	109,742	-0,278	-0,235
67,276	60,902	-0,389	-0,271
68,290	123,038	-0,253	-0,223
69,305	46,870	-0,286	-0,187
70,320	-59,564	-0,356	-0,107
71,334	103,224	-0,322	-0,265
72,349	171,038	-0,297	-0,299
73,363	64,448	-0,420	-0,297
74,378	-63,048	-0,439	-0,127
75,393	215,200	-0,328	-0,367
76,407	12,828	-0,301	-0,163
77,422	120,612	-0,270	-0,236
78,436	10,048	-0,318	-0,169
79,451	53,558	-0,291	-0,196
80,466	93,766	-0,246	-0,196
81,480	49,914	-0,344	-0,228
82,495	-16,403	-0,310	-0,137
83,509	65,887	-0,212	-0,151
84,524	37,554	-0,273	-0,170
85,539	-97,495	-0,319	-0,058
86,553	370,189	-0,140	-0,200
87,568	116,931	-0,309	-0,266
88,582	367,008	-0,192	-0,273
89,597	-13,403	-0,438	-0,198
90,611	94,421	-0,286	-0,228
91,626	214,851	-0,174	-0,194
92,641	-45,469	-0,319	-0,110
93,655	268,391	-0,305	-0,376
94,670	35,056	-0,296	-0,181
95,684	86,306	-0,201	-0,155
96,699	244,710	-0,270	-0,319
97,714	365,613	-0,159	-0,226
98,728	87,408	-0,294	-0,228
99,743	726,832	-0,198	-0,372
100,757	62,833	-0,215	-0,150
101,772	-27,599	-0,267	-0,108
102,787	60,716	-0,280	-0,194
103,801	-38,597	-0,385	-0,142
104,816	-40,851	-0,293	-0,106
105,830	29,232	-0,262	-0,156
106,845	92,821	-0,278	-0,220
107,860	800,000	-0,107	-0,285
108,874	65,116	-0,258	-0,183
109,889	800,000	-0,126	-0,258
110,903	62,959	-0,312	-0,219
111,918	-100,277	-0,265	-0,046
112,933	218,731	-0,206	-0,231
113,947	85,495	-0,297	-0,228
114,962	293,183	-0,162	-0,207
115,976	-20,711	-0,333	-0,143
116,991	222,284	-0,206	-0,232
118,006	131,028	-0,148	-0,133
119,020	114,595	-0,210	-0,179
120,035	172,362	-0,230	-0,232
121,049	-166,179	-0,211	-0,006
122,064	85,365	-0,256	-0,197
123,079	67,246	-0,251	-0,179
124,093	132,666	-0,258	-0,233
125,108	292,898	-0,236	-0,302
126,122	145,986	-0,221	-0,207
127,137	132,189	-0,276	-0,249
128,151	-100,840	-0,263	-0,045
129,166	160,723	-0,246	-0,240
130,181	18,117	-0,251	-0,139
131,195	35,366	-0,240	-0,147
132,210	70,663	-0,317	-0,229
133,224	-39,103	-0,342	-0,125
134,239	11,898	-0,217	-0,116
135,254	-114,115	-0,186	0,025
136,268	-6,011	-0,182	-0,087
137,283	-46,088	-0,340	-0,116
138,297	-93,396	-0,281	-0,054
139,312	489,796	-0,196	-0,314
140,327	419,952	-0,202	-0,303
141,341	-17,336	-0,188	-0,083
142,356	28,423	-0,279	-0,164
143,370	82,107	-0,283	-0,214
144,385	49,162	-0,258	-0,169
145,400	-10,096	-0,376	-0,174
146,414	800,000	-0,135	-0,263
147,429	57,680	-0,284	-0,194
148,443	-33,333	-0,246	-0,095
149,458	-33,098	-0,224	-0,086
150,473	31,069	-0,178	-0,107
151,487	-144,123	-0,308	-0,020
152,502	-23,300	-0,246	-0,103
153,516	79,559	-0,251	-0,188
154,531	61,198	-0,307	-0,213
155,546	124,335	-0,155	-0,136
156,560	0,416	-0,257	-0,128
157,575	800,000	-0,104	-0,212
158,589	697,300	-0,159	-0,292
159,604	82,392	-0,300	-0,227
160,619	572,439	-0,148	-0,253
161,633	605,992	-0,148	-0,259
162,648	246,168	-0,203	-0,239
163,662	-2,771	-0,307	-0,149
164,677	58,629	-0,157	-0,107
165,692	-58,569	-0,300	-0,090
166,706	22,051	-0,165	-0,094
167,721	53,741	-0,249	-0,166
168,735	176,527	-0,216	-0,219
169,750	-99,524	-0,276	0,048
170,764	46,220	-0,279	-0,180
171,779	488,995	-0,133	-0,213
172,794	800,000	-0,095	-0,277
173,808	16,143	-0,208	-0,114
174,823	4,255	-0,206	-0,105
175,837	45,712	-0,237	-0,152
176,852	800,000	-0,206	-0,413
177,867	265,511	-0,143	-0,175
178,881	50,059	-0,260	-0,171
179,896	-31,583	-0,265	-0,103
180,910	21,870	-0,213	-0,121
181,925	49,055	-0,182	-0,119
182,940	219,437	-0,269	-0,300
183,954	635,970	-0,113	-0,200
184,969	-54,829	-0,182	-0,057
185,983	-137,510	-0,194	0,015
186,998	-42,601	-0,285	-0,101
188,013	119,227	-0,246	-0,211
189,027	34,904	-0,262	-0,159
190,042	245,725	-0,208	-0,244
191,056	77,401	-0,293	-0,216
192,071	260,754	-0,202	-0,243
193,086	105,492	-0,202	-0,166
194,100	77,100	-0,079	-0,059
195,115	-112,012	-0,188	-0,026
196,129	116,516	-0,186	-0,158
197,144	145,114	-0,305	-0,284
198,159	5,140	-0,178	-0,091
199,173	373,347	-0,131	-0,185
200,188	317,279	-0,133	-0,176
201,202	-96,685	-0,153	0,028
202,217	-200,000	-0,013	-0,160
203,232	218,431	-0,249	-0,276
204,246	196,253	-0,224	-0,238
205,261	-25,445	-0,219	-0,089
206,275	95,891	-0,266	-0,211
207,290	108,532	-0,141	-0,117
208,304	-73,376	-0,190	-0,048
209,319	707,736	-0,099	-0,182
210,334	30,056	-0,190	-0,112
211,348	21,690	-0,284	-0,160
212,363	82,866	-0,129	-0,097
213,377	280,925	-0,129	-0,161
214,392	800,000	-0,065	-0,171
215,407	502,291	-0,110	-0,178
216,421	455,275	-0,070	-0,108
217,436	457,557	-0,162	-0,250
218,450	6,477	-0,231	-0,119
219,465	422,502	-0,215	-0,322
220,480	96,219	-0,213	-0,169
221,494	-168,697	-0,095	0,002
222,509	189,553	-0,185	-0,192
223,523	116,139	-0,192	-0,163
224,538	332,253	-0,159	-0,213
225,553	-158,347	-0,209	-0,008
226,567	-174,267	-0,120	-0,002
227,582	171,992	-0,155	-0,155
228,596	87,152	-0,068	-0,052
229,611	155,088	-0,212	-0,203
230,626	800,000	-0,072	-0,142
231,640	163,055	-0,158	-0,154
232,655	-40,801	-0,231	-0,083
233,669	354,580	-0,183	-0,252
234,684	388,748	-0,200	-0,288
235,699	-200,000	-0,056	-0,243
236,713	-55,567	-0,103	-0,032
237,728	410,280	-0,074	-0,110
238,742	7,483	-0,196	-0,101
239,757	-112,930	-0,265	-0,036
240,772	17,068	-0,197	-0,108
241,786	20,324	-0,140	-0,078
242,801	15,667	-0,287	-0,156
243,815	114,621	-0,172	-0,145
244,830	706,505	-0,148	-0,271
245,844	-200,000	-0,063	-0,226
246,859	-22,671	-0,238	-0,099
247,874	-15,975	-0,185	-0,081
248,888	4,194	-0,119	-0,060
249,903	800,000	-0,041	-0,107
250,917	800,000	-0,052	-0,150
251,932	48,274	-0,148	-0,096
252,947	-158,677	-0,178	0,007
253,961	-28,353	-0,171	-0,068
254,976	289,715	-0,261	-0,329
255,990	496,507	-0,124	-0,198
257,005	58,010	-0,282	-0,191
258,020	372,983	-0,107	-0,152
259,034	-88,853	-0,190	-0,039
260,049	7,157	-0,088	-0,046
261,063	78,108	-0,148	-0,109
262,078	14,781	-0,252	-0,136
263,093	-32,960	-0,245	-0,094
264,107	155,192	-0,082	-0,078
265,122	18,505	-0,096	0,053
266,136	-1,540	-0,199	-0,096
267,151	744,877	-0,106	-0,197
268,166	-35,434	-0,120	-0,045
269,180	-28,176	-0,231	-0,092
270,195	-7,588	-0,159	-0,074
271,209	22,035	-0,182	-0,103
272,224	-200,000	-0,085	-0,270
273,239	-23,431	-0,071	-0,029
274,253	-61,090	-0,266	-0,077
275,268	-17,874	-0,220	-0,095
276,282	-200,000	-0,038	-0,167
277,297	15,817	-0,208	-0,113
278,312	-200,000	-0,042	-0,153
279,326	104,744	-0,120	-0,098
280,341	46,433	-0,192	-0,123
281,355	2,650	-0,193	-0,096
282,370	-125,293	-0,035	-0,004
283,384	-99,553	-0,187	-0,032
284,399	234,103	-0,123	-0,140
285,414	580,867	-0,117	-0,198
286,428	603,227	-0,038	0,066
287,443	-48,886	-0,265	-0,087
288,457	3,809	-0,212	-0,106
289,472	19,806	-0,178	-0,099
290,487	157,668	-0,092	-0,088
291,501	440,605	-0,118	-0,178
292,516	26,873	-0,234	-0,135
293,530	-63,759	-0,120	-0,034
294,545	99,867	-0,163	-0,130
295,560	2,979	-0,169	-0,084
296,574	381,910	-0,109	-0,155
297,589	305,893	-0,189	-0,242
298,603	180,948	-0,131	-0,133
299,618	65,625	-0,195	-0,136
300,633	761,689	-0,178	-0,335
301,647	-50,033	-0,135	-0,044
302,662	800,000	-0,077	-0,154
303,676	-200,000	-0,015	-0,065
304,691	190,425	-0,191	-0,198
305,706	23,870	-0,255	-0,144
306,720	24,150	-0,131	-0,074
307,735	110,406	-0,055	-0,046
308,749	35,902	-0,051	-0,031
309,764	392,803	-0,117	-0,168
310,779	-184,668	-0,125	-0,001
311,793	9,561	-0,136	-0,071
312,808	167,375	-0,182	-0,178
313,822	132,077	-0,240	-0,212
314,837	-92,709	-0,161	-0,031
315,852	-159,198	-0,147	-0,006
316,866	66,988	-0,155	-0,108
317,881	-19,035	-0,162	-0,069
318,895	43,685	-0,227	-0,143
319,910	189,378	-0,138	-0,142
320,925	-46,550	-0,194	-0,065
321,939	-31,499	-0,227	-0,087
322,954	800,000	-0,069	-0,202
323,968	-147,425	-0,181	-0,010
324,983	-200,000	0,001	-0,051
325,997	283,275	-0,133	-0,164
327,012	270,570	-0,184	-0,223
328,027	-36,404	-0,131	-0,048
329,041	-155,958	-0,180	0,008
330,056	-200,000	-0,073	-0,266
331,070	-200,000	-0,007	-0,044
332,085	-45,320	-0,090	-0,030
333,100	175,263	-0,112	-0,111
334,114	196,252	-0,128	-0,134
335,129	187,685	-0,172	-0,177
336,143	530,366	-0,109	-0,178
337,158	54,172	-0,115	-0,076
338,173	-200,000	-0,026	-0,165
339,187	-47,840	-0,219	-0,073
340,202	228,605	-0,125	-0,140
341,216	800,000	-0,094	-0,201
342,231	71,023	-0,031	-0,022
343,246	5,666	-0,084	0,042
344,260	15,652	-0,174	-0,093
345,275	286,039	-0,089	-0,111
346,289	-67,009	-0,099	0,027
347,304	-99,650	-0,106	0,018
348,319	75,757	-0,188	-0,136
349,333	367,163	-0,052	-0,072
350,348	-127,942	-0,130	-0,013
351,362	-74,868	-0,060	0,015
352,377	-200,000	-0,008	0,079
353,392	360,555	-0,057	-0,079
354,406	51,695	-0,140	-0,091
355,421	209,573	1314,856	1415,384
356,435	161,300	1475,597	1415,869
