DTS Sentinel unit serial number:	SN410029Multiplexer serial number:	ORYXHardware model number:	OX2-SRSoftware version number:	ORYX F/W v4,00 Oryx Data Collector v3.7.2.0data status	okinstallation	B3 Nyhavnadifferential loss correction	single-endedforward channel	channel 1reverse channel	N/Adate	2023/11/29time	16:12:30forward acquisition time	300,00reverse acquisition time	0,00gamma	499,1914k internal	0,3209k external	0,3209temperature offset calibration	1,0000default loss term (dB/km)	0,3820temperature slope calibration	1,0000multiplexer offset coefficient	1,0000multiplexer slope coefficient	1,0000fibre end	0,00T internal ref (°C)	11,44T ext. ref 1 (°C)	-3,56T ext. ref 2 (°C)	-3,68length (m)	temperature (°C)	Stokes	anti-Stokes-744,400	312,951	-0,230	-0,314
-743,385	651,582	-0,059	0,110
-742,371	-200,000	-0,092	-0,390
-741,356	-200,000	-0,007	0,288
-740,342	420,564	-0,169	-0,264
-739,327	-200,000	0,062	0,226
-738,312	616,898	-0,124	-0,227
-737,298	-200,000	0,106	0,428
-736,283	385,808	-0,193	-0,289
-735,269	-200,000	0,008	0,225
-734,254	-81,381	-0,154	-0,037
-733,239	-200,000	-0,035	0,128
-732,225	271,560	-0,143	-0,183
-731,210	-40,326	0,327	0,123
-730,196	-116,341	-0,112	-0,015
-729,181	406,220	0,051	-0,079
-728,167	10,597	-0,106	-0,058
-727,152	231,408	-0,060	-0,071
-726,137	245,189	-0,116	-0,141
-725,123	-51,060	-0,068	0,023
-724,108	-117,375	-0,076	0,010
-723,094	82,518	0,077	0,060
-722,079	-123,226	-0,083	-0,010
-721,064	-65,782	0,034	-0,010
-720,050	73,787	-0,100	0,076
-719,035	558,858	-0,014	-0,024
-718,021	262,913	-0,024	-0,030
-717,006	20,525	0,034	-0,020
-715,991	-125,500	-0,031	-0,003
-714,977	734,623	-0,094	-0,184
-713,962	259,702	-0,061	-0,077
-712,948	800,000	-0,026	0,057
-711,933	-200,000	0,016	0,085
-710,918	800,000	0,021	0,043
-709,904	-114,557	-0,080	0,011
-708,889	-0,611	-0,184	-0,094
-707,875	138,481	0,086	-0,082
-706,860	268,661	-0,011	-0,014
-705,845	800,000	-0,026	-0,057
-704,831	470,480	-0,063	0,104
-703,816	-113,246	-0,058	-0,008
-702,802	497,165	-0,047	-0,079
-701,787	37,504	-0,085	0,054
-700,772	-200,000	0,014	-0,059
-699,758	275,695	-0,128	-0,165
-698,743	-184,927	0,117	0,001
-697,729	172,883	0,091	0,095
-696,714	-169,329	-0,070	-0,002
-695,699	-200,000	0,004	-0,119
-694,685	-6,620	-0,050	-0,025
-693,670	-200,000	-0,001	-0,056
-692,656	-72,050	0,053	-0,014
-691,641	255,183	-0,068	-0,085
-690,627	256,657	0,103	-0,128
-689,612	-200,000	0,001	-0,058
-688,597	-128,649	-0,061	-0,006
-687,583	272,702	-0,180	-0,231
-686,568	-9,620	-0,084	-0,041
-685,554	-200,000	0,002	0,067
-684,539	416,069	-0,063	-0,098
-683,524	800,000	-0,010	0,030
-682,510	414,907	0,049	0,076
-681,495	246,291	-0,044	-0,054
-680,481	-200,000	0,018	-0,131
-679,466	-97,416	-0,211	0,039
-678,451	29,297	0,016	-0,010
-677,437	-109,833	-0,041	0,006
-676,422	304,219	0,071	-0,096
-675,408	800,000	0,029	0,091
-674,393	132,943	0,074	-0,069
-673,378	597,432	-0,027	0,048
-672,364	-58,859	-0,106	-0,033
-671,349	122,462	-0,080	-0,073
-670,335	-118,967	-0,116	0,015
-669,320	332,062	-0,061	0,086
-668,305	800,000	-0,065	0,141
-667,291	-200,000	-0,013	0,121
-666,276	-88,051	-0,051	-0,011
-665,262	261,972	0,065	-0,082
-664,247	449,508	-0,055	-0,089
-663,232	-114,033	0,108	-0,015
-662,218	-200,000	-0,010	0,077
-661,203	-200,000	0,010	0,078
-660,189	98,079	-0,044	-0,036
-659,174	254,613	-0,038	-0,047
-658,159	-51,916	-0,139	-0,047
-657,145	-38,060	-0,085	-0,033
-656,130	800,000	-0,021	0,045
-655,116	543,903	-0,051	-0,089
-654,101	-115,929	-0,062	-0,008
-653,086	167,161	0,075	0,077
-652,072	764,907	0,033	-0,065
-651,057	213,361	-0,022	-0,025
-650,043	6,467	0,046	0,025
-649,028	800,000	0,014	-0,033
-648,014	35,638	0,077	-0,049
-646,999	-200,000	-0,041	0,146
-645,984	161,528	0,107	-0,108
-644,970	-158,301	-0,155	-0,006
-643,955	-104,384	0,071	0,012
-642,941	-200,000	0,012	0,138
-641,926	800,000	0,033	0,094
-640,911	-73,233	0,085	-0,022
-639,897	-70,413	0,096	-0,026
-638,882	123,054	0,083	0,075
-637,868	800,000	-0,034	0,072
-636,853	-102,670	0,141	-0,024
-635,838	321,327	0,039	-0,054
-634,824	-200,000	0,009	-0,049
-633,809	-85,258	-0,176	0,039
-632,795	-112,252	0,172	0,025
-631,780	-200,000	0,034	-0,156
-630,765	-85,420	-0,091	-0,020
-629,751	-200,000	-0,014	-0,065
-628,736	-200,000	0,013	-0,079
-627,722	-75,741	-0,062	-0,016
-626,707	-200,000	0,026	0,088
-625,692	-200,000	0,007	-0,069
-624,678	269,634	0,092	-0,117
-623,663	-117,338	-0,107	0,014
-622,649	-27,554	0,053	-0,022
-621,634	-69,946	-0,065	-0,018
-620,619	0,481	0,026	0,013
-619,605	-19,987	0,033	0,014
-618,590	-70,716	-0,107	-0,029
-617,576	-200,000	0,011	0,121
-616,561	-111,603	0,072	0,010
-615,546	-86,082	0,087	-0,019
-614,532	800,000	-0,037	-0,090
-613,517	-200,000	-0,001	-0,096
-612,503	15,590	-0,069	0,039
-611,488	-169,377	0,092	0,002
-610,474	547,740	-0,058	-0,100
-609,459	-116,609	-0,052	0,007
-608,444	177,641	-0,032	0,034
-607,430	-24,770	-0,070	-0,030
-606,415	-112,109	0,090	0,013
-605,401	85,959	0,054	-0,043
-604,386	800,000	-0,022	-0,045
-603,371	-200,000	0,006	0,075
-602,357	419,744	-0,066	0,102
-601,342	800,000	0,019	-0,049
-600,328	-200,000	0,009	-0,112
-599,313	4,427	-0,130	0,069
-598,298	44,498	0,030	-0,020
-597,284	-186,313	-0,095	-0,001
-596,269	78,237	-0,149	-0,115
-595,255	-4,715	-0,092	0,046
-594,240	800,000	-0,066	0,133
-593,225	4,515	-0,069	-0,036
-592,211	-32,071	-0,157	-0,063
-591,196	-113,550	-0,047	-0,007
-590,182	586,411	-0,025	0,044
-589,167	-200,000	0,019	0,233
-588,152	-125,290	-0,073	-0,008
-587,138	77,975	0,085	-0,066
-586,123	9,160	-0,064	-0,035
-585,109	-56,850	0,054	0,017
-584,094	54,019	-0,062	0,043
-583,079	-200,000	-0,014	-0,063
-582,065	-200,000	0,012	-0,084
-581,050	-113,089	-0,103	-0,014
-580,036	-105,741	-0,065	0,010
-579,021	800,000	0,055	-0,158
-578,006	136,311	0,028	-0,027
-576,992	-200,000	0,034	-0,115
-575,977	88,381	0,027	0,022
-574,963	1,796	0,048	0,025
-573,948	305,352	-0,022	-0,030
-572,934	800,000	-0,011	0,025
-571,919	-104,983	0,141	-0,023
-570,904	14,761	-0,058	-0,033
-569,890	-200,000	0,040	-0,145
-568,875	800,000	-0,023	-0,062
-567,861	-200,000	0,009	0,119
-566,846	-16,766	0,044	-0,020
-565,831	-200,000	0,012	-0,062
-564,817	12,795	-0,121	0,067
-563,802	-200,000	-0,018	-0,136
-562,788	-200,000	0,005	-0,032
-561,773	-133,475	-0,101	-0,009
-560,758	-78,623	0,023	0,006
-559,744	-17,008	-0,140	-0,063
-558,729	-27,268	0,090	0,037
-557,715	266,132	-0,047	-0,059
-556,700	198,510	-0,099	-0,109
-555,685	537,685	-0,082	-0,140
-554,671	-31,458	0,068	-0,027
-553,656	54,030	0,032	-0,022
-552,642	-191,492	0,045	-0,000
-551,627	-3,697	-0,073	-0,036
-550,612	-70,481	0,098	-0,027
-549,598	800,000	0,033	-0,080
-548,583	800,000	-0,049	-0,117
-547,569	-200,000	-0,015	-0,053
-546,554	28,771	-0,018	-0,011
-545,539	474,219	0,053	0,087
-544,525	-72,135	-0,048	0,013
-543,510	800,000	-0,036	0,097
-542,496	-129,204	-0,128	0,013
-541,481	-181,472	-0,119	-0,002
-540,466	150,566	0,055	-0,054
-539,452	-151,582	0,109	0,006
-538,437	82,164	0,008	-0,006
-537,423	-200,000	-0,032	0,128
-536,408	46,554	-0,096	0,064
-535,393	419,329	0,006	-0,009
-534,379	-94,947	-0,033	0,006
-533,364	40,222	-0,068	0,044
-532,350	532,229	0,035	0,060
-531,335	14,448	0,037	0,021
-530,321	800,000	0,032	0,068
-529,306	295,680	-0,084	0,111
-528,291	-200,000	-0,027	-0,152
-527,277	146,961	-0,108	-0,105
-526,262	44,888	0,142	-0,094
-525,248	-200,000	0,037	0,126
-524,233	173,767	0,038	0,040
-523,218	-200,000	0,005	0,051
-522,204	251,960	0,037	-0,046
-521,189	68,266	-0,054	-0,039
-520,175	-200,000	-0,004	0,084
-519,160	-200,000	0,020	-0,108
-518,145	328,667	0,046	0,063
-517,131	61,982	0,056	0,040
-516,116	-200,000	-0,027	0,095
-515,102	123,301	-0,048	-0,043
-514,087	172,367	-0,116	-0,120
-513,072	561,632	0,027	0,047
-512,058	-6,687	-0,030	0,015
-511,043	452,563	0,035	0,056
-510,029	250,862	-0,062	0,075
-509,014	-142,072	-0,132	0,009
-507,999	77,320	-0,086	0,066
-506,985	282,404	-0,022	-0,029
-505,970	93,447	0,069	0,056
-504,956	530,194	-0,129	-0,220
-503,941	405,714	0,038	-0,057
-502,926	-28,812	0,050	-0,020
-501,912	-51,017	-0,021	0,007
-500,897	15,850	0,097	-0,054
-499,883	142,924	-0,154	0,147
-498,868	-200,000	0,018	-0,091
-497,853	-88,993	-0,193	-0,041
-496,839	-114,843	0,163	0,022
-495,824	800,000	-0,007	0,016
-494,810	-25,101	-0,062	-0,026
-493,795	568,521	0,062	0,108
-492,781	-200,000	-0,001	-0,090
-491,766	-61,145	-0,125	-0,038
-490,751	181,733	0,023	-0,024
-489,737	-22,165	0,075	-0,033
-488,722	132,931	0,116	0,108
-487,708	495,333	0,091	0,150
-486,693	39,699	0,102	-0,066
-485,678	277,570	-0,096	0,123
-484,664	124,007	-0,052	-0,047
-483,649	13,462	0,087	-0,048
-482,635	737,694	-0,029	-0,055
-481,620	-18,678	0,035	0,016
-480,605	556,954	-0,076	-0,132
-479,591	-40,960	0,144	-0,053
-478,576	126,598	-0,045	0,040
-477,562	-200,000	-0,040	-0,139
-476,547	-200,000	-0,010	-0,112
-475,532	-56,909	-0,131	-0,041
-474,518	43,749	0,058	-0,038
-473,503	359,633	-0,035	-0,051
-472,489	102,807	-0,085	0,072
-471,474	-136,450	0,120	0,010
-470,459	61,055	-0,082	0,058
-469,445	654,420	0,054	0,100
-468,430	-200,000	0,003	-0,038
-467,416	-42,025	0,102	-0,037
-466,401	-200,000	-0,000	0,099
-465,386	78,699	0,038	0,029
-464,372	-6,179	0,075	0,037
-463,357	-81,155	0,106	0,025
-462,343	800,000	-0,029	-0,087
-461,328	380,172	0,020	-0,030
-460,313	-138,096	0,079	0,006
-459,299	800,000	-0,067	0,143
-458,284	511,687	0,065	0,109
-457,270	-200,000	-0,033	-0,163
-456,255	-59,243	-0,049	-0,015
-455,241	-167,745	0,058	0,002
-454,226	83,011	-0,050	0,039
-453,211	-200,000	-0,017	-0,063
-452,197	-200,000	0,047	0,197
-451,182	-200,000	0,002	0,087
-450,168	-185,983	-0,085	-0,001
-449,153	84,686	-0,056	0,044
-448,138	27,550	0,121	-0,073
-447,124	223,416	0,094	-0,109
-446,109	-200,000	-0,009	-0,046
-445,095	-117,945	-0,023	0,003
-444,080	5,678	0,089	0,047
-443,065	-116,496	0,092	-0,012
-442,051	-176,759	-0,170	-0,003
-441,036	-200,000	0,003	-0,088
-440,022	-200,000	-0,003	-0,030
-439,007	-139,477	0,099	0,007
-437,992	800,000	0,011	-0,023
-436,978	-200,000	-0,001	0,013
-435,963	-200,000	-0,022	0,116
-434,949	71,177	0,037	-0,028
-433,934	-200,000	0,033	-0,111
-432,919	167,764	0,021	-0,021
-431,905	800,000	-0,080	-0,239
-430,890	-200,000	-0,002	0,060
-429,876	-89,686	-0,070	-0,014
-428,861	-200,000	-0,010	0,073
-427,846	117,622	0,198	0,175
-426,832	61,932	-0,064	0,046
-425,817	800,000	-0,035	0,075
-424,803	-200,000	-0,033	-0,112
-423,788	-31,714	0,093	0,037
-422,773	127,952	-0,045	0,041
-421,759	-22,367	0,105	0,045
-420,744	-200,000	-0,003	0,131
-419,730	513,957	-0,048	-0,081
-418,715	24,805	-0,121	0,071
-417,701	47,511	-0,031	-0,021
-416,686	800,000	-0,022	-0,056
-415,671	55,746	0,183	0,127
-414,657	-53,624	-0,163	0,053
-413,642	185,721	-0,058	-0,061
-412,628	800,000	-0,036	-0,077
-411,613	105,375	-0,057	-0,048
-410,598	494,298	0,059	-0,097
-409,584	174,690	-0,083	0,086
-408,569	-56,557	-0,036	0,011
-407,555	59,129	-0,029	-0,021
-406,540	-47,519	0,097	0,034
-405,525	252,350	-0,045	0,055
-404,511	-143,859	-0,133	-0,009
-403,496	87,867	0,078	0,062
-402,482	169,819	-0,072	0,074
-401,467	-66,716	0,069	-0,019
-400,452	53,463	-0,013	-0,009
-399,438	233,462	0,004	-0,005
-398,423	-200,000	0,024	-0,086
-397,409	-200,000	-0,003	0,039
-396,394	362,163	-0,069	0,100
-395,379	-71,158	0,084	-0,022
-394,365	800,000	-0,014	0,030
-393,350	67,779	0,099	0,073
-392,336	-200,000	0,032	0,135
-391,321	3,597	-0,089	0,046
-390,306	800,000	-0,010	-0,023
-389,292	119,267	0,116	-0,102
-388,277	-200,000	0,020	0,071
-387,263	-200,000	0,044	0,186
-386,248	-2,470	0,122	0,061
-385,233	-24,467	0,162	-0,069
-384,219	151,591	-0,121	0,118
-383,204	-55,264	-0,046	0,015
-382,190	800,000	0,008	-0,024
-381,175	62,605	-0,133	-0,095
-380,160	-100,215	-0,080	-0,014
-379,146	55,233	0,021	-0,014
-378,131	71,708	0,059	-0,044
-377,117	-200,000	0,010	0,074
-376,102	36,503	-0,077	0,048
-375,088	62,052	-0,064	-0,046
-374,073	18,157	-0,104	0,059
-373,058	52,577	0,142	0,097
-372,044	-193,917	0,094	0,001
-371,029	-134,896	0,125	-0,011
-370,015	481,707	-0,016	-0,027
-369,000	-200,000	-0,055	0,197
-367,985	33,485	0,027	-0,017
-366,971	-200,000	0,004	-0,031
-365,956	597,368	-0,036	0,064
-364,942	-200,000	-0,002	-0,018
-363,927	778,379	0,062	-0,122
-362,912	639,472	-0,098	-0,179
-361,898	35,682	0,060	0,038
-360,883	-147,037	-0,174	-0,010
-359,869	-200,000	0,017	-0,121
-358,854	133,456	0,057	-0,052
-357,839	-200,000	0,020	0,200
-356,825	800,000	0,046	0,124
-355,810	-157,721	0,083	0,003
-354,796	800,000	-0,057	0,145
-353,781	-200,000	-0,051	-0,184
-352,766	45,611	-0,069	-0,046
-351,752	145,618	0,054	0,051
-350,737	-79,791	0,069	-0,017
-349,723	-200,000	-0,001	0,033
-348,708	686,016	0,031	0,058
-347,693	-98,828	0,153	0,028
-346,679	158,896	-0,097	-0,096
-345,664	613,212	-0,014	-0,025
-344,650	-200,000	-0,021	0,089
-343,635	291,921	0,047	0,062
-342,620	-200,000	-0,002	0,040
-341,606	-125,367	0,016	0,002
-340,591	800,000	0,042	-0,112
-339,577	-20,591	-0,167	0,073
-338,562	-200,000	-0,008	0,124
-337,548	-165,177	-0,091	0,003
-336,533	-200,000	0,020	0,087
-335,518	217,278	0,102	0,117
-334,504	-139,586	0,098	-0,007
-333,489	-132,786	0,078	-0,007
-332,475	-200,000	-0,013	-0,112
-331,460	18,937	-0,196	-0,112
-330,445	-200,000	0,009	-0,083
-329,431	-49,059	0,095	-0,032
-328,416	-200,000	-0,008	0,139
-327,402	800,000	-0,025	0,056
-326,387	-82,260	-0,024	-0,006
-325,372	31,070	-0,034	-0,021
-324,358	93,801	0,138	0,111
-323,343	-200,000	0,001	-0,051
-322,329	-185,902	-0,019	0,000
-321,314	132,937	0,052	0,048
-320,299	26,913	-0,107	0,064
-319,285	331,357	-0,065	-0,090
-318,270	-200,000	-0,018	-0,059
-317,256	-200,000	0,008	0,058
-316,241	660,781	0,044	-0,082
-315,226	102,492	0,065	-0,054
-314,212	800,000	-0,054	0,125
-313,197	61,322	0,128	0,090
-312,183	208,988	-0,081	-0,091
-311,168	800,000	0,023	-0,066
-310,153	181,539	-0,122	-0,128
-309,139	800,000	-0,014	0,033
-308,124	800,000	0,011	0,031
-307,110	800,000	0,052	0,119
-306,095	800,000	0,010	0,030
-305,080	-200,000	0,013	-0,102
-304,066	-200,000	0,015	-0,110
-303,051	800,000	0,055	-0,135
-302,037	-195,462	0,082	0,000
-301,022	61,868	0,103	0,073
-300,008	-106,098	0,095	0,015
-298,993	407,471	0,054	0,082
-297,978	800,000	0,045	0,120
-296,964	297,021	-0,038	-0,050
-295,949	422,193	0,059	-0,091
-294,935	34,835	-0,064	0,040
-293,920	640,714	-0,027	0,049
-292,905	800,000	0,059	0,142
-291,891	538,934	0,015	-0,025
-290,876	37,398	0,086	0,054
-289,862	-33,284	0,091	-0,036
-288,847	800,000	-0,053	-0,122
-287,832	-32,119	-0,094	-0,037
-286,818	-118,586	0,120	-0,015
-285,803	661,115	-0,014	0,025
-284,789	-200,000	0,133	0,000
-283,774	-200,000	0,014	0,094
-282,759	185,001	-0,045	0,047
-281,745	206,380	0,062	0,069
-280,730	-97,584	-0,213	-0,039
-279,716	-200,000	0,008	-0,037
-278,701	-75,409	0,125	0,032
-277,686	-99,596	-0,066	0,012
-276,672	174,606	0,051	-0,053
-275,657	-87,044	-0,076	-0,016
-274,643	201,934	0,084	-0,093
-273,628	-200,000	-0,000	-0,070
-272,613	-200,000	0,014	-0,109
-271,599	314,611	0,078	-0,105
-270,584	248,384	0,028	-0,033
-269,570	108,406	0,074	0,063
-268,555	-85,942	0,050	-0,011
-267,540	-122,276	-0,154	0,018
-266,526	-189,147	-0,131	0,001
-265,511	-200,000	0,015	0,074
-264,497	-200,000	0,011	0,000
-263,482	-196,129	0,228	-0,001
-262,467	-110,888	0,103	0,015
-261,453	800,000	0,020	0,044
-260,438	-14,557	0,100	-0,045
-259,424	-200,000	-0,033	-0,175
-258,409	-200,000	0,049	-0,163
-257,395	271,289	0,082	-0,103
-256,380	-200,000	0,006	-0,021
-255,365	-188,086	0,087	-0,001
-254,351	108,712	-0,057	0,048
-253,336	105,767	-0,022	0,019
-252,322	-69,346	-0,038	0,010
-251,307	-138,800	0,147	0,011
-250,292	286,830	0,050	0,064
-249,278	89,465	0,044	0,035
-248,263	800,000	0,035	0,098
-247,249	-200,000	-0,002	-0,056
-246,234	86,446	-0,143	-0,112
-245,219	516,066	0,087	-0,146
-244,205	287,254	-0,076	-0,098
-243,190	50,450	0,086	0,058
-242,176	-62,418	-0,058	-0,017
-241,161	-200,000	0,024	-0,122
-240,146	-200,000	0,014	0,049
-239,132	-146,970	-0,087	-0,005
-238,117	800,000	-0,026	0,070
-237,103	-200,000	-0,025	-0,178
-236,088	-46,030	0,052	0,018
-235,073	800,000	0,034	0,083
-234,059	422,134	-0,033	0,050
-233,044	38,774	-0,085	0,054
-232,030	-200,000	-0,006	0,067
-231,015	-171,615	-0,095	-0,002
-230,000	-200,000	-0,023	-0,075
-228,986	800,000	0,050	-0,102
-227,971	24,247	0,097	-0,057
-226,957	-200,000	0,032	0,121
-225,942	-200,000	-0,001	0,082
-224,927	-141,216	-0,047	0,003
-223,913	800,000	-0,038	-0,080
-222,898	-200,000	0,000	-0,119
-221,884	-14,030	0,079	0,036
-220,869	-62,194	0,062	0,018
-219,855	-200,000	0,015	0,147
-218,840	433,960	-0,078	0,121
-217,825	800,000	0,036	-0,109
-216,811	-66,201	-0,087	0,025
-215,796	394,273	-0,044	-0,065
-214,782	76,825	0,089	0,067
-213,767	255,935	-0,015	0,018
-212,752	706,402	0,041	0,077
-211,738	96,097	-0,081	-0,066
-210,723	800,000	-0,066	-0,181
-209,709	48,989	-0,063	-0,042
-208,694	26,399	-0,026	-0,015
-207,679	800,000	-0,074	-0,158
-206,665	-200,000	-0,004	0,156
-205,650	-14,050	0,166	0,076
-204,636	247,288	0,083	0,100
-203,621	84,098	-0,075	0,058
-202,606	-61,174	-0,105	-0,031
-201,592	156,465	-0,022	0,022
-200,577	-38,423	-0,034	0,013
-199,563	143,810	0,084	-0,079
-198,548	-200,000	0,017	0,058
-197,533	-200,000	0,009	-0,044
-196,519	-45,349	-0,169	0,059
-195,504	47,837	0,031	0,021
-194,490	-200,000	-0,021	0,080
-193,475	-89,981	0,130	-0,027
-192,460	10,404	0,018	0,010
-191,446	333,075	-0,027	0,038
-190,431	800,000	-0,019	0,049
-189,417	-200,000	0,007	-0,033
-188,402	-200,000	0,040	0,185
-187,387	-15,951	-0,055	0,025
-186,373	41,869	-0,022	0,014
-185,358	17,267	0,019	0,011
-184,344	-200,000	0,030	0,100
-183,329	99,029	-0,073	-0,060
-182,315	-173,771	0,057	0,001
-181,300	-171,479	-0,173	0,004
-180,285	579,110	0,068	-0,118
-179,271	-200,000	0,019	-0,124
-178,256	200,823	0,062	0,067
-177,242	188,066	0,083	0,088
-176,227	-200,000	0,016	0,158
-175,212	168,566	0,045	-0,045
-174,198	-29,752	0,112	-0,045
-173,183	391,706	0,046	-0,068
-172,169	-200,000	0,021	-0,170
-171,154	-62,270	0,088	0,026
-170,139	460,666	0,043	0,069
-169,125	598,316	0,044	0,078
-168,110	-97,189	-0,212	-0,039
-167,096	112,391	-0,065	0,056
-166,081	305,489	0,021	-0,028
-165,066	275,097	-0,044	-0,056
-164,052	-96,828	-0,139	-0,026
-163,037	-200,000	0,024	0,082
-162,023	-47,735	0,108	0,037
-161,008	-51,622	-0,128	0,042
-159,993	800,000	0,025	0,062
-158,979	-122,137	-0,111	0,013
-157,964	-47,062	-0,101	-0,035
-156,950	-200,000	-0,021	0,136
-155,935	13,175	-0,105	-0,057
-154,920	-43,770	-0,048	0,017
-153,906	800,000	0,042	0,102
-152,891	9,274	-0,088	0,047
-151,877	334,534	-0,033	0,046
-150,862	174,932	-0,087	-0,090
-149,847	52,228	0,056	-0,038
-148,833	-200,000	-0,024	-0,119
-147,818	-24,889	0,012	0,005
-146,804	-200,000	-0,007	-0,058
-145,789	-29,589	-0,135	0,054
-144,775	-200,000	-0,020	-0,087
-143,760	800,000	-0,037	-0,079
-142,745	221,878	0,039	-0,044
-141,731	62,061	-0,099	0,070
-140,716	-16,404	0,101	0,045
-139,702	-29,828	0,057	0,023
-138,687	800,000	0,020	-0,044
-137,672	-200,000	0,003	0,137
-136,658	-111,955	0,050	0,007
-135,643	206,564	-0,104	-0,115
-134,629	-200,000	-0,003	0,052
-133,614	800,000	-0,034	0,091
-132,599	85,229	0,116	0,090
-131,585	652,275	0,026	0,047
-130,570	57,379	-0,107	0,074
-129,556	33,839	0,110	-0,068
-128,541	117,408	-0,048	-0,042
-127,526	800,000	-0,027	-0,077
-126,512	287,416	0,018	-0,023
-125,497	286,808	-0,033	0,043
-124,483	-200,000	0,014	0,119
-123,468	183,111	0,054	-0,056
-122,453	333,180	-0,037	0,051
-121,439	120,479	-0,127	-0,112
-120,424	-200,000	0,013	-0,156
-119,410	371,313	-0,077	0,111
-118,395	800,000	0,027	0,075
-117,380	-72,245	-0,119	-0,031
-116,366	-86,041	-0,067	0,014
-115,351	800,000	0,010	0,031
-114,337	800,000	0,020	0,043
-113,322	-200,000	-0,009	-0,039
-112,307	-25,527	-0,093	0,039
-111,293	-146,732	-0,131	0,008
-110,278	182,857	-0,047	-0,049
-109,264	-184,402	-0,046	0,001
-108,249	-122,479	-0,066	0,007
-107,234	-147,833	-0,176	0,010
-106,220	127,112	-0,037	-0,033
-105,205	-112,641	0,144	0,020
-104,191	800,000	-0,013	0,038
-103,176	800,000	0,005	-0,010
-102,162	19,617	0,112	-0,064
-101,147	-200,000	-0,029	-0,096
-100,132	800,000	0,006	-0,019
-99,118	-148,835	-0,071	0,004
-98,103	150,975	0,104	0,100
-97,089	42,672	-0,051	-0,033
-96,074	-10,958	0,089	-0,041
-95,059	764,836	-0,094	0,182
-94,045	-155,748	-0,139	0,006
-93,030	-103,436	-0,021	0,003
-92,016	-200,000	0,009	-0,144
-91,001	54,406	-0,062	0,042
-89,986	220,758	-0,033	-0,038
-88,972	-72,299	0,095	0,025
-87,957	63,257	-0,230	0,163
-86,943	800,000	-0,017	-0,043
-85,928	-200,000	0,001	0,079
-84,913	800,000	-0,091	-0,275
-83,899	350,980	-0,009	-0,012
-82,884	-200,000	0,030	0,143
-81,870	-95,805	-0,131	0,025
-80,855	190,727	-0,023	0,024
-79,840	-50,963	0,035	-0,011
-78,826	-94,979	-0,121	0,023
-77,811	-59,903	-0,024	-0,007
-76,797	-117,882	-0,070	0,009
-75,782	4,106	0,083	0,043
-74,767	-200,000	0,007	0,083
-73,753	271,489	0,014	0,017
-72,738	51,300	-0,024	0,016
-71,724	-23,516	-0,119	0,050
-70,709	214,899	0,092	-0,103
-69,694	-15,987	-0,003	-0,001
-68,680	229,404	0,057	-0,066
-67,665	40,263	0,142	0,090
-66,651	800,000	0,069	0,141
-65,636	-70,916	-0,028	-0,007
-64,622	93,845	-0,101	-0,081
-63,607	31,127	0,099	-0,060
-62,592	128,755	-0,172	-0,155
-61,578	-10,145	0,078	-0,036
-60,563	-200,000	0,028	0,095
-59,549	223,386	0,102	0,117
-58,534	1,783	-1,974	-1,002
-57,519	381,418	-1,372	-1,996
-56,505	-200,000	-0,241	-4,269
-55,490	503,936	0,756	1,239
-54,476	800,000	5,070	11,409
-53,461	-200,000	20,510	326,280
-52,446	800,000	751,889	2309,636
-51,432	549,476	1657,905	2817,408
-50,417	74,013	1663,612	1231,366
-49,403	19,288	1536,795	869,105
-48,388	13,278	1459,347	796,240
-47,373	18,722	1449,838	817,154
-46,359	16,135	1439,232	798,832
-45,344	11,587	1434,891	774,742
-44,330	11,498	1433,048	773,290
-43,315	11,484	1431,403	772,304
-42,300	11,531	1429,367	771,401
-41,286	11,512	1428,224	770,664
-40,271	11,487	1426,886	769,793
-39,257	11,463	1425,708	769,011
-38,242	11,505	1424,595	768,581
-37,227	11,507	1423,255	767,836
-36,213	11,480	1422,149	767,079
-35,198	11,487	1421,049	766,488
-34,184	11,581	1420,040	766,358
-33,169	11,447	1418,955	765,111
-32,154	11,561	1417,619	764,898
-31,140	11,551	1416,445	764,185
-30,125	11,590	1415,316	763,733
-29,111	11,549	1414,273	762,945
-28,096	11,549	1412,998	762,224
-27,082	11,497	1411,878	761,349
-26,067	11,493	1410,848	760,745
-25,052	11,517	1409,719	760,219
-24,038	11,462	1408,929	759,504
-23,023	11,468	1407,739	758,860
-22,009	11,477	1406,716	758,323
-20,994	11,410	1405,833	757,504
-19,979	11,436	1405,051	757,173
-18,965	11,368	1404,151	756,341
-17,950	11,390	1403,205	755,900
-16,936	11,399	1402,323	755,438
-15,921	11,352	1401,227	754,600
-14,906	11,366	1400,416	754,198
-13,892	11,385	1399,358	753,686
-12,877	11,415	1398,448	753,305
-11,863	11,351	1397,799	752,632
-10,848	11,392	1396,501	752,093
-9,833	11,342	1395,939	751,526
-8,819	11,340	1395,012	750,990
-7,804	11,309	1394,311	750,439
-6,790	11,271	1393,246	749,659
-5,775	11,300	1392,138	749,165
-4,760	11,308	1391,268	748,709
-3,746	11,285	1390,371	748,088
-2,731	11,289	1389,432	747,573
-1,717	11,251	1388,603	746,920
-0,702	11,251	1387,003	746,031
0,313	15,393	1301,554	719,017
1,327	31,827	694,855	421,329
2,342	49,213	120,829	80,020
3,356	0,496	16,590	8,339
4,371	14,066	3,375	1,849
5,386	10,511	0,835	0,448
6,400	-200,000	0,068	0,527
7,415	442,053	-0,127	-0,197
8,429	6,503	-0,387	-0,202
9,444	82,663	-0,367	-0,281
10,459	35,900	-0,289	-0,179
11,473	45,370	-0,212	-0,138
12,488	54,730	-0,216	-0,147
13,502	194,865	-0,280	-0,300
14,517	7,771	-0,333	-0,175
15,531	309,204	-0,266	-0,351
16,546	-8,000	-0,393	-0,186
17,561	243,554	-0,223	-0,264
18,575	15,029	-0,253	-0,139
19,590	129,353	-0,182	-0,163
20,604	151,930	-0,203	-0,195
21,619	102,627	-0,405	-0,334
22,634	184,492	-0,352	-0,368
23,648	-7,744	-0,391	-0,185
24,663	11,013	-0,442	-0,237
25,677	257,238	-0,291	-0,353
26,692	136,484	-0,454	-0,417
27,707	141,412	-0,280	-0,261
28,721	-29,102	-0,326	-0,131
29,736	69,469	-0,388	-0,281
30,750	84,029	-0,387	-0,297
31,765	231,842	-0,312	-0,361
32,780	395,391	-0,211	-0,310
33,794	-109,865	-0,438	-0,064
34,809	48,537	-0,369	-0,243
35,823	-34,285	-0,412	-0,158
36,838	377,224	-0,289	-0,417
37,853	53,391	-0,355	-0,239
38,867	71,895	-0,469	-0,343
39,882	76,887	-0,355	-0,265
40,896	55,108	-0,366	-0,248
41,911	70,276	-0,383	-0,278
42,926	-5,773	-0,413	-0,198
43,940	345,028	-0,226	-0,312
44,955	144,590	-0,402	-0,378
45,969	114,790	-0,348	-0,298
46,984	185,274	-0,334	-0,349
47,999	105,525	-0,272	-0,226
49,013	-49,474	-0,409	-0,136
50,028	87,878	-0,325	-0,253
51,042	46,270	-0,287	-0,187
52,057	113,123	-0,367	-0,312
53,071	-33,070	-0,433	-0,168
54,086	177,396	-0,340	-0,348
55,101	239,583	-0,277	-0,324
56,115	-45,566	-0,362	-0,125
57,130	-124,517	-0,403	-0,043
58,144	-33,229	-0,394	-0,152
59,159	77,878	-0,324	-0,242
60,174	80,567	-0,428	-0,323
61,188	-95,598	-0,354	-0,066
62,203	76,659	-0,304	-0,226
63,217	31,998	-0,316	-0,191
64,232	191,372	-0,187	-0,198
65,247	64,233	-0,379	-0,267
66,261	182,044	-0,334	-0,346
67,276	257,455	-0,327	-0,395
68,290	156,191	-0,284	-0,275
69,305	146,553	-0,264	-0,249
70,320	61,627	-0,283	-0,197
71,334	-84,043	-0,410	-0,091
72,349	23,841	-0,286	-0,165
73,363	100,424	-0,372	-0,303
74,378	-89,182	-0,362	-0,074
75,393	41,128	-0,199	-0,126
76,407	-200,000	-0,336	-0,001
77,422	80,956	-0,297	-0,224
78,436	-19,092	-0,305	-0,132
79,451	400,777	-0,155	-0,229
80,466	81,193	-0,286	-0,216
81,480	79,033	-0,304	-0,228
82,495	-26,458	-0,372	-0,152
83,509	-66,270	-0,287	-0,079
84,524	-12,642	-0,191	-0,087
85,539	14,515	-0,322	-0,175
86,553	-66,646	-0,435	-0,120
87,568	-33,745	-0,398	-0,153
88,582	69,040	-0,336	-0,241
89,597	98,733	-0,322	-0,260
90,611	76,479	-0,369	-0,274
91,626	41,639	-0,371	-0,235
92,641	161,514	-0,215	-0,211
93,655	62,088	-0,281	-0,196
94,670	170,140	-0,269	-0,270
95,684	103,472	-0,236	-0,194
96,699	136,207	-0,261	-0,238
97,714	39,155	-0,378	-0,236
98,728	-79,846	-0,339	-0,079
99,743	121,465	-0,285	-0,249
100,757	339,187	-0,210	-0,287
101,772	138,503	-0,319	-0,293
102,787	13,915	-0,307	-0,167
103,801	151,038	-0,201	-0,191
104,816	36,750	-0,276	-0,171
105,830	32,399	-0,277	-0,167
106,845	24,429	-0,365	-0,211
107,860	23,028	-0,266	-0,152
108,874	143,392	-0,217	-0,202
109,889	133,617	-0,347	-0,314
110,903	-116,986	-0,327	-0,041
111,918	33,038	-0,261	-0,158
112,933	29,138	-0,312	-0,185
113,947	-31,412	-0,349	-0,136
114,962	-0,515	-0,269	-0,133
115,976	80,174	-0,270	-0,203
116,991	-14,317	-0,395	-0,177
118,006	-28,798	-0,346	-0,138
119,020	8,993	-0,214	-0,112
120,035	-29,734	-0,215	-0,085
121,049	3,317	-0,302	-0,153
122,064	78,879	-0,291	-0,217
123,079	37,684	-0,298	-0,184
124,093	114,554	-0,166	-0,142
125,108	81,884	-0,225	-0,170
126,122	800,000	-0,140	-0,353
127,137	458,082	-0,149	-0,232
128,151	226,569	-0,174	-0,198
129,166	99,944	-0,252	-0,204
130,181	133,620	-0,203	-0,183
131,195	-76,108	-0,207	-0,051
132,210	126,525	-0,281	-0,248
133,224	682,292	-0,154	-0,282
134,239	358,210	-0,176	-0,246
135,254	-96,590	-0,199	0,036
136,268	-44,209	-0,254	-0,088
137,283	-76,504	-0,262	-0,064
138,297	13,754	-0,273	-0,147
139,312	56,571	-0,305	-0,206
140,327	154,784	-0,300	-0,288
141,341	51,926	-0,216	-0,143
142,356	227,899	-0,148	-0,168
143,370	-152,506	-0,242	-0,012
144,385	138,161	-0,258	-0,236
145,400	-63,034	-0,319	-0,091
146,414	690,294	-0,086	-0,158
147,429	104,528	-0,262	-0,215
148,443	4,228	-0,298	-0,151
149,458	310,728	-0,213	-0,279
150,473	800,000	-0,126	-0,286
151,487	557,104	-0,167	-0,282
152,502	-81,624	-0,343	-0,078
153,516	103,149	-0,199	-0,162
154,531	41,130	-0,300	-0,188
155,546	477,019	-0,169	-0,267
156,560	26,084	-0,227	-0,132
157,575	-87,033	-0,133	0,028
158,589	528,028	-0,098	-0,162
159,604	-64,277	-0,270	-0,076
160,619	-59,694	-0,233	-0,069
161,633	427,314	-0,194	-0,292
162,648	-138,582	-0,231	0,017
163,662	-30,187	-0,221	-0,087
164,677	332,701	-0,186	-0,251
165,692	170,711	-0,204	-0,203
166,706	-8,285	-0,329	-0,153
167,721	288,031	-0,239	-0,302
168,735	258,722	-0,213	-0,256
169,750	-2,018	-0,314	-0,153
170,764	18,982	-0,138	-0,077
171,779	4,913	-0,259	-0,132
172,794	-122,509	-0,198	-0,022
173,808	76,840	-0,164	-0,121
174,823	62,615	-0,266	-0,185
175,837	77,287	-0,293	-0,216
176,852	35,640	-0,257	-0,156
177,867	35,413	-0,216	-0,131
178,881	239,552	-0,236	-0,274
179,896	349,010	-0,098	-0,135
180,910	-37,214	-0,254	-0,094
181,925	103,775	-0,250	-0,204
182,940	237,060	-0,221	-0,254
183,954	45,056	-0,311	-0,198
184,969	-133,841	-0,370	-0,032
185,983	-179,071	-0,156	0,002
186,998	-0,855	-0,275	-0,135
188,013	62,075	-0,241	-0,167
189,027	249,491	-0,172	-0,203
190,042	105,178	-0,179	-0,147
191,056	264,765	-0,200	-0,242
192,071	135,896	-0,183	-0,166
193,086	422,674	-0,134	-0,200
194,100	8,089	-0,231	-0,120
195,115	164,749	-0,185	-0,181
196,129	336,885	-0,198	-0,267
197,144	146,137	-0,240	-0,223
198,159	54,304	-0,181	-0,121
199,173	309,224	-0,165	-0,214
200,188	126,481	-0,111	-0,098
201,202	-111,734	-0,105	-0,015
202,217	60,504	-0,296	-0,203
203,232	287,720	-0,189	-0,238
204,246	461,816	-0,145	-0,225
205,261	13,136	-0,255	-0,136
206,275	64,643	-0,227	-0,159
207,290	-113,821	-0,181	-0,024
208,304	62,580	-0,171	-0,118
209,319	2,539	-0,200	-0,100
210,334	-138,862	-0,225	-0,017
211,348	50,110	-0,231	-0,151
212,363	745,895	-0,132	-0,247
213,377	-46,463	-0,105	0,036
214,392	47,194	-0,173	-0,111
215,407	-150,711	-0,179	0,009
216,421	-64,069	-0,122	0,034
217,436	800,000	-0,033	-0,100
218,450	-65,039	-0,377	-0,105
219,465	376,227	-0,146	-0,207
220,480	36,656	-0,202	-0,123
221,494	98,871	-0,197	-0,158
222,509	548,207	-0,110	-0,184
223,523	46,987	-0,258	-0,166
224,538	-9,930	-0,158	-0,073
225,553	642,031	-0,170	-0,300
226,567	-32,099	-0,199	-0,077
227,582	387,083	-0,237	-0,339
228,596	-40,407	-0,195	-0,070
229,611	-48,871	-0,146	-0,048
230,626	148,242	-0,165	-0,154
231,640	189,112	-0,169	-0,175
232,655	800,000	-0,091	-0,271
233,669	395,855	-0,137	-0,198
234,684	-5,196	-0,166	-0,079
235,699	164,067	-0,174	-0,169
236,713	610,320	-0,076	-0,131
237,728	234,151	-0,138	-0,157
238,742	-40,804	-0,208	-0,074
239,757	-46,042	-0,063	-0,022
240,772	-2,061	-0,243	-0,118
241,786	-96,069	-0,251	0,046
242,801	288,734	-0,141	-0,177
243,815	675,168	-0,082	-0,148
244,830	27,610	-0,115	-0,067
245,844	69,144	-0,128	-0,091
246,859	-124,232	-0,144	0,015
247,874	-72,043	-0,167	-0,043
248,888	49,832	-0,249	-0,162
249,903	-200,000	-0,050	-0,178
250,917	216,564	-0,130	-0,143
251,932	-87,639	-0,216	-0,045
252,947	-154,473	-0,259	0,012
253,961	56,361	-0,322	-0,216
254,976	188,250	-0,191	-0,198
255,990	26,882	-0,254	-0,147
257,005	137,726	-0,177	-0,160
258,020	40,073	-0,207	-0,128
259,034	30,912	-0,177	-0,105
260,049	233,553	-0,147	-0,167
261,063	182,889	-0,219	-0,224
262,078	174,750	-0,278	-0,277
263,093	468,738	-0,159	-0,247
264,107	800,000	-0,093	-0,229
265,122	73,168	-0,291	-0,209
266,136	226,270	-0,152	-0,170
267,151	266,977	-0,119	-0,144
268,166	6,401	-0,156	-0,080
269,180	292,141	-0,213	-0,268
270,195	125,528	-0,211	-0,183
271,209	8,099	-0,145	-0,075
272,224	169,066	-0,105	-0,104
273,239	-200,000	-0,004	-0,170
274,253	76,001	-0,108	0,079
275,268	72,066	-0,210	-0,151
276,282	-0,957	-0,090	-0,044
277,297	-20,232	-0,297	-0,126
278,312	-137,675	-0,280	0,021
279,326	262,444	-0,120	-0,144
280,341	-84,871	-0,197	-0,042
281,355	173,593	-0,132	-0,131
282,370	-50,279	-0,163	-0,053
283,384	-10,686	-0,182	-0,083
284,399	-3,992	-0,138	-0,066
285,414	123,780	-0,142	-0,123
286,428	-38,797	-0,224	-0,081
287,443	284,882	-0,062	-0,077
288,457	-91,517	-0,118	-0,023
289,472	-200,000	-0,073	0,000
290,487	151,462	-0,239	-0,224
291,501	-45,818	-0,118	-0,040
292,516	8,121	-0,231	-0,119
293,530	331,374	-0,123	-0,163
294,545	251,350	-0,091	-0,107
295,560	-46,750	-0,216	-0,072
296,574	182,750	-0,105	-0,107
297,589	-19,128	-0,203	-0,086
298,603	26,352	-0,193	-0,111
299,618	-39,439	-0,157	-0,056
300,633	24,456	-0,177	-0,101
301,647	800,000	-0,069	-0,208
302,662	88,958	-0,178	-0,136
303,676	-62,307	-0,115	0,033
304,691	-19,201	-0,108	-0,046
305,706	171,061	-0,149	-0,147
306,720	-56,911	-0,221	-0,067
307,735	430,483	-0,099	-0,148
308,749	-55,055	-0,180	-0,055
309,764	116,474	-0,154	-0,129
310,779	193,790	-0,039	-0,041
311,793	800,000	-0,113	-0,223
312,808	59,468	-0,186	-0,126
313,822	29,711	-0,228	-0,133
314,837	85,202	-0,210	-0,158
315,852	-25,277	-0,082	0,033
316,866	36,259	-0,043	-0,026
317,881	-143,860	-0,271	-0,017
318,895	274,064	-0,090	-0,110
319,910	246,280	-0,238	-0,275
320,925	144,134	-0,145	-0,133
321,939	176,960	-0,101	-0,101
322,954	0,514	-0,059	-0,029
323,968	-148,785	-0,192	0,010
324,983	346,144	-0,133	-0,180
325,997	-37,186	-0,196	-0,072
327,012	-30,149	-0,134	-0,052
328,027	337,716	-0,112	-0,150
329,041	376,187	-0,108	-0,152
330,056	-61,832	-0,134	-0,038
331,070	47,580	-0,136	-0,087
332,085	743,221	-0,074	-0,137
333,100	800,000	-0,080	-0,170
334,114	-31,393	-0,302	0,116
335,129	582,755	-0,132	-0,223
336,143	82,123	-0,178	-0,132
337,158	348,715	-0,084	-0,114
338,173	70,688	-0,035	-0,025
339,187	272,070	-0,119	-0,144
340,202	172,472	-0,180	-0,177
341,216	458,586	-0,154	-0,235
342,231	-77,904	-0,116	-0,027
343,246	-130,235	-0,148	0,014
344,260	-200,000	-0,034	-0,135
345,275	220,618	-0,161	-0,177
346,289	347,537	-0,097	-0,131
347,304	-200,000	-0,057	-0,194
348,319	426,396	-0,092	-0,136
349,333	-62,625	-0,205	-0,058
350,348	311,985	-0,123	-0,159
351,362	-16,911	-0,210	-0,091
352,377	-16,286	-0,128	-0,055
353,392	242,169	-0,075	-0,086
354,406	2,349	-0,279	-0,138
355,421	207,625	1308,755	1399,548
356,435	159,719	1468,770	1400,039
