DTS Sentinel unit serial number:	SN410029Multiplexer serial number:	ORYXHardware model number:	OX2-SRSoftware version number:	ORYX F/W v4,00 Oryx Data Collector v3.7.2.0data status	okinstallation	B3 Nyhavnadifferential loss correction	single-endedforward channel	channel 1reverse channel	N/Adate	2023/12/05time	07:02:30forward acquisition time	300,00reverse acquisition time	0,00gamma	499,1914k internal	0,3200k external	0,3200temperature offset calibration	1,0000default loss term (dB/km)	0,3820temperature slope calibration	1,0000multiplexer offset coefficient	1,0000multiplexer slope coefficient	1,0000fibre end	0,00T internal ref (°C)	13,94T ext. ref 1 (°C)	-0,93T ext. ref 2 (°C)	-0,98length (m)	temperature (°C)	Stokes	anti-Stokes-744,400	86,558	-0,349	-0,280
-743,385	-200,000	-0,029	0,353
-742,371	24,916	-0,206	-0,124
-741,356	-200,000	0,076	0,406
-740,342	217,270	-0,093	-0,108
-739,327	-200,000	-0,033	0,345
-738,312	800,000	-0,104	-0,284
-737,298	-200,000	-0,077	0,339
-736,283	182,710	-0,184	-0,197
-735,269	-200,000	-0,019	0,286
-734,254	222,546	-0,192	-0,226
-733,239	26,900	-0,126	0,077
-732,225	448,137	-0,121	-0,195
-731,210	3,963	0,105	-0,056
-730,196	154,304	0,127	-0,127
-729,181	73,692	-0,186	-0,142
-728,167	-17,257	-0,044	0,020
-727,152	638,472	-0,076	-0,142
-726,137	-200,000	-0,034	-0,112
-725,123	-103,853	0,085	0,014
-724,108	-111,491	0,049	0,007
-723,094	-200,000	-0,009	-0,200
-722,079	-200,000	-0,022	-0,108
-721,064	-200,000	0,014	0,149
-720,050	-90,695	0,103	0,021
-719,035	800,000	0,021	0,060
-718,021	-83,677	-0,096	-0,022
-717,006	800,000	-0,051	-0,122
-715,991	800,000	-0,051	-0,160
-714,977	19,637	-0,207	-0,121
-713,962	240,671	-0,112	-0,136
-712,948	800,000	-0,014	-0,040
-711,933	-200,000	0,013	0,059
-710,918	217,752	0,077	-0,090
-709,904	-61,986	-0,118	-0,036
-708,889	175,235	0,133	0,140
-707,875	31,515	0,060	-0,037
-706,860	39,365	0,101	-0,066
-705,845	270,990	0,011	-0,014
-704,831	-200,000	0,016	0,121
-703,816	650,309	0,025	0,047
-702,802	800,000	0,034	-0,099
-701,787	226,408	-0,066	-0,078
-700,772	571,527	0,041	-0,074
-699,758	-200,000	-0,002	0,087
-698,743	244,254	0,109	0,133
-697,729	-200,000	-0,002	0,109
-696,714	-200,000	0,022	-0,109
-695,699	679,093	-0,075	-0,143
-694,685	-200,000	-0,016	0,114
-693,670	378,715	0,040	0,059
-692,656	-200,000	0,002	-0,105
-691,641	446,150	0,068	0,108
-690,627	731,017	0,018	-0,034
-689,612	-200,000	-0,052	0,187
-688,597	-36,807	-0,039	-0,015
-687,583	20,208	-0,107	-0,062
-686,568	-95,682	-0,092	-0,018
-685,554	145,114	0,048	-0,047
-684,539	782,885	0,055	0,110
-683,524	151,043	-0,029	0,028
-682,510	-63,809	-0,078	0,023
-681,495	-68,746	0,054	-0,015
-680,481	440,965	-0,077	-0,123
-679,466	-63,873	-0,068	-0,020
-678,451	-110,244	0,076	0,011
-677,437	-161,514	-0,098	-0,004
-676,422	-31,242	-0,087	-0,036
-675,408	-141,908	-0,050	-0,004
-674,393	466,129	-0,003	-0,005
-673,378	112,601	0,072	0,063
-672,364	491,888	-0,055	-0,091
-671,349	800,000	0,023	0,053
-670,335	18,583	-0,187	0,108
-669,320	-28,333	0,106	0,044
-668,305	-27,473	0,061	0,026
-667,291	-60,395	-0,061	-0,019
-666,276	-200,000	0,018	-0,241
-665,262	123,385	-0,126	-0,115
-664,247	664,311	-0,015	-0,028
-663,232	-20,146	-0,031	-0,014
-662,218	198,091	0,054	0,060
-661,203	800,000	-0,023	0,056
-660,189	-200,000	-0,006	0,160
-659,174	-200,000	-0,009	-0,062
-658,159	95,104	-0,129	0,107
-657,145	243,815	-0,061	0,074
-656,130	-125,026	-0,128	-0,014
-655,116	-79,769	-0,047	-0,011
-654,101	-120,980	-0,072	0,009
-653,086	11,963	-0,110	0,061
-652,072	800,000	0,011	-0,028
-651,057	800,000	0,056	0,122
-650,043	7,948	-0,070	-0,038
-649,028	800,000	0,023	0,052
-648,014	320,860	0,144	0,199
-646,999	800,000	0,096	0,214
-645,984	800,000	0,047	0,097
-644,970	-200,000	-0,018	-0,074
-643,955	144,530	-0,031	0,030
-642,941	-200,000	0,002	-0,087
-641,926	581,866	0,099	-0,176
-640,911	-82,084	0,083	0,020
-639,897	692,233	-0,019	-0,037
-638,882	-22,239	0,098	0,043
-637,868	265,989	-0,095	0,120
-636,853	800,000	-0,044	-0,139
-635,838	234,107	-0,042	-0,050
-634,824	-200,000	0,009	0,028
-633,809	-200,000	-0,003	-0,126
-632,795	-200,000	-0,025	0,102
-631,780	707,600	0,049	-0,094
-630,765	-178,801	-0,041	-0,001
-629,751	90,826	-0,113	0,091
-628,736	756,719	0,027	-0,053
-627,722	-200,000	-0,014	-0,130
-626,707	-200,000	-0,046	-0,202
-625,692	43,210	0,074	-0,049
-624,678	122,024	-0,043	-0,039
-623,663	202,672	0,072	-0,081
-622,649	569,496	-0,026	-0,045
-621,634	800,000	-0,021	-0,065
-620,619	800,000	-0,044	-0,111
-619,605	-106,093	0,031	0,005
-618,590	245,611	0,011	0,014
-617,576	-89,311	-0,114	0,024
-616,561	55,555	0,098	0,069
-615,546	800,000	-0,017	0,042
-614,532	-14,934	-0,125	-0,058
-613,517	-200,000	0,039	-0,128
-612,503	-111,336	0,076	0,011
-611,488	-128,699	0,060	-0,006
-610,474	800,000	0,024	-0,063
-609,459	-154,531	0,191	0,009
-608,444	-36,686	-0,062	-0,024
-607,430	775,578	-0,034	0,068
-606,415	64,027	-0,080	0,058
-605,401	575,271	-0,054	-0,095
-604,386	-200,000	0,019	0,146
-603,371	800,000	-0,060	0,140
-602,357	-80,206	0,107	0,026
-601,342	-22,960	0,043	0,019
-600,328	-161,861	-0,051	-0,002
-599,313	135,729	-0,138	-0,130
-598,298	-200,000	-0,039	0,200
-597,284	26,837	-0,099	0,060
-596,269	718,830	0,003	-0,005
-595,255	118,523	0,079	0,070
-594,240	-171,039	-0,019	-0,000
-593,225	-200,000	-0,024	-0,141
-592,211	-200,000	-0,007	-0,158
-591,196	12,280	0,036	0,020
-590,182	60,433	0,062	-0,044
-589,167	-17,540	-0,020	-0,009
-588,152	-200,000	-0,003	0,022
-587,138	-158,485	-0,118	0,005
-586,123	800,000	-0,057	-0,136
-585,109	-139,843	0,024	0,002
-584,094	-76,525	0,075	-0,019
-583,079	315,408	-0,032	0,043
-582,065	-200,000	-0,010	0,140
-581,050	800,000	-0,041	-0,092
-580,036	376,572	-0,023	0,035
-579,021	-3,209	0,043	0,021
-578,006	800,000	-0,042	0,101
-576,992	-200,000	-0,025	-0,090
-575,977	217,324	0,028	0,032
-574,963	30,693	-0,052	0,032
-573,948	-5,390	0,140	0,069
-572,934	-200,000	-0,029	0,137
-571,919	158,474	-0,151	-0,152
-570,904	-2,833	-0,169	-0,085
-569,890	112,821	0,114	-0,100
-568,875	90,045	-0,055	-0,045
-567,861	81,348	0,081	0,063
-566,846	800,000	-0,013	-0,031
-565,831	555,315	-0,029	0,051
-564,817	7,456	-0,048	0,026
-563,802	800,000	0,023	0,054
-562,788	-91,417	0,040	-0,008
-561,773	207,181	0,062	0,069
-560,758	320,241	0,044	0,061
-559,744	-79,874	0,100	-0,024
-558,729	-90,150	0,070	0,015
-557,715	-200,000	0,011	0,039
-556,700	-125,842	-0,138	-0,015
-555,685	-159,230	0,132	0,005
-554,671	272,603	0,058	-0,074
-553,656	-61,014	0,164	-0,050
-552,642	154,485	0,098	0,098
-551,627	251,945	0,022	-0,028
-550,612	39,290	-0,029	-0,019
-549,598	367,954	0,014	-0,020
-548,583	-200,000	0,002	-0,080
-547,569	94,053	-0,045	0,037
-546,554	125,907	-0,047	0,043
-545,539	85,160	-0,056	-0,045
-544,525	-20,944	-0,165	-0,073
-543,510	-1,529	-0,087	0,044
-542,496	520,263	-0,055	-0,094
-541,481	-200,000	0,010	-0,059
-540,466	-13,834	0,072	-0,033
-539,452	800,000	-0,051	0,118
-538,437	-54,573	0,039	0,013
-537,423	-200,000	0,024	0,093
-536,408	189,461	0,057	-0,062
-535,393	-168,916	-0,123	-0,003
-534,379	161,613	0,111	0,112
-533,364	-200,000	0,004	0,015
-532,350	-132,553	0,125	0,011
-531,335	50,010	-0,028	-0,019
-530,321	335,033	-0,030	0,042
-529,306	800,000	-0,051	-0,145
-528,291	153,129	0,019	0,019
-527,277	-200,000	0,026	-0,114
-526,262	-5,543	0,094	-0,046
-525,248	-163,835	0,089	-0,003
-524,233	610,199	0,048	0,087
-523,218	-54,072	-0,029	-0,009
-522,204	-187,428	0,127	-0,001
-521,189	-200,000	-0,019	0,067
-520,175	-200,000	0,008	-0,112
-519,160	111,138	-0,110	-0,096
-518,145	-200,000	-0,013	0,048
-517,131	800,000	0,042	0,127
-516,116	800,000	0,034	-0,081
-515,102	-43,130	0,041	-0,015
-514,087	800,000	0,036	0,072
-513,072	-200,000	0,017	-0,105
-512,058	-21,303	-0,023	0,010
-511,043	800,000	0,036	-0,114
-510,029	-200,000	-0,025	0,182
-509,014	-200,000	-0,001	0,041
-507,999	75,687	-0,023	0,017
-506,985	290,072	-0,078	-0,102
-505,970	204,083	-0,068	-0,076
-504,956	-200,000	0,002	-0,103
-503,941	-200,000	0,026	-0,085
-502,926	-200,000	-0,023	-0,151
-501,912	-122,538	0,115	-0,013
-500,897	-200,000	0,017	0,054
-499,883	-31,511	-0,116	-0,047
-498,868	647,495	-0,068	-0,125
-497,853	306,726	0,043	-0,057
-496,839	800,000	-0,065	0,133
-495,824	-115,760	0,006	-0,001
-494,810	-200,000	-0,015	0,086
-493,795	135,916	0,104	0,098
-492,781	582,302	0,056	0,100
-491,766	-182,843	0,076	0,001
-490,751	791,915	-0,045	-0,090
-489,737	63,240	0,082	-0,059
-488,722	-68,109	-0,141	-0,039
-487,708	-107,474	0,191	0,030
-486,693	-6,023	-0,066	0,032
-485,678	-200,000	-0,000	-0,073
-484,664	348,051	-0,131	-0,187
-483,649	80,463	0,036	0,028
-482,635	-87,532	0,066	-0,014
-481,620	-200,000	-0,012	-0,067
-480,605	-44,327	-0,091	0,033
-479,591	-114,525	-0,155	0,021
-478,576	106,025	-0,014	0,012
-477,562	517,424	-0,070	0,118
-476,547	238,095	-0,087	0,104
-475,532	321,753	-0,027	0,037
-474,518	296,329	-0,057	0,076
-473,503	-200,000	0,002	-0,037
-472,489	-200,000	-0,029	0,113
-471,474	619,583	-0,017	-0,032
-470,459	-200,000	0,016	0,136
-469,445	-15,842	-0,122	-0,056
-468,430	-11,006	0,080	-0,038
-467,416	626,434	-0,042	-0,076
-466,401	-200,000	-0,018	-0,068
-465,386	-200,000	-0,002	0,040
-464,372	-200,000	0,002	0,033
-463,357	-19,529	-0,164	-0,073
-462,343	800,000	-0,044	-0,105
-461,328	800,000	-0,017	0,042
-460,313	-200,000	0,022	0,135
-459,299	-60,129	-0,095	0,029
-458,284	-121,841	0,082	0,010
-457,270	-200,000	0,000	0,029
-456,255	-200,000	-0,009	-0,035
-455,241	-200,000	-0,006	-0,030
-454,226	800,000	-0,008	0,023
-453,211	10,405	-0,105	-0,057
-452,197	-179,782	0,215	-0,003
-451,182	297,493	0,080	0,105
-450,168	498,748	-0,061	-0,101
-449,153	599,187	-0,032	0,056
-448,138	-26,859	-0,032	0,013
-447,124	-200,000	0,016	0,095
-446,109	208,438	0,039	0,043
-445,095	-90,912	-0,070	-0,014
-444,080	-200,000	-0,005	-0,037
-443,065	800,000	-0,026	0,073
-442,051	-200,000	0,024	0,130
-441,036	800,000	-0,033	-0,072
-440,022	171,417	0,044	-0,045
-439,007	457,768	-0,059	0,094
-437,992	-112,589	0,156	0,022
-436,978	800,000	0,056	0,114
-435,963	-200,000	-0,028	0,118
-434,949	-71,468	-0,023	0,006
-433,934	259,218	0,089	0,111
-432,919	-78,459	0,021	0,005
-431,905	-92,521	-0,048	0,010
-430,890	800,000	-0,045	0,130
-429,876	352,776	0,057	-0,082
-428,861	104,984	-0,064	-0,054
-427,846	134,972	-0,104	-0,097
-426,832	-200,000	0,002	0,067
-425,817	412,826	-0,033	-0,051
-424,803	-200,000	0,036	-0,162
-423,788	-33,249	-0,056	-0,022
-422,773	800,000	-0,007	0,021
-421,759	-83,173	0,025	-0,006
-420,744	188,326	-0,010	-0,011
-419,730	800,000	-0,031	-0,076
-418,715	10,233	0,024	0,013
-417,701	-200,000	0,025	-0,096
-416,686	-42,527	0,059	-0,021
-415,671	-200,000	-0,006	0,072
-414,657	-200,000	0,004	0,092
-413,642	-25,588	-0,058	-0,025
-412,628	-59,550	-0,076	0,023
-411,613	-67,512	0,039	0,011
-410,598	800,000	0,029	-0,077
-409,584	-37,561	0,071	-0,027
-408,569	297,259	0,047	0,062
-407,555	245,317	0,140	0,170
-406,540	800,000	0,054	0,117
-405,525	-200,000	-0,006	0,111
-404,511	-67,975	0,026	0,007
-403,496	-72,179	0,097	0,026
-402,482	-200,000	0,013	0,065
-401,467	-103,925	0,025	-0,004
-400,452	-200,000	0,005	0,018
-399,438	800,000	-0,042	-0,086
-398,423	121,131	0,091	0,082
-397,409	-141,675	-0,076	-0,005
-396,394	79,657	0,044	-0,034
-395,379	-97,471	-0,193	-0,036
-394,365	-114,582	0,090	0,012
-393,350	-200,000	0,031	0,101
-392,336	800,000	0,004	0,010
-391,321	192,917	-0,009	0,009
-390,306	27,788	-0,078	0,047
-389,292	146,464	-0,177	-0,171
-388,277	-57,640	-0,073	0,023
-387,263	-200,000	-0,004	-0,124
-386,248	-200,000	0,007	0,150
-385,233	800,000	-0,038	0,103
-384,219	198,992	0,042	0,046
-383,204	506,733	-0,081	-0,135
-382,190	-200,000	0,018	-0,058
-381,175	-84,767	0,066	-0,015
-380,160	549,613	0,030	-0,052
-379,146	-102,292	0,185	0,032
-378,131	42,884	-0,030	0,020
-377,117	41,145	-0,038	-0,024
-376,102	-124,708	-0,038	0,004
-375,088	332,053	-0,100	0,139
-374,073	161,579	0,047	0,047
-373,058	-200,000	0,005	-0,063
-372,044	271,706	0,129	-0,163
-371,029	-55,391	0,033	-0,011
-370,015	291,873	0,090	0,118
-369,000	-200,000	-0,020	-0,172
-367,985	197,908	0,087	-0,095
-366,971	271,541	0,053	-0,068
-365,956	-200,000	-0,007	0,160
-364,942	194,758	0,031	-0,033
-363,927	300,155	0,041	0,055
-362,912	-200,000	0,029	0,153
-361,898	365,316	-0,051	-0,074
-360,883	306,261	0,070	-0,093
-359,869	196,218	-0,060	0,065
-358,854	800,000	0,059	0,138
-357,839	-53,061	0,067	-0,022
-356,825	-64,948	0,072	-0,021
-355,810	-66,110	-0,115	-0,033
-354,796	78,852	-0,048	-0,036
-353,781	-116,074	-0,148	-0,020
-352,766	559,729	-0,057	-0,099
-351,752	134,358	-0,070	0,065
-350,737	47,031	0,106	0,070
-349,723	-200,000	-0,006	0,103
-348,708	144,716	-0,054	0,052
-347,693	-82,422	0,067	-0,016
-346,679	-83,808	-0,076	-0,017
-345,664	-200,000	-0,005	-0,109
-344,650	-66,286	0,082	-0,023
-343,635	-200,000	-0,030	-0,110
-342,620	694,038	0,060	-0,113
-341,606	-164,622	-0,099	-0,003
-340,591	800,000	-0,030	0,066
-339,577	-63,601	-0,029	0,008
-338,562	4,043	0,018	-0,009
-337,548	125,979	-0,085	-0,077
-336,533	-91,644	0,115	-0,023
-335,518	-200,000	0,020	0,146
-334,504	800,000	-0,043	0,094
-333,489	-53,890	0,122	0,040
-332,475	72,987	-0,115	0,086
-331,460	129,266	0,087	-0,079
-330,445	800,000	0,080	-0,193
-329,431	702,399	0,038	-0,072
-328,416	128,657	-0,078	-0,071
-327,402	800,000	-0,015	-0,035
-326,387	-200,000	-0,009	-0,058
-325,372	-200,000	0,037	-0,137
-324,358	-200,000	0,040	-0,151
-323,343	195,809	-0,079	0,087
-322,329	44,736	-0,055	-0,036
-321,314	60,322	0,064	-0,045
-320,299	800,000	0,048	0,140
-319,285	321,575	0,072	0,098
-318,270	387,330	0,047	-0,070
-317,256	-46,103	-0,092	0,032
-316,241	611,911	0,010	-0,018
-315,226	-110,643	0,161	-0,024
-314,212	-120,535	0,133	-0,016
-313,197	-200,000	-0,039	-0,195
-312,183	-79,400	-0,057	0,014
-311,168	611,766	0,059	-0,106
-310,153	-200,000	-0,004	-0,069
-309,139	-200,000	0,002	0,011
-308,124	41,371	0,069	0,045
-307,110	375,777	0,020	0,029
-306,095	-5,633	0,095	0,047
-305,080	-200,000	-0,005	0,110
-304,066	37,170	0,026	0,017
-303,051	-28,636	-0,032	-0,013
-302,037	19,642	0,136	-0,078
-301,022	-177,940	0,097	0,002
-300,008	-200,000	-0,018	-0,090
-298,993	368,521	-0,040	-0,059
-297,978	-200,000	0,003	0,065
-296,964	-125,444	0,054	-0,006
-295,949	-200,000	0,009	0,081
-294,935	41,166	-0,160	-0,103
-293,920	-200,000	0,017	-0,063
-292,905	104,562	-0,041	-0,035
-291,891	294,203	0,096	0,126
-290,876	800,000	0,045	0,113
-289,862	431,418	0,027	-0,042
-288,847	-200,000	0,003	-0,020
-287,832	88,702	-0,025	-0,020
-286,818	55,788	0,084	0,058
-285,803	-21,456	-0,038	0,017
-284,789	-59,462	0,129	0,039
-283,774	82,074	0,107	0,083
-282,759	-106,931	-0,090	0,014
-281,745	7,666	0,110	-0,058
-280,730	60,995	-0,035	0,025
-279,716	-200,000	0,001	0,093
-278,701	800,000	-0,033	0,069
-277,686	-26,952	-0,100	0,041
-276,672	251,952	-0,059	0,072
-275,657	33,840	0,108	0,067
-274,643	288,656	-0,056	0,073
-273,628	-200,000	-0,003	-0,014
-272,613	-23,945	-0,117	-0,050
-271,599	28,366	0,060	-0,036
-270,584	-200,000	0,001	0,007
-269,570	-200,000	0,034	0,200
-268,555	-60,763	0,126	-0,038
-267,540	800,000	-0,018	0,039
-266,526	-200,000	0,003	-0,120
-265,511	800,000	-0,002	-0,004
-264,497	128,850	0,045	0,041
-263,482	-200,000	-0,011	0,048
-262,467	-200,000	-0,002	0,171
-261,453	-200,000	-0,005	0,025
-260,438	-200,000	-0,015	-0,133
-259,424	-200,000	0,036	-0,171
-258,409	-85,688	-0,097	0,021
-257,395	217,600	0,047	0,054
-256,380	240,343	0,014	0,017
-255,365	-137,046	-0,180	-0,014
-254,351	800,000	0,023	-0,061
-253,336	70,189	-0,088	0,065
-252,322	-74,813	-0,059	-0,015
-251,307	396,988	-0,013	-0,020
-250,292	-30,131	0,107	0,043
-249,278	11,567	0,107	0,059
-248,263	77,200	-0,087	0,066
-247,249	-200,000	0,022	0,128
-246,234	194,345	-0,025	-0,027
-245,219	689,395	-0,094	-0,175
-244,205	743,200	0,070	-0,135
-243,190	385,941	-0,075	-0,110
-242,176	26,214	-0,042	0,025
-241,161	229,744	-0,056	0,065
-240,146	-200,000	0,003	0,057
-239,132	28,056	-0,080	-0,048
-238,117	425,663	0,074	-0,114
-237,103	-2,972	0,024	-0,012
-236,088	-118,807	0,075	-0,009
-235,073	800,000	0,026	-0,079
-234,059	-115,640	0,043	-0,006
-233,044	-200,000	-0,029	0,109
-232,030	-200,000	-0,003	-0,047
-231,015	67,642	-0,052	-0,037
-230,000	-53,824	0,078	-0,025
-228,986	-200,000	-0,017	-0,063
-227,971	-30,314	-0,065	0,026
-226,957	-200,000	-0,023	0,145
-225,942	-200,000	-0,003	0,024
-224,927	603,250	-0,039	0,069
-223,913	-200,000	0,055	-0,187
-222,898	800,000	-0,049	0,108
-221,884	-66,966	-0,100	-0,028
-220,869	800,000	-0,038	0,113
-219,855	355,302	-0,055	0,078
-218,840	367,926	0,087	0,126
-217,825	-141,260	-0,085	-0,006
-216,811	98,813	-0,046	0,038
-215,796	262,865	0,090	-0,112
-214,782	17,326	-0,105	-0,059
-213,767	49,490	-0,092	-0,062
-212,752	-179,317	0,020	0,000
-211,738	-160,329	-0,086	0,003
-210,723	406,879	0,075	-0,114
-209,709	-131,040	-0,010	-0,001
-208,694	482,615	0,046	-0,074
-207,679	800,000	-0,052	-0,134
-206,665	43,399	0,090	-0,059
-205,650	-101,031	0,152	-0,026
-204,636	524,618	0,054	0,091
-203,621	156,516	-0,019	-0,019
-202,606	3,675	-0,063	-0,033
-201,592	189,510	0,083	-0,089
-200,577	-200,000	0,014	-0,102
-199,563	-185,716	0,022	-0,000
-198,548	-114,396	0,104	0,014
-197,533	-32,962	-0,093	-0,037
-196,519	-200,000	-0,012	0,068
-195,504	-95,175	-0,105	-0,020
-194,490	224,971	-0,043	0,050
-193,475	192,316	0,010	-0,011
-192,460	-128,573	-0,121	0,012
-191,446	-24,502	0,151	0,064
-190,431	122,137	-0,099	0,088
-189,417	-25,100	-0,086	0,036
-188,402	-146,654	-0,034	-0,002
-187,387	197,900	-0,110	0,120
-186,373	71,588	-0,035	0,026
-185,358	10,641	0,098	0,053
-184,344	800,000	-0,025	0,074
-183,329	-68,419	0,070	-0,019
-182,315	-200,000	0,017	0,143
-181,300	328,848	-0,088	0,121
-180,285	-200,000	-0,003	0,098
-179,271	-200,000	-0,034	0,241
-178,256	235,188	-0,063	-0,074
-177,242	-77,982	0,154	-0,038
-176,227	-59,756	-0,096	-0,029
-175,212	-78,016	0,131	-0,032
-174,198	-200,000	-0,004	0,016
-173,183	-200,000	-0,026	0,101
-172,169	-35,552	-0,051	0,019
-171,154	-4,897	0,070	-0,034
-170,139	800,000	0,051	-0,103
-169,125	-145,682	-0,110	0,007
-168,110	269,142	-0,030	0,038
-167,096	-200,000	-0,020	-0,187
-166,081	-200,000	-0,048	-0,161
-165,066	-200,000	-0,015	-0,047
-164,052	162,066	-0,075	-0,075
-163,037	83,039	0,107	0,083
-162,023	-159,005	0,109	0,004
-161,008	-200,000	-0,038	0,131
-159,993	-200,000	0,013	0,117
-158,979	-200,000	-0,027	-0,083
-157,964	-153,544	-0,172	-0,008
-156,950	212,015	-0,022	-0,025
-155,935	800,000	0,032	-0,085
-154,920	-57,820	0,054	0,017
-153,906	800,000	-0,007	0,017
-152,891	-15,061	-0,144	0,066
-151,877	63,918	-0,092	0,066
-150,862	254,542	-0,050	0,061
-149,847	-200,000	-0,011	0,057
-148,833	107,549	0,102	0,087
-147,818	-200,000	-0,046	0,175
-146,804	85,902	-0,028	0,022
-145,789	-6,130	-0,061	0,030
-144,775	-200,000	0,000	-0,052
-143,760	71,378	-0,150	0,111
-142,745	-121,327	0,009	-0,001
-141,731	44,161	0,095	-0,062
-140,716	-70,428	0,086	0,023
-139,702	518,789	-0,064	0,107
-138,687	104,786	0,129	0,108
-137,672	218,554	-0,029	-0,032
-136,658	-162,177	-0,272	0,009
-135,643	-200,000	-0,002	0,044
-134,629	-161,724	0,107	-0,004
-133,614	-200,000	0,009	0,061
-132,599	-51,525	0,184	0,061
-131,585	124,529	0,110	-0,098
-130,570	151,724	0,062	0,060
-129,556	589,699	0,040	-0,071
-128,541	15,162	-0,129	0,072
-127,526	800,000	-0,035	0,086
-126,512	271,860	0,054	0,067
-125,497	-200,000	-0,003	0,043
-124,483	262,575	0,043	-0,053
-123,468	800,000	-0,013	-0,035
-122,453	-200,000	0,027	-0,134
-121,439	800,000	-0,075	-0,173
-120,424	800,000	-0,022	-0,049
-119,410	-43,160	0,119	0,043
-118,395	-73,168	0,061	0,016
-117,380	-200,000	0,041	0,160
-116,366	198,064	0,067	0,073
-115,351	-98,850	0,033	0,006
-114,337	-73,618	-0,114	-0,029
-113,322	-18,995	-0,088	0,039
-112,307	4,873	0,067	-0,035
-111,293	284,289	0,041	0,052
-110,278	800,000	0,041	0,122
-109,264	29,820	-0,021	0,013
-108,249	258,935	0,014	-0,017
-107,234	-200,000	-0,029	-0,114
-106,220	-200,000	-0,019	-0,067
-105,205	470,050	0,082	0,132
-104,191	10,456	0,132	0,071
-103,176	-200,000	0,004	0,141
-102,162	0,234	-0,028	-0,014
-101,147	424,028	-0,036	0,055
-100,132	-116,426	-0,091	-0,012
-99,118	133,896	-0,089	-0,082
-98,103	-200,000	0,005	0,025
-97,089	-12,411	0,035	-0,016
-96,074	800,000	-0,073	0,210
-95,059	-122,527	-0,046	0,005
-94,045	-188,046	-0,218	0,002
-93,030	-200,000	0,008	0,063
-92,016	-111,616	0,054	-0,008
-91,001	-200,000	-0,006	0,154
-89,986	287,949	0,021	-0,027
-88,972	-200,000	-0,006	0,083
-87,957	-145,352	-0,105	-0,007
-86,943	-130,991	-0,087	0,008
-85,928	225,518	-0,017	0,020
-84,913	-32,669	0,087	0,034
-83,899	-154,351	-0,217	0,010
-82,884	-164,749	0,106	0,003
-81,870	-200,000	0,008	0,056
-80,855	147,729	-0,105	-0,100
-79,840	-200,000	0,020	0,076
-78,826	534,306	-0,034	-0,058
-77,811	42,410	-0,032	0,021
-76,797	-43,849	-0,048	-0,017
-75,782	-83,604	-0,053	-0,012
-74,767	-192,114	0,145	0,001
-73,753	-200,000	0,001	0,012
-72,738	376,990	0,056	0,081
-71,724	-148,794	0,143	0,008
-70,709	409,557	-0,018	-0,028
-69,694	-200,000	-0,006	0,033
-68,680	194,219	-0,102	0,110
-67,665	-130,941	0,106	0,010
-66,651	-200,000	0,004	-0,023
-65,636	800,000	-0,012	0,036
-64,622	350,853	0,056	0,079
-63,607	-200,000	-0,002	0,094
-62,592	800,000	0,048	-0,149
-61,578	800,000	0,110	0,218
-60,563	659,553	0,022	0,040
-59,549	270,169	0,081	0,102
-58,534	-6,705	-1,584	-0,761
-57,519	392,696	-1,452	-2,145
-56,505	-200,000	-0,708	-4,640
-55,490	96,207	1,063	0,860
-54,476	800,000	4,952	11,492
-53,461	-200,000	18,880	310,081
-52,446	-200,000	738,195	2312,580
-51,432	572,593	1654,172	2865,724
-50,417	79,168	1670,691	1266,279
-49,403	21,925	1543,917	888,925
-48,388	15,822	1466,392	814,628
-47,373	17,777	1456,372	818,473
-46,359	16,804	1446,605	808,283
-45,344	14,086	1441,805	792,552
-44,330	13,974	1440,276	791,144
-43,315	14,005	1438,295	790,174
-42,300	14,029	1436,636	789,344
-41,286	14,066	1435,378	788,797
-40,271	14,005	1434,281	787,873
-39,257	14,014	1432,850	787,102
-38,242	14,036	1431,684	786,533
-37,227	14,071	1430,294	785,904
-36,213	13,993	1429,373	784,995
-35,198	14,008	1428,077	784,327
-34,184	14,099	1427,289	784,291
-33,169	14,004	1425,913	783,055
-32,154	14,056	1424,709	782,611
-31,140	14,035	1423,435	781,778
-30,125	14,054	1422,143	781,130
-29,111	14,067	1421,097	780,584
-28,096	14,038	1420,289	779,971
-27,082	13,970	1419,024	778,927
-26,067	13,962	1417,944	778,264
-25,052	13,963	1416,767	777,595
-24,038	13,923	1416,012	776,959
-23,023	13,950	1414,792	776,385
-22,009	13,948	1413,837	775,822
-20,994	13,917	1413,076	775,229
-19,979	13,950	1412,097	774,812
-18,965	13,905	1411,246	774,107
-17,950	13,905	1410,109	773,452
-16,936	13,907	1409,458	773,071
-15,921	13,837	1408,083	771,962
-14,906	13,844	1407,257	771,512
-13,892	13,899	1406,187	771,151
-12,877	13,878	1405,240	770,501
-11,863	13,873	1404,378	769,974
-10,848	13,869	1403,554	769,474
-9,833	13,837	1402,691	768,821
-8,819	13,804	1401,877	768,192
-7,804	13,791	1400,951	767,591
-6,790	13,805	1399,638	766,908
-5,775	13,797	1398,854	766,412
-4,760	13,792	1398,021	765,901
-3,746	13,793	1397,094	765,367
-2,731	13,775	1396,283	764,810
-1,717	13,723	1395,627	764,177
-0,702	13,738	1393,663	763,141
0,313	17,587	1311,043	735,742
1,327	33,822	705,638	433,598
2,342	52,020	123,939	83,406
3,356	1,882	16,693	8,491
4,371	-4,898	3,199	1,554
5,386	-71,632	0,636	0,167
6,400	-200,000	-0,055	0,249
7,415	131,710	-0,181	-0,164
8,429	170,271	-0,234	-0,237
9,444	60,151	-0,357	-0,249
10,459	322,912	-0,186	-0,251
11,473	-30,936	-0,308	-0,122
12,488	-12,052	-0,213	-0,098
13,502	179,798	-0,156	-0,162
14,517	78,498	-0,267	-0,201
15,531	29,612	-0,357	-0,214
16,546	53,051	-0,221	-0,149
17,561	55,144	-0,283	-0,193
18,575	34,401	-0,145	-0,089
19,590	498,021	-0,221	-0,360
20,604	121,923	-0,211	-0,186
21,619	203,329	-0,344	-0,376
22,634	43,509	-0,412	-0,265
23,648	110,826	-0,378	-0,321
24,663	32,404	-0,430	-0,262
25,677	153,168	-0,241	-0,233
26,692	-13,762	-0,392	-0,178
27,707	26,874	-0,458	-0,270
28,721	96,300	-0,417	-0,336
29,736	124,309	-0,383	-0,340
30,750	107,586	-0,425	-0,357
31,765	156,487	-0,309	-0,301
32,780	302,304	-0,289	-0,378
33,794	645,977	-0,189	-0,342
34,809	72,349	-0,386	-0,284
35,823	9,402	-0,326	-0,173
36,838	41,097	-0,460	-0,292
37,853	131,169	-0,307	-0,278
38,867	5,077	-0,309	-0,160
39,882	104,333	-0,328	-0,272
40,896	17,744	-0,287	-0,161
41,911	-3,129	-0,275	-0,135
42,926	-109,948	-0,366	-0,053
43,940	33,515	-0,345	-0,211
44,955	168,524	-0,341	-0,342
45,969	28,580	-0,426	-0,253
46,984	0,881	-0,315	-0,158
47,999	50,289	-0,388	-0,258
49,013	92,349	-0,354	-0,281
50,028	-63,733	-0,316	-0,091
51,042	168,354	-0,270	-0,272
52,057	5,875	-0,424	-0,220
53,071	57,557	-0,285	-0,196
54,086	15,260	-0,348	-0,192
55,101	66,292	-0,331	-0,237
56,115	88,621	-0,303	-0,237
57,130	-82,492	-0,307	-0,070
58,144	115,190	-0,394	-0,339
59,159	139,018	-0,402	-0,372
60,174	117,673	-0,422	-0,366
61,188	42,912	-0,418	-0,268
62,203	570,352	-0,211	-0,363
63,217	800,000	-0,144	-0,289
64,232	158,344	-0,159	-0,155
65,247	-12,247	-0,301	-0,138
66,261	-68,139	-0,485	-0,132
67,276	129,667	-0,326	-0,293
68,290	191,850	-0,303	-0,321
69,305	-99,015	-0,318	-0,056
70,320	42,654	-0,332	-0,212
71,334	800,000	-0,133	-0,259
72,349	94,848	-0,292	-0,233
73,363	148,775	-0,291	-0,277
74,378	77,440	-0,369	-0,276
75,393	-24,468	-0,295	-0,123
76,407	11,206	-0,323	-0,173
77,422	75,908	-0,296	-0,220
78,436	31,267	-0,274	-0,165
79,451	-44,997	-0,381	-0,132
80,466	73,898	-0,326	-0,240
81,480	7,073	-0,322	-0,168
82,495	28,057	-0,335	-0,198
83,509	79,518	-0,271	-0,204
84,524	-131,038	-0,272	-0,025
85,539	98,843	-0,198	-0,160
86,553	272,068	-0,244	-0,303
87,568	70,265	-0,217	-0,158
88,582	206,421	-0,306	-0,335
89,597	80,370	-0,339	-0,256
90,611	302,181	-0,127	-0,165
91,626	-97,709	-0,350	-0,063
92,641	290,505	-0,205	-0,262
93,655	-67,263	-0,303	-0,083
94,670	-40,634	-0,403	-0,146
95,684	28,966	-0,300	-0,178
96,699	59,278	-0,281	-0,194
97,714	-51,239	-0,303	-0,099
98,728	90,767	-0,254	-0,200
99,743	31,686	-0,311	-0,187
100,757	-25,622	-0,226	-0,093
101,772	79,345	-0,389	-0,292
102,787	-20,778	-0,231	-0,099
103,801	-27,113	-0,283	-0,115
104,816	29,215	-0,078	-0,047
105,830	123,408	-0,113	-0,099
106,845	-0,219	-0,345	-0,172
107,860	-34,673	-0,287	-0,110
108,874	12,347	-0,368	-0,198
109,889	180,246	-0,212	-0,219
110,903	113,022	-0,284	-0,242
111,918	-60,383	-0,194	-0,057
112,933	59,772	-0,216	-0,149
113,947	-27,899	-0,238	-0,096
114,962	-7,160	-0,238	-0,113
115,976	-6,344	-0,393	-0,187
116,991	30,964	-0,224	-0,134
118,006	-8,070	-0,301	-0,142
119,020	-116,080	-0,328	-0,042
120,035	31,367	-0,207	-0,124
121,049	41,257	-0,203	-0,128
122,064	28,127	-0,440	-0,260
123,079	83,731	-0,279	-0,213
124,093	67,427	-0,211	-0,151
125,108	84,354	-0,288	-0,220
126,122	-37,358	-0,315	-0,117
127,137	-57,401	-0,162	-0,050
128,151	115,539	-0,194	-0,166
129,166	184,631	-0,241	-0,250
130,181	46,428	-0,252	-0,163
131,195	800,000	-0,110	-0,293
132,210	315,231	-0,224	-0,296
133,224	170,305	-0,245	-0,245
134,239	-10,366	-0,264	-0,122
135,254	96,309	-0,258	-0,206
136,268	-9,014	-0,206	-0,096
137,283	145,236	-0,110	-0,103
138,297	-0,639	-0,264	-0,130
139,312	153,189	-0,262	-0,251
140,327	87,824	-0,220	-0,171
141,341	-28,598	-0,248	-0,099
142,356	308,130	-0,134	-0,175
143,370	91,344	-0,189	-0,149
144,385	362,030	-0,137	-0,193
145,400	107,122	-0,202	-0,168
146,414	255,034	-0,204	-0,245
147,429	177,015	-0,232	-0,237
148,443	-23,931	-0,374	-0,156
149,458	287,068	-0,179	-0,226
150,473	91,034	-0,240	-0,188
151,487	26,318	-0,277	-0,161
152,502	43,886	-0,232	-0,148
153,516	135,697	-0,256	-0,233
154,531	271,931	-0,180	-0,222
155,546	99,961	-0,204	-0,165
156,560	127,616	-0,221	-0,196
157,575	215,641	-0,178	-0,198
158,589	456,497	-0,116	-0,180
159,604	249,818	-0,225	-0,267
160,619	267,883	-0,289	-0,353
161,633	307,253	-0,177	-0,231
162,648	598,950	-0,147	-0,255
163,662	315,664	-0,166	-0,219
164,677	-149,892	-0,173	-0,009
165,692	186,363	-0,087	-0,090
166,706	-11,784	-0,212	-0,097
167,721	222,491	-0,205	-0,231
168,735	65,278	-0,248	-0,175
169,750	-83,001	-0,281	-0,063
170,764	44,536	-0,335	-0,214
171,779	77,569	-0,192	-0,142
172,794	14,269	-0,186	-0,101
173,808	-2,743	-0,168	-0,082
174,823	-166,675	-0,203	-0,006
175,837	601,772	-0,153	-0,265
176,852	222,566	-0,227	-0,255
177,867	106,814	-0,235	-0,194
178,881	118,643	-0,193	-0,166
179,896	16,138	-0,205	-0,112
180,910	600,444	-0,186	-0,323
181,925	56,051	-0,242	-0,163
182,940	121,491	-0,304	-0,264
183,954	126,491	-0,278	-0,245
184,969	102,186	-0,243	-0,198
185,983	609,010	-0,119	-0,207
186,998	-33,108	-0,085	-0,033
188,013	142,527	-0,244	-0,226
189,027	19,832	-0,334	-0,187
190,042	46,925	-0,183	-0,118
191,056	277,682	-0,214	-0,266
192,071	-100,166	-0,321	-0,055
193,086	800,000	-0,064	-0,180
194,100	-39,930	-0,266	-0,096
195,115	800,000	-0,053	-0,164
196,129	372,231	-0,164	-0,232
197,144	474,239	-0,193	-0,304
198,159	329,836	-0,222	-0,297
199,173	198,137	-0,277	-0,295
200,188	-200,000	-0,054	-0,250
201,202	119,312	-0,169	-0,146
202,217	138,166	-0,156	-0,142
203,232	113,477	-0,207	-0,175
204,246	82,236	-0,242	-0,182
205,261	53,173	-0,282	-0,187
206,275	92,610	-0,317	-0,248
207,290	192,352	-0,096	-0,101
208,304	800,000	-0,067	-0,164
209,319	-3,679	-0,229	-0,110
210,334	-122,209	-0,132	-0,015
211,348	239,998	-0,163	-0,189
212,363	121,734	-0,138	-0,120
213,377	-59,422	-0,239	-0,071
214,392	48,731	-0,125	-0,081
215,407	270,335	-0,082	-0,100
216,421	366,298	-0,150	-0,211
217,436	152,354	-0,217	-0,205
218,450	313,140	-0,117	-0,153
219,465	100,695	-0,166	-0,134
220,480	61,797	-0,156	-0,108
221,494	-31,547	-0,242	-0,094
222,509	-6,989	-0,127	-0,060
223,523	-142,011	-0,248	-0,017
224,538	26,253	-0,182	-0,106
225,553	277,266	-0,141	-0,175
226,567	718,898	-0,119	-0,220
227,582	800,000	-0,065	-0,187
228,596	52,615	-0,228	-0,151
229,611	35,201	-0,259	-0,157
230,626	349,585	-0,136	-0,187
231,640	259,984	-0,114	-0,136
232,655	176,994	-0,217	-0,219
233,669	-20,013	-0,182	-0,077
234,684	-128,444	-0,223	-0,022
235,699	32,768	-0,234	-0,140
236,713	45,006	-0,159	-0,101
237,728	29,516	-0,109	-0,064
238,742	88,188	-0,233	-0,179
239,757	42,924	-0,297	-0,187
240,772	92,371	-0,213	-0,166
241,786	287,709	-0,148	-0,186
242,801	346,886	-0,131	-0,179
243,815	163,384	-0,060	-0,058
244,830	-57,392	-0,218	-0,066
245,844	-57,721	-0,334	-0,101
246,859	-79,516	-0,167	-0,039
247,874	607,155	-0,120	-0,209
248,888	157,491	-0,212	-0,203
249,903	800,000	-0,111	-0,254
250,917	800,000	-0,079	-0,185
251,932	549,225	-0,063	-0,106
252,947	-20,999	-0,208	-0,088
253,961	375,861	-0,122	-0,173
254,976	-33,722	-0,173	-0,066
255,990	50,093	-0,158	-0,103
257,005	48,174	-0,110	-0,071
258,020	240,205	-0,163	-0,188
259,034	413,846	-0,093	-0,137
260,049	-70,228	-0,319	-0,083
261,063	76,500	-0,219	-0,160
262,078	330,148	-0,188	-0,251
263,093	321,799	-0,178	-0,235
264,107	122,891	-0,101	-0,088
265,122	111,959	-0,111	-0,093
266,136	-43,705	-0,213	-0,074
267,151	800,000	-0,090	-0,243
268,166	222,185	-0,107	-0,119
269,180	73,743	-0,301	-0,218
270,195	159,795	-0,192	-0,185
271,209	215,803	-0,149	-0,164
272,224	-7,570	-0,163	-0,076
273,239	172,479	-0,139	-0,138
274,253	172,054	-0,187	-0,186
275,268	175,488	-0,146	-0,146
276,282	-28,586	-0,249	-0,099
277,297	72,975	-0,129	-0,093
278,312	-101,643	-0,214	-0,036
279,326	687,420	-0,127	-0,231
280,341	135,475	-0,029	-0,026
281,355	239,623	-0,127	0,146
282,370	-200,000	0,011	-0,075
283,384	83,131	-0,175	-0,131
284,399	436,432	-0,122	-0,184
285,414	95,517	-0,191	-0,150
286,428	-79,133	-0,038	0,009
287,443	800,000	-0,071	-0,172
288,457	0,237	-0,140	-0,069
289,472	114,510	-0,113	-0,095
290,487	173,816	-0,178	-0,178
291,501	79,630	-0,294	-0,218
292,516	-200,000	-0,067	-0,341
293,530	19,558	-0,170	-0,094
294,545	-200,000	-0,026	-0,125
295,560	-200,000	-0,012	-0,167
296,574	94,678	-0,176	-0,138
297,589	-200,000	-0,018	-0,128
298,603	-27,536	-0,162	-0,065
299,618	-140,371	-0,159	-0,011
300,633	66,168	-0,117	-0,082
301,647	-200,000	-0,016	-0,087
302,662	16,002	-0,205	-0,111
303,676	77,928	-0,174	-0,128
304,691	118,616	-0,164	-0,139
305,706	800,000	-0,082	-0,165
306,720	421,369	-0,120	-0,179
307,735	10,471	-0,200	-0,105
308,749	-62,373	-0,080	-0,023
309,764	34,279	-0,074	-0,044
310,779	800,000	-0,047	-0,094
311,793	-85,061	-0,202	-0,043
312,808	133,225	-0,172	-0,153
313,822	-46,577	-0,277	-0,093
314,837	104,449	-0,207	-0,168
315,852	352,285	-0,079	-0,108
316,866	142,722	-0,057	0,052
317,881	303,166	-0,107	-0,137
318,895	261,191	-0,119	-0,142
319,910	-200,000	-0,173	0,000
320,925	-54,776	-0,132	-0,041
321,939	154,001	-0,167	-0,158
322,954	-200,000	0,009	-0,169
323,968	-49,144	-0,169	0,055
324,983	-106,763	-0,122	0,018
325,997	800,000	-0,094	-0,187
327,012	-200,000	-0,065	-0,233
328,027	144,472	-0,095	-0,087
329,041	800,000	-0,122	-0,261
330,056	800,000	-0,049	-0,097
331,070	370,812	-0,044	-0,062
332,085	263,953	-0,116	-0,139
333,100	404,668	-0,154	-0,224
334,114	10,904	-0,095	-0,049
335,129	111,172	-0,087	-0,072
336,143	29,572	-0,117	-0,068
337,158	511,444	-0,070	-0,112
338,173	-200,000	-0,239	-0,000
339,187	-47,010	-0,105	0,035
340,202	-61,591	-0,277	-0,079
341,216	60,489	-0,182	-0,123
342,231	153,922	-0,190	-0,179
343,246	-70,155	-0,193	-0,050
344,260	800,000	-0,106	-0,234
345,275	566,745	-0,105	-0,176
346,289	-27,122	-0,189	-0,075
347,304	-73,680	-0,092	-0,023
348,319	-200,000	-0,030	-0,149
349,333	144,784	-0,200	-0,184
350,348	800,000	-0,085	-0,221
351,362	114,336	-0,219	-0,183
352,377	72,971	-0,052	-0,037
353,392	697,404	-0,030	-0,053
354,406	-176,934	-0,243	-0,004
355,421	209,080	1314,701	1414,093
356,435	160,894	1475,444	1414,573
