DTS Sentinel unit serial number:	SN410029Multiplexer serial number:	ORYXHardware model number:	OX2-SRSoftware version number:	ORYX F/W v4,00 Oryx Data Collector v3.7.2.0data status	okinstallation	B3 Nyhavnadifferential loss correction	single-endedforward channel	channel 1reverse channel	N/Adate	2023/12/03time	13:37:30forward acquisition time	300,00reverse acquisition time	0,00gamma	499,1914k internal	0,3200k external	0,3200temperature offset calibration	1,0000default loss term (dB/km)	0,3820temperature slope calibration	1,0000multiplexer offset coefficient	1,0000multiplexer slope coefficient	1,0000fibre end	0,00T internal ref (°C)	15,17T ext. ref 1 (°C)	1,40T ext. ref 2 (°C)	1,39length (m)	temperature (°C)	Stokes	anti-Stokes-744,400	303,058	-0,152	-0,205
-743,385	-200,000	0,040	0,236
-742,371	95,495	-0,194	-0,161
-741,356	-200,000	0,032	0,311
-740,342	179,578	-0,238	-0,254
-739,327	-200,000	-0,012	0,290
-738,312	641,847	-0,085	-0,158
-737,298	800,000	-0,087	0,243
-736,283	-11,522	-0,181	-0,086
-735,269	-200,000	0,057	0,457
-734,254	-200,000	0,013	-0,150
-733,239	48,535	-0,212	0,144
-732,225	133,597	-0,190	-0,179
-731,210	-41,630	0,136	0,051
-730,196	-5,666	0,046	-0,023
-729,181	-200,000	0,005	0,115
-728,167	-54,914	-0,161	-0,052
-727,152	-84,505	-0,033	-0,007
-726,137	-47,553	-0,028	-0,010
-725,123	437,819	0,041	0,065
-724,108	381,039	0,076	-0,114
-723,094	800,000	-0,030	-0,063
-722,079	33,821	-0,032	0,020
-721,064	-112,326	-0,060	0,009
-720,050	53,872	-0,138	-0,096
-719,035	-1,023	0,047	-0,024
-718,021	237,286	-0,019	-0,024
-717,006	50,548	-0,117	-0,080
-715,991	90,466	-0,199	-0,161
-714,977	-200,000	0,003	-0,018
-713,962	377,387	0,041	-0,061
-712,948	-24,146	0,166	-0,072
-711,933	15,939	0,036	0,020
-710,918	14,181	0,123	0,070
-709,904	-119,806	0,087	0,011
-708,889	-26,609	-0,137	0,058
-707,875	-200,000	-0,006	-0,152
-706,860	-200,000	0,012	-0,108
-705,845	230,422	-0,061	0,072
-704,831	230,236	-0,050	0,059
-703,816	5,766	-0,143	-0,076
-702,802	-200,000	-0,016	-0,159
-701,787	-200,000	0,011	-0,106
-700,772	-24,111	-0,093	-0,040
-699,758	9,556	-0,074	-0,040
-698,743	78,474	0,032	-0,025
-697,729	83,154	0,045	0,036
-696,714	-9,088	0,036	0,018
-695,699	401,592	0,040	-0,061
-694,685	-200,000	-0,047	-0,160
-693,670	-86,822	-0,024	-0,005
-692,656	-200,000	0,039	-0,126
-691,641	-200,000	-0,014	-0,103
-690,627	-200,000	-0,050	-0,165
-689,612	800,000	-0,028	0,081
-688,597	-36,235	0,038	-0,015
-687,583	-200,000	-0,027	-0,121
-686,568	64,437	-0,132	-0,097
-685,554	-200,000	-0,006	-0,167
-684,539	372,235	0,028	-0,041
-683,524	800,000	0,030	0,069
-682,510	-90,655	0,090	0,019
-681,495	-200,000	-0,004	-0,079
-680,481	-146,187	-0,150	-0,009
-679,466	386,719	-0,012	0,018
-678,451	761,426	0,019	0,037
-677,437	89,821	-0,061	0,049
-676,422	800,000	0,030	-0,061
-675,408	-76,635	-0,122	-0,031
-674,393	26,918	0,039	-0,024
-673,378	800,000	-0,042	-0,093
-672,364	-200,000	-0,013	-0,074
-671,349	-200,000	0,014	-0,074
-670,335	800,000	0,015	0,036
-669,320	141,366	0,054	-0,052
-668,305	-98,171	0,130	-0,024
-667,291	200,565	-0,043	0,048
-666,276	-200,000	0,017	-0,155
-665,262	-73,227	-0,190	0,050
-664,247	-49,144	-0,118	-0,041
-663,232	800,000	-0,003	0,007
-662,218	264,106	-0,029	0,036
-661,203	800,000	-0,023	0,064
-660,189	363,946	0,009	0,013
-659,174	52,950	0,024	-0,017
-658,159	49,250	0,071	-0,048
-657,145	111,887	0,087	0,076
-656,130	-114,947	-0,112	-0,015
-655,116	88,391	-0,085	0,069
-654,101	800,000	0,024	0,049
-653,086	800,000	-0,051	-0,142
-652,072	800,000	-0,039	0,094
-651,057	-200,000	-0,031	0,177
-650,043	191,743	-0,046	0,051
-649,028	-137,294	-0,040	-0,003
-648,014	499,626	0,022	0,038
-646,999	-34,964	-0,064	0,025
-645,984	87,984	-0,046	0,037
-644,970	-181,658	-0,030	-0,000
-643,955	274,833	-0,048	-0,062
-642,941	406,244	0,070	-0,108
-641,926	315,816	0,027	-0,037
-640,911	800,000	0,044	-0,103
-639,897	-71,817	0,029	0,008
-638,882	-200,000	-0,042	0,150
-637,868	640,160	0,009	-0,017
-636,853	-200,000	0,049	-0,160
-635,838	22,173	-0,157	-0,093
-634,824	346,750	-0,121	-0,173
-633,809	151,016	0,063	-0,062
-632,795	-18,957	0,164	0,073
-631,780	-200,000	0,010	0,198
-630,765	-200,000	-0,005	-0,051
-629,751	-200,000	0,011	-0,041
-628,736	226,458	-0,061	-0,072
-627,722	14,154	0,057	0,032
-626,707	432,441	0,022	0,034
-625,692	214,898	-0,041	0,047
-624,678	10,538	-0,041	-0,023
-623,663	800,000	-0,042	0,115
-622,649	184,362	-0,023	0,025
-621,634	85,763	0,059	-0,047
-620,619	-200,000	-0,016	-0,056
-619,605	156,497	-0,096	0,096
-618,590	-94,296	-0,058	-0,011
-617,576	335,089	0,027	0,039
-616,561	800,000	0,069	-0,204
-615,546	-200,000	-0,029	-0,122
-614,532	800,000	-0,025	-0,054
-613,517	-0,010	-0,047	0,024
-612,503	800,000	0,050	-0,133
-611,488	167,149	-0,028	-0,029
-610,474	-11,095	0,042	-0,020
-609,459	-200,000	0,011	0,048
-608,444	-87,670	-0,046	0,010
-607,430	-111,981	-0,141	0,020
-606,415	205,084	-0,105	-0,118
-605,401	-200,000	0,012	-0,085
-604,386	82,015	0,052	-0,041
-603,371	276,981	0,084	-0,108
-602,357	115,261	0,067	0,059
-601,342	-133,416	-0,035	-0,003
-600,328	-200,000	0,009	-0,064
-599,313	-98,152	-0,080	-0,015
-598,298	800,000	0,043	0,132
-597,284	155,632	-0,018	-0,018
-596,269	-34,482	0,020	0,008
-595,255	-200,000	-0,031	0,109
-594,240	800,000	-0,016	0,036
-593,225	-193,249	-0,090	-0,001
-592,211	-100,688	-0,112	-0,020
-591,196	800,000	-0,046	-0,099
-590,182	-200,000	-0,021	0,070
-589,167	189,385	-0,107	0,116
-588,152	300,651	0,054	-0,072
-587,138	-200,000	0,029	-0,136
-586,123	118,922	-0,079	0,070
-585,109	800,000	0,047	-0,138
-584,094	-152,797	-0,051	-0,003
-583,079	79,003	-0,055	0,042
-582,065	116,349	0,071	-0,063
-581,050	108,577	-0,102	0,088
-580,036	-54,519	-0,136	-0,044
-579,021	318,206	-0,023	0,032
-578,006	233,001	-0,044	-0,053
-576,992	-25,109	-0,127	0,054
-575,977	-200,000	0,003	0,113
-574,963	-200,000	-0,002	-0,102
-573,948	-30,554	0,113	-0,046
-572,934	800,000	-0,047	0,132
-571,919	-200,000	-0,000	0,003
-570,904	-200,000	-0,010	-0,042
-569,890	-200,000	0,003	-0,117
-568,875	-86,622	0,121	-0,026
-567,861	-200,000	0,004	-0,030
-566,846	-200,000	0,031	0,131
-565,831	-57,406	0,113	0,036
-564,817	-137,378	0,048	0,004
-563,802	-83,500	-0,094	0,022
-562,788	280,014	0,076	-0,099
-561,773	-57,324	-0,151	-0,048
-560,758	187,136	0,108	0,117
-559,744	-76,673	0,023	0,006
-558,729	800,000	0,046	0,144
-557,715	-200,000	-0,034	-0,191
-556,700	-200,000	0,034	-0,135
-555,685	-200,000	0,011	-0,107
-554,671	-200,000	-0,010	0,071
-553,656	234,330	-0,017	0,021
-552,642	-30,738	0,064	-0,026
-551,627	772,507	0,035	-0,070
-550,612	655,946	-0,047	-0,088
-549,598	800,000	-0,063	-0,136
-548,583	-59,797	-0,065	0,020
-547,569	800,000	-0,052	-0,115
-546,554	-200,000	0,041	0,131
-545,539	-200,000	0,019	0,063
-544,525	-200,000	0,014	-0,130
-543,510	-68,910	-0,062	-0,017
-542,496	339,849	0,022	0,031
-541,481	-45,922	0,074	-0,026
-540,466	140,295	0,037	-0,035
-539,452	800,000	0,031	0,069
-538,437	-200,000	-0,036	-0,170
-537,423	118,664	-0,099	-0,088
-536,408	42,652	-0,076	-0,050
-535,393	422,493	0,034	0,053
-534,379	366,211	-0,017	0,025
-533,364	800,000	0,039	-0,100
-532,350	98,701	-0,044	0,037
-531,335	800,000	-0,011	0,033
-530,321	-39,346	0,081	-0,030
-529,306	-109,599	-0,083	-0,013
-528,291	800,000	0,019	0,052
-527,277	-5,644	0,089	-0,044
-526,262	72,923	-0,074	-0,055
-525,248	356,356	-0,044	-0,063
-524,233	-10,855	0,039	-0,018
-523,218	-57,259	-0,078	-0,025
-522,204	-3,102	-0,114	0,057
-521,189	-135,341	-0,161	0,014
-520,175	240,099	0,056	-0,067
-519,160	800,000	-0,019	0,059
-518,145	88,500	0,084	-0,067
-517,131	319,106	-0,050	0,068
-516,116	-24,975	0,037	-0,016
-515,102	192,026	0,140	0,152
-514,087	-200,000	0,006	0,158
-513,072	5,149	-0,084	-0,045
-512,058	800,000	-0,028	-0,078
-511,043	-200,000	-0,017	0,099
-510,029	708,100	0,036	0,069
-509,014	-168,907	0,111	0,003
-507,999	218,576	-0,057	0,065
-506,985	473,311	-0,022	-0,036
-505,970	215,185	-0,062	-0,071
-504,956	32,509	-0,123	0,076
-503,941	-200,000	-0,013	-0,119
-502,926	62,561	0,136	0,098
-501,912	800,000	-0,036	0,105
-500,897	-72,040	-0,060	0,016
-499,883	5,524	0,036	0,019
-498,868	-200,000	-0,009	-0,076
-497,853	183,044	-0,115	-0,123
-496,839	56,750	-0,124	-0,087
-495,824	50,024	0,127	0,086
-494,810	-157,564	-0,133	0,006
-493,795	157,195	-0,098	-0,098
-492,781	50,912	-0,032	-0,022
-491,766	-200,000	-0,032	-0,125
-490,751	684,031	-0,076	-0,144
-489,737	800,000	0,036	-0,113
-488,722	42,249	0,133	0,087
-487,708	800,000	-0,065	0,135
-486,693	-29,260	-0,087	-0,036
-485,678	-145,253	-0,054	-0,003
-484,664	-200,000	-0,006	0,033
-483,649	-32,849	0,053	-0,021
-482,635	-7,042	-0,102	0,050
-481,620	-5,708	0,020	-0,010
-480,605	199,936	-0,041	-0,045
-479,591	-200,000	-0,002	-0,044
-478,576	692,433	-0,075	-0,142
-477,562	-42,302	-0,093	-0,034
-476,547	-91,463	0,042	0,009
-475,532	-200,000	-0,003	0,073
-474,518	18,944	-0,107	0,062
-473,503	125,328	0,066	0,060
-472,489	-151,537	0,064	0,003
-471,474	-17,244	-0,083	0,037
-470,459	-200,000	-0,025	0,082
-469,445	491,794	-0,011	-0,019
-468,430	143,382	-0,064	0,061
-467,416	-84,980	0,228	-0,051
-466,401	235,605	0,064	0,076
-465,386	-146,500	0,063	0,004
-464,372	-200,000	0,013	0,057
-463,357	354,562	-0,049	-0,070
-462,343	-164,618	-0,038	0,001
-461,328	-200,000	0,000	0,055
-460,313	358,039	-0,031	-0,044
-459,299	800,000	0,077	0,159
-458,284	291,138	0,090	0,118
-457,270	48,414	0,066	0,044
-456,255	64,123	-0,035	0,025
-455,241	45,160	-0,053	-0,035
-454,226	-200,000	-0,019	-0,162
-453,211	-200,000	0,002	0,062
-452,197	63,381	0,152	0,110
-451,182	546,569	0,069	0,120
-450,168	-200,000	-0,030	0,153
-449,153	251,789	0,045	0,055
-448,138	-200,000	-0,004	0,096
-447,124	10,190	-0,087	-0,047
-446,109	117,291	-0,104	-0,092
-445,095	-200,000	0,024	0,080
-444,080	16,657	0,011	-0,006
-443,065	800,000	0,020	-0,046
-442,051	-88,897	0,098	-0,021
-441,036	96,988	-0,097	0,080
-440,022	800,000	0,027	0,084
-439,007	-120,881	-0,072	0,009
-437,992	-200,000	-0,001	0,138
-436,978	530,436	0,067	0,114
-435,963	-29,081	-0,027	-0,011
-434,949	-12,527	0,059	0,028
-433,934	-7,233	-0,202	-0,098
-432,919	311,469	-0,036	-0,049
-431,905	-200,000	0,041	-0,136
-430,890	-200,000	-0,053	-0,175
-429,876	34,467	0,108	0,068
-428,861	29,205	0,043	-0,026
-427,846	-82,780	0,126	0,029
-426,832	81,675	-0,085	-0,066
-425,817	-102,957	-0,118	-0,020
-424,803	96,395	-0,038	-0,031
-423,788	593,466	-0,032	0,057
-422,773	119,885	-0,006	0,005
-421,759	-200,000	0,022	0,110
-420,744	155,027	0,078	-0,077
-419,730	-200,000	0,002	0,037
-418,715	-164,844	-0,160	0,005
-417,701	28,044	0,059	-0,036
-416,686	-69,807	0,088	0,024
-415,671	135,644	0,047	0,044
-414,657	-200,000	-0,022	0,115
-413,642	10,437	0,063	0,034
-412,628	294,680	-0,088	-0,115
-411,613	113,611	0,133	0,116
-410,598	-82,692	-0,077	0,018
-409,584	38,326	0,050	-0,032
-408,569	342,715	0,120	0,170
-407,555	-0,646	0,112	0,057
-406,540	370,282	-0,028	0,041
-405,525	80,945	0,093	-0,072
-404,511	296,197	-0,065	0,086
-403,496	297,044	-0,050	0,066
-402,482	-81,718	0,062	-0,015
-401,467	-60,286	0,118	0,036
-400,452	-200,000	0,005	-0,090
-399,438	363,104	0,067	-0,097
-398,423	-200,000	0,007	-0,075
-397,409	-30,232	-0,142	-0,058
-396,394	-200,000	-0,044	-0,187
-395,379	-110,040	0,170	-0,025
-394,365	-35,994	-0,160	0,062
-393,350	800,000	0,020	0,048
-392,336	-96,219	-0,136	-0,026
-391,321	-75,929	-0,041	0,010
-390,306	-5,823	-0,056	0,028
-389,292	-60,169	-0,129	-0,039
-388,277	181,023	-0,030	-0,032
-387,263	81,845	0,077	-0,059
-386,248	-88,058	0,040	0,009
-385,233	30,022	-0,092	0,056
-384,219	307,050	0,039	0,053
-383,204	137,267	0,052	0,048
-382,190	146,161	0,077	0,075
-381,175	16,612	0,073	0,041
-380,160	-78,148	0,161	-0,040
-379,146	-200,000	0,003	-0,049
-378,131	-66,309	0,107	0,030
-377,117	-200,000	0,030	-0,180
-376,102	57,316	0,144	0,101
-375,088	-63,816	-0,147	-0,043
-374,073	-200,000	0,004	-0,021
-373,058	588,081	-0,066	0,117
-372,044	128,525	0,079	0,073
-371,029	508,766	-0,089	-0,148
-370,015	137,021	-0,078	-0,074
-369,000	800,000	-0,026	-0,067
-367,985	66,376	-0,067	-0,049
-366,971	-88,145	-0,070	-0,015
-365,956	800,000	-0,020	-0,045
-364,942	-100,182	0,111	0,020
-363,927	-14,531	-0,071	0,033
-362,912	466,774	-0,097	0,157
-361,898	-20,844	-0,185	-0,081
-360,883	-200,000	-0,034	-0,123
-359,869	291,426	0,078	-0,102
-358,854	343,974	0,036	0,050
-357,839	705,047	0,031	0,059
-356,825	-57,986	0,061	-0,019
-355,810	-89,242	0,050	-0,010
-354,796	-200,000	-0,035	-0,141
-353,781	800,000	0,022	-0,055
-352,766	317,623	0,098	-0,133
-351,752	270,715	-0,083	-0,105
-350,737	315,154	0,053	0,072
-349,723	464,818	-0,019	0,031
-348,708	-45,832	0,155	-0,055
-347,693	-200,000	0,007	0,157
-346,679	-54,020	-0,149	0,048
-345,664	-200,000	0,000	-0,049
-344,650	-47,821	-0,034	-0,012
-343,635	378,616	-0,071	0,104
-342,620	231,806	0,126	0,149
-341,606	800,000	0,061	-0,131
-340,591	-185,674	0,043	0,000
-339,577	800,000	0,037	-0,089
-338,562	-200,000	0,012	0,082
-337,548	275,631	0,082	0,105
-336,533	157,969	0,053	0,053
-335,518	800,000	-0,048	0,123
-334,504	17,281	-0,023	0,013
-333,489	-200,000	-0,003	0,050
-332,475	-57,651	0,020	-0,006
-331,460	-65,874	-0,108	-0,031
-330,445	-200,000	0,036	0,134
-329,431	171,766	-0,082	0,085
-328,416	521,282	0,084	0,141
-327,402	199,169	0,055	0,061
-326,387	-200,000	-0,025	0,082
-325,372	800,000	-0,016	-0,047
-324,358	738,622	0,019	-0,036
-323,343	24,407	-0,032	0,019
-322,329	-200,000	0,025	-0,135
-321,314	800,000	0,041	0,106
-320,299	6,500	-0,042	-0,022
-319,285	-86,746	-0,016	-0,004
-318,270	363,577	-0,042	-0,061
-317,256	398,560	-0,030	-0,045
-316,241	-176,166	0,213	0,004
-315,226	564,360	0,043	0,075
-314,212	-200,000	0,015	0,114
-313,197	-66,992	-0,139	0,039
-312,183	800,000	-0,037	0,109
-311,168	98,795	-0,104	-0,085
-310,153	-200,000	-0,002	-0,085
-309,139	34,113	0,028	0,017
-308,124	-75,328	-0,066	-0,017
-307,110	23,720	0,066	0,039
-306,095	68,877	0,111	-0,082
-305,080	47,574	0,053	0,036
-304,066	118,098	0,060	0,053
-303,051	800,000	0,074	-0,169
-302,037	156,345	-0,098	0,097
-301,022	-128,598	-0,035	-0,003
-300,008	551,116	-0,067	0,115
-298,993	-200,000	0,033	0,144
-297,978	-85,955	0,006	-0,001
-296,964	-14,924	0,105	-0,048
-295,949	-37,123	-0,112	-0,043
-294,935	-133,432	-0,081	0,007
-293,920	-200,000	0,012	0,056
-292,905	-92,042	0,130	0,026
-291,891	-124,458	0,020	-0,002
-290,876	42,525	-0,036	0,024
-289,862	-200,000	-0,006	-0,090
-288,847	-121,276	0,069	0,008
-287,832	147,875	0,061	0,059
-286,818	-13,213	0,013	-0,006
-285,803	-200,000	0,023	-0,163
-284,789	112,623	0,054	-0,047
-283,774	-114,030	0,095	0,013
-282,759	-200,000	0,016	-0,141
-281,745	-51,812	-0,097	-0,032
-280,730	-162,962	-0,023	-0,001
-279,716	-36,080	0,077	-0,030
-278,701	353,948	0,132	0,188
-277,686	-53,551	0,131	0,043
-276,672	-2,221	-0,145	0,073
-275,657	481,444	0,044	0,072
-274,643	3,342	-0,032	0,017
-273,628	-200,000	0,013	0,113
-272,613	67,156	0,038	-0,027
-271,599	-200,000	0,003	-0,118
-270,584	800,000	-0,026	0,071
-269,570	606,765	0,068	0,122
-268,555	-200,000	0,003	0,144
-267,540	800,000	0,036	0,087
-266,526	-200,000	0,006	-0,169
-265,511	-50,374	0,088	-0,029
-264,497	628,114	-0,055	-0,099
-263,482	4,826	0,071	0,037
-262,467	-164,903	0,031	-0,001
-261,453	44,193	-0,013	0,008
-260,438	95,095	0,069	-0,056
-259,424	13,235	-0,120	-0,066
-258,409	-200,000	0,050	-0,182
-257,395	-45,136	0,117	0,041
-256,380	-20,246	0,047	0,020
-255,365	-200,000	0,001	-0,055
-254,351	-200,000	-0,020	-0,074
-253,336	72,340	-0,069	0,051
-252,322	-200,000	-0,009	-0,103
-251,307	-143,403	-0,026	0,002
-250,292	-33,127	0,098	0,039
-249,278	-29,746	0,177	-0,072
-248,263	-200,000	-0,004	-0,023
-247,249	800,000	0,043	0,105
-246,234	541,799	0,038	-0,064
-245,219	123,145	-0,059	-0,052
-244,205	-133,844	-0,168	0,015
-243,190	297,597	0,028	-0,037
-242,176	22,969	-0,031	-0,018
-241,161	-104,555	0,033	0,005
-240,146	-161,526	-0,114	0,004
-239,132	184,084	0,021	-0,023
-238,117	-166,794	-0,105	-0,003
-237,103	445,487	0,046	0,073
-236,088	299,932	0,066	-0,087
-235,073	125,644	0,087	0,079
-234,059	62,006	0,109	0,078
-233,044	-83,906	0,059	0,013
-232,030	-90,907	0,118	0,024
-231,015	143,405	-0,103	-0,097
-230,000	-200,000	-0,009	-0,028
-228,986	-64,936	-0,072	-0,021
-227,971	-200,000	0,010	0,095
-226,957	800,000	0,025	0,053
-225,942	-117,852	0,024	-0,003
-224,927	778,483	-0,037	-0,072
-223,913	-96,548	-0,125	-0,023
-222,898	154,249	0,044	-0,043
-221,884	74,011	-0,063	-0,047
-220,869	108,426	-0,048	-0,041
-219,855	-70,041	0,060	-0,016
-218,840	-200,000	0,014	0,093
-217,825	181,311	0,068	-0,071
-216,811	-175,355	0,146	-0,003
-215,796	-200,000	0,023	-0,079
-214,782	532,491	0,039	-0,066
-213,767	18,556	0,133	-0,076
-212,752	614,608	-0,055	0,098
-211,738	270,901	0,038	0,047
-210,723	250,798	0,027	0,033
-209,709	30,363	-0,048	0,029
-208,694	432,890	-0,015	-0,023
-207,679	-200,000	0,046	-0,176
-206,665	-38,946	0,085	-0,032
-205,650	800,000	-0,015	-0,036
-204,636	-200,000	0,006	0,048
-203,621	800,000	-0,019	0,055
-202,606	0,370	-0,024	-0,012
-201,592	-200,000	-0,011	-0,044
-200,577	-25,565	-0,115	0,048
-199,563	-114,669	0,051	-0,007
-198,548	212,874	-0,079	-0,089
-197,533	-72,753	-0,018	0,005
-196,519	306,379	-0,019	0,026
-195,504	-157,310	0,103	-0,004
-194,490	1,803	-0,176	-0,090
-193,475	-200,000	-0,009	0,044
-192,460	516,642	-0,068	-0,114
-191,446	-200,000	-0,003	0,106
-190,431	644,197	0,104	0,190
-189,417	-38,534	0,165	0,062
-188,402	-200,000	0,023	0,114
-187,387	-200,000	-0,001	-0,031
-186,373	-200,000	-0,015	-0,079
-185,358	800,000	-0,020	-0,040
-184,344	-200,000	0,047	0,210
-183,329	-200,000	0,005	-0,030
-182,315	51,758	-0,070	0,048
-181,300	-56,115	0,051	0,016
-180,285	800,000	-0,047	-0,096
-179,271	800,000	0,020	-0,058
-178,256	-24,619	0,070	-0,030
-177,242	-9,185	0,081	0,038
-176,227	-100,527	0,133	0,023
-175,212	-149,186	-0,054	0,003
-174,198	800,000	-0,043	0,094
-173,183	-87,483	-0,119	0,025
-172,169	-63,267	-0,116	0,034
-171,154	-200,000	0,002	0,067
-170,139	800,000	0,040	-0,091
-169,125	-29,343	0,140	-0,057
-168,110	800,000	-0,043	0,092
-167,096	-160,142	-0,051	0,002
-166,081	180,505	-0,062	0,064
-165,066	362,505	0,047	0,067
-164,052	149,206	0,042	0,040
-163,037	-200,000	-0,012	0,102
-162,023	-200,000	0,004	0,105
-161,008	197,332	0,113	0,122
-159,993	53,121	-0,045	0,031
-158,979	-200,000	0,003	-0,037
-157,964	-94,098	-0,063	0,012
-156,950	158,338	-0,004	-0,004
-155,935	136,461	-0,067	-0,062
-154,920	800,000	-0,005	0,016
-153,906	5,752	-0,043	-0,022
-152,891	-200,000	0,019	0,062
-151,877	-36,500	-0,040	-0,015
-150,862	462,565	0,030	-0,048
-149,847	-200,000	0,021	-0,164
-148,833	-200,000	0,006	0,070
-147,818	-147,403	0,020	0,001
-146,804	281,587	0,045	0,058
-145,789	-200,000	-0,019	-0,128
-144,775	258,241	-0,037	-0,046
-143,760	-8,609	0,108	0,051
-142,745	138,858	-0,073	-0,068
-141,731	-200,000	0,015	-0,151
-140,716	503,781	0,088	0,145
-139,702	-200,000	0,017	0,155
-138,687	241,703	-0,091	-0,108
-137,672	800,000	-0,016	-0,050
-136,658	627,028	-0,053	-0,096
-135,643	39,006	0,017	-0,011
-134,629	446,611	-0,058	-0,091
-133,614	364,043	-0,044	0,062
-132,599	116,522	-0,071	-0,062
-131,585	-124,702	0,054	-0,006
-130,570	368,247	0,060	-0,087
-129,556	-200,000	-0,012	-0,194
-128,541	-200,000	-0,019	-0,102
-127,526	-200,000	0,014	-0,095
-126,512	316,172	0,076	-0,102
-125,497	-48,489	0,110	0,037
-124,483	-200,000	-0,001	0,094
-123,468	-146,991	-0,043	-0,003
-122,453	-200,000	-0,010	0,082
-121,439	541,836	0,068	-0,115
-120,424	-51,145	0,074	-0,024
-119,410	63,288	0,035	-0,025
-118,395	38,599	-0,103	0,065
-117,380	57,944	0,149	-0,104
-116,366	78,110	-0,074	-0,056
-115,351	800,000	-0,020	0,042
-114,337	43,086	-0,069	0,045
-113,322	119,351	0,122	-0,108
-112,307	-30,903	-0,074	0,030
-111,293	25,721	0,144	-0,085
-110,278	615,453	0,089	0,158
-109,264	800,000	-0,007	0,021
-108,249	-200,000	0,011	0,132
-107,234	37,207	-0,160	-0,101
-106,220	-200,000	-0,011	-0,070
-105,205	-74,314	-0,138	-0,035
-104,191	210,751	-0,053	0,059
-103,176	214,803	0,084	0,094
-102,162	645,428	0,009	0,016
-101,147	75,534	0,072	-0,054
-100,132	676,806	-0,037	-0,069
-99,118	800,000	-0,040	-0,105
-98,103	25,808	-0,100	-0,059
-97,089	-173,552	0,068	0,001
-96,074	-27,040	-0,061	0,025
-95,059	85,223	0,081	-0,063
-94,045	800,000	-0,062	0,192
-93,030	-75,718	0,154	0,038
-92,016	-200,000	-0,000	-0,053
-91,001	731,864	-0,073	0,139
-89,986	-117,304	-0,195	0,025
-88,972	-151,616	0,190	-0,010
-87,957	551,352	-0,053	0,091
-86,943	112,899	-0,055	0,047
-85,928	-200,000	0,015	-0,053
-84,913	707,878	-0,060	-0,112
-83,899	403,762	0,039	-0,058
-82,884	223,269	-0,061	0,070
-81,870	800,000	-0,031	0,080
-80,855	-21,011	0,127	-0,055
-79,840	-88,112	0,114	-0,024
-78,826	800,000	-0,047	-0,111
-77,811	-200,000	-0,048	0,186
-76,797	-18,282	0,058	-0,026
-75,782	263,429	-0,046	-0,057
-74,767	120,597	0,086	0,076
-73,753	-10,113	0,058	-0,027
-72,738	133,635	0,024	0,022
-71,724	-200,000	-0,017	-0,129
-70,709	521,292	0,014	-0,024
-69,694	450,102	0,076	0,119
-68,680	-200,000	-0,005	-0,087
-67,665	-200,000	-0,004	-0,073
-66,651	23,126	-0,076	0,044
-65,636	-200,000	-0,012	0,162
-64,622	223,351	0,071	-0,082
-63,607	-138,972	-0,203	-0,015
-62,592	77,689	0,047	-0,036
-61,578	-117,333	-0,136	-0,017
-60,563	25,506	-0,021	0,012
-59,549	312,660	-0,076	0,101
-58,534	-51,870	-1,444	-0,473
-57,519	459,352	-1,393	-2,204
-56,505	-200,000	-0,517	-4,512
-55,490	206,181	0,966	1,066
-54,476	800,000	4,803	10,880
-53,461	-200,000	17,966	284,970
-52,446	800,000	725,050	2222,988
-51,432	556,896	1640,294	2810,552
-50,417	79,635	1662,699	1262,769
-49,403	23,051	1536,653	890,585
-48,388	16,998	1460,190	817,001
-47,373	17,842	1450,008	815,328
-46,359	17,303	1440,342	807,287
-45,344	15,311	1435,696	795,160
-44,330	15,225	1433,813	793,673
-43,315	15,190	1432,210	792,588
-42,300	15,234	1430,441	791,784
-41,286	15,281	1429,266	791,328
-40,271	15,286	1427,954	790,593
-39,257	15,239	1426,716	789,653
-38,242	15,257	1425,530	789,050
-37,227	15,283	1424,213	788,414
-36,213	15,298	1422,966	787,765
-35,198	15,280	1421,801	787,003
-34,184	15,302	1420,875	786,565
-33,169	15,190	1419,780	785,395
-32,154	15,276	1418,715	785,181
-31,140	15,307	1417,175	784,445
-30,125	15,315	1416,375	784,010
-29,111	15,336	1415,023	783,329
-28,096	15,277	1414,039	782,474
-27,082	15,232	1412,935	781,623
-26,067	15,205	1411,667	780,763
-25,052	15,241	1410,588	780,303
-24,038	15,203	1409,772	779,646
-23,023	15,125	1408,881	778,757
-22,009	15,141	1407,760	778,181
-20,994	15,142	1406,759	777,601
-19,979	15,120	1406,118	777,110
-18,965	15,151	1404,813	776,503
-17,950	15,115	1403,941	775,821
-16,936	15,184	1402,834	775,502
-15,921	15,094	1401,851	774,509
-14,906	15,124	1400,858	774,070
-13,892	15,100	1400,044	773,477
-12,877	15,088	1399,272	772,965
-11,863	15,098	1398,271	772,426
-10,848	15,044	1397,404	771,667
-9,833	15,066	1396,408	771,186
-8,819	15,010	1395,530	770,415
-7,804	15,006	1394,732	769,924
-6,790	15,026	1393,316	769,202
-5,775	15,002	1392,451	768,586
-4,760	14,990	1391,798	768,140
-3,746	14,970	1391,095	767,629
-2,731	15,009	1390,146	767,255
-1,717	15,020	1388,953	766,617
-0,702	15,038	1387,043	765,615
0,313	18,915	1307,272	739,484
1,327	35,460	707,336	438,475
2,342	55,017	124,999	85,320
3,356	1,881	16,729	8,510
4,371	6,754	3,146	1,652
5,386	-44,644	0,578	0,203
6,400	-200,000	0,022	0,149
7,415	-75,784	-0,466	-0,116
8,429	32,841	-0,287	-0,175
9,444	128,718	-0,290	-0,262
10,459	150,829	-0,218	-0,210
11,473	-26,623	-0,336	-0,139
12,488	-36,459	-0,221	-0,084
13,502	35,525	-0,306	-0,189
14,517	-40,947	-0,364	-0,132
15,531	77,061	-0,405	-0,304
16,546	52,055	-0,466	-0,314
17,561	207,842	-0,340	-0,375
18,575	-81,686	-0,186	-0,043
19,590	162,107	-0,255	-0,252
20,604	49,327	-0,255	-0,169
21,619	183,511	-0,384	-0,402
22,634	78,956	-0,471	-0,356
23,648	198,031	-0,347	-0,375
24,663	51,591	-0,358	-0,240
25,677	182,097	-0,282	-0,294
26,692	130,587	-0,388	-0,352
27,707	57,379	-0,308	-0,212
28,721	101,505	-0,380	-0,313
29,736	192,180	-0,257	-0,274
30,750	75,825	-0,436	-0,325
31,765	43,867	-0,397	-0,256
32,780	-43,780	-0,361	-0,128
33,794	102,772	-0,231	-0,191
34,809	80,365	-0,410	-0,311
35,823	130,522	-0,332	-0,300
36,838	48,801	-0,417	-0,276
37,853	6,116	-0,468	-0,244
38,867	205,049	-0,364	-0,399
39,882	321,808	-0,280	-0,377
40,896	-46,074	-0,348	-0,120
41,911	96,404	-0,337	-0,272
42,926	211,560	-0,253	-0,281
43,940	47,899	-0,276	-0,182
44,955	23,598	-0,475	-0,275
45,969	79,113	-0,353	-0,266
46,984	67,095	-0,439	-0,315
47,999	57,859	-0,287	-0,197
49,013	-6,806	-0,316	-0,151
50,028	-39,760	-0,367	-0,134
51,042	54,442	-0,414	-0,280
52,057	68,192	-0,333	-0,240
53,071	71,052	-0,367	-0,268
54,086	138,066	-0,172	-0,159
55,101	137,510	-0,258	-0,238
56,115	84,328	-0,274	-0,211
57,130	41,652	-0,344	-0,219
58,144	87,433	-0,396	-0,308
59,159	148,727	-0,383	-0,365
60,174	-69,635	-0,480	-0,128
61,188	-73,448	-0,354	-0,090
62,203	-93,239	-0,321	-0,062
63,217	79,257	-0,318	-0,240
64,232	-5,457	-0,421	-0,203
65,247	126,053	-0,224	-0,199
66,261	71,099	-0,375	-0,273
67,276	18,703	-0,292	-0,164
68,290	19,932	-0,316	-0,179
69,305	120,153	-0,371	-0,324
70,320	-68,189	-0,281	-0,076
71,334	37,418	-0,375	-0,233
72,349	119,774	-0,252	-0,219
73,363	-7,337	-0,403	-0,191
74,378	-101,222	-0,416	-0,071
75,393	-64,873	-0,471	-0,133
76,407	99,105	-0,242	-0,197
77,422	23,430	-0,406	-0,234
78,436	-108,461	-0,431	-0,065
79,451	109,934	-0,296	-0,250
80,466	118,833	-0,341	-0,296
81,480	3,705	-0,430	-0,220
82,495	30,430	-0,324	-0,194
83,509	49,241	-0,261	-0,172
84,524	91,000	-0,270	-0,213
85,539	365,935	-0,121	-0,171
86,553	-15,173	-0,339	-0,152
87,568	-15,260	-0,340	-0,152
88,582	17,000	-0,299	-0,166
89,597	800,000	-0,148	-0,340
90,611	50,777	-0,374	-0,248
91,626	118,734	-0,297	-0,258
92,641	191,983	-0,160	-0,169
93,655	-18,264	-0,276	-0,120
94,670	64,169	-0,361	-0,254
95,684	196,744	-0,330	-0,354
96,699	173,057	-0,244	-0,247
97,714	28,912	-0,373	-0,221
98,728	175,083	-0,256	-0,260
99,743	160,994	-0,240	-0,235
100,757	146,879	-0,189	-0,178
101,772	110,296	-0,225	-0,190
102,787	19,056	-0,371	-0,208
103,801	70,688	-0,417	-0,303
104,816	158,923	-0,193	-0,188
105,830	-24,819	-0,242	-0,101
106,845	-85,087	-0,227	-0,049
107,860	10,962	-0,327	-0,175
108,874	154,289	-0,273	-0,263
109,889	-9,174	-0,446	-0,208
110,903	78,321	-0,351	-0,263
111,918	36,278	-0,195	-0,120
112,933	-43,089	-0,244	-0,086
113,947	292,777	-0,176	-0,226
114,962	-54,991	-0,313	-0,098
115,976	301,660	-0,179	-0,232
116,991	43,347	-0,394	-0,252
118,006	126,322	-0,272	-0,241
119,020	236,008	-0,181	-0,210
120,035	92,883	-0,290	-0,229
121,049	225,233	-0,167	-0,190
122,064	47,136	-0,272	-0,177
123,079	102,297	-0,338	-0,277
124,093	30,178	-0,354	-0,211
125,108	42,833	-0,322	-0,205
126,122	126,453	-0,145	-0,128
127,137	-28,776	-0,209	-0,084
128,151	324,778	-0,178	-0,239
129,166	-72,659	-0,188	-0,048
130,181	-87,059	-0,333	-0,070
131,195	292,473	-0,274	-0,350
132,210	7,656	-0,362	-0,189
133,224	57,563	-0,311	-0,212
134,239	82,334	-0,256	-0,194
135,254	383,406	-0,177	-0,256
136,268	-66,934	-0,281	-0,077
137,283	-51,786	-0,153	-0,049
138,297	98,367	-0,269	-0,217
139,312	379,175	-0,180	-0,259
140,327	286,110	-0,172	-0,217
141,341	343,417	-0,133	-0,183
142,356	114,509	-0,228	-0,194
143,370	129,409	-0,251	-0,225
144,385	36,277	-0,264	-0,162
145,400	186,156	-0,129	-0,134
146,414	-81,480	-0,377	-0,086
147,429	-119,975	-0,228	-0,027
148,443	4,264	-0,269	-0,137
149,458	164,956	-0,254	-0,251
150,473	199,510	-0,120	-0,128
151,487	77,548	-0,247	-0,184
152,502	250,705	-0,271	-0,323
153,516	-111,322	-0,360	-0,051
154,531	75,667	-0,181	-0,133
155,546	-92,018	-0,191	-0,037
156,560	-198,996	-0,122	0,000
157,575	-95,933	-0,200	-0,037
158,589	565,617	-0,093	-0,157
159,604	25,898	-0,299	-0,174
160,619	285,151	-0,167	-0,211
161,633	-51,198	-0,255	-0,083
162,648	-23,188	-0,224	-0,093
163,662	-50,538	-0,235	-0,077
164,677	-8,804	-0,250	-0,116
165,692	-69,068	-0,166	-0,044
166,706	405,553	-0,156	-0,230
167,721	139,170	-0,135	-0,124
168,735	-52,928	-0,321	-0,102
169,750	184,184	-0,167	-0,172
170,764	205,574	-0,192	-0,208
171,779	33,265	-0,225	-0,136
172,794	-11,313	-0,307	-0,140
173,808	-68,337	-0,223	0,060
174,823	198,926	-0,157	-0,168
175,837	212,620	-0,266	-0,293
176,852	164,873	-0,215	-0,211
177,867	283,634	-0,140	-0,176
178,881	164,902	-0,175	-0,172
179,896	-200,000	-0,180	0,000
180,910	79,948	-0,288	-0,216
181,925	800,000	-0,137	-0,285
182,940	-67,111	-0,324	-0,088
183,954	106,844	-0,230	-0,190
184,969	-32,334	-0,211	-0,082
185,983	168,467	-0,238	-0,237
186,998	480,724	-0,131	-0,208
188,013	-154,126	-0,180	-0,008
189,027	-23,830	-0,260	-0,108
190,042	159,883	-0,243	-0,236
191,056	17,656	-0,253	-0,140
192,071	27,752	-0,187	-0,109
193,086	310,127	-0,145	-0,190
194,100	77,532	-0,166	-0,123
195,115	800,000	-0,141	-0,305
196,129	116,198	-0,216	-0,184
197,144	-8,844	-0,159	-0,074
198,159	146,923	-0,267	-0,250
199,173	11,908	-0,185	-0,098
200,188	-38,222	-0,187	-0,068
201,202	596,768	-0,083	-0,143
202,217	-90,173	-0,109	-0,022
203,232	309,476	-0,163	-0,212
204,246	308,692	-0,177	-0,230
205,261	203,412	-0,149	-0,160
206,275	201,173	-0,167	-0,179
207,290	390,764	-0,104	-0,150
208,304	38,306	-0,182	-0,112
209,319	212,587	-0,202	-0,221
210,334	239,816	-0,171	-0,198
211,348	-5,016	-0,303	-0,144
212,363	106,590	-0,111	-0,091
213,377	48,069	-0,164	-0,106
214,392	306,711	-0,199	-0,258
215,407	332,655	-0,189	-0,254
216,421	35,229	-0,234	-0,142
217,436	139,886	-0,204	-0,187
218,450	-93,852	-0,234	-0,044
219,465	-13,275	-0,120	-0,054
220,480	800,000	-0,142	-0,294
221,494	51,139	-0,157	-0,103
222,509	13,299	-0,121	-0,065
223,523	142,648	-0,197	-0,182
224,538	-58,960	-0,175	-0,052
225,553	6,793	-0,194	-0,100
226,567	-26,333	-0,244	-0,099
227,582	76,778	-0,283	-0,208
228,596	-71,933	-0,053	-0,014
229,611	-91,163	-0,213	0,042
230,626	-88,791	-0,142	-0,029
231,640	339,127	-0,130	-0,176
232,655	20,683	-0,205	-0,115
233,669	-40,464	-0,213	-0,076
234,684	49,589	-0,177	-0,115
235,699	120,550	-0,195	-0,168
236,713	-64,448	-0,232	-0,065
237,728	-78,502	-0,052	-0,012
238,742	-152,133	-0,131	-0,006
239,757	-81,121	-0,280	-0,064
240,772	214,849	-0,185	-0,203
241,786	283,588	-0,128	-0,159
242,801	9,797	-0,134	-0,070
243,815	223,096	-0,153	-0,171
244,830	-134,648	-0,226	-0,019
245,844	33,146	-0,187	-0,112
246,859	140,929	-0,136	-0,125
247,874	18,940	-0,137	-0,076
248,888	127,773	-0,204	-0,179
249,903	397,147	-0,182	-0,265
250,917	83,469	-0,148	-0,111
251,932	76,702	-0,124	-0,091
252,947	11,113	-0,301	-0,159
253,961	-200,000	-0,042	-0,134
254,976	42,289	-0,201	-0,126
255,990	31,354	-0,155	-0,092
257,005	129,837	-0,184	-0,163
258,020	258,784	-0,124	-0,148
259,034	-123,023	-0,181	-0,020
260,049	-48,973	-0,128	-0,042
261,063	207,178	-0,176	-0,191
262,078	-21,123	-0,208	-0,088
263,093	48,655	-0,093	-0,060
264,107	358,946	-0,191	-0,264
265,122	14,841	-0,105	-0,057
266,136	61,076	-0,103	-0,071
267,151	17,478	-0,260	-0,143
268,166	-57,510	-0,120	-0,036
269,180	-25,786	-0,207	-0,084
270,195	-39,798	-0,193	-0,069
271,209	143,680	-0,137	-0,126
272,224	58,077	-0,214	-0,145
273,239	-91,076	-0,240	0,047
274,253	348,042	-0,090	-0,123
275,268	196,891	-0,185	-0,195
276,282	670,913	-0,086	-0,155
277,297	92,348	-0,184	-0,143
278,312	800,000	-0,095	-0,198
279,326	235,150	-0,134	-0,154
280,341	97,531	-0,108	-0,086
281,355	633,639	-0,077	-0,136
282,370	290,797	-0,152	-0,191
283,384	800,000	-0,119	-0,282
284,399	9,695	-0,149	-0,078
285,414	689,234	-0,138	-0,251
286,428	34,859	-0,243	-0,147
287,443	-86,961	-0,133	0,028
288,457	-1,837	-0,235	-0,114
289,472	-123,509	-0,211	-0,023
290,487	800,000	-0,162	-0,334
291,501	105,886	-0,204	-0,166
292,516	-32,607	-0,195	-0,075
293,530	81,784	-0,117	-0,087
294,545	342,869	-0,092	-0,124
295,560	731,446	-0,049	-0,091
296,574	368,766	-0,108	-0,151
297,589	-20,363	-0,244	-0,103
298,603	-161,524	-0,083	-0,003
299,618	85,533	-0,201	-0,152
300,633	502,713	-0,101	-0,161
301,647	-66,778	-0,236	-0,064
302,662	-145,111	-0,165	0,010
303,676	-200,000	-0,037	-0,148
304,691	357,925	-0,100	-0,138
305,706	48,051	-0,227	-0,146
306,720	800,000	-0,120	-0,247
307,735	130,416	-0,047	0,042
308,749	7,718	-0,125	-0,064
309,764	35,347	-0,247	-0,149
310,779	21,614	-0,125	-0,070
311,793	-143,824	-0,169	-0,011
312,808	104,251	-0,121	-0,098
313,822	114,256	-0,196	-0,164
314,837	-200,000	-0,020	-0,084
315,852	800,000	-0,072	-0,159
316,866	-74,376	-0,089	0,022
317,881	-50,337	-0,211	-0,068
318,895	67,242	-0,164	-0,115
319,910	185,838	-0,228	-0,234
320,925	-6,245	-0,186	-0,087
321,939	46,866	-0,155	-0,099
322,954	155,564	-0,144	-0,136
323,968	297,430	-0,075	-0,094
324,983	-33,971	-0,081	-0,030
325,997	-20,291	-0,141	-0,060
327,012	-130,787	-0,227	-0,021
328,027	-50,077	-0,114	-0,037
329,041	-24,228	-0,118	-0,048
330,056	-44,696	-0,125	0,043
331,070	-33,306	-0,172	-0,065
332,085	415,831	-0,115	-0,169
333,100	183,614	-0,175	-0,178
334,114	-20,002	-0,169	-0,072
335,129	203,716	-0,200	-0,213
336,143	-129,930	-0,205	-0,019
337,158	147,025	-0,201	-0,186
338,173	800,000	-0,038	-0,093
339,187	-91,940	-0,093	-0,018
340,202	681,597	-0,094	-0,170
341,216	229,767	-0,160	-0,179
342,231	723,728	-0,156	-0,287
343,246	-115,463	-0,209	0,027
344,260	60,743	-0,246	-0,167
345,275	-70,603	-0,226	-0,058
346,289	10,960	-0,101	-0,053
347,304	320,699	-0,142	-0,185
348,319	43,459	-0,111	-0,069
349,333	-139,531	-0,118	-0,009
350,348	52,626	-0,195	-0,128
351,362	116,873	-0,161	-0,135
352,377	117,201	-0,181	-0,153
353,392	691,512	-0,047	-0,084
354,406	305,890	-0,088	-0,112
355,421	209,212	1314,780	1414,783
356,435	161,008	1475,531	1415,291
