DTS Sentinel unit serial number:	SN410029Multiplexer serial number:	ORYXHardware model number:	OX2-SRSoftware version number:	ORYX F/W v4,00 Oryx Data Collector v3.7.2.0data status	okinstallation	B3 Nyhavnadifferential loss correction	single-endedforward channel	channel 1reverse channel	N/Adate	2023/11/30time	12:17:30forward acquisition time	300,00reverse acquisition time	0,00gamma	499,1914k internal	0,3212k external	0,3212temperature offset calibration	1,0000default loss term (dB/km)	0,3820temperature slope calibration	1,0000multiplexer offset coefficient	1,0000multiplexer slope coefficient	1,0000fibre end	0,00T internal ref (°C)	9,57T ext. ref 1 (°C)	-4,76T ext. ref 2 (°C)	-4,83length (m)	temperature (°C)	Stokes	anti-Stokes-744,400	190,082	-0,244	-0,266
-743,385	-200,000	0,082	0,268
-742,371	-200,000	0,012	-0,140
-741,356	461,041	-0,125	0,203
-740,342	-92,654	-0,282	-0,057
-739,327	-200,000	0,070	0,348
-738,312	800,000	-0,072	-0,218
-737,298	441,041	-0,129	0,205
-736,283	-200,000	-0,102	-0,334
-735,269	-200,000	-0,035	0,260
-734,254	50,296	-0,283	-0,194
-733,239	-155,955	-0,215	0,010
-732,225	564,967	0,077	-0,136
-731,210	-3,172	0,070	0,035
-730,196	268,752	0,014	0,018
-729,181	-35,926	0,046	-0,018
-728,167	-200,000	0,001	0,069
-727,152	-10,677	0,035	-0,017
-726,137	522,368	-0,056	-0,095
-725,123	29,921	-0,058	-0,036
-724,108	-200,000	-0,015	-0,108
-723,094	-200,000	-0,041	-0,157
-722,079	211,043	-0,059	-0,067
-721,064	87,873	0,006	0,005
-720,050	800,000	0,042	-0,099
-719,035	-50,663	-0,220	0,075
-718,021	-90,680	0,041	0,008
-717,006	-200,000	-0,009	-0,078
-715,991	689,320	-0,066	-0,126
-714,977	132,964	-0,086	-0,081
-713,962	145,307	-0,053	0,052
-712,948	440,531	0,009	0,014
-711,933	-59,567	-0,024	0,007
-710,918	566,168	-0,056	0,099
-709,904	-200,000	0,006	-0,084
-708,889	110,984	-0,087	-0,076
-707,875	264,164	-0,084	-0,106
-706,860	262,794	-0,060	-0,075
-705,845	-12,137	-0,066	-0,031
-704,831	-200,000	0,009	0,095
-703,816	-200,000	-0,023	-0,083
-702,802	447,043	-0,040	-0,064
-701,787	-95,370	-0,077	0,015
-700,772	-129,599	-0,033	-0,003
-699,758	-72,242	0,040	0,011
-698,743	6,808	0,075	0,040
-697,729	-107,289	0,086	0,013
-696,714	160,821	-0,047	0,048
-695,699	-200,000	-0,004	-0,042
-694,685	-114,999	0,058	-0,008
-693,670	409,745	-0,040	-0,062
-692,656	81,407	-0,028	-0,022
-691,641	-168,252	-0,080	-0,002
-690,627	-102,252	0,126	-0,022
-689,612	-43,720	-0,067	0,024
-688,597	-200,000	-0,013	-0,060
-687,583	145,727	-0,018	0,017
-686,568	-5,329	0,031	-0,015
-685,554	245,204	0,019	0,023
-684,539	-200,000	0,006	0,024
-683,524	449,195	0,081	0,130
-682,510	459,633	0,018	0,030
-681,495	-93,488	-0,117	0,023
-680,481	-200,000	-0,001	-0,097
-679,466	-115,242	-0,147	-0,020
-678,451	-200,000	0,027	-0,122
-677,437	-130,071	0,070	0,007
-676,422	61,140	0,034	0,025
-675,408	800,000	0,031	0,087
-674,393	275,043	-0,088	-0,113
-673,378	-118,424	-0,129	0,016
-672,364	-128,777	0,138	0,014
-671,349	800,000	-0,034	0,086
-670,335	764,336	-0,055	0,108
-669,320	800,000	-0,035	-0,095
-668,305	-158,931	-0,128	0,005
-667,291	-19,075	-0,073	-0,033
-666,276	-200,000	-0,028	-0,114
-665,262	289,925	-0,122	-0,160
-664,247	-200,000	-0,026	-0,086
-663,232	-59,298	-0,116	-0,036
-662,218	-200,000	-0,005	0,035
-661,203	800,000	0,063	0,167
-660,189	-69,765	-0,111	0,031
-659,174	-200,000	0,022	0,127
-658,159	128,953	-0,114	-0,105
-657,145	-200,000	-0,001	0,005
-656,130	4,154	-0,133	0,070
-655,116	-17,206	0,210	0,095
-654,101	51,319	0,126	-0,086
-653,086	126,821	-0,040	0,036
-652,072	-37,270	-0,039	0,015
-651,057	357,679	-0,125	-0,181
-650,043	425,930	-0,033	-0,052
-649,028	251,875	-0,130	0,160
-648,014	-16,077	0,106	0,048
-646,999	-54,109	0,046	0,015
-645,984	-0,525	-0,096	-0,049
-644,970	229,265	-0,077	-0,091
-643,955	-200,000	0,001	0,063
-642,941	286,298	-0,017	0,022
-641,926	109,341	-0,055	-0,048
-640,911	800,000	-0,048	0,110
-639,897	-39,296	0,120	-0,045
-638,882	800,000	-0,036	0,073
-637,868	-200,000	0,054	0,177
-636,853	800,000	0,061	-0,123
-635,838	692,400	0,023	-0,043
-634,824	-200,000	-0,012	-0,109
-633,809	-191,715	-0,090	0,001
-632,795	480,660	-0,013	0,022
-631,780	-102,263	0,158	0,027
-630,765	50,238	-0,067	-0,046
-629,751	-200,000	0,037	-0,124
-628,736	-200,000	0,001	-0,099
-627,722	800,000	-0,048	-0,117
-626,707	-200,000	0,007	0,127
-625,692	800,000	-0,068	0,141
-624,678	-200,000	-0,026	-0,098
-623,663	651,349	0,014	0,026
-622,649	-200,000	-0,028	-0,172
-621,634	-45,452	0,046	-0,016
-620,619	67,342	-0,105	-0,077
-619,605	800,000	-0,013	-0,037
-618,590	595,756	0,046	0,083
-617,576	-33,148	-0,089	0,036
-616,561	-200,000	-0,015	-0,070
-615,546	-10,864	-0,087	-0,041
-614,532	-17,272	-0,112	-0,051
-613,517	101,580	0,101	-0,085
-612,503	-200,000	-0,022	0,078
-611,488	-90,570	0,044	0,009
-610,474	-200,000	0,019	-0,159
-609,459	291,787	-0,027	0,036
-608,444	-69,712	-0,182	-0,050
-607,430	159,219	0,034	-0,034
-606,415	338,186	-0,027	-0,037
-605,401	271,353	0,060	-0,076
-604,386	53,159	-0,067	-0,046
-603,371	121,895	-0,032	-0,029
-602,357	-200,000	-0,044	-0,168
-601,342	800,000	0,061	-0,171
-600,328	136,068	-0,124	0,116
-599,313	-106,506	-0,098	0,016
-598,298	322,611	0,050	-0,068
-597,284	628,334	-0,012	-0,022
-596,269	-200,000	0,002	0,155
-595,255	-200,000	-0,004	0,132
-594,240	-7,426	-0,205	-0,100
-593,225	800,000	0,067	-0,162
-592,211	-104,878	-0,147	-0,024
-591,196	800,000	0,017	0,035
-590,182	331,252	-0,041	0,057
-589,167	132,709	0,101	0,093
-588,152	738,123	0,060	0,117
-587,138	182,483	0,022	0,023
-586,123	-200,000	-0,028	-0,146
-585,109	-6,777	0,022	-0,011
-584,094	-0,602	-0,095	-0,049
-583,079	-12,255	0,094	0,044
-582,065	-81,883	-0,129	-0,030
-581,050	-69,731	-0,150	0,041
-580,036	137,985	0,071	0,067
-579,021	290,228	0,037	-0,048
-578,006	114,157	0,020	0,017
-576,992	800,000	0,025	0,060
-575,977	800,000	-0,012	0,038
-574,963	0,251	0,042	0,022
-573,948	-12,913	0,096	-0,045
-572,934	165,344	0,133	0,136
-571,919	-81,462	-0,068	0,016
-570,904	335,608	0,058	-0,082
-569,890	387,824	-0,051	-0,077
-568,875	-200,000	0,040	-0,135
-567,861	-200,000	-0,004	0,048
-566,846	254,071	0,095	0,117
-565,831	121,395	-0,031	0,028
-564,817	144,468	-0,053	-0,051
-563,802	79,797	0,049	-0,038
-562,788	372,586	0,026	0,038
-561,773	-200,000	-0,011	-0,085
-560,758	462,495	-0,055	0,088
-559,744	48,701	0,132	0,089
-558,729	-96,819	-0,065	-0,012
-557,715	151,838	0,079	0,077
-556,700	97,271	-0,120	0,099
-555,685	161,970	0,020	0,020
-554,671	800,000	-0,059	0,140
-553,656	-42,664	-0,041	0,015
-552,642	533,168	-0,012	0,021
-551,627	150,199	0,049	0,048
-550,612	711,671	-0,026	-0,049
-549,598	12,548	0,070	-0,039
-548,583	800,000	0,050	-0,136
-547,569	438,497	0,081	-0,128
-546,554	-200,000	-0,009	0,128
-545,539	-200,000	0,012	0,235
-544,525	-200,000	0,002	0,013
-543,510	554,386	-0,033	-0,057
-542,496	-200,000	-0,019	-0,182
-541,481	-200,000	-0,013	-0,106
-540,466	-200,000	-0,012	-0,050
-539,452	282,712	0,035	-0,046
-538,437	-53,783	0,154	0,050
-537,423	-60,037	0,154	-0,047
-536,408	76,112	-0,036	0,027
-535,393	719,767	0,022	0,043
-534,379	452,161	0,021	-0,034
-533,364	-78,881	-0,140	-0,034
-532,350	-110,649	0,086	0,013
-531,335	26,482	-0,078	0,047
-530,321	-200,000	0,029	0,117
-529,306	-77,776	-0,008	-0,002
-528,291	-200,000	0,037	-0,165
-527,277	-200,000	0,043	-0,154
-526,262	-124,182	0,062	-0,007
-525,248	800,000	-0,025	0,053
-524,233	800,000	-0,042	-0,096
-523,218	86,338	0,088	0,069
-522,204	158,933	0,047	0,047
-521,189	398,400	0,036	-0,054
-520,175	-117,749	-0,155	0,020
-519,160	512,149	0,046	0,078
-518,145	-27,463	0,061	-0,025
-517,131	-200,000	-0,006	0,034
-516,116	414,150	-0,047	0,072
-515,102	6,837	-0,118	0,063
-514,087	-200,000	0,016	-0,102
-513,072	-163,561	-0,137	-0,005
-512,058	59,650	-0,077	0,054
-511,043	123,137	-0,024	0,021
-510,029	230,355	0,054	-0,064
-509,014	-32,679	0,103	0,041
-507,999	220,611	-0,016	-0,018
-506,985	748,001	-0,071	-0,139
-505,970	357,895	-0,037	-0,053
-504,956	77,200	-0,044	0,034
-503,941	800,000	0,049	0,102
-502,926	316,794	-0,039	0,053
-501,912	-200,000	0,003	0,118
-500,897	-200,000	-0,072	0,230
-499,883	-200,000	0,009	-0,103
-498,868	62,577	-0,055	-0,040
-497,853	-116,547	-0,069	-0,009
-496,839	499,062	0,082	0,136
-495,824	800,000	-0,049	0,117
-494,810	45,893	0,027	-0,018
-493,795	-101,203	0,165	0,029
-492,781	-182,534	-0,120	-0,002
-491,766	431,586	-0,108	-0,169
-490,751	-200,000	-0,002	-0,052
-489,737	-135,914	0,220	0,018
-488,722	82,394	-0,113	0,088
-487,708	25,106	0,122	0,072
-486,693	-91,843	-0,036	0,007
-485,678	800,000	-0,031	0,064
-484,664	-200,000	-0,001	-0,062
-483,649	-200,000	-0,024	-0,141
-482,635	295,178	0,083	0,109
-481,620	-154,417	0,051	-0,002
-480,605	74,431	-0,030	0,023
-479,591	248,371	0,019	-0,023
-478,576	62,298	-0,095	0,068
-477,562	-151,169	-0,123	-0,006
-476,547	94,891	0,015	-0,012
-475,532	96,158	0,128	-0,105
-474,518	800,000	-0,043	-0,087
-473,503	800,000	-0,035	-0,072
-472,489	-43,597	-0,014	0,005
-471,474	800,000	-0,055	-0,111
-470,459	-200,000	0,025	-0,262
-469,445	159,112	-0,034	-0,034
-468,430	35,368	0,049	0,031
-467,416	612,957	-0,070	0,127
-466,401	15,264	0,105	0,059
-465,386	-69,996	-0,149	0,040
-464,372	124,922	0,049	0,044
-463,357	-200,000	0,008	-0,110
-462,343	677,496	-0,067	-0,126
-461,328	-200,000	0,034	-0,148
-460,313	-52,644	0,030	-0,010
-459,299	20,211	-0,032	0,018
-458,284	351,961	-0,075	0,106
-457,270	-90,803	0,080	0,016
-456,255	-200,000	0,021	-0,120
-455,241	-200,000	0,017	-0,066
-454,226	730,329	-0,058	-0,111
-453,211	249,991	0,053	0,064
-452,197	-125,273	0,050	0,005
-451,182	-200,000	0,016	0,070
-450,168	-200,000	-0,015	0,089
-449,153	-200,000	-0,024	-0,157
-448,138	357,453	-0,042	-0,060
-447,124	-200,000	-0,002	-0,064
-446,109	204,482	-0,083	-0,092
-445,095	6,014	-0,050	0,026
-444,080	-50,376	0,071	0,024
-443,065	104,773	-0,126	0,107
-442,051	5,214	0,166	-0,088
-441,036	91,610	-0,153	-0,123
-440,022	-200,000	0,034	-0,149
-439,007	378,955	0,013	-0,019
-437,992	-200,000	-0,013	-0,041
-436,978	-104,246	0,098	0,016
-435,963	170,184	-0,046	0,048
-434,949	253,088	-0,073	0,089
-433,934	-26,397	0,134	-0,056
-432,919	-200,000	-0,020	-0,164
-431,905	41,215	0,122	-0,079
-430,890	169,354	0,038	-0,038
-429,876	538,696	0,044	0,075
-428,861	75,001	0,111	0,084
-427,846	800,000	-0,027	-0,061
-426,832	-165,757	0,039	0,001
-425,817	-116,127	-0,014	-0,002
-424,803	-62,892	-0,088	-0,026
-423,788	800,000	0,038	0,100
-422,773	-200,000	-0,001	0,128
-421,759	-200,000	-0,001	0,022
-420,744	149,462	-0,064	-0,062
-419,730	113,308	0,117	-0,101
-418,715	-200,000	0,045	-0,229
-417,701	8,087	-0,044	0,023
-416,686	-200,000	0,036	0,165
-415,671	192,975	0,052	-0,056
-414,657	-51,021	0,144	0,048
-413,642	251,442	0,096	0,117
-412,628	239,317	0,026	-0,031
-411,613	272,606	0,029	-0,037
-410,598	-143,228	-0,062	0,004
-409,584	-200,000	-0,010	0,093
-408,569	800,000	0,045	-0,105
-407,555	800,000	0,034	-0,073
-406,540	116,330	-0,088	-0,077
-405,525	-200,000	0,002	-0,094
-404,511	-77,544	0,155	-0,038
-403,496	-200,000	-0,003	-0,121
-402,482	800,000	0,037	-0,075
-401,467	83,078	-0,068	0,053
-400,452	-104,137	0,029	0,005
-399,438	140,181	0,072	0,068
-398,423	584,037	0,015	0,026
-397,409	-200,000	0,021	-0,085
-396,394	11,372	-0,126	0,069
-395,379	-170,275	0,161	0,004
-394,365	207,010	0,042	0,047
-393,350	488,554	0,027	0,044
-392,336	129,873	-0,109	-0,099
-391,321	0,307	-0,067	0,034
-390,306	800,000	-0,074	-0,215
-389,292	-6,722	-0,135	-0,066
-388,277	314,758	0,041	-0,055
-387,263	350,172	0,031	0,044
-386,248	-200,000	-0,020	0,113
-385,233	-200,000	-0,007	0,090
-384,219	28,044	0,063	0,038
-383,204	66,793	-0,044	0,032
-382,190	61,700	0,138	0,098
-381,175	398,202	-0,015	-0,023
-380,160	367,202	-0,046	-0,067
-379,146	-200,000	-0,008	-0,059
-378,131	150,984	-0,086	0,084
-377,117	-200,000	-0,019	0,118
-376,102	-83,150	-0,112	-0,026
-375,088	-200,000	0,022	-0,091
-374,073	-200,000	0,008	0,072
-373,058	283,015	0,055	0,071
-372,044	301,400	0,020	-0,027
-371,029	542,442	0,054	0,092
-370,015	-81,249	-0,140	-0,033
-369,000	117,892	-0,090	0,079
-367,985	667,990	-0,010	0,018
-366,971	-200,000	0,001	-0,104
-365,956	32,951	-0,064	-0,039
-364,942	29,881	0,097	-0,059
-363,927	-200,000	-0,000	0,040
-362,912	-23,907	-0,025	-0,011
-361,898	136,390	-0,084	-0,078
-360,883	-200,000	0,022	-0,135
-359,869	696,538	0,048	-0,091
-358,854	800,000	-0,028	-0,078
-357,839	-39,423	0,127	-0,047
-356,825	417,317	0,056	-0,085
-355,810	327,781	0,025	-0,035
-354,796	-200,000	0,012	-0,099
-353,781	-114,402	-0,076	-0,010
-352,766	-200,000	-0,009	0,126
-351,752	-75,768	-0,111	0,028
-350,737	264,242	0,041	0,051
-349,723	-200,000	-0,001	0,059
-348,708	-82,603	-0,052	0,012
-347,693	-168,161	-0,108	-0,003
-346,679	-200,000	0,010	-0,062
-345,664	-200,000	0,005	-0,029
-344,650	160,470	-0,079	-0,079
-343,635	48,194	0,124	0,083
-342,620	224,169	0,088	0,102
-341,606	8,027	-0,060	-0,032
-340,591	-76,977	0,091	0,022
-339,577	-200,000	-0,002	-0,039
-338,562	38,523	-0,104	0,066
-337,548	-51,029	-0,037	0,012
-336,533	378,964	-0,028	-0,041
-335,518	800,000	0,089	0,189
-334,504	-200,000	0,017	0,056
-333,489	-55,541	0,057	0,018
-332,475	-200,000	0,055	-0,188
-331,460	-32,141	-0,082	-0,033
-330,445	286,075	0,025	0,032
-329,431	188,673	0,025	-0,027
-328,416	-62,459	0,105	0,031
-327,402	-200,000	0,027	0,164
-326,387	1,448	-0,003	-0,002
-325,372	-200,000	0,018	-0,096
-324,358	-56,660	0,007	-0,002
-323,343	197,267	-0,018	-0,020
-322,329	-61,529	0,056	-0,017
-321,314	800,000	0,027	-0,063
-320,299	-99,727	0,060	0,011
-319,285	536,851	-0,034	0,057
-318,270	-103,932	-0,108	-0,018
-317,256	94,691	0,130	0,106
-316,241	121,994	0,135	0,120
-315,226	-200,000	-0,037	-0,119
-314,212	32,913	0,041	-0,025
-313,197	70,877	0,075	0,056
-312,183	233,181	0,026	-0,031
-311,168	-200,000	-0,003	0,015
-310,153	79,231	0,026	0,020
-309,139	-154,110	-0,039	-0,002
-308,124	800,000	0,034	0,104
-307,110	271,733	0,111	0,140
-306,095	-200,000	0,013	0,046
-305,080	175,104	-0,104	0,108
-304,066	3,361	-0,049	-0,025
-303,051	8,866	-0,198	-0,106
-302,037	-200,000	0,018	-0,066
-301,022	277,917	0,055	-0,069
-300,008	278,747	-0,045	0,057
-298,993	-22,702	0,029	-0,013
-297,978	800,000	-0,018	0,052
-296,964	65,132	-0,110	-0,079
-295,949	75,695	-0,137	-0,103
-294,935	-60,964	-0,094	0,028
-293,920	442,216	-0,039	-0,061
-292,905	417,077	0,057	-0,087
-291,891	-200,000	0,005	0,057
-290,876	800,000	0,042	0,091
-289,862	272,882	0,026	-0,032
-288,847	227,293	-0,034	0,039
-287,832	-20,336	-0,053	-0,023
-286,818	-63,397	0,200	0,058
-285,803	-200,000	0,021	0,073
-284,789	-109,764	0,157	-0,023
-283,774	-109,002	-0,067	0,010
-282,759	-200,000	0,010	0,114
-281,745	276,403	-0,072	-0,091
-280,730	-13,750	-0,090	-0,041
-279,716	292,216	0,039	0,051
-278,701	669,217	-0,043	0,080
-277,686	73,498	-0,032	-0,024
-276,672	99,963	0,141	0,116
-275,657	800,000	0,025	-0,057
-274,643	212,201	-0,023	-0,026
-273,628	-43,043	0,067	-0,024
-272,613	-200,000	0,025	-0,078
-271,599	-200,000	0,029	0,238
-270,584	800,000	0,022	0,061
-269,570	42,752	-0,088	0,057
-268,555	307,653	0,011	0,014
-267,540	-109,869	-0,158	0,023
-266,526	-145,589	-0,086	-0,005
-265,511	800,000	0,021	0,055
-264,497	54,186	0,127	-0,087
-263,482	-24,838	0,126	-0,053
-262,467	140,293	0,029	0,027
-261,453	478,420	-0,028	0,046
-260,438	800,000	0,067	0,133
-259,424	-200,000	-0,010	-0,202
-258,409	-174,110	-0,097	-0,002
-257,395	745,629	0,073	0,141
-256,380	79,286	-0,096	0,073
-255,365	663,576	-0,019	0,035
-254,351	-126,156	-0,023	-0,002
-253,336	-16,443	-0,239	0,107
-252,322	190,913	0,046	-0,049
-251,307	129,372	0,058	0,053
-250,292	-99,756	0,118	-0,021
-249,278	-200,000	-0,044	0,138
-248,263	800,000	0,082	0,171
-247,249	251,142	0,062	0,075
-246,234	-109,802	0,077	0,011
-245,219	800,000	-0,015	0,043
-244,205	-200,000	0,006	-0,053
-243,190	-137,925	-0,091	0,007
-242,176	-152,526	-0,093	-0,005
-241,161	247,236	0,139	-0,167
-240,146	800,000	-0,014	-0,042
-239,132	264,639	-0,042	-0,052
-238,117	279,223	-0,031	-0,040
-237,103	-57,663	-0,012	-0,004
-236,088	-200,000	0,020	0,064
-235,073	-147,416	0,240	0,014
-234,059	52,423	-0,112	0,076
-233,044	-100,583	0,079	0,014
-232,030	800,000	-0,018	0,048
-231,015	-104,488	0,124	-0,020
-230,000	-31,982	-0,145	-0,058
-228,986	800,000	-0,007	-0,021
-227,971	800,000	0,029	0,081
-226,957	19,571	0,115	0,066
-225,942	-200,000	-0,040	0,147
-224,927	-96,225	-0,064	-0,012
-223,913	11,691	0,087	-0,047
-222,898	-107,516	-0,127	-0,020
-221,884	43,107	0,039	-0,026
-220,869	-200,000	-0,005	-0,024
-219,855	-200,000	-0,003	0,104
-218,840	-200,000	-0,044	0,174
-217,825	800,000	0,014	-0,031
-216,811	-200,000	0,000	-0,009
-215,796	101,528	-0,052	0,043
-214,782	800,000	-0,023	0,064
-213,767	-200,000	-0,017	0,078
-212,752	-87,483	0,132	-0,028
-211,738	-200,000	-0,030	0,147
-210,723	55,648	-0,031	-0,021
-209,709	-139,977	-0,127	0,009
-208,694	-63,797	-0,090	-0,026
-207,679	-200,000	0,005	-0,161
-206,665	12,696	0,170	0,093
-205,650	-200,000	-0,004	0,090
-204,636	-80,705	0,103	-0,024
-203,621	179,170	0,055	-0,057
-202,606	800,000	-0,017	-0,043
-201,592	75,000	-0,044	-0,033
-200,577	754,527	0,048	-0,093
-199,563	62,409	0,050	-0,036
-198,548	275,226	0,104	0,131
-197,533	47,575	0,046	-0,030
-196,519	644,736	-0,064	-0,116
-195,504	441,480	-0,040	0,062
-194,490	800,000	-0,016	-0,033
-193,475	186,282	0,080	-0,085
-192,460	191,671	-0,065	0,069
-191,446	-79,725	0,127	-0,030
-190,431	-145,431	0,040	-0,003
-189,417	640,136	-0,069	0,126
-188,402	-200,000	0,015	-0,064
-187,387	-34,295	-0,027	-0,010
-186,373	490,972	-0,072	-0,117
-185,358	-200,000	0,019	0,063
-184,344	256,335	0,049	0,060
-183,329	128,987	-0,151	0,137
-182,315	56,057	0,145	0,100
-181,300	-105,131	0,018	0,003
-180,285	-25,958	-0,123	0,051
-179,271	-56,629	-0,160	-0,050
-178,256	81,100	0,079	0,060
-177,242	-125,622	0,113	-0,012
-176,227	-200,000	0,012	0,174
-175,212	67,141	-0,040	-0,029
-174,198	-200,000	-0,007	0,051
-173,183	-129,282	-0,033	-0,003
-172,169	728,011	0,036	0,068
-171,154	506,853	0,033	-0,054
-170,139	-134,591	-0,036	-0,003
-169,125	-14,698	-0,114	0,052
-168,110	-52,848	0,118	-0,038
-167,096	382,479	-0,101	0,147
-166,081	356,824	0,055	-0,078
-165,066	113,010	-0,045	0,039
-164,052	-200,000	0,013	0,050
-163,037	75,016	0,089	-0,066
-162,023	-200,000	-0,007	0,140
-161,008	45,683	-0,131	0,086
-159,993	3,275	0,154	-0,079
-158,979	-200,000	0,039	-0,178
-157,964	-26,979	-0,121	0,050
-156,950	610,454	-0,070	-0,125
-155,935	-121,733	-0,087	0,010
-154,920	-200,000	0,025	-0,114
-153,906	-200,000	0,013	-0,070
-152,891	800,000	-0,028	0,080
-151,877	-50,322	0,060	0,020
-150,862	-98,846	0,026	-0,005
-149,847	-151,983	-0,211	-0,011
-148,833	-31,745	-0,112	0,044
-147,818	-200,000	0,006	0,073
-146,804	-200,000	0,024	-0,133
-145,789	800,000	-0,033	-0,095
-144,775	-200,000	-0,030	0,116
-143,760	158,931	0,028	-0,028
-142,745	-200,000	0,012	-0,068
-141,731	800,000	0,024	0,058
-140,716	-72,338	0,111	0,029
-139,702	-200,000	0,024	0,183
-138,687	800,000	0,048	0,129
-137,672	196,999	0,068	-0,074
-136,658	337,595	-0,072	-0,100
-135,643	-117,885	-0,099	0,012
-134,629	-37,687	0,027	0,010
-133,614	-143,140	-0,029	0,002
-132,599	216,117	-0,031	-0,035
-131,585	75,034	-0,044	0,033
-130,570	-200,000	0,004	0,053
-129,556	-200,000	0,017	-0,075
-128,541	-200,000	-0,016	-0,151
-127,526	535,326	-0,035	-0,059
-126,512	9,154	0,096	0,051
-125,497	-54,122	-0,084	0,027
-124,483	-56,011	-0,063	0,020
-123,468	-120,976	0,081	0,009
-122,453	-200,000	0,027	0,163
-121,439	92,612	-0,111	-0,089
-120,424	-13,770	-0,058	-0,026
-119,410	94,745	0,074	0,060
-118,395	212,889	0,133	0,149
-117,380	301,045	0,078	-0,102
-116,366	774,262	0,045	0,087
-115,351	-23,874	0,075	0,032
-114,337	-101,353	-0,099	0,017
-113,322	-91,718	0,071	-0,014
-112,307	-163,511	0,088	0,003
-111,293	48,089	0,043	-0,028
-110,278	462,638	0,093	0,147
-109,264	-200,000	-0,029	0,129
-108,249	-200,000	-0,001	-0,103
-107,234	29,573	-0,110	-0,066
-106,220	-42,897	-0,084	0,030
-105,205	370,278	-0,062	0,089
-104,191	-28,850	-0,073	0,030
-103,176	-22,767	-0,062	-0,026
-102,162	153,011	-0,093	0,090
-101,147	30,550	0,064	-0,039
-100,132	-200,000	-0,021	-0,106
-99,118	-166,222	-0,019	-0,001
-98,103	-19,061	-0,122	0,053
-97,089	-122,921	0,103	0,012
-96,074	-28,777	0,051	0,020
-95,059	492,938	0,048	0,078
-94,045	-93,542	-0,089	0,017
-93,030	230,813	0,031	0,036
-92,016	190,077	-0,045	0,048
-91,001	-117,243	0,052	-0,007
-89,986	-200,000	0,004	0,058
-88,972	-113,190	0,183	-0,025
-87,957	54,698	0,212	0,144
-86,943	-155,261	-0,026	0,001
-85,928	-200,000	0,026	0,112
-84,913	-35,204	-0,030	0,011
-83,899	-42,835	0,058	-0,021
-82,884	-108,057	0,074	-0,011
-81,870	-172,846	0,147	-0,003
-80,855	328,053	0,014	-0,018
-79,840	-152,040	-0,089	0,005
-78,826	-84,531	0,055	0,012
-77,811	-68,848	-0,119	-0,032
-76,797	46,912	-0,071	0,047
-75,782	800,000	0,052	0,163
-74,767	-134,227	-0,021	0,002
-73,753	396,463	-0,030	-0,044
-72,738	800,000	-0,057	0,163
-71,724	-65,927	0,070	0,020
-70,709	0,202	-0,045	-0,022
-69,694	-123,488	0,065	0,007
-68,680	126,561	0,021	-0,019
-67,665	-200,000	-0,010	0,113
-66,651	-200,000	0,019	0,082
-65,636	-54,183	-0,013	-0,004
-64,622	239,650	-0,048	-0,057
-63,607	404,263	-0,066	-0,098
-62,592	-160,516	0,088	-0,003
-61,578	-104,567	-0,127	-0,020
-60,563	-200,000	-0,025	0,109
-59,549	5,565	-0,076	0,039
-58,534	52,919	-1,983	-1,337
-57,519	562,066	-1,144	-1,960
-56,505	-200,000	-0,433	-4,394
-55,490	542,631	0,958	1,619
-54,476	800,000	5,154	11,195
-53,461	-200,000	21,652	345,266
-52,446	800,000	763,720	2352,533
-51,432	550,479	1663,821	2827,076
-50,417	72,049	1659,963	1217,587
-49,403	17,382	1533,499	856,832
-48,388	11,388	1457,246	785,253
-47,373	19,460	1448,784	819,373
-46,359	14,934	1437,753	791,599
-45,344	9,669	1433,433	764,139
-44,330	9,623	1431,619	762,921
-43,315	9,650	1429,752	762,023
-42,300	9,618	1428,229	761,030
-41,286	9,646	1426,825	760,383
-40,271	9,598	1425,642	759,495
-39,257	9,609	1424,506	758,911
-38,242	9,614	1423,514	758,376
-37,227	9,613	1422,249	757,671
-36,213	9,604	1421,173	757,023
-35,198	9,611	1419,979	756,389
-34,184	9,704	1418,771	756,156
-33,169	9,577	1417,606	754,905
-32,154	9,639	1416,482	754,571
-31,140	9,666	1415,268	754,019
-30,125	9,725	1413,959	753,568
-29,111	9,703	1413,000	752,925
-28,096	9,671	1411,653	752,028
-27,082	9,605	1410,499	751,074
-26,067	9,557	1409,666	750,377
-25,052	9,631	1408,467	750,055
-24,038	9,633	1407,494	749,516
-23,023	9,638	1406,513	748,988
-22,009	9,634	1405,268	748,277
-20,994	9,583	1404,479	747,587
-19,979	9,599	1403,583	747,153
-18,965	9,598	1402,602	746,597
-17,950	9,552	1401,719	745,886
-16,936	9,506	1401,108	745,318
-15,921	9,519	1400,064	744,791
-14,906	9,492	1399,101	744,127
-13,892	9,560	1397,947	743,794
-12,877	9,532	1397,462	743,380
-11,863	9,513	1396,442	742,720
-10,848	9,491	1395,416	742,042
-9,833	9,450	1394,684	741,432
-8,819	9,413	1393,795	740,757
-7,804	9,414	1392,849	740,230
-6,790	9,412	1391,829	739,652
-5,775	9,404	1390,927	739,104
-4,760	9,378	1389,908	738,413
-3,746	9,423	1388,837	738,023
-2,731	9,437	1387,949	737,587
-1,717	9,384	1387,281	736,958
-0,702	9,437	1385,249	736,096
0,313	13,399	1297,872	707,783
1,327	29,389	688,354	411,556
2,342	45,605	119,022	77,385
3,356	0,008	16,536	8,277
4,371	2,187	3,593	1,825
5,386	15,022	1,095	0,603
6,400	800,000	0,308	0,631
7,415	-55,428	-0,117	-0,037
8,429	10,311	-0,297	-0,159
9,444	9,205	-0,236	-0,125
10,459	-61,013	-0,269	-0,079
11,473	8,987	-0,314	-0,167
12,488	34,862	-0,135	0,083
13,502	449,916	-0,198	-0,309
14,517	-119,730	-0,473	-0,057
15,531	18,299	-0,341	-0,191
16,546	293,968	-0,259	-0,334
17,561	268,891	-0,262	-0,324
18,575	-15,449	-0,264	-0,118
19,590	800,000	-0,112	-0,222
20,604	7,710	-0,279	-0,147
21,619	47,464	-0,450	-0,295
22,634	66,732	-0,392	-0,281
23,648	203,045	-0,376	-0,409
24,663	-68,118	-0,450	-0,122
25,677	-18,398	-0,252	-0,110
26,692	-132,930	-0,385	-0,034
27,707	286,629	-0,209	-0,267
28,721	138,128	-0,352	-0,325
29,736	27,966	-0,397	-0,235
30,750	186,962	-0,373	-0,391
31,765	215,709	-0,277	-0,310
32,780	64,858	-0,388	-0,275
33,794	41,610	-0,312	-0,198
34,809	592,401	-0,183	-0,319
35,823	222,552	-0,221	-0,250
36,838	127,318	-0,368	-0,329
37,853	68,417	-0,381	-0,274
38,867	128,787	-0,377	-0,338
39,882	126,994	-0,332	-0,296
40,896	-35,048	-0,265	-0,101
41,911	116,229	-0,336	-0,289
42,926	-27,754	-0,361	-0,146
43,940	43,934	-0,454	-0,292
44,955	32,612	-0,303	-0,183
45,969	111,952	-0,360	-0,305
46,984	-1,230	-0,307	-0,152
47,999	74,561	-0,292	-0,215
49,013	108,744	-0,328	-0,275
50,028	-37,995	-0,278	-0,103
51,042	14,888	-0,261	-0,143
52,057	2,228	-0,360	-0,182
53,071	17,109	-0,416	-0,231
54,086	330,947	-0,189	-0,257
55,101	67,204	-0,285	-0,204
56,115	38,200	-0,395	-0,246
57,130	-80,978	-0,391	-0,090
58,144	419,034	-0,232	-0,349
59,159	212,153	-0,253	-0,281
60,174	112,471	-0,355	-0,301
61,188	36,630	-0,365	-0,226
62,203	-50,337	-0,417	-0,138
63,217	65,410	-0,350	-0,248
64,232	-65,139	-0,239	-0,067
65,247	-54,310	-0,390	-0,123
66,261	133,119	-0,344	-0,311
67,276	49,991	-0,432	-0,285
68,290	108,390	-0,322	-0,270
69,305	5,576	-0,308	-0,159
70,320	22,795	-0,352	-0,201
71,334	-22,849	-0,453	-0,191
72,349	40,206	-0,355	-0,223
73,363	51,698	-0,356	-0,237
74,378	93,368	-0,294	-0,233
75,393	7,095	-0,298	-0,155
76,407	-88,668	-0,277	-0,057
77,422	70,380	-0,239	-0,173
78,436	93,581	-0,239	-0,189
79,451	-10,688	-0,299	-0,138
80,466	-68,710	-0,312	-0,084
81,480	125,421	-0,344	-0,304
82,495	-20,158	-0,371	-0,160
83,509	71,141	-0,254	-0,184
84,524	-39,170	-0,340	-0,124
85,539	61,565	-0,272	-0,189
86,553	-132,676	-0,272	-0,024
87,568	7,350	-0,316	-0,165
88,582	83,662	-0,317	-0,241
89,597	108,293	-0,301	-0,251
90,611	76,477	-0,268	-0,199
91,626	-15,248	-0,276	-0,123
92,641	-66,489	-0,371	-0,102
93,655	93,001	-0,183	-0,144
94,670	-94,195	-0,367	-0,070
95,684	102,307	-0,254	-0,207
96,699	122,957	-0,314	-0,275
97,714	-18,829	-0,132	-0,057
98,728	-107,077	-0,296	-0,045
99,743	104,772	-0,248	-0,204
100,757	72,412	-0,263	-0,191
101,772	17,603	-0,199	-0,110
102,787	230,633	-0,359	-0,411
103,801	500,309	-0,160	-0,260
104,816	160,427	-0,146	-0,142
105,830	-28,784	-0,216	-0,086
106,845	-5,394	-0,321	-0,154
107,860	175,204	-0,281	-0,284
108,874	109,354	-0,206	-0,172
109,889	181,101	-0,204	-0,209
110,903	204,910	-0,210	-0,228
111,918	134,127	-0,237	-0,214
112,933	-157,312	-0,222	-0,009
113,947	-54,827	-0,267	-0,083
114,962	-40,407	-0,265	-0,096
115,976	-52,271	-0,332	-0,107
116,991	45,006	-0,297	-0,191
118,006	88,732	-0,322	-0,250
119,020	800,000	-0,085	-0,178
120,035	800,000	-0,109	-0,225
121,049	-63,606	-0,372	-0,106
122,064	-74,701	-0,310	-0,077
123,079	73,667	-0,343	-0,251
124,093	69,487	-0,345	-0,248
125,108	-33,787	-0,114	-0,044
126,122	-86,407	-0,376	-0,080
127,137	-200,000	-0,051	-0,177
128,151	463,502	-0,094	-0,146
129,166	-69,408	-0,190	-0,050
130,181	-1,924	-0,213	-0,104
131,195	-2,230	-0,314	-0,153
132,210	133,827	-0,285	-0,257
133,224	13,661	-0,304	-0,164
134,239	54,373	-0,181	-0,121
135,254	94,282	-0,174	-0,137
136,268	182,558	-0,164	-0,168
137,283	104,187	-0,254	-0,208
138,297	-4,311	-0,217	-0,104
139,312	236,402	-0,154	-0,178
140,327	52,866	-0,257	-0,171
141,341	397,918	-0,099	-0,145
142,356	-150,934	-0,255	-0,013
143,370	-149,302	-0,259	-0,014
144,385	-69,447	-0,127	-0,034
145,400	800,000	-0,093	-0,223
146,414	-6,315	-0,211	-0,100
147,429	-144,503	-0,235	-0,015
148,443	800,000	-0,071	-0,187
149,458	291,331	-0,103	-0,130
150,473	-28,767	-0,239	-0,095
151,487	36,571	-0,256	-0,157
152,502	721,595	-0,106	-0,197
153,516	-7,852	-0,359	-0,168
154,531	270,429	-0,195	-0,239
155,546	242,925	-0,159	-0,186
156,560	-107,927	-0,357	-0,053
157,575	86,026	-0,120	-0,092
158,589	100,748	-0,238	-0,192
159,604	800,000	-0,080	-0,164
160,619	464,249	-0,180	-0,281
161,633	254,492	-0,092	-0,109
162,648	223,568	-0,257	-0,288
163,662	35,967	-0,233	-0,142
164,677	-172,006	-0,236	-0,005
165,692	-54,908	-0,207	-0,064
166,706	92,451	-0,218	-0,171
167,721	-109,225	-0,275	-0,040
168,735	1,680	-0,365	-0,182
169,750	11,740	-0,179	-0,095
170,764	208,891	-0,136	-0,148
171,779	-40,344	-0,210	-0,075
172,794	-18,589	-0,133	-0,057
173,808	22,919	-0,213	-0,121
174,823	374,637	-0,186	-0,264
175,837	84,223	-0,240	-0,182
176,852	-14,293	-0,262	-0,117
177,867	-43,289	-0,269	-0,094
178,881	145,178	-0,196	-0,182
179,896	-12,492	-0,339	-0,153
180,910	206,850	-0,211	-0,228
181,925	115,999	-0,204	-0,173
182,940	55,145	-0,105	-0,070
183,954	31,265	-0,209	-0,124
184,969	297,372	-0,102	-0,131
185,983	-73,243	-0,262	-0,066
186,998	49,034	-0,138	-0,090
188,013	204,492	-0,030	-0,032
189,027	800,000	-0,070	-0,174
190,042	50,404	-0,281	-0,184
191,056	214,481	-0,298	-0,328
192,071	36,058	-0,194	-0,118
193,086	60,193	-0,216	-0,148
194,100	17,948	-0,276	-0,152
195,115	278,876	-0,135	-0,168
196,129	45,346	-0,217	-0,139
197,144	337,667	-0,159	-0,214
198,159	87,084	-0,146	-0,112
199,173	226,078	-0,206	-0,232
200,188	-200,000	-0,061	-0,257
201,202	39,530	-0,224	-0,139
202,217	156,883	-0,200	-0,191
203,232	-61,117	-0,171	0,050
204,246	48,587	-0,206	-0,133
205,261	193,535	-0,181	-0,190
206,275	144,177	-0,182	-0,169
207,290	-63,475	-0,142	-0,040
208,304	-54,584	-0,181	-0,056
209,319	466,233	-0,131	-0,204
210,334	15,009	-0,255	-0,138
211,348	-111,253	-0,168	-0,023
212,363	7,487	-0,258	-0,133
213,377	164,108	-0,179	-0,175
214,392	-22,330	-0,315	-0,132
215,407	-73,097	-0,087	-0,022
216,421	-118,085	-0,112	-0,014
217,436	-146,352	-0,279	0,017
218,450	15,159	-0,350	-0,189
219,465	20,427	-0,223	-0,125
220,480	-28,402	-0,199	-0,079
221,494	-112,868	-0,130	0,018
222,509	-200,000	-0,099	-0,307
223,523	133,156	-0,101	-0,090
224,538	-20,100	-0,260	-0,111
225,553	26,831	-0,115	-0,067
226,567	-145,360	-0,247	-0,015
227,582	-49,442	-0,198	-0,065
228,596	166,631	-0,192	-0,189
229,611	800,000	-0,096	-0,241
230,626	-172,769	-0,209	0,004
231,640	-61,307	-0,341	-0,099
232,655	-6,081	-0,220	-0,103
233,669	-103,044	-0,084	-0,014
234,684	275,340	-0,193	-0,237
235,699	-200,000	-0,101	-0,328
236,713	63,742	-0,169	-0,117
237,728	88,137	-0,177	-0,136
238,742	57,389	-0,242	-0,163
239,757	467,568	-0,135	-0,209
240,772	-120,714	-0,258	-0,030
241,786	133,647	-0,107	-0,096
242,801	189,513	-0,192	-0,199
243,815	192,469	-0,114	-0,119
244,830	611,268	-0,119	-0,207
245,844	354,497	-0,130	-0,179
246,859	26,307	-0,176	-0,101
247,874	-200,000	-0,068	-0,271
248,888	83,955	-0,246	-0,185
249,903	-130,273	-0,201	-0,019
250,917	102,433	-0,133	-0,107
251,932	210,710	-0,165	-0,179
252,947	169,859	-0,093	-0,092
253,961	-200,000	-0,067	-0,228
254,976	239,086	-0,103	-0,118
255,990	54,747	-0,171	-0,114
257,005	90,085	-0,169	-0,130
258,020	-104,654	-0,126	-0,020
259,034	-200,000	-0,039	-0,124
260,049	289,597	-0,100	-0,125
261,063	-120,794	-0,187	0,021
262,078	86,300	-0,113	-0,086
263,093	154,957	-0,217	-0,206
264,107	184,599	-0,097	-0,099
265,122	-92,290	-0,192	-0,037
266,136	132,371	-0,161	-0,143
267,151	3,396	-0,121	-0,061
268,166	611,692	-0,117	-0,202
269,180	142,074	-0,194	-0,178
270,195	81,124	-0,192	-0,143
271,209	784,362	-0,078	-0,148
272,224	231,671	-0,199	-0,225
273,239	800,000	-0,038	-0,088
274,253	-12,935	-0,180	-0,080
275,268	95,709	-0,140	-0,110
276,282	-129,243	-0,199	-0,019
277,297	-200,000	-0,076	-0,296
278,312	-69,361	-0,161	-0,042
279,326	144,820	-0,136	-0,125
280,341	-123,362	-0,175	-0,019
281,355	132,205	-0,106	-0,094
282,370	87,488	-0,208	-0,158
283,384	65,668	-0,200	-0,139
284,399	434,163	-0,196	-0,294
285,414	637,312	-0,084	-0,147
286,428	47,364	-0,218	-0,140
287,443	-200,000	-0,038	-0,158
288,457	28,748	-0,113	-0,066
289,472	800,000	-0,076	-0,180
290,487	169,197	-0,106	-0,104
291,501	-40,298	-0,245	-0,087
292,516	80,141	-0,207	-0,153
293,530	48,371	-0,082	0,053
294,545	269,710	-0,035	0,043
295,560	-46,671	-0,133	-0,044
296,574	134,603	-0,167	-0,149
297,589	-200,000	-0,030	-0,213
298,603	163,738	-0,111	-0,107
299,618	800,000	-0,120	-0,288
300,633	91,956	-0,073	0,057
301,647	32,160	-0,221	-0,131
302,662	-60,246	-0,177	-0,052
303,676	-104,270	-0,064	0,010
304,691	-2,163	-0,171	-0,082
305,706	59,111	-0,212	-0,143
306,720	-18,238	-0,169	-0,072
307,735	-175,004	-0,183	0,003
308,749	162,332	-0,045	-0,043
309,764	-161,180	-0,172	0,006
310,779	755,657	-0,069	-0,128
311,793	359,250	-0,033	-0,046
312,808	-200,000	-0,002	-0,182
313,822	800,000	-0,127	-0,313
314,837	97,754	-0,141	-0,111
315,852	158,232	-0,126	-0,120
316,866	-200,000	0,016	-0,175
317,881	-97,115	-0,068	-0,012
318,895	301,807	-0,077	-0,098
319,910	49,569	-0,329	-0,212
320,925	800,000	-0,063	-0,124
321,939	34,246	-0,236	-0,141
322,954	-68,825	-0,095	0,025
323,968	435,107	-0,066	-0,099
324,983	99,782	-0,046	-0,037
325,997	-84,933	-0,116	-0,025
327,012	-88,607	-0,050	-0,010
328,027	205,474	-0,205	-0,218
329,041	-164,917	-0,208	0,006
330,056	-200,000	0,018	-0,083
331,070	29,277	-0,091	0,053
332,085	-124,959	-0,159	-0,017
333,100	-94,448	-0,068	-0,013
334,114	-44,366	-0,188	-0,064
335,129	-24,346	-0,091	-0,037
336,143	277,579	-0,071	-0,087
337,158	-200,000	-0,039	0,132
338,173	800,000	0,036	-0,097
339,187	59,083	-0,091	0,061
340,202	2,830	-0,069	0,034
341,216	800,000	-0,107	-0,218
342,231	17,231	-0,111	-0,060
343,246	59,044	-0,121	-0,081
344,260	613,937	-0,028	-0,048
345,275	207,238	-0,118	-0,127
346,289	800,000	-0,067	-0,177
347,304	181,824	-0,123	-0,124
348,319	15,391	-0,118	-0,063
349,333	-200,000	-0,070	-0,234
350,348	698,969	-0,107	-0,193
351,362	26,560	-0,117	-0,067
352,377	329,825	-0,084	-0,111
353,392	74,138	-0,128	-0,092
354,406	800,000	-0,063	-0,157
355,421	207,099	1311,696	1399,875
356,435	159,304	1472,010	1400,346
