DTS Sentinel unit serial number:	SN410029Multiplexer serial number:	ORYXHardware model number:	OX2-SRSoftware version number:	ORYX F/W v4,00 Oryx Data Collector v3.7.2.0data status	okinstallation	B3 Nyhavnadifferential loss correction	single-endedforward channel	channel 1reverse channel	N/Adate	2023/11/29time	19:12:30forward acquisition time	300,00reverse acquisition time	0,00gamma	499,1914k internal	0,3210k external	0,3210temperature offset calibration	1,0000default loss term (dB/km)	0,3820temperature slope calibration	1,0000multiplexer offset coefficient	1,0000multiplexer slope coefficient	1,0000fibre end	0,00T internal ref (°C)	11,00T ext. ref 1 (°C)	-4,31T ext. ref 2 (°C)	-4,42length (m)	temperature (°C)	Stokes	anti-Stokes-744,400	225,588	-0,194	-0,229
-743,385	406,537	-0,134	0,206
-742,371	800,000	-0,063	-0,144
-741,356	800,000	0,073	0,217
-740,342	335,881	-0,133	-0,187
-739,327	-200,000	-0,004	0,189
-738,312	425,598	-0,200	-0,313
-737,298	-200,000	-0,030	0,268
-736,283	136,523	-0,259	-0,246
-735,269	-200,000	0,057	0,291
-734,254	370,893	-0,223	-0,329
-733,239	188,488	-0,113	0,123
-732,225	-200,000	-0,048	-0,226
-731,210	-86,758	0,208	0,046
-730,196	-119,387	-0,021	0,003
-729,181	90,470	0,026	-0,021
-728,167	3,162	-0,115	-0,060
-727,152	-64,543	-0,031	-0,009
-726,137	164,750	-0,036	-0,037
-725,123	-200,000	-0,015	-0,106
-724,108	129,593	-0,071	0,066
-723,094	-48,641	-0,120	-0,041
-722,079	-120,191	-0,144	0,018
-721,064	106,732	-0,158	0,136
-720,050	-22,652	0,096	-0,042
-719,035	441,907	0,054	-0,085
-718,021	800,000	0,033	-0,089
-717,006	800,000	0,033	-0,100
-715,991	293,614	-0,152	-0,202
-714,977	293,365	0,015	-0,020
-713,962	-95,496	-0,152	0,029
-712,948	131,434	-0,086	0,080
-711,933	-84,204	-0,054	-0,012
-710,918	126,437	-0,027	-0,025
-709,904	360,470	0,071	-0,103
-708,889	-12,971	-0,126	0,059
-707,875	-39,465	0,144	-0,054
-706,860	623,678	-0,031	0,057
-705,845	800,000	0,009	-0,028
-704,831	-67,753	0,040	0,011
-703,816	630,052	-0,064	-0,118
-702,802	364,303	-0,048	-0,071
-701,787	-124,693	-0,190	-0,021
-700,772	-37,484	0,053	-0,020
-699,758	800,000	-0,054	0,120
-698,743	-200,000	0,019	0,081
-697,729	51,047	-0,031	-0,021
-696,714	800,000	0,021	0,054
-695,699	438,944	-0,038	-0,060
-694,685	64,477	-0,092	-0,067
-693,670	-200,000	-0,015	-0,087
-692,656	54,342	-0,029	0,020
-691,641	3,754	0,052	-0,027
-690,627	-57,772	-0,067	0,021
-689,612	-36,188	0,113	0,044
-688,597	566,046	-0,006	-0,010
-687,583	800,000	-0,004	0,012
-686,568	71,994	-0,038	0,028
-685,554	69,058	0,048	-0,035
-684,539	-200,000	0,036	-0,138
-683,524	-30,817	0,019	0,008
-682,510	760,144	0,037	-0,073
-681,495	367,252	-0,090	-0,132
-680,481	236,734	0,047	-0,056
-679,466	235,827	0,028	-0,034
-678,451	800,000	0,063	-0,162
-677,437	-200,000	0,006	-0,082
-676,422	43,627	0,022	-0,014
-675,408	125,024	-0,069	0,063
-674,393	-200,000	0,011	-0,060
-673,378	-65,034	-0,146	-0,042
-672,364	-79,541	-0,135	-0,033
-671,349	-200,000	-0,022	0,077
-670,335	84,820	0,048	-0,038
-669,320	-200,000	0,001	-0,121
-668,305	-200,000	0,004	0,144
-667,291	-200,000	-0,013	-0,065
-666,276	-200,000	0,004	-0,029
-665,262	58,871	-0,026	-0,019
-664,247	-200,000	-0,005	-0,180
-663,232	-200,000	-0,022	-0,094
-662,218	-200,000	0,017	-0,057
-661,203	800,000	0,015	0,044
-660,189	800,000	0,041	0,090
-659,174	192,916	-0,038	-0,041
-658,159	31,070	0,090	-0,055
-657,145	29,246	-0,034	-0,021
-656,130	-200,000	0,007	-0,213
-655,116	-35,133	0,046	-0,018
-654,101	92,189	0,016	0,013
-653,086	-200,000	0,009	-0,169
-652,072	-200,000	0,010	-0,090
-651,057	359,490	0,035	-0,051
-650,043	800,000	-0,016	0,051
-649,028	-15,356	-0,077	0,036
-648,014	-145,461	-0,091	-0,006
-646,999	-200,000	-0,030	0,120
-645,984	216,158	0,046	-0,053
-644,970	47,937	-0,090	-0,061
-643,955	29,704	-0,127	0,078
-642,941	17,150	0,070	-0,040
-641,926	19,928	0,098	0,057
-640,911	191,669	-0,043	0,047
-639,897	800,000	-0,021	0,065
-638,882	50,771	0,042	-0,029
-637,868	393,779	-0,050	-0,076
-636,853	115,608	-0,200	-0,176
-635,838	-200,000	0,002	0,082
-634,824	247,156	-0,128	-0,157
-633,809	-200,000	0,018	0,103
-632,795	-162,911	-0,062	-0,002
-631,780	71,303	-0,089	0,066
-630,765	-123,476	-0,176	0,020
-629,751	271,252	-0,084	-0,107
-628,736	-200,000	0,049	-0,166
-627,722	260,454	-0,076	0,096
-626,707	118,229	0,026	0,023
-625,692	27,786	-0,096	0,058
-624,678	100,917	0,033	0,028
-623,663	-200,000	0,010	-0,132
-622,649	-200,000	0,031	-0,177
-621,634	165,623	-0,074	-0,076
-620,619	-200,000	-0,034	-0,150
-619,605	-94,629	0,188	0,037
-618,590	-200,000	0,024	0,136
-617,576	479,365	0,089	-0,145
-616,561	-128,190	-0,185	0,019
-615,546	518,332	0,105	-0,178
-614,532	148,658	-0,104	0,102
-613,517	-200,000	-0,005	0,039
-612,503	52,360	-0,058	0,040
-611,488	165,001	0,079	-0,080
-610,474	129,566	-0,071	-0,066
-609,459	-200,000	-0,018	-0,063
-608,444	800,000	0,022	-0,060
-607,430	-200,000	-0,019	-0,169
-606,415	-65,871	0,037	0,011
-605,401	-12,621	0,019	-0,009
-604,386	-155,582	-0,167	0,008
-603,371	-200,000	0,042	0,149
-602,357	594,117	-0,026	-0,046
-601,342	-93,193	0,036	-0,007
-600,328	-200,000	0,001	-0,106
-599,313	354,542	-0,045	-0,065
-598,298	-190,979	-0,109	0,001
-597,284	-8,024	0,105	-0,051
-596,269	-2,962	0,042	0,021
-595,255	202,602	0,069	0,077
-594,240	9,507	-0,063	0,034
-593,225	166,476	0,033	0,034
-592,211	-119,422	0,070	-0,009
-591,196	-67,045	-0,068	0,019
-590,182	302,672	-0,055	-0,074
-589,167	38,181	0,053	0,034
-588,152	-200,000	-0,007	-0,123
-587,138	-152,780	-0,042	-0,002
-586,123	-33,506	-0,069	-0,027
-585,109	566,269	-0,012	-0,022
-584,094	-103,906	-0,076	-0,013
-583,079	208,537	-0,035	0,039
-582,065	-200,000	0,007	0,104
-581,050	69,437	0,026	0,019
-580,036	174,633	-0,078	0,082
-579,021	4,573	-0,085	0,045
-578,006	133,945	0,053	0,050
-576,992	78,853	0,047	0,036
-575,977	199,868	0,034	-0,037
-574,963	-200,000	0,003	0,135
-573,948	291,270	0,142	0,186
-572,934	-200,000	-0,013	0,076
-571,919	-200,000	-0,033	-0,110
-570,904	608,426	-0,075	-0,135
-569,890	420,547	-0,033	0,050
-568,875	612,995	0,028	0,050
-567,861	149,627	0,138	0,135
-566,846	275,284	-0,088	-0,113
-565,831	-137,802	0,030	0,002
-564,817	64,273	0,069	-0,050
-563,802	445,615	-0,007	-0,011
-562,788	800,000	-0,052	-0,120
-561,773	152,730	0,120	0,119
-560,758	-200,000	0,003	-0,018
-559,744	-72,019	0,095	-0,025
-558,729	800,000	-0,023	-0,068
-557,715	616,165	-0,035	-0,064
-556,700	800,000	-0,067	-0,143
-555,685	69,701	-0,036	-0,027
-554,671	800,000	-0,049	-0,142
-553,656	93,978	0,221	-0,180
-552,642	208,980	-0,025	-0,028
-551,627	-6,587	-0,069	-0,034
-550,612	19,607	-0,206	-0,119
-549,598	163,528	-0,110	0,112
-548,583	-43,134	0,083	-0,030
-547,569	-122,301	0,051	-0,006
-546,554	-200,000	0,004	0,067
-545,539	-89,668	0,075	-0,016
-544,525	53,752	-0,065	0,045
-543,510	-200,000	-0,003	-0,048
-542,496	-39,399	-0,042	0,016
-541,481	141,944	-0,081	-0,077
-540,466	38,698	-0,176	-0,113
-539,452	49,005	0,075	0,050
-538,437	22,583	-0,205	0,120
-537,423	-65,234	0,103	-0,030
-536,408	-89,398	-0,157	-0,033
-535,393	582,077	0,067	-0,118
-534,379	800,000	-0,013	-0,040
-533,364	-135,561	0,045	0,004
-532,350	800,000	0,037	-0,077
-531,335	185,024	0,035	0,037
-530,321	-200,000	-0,017	0,106
-529,306	154,409	-0,028	-0,028
-528,291	-123,249	-0,049	0,006
-527,277	800,000	-0,031	0,062
-526,262	-50,050	-0,021	-0,007
-525,248	86,432	0,166	-0,131
-524,233	673,906	0,047	0,088
-523,218	-200,000	-0,014	0,082
-522,204	212,268	-0,029	0,033
-521,189	731,759	-0,019	0,037
-520,175	345,872	0,034	0,048
-519,160	101,710	0,086	-0,072
-518,145	800,000	0,035	-0,098
-517,131	-78,269	-0,115	0,028
-516,116	535,019	0,019	0,032
-515,102	639,066	0,034	-0,062
-514,087	-200,000	0,005	-0,078
-513,072	6,736	0,065	-0,035
-512,058	-50,735	0,067	0,023
-511,043	-4,566	0,057	0,028
-510,029	652,338	-0,045	-0,084
-509,014	-200,000	0,002	0,065
-507,999	108,890	-0,096	0,083
-506,985	145,731	-0,042	-0,040
-505,970	2,392	-0,116	-0,060
-504,956	224,611	0,086	-0,100
-503,941	800,000	-0,039	0,080
-502,926	221,753	0,033	0,038
-501,912	-14,369	0,020	0,009
-500,897	-200,000	0,044	-0,142
-499,883	800,000	0,037	-0,075
-498,868	-200,000	0,031	-0,373
-497,853	-62,946	0,078	0,023
-496,839	-75,515	-0,085	0,022
-495,824	205,983	0,070	0,078
-494,810	669,593	0,051	-0,094
-493,795	-105,514	0,115	0,019
-492,781	-70,447	0,118	-0,032
-491,766	125,758	-0,138	-0,125
-490,751	546,484	0,101	-0,174
-489,737	601,495	-0,018	0,032
-488,722	-32,481	0,132	-0,053
-487,708	-200,000	0,026	0,085
-486,693	61,433	-0,069	0,050
-485,678	800,000	0,026	-0,062
-484,664	303,290	-0,028	0,037
-483,649	-200,000	0,003	-0,069
-482,635	368,446	0,100	-0,146
-481,620	-92,078	0,272	-0,055
-480,605	25,232	-0,065	0,039
-479,591	-128,456	-0,033	-0,003
-478,576	-200,000	0,013	-0,124
-477,562	-85,972	-0,055	-0,012
-476,547	343,385	-0,070	-0,099
-475,532	-22,835	-0,128	0,055
-474,518	-163,868	0,120	-0,004
-473,503	-14,127	0,044	0,020
-472,489	-114,338	0,150	0,020
-471,474	26,838	0,099	-0,060
-470,459	800,000	-0,030	-0,064
-469,445	-38,132	0,044	-0,017
-468,430	-200,000	0,003	0,039
-467,416	-86,475	-0,056	0,012
-466,401	800,000	-0,057	0,150
-465,386	-200,000	0,040	0,135
-464,372	800,000	0,045	-0,114
-463,357	148,435	-0,061	0,059
-462,343	558,085	-0,090	-0,156
-461,328	-200,000	-0,027	0,092
-460,313	110,970	0,042	-0,037
-459,299	71,523	-0,036	0,027
-458,284	-74,020	-0,049	0,013
-457,270	223,859	0,087	-0,101
-456,255	-200,000	-0,037	0,133
-455,241	800,000	0,025	-0,079
-454,226	526,691	0,016	-0,028
-453,211	-200,000	-0,003	0,043
-452,197	81,399	0,054	-0,042
-451,182	10,177	-0,093	0,050
-450,168	-77,581	0,117	0,029
-449,153	164,417	0,037	0,038
-448,138	-200,000	-0,001	0,014
-447,124	-200,000	0,013	-0,069
-446,109	800,000	-0,027	0,061
-445,095	-49,711	0,081	-0,027
-444,080	-200,000	0,006	-0,044
-443,065	800,000	0,027	-0,068
-442,051	-200,000	0,020	-0,088
-441,036	-137,943	-0,157	-0,012
-440,022	-71,254	0,211	0,056
-439,007	-68,662	0,126	0,035
-437,992	30,993	0,004	-0,002
-436,978	-200,000	0,021	0,144
-435,963	403,277	0,118	0,178
-434,949	160,821	0,023	-0,024
-433,934	34,218	0,072	-0,045
-432,919	-200,000	-0,035	0,123
-431,905	203,891	-0,088	0,098
-430,890	-200,000	-0,007	0,056
-429,876	-200,000	0,008	0,092
-428,861	44,296	-0,086	0,057
-427,846	-119,315	-0,115	0,014
-426,832	3,892	0,030	0,016
-425,817	-65,533	-0,113	-0,032
-424,803	-142,546	0,127	0,009
-423,788	707,842	0,035	0,067
-422,773	31,169	0,131	-0,080
-421,759	21,188	0,081	0,047
-420,744	163,006	-0,073	0,074
-419,730	97,209	0,007	-0,006
-418,715	278,929	-0,125	0,160
-417,701	-200,000	-0,000	0,014
-416,686	254,762	-0,062	0,076
-415,671	57,341	0,069	-0,048
-414,657	430,902	0,106	-0,164
-413,642	181,006	-0,022	0,023
-412,628	144,357	-0,035	-0,033
-411,613	246,904	-0,089	0,107
-410,598	-54,799	-0,038	0,012
-409,584	-200,000	-0,026	0,124
-408,569	-200,000	0,005	-0,029
-407,555	84,407	-0,102	0,080
-406,540	653,030	0,049	0,091
-405,525	-77,712	-0,217	0,053
-404,511	148,882	-0,123	-0,119
-403,496	-64,670	-0,023	-0,007
-402,482	800,000	0,054	-0,117
-401,467	164,486	0,196	0,197
-400,452	30,320	-0,127	0,078
-399,438	-5,230	0,075	0,037
-398,423	-64,448	-0,147	-0,043
-397,409	130,022	0,076	0,069
-396,394	232,562	0,107	0,126
-395,379	-200,000	0,001	-0,091
-394,365	144,501	0,038	-0,037
-393,350	293,573	-0,061	0,080
-392,336	800,000	-0,021	-0,044
-391,321	-144,735	-0,054	-0,004
-390,306	-165,491	0,016	-0,001
-389,292	800,000	-0,038	0,089
-388,277	-69,929	0,039	-0,011
-387,263	800,000	0,051	0,138
-386,248	-108,917	-0,076	-0,012
-385,233	-200,000	-0,016	-0,117
-384,219	553,352	-0,018	-0,032
-383,204	133,766	-0,043	0,040
-382,190	426,532	-0,097	-0,149
-381,175	-200,000	0,009	-0,046
-380,160	-16,308	0,186	0,084
-379,146	-50,246	-0,135	-0,045
-378,131	800,000	-0,027	0,063
-377,117	800,000	-0,025	0,064
-376,102	-200,000	-0,014	0,090
-375,088	91,355	-0,025	0,020
-374,073	88,856	-0,061	0,048
-373,058	-107,889	0,033	0,005
-372,044	-79,814	0,104	-0,025
-371,029	-200,000	0,007	0,096
-370,015	-200,000	-0,042	0,154
-369,000	-147,369	-0,037	-0,002
-367,985	-87,416	-0,098	0,021
-366,971	-4,403	0,033	0,016
-365,956	-30,502	0,007	0,003
-364,942	91,063	0,123	0,098
-363,927	-38,631	0,149	0,056
-362,912	373,087	-0,036	0,053
-361,898	270,721	-0,056	-0,071
-360,883	774,542	-0,037	-0,072
-359,869	-35,894	0,094	-0,036
-358,854	-200,000	-0,011	0,074
-357,839	-129,312	0,103	0,010
-356,825	-72,343	0,058	-0,015
-355,810	606,452	-0,026	-0,046
-354,796	51,913	-0,160	0,109
-353,781	749,636	-0,033	-0,065
-352,766	95,253	-0,097	0,079
-351,752	800,000	-0,017	-0,051
-350,737	419,275	0,011	0,017
-349,723	800,000	0,015	-0,045
-348,708	-133,848	0,155	0,014
-347,693	-200,000	-0,021	-0,073
-346,679	-200,000	-0,016	0,066
-345,664	-200,000	0,018	-0,126
-344,650	-132,184	0,083	0,008
-343,635	-200,000	0,027	0,104
-342,620	35,683	0,142	0,089
-341,606	-200,000	0,018	0,146
-340,591	526,502	-0,095	-0,160
-339,577	630,503	-0,085	-0,155
-338,562	-200,000	-0,002	0,029
-337,548	-71,928	-0,141	-0,037
-336,533	-200,000	0,017	0,094
-335,518	360,726	0,080	0,114
-334,504	-19,278	-0,108	0,048
-333,489	292,165	-0,067	-0,087
-332,475	-200,000	0,004	-0,235
-331,460	-102,370	-0,054	0,009
-330,445	-200,000	0,006	-0,056
-329,431	-145,455	0,080	-0,005
-328,416	-200,000	0,046	0,146
-327,402	-200,000	0,030	0,133
-326,387	32,488	-0,111	-0,068
-325,372	800,000	0,004	-0,011
-324,358	-13,312	-0,022	0,010
-323,343	-75,781	-0,062	0,016
-322,329	-108,134	0,062	0,009
-321,314	282,927	0,032	-0,041
-320,299	-200,000	0,016	0,068
-319,285	75,137	0,109	0,082
-318,270	16,231	0,064	0,036
-317,256	-100,333	0,047	-0,008
-316,241	-136,995	-0,097	0,008
-315,226	459,543	-0,033	0,052
-314,212	-200,000	0,004	-0,051
-313,197	-104,638	0,044	-0,007
-312,183	17,757	-0,093	-0,052
-311,168	135,413	0,074	-0,069
-310,153	576,893	0,058	-0,101
-309,139	328,669	-0,078	-0,107
-308,124	-184,875	0,161	0,002
-307,110	3,936	0,029	0,015
-306,095	-9,019	0,141	0,067
-305,080	-17,010	0,084	0,038
-304,066	-157,969	-0,019	0,001
-303,051	255,567	-0,022	0,027
-302,037	-36,736	0,183	0,070
-301,022	496,272	0,075	-0,123
-300,008	-200,000	-0,025	0,123
-298,993	-200,000	0,025	-0,118
-297,978	-200,000	-0,006	-0,103
-296,964	-45,782	-0,100	-0,035
-295,949	83,721	0,066	-0,051
-294,935	-99,619	0,073	0,013
-293,920	-61,109	-0,075	-0,022
-292,905	179,943	0,095	0,099
-291,891	131,750	0,078	0,072
-290,876	800,000	-0,042	0,113
-289,862	-131,578	0,140	-0,013
-288,847	109,658	-0,037	-0,032
-287,832	114,939	-0,052	-0,045
-286,818	73,561	0,118	0,088
-285,803	6,186	-0,080	-0,042
-284,789	1,187	0,109	-0,056
-283,774	-55,632	-0,108	-0,034
-282,759	-200,000	0,019	-0,121
-281,745	-127,873	-0,131	0,013
-280,730	-200,000	0,006	-0,036
-279,716	204,756	0,014	-0,015
-278,701	20,088	-0,043	-0,024
-277,686	-200,000	-0,014	0,046
-276,672	-151,863	0,093	0,005
-275,657	-145,473	-0,040	-0,003
-274,643	-200,000	-0,009	-0,124
-273,628	-24,277	-0,143	-0,060
-272,613	-38,162	-0,038	-0,014
-271,599	443,120	0,143	0,224
-270,584	732,885	-0,079	0,152
-269,570	582,527	-0,034	0,059
-268,555	59,369	-0,046	0,032
-267,540	180,791	0,040	-0,042
-266,526	-200,000	0,008	-0,064
-265,511	-106,054	-0,157	0,025
-264,497	800,000	0,008	0,021
-263,482	198,253	0,024	0,026
-262,467	-200,000	0,016	0,161
-261,453	101,226	-0,080	-0,066
-260,438	57,801	0,077	0,053
-259,424	800,000	-0,036	-0,076
-258,409	186,552	-0,018	-0,019
-257,395	748,407	0,067	0,130
-256,380	585,415	0,029	0,050
-255,365	-116,826	0,105	-0,014
-254,351	800,000	0,043	-0,113
-253,336	413,378	0,035	0,053
-252,322	-88,364	-0,125	-0,026
-251,307	188,997	-0,097	-0,103
-250,292	30,159	-0,093	-0,056
-249,278	-200,000	0,017	0,061
-248,263	186,877	0,099	0,105
-247,249	-133,037	-0,051	0,005
-246,234	475,651	0,039	-0,063
-245,219	-31,366	-0,132	-0,053
-244,205	800,000	0,005	0,011
-243,190	26,186	0,064	0,038
-242,176	308,716	0,027	-0,037
-241,161	-146,906	-0,058	0,003
-240,146	326,791	0,115	0,157
-239,132	-200,000	-0,010	0,081
-238,117	-200,000	0,004	-0,054
-237,103	-200,000	0,026	-0,097
-236,088	330,529	-0,051	-0,070
-235,073	800,000	-0,029	-0,089
-234,059	-200,000	0,001	-0,028
-233,044	-0,241	0,067	-0,034
-232,030	136,039	0,072	0,067
-231,015	-87,102	-0,014	-0,003
-230,000	-200,000	-0,011	-0,165
-228,986	-200,000	-0,003	-0,056
-227,971	-52,121	-0,100	0,033
-226,957	800,000	-0,037	0,078
-225,942	-200,000	-0,008	-0,066
-224,927	574,292	0,057	-0,100
-223,913	-170,558	-0,162	0,004
-222,898	-200,000	-0,091	0,000
-221,884	-200,000	-0,021	0,109
-220,869	415,944	-0,032	-0,048
-219,855	-200,000	-0,011	0,087
-218,840	-200,000	0,006	-0,056
-217,825	-33,264	-0,226	-0,089
-216,811	102,669	-0,101	-0,084
-215,796	-48,136	0,076	-0,026
-214,782	616,395	-0,065	0,117
-213,767	-200,000	0,002	-0,038
-212,752	-200,000	-0,014	-0,122
-211,738	-100,514	0,053	0,009
-210,723	-52,386	-0,050	-0,016
-209,709	-2,443	0,065	0,032
-208,694	323,414	-0,065	0,088
-207,679	505,996	0,065	-0,108
-206,665	187,851	0,074	-0,078
-205,650	-200,000	0,003	0,144
-204,636	99,786	0,058	-0,048
-203,621	-200,000	0,005	-0,068
-202,606	-86,107	-0,072	0,016
-201,592	84,701	0,037	0,029
-200,577	-200,000	0,038	0,123
-199,563	-103,403	-0,080	0,013
-198,548	294,495	-0,062	-0,080
-197,533	19,168	0,128	0,073
-196,519	800,000	0,029	0,062
-195,504	88,273	-0,041	-0,032
-194,490	-200,000	-0,004	0,048
-193,475	393,767	0,043	-0,063
-192,460	-200,000	0,001	-0,064
-191,446	-26,485	0,120	-0,050
-190,431	-62,794	0,025	0,007
-189,417	-200,000	0,021	-0,075
-188,402	-47,924	0,055	-0,019
-187,387	404,901	-0,016	-0,024
-186,373	-200,000	0,037	-0,138
-185,358	-200,000	0,005	0,141
-184,344	800,000	0,054	0,148
-183,329	800,000	-0,046	0,111
-182,315	-200,000	0,000	0,005
-181,300	486,604	0,049	0,079
-180,285	146,390	-0,008	0,007
-179,271	55,803	-0,055	-0,037
-178,256	58,502	-0,061	-0,042
-177,242	-29,924	-0,055	-0,022
-176,227	164,299	0,019	0,019
-175,212	-200,000	0,017	0,066
-174,198	205,553	0,103	0,114
-173,183	0,202	0,067	0,034
-172,169	-68,345	0,055	0,015
-171,154	256,817	0,014	-0,017
-170,139	800,000	0,018	0,036
-169,125	-109,710	0,135	0,020
-168,110	800,000	-0,029	0,065
-167,096	264,025	0,069	0,086
-166,081	-66,159	-0,127	0,036
-165,066	-139,671	-0,148	-0,011
-164,052	800,000	-0,033	0,065
-163,037	287,475	-0,023	0,030
-162,023	-200,000	0,008	0,159
-161,008	-105,891	0,080	0,013
-159,993	-35,826	-0,044	-0,017
-158,979	372,414	-0,066	0,095
-157,964	-121,862	0,127	-0,015
-156,950	55,389	0,064	0,044
-155,935	-94,547	0,063	0,012
-154,920	290,002	0,028	0,037
-153,906	800,000	0,020	0,052
-152,891	-65,176	0,117	0,033
-151,877	517,548	0,041	-0,067
-150,862	70,809	-0,020	-0,015
-149,847	-81,218	-0,149	-0,035
-148,833	-99,584	-0,040	-0,007
-147,818	24,072	0,172	0,100
-146,804	-200,000	0,001	0,059
-145,789	-200,000	-0,028	-0,138
-144,775	692,475	0,024	0,045
-143,760	-200,000	-0,006	-0,048
-142,745	800,000	0,054	-0,137
-141,731	-31,679	0,018	-0,007
-140,716	-123,422	-0,040	0,004
-139,702	-82,800	-0,095	0,022
-138,687	-24,031	-0,135	-0,057
-137,672	-200,000	0,007	-0,233
-136,658	800,000	0,038	-0,099
-135,643	800,000	-0,020	0,056
-134,629	43,726	-0,085	0,055
-133,614	-131,533	-0,042	-0,004
-132,599	3,830	-0,057	-0,029
-131,585	-200,000	0,033	0,112
-130,570	-7,169	0,077	0,037
-129,556	-200,000	0,008	-0,084
-128,541	21,851	-0,178	-0,103
-127,526	-200,000	-0,011	0,066
-126,512	664,413	0,067	0,122
-125,497	800,000	-0,014	0,033
-124,483	-200,000	0,004	-0,062
-123,468	-50,587	-0,061	0,020
-122,453	154,528	-0,060	-0,058
-121,439	56,657	0,067	0,046
-120,424	-200,000	-0,016	0,083
-119,410	146,992	-0,033	0,031
-118,395	-200,000	0,012	0,090
-117,380	62,247	0,108	0,076
-116,366	-200,000	0,040	0,129
-115,351	-117,388	0,174	0,022
-114,337	-60,050	-0,057	0,017
-113,322	279,485	0,012	-0,015
-112,307	-200,000	0,015	-0,148
-111,293	422,353	-0,028	0,043
-110,278	123,238	-0,118	0,104
-109,264	260,389	-0,124	0,152
-108,249	-7,275	-0,144	0,069
-107,234	-85,448	-0,027	0,006
-106,220	391,466	-0,061	0,090
-105,205	-45,190	0,085	-0,030
-104,191	-153,391	0,217	0,011
-103,176	800,000	-0,024	0,056
-102,162	95,231	-0,011	0,009
-101,147	-90,468	0,088	-0,018
-100,132	-200,000	-0,007	0,059
-99,118	37,384	0,029	0,018
-98,103	-61,871	0,085	0,025
-97,089	-88,678	0,010	-0,002
-96,074	-200,000	-0,017	0,142
-95,059	-200,000	-0,002	0,038
-94,045	-159,332	-0,120	0,005
-93,030	64,154	-0,032	-0,023
-92,016	299,846	-0,022	0,029
-91,001	391,699	0,017	-0,026
-89,986	800,000	-0,057	0,142
-88,972	800,000	0,089	0,229
-87,957	-21,932	0,163	0,070
-86,943	-54,320	-0,084	0,027
-85,928	-200,000	0,014	0,136
-84,913	-36,786	0,122	-0,046
-83,899	77,000	-0,046	0,035
-82,884	-200,000	0,011	0,096
-81,870	-200,000	0,000	0,053
-80,855	-200,000	0,024	0,100
-79,840	234,245	-0,071	0,083
-78,826	800,000	-0,019	-0,048
-77,811	77,188	-0,111	0,083
-76,797	467,526	-0,075	-0,120
-75,782	800,000	-0,010	0,030
-74,767	-77,522	0,229	0,056
-73,753	135,741	0,093	0,086
-72,738	223,745	0,059	-0,067
-71,724	800,000	-0,039	-0,105
-70,709	381,868	0,031	0,045
-69,694	54,205	-0,102	-0,069
-68,680	-25,153	0,031	0,013
-67,665	646,182	-0,064	0,117
-66,651	-200,000	-0,001	0,096
-65,636	-200,000	0,038	-0,121
-64,622	800,000	-0,049	-0,121
-63,607	9,649	-0,123	-0,065
-62,592	121,207	-0,042	0,037
-61,578	438,334	0,036	-0,055
-60,563	800,000	-0,024	-0,064
-59,549	-200,000	-0,029	0,130
-58,534	9,482	-1,934	-1,031
-57,519	617,327	-1,230	-2,190
-56,505	-200,000	-0,488	-4,345
-55,490	556,308	0,903	1,543
-54,476	800,000	4,989	11,248
-53,461	-200,000	20,923	329,238
-52,446	800,000	757,091	2322,105
-51,432	550,098	1662,029	2825,203
-50,417	73,570	1664,360	1229,438
-49,403	18,824	1537,517	867,004
-48,388	12,800	1460,520	794,415
-47,373	19,014	1451,245	819,201
-46,359	15,929	1440,554	798,439
-45,344	11,131	1436,144	773,100
-44,330	11,068	1434,316	771,787
-43,315	11,029	1432,459	770,568
-42,300	11,043	1430,691	769,654
-41,286	11,061	1429,288	768,957
-40,271	11,041	1427,818	768,040
-39,257	11,041	1426,790	767,455
-38,242	11,069	1425,722	766,982
-37,227	11,063	1424,626	766,336
-36,213	11,043	1423,496	765,603
-35,198	11,062	1422,167	764,945
-34,184	11,106	1421,585	764,812
-33,169	11,086	1419,809	763,731
-32,154	11,148	1418,904	763,507
-31,140	11,109	1417,557	762,566
-30,125	11,105	1416,752	762,086
-29,111	11,133	1415,546	761,537
-28,096	11,094	1414,387	760,702
-27,082	11,021	1413,175	759,674
-26,067	11,004	1412,356	759,123
-25,052	11,091	1410,976	758,759
-24,038	11,050	1410,267	758,160
-23,023	10,957	1409,199	757,121
-22,009	10,971	1408,091	756,561
-20,994	11,015	1407,236	756,273
-19,979	11,018	1406,349	755,783
-18,965	10,989	1405,245	755,023
-17,950	11,006	1404,159	754,492
-16,936	10,985	1403,593	754,056
-15,921	10,933	1402,540	753,218
-14,906	10,931	1401,820	752,795
-13,892	10,974	1400,560	752,288
-12,877	10,924	1399,923	751,684
-11,863	10,948	1399,018	751,277
-10,848	10,938	1398,044	750,680
-9,833	10,874	1397,372	749,992
-8,819	10,809	1396,392	749,133
-7,804	10,812	1395,661	748,727
-6,790	10,863	1394,386	748,248
-5,775	10,869	1393,420	747,730
-4,760	10,853	1392,439	747,098
-3,746	10,886	1391,558	746,748
-2,731	10,856	1390,777	746,162
-1,717	10,819	1389,898	745,491
-0,702	10,797	1388,260	744,479
0,313	14,792	1301,705	716,380
1,327	30,972	692,925	418,153
2,342	48,456	120,064	79,209
3,356	-0,149	16,413	8,213
4,371	-6,006	3,379	1,624
5,386	36,873	0,882	0,549
6,400	800,000	0,168	0,486
7,415	101,004	-0,171	-0,141
8,429	-9,264	-0,263	-0,124
9,444	67,366	-0,329	-0,237
10,459	-1,538	-0,312	-0,155
11,473	689,878	-0,163	-0,303
12,488	15,548	-0,205	-0,113
13,502	-88,861	-0,395	-0,082
14,517	114,915	-0,281	-0,241
15,531	58,735	-0,270	-0,187
16,546	85,457	-0,243	-0,188
17,561	204,889	-0,252	-0,276
18,575	-65,265	-0,304	0,086
19,590	136,048	-0,229	-0,210
20,604	-73,183	-0,301	-0,077
21,619	115,179	-0,359	-0,309
22,634	126,344	-0,424	-0,378
23,648	77,125	-0,473	-0,353
24,663	68,760	-0,443	-0,320
25,677	-49,197	-0,426	-0,142
26,692	-26,559	-0,379	-0,156
27,707	31,460	-0,371	-0,224
28,721	178,320	-0,297	-0,306
29,736	61,584	-0,268	-0,188
30,750	72,398	-0,478	-0,351
31,765	-18,626	-0,488	-0,213
32,780	196,145	-0,351	-0,377
33,794	33,406	-0,349	-0,212
34,809	40,188	-0,421	-0,266
35,823	77,316	-0,420	-0,314
36,838	87,767	-0,329	-0,256
37,853	73,611	-0,389	-0,286
38,867	38,626	-0,403	-0,252
39,882	272,963	-0,226	-0,282
40,896	613,864	-0,175	-0,309
41,911	82,995	-0,404	-0,309
42,926	49,563	-0,304	-0,201
43,940	46,743	-0,413	-0,269
44,955	-38,353	-0,479	-0,178
45,969	58,884	-0,450	-0,310
46,984	228,627	-0,295	-0,339
47,999	50,275	-0,404	-0,268
49,013	141,881	-0,314	-0,292
50,028	172,545	-0,270	-0,273
51,042	64,965	-0,319	-0,226
52,057	-24,620	-0,258	-0,107
53,071	7,494	-0,365	-0,191
54,086	-7,435	-0,339	-0,160
55,101	36,711	-0,253	-0,156
56,115	-53,140	-0,431	-0,138
57,130	69,201	-0,329	-0,238
58,144	146,311	-0,306	-0,289
59,159	66,928	-0,411	-0,293
60,174	27,284	-0,430	-0,253
61,188	170,835	-0,246	-0,248
62,203	-10,617	-0,380	-0,176
63,217	19,519	-0,303	-0,170
64,232	102,185	-0,260	-0,213
65,247	49,617	-0,361	-0,238
66,261	8,386	-0,355	-0,186
67,276	-23,660	-0,454	-0,190
68,290	108,009	-0,291	-0,243
69,305	79,956	-0,359	-0,270
70,320	61,847	-0,329	-0,229
71,334	-64,799	-0,338	-0,095
72,349	-69,021	-0,426	-0,114
73,363	32,957	-0,329	-0,199
74,378	182,862	-0,308	-0,319
75,393	437,634	-0,240	-0,368
76,407	8,974	-0,370	-0,195
77,422	33,132	-0,299	-0,181
78,436	-121,424	-0,358	-0,041
79,451	-38,677	-0,221	-0,081
80,466	52,076	-0,341	-0,227
81,480	16,144	-0,320	-0,177
82,495	-21,902	-0,332	-0,141
83,509	23,247	-0,276	-0,159
84,524	161,252	-0,193	-0,189
85,539	-51,524	-0,262	-0,085
86,553	-32,363	-0,451	-0,175
87,568	-51,175	-0,350	-0,114
88,582	3,163	-0,256	-0,130
89,597	50,499	-0,368	-0,243
90,611	130,203	-0,217	-0,194
91,626	128,884	-0,302	-0,270
92,641	13,619	-0,066	-0,036
93,655	58,107	-0,280	-0,192
94,670	5,310	-0,316	-0,163
95,684	97,647	-0,234	-0,189
96,699	64,513	-0,200	-0,141
97,714	50,554	-0,250	-0,165
98,728	-2,023	-0,223	-0,109
99,743	103,011	-0,189	-0,155
100,757	-66,669	-0,345	-0,095
101,772	-29,608	-0,269	-0,107
102,787	-38,621	-0,321	-0,118
103,801	-3,966	-0,261	-0,126
104,816	19,371	-0,350	-0,196
105,830	671,469	-0,161	-0,293
106,845	48,769	-0,201	-0,132
107,860	12,320	-0,259	-0,139
108,874	566,067	-0,123	-0,210
109,889	132,136	-0,330	-0,297
110,903	-0,078	-0,288	-0,143
111,918	129,885	-0,203	-0,181
112,933	25,361	-0,242	-0,140
113,947	38,408	-0,287	-0,179
114,962	-59,925	-0,217	-0,064
115,976	-78,698	-0,301	-0,071
116,991	88,161	-0,258	-0,200
118,006	145,308	-0,265	-0,247
119,020	69,901	-0,326	-0,235
120,035	13,361	-0,255	-0,138
121,049	64,684	-0,117	-0,082
122,064	-72,430	-0,262	-0,067
123,079	-154,281	-0,265	0,012
124,093	80,603	-0,300	-0,225
125,108	179,038	-0,289	-0,295
126,122	25,145	-0,314	-0,181
127,137	-41,146	-0,287	-0,103
128,151	98,442	-0,149	-0,119
129,166	-24,841	-0,216	-0,089
130,181	25,686	-0,349	-0,203
131,195	-48,326	-0,285	-0,095
132,210	74,909	-0,451	-0,331
133,224	11,622	-0,345	-0,184
134,239	212,338	-0,145	-0,159
135,254	-126,459	-0,095	-0,010
136,268	4,254	-0,236	-0,120
137,283	3,109	-0,333	-0,168
138,297	-26,944	-0,329	-0,133
139,312	-23,815	-0,299	-0,124
140,327	2,067	-0,168	-0,084
141,341	0,311	-0,230	-0,114
142,356	8,144	-0,153	-0,080
143,370	-52,685	-0,264	-0,084
144,385	140,912	-0,204	-0,188
145,400	271,111	-0,180	-0,221
146,414	93,688	-0,262	-0,207
147,429	-21,776	-0,300	-0,127
148,443	61,663	-0,219	-0,152
149,458	59,986	-0,116	-0,080
150,473	42,074	-0,099	-0,062
151,487	65,226	-0,307	-0,216
152,502	54,997	-0,241	-0,162
153,516	199,833	-0,192	-0,205
154,531	240,326	-0,253	-0,294
155,546	-128,094	-0,264	-0,026
156,560	-37,609	-0,213	-0,079
157,575	156,311	-0,099	-0,095
158,589	-65,286	-0,329	-0,091
159,604	-71,121	-0,158	-0,041
160,619	27,220	-0,206	-0,120
161,633	9,009	-0,324	-0,170
162,648	222,706	-0,187	-0,209
163,662	211,998	-0,149	-0,163
164,677	19,811	-0,225	-0,126
165,692	151,414	-0,113	-0,107
166,706	87,094	-0,243	-0,187
167,721	-30,971	-0,188	-0,074
168,735	29,787	-0,121	-0,072
169,750	64,956	-0,334	-0,235
170,764	-27,870	-0,317	-0,127
171,779	149,212	-0,182	-0,172
172,794	685,086	-0,110	-0,200
173,808	243,718	-0,290	-0,339
174,823	116,753	-0,120	-0,102
175,837	24,030	-0,221	-0,127
176,852	92,567	-0,283	-0,221
177,867	-200,000	-0,043	-0,187
178,881	202,727	-0,153	-0,164
179,896	-74,753	-0,212	0,053
180,910	84,152	-0,220	-0,167
181,925	800,000	-0,144	-0,280
182,940	-62,298	-0,320	-0,092
183,954	-81,514	-0,190	-0,043
184,969	82,519	-0,218	-0,164
185,983	-140,537	-0,202	-0,014
186,998	800,000	-0,143	-0,279
188,013	292,726	-0,183	-0,233
189,027	347,096	-0,177	-0,243
190,042	167,674	-0,214	-0,212
191,056	537,289	-0,180	-0,297
192,071	-8,825	-0,233	-0,108
193,086	-106,718	-0,230	-0,035
194,100	62,857	-0,137	-0,095
195,115	56,077	-0,147	-0,099
196,129	0,790	-0,290	-0,143
197,144	48,953	-0,239	-0,156
198,159	258,357	-0,167	-0,200
199,173	68,335	-0,276	-0,196
200,188	75,569	-0,104	0,076
201,202	-21,518	-0,247	-0,104
202,217	125,896	-0,227	-0,199
203,232	-17,466	-0,116	-0,051
204,246	427,943	-0,162	-0,244
205,261	-9,120	-0,185	-0,086
206,275	452,069	-0,151	-0,233
207,290	55,655	-0,149	-0,100
208,304	-98,171	-0,149	-0,026
209,319	94,029	-0,190	-0,149
210,334	-145,336	-0,283	0,017
211,348	25,760	-0,232	-0,133
212,363	-55,865	-0,237	-0,073
213,377	163,917	-0,221	-0,215
214,392	-9,566	-0,204	-0,094
215,407	201,087	-0,228	-0,243
216,421	272,749	-0,199	-0,244
217,436	-65,437	-0,171	-0,047
218,450	12,417	-0,179	-0,095
219,465	41,734	-0,275	-0,172
220,480	219,321	-0,141	-0,156
221,494	-6,933	-0,207	-0,097
222,509	82,213	-0,132	-0,099
223,523	18,696	-0,147	-0,081
224,538	574,845	-0,101	-0,171
225,553	48,001	-0,224	-0,145
226,567	78,141	-0,252	-0,186
227,582	180,788	-0,258	-0,263
228,596	-61,101	-0,201	-0,058
229,611	-116,431	-0,148	0,019
230,626	12,326	-0,167	-0,089
231,640	-64,444	-0,265	-0,074
232,655	136,300	-0,128	-0,116
233,669	800,000	-0,139	-0,276
234,684	-200,000	0,024	-0,144
235,699	-1,033	-0,182	-0,089
236,713	537,672	-0,103	-0,169
237,728	179,128	-0,188	-0,191
238,742	3,987	-0,193	-0,097
239,757	-98,574	-0,266	-0,047
240,772	283,852	-0,172	-0,214
241,786	800,000	-0,112	-0,331
242,801	-12,397	-0,222	-0,100
243,815	187,558	-0,098	-0,101
244,830	-96,432	-0,140	-0,025
245,844	600,320	-0,153	-0,263
246,859	1,018	-0,188	-0,093
247,874	-123,505	-0,247	0,027
248,888	14,969	-0,212	-0,114
249,903	20,739	-0,176	-0,098
250,917	-75,513	-0,156	0,038
251,932	-37,850	-0,163	-0,059
252,947	47,498	-0,081	0,052
253,961	168,071	-0,256	-0,252
254,976	73,385	-0,243	-0,175
255,990	48,963	-0,229	-0,148
257,005	38,197	-0,161	-0,099
258,020	22,965	-0,109	-0,062
259,034	342,196	-0,074	0,100
260,049	64,676	-0,165	-0,115
261,063	45,226	-0,135	-0,086
262,078	30,651	-0,181	-0,107
263,093	263,291	-0,145	-0,174
264,107	184,083	-0,064	-0,066
265,122	-200,000	-0,017	-0,080
266,136	-45,783	-0,154	-0,052
267,151	122,859	-0,144	-0,125
268,166	144,523	-0,187	-0,172
269,180	544,990	-0,156	-0,258
270,195	62,161	-0,235	-0,161
271,209	-11,175	-0,180	-0,082
272,224	322,582	-0,160	-0,211
273,239	125,657	-0,117	-0,102
274,253	46,789	-0,135	-0,086
275,268	-135,601	-0,081	-0,007
276,282	89,710	-0,158	-0,121
277,297	800,000	-0,151	-0,343
278,312	235,394	-0,183	-0,208
279,326	240,720	-0,073	-0,084
280,341	95,707	-0,144	-0,113
281,355	7,835	-0,192	-0,099
282,370	23,751	-0,090	-0,051
283,384	416,039	-0,076	-0,112
284,399	-200,000	-0,049	-0,153
285,414	33,444	-0,196	-0,117
286,428	55,517	-0,137	0,091
287,443	800,000	-0,104	-0,211
288,457	105,410	-0,105	-0,085
289,472	-200,000	-0,043	-0,174
290,487	121,288	-0,215	-0,184
291,501	720,255	-0,134	-0,246
292,516	359,302	-0,154	-0,212
293,530	198,991	-0,100	-0,106
294,545	-82,335	-0,203	0,045
295,560	93,859	-0,080	-0,062
296,574	-107,623	-0,239	-0,036
297,589	59,898	-0,242	-0,164
298,603	800,000	-0,062	-0,131
299,618	81,120	-0,135	-0,100
300,633	800,000	-0,094	-0,191
301,647	673,531	-0,079	-0,141
302,662	-53,404	-0,095	0,030
303,676	-34,269	-0,165	-0,062
304,691	738,857	-0,093	-0,172
305,706	-15,166	-0,184	-0,081
306,720	800,000	-0,092	-0,254
307,735	229,758	-0,149	-0,168
308,749	-60,625	-0,148	-0,043
309,764	800,000	-0,049	-0,148
310,779	-166,657	-0,160	0,004
311,793	27,718	-0,148	-0,085
312,808	39,730	-0,284	-0,174
313,822	224,723	-0,182	-0,202
314,837	30,761	-0,196	-0,115
315,852	-93,147	-0,122	-0,023
316,866	-120,393	-0,162	-0,019
317,881	-136,034	-0,078	-0,006
318,895	438,764	-0,069	-0,103
319,910	152,160	-0,225	-0,211
320,925	91,790	-0,083	-0,064
321,939	-88,635	-0,123	-0,025
322,954	800,000	-0,015	-0,036
323,968	-105,582	-0,083	-0,013
324,983	-103,022	-0,086	0,014
325,997	257,439	-0,103	-0,121
327,012	116,881	-0,120	-0,101
328,027	-5,859	-0,117	-0,055
329,041	313,895	-0,158	-0,204
330,056	157,331	-0,104	-0,098
331,070	292,146	-0,101	-0,126
332,085	428,507	-0,103	-0,153
333,100	487,603	-0,063	0,099
334,114	295,855	-0,132	-0,166
335,129	106,483	-0,156	-0,127
336,143	150,271	-0,159	-0,148
337,158	800,000	-0,054	-0,133
338,173	229,229	-0,064	0,072
339,187	-67,081	-0,096	-0,026
340,202	294,468	0,031	-0,039
341,216	-200,000	0,041	-0,158
342,231	387,404	-0,130	-0,185
343,246	502,071	-0,098	-0,155
344,260	-100,470	-0,184	0,031
345,275	41,590	-0,138	-0,085
346,289	14,562	-0,161	-0,086
347,304	-76,568	-0,117	-0,028
348,319	-200,000	0,026	-0,169
349,333	75,345	-0,062	-0,045
350,348	119,835	-0,114	-0,096
351,362	-59,626	-0,268	-0,078
352,377	-43,344	-0,133	0,046
353,392	-200,000	0,008	0,047
354,406	31,844	-0,110	0,065
355,421	206,153	1309,746	1395,897
356,435	158,538	1469,840	1396,393
