DTS Sentinel unit serial number:	SN410029Multiplexer serial number:	ORYXHardware model number:	OX2-SRSoftware version number:	ORYX F/W v4,00 Oryx Data Collector v3.7.2.0data status	okinstallation	B3 Nyhavnadifferential loss correction	single-endedforward channel	channel 1reverse channel	N/Adate	2023/11/29time	01:27:30forward acquisition time	300,00reverse acquisition time	0,00gamma	499,1914k internal	0,3212k external	0,3212temperature offset calibration	1,0000default loss term (dB/km)	0,3820temperature slope calibration	1,0000multiplexer offset coefficient	1,0000multiplexer slope coefficient	1,0000fibre end	0,00T internal ref (°C)	9,49T ext. ref 1 (°C)	-4,98T ext. ref 2 (°C)	-5,12length (m)	temperature (°C)	Stokes	anti-Stokes-744,400	800,000	-0,171	-0,411
-743,385	-200,000	-0,045	0,367
-742,371	-200,000	0,046	-0,230
-741,356	800,000	-0,072	0,218
-740,342	391,344	-0,187	-0,283
-739,327	-200,000	0,067	0,363
-738,312	-29,773	-0,200	-0,082
-737,298	800,000	-0,080	0,241
-736,283	271,906	-0,126	-0,162
-735,269	-200,000	0,032	0,325
-734,254	-70,887	-0,251	-0,068
-733,239	-88,002	-0,298	0,064
-732,225	710,749	-0,177	-0,341
-731,210	70,442	0,226	0,169
-730,196	2,455	-0,041	-0,021
-729,181	800,000	0,042	0,120
-728,167	-200,000	-0,001	-0,015
-727,152	16,502	-0,115	0,066
-726,137	-151,207	-0,111	-0,006
-725,123	-116,179	0,027	0,004
-724,108	-71,152	-0,220	-0,060
-723,094	-60,191	-0,052	-0,016
-722,079	125,402	0,136	-0,124
-721,064	28,222	-0,035	0,022
-720,050	10,836	-0,133	-0,073
-719,035	-1,962	-0,083	-0,042
-718,021	-168,785	0,099	-0,003
-717,006	-15,755	-0,064	-0,029
-715,991	33,669	-0,176	-0,111
-714,977	189,083	-0,038	-0,041
-713,962	-183,826	-0,031	0,000
-712,948	-85,760	-0,060	-0,013
-711,933	-200,000	0,013	0,179
-710,918	-41,133	-0,203	0,076
-709,904	-13,916	-0,160	-0,074
-708,889	399,216	-0,025	-0,038
-707,875	-124,491	0,057	-0,006
-706,860	800,000	0,016	0,044
-705,845	5,651	-0,145	-0,077
-704,831	99,297	0,043	-0,036
-703,816	-60,061	0,057	0,018
-702,802	-200,000	-0,034	-0,125
-701,787	266,587	-0,052	0,065
-700,772	800,000	-0,019	-0,049
-699,758	-131,149	-0,086	-0,008
-698,743	-200,000	0,014	0,080
-697,729	-200,000	0,004	-0,052
-696,714	-200,000	-0,006	0,070
-695,699	477,318	-0,073	-0,120
-694,685	-59,467	0,091	0,028
-693,670	-200,000	0,006	-0,089
-692,656	-101,789	-0,066	0,011
-691,641	270,547	0,095	-0,121
-690,627	800,000	-0,054	-0,145
-689,612	126,783	0,151	-0,138
-688,597	150,255	-0,064	0,063
-687,583	-132,186	-0,144	-0,013
-686,568	800,000	0,069	0,142
-685,554	800,000	-0,031	-0,088
-684,539	242,698	0,020	0,024
-683,524	124,458	-0,100	0,091
-682,510	17,812	-0,086	-0,049
-681,495	-142,857	-0,102	-0,007
-680,481	-39,111	-0,141	-0,053
-679,466	-200,000	0,000	-0,072
-678,451	464,405	-0,019	-0,031
-677,437	-200,000	-0,010	0,169
-676,422	530,886	0,062	0,107
-675,408	800,000	0,013	0,037
-674,393	800,000	-0,061	-0,149
-673,378	63,085	-0,123	-0,089
-672,364	-200,000	-0,019	-0,186
-671,349	227,642	0,024	-0,028
-670,335	800,000	-0,068	-0,144
-669,320	800,000	0,032	-0,096
-668,305	-53,735	0,065	0,021
-667,291	347,475	-0,077	-0,110
-666,276	679,345	-0,040	0,075
-665,262	-105,198	-0,132	0,022
-664,247	800,000	0,025	0,065
-663,232	98,346	-0,085	-0,070
-662,218	178,310	0,085	0,090
-661,203	-18,533	0,142	-0,064
-660,189	-200,000	0,002	0,012
-659,174	-42,618	-0,061	-0,022
-658,159	800,000	-0,053	-0,138
-657,145	15,332	-0,040	0,023
-656,130	-55,801	0,011	0,003
-655,116	176,846	0,110	-0,116
-654,101	-200,000	-0,000	0,002
-653,086	-99,699	-0,157	-0,028
-652,072	10,673	-0,132	-0,072
-651,057	-198,011	-0,062	0,000
-650,043	119,965	-0,092	0,082
-649,028	-200,000	0,005	0,068
-648,014	-200,000	-0,007	0,039
-646,999	-124,673	-0,071	0,008
-645,984	253,082	-0,028	-0,035
-644,970	39,268	0,190	-0,122
-643,955	-172,664	-0,152	-0,003
-642,941	-200,000	0,006	-0,098
-641,926	-55,926	-0,138	-0,044
-640,911	95,995	0,072	0,059
-639,897	382,227	0,007	-0,010
-638,882	-200,000	-0,003	-0,022
-637,868	-200,000	0,019	-0,067
-636,853	645,232	-0,068	0,126
-635,838	132,383	-0,090	-0,084
-634,824	-200,000	-0,013	-0,057
-633,809	530,329	0,094	-0,161
-632,795	800,000	0,010	-0,023
-631,780	229,506	0,032	0,037
-630,765	407,446	0,045	-0,069
-629,751	145,109	-0,129	-0,125
-628,736	-13,230	-0,122	-0,057
-627,722	800,000	0,040	0,120
-626,707	-200,000	0,009	0,054
-625,692	579,203	-0,034	-0,060
-624,678	153,578	0,044	0,044
-623,663	3,333	-0,053	-0,028
-622,649	-78,356	-0,180	-0,044
-621,634	65,018	0,033	-0,024
-620,619	-12,330	-0,042	-0,020
-619,605	-200,000	0,028	-0,101
-618,590	-150,896	-0,070	-0,004
-617,576	31,678	0,100	0,062
-616,561	-105,778	-0,092	-0,015
-615,546	130,375	0,019	-0,018
-614,532	65,172	-0,119	-0,087
-613,517	-105,547	0,191	-0,031
-612,503	668,590	0,046	-0,086
-611,488	320,640	0,032	0,044
-610,474	800,000	0,039	-0,121
-609,459	-7,501	0,095	0,046
-608,444	-47,916	-0,176	-0,061
-607,430	-200,000	0,002	-0,140
-606,415	124,084	-0,018	0,016
-605,401	-137,716	0,076	-0,006
-604,386	-200,000	-0,006	0,144
-603,371	-146,761	0,079	0,005
-602,357	-200,000	0,020	0,083
-601,342	48,214	-0,108	0,072
-600,328	297,325	-0,041	0,055
-599,313	126,566	0,057	-0,052
-598,298	283,972	-0,104	-0,135
-597,284	-200,000	0,016	-0,148
-596,269	800,000	-0,073	0,157
-595,255	38,853	-0,016	0,010
-594,240	17,398	-0,008	0,005
-593,225	-37,287	-0,075	0,029
-592,211	423,924	-0,084	-0,131
-591,196	800,000	-0,031	-0,064
-590,182	-157,440	-0,077	0,003
-589,167	267,246	0,038	0,048
-588,152	-200,000	-0,033	-0,114
-587,138	313,277	0,006	0,008
-586,123	-133,050	0,069	-0,006
-585,109	-200,000	-0,035	0,150
-584,094	-200,000	-0,004	-0,082
-583,079	97,761	0,133	-0,110
-582,065	-200,000	0,002	-0,092
-581,050	-8,242	0,151	0,073
-580,036	166,693	-0,071	-0,073
-579,021	-200,000	0,006	0,028
-578,006	72,210	0,018	-0,013
-576,992	-22,905	0,076	0,033
-575,977	168,717	0,026	-0,027
-574,963	607,492	-0,080	0,144
-573,948	800,000	-0,079	0,220
-572,934	575,923	0,081	-0,143
-571,919	800,000	0,013	0,031
-570,904	-77,525	-0,035	-0,009
-569,890	-10,623	-0,137	0,065
-568,875	266,012	-0,071	0,090
-567,861	-48,170	-0,059	0,020
-566,846	-137,657	-0,129	-0,010
-565,831	800,000	0,028	0,065
-564,817	-78,765	0,022	0,005
-563,802	198,831	0,062	-0,069
-562,788	261,933	0,009	0,012
-561,773	800,000	0,031	-0,072
-560,758	-173,015	-0,058	0,001
-559,744	58,956	0,103	0,072
-558,729	-200,000	0,008	0,047
-557,715	317,177	0,046	-0,063
-556,700	163,976	-0,124	-0,126
-555,685	414,789	0,045	-0,069
-554,671	-200,000	0,015	0,135
-553,656	98,877	-0,114	0,095
-552,642	742,873	-0,017	0,033
-551,627	-119,918	-0,236	0,029
-550,612	800,000	-0,050	0,100
-549,598	-60,117	0,087	0,027
-548,583	-200,000	-0,007	0,139
-547,569	322,982	-0,062	0,085
-546,554	279,163	-0,031	-0,040
-545,539	-4,037	0,132	-0,066
-544,525	800,000	-0,083	0,212
-543,510	752,826	-0,046	0,090
-542,496	93,819	-0,042	0,034
-541,481	-200,000	0,010	-0,035
-540,466	-200,000	0,028	-0,157
-539,452	9,558	0,150	0,082
-538,437	-200,000	0,002	0,115
-537,423	800,000	-0,041	0,122
-536,408	-200,000	-0,004	0,022
-535,393	216,650	-0,067	0,077
-534,379	74,197	0,033	-0,025
-533,364	36,155	-0,103	-0,065
-532,350	800,000	-0,036	-0,110
-531,335	-200,000	-0,007	0,036
-530,321	800,000	-0,036	0,103
-529,306	268,935	0,013	-0,016
-528,291	305,015	0,081	-0,108
-527,277	800,000	0,038	0,102
-526,262	800,000	0,011	-0,033
-525,248	31,970	0,013	-0,008
-524,233	42,042	0,103	-0,067
-523,218	13,942	-0,154	-0,086
-522,204	-58,600	0,093	-0,029
-521,189	5,012	-0,153	-0,081
-520,175	-133,176	-0,162	0,015
-519,160	-103,915	-0,010	-0,002
-518,145	-200,000	0,019	0,179
-517,131	-200,000	0,006	-0,083
-516,116	-64,858	-0,024	-0,007
-515,102	-200,000	0,008	0,032
-514,087	-171,641	-0,057	-0,001
-513,072	415,475	-0,033	0,050
-512,058	-200,000	-0,016	-0,073
-511,043	-113,863	0,072	0,010
-510,029	-52,008	-0,007	-0,002
-509,014	800,000	0,035	-0,093
-507,999	-74,641	0,042	0,011
-506,985	-28,188	0,129	0,053
-505,970	118,564	-0,025	0,022
-504,956	-200,000	-0,035	-0,146
-503,941	-118,381	-0,139	0,017
-502,926	-200,000	0,003	0,012
-501,912	-50,404	0,079	0,027
-500,897	800,000	-0,052	0,107
-499,883	-88,096	0,019	0,004
-498,868	596,153	-0,034	-0,061
-497,853	283,847	-0,024	-0,030
-496,839	800,000	0,048	0,107
-495,824	44,305	0,090	0,059
-494,810	102,710	-0,009	0,008
-493,795	800,000	-0,056	0,146
-492,781	-92,637	-0,080	-0,016
-491,766	488,700	-0,052	0,085
-490,751	800,000	-0,010	0,024
-489,737	-24,354	0,095	0,041
-488,722	49,957	-0,090	0,061
-487,708	-15,438	-0,098	0,045
-486,693	-200,000	0,002	0,113
-485,678	345,436	-0,022	-0,031
-484,664	91,025	-0,089	-0,072
-483,649	-200,000	0,003	-0,074
-482,635	733,748	0,017	-0,034
-481,620	800,000	-0,044	0,108
-480,605	-17,844	0,008	-0,004
-479,591	-54,112	0,118	0,038
-478,576	-200,000	-0,013	-0,135
-477,562	800,000	-0,062	-0,160
-476,547	196,741	-0,090	-0,098
-475,532	411,256	0,052	0,080
-474,518	293,839	-0,051	0,067
-473,503	800,000	-0,028	-0,068
-472,489	-76,498	0,139	0,035
-471,474	-200,000	-0,010	-0,084
-470,459	633,997	0,012	0,021
-469,445	155,445	-0,026	-0,026
-468,430	-200,000	-0,009	-0,056
-467,416	128,089	0,113	-0,103
-466,401	-56,672	0,081	-0,026
-465,386	13,839	-0,087	0,048
-464,372	800,000	0,043	0,120
-463,357	371,481	0,040	-0,059
-462,343	800,000	-0,018	-0,036
-461,328	299,288	-0,104	-0,137
-460,313	-63,521	-0,122	0,036
-459,299	-110,418	0,049	0,007
-458,284	-200,000	0,046	0,147
-457,270	-48,703	-0,128	0,044
-456,255	-200,000	0,019	0,105
-455,241	-171,711	-0,031	0,001
-454,226	-88,809	-0,043	0,009
-453,211	-200,000	-0,022	-0,088
-452,197	277,301	0,042	0,053
-451,182	230,185	0,190	0,223
-450,168	193,579	-0,092	-0,099
-449,153	800,000	0,024	-0,073
-448,138	337,567	0,082	-0,115
-447,124	-82,572	-0,077	0,018
-446,109	-60,852	-0,050	0,015
-445,095	-129,771	0,127	0,012
-444,080	800,000	-0,009	-0,028
-443,065	68,580	0,059	-0,043
-442,051	-18,792	-0,065	0,029
-441,036	800,000	0,022	-0,056
-440,022	100,588	0,045	-0,038
-439,007	140,198	0,080	-0,075
-437,992	140,976	0,030	0,028
-436,978	-64,955	0,171	-0,049
-435,963	-200,000	0,003	0,010
-434,949	535,422	0,040	-0,069
-433,934	-200,000	-0,009	0,049
-432,919	-153,030	0,171	0,008
-431,905	103,447	0,006	0,005
-430,890	-200,000	0,010	0,082
-429,876	165,268	0,108	0,110
-428,861	69,450	-0,119	-0,087
-427,846	11,186	-0,077	-0,042
-426,832	577,558	-0,056	0,098
-425,817	92,006	0,024	-0,019
-424,803	-200,000	-0,022	0,074
-423,788	-146,269	-0,048	0,003
-422,773	-200,000	0,039	0,217
-421,759	800,000	0,012	0,030
-420,744	-123,520	0,067	-0,007
-419,730	20,402	-0,157	-0,091
-418,715	192,549	0,026	-0,028
-417,701	-57,927	-0,089	0,028
-416,686	-200,000	0,019	-0,077
-415,671	-200,000	-0,024	0,131
-414,657	162,887	0,012	-0,012
-413,642	176,167	-0,093	-0,097
-412,628	196,429	-0,012	0,013
-411,613	800,000	0,011	-0,023
-410,598	-41,519	0,059	0,021
-409,584	683,559	0,075	0,140
-408,569	239,103	0,058	-0,069
-407,555	222,647	0,089	0,102
-406,540	-80,819	0,066	0,016
-405,525	-129,211	0,048	-0,005
-404,511	473,556	-0,058	-0,094
-403,496	-39,472	0,131	-0,049
-402,482	-200,000	-0,002	0,121
-401,467	5,080	0,065	-0,034
-400,452	80,060	-0,041	-0,031
-399,438	194,641	0,119	-0,129
-398,423	-56,440	-0,013	0,004
-397,409	63,301	-0,020	-0,015
-396,394	-50,819	-0,137	0,046
-395,379	800,000	-0,017	0,047
-394,365	800,000	-0,067	-0,141
-393,350	-65,793	0,119	0,034
-392,336	92,649	0,059	0,048
-391,321	800,000	-0,041	0,097
-390,306	-57,269	0,069	-0,022
-389,292	-108,896	-0,060	-0,009
-388,277	522,817	-0,066	0,111
-387,263	-200,000	-0,010	-0,051
-386,248	-200,000	0,024	0,178
-385,233	39,931	-0,023	0,015
-384,219	14,787	-0,138	0,077
-383,204	-13,686	-0,044	-0,020
-382,190	800,000	0,024	-0,050
-381,175	441,399	-0,054	-0,085
-380,160	-200,000	-0,023	-0,107
-379,146	284,017	0,077	0,100
-378,131	800,000	0,045	0,120
-377,117	370,039	0,105	0,153
-376,102	661,577	0,032	-0,058
-375,088	-70,375	-0,146	-0,039
-374,073	800,000	0,045	0,102
-373,058	-108,025	0,123	-0,019
-372,044	-200,000	0,014	0,064
-371,029	-27,910	0,140	-0,058
-370,015	-200,000	0,002	0,031
-369,000	84,347	-0,002	-0,002
-367,985	60,240	-0,165	-0,117
-366,971	208,718	-0,059	-0,067
-365,956	-11,263	0,084	0,039
-364,942	-18,194	0,112	-0,050
-363,927	81,263	0,039	-0,030
-362,912	118,655	-0,053	-0,047
-361,898	-200,000	0,013	0,121
-360,883	-200,000	0,001	0,046
-359,869	800,000	-0,008	-0,023
-358,854	154,123	0,034	-0,034
-357,839	-2,581	0,069	0,035
-356,825	-74,390	0,082	-0,021
-355,810	148,038	0,068	0,066
-354,796	257,388	-0,048	0,059
-353,781	800,000	0,048	0,147
-352,766	-159,145	-0,086	0,003
-351,752	800,000	0,042	-0,104
-350,737	-63,306	0,097	-0,028
-349,723	37,668	0,122	0,077
-348,708	-200,000	0,068	-0,224
-347,693	-24,840	-0,165	0,070
-346,679	184,717	-0,058	-0,061
-345,664	-59,046	0,099	0,030
-344,650	319,302	-0,040	0,055
-343,635	177,561	0,089	-0,093
-342,620	47,267	-0,075	0,049
-341,606	413,719	0,080	0,122
-340,591	-137,555	0,217	0,017
-339,577	94,055	0,048	-0,039
-338,562	10,936	-0,045	-0,024
-337,548	403,282	-0,017	-0,026
-336,533	-200,000	0,004	-0,089
-335,518	800,000	0,020	0,053
-334,504	-200,000	-0,009	0,073
-333,489	800,000	-0,021	0,043
-332,475	134,069	-0,013	-0,012
-331,460	800,000	-0,028	0,059
-330,445	-45,502	-0,036	-0,012
-329,431	117,365	-0,158	-0,138
-328,416	800,000	0,095	0,192
-327,402	-200,000	-0,027	0,140
-326,387	-200,000	0,006	-0,135
-325,372	800,000	-0,056	-0,141
-324,358	481,709	-0,047	-0,076
-323,343	134,836	-0,034	-0,031
-322,329	67,720	-0,042	0,030
-321,314	-200,000	-0,003	-0,046
-320,299	-200,000	-0,009	-0,028
-319,285	-200,000	0,016	0,109
-318,270	527,773	0,014	-0,023
-317,256	-200,000	0,016	0,054
-316,241	-26,266	0,211	0,088
-315,226	-200,000	-0,006	-0,077
-314,212	-102,872	0,137	0,023
-313,197	-37,060	0,113	-0,043
-312,183	62,812	0,065	0,046
-311,168	800,000	0,020	-0,041
-310,153	-200,000	-0,001	-0,011
-309,139	-200,000	-0,007	-0,045
-308,124	-93,930	0,136	0,026
-307,110	800,000	0,037	0,081
-306,095	800,000	-0,010	-0,027
-305,080	800,000	0,018	0,044
-304,066	-200,000	-0,029	0,118
-303,051	800,000	0,021	-0,043
-302,037	18,721	0,111	-0,063
-301,022	-200,000	-0,010	-0,203
-300,008	-136,464	0,064	-0,005
-298,993	124,916	0,186	0,167
-297,978	-11,794	0,136	-0,064
-296,964	-51,727	-0,013	0,004
-295,949	-53,350	-0,179	0,058
-294,935	-166,196	-0,089	-0,003
-293,920	38,819	0,055	-0,035
-292,905	111,105	0,132	0,113
-291,891	307,432	0,015	-0,020
-290,876	451,710	-0,077	0,121
-289,862	-196,203	0,076	0,000
-288,847	586,137	0,112	-0,197
-287,832	-85,577	-0,053	0,012
-286,818	74,035	-0,150	0,112
-285,803	-200,000	-0,017	-0,066
-284,789	-200,000	-0,000	-0,025
-283,774	16,428	0,112	0,063
-282,759	186,824	-0,058	0,062
-281,745	-134,298	-0,168	-0,015
-280,730	354,501	0,033	-0,047
-279,716	-128,819	-0,028	-0,003
-278,701	800,000	-0,021	-0,060
-277,686	-160,464	-0,053	0,002
-276,672	122,518	-0,127	0,113
-275,657	-109,083	-0,137	0,021
-274,643	-200,000	-0,018	-0,127
-273,628	-66,626	-0,085	0,024
-272,613	-41,466	-0,071	-0,026
-271,599	57,202	0,054	-0,037
-270,584	354,090	-0,032	0,045
-269,570	43,049	-0,027	-0,018
-268,555	-200,000	-0,014	0,059
-267,540	-200,000	-0,015	0,061
-266,526	-73,578	-0,038	0,010
-265,511	-200,000	-0,023	0,088
-264,497	5,362	-0,021	0,011
-263,482	174,014	-0,070	0,072
-262,467	110,081	0,069	0,059
-261,453	59,798	0,036	0,025
-260,438	-97,881	-0,054	0,010
-259,424	102,871	-0,059	0,049
-258,409	549,015	-0,073	-0,125
-257,395	-90,486	0,160	-0,033
-256,380	-200,000	0,012	0,043
-255,365	17,191	0,122	0,069
-254,351	276,631	-0,050	0,064
-253,336	91,099	-0,065	-0,052
-252,322	800,000	0,010	-0,028
-251,307	800,000	0,035	0,084
-250,292	-119,884	-0,035	0,004
-249,278	800,000	0,021	0,046
-248,263	9,770	-0,030	0,016
-247,249	-200,000	0,010	0,103
-246,234	800,000	0,026	0,076
-245,219	-150,262	-0,063	0,003
-244,205	-116,403	0,049	-0,006
-243,190	150,672	-0,110	-0,107
-242,176	-139,360	0,077	0,006
-241,161	-110,150	0,104	-0,015
-240,146	-164,420	-0,137	-0,004
-239,132	18,185	-0,043	0,024
-238,117	380,837	-0,058	-0,084
-237,103	21,351	0,021	-0,012
-236,088	800,000	-0,100	-0,202
-235,073	63,705	-0,084	0,060
-234,059	-200,000	0,017	0,080
-233,044	800,000	0,031	-0,064
-232,030	-200,000	-0,005	-0,194
-231,015	117,672	0,046	0,040
-230,000	800,000	-0,069	-0,165
-228,986	183,989	0,049	-0,051
-227,971	51,615	-0,101	0,068
-226,957	-200,000	0,021	0,066
-225,942	-200,000	0,004	0,048
-224,927	-200,000	0,010	0,057
-223,913	629,375	-0,106	-0,191
-222,898	137,951	-0,039	0,036
-221,884	-0,494	-0,129	0,065
-220,869	-85,965	0,091	-0,020
-219,855	143,808	0,096	0,091
-218,840	-200,000	0,014	-0,077
-217,825	-200,000	0,019	0,078
-216,811	23,072	0,092	-0,053
-215,796	84,460	-0,119	-0,092
-214,782	-200,000	0,007	-0,189
-213,767	135,859	-0,034	0,031
-212,752	174,360	0,061	0,063
-211,738	221,126	0,044	-0,050
-210,723	256,113	0,016	0,019
-209,709	-46,010	0,057	-0,020
-208,694	698,642	-0,037	-0,070
-207,679	-140,374	-0,090	0,007
-206,665	248,447	0,007	-0,009
-205,650	-200,000	0,002	0,010
-204,636	513,975	0,097	-0,161
-203,621	109,985	-0,057	-0,049
-202,606	-113,652	-0,088	0,012
-201,592	449,647	0,088	-0,138
-200,577	-200,000	0,001	-0,130
-199,563	26,437	-0,055	0,032
-198,548	203,647	0,095	0,104
-197,533	-137,588	-0,072	0,006
-196,519	-88,362	0,076	-0,016
-195,504	800,000	0,054	-0,120
-194,490	-200,000	0,033	0,113
-193,475	-200,000	-0,027	-0,145
-192,460	-200,000	0,020	-0,135
-191,446	124,355	0,031	0,028
-190,431	248,228	0,020	0,024
-189,417	-53,373	0,199	0,064
-188,402	-117,764	-0,102	-0,013
-187,387	-200,000	0,022	-0,135
-186,373	247,042	0,027	-0,033
-185,358	102,055	-0,039	0,032
-184,344	10,532	-0,023	-0,012
-183,329	-111,719	0,158	-0,022
-182,315	-105,070	0,087	-0,014
-181,300	48,964	-0,097	-0,065
-180,285	-9,816	-0,064	0,030
-179,271	-200,000	0,026	-0,100
-178,256	82,067	0,103	0,079
-177,242	523,422	-0,059	-0,099
-176,227	205,448	-0,029	0,032
-175,212	293,041	0,099	0,129
-174,198	53,747	-0,060	-0,041
-173,183	800,000	-0,023	0,062
-172,169	-101,774	0,050	0,009
-171,154	-200,000	0,008	-0,054
-170,139	-20,187	0,050	-0,022
-169,125	-13,094	0,053	0,024
-168,110	-200,000	0,005	0,041
-167,096	83,619	0,139	-0,107
-166,081	-200,000	-0,004	0,041
-165,066	-83,472	-0,077	-0,017
-164,052	800,000	-0,049	-0,145
-163,037	-200,000	-0,011	0,078
-162,023	-200,000	-0,005	0,028
-161,008	-200,000	-0,009	0,085
-159,993	294,459	0,062	0,081
-158,979	616,286	0,033	-0,059
-157,964	-118,742	0,066	-0,008
-156,950	220,805	-0,053	0,061
-155,935	567,968	-0,022	-0,039
-154,920	689,061	-0,040	0,075
-153,906	72,371	-0,033	0,024
-152,891	-200,000	-0,009	0,055
-151,877	495,120	-0,068	0,111
-150,862	722,348	-0,041	-0,077
-149,847	275,481	-0,082	0,104
-148,833	-63,818	0,073	-0,021
-147,818	-174,099	0,105	-0,002
-146,804	-200,000	-0,011	0,043
-145,789	-6,361	0,145	0,070
-144,775	-200,000	-0,005	-0,035
-143,760	-200,000	-0,020	-0,082
-142,745	-40,541	0,081	-0,030
-141,731	800,000	-0,019	0,046
-140,716	-200,000	0,004	0,028
-139,702	-200,000	0,047	0,188
-138,687	194,534	-0,035	0,038
-137,672	374,236	0,045	0,065
-136,658	599,820	-0,071	0,125
-135,643	325,539	-0,013	-0,018
-134,629	-200,000	0,023	0,120
-133,614	282,216	0,067	-0,086
-132,599	21,246	0,094	-0,054
-131,585	-14,577	0,024	-0,011
-130,570	369,831	-0,077	0,111
-129,556	-43,943	-0,096	-0,034
-128,541	34,395	-0,093	-0,057
-127,526	106,055	0,051	-0,043
-126,512	-22,092	-0,019	0,008
-125,497	410,359	0,043	0,064
-124,483	-106,372	0,182	-0,028
-123,468	-114,750	-0,028	-0,004
-122,453	-200,000	0,005	0,065
-121,439	165,323	-0,112	0,112
-120,424	-107,552	-0,116	-0,018
-119,410	470,388	0,051	-0,081
-118,395	727,292	0,020	0,037
-117,380	800,000	-0,024	0,053
-116,366	-107,691	0,035	-0,005
-115,351	1,779	-0,105	0,053
-114,337	376,173	0,014	0,021
-113,322	-200,000	-0,027	-0,091
-112,307	-38,538	0,071	-0,026
-111,293	-130,573	0,109	0,010
-110,278	601,908	0,035	-0,062
-109,264	-152,480	0,092	0,005
-108,249	238,439	-0,037	-0,043
-107,234	11,129	0,047	-0,025
-106,220	56,945	-0,057	0,039
-105,205	36,924	0,163	0,102
-104,191	-13,088	0,118	-0,054
-103,176	309,327	-0,041	0,054
-102,162	760,639	-0,073	-0,140
-101,147	-42,474	-0,073	0,026
-100,132	234,574	-0,026	-0,030
-99,118	800,000	-0,026	-0,065
-98,103	-54,101	0,158	0,050
-97,089	155,913	0,023	-0,022
-96,074	-200,000	-0,028	0,096
-95,059	273,267	0,069	-0,087
-94,045	-66,381	0,089	0,025
-93,030	55,473	-0,113	0,077
-92,016	-200,000	0,002	-0,119
-91,001	-50,619	-0,033	-0,011
-89,986	-65,091	0,059	0,017
-88,972	-200,000	-0,011	-0,100
-87,957	-200,000	0,012	0,060
-86,943	800,000	-0,013	-0,026
-85,928	168,617	-0,030	-0,030
-84,913	162,487	-0,082	-0,081
-83,899	103,761	-0,033	0,028
-82,884	-200,000	0,005	0,136
-81,870	800,000	-0,059	0,131
-80,855	51,835	0,080	-0,053
-79,840	180,244	0,063	-0,066
-78,826	-108,277	-0,058	0,009
-77,811	619,563	0,092	0,164
-76,797	-200,000	-0,099	-0,000
-75,782	-137,273	-0,013	0,001
-74,767	280,317	-0,071	0,090
-73,753	800,000	0,031	0,095
-72,738	-6,364	0,052	0,025
-71,724	111,019	0,046	-0,039
-70,709	313,945	-0,102	-0,136
-69,694	800,000	-0,048	-0,106
-68,680	84,183	0,041	-0,031
-67,665	800,000	0,040	0,084
-66,651	125,173	-0,091	0,081
-65,636	-66,570	0,100	-0,028
-64,622	-112,352	-0,118	-0,016
-63,607	116,201	-0,070	-0,061
-62,592	-142,740	-0,133	0,009
-61,578	489,886	0,124	0,201
-60,563	128,912	0,046	0,042
-59,549	-200,000	0,005	0,064
-58,534	47,819	-2,074	-1,364
-57,519	549,223	-1,193	-2,026
-56,505	-200,000	-0,397	-4,466
-55,490	684,779	0,901	1,666
-54,476	800,000	5,165	11,139
-53,461	-200,000	21,590	342,821
-52,446	800,000	762,905	2345,530
-51,432	548,692	1661,240	2818,644
-50,417	71,655	1657,402	1213,560
-49,403	17,313	1530,921	854,943
-48,388	11,351	1454,840	783,684
-47,373	19,346	1446,512	817,449
-46,359	14,836	1435,504	789,800
-45,344	9,613	1431,432	762,717
-44,330	9,594	1429,380	761,501
-43,315	9,541	1427,624	760,281
-42,300	9,559	1425,856	759,397
-41,286	9,557	1424,738	758,761
-40,271	9,546	1423,442	757,991
-39,257	9,537	1422,348	757,336
-38,242	9,551	1421,142	756,730
-37,227	9,563	1420,126	756,213
-36,213	9,574	1418,643	755,447
-35,198	9,563	1417,631	754,824
-34,184	9,609	1416,883	754,615
-33,169	9,531	1415,272	753,358
-32,154	9,583	1414,242	753,026
-31,140	9,628	1412,910	752,496
-30,125	9,608	1412,006	751,890
-29,111	9,613	1410,896	751,297
-28,096	9,562	1409,437	750,247
-27,082	9,525	1408,253	749,418
-26,067	9,485	1407,379	748,733
-25,052	9,547	1406,443	748,495
-24,038	9,557	1405,340	747,927
-23,023	9,548	1404,363	747,333
-22,009	9,528	1403,273	746,633
-20,994	9,484	1402,348	745,906
-19,979	9,532	1401,387	745,588
-18,965	9,502	1400,409	744,898
-17,950	9,457	1399,637	744,247
-16,936	9,506	1398,757	743,980
-15,921	9,429	1397,737	743,050
-14,906	9,438	1396,853	742,593
-13,892	9,516	1395,799	742,363
-12,877	9,450	1394,978	741,591
-11,863	9,445	1394,280	741,169
-10,848	9,402	1393,346	740,444
-9,833	9,396	1392,329	739,845
-8,819	9,334	1391,773	739,232
-7,804	9,331	1390,556	738,545
-6,790	9,286	1389,595	737,798
-5,775	9,311	1388,599	737,352
-4,760	9,294	1387,746	736,791
-3,746	9,392	1386,568	736,589
-2,731	9,367	1385,781	736,027
-1,717	9,313	1385,024	735,348
-0,702	9,348	1383,151	734,486
0,313	13,365	1295,848	706,451
1,327	29,514	686,803	410,861
2,342	45,671	118,578	77,113
3,356	0,763	16,550	8,325
4,371	1,102	3,562	1,796
5,386	41,588	1,115	0,710
6,400	800,000	0,230	0,553
7,415	-6,003	-0,197	-0,095
8,429	102,834	-0,257	-0,212
9,444	35,370	-0,371	-0,229
10,459	98,991	-0,265	-0,215
11,473	-5,103	-0,349	-0,169
12,488	148,327	-0,171	-0,162
13,502	-18,747	-0,337	-0,147
14,517	209,728	-0,278	-0,307
15,531	38,463	-0,313	-0,196
16,546	-96,979	-0,454	-0,083
17,561	51,570	-0,330	-0,221
18,575	-132,984	-0,357	-0,031
19,590	-12,308	-0,278	-0,128
20,604	44,108	-0,205	-0,132
21,619	180,749	-0,406	-0,420
22,634	-3,011	-0,524	-0,256
23,648	114,393	-0,486	-0,417
24,663	21,380	-0,378	-0,216
25,677	70,316	-0,294	-0,214
26,692	77,594	-0,338	-0,253
27,707	187,237	-0,307	-0,322
28,721	226,417	-0,305	-0,348
29,736	-31,278	-0,376	-0,148
30,750	207,263	-0,390	-0,428
31,765	190,717	-0,278	-0,294
32,780	-13,587	-0,357	-0,162
33,794	96,971	-0,309	-0,249
34,809	-11,215	-0,400	-0,184
35,823	105,588	-0,307	-0,255
36,838	45,652	-0,503	-0,326
37,853	76,614	-0,299	-0,222
38,867	108,777	-0,453	-0,381
39,882	150,899	-0,280	-0,268
40,896	-1,302	-0,410	-0,203
41,911	2,705	-0,250	-0,127
42,926	72,820	-0,311	-0,228
43,940	52,818	-0,351	-0,235
44,955	90,116	-0,325	-0,255
45,969	120,917	-0,344	-0,300
46,984	339,143	-0,181	-0,248
47,999	54,966	-0,329	-0,223
49,013	9,102	-0,322	-0,170
50,028	24,452	-0,306	-0,177
51,042	10,154	-0,283	-0,151
52,057	7,957	-0,394	-0,207
53,071	31,705	-0,295	-0,178
54,086	29,733	-0,405	-0,242
55,101	49,656	-0,294	-0,194
56,115	87,272	-0,348	-0,270
57,130	-35,087	-0,423	-0,161
58,144	-35,364	-0,461	-0,175
59,159	202,132	-0,258	-0,280
60,174	11,168	-0,282	-0,151
61,188	106,061	-0,242	-0,201
62,203	-50,064	-0,307	-0,101
63,217	156,571	-0,298	-0,288
64,232	-29,025	-0,220	-0,088
65,247	70,003	-0,217	-0,157
66,261	60,732	-0,430	-0,298
67,276	-69,278	-0,276	-0,074
68,290	29,725	-0,374	-0,223
69,305	-34,236	-0,280	-0,107
70,320	-101,901	-0,380	-0,064
71,334	76,556	-0,254	-0,189
72,349	-85,081	-0,382	-0,083
73,363	63,967	-0,362	-0,255
74,378	143,410	-0,311	-0,291
75,393	172,344	-0,273	-0,275
76,407	220,813	-0,161	-0,182
77,422	148,810	-0,215	-0,204
78,436	-12,873	-0,315	-0,143
79,451	105,821	-0,252	-0,209
80,466	49,291	-0,313	-0,206
81,480	-101,903	-0,392	-0,066
82,495	15,192	-0,281	-0,154
83,509	-48,461	-0,355	-0,119
84,524	63,612	-0,226	-0,158
85,539	4,870	-0,355	-0,182
86,553	-24,660	-0,369	-0,153
87,568	-20,091	-0,318	-0,136
88,582	48,271	-0,329	-0,215
89,597	162,755	-0,291	-0,286
90,611	106,344	-0,277	-0,230
91,626	319,209	-0,196	-0,261
92,641	52,857	-0,214	-0,143
93,655	-60,861	-0,325	-0,096
94,670	176,951	-0,306	-0,312
95,684	29,509	-0,253	-0,150
96,699	236,577	-0,170	-0,197
97,714	118,397	-0,264	-0,228
98,728	-3,296	-0,115	-0,056
99,743	-128,725	-0,339	-0,033
100,757	59,069	-0,211	-0,145
101,772	36,862	-0,296	-0,182
102,787	5,666	-0,277	-0,143
103,801	76,696	-0,349	-0,259
104,816	-56,405	-0,293	-0,090
105,830	79,926	-0,142	-0,107
106,845	117,519	-0,169	-0,145
107,860	-7,364	-0,192	-0,091
108,874	-116,260	-0,269	-0,034
109,889	122,327	-0,251	-0,219
110,903	296,408	-0,201	-0,257
111,918	193,877	-0,215	-0,228
112,933	334,570	-0,110	-0,149
113,947	40,323	-0,286	-0,179
114,962	119,445	-0,250	-0,216
115,976	285,556	-0,233	-0,294
116,991	-58,338	-0,313	-0,094
118,006	220,513	-0,181	-0,203
119,020	175,836	-0,281	-0,284
120,035	41,305	-0,210	-0,132
121,049	31,568	-0,298	-0,179
122,064	-27,068	-0,172	-0,070
123,079	259,145	-0,119	-0,143
124,093	84,560	-0,286	-0,218
125,108	121,588	-0,289	-0,252
126,122	294,838	-0,102	-0,130
127,137	104,386	-0,179	-0,147
128,151	77,101	-0,238	-0,176
129,166	87,240	-0,174	-0,134
130,181	72,132	-0,244	-0,177
131,195	125,598	-0,250	-0,220
132,210	279,765	-0,150	-0,187
133,224	209,001	-0,190	-0,208
134,239	42,117	-0,176	-0,111
135,254	-74,927	-0,240	-0,060
136,268	-1,879	-0,288	-0,141
137,283	514,728	-0,124	-0,202
138,297	-72,874	-0,246	-0,063
139,312	139,122	-0,269	-0,246
140,327	-75,237	-0,270	-0,067
141,341	34,984	-0,185	-0,113
142,356	31,653	-0,202	-0,121
143,370	-137,824	-0,146	0,011
144,385	-14,520	-0,412	-0,184
145,400	213,978	-0,291	-0,321
146,414	607,153	-0,196	-0,342
147,429	-63,537	-0,322	-0,091
148,443	343,319	-0,154	-0,211
149,458	265,673	-0,152	-0,185
150,473	111,668	-0,251	-0,211
151,487	59,035	-0,353	-0,241
152,502	151,705	-0,153	-0,145
153,516	-87,104	-0,182	-0,038
154,531	443,836	-0,206	-0,315
155,546	-167,428	-0,179	-0,005
156,560	163,792	-0,210	-0,206
157,575	165,283	-0,157	-0,154
158,589	-36,693	-0,240	-0,089
159,604	236,719	-0,265	-0,305
160,619	27,492	-0,225	-0,131
161,633	376,422	-0,165	-0,235
162,648	142,263	-0,270	-0,249
163,662	144,987	-0,258	-0,240
164,677	172,723	-0,207	-0,207
165,692	309,832	-0,147	-0,192
166,706	-70,533	-0,315	-0,082
167,721	-11,860	-0,392	-0,178
168,735	-121,421	-0,220	-0,025
169,750	204,689	-0,130	-0,140
170,764	-200,000	-0,044	-0,191
171,779	-100,651	-0,253	-0,043
172,794	-93,246	-0,299	-0,057
173,808	800,000	-0,080	-0,221
174,823	-54,667	-0,370	-0,115
175,837	-4,478	-0,173	-0,083
176,852	70,805	-0,261	-0,187
177,867	-53,181	-0,229	-0,072
178,881	51,881	-0,320	-0,211
179,896	182,539	-0,106	-0,109
180,910	225,055	-0,225	-0,254
181,925	-2,160	-0,107	-0,052
182,940	40,590	-0,174	-0,109
183,954	800,000	-0,157	-0,330
184,969	-33,342	-0,333	-0,127
185,983	-11,370	-0,187	-0,085
186,998	-46,945	-0,145	-0,049
188,013	-27,854	-0,163	0,065
189,027	95,130	-0,160	-0,126
190,042	156,069	-0,171	-0,164
191,056	68,754	-0,189	-0,135
192,071	-11,066	-0,117	0,053
193,086	15,922	-0,299	-0,163
194,100	-176,162	-0,277	0,005
195,115	41,229	-0,221	-0,138
196,129	123,038	-0,140	-0,121
197,144	-4,767	-0,211	-0,100
198,159	477,802	-0,147	-0,232
199,173	113,117	-0,110	-0,092
200,188	514,132	-0,082	-0,133
201,202	267,318	-0,125	-0,152
202,217	489,379	-0,113	-0,180
203,232	307,559	-0,175	-0,226
204,246	-86,468	-0,170	-0,036
205,261	394,802	-0,172	-0,249
206,275	800,000	-0,141	-0,297
207,290	96,544	-0,173	-0,137
208,304	800,000	-0,051	-0,107
209,319	-5,579	-0,207	-0,098
210,334	9,622	-0,186	-0,097
211,348	152,921	-0,229	-0,217
212,363	-83,338	-0,239	-0,053
213,377	-115,595	-0,185	-0,024
214,392	100,934	0,035	-0,028
215,407	-1,852	-0,137	0,066
216,421	18,557	-0,276	-0,152
217,436	133,872	-0,154	-0,138
218,450	506,797	-0,111	-0,179
219,465	106,488	-0,183	-0,150
220,480	475,546	-0,154	-0,241
221,494	33,304	-0,128	-0,077
222,509	-85,305	-0,224	-0,048
223,523	800,000	-0,109	-0,221
224,538	-200,000	-0,061	-0,195
225,553	470,006	-0,153	-0,238
226,567	75,104	-0,190	-0,138
227,582	-25,455	-0,213	-0,086
228,596	507,340	-0,070	-0,113
229,611	-76,810	-0,107	-0,026
230,626	-100,537	-0,256	-0,043
231,640	18,965	-0,318	-0,176
232,655	-12,175	-0,147	-0,066
233,669	36,841	-0,171	-0,104
234,684	-57,338	-0,179	0,054
235,699	-180,393	-0,236	-0,003
236,713	63,978	-0,078	-0,054
237,728	-17,236	-0,242	0,105
238,742	493,486	-0,127	-0,202
239,757	-30,458	-0,265	-0,103
240,772	31,863	-0,235	-0,139
241,786	-55,073	-0,242	-0,075
242,801	297,410	-0,241	-0,306
243,815	-25,335	-0,169	-0,069
244,830	-3,081	-0,176	-0,084
245,844	-200,000	-0,053	-0,200
246,859	-126,804	-0,238	-0,024
247,874	7,623	-0,297	-0,153
248,888	-77,288	-0,200	-0,048
249,903	41,126	-0,132	-0,082
250,917	10,373	-0,167	-0,087
251,932	-44,876	-0,144	-0,049
252,947	45,901	-0,148	-0,094
253,961	91,685	-0,185	-0,143
254,976	136,087	-0,103	-0,093
255,990	161,415	-0,124	-0,120
257,005	-35,802	-0,184	-0,068
258,020	-45,411	-0,190	-0,065
259,034	111,277	-0,059	-0,049
260,049	82,941	-0,203	-0,152
261,063	-86,971	-0,242	-0,050
262,078	8,561	-0,197	-0,102
263,093	487,668	-0,144	-0,227
264,107	250,050	-0,181	-0,212
265,122	-74,242	-0,210	-0,052
266,136	-172,425	-0,123	0,003
267,151	225,549	-0,169	-0,189
268,166	-148,354	-0,191	-0,011
269,180	203,298	-0,163	-0,174
270,195	220,359	-0,187	-0,207
271,209	-38,610	-0,132	-0,048
272,224	138,580	-0,129	-0,117
273,239	-71,135	-0,060	0,015
274,253	-41,239	-0,203	-0,072
275,268	34,373	-0,299	-0,179
276,282	14,008	-0,192	-0,103
277,297	681,456	-0,085	-0,153
278,312	66,170	-0,232	-0,162
279,326	800,000	-0,122	-0,285
280,341	800,000	-0,070	-0,151
281,355	-26,089	-0,194	0,078
282,370	-54,646	-0,116	0,036
283,384	145,026	-0,162	-0,149
284,399	800,000	-0,127	-0,242
285,414	-91,808	-0,203	-0,039
286,428	-79,792	-0,192	-0,044
287,443	94,062	-0,122	-0,095
288,457	256,665	-0,128	-0,151
289,472	13,104	-0,100	-0,053
290,487	1,855	-0,113	-0,056
291,501	-200,000	-0,122	-0,393
292,516	69,072	-0,240	-0,169
293,530	26,719	-0,166	-0,095
294,545	303,436	-0,067	-0,086
295,560	191,426	-0,086	-0,089
296,574	-7,504	-0,122	-0,056
297,589	-24,993	0,033	0,013
298,603	285,984	-0,159	-0,197
299,618	-22,096	-0,107	0,044
300,633	-54,605	-0,260	-0,080
301,647	-200,000	-0,010	-0,232
302,662	-200,000	-0,023	-0,112
303,676	109,612	-0,092	0,076
304,691	210,080	-0,141	-0,152
305,706	800,000	-0,134	-0,271
306,720	-23,982	-0,144	-0,059
307,735	-131,718	-0,219	-0,019
308,749	800,000	-0,064	-0,136
309,764	-126,102	-0,186	-0,019
310,779	-127,973	-0,215	-0,021
311,793	-99,970	-0,298	-0,050
312,808	418,691	-0,055	-0,081
313,822	800,000	-0,043	-0,107
314,837	153,042	-0,129	-0,121
315,852	116,073	-0,124	0,104
316,866	-102,509	-0,103	-0,017
317,881	291,988	-0,108	-0,135
318,895	800,000	-0,065	-0,147
319,910	213,082	0,056	-0,060
320,925	337,080	-0,184	-0,245
321,939	176,582	-0,145	-0,144
322,954	-100,623	-0,146	-0,024
323,968	800,000	-0,042	-0,097
324,983	73,110	-0,160	-0,114
325,997	-200,000	-0,008	-0,092
327,012	76,729	-0,215	-0,156
328,027	5,840	-0,081	0,041
329,041	71,460	-0,062	-0,044
330,056	32,295	-0,183	-0,108
331,070	-33,257	-0,143	-0,054
332,085	-56,737	-0,077	-0,023
333,100	175,728	-0,186	-0,185
334,114	800,000	-0,044	-0,091
335,129	-8,511	-0,142	-0,065
336,143	13,564	-0,213	-0,113
337,158	-139,175	-0,124	-0,009
338,173	364,666	0,073	0,101
339,187	35,848	-0,095	-0,057
340,202	90,767	-0,134	-0,103
341,216	496,156	-0,104	-0,164
342,231	20,948	-0,156	-0,086
343,246	-200,000	-0,055	-0,171
344,260	-200,000	0,004	-0,078
345,275	488,447	-0,044	-0,069
346,289	569,283	-0,089	-0,148
347,304	138,809	-0,200	-0,180
348,319	25,708	-0,191	-0,108
349,333	-200,000	0,025	-0,228
350,348	29,458	-0,199	-0,116
351,362	92,370	-0,083	-0,064
352,377	213,107	-0,154	-0,167
353,392	98,563	-0,173	-0,136
354,406	185,972	-0,080	-0,082
355,421	207,051	1306,921	1394,470
356,435	159,266	1466,662	1394,956
