DTS Sentinel unit serial number:	SN410029Multiplexer serial number:	ORYXHardware model number:	OX2-SRSoftware version number:	ORYX F/W v4,00 Oryx Data Collector v3.7.2.0data status	okinstallation	B3 Nyhavnadifferential loss correction	single-endedforward channel	channel 1reverse channel	N/Adate	2023/12/02time	16:32:30forward acquisition time	300,00reverse acquisition time	0,00gamma	499,1914k internal	0,3197k external	0,3197temperature offset calibration	1,0000default loss term (dB/km)	0,3820temperature slope calibration	1,0000multiplexer offset coefficient	1,0000multiplexer slope coefficient	1,0000fibre end	0,00T internal ref (°C)	14,21T ext. ref 1 (°C)	-1,33T ext. ref 2 (°C)	-1,33length (m)	temperature (°C)	Stokes	anti-Stokes-744,400	105,384	-0,236	-0,203
-743,385	-200,000	0,033	0,255
-742,371	459,816	-0,135	-0,219
-741,356	-200,000	0,089	0,396
-740,342	72,764	-0,202	-0,153
-739,327	-200,000	-0,033	0,327
-738,312	263,175	-0,231	-0,293
-737,298	-200,000	0,002	0,321
-736,283	85,102	-0,190	-0,152
-735,269	-200,000	0,056	0,252
-734,254	241,838	-0,165	-0,201
-733,239	38,447	-0,274	0,177
-732,225	-200,000	-0,078	-0,256
-731,210	-101,729	0,105	0,018
-730,196	238,522	0,094	-0,114
-729,181	-200,000	0,009	0,122
-728,167	389,071	-0,070	-0,105
-727,152	78,109	-0,041	-0,032
-726,137	-200,000	-0,031	0,131
-725,123	-200,000	-0,007	0,031
-724,108	-200,000	-0,012	-0,155
-723,094	-20,527	-0,125	-0,056
-722,079	82,636	0,039	0,031
-721,064	6,064	-0,067	-0,036
-720,050	-52,486	-0,065	0,022
-719,035	-35,452	0,175	0,069
-718,021	-31,160	-0,144	-0,059
-717,006	9,034	-0,150	-0,082
-715,991	33,411	-0,161	-0,102
-714,977	-200,000	-0,015	0,171
-713,962	-108,014	-0,072	0,011
-712,948	-200,000	0,001	-0,078
-711,933	-44,769	-0,072	-0,026
-710,918	722,603	0,034	-0,066
-709,904	-200,000	0,033	-0,159
-708,889	-123,852	0,045	0,005
-707,875	-165,981	0,088	-0,003
-706,860	37,744	-0,074	-0,048
-705,845	-67,256	-0,089	0,025
-704,831	800,000	0,034	0,086
-703,816	800,000	-0,019	0,058
-702,802	800,000	0,048	0,137
-701,787	143,766	-0,104	-0,101
-700,772	-200,000	-0,030	-0,181
-699,758	153,978	-0,065	-0,065
-698,743	-28,457	0,052	-0,022
-697,729	523,880	-0,061	-0,104
-696,714	346,806	-0,073	0,104
-695,699	48,267	-0,060	0,041
-694,685	-120,505	-0,108	0,013
-693,670	92,408	0,059	0,048
-692,656	-200,000	-0,014	0,101
-691,641	25,862	0,116	0,070
-690,627	-93,370	-0,094	-0,019
-689,612	-153,105	-0,114	0,006
-688,597	-107,074	-0,085	0,014
-687,583	727,165	-0,024	0,047
-686,568	86,805	-0,094	0,076
-685,554	-43,027	0,022	0,008
-684,539	-35,460	-0,128	-0,050
-683,524	-69,904	-0,042	0,012
-682,510	170,896	0,096	0,100
-681,495	-100,100	-0,162	-0,029
-680,481	-200,000	-0,021	-0,081
-679,466	-19,138	-0,115	-0,052
-678,451	-60,255	0,109	0,033
-677,437	113,628	-0,091	0,080
-676,422	-29,130	0,041	-0,017
-675,408	563,438	-0,067	-0,118
-674,393	-200,000	-0,011	0,155
-673,378	-95,941	-0,091	-0,017
-672,364	800,000	-0,048	-0,116
-671,349	-200,000	0,014	-0,094
-670,335	-182,787	-0,065	-0,001
-669,320	627,069	0,014	0,025
-668,305	-200,000	0,034	0,127
-667,291	-117,356	0,083	-0,011
-666,276	183,692	-0,074	0,080
-665,262	800,000	0,011	-0,035
-664,247	495,752	0,046	-0,077
-663,232	-199,342	-0,033	0,000
-662,218	78,738	0,074	0,057
-661,203	-76,407	-0,071	-0,018
-660,189	800,000	0,010	0,026
-659,174	-58,811	-0,098	0,031
-658,159	-139,306	-0,138	0,011
-657,145	148,537	0,127	-0,125
-656,130	-200,000	0,011	-0,129
-655,116	-14,040	0,127	-0,059
-654,101	371,603	0,032	0,047
-653,086	-200,000	-0,005	0,041
-652,072	-162,890	-0,082	0,003
-651,057	306,619	-0,010	0,013
-650,043	716,984	-0,075	-0,145
-649,028	237,624	0,016	-0,020
-648,014	372,808	0,014	0,021
-646,999	-200,000	-0,018	-0,085
-645,984	302,296	-0,052	0,070
-644,970	800,000	-0,019	0,057
-643,955	-118,587	0,025	0,003
-642,941	-64,772	-0,081	0,024
-641,926	334,207	-0,065	-0,092
-640,911	-200,000	0,030	0,147
-639,897	97,548	0,108	-0,090
-638,882	-100,435	-0,131	-0,023
-637,868	93,826	-0,090	-0,074
-636,853	5,125	0,117	-0,062
-635,838	800,000	-0,019	-0,049
-634,824	37,393	0,095	-0,061
-633,809	28,927	0,041	0,025
-632,795	73,869	0,087	-0,066
-631,780	-53,829	-0,148	0,049
-630,765	35,379	0,102	-0,065
-629,751	-74,302	-0,092	-0,024
-628,736	21,478	-0,023	-0,014
-627,722	-200,000	0,022	0,077
-626,707	800,000	-0,048	-0,140
-625,692	-200,000	-0,001	0,057
-624,678	58,605	-0,040	0,028
-623,663	-200,000	-0,037	0,230
-622,649	-200,000	0,019	0,101
-621,634	-70,343	0,114	-0,031
-620,619	-200,000	-0,005	-0,038
-619,605	-200,000	-0,017	-0,079
-618,590	311,562	0,040	-0,055
-617,576	382,372	0,041	-0,061
-616,561	68,647	-0,021	0,016
-615,546	65,632	-0,028	-0,021
-614,532	-200,000	-0,075	-0,255
-613,517	-200,000	0,024	-0,118
-612,503	343,341	0,070	-0,100
-611,488	353,653	-0,103	0,149
-610,474	-153,762	0,075	0,004
-609,459	-133,109	0,052	0,005
-608,444	-200,000	0,021	-0,127
-607,430	119,492	-0,120	-0,107
-606,415	-200,000	-0,008	-0,062
-605,401	408,621	0,057	0,087
-604,386	745,780	0,076	0,149
-603,371	-200,000	-0,010	-0,083
-602,357	129,551	-0,100	-0,092
-601,342	-40,340	-0,221	-0,083
-600,328	-83,754	-0,066	-0,015
-599,313	-200,000	-0,002	0,068
-598,298	-200,000	0,027	0,089
-597,284	29,717	0,078	0,048
-596,269	-101,458	-0,152	-0,027
-595,255	529,234	-0,071	-0,121
-594,240	24,156	-0,115	-0,069
-593,225	15,967	-0,158	-0,090
-592,211	-107,339	0,050	0,008
-591,196	-34,753	0,051	0,020
-590,182	-200,000	-0,014	-0,049
-589,167	-200,000	-0,021	0,069
-588,152	800,000	-0,039	-0,121
-587,138	37,029	-0,091	-0,058
-586,123	221,446	-0,068	-0,079
-585,109	536,140	0,041	-0,071
-584,094	141,742	0,068	-0,065
-583,079	-200,000	0,011	0,115
-582,065	-200,000	0,012	-0,050
-581,050	231,985	-0,074	0,088
-580,036	-200,000	-0,002	0,123
-579,021	242,678	-0,057	-0,069
-578,006	594,025	-0,066	-0,119
-576,992	800,000	-0,017	-0,040
-575,977	478,106	-0,066	0,109
-574,963	-200,000	0,048	0,229
-573,948	-200,000	-0,001	-0,025
-572,934	-145,574	0,151	0,010
-571,919	225,801	-0,060	-0,070
-570,904	-200,000	0,015	-0,084
-569,890	164,665	-0,064	-0,065
-568,875	800,000	0,075	0,191
-567,861	-200,000	0,012	0,266
-566,846	42,098	0,052	0,034
-565,831	149,694	0,153	-0,150
-564,817	108,921	-0,180	-0,156
-563,802	800,000	-0,028	-0,079
-562,788	59,772	-0,162	0,115
-561,773	334,449	-0,050	0,070
-560,758	-12,151	0,029	-0,014
-559,744	113,306	-0,134	0,117
-558,729	-94,590	0,152	0,030
-557,715	27,838	0,058	-0,035
-556,700	180,270	0,082	-0,087
-555,685	-200,000	-0,023	-0,076
-554,671	-149,434	0,067	0,004
-553,656	-88,131	-0,115	-0,025
-552,642	573,735	-0,040	0,071
-551,627	0,143	-0,045	-0,023
-550,612	-115,014	-0,009	-0,001
-549,598	68,077	-0,065	0,048
-548,583	800,000	0,009	0,022
-547,569	19,980	-0,134	0,078
-546,554	800,000	0,044	0,089
-545,539	4,454	0,162	0,086
-544,525	-200,000	-0,018	0,075
-543,510	21,379	-0,104	0,061
-542,496	-200,000	-0,019	-0,139
-541,481	-53,335	-0,086	-0,028
-540,466	225,103	-0,012	0,014
-539,452	33,026	0,058	0,036
-538,437	-200,000	-0,050	0,167
-537,423	-127,434	0,031	0,003
-536,408	-143,364	0,084	-0,006
-535,393	-56,713	-0,105	-0,033
-534,379	800,000	0,061	-0,130
-533,364	22,826	-0,061	-0,036
-532,350	800,000	-0,019	0,039
-531,335	248,719	0,040	0,049
-530,321	-200,000	0,000	-0,076
-529,306	800,000	0,030	0,077
-528,291	13,503	0,012	-0,007
-527,277	800,000	-0,049	-0,129
-526,262	-52,037	0,050	-0,017
-525,248	271,419	-0,094	0,120
-524,233	150,663	-0,039	0,038
-523,218	-200,000	0,016	-0,070
-522,204	-200,000	0,003	-0,020
-521,189	239,333	-0,111	-0,133
-520,175	202,655	0,045	-0,051
-519,160	144,591	0,109	-0,105
-518,145	-81,305	0,163	-0,038
-517,131	356,897	0,029	0,041
-516,116	108,489	0,067	0,058
-515,102	93,173	0,077	-0,062
-514,087	-200,000	-0,000	-0,116
-513,072	26,216	-0,051	-0,031
-512,058	-191,645	-0,058	-0,000
-511,043	-67,446	0,075	-0,021
-510,029	134,903	0,007	-0,007
-509,014	-101,559	-0,076	-0,013
-507,999	-200,000	-0,015	0,114
-506,985	800,000	-0,039	-0,105
-505,970	-109,494	-0,078	-0,012
-504,956	-50,210	0,054	-0,018
-503,941	800,000	-0,019	0,041
-502,926	204,732	-0,066	0,074
-501,912	800,000	-0,011	0,023
-500,897	-107,965	0,071	0,011
-499,883	4,060	0,115	0,061
-498,868	380,455	-0,033	0,049
-497,853	800,000	-0,063	-0,181
-496,839	-200,000	-0,013	-0,083
-495,824	800,000	-0,029	0,087
-494,810	67,907	0,035	0,025
-493,795	67,500	-0,094	-0,069
-492,781	436,612	0,015	-0,024
-491,766	-80,035	0,111	0,027
-490,751	-200,000	0,027	-0,109
-489,737	-200,000	0,052	-0,181
-488,722	-148,206	0,157	0,009
-487,708	-63,317	-0,101	0,030
-486,693	-200,000	0,005	0,027
-485,678	-175,195	-0,046	0,001
-484,664	69,589	0,023	-0,017
-483,649	209,995	-0,066	0,075
-482,635	-200,000	-0,014	0,063
-481,620	800,000	0,059	0,162
-480,605	224,688	0,100	0,116
-479,591	800,000	0,041	0,120
-478,576	114,772	-0,081	-0,072
-477,562	-200,000	-0,003	-0,125
-476,547	-152,200	-0,038	0,002
-475,532	-119,211	0,140	0,017
-474,518	-13,428	0,069	0,032
-473,503	-200,000	0,036	0,117
-472,489	-63,269	0,135	0,040
-471,474	371,501	-0,084	0,123
-470,459	18,509	-0,043	-0,025
-469,445	122,596	-0,114	-0,102
-468,430	800,000	-0,041	-0,092
-467,416	223,223	-0,070	0,082
-466,401	-148,793	0,138	0,008
-465,386	174,701	0,086	0,089
-464,372	63,966	-0,080	0,058
-463,357	18,519	-0,028	0,016
-462,343	-200,000	-0,005	0,022
-461,328	-200,000	0,027	0,094
-460,313	800,000	-0,021	-0,050
-459,299	-102,640	0,111	0,019
-458,284	498,024	0,002	-0,003
-457,270	134,587	0,155	0,145
-456,255	-64,875	-0,103	0,030
-455,241	-43,266	-0,094	-0,034
-454,226	11,674	-0,061	-0,033
-453,211	-28,816	0,056	0,023
-452,197	-90,410	0,140	0,029
-451,182	-74,141	0,028	0,007
-450,168	-28,327	-0,042	-0,017
-449,153	138,052	-0,114	-0,108
-448,138	-200,000	-0,036	0,138
-447,124	514,953	-0,076	-0,129
-446,109	800,000	0,029	0,086
-445,095	800,000	0,007	-0,016
-444,080	64,104	0,047	-0,034
-443,065	-148,058	-0,098	0,006
-442,051	-200,000	-0,001	0,006
-441,036	-24,400	0,043	0,018
-440,022	322,021	0,069	-0,095
-439,007	-5,903	-0,043	-0,021
-437,992	405,760	-0,014	0,021
-436,978	-119,268	0,171	0,021
-435,963	230,197	0,040	-0,047
-434,949	-200,000	0,002	0,013
-433,934	702,755	-0,031	0,060
-432,919	112,002	-0,064	-0,056
-431,905	-72,200	-0,134	-0,036
-430,890	-66,797	0,111	-0,031
-429,876	-200,000	0,014	-0,090
-428,861	800,000	0,080	0,173
-427,846	452,059	-0,055	0,088
-426,832	800,000	0,027	-0,064
-425,817	-31,898	-0,170	0,068
-424,803	-200,000	0,016	-0,137
-423,788	800,000	0,027	0,060
-422,773	-200,000	0,038	0,125
-421,759	152,535	0,021	0,021
-420,744	-200,000	-0,016	0,113
-419,730	6,948	0,131	0,070
-418,715	-200,000	-0,016	-0,086
-417,701	30,762	0,041	-0,025
-416,686	-37,352	0,159	-0,061
-415,671	153,135	0,025	-0,024
-414,657	134,374	-0,135	0,126
-413,642	800,000	-0,057	0,131
-412,628	295,855	-0,013	0,018
-411,613	-30,288	-0,049	-0,020
-410,598	184,486	-0,163	-0,174
-409,584	693,740	0,018	0,034
-408,569	-152,252	-0,083	0,004
-407,555	250,985	-0,024	-0,029
-406,540	-23,388	0,076	0,033
-405,525	-111,298	0,103	-0,015
-404,511	-200,000	-0,032	-0,105
-403,496	245,422	-0,029	-0,036
-402,482	-131,992	0,046	-0,004
-401,467	-70,157	0,159	0,043
-400,452	507,426	0,053	-0,089
-399,438	-53,214	-0,090	-0,029
-398,423	222,417	-0,060	0,070
-397,409	-200,000	-0,008	-0,098
-396,394	-107,684	-0,057	0,009
-395,379	50,376	-0,153	-0,104
-394,365	-9,198	0,062	-0,030
-393,350	159,779	0,063	0,063
-392,336	24,652	-0,100	0,059
-391,321	-200,000	-0,012	0,126
-390,306	50,931	0,052	0,036
-389,292	169,381	-0,048	0,049
-388,277	-84,569	-0,127	0,028
-387,263	-200,000	0,000	0,051
-386,248	-200,000	0,010	0,076
-385,233	-200,000	0,000	0,051
-384,219	800,000	0,006	0,014
-383,204	-200,000	-0,000	0,025
-382,190	558,097	-0,023	-0,040
-381,175	-200,000	0,020	0,074
-380,160	427,860	0,044	-0,069
-379,146	-84,779	-0,070	-0,016
-378,131	-98,652	0,198	-0,036
-377,117	160,626	-0,110	0,110
-376,102	-200,000	0,024	-0,185
-375,088	-200,000	-0,040	-0,135
-374,073	800,000	-0,049	-0,102
-373,058	25,577	0,059	-0,035
-372,044	-156,150	0,138	-0,006
-371,029	-200,000	-0,003	0,017
-370,015	-65,146	0,124	0,036
-369,000	-200,000	-0,011	0,079
-367,985	-128,173	-0,140	-0,014
-366,971	800,000	0,030	-0,082
-365,956	226,611	0,013	-0,016
-364,942	-73,627	-0,023	0,006
-363,927	4,762	-0,058	-0,031
-362,912	-119,355	-0,045	-0,005
-361,898	-200,000	-0,039	-0,159
-360,883	-14,132	-0,065	-0,030
-359,869	11,879	0,166	0,091
-358,854	-138,719	0,206	0,016
-357,839	-19,643	-0,129	0,057
-356,825	800,000	0,037	0,099
-355,810	209,658	0,045	-0,051
-354,796	316,493	-0,092	-0,125
-353,781	-133,640	-0,114	-0,010
-352,766	-200,000	-0,000	0,015
-351,752	-45,673	0,050	0,018
-350,737	800,000	0,030	0,092
-349,723	208,341	0,037	-0,041
-348,708	-200,000	-0,002	-0,010
-347,693	800,000	-0,031	0,063
-346,679	800,000	-0,043	-0,103
-345,664	-124,057	-0,048	-0,005
-344,650	-46,708	-0,052	0,018
-343,635	-27,066	0,104	-0,043
-342,620	800,000	0,018	-0,055
-341,606	173,793	-0,013	0,014
-340,591	-194,984	-0,145	0,001
-339,577	254,264	0,033	-0,040
-338,562	122,096	0,047	-0,042
-337,548	-135,446	-0,086	0,007
-336,533	-56,284	0,088	-0,028
-335,518	200,300	0,079	0,087
-334,504	-15,465	0,113	0,052
-333,489	127,888	-0,054	0,049
-332,475	-79,816	-0,120	0,029
-331,460	109,284	-0,044	0,038
-330,445	-200,000	-0,025	-0,130
-329,431	800,000	-0,034	0,097
-328,416	183,382	-0,022	-0,024
-327,402	1,121	0,071	-0,036
-326,387	-200,000	-0,004	0,144
-325,372	-12,363	-0,087	0,041
-324,358	-85,436	0,116	-0,026
-323,343	-121,847	0,140	0,016
-322,329	392,836	-0,006	-0,009
-321,314	-200,000	0,053	0,218
-320,299	-200,000	-0,003	0,227
-319,285	432,774	0,020	-0,032
-318,270	-2,734	-0,136	0,068
-317,256	-136,477	-0,075	-0,006
-316,241	-200,000	0,009	-0,201
-315,226	-19,620	-0,086	-0,038
-314,212	-129,946	0,041	0,004
-313,197	-200,000	0,011	0,053
-312,183	46,049	-0,046	-0,030
-311,168	-200,000	-0,008	0,089
-310,153	-66,313	-0,176	0,050
-309,139	-200,000	-0,008	-0,053
-308,124	-141,634	0,118	-0,008
-307,110	-200,000	0,012	0,103
-306,095	-130,669	0,115	0,011
-305,080	393,747	-0,058	-0,086
-304,066	-200,000	-0,034	-0,166
-303,051	-161,871	0,110	0,004
-302,037	800,000	-0,014	-0,033
-301,022	309,516	0,016	0,022
-300,008	-200,000	-0,003	-0,065
-298,993	396,727	0,075	0,113
-297,978	-200,000	0,022	0,145
-296,964	-200,000	-0,025	-0,089
-295,949	-135,313	0,111	0,009
-294,935	-106,725	-0,111	0,017
-293,920	146,092	-0,110	0,105
-292,905	-30,011	0,102	0,041
-291,891	-1,753	-0,022	0,011
-290,876	800,000	-0,011	-0,031
-289,862	-200,000	-0,002	-0,015
-288,847	141,535	-0,194	-0,184
-287,832	714,449	0,024	0,045
-286,818	-88,521	-0,059	0,013
-285,803	800,000	0,071	-0,165
-284,789	325,911	0,029	-0,040
-283,774	-33,834	0,123	-0,048
-282,759	-200,000	-0,003	0,083
-281,745	136,709	0,025	0,024
-280,730	278,742	-0,019	-0,024
-279,716	-88,457	0,127	-0,027
-278,701	-44,333	0,082	-0,029
-277,686	-200,000	0,005	0,126
-276,672	239,594	-0,096	-0,115
-275,657	800,000	-0,052	0,141
-274,643	173,596	-0,059	-0,061
-273,628	406,264	0,014	0,022
-272,613	190,462	-0,071	-0,077
-271,599	-200,000	0,013	-0,122
-270,584	157,161	0,058	0,057
-269,570	182,420	-0,060	0,064
-268,555	618,694	-0,078	0,140
-267,540	8,649	-0,159	0,085
-266,526	9,063	0,016	0,009
-265,511	-95,398	0,060	0,011
-264,497	-200,000	0,004	-0,033
-263,482	46,545	0,035	-0,023
-262,467	67,623	0,094	0,069
-261,453	-200,000	-0,044	0,162
-260,438	-200,000	0,013	-0,063
-259,424	-200,000	0,013	-0,127
-258,409	-200,000	0,013	-0,144
-257,395	73,499	-0,109	-0,081
-256,380	-29,770	0,144	-0,059
-255,365	-157,711	0,119	0,005
-254,351	-128,968	0,126	-0,012
-253,336	-200,000	0,017	-0,062
-252,322	-200,000	0,020	-0,093
-251,307	85,469	-0,018	0,014
-250,292	800,000	-0,016	-0,047
-249,278	219,672	-0,078	-0,089
-248,263	-200,000	0,012	-0,106
-247,249	800,000	-0,014	-0,033
-246,234	40,294	-0,087	0,056
-245,219	800,000	-0,033	0,102
-244,205	-177,630	-0,244	0,004
-243,190	13,987	-0,095	0,052
-242,176	-200,000	0,002	0,084
-241,161	800,000	0,050	0,110
-240,146	-200,000	0,011	0,127
-239,132	169,112	0,101	-0,103
-238,117	74,827	0,088	-0,066
-237,103	238,611	-0,052	-0,062
-236,088	-121,816	-0,124	0,014
-235,073	-200,000	0,033	0,130
-234,059	355,032	0,082	-0,116
-233,044	330,056	0,027	-0,038
-232,030	-200,000	0,001	-0,018
-231,015	-67,404	-0,191	-0,053
-230,000	782,139	0,010	-0,020
-228,986	-192,910	-0,140	0,001
-227,971	-58,384	-0,008	-0,003
-226,957	182,845	0,072	-0,076
-225,942	-200,000	-0,015	0,093
-224,927	-200,000	0,005	0,034
-223,913	-200,000	-0,014	-0,092
-222,898	117,464	0,012	0,010
-221,884	378,529	0,045	0,065
-220,869	800,000	-0,019	0,057
-219,855	800,000	-0,062	-0,146
-218,840	-109,337	0,121	0,018
-217,825	-72,387	-0,056	-0,015
-216,811	7,597	-0,085	0,045
-215,796	-200,000	-0,002	-0,051
-214,782	800,000	0,011	0,025
-213,767	-200,000	0,015	-0,133
-212,752	-132,980	0,133	0,012
-211,738	520,643	0,052	0,087
-210,723	212,297	-0,041	-0,046
-209,709	618,585	-0,051	-0,091
-208,694	-177,871	0,085	0,001
-207,679	-153,989	-0,096	0,005
-206,665	58,758	0,012	0,009
-205,650	19,781	0,107	0,061
-204,636	132,552	-0,065	0,060
-203,621	8,393	-0,114	0,061
-202,606	-147,624	0,062	0,004
-201,592	468,534	-0,042	-0,068
-200,577	-24,623	0,065	0,028
-199,563	-86,435	-0,067	-0,015
-198,548	-121,554	0,159	0,019
-197,533	-200,000	-0,009	0,049
-196,519	-70,793	0,105	-0,028
-195,504	-107,726	-0,055	-0,008
-194,490	194,307	-0,054	-0,058
-193,475	-200,000	0,017	-0,079
-192,460	42,661	0,065	-0,042
-191,446	-200,000	-0,008	0,077
-190,431	-200,000	0,026	0,160
-189,417	221,572	-0,032	0,037
-188,402	793,304	0,044	-0,086
-187,387	-130,400	-0,119	0,011
-186,373	261,442	0,066	-0,082
-185,358	-44,544	0,086	-0,031
-184,344	800,000	0,024	0,054
-183,329	39,818	0,152	0,097
-182,315	-200,000	0,008	0,085
-181,300	52,678	0,048	-0,032
-180,285	508,596	-0,047	0,078
-179,271	487,113	0,074	-0,121
-178,256	-200,000	0,020	-0,139
-177,242	-200,000	0,000	0,026
-176,227	-26,226	0,076	0,032
-175,212	800,000	0,049	0,146
-174,198	-200,000	-0,018	0,223
-173,183	-200,000	-0,001	0,045
-172,169	94,007	0,082	-0,066
-171,154	-78,797	0,057	0,014
-170,139	387,068	-0,020	0,030
-169,125	-77,310	0,125	0,031
-168,110	-27,165	-0,082	0,034
-167,096	-100,401	0,064	0,011
-166,081	800,000	0,051	0,103
-165,066	800,000	0,053	-0,156
-164,052	-200,000	0,012	0,108
-163,037	-200,000	-0,004	-0,017
-162,023	143,411	0,022	-0,021
-161,008	92,809	0,107	0,086
-159,993	800,000	0,067	0,201
-158,979	195,915	-0,149	-0,161
-157,964	800,000	0,031	-0,084
-156,950	-200,000	-0,011	0,061
-155,935	729,995	0,021	-0,040
-154,920	365,380	0,028	0,041
-153,906	-71,297	0,099	-0,026
-152,891	38,998	0,086	0,055
-151,877	90,432	-0,089	0,071
-150,862	-200,000	-0,014	0,045
-149,847	800,000	-0,011	0,034
-148,833	43,457	-0,053	-0,034
-147,818	-200,000	0,001	0,065
-146,804	266,746	-0,076	0,094
-145,789	-92,506	-0,065	0,013
-144,775	-35,080	-0,084	0,033
-143,760	429,832	-0,036	0,055
-142,745	-200,000	-0,001	0,094
-141,731	-200,000	-0,005	0,030
-140,716	233,593	-0,103	0,121
-139,702	584,310	0,077	0,135
-138,687	59,746	-0,039	0,027
-137,672	98,707	-0,075	-0,061
-136,658	-200,000	-0,002	0,096
-135,643	800,000	0,035	0,104
-134,629	235,375	-0,018	-0,021
-133,614	-200,000	0,005	0,021
-132,599	359,001	-0,072	0,103
-131,585	28,585	-0,138	-0,083
-130,570	-118,097	-0,094	0,012
-129,556	1,339	0,034	0,017
-128,541	295,407	-0,044	-0,058
-127,526	800,000	-0,039	-0,118
-126,512	-143,767	-0,101	-0,007
-125,497	85,872	0,017	-0,013
-124,483	98,382	0,146	-0,120
-123,468	398,045	-0,013	0,020
-122,453	-200,000	0,002	-0,188
-121,439	478,994	-0,082	-0,133
-120,424	105,194	0,028	-0,023
-119,410	-146,643	-0,038	0,002
-118,395	800,000	0,061	0,157
-117,380	-27,749	0,120	-0,049
-116,366	382,220	-0,043	0,063
-115,351	556,012	0,036	-0,061
-114,337	120,499	-0,072	-0,063
-113,322	-37,444	0,109	0,041
-112,307	-200,000	-0,038	0,123
-111,293	124,264	0,085	0,076
-110,278	108,828	-0,031	0,026
-109,264	164,385	-0,036	0,036
-108,249	277,630	0,067	0,085
-107,234	-33,806	-0,067	0,026
-106,220	40,490	0,032	0,021
-105,205	54,931	-0,075	0,051
-104,191	137,293	0,058	-0,054
-103,176	800,000	0,023	0,054
-102,162	544,889	-0,048	0,081
-101,147	-73,174	-0,153	0,040
-100,132	800,000	-0,014	-0,041
-99,118	-0,969	-0,083	-0,041
-98,103	-200,000	-0,009	-0,083
-97,089	-72,594	0,085	-0,022
-96,074	2,894	-0,018	-0,009
-95,059	-53,968	0,009	0,003
-94,045	800,000	-0,046	-0,119
-93,030	138,576	-0,044	-0,041
-92,016	231,875	-0,063	-0,074
-91,001	-200,000	0,018	0,060
-89,986	682,785	-0,067	-0,124
-88,972	-200,000	-0,017	0,090
-87,957	38,214	-0,061	-0,038
-86,943	-150,638	-0,073	0,004
-85,928	56,978	0,040	0,028
-84,913	-150,332	0,024	-0,001
-83,899	800,000	-0,011	-0,033
-82,884	-200,000	0,001	0,044
-81,870	-105,053	-0,034	0,006
-80,855	-200,000	0,022	0,071
-79,840	43,673	0,047	0,030
-78,826	800,000	-0,026	-0,076
-77,811	-52,914	-0,080	0,026
-76,797	800,000	-0,060	-0,144
-75,782	-109,777	0,073	0,011
-74,767	-153,585	0,090	0,004
-73,753	-200,000	0,001	0,020
-72,738	151,377	0,072	0,069
-71,724	239,930	-0,015	0,018
-70,709	-98,778	0,031	0,006
-69,694	64,825	-0,079	0,057
-68,680	-200,000	-0,008	0,034
-67,665	457,355	0,097	0,153
-66,651	404,814	-0,008	0,011
-65,636	-70,772	-0,089	-0,024
-64,622	315,721	0,025	-0,034
-63,607	60,807	-0,068	-0,048
-62,592	186,138	0,008	-0,009
-61,578	800,000	0,039	0,111
-60,563	-93,728	-0,052	-0,010
-59,549	256,024	0,105	0,128
-58,534	-40,847	-1,687	-0,616
-57,519	522,768	-1,284	-2,147
-56,505	-200,000	-0,653	-4,404
-55,490	109,663	1,064	0,904
-54,476	800,000	4,973	11,407
-53,461	-200,000	18,625	303,068
-52,446	800,000	735,862	2284,089
-51,432	564,593	1651,958	2848,446
-50,417	78,763	1668,647	1263,842
-49,403	22,137	1541,594	889,494
-48,388	16,054	1464,705	815,572
-47,373	17,811	1454,489	818,337
-46,359	16,970	1444,759	808,799
-45,344	14,362	1440,131	793,691
-44,330	14,245	1438,300	792,090
-43,315	14,281	1436,489	791,236
-42,300	14,295	1434,911	790,403
-41,286	14,298	1433,844	789,794
-40,271	14,234	1432,481	788,706
-39,257	14,265	1431,124	788,077
-38,242	14,295	1429,866	787,496
-37,227	14,316	1428,768	786,962
-36,213	14,293	1427,462	786,098
-35,198	14,324	1425,917	785,367
-34,184	14,362	1425,144	785,087
-33,169	14,293	1424,002	784,102
-32,154	14,318	1423,010	783,641
-31,140	14,327	1421,525	782,835
-30,125	14,363	1420,414	782,364
-29,111	14,316	1419,257	781,474
-28,096	14,312	1418,163	780,819
-27,082	14,232	1417,174	779,868
-26,067	14,260	1415,964	779,304
-25,052	14,280	1414,899	778,781
-24,038	14,200	1414,066	777,915
-23,023	14,237	1412,958	777,450
-22,009	14,223	1411,967	776,806
-20,994	14,165	1411,154	776,054
-19,979	14,166	1410,314	775,568
-18,965	14,201	1409,208	775,091
-17,950	14,147	1408,474	774,406
-16,936	14,137	1407,648	773,873
-15,921	14,135	1406,295	773,091
-14,906	14,112	1405,647	772,596
-13,892	14,175	1404,445	772,198
-12,877	14,138	1403,597	771,531
-11,863	14,143	1402,655	771,003
-10,848	14,167	1401,621	770,515
-9,833	14,132	1400,788	769,865
-8,819	14,071	1399,847	769,035
-7,804	14,083	1399,041	768,618
-6,790	14,064	1397,891	767,865
-5,775	14,009	1397,045	767,117
-4,760	14,046	1395,993	766,680
-3,746	14,045	1395,238	766,231
-2,731	14,043	1394,539	765,806
-1,717	14,019	1393,531	765,112
-0,702	14,019	1391,753	764,106
0,313	17,850	1309,810	736,873
1,327	34,348	705,352	435,034
2,342	52,810	123,868	83,748
3,356	1,334	16,582	8,412
4,371	9,025	3,098	1,651
5,386	-36,419	0,657	0,249
6,400	800,000	0,050	0,147
7,415	134,317	-0,168	-0,154
8,429	96,852	-0,308	-0,250
9,444	260,511	-0,331	-0,406
10,459	34,321	-0,396	-0,244
11,473	62,621	-0,239	-0,169
12,488	-105,283	-0,272	-0,043
13,502	-2,477	-0,544	-0,269
14,517	34,371	-0,247	-0,152
15,531	20,689	-0,323	-0,185
16,546	134,182	-0,382	-0,350
17,561	158,673	-0,360	-0,354
18,575	-31,112	-0,151	0,060
19,590	148,238	-0,237	-0,226
20,604	45,634	-0,272	-0,178
21,619	54,889	-0,385	-0,262
22,634	32,549	-0,447	-0,273
23,648	152,574	-0,446	-0,431
24,663	216,849	-0,357	-0,402
25,677	49,797	-0,362	-0,240
26,692	103,099	-0,362	-0,300
27,707	39,148	-0,244	-0,154
28,721	80,796	-0,435	-0,331
29,736	37,324	-0,386	-0,241
30,750	101,564	-0,321	-0,264
31,765	307,962	-0,286	-0,378
32,780	50,443	-0,375	-0,250
33,794	2,274	-0,313	-0,159
34,809	-50,383	-0,402	-0,133
35,823	76,346	-0,406	-0,303
36,838	268,686	-0,261	-0,324
37,853	107,002	-0,344	-0,289
38,867	224,797	-0,305	-0,349
39,882	-1,588	-0,491	-0,243
40,896	-22,768	-0,371	-0,158
41,911	-67,226	-0,271	-0,075
42,926	106,882	-0,241	-0,201
43,940	52,731	-0,466	-0,314
44,955	-2,148	-0,522	-0,258
45,969	194,087	-0,263	-0,281
46,984	-16,644	-0,452	-0,201
47,999	125,036	-0,338	-0,300
49,013	129,423	-0,334	-0,301
50,028	76,453	-0,342	-0,256
51,042	47,694	-0,421	-0,276
52,057	97,751	-0,338	-0,274
53,071	16,927	-0,500	-0,279
54,086	118,418	-0,232	-0,202
55,101	-7,232	-0,336	-0,160
56,115	12,953	-0,475	-0,258
57,130	-36,849	-0,301	-0,113
58,144	13,301	-0,389	-0,212
59,159	115,161	-0,324	-0,278
60,174	-2,835	-0,421	-0,207
61,188	108,135	-0,323	-0,271
62,203	57,280	-0,326	-0,224
63,217	34,507	-0,275	-0,169
64,232	56,969	-0,361	-0,247
65,247	158,940	-0,387	-0,379
66,261	17,679	-0,476	-0,266
67,276	8,534	-0,357	-0,189
68,290	144,496	-0,264	-0,248
69,305	59,382	-0,322	-0,223
70,320	4,232	-0,387	-0,199
71,334	-84,558	-0,325	-0,071
72,349	1,799	-0,364	-0,184
73,363	132,953	-0,218	-0,198
74,378	123,273	-0,334	-0,295
75,393	43,932	-0,380	-0,245
76,407	-13,118	-0,293	-0,133
77,422	75,324	-0,328	-0,243
78,436	61,161	-0,290	-0,203
79,451	39,630	-0,389	-0,245
80,466	-53,823	-0,427	-0,136
81,480	70,178	-0,389	-0,282
82,495	73,265	-0,229	-0,168
83,509	33,753	-0,365	-0,223
84,524	111,233	-0,222	-0,188
85,539	-30,663	-0,375	-0,148
86,553	237,217	-0,233	-0,272
87,568	304,116	-0,230	-0,301
88,582	63,127	-0,443	-0,311
89,597	-6,962	-0,416	-0,198
90,611	105,071	-0,328	-0,272
91,626	-78,296	-0,263	-0,063
92,641	40,748	-0,214	-0,135
93,655	-101,897	-0,201	-0,034
94,670	80,458	-0,257	-0,195
95,684	108,749	-0,294	-0,247
96,699	124,328	-0,363	-0,321
97,714	56,506	-0,267	-0,182
98,728	-33,862	-0,300	-0,115
99,743	27,674	-0,202	-0,119
100,757	90,888	-0,280	-0,220
101,772	0,287	-0,280	-0,140
102,787	-21,450	-0,347	-0,148
103,801	8,370	-0,273	-0,143
104,816	263,231	-0,263	-0,321
105,830	547,594	-0,110	-0,185
106,845	-10,954	-0,297	-0,137
107,860	135,229	-0,322	-0,293
108,874	-56,198	-0,362	-0,112
109,889	24,029	-0,219	-0,126
110,903	13,711	-0,252	-0,137
111,918	93,897	-0,233	-0,185
112,933	-157,827	-0,285	-0,012
113,947	219,511	-0,115	-0,129
114,962	57,748	-0,183	-0,125
115,976	380,685	-0,190	-0,274
116,991	67,485	-0,373	-0,267
118,006	-11,341	-0,225	-0,103
119,020	202,445	-0,256	-0,278
120,035	222,726	-0,242	-0,273
121,049	114,289	-0,273	-0,233
122,064	27,972	-0,307	-0,181
123,079	97,950	-0,230	-0,185
124,093	73,979	-0,407	-0,299
125,108	90,011	-0,308	-0,241
126,122	-13,988	-0,303	-0,136
127,137	800,000	-0,097	-0,245
128,151	25,227	-0,252	-0,146
129,166	34,508	-0,222	-0,135
130,181	122,070	-0,339	-0,296
131,195	350,096	-0,228	-0,316
132,210	800,000	-0,135	-0,285
133,224	96,436	-0,257	-0,206
134,239	211,736	-0,143	-0,158
135,254	7,098	-0,261	-0,136
136,268	88,305	-0,252	-0,196
137,283	145,996	-0,284	-0,267
138,297	63,835	-0,250	-0,175
139,312	67,511	-0,359	-0,256
140,327	-34,791	-0,264	-0,100
141,341	128,955	-0,232	-0,207
142,356	328,813	-0,231	-0,312
143,370	-69,589	-0,177	-0,047
144,385	58,484	-0,285	-0,195
145,400	24,044	-0,249	-0,143
146,414	146,292	-0,200	-0,188
147,429	409,781	-0,251	-0,373
148,443	123,964	-0,275	-0,242
149,458	117,477	-0,131	-0,113
150,473	95,379	-0,287	-0,229
151,487	49,322	-0,324	-0,213
152,502	146,255	-0,206	-0,193
153,516	-78,958	-0,257	-0,061
154,531	35,737	-0,217	-0,133
155,546	623,121	-0,120	-0,211
156,560	195,635	-0,194	-0,206
157,575	28,813	-0,302	-0,178
158,589	192,391	-0,233	-0,246
159,604	36,139	-0,324	-0,199
160,619	76,317	-0,254	-0,188
161,633	5,401	-0,305	-0,157
162,648	84,382	-0,249	-0,190
163,662	74,378	-0,217	-0,159
164,677	0,547	-0,140	-0,070
165,692	145,080	-0,185	-0,172
166,706	177,676	-0,169	-0,173
167,721	-64,073	-0,372	-0,105
168,735	-61,479	-0,272	-0,079
169,750	-39,712	-0,221	-0,080
170,764	-80,380	-0,270	-0,062
171,779	-159,438	-0,237	-0,009
172,794	22,221	-0,299	-0,170
173,808	-5,211	-0,147	-0,070
174,823	21,135	-0,366	-0,206
175,837	86,354	-0,211	-0,162
176,852	78,873	-0,232	-0,173
177,867	800,000	-0,103	-0,208
178,881	-7,762	-0,197	-0,093
179,896	-13,503	-0,127	-0,057
180,910	211,613	-0,116	-0,128
181,925	194,927	-0,234	-0,248
182,940	13,341	-0,312	-0,168
183,954	287,601	-0,152	-0,192
184,969	101,549	-0,206	-0,167
185,983	251,121	-0,132	-0,157
186,998	-23,748	-0,215	-0,089
188,013	-7,486	-0,199	-0,094
189,027	50,147	-0,313	-0,206
190,042	-20,356	-0,216	-0,092
191,056	-68,267	-0,296	-0,080
192,071	80,188	-0,257	-0,193
193,086	458,248	-0,207	-0,321
194,100	43,940	-0,153	-0,098
195,115	-98,883	-0,234	-0,041
196,129	276,007	-0,203	-0,251
197,144	39,412	-0,281	-0,175
198,159	235,453	-0,194	-0,224
199,173	-64,405	-0,116	-0,033
200,188	320,197	-0,166	-0,219
201,202	645,207	-0,152	-0,271
202,217	-43,823	-0,064	-0,022
203,232	-8,919	-0,283	-0,131
204,246	23,766	-0,223	-0,128
205,261	12,840	-0,254	-0,136
206,275	84,225	-0,323	-0,245
207,290	21,088	-0,137	-0,077
208,304	66,182	-0,161	-0,113
209,319	-21,648	-0,321	-0,136
210,334	-44,030	-0,185	-0,064
211,348	3,250	-0,260	-0,131
212,363	687,756	-0,151	-0,276
213,377	52,929	-0,176	-0,117
214,392	57,457	-0,192	-0,130
215,407	-17,897	-0,186	-0,081
216,421	30,263	-0,162	-0,096
217,436	-25,834	-0,167	-0,068
218,450	102,839	-0,250	-0,204
219,465	263,015	-0,141	-0,171
220,480	179,424	-0,153	-0,155
221,494	502,077	-0,084	-0,136
222,509	11,337	-0,173	0,092
223,523	44,443	-0,247	-0,157
224,538	408,102	-0,104	-0,153
225,553	272,031	-0,244	-0,299
226,567	65,836	-0,145	-0,102
227,582	107,370	-0,148	-0,122
228,596	77,921	-0,184	-0,136
229,611	800,000	-0,052	-0,125
230,626	446,865	-0,107	-0,164
231,640	246,795	-0,163	-0,191
232,655	30,468	-0,224	-0,133
233,669	-155,061	-0,326	-0,015
234,684	-50,985	-0,248	-0,080
235,699	141,298	-0,186	-0,171
236,713	-50,990	-0,254	-0,082
237,728	-17,336	-0,174	-0,076
238,742	-78,525	-0,229	-0,054
239,757	175,923	-0,171	-0,173
240,772	100,855	-0,347	-0,280
241,786	163,554	-0,283	-0,276
242,801	-25,937	-0,090	-0,037
243,815	-171,774	-0,164	-0,004
244,830	-91,184	-0,209	-0,041
245,844	42,421	-0,231	-0,145
246,859	30,009	-0,226	-0,133
247,874	-13,522	-0,251	-0,112
248,888	9,532	-0,296	-0,155
249,903	432,223	-0,078	-0,117
250,917	-116,429	-0,188	-0,024
251,932	-107,771	-0,157	-0,024
252,947	-6,424	-0,209	-0,099
253,961	278,395	-0,167	-0,206
254,976	4,293	-0,246	-0,125
255,990	155,367	-0,302	-0,288
257,005	39,137	-0,163	-0,101
258,020	-95,696	-0,131	-0,024
259,034	401,551	-0,142	-0,207
260,049	97,127	-0,219	-0,174
261,063	-140,484	-0,179	-0,013
262,078	32,640	-0,230	-0,138
263,093	43,672	-0,275	-0,174
264,107	133,481	-0,091	-0,081
265,122	234,783	-0,163	-0,186
266,136	-39,511	-0,150	-0,054
267,151	800,000	-0,084	-0,234
268,166	48,512	-0,273	-0,177
269,180	119,420	-0,089	-0,077
270,195	177,585	-0,108	-0,109
271,209	163,836	-0,145	-0,142
272,224	29,044	-0,134	-0,078
273,239	-65,082	-0,208	-0,058
274,253	85,609	-0,042	-0,032
275,268	65,310	-0,091	0,063
276,282	-146,550	-0,102	-0,006
277,297	193,240	-0,129	-0,135
278,312	107,808	-0,262	-0,216
279,326	800,000	-0,056	-0,126
280,341	-121,549	-0,156	-0,018
281,355	143,769	-0,180	-0,166
282,370	-96,396	-0,205	-0,037
283,384	-9,583	-0,173	-0,080
284,399	48,968	-0,199	-0,129
285,414	88,519	-0,214	-0,165
286,428	475,973	-0,112	-0,176
287,443	-78,006	-0,161	0,038
288,457	800,000	-0,099	-0,222
289,472	-47,451	-0,180	-0,060
290,487	-105,824	-0,116	0,018
291,501	171,906	-0,219	-0,217
292,516	-173,708	-0,237	0,005
293,530	16,543	-0,063	0,034
294,545	262,772	-0,103	-0,124
295,560	273,171	-0,040	-0,049
296,574	-73,900	-0,142	0,035
297,589	32,666	-0,111	-0,066
298,603	275,350	-0,065	-0,080
299,618	65,702	-0,167	-0,116
300,633	-96,497	-0,231	0,042
301,647	-102,038	-0,188	-0,031
302,662	-65,855	-0,130	-0,036
303,676	-122,987	-0,136	-0,015
304,691	80,337	-0,236	-0,175
305,706	-21,454	-0,146	-0,061
306,720	196,528	-0,154	-0,162
307,735	142,846	-0,089	0,081
308,749	143,279	-0,179	-0,164
309,764	319,643	-0,076	-0,100
310,779	800,000	-0,112	-0,221
311,793	-64,300	-0,061	-0,017
312,808	234,703	-0,174	-0,198
313,822	112,933	-0,204	-0,170
314,837	108,278	-0,209	-0,172
315,852	-200,000	0,001	0,022
316,866	199,415	-0,122	-0,129
317,881	183,969	-0,060	-0,061
318,895	63,000	-0,222	-0,153
319,910	-200,000	-0,038	-0,179
320,925	800,000	-0,102	-0,208
321,939	532,683	-0,135	-0,221
322,954	20,615	-0,155	-0,086
323,968	240,322	-0,076	-0,088
324,983	79,587	-0,208	-0,154
325,997	314,303	-0,172	-0,224
327,012	-134,470	-0,227	-0,019
328,027	25,548	-0,159	-0,091
329,041	61,949	-0,194	-0,133
330,056	769,410	-0,018	-0,034
331,070	-13,575	-0,111	-0,049
332,085	-39,914	-0,068	-0,024
333,100	19,374	-0,119	-0,066
334,114	-52,936	-0,197	-0,062
335,129	57,039	-0,100	-0,067
336,143	92,631	-0,107	-0,083
337,158	-37,991	-0,162	-0,059
338,173	-94,662	-0,079	0,015
339,187	-124,240	-0,091	-0,010
340,202	-200,000	-0,072	-0,223
341,216	53,995	-0,227	-0,150
342,231	20,358	-0,160	-0,089
343,246	-154,214	-0,227	0,010
344,260	-150,045	-0,247	0,013
345,275	770,819	-0,071	-0,134
346,289	800,000	-0,025	-0,051
347,304	-107,536	-0,094	0,014
348,319	-38,779	-0,144	-0,052
349,333	164,892	-0,187	-0,181
350,348	75,121	-0,184	-0,133
351,362	-56,218	-0,139	-0,042
352,377	-65,277	-0,078	0,021
353,392	144,445	-0,168	-0,154
354,406	-195,990	-0,177	-0,001
355,421	207,643	1313,848	1410,116
356,435	159,733	1474,492	1410,614
