DTS Sentinel unit serial number:	SN410029Multiplexer serial number:	ORYXHardware model number:	OX2-SRSoftware version number:	ORYX F/W v4,00 Oryx Data Collector v3.7.2.0data status	okinstallation	B3 Nyhavnadifferential loss correction	single-endedforward channel	channel 1reverse channel	N/Adate	2023/12/03time	12:07:30forward acquisition time	300,00reverse acquisition time	0,00gamma	499,1914k internal	0,3201k external	0,3201temperature offset calibration	1,0000default loss term (dB/km)	0,3820temperature slope calibration	1,0000multiplexer offset coefficient	1,0000multiplexer slope coefficient	1,0000fibre end	0,00T internal ref (°C)	13,81T ext. ref 1 (°C)	-0,37T ext. ref 2 (°C)	-0,40length (m)	temperature (°C)	Stokes	anti-Stokes-744,400	213,066	-0,246	-0,283
-743,385	-200,000	0,001	0,269
-742,371	46,656	-0,192	-0,129
-741,356	-200,000	0,035	0,291
-740,342	-200,000	-0,038	-0,194
-739,327	800,000	-0,064	0,190
-738,312	383,477	-0,166	-0,249
-737,298	-200,000	-0,012	0,178
-736,283	228,841	-0,173	-0,206
-735,269	800,000	0,178	0,414
-734,254	592,700	-0,139	-0,250
-733,239	25,448	-0,223	0,134
-732,225	-200,000	-0,029	-0,120
-731,210	565,137	0,093	0,165
-730,196	-4,448	-0,064	0,032
-729,181	-200,000	0,008	-0,080
-728,167	714,838	-0,029	-0,057
-727,152	272,754	-0,012	-0,016
-726,137	800,000	-0,026	0,058
-725,123	-52,234	-0,142	-0,047
-724,108	-130,539	-0,217	-0,021
-723,094	99,863	-0,263	-0,221
-722,079	-94,639	-0,131	0,026
-721,064	-200,000	-0,017	0,095
-720,050	-200,000	0,004	0,101
-719,035	-61,534	0,118	0,036
-718,021	-54,220	-0,084	-0,028
-717,006	-93,302	-0,035	0,007
-715,991	-200,000	-0,024	-0,193
-714,977	800,000	-0,053	0,126
-713,962	699,904	-0,040	-0,076
-712,948	-200,000	-0,014	-0,058
-711,933	-1,234	-0,061	-0,031
-710,918	800,000	0,042	-0,096
-709,904	-62,915	-0,172	-0,051
-708,889	-200,000	0,013	0,063
-707,875	234,863	-0,072	-0,087
-706,860	-87,144	0,038	0,008
-705,845	-132,046	-0,067	0,006
-704,831	-200,000	0,003	0,118
-703,816	145,446	-0,077	0,075
-702,802	-200,000	-0,005	0,018
-701,787	220,321	-0,078	-0,091
-700,772	-200,000	-0,017	-0,189
-699,758	42,433	-0,061	-0,040
-698,743	327,336	0,070	0,098
-697,729	-200,000	-0,000	-0,037
-696,714	238,500	0,052	0,063
-695,699	13,684	-0,068	-0,038
-694,685	-137,213	0,047	-0,004
-693,670	32,061	-0,130	-0,082
-692,656	276,337	-0,039	-0,051
-691,641	32,569	-0,151	0,095
-690,627	354,735	0,035	0,051
-689,612	800,000	0,068	0,155
-688,597	56,754	-0,131	-0,093
-687,583	37,685	-0,081	-0,052
-686,568	117,060	-0,041	0,036
-685,554	4,236	-0,101	-0,054
-684,539	16,719	-0,089	-0,051
-683,524	-200,000	-0,004	0,103
-682,510	74,842	-0,105	-0,080
-681,495	5,109	0,054	0,029
-680,481	800,000	0,039	-0,092
-679,466	-87,310	0,089	-0,019
-678,451	57,121	-0,151	-0,107
-677,437	-20,408	0,062	-0,028
-676,422	-200,000	0,007	0,053
-675,408	-12,035	0,045	0,021
-674,393	42,895	-0,052	-0,035
-673,378	-200,000	-0,009	-0,066
-672,364	-200,000	0,008	-0,066
-671,349	-135,173	-0,068	-0,006
-670,335	-200,000	-0,035	0,162
-669,320	-67,257	-0,112	0,032
-668,305	-200,000	-0,013	-0,059
-667,291	-142,283	-0,095	0,007
-666,276	237,333	-0,019	-0,023
-665,262	-49,852	-0,075	-0,026
-664,247	162,529	0,022	0,022
-663,232	226,188	-0,067	-0,079
-662,218	69,154	0,137	0,102
-661,203	67,396	0,073	-0,054
-660,189	800,000	0,012	0,025
-659,174	-200,000	-0,010	-0,046
-658,159	-52,826	-0,087	0,029
-657,145	133,418	-0,091	-0,086
-656,130	-21,695	0,044	-0,020
-655,116	123,575	-0,069	-0,063
-654,101	-40,658	-0,093	-0,035
-653,086	300,614	-0,057	0,076
-652,072	178,436	-0,075	-0,080
-651,057	-200,000	-0,007	-0,071
-650,043	-45,644	-0,069	-0,025
-649,028	-200,000	0,000	-0,031
-648,014	735,499	-0,035	0,068
-646,999	-44,345	0,074	-0,027
-645,984	770,185	-0,030	-0,060
-644,970	800,000	-0,035	0,073
-643,955	-200,000	-0,021	-0,106
-642,941	800,000	-0,010	-0,024
-641,926	38,588	-0,102	0,065
-640,911	377,621	0,055	0,082
-639,897	800,000	-0,043	0,088
-638,882	234,782	0,059	-0,070
-637,868	-84,475	-0,070	0,016
-636,853	-68,308	-0,041	0,012
-635,838	-69,944	-0,109	0,030
-634,824	62,442	-0,093	-0,067
-633,809	-111,005	-0,125	-0,018
-632,795	168,596	-0,071	0,074
-631,780	215,807	-0,115	-0,132
-630,765	-19,321	0,171	0,077
-629,751	800,000	-0,037	-0,088
-628,736	-154,614	-0,036	-0,002
-627,722	69,051	-0,062	-0,046
-626,707	153,288	0,022	-0,022
-625,692	209,026	-0,070	0,080
-624,678	59,158	0,066	-0,047
-623,663	-34,586	-0,101	0,040
-622,649	163,248	-0,102	-0,104
-621,634	-43,370	-0,066	-0,024
-620,619	-116,171	-0,060	0,008
-619,605	71,574	0,101	0,076
-618,590	800,000	-0,034	0,103
-617,576	-49,133	0,084	0,029
-616,561	49,303	-0,069	0,047
-615,546	2,376	0,047	-0,025
-614,532	124,283	-0,102	0,093
-613,517	-200,000	-0,004	-0,124
-612,503	-200,000	-0,016	-0,062
-611,488	800,000	0,043	-0,091
-610,474	-200,000	0,032	0,136
-609,459	31,374	-0,086	0,053
-608,444	79,863	-0,081	-0,063
-607,430	-200,000	-0,029	-0,258
-606,415	98,054	-0,122	-0,101
-605,401	106,586	-0,057	-0,049
-604,386	-200,000	0,032	-0,106
-603,371	800,000	-0,022	0,063
-602,357	470,039	0,051	0,083
-601,342	-200,000	0,002	-0,029
-600,328	51,806	0,099	0,068
-599,313	-148,296	0,080	0,005
-598,298	109,156	-0,034	-0,030
-597,284	72,729	0,026	-0,020
-596,269	208,502	0,104	-0,117
-595,255	575,421	0,011	0,019
-594,240	-120,299	-0,062	-0,008
-593,225	-155,417	0,074	0,003
-592,211	551,833	0,005	0,009
-591,196	-200,000	0,001	0,043
-590,182	800,000	-0,037	-0,105
-589,167	-43,523	0,214	-0,078
-588,152	-82,908	0,091	0,021
-587,138	-37,609	-0,097	-0,037
-586,123	800,000	-0,004	-0,010
-585,109	-5,197	-0,035	-0,017
-584,094	800,000	-0,050	-0,103
-583,079	-4,744	0,122	0,061
-582,065	75,310	0,052	-0,040
-581,050	301,598	0,065	0,086
-580,036	-91,453	-0,035	-0,007
-579,021	133,759	0,039	0,037
-578,006	77,536	-0,031	-0,024
-576,992	800,000	-0,073	-0,190
-575,977	-200,000	0,007	-0,073
-574,963	343,110	-0,041	-0,058
-573,948	502,206	-0,040	0,066
-572,934	800,000	0,030	0,059
-571,919	86,317	-0,051	-0,040
-570,904	462,588	0,075	0,122
-569,890	-154,190	-0,189	0,009
-568,875	369,061	0,047	0,069
-567,861	-113,551	0,035	-0,005
-566,846	97,676	-0,057	0,047
-565,831	-45,468	0,019	-0,007
-564,817	-200,000	-0,005	-0,061
-563,802	13,808	-0,069	0,039
-562,788	17,933	-0,015	-0,008
-561,773	83,084	0,088	-0,069
-560,758	-155,024	0,121	0,006
-559,744	274,148	0,061	0,078
-558,729	316,680	-0,034	-0,047
-557,715	17,471	-0,142	0,081
-556,700	530,710	0,041	-0,071
-555,685	-200,000	0,022	-0,079
-554,671	-44,908	-0,073	-0,026
-553,656	-10,923	0,143	-0,068
-552,642	-71,592	-0,008	0,002
-551,627	-200,000	-0,003	0,103
-550,612	-23,206	0,110	0,047
-549,598	334,011	-0,062	-0,087
-548,583	213,109	-0,114	-0,130
-547,569	325,596	0,051	-0,070
-546,554	317,299	-0,026	0,036
-545,539	-10,621	0,137	-0,065
-544,525	-68,429	0,095	-0,027
-543,510	-46,839	0,093	-0,033
-542,496	-157,704	-0,088	0,004
-541,481	800,000	-0,005	0,016
-540,466	-126,181	-0,182	-0,019
-539,452	800,000	0,030	0,069
-538,437	-200,000	0,005	0,060
-537,423	88,265	0,100	0,080
-536,408	-128,897	-0,111	-0,011
-535,393	-144,403	-0,061	0,004
-534,379	-59,642	0,117	-0,036
-533,364	789,617	-0,010	0,021
-532,350	-175,356	0,092	0,002
-531,335	800,000	0,019	0,056
-530,321	-59,775	0,110	0,034
-529,306	106,343	-0,049	-0,042
-528,291	316,750	0,031	-0,043
-527,277	800,000	-0,016	0,041
-526,262	-200,000	0,010	0,041
-525,248	800,000	-0,031	-0,099
-524,233	-200,000	0,002	-0,023
-523,218	798,073	-0,069	-0,138
-522,204	205,812	0,147	-0,165
-521,189	-80,824	0,066	-0,016
-520,175	800,000	-0,022	-0,050
-519,160	800,000	-0,044	-0,117
-518,145	-200,000	0,001	-0,066
-517,131	800,000	-0,022	0,053
-516,116	536,359	-0,092	0,158
-515,102	21,303	0,009	-0,005
-514,087	-82,494	0,106	-0,025
-513,072	800,000	-0,024	-0,061
-512,058	-200,000	0,001	-0,150
-511,043	-200,000	-0,016	-0,082
-510,029	-163,736	0,122	-0,004
-509,014	-200,000	-0,011	0,120
-507,999	-200,000	-0,029	0,141
-506,985	70,057	-0,095	-0,071
-505,970	800,000	-0,007	0,016
-504,956	500,243	-0,031	-0,052
-503,941	-70,914	0,086	-0,023
-502,926	563,459	0,026	-0,046
-501,912	13,800	-0,038	0,021
-500,897	12,533	-0,045	-0,025
-499,883	-200,000	-0,007	0,089
-498,868	-200,000	0,003	0,008
-497,853	-115,599	-0,022	-0,003
-496,839	290,674	0,028	0,036
-495,824	-200,000	0,044	0,151
-494,810	-118,351	-0,097	-0,012
-493,795	61,094	0,089	0,064
-492,781	99,991	0,033	-0,028
-491,766	-6,382	-0,036	-0,018
-490,751	800,000	0,025	0,077
-489,737	-103,228	0,027	-0,005
-488,722	247,989	0,045	0,054
-487,708	800,000	0,012	0,036
-486,693	-200,000	0,033	0,150
-485,678	420,035	0,010	0,015
-484,664	88,676	0,066	0,053
-483,649	737,544	-0,039	-0,076
-482,635	-200,000	0,009	0,049
-481,620	-200,000	0,031	0,179
-480,605	-146,220	0,106	0,007
-479,591	230,573	0,061	0,072
-478,576	132,990	0,037	0,035
-477,562	800,000	0,010	-0,026
-476,547	85,785	-0,128	-0,101
-475,532	463,812	0,048	-0,077
-474,518	-200,000	0,011	0,091
-473,503	-158,625	-0,033	0,001
-472,489	-57,004	0,035	-0,011
-471,474	113,209	-0,091	0,079
-470,459	166,097	0,029	-0,029
-469,445	800,000	-0,026	-0,065
-468,430	-162,812	-0,046	-0,002
-467,416	106,025	0,072	-0,062
-466,401	394,343	-0,055	-0,082
-465,386	-6,334	-0,087	0,042
-464,372	-200,000	0,017	0,086
-463,357	-147,256	0,064	-0,004
-462,343	-59,298	0,045	0,014
-461,328	89,893	0,089	-0,072
-460,313	-200,000	0,010	0,050
-459,299	-84,279	-0,075	0,017
-458,284	349,969	0,054	0,077
-457,270	800,000	-0,064	-0,165
-456,255	-118,967	-0,106	0,013
-455,241	-200,000	0,019	-0,065
-454,226	-200,000	-0,011	0,056
-453,211	-94,382	0,102	0,020
-452,197	137,043	0,147	0,138
-451,182	-200,000	0,013	0,054
-450,168	257,525	0,140	-0,174
-449,153	-86,028	-0,116	-0,026
-448,138	489,542	-0,028	0,046
-447,124	131,497	-0,025	-0,023
-446,109	-200,000	0,013	0,069
-445,095	800,000	0,019	0,057
-444,080	-200,000	-0,000	0,029
-443,065	551,996	-0,040	-0,070
-442,051	176,309	-0,033	0,034
-441,036	-200,000	-0,016	-0,053
-440,022	-0,304	-0,046	0,023
-439,007	16,671	0,126	-0,072
-437,992	-129,302	-0,145	0,014
-436,978	214,183	-0,115	-0,131
-435,963	135,057	0,084	0,078
-434,949	-121,515	-0,033	-0,004
-433,934	800,000	-0,060	0,137
-432,919	-155,088	0,069	0,003
-431,905	-200,000	-0,005	-0,038
-430,890	800,000	0,033	0,079
-429,876	789,896	-0,032	0,063
-428,861	22,787	0,093	0,055
-427,846	29,896	-0,122	0,075
-426,832	800,000	-0,036	-0,085
-425,817	-85,265	-0,029	-0,006
-424,803	-111,298	-0,105	0,015
-423,788	249,783	0,012	-0,015
-422,773	-88,179	0,129	0,028
-421,759	54,445	-0,023	0,016
-420,744	-172,745	0,190	-0,004
-419,730	-200,000	0,037	-0,200
-418,715	-35,793	0,115	0,044
-417,701	-96,156	-0,067	0,013
-416,686	-46,203	0,064	0,023
-415,671	-4,054	0,068	0,034
-414,657	79,657	0,075	0,058
-413,642	-200,000	0,016	0,075
-412,628	298,713	0,062	-0,081
-411,613	-200,000	-0,013	-0,079
-410,598	800,000	0,004	-0,007
-409,584	314,118	0,007	-0,010
-408,569	163,996	0,116	0,117
-407,555	39,099	0,059	0,038
-406,540	388,624	-0,033	0,050
-405,525	182,194	-0,114	-0,121
-404,511	-117,911	0,046	0,006
-403,496	1,144	0,140	-0,072
-402,482	627,609	0,060	-0,110
-401,467	-117,467	0,051	-0,007
-400,452	-200,000	-0,009	0,197
-399,438	-200,000	0,004	0,038
-398,423	-134,708	-0,052	-0,004
-397,409	107,481	0,133	-0,114
-396,394	-200,000	0,002	0,008
-395,379	-200,000	0,011	0,057
-394,365	800,000	0,035	0,089
-393,350	-200,000	-0,006	0,106
-392,336	200,859	0,069	-0,076
-391,321	185,195	-0,029	0,031
-390,306	-180,170	-0,105	0,002
-389,292	800,000	-0,041	0,091
-388,277	-11,594	0,108	-0,051
-387,263	-200,000	0,001	0,022
-386,248	800,000	-0,030	0,091
-385,233	86,793	-0,104	0,082
-384,219	-200,000	-0,011	-0,114
-383,204	-200,000	0,027	0,131
-382,190	-200,000	0,006	-0,066
-381,175	800,000	-0,009	0,022
-380,160	36,020	-0,113	-0,071
-379,146	228,206	0,093	0,109
-378,131	800,000	-0,014	-0,029
-377,117	588,409	0,061	0,109
-376,102	-200,000	0,048	0,156
-375,088	-161,041	-0,116	-0,004
-374,073	-63,542	-0,079	-0,023
-373,058	65,097	0,130	0,094
-372,044	134,870	0,025	-0,024
-371,029	-7,862	-0,039	0,019
-370,015	-200,000	-0,027	0,126
-369,000	-27,142	-0,092	0,038
-367,985	-6,853	-0,035	0,017
-366,971	-25,055	0,139	-0,059
-365,956	-200,000	0,019	0,084
-364,942	-8,934	0,157	0,075
-363,927	-200,000	0,027	0,138
-362,912	-200,000	-0,004	-0,156
-361,898	170,950	-0,040	-0,041
-360,883	-200,000	0,007	0,029
-359,869	133,213	-0,051	0,047
-358,854	800,000	0,039	0,093
-357,839	182,787	0,025	0,027
-356,825	699,423	0,006	0,011
-355,810	-200,000	0,013	-0,186
-354,796	-200,000	0,019	-0,107
-353,781	42,233	-0,090	-0,059
-352,766	-200,000	-0,006	0,115
-351,752	39,437	0,172	-0,110
-350,737	-48,019	-0,030	0,010
-349,723	-200,000	0,010	-0,051
-348,708	-30,935	0,023	-0,009
-347,693	-22,338	-0,154	-0,067
-346,679	-200,000	-0,005	-0,073
-345,664	265,585	0,050	-0,063
-344,650	118,391	0,089	0,079
-343,635	800,000	0,029	0,060
-342,620	466,526	-0,011	0,017
-341,606	-56,391	0,060	-0,019
-340,591	143,385	-0,046	-0,044
-339,577	-3,073	-0,205	-0,102
-338,562	-123,457	-0,067	-0,008
-337,548	-28,069	-0,066	-0,027
-336,533	-183,440	0,172	0,002
-335,518	800,000	0,066	0,182
-334,504	800,000	-0,031	0,067
-333,489	-200,000	0,002	0,058
-332,475	800,000	-0,077	-0,156
-331,460	-200,000	0,002	0,069
-330,445	561,056	-0,056	-0,097
-329,431	30,165	-0,049	0,030
-328,416	-27,052	0,049	0,020
-327,402	-132,558	0,062	0,006
-326,387	-92,208	-0,069	0,014
-325,372	800,000	0,010	0,027
-324,358	196,190	-0,102	-0,111
-323,343	20,797	-0,049	-0,028
-322,329	-200,000	0,014	0,126
-321,314	354,532	0,014	0,019
-320,299	33,393	-0,020	-0,012
-319,285	-200,000	-0,002	0,096
-318,270	-200,000	0,022	0,172
-317,256	-200,000	0,013	-0,055
-316,241	31,372	0,061	0,037
-315,226	47,295	0,009	0,006
-314,212	-200,000	-0,024	0,135
-313,197	54,715	0,041	0,029
-312,183	194,083	-0,104	0,113
-311,168	-200,000	-0,005	0,070
-310,153	-200,000	0,005	-0,060
-309,139	800,000	0,035	-0,086
-308,124	800,000	-0,029	0,067
-307,110	-137,947	0,174	0,014
-306,095	208,895	-0,080	-0,089
-305,080	-200,000	-0,002	0,041
-304,066	-200,000	0,016	0,101
-303,051	-59,885	-0,132	-0,040
-302,037	-49,468	-0,047	0,016
-301,022	-90,935	-0,071	0,015
-300,008	433,893	0,022	-0,034
-298,993	220,738	-0,059	0,068
-297,978	313,391	0,014	-0,019
-296,964	-200,000	-0,014	-0,064
-295,949	-200,000	-0,003	0,042
-294,935	-200,000	0,003	0,090
-293,920	-84,125	0,147	-0,033
-292,905	281,972	-0,022	-0,028
-291,891	-173,643	0,154	-0,003
-290,876	800,000	-0,070	0,209
-289,862	800,000	0,030	0,065
-288,847	73,239	-0,098	-0,073
-287,832	32,699	0,125	-0,077
-286,818	-200,000	0,024	-0,134
-285,803	-200,000	-0,003	0,021
-284,789	-200,000	0,004	-0,038
-283,774	-200,000	-0,024	-0,108
-282,759	-52,378	-0,031	0,010
-281,745	71,904	-0,054	-0,040
-280,730	-50,869	-0,114	-0,038
-279,716	-200,000	0,010	0,103
-278,701	-197,904	0,063	0,000
-277,686	-200,000	0,005	-0,050
-276,672	-87,770	0,044	0,009
-275,657	110,193	-0,054	-0,046
-274,643	146,411	-0,039	-0,037
-273,628	800,000	0,028	-0,081
-272,613	800,000	-0,022	-0,064
-271,599	-200,000	0,005	-0,030
-270,584	800,000	-0,069	0,187
-269,570	-117,362	0,089	0,011
-268,555	764,005	-0,027	0,053
-267,540	413,514	-0,098	-0,149
-266,526	-122,244	0,092	-0,011
-265,511	288,118	-0,068	-0,088
-264,497	-147,832	0,093	0,005
-263,482	594,788	-0,078	0,138
-262,467	51,858	0,091	0,062
-261,453	193,999	0,059	0,063
-260,438	-53,260	0,032	-0,011
-259,424	-65,760	-0,113	0,032
-258,409	800,000	-0,028	0,061
-257,395	-200,000	0,025	-0,117
-256,380	-200,000	-0,008	-0,070
-255,365	-113,215	-0,076	-0,011
-254,351	-200,000	-0,023	0,134
-253,336	294,399	-0,079	-0,103
-252,322	622,378	-0,007	0,012
-251,307	800,000	-0,046	-0,109
-250,292	313,796	0,038	0,051
-249,278	167,721	-0,051	-0,052
-248,263	478,739	0,114	0,185
-247,249	-62,904	-0,058	-0,017
-246,234	-200,000	0,001	0,136
-245,219	197,166	-0,023	-0,025
-244,205	800,000	0,013	0,039
-243,190	800,000	-0,045	-0,119
-242,176	50,781	-0,111	0,075
-241,161	119,740	-0,098	0,087
-240,146	76,221	0,123	0,093
-239,132	292,892	0,089	-0,116
-238,117	-200,000	-0,022	-0,114
-237,103	800,000	-0,013	0,032
-236,088	-200,000	0,008	0,070
-235,073	-200,000	0,032	0,121
-234,059	111,854	0,067	-0,058
-233,044	96,113	-0,090	0,074
-232,030	122,038	0,059	-0,053
-231,015	195,073	0,017	-0,019
-230,000	63,307	0,087	0,062
-228,986	-11,199	0,051	-0,024
-227,971	-200,000	-0,004	-0,055
-226,957	372,675	-0,109	0,159
-225,942	249,633	-0,055	-0,067
-224,927	73,071	-0,101	-0,075
-223,913	223,738	0,040	-0,046
-222,898	35,517	-0,113	-0,071
-221,884	-15,242	-0,042	-0,019
-220,869	-200,000	0,016	0,123
-219,855	-200,000	-0,037	0,188
-218,840	-98,580	0,078	0,014
-217,825	88,073	-0,038	-0,030
-216,811	-200,000	0,012	-0,156
-215,796	526,552	-0,040	-0,068
-214,782	347,506	-0,082	-0,115
-213,767	-198,799	0,073	-0,000
-212,752	71,943	0,069	-0,051
-211,738	-47,847	0,057	0,019
-210,723	-99,781	0,205	-0,036
-209,709	324,977	-0,094	-0,128
-208,694	-200,000	-0,030	-0,116
-207,679	-200,000	-0,023	-0,076
-206,665	800,000	-0,030	-0,065
-205,650	-70,024	0,179	0,048
-204,636	-200,000	0,015	0,059
-203,621	209,186	-0,060	0,067
-202,606	64,903	0,057	0,041
-201,592	737,041	0,062	-0,119
-200,577	-53,557	-0,086	0,028
-199,563	800,000	0,016	0,042
-198,548	242,203	0,041	0,049
-197,533	-191,119	0,069	-0,000
-196,519	-200,000	0,020	-0,101
-195,504	-200,000	0,006	-0,068
-194,490	-200,000	-0,032	-0,102
-193,475	782,420	-0,041	-0,081
-192,460	157,211	0,131	-0,129
-191,446	183,595	-0,081	0,085
-190,431	717,513	-0,033	0,062
-189,417	131,509	-0,058	-0,053
-188,402	346,576	0,078	-0,110
-187,387	55,940	-0,110	-0,076
-186,373	75,163	-0,043	0,032
-185,358	800,000	0,016	-0,037
-184,344	-66,119	0,127	-0,036
-183,329	-80,581	0,110	-0,026
-182,315	455,763	0,044	-0,070
-181,300	800,000	-0,012	0,027
-180,285	800,000	-0,010	0,024
-179,271	-96,909	-0,142	0,026
-178,256	-200,000	-0,005	-0,129
-177,242	800,000	-0,027	-0,061
-176,227	-29,649	0,061	0,025
-175,212	-200,000	-0,004	-0,021
-174,198	463,435	0,046	-0,073
-173,183	482,585	-0,035	-0,057
-172,169	-200,000	-0,003	-0,042
-171,154	167,304	-0,090	0,091
-170,139	-200,000	-0,031	0,105
-169,125	-200,000	-0,018	0,059
-168,110	-200,000	0,008	0,032
-167,096	243,729	-0,028	0,034
-166,081	15,929	-0,091	0,051
-165,066	193,943	-0,069	0,075
-164,052	-200,000	-0,000	0,031
-163,037	-200,000	-0,011	-0,079
-162,023	-20,258	0,050	0,022
-161,008	570,526	-0,086	0,149
-159,993	700,498	0,126	0,238
-158,979	68,508	-0,097	-0,070
-157,964	-139,404	-0,081	0,006
-156,950	-93,688	-0,086	-0,017
-155,935	-22,197	0,076	-0,032
-154,920	-200,000	-0,030	-0,108
-153,906	-36,280	-0,049	-0,019
-152,891	-26,937	0,046	-0,019
-151,877	208,412	-0,005	0,006
-150,862	429,390	0,050	-0,077
-149,847	41,123	0,065	-0,042
-148,833	800,000	0,010	-0,023
-147,818	518,425	0,080	0,134
-146,804	99,140	0,143	0,117
-145,789	668,218	0,031	0,058
-144,775	-134,504	-0,076	-0,007
-143,760	800,000	-0,047	-0,141
-142,745	-55,075	-0,030	0,010
-141,731	-45,492	-0,052	0,018
-140,716	243,854	0,034	0,040
-139,702	108,321	0,030	-0,025
-138,687	-200,000	-0,018	0,067
-137,672	800,000	0,039	0,110
-136,658	-24,042	-0,134	-0,057
-135,643	-102,465	-0,086	-0,014
-134,629	-200,000	0,003	-0,060
-133,614	-200,000	0,024	0,203
-132,599	-200,000	-0,068	0,272
-131,585	-121,521	-0,129	-0,015
-130,570	-200,000	0,037	0,126
-129,556	-112,631	-0,083	-0,012
-128,541	-76,034	0,044	-0,011
-127,526	-119,902	0,036	0,004
-126,512	-200,000	-0,002	0,106
-125,497	-196,453	0,133	-0,001
-124,483	42,114	0,056	0,036
-123,468	-200,000	-0,009	-0,051
-122,453	-66,154	0,059	0,017
-121,439	31,724	-0,042	0,026
-120,424	417,991	-0,048	-0,073
-119,410	-26,138	0,114	0,047
-118,395	585,296	-0,043	0,076
-117,380	416,652	0,167	0,253
-116,366	259,750	0,073	0,090
-115,351	-200,000	-0,014	0,048
-114,337	210,854	0,015	-0,016
-113,322	256,423	0,051	-0,062
-112,307	437,610	-0,117	0,182
-111,293	39,051	-0,038	-0,024
-110,278	107,840	0,053	0,044
-109,264	-200,000	0,005	0,098
-108,249	-19,145	-0,103	-0,045
-107,234	800,000	-0,080	-0,217
-106,220	-44,324	0,074	0,026
-105,205	800,000	-0,024	-0,069
-104,191	350,627	0,044	0,063
-103,176	8,637	-0,074	0,040
-102,162	-200,000	-0,011	0,043
-101,147	-200,000	-0,009	0,077
-100,132	584,334	-0,077	-0,135
-99,118	-112,313	-0,068	-0,010
-98,103	-200,000	0,001	-0,138
-97,089	151,741	-0,044	0,042
-96,074	800,000	-0,025	0,057
-95,059	795,110	0,073	0,144
-94,045	-200,000	0,004	0,025
-93,030	-200,000	0,010	-0,184
-92,016	8,379	-0,056	-0,030
-91,001	41,358	-0,084	-0,054
-89,986	253,912	0,087	-0,106
-88,972	800,000	0,022	-0,043
-87,957	-200,000	-0,002	0,012
-86,943	116,912	0,052	0,045
-85,928	-18,415	-0,107	-0,047
-84,913	18,410	-0,058	-0,033
-83,899	-132,947	-0,094	-0,008
-82,884	-123,165	-0,083	0,009
-81,870	-200,000	0,002	-0,014
-80,855	205,948	0,091	0,101
-79,840	-42,993	-0,048	-0,017
-78,826	242,248	-0,070	-0,083
-77,811	-63,976	0,120	-0,035
-76,797	-26,359	-0,077	-0,032
-75,782	294,926	0,078	-0,101
-74,767	-50,746	0,076	0,025
-73,753	-164,165	-0,127	-0,004
-72,738	207,264	0,037	0,041
-71,724	-103,407	0,042	0,007
-70,709	-200,000	0,010	-0,043
-69,694	-111,786	0,148	0,021
-68,680	572,779	-0,084	0,145
-67,665	368,403	0,120	0,173
-66,651	204,638	0,076	0,084
-65,636	-94,611	0,178	0,034
-64,622	25,757	0,047	-0,028
-63,607	-200,000	-0,002	-0,021
-62,592	-200,000	-0,029	0,126
-61,578	308,766	0,055	0,072
-60,563	-200,000	-0,006	0,061
-59,549	-111,951	-0,101	-0,014
-58,534	-15,534	-1,718	-0,774
-57,519	571,005	-1,168	-2,022
-56,505	-200,000	-0,590	-4,455
-55,490	256,043	0,991	1,206
-54,476	800,000	4,841	11,106
-53,461	-200,000	18,889	309,514
-52,446	-200,000	738,179	2312,934
-51,432	574,125	1654,042	2868,292
-50,417	79,016	1670,082	1264,921
-49,403	21,822	1542,951	887,765
-48,388	15,698	1465,536	813,469
-47,373	17,782	1455,601	817,985
-46,359	16,748	1445,865	807,528
-45,344	13,934	1440,940	791,275
-44,330	13,839	1439,208	789,837
-43,315	13,825	1437,347	788,716
-42,300	13,851	1435,736	787,929
-41,286	13,893	1434,423	787,374
-40,271	13,853	1433,124	786,441
-39,257	13,818	1431,988	785,620
-38,242	13,892	1430,917	785,355
-37,227	13,857	1429,596	784,431
-36,213	13,918	1428,083	783,858
-35,198	13,946	1426,986	783,359
-34,184	13,959	1425,996	782,844
-33,169	13,879	1424,666	781,708
-32,154	13,931	1423,746	781,418
-31,140	13,957	1422,428	780,783
-30,125	13,945	1421,501	780,189
-29,111	13,907	1420,243	779,288
-28,096	13,932	1418,940	778,657
-27,082	13,857	1418,007	777,763
-26,067	13,790	1416,890	776,801
-25,052	13,827	1415,808	776,352
-24,038	13,807	1414,836	775,694
-23,023	13,806	1413,759	775,071
-22,009	13,793	1412,736	774,418
-20,994	13,817	1411,894	774,036
-19,979	13,743	1411,037	773,188
-18,965	13,778	1410,101	772,812
-17,950	13,791	1409,158	772,324
-16,936	13,765	1408,120	771,604
-15,921	13,738	1407,209	770,949
-14,906	13,752	1406,327	770,497
-13,892	13,769	1405,197	769,929
-12,877	13,706	1404,662	769,308
-11,863	13,755	1403,410	768,822
-10,848	13,720	1402,750	768,266
-9,833	13,726	1401,764	767,725
-8,819	13,686	1400,755	766,954
-7,804	13,662	1399,943	766,369
-6,790	13,657	1398,730	765,649
-5,775	13,664	1397,667	765,071
-4,760	13,667	1397,026	764,705
-3,746	13,627	1395,834	763,837
-2,731	13,675	1395,246	763,703
-1,717	13,615	1394,420	762,944
-0,702	13,643	1392,700	762,105
0,313	17,430	1310,824	734,866
1,327	33,797	705,546	433,445
2,342	52,122	123,817	83,357
3,356	1,858	16,592	8,437
4,371	10,306	3,329	1,787
5,386	-24,825	0,624	0,261
6,400	-200,000	0,046	0,285
7,415	-12,401	-0,257	-0,118
8,429	26,641	-0,375	-0,222
9,444	107,393	-0,283	-0,238
10,459	-58,304	-0,315	-0,096
11,473	-21,109	-0,306	-0,132
12,488	-14,582	-0,332	-0,150
13,502	-40,640	-0,329	-0,120
14,517	29,597	-0,299	-0,180
15,531	63,322	-0,365	-0,258
16,546	131,078	-0,277	-0,251
17,561	187,707	-0,391	-0,413
18,575	23,775	-0,103	-0,060
19,590	224,708	-0,255	-0,292
20,604	56,790	-0,233	-0,160
21,619	-34,045	-0,548	-0,212
22,634	66,518	-0,440	-0,316
23,648	33,666	-0,409	-0,250
24,663	144,360	-0,380	-0,358
25,677	446,836	-0,254	-0,396
26,692	217,369	-0,294	-0,331
27,707	184,185	-0,255	-0,267
28,721	172,921	-0,267	-0,272
29,736	67,518	-0,406	-0,292
30,750	154,114	-0,525	-0,509
31,765	84,511	-0,357	-0,275
32,780	23,521	-0,359	-0,208
33,794	171,873	-0,252	-0,256
34,809	-63,442	-0,378	-0,109
35,823	-68,244	-0,371	-0,101
36,838	68,533	-0,364	-0,263
37,853	125,826	-0,411	-0,367
38,867	223,490	-0,274	-0,312
39,882	21,976	-0,408	-0,234
40,896	-52,198	-0,381	-0,124
41,911	73,937	-0,330	-0,244
42,926	158,105	-0,214	-0,210
43,940	-29,120	-0,334	-0,134
44,955	38,235	-0,411	-0,257
45,969	81,394	-0,323	-0,246
46,984	-20,931	-0,301	-0,129
47,999	83,484	-0,264	-0,203
49,013	256,380	-0,191	-0,231
50,028	-19,260	-0,302	-0,131
51,042	-23,008	-0,328	-0,139
52,057	103,901	-0,381	-0,315
53,071	94,916	-0,351	-0,281
54,086	287,526	-0,227	-0,290
55,101	50,460	-0,265	-0,176
56,115	75,236	-0,334	-0,248
57,130	-20,293	-0,375	-0,162
58,144	-1,900	-0,408	-0,201
59,159	13,026	-0,419	-0,227
60,174	179,279	-0,266	-0,274
61,188	62,373	-0,441	-0,309
62,203	176,365	-0,255	-0,261
63,217	280,661	-0,316	-0,398
64,232	88,065	-0,336	-0,262
65,247	166,719	-0,322	-0,322
66,261	-1,066	-0,377	-0,187
67,276	-4,518	-0,412	-0,200
68,290	-58,859	-0,352	-0,106
69,305	115,175	-0,239	-0,205
70,320	205,949	-0,208	-0,228
71,334	362,042	-0,165	-0,233
72,349	-68,148	-0,503	-0,137
73,363	67,764	-0,248	-0,178
74,378	55,962	-0,341	-0,232
75,393	114,454	-0,322	-0,276
76,407	-5,443	-0,291	-0,140
77,422	8,902	-0,307	-0,162
78,436	5,354	-0,334	-0,173
79,451	269,243	-0,176	-0,217
80,466	-13,536	-0,331	-0,150
81,480	1,473	-0,295	-0,149
82,495	107,570	-0,308	-0,258
83,509	126,033	-0,283	-0,252
84,524	-58,319	-0,318	-0,096
85,539	12,864	-0,296	-0,160
86,553	-31,181	-0,292	-0,115
87,568	39,392	-0,299	-0,187
88,582	-26,665	-0,419	-0,171
89,597	286,010	-0,213	-0,270
90,611	41,258	-0,368	-0,233
91,626	2,975	-0,344	-0,175
92,641	-13,256	-0,240	-0,109
93,655	232,937	-0,282	-0,326
94,670	8,708	-0,403	-0,212
95,684	-78,426	-0,274	-0,065
96,699	193,722	-0,262	-0,279
97,714	13,349	-0,283	-0,154
98,728	647,714	-0,178	-0,321
99,743	-40,928	-0,197	-0,071
100,757	392,432	-0,161	-0,235
101,772	139,539	-0,316	-0,292
102,787	50,042	-0,298	-0,197
103,801	127,705	-0,214	-0,191
104,816	-18,502	-0,353	-0,154
105,830	-117,098	-0,300	-0,038
106,845	-88,483	-0,302	-0,063
107,860	-124,074	-0,164	0,018
108,874	800,000	-0,125	-0,283
109,889	240,765	-0,181	-0,212
110,903	110,373	-0,261	-0,220
111,918	38,745	-0,238	-0,149
112,933	-26,771	-0,324	-0,132
113,947	-117,325	-0,297	-0,037
114,962	79,751	-0,338	-0,254
115,976	24,155	-0,278	-0,160
116,991	-24,343	-0,276	-0,115
118,006	-33,883	-0,325	-0,125
119,020	-21,948	-0,204	-0,086
120,035	99,384	-0,322	-0,260
121,049	214,350	-0,214	-0,237
122,064	-125,588	-0,216	-0,023
123,079	-37,493	-0,322	-0,120
124,093	344,803	-0,213	-0,293
125,108	54,038	-0,340	-0,228
126,122	63,410	-0,278	-0,195
127,137	246,906	-0,156	-0,184
128,151	707,214	-0,142	-0,264
129,166	282,311	-0,159	-0,199
130,181	90,439	-0,200	-0,156
131,195	560,444	-0,167	-0,284
132,210	66,512	-0,181	-0,128
133,224	190,650	-0,228	-0,240
134,239	266,116	-0,162	-0,198
135,254	22,176	-0,254	-0,144
136,268	21,887	-0,184	-0,104
137,283	380,818	-0,225	-0,323
138,297	-67,086	-0,366	-0,100
139,312	74,760	-0,289	-0,212
140,327	-127,251	-0,354	-0,036
141,341	37,391	-0,221	-0,137
142,356	85,738	-0,230	-0,177
143,370	-5,068	-0,293	-0,140
144,385	196,100	-0,175	-0,186
145,400	29,048	-0,263	-0,156
146,414	99,425	-0,250	-0,202
147,429	-34,937	-0,421	-0,160
148,443	-37,053	-0,141	-0,053
149,458	291,186	-0,156	-0,199
150,473	154,740	-0,095	-0,091
151,487	-19,485	-0,354	-0,152
152,502	44,080	-0,221	-0,141
153,516	249,904	-0,181	-0,215
154,531	50,557	-0,246	-0,162
155,546	79,102	-0,161	-0,120
156,560	38,718	-0,192	-0,119
157,575	69,831	-0,256	-0,184
158,589	-1,720	-0,252	-0,123
159,604	158,129	-0,207	-0,201
160,619	38,847	-0,292	-0,182
161,633	36,013	-0,324	-0,199
162,648	207,880	-0,223	-0,243
163,662	-135,596	-0,204	-0,017
164,677	-32,068	-0,218	-0,085
165,692	101,916	-0,232	-0,189
166,706	-117,483	-0,267	-0,033
167,721	135,880	-0,173	-0,157
168,735	49,943	-0,246	-0,161
169,750	-55,350	-0,291	-0,091
170,764	16,463	-0,163	-0,090
171,779	77,956	-0,208	-0,155
172,794	-52,073	-0,169	-0,054
173,808	800,000	-0,092	-0,201
174,823	45,103	-0,247	-0,158
175,837	169,024	-0,177	-0,176
176,852	214,476	-0,264	-0,291
177,867	364,309	-0,186	-0,261
178,881	-124,534	-0,269	-0,029
179,896	-131,303	-0,193	0,018
180,910	350,766	-0,096	-0,133
181,925	28,817	-0,326	-0,192
182,940	351,197	-0,123	-0,170
183,954	85,699	-0,120	-0,092
184,969	102,636	-0,180	-0,146
185,983	51,714	-0,162	-0,107
186,998	-7,365	-0,339	-0,159
188,013	-118,244	-0,270	-0,033
189,027	133,449	-0,314	-0,283
190,042	28,660	-0,322	-0,189
191,056	229,462	-0,229	-0,260
192,071	800,000	-0,114	-0,232
193,086	-200,000	-0,054	-0,170
194,100	108,188	-0,246	-0,204
195,115	12,083	-0,165	-0,088
196,129	-135,136	-0,202	0,017
197,144	184,711	-0,240	-0,248
198,159	371,214	-0,098	-0,138
199,173	83,782	-0,161	-0,122
200,188	177,101	-0,139	-0,141
201,202	33,570	-0,155	-0,093
202,217	659,560	-0,098	-0,176
203,232	153,564	-0,152	-0,145
204,246	800,000	-0,099	-0,195
205,261	189,530	-0,212	-0,221
206,275	-4,721	-0,206	-0,099
207,290	50,652	-0,127	-0,084
208,304	176,155	-0,056	-0,057
209,319	800,000	-0,105	-0,231
210,334	318,770	-0,149	-0,197
211,348	-20,476	-0,266	-0,113
212,363	-7,854	-0,240	-0,112
213,377	387,761	-0,186	-0,269
214,392	44,331	-0,153	-0,098
215,407	148,853	-0,143	-0,134
216,421	-75,145	-0,144	-0,036
217,436	-56,366	-0,170	-0,052
218,450	54,846	-0,309	-0,207
219,465	503,689	-0,215	-0,346
220,480	213,194	-0,146	-0,160
221,494	137,691	-0,194	-0,176
222,509	-118,413	-0,193	0,023
223,523	155,938	-0,190	-0,182
224,538	502,158	-0,104	-0,167
225,553	110,038	-0,187	-0,156
226,567	57,837	-0,189	-0,128
227,582	224,300	-0,176	-0,198
228,596	226,476	-0,158	-0,178
229,611	40,659	-0,248	-0,154
230,626	457,512	-0,150	-0,232
231,640	-171,563	-0,191	-0,004
232,655	150,631	-0,182	-0,171
233,669	46,665	-0,293	-0,188
234,684	-178,673	-0,108	-0,002
235,699	28,949	-0,193	-0,113
236,713	368,981	-0,098	-0,138
237,728	237,922	-0,151	-0,174
238,742	11,683	-0,264	-0,140
239,757	-185,501	-0,145	-0,001
240,772	800,000	-0,128	-0,247
241,786	-19,199	-0,158	-0,068
242,801	358,125	-0,184	-0,256
243,815	117,313	-0,169	-0,144
244,830	166,610	-0,170	-0,168
245,844	-99,309	-0,150	-0,026
246,859	63,879	-0,169	-0,118
247,874	90,289	-0,204	-0,158
248,888	204,362	-0,243	-0,261
249,903	-88,580	-0,305	-0,062
250,917	-139,100	-0,193	-0,014
251,932	99,041	-0,037	0,029
252,947	138,304	-0,043	-0,039
253,961	256,060	-0,186	-0,221
254,976	489,722	-0,086	-0,136
255,990	259,050	-0,226	-0,271
257,005	211,851	-0,115	-0,126
258,020	132,262	-0,117	-0,104
259,034	-9,610	-0,166	-0,076
260,049	800,000	-0,094	-0,222
261,063	76,706	-0,263	-0,193
262,078	218,037	-0,091	-0,101
263,093	-101,516	-0,183	-0,030
264,107	-79,147	-0,285	-0,066
265,122	731,741	-0,170	-0,315
266,136	192,111	-0,200	-0,209
267,151	175,870	-0,160	-0,161
268,166	93,284	-0,120	-0,094
269,180	-21,462	-0,204	-0,085
270,195	124,535	-0,198	-0,172
271,209	209,136	-0,164	-0,178
272,224	800,000	-0,028	-0,079
273,239	21,102	-0,092	-0,052
274,253	46,117	-0,233	-0,149
275,268	13,802	-0,132	-0,071
276,282	760,732	-0,113	-0,213
277,297	62,572	-0,114	-0,079
278,312	164,451	-0,127	-0,124
279,326	-24,791	-0,183	-0,075
280,341	-59,264	-0,176	0,052
281,355	54,809	-0,115	-0,076
282,370	150,320	-0,222	-0,209
283,384	156,048	-0,053	-0,050
284,399	422,833	-0,061	-0,091
285,414	800,000	-0,099	-0,201
286,428	117,060	-0,236	-0,200
287,443	-47,666	-0,090	0,030
288,457	186,759	-0,098	-0,101
289,472	-29,620	-0,218	0,086
290,487	51,216	-0,215	-0,141
291,501	226,030	-0,144	-0,161
292,516	176,197	-0,138	-0,138
293,530	48,932	-0,188	-0,122
294,545	341,273	-0,172	-0,232
295,560	89,421	-0,127	-0,097
296,574	-38,007	-0,041	-0,015
297,589	800,000	-0,096	-0,288
298,603	800,000	-0,029	-0,058
299,618	38,482	-0,196	-0,120
300,633	38,277	-0,219	-0,134
301,647	118,061	-0,132	-0,112
302,662	800,000	-0,081	-0,185
303,676	113,573	-0,114	-0,096
304,691	70,208	-0,112	-0,080
305,706	-29,069	-0,230	-0,090
306,720	200,261	-0,126	-0,134
307,735	164,682	-0,155	-0,150
308,749	43,081	-0,075	-0,047
309,764	164,360	-0,154	-0,150
310,779	-65,915	-0,107	-0,029
311,793	444,072	-0,126	-0,192
312,808	163,775	-0,148	-0,144
313,822	7,429	-0,133	-0,068
314,837	-7,660	-0,145	-0,067
315,852	71,740	-0,106	-0,076
316,866	30,295	-0,049	-0,029
317,881	50,858	-0,138	-0,090
318,895	327,253	-0,115	-0,152
319,910	24,294	-0,223	-0,127
320,925	113,586	-0,184	-0,154
321,939	-48,942	-0,187	-0,061
322,954	800,000	-0,032	-0,081
323,968	320,990	-0,039	-0,051
324,983	-55,151	-0,198	0,061
325,997	30,776	-0,180	-0,106
327,012	168,807	-0,158	-0,155
328,027	-200,000	-0,020	-0,225
329,041	136,013	-0,123	-0,110
330,056	-200,000	-0,016	-0,094
331,070	-150,188	-0,171	-0,009
332,085	-26,980	-0,120	-0,048
333,100	605,380	-0,109	-0,187
334,114	493,794	-0,101	-0,160
335,129	-200,000	-0,031	-0,170
336,143	94,075	-0,064	-0,050
337,158	800,000	-0,077	-0,193
338,173	142,660	-0,096	-0,088
339,187	800,000	-0,041	0,083
340,202	165,958	-0,113	-0,110
341,216	-125,474	-0,187	-0,019
342,231	565,825	-0,060	-0,100
343,246	104,427	-0,085	-0,068
344,260	-97,639	-0,062	-0,011
345,275	-92,880	-0,075	0,014
346,289	-200,000	-0,012	-0,149
347,304	65,205	-0,128	-0,089
348,319	800,000	-0,073	-0,158
349,333	-12,279	-0,131	-0,058
350,348	304,307	-0,168	-0,215
351,362	-1,509	-0,114	-0,055
352,377	-94,062	-0,214	-0,040
353,392	55,265	-0,100	-0,066
354,406	-121,299	-0,134	-0,015
355,421	209,424	1314,266	1414,536
356,435	161,179	1474,948	1415,030
