DTS Sentinel unit serial number:	SN410029Multiplexer serial number:	ORYXHardware model number:	OX2-SRSoftware version number:	ORYX F/W v4,00 Oryx Data Collector v3.7.2.0data status	okinstallation	B3 Nyhavnadifferential loss correction	single-endedforward channel	channel 1reverse channel	N/Adate	2023/12/03time	01:22:30forward acquisition time	300,00reverse acquisition time	0,00gamma	499,1914k internal	0,3201k external	0,3201temperature offset calibration	1,0000default loss term (dB/km)	0,3820temperature slope calibration	1,0000multiplexer offset coefficient	1,0000multiplexer slope coefficient	1,0000fibre end	0,00T internal ref (°C)	13,32T ext. ref 1 (°C)	-1,67T ext. ref 2 (°C)	-1,69length (m)	temperature (°C)	Stokes	anti-Stokes-744,400	221,277	-0,142	-0,166
-743,385	-200,000	0,028	0,153
-742,371	526,562	-0,131	-0,225
-741,356	800,000	0,086	0,271
-740,342	9,179	-0,185	-0,102
-739,327	800,000	0,077	0,216
-738,312	383,205	-0,172	-0,259
-737,298	800,000	0,091	0,224
-736,283	207,885	-0,188	-0,213
-735,269	-200,000	0,063	0,215
-734,254	337,633	-0,168	-0,239
-733,239	-70,724	-0,169	0,046
-732,225	-200,000	-0,065	-0,216
-731,210	128,298	0,119	0,110
-730,196	-67,283	-0,193	0,055
-729,181	-120,647	0,061	-0,007
-728,167	196,260	0,030	-0,033
-727,152	2,358	-0,073	-0,038
-726,137	-7,660	-0,070	-0,034
-725,123	499,405	-0,023	0,038
-724,108	374,416	-0,083	-0,123
-723,094	800,000	-0,003	-0,007
-722,079	530,206	0,010	0,017
-721,064	32,654	-0,072	0,045
-720,050	559,700	-0,063	-0,111
-719,035	15,910	-0,077	-0,044
-718,021	-200,000	0,004	-0,159
-717,006	33,786	-0,153	-0,097
-715,991	800,000	0,011	-0,033
-714,977	181,941	0,054	-0,058
-713,962	319,672	-0,118	-0,164
-712,948	75,472	-0,111	0,085
-711,933	-28,673	-0,023	-0,010
-710,918	33,386	-0,112	-0,071
-709,904	101,638	-0,082	-0,069
-708,889	150,790	-0,074	-0,073
-707,875	-200,000	-0,021	-0,093
-706,860	-200,000	-0,018	0,077
-705,845	178,648	0,072	0,077
-704,831	520,409	0,044	0,075
-703,816	52,409	-0,038	-0,027
-702,802	-116,876	-0,052	0,007
-701,787	2,943	-0,222	-0,117
-700,772	800,000	-0,060	-0,185
-699,758	-200,000	-0,018	-0,095
-698,743	-73,236	0,211	0,056
-697,729	-2,165	0,120	-0,061
-696,714	194,055	0,031	-0,034
-695,699	331,721	-0,045	-0,063
-694,685	800,000	0,016	0,036
-693,670	-200,000	-0,009	-0,043
-692,656	-168,692	0,035	0,001
-691,641	-124,836	-0,100	0,011
-690,627	-13,520	0,039	0,018
-689,612	53,442	0,080	0,056
-688,597	-46,104	-0,119	-0,042
-687,583	334,599	-0,085	0,120
-686,568	246,500	-0,065	-0,080
-685,554	-108,873	0,028	-0,004
-684,539	45,462	0,084	-0,056
-683,524	86,782	-0,086	0,069
-682,510	13,252	0,148	0,083
-681,495	39,076	-0,136	-0,088
-680,481	-96,441	-0,164	0,031
-679,466	-200,000	0,139	0,000
-678,451	-19,130	-0,054	-0,024
-677,437	-122,167	-0,157	0,018
-676,422	-76,409	0,030	0,008
-675,408	-12,222	0,045	0,021
-674,393	166,473	0,048	-0,049
-673,378	116,208	-0,086	-0,076
-672,364	88,622	-0,101	-0,081
-671,349	-200,000	-0,009	0,050
-670,335	312,656	0,051	0,069
-669,320	-60,988	0,163	0,050
-668,305	800,000	-0,062	0,143
-667,291	-200,000	0,012	-0,101
-666,276	394,139	-0,028	0,042
-665,262	-136,064	-0,101	-0,008
-664,247	-200,000	-0,012	-0,042
-663,232	-31,162	-0,045	-0,018
-662,218	769,617	-0,054	0,107
-661,203	65,357	-0,146	0,107
-660,189	-200,000	-0,015	-0,117
-659,174	514,096	-0,025	0,042
-658,159	448,603	-0,067	0,107
-657,145	-200,000	0,019	-0,106
-656,130	800,000	0,029	0,076
-655,116	191,452	0,049	0,054
-654,101	-200,000	0,022	0,143
-653,086	-200,000	-0,022	0,092
-652,072	97,069	-0,047	-0,039
-651,057	-82,619	-0,135	-0,031
-650,043	800,000	-0,048	-0,117
-649,028	159,048	-0,057	0,058
-648,014	-67,243	0,039	-0,011
-646,999	-200,000	0,009	0,143
-645,984	-177,531	0,042	0,001
-644,970	16,202	0,030	0,017
-643,955	74,947	-0,031	-0,024
-642,941	211,364	-0,157	-0,180
-641,926	-200,000	-0,018	0,111
-640,911	185,158	-0,046	-0,049
-639,897	-200,000	-0,006	-0,029
-638,882	-32,609	0,133	-0,053
-637,868	-200,000	-0,025	-0,122
-636,853	137,304	-0,065	-0,062
-635,838	31,029	-0,113	-0,070
-634,824	-200,000	0,000	-0,093
-633,809	-54,469	0,106	0,035
-632,795	443,020	0,038	0,061
-631,780	-161,526	0,072	-0,003
-630,765	-40,795	-0,171	-0,064
-629,751	-100,255	0,103	-0,018
-628,736	545,795	-0,025	-0,043
-627,722	300,701	-0,068	-0,091
-626,707	-64,758	0,063	-0,018
-625,692	-61,457	0,213	0,064
-624,678	208,327	-0,112	-0,127
-623,663	-107,276	-0,068	0,011
-622,649	800,000	-0,075	-0,157
-621,634	800,000	0,013	0,028
-620,619	161,355	-0,152	-0,154
-619,605	-140,290	0,095	0,007
-618,590	-4,751	0,078	0,039
-617,576	-200,000	0,029	-0,100
-616,561	-29,746	-0,128	0,053
-615,546	-54,424	-0,125	0,041
-614,532	635,640	0,021	0,040
-613,517	147,034	-0,018	-0,017
-612,503	45,814	-0,146	0,098
-611,488	800,000	-0,012	0,030
-610,474	-159,704	0,049	0,002
-609,459	-143,946	-0,072	0,005
-608,444	41,127	-0,073	0,047
-607,430	406,379	-0,075	0,115
-606,415	144,176	0,068	0,065
-605,401	-60,661	-0,027	0,008
-604,386	-138,695	-0,101	-0,008
-603,371	9,777	0,047	0,026
-602,357	-200,000	-0,031	0,106
-601,342	87,721	-0,045	0,036
-600,328	-200,000	0,002	-0,123
-599,313	800,000	0,065	-0,175
-598,298	-200,000	0,038	0,170
-597,284	136,381	-0,064	-0,060
-596,269	151,664	-0,096	-0,095
-595,255	-177,782	-0,084	-0,001
-594,240	76,788	-0,010	-0,008
-593,225	-200,000	0,004	-0,095
-592,211	51,417	-0,117	-0,080
-591,196	46,715	0,134	-0,090
-590,182	-21,109	-0,074	0,033
-589,167	-200,000	0,002	0,075
-588,152	-200,000	0,008	0,057
-587,138	-9,987	-0,095	-0,045
-586,123	-81,272	-0,132	0,031
-585,109	800,000	-0,031	-0,092
-584,094	102,599	-0,056	-0,048
-583,079	-200,000	-0,017	-0,079
-582,065	-85,227	0,109	0,024
-581,050	800,000	0,026	-0,082
-580,036	-20,575	-0,097	0,043
-579,021	45,180	-0,142	-0,094
-578,006	40,294	-0,059	-0,038
-576,992	310,529	0,040	-0,055
-575,977	-33,931	0,101	0,040
-574,963	448,447	-0,010	-0,016
-573,948	290,088	0,068	0,089
-572,934	36,799	-0,094	-0,060
-571,919	-200,000	-0,011	-0,203
-570,904	800,000	0,009	0,027
-569,890	691,845	-0,043	-0,082
-568,875	289,013	0,089	0,116
-567,861	-200,000	-0,005	0,098
-566,846	187,566	-0,044	0,047
-565,831	161,580	0,127	0,128
-564,817	-30,069	-0,108	-0,044
-563,802	33,351	0,010	0,006
-562,788	800,000	0,026	-0,052
-561,773	441,712	0,052	-0,082
-560,758	-200,000	0,005	0,090
-559,744	800,000	0,049	0,116
-558,729	-59,374	-0,043	-0,013
-557,715	1,765	-0,058	0,030
-556,700	-97,589	-0,109	0,020
-555,685	189,919	0,063	-0,069
-554,671	-32,760	0,057	0,023
-553,656	-123,410	-0,077	0,009
-552,642	-39,348	0,107	0,040
-551,627	-5,362	0,056	-0,028
-550,612	-200,000	-0,013	0,053
-549,598	-45,199	-0,160	-0,057
-548,583	-200,000	-0,017	0,057
-547,569	344,664	0,088	-0,124
-546,554	24,917	-0,035	0,021
-545,539	-16,468	0,084	0,038
-544,525	-200,000	-0,021	0,104
-543,510	73,339	-0,101	-0,076
-542,496	-200,000	-0,000	0,157
-541,481	-200,000	0,004	-0,013
-540,466	395,683	-0,020	0,030
-539,452	-200,000	0,006	-0,033
-538,437	102,866	-0,085	0,071
-537,423	-200,000	-0,002	0,067
-536,408	113,715	0,041	-0,036
-535,393	95,087	-0,064	-0,053
-534,379	135,729	0,058	0,055
-533,364	-200,000	0,017	-0,083
-532,350	-200,000	-0,007	-0,090
-531,335	27,047	0,156	-0,094
-530,321	114,986	-0,070	-0,061
-529,306	-200,000	-0,027	-0,097
-528,291	-22,578	-0,075	-0,033
-527,277	-41,852	-0,080	-0,029
-526,262	-200,000	0,018	-0,061
-525,248	123,336	0,051	-0,046
-524,233	-200,000	-0,005	-0,016
-523,218	800,000	-0,013	0,040
-522,204	800,000	-0,055	0,133
-521,189	115,277	0,028	0,025
-520,175	611,836	0,024	-0,043
-519,160	800,000	-0,015	-0,044
-518,145	800,000	-0,007	0,022
-517,131	-200,000	0,012	0,166
-516,116	190,458	0,062	0,067
-515,102	-200,000	0,016	-0,113
-514,087	-184,752	-0,036	0,000
-513,072	-70,806	-0,036	0,010
-512,058	10,713	0,072	0,039
-511,043	-30,875	-0,064	0,026
-510,029	-200,000	-0,014	0,065
-509,014	-200,000	-0,002	0,071
-507,999	79,362	-0,137	-0,106
-506,985	-85,558	-0,075	-0,017
-505,970	489,039	0,013	0,021
-504,956	146,781	-0,030	-0,029
-503,941	-68,936	-0,188	0,052
-502,926	229,370	0,067	-0,078
-501,912	-200,000	-0,030	0,102
-500,897	-140,652	0,190	-0,014
-499,883	125,026	0,052	-0,047
-498,868	-140,354	0,109	0,008
-497,853	132,213	0,103	-0,095
-496,839	-200,000	-0,044	-0,177
-495,824	350,007	0,131	0,187
-494,810	-200,000	-0,003	0,147
-493,795	-49,372	0,081	0,028
-492,781	-83,456	-0,045	0,010
-491,766	217,312	-0,103	-0,119
-490,751	800,000	0,011	-0,032
-489,737	800,000	-0,022	-0,057
-488,722	-43,480	0,149	0,054
-487,708	-101,381	0,103	0,018
-486,693	93,547	0,060	-0,049
-485,678	800,000	0,017	0,045
-484,664	99,708	-0,147	-0,122
-483,649	-200,000	-0,001	0,039
-482,635	169,050	-0,083	-0,085
-481,620	-200,000	-0,019	-0,091
-480,605	-123,921	-0,093	-0,010
-479,591	-133,231	0,145	0,013
-478,576	72,960	-0,073	-0,055
-477,562	-200,000	-0,032	-0,117
-476,547	-144,195	-0,049	-0,003
-475,532	174,137	-0,047	-0,049
-474,518	310,643	0,086	-0,116
-473,503	-99,737	0,023	-0,004
-472,489	800,000	0,017	0,045
-471,474	-200,000	-0,007	-0,057
-470,459	-200,000	0,010	0,039
-469,445	-101,462	-0,055	-0,010
-468,430	33,540	-0,092	-0,057
-467,416	-71,221	0,008	0,002
-466,401	72,820	-0,034	0,025
-465,386	144,593	0,064	0,061
-464,372	-74,876	0,040	0,010
-463,357	43,421	-0,079	0,052
-462,343	-200,000	-0,011	-0,146
-461,328	-54,890	0,146	-0,047
-460,313	-59,855	-0,134	-0,041
-459,299	-149,118	0,047	0,003
-458,284	-45,542	-0,016	0,005
-457,270	800,000	-0,043	0,099
-456,255	-200,000	-0,003	0,013
-455,241	-102,905	-0,099	-0,017
-454,226	216,286	0,039	0,045
-453,211	-47,279	0,021	0,007
-452,197	-78,669	0,099	0,024
-451,182	64,724	0,080	0,058
-450,168	-200,000	0,029	0,222
-449,153	-23,571	0,047	0,020
-448,138	-36,235	0,077	0,030
-447,124	-123,175	-0,056	-0,006
-446,109	-200,000	0,009	0,100
-445,095	-176,283	0,093	0,002
-444,080	800,000	-0,013	-0,035
-443,065	647,836	0,018	0,034
-442,051	-200,000	0,012	0,108
-441,036	202,034	-0,025	-0,028
-440,022	-146,827	0,090	0,005
-439,007	-84,881	-0,161	-0,036
-437,992	477,913	0,028	0,046
-436,978	800,000	-0,020	0,061
-435,963	800,000	0,033	-0,070
-434,949	64,341	0,101	0,073
-433,934	-200,000	0,003	-0,055
-432,919	-200,000	-0,004	-0,056
-431,905	-47,387	0,097	0,034
-430,890	11,003	0,069	0,038
-429,876	71,519	0,108	-0,080
-428,861	800,000	-0,044	-0,125
-427,846	-97,653	0,046	-0,008
-426,832	-200,000	-0,005	-0,112
-425,817	800,000	0,013	0,031
-424,803	442,582	0,077	-0,122
-423,788	-124,085	-0,054	-0,006
-422,773	-108,392	0,109	-0,017
-421,759	571,854	-0,083	0,145
-420,744	71,890	-0,062	0,046
-419,730	-200,000	0,002	0,136
-418,715	-200,000	-0,019	-0,138
-417,701	41,308	0,068	0,044
-416,686	-200,000	-0,004	-0,022
-415,671	266,865	0,037	0,047
-414,657	800,000	0,012	0,026
-413,642	-200,000	-0,015	-0,080
-412,628	256,552	-0,079	-0,097
-411,613	41,976	-0,057	-0,037
-410,598	371,636	-0,082	-0,119
-409,584	33,138	0,049	-0,030
-408,569	800,000	0,035	0,075
-407,555	17,218	-0,029	0,016
-406,540	-70,640	0,088	0,024
-405,525	261,630	-0,054	-0,068
-404,511	800,000	-0,036	-0,102
-403,496	-200,000	-0,009	0,031
-402,482	120,673	0,013	-0,012
-401,467	-52,531	0,027	0,009
-400,452	2,744	-0,097	-0,050
-399,438	543,117	0,051	0,088
-398,423	448,452	-0,042	0,066
-397,409	-200,000	-0,027	-0,122
-396,394	-200,000	-0,023	-0,076
-395,379	-200,000	-0,019	-0,193
-394,365	-65,391	0,119	-0,034
-393,350	-200,000	-0,001	-0,049
-392,336	-200,000	-0,016	0,078
-391,321	707,800	0,075	-0,143
-390,306	58,958	-0,082	-0,058
-389,292	-51,422	-0,042	0,014
-388,277	343,115	-0,022	0,031
-387,263	-200,000	0,020	0,158
-386,248	-200,000	0,005	0,098
-385,233	326,684	0,071	0,098
-384,219	-91,350	-0,123	-0,025
-383,204	-62,097	-0,050	0,015
-382,190	-200,000	0,016	0,066
-381,175	85,006	0,107	0,084
-380,160	151,736	0,130	0,127
-379,146	-62,028	0,153	0,045
-378,131	-0,651	0,048	0,024
-377,117	-61,296	0,055	-0,017
-376,102	80,465	-0,096	-0,074
-375,088	-0,436	0,099	-0,050
-374,073	-35,921	-0,076	0,029
-373,058	137,441	0,017	0,016
-372,044	800,000	-0,038	-0,080
-371,029	-9,655	-0,080	-0,038
-370,015	-200,000	-0,011	-0,069
-369,000	26,396	-0,064	-0,038
-367,985	800,000	0,032	-0,081
-366,971	-200,000	-0,009	0,123
-365,956	279,314	0,058	-0,075
-364,942	-48,879	0,040	0,014
-363,927	-200,000	-0,019	0,121
-362,912	-103,096	-0,026	-0,004
-361,898	-54,024	-0,139	0,045
-360,883	800,000	-0,031	-0,079
-359,869	800,000	-0,027	0,074
-358,854	444,146	0,038	0,060
-357,839	-200,000	0,019	0,066
-356,825	512,459	-0,034	0,057
-355,810	-200,000	0,023	0,103
-354,796	-200,000	0,005	-0,044
-353,781	-2,066	-0,069	0,034
-352,766	-128,657	0,055	0,005
-351,752	800,000	-0,061	-0,170
-350,737	382,830	0,031	-0,045
-349,723	-134,277	-0,190	0,016
-348,708	39,904	0,020	0,013
-347,693	283,627	-0,068	-0,087
-346,679	-77,619	0,054	0,013
-345,664	-184,377	0,021	-0,000
-344,650	629,171	-0,020	-0,036
-343,635	800,000	-0,025	-0,067
-342,620	115,191	0,021	0,018
-341,606	376,342	0,027	-0,039
-340,591	550,016	0,038	0,065
-339,577	67,844	-0,080	0,058
-338,562	29,082	-0,128	-0,077
-337,548	-84,806	0,087	-0,019
-336,533	489,227	-0,077	0,127
-335,518	800,000	0,044	0,109
-334,504	342,653	0,035	0,049
-333,489	-19,297	-0,106	-0,047
-332,475	-69,161	0,103	0,028
-331,460	-200,000	0,047	-0,166
-330,445	-24,152	-0,115	-0,049
-329,431	419,514	0,060	0,093
-328,416	-25,227	0,036	0,015
-327,402	50,539	0,113	-0,076
-326,387	-34,348	0,051	0,020
-325,372	4,248	0,075	0,039
-324,358	800,000	0,053	0,118
-323,343	-100,068	-0,020	0,004
-322,329	-200,000	0,014	0,060
-321,314	800,000	0,031	0,063
-320,299	800,000	-0,059	0,121
-319,285	800,000	-0,022	0,055
-318,270	-38,122	0,041	-0,015
-317,256	-159,718	0,112	-0,004
-316,241	-58,424	-0,076	-0,023
-315,226	296,033	-0,015	0,019
-314,212	-200,000	0,008	0,096
-313,197	-200,000	-0,001	0,080
-312,183	43,043	0,085	-0,055
-311,168	422,233	0,082	0,127
-310,153	-200,000	-0,012	-0,052
-309,139	306,826	0,123	-0,165
-308,124	-146,949	-0,061	0,004
-307,110	32,724	0,067	-0,041
-306,095	-200,000	0,015	0,075
-305,080	-200,000	0,017	0,063
-304,066	163,085	-0,009	-0,009
-303,051	800,000	0,003	-0,007
-302,037	-110,291	-0,156	-0,023
-301,022	149,643	0,030	0,029
-300,008	-154,968	0,117	-0,005
-298,993	366,678	0,079	0,115
-297,978	-127,014	0,055	-0,006
-296,964	604,271	-0,080	-0,143
-295,949	526,039	-0,092	-0,156
-294,935	-200,000	0,008	-0,061
-293,920	-151,988	0,162	-0,008
-292,905	-29,387	-0,060	0,025
-291,891	-156,928	-0,043	-0,002
-290,876	460,516	0,129	0,206
-289,862	-103,285	-0,110	-0,018
-288,847	-149,706	-0,243	-0,013
-287,832	-60,991	-0,013	0,004
-286,818	384,140	-0,027	0,040
-285,803	-144,522	0,136	0,009
-284,789	-200,000	0,033	0,198
-283,774	-115,846	0,090	0,012
-282,759	258,631	0,046	0,057
-281,745	97,310	-0,028	-0,023
-280,730	183,211	-0,046	0,049
-279,716	21,517	0,042	0,024
-278,701	-65,686	-0,107	0,031
-277,686	-200,000	-0,016	0,184
-276,672	800,000	0,031	0,075
-275,657	-111,597	-0,114	0,016
-274,643	800,000	0,093	-0,187
-273,628	-200,000	-0,016	0,175
-272,613	34,523	-0,082	-0,051
-271,599	-76,703	-0,070	-0,017
-270,584	-142,124	-0,014	0,001
-269,570	736,133	-0,034	-0,065
-268,555	103,728	0,048	-0,040
-267,540	-200,000	-0,011	-0,047
-266,526	28,115	-0,049	-0,029
-265,511	-153,652	-0,022	0,001
-264,497	-200,000	-0,005	0,092
-263,482	-48,365	0,097	0,033
-262,467	256,623	0,070	0,086
-261,453	-200,000	-0,045	-0,229
-260,438	800,000	0,057	-0,124
-259,424	-200,000	-0,030	0,120
-258,409	800,000	-0,021	-0,056
-257,395	163,628	0,108	-0,108
-256,380	-200,000	0,024	0,144
-255,365	445,036	0,066	0,103
-254,351	-26,647	-0,016	0,007
-253,336	274,850	-0,035	-0,045
-252,322	800,000	0,042	-0,121
-251,307	240,356	-0,109	-0,130
-250,292	-200,000	-0,021	0,086
-249,278	24,909	0,102	0,060
-248,263	-200,000	-0,010	0,051
-247,249	-35,494	-0,088	0,034
-246,234	-178,829	-0,097	-0,002
-245,219	-200,000	-0,002	0,011
-244,205	-109,569	0,126	-0,019
-243,190	800,000	-0,029	-0,057
-242,176	-36,236	0,112	-0,043
-241,161	-72,948	0,125	-0,033
-240,146	117,808	0,037	-0,032
-239,132	-200,000	-0,003	-0,010
-238,117	226,651	-0,040	-0,046
-237,103	134,386	0,055	-0,051
-236,088	260,726	-0,036	-0,045
-235,073	40,588	0,051	0,033
-234,059	800,000	-0,039	0,098
-233,044	277,314	0,100	0,127
-232,030	-200,000	0,012	0,101
-231,015	545,078	0,071	-0,121
-230,000	-200,000	-0,000	0,030
-228,986	-126,550	-0,114	-0,012
-227,971	-116,243	-0,105	-0,014
-226,957	-3,551	0,056	-0,027
-225,942	-68,647	0,176	0,048
-224,927	-78,797	-0,080	0,019
-223,913	-173,904	0,041	0,001
-222,898	-71,676	-0,028	-0,007
-221,884	-200,000	0,011	0,148
-220,869	213,330	-0,037	0,042
-219,855	-26,138	0,057	0,024
-218,840	-2,162	0,043	-0,022
-217,825	-36,520	-0,065	0,025
-216,811	800,000	-0,009	-0,027
-215,796	46,310	0,157	-0,104
-214,782	-200,000	0,033	-0,137
-213,767	-36,514	-0,058	-0,022
-212,752	-17,771	0,096	-0,043
-211,738	-162,956	-0,060	0,002
-210,723	124,152	-0,114	-0,102
-209,709	341,583	0,030	0,042
-208,694	-200,000	0,022	-0,080
-207,679	314,530	-0,036	-0,048
-206,665	462,203	0,095	-0,151
-205,650	-52,081	0,080	0,026
-204,636	-200,000	-0,020	0,206
-203,621	16,517	0,081	-0,046
-202,606	512,409	-0,017	0,028
-201,592	-43,091	-0,076	-0,027
-200,577	91,076	-0,056	-0,045
-199,563	-42,693	-0,124	-0,045
-198,548	10,642	0,152	0,082
-197,533	-200,000	0,005	-0,077
-196,519	145,217	-0,133	0,127
-195,504	-16,564	0,084	-0,038
-194,490	-19,786	-0,130	0,057
-193,475	361,528	-0,032	0,046
-192,460	-200,000	-0,011	0,036
-191,446	448,531	-0,066	0,104
-190,431	-39,524	0,060	0,022
-189,417	-200,000	0,024	-0,123
-188,402	-200,000	0,016	0,100
-187,387	254,752	0,020	-0,025
-186,373	800,000	0,024	0,074
-185,358	-85,912	-0,058	0,013
-184,344	-35,685	0,097	-0,037
-183,329	-20,745	-0,025	-0,011
-182,315	-161,690	0,085	-0,003
-181,300	33,524	-0,097	0,060
-180,285	94,429	-0,077	0,062
-179,271	800,000	-0,021	-0,064
-178,256	-84,596	-0,123	-0,027
-177,242	58,325	0,061	-0,042
-176,227	800,000	0,024	0,073
-175,212	44,034	0,076	-0,049
-174,198	29,568	-0,067	-0,040
-173,183	101,813	-0,057	0,047
-172,169	-109,885	-0,130	-0,019
-171,154	15,988	0,030	0,016
-170,139	800,000	0,041	0,094
-169,125	530,777	0,045	0,076
-168,110	114,440	0,137	0,118
-167,096	0,807	0,043	0,022
-166,081	-27,169	0,065	-0,027
-165,066	156,390	-0,050	-0,049
-164,052	-159,439	0,084	-0,003
-163,037	-179,161	-0,009	-0,000
-162,023	-98,907	0,197	0,035
-161,008	672,138	0,060	0,112
-159,993	-200,000	-0,014	0,118
-158,979	182,931	0,034	-0,035
-157,964	-108,838	-0,113	0,017
-156,950	-169,105	0,109	-0,003
-155,935	800,000	-0,047	-0,098
-154,920	800,000	0,022	0,064
-153,906	-200,000	-0,020	0,096
-152,891	-200,000	-0,020	-0,070
-151,877	52,992	-0,061	-0,041
-150,862	521,307	-0,055	-0,091
-149,847	-106,102	0,112	-0,018
-148,833	-126,933	0,030	-0,003
-147,818	165,955	0,092	0,092
-146,804	-200,000	0,009	-0,088
-145,789	119,098	-0,068	0,060
-144,775	-200,000	0,006	-0,042
-143,760	800,000	0,008	-0,025
-142,745	-200,000	0,027	-0,169
-141,731	-16,000	-0,152	0,068
-140,716	330,465	-0,099	0,136
-139,702	-98,633	0,077	0,014
-138,687	322,745	-0,047	0,064
-137,672	-48,704	-0,037	0,013
-136,658	800,000	0,041	-0,085
-135,643	-200,000	-0,003	-0,064
-134,629	-200,000	0,006	0,097
-133,614	-200,000	-0,011	0,048
-132,599	-25,940	0,091	-0,038
-131,585	-200,000	-0,001	0,080
-130,570	497,998	-0,030	0,050
-129,556	723,267	0,048	0,092
-128,541	565,612	0,037	-0,064
-127,526	111,347	0,055	0,047
-126,512	-200,000	-0,005	0,023
-125,497	317,600	0,090	-0,122
-124,483	439,095	-0,019	-0,030
-123,468	-83,464	0,041	-0,009
-122,453	83,794	-0,067	-0,052
-121,439	549,760	-0,047	-0,081
-120,424	-75,470	-0,044	-0,011
-119,410	-140,355	0,140	0,010
-118,395	-200,000	0,208	-0,001
-117,380	118,838	-0,108	0,094
-116,366	-96,095	0,088	0,016
-115,351	231,405	-0,155	0,180
-114,337	-83,087	-0,106	-0,024
-113,322	26,716	0,093	0,055
-112,307	390,971	-0,053	0,078
-111,293	37,812	0,059	-0,037
-110,278	305,089	-0,077	0,102
-109,264	57,932	-0,023	-0,016
-108,249	-174,309	-0,058	0,001
-107,234	800,000	-0,046	0,102
-106,220	-21,381	0,047	-0,020
-105,205	443,463	-0,011	0,018
-104,191	-131,073	0,037	-0,003
-103,176	51,753	0,055	0,037
-102,162	800,000	-0,036	0,084
-101,147	94,917	-0,089	0,072
-100,132	800,000	-0,060	-0,131
-99,118	-200,000	-0,016	-0,058
-98,103	-85,642	0,120	-0,026
-97,089	527,550	0,054	0,091
-96,074	330,758	-0,032	0,043
-95,059	-78,383	0,117	0,028
-94,045	-61,236	-0,049	0,014
-93,030	221,892	-0,108	-0,124
-92,016	258,654	0,042	0,052
-91,001	-200,000	-0,034	-0,190
-89,986	-5,070	-0,071	-0,035
-88,972	-73,550	0,077	-0,020
-87,957	-200,000	0,029	0,122
-86,943	723,861	0,061	0,115
-85,928	800,000	-0,042	-0,128
-84,913	45,270	0,061	0,040
-83,899	800,000	0,035	0,089
-82,884	-43,256	0,051	-0,018
-81,870	-58,916	0,094	0,028
-80,855	800,000	0,044	0,131
-79,840	-200,000	0,011	0,060
-78,826	-41,568	0,075	-0,027
-77,811	152,673	-0,147	-0,142
-76,797	44,714	0,133	-0,087
-75,782	-113,993	0,137	-0,019
-74,767	-162,036	0,040	-0,001
-73,753	8,657	-0,052	-0,028
-72,738	800,000	-0,044	0,114
-71,724	-200,000	-0,016	0,134
-70,709	433,590	0,020	0,030
-69,694	-150,415	-0,121	-0,007
-68,680	25,672	0,052	0,030
-67,665	-200,000	-0,014	0,154
-66,651	-200,000	-0,006	0,119
-65,636	750,433	-0,061	0,118
-64,622	800,000	0,049	-0,127
-63,607	23,349	-0,116	-0,067
-62,592	504,521	0,082	0,135
-61,578	248,807	-0,091	0,110
-60,563	193,912	-0,062	0,066
-59,549	-154,358	-0,027	0,001
-58,534	-31,711	-1,689	-0,668
-57,519	382,801	-1,362	-1,990
-56,505	-200,000	-0,530	-4,447
-55,490	224,066	0,963	1,103
-54,476	800,000	4,950	11,379
-53,461	-200,000	19,217	319,656
-52,446	-200,000	740,480	2334,640
-51,432	573,723	1655,741	2870,230
-50,417	78,292	1671,328	1262,085
-49,403	21,314	1543,971	885,696
-48,388	15,239	1466,329	811,617
-47,373	17,972	1456,579	819,397
-46,359	16,667	1446,507	807,439
-45,344	13,479	1441,717	789,466
-44,330	13,385	1439,989	788,035
-43,315	13,423	1438,157	787,186
-42,300	13,402	1436,586	786,192
-41,286	13,413	1435,379	785,553
-40,271	13,379	1434,103	784,661
-39,257	13,414	1432,826	784,097
-38,242	13,443	1431,356	783,402
-37,227	13,418	1430,292	782,667
-36,213	13,390	1429,000	781,797
-35,198	13,376	1427,909	781,104
-34,184	13,434	1426,812	780,746
-33,169	13,367	1425,512	779,686
-32,154	13,407	1424,565	779,327
-31,140	13,420	1423,098	778,556
-30,125	13,466	1421,857	778,064
-29,111	13,429	1420,809	777,282
-28,096	13,382	1420,031	776,607
-27,082	13,388	1418,644	775,845
-26,067	13,361	1417,711	775,174
-25,052	13,353	1416,495	774,443
-24,038	13,329	1415,462	773,736
-23,023	13,340	1414,346	773,144
-22,009	13,338	1413,639	772,721
-20,994	13,331	1412,637	772,106
-19,979	13,287	1411,805	771,416
-18,965	13,329	1410,953	771,115
-17,950	13,340	1409,694	770,451
-16,936	13,299	1408,911	769,797
-15,921	13,263	1407,769	768,978
-14,906	13,243	1407,135	768,507
-13,892	13,258	1406,085	767,973
-12,877	13,262	1405,139	767,441
-11,863	13,248	1404,403	766,948
-10,848	13,229	1403,437	766,299
-9,833	13,215	1402,458	765,669
-8,819	13,197	1401,677	765,128
-7,804	13,169	1400,799	764,490
-6,790	13,152	1399,752	763,806
-5,775	13,205	1398,334	763,249
-4,760	13,214	1397,644	762,884
-3,746	13,131	1396,751	761,982
-2,731	13,180	1395,918	761,724
-1,717	13,101	1395,224	760,949
-0,702	13,133	1393,044	759,879
0,313	16,975	1310,197	732,485
1,327	33,270	703,905	431,197
2,342	51,027	123,490	82,701
3,356	1,416	16,621	8,427
4,371	14,826	3,119	1,721
5,386	-29,470	0,694	0,279
6,400	800,000	0,055	0,160
7,415	388,714	-0,141	-0,207
8,429	159,021	-0,178	-0,175
9,444	-79,073	-0,387	-0,092
10,459	9,390	-0,367	-0,196
11,473	-49,206	-0,188	-0,063
12,488	38,001	-0,288	-0,180
13,502	59,388	-0,268	-0,187
14,517	-44,630	-0,431	-0,151
15,531	119,601	-0,317	-0,278
16,546	-2,930	-0,296	-0,145
17,561	114,264	-0,331	-0,285
18,575	61,296	-0,119	-0,083
19,590	86,789	-0,269	-0,210
20,604	-75,266	-0,299	-0,075
21,619	134,011	-0,338	-0,310
22,634	14,242	-0,397	-0,218
23,648	-32,580	-0,454	-0,178
24,663	59,003	-0,449	-0,312
25,677	35,727	-0,364	-0,225
26,692	-32,783	-0,428	-0,167
27,707	-35,622	-0,487	-0,185
28,721	112,873	-0,338	-0,289
29,736	62,573	-0,380	-0,268
30,750	227,590	-0,351	-0,404
31,765	-49,616	-0,512	-0,171
32,780	153,760	-0,317	-0,307
33,794	83,956	-0,403	-0,310
34,809	125,365	-0,277	-0,246
35,823	131,129	-0,242	-0,219
36,838	-15,877	-0,459	-0,205
37,853	-23,944	-0,455	-0,191
38,867	148,613	-0,302	-0,288
39,882	47,811	-0,317	-0,208
40,896	-11,437	-0,215	-0,099
41,911	34,477	-0,362	-0,222
42,926	0,869	-0,330	-0,166
43,940	430,168	-0,271	-0,415
44,955	290,909	-0,316	-0,405
45,969	48,372	-0,387	-0,255
46,984	155,677	-0,299	-0,290
47,999	62,374	-0,409	-0,287
49,013	-64,256	-0,395	-0,113
50,028	12,348	-0,345	-0,187
51,042	-1,677	-0,501	-0,248
52,057	42,344	-0,243	-0,155
53,071	15,857	-0,354	-0,196
54,086	-30,078	-0,366	-0,146
55,101	155,496	-0,389	-0,377
56,115	47,609	-0,351	-0,230
57,130	80,068	-0,349	-0,264
58,144	783,479	-0,209	-0,404
59,159	118,797	-0,421	-0,366
60,174	23,757	-0,391	-0,226
61,188	93,765	-0,335	-0,267
62,203	101,176	-0,326	-0,267
63,217	130,738	-0,297	-0,268
64,232	214,164	-0,251	-0,280
65,247	176,562	-0,278	-0,284
66,261	41,873	-0,326	-0,208
67,276	119,915	-0,447	-0,390
68,290	5,528	-0,320	-0,166
69,305	45,150	-0,265	-0,172
70,320	105,647	-0,321	-0,267
71,334	-11,052	-0,311	-0,144
72,349	47,874	-0,258	-0,169
73,363	-12,284	-0,285	-0,130
74,378	26,537	-0,255	-0,150
75,393	48,645	-0,293	-0,193
76,407	-108,077	-0,322	-0,049
77,422	-69,014	-0,384	-0,103
78,436	-69,353	-0,269	-0,072
79,451	197,654	-0,264	-0,284
80,466	56,125	-0,313	-0,214
81,480	730,588	-0,161	-0,304
82,495	204,623	-0,270	-0,294
83,509	136,557	-0,235	-0,215
84,524	44,796	-0,268	-0,173
85,539	64,297	-0,263	-0,186
86,553	149,779	-0,238	-0,227
87,568	30,567	-0,239	-0,143
88,582	303,560	-0,245	-0,319
89,597	-2,620	-0,356	-0,174
90,611	6,588	-0,285	-0,148
91,626	30,779	-0,147	-0,088
92,641	25,742	-0,216	-0,126
93,655	18,819	-0,220	-0,123
94,670	77,081	-0,286	-0,213
95,684	20,277	-0,353	-0,199
96,699	19,318	-0,277	-0,155
97,714	26,130	-0,273	-0,160
98,728	313,298	-0,159	-0,210
99,743	26,156	-0,226	-0,132
100,757	-122,685	-0,241	-0,027
101,772	84,040	-0,343	-0,263
102,787	703,999	-0,191	-0,354
103,801	683,725	-0,211	-0,387
104,816	237,649	-0,268	-0,312
105,830	-8,982	-0,209	-0,098
106,845	199,442	-0,132	-0,142
107,860	43,143	-0,255	-0,163
108,874	11,313	-0,318	-0,170
109,889	75,867	-0,212	-0,157
110,903	-17,994	-0,309	-0,135
111,918	800,000	-0,156	-0,315
112,933	110,305	-0,228	-0,192
113,947	207,434	-0,176	-0,193
114,962	80,518	-0,228	-0,172
115,976	117,273	-0,240	-0,207
116,991	53,793	-0,234	-0,157
118,006	127,964	-0,224	-0,200
119,020	41,906	-0,265	-0,168
120,035	130,521	-0,198	-0,178
121,049	-89,665	-0,289	-0,059
122,064	144,338	-0,194	-0,181
123,079	-32,498	-0,256	-0,099
124,093	227,386	-0,310	-0,354
125,108	326,840	-0,249	-0,334
126,122	-146,582	-0,312	-0,019
127,137	-140,866	-0,329	-0,023
128,151	128,654	-0,084	-0,075
129,166	202,987	-0,241	-0,261
130,181	-124,525	-0,258	-0,028
131,195	-30,232	-0,325	-0,128
132,210	247,339	-0,281	-0,332
133,224	241,659	-0,174	-0,204
134,239	25,235	-0,248	-0,144
135,254	126,164	-0,200	-0,177
136,268	-5,136	-0,281	-0,134
137,283	110,372	-0,176	-0,148
138,297	-11,031	-0,314	-0,144
139,312	52,580	-0,287	-0,191
140,327	-43,265	-0,220	-0,078
141,341	-101,750	-0,200	-0,034
142,356	-133,278	-0,319	-0,028
143,370	58,365	-0,197	-0,135
144,385	83,672	-0,334	-0,254
145,400	90,665	-0,268	-0,210
146,414	-17,815	-0,208	-0,091
147,429	8,931	-0,298	-0,157
148,443	232,807	-0,229	-0,263
149,458	29,657	-0,191	-0,113
150,473	121,643	-0,246	-0,214
151,487	-40,190	-0,226	-0,082
152,502	-91,779	-0,280	-0,055
153,516	-11,544	-0,309	-0,141
154,531	16,721	-0,243	-0,134
155,546	-51,452	-0,321	-0,104
156,560	28,472	-0,306	-0,180
157,575	800,000	-0,060	-0,149
158,589	150,164	-0,329	-0,312
159,604	-27,352	-0,225	-0,091
160,619	95,141	-0,235	-0,186
161,633	68,862	-0,246	-0,176
162,648	32,779	-0,301	-0,181
163,662	44,736	-0,211	-0,135
164,677	800,000	-0,119	-0,253
165,692	41,567	-0,242	-0,152
166,706	-103,970	-0,256	-0,041
167,721	65,066	-0,300	-0,211
168,735	110,477	-0,208	-0,174
169,750	9,148	-0,179	-0,094
170,764	-22,662	-0,298	-0,125
171,779	120,646	-0,177	-0,153
172,794	44,557	-0,173	-0,111
173,808	52,049	-0,203	-0,135
174,823	-130,484	-0,280	-0,026
175,837	12,239	-0,332	-0,178
176,852	80,472	-0,157	-0,118
177,867	17,275	-0,243	-0,134
178,881	38,589	-0,153	-0,095
179,896	180,648	-0,180	-0,185
180,910	24,276	-0,282	-0,162
181,925	337,551	-0,136	-0,185
182,940	143,819	-0,202	-0,187
183,954	392,782	-0,160	-0,232
184,969	800,000	-0,098	-0,228
185,983	125,010	-0,096	-0,084
186,998	152,602	-0,179	-0,170
188,013	54,062	-0,191	-0,128
189,027	224,268	-0,179	-0,202
190,042	229,785	-0,255	-0,291
191,056	135,677	-0,140	-0,127
192,071	-43,614	-0,220	-0,077
193,086	0,811	-0,198	-0,098
194,100	-46,143	-0,273	-0,093
195,115	133,527	-0,202	-0,182
196,129	239,008	-0,168	-0,195
197,144	-5,995	-0,267	-0,126
198,159	-12,039	-0,153	-0,069
199,173	101,758	-0,244	-0,198
200,188	767,262	-0,133	-0,253
201,202	-88,103	-0,225	-0,047
202,217	65,482	-0,245	-0,172
203,232	-36,566	-0,154	-0,057
204,246	426,087	-0,147	-0,220
205,261	152,623	-0,240	-0,228
206,275	-48,679	-0,223	-0,074
207,290	-22,308	-0,213	-0,089
208,304	-49,135	-0,209	-0,069
209,319	68,652	-0,191	-0,136
210,334	44,617	-0,215	-0,137
211,348	84,433	-0,163	-0,124
212,363	327,836	-0,169	-0,226
213,377	162,680	-0,133	-0,130
214,392	-105,038	-0,171	-0,027
215,407	204,994	-0,115	-0,124
216,421	-61,719	-0,191	-0,055
217,436	66,867	-0,122	-0,086
218,450	-69,688	-0,261	-0,069
219,465	236,459	-0,142	-0,164
220,480	422,209	-0,098	-0,147
221,494	-11,389	-0,152	-0,069
222,509	765,627	-0,048	-0,091
223,523	395,695	-0,088	-0,128
224,538	-85,969	-0,241	-0,051
225,553	800,000	-0,125	-0,294
226,567	175,029	-0,196	-0,197
227,582	129,599	-0,203	-0,180
228,596	-120,426	-0,030	-0,003
229,611	126,389	-0,172	-0,151
230,626	165,360	-0,119	-0,116
231,640	72,205	-0,252	-0,182
232,655	260,210	-0,177	-0,213
233,669	359,083	-0,161	-0,223
234,684	121,021	-0,227	-0,196
235,699	71,308	-0,118	-0,085
236,713	800,000	-0,076	-0,155
237,728	188,506	-0,208	-0,216
238,742	-41,054	-0,270	-0,096
239,757	292,428	-0,202	-0,256
240,772	693,122	-0,106	-0,194
241,786	47,886	-0,257	-0,166
242,801	364,014	-0,183	-0,256
243,815	344,756	-0,040	-0,054
244,830	150,311	-0,134	-0,126
245,844	800,000	-0,128	-0,280
246,859	483,722	-0,171	-0,271
247,874	301,533	-0,188	-0,241
248,888	310,925	-0,168	-0,219
249,903	216,266	-0,160	-0,177
250,917	-1,019	-0,125	-0,061
251,932	-60,927	-0,111	-0,032
252,947	631,686	-0,107	-0,188
253,961	191,587	-0,126	-0,132
254,976	46,737	-0,233	-0,150
255,990	-87,742	-0,288	-0,060
257,005	683,639	-0,097	-0,176
258,020	-30,857	-0,110	-0,043
259,034	-200,000	-0,018	-0,128
260,049	-151,997	-0,059	0,003
261,063	-62,557	-0,102	-0,029
262,078	166,696	-0,187	-0,184
263,093	-35,023	-0,181	-0,068
264,107	172,923	-0,097	-0,096
265,122	239,000	-0,112	-0,129
266,136	82,381	-0,117	-0,088
267,151	121,184	-0,126	-0,108
268,166	56,179	-0,140	-0,094
269,180	-36,253	-0,156	-0,058
270,195	482,786	-0,162	-0,255
271,209	-22,453	-0,222	-0,092
272,224	53,502	-0,252	-0,167
273,239	4,536	-0,187	-0,094
274,253	48,492	-0,060	-0,039
275,268	-35,567	-0,247	-0,092
276,282	-141,096	-0,225	0,016
277,297	-76,346	-0,146	-0,035
278,312	163,232	-0,184	-0,179
279,326	-200,000	-0,011	-0,076
280,341	66,590	-0,153	-0,107
281,355	90,541	-0,102	-0,079
282,370	800,000	-0,128	-0,251
283,384	800,000	-0,112	-0,272
284,399	103,959	-0,146	-0,118
285,414	562,964	-0,105	-0,175
286,428	57,220	-0,062	-0,042
287,443	-42,119	-0,152	-0,053
288,457	114,541	-0,138	-0,116
289,472	-60,197	-0,284	-0,083
290,487	-33,999	-0,165	-0,062
291,501	49,352	-0,198	-0,129
292,516	190,716	-0,094	-0,098
293,530	146,250	-0,117	-0,108
294,545	800,000	-0,059	-0,115
295,560	200,550	-0,123	-0,131
296,574	-155,204	-0,234	0,010
297,589	-100,131	-0,174	-0,030
298,603	-46,246	-0,258	-0,087
299,618	-141,535	-0,191	-0,013
300,633	-96,928	-0,136	-0,024
301,647	61,026	-0,075	0,051
302,662	411,352	-0,074	-0,109
303,676	30,114	-0,183	-0,107
304,691	-142,160	-0,066	-0,004
305,706	-66,819	-0,051	-0,014
306,720	-39,149	-0,200	-0,072
307,735	-51,905	-0,111	-0,035
308,749	800,000	-0,070	-0,177
309,764	-133,208	-0,120	-0,010
310,779	55,590	-0,038	-0,026
311,793	133,065	-0,070	-0,063
312,808	-101,448	-0,111	0,018
313,822	-3,952	-0,173	-0,082
314,837	106,456	-0,138	-0,113
315,852	800,000	-0,071	-0,137
316,866	460,025	-0,106	-0,163
317,881	-152,291	-0,297	-0,014
318,895	93,582	-0,167	-0,130
319,910	128,991	-0,125	-0,110
320,925	-134,183	-0,246	0,021
321,939	-67,324	-0,175	-0,047
322,954	800,000	0,040	-0,103
323,968	-25,633	-0,170	-0,069
324,983	164,869	-0,146	-0,142
325,997	144,405	-0,108	0,100
327,012	106,957	-0,223	-0,182
328,027	800,000	-0,080	-0,216
329,041	236,226	-0,131	0,150
330,056	-200,000	0,014	-0,045
331,070	-200,000	0,005	-0,036
332,085	96,350	-0,047	-0,037
333,100	142,718	0,022	-0,021
334,114	52,383	-0,116	-0,076
335,129	-117,316	-0,091	-0,011
336,143	-56,124	-0,129	-0,039
337,158	-64,761	-0,161	-0,045
338,173	257,437	-0,087	-0,103
339,187	-194,997	-0,104	0,001
340,202	191,632	-0,125	-0,129
341,216	173,806	-0,224	-0,222
342,231	423,958	-0,108	-0,160
343,246	119,619	-0,061	-0,052
344,260	54,482	-0,031	-0,020
345,275	85,643	-0,167	-0,126
346,289	145,157	-0,051	0,046
347,304	383,696	-0,103	-0,146
348,319	-197,583	-0,126	0,001
349,333	-42,619	-0,232	-0,081
350,348	67,957	-0,123	-0,086
351,362	127,165	-0,178	-0,155
352,377	-200,000	0,009	-0,083
353,392	-3,339	-0,135	-0,064
354,406	800,000	-0,073	-0,195
355,421	209,272	1314,682	1414,420
356,435	161,059	1475,398	1414,912
