DTS Sentinel unit serial number:	SN410029Multiplexer serial number:	ORYXHardware model number:	OX2-SRSoftware version number:	ORYX F/W v4,00 Oryx Data Collector v3.7.2.0data status	okinstallation	B3 Nyhavnadifferential loss correction	single-endedforward channel	channel 1reverse channel	N/Adate	2023/12/04time	15:02:30forward acquisition time	300,00reverse acquisition time	0,00gamma	499,1914k internal	0,3201k external	0,3201temperature offset calibration	1,0000default loss term (dB/km)	0,3820temperature slope calibration	1,0000multiplexer offset coefficient	1,0000multiplexer slope coefficient	1,0000fibre end	0,00T internal ref (°C)	15,06T ext. ref 1 (°C)	0,32T ext. ref 2 (°C)	0,30length (m)	temperature (°C)	Stokes	anti-Stokes-744,400	487,643	-0,205	-0,342
-743,385	-200,000	0,066	0,350
-742,371	519,823	-0,125	-0,214
-741,356	-200,000	0,028	0,323
-740,342	323,501	-0,229	-0,319
-739,327	800,000	0,058	0,160
-738,312	303,242	-0,186	-0,251
-737,298	-200,000	-0,061	0,226
-736,283	217,154	-0,192	-0,222
-735,269	800,000	0,101	0,204
-734,254	800,000	-0,142	-0,368
-733,239	31,478	-0,089	0,056
-732,225	234,258	-0,224	-0,269
-731,210	778,188	0,053	0,106
-730,196	348,897	-0,092	-0,132
-729,181	169,331	-0,044	-0,046
-728,167	800,000	-0,036	-0,108
-727,152	588,875	0,021	0,037
-726,137	-48,514	-0,046	0,016
-725,123	8,697	-0,100	-0,055
-724,108	-37,464	-0,212	-0,082
-723,094	-9,727	-0,072	-0,035
-722,079	-74,905	-0,139	-0,036
-721,064	-23,471	0,058	-0,025
-720,050	471,667	0,007	-0,011
-719,035	-200,000	-0,004	-0,082
-718,021	-25,365	-0,081	-0,035
-717,006	-200,000	-0,011	0,053
-715,991	112,183	-0,094	-0,083
-714,977	-115,899	0,073	0,010
-713,962	335,819	-0,049	-0,069
-712,948	46,352	0,049	-0,033
-711,933	242,783	0,042	0,051
-710,918	146,413	-0,060	-0,058
-709,904	133,297	-0,041	-0,039
-708,889	800,000	-0,070	-0,145
-707,875	-82,160	-0,166	0,039
-706,860	113,489	0,017	-0,015
-705,845	50,153	0,027	-0,019
-704,831	800,000	0,044	0,098
-703,816	-62,222	-0,203	-0,061
-702,802	-200,000	-0,014	-0,147
-701,787	800,000	-0,033	-0,074
-700,772	21,956	-0,077	-0,045
-699,758	79,598	-0,127	0,099
-698,743	800,000	0,037	0,086
-697,729	530,705	-0,049	0,085
-696,714	46,590	-0,084	-0,057
-695,699	84,498	0,033	0,027
-694,685	220,209	-0,036	-0,042
-693,670	-79,737	0,065	0,016
-692,656	-200,000	-0,001	-0,021
-691,641	48,646	-0,022	-0,015
-690,627	-200,000	0,028	0,251
-689,612	-86,953	-0,100	0,022
-688,597	632,285	0,036	0,066
-687,583	-141,688	-0,127	0,009
-686,568	-200,000	0,002	-0,097
-685,554	-53,315	0,109	-0,036
-684,539	-36,300	0,061	0,024
-683,524	54,760	0,031	0,022
-682,510	-57,851	-0,085	0,027
-681,495	800,000	0,015	-0,044
-680,481	84,173	-0,099	-0,079
-679,466	114,780	-0,106	-0,094
-678,451	-107,050	-0,063	-0,010
-677,437	27,088	-0,058	-0,035
-676,422	159,863	0,066	-0,067
-675,408	69,343	-0,008	-0,006
-674,393	-200,000	-0,006	-0,043
-673,378	800,000	0,029	-0,081
-672,364	335,234	-0,063	-0,088
-671,349	180,339	-0,096	-0,102
-670,335	247,532	0,031	0,039
-669,320	424,160	-0,050	-0,078
-668,305	-131,025	-0,150	-0,014
-667,291	550,612	-0,027	-0,047
-666,276	-55,463	0,022	-0,007
-665,262	-200,000	-0,022	-0,082
-664,247	345,622	-0,081	-0,116
-663,232	-67,870	-0,117	0,033
-662,218	-134,678	0,128	-0,011
-661,203	-200,000	0,009	0,093
-660,189	247,725	0,027	-0,033
-659,174	157,168	-0,120	-0,120
-658,159	-87,810	-0,126	-0,027
-657,145	232,109	-0,046	-0,054
-656,130	173,177	-0,073	0,076
-655,116	91,131	-0,046	-0,037
-654,101	-200,000	0,006	0,089
-653,086	-200,000	-0,005	-0,109
-652,072	800,000	-0,046	-0,142
-651,057	80,439	-0,139	-0,108
-650,043	379,870	0,042	-0,063
-649,028	-8,707	-0,084	0,041
-648,014	-12,036	0,082	-0,039
-646,999	227,118	0,092	0,108
-645,984	-200,000	-0,016	0,054
-644,970	-200,000	0,009	0,038
-643,955	269,171	-0,054	0,069
-642,941	-200,000	-0,006	-0,043
-641,926	348,525	-0,016	0,023
-640,911	800,000	0,010	0,031
-639,897	190,138	0,056	0,061
-638,882	-200,000	0,020	0,114
-637,868	-54,281	-0,200	0,065
-636,853	-154,854	-0,114	0,005
-635,838	-200,000	0,007	-0,073
-634,824	244,910	-0,061	-0,074
-633,809	800,000	-0,035	0,093
-632,795	40,562	0,161	0,105
-631,780	104,902	0,039	0,033
-630,765	117,126	-0,097	-0,087
-629,751	75,605	-0,025	0,019
-628,736	324,184	-0,040	0,056
-627,722	-5,859	-0,021	-0,010
-626,707	-6,448	-0,080	0,039
-625,692	-200,000	0,013	0,086
-624,678	109,665	-0,038	0,033
-623,663	-108,897	-0,164	-0,025
-622,649	800,000	-0,037	-0,097
-621,634	215,489	-0,084	-0,097
-620,619	137,174	-0,035	-0,033
-619,605	89,408	-0,148	0,119
-618,590	-200,000	-0,023	-0,099
-617,576	-82,647	-0,027	-0,006
-616,561	339,426	0,061	-0,087
-615,546	208,275	0,063	-0,071
-614,532	-137,675	-0,162	-0,013
-613,517	-200,000	-0,014	-0,108
-612,503	-80,235	-0,096	0,023
-611,488	-66,305	0,178	-0,051
-610,474	-200,000	0,004	-0,019
-609,459	-125,682	0,042	-0,005
-608,444	-200,000	-0,021	0,076
-607,430	-33,405	-0,108	-0,043
-606,415	-200,000	-0,004	-0,080
-605,401	89,461	0,027	-0,022
-604,386	-96,395	0,164	-0,031
-603,371	132,899	-0,054	0,051
-602,357	436,858	0,023	0,036
-601,342	800,000	-0,042	0,085
-600,328	800,000	-0,043	-0,104
-599,313	267,291	0,060	-0,076
-598,298	-132,118	0,123	0,011
-597,284	81,400	0,084	0,065
-596,269	-68,099	-0,042	0,012
-595,255	-48,372	-0,053	-0,018
-594,240	-200,000	-0,013	-0,081
-593,225	-2,145	-0,050	-0,025
-592,211	-79,283	-0,092	-0,022
-591,196	-84,526	-0,072	-0,016
-590,182	-200,000	-0,021	0,089
-589,167	-104,108	-0,171	-0,028
-588,152	147,494	0,045	0,044
-587,138	-116,440	0,120	0,016
-586,123	-200,000	0,019	0,156
-585,109	-200,000	-0,004	-0,079
-584,094	50,794	0,091	-0,062
-583,079	550,855	-0,067	-0,117
-582,065	80,786	-0,081	-0,063
-581,050	-11,256	-0,019	0,009
-580,036	800,000	-0,033	0,106
-579,021	254,825	0,076	-0,094
-578,006	263,801	0,056	-0,071
-576,992	-47,023	-0,042	0,015
-575,977	-200,000	-0,002	0,080
-574,963	-65,088	0,192	0,056
-573,948	-200,000	-0,005	0,025
-572,934	-142,926	-0,091	0,006
-571,919	31,653	-0,136	-0,084
-570,904	6,417	0,071	-0,038
-569,890	-200,000	0,009	0,065
-568,875	-31,939	-0,137	-0,055
-567,861	290,780	0,090	0,118
-566,846	-127,679	0,118	0,012
-565,831	-200,000	0,005	-0,142
-564,817	-142,319	0,189	0,013
-563,802	-200,000	0,011	-0,134
-562,788	-200,000	-0,006	-0,027
-561,773	-20,816	0,118	-0,052
-560,758	148,498	0,066	0,065
-559,744	-200,000	-0,018	0,082
-558,729	24,653	-0,104	-0,062
-557,715	113,476	0,078	-0,069
-556,700	140,595	-0,080	-0,077
-555,685	-70,138	-0,054	-0,015
-554,671	-161,539	-0,054	0,002
-553,656	-44,305	0,162	0,058
-552,642	3,538	0,109	-0,057
-551,627	129,501	0,118	0,109
-550,612	-181,721	-0,081	0,001
-549,598	571,922	0,051	-0,090
-548,583	771,492	-0,075	-0,148
-547,569	87,441	-0,106	0,085
-546,554	-37,235	-0,075	0,029
-545,539	-92,848	0,073	-0,015
-544,525	-38,674	0,093	-0,035
-543,510	670,909	-0,047	-0,088
-542,496	127,195	-0,079	-0,072
-541,481	134,556	-0,188	-0,176
-540,466	-200,000	-0,036	-0,201
-539,452	-61,157	0,119	0,036
-538,437	-31,661	0,140	-0,056
-537,423	-21,542	0,109	0,048
-536,408	-40,739	-0,062	-0,023
-535,393	-56,313	-0,075	-0,024
-534,379	-200,000	0,006	-0,025
-533,364	776,695	-0,028	0,056
-532,350	157,019	0,042	0,042
-531,335	298,796	0,152	-0,202
-530,321	-200,000	-0,035	0,128
-529,306	800,000	0,046	-0,094
-528,291	800,000	0,016	-0,031
-527,277	502,425	-0,027	0,045
-526,262	50,253	-0,072	0,049
-525,248	-68,521	-0,086	-0,024
-524,233	263,687	-0,041	-0,052
-523,218	-73,392	-0,103	0,027
-522,204	800,000	-0,053	0,117
-521,189	193,558	-0,039	-0,043
-520,175	800,000	0,071	-0,216
-519,160	-83,598	-0,122	0,028
-518,145	-200,000	0,008	0,075
-517,131	14,307	-0,003	-0,002
-516,116	-200,000	0,000	0,090
-515,102	667,761	0,028	0,053
-514,087	168,036	-0,035	-0,036
-513,072	-200,000	0,027	-0,131
-512,058	800,000	-0,055	0,156
-511,043	254,722	-0,036	-0,044
-510,029	71,384	0,062	0,046
-509,014	-200,000	-0,029	0,145
-507,999	800,000	0,014	-0,029
-506,985	-100,892	-0,066	-0,012
-505,970	-17,346	-0,043	-0,020
-504,956	-58,669	-0,095	0,029
-503,941	69,689	-0,023	-0,017
-502,926	24,452	0,067	0,040
-501,912	-200,000	0,015	0,056
-500,897	-6,515	-0,111	0,054
-499,883	23,753	-0,059	0,035
-498,868	-200,000	-0,003	-0,048
-497,853	83,637	-0,123	-0,097
-496,839	-200,000	0,020	-0,083
-495,824	61,310	0,032	0,023
-494,810	-86,103	0,018	-0,004
-493,795	-21,455	-0,054	0,023
-492,781	800,000	-0,049	0,099
-491,766	-42,681	0,117	-0,043
-490,751	266,766	-0,093	-0,118
-489,737	800,000	0,037	-0,110
-488,722	-16,945	0,059	-0,027
-487,708	-81,620	0,099	-0,023
-486,693	-200,000	0,060	-0,248
-485,678	-6,263	-0,119	-0,058
-484,664	-65,821	-0,035	0,010
-483,649	-83,558	-0,159	-0,036
-482,635	799,751	-0,036	0,071
-481,620	-58,154	0,084	-0,026
-480,605	-200,000	0,017	0,121
-479,591	-200,000	-0,022	0,175
-478,576	-200,000	0,012	0,062
-477,562	230,414	0,049	-0,058
-476,547	-200,000	0,008	-0,067
-475,532	-125,007	-0,083	-0,009
-474,518	-25,335	0,092	-0,039
-473,503	800,000	-0,082	0,188
-472,489	800,000	-0,024	0,068
-471,474	-200,000	-0,010	-0,143
-470,459	-21,827	0,143	0,062
-469,445	704,503	0,035	-0,066
-468,430	-40,633	0,034	-0,012
-467,416	-37,390	0,078	-0,030
-466,401	-44,008	0,023	0,008
-465,386	-71,820	0,156	0,042
-464,372	135,594	0,052	-0,048
-463,357	7,865	-0,076	-0,041
-462,343	-200,000	-0,007	-0,027
-461,328	-60,905	0,059	0,018
-460,313	800,000	0,045	-0,112
-459,299	143,698	0,074	-0,071
-458,284	160,844	0,075	-0,076
-457,270	-200,000	0,028	0,149
-456,255	-35,877	0,090	-0,035
-455,241	-75,045	-0,177	0,045
-454,226	-200,000	0,002	-0,133
-453,211	-115,087	-0,030	0,004
-452,197	43,819	0,042	0,028
-451,182	-132,210	0,073	-0,007
-450,168	800,000	-0,068	0,165
-449,153	-200,000	0,007	-0,030
-448,138	800,000	0,054	-0,107
-447,124	800,000	0,062	-0,182
-446,109	800,000	0,037	0,095
-445,095	-17,091	0,102	0,046
-444,080	-15,618	0,102	0,046
-443,065	-71,226	-0,026	0,007
-442,051	-200,000	-0,015	0,082
-441,036	-200,000	0,008	-0,032
-440,022	-1,536	-0,181	-0,091
-439,007	105,189	0,014	-0,012
-437,992	314,236	0,108	0,147
-436,978	-200,000	0,008	0,103
-435,963	794,743	0,035	-0,069
-434,949	-200,000	0,027	0,088
-433,934	64,647	-0,147	0,107
-432,919	390,339	-0,074	-0,111
-431,905	800,000	-0,051	-0,126
-430,890	-10,727	0,035	-0,017
-429,876	443,663	-0,038	-0,060
-428,861	58,000	0,044	-0,031
-427,846	-73,639	-0,144	-0,038
-426,832	-89,325	-0,097	0,020
-425,817	-31,515	0,106	-0,043
-424,803	-9,714	-0,050	-0,024
-423,788	800,000	0,051	0,105
-422,773	148,494	0,196	-0,190
-421,759	471,116	-0,055	0,089
-420,744	-120,921	0,055	0,007
-419,730	497,959	-0,035	-0,057
-418,715	676,538	0,050	-0,094
-417,701	299,086	-0,041	-0,054
-416,686	-200,000	0,000	0,030
-415,671	-71,121	-0,114	-0,030
-414,657	-200,000	0,024	0,087
-413,642	55,256	-0,132	0,092
-412,628	546,515	-0,052	0,089
-411,613	-110,166	-0,093	-0,014
-410,598	59,882	0,021	-0,015
-409,584	-200,000	0,011	-0,036
-408,569	-200,000	-0,004	-0,176
-407,555	-183,061	0,020	-0,000
-406,540	-126,555	-0,105	-0,011
-405,525	351,063	0,035	0,050
-404,511	-36,996	0,086	-0,033
-403,496	-86,556	-0,057	-0,012
-402,482	-26,249	-0,057	-0,024
-401,467	800,000	0,024	-0,062
-400,452	-200,000	0,015	0,133
-399,438	-200,000	0,004	0,047
-398,423	-200,000	0,014	0,104
-397,409	195,388	0,052	0,057
-396,394	-200,000	-0,019	-0,213
-395,379	800,000	0,039	0,111
-394,365	21,268	0,021	0,012
-393,350	16,857	0,139	-0,079
-392,336	800,000	0,047	0,106
-391,321	294,613	0,018	-0,024
-390,306	249,326	-0,013	0,016
-389,292	183,682	0,065	0,069
-388,277	212,070	-0,059	0,067
-387,263	-103,273	-0,093	-0,016
-386,248	-200,000	0,023	0,197
-385,233	103,377	-0,082	-0,069
-384,219	800,000	0,023	0,054
-383,204	87,715	-0,044	0,035
-382,190	199,016	-0,045	-0,050
-381,175	-137,840	0,219	-0,017
-380,160	800,000	-0,049	0,103
-379,146	154,099	-0,053	0,052
-378,131	518,019	-0,056	0,094
-377,117	800,000	-0,050	-0,112
-376,102	606,926	0,034	0,060
-375,088	-119,308	-0,052	-0,006
-374,073	800,000	0,024	-0,052
-373,058	-37,133	0,105	0,040
-372,044	-182,074	0,116	0,002
-371,029	432,651	-0,030	-0,046
-370,015	529,641	-0,050	-0,086
-369,000	-47,562	-0,122	0,042
-367,985	800,000	-0,005	-0,010
-366,971	145,507	-0,033	-0,032
-365,956	800,000	0,064	0,152
-364,942	-129,619	0,090	0,009
-363,927	-200,000	-0,014	0,060
-362,912	-200,000	0,010	0,036
-361,898	800,000	0,027	0,056
-360,883	35,475	-0,114	-0,071
-359,869	251,833	0,051	-0,062
-358,854	242,633	0,060	-0,073
-357,839	-27,656	-0,080	-0,033
-356,825	340,009	0,073	0,102
-355,810	86,675	0,078	-0,062
-354,796	67,663	0,030	0,022
-353,781	4,628	-0,180	0,094
-352,766	800,000	-0,038	-0,094
-351,752	-200,000	0,013	-0,111
-350,737	487,313	0,061	0,100
-349,723	15,924	0,160	0,090
-348,708	753,539	0,062	-0,121
-347,693	20,950	0,059	-0,034
-346,679	131,862	0,065	0,060
-345,664	-80,874	0,018	-0,004
-344,650	23,978	0,041	-0,024
-343,635	269,213	0,088	0,111
-342,620	800,000	-0,022	-0,044
-341,606	73,308	0,053	0,040
-340,591	-151,915	-0,085	-0,004
-339,577	308,689	0,096	-0,129
-338,562	-200,000	-0,002	-0,089
-337,548	13,034	0,095	-0,052
-336,533	-98,104	0,083	0,015
-335,518	800,000	-0,020	-0,054
-334,504	-10,912	0,028	0,013
-333,489	140,593	0,050	-0,047
-332,475	527,156	-0,017	0,029
-331,460	-41,803	0,017	0,006
-330,445	348,255	-0,109	-0,155
-329,431	41,744	0,081	-0,052
-328,416	800,000	0,026	0,051
-327,402	70,358	-0,029	-0,021
-326,387	-200,000	-0,002	0,043
-325,372	-200,000	0,010	0,115
-324,358	176,213	0,069	-0,072
-323,343	-60,270	0,142	-0,043
-322,329	800,000	-0,020	-0,055
-321,314	800,000	0,053	0,113
-320,299	-129,070	-0,158	0,016
-319,285	-200,000	-0,009	0,038
-318,270	800,000	-0,019	-0,040
-317,256	-200,000	-0,024	-0,120
-316,241	-200,000	-0,013	-0,102
-315,226	293,169	0,030	-0,039
-314,212	800,000	0,025	0,051
-313,197	686,670	-0,042	0,080
-312,183	5,172	0,070	-0,037
-311,168	800,000	0,044	0,124
-310,153	-98,628	-0,150	0,027
-309,139	354,951	-0,014	-0,019
-308,124	-27,442	-0,047	-0,019
-307,110	635,847	0,036	-0,066
-306,095	-112,231	0,108	-0,015
-305,080	800,000	-0,018	0,042
-304,066	-200,000	0,001	-0,007
-303,051	800,000	-0,056	-0,114
-302,037	800,000	0,023	-0,063
-301,022	-200,000	0,019	-0,094
-300,008	455,543	-0,032	-0,051
-298,993	-200,000	-0,009	-0,047
-297,978	-63,504	0,107	0,031
-296,964	74,828	-0,135	-0,102
-295,949	-10,086	-0,038	0,018
-294,935	800,000	0,020	-0,044
-293,920	-89,055	-0,090	0,019
-292,905	800,000	0,035	0,090
-291,891	800,000	0,043	0,131
-290,876	-200,000	-0,023	0,137
-289,862	-200,000	-0,009	0,046
-288,847	-200,000	0,001	0,037
-287,832	333,497	-0,035	0,049
-286,818	-90,474	0,106	-0,022
-285,803	-146,342	0,115	0,007
-284,789	369,051	0,063	0,091
-283,774	-200,000	0,023	0,093
-282,759	52,283	0,031	0,021
-281,745	-200,000	0,005	-0,176
-280,730	560,663	-0,062	-0,107
-279,716	800,000	0,010	0,029
-278,701	-132,804	-0,079	-0,007
-277,686	248,041	-0,004	0,005
-276,672	40,506	0,031	0,020
-275,657	44,355	0,036	-0,024
-274,643	56,250	-0,074	-0,051
-273,628	-75,254	-0,112	-0,028
-272,613	-150,474	-0,142	-0,008
-271,599	34,925	0,094	0,059
-270,584	149,643	0,107	0,104
-269,570	-58,992	0,096	-0,029
-268,555	800,000	0,025	0,053
-267,540	-200,000	-0,013	0,083
-266,526	122,946	0,117	-0,105
-265,511	-68,235	0,081	-0,022
-264,497	-44,973	-0,093	-0,033
-263,482	800,000	0,066	0,183
-262,467	-200,000	-0,139	0,000
-261,453	114,766	0,020	0,017
-260,438	-22,912	-0,068	0,029
-259,424	-200,000	0,020	-0,159
-258,409	-119,622	0,108	-0,013
-257,395	-123,585	-0,030	-0,003
-256,380	16,282	0,095	-0,053
-255,365	216,804	0,029	0,033
-254,351	-36,558	-0,057	0,022
-253,336	316,630	0,060	0,081
-252,322	800,000	-0,063	-0,147
-251,307	-94,930	-0,143	0,027
-250,292	800,000	-0,022	0,049
-249,278	-200,000	0,014	0,051
-248,263	364,579	0,084	0,121
-247,249	-123,554	0,112	0,012
-246,234	800,000	-0,010	-0,030
-245,219	800,000	-0,011	0,024
-244,205	347,210	-0,078	0,110
-243,190	-169,837	0,044	-0,001
-242,176	-200,000	0,001	-0,011
-241,161	-200,000	-0,004	0,117
-240,146	456,146	0,067	0,106
-239,132	138,714	-0,072	-0,068
-238,117	77,889	0,056	-0,043
-237,103	-200,000	-0,009	0,106
-236,088	-113,290	0,022	0,003
-235,073	161,855	-0,031	-0,030
-234,059	129,570	0,111	0,101
-233,044	-200,000	-0,001	0,133
-232,030	85,790	-0,078	0,061
-231,015	38,714	-0,121	0,077
-230,000	82,578	0,020	0,016
-228,986	187,063	-0,070	0,074
-227,971	115,058	0,027	0,024
-226,957	-200,000	0,016	-0,055
-225,942	-46,083	0,137	0,048
-224,927	-200,000	-0,012	0,069
-223,913	-75,231	-0,055	-0,014
-222,898	-112,862	0,107	-0,015
-221,884	800,000	-0,014	-0,029
-220,869	-68,163	0,170	0,047
-219,855	-116,780	0,211	0,027
-218,840	176,070	0,085	0,089
-217,825	-200,000	0,029	0,172
-216,811	29,425	-0,070	-0,042
-215,796	-73,486	-0,054	-0,014
-214,782	-43,967	-0,057	-0,020
-213,767	329,080	0,050	0,068
-212,752	-200,000	-0,009	0,168
-211,738	-4,183	0,094	0,046
-210,723	-200,000	-0,005	-0,063
-209,709	282,899	-0,065	0,083
-208,694	800,000	-0,018	-0,051
-207,679	-81,041	-0,095	0,022
-206,665	800,000	0,019	-0,056
-205,650	3,568	0,120	0,062
-204,636	46,939	-0,027	-0,018
-203,621	165,592	-0,051	-0,052
-202,606	800,000	-0,027	-0,080
-201,592	199,554	0,039	-0,043
-200,577	-200,000	0,001	-0,054
-199,563	122,292	-0,033	0,030
-198,548	142,637	0,082	0,078
-197,533	261,716	-0,063	0,078
-196,519	-103,229	0,035	0,006
-195,504	800,000	-0,052	-0,122
-194,490	-200,000	-0,021	-0,095
-193,475	-94,611	-0,114	-0,022
-192,460	4,086	0,050	0,026
-191,446	579,064	0,048	0,084
-190,431	-200,000	-0,004	0,064
-189,417	-68,820	-0,033	-0,009
-188,402	575,112	-0,067	-0,116
-187,387	800,000	0,073	-0,150
-186,373	392,562	-0,020	-0,030
-185,358	100,879	-0,020	0,017
-184,344	249,696	0,109	0,132
-183,329	-12,528	0,061	-0,028
-182,315	-200,000	-0,021	0,124
-181,300	59,375	-0,100	0,070
-180,285	253,218	-0,075	-0,091
-179,271	800,000	-0,056	-0,117
-178,256	-200,000	0,003	0,041
-177,242	800,000	0,034	0,077
-176,227	93,822	0,034	0,028
-175,212	556,032	-0,045	0,077
-174,198	40,360	-0,094	0,060
-173,183	-118,313	-0,207	-0,026
-172,169	-200,000	0,026	0,106
-171,154	-48,429	-0,111	-0,038
-170,139	-200,000	0,015	0,067
-169,125	-200,000	-0,005	0,075
-168,110	51,347	-0,091	0,061
-167,096	-200,000	-0,011	-0,129
-166,081	278,983	-0,095	-0,120
-165,066	-40,288	-0,107	0,039
-164,052	-86,068	0,080	0,017
-163,037	675,255	0,046	-0,085
-162,023	-25,019	0,056	0,024
-161,008	-100,147	0,144	0,025
-159,993	-9,163	-0,138	-0,065
-158,979	-84,309	-0,090	-0,020
-157,964	-200,000	-0,043	-0,155
-156,950	800,000	-0,014	-0,037
-155,935	-102,469	0,127	0,021
-154,920	-13,708	-0,058	0,027
-153,906	80,742	0,014	0,011
-152,891	484,060	0,018	0,030
-151,877	-42,588	-0,052	0,019
-150,862	-150,438	0,062	-0,003
-149,847	53,366	-0,069	0,047
-148,833	74,930	-0,060	-0,045
-147,818	-89,335	0,097	0,020
-146,804	19,945	0,087	-0,050
-145,789	120,255	0,094	0,083
-144,775	-22,075	-0,053	0,023
-143,760	-31,523	-0,175	-0,069
-142,745	800,000	0,019	-0,058
-141,731	-167,170	-0,087	0,002
-140,716	8,053	0,099	-0,053
-139,702	-80,866	-0,121	-0,028
-138,687	-200,000	-0,003	0,074
-137,672	-200,000	0,001	-0,005
-136,658	-200,000	-0,059	-0,197
-135,643	-55,705	0,161	0,051
-134,629	28,142	-0,047	-0,028
-133,614	-98,212	0,167	0,030
-132,599	-200,000	0,019	0,140
-131,585	-68,594	0,152	0,041
-130,570	-141,150	-0,057	-0,004
-129,556	598,805	0,059	0,105
-128,541	-200,000	-0,013	0,076
-127,526	-200,000	0,025	-0,103
-126,512	-200,000	-0,003	-0,101
-125,497	539,828	-0,028	-0,048
-124,483	800,000	0,062	0,126
-123,468	-200,000	-0,002	0,026
-122,453	302,440	0,076	0,101
-121,439	1,712	-0,094	-0,048
-120,424	-74,422	0,106	-0,027
-119,410	-200,000	-0,036	-0,116
-118,395	-200,000	0,028	-0,171
-117,380	-200,000	0,013	0,056
-116,366	264,077	-0,052	-0,064
-115,351	-200,000	-0,008	-0,115
-114,337	-108,902	-0,052	-0,008
-113,322	-105,354	-0,086	0,014
-112,307	-90,075	0,051	0,010
-111,293	800,000	-0,032	0,072
-110,278	111,452	-0,018	0,015
-109,264	41,143	-0,064	0,041
-108,249	-88,724	-0,162	0,034
-107,234	-34,136	0,082	0,032
-106,220	-200,000	-0,012	0,061
-105,205	316,727	-0,025	0,033
-104,191	-200,000	-0,013	-0,092
-103,176	80,696	0,102	0,078
-102,162	-87,980	0,081	0,017
-101,147	800,000	-0,059	-0,126
-100,132	-63,499	-0,071	0,021
-99,118	-101,960	-0,123	0,021
-98,103	89,067	0,133	-0,105
-97,089	406,635	0,043	-0,064
-96,074	308,311	0,090	-0,120
-95,059	17,536	-0,108	0,061
-94,045	-200,000	-0,019	-0,088
-93,030	-200,000	0,039	-0,155
-92,016	126,887	0,006	0,006
-91,001	-200,000	0,040	-0,208
-89,986	767,890	-0,054	0,105
-88,972	800,000	0,075	0,169
-87,957	-56,313	0,058	0,018
-86,943	-71,579	-0,150	-0,040
-85,928	-200,000	-0,011	-0,130
-84,913	-86,149	-0,106	0,023
-83,899	132,575	0,091	0,083
-82,884	-26,554	0,072	-0,030
-81,870	-23,621	0,016	-0,007
-80,855	800,000	0,049	0,124
-79,840	-36,544	-0,047	-0,018
-78,826	-102,617	-0,168	-0,028
-77,811	-14,637	-0,153	-0,070
-76,797	-104,006	-0,018	0,003
-75,782	-73,801	0,190	0,049
-74,767	-62,963	0,079	0,023
-73,753	29,003	0,064	-0,038
-72,738	20,336	0,110	-0,063
-71,724	-200,000	-0,007	-0,030
-70,709	-109,538	-0,182	-0,027
-69,694	-200,000	0,011	-0,062
-68,680	-200,000	0,006	-0,022
-67,665	-27,872	0,102	0,042
-66,651	-153,458	0,080	0,004
-65,636	117,564	-0,015	0,013
-64,622	-0,370	-0,128	0,064
-63,607	-200,000	0,051	-0,225
-62,592	741,704	-0,045	0,085
-61,578	-200,000	0,021	0,200
-60,563	-30,943	0,075	0,030
-59,549	-125,967	-0,117	-0,012
-58,534	-57,518	-1,480	-0,457
-57,519	406,024	-1,444	-2,165
-56,505	-200,000	-0,613	-4,713
-55,490	163,212	0,882	0,879
-54,476	800,000	4,978	11,188
-53,461	-200,000	18,182	287,673
-52,446	800,000	727,322	2225,867
-51,432	553,952	1642,916	2808,401
-50,417	79,298	1665,054	1262,567
-49,403	22,926	1538,933	891,072
-48,388	16,942	1461,999	817,560
-47,373	17,915	1452,076	816,662
-46,359	17,330	1442,393	808,389
-45,344	15,178	1438,052	795,650
-44,330	15,101	1435,914	794,068
-43,315	15,120	1434,247	793,208
-42,300	15,162	1432,547	792,434
-41,286	15,202	1431,392	791,955
-40,271	15,139	1430,150	790,937
-39,257	15,110	1428,999	790,129
-38,242	15,159	1427,593	789,552
-37,227	15,164	1426,502	788,945
-36,213	15,151	1425,249	788,156
-35,198	15,128	1424,156	787,412
-34,184	15,203	1423,141	787,177
-33,169	15,121	1421,731	785,979
-32,154	15,166	1420,757	785,618
-31,140	15,161	1419,487	784,864
-30,125	15,245	1418,249	784,540
-29,111	15,194	1417,190	783,683
-28,096	15,167	1416,004	782,870
-27,082	15,116	1414,930	782,008
-26,067	15,140	1413,648	781,379
-25,052	15,132	1412,701	780,787
-24,038	15,052	1411,997	779,991
-23,023	15,054	1410,863	779,345
-22,009	15,059	1409,918	778,816
-20,994	15,037	1408,737	778,030
-19,979	15,087	1407,862	777,747
-18,965	14,997	1407,113	776,882
-17,950	14,997	1406,106	776,297
-16,936	15,071	1405,177	776,096
-15,921	14,998	1403,958	775,055
-14,906	14,927	1403,223	774,289
-13,892	14,956	1402,279	773,869
-12,877	14,951	1401,503	773,390
-11,863	14,994	1400,421	772,960
-10,848	15,013	1399,461	772,486
-9,833	14,959	1398,661	771,767
-8,819	14,944	1397,525	771,040
-7,804	14,888	1396,824	770,359
-6,790	14,906	1395,812	769,857
-5,775	14,910	1394,771	769,269
-4,760	14,926	1393,729	768,740
-3,746	14,889	1393,115	768,199
-2,731	14,884	1392,286	767,686
-1,717	14,931	1391,162	767,256
-0,702	14,904	1389,392	766,121
0,313	18,685	1308,601	739,073
1,327	34,956	707,071	437,054
2,342	53,961	124,749	84,713
3,356	4,935	16,704	8,666
4,371	6,943	3,164	1,662
5,386	-15,992	0,602	0,270
6,400	144,898	-0,092	0,087
7,415	128,688	-0,165	-0,149
8,429	-63,239	-0,393	-0,114
9,444	71,792	-0,263	-0,193
10,459	457,541	-0,169	-0,266
11,473	97,305	-0,235	-0,191
12,488	-10,811	-0,320	-0,149
13,502	253,243	-0,275	-0,332
14,517	60,188	-0,392	-0,274
15,531	0,338	-0,423	-0,213
16,546	-19,192	-0,327	-0,143
17,561	65,047	-0,388	-0,276
18,575	39,439	-0,200	-0,127
19,590	48,163	-0,166	-0,110
20,604	-199,327	-0,291	0,001
21,619	105,987	-0,410	-0,342
22,634	86,557	-0,372	-0,289
23,648	128,760	-0,346	-0,312
24,663	94,442	-0,487	-0,391
25,677	123,356	-0,388	-0,343
26,692	99,218	-0,316	-0,258
27,707	186,758	-0,277	-0,291
28,721	69,387	-0,316	-0,229
29,736	158,274	-0,367	-0,360
30,750	94,053	-0,435	-0,348
31,765	180,276	-0,450	-0,466
32,780	80,565	-0,318	-0,242
33,794	-7,332	-0,463	-0,221
34,809	56,650	-0,436	-0,299
35,823	-5,848	-0,430	-0,207
36,838	16,838	-0,412	-0,230
37,853	249,866	-0,347	-0,417
38,867	117,540	-0,407	-0,353
39,882	106,519	-0,314	-0,262
40,896	34,009	-0,338	-0,207
41,911	-5,254	-0,387	-0,187
42,926	164,003	-0,259	-0,257
43,940	71,317	-0,409	-0,299
44,955	18,586	-0,499	-0,281
45,969	-19,219	-0,430	-0,188
46,984	26,471	-0,321	-0,189
47,999	92,733	-0,243	-0,193
49,013	-41,373	-0,280	-0,101
50,028	228,240	-0,331	-0,380
51,042	-10,011	-0,385	-0,180
52,057	4,680	-0,530	-0,273
53,071	130,691	-0,242	-0,219
54,086	110,177	-0,324	-0,274
55,101	40,546	-0,272	-0,172
56,115	-34,368	-0,402	-0,155
57,130	86,928	-0,467	-0,363
58,144	60,861	-0,284	-0,198
59,159	-34,711	-0,398	-0,153
60,174	46,842	-0,336	-0,219
61,188	75,838	-0,312	-0,232
62,203	39,947	-0,317	-0,200
63,217	58,449	-0,266	-0,184
64,232	121,236	-0,262	-0,229
65,247	128,269	-0,355	-0,318
66,261	193,387	-0,337	-0,359
67,276	187,581	-0,376	-0,396
68,290	158,176	-0,313	-0,306
69,305	45,595	-0,381	-0,247
70,320	200,105	-0,287	-0,311
71,334	-157,639	-0,417	-0,017
72,349	-79,365	-0,370	-0,087
73,363	113,623	-0,295	-0,252
74,378	105,313	-0,333	-0,276
75,393	78,329	-0,252	-0,189
76,407	151,177	-0,288	-0,275
77,422	42,002	-0,330	-0,210
78,436	314,057	-0,200	-0,266
79,451	111,916	-0,312	-0,265
80,466	3,161	-0,254	-0,129
81,480	-55,417	-0,308	-0,096
82,495	399,992	-0,231	-0,341
83,509	73,447	-0,381	-0,280
84,524	-116,623	-0,305	-0,039
85,539	25,539	-0,348	-0,203
86,553	224,120	-0,238	-0,270
87,568	114,178	-0,281	-0,240
88,582	59,532	-0,230	-0,159
89,597	324,408	-0,209	-0,281
90,611	-26,586	-0,386	-0,158
91,626	155,162	-0,318	-0,307
92,641	40,653	-0,280	-0,177
93,655	8,642	-0,250	-0,132
94,670	-20,828	-0,346	-0,148
95,684	36,878	-0,214	-0,132
96,699	-5,401	-0,318	-0,153
97,714	152,281	-0,244	-0,234
98,728	417,540	-0,147	-0,221
99,743	309,804	-0,273	-0,359
100,757	-70,378	-0,310	-0,082
101,772	153,560	-0,185	-0,177
102,787	109,925	-0,322	-0,271
103,801	22,352	-0,384	-0,219
104,816	-72,875	-0,330	-0,084
105,830	69,607	-0,185	-0,134
106,845	-9,513	-0,337	-0,157
107,860	-113,638	-0,331	-0,045
108,874	230,175	-0,183	-0,210
109,889	-0,514	-0,353	-0,175
110,903	214,237	-0,222	-0,247
111,918	-1,423	-0,286	-0,141
112,933	17,352	-0,298	-0,165
113,947	-74,836	-0,302	-0,075
114,962	11,244	-0,344	-0,184
115,976	52,389	-0,251	-0,167
116,991	386,852	-0,233	-0,339
118,006	-134,868	-0,196	0,016
119,020	50,034	-0,387	-0,256
120,035	-38,232	-0,214	-0,079
121,049	278,754	-0,132	-0,165
122,064	-109,751	-0,308	-0,045
123,079	23,088	-0,374	-0,215
124,093	139,284	-0,299	-0,275
125,108	26,516	-0,307	-0,179
126,122	139,177	-0,285	-0,263
127,137	185,662	-0,202	-0,211
128,151	-27,927	-0,291	-0,117
129,166	1,378	-0,297	-0,149
130,181	250,912	-0,227	-0,270
131,195	0,225	-0,347	-0,172
132,210	582,180	-0,156	-0,269
133,224	75,625	-0,312	-0,230
134,239	-95,735	-0,302	-0,056
135,254	66,234	-0,277	-0,196
136,268	76,243	-0,165	-0,122
137,283	-16,799	-0,200	-0,088
138,297	81,835	-0,267	-0,202
139,312	14,343	-0,363	-0,197
140,327	-7,194	-0,294	-0,139
141,341	-53,610	-0,356	-0,113
142,356	19,848	-0,240	-0,135
143,370	-187,941	-0,207	-0,002
144,385	-180,402	-0,234	0,003
145,400	539,974	-0,151	-0,253
146,414	107,252	-0,301	-0,250
147,429	85,819	-0,328	-0,252
148,443	52,537	-0,226	-0,151
149,458	-102,279	-0,196	-0,033
150,473	-52,559	-0,264	-0,085
151,487	-135,836	-0,129	-0,010
152,502	-85,296	-0,295	-0,064
153,516	178,292	-0,175	-0,178
154,531	-28,223	-0,262	-0,105
155,546	529,240	-0,127	-0,211
156,560	317,425	-0,171	-0,227
157,575	-8,173	-0,235	-0,110
158,589	109,462	-0,185	-0,155
159,604	109,870	-0,260	-0,217
160,619	120,313	-0,222	-0,193
161,633	45,964	-0,289	-0,186
162,648	-56,295	-0,185	-0,057
163,662	76,493	-0,202	-0,149
164,677	576,634	-0,155	-0,265
165,692	63,430	-0,154	-0,108
166,706	210,635	-0,277	-0,304
167,721	180,322	-0,185	-0,189
168,735	-104,173	-0,272	0,044
169,750	-8,860	-0,273	-0,127
170,764	40,431	-0,185	-0,116
171,779	75,901	-0,214	-0,158
172,794	-147,476	-0,232	-0,013
173,808	15,058	-0,261	-0,142
174,823	254,240	-0,218	-0,261
175,837	79,043	-0,347	-0,259
176,852	-129,253	-0,336	0,032
177,867	92,844	-0,212	-0,166
178,881	-50,471	-0,140	-0,046
179,896	32,084	-0,091	-0,054
180,910	100,150	-0,208	-0,168
181,925	249,477	-0,237	-0,280
182,940	102,784	-0,301	-0,245
183,954	147,070	-0,254	-0,238
184,969	343,956	-0,274	-0,375
185,983	164,899	-0,200	-0,197
186,998	-99,415	-0,294	-0,051
188,013	64,782	-0,272	-0,191
189,027	800,000	-0,154	-0,307
190,042	263,433	-0,228	-0,277
191,056	31,853	-0,183	-0,110
192,071	338,544	-0,130	-0,176
193,086	-49,513	-0,150	-0,049
194,100	28,045	-0,236	-0,138
195,115	28,962	-0,243	-0,143
196,129	193,050	-0,181	-0,190
197,144	224,501	-0,192	-0,216
198,159	-13,653	-0,313	-0,140
199,173	276,647	-0,144	-0,178
200,188	-35,238	-0,240	-0,090
201,202	-65,542	-0,355	-0,098
202,217	120,175	-0,125	-0,108
203,232	108,164	-0,134	-0,111
204,246	-100,166	-0,211	-0,036
205,261	316,210	-0,177	-0,233
206,275	800,000	-0,108	-0,224
207,290	76,380	-0,151	-0,111
208,304	-24,762	-0,181	-0,075
209,319	-144,384	-0,248	0,016
210,334	64,371	-0,202	-0,141
211,348	522,404	-0,087	-0,143
212,363	487,502	-0,170	-0,270
213,377	666,339	-0,068	-0,123
214,392	-22,274	-0,256	-0,107
215,407	3,268	-0,265	-0,133
216,421	576,413	-0,123	-0,210
217,436	-3,382	-0,196	-0,095
218,450	30,187	-0,311	-0,184
219,465	-158,741	-0,181	-0,007
220,480	-89,366	-0,202	-0,041
221,494	-52,739	-0,185	-0,059
222,509	-169,482	-0,218	0,005
223,523	65,496	-0,103	-0,073
224,538	-127,085	-0,163	-0,016
225,553	463,680	-0,133	-0,207
226,567	10,799	-0,199	-0,105
227,582	16,356	-0,175	-0,095
228,596	98,365	-0,234	-0,187
229,611	182,152	-0,160	-0,164
230,626	800,000	-0,033	-0,067
231,640	-38,188	-0,265	-0,097
232,655	18,865	-0,243	-0,135
233,669	119,300	-0,185	-0,159
234,684	141,272	-0,096	-0,088
235,699	800,000	-0,131	-0,293
236,713	428,041	-0,084	-0,126
237,728	-22,137	-0,204	-0,086
238,742	499,555	-0,194	-0,312
239,757	307,126	-0,178	-0,231
240,772	188,902	-0,150	-0,155
241,786	23,998	-0,241	-0,138
242,801	-34,562	-0,247	-0,093
243,815	144,919	-0,190	-0,176
244,830	-200,000	0,035	-0,183
245,844	6,303	-0,172	-0,088
246,859	-66,778	-0,372	-0,101
247,874	158,281	-0,242	-0,232
248,888	179,966	-0,266	-0,270
249,903	343,961	-0,163	-0,222
250,917	800,000	-0,063	-0,133
251,932	-87,410	-0,233	-0,048
252,947	176,904	-0,222	-0,224
253,961	11,575	-0,255	-0,135
254,976	289,660	-0,153	-0,192
255,990	253,737	-0,181	-0,214
257,005	34,020	-0,286	-0,172
258,020	-66,214	-0,205	-0,056
259,034	145,901	-0,094	-0,088
260,049	468,346	-0,110	-0,171
261,063	393,756	-0,168	-0,243
262,078	-35,744	-0,205	-0,076
263,093	371,982	-0,155	-0,218
264,107	81,153	-0,220	-0,164
265,122	37,790	-0,190	-0,116
266,136	135,134	-0,132	0,118
267,151	128,653	-0,191	-0,168
268,166	158,710	-0,118	-0,113
269,180	117,471	-0,200	-0,170
270,195	567,203	-0,095	-0,160
271,209	102,205	-0,164	-0,132
272,224	-157,351	-0,073	0,003
273,239	-19,509	-0,226	-0,096
274,253	-34,925	-0,169	-0,064
275,268	800,000	-0,110	-0,267
276,282	-49,862	-0,211	-0,069
277,297	17,551	-0,235	-0,129
278,312	4,877	-0,129	-0,065
279,326	-200,000	-0,012	-0,119
280,341	56,087	-0,048	-0,032
281,355	288,509	-0,158	-0,198
282,370	-129,760	-0,109	-0,010
283,384	350,318	-0,142	-0,194
284,399	105,280	-0,239	-0,195
285,414	416,991	-0,136	-0,201
286,428	-13,828	-0,172	-0,076
287,443	174,316	-0,104	0,104
288,457	-200,000	-0,004	-0,096
289,472	-200,000	-0,034	-0,247
290,487	369,540	-0,134	-0,188
291,501	55,140	-0,127	-0,084
292,516	41,754	-0,189	-0,118
293,530	800,000	-0,107	-0,208
294,545	45,362	-0,178	-0,113
295,560	-138,394	-0,193	-0,014
296,574	-129,191	-0,203	0,019
297,589	30,086	-0,145	-0,085
298,603	11,760	-0,142	-0,075
299,618	-105,703	-0,159	-0,025
300,633	181,868	-0,193	-0,196
301,647	-98,193	-0,155	-0,027
302,662	-167,753	-0,205	0,005
303,676	168,733	-0,189	-0,186
304,691	536,828	-0,130	-0,213
305,706	13,320	-0,124	-0,066
306,720	361,025	-0,126	-0,174
307,735	190,917	-0,127	-0,132
308,749	-200,000	-0,017	-0,084
309,764	-168,198	-0,220	0,006
310,779	-30,216	-0,146	-0,057
311,793	-200,000	-0,026	-0,169
312,808	632,741	-0,149	-0,262
313,822	800,000	-0,071	-0,197
314,837	385,057	-0,097	-0,138
315,852	134,407	-0,124	0,111
316,866	-104,000	-0,125	-0,020
317,881	57,271	-0,097	-0,065
318,895	-69,709	-0,214	-0,056
319,910	-52,064	-0,221	-0,070
320,925	136,418	-0,238	-0,214
321,939	522,530	-0,053	-0,085
322,954	-88,982	-0,156	-0,032
323,968	697,151	-0,029	0,052
324,983	101,197	-0,162	-0,129
325,997	137,911	-0,138	-0,124
327,012	202,460	-0,227	-0,241
328,027	73,838	-0,208	-0,150
329,041	71,580	-0,168	-0,120
330,056	1,620	-0,090	0,044
331,070	-53,297	-0,111	-0,035
332,085	800,000	-0,035	-0,084
333,100	-28,178	-0,177	-0,070
334,114	569,839	-0,044	-0,073
335,129	116,139	-0,131	-0,110
336,143	163,270	-0,168	-0,162
337,158	-200,000	-0,057	-0,203
338,173	-144,507	-0,153	-0,010
339,187	39,351	-0,124	-0,076
340,202	47,698	-0,242	-0,155
341,216	29,730	-0,198	-0,116
342,231	14,197	-0,229	-0,122
343,246	41,501	-0,217	-0,135
344,260	-159,863	-0,061	-0,002
345,275	-93,494	-0,110	-0,021
346,289	-88,013	-0,046	-0,009
347,304	121,473	-0,173	-0,148
348,319	83,677	-0,228	-0,171
349,333	44,884	-0,227	-0,143
350,348	207,081	-0,135	-0,145
351,362	-200,000	0,012	-0,133
352,377	6,056	-0,160	-0,081
353,392	28,555	-0,165	-0,095
354,406	-72,852	-0,205	0,051
355,421	209,896	1315,960	1417,818
356,435	161,556	1476,867	1418,312
