DTS Sentinel unit serial number:	SN410029Multiplexer serial number:	ORYXHardware model number:	OX2-SRSoftware version number:	ORYX F/W v4,00 Oryx Data Collector v3.7.2.0data status	okinstallation	B3 Nyhavnadifferential loss correction	single-endedforward channel	channel 1reverse channel	N/Adate	2023/11/29time	08:32:30forward acquisition time	300,00reverse acquisition time	0,00gamma	499,1914k internal	0,3211k external	0,3211temperature offset calibration	1,0000default loss term (dB/km)	0,3820temperature slope calibration	1,0000multiplexer offset coefficient	1,0000multiplexer slope coefficient	1,0000fibre end	0,00T internal ref (°C)	8,89T ext. ref 1 (°C)	-5,86T ext. ref 2 (°C)	-5,97length (m)	temperature (°C)	Stokes	anti-Stokes-744,400	47,789	-0,205	-0,138
-743,385	-200,000	0,004	0,303
-742,371	-33,351	-0,169	-0,067
-741,356	-200,000	-0,045	0,389
-740,342	800,000	-0,095	-0,197
-739,327	-200,000	-0,081	0,313
-738,312	325,959	-0,244	-0,339
-737,298	-200,000	0,058	0,385
-736,283	187,387	-0,231	-0,250
-735,269	-200,000	0,051	0,248
-734,254	800,000	-0,150	-0,358
-733,239	225,314	-0,199	0,234
-732,225	800,000	-0,086	-0,206
-731,210	196,224	0,215	0,238
-730,196	266,923	-0,131	-0,166
-729,181	-200,000	-0,026	0,140
-728,167	-200,000	-0,006	-0,038
-727,152	19,589	-0,173	0,101
-726,137	443,793	-0,101	0,160
-725,123	-96,907	-0,018	0,003
-724,108	392,078	-0,088	-0,133
-723,094	-108,954	-0,055	0,008
-722,079	-81,925	0,036	-0,009
-721,064	21,623	0,029	-0,017
-720,050	-1,836	-0,131	-0,067
-719,035	709,231	0,019	0,036
-718,021	-200,000	-0,031	-0,105
-717,006	-38,904	-0,055	0,021
-715,991	-200,000	-0,013	-0,233
-714,977	194,827	0,055	-0,060
-713,962	-85,244	-0,090	0,020
-712,948	0,865	0,061	-0,032
-711,933	800,000	0,039	-0,099
-710,918	17,895	-0,064	0,037
-709,904	800,000	0,041	0,105
-708,889	12,920	-0,113	-0,063
-707,875	-200,000	-0,019	-0,096
-706,860	-10,142	-0,042	0,020
-705,845	-72,125	0,096	-0,026
-704,831	-200,000	0,019	0,111
-703,816	-75,906	-0,155	0,040
-702,802	800,000	0,022	0,048
-701,787	89,679	-0,136	-0,110
-700,772	-165,059	-0,128	-0,004
-699,758	26,151	0,058	-0,035
-698,743	-200,000	-0,027	0,116
-697,729	800,000	-0,038	0,085
-696,714	-200,000	0,001	0,155
-695,699	236,252	0,031	0,037
-694,685	-116,855	-0,080	0,011
-693,670	800,000	0,038	0,076
-692,656	800,000	0,072	-0,147
-691,641	9,356	-0,166	-0,090
-690,627	-200,000	-0,012	0,043
-689,612	800,000	0,064	0,173
-688,597	800,000	-0,032	0,067
-687,583	-90,697	0,076	0,016
-686,568	109,137	-0,031	0,027
-685,554	-114,909	0,071	0,010
-684,539	689,675	0,036	-0,068
-683,524	196,202	0,050	-0,056
-682,510	452,278	0,094	0,151
-681,495	-74,965	-0,072	-0,019
-680,481	-176,416	0,062	-0,001
-679,466	-200,000	0,034	-0,130
-678,451	41,418	-0,139	0,091
-677,437	800,000	-0,039	-0,107
-676,422	-175,782	0,168	-0,003
-675,408	-139,116	-0,073	0,006
-674,393	2,424	-0,098	-0,051
-673,378	-3,799	-0,055	-0,028
-672,364	717,356	0,029	-0,057
-671,349	-200,000	0,017	-0,124
-670,335	-200,000	0,009	-0,050
-669,320	-45,954	0,088	-0,031
-668,305	24,432	-0,031	-0,019
-667,291	-124,141	-0,156	0,017
-666,276	800,000	0,049	-0,101
-665,262	-200,000	0,011	-0,087
-664,247	122,026	-0,102	0,092
-663,232	228,437	0,040	0,047
-662,218	-84,016	0,165	0,038
-661,203	23,553	-0,017	0,010
-660,189	-200,000	0,010	-0,052
-659,174	-200,000	-0,039	-0,187
-658,159	190,112	-0,083	-0,090
-657,145	260,772	0,024	-0,030
-656,130	-200,000	-0,011	0,083
-655,116	800,000	0,046	0,137
-654,101	-20,789	0,104	0,046
-653,086	91,496	0,056	0,045
-652,072	72,967	-0,100	0,075
-651,057	-64,118	-0,121	0,035
-650,043	166,335	0,067	-0,069
-649,028	0,150	-0,037	-0,019
-648,014	348,323	-0,023	0,033
-646,999	71,173	0,097	0,073
-645,984	-7,684	-0,065	0,032
-644,970	-85,879	-0,076	0,017
-643,955	-200,000	-0,004	-0,092
-642,941	-81,632	0,045	0,010
-641,926	-49,900	0,122	0,042
-640,911	-65,489	0,031	-0,009
-639,897	85,707	0,142	0,113
-638,882	-47,610	-0,133	0,046
-637,868	-37,587	-0,107	0,041
-636,853	120,446	-0,058	-0,052
-635,838	-53,196	-0,175	0,058
-634,824	-167,181	-0,173	-0,005
-633,809	-200,000	-0,014	0,072
-632,795	-200,000	0,016	-0,080
-631,780	800,000	0,049	-0,149
-630,765	519,807	0,038	-0,065
-629,751	-97,445	-0,064	-0,012
-628,736	593,437	-0,069	-0,123
-627,722	198,846	-0,112	0,123
-626,707	-87,586	0,113	-0,024
-625,692	80,195	0,060	0,046
-624,678	447,526	0,019	-0,030
-623,663	310,820	-0,085	0,115
-622,649	1,372	-0,055	0,028
-621,634	-154,150	-0,129	0,006
-620,619	329,162	-0,032	0,044
-619,605	-200,000	0,049	-0,166
-618,590	259,063	0,049	-0,061
-617,576	-53,097	0,093	0,031
-616,561	510,041	-0,030	-0,050
-615,546	800,000	0,032	-0,072
-614,532	-200,000	-0,043	-0,152
-613,517	94,608	-0,039	-0,032
-612,503	-67,204	-0,031	-0,009
-611,488	-81,084	0,060	0,014
-610,474	-88,343	0,160	-0,034
-609,459	800,000	-0,048	-0,140
-608,444	18,271	-0,043	0,025
-607,430	41,649	-0,110	-0,072
-606,415	163,114	-0,056	0,057
-605,401	11,055	-0,063	0,034
-604,386	-200,000	-0,003	0,114
-603,371	-200,000	-0,015	0,095
-602,357	-200,000	-0,013	0,106
-601,342	5,268	-0,026	-0,014
-600,328	-86,025	0,127	0,028
-599,313	-73,241	0,089	0,023
-598,298	-92,835	0,026	0,005
-597,284	-200,000	-0,000	0,047
-596,269	636,790	-0,031	0,056
-595,255	57,893	0,079	-0,055
-594,240	730,877	-0,021	0,041
-593,225	-32,844	-0,089	-0,036
-592,211	-200,000	0,040	-0,137
-591,196	193,308	-0,058	0,063
-590,182	422,858	0,012	-0,018
-589,167	800,000	0,002	0,006
-588,152	-200,000	-0,004	0,055
-587,138	695,612	0,032	0,060
-586,123	284,157	-0,080	-0,103
-585,109	16,572	-0,092	-0,052
-584,094	-97,171	-0,051	0,010
-583,079	-87,121	0,078	-0,017
-582,065	800,000	0,032	0,089
-581,050	150,363	-0,106	0,104
-580,036	-200,000	-0,000	0,041
-579,021	312,070	-0,022	0,030
-578,006	222,535	-0,042	0,049
-576,992	800,000	0,055	-0,114
-575,977	334,011	0,038	0,053
-574,963	-63,552	-0,047	0,014
-573,948	453,007	0,072	0,115
-572,934	800,000	-0,051	-0,134
-571,919	800,000	0,046	0,136
-570,904	-200,000	0,004	0,044
-569,890	39,820	-0,109	-0,070
-568,875	-200,000	-0,046	-0,164
-567,861	93,925	0,051	-0,041
-566,846	156,471	0,038	0,038
-565,831	800,000	0,033	-0,083
-564,817	-47,346	-0,143	0,050
-563,802	-98,189	-0,065	-0,012
-562,788	-200,000	-0,008	0,076
-561,773	-200,000	0,013	-0,088
-560,758	-80,033	0,051	-0,012
-559,744	-97,263	0,114	-0,021
-558,729	55,366	0,071	-0,049
-557,715	-140,033	-0,074	-0,006
-556,700	-119,799	0,088	-0,011
-555,685	-200,000	-0,011	-0,062
-554,671	238,494	-0,081	-0,097
-553,656	-200,000	0,001	0,003
-552,642	-141,620	0,046	-0,003
-551,627	172,408	-0,066	-0,069
-550,612	98,533	0,065	-0,054
-549,598	-200,000	-0,014	-0,250
-548,583	203,738	0,153	-0,170
-547,569	158,270	-0,140	-0,140
-546,554	649,329	0,050	-0,092
-545,539	-200,000	-0,001	0,017
-544,525	-200,000	0,011	-0,088
-543,510	430,596	0,036	-0,056
-542,496	-200,000	0,000	-0,062
-541,481	36,333	-0,031	0,019
-540,466	-5,365	0,074	-0,036
-539,452	470,351	0,087	0,140
-538,437	708,481	-0,042	-0,081
-537,423	-200,000	0,010	0,169
-536,408	-21,611	-0,066	0,029
-535,393	173,782	0,035	0,037
-534,379	-22,359	-0,064	-0,028
-533,364	-138,679	0,075	0,006
-532,350	-69,658	0,045	-0,012
-531,335	-46,001	0,091	0,032
-530,321	-93,458	-0,127	0,025
-529,306	207,471	0,101	0,114
-528,291	-200,000	-0,005	-0,045
-527,277	-65,756	-0,092	0,026
-526,262	-200,000	0,005	0,058
-525,248	-76,643	0,120	-0,030
-524,233	54,660	-0,032	0,022
-523,218	254,385	0,060	0,073
-522,204	-200,000	-0,016	-0,132
-521,189	-45,760	-0,017	0,006
-520,175	410,410	0,030	0,045
-519,160	-200,000	0,008	0,122
-518,145	-200,000	0,000	-0,035
-517,131	-133,099	-0,055	0,005
-516,116	768,218	0,059	0,115
-515,102	-94,405	0,028	0,005
-514,087	-200,000	0,001	0,137
-513,072	800,000	-0,036	0,100
-512,058	141,725	-0,059	-0,056
-511,043	629,038	0,040	-0,073
-510,029	364,896	-0,088	0,127
-509,014	-200,000	-0,014	0,066
-507,999	70,634	0,034	-0,025
-506,985	121,057	0,105	-0,094
-505,970	800,000	0,050	-0,101
-504,956	-200,000	-0,030	-0,149
-503,941	-200,000	-0,020	-0,074
-502,926	90,654	0,055	0,044
-501,912	800,000	-0,008	-0,017
-500,897	-167,013	-0,109	-0,003
-499,883	-200,000	-0,015	-0,088
-498,868	20,714	-0,076	0,044
-497,853	800,000	-0,004	-0,013
-496,839	-156,012	0,147	0,007
-495,824	61,932	-0,114	0,081
-494,810	397,422	0,051	0,077
-493,795	-46,982	0,026	-0,009
-492,781	-41,483	-0,018	-0,007
-491,766	172,811	-0,053	-0,054
-490,751	268,760	0,099	-0,124
-489,737	-79,772	-0,096	0,023
-488,722	515,464	0,060	0,102
-487,708	-200,000	-0,007	0,039
-486,693	68,527	-0,094	0,069
-485,678	-182,538	-0,096	-0,001
-484,664	24,156	-0,139	0,082
-483,649	-13,603	-0,034	0,016
-482,635	683,539	0,068	-0,128
-481,620	-200,000	0,000	0,073
-480,605	-123,711	0,065	-0,007
-479,591	222,788	0,025	-0,029
-478,576	434,797	-0,055	-0,085
-477,562	800,000	-0,019	-0,045
-476,547	-53,012	-0,005	-0,002
-475,532	292,700	-0,044	0,058
-474,518	29,139	0,079	0,048
-473,503	-200,000	-0,019	0,094
-472,489	208,117	0,035	-0,039
-471,474	-200,000	-0,016	-0,089
-470,459	498,496	0,055	-0,092
-469,445	85,834	-0,073	-0,058
-468,430	118,357	0,112	-0,099
-467,416	-118,203	0,033	-0,004
-466,401	463,457	-0,021	-0,034
-465,386	126,020	0,112	0,102
-464,372	85,917	0,018	-0,014
-463,357	682,379	0,030	-0,055
-462,343	131,422	-0,087	0,080
-461,328	17,085	-0,021	0,012
-460,313	305,312	0,019	0,025
-459,299	268,017	0,087	0,109
-458,284	72,253	-0,024	0,018
-457,270	-19,384	-0,082	0,036
-456,255	-200,000	0,007	-0,167
-455,241	18,064	-0,037	0,021
-454,226	241,364	-0,102	-0,123
-453,211	39,442	0,054	-0,034
-452,197	3,544	0,139	0,072
-451,182	195,568	0,058	0,064
-450,168	-95,546	0,061	-0,012
-449,153	-121,982	0,003	0,000
-448,138	-200,000	-0,008	-0,111
-447,124	-168,128	-0,121	0,003
-446,109	157,594	-0,042	-0,042
-445,095	-106,734	0,068	0,011
-444,080	-104,020	-0,129	-0,021
-443,065	436,987	-0,033	0,052
-442,051	-200,000	-0,008	0,099
-441,036	-200,000	0,002	-0,009
-440,022	336,590	-0,083	0,116
-439,007	-140,661	0,075	-0,005
-437,992	-200,000	-0,025	0,146
-436,978	-54,882	0,113	-0,036
-435,963	238,810	0,057	-0,068
-434,949	-70,306	0,061	0,016
-433,934	-200,000	0,050	-0,256
-432,919	101,673	-0,020	0,016
-431,905	33,717	-0,023	-0,014
-430,890	-200,000	0,027	0,094
-429,876	-200,000	-0,015	-0,066
-428,861	800,000	0,027	-0,064
-427,846	500,941	-0,024	0,039
-426,832	289,814	-0,085	0,110
-425,817	-49,143	0,090	0,031
-424,803	81,825	-0,071	-0,055
-423,788	800,000	-0,038	0,115
-422,773	-15,982	0,098	0,045
-421,759	560,399	-0,088	0,153
-420,744	-184,322	-0,033	0,000
-419,730	-200,000	-0,045	-0,154
-418,715	-61,866	-0,046	-0,014
-417,701	223,472	-0,126	-0,145
-416,686	59,774	0,173	-0,122
-415,671	436,598	0,058	-0,090
-414,657	-114,995	0,120	0,016
-413,642	-5,431	-0,093	0,045
-412,628	-200,000	-0,000	-0,025
-411,613	-200,000	0,005	0,038
-410,598	13,281	-0,115	-0,063
-409,584	-200,000	-0,023	0,132
-408,569	-11,012	-0,107	0,050
-407,555	-100,606	0,131	0,023
-406,540	800,000	-0,036	-0,087
-405,525	-7,463	-0,064	0,031
-404,511	-165,800	0,013	0,000
-403,496	-7,538	-0,097	-0,047
-402,482	-200,000	0,025	-0,137
-401,467	204,166	0,047	0,052
-400,452	751,014	0,035	0,067
-399,438	554,005	-0,069	0,119
-398,423	-65,519	-0,100	-0,028
-397,409	-42,364	-0,120	-0,044
-396,394	-169,519	-0,066	0,002
-395,379	-81,670	0,056	0,013
-394,365	232,106	-0,014	-0,017
-393,350	432,605	0,050	-0,078
-392,336	-200,000	0,027	0,203
-391,321	-200,000	-0,043	0,000
-390,306	96,871	-0,075	-0,061
-389,292	-200,000	0,024	0,084
-388,277	-155,396	0,134	0,006
-387,263	-200,000	-0,032	-0,152
-386,248	-200,000	0,006	0,040
-385,233	262,713	0,028	-0,035
-384,219	-200,000	-0,007	0,097
-383,204	84,989	-0,140	-0,110
-382,190	800,000	0,052	-0,143
-381,175	377,771	0,012	0,018
-380,160	35,280	-0,054	0,034
-379,146	-116,726	0,082	-0,011
-378,131	21,285	0,025	-0,014
-377,117	-26,264	0,137	-0,057
-376,102	-200,000	0,013	-0,049
-375,088	65,656	0,075	0,054
-374,073	-49,052	0,064	-0,022
-373,058	-145,158	0,086	-0,006
-372,044	193,526	-0,092	-0,099
-371,029	-13,569	0,126	0,058
-370,015	52,790	-0,095	-0,065
-369,000	120,602	-0,087	-0,078
-367,985	-200,000	0,033	-0,104
-366,971	402,676	-0,068	-0,103
-365,956	-200,000	0,024	-0,116
-364,942	-144,335	0,144	0,009
-363,927	149,001	0,116	0,112
-362,912	-120,611	-0,067	0,008
-361,898	-11,997	-0,044	0,020
-360,883	118,770	-0,197	-0,174
-359,869	-200,000	-0,025	0,245
-358,854	-42,587	0,107	-0,039
-357,839	-113,770	-0,039	-0,005
-356,825	31,679	-0,119	0,073
-355,810	71,924	-0,036	-0,027
-354,796	-105,241	0,061	0,010
-353,781	131,577	-0,065	-0,060
-352,766	-155,407	-0,069	0,003
-351,752	389,610	-0,026	0,038
-350,737	800,000	0,012	-0,025
-349,723	-73,033	0,099	-0,026
-348,708	717,240	-0,051	0,098
-347,693	-200,000	-0,000	0,095
-346,679	-70,913	0,125	0,033
-345,664	549,643	-0,037	-0,064
-344,650	-90,051	0,086	-0,018
-343,635	-200,000	-0,002	-0,047
-342,620	-95,019	0,059	-0,011
-341,606	-30,329	-0,090	0,036
-340,591	-200,000	0,034	-0,118
-339,577	-200,000	-0,016	-0,065
-338,562	800,000	0,034	-0,105
-337,548	-200,000	0,028	0,119
-336,533	793,890	0,030	0,059
-335,518	-200,000	-0,008	-0,093
-334,504	800,000	-0,033	-0,074
-333,489	576,151	0,014	0,025
-332,475	613,199	-0,034	0,061
-331,460	219,479	-0,029	-0,033
-330,445	373,220	0,047	0,069
-329,431	-42,310	-0,059	-0,022
-328,416	800,000	0,036	-0,081
-327,402	280,930	-0,056	0,072
-326,387	-69,613	-0,122	-0,033
-325,372	-179,759	-0,133	0,002
-324,358	233,810	0,013	-0,015
-323,343	191,094	-0,138	-0,148
-322,329	232,951	-0,035	-0,041
-321,314	-200,000	0,043	0,163
-320,299	-200,000	0,006	-0,038
-319,285	800,000	-0,032	0,068
-318,270	-118,091	-0,117	-0,015
-317,256	-117,352	-0,073	-0,009
-316,241	-85,340	0,065	0,014
-315,226	800,000	0,008	0,025
-314,212	12,920	0,199	0,109
-313,197	175,831	0,040	0,041
-312,183	56,129	0,122	0,084
-311,168	117,089	-0,089	0,078
-310,153	-200,000	0,012	0,139
-309,139	-200,000	0,012	0,038
-308,124	93,602	0,042	0,034
-307,110	-200,000	0,058	0,000
-306,095	800,000	-0,015	-0,039
-305,080	800,000	0,009	-0,026
-304,066	-200,000	0,017	0,114
-303,051	800,000	-0,025	0,060
-302,037	-14,299	-0,077	0,035
-301,022	800,000	0,010	0,030
-300,008	-6,147	0,152	-0,074
-298,993	-200,000	-0,009	-0,035
-297,978	800,000	0,025	0,065
-296,964	-92,483	-0,159	-0,031
-295,949	-33,019	0,038	0,015
-294,935	-200,000	0,014	-0,060
-293,920	143,590	0,024	0,023
-292,905	194,376	0,080	0,086
-291,891	-200,000	0,010	0,093
-290,876	-77,060	0,105	0,026
-289,862	230,279	-0,073	-0,086
-288,847	-18,152	-0,100	-0,044
-287,832	-41,953	-0,134	-0,049
-286,818	800,000	0,065	0,185
-285,803	151,699	-0,051	-0,050
-284,789	342,485	-0,049	0,069
-283,774	800,000	0,042	-0,087
-282,759	-200,000	0,009	-0,086
-281,745	-1,327	-0,116	0,058
-280,730	-200,000	-0,001	-0,069
-279,716	-90,017	0,051	-0,011
-278,701	800,000	-0,033	0,075
-277,686	-17,064	0,077	-0,035
-276,672	-189,716	0,088	-0,001
-275,657	327,180	0,059	0,081
-274,643	-0,391	-0,139	-0,070
-273,628	-200,000	0,010	0,062
-272,613	-200,000	-0,012	-0,168
-271,599	66,487	0,043	-0,031
-270,584	103,965	-0,031	-0,026
-269,570	-200,000	0,021	-0,086
-268,555	162,898	0,092	-0,092
-267,540	-200,000	-0,011	0,070
-266,526	155,349	-0,108	-0,106
-265,511	347,138	-0,078	-0,110
-264,497	40,234	-0,013	0,009
-263,482	-200,000	-0,014	0,064
-262,467	365,554	0,063	0,091
-261,453	-200,000	-0,024	-0,106
-260,438	-13,110	0,053	-0,024
-259,424	250,850	-0,071	-0,086
-258,409	-200,000	0,004	-0,058
-257,395	-200,000	0,020	-0,065
-256,380	-78,747	0,054	0,013
-255,365	203,900	-0,038	0,042
-254,351	96,832	0,048	-0,039
-253,336	-187,808	-0,191	-0,002
-252,322	224,727	-0,106	-0,122
-251,307	-1,418	-0,082	0,041
-250,292	-7,530	-0,061	0,029
-249,278	82,779	0,049	0,038
-248,263	480,086	0,041	0,066
-247,249	364,193	-0,058	0,083
-246,234	35,329	0,070	0,044
-245,219	631,275	0,018	0,032
-244,205	778,432	0,046	0,091
-243,190	-58,097	0,064	0,020
-242,176	-1,815	0,128	0,064
-241,161	-200,000	0,007	0,054
-240,146	6,497	0,182	0,096
-239,132	-75,019	-0,083	0,021
-238,117	-200,000	0,028	-0,250
-237,103	800,000	-0,006	-0,017
-236,088	109,664	0,047	-0,040
-235,073	-17,195	-0,059	-0,026
-234,059	800,000	-0,061	0,142
-233,044	-76,227	0,064	-0,016
-232,030	318,703	0,032	-0,043
-231,015	-200,000	0,000	0,078
-230,000	55,646	0,125	0,086
-228,986	99,775	-0,044	0,036
-227,971	800,000	0,018	-0,046
-226,957	196,038	-0,068	0,074
-225,942	-38,149	0,143	0,054
-224,927	0,357	0,027	0,013
-223,913	-200,000	-0,009	-0,093
-222,898	-140,939	-0,099	0,007
-221,884	-200,000	0,055	-0,188
-220,869	800,000	-0,039	-0,092
-219,855	-39,188	0,113	0,042
-218,840	174,233	0,078	-0,080
-217,825	359,944	0,086	0,123
-216,811	205,619	0,057	-0,063
-215,796	267,626	0,058	-0,073
-214,782	-109,040	-0,071	-0,011
-213,767	241,804	0,016	0,019
-212,752	14,168	-0,041	0,023
-211,738	480,598	0,009	-0,014
-210,723	-200,000	-0,003	0,139
-209,709	-120,157	0,027	-0,003
-208,694	13,312	0,138	-0,076
-207,679	255,378	-0,014	0,017
-206,665	-200,000	-0,012	-0,108
-205,650	-200,000	-0,001	0,026
-204,636	746,650	0,043	0,082
-203,621	-200,000	-0,023	0,096
-202,606	-200,000	0,014	-0,061
-201,592	-134,002	-0,155	0,013
-200,577	800,000	-0,035	-0,072
-199,563	-200,000	0,004	0,094
-198,548	-200,000	-0,034	0,156
-197,533	-200,000	0,006	0,137
-196,519	249,272	0,116	0,140
-195,504	800,000	-0,074	-0,168
-194,490	800,000	-0,058	-0,153
-193,475	800,000	-0,058	-0,117
-192,460	257,970	0,067	0,082
-191,446	188,938	-0,078	0,083
-190,431	800,000	0,021	0,063
-189,417	800,000	0,019	0,037
-188,402	800,000	-0,025	-0,058
-187,387	670,262	0,060	-0,110
-186,373	-35,266	-0,179	0,069
-185,358	-9,583	0,108	0,051
-184,344	-135,074	0,160	0,013
-183,329	125,429	0,068	-0,061
-182,315	401,277	0,065	0,098
-181,300	197,878	0,116	0,126
-180,285	-200,000	0,014	0,152
-179,271	-88,344	0,164	0,035
-178,256	800,000	-0,016	0,049
-177,242	-53,550	0,050	-0,016
-176,227	-16,994	0,121	0,054
-175,212	-73,219	0,152	0,039
-174,198	-66,165	-0,020	-0,006
-173,183	-200,000	-0,011	0,041
-172,169	112,340	-0,109	-0,093
-171,154	369,463	-0,024	0,034
-170,139	396,700	-0,043	0,063
-169,125	792,158	0,054	-0,105
-168,110	340,031	-0,086	0,119
-167,096	139,882	0,043	0,040
-166,081	-72,633	-0,091	-0,024
-165,066	42,632	0,069	-0,045
-164,052	-200,000	0,007	-0,071
-163,037	-200,000	-0,011	0,137
-162,023	-200,000	-0,031	0,106
-161,008	-200,000	-0,019	0,077
-159,993	14,676	0,057	-0,031
-158,979	-54,294	-0,111	-0,036
-157,964	429,457	0,011	-0,017
-156,950	350,003	0,040	0,056
-155,935	-200,000	-0,009	0,049
-154,920	-59,327	0,085	0,026
-153,906	800,000	0,019	-0,039
-152,891	158,176	-0,083	0,081
-151,877	23,804	-0,114	-0,066
-150,862	132,555	-0,148	-0,135
-149,847	-9,857	0,087	-0,041
-148,833	34,971	-0,068	0,042
-147,818	-200,000	0,003	-0,069
-146,804	-200,000	0,024	0,086
-145,789	54,774	-0,065	0,044
-144,775	800,000	-0,019	-0,051
-143,760	-200,000	0,035	0,150
-142,745	416,216	0,009	0,014
-141,731	-200,000	0,007	-0,060
-140,716	380,962	-0,019	-0,027
-139,702	-3,359	-0,024	-0,012
-138,687	-4,800	0,078	-0,038
-137,672	79,777	0,059	0,045
-136,658	-200,000	-0,005	-0,025
-135,643	20,549	-0,023	0,013
-134,629	-61,540	0,117	-0,034
-133,614	800,000	-0,013	-0,032
-132,599	-200,000	0,006	-0,021
-131,585	17,593	0,129	0,073
-130,570	-106,105	0,092	0,014
-129,556	-14,729	0,060	-0,027
-128,541	-9,207	-0,090	0,042
-127,526	-22,128	-0,202	0,087
-126,512	800,000	0,026	0,052
-125,497	-5,681	0,075	0,036
-124,483	-200,000	0,009	0,108
-123,468	299,379	-0,060	0,079
-122,453	-200,000	-0,012	-0,050
-121,439	543,230	-0,083	0,141
-120,424	563,292	-0,029	0,050
-119,410	-167,901	0,107	0,003
-118,395	-200,000	-0,027	0,091
-117,380	-115,753	0,110	0,014
-116,366	174,898	-0,064	-0,066
-115,351	-151,866	0,019	0,001
-114,337	-151,488	-0,056	0,003
-113,322	-151,053	-0,047	-0,002
-112,307	800,000	0,047	0,096
-111,293	800,000	-0,022	0,045
-110,278	-200,000	-0,006	0,037
-109,264	-78,575	0,057	-0,014
-108,249	96,340	-0,062	0,050
-107,234	-98,526	0,069	0,012
-106,220	800,000	-0,063	-0,170
-105,205	763,672	0,034	0,066
-104,191	800,000	-0,087	0,231
-103,176	164,576	0,166	0,166
-102,162	800,000	0,011	0,025
-101,147	-11,354	-0,075	-0,035
-100,132	3,026	-0,096	-0,049
-99,118	314,754	-0,075	-0,101
-98,103	138,743	0,191	0,177
-97,089	-200,000	0,004	-0,026
-96,074	112,995	-0,045	0,039
-95,059	36,569	0,074	-0,046
-94,045	56,996	0,050	-0,034
-93,030	-200,000	0,007	-0,107
-92,016	-123,942	-0,036	-0,004
-91,001	-200,000	-0,011	0,096
-89,986	-127,071	0,092	0,009
-88,972	-200,000	-0,033	-0,103
-87,957	-200,000	-0,056	0,179
-86,943	-85,136	-0,061	0,013
-85,928	-200,000	-0,010	-0,047
-84,913	-200,000	0,044	-0,195
-83,899	-169,015	0,090	-0,002
-82,884	-94,972	0,185	0,035
-81,870	-200,000	0,006	0,079
-80,855	-121,700	0,044	-0,005
-79,840	61,286	0,024	0,017
-78,826	-200,000	-0,001	-0,142
-77,811	-134,987	-0,118	0,010
-76,797	84,936	-0,041	-0,032
-75,782	-200,000	-0,042	0,157
-74,767	136,583	0,072	0,067
-73,753	-200,000	0,009	0,168
-72,738	-127,640	-0,029	-0,003
-71,724	35,502	-0,144	-0,089
-70,709	569,610	0,051	-0,089
-69,694	384,776	-0,053	-0,078
-68,680	-179,116	0,126	0,002
-67,665	-47,619	0,083	0,028
-66,651	-73,697	-0,158	0,040
-65,636	94,513	0,041	-0,033
-64,622	-200,000	-0,031	-0,139
-63,607	800,000	-0,031	-0,060
-62,592	-4,610	0,072	-0,035
-61,578	800,000	-0,025	0,053
-60,563	-106,293	0,102	-0,016
-59,549	655,407	-0,024	-0,043
-58,534	66,787	-1,997	-1,433
-57,519	607,673	-1,062	-1,878
-56,505	-200,000	-0,454	-4,383
-55,490	520,568	0,877	1,457
-54,476	800,000	5,211	11,351
-53,461	-200,000	22,046	336,955
-52,446	800,000	758,690	2293,890
-51,432	532,656	1652,263	2770,287
-50,417	69,104	1650,169	1195,539
-49,403	16,508	1525,167	847,845
-48,388	10,723	1449,603	777,999
-47,373	18,998	1441,754	813,267
-46,359	14,090	1430,502	783,671
-45,344	9,011	1426,473	757,368
-44,330	8,982	1424,693	756,257
-43,315	8,979	1422,869	755,243
-42,300	8,984	1420,819	754,149
-41,286	9,005	1419,675	753,609
-40,271	8,931	1418,721	752,724
-39,257	8,976	1417,390	752,201
-38,242	8,930	1416,510	751,487
-37,227	8,981	1415,158	750,979
-36,213	8,991	1413,881	750,318
-35,198	9,046	1412,396	749,762
-34,184	9,061	1411,411	749,280
-33,169	8,948	1410,178	748,064
-32,154	8,981	1409,283	747,716
-31,140	8,932	1408,145	746,850
-30,125	8,994	1406,771	746,380
-29,111	8,984	1405,790	745,784
-28,096	8,950	1404,605	744,969
-27,082	8,911	1403,216	744,018
-26,067	8,881	1402,358	743,396
-25,052	8,920	1401,364	743,023
-24,038	8,936	1400,292	742,496
-23,023	8,896	1399,451	741,837
-22,009	8,900	1398,277	741,205
-20,994	8,903	1397,383	740,712
-19,979	8,945	1396,420	740,368
-18,965	8,882	1395,559	739,591
-17,950	8,850	1394,566	738,888
-16,936	8,843	1393,829	738,435
-15,921	8,848	1392,613	737,782
-14,906	8,833	1391,746	737,226
-13,892	8,926	1390,466	736,950
-12,877	8,833	1390,129	736,310
-11,863	8,844	1389,363	735,929
-10,848	8,782	1388,312	735,053
-9,833	8,775	1387,438	734,530
-8,819	8,747	1386,706	733,985
-7,804	8,733	1385,716	733,368
-6,790	8,758	1384,530	732,827
-5,775	8,701	1383,571	732,028
-4,760	8,715	1382,569	731,530
-3,746	8,765	1381,652	731,246
-2,731	8,769	1380,691	730,728
-1,717	8,743	1379,910	730,164
-0,702	8,770	1378,161	729,337
0,313	12,784	1289,799	700,813
1,327	28,750	682,122	406,444
2,342	44,718	117,477	76,055
3,356	0,042	16,455	8,239
4,371	-3,630	3,670	1,792
5,386	-9,531	1,318	0,618
6,400	-200,000	0,198	0,715
7,415	155,971	-0,179	-0,174
8,429	210,470	-0,169	-0,187
9,444	-7,063	-0,374	-0,178
10,459	76,936	-0,260	-0,194
11,473	4,953	-0,319	-0,165
12,488	104,163	-0,190	-0,157
13,502	-111,459	-0,379	-0,054
14,517	217,798	-0,193	-0,217
15,531	114,090	-0,213	-0,183
16,546	77,337	-0,405	-0,303
17,561	31,098	-0,454	-0,273
18,575	22,846	-0,179	-0,103
19,590	6,874	-0,348	-0,182
20,604	-123,658	-0,288	-0,032
21,619	88,422	-0,281	-0,220
22,634	122,294	-0,413	-0,363
23,648	33,267	-0,298	-0,182
24,663	129,165	-0,388	-0,348
25,677	402,558	-0,136	-0,202
26,692	-0,848	-0,422	-0,209
27,707	-13,688	-0,399	-0,181
28,721	205,787	-0,169	-0,185
29,736	36,076	-0,350	-0,216
30,750	41,454	-0,350	-0,223
31,765	49,442	-0,357	-0,236
32,780	-2,029	-0,347	-0,171
33,794	-97,294	-0,394	-0,072
34,809	16,276	-0,319	-0,176
35,823	36,633	-0,360	-0,223
36,838	184,340	-0,407	-0,424
37,853	74,463	-0,425	-0,313
38,867	92,209	-0,419	-0,332
39,882	129,355	-0,211	-0,189
40,896	52,139	-0,387	-0,259
41,911	-92,569	-0,366	-0,072
42,926	-33,600	-0,360	-0,139
43,940	31,483	-0,403	-0,243
44,955	-22,385	-0,382	-0,162
45,969	84,817	-0,261	-0,201
46,984	193,950	-0,237	-0,253
47,999	15,832	-0,392	-0,216
49,013	72,708	-0,378	-0,277
50,028	33,566	-0,353	-0,215
51,042	51,994	-0,347	-0,232
52,057	219,496	-0,232	-0,261
53,071	121,051	-0,287	-0,251
54,086	64,285	-0,262	-0,185
55,101	85,533	-0,323	-0,249
56,115	-2,993	-0,414	-0,202
57,130	165,292	-0,294	-0,292
58,144	304,776	-0,276	-0,361
59,159	72,674	-0,341	-0,249
60,174	209,929	-0,353	-0,389
61,188	14,266	-0,336	-0,183
62,203	-61,680	-0,359	-0,105
63,217	192,047	-0,273	-0,289
64,232	20,348	-0,337	-0,190
65,247	-29,830	-0,293	-0,117
66,261	180,148	-0,256	-0,264
67,276	44,310	-0,351	-0,225
68,290	99,500	-0,216	-0,175
69,305	-14,627	-0,285	-0,128
70,320	212,700	-0,298	-0,330
71,334	-36,376	-0,280	-0,105
72,349	14,683	-0,317	-0,173
73,363	39,427	-0,299	-0,187
74,378	-18,289	-0,358	-0,156
75,393	-15,109	-0,326	-0,146
76,407	-91,917	-0,186	-0,037
77,422	9,102	-0,231	-0,122
78,436	71,893	-0,225	-0,164
79,451	132,960	-0,290	-0,262
80,466	-27,872	-0,409	-0,165
81,480	112,301	-0,371	-0,314
82,495	-25,893	-0,360	-0,148
83,509	58,997	-0,278	-0,191
84,524	281,725	-0,214	-0,269
85,539	-40,536	-0,268	-0,097
86,553	-13,755	-0,340	-0,153
87,568	-57,124	-0,403	-0,124
88,582	77,001	-0,329	-0,244
89,597	-25,400	-0,243	-0,100
90,611	-121,306	-0,207	-0,024
91,626	-124,203	-0,152	-0,016
92,641	-50,541	-0,236	-0,077
93,655	-157,223	-0,314	-0,013
94,670	-11,575	-0,312	-0,143
95,684	168,102	-0,272	-0,271
96,699	139,380	-0,265	-0,244
97,714	247,219	-0,203	-0,241
98,728	-8,532	-0,100	-0,047
99,743	200,726	-0,205	-0,221
100,757	10,708	-0,339	-0,180
101,772	299,812	-0,183	-0,236
102,787	325,431	-0,222	-0,297
103,801	-32,134	-0,391	-0,152
104,816	14,367	-0,258	-0,140
105,830	604,450	-0,056	-0,098
106,845	55,630	-0,173	-0,117
107,860	-65,278	-0,270	-0,075
108,874	-103,890	-0,306	-0,050
109,889	67,873	-0,334	-0,238
110,903	17,821	-0,293	-0,163
111,918	143,097	-0,295	-0,274
112,933	-130,148	-0,333	-0,031
113,947	-8,957	-0,202	-0,094
114,962	72,235	-0,227	-0,165
115,976	5,773	-0,242	-0,124
116,991	105,430	-0,249	-0,205
118,006	100,517	-0,288	-0,234
119,020	-44,057	-0,283	-0,099
120,035	15,430	-0,226	-0,124
121,049	-100,986	-0,291	-0,049
122,064	-10,709	-0,282	-0,130
123,079	23,602	-0,242	-0,139
124,093	48,051	-0,283	-0,184
125,108	-156,265	-0,310	-0,013
126,122	-0,964	-0,324	-0,159
127,137	194,840	-0,193	-0,204
128,151	387,258	-0,132	-0,191
129,166	75,389	-0,155	-0,114
130,181	109,183	-0,149	-0,124
131,195	140,282	-0,205	-0,188
132,210	86,693	-0,274	-0,210
133,224	254,686	-0,117	-0,140
134,239	26,293	-0,334	-0,194
135,254	86,449	-0,273	-0,209
136,268	52,143	-0,155	-0,103
137,283	-17,736	-0,342	-0,149
138,297	69,641	-0,303	-0,217
139,312	181,460	-0,242	-0,248
140,327	262,070	-0,211	-0,256
141,341	-178,334	-0,282	0,004
142,356	432,992	-0,142	-0,216
143,370	141,764	-0,194	-0,179
144,385	65,229	-0,249	-0,175
145,400	-50,883	-0,324	-0,105
146,414	99,316	-0,315	-0,253
147,429	381,242	-0,204	-0,292
148,443	99,915	-0,147	-0,119
149,458	103,182	-0,249	-0,203
150,473	19,924	-0,158	-0,088
151,487	27,906	-0,219	-0,128
152,502	49,952	-0,287	-0,188
153,516	385,178	-0,260	-0,374
154,531	37,342	-0,207	-0,127
155,546	-74,755	-0,175	-0,043
156,560	-200,000	-0,032	-0,102
157,575	51,516	-0,182	-0,120
158,589	-18,425	-0,190	-0,082
159,604	231,555	-0,187	-0,214
160,619	41,870	-0,186	-0,117
161,633	154,701	-0,183	-0,175
162,648	112,919	-0,206	-0,173
163,662	-69,520	-0,230	-0,061
164,677	115,242	-0,249	-0,211
165,692	-73,498	-0,291	-0,073
166,706	77,643	-0,263	-0,195
167,721	105,754	-0,190	-0,156
168,735	348,859	-0,182	-0,250
169,750	-87,244	-0,232	-0,049
170,764	148,014	-0,280	-0,263
171,779	256,813	-0,236	-0,283
172,794	96,480	-0,187	-0,148
173,808	240,908	-0,154	-0,179
174,823	65,184	-0,261	-0,183
175,837	9,507	-0,230	-0,120
176,852	154,353	-0,175	-0,167
177,867	800,000	-0,101	-0,223
178,881	800,000	-0,088	-0,173
179,896	121,027	-0,167	-0,144
180,910	93,269	-0,181	-0,142
181,925	105,464	-0,228	-0,187
182,940	210,763	-0,206	-0,225
183,954	-39,877	-0,216	-0,078
184,969	800,000	-0,087	-0,214
185,983	-87,230	-0,200	-0,042
186,998	245,325	-0,192	-0,225
188,013	66,719	-0,186	-0,131
189,027	73,303	-0,158	-0,114
190,042	-33,354	-0,291	-0,111
191,056	173,383	-0,278	-0,278
192,071	39,407	-0,116	-0,072
193,086	129,390	-0,172	-0,152
194,100	-41,166	-0,099	-0,035
195,115	-125,367	-0,164	0,017
196,129	-29,340	-0,287	-0,114
197,144	-54,532	-0,168	-0,052
198,159	104,392	-0,188	-0,154
199,173	2,216	-0,304	-0,152
200,188	-80,193	-0,095	-0,022
201,202	-200,000	-0,047	-0,233
202,217	-13,916	-0,185	-0,082
203,232	165,692	-0,201	-0,197
204,246	-54,357	-0,304	-0,095
205,261	131,794	-0,303	-0,270
206,275	226,708	-0,129	-0,145
207,290	16,044	-0,142	-0,077
208,304	34,139	-0,218	-0,131
209,319	437,756	-0,155	-0,235
210,334	-36,117	-0,204	-0,076
211,348	299,342	-0,172	-0,220
212,363	112,957	-0,230	-0,193
213,377	58,186	-0,201	-0,136
214,392	81,995	-0,252	-0,189
215,407	-125,964	-0,339	-0,035
216,421	-88,838	-0,233	-0,047
217,436	118,982	-0,193	-0,165
218,450	83,960	-0,234	-0,177
219,465	-9,851	-0,133	-0,061
220,480	-65,711	-0,302	-0,083
221,494	223,403	-0,147	-0,164
222,509	205,460	-0,127	-0,136
223,523	-17,405	-0,180	-0,078
224,538	2,508	-0,187	-0,093
225,553	342,499	-0,143	-0,194
226,567	149,051	-0,112	-0,105
227,582	-0,802	-0,308	-0,150
228,596	-69,582	-0,267	-0,070
229,611	155,703	-0,154	-0,147
230,626	92,712	-0,129	-0,101
231,640	-137,682	-0,150	-0,011
232,655	-37,707	-0,125	-0,046
233,669	-77,856	-0,309	-0,073
234,684	567,904	-0,102	-0,172
235,699	220,970	-0,154	-0,171
236,713	124,073	-0,104	-0,090
237,728	241,545	-0,225	-0,260
238,742	166,227	-0,259	-0,254
239,757	-38,030	-0,183	-0,067
240,772	348,474	-0,209	-0,285
241,786	148,829	-0,177	-0,165
242,801	-45,599	-0,106	0,036
243,815	800,000	-0,040	-0,114
244,830	172,667	-0,212	-0,211
245,844	-165,842	-0,267	-0,008
246,859	87,851	-0,129	-0,099
247,874	274,466	-0,157	-0,192
248,888	382,026	-0,164	-0,233
249,903	91,305	-0,235	-0,182
250,917	-8,543	-0,121	-0,056
251,932	288,823	-0,152	-0,190
252,947	689,988	-0,136	-0,246
253,961	800,000	-0,083	-0,169
254,976	2,684	-0,193	-0,096
255,990	800,000	-0,094	-0,273
257,005	-91,867	-0,177	-0,034
258,020	407,051	-0,182	-0,265
259,034	321,943	-0,083	-0,110
260,049	800,000	-0,078	-0,158
261,063	98,861	-0,114	-0,090
262,078	294,911	-0,122	-0,154
263,093	41,629	-0,273	-0,170
264,107	11,923	-0,074	0,039
265,122	245,508	0,040	-0,046
266,136	-200,000	-0,031	-0,108
267,151	-19,040	-0,116	0,050
268,166	44,231	-0,252	-0,159
269,180	-67,154	-0,196	0,053
270,195	-28,076	-0,112	-0,044
271,209	338,608	-0,135	-0,182
272,224	172,404	-0,124	-0,123
273,239	79,577	-0,127	-0,094
274,253	34,905	-0,185	-0,111
275,268	296,448	-0,131	-0,166
276,282	106,971	-0,149	-0,122
277,297	238,056	-0,111	-0,127
278,312	289,525	-0,210	-0,262
279,326	290,996	-0,090	-0,113
280,341	-119,006	-0,171	0,020
281,355	-3,211	-0,099	0,047
282,370	-32,679	-0,201	-0,077
283,384	18,445	-0,148	-0,081
284,399	206,966	-0,141	-0,152
285,414	398,253	-0,083	-0,120
286,428	-200,000	-0,014	-0,139
287,443	-200,000	-0,006	-0,167
288,457	-94,427	-0,111	-0,021
289,472	-170,942	-0,068	-0,002
290,487	-40,362	-0,162	-0,058
291,501	10,063	-0,250	-0,130
292,516	133,099	-0,221	-0,196
293,530	-200,000	0,007	-0,118
294,545	375,692	-0,127	-0,178
295,560	22,654	-0,168	0,094
296,574	72,307	-0,165	-0,118
297,589	-118,372	-0,201	-0,024
298,603	-7,307	-0,136	-0,063
299,618	273,780	-0,178	-0,217
300,633	33,617	-0,100	-0,060
301,647	500,427	-0,038	-0,060
302,662	-1,079	-0,115	0,056
303,676	379,697	-0,144	-0,203
304,691	161,781	-0,200	-0,192
305,706	151,032	-0,185	-0,173
306,720	800,000	-0,054	-0,122
307,735	678,929	-0,108	-0,194
308,749	-200,000	-0,018	-0,090
309,764	-200,000	-0,043	-0,196
310,779	193,732	-0,144	-0,150
311,793	53,757	-0,183	-0,120
312,808	179,976	-0,209	-0,210
313,822	28,633	-0,151	-0,088
314,837	311,512	-0,135	-0,174
315,852	-146,198	-0,199	0,012
316,866	-200,000	0,039	-0,151
317,881	204,890	-0,033	-0,035
318,895	800,000	-0,048	-0,123
319,910	185,621	-0,107	-0,110
320,925	16,022	-0,228	-0,123
321,939	-101,751	-0,104	-0,017
322,954	-65,374	-0,071	0,020
323,968	26,935	-0,143	-0,082
324,983	-200,000	-0,027	-0,146
325,997	208,705	-0,102	-0,110
327,012	-57,551	-0,084	0,025
328,027	71,005	-0,261	-0,185
329,041	-56,965	-0,244	-0,073
330,056	-90,663	-0,185	-0,036
331,070	164,360	-0,146	-0,141
332,085	-120,196	-0,220	0,025
333,100	396,603	-0,045	-0,064
334,114	35,613	-0,226	-0,135
335,129	-12,993	-0,257	-0,114
336,143	-98,538	-0,261	0,045
337,158	800,000	-0,082	-0,214
338,173	681,570	-0,084	-0,150
339,187	-106,394	-0,174	-0,026
340,202	-44,470	-0,161	-0,055
341,216	-200,000	-0,029	-0,277
342,231	80,824	-0,059	-0,043
343,246	-200,000	-0,079	-0,000
344,260	-200,000	0,008	-0,126
345,275	-200,000	-0,007	0,124
346,289	-51,814	-0,124	-0,039
347,304	59,307	-0,151	-0,102
348,319	571,216	-0,141	-0,235
349,333	88,532	-0,191	-0,145
350,348	-171,324	-0,157	0,004
351,362	87,743	-0,192	-0,146
352,377	-135,941	-0,146	0,012
353,392	247,049	-0,132	-0,153
354,406	-151,472	-0,183	-0,009
355,421	208,060	1303,961	1394,629
356,435	160,083	1463,335	1395,104
