DTS Sentinel unit serial number:	SN410029Multiplexer serial number:	ORYXHardware model number:	OX2-SRSoftware version number:	ORYX F/W v4,00 Oryx Data Collector v3.7.2.0data status	okinstallation	B3 Nyhavnadifferential loss correction	single-endedforward channel	channel 1reverse channel	N/Adate	2023/11/29time	17:52:30forward acquisition time	300,00reverse acquisition time	0,00gamma	499,1914k internal	0,3209k external	0,3209temperature offset calibration	1,0000default loss term (dB/km)	0,3820temperature slope calibration	1,0000multiplexer offset coefficient	1,0000multiplexer slope coefficient	1,0000fibre end	0,00T internal ref (°C)	11,25T ext. ref 1 (°C)	-4,03T ext. ref 2 (°C)	-4,12length (m)	temperature (°C)	Stokes	anti-Stokes-744,400	612,026	-0,114	-0,209
-743,385	-200,000	-0,047	0,229
-742,371	185,787	-0,184	-0,198
-741,356	-200,000	0,018	0,210
-740,342	446,893	-0,184	-0,294
-739,327	-200,000	-0,076	0,299
-738,312	150,254	-0,252	-0,249
-737,298	-200,000	0,064	0,343
-736,283	245,936	-0,230	-0,281
-735,269	-200,000	0,092	0,319
-734,254	313,703	-0,089	-0,121
-733,239	-60,350	-0,341	0,104
-732,225	289,021	-0,152	-0,201
-731,210	315,223	0,096	0,131
-730,196	-4,932	0,089	-0,044
-729,181	39,872	-0,031	-0,020
-728,167	-200,000	-0,012	-0,091
-727,152	-200,000	0,000	-0,111
-726,137	-200,000	0,004	-0,071
-725,123	-200,000	-0,016	-0,076
-724,108	221,611	-0,089	-0,104
-723,094	-200,000	-0,022	-0,161
-722,079	-200,000	-0,020	-0,105
-721,064	202,334	0,033	0,037
-720,050	-200,000	0,016	-0,082
-719,035	-200,000	-0,004	-0,073
-718,021	-78,841	-0,152	0,037
-717,006	-200,000	0,005	-0,096
-715,991	480,280	-0,118	-0,195
-714,977	-200,000	-0,003	0,056
-713,962	-0,238	-0,133	0,068
-712,948	800,000	0,031	0,082
-711,933	-87,414	-0,168	-0,037
-710,918	557,906	-0,068	0,120
-709,904	126,478	-0,114	0,104
-708,889	241,351	-0,015	0,018
-707,875	800,000	-0,064	-0,159
-706,860	21,968	0,103	-0,060
-705,845	-142,338	-0,069	0,005
-704,831	713,639	-0,054	-0,104
-703,816	-200,000	0,007	0,079
-702,802	-134,675	-0,091	0,008
-701,787	34,681	-0,230	-0,145
-700,772	-33,116	-0,085	-0,034
-699,758	-0,488	0,026	0,013
-698,743	-200,000	0,015	0,057
-697,729	219,394	-0,026	-0,030
-696,714	394,920	-0,036	-0,055
-695,699	26,784	-0,135	-0,082
-694,685	28,482	-0,113	-0,069
-693,670	-36,402	0,106	-0,041
-692,656	-200,000	0,028	-0,114
-691,641	-200,000	-0,001	0,055
-690,627	-13,063	0,157	0,074
-689,612	-200,000	-0,013	-0,051
-688,597	509,407	-0,025	0,042
-687,583	-200,000	-0,018	-0,133
-686,568	800,000	-0,045	-0,140
-685,554	3,767	-0,009	0,005
-684,539	784,514	0,097	0,194
-683,524	297,932	0,018	-0,024
-682,510	-200,000	0,004	0,076
-681,495	108,952	-0,031	0,027
-680,481	-43,117	-0,104	-0,038
-679,466	-200,000	0,003	-0,009
-678,451	196,051	-0,074	-0,082
-677,437	800,000	0,030	-0,070
-676,422	448,212	0,034	-0,054
-675,408	-146,919	-0,065	0,004
-674,393	13,157	0,106	-0,059
-673,378	23,154	-0,044	-0,026
-672,364	-93,136	-0,231	-0,046
-671,349	-200,000	-0,019	-0,197
-670,335	332,092	-0,011	0,016
-669,320	606,651	0,043	0,077
-668,305	800,000	0,071	-0,181
-667,291	-86,822	-0,090	0,020
-666,276	-130,233	-0,126	-0,012
-665,262	62,982	-0,138	-0,100
-664,247	-200,000	-0,060	-0,216
-663,232	-174,927	0,109	0,002
-662,218	-25,302	-0,111	0,047
-661,203	-41,635	0,082	0,030
-660,189	-25,961	-0,096	0,041
-659,174	430,058	-0,013	0,021
-658,159	0,816	0,071	0,037
-657,145	-141,795	-0,029	0,002
-656,130	82,304	0,117	0,092
-655,116	-42,674	-0,083	0,031
-654,101	-75,926	0,110	0,028
-653,086	86,926	-0,074	-0,059
-652,072	-200,000	-0,003	-0,060
-651,057	-200,000	0,039	-0,165
-650,043	198,652	-0,030	-0,033
-649,028	-200,000	-0,018	-0,169
-648,014	-9,312	-0,042	0,020
-646,999	250,936	0,039	-0,048
-645,984	128,320	0,045	-0,042
-644,970	293,978	0,050	-0,066
-643,955	-101,762	-0,159	0,028
-642,941	800,000	-0,056	-0,121
-641,926	-77,876	0,208	-0,051
-640,911	592,216	-0,026	0,047
-639,897	112,111	-0,020	-0,017
-638,882	800,000	0,019	0,044
-637,868	-200,000	-0,011	-0,069
-636,853	-200,000	-0,006	-0,066
-635,838	-200,000	-0,005	0,086
-634,824	-163,166	0,054	-0,002
-633,809	800,000	0,036	-0,084
-632,795	34,050	-0,035	-0,022
-631,780	731,137	0,111	0,216
-630,765	307,519	0,069	0,093
-629,751	407,780	-0,037	-0,056
-628,736	-200,000	0,035	-0,182
-627,722	-200,000	0,007	-0,063
-626,707	-33,152	0,025	0,010
-625,692	438,212	0,019	-0,030
-624,678	800,000	-0,050	-0,143
-623,663	128,030	0,026	0,024
-622,649	352,971	0,059	-0,084
-621,634	-11,219	-0,125	-0,059
-620,619	800,000	0,055	-0,121
-619,605	245,241	0,055	-0,066
-618,590	121,761	-0,052	-0,047
-617,576	21,994	0,051	0,030
-616,561	-184,285	-0,195	0,002
-615,546	64,834	0,101	0,074
-614,532	-200,000	-0,010	-0,087
-613,517	-200,000	-0,008	-0,077
-612,503	-200,000	-0,021	0,119
-611,488	48,776	0,093	0,063
-610,474	124,619	0,019	-0,017
-609,459	87,596	-0,141	0,113
-608,444	-20,255	-0,072	-0,032
-607,430	-200,000	-0,012	-0,105
-606,415	-200,000	-0,033	-0,195
-605,401	-200,000	0,002	0,092
-604,386	27,986	-0,147	0,089
-603,371	-69,163	0,230	0,063
-602,357	13,296	0,103	0,058
-601,342	482,387	-0,044	-0,072
-600,328	69,846	-0,062	0,046
-599,313	-100,255	0,068	0,012
-598,298	-122,272	0,138	0,016
-597,284	682,687	-0,033	0,063
-596,269	139,685	0,085	0,080
-595,255	800,000	0,004	0,007
-594,240	631,512	-0,054	0,099
-593,225	-2,268	-0,186	-0,094
-592,211	-200,000	-0,021	0,095
-591,196	-83,373	-0,117	-0,027
-590,182	-200,000	0,018	-0,156
-589,167	-156,791	-0,042	0,002
-588,152	-133,372	0,099	-0,009
-587,138	-161,308	0,124	-0,005
-586,123	90,534	-0,037	-0,030
-585,109	147,338	0,107	0,104
-584,094	23,356	-0,102	0,060
-583,079	-63,061	0,123	-0,036
-582,065	57,032	-0,042	0,030
-581,050	91,778	0,045	0,036
-580,036	108,177	-0,056	0,048
-579,021	162,146	-0,093	0,094
-578,006	405,827	-0,092	-0,140
-576,992	-200,000	0,005	0,124
-575,977	800,000	-0,045	0,127
-574,963	147,105	-0,147	0,142
-573,948	216,472	-0,062	-0,071
-572,934	800,000	-0,049	0,148
-571,919	-190,202	-0,140	-0,001
-570,904	147,585	-0,088	-0,085
-569,890	-7,516	-0,053	-0,026
-568,875	-3,809	0,011	-0,005
-567,861	-105,849	0,052	-0,008
-566,846	-46,585	-0,052	-0,018
-565,831	-200,000	-0,030	-0,142
-564,817	-20,946	0,101	-0,044
-563,802	410,941	-0,045	0,068
-562,788	-200,000	-0,011	-0,085
-561,773	90,100	0,074	-0,060
-560,758	326,213	0,035	0,048
-559,744	-61,866	-0,076	-0,023
-558,729	-200,000	-0,073	-0,240
-557,715	-200,000	-0,007	0,087
-556,700	800,000	0,035	0,075
-555,685	-107,750	-0,204	-0,032
-554,671	495,877	0,051	0,085
-553,656	-157,661	0,092	0,004
-552,642	-200,000	0,046	0,186
-551,627	-132,877	0,078	-0,007
-550,612	-200,000	-0,010	-0,117
-549,598	168,210	-0,163	-0,167
-548,583	209,424	-0,083	-0,094
-547,569	20,816	-0,076	-0,044
-546,554	543,589	-0,040	0,068
-545,539	78,799	-0,072	-0,055
-544,525	-124,504	-0,122	0,013
-543,510	-200,000	0,020	0,076
-542,496	309,009	-0,065	0,088
-541,481	-140,916	-0,132	0,010
-540,466	-37,472	0,088	-0,033
-539,452	36,140	-0,125	0,079
-538,437	800,000	0,038	0,086
-537,423	-78,819	-0,091	-0,022
-536,408	646,785	0,074	-0,136
-535,393	-50,116	-0,102	0,035
-534,379	119,471	-0,041	-0,037
-533,364	-46,627	0,148	-0,052
-532,350	-93,368	-0,210	-0,041
-531,335	-200,000	-0,013	0,169
-530,321	-95,958	0,106	0,020
-529,306	573,932	-0,036	-0,064
-528,291	-74,090	-0,072	0,019
-527,277	-73,521	0,132	-0,034
-526,262	800,000	0,020	0,045
-525,248	-139,575	-0,144	0,011
-524,233	487,439	0,016	0,027
-523,218	170,586	0,029	-0,030
-522,204	-16,052	-0,141	0,064
-521,189	-14,546	0,050	-0,023
-520,175	-138,775	-0,146	0,011
-519,160	80,067	-0,062	-0,048
-518,145	244,019	-0,073	0,089
-517,131	103,614	-0,022	0,018
-516,116	-200,000	-0,014	0,059
-515,102	-200,000	-0,013	0,090
-514,087	603,608	0,064	-0,114
-513,072	-200,000	-0,026	-0,114
-512,058	-200,000	0,006	-0,058
-511,043	-150,007	-0,121	0,007
-510,029	-58,934	0,110	-0,034
-509,014	82,835	0,109	0,085
-507,999	50,696	0,079	0,053
-506,985	36,612	0,080	0,051
-505,970	274,279	-0,040	-0,051
-504,956	92,619	-0,032	-0,026
-503,941	483,787	0,075	-0,124
-502,926	-200,000	-0,003	0,112
-501,912	-92,251	0,095	-0,019
-500,897	800,000	-0,029	0,083
-499,883	213,977	-0,003	0,003
-498,868	391,183	-0,040	0,060
-497,853	-112,312	-0,038	0,005
-496,839	-48,750	0,020	-0,007
-495,824	-200,000	0,010	0,096
-494,810	4,415	0,050	0,026
-493,795	709,846	-0,053	0,102
-492,781	127,136	-0,070	-0,063
-491,766	-200,000	0,011	-0,104
-490,751	-153,481	-0,110	-0,005
-489,737	22,274	0,040	-0,023
-488,722	-200,000	0,013	-0,047
-487,708	-200,000	-0,000	-0,018
-486,693	349,048	0,082	-0,117
-485,678	360,581	-0,060	0,086
-484,664	-200,000	-0,026	-0,105
-483,649	800,000	-0,065	-0,133
-482,635	721,204	-0,063	-0,121
-481,620	-200,000	0,013	-0,053
-480,605	800,000	0,080	0,196
-479,591	221,438	0,035	0,040
-478,576	800,000	0,007	-0,016
-477,562	800,000	-0,025	0,063
-476,547	-124,927	-0,082	0,009
-475,532	-129,992	0,030	0,003
-474,518	765,429	0,026	0,051
-473,503	653,728	0,055	0,101
-472,489	474,898	-0,016	-0,025
-471,474	800,000	-0,050	0,114
-470,459	-31,097	-0,068	0,027
-469,445	211,923	0,027	-0,030
-468,430	20,102	0,086	0,050
-467,416	-200,000	0,000	-0,104
-466,401	11,351	0,130	0,071
-465,386	284,966	-0,038	0,049
-464,372	414,826	-0,036	0,055
-463,357	-23,629	0,022	0,010
-462,343	800,000	-0,021	-0,047
-461,328	2,854	0,057	0,030
-460,313	-200,000	-0,003	-0,082
-459,299	-200,000	0,023	0,109
-458,284	-200,000	-0,013	0,060
-457,270	-59,861	0,060	-0,018
-456,255	-32,737	-0,112	-0,044
-455,241	-200,000	-0,001	-0,103
-454,226	-39,895	-0,033	-0,012
-453,211	-200,000	0,006	0,026
-452,197	-75,706	0,079	0,020
-451,182	-18,530	-0,108	0,048
-450,168	-73,514	-0,076	0,020
-449,153	-58,164	-0,097	-0,030
-448,138	-200,000	0,018	-0,154
-447,124	800,000	0,080	-0,237
-446,109	-200,000	0,031	0,118
-445,095	268,926	-0,023	0,029
-444,080	6,857	-0,040	-0,021
-443,065	101,281	-0,013	0,011
-442,051	32,073	-0,093	0,057
-441,036	352,913	0,097	-0,139
-440,022	142,811	-0,042	0,040
-439,007	396,732	0,057	0,085
-437,992	327,205	-0,048	-0,066
-436,978	217,715	0,159	0,182
-435,963	-101,927	0,074	0,013
-434,949	16,954	-0,070	0,040
-433,934	-200,000	-0,013	-0,050
-432,919	379,348	0,059	-0,087
-431,905	44,482	0,108	-0,071
-430,890	-200,000	0,004	0,047
-429,876	-200,000	-0,035	0,189
-428,861	800,000	-0,045	0,143
-427,846	66,524	0,056	-0,041
-426,832	800,000	-0,019	-0,052
-425,817	800,000	-0,029	-0,079
-424,803	800,000	-0,014	-0,039
-423,788	-200,000	0,011	-0,141
-422,773	-118,225	-0,174	-0,022
-421,759	89,945	0,077	0,062
-420,744	-200,000	-0,040	0,131
-419,730	216,092	-0,005	0,006
-418,715	585,344	-0,081	-0,142
-417,701	-130,305	0,246	-0,024
-416,686	800,000	0,006	-0,013
-415,671	53,946	0,143	0,098
-414,657	-200,000	-0,019	0,067
-413,642	99,883	0,066	0,055
-412,628	-24,262	-0,123	-0,052
-411,613	180,202	0,108	0,113
-410,598	-35,077	0,068	-0,026
-409,584	-118,104	-0,032	0,004
-408,569	800,000	-0,010	-0,026
-407,555	-200,000	-0,013	0,049
-406,540	-200,000	0,002	-0,030
-405,525	-31,793	0,061	-0,024
-404,511	223,009	0,070	0,081
-403,496	611,508	-0,027	0,049
-402,482	56,792	-0,049	0,034
-401,467	371,070	0,081	0,118
-400,452	178,697	-0,068	0,071
-399,438	-45,943	-0,112	0,039
-398,423	-45,464	-0,100	-0,035
-397,409	-152,304	-0,092	-0,005
-396,394	-200,000	-0,027	-0,155
-395,379	162,317	0,059	-0,060
-394,365	-1,022	-0,043	-0,022
-393,350	-82,059	0,088	0,020
-392,336	256,525	0,041	-0,051
-391,321	464,677	0,076	-0,122
-390,306	-84,800	-0,065	-0,015
-389,292	143,669	-0,149	-0,143
-388,277	-200,000	-0,002	0,039
-387,263	800,000	0,058	0,116
-386,248	-200,000	-0,015	0,057
-385,233	238,787	0,067	-0,080
-384,219	96,475	0,057	-0,047
-383,204	400,799	0,082	-0,124
-382,190	-200,000	-0,017	-0,103
-381,175	-200,000	0,023	0,110
-380,160	800,000	-0,046	0,107
-379,146	-129,899	0,139	-0,014
-378,131	312,027	0,059	0,079
-377,117	-200,000	0,024	0,110
-376,102	18,918	0,077	0,044
-375,088	-200,000	-0,008	0,063
-374,073	-40,267	-0,042	0,016
-373,058	-25,698	-0,084	-0,035
-372,044	59,006	0,040	0,028
-371,029	-200,000	0,002	0,072
-370,015	92,386	0,072	0,058
-369,000	51,082	0,085	0,057
-367,985	800,000	0,039	0,121
-366,971	-200,000	-0,009	0,119
-365,956	550,687	0,084	-0,145
-364,942	-133,199	0,136	0,012
-363,927	-200,000	0,027	0,114
-362,912	800,000	0,028	-0,083
-361,898	-200,000	0,015	-0,103
-360,883	-179,989	-0,138	0,002
-359,869	-200,000	0,011	-0,041
-358,854	-200,000	0,098	-0,000
-357,839	595,537	-0,039	0,069
-356,825	-176,892	0,092	-0,002
-355,810	-200,000	0,003	0,040
-354,796	-51,815	0,028	0,009
-353,781	-96,908	-0,154	0,029
-352,766	689,551	0,059	-0,111
-351,752	70,559	-0,091	-0,067
-350,737	800,000	-0,027	-0,078
-349,723	4,897	0,056	-0,029
-348,708	252,337	0,081	0,098
-347,693	81,245	-0,197	-0,152
-346,679	-96,648	-0,122	-0,023
-345,664	-47,619	0,086	0,030
-344,650	-18,193	-0,017	-0,007
-343,635	87,717	0,082	0,065
-342,620	800,000	-0,030	-0,086
-341,606	-200,000	-0,009	-0,057
-340,591	518,737	-0,036	0,061
-339,577	-81,173	-0,034	-0,008
-338,562	-91,078	-0,082	-0,017
-337,548	280,728	-0,025	0,032
-336,533	182,196	-0,026	-0,028
-335,518	-116,082	-0,213	0,028
-334,504	569,354	0,091	0,159
-333,489	-108,822	0,163	-0,025
-332,475	-120,890	0,094	-0,011
-331,460	-27,525	-0,096	-0,040
-330,445	97,296	-0,084	-0,068
-329,431	-200,000	0,016	-0,178
-328,416	800,000	0,044	0,101
-327,402	-31,186	-0,138	0,055
-326,387	194,251	0,020	-0,021
-325,372	-200,000	0,021	-0,129
-324,358	513,023	-0,061	-0,102
-323,343	-200,000	0,013	-0,106
-322,329	315,447	0,055	-0,074
-321,314	-73,723	0,052	-0,013
-320,299	284,575	-0,030	0,039
-319,285	-151,628	0,077	0,004
-318,270	379,030	0,044	-0,064
-317,256	36,612	0,132	0,083
-316,241	-57,499	0,040	-0,012
-315,226	800,000	0,017	0,036
-314,212	800,000	-0,046	0,119
-313,197	800,000	-0,027	0,064
-312,183	-41,849	0,023	-0,008
-311,168	-200,000	0,004	-0,067
-310,153	-200,000	-0,006	0,080
-309,139	-88,585	0,097	-0,021
-308,124	-99,265	0,065	-0,012
-307,110	69,617	-0,035	-0,026
-306,095	-22,952	-0,154	0,066
-305,080	310,962	0,040	0,053
-304,066	-105,281	-0,190	0,031
-303,051	46,974	0,051	-0,034
-302,037	-66,075	-0,024	0,007
-301,022	-200,000	0,002	0,071
-300,008	565,873	0,061	0,106
-298,993	800,000	0,029	0,074
-297,978	224,453	0,058	-0,067
-296,964	800,000	-0,032	0,066
-295,949	226,804	0,041	-0,048
-294,935	-200,000	-0,020	-0,071
-293,920	348,989	0,062	-0,087
-292,905	0,855	0,077	-0,039
-291,891	-138,805	-0,080	-0,006
-290,876	-167,668	-0,078	0,002
-289,862	-131,503	-0,115	-0,011
-288,847	56,255	0,055	0,038
-287,832	147,196	-0,048	-0,046
-286,818	157,650	-0,038	-0,038
-285,803	28,536	0,222	0,134
-284,789	488,133	0,065	-0,107
-283,774	254,695	-0,050	0,061
-282,759	-200,000	-0,035	0,120
-281,745	-70,742	-0,152	-0,041
-280,730	-81,166	0,050	-0,012
-279,716	335,605	0,042	-0,058
-278,701	110,253	-0,061	0,052
-277,686	-116,798	0,231	0,030
-276,672	800,000	-0,048	-0,149
-275,657	-87,661	-0,097	0,021
-274,643	-74,275	-0,126	-0,032
-273,628	-200,000	-0,029	0,114
-272,613	-80,877	-0,199	-0,047
-271,599	-200,000	-0,014	-0,055
-270,584	-47,681	0,179	-0,062
-269,570	-17,604	0,037	0,016
-268,555	-42,333	-0,063	0,023
-267,540	-200,000	-0,001	-0,006
-266,526	184,198	0,021	-0,022
-265,511	-35,803	0,130	-0,050
-264,497	22,992	-0,040	-0,023
-263,482	-65,511	-0,008	0,002
-262,467	-27,764	-0,069	-0,029
-261,453	-200,000	0,021	0,134
-260,438	-200,000	-0,012	0,047
-259,424	-200,000	-0,007	-0,211
-258,409	315,303	-0,021	-0,029
-257,395	-200,000	0,005	0,047
-256,380	197,568	0,072	0,078
-255,365	-200,000	-0,005	0,152
-254,351	-84,949	-0,029	0,006
-253,336	-91,780	-0,064	-0,013
-252,322	-200,000	-0,000	-0,066
-251,307	800,000	-0,036	-0,099
-250,292	-62,267	-0,123	0,036
-249,278	-200,000	0,009	0,103
-248,263	12,754	-0,164	0,090
-247,249	-24,933	0,017	0,007
-246,234	-200,000	-0,010	0,055
-245,219	23,901	-0,114	-0,066
-244,205	-200,000	-0,011	0,139
-243,190	-100,452	0,089	-0,016
-242,176	96,057	0,110	0,089
-241,161	70,530	0,105	0,077
-240,146	82,334	-0,165	0,127
-239,132	240,723	-0,042	-0,050
-238,117	-200,000	-0,007	-0,138
-237,103	-74,782	0,026	-0,007
-236,088	151,780	0,052	0,051
-235,073	722,641	0,067	0,127
-234,059	39,016	-0,070	0,044
-233,044	-80,390	0,137	0,032
-232,030	181,879	-0,039	-0,041
-231,015	800,000	0,129	-0,299
-230,000	208,883	0,003	-0,004
-228,986	-153,243	0,146	-0,007
-227,971	800,000	0,032	-0,070
-226,957	-126,319	0,116	0,012
-225,942	133,966	0,088	-0,081
-224,927	71,955	-0,053	0,039
-223,913	-154,829	-0,038	-0,002
-222,898	38,693	0,109	-0,069
-221,884	-200,000	-0,028	-0,109
-220,869	14,460	-0,079	0,044
-219,855	800,000	0,074	-0,159
-218,840	-200,000	0,014	-0,045
-217,825	-131,153	-0,055	0,005
-216,811	-195,296	0,064	-0,000
-215,796	800,000	0,018	0,041
-214,782	58,215	-0,152	0,105
-213,767	160,680	0,050	-0,050
-212,752	-200,000	0,028	0,112
-211,738	-32,544	-0,138	0,054
-210,723	5,793	0,178	0,093
-209,709	-6,814	-0,039	-0,019
-208,694	-200,000	-0,006	-0,068
-207,679	70,397	-0,050	0,037
-206,665	501,597	-0,047	0,077
-205,650	-20,141	0,254	-0,111
-204,636	-200,000	-0,014	-0,081
-203,621	-200,000	0,002	-0,048
-202,606	367,388	-0,071	-0,103
-201,592	-200,000	-0,014	-0,133
-200,577	482,800	-0,027	0,044
-199,563	-200,000	0,057	0,000
-198,548	-60,562	-0,105	0,031
-197,533	800,000	0,042	-0,119
-196,519	0,925	-0,064	0,033
-195,504	302,476	0,070	-0,092
-194,490	800,000	-0,094	-0,190
-193,475	-82,896	0,107	-0,024
-192,460	-137,771	0,011	-0,001
-191,446	-200,000	0,003	-0,031
-190,431	-74,868	0,096	0,024
-189,417	152,043	0,116	0,113
-188,402	405,790	-0,013	-0,020
-187,387	135,065	-0,057	0,052
-186,373	-3,854	0,077	0,038
-185,358	307,597	0,077	0,101
-184,344	147,397	0,123	0,117
-183,329	235,870	0,082	0,097
-182,315	-131,691	-0,141	-0,013
-181,300	-62,455	0,070	0,020
-180,285	33,786	0,042	0,026
-179,271	-132,310	-0,179	-0,016
-178,256	-200,000	-0,009	-0,137
-177,242	-200,000	0,015	-0,096
-176,227	-200,000	-0,016	0,087
-175,212	-200,000	0,009	0,045
-174,198	104,636	0,114	0,095
-173,183	800,000	0,024	0,057
-172,169	78,702	-0,031	0,023
-171,154	-45,563	-0,054	-0,019
-170,139	522,100	-0,090	0,151
-169,125	344,942	0,024	0,033
-168,110	800,000	-0,067	0,210
-167,096	111,698	0,093	0,080
-166,081	-200,000	0,004	-0,028
-165,066	-200,000	0,029	-0,140
-164,052	78,457	-0,137	-0,104
-163,037	-51,986	0,081	0,027
-162,023	800,000	0,022	0,065
-161,008	180,757	0,142	-0,148
-159,993	-16,111	0,142	-0,064
-158,979	-200,000	-0,006	0,029
-157,964	306,094	-0,080	-0,105
-156,950	106,864	0,088	0,074
-155,935	-67,745	0,085	0,023
-154,920	429,126	0,005	-0,008
-153,906	-200,000	-0,003	0,040
-152,891	493,138	0,070	0,115
-151,877	180,426	-0,047	0,048
-150,862	-73,014	-0,130	0,033
-149,847	207,965	0,071	0,078
-148,833	800,000	-0,024	0,057
-147,818	-138,819	0,059	0,005
-146,804	-88,055	0,097	-0,020
-145,789	-200,000	-0,020	-0,069
-144,775	173,850	0,038	0,039
-143,760	-8,023	-0,077	0,037
-142,745	478,674	-0,064	-0,104
-141,731	240,330	-0,083	0,099
-140,716	62,570	0,061	0,043
-139,702	-29,269	0,060	0,024
-138,687	71,468	0,035	0,026
-137,672	461,337	0,089	-0,141
-136,658	-66,169	-0,197	0,055
-135,643	52,600	-0,068	-0,046
-134,629	-200,000	-0,039	0,144
-133,614	313,421	-0,027	-0,036
-132,599	-200,000	-0,052	0,193
-131,585	-109,527	0,053	-0,008
-130,570	-70,521	-0,010	-0,003
-129,556	30,877	-0,059	-0,036
-128,541	-7,976	-0,114	0,054
-127,526	45,159	-0,118	-0,077
-126,512	800,000	0,072	0,175
-125,497	-200,000	0,012	-0,039
-124,483	-200,000	0,003	0,044
-123,468	800,000	0,019	0,038
-122,453	119,095	-0,029	-0,025
-121,439	-131,418	-0,097	0,009
-120,424	573,310	-0,031	-0,053
-119,410	-106,141	-0,023	-0,004
-118,395	207,506	0,027	0,030
-117,380	-200,000	-0,008	0,037
-116,366	26,955	0,089	-0,053
-115,351	-200,000	0,004	-0,045
-114,337	-200,000	0,022	-0,072
-113,322	800,000	-0,016	0,039
-112,307	-200,000	0,013	0,112
-111,293	102,214	0,022	0,018
-110,278	742,078	0,015	0,028
-109,264	-86,946	-0,137	-0,029
-108,249	800,000	0,022	0,047
-107,234	279,868	-0,091	-0,115
-106,220	130,807	0,088	-0,080
-105,205	-200,000	0,016	-0,077
-104,191	-57,799	-0,021	0,006
-103,176	-200,000	-0,009	-0,086
-102,162	-200,000	0,019	-0,141
-101,147	-26,545	-0,172	-0,071
-100,132	-200,000	0,003	-0,040
-99,118	501,849	-0,025	-0,041
-98,103	162,133	0,062	0,061
-97,089	-200,000	-0,004	0,054
-96,074	303,713	0,040	0,053
-95,059	324,782	-0,067	-0,091
-94,045	633,033	-0,034	0,060
-93,030	-200,000	0,007	0,067
-92,016	-200,000	0,001	0,062
-91,001	-177,841	0,045	0,001
-89,986	-14,990	0,063	-0,028
-88,972	8,641	0,145	0,077
-87,957	-200,000	0,013	0,097
-86,943	-200,000	0,039	-0,126
-85,928	-54,282	-0,193	0,062
-84,913	800,000	-0,028	0,063
-83,899	800,000	-0,012	0,032
-82,884	-200,000	-0,028	0,092
-81,870	-200,000	-0,016	0,106
-80,855	717,700	0,066	-0,124
-79,840	-124,150	-0,048	-0,005
-78,826	42,154	-0,071	-0,045
-77,811	-80,261	0,039	-0,009
-76,797	-30,781	-0,178	0,071
-75,782	349,036	-0,072	0,101
-74,767	224,875	0,080	0,092
-73,753	-200,000	0,027	0,173
-72,738	-46,208	0,014	0,005
-71,724	20,082	-0,112	0,064
-70,709	130,459	-0,057	-0,052
-69,694	800,000	-0,054	-0,108
-68,680	-122,613	0,066	0,007
-67,665	800,000	-0,013	0,035
-66,651	103,921	-0,132	0,110
-65,636	-4,344	0,094	0,046
-64,622	43,655	-0,071	-0,046
-63,607	-109,082	-0,070	-0,010
-62,592	581,819	-0,055	0,095
-61,578	0,264	0,129	-0,065
-60,563	-102,423	-0,046	-0,008
-59,549	-200,000	-0,028	0,168
-58,534	37,388	-1,720	-1,075
-57,519	490,819	-1,262	-2,048
-56,505	-200,000	-0,341	-4,315
-55,490	498,071	0,854	1,394
-54,476	800,000	4,913	11,250
-53,461	-200,000	20,584	326,719
-52,446	800,000	753,304	2315,568
-51,432	551,670	1659,381	2824,133
-50,417	73,928	1663,966	1231,046
-49,403	19,100	1537,232	868,296
-48,388	13,070	1460,092	795,539
-47,373	18,859	1450,436	818,050
-46,359	16,064	1440,064	798,860
-45,344	11,375	1435,658	774,051
-44,330	11,283	1433,802	772,578
-43,315	11,299	1431,753	771,524
-42,300	11,276	1430,140	770,513
-41,286	11,334	1428,815	770,044
-40,271	11,273	1427,732	769,138
-39,257	11,259	1426,463	768,358
-38,242	11,312	1425,311	767,958
-37,227	11,328	1424,061	767,332
-36,213	11,311	1422,858	766,574
-35,198	11,339	1421,703	766,053
-34,184	11,354	1420,791	765,600
-33,169	11,295	1419,384	764,532
-32,154	11,339	1418,452	764,210
-31,140	11,394	1417,261	763,794
-30,125	11,390	1416,324	763,243
-29,111	11,354	1415,188	762,430
-28,096	11,375	1413,837	761,772
-27,082	11,282	1412,800	760,746
-26,067	11,265	1411,703	760,047
-25,052	11,328	1410,550	759,688
-24,038	11,316	1409,401	758,982
-23,023	11,304	1408,573	758,453
-22,009	11,302	1407,420	757,792
-20,994	11,280	1406,477	757,150
-19,979	11,233	1405,914	756,596
-18,965	11,240	1404,750	755,975
-17,950	11,225	1403,840	755,386
-16,936	11,223	1403,054	754,923
-15,921	11,186	1402,019	754,164
-14,906	11,165	1401,135	753,561
-13,892	11,211	1400,113	753,194
-12,877	11,166	1399,429	752,589
-11,863	11,172	1398,633	752,159
-10,848	11,187	1397,529	751,603
-9,833	11,130	1396,703	750,867
-8,819	11,070	1395,866	750,105
-7,804	11,100	1394,884	749,690
-6,790	11,093	1393,883	749,090
-5,775	11,121	1392,731	748,569
-4,760	11,057	1391,936	747,816
-3,746	11,088	1391,039	747,447
-2,731	11,107	1390,217	747,063
-1,717	11,034	1389,480	746,302
-0,702	11,080	1387,456	745,398
0,313	15,114	1301,999	717,974
1,327	31,260	694,389	419,713
2,342	48,995	120,583	79,764
3,356	1,048	16,590	8,369
4,371	9,419	3,324	1,770
5,386	-24,441	0,806	0,337
6,400	521,511	0,286	0,475
7,415	-200,000	-0,025	-0,129
8,429	20,889	-0,296	-0,169
9,444	0,724	-0,275	-0,138
10,459	40,889	-0,333	-0,212
11,473	99,504	-0,356	-0,290
12,488	97,959	-0,291	-0,236
13,502	-16,116	-0,286	-0,127
14,517	-44,940	-0,375	-0,131
15,531	54,173	-0,455	-0,308
16,546	-17,914	-0,357	-0,157
17,561	136,750	-0,344	-0,317
18,575	-144,297	-0,297	0,019
19,590	284,702	-0,197	-0,251
20,604	-14,842	-0,081	-0,036
21,619	99,774	-0,407	-0,332
22,634	116,516	-0,387	-0,334
23,648	104,620	-0,446	-0,370
24,663	43,058	-0,418	-0,268
25,677	106,374	-0,259	-0,216
26,692	62,016	-0,434	-0,304
27,707	61,450	-0,371	-0,259
28,721	18,080	-0,331	-0,185
29,736	73,193	-0,523	-0,385
30,750	18,383	-0,462	-0,259
31,765	41,839	-0,365	-0,233
32,780	28,066	-0,397	-0,235
33,794	-20,189	-0,348	-0,150
34,809	800,000	-0,177	-0,347
35,823	4,960	-0,436	-0,225
36,838	68,179	-0,420	-0,302
37,853	66,217	-0,424	-0,302
38,867	112,161	-0,383	-0,325
39,882	182,574	-0,316	-0,328
40,896	-10,915	-0,334	-0,154
41,911	-3,090	-0,443	-0,217
42,926	3,157	-0,435	-0,222
43,940	-1,991	-0,338	-0,166
44,955	49,979	-0,357	-0,237
45,969	188,928	-0,273	-0,287
46,984	108,507	-0,304	-0,255
47,999	175,274	-0,288	-0,294
49,013	172,367	-0,292	-0,295
50,028	-57,421	-0,248	-0,076
51,042	10,884	-0,322	-0,172
52,057	129,860	-0,318	-0,286
53,071	107,937	-0,297	-0,249
54,086	-0,446	-0,330	-0,164
55,101	37,755	-0,295	-0,183
56,115	1,504	-0,394	-0,198
57,130	51,034	-0,341	-0,227
58,144	24,953	-0,377	-0,219
59,159	27,119	-0,374	-0,220
60,174	-198,121	-0,408	-0,002
61,188	86,450	-0,316	-0,244
62,203	87,410	-0,203	-0,157
63,217	-33,400	-0,318	-0,123
64,232	345,656	-0,258	-0,357
65,247	501,730	-0,208	-0,338
66,261	16,826	-0,436	-0,242
67,276	94,638	-0,336	-0,267
68,290	12,585	-0,357	-0,193
69,305	52,629	-0,346	-0,231
70,320	28,714	-0,306	-0,181
71,334	800,000	-0,129	-0,300
72,349	-70,607	-0,458	-0,121
73,363	-47,815	-0,385	-0,130
74,378	159,663	-0,236	-0,231
75,393	1,149	-0,237	-0,119
76,407	-110,370	-0,327	-0,047
77,422	-36,270	-0,349	-0,131
78,436	-138,522	-0,280	-0,021
79,451	331,131	-0,208	-0,282
80,466	445,318	-0,245	-0,378
81,480	104,045	-0,291	-0,240
82,495	-132,501	-0,208	-0,018
83,509	135,773	-0,249	-0,227
84,524	44,547	-0,175	-0,112
85,539	171,938	-0,242	-0,244
86,553	-11,503	-0,455	-0,209
87,568	74,127	-0,244	-0,179
88,582	11,932	-0,222	-0,119
89,597	102,241	-0,249	-0,204
90,611	265,504	-0,204	-0,250
91,626	148,063	-0,226	-0,214
92,641	42,160	-0,288	-0,183
93,655	17,354	-0,349	-0,193
94,670	5,550	-0,405	-0,209
95,684	29,598	-0,530	-0,315
96,699	-24,876	-0,246	-0,102
97,714	87,402	-0,268	-0,207
98,728	127,970	-0,192	-0,171
99,743	800,000	-0,090	-0,230
100,757	337,501	-0,215	-0,293
101,772	190,541	-0,268	-0,282
102,787	-30,362	-0,488	-0,193
103,801	179,282	-0,257	-0,264
104,816	44,012	-0,178	-0,114
105,830	-17,763	-0,265	-0,116
106,845	-108,948	-0,123	-0,018
107,860	97,869	-0,189	-0,152
108,874	1,129	-0,304	-0,152
109,889	34,899	-0,283	-0,172
110,903	33,502	-0,272	-0,165
111,918	-100,092	-0,313	-0,054
112,933	-91,149	-0,232	-0,046
113,947	33,372	-0,168	-0,102
114,962	-50,883	-0,149	-0,049
115,976	-167,419	-0,335	-0,009
116,991	214,489	-0,294	-0,326
118,006	772,442	-0,159	-0,303
119,020	-62,404	-0,291	-0,084
120,035	743,977	-0,061	-0,114
121,049	32,341	-0,225	-0,135
122,064	-103,074	-0,341	-0,056
123,079	421,255	-0,209	-0,313
124,093	20,875	-0,406	-0,229
125,108	43,861	-0,361	-0,231
126,122	-17,963	-0,310	-0,135
127,137	-165,364	-0,291	0,009
128,151	272,336	-0,157	-0,194
129,166	115,904	-0,186	-0,159
130,181	147,086	-0,218	-0,205
131,195	-34,478	-0,371	-0,141
132,210	130,277	-0,218	-0,195
133,224	39,315	-0,311	-0,194
134,239	359,083	-0,226	-0,316
135,254	-21,294	-0,294	-0,125
136,268	26,486	-0,207	-0,121
137,283	-43,289	-0,226	-0,079
138,297	43,466	-0,332	-0,211
139,312	-3,395	-0,312	-0,151
140,327	274,643	-0,267	-0,330
141,341	-152,979	-0,279	0,013
142,356	-121,317	-0,253	-0,029
143,370	292,765	-0,193	-0,246
144,385	38,905	-0,163	-0,102
145,400	98,284	-0,226	-0,181
146,414	800,000	-0,122	-0,248
147,429	-111,163	-0,319	-0,045
148,443	190,136	-0,163	-0,171
149,458	143,749	-0,228	-0,212
150,473	-172,483	-0,180	0,004
151,487	-8,296	-0,255	-0,119
152,502	91,082	-0,249	-0,194
153,516	102,247	-0,239	-0,195
154,531	62,735	-0,267	-0,185
155,546	-200,000	-0,031	-0,176
156,560	200,985	-0,222	-0,238
157,575	92,349	-0,234	-0,184
158,589	-190,387	-0,191	-0,001
159,604	245,337	-0,246	-0,289
160,619	393,242	-0,173	-0,251
161,633	12,942	-0,328	-0,176
162,648	-88,806	-0,174	-0,036
163,662	460,837	-0,091	-0,141
164,677	-65,007	-0,211	-0,059
165,692	21,275	-0,241	-0,136
166,706	75,564	-0,298	-0,219
167,721	171,877	-0,232	-0,232
168,735	157,214	-0,231	-0,222
169,750	-59,957	-0,286	-0,084
170,764	-156,023	-0,222	0,010
171,779	242,258	-0,132	-0,154
172,794	-42,822	-0,240	-0,084
173,808	-135,046	-0,451	-0,037
174,823	126,723	-0,291	-0,256
175,837	-56,246	-0,184	-0,056
176,852	0,011	-0,239	-0,118
177,867	47,658	-0,175	-0,113
178,881	-31,527	-0,223	-0,087
179,896	143,572	-0,137	-0,127
180,910	40,988	-0,267	-0,167
181,925	36,751	-0,233	-0,143
182,940	59,491	-0,279	-0,191
183,954	243,945	-0,159	-0,185
184,969	0,116	-0,192	-0,095
185,983	-175,212	-0,219	-0,004
186,998	186,347	-0,158	-0,164
188,013	289,272	-0,160	-0,202
189,027	137,541	-0,228	-0,207
190,042	155,229	-0,193	-0,185
191,056	61,446	-0,181	-0,125
192,071	136,212	-0,184	-0,166
193,086	800,000	-0,054	-0,140
194,100	800,000	-0,068	-0,149
195,115	2,574	-0,253	-0,127
196,129	800,000	-0,126	-0,295
197,144	191,163	-0,139	-0,145
198,159	302,327	-0,207	-0,266
199,173	81,833	-0,182	-0,137
200,188	-34,661	-0,132	-0,050
201,202	266,192	-0,193	-0,235
202,217	114,877	-0,134	-0,114
203,232	221,115	-0,142	-0,159
204,246	534,447	-0,107	-0,177
205,261	83,184	-0,272	-0,205
206,275	-150,729	-0,227	-0,012
207,290	-88,529	-0,239	-0,049
208,304	220,389	-0,182	-0,203
209,319	83,351	-0,235	-0,177
210,334	431,241	-0,188	-0,284
211,348	124,801	-0,297	-0,259
212,363	800,000	-0,112	-0,218
213,377	174,456	-0,252	-0,253
214,392	76,148	-0,231	-0,170
215,407	349,486	-0,140	-0,191
216,421	-147,423	-0,217	-0,013
217,436	-45,489	-0,340	-0,116
218,450	66,199	-0,206	-0,145
219,465	56,195	-0,186	-0,125
220,480	-66,313	-0,144	-0,039
221,494	57,860	-0,215	-0,145
222,509	240,396	-0,054	-0,063
223,523	9,095	-0,227	-0,118
224,538	-200,000	-0,050	-0,299
225,553	460,755	-0,153	-0,237
226,567	84,389	-0,266	-0,201
227,582	-20,222	-0,211	-0,090
228,596	-50,160	-0,171	-0,056
229,611	-41,225	-0,164	-0,058
230,626	-157,591	-0,160	-0,006
231,640	107,989	-0,196	-0,161
232,655	515,726	-0,085	-0,138
233,669	-46,277	-0,296	-0,100
234,684	336,267	-0,165	-0,223
235,699	194,432	-0,169	-0,178
236,713	222,255	-0,143	-0,160
237,728	-45,919	-0,289	-0,098
238,742	144,361	-0,222	-0,205
239,757	185,141	-0,128	-0,131
240,772	156,163	-0,164	-0,156
241,786	127,686	-0,233	-0,204
242,801	-99,065	-0,123	-0,021
243,815	-78,322	-0,238	-0,056
244,830	-70,639	-0,262	0,068
245,844	23,519	-0,163	-0,092
246,859	9,493	-0,164	-0,085
247,874	164,244	-0,232	-0,225
248,888	205,547	-0,196	-0,211
249,903	165,573	-0,064	-0,063
250,917	262,955	-0,134	-0,161
251,932	800,000	-0,057	-0,112
252,947	-21,982	-0,034	-0,014
253,961	-200,000	-0,075	-0,251
254,976	800,000	-0,081	-0,190
255,990	17,331	-0,130	-0,071
257,005	147,370	-0,198	-0,184
258,020	-112,900	-0,080	-0,011
259,034	800,000	-0,088	-0,179
260,049	67,270	-0,211	-0,148
261,063	5,570	-0,105	-0,053
262,078	-108,798	-0,176	-0,026
263,093	-35,131	-0,261	-0,098
264,107	-70,173	-0,198	-0,052
265,122	-104,631	-0,141	-0,022
266,136	800,000	-0,041	-0,111
267,151	138,948	-0,084	-0,076
268,166	-200,000	-0,038	-0,242
269,180	373,116	-0,153	-0,216
270,195	53,958	-0,226	-0,150
271,209	-60,803	-0,089	-0,026
272,224	271,290	-0,057	-0,070
273,239	324,257	-0,070	-0,093
274,253	5,441	-0,150	-0,076
275,268	51,902	-0,198	-0,130
276,282	242,513	-0,156	-0,180
277,297	-62,478	-0,290	-0,083
278,312	561,315	-0,111	-0,185
279,326	800,000	-0,059	-0,143
280,341	34,172	-0,152	-0,091
281,355	572,895	-0,057	-0,096
282,370	-64,963	-0,116	0,032
283,384	-102,049	-0,115	-0,019
284,399	89,277	-0,203	-0,155
285,414	52,277	-0,192	-0,126
286,428	530,832	-0,101	-0,166
287,443	374,112	-0,105	-0,148
288,457	-117,966	-0,054	-0,007
289,472	22,182	-0,097	-0,054
290,487	229,081	-0,148	-0,167
291,501	116,159	-0,198	-0,167
292,516	800,000	-0,105	-0,214
293,530	16,641	-0,133	-0,072
294,545	-91,520	-0,210	-0,041
295,560	347,308	-0,100	-0,136
296,574	-55,388	-0,088	-0,027
297,589	-6,798	-0,183	-0,085
298,603	-70,486	-0,307	-0,079
299,618	193,245	-0,098	-0,102
300,633	-68,773	-0,157	0,041
301,647	-97,768	-0,139	-0,025
302,662	800,000	-0,056	-0,155
303,676	95,882	-0,103	-0,081
304,691	-200,000	-0,039	-0,145
305,706	-29,169	-0,093	-0,036
306,720	-73,943	-0,190	-0,047
307,735	-200,000	-0,075	-0,271
308,749	-200,000	0,006	-0,076
309,764	-7,128	-0,126	-0,058
310,779	800,000	-0,046	-0,107
311,793	301,257	-0,174	-0,221
312,808	30,667	-0,224	-0,131
313,822	-14,943	-0,232	-0,102
314,837	89,719	-0,208	-0,159
315,852	683,344	-0,046	-0,084
316,866	-183,698	-0,105	-0,001
317,881	-200,000	0,003	-0,009
318,895	178,814	-0,212	-0,212
319,910	379,344	-0,103	-0,145
320,925	-121,521	-0,177	-0,020
321,939	68,657	-0,047	-0,033
322,954	-105,681	-0,214	-0,033
323,968	800,000	-0,048	-0,103
324,983	74,855	-0,110	-0,079
325,997	-48,395	-0,093	0,031
327,012	-200,000	-0,014	-0,095
328,027	-6,834	-0,111	-0,051
329,041	-156,975	-0,086	0,004
330,056	341,231	-0,104	-0,140
331,070	195,780	-0,184	-0,192
332,085	313,166	-0,098	-0,126
333,100	-6,407	-0,169	-0,079
334,114	134,254	-0,213	-0,189
335,129	369,524	-0,093	-0,130
336,143	277,444	-0,158	-0,192
337,158	-49,097	-0,309	-0,101
338,173	415,458	-0,117	-0,172
339,187	-53,642	-0,119	0,037
340,202	-170,812	-0,183	-0,004
341,216	9,925	-0,230	-0,119
342,231	326,698	-0,162	-0,213
343,246	169,171	-0,127	-0,124
344,260	-71,010	-0,160	-0,041
345,275	-200,000	-0,026	-0,090
346,289	23,036	-0,111	-0,062
347,304	79,784	-0,242	-0,178
348,319	122,323	-0,160	-0,137
349,333	-15,742	-0,297	-0,129
350,348	81,151	-0,137	-0,101
351,362	-200,000	-0,045	-0,169
352,377	104,666	-0,088	-0,071
353,392	-73,798	-0,224	-0,055
354,406	204,204	-0,021	-0,022
355,421	207,449	1307,935	1397,972
356,435	159,589	1467,803	1398,465
