DTS Sentinel unit serial number:	SN410029Multiplexer serial number:	ORYXHardware model number:	OX2-SRSoftware version number:	ORYX F/W v4,00 Oryx Data Collector v3.7.2.0data status	okinstallation	B3 Nyhavnadifferential loss correction	single-endedforward channel	channel 1reverse channel	N/Adate	2023/12/04time	13:27:30forward acquisition time	300,00reverse acquisition time	0,00gamma	499,1914k internal	0,3201k external	0,3201temperature offset calibration	1,0000default loss term (dB/km)	0,3820temperature slope calibration	1,0000multiplexer offset coefficient	1,0000multiplexer slope coefficient	1,0000fibre end	0,00T internal ref (°C)	14,87T ext. ref 1 (°C)	0,23T ext. ref 2 (°C)	0,22length (m)	temperature (°C)	Stokes	anti-Stokes-744,400	-27,626	-0,311	-0,131
-743,385	-200,000	0,050	0,188
-742,371	1,815	-0,281	-0,147
-741,356	-200,000	0,066	0,294
-740,342	442,245	-0,138	-0,221
-739,327	-200,000	0,038	0,248
-738,312	171,782	-0,120	-0,126
-737,298	-200,000	-0,057	0,276
-736,283	800,000	-0,071	-0,173
-735,269	-200,000	0,006	0,350
-734,254	85,256	-0,254	-0,203
-733,239	166,090	-0,195	0,200
-732,225	134,997	-0,174	-0,165
-731,210	115,701	0,099	0,088
-730,196	-200,000	-0,008	-0,103
-729,181	33,924	-0,057	-0,036
-728,167	437,415	0,015	0,023
-727,152	800,000	-0,036	-0,109
-726,137	10,191	-0,191	-0,105
-725,123	702,642	-0,100	-0,192
-724,108	27,881	-0,043	-0,026
-723,094	-7,573	-0,166	-0,081
-722,079	-161,474	0,047	0,002
-721,064	59,769	-0,102	-0,073
-720,050	274,094	0,074	0,095
-719,035	-59,435	0,060	0,018
-718,021	-200,000	0,010	0,057
-717,006	5,788	-0,085	-0,046
-715,991	-200,000	0,026	-0,093
-714,977	-200,000	0,006	-0,108
-713,962	9,194	-0,092	-0,050
-712,948	136,072	0,058	-0,055
-711,933	-2,080	-0,084	0,043
-710,918	147,147	-0,052	0,051
-709,904	-27,977	-0,092	0,039
-708,889	149,370	-0,022	-0,022
-707,875	30,886	-0,100	-0,062
-706,860	-133,450	0,117	-0,011
-705,845	800,000	-0,043	0,088
-704,831	-200,000	-0,015	0,081
-703,816	-200,000	0,003	0,038
-702,802	-200,000	0,020	-0,071
-701,787	-77,896	-0,141	0,035
-700,772	-75,833	-0,046	0,012
-699,758	238,582	-0,069	0,083
-698,743	-162,747	0,160	-0,006
-697,729	-25,735	0,068	-0,029
-696,714	86,713	-0,096	-0,077
-695,699	-200,000	-0,005	0,018
-694,685	303,919	0,041	-0,055
-693,670	465,066	-0,045	-0,074
-692,656	-37,209	-0,190	-0,073
-691,641	-200,000	-0,000	0,051
-690,627	124,819	0,046	0,042
-689,612	-78,772	0,094	-0,023
-688,597	-64,229	-0,054	-0,016
-687,583	-82,853	-0,076	0,018
-686,568	-186,052	-0,018	-0,000
-685,554	-200,000	-0,022	0,126
-684,539	495,662	-0,035	0,059
-683,524	-200,000	-0,003	0,148
-682,510	800,000	-0,060	0,161
-681,495	-102,787	-0,040	0,007
-680,481	332,581	-0,063	-0,089
-679,466	-41,784	-0,170	-0,063
-678,451	-47,373	-0,014	0,005
-677,437	-53,961	0,059	-0,019
-676,422	714,861	0,007	0,014
-675,408	99,592	-0,091	0,076
-674,393	75,235	-0,045	-0,035
-673,378	48,293	-0,061	0,041
-672,364	11,217	-0,121	-0,067
-671,349	59,177	-0,056	-0,040
-670,335	-98,029	-0,086	-0,016
-669,320	-200,000	-0,024	0,090
-668,305	800,000	-0,014	-0,033
-667,291	404,978	-0,080	-0,123
-666,276	158,235	0,022	0,022
-665,262	102,081	-0,073	-0,062
-664,247	-141,870	0,145	-0,010
-663,232	70,213	-0,095	-0,071
-662,218	523,934	-0,063	0,108
-661,203	-200,000	-0,018	-0,140
-660,189	-14,755	0,091	-0,042
-659,174	-200,000	-0,025	-0,171
-658,159	293,325	-0,100	-0,132
-657,145	-200,000	-0,009	-0,136
-656,130	800,000	-0,056	0,119
-655,116	800,000	0,012	-0,026
-654,101	294,707	0,057	-0,075
-653,086	397,445	0,058	0,089
-652,072	-200,000	0,001	-0,098
-651,057	126,733	-0,051	-0,047
-650,043	800,000	-0,053	-0,137
-649,028	34,553	0,167	0,105
-648,014	-91,393	0,184	0,038
-646,999	-200,000	0,093	0,000
-645,984	213,868	0,112	-0,129
-644,970	-182,019	-0,058	-0,001
-643,955	76,070	0,013	-0,010
-642,941	-200,000	-0,025	-0,099
-641,926	-200,000	-0,012	-0,077
-640,911	13,994	0,083	0,047
-639,897	-71,799	0,077	0,021
-638,882	597,686	0,045	0,081
-637,868	116,395	-0,029	-0,026
-636,853	-200,000	-0,025	-0,153
-635,838	-67,218	-0,170	-0,048
-634,824	-43,266	-0,101	-0,037
-633,809	-200,000	0,017	0,107
-632,795	-200,000	0,001	0,035
-631,780	-200,000	-0,002	-0,115
-630,765	800,000	0,025	0,054
-629,751	386,972	0,041	-0,061
-628,736	12,350	-0,083	-0,046
-627,722	20,286	0,116	-0,068
-626,707	-200,000	0,006	0,038
-625,692	26,434	-0,068	0,041
-624,678	-141,004	-0,026	0,002
-623,663	-45,505	-0,113	-0,040
-622,649	258,830	0,020	0,026
-621,634	-4,910	-0,026	0,013
-620,619	116,083	0,058	0,051
-619,605	-200,000	0,009	0,207
-618,590	743,556	0,036	-0,070
-617,576	154,894	0,064	0,063
-616,561	-185,545	0,039	0,000
-615,546	-200,000	0,006	0,065
-614,532	-48,133	-0,101	-0,035
-613,517	43,140	0,081	-0,053
-612,503	-169,863	-0,029	0,001
-611,488	-200,000	-0,014	0,216
-610,474	190,031	0,041	0,045
-609,459	428,160	0,039	0,061
-608,444	24,762	-0,113	-0,068
-607,430	-68,885	-0,132	-0,037
-606,415	-75,279	0,186	0,048
-605,401	150,445	-0,122	-0,119
-604,386	-62,808	0,073	0,022
-603,371	-99,606	-0,113	-0,020
-602,357	-73,521	0,190	-0,050
-601,342	493,486	-0,072	0,120
-600,328	-36,649	-0,025	-0,010
-599,313	477,484	0,030	-0,050
-598,298	500,729	0,066	0,111
-597,284	380,383	0,079	-0,118
-596,269	-200,000	-0,035	0,132
-595,255	28,237	0,041	-0,025
-594,240	389,374	0,038	-0,058
-593,225	221,036	-0,081	-0,094
-592,211	99,099	-0,121	-0,101
-591,196	-200,000	0,029	-0,189
-590,182	-16,682	-0,096	-0,044
-589,167	415,059	0,107	0,165
-588,152	800,000	0,038	-0,092
-587,138	-200,000	0,012	0,135
-586,123	-200,000	-0,012	-0,075
-585,109	74,589	0,083	-0,063
-584,094	-61,387	0,030	-0,009
-583,079	-200,000	-0,001	0,183
-582,065	-124,840	-0,058	-0,006
-581,050	-200,000	-0,007	-0,027
-580,036	-104,227	-0,062	-0,010
-579,021	-115,052	0,056	0,008
-578,006	-200,000	0,009	-0,116
-576,992	176,343	0,080	-0,084
-575,977	-200,000	-0,002	-0,064
-574,963	403,861	-0,126	0,192
-573,948	114,917	0,123	0,109
-572,934	-30,423	0,168	0,069
-571,919	443,162	-0,037	0,058
-570,904	-86,918	-0,090	0,020
-569,890	-19,848	-0,095	-0,042
-568,875	131,355	0,091	0,085
-567,861	-200,000	0,017	-0,103
-566,846	19,314	-0,114	-0,066
-565,831	133,386	-0,073	0,068
-564,817	-200,000	-0,019	0,060
-563,802	267,689	0,133	-0,169
-562,788	140,064	-0,042	-0,040
-561,773	-200,000	-0,010	0,076
-560,758	-200,000	0,007	0,035
-559,744	-151,138	0,067	-0,004
-558,729	-58,666	-0,051	-0,016
-557,715	-95,658	0,025	0,005
-556,700	468,442	0,027	-0,044
-555,685	-21,325	0,098	-0,043
-554,671	211,855	-0,049	0,056
-553,656	411,906	-0,072	-0,111
-552,642	-15,461	0,102	-0,047
-551,627	-148,022	-0,055	0,003
-550,612	560,113	0,064	0,111
-549,598	-200,000	-0,023	-0,205
-548,583	-105,203	-0,175	-0,029
-547,569	-200,000	0,007	0,055
-546,554	-200,000	0,029	-0,097
-545,539	-79,598	0,077	0,019
-544,525	800,000	0,051	-0,106
-543,510	-39,475	0,028	-0,011
-542,496	-200,000	-0,021	-0,079
-541,481	800,000	-0,048	-0,103
-540,466	-200,000	-0,031	-0,119
-539,452	-99,708	0,068	-0,012
-538,437	538,840	0,044	0,076
-537,423	427,292	-0,080	0,124
-536,408	538,483	0,037	0,064
-535,393	800,000	-0,047	-0,114
-534,379	-160,416	-0,164	-0,006
-533,364	800,000	0,069	-0,158
-532,350	225,484	0,096	0,112
-531,335	79,555	0,140	0,109
-530,321	181,254	-0,045	-0,048
-529,306	0,875	-0,037	0,019
-528,291	-47,829	-0,038	0,013
-527,277	-200,000	-0,012	-0,152
-526,262	719,023	-0,038	-0,073
-525,248	-59,585	-0,171	0,053
-524,233	800,000	0,014	0,029
-523,218	-21,306	0,106	0,047
-522,204	41,796	0,037	-0,024
-521,189	113,781	-0,148	-0,129
-520,175	-59,384	0,017	0,005
-519,160	384,169	-0,083	-0,124
-518,145	-200,000	-0,014	-0,099
-517,131	-200,000	-0,012	0,218
-516,116	161,122	-0,056	0,057
-515,102	328,920	0,096	0,134
-514,087	289,162	0,037	0,048
-513,072	395,597	-0,026	0,040
-512,058	149,311	-0,069	-0,068
-511,043	125,532	-0,051	0,046
-510,029	-34,013	-0,034	0,013
-509,014	189,236	-0,054	0,058
-507,999	800,000	0,044	-0,120
-506,985	800,000	-0,036	-0,107
-505,970	-22,883	0,076	-0,033
-504,956	800,000	-0,009	0,020
-503,941	36,584	0,080	-0,051
-502,926	-200,000	0,022	-0,095
-501,912	91,701	0,073	-0,059
-500,897	-200,000	0,005	-0,131
-499,883	-200,000	0,003	-0,026
-498,868	-113,900	-0,091	0,013
-497,853	203,607	0,054	0,061
-496,839	-86,001	0,024	-0,005
-495,824	-17,998	0,084	-0,038
-494,810	-63,801	-0,110	-0,032
-493,795	-27,635	-0,168	0,070
-492,781	39,176	-0,115	-0,074
-491,766	49,971	-0,083	0,056
-490,751	800,000	0,013	0,038
-489,737	-30,881	0,110	0,045
-488,722	213,326	0,037	0,042
-487,708	-137,525	0,108	0,009
-486,693	800,000	-0,071	0,162
-485,678	-91,049	-0,102	-0,021
-484,664	-200,000	0,007	-0,099
-483,649	-91,446	-0,171	-0,035
-482,635	800,000	-0,016	0,036
-481,620	639,382	0,037	0,069
-480,605	7,087	0,035	-0,019
-479,591	-200,000	0,022	0,080
-478,576	724,550	-0,033	0,063
-477,562	299,198	0,035	-0,046
-476,547	164,321	-0,047	-0,048
-475,532	-200,000	-0,029	-0,109
-474,518	129,714	-0,110	-0,102
-473,503	-200,000	-0,022	0,070
-472,489	292,532	-0,067	-0,088
-471,474	800,000	-0,017	0,047
-470,459	-19,784	0,084	-0,037
-469,445	-77,325	-0,079	-0,020
-468,430	-200,000	-0,009	0,100
-467,416	88,696	0,060	0,048
-466,401	111,237	0,082	0,071
-465,386	800,000	0,065	0,138
-464,372	-18,094	0,061	0,027
-463,357	-68,707	-0,051	-0,014
-462,343	-200,000	0,011	-0,098
-461,328	113,432	-0,088	0,077
-460,313	-155,274	0,066	-0,003
-459,299	-50,924	0,068	0,023
-458,284	102,526	0,068	0,057
-457,270	151,117	-0,076	0,074
-456,255	458,340	-0,015	-0,024
-455,241	79,893	0,017	0,013
-454,226	212,200	-0,052	0,059
-453,211	800,000	-0,022	-0,058
-452,197	31,984	0,049	0,030
-451,182	-200,000	0,007	0,143
-450,168	-136,816	0,075	0,006
-449,153	-200,000	-0,068	-0,230
-448,138	151,782	-0,063	-0,062
-447,124	-63,904	0,046	-0,013
-446,109	-200,000	-0,041	-0,191
-445,095	800,000	-0,100	-0,264
-444,080	-13,957	0,042	-0,019
-443,065	-22,113	-0,010	-0,005
-442,051	55,347	-0,187	-0,130
-441,036	324,696	0,012	0,016
-440,022	-200,000	0,012	0,086
-439,007	766,861	0,045	-0,088
-437,992	-200,000	0,004	0,072
-436,978	-164,761	-0,166	-0,005
-435,963	-104,680	0,221	0,036
-434,949	-86,707	-0,108	0,024
-433,934	263,674	0,096	-0,121
-432,919	15,940	-0,177	-0,100
-431,905	158,339	0,056	-0,056
-430,890	155,995	0,033	0,033
-429,876	-91,673	0,224	-0,045
-428,861	108,111	0,056	0,048
-427,846	800,000	-0,018	-0,043
-426,832	557,668	-0,057	-0,100
-425,817	-200,000	0,018	-0,069
-424,803	449,663	0,040	0,064
-423,788	-43,040	-0,036	-0,013
-422,773	-200,000	0,008	0,094
-421,759	5,885	-0,087	0,046
-420,744	400,856	0,058	0,088
-419,730	177,846	-0,160	0,168
-418,715	-200,000	0,019	-0,068
-417,701	-102,517	-0,132	0,022
-416,686	-86,750	-0,115	-0,025
-415,671	90,991	0,102	0,082
-414,657	10,226	0,089	0,049
-413,642	-99,606	-0,056	0,010
-412,628	-64,014	0,088	-0,026
-411,613	800,000	-0,030	0,061
-410,598	-112,830	-0,099	0,014
-409,584	40,133	0,010	-0,007
-408,569	-200,000	0,000	0,038
-407,555	-17,490	-0,104	-0,047
-406,540	427,196	0,064	-0,099
-405,525	38,963	-0,123	-0,079
-404,511	-87,876	-0,004	0,001
-403,496	800,000	-0,009	-0,022
-402,482	-200,000	0,000	-0,081
-401,467	800,000	-0,048	0,138
-400,452	-92,021	0,139	0,028
-399,438	-200,000	-0,003	0,106
-398,423	-84,259	-0,118	0,026
-397,409	-50,979	-0,064	-0,021
-396,394	-130,976	0,016	-0,001
-395,379	-200,000	0,020	-0,076
-394,365	-76,579	-0,057	-0,014
-393,350	-200,000	0,000	-0,016
-392,336	-30,973	-0,093	-0,037
-391,321	-61,095	0,100	0,030
-390,306	295,492	-0,049	0,065
-389,292	-101,634	0,051	-0,009
-388,277	-129,373	0,118	0,012
-387,263	267,036	0,005	0,007
-386,248	241,270	-0,087	0,105
-385,233	-110,802	-0,132	-0,019
-384,219	-136,183	0,126	-0,010
-383,204	594,589	-0,053	-0,094
-382,190	800,000	-0,067	-0,173
-381,175	800,000	0,034	-0,099
-380,160	800,000	-0,034	0,095
-379,146	800,000	-0,011	-0,031
-378,131	-200,000	0,003	-0,021
-377,117	101,351	0,061	-0,051
-376,102	128,710	-0,087	-0,079
-375,088	-53,899	-0,033	0,011
-374,073	92,349	-0,041	-0,033
-373,058	5,719	-0,077	-0,041
-372,044	38,152	0,044	0,028
-371,029	-200,000	0,036	0,127
-370,015	785,388	-0,033	0,065
-369,000	47,988	0,125	0,083
-367,985	-91,983	-0,154	0,031
-366,971	-200,000	0,001	0,013
-365,956	-198,736	0,008	0,000
-364,942	-17,831	0,040	0,018
-363,927	-160,390	0,035	0,001
-362,912	-200,000	0,007	0,044
-361,898	-200,000	0,035	0,112
-360,883	-129,123	-0,197	-0,019
-359,869	5,603	-0,085	-0,045
-358,854	401,641	-0,043	-0,065
-357,839	-13,223	0,110	-0,051
-356,825	44,917	-0,119	0,078
-355,810	-92,174	0,106	0,021
-354,796	495,756	-0,063	-0,105
-353,781	-200,000	0,029	-0,108
-352,766	47,092	-0,098	-0,065
-351,752	579,225	-0,028	-0,049
-350,737	185,925	0,095	-0,101
-349,723	365,324	0,052	0,075
-348,708	800,000	-0,026	0,074
-347,693	17,656	-0,023	-0,013
-346,679	70,677	0,137	-0,102
-345,664	150,079	-0,047	-0,046
-344,650	139,564	-0,024	-0,022
-343,635	-200,000	0,003	0,138
-342,620	527,688	0,026	0,044
-341,606	800,000	0,009	0,019
-340,591	-200,000	0,011	-0,037
-339,577	350,874	-0,059	-0,084
-338,562	-121,973	0,043	-0,005
-337,548	-200,000	0,021	-0,091
-336,533	24,439	0,038	0,023
-335,518	-200,000	0,012	0,052
-334,504	14,367	0,049	-0,027
-333,489	51,066	0,095	0,064
-332,475	-11,710	-0,169	0,079
-331,460	91,515	0,188	-0,151
-330,445	247,220	-0,066	-0,080
-329,431	-131,279	0,087	0,008
-328,416	-102,714	0,010	-0,002
-327,402	119,035	-0,019	-0,017
-326,387	-200,000	-0,000	-0,031
-325,372	558,122	0,025	0,042
-324,358	-1,431	-0,047	-0,024
-323,343	4,880	-0,083	-0,043
-322,329	800,000	0,060	-0,134
-321,314	113,446	0,053	-0,046
-320,299	-47,157	-0,120	0,042
-319,285	59,963	0,136	-0,096
-318,270	36,965	0,075	-0,047
-317,256	61,953	-0,144	-0,103
-316,241	195,018	0,037	-0,040
-315,226	-200,000	0,017	0,077
-314,212	800,000	0,055	0,136
-313,197	272,840	-0,072	0,091
-312,183	243,768	0,095	0,115
-311,168	-172,967	-0,148	-0,003
-310,153	-200,000	-0,010	-0,060
-309,139	21,703	0,060	-0,035
-308,124	236,619	0,027	-0,032
-307,110	-200,000	-0,008	0,083
-306,095	-7,403	0,066	0,032
-305,080	-135,998	-0,149	-0,012
-304,066	-86,055	0,089	0,019
-303,051	-200,000	0,004	0,018
-302,037	94,822	0,035	0,028
-301,022	87,260	-0,055	-0,043
-300,008	-139,635	0,173	0,013
-298,993	-200,000	0,009	-0,142
-297,978	800,000	0,044	-0,092
-296,964	327,399	0,057	0,079
-295,949	95,820	0,027	0,022
-294,935	106,006	0,065	-0,055
-293,920	-20,956	-0,062	-0,027
-292,905	167,096	-0,102	0,103
-291,891	-130,575	0,128	0,012
-290,876	41,764	-0,030	-0,019
-289,862	800,000	0,021	-0,046
-288,847	474,024	-0,061	-0,099
-287,832	625,951	-0,022	0,039
-286,818	27,347	-0,031	-0,019
-285,803	499,884	0,084	0,138
-284,789	-105,257	0,129	-0,021
-283,774	-200,000	0,009	0,031
-282,759	455,664	0,015	-0,024
-281,745	-200,000	0,014	0,066
-280,730	-200,000	-0,024	0,108
-279,716	15,009	-0,063	-0,035
-278,701	-129,390	0,214	0,021
-277,686	122,179	-0,094	0,083
-276,672	-112,797	0,173	-0,024
-275,657	269,536	0,059	0,074
-274,643	76,565	-0,077	0,058
-273,628	399,082	-0,031	0,047
-272,613	17,103	0,094	-0,053
-271,599	99,159	-0,092	-0,076
-270,584	23,268	0,086	0,050
-269,570	-200,000	-0,005	0,072
-268,555	-40,514	-0,054	-0,020
-267,540	129,551	0,051	0,047
-266,526	-52,975	0,090	0,029
-265,511	151,556	-0,125	-0,122
-264,497	-90,141	0,023	0,005
-263,482	-200,000	0,037	0,128
-262,467	210,450	0,071	0,080
-261,453	125,774	-0,013	0,012
-260,438	-200,000	0,001	0,091
-259,424	124,763	-0,053	-0,047
-258,409	10,207	-0,041	-0,022
-257,395	75,418	-0,091	0,069
-256,380	-44,146	0,126	0,045
-255,365	681,806	0,060	0,113
-254,351	-200,000	-0,024	-0,109
-253,336	-73,960	-0,081	0,021
-252,322	111,396	-0,048	0,041
-251,307	138,997	-0,043	0,040
-250,292	-61,258	0,068	-0,020
-249,278	37,324	0,034	-0,021
-248,263	-200,000	0,007	-0,059
-247,249	65,895	-0,104	0,075
-246,234	800,000	0,018	0,043
-245,219	572,664	-0,036	0,062
-244,205	90,857	-0,056	-0,044
-243,190	-31,840	0,083	-0,033
-242,176	-93,272	-0,153	-0,030
-241,161	800,000	0,076	0,164
-240,146	525,280	-0,027	0,046
-239,132	606,375	0,036	0,064
-238,117	96,417	-0,070	-0,057
-237,103	-32,426	-0,023	-0,009
-236,088	-200,000	0,017	-0,076
-235,073	800,000	0,076	0,168
-234,059	261,600	0,103	0,128
-233,044	800,000	-0,034	0,088
-232,030	164,626	0,040	0,040
-231,015	46,684	0,003	-0,002
-230,000	-132,544	-0,076	-0,007
-228,986	180,450	-0,118	0,124
-227,971	-200,000	-0,048	0,154
-226,957	-112,796	0,154	0,021
-225,942	729,072	-0,048	0,091
-224,927	207,438	-0,066	0,073
-223,913	519,638	-0,068	-0,114
-222,898	-70,251	-0,086	-0,023
-221,884	35,197	-0,061	0,038
-220,869	92,879	0,162	0,130
-219,855	-69,442	-0,062	0,017
-218,840	67,394	0,106	0,077
-217,825	-193,622	-0,031	-0,000
-216,811	-142,499	0,025	0,002
-215,796	505,533	-0,058	-0,096
-214,782	800,000	0,072	-0,154
-213,767	-200,000	-0,014	-0,074
-212,752	-200,000	0,017	-0,103
-211,738	-116,203	0,063	-0,008
-210,723	492,756	-0,069	0,112
-209,709	-159,601	-0,180	-0,007
-208,694	15,621	0,118	-0,066
-207,679	-200,000	-0,004	-0,232
-206,665	176,012	0,017	0,017
-205,650	-65,340	0,125	0,036
-204,636	306,015	-0,063	0,083
-203,621	45,421	-0,112	0,074
-202,606	-48,991	-0,043	-0,014
-201,592	-67,851	0,036	0,010
-200,577	27,205	0,134	-0,080
-199,563	-178,213	0,077	-0,001
-198,548	-134,357	0,174	-0,015
-197,533	800,000	0,052	0,115
-196,519	-115,557	-0,067	-0,009
-195,504	53,175	0,075	-0,051
-194,490	542,410	-0,048	-0,081
-193,475	-200,000	-0,041	-0,141
-192,460	120,532	-0,019	-0,017
-191,446	-200,000	-0,006	0,113
-190,431	697,413	-0,053	-0,100
-189,417	-200,000	-0,001	-0,067
-188,402	-9,348	0,061	0,029
-187,387	332,202	0,072	0,099
-186,373	39,206	-0,170	-0,108
-185,358	-156,367	0,144	0,006
-184,344	-200,000	-0,011	0,140
-183,329	-45,626	-0,055	0,019
-182,315	439,841	0,064	0,099
-181,300	800,000	0,037	0,097
-180,285	800,000	-0,033	0,103
-179,271	-67,303	0,061	-0,017
-178,256	800,000	-0,012	0,028
-177,242	-200,000	-0,013	0,107
-176,227	383,008	-0,072	-0,106
-175,212	-55,146	-0,059	-0,019
-174,198	-61,440	0,069	0,021
-173,183	-120,969	-0,117	0,014
-172,169	62,031	0,061	-0,043
-171,154	-200,000	-0,017	0,055
-170,139	-200,000	-0,019	0,060
-169,125	-106,029	0,081	0,013
-168,110	-200,000	0,009	0,092
-167,096	494,671	0,028	0,046
-166,081	-200,000	-0,018	0,062
-165,066	-58,827	-0,114	-0,035
-164,052	-13,838	-0,031	-0,014
-163,037	-108,318	0,104	-0,016
-162,023	-69,332	0,077	-0,021
-161,008	-200,000	-0,012	0,096
-159,993	89,040	-0,109	-0,086
-158,979	-95,687	0,133	-0,025
-157,964	373,974	-0,079	-0,114
-156,950	53,265	0,059	0,040
-155,935	800,000	0,057	0,143
-154,920	-42,507	0,030	-0,011
-153,906	135,277	-0,055	-0,051
-152,891	800,000	-0,026	-0,074
-151,877	73,867	0,067	-0,050
-150,862	169,808	-0,050	-0,051
-149,847	583,115	0,008	-0,014
-148,833	-110,719	0,020	0,003
-147,818	-72,796	-0,123	0,032
-146,804	156,223	0,030	-0,029
-145,789	-181,470	-0,079	0,001
-144,775	-200,000	0,008	-0,135
-143,760	675,125	0,016	0,030
-142,745	-200,000	0,006	-0,124
-141,731	727,076	-0,004	-0,009
-140,716	-86,649	0,169	0,037
-139,702	-200,000	0,021	0,163
-138,687	-200,000	-0,011	-0,058
-137,672	-108,744	-0,037	-0,006
-136,658	126,777	-0,012	-0,011
-135,643	-45,772	0,124	-0,043
-134,629	23,120	-0,129	0,075
-133,614	1,487	0,155	0,079
-132,599	-146,194	0,205	-0,013
-131,585	34,066	-0,088	-0,054
-130,570	-200,000	-0,033	0,134
-129,556	-119,642	-0,248	-0,030
-128,541	155,471	-0,041	-0,040
-127,526	-22,739	0,140	-0,060
-126,512	348,389	0,092	0,129
-125,497	121,932	0,054	-0,048
-124,483	-23,032	0,058	0,025
-123,468	800,000	0,056	-0,120
-122,453	800,000	0,028	-0,088
-121,439	1,080	0,013	-0,006
-120,424	-200,000	0,003	-0,017
-119,410	5,002	-0,064	-0,033
-118,395	209,772	-0,033	-0,036
-117,380	94,367	0,073	0,058
-116,366	113,768	0,054	-0,047
-115,351	238,581	0,064	-0,076
-114,337	-21,463	-0,073	-0,032
-113,322	-200,000	-0,020	-0,137
-112,307	-79,879	0,087	-0,021
-111,293	-18,734	-0,070	0,031
-110,278	-200,000	0,019	-0,093
-109,264	-143,730	0,083	-0,006
-108,249	-2,644	-0,088	-0,044
-107,234	-200,000	-0,058	-0,185
-106,220	-179,761	-0,118	0,002
-105,205	182,727	-0,033	-0,035
-104,191	-200,000	0,015	-0,101
-103,176	-136,128	-0,150	-0,012
-102,162	2,710	0,104	-0,053
-101,147	450,381	0,021	-0,032
-100,132	7,293	0,039	-0,021
-99,118	321,806	-0,075	-0,102
-98,103	52,199	0,048	-0,033
-97,089	139,624	0,083	-0,077
-96,074	299,833	-0,034	0,045
-95,059	800,000	-0,050	-0,106
-94,045	35,613	-0,102	-0,063
-93,030	-200,000	-0,013	-0,177
-92,016	-103,839	-0,026	-0,004
-91,001	386,301	0,038	-0,055
-89,986	-88,406	0,095	-0,020
-88,972	51,224	0,085	0,057
-87,957	-110,607	0,041	0,006
-86,943	-26,671	-0,076	-0,031
-85,928	-157,621	-0,046	-0,002
-84,913	-200,000	0,001	0,007
-83,899	234,403	-0,101	-0,119
-82,884	-75,234	0,138	0,035
-81,870	-200,000	0,003	-0,040
-80,855	-200,000	-0,033	0,189
-79,840	144,370	0,076	0,072
-78,826	-129,535	-0,025	-0,002
-77,811	441,008	-0,041	0,063
-76,797	373,492	0,058	-0,083
-75,782	331,052	0,206	0,282
-74,767	-119,333	0,104	0,013
-73,753	187,766	0,094	0,100
-72,738	800,000	-0,037	0,086
-71,724	160,626	-0,086	-0,085
-70,709	467,524	-0,032	-0,051
-69,694	800,000	0,049	-0,139
-68,680	-36,670	-0,062	-0,023
-67,665	-200,000	-0,007	-0,117
-66,651	-38,721	0,086	0,032
-65,636	0,601	-0,083	-0,042
-64,622	103,337	-0,114	-0,095
-63,607	223,734	-0,044	-0,051
-62,592	-30,263	-0,084	-0,033
-61,578	-29,951	0,037	0,015
-60,563	177,721	0,060	0,062
-59,549	800,000	-0,030	0,071
-58,534	-53,611	-1,507	-0,485
-57,519	346,898	-1,499	-2,095
-56,505	-200,000	-0,550	-4,640
-55,490	193,683	0,994	1,066
-54,476	800,000	4,762	11,086
-53,461	-200,000	18,266	288,938
-52,446	800,000	727,742	2233,669
-51,432	556,153	1643,626	2813,509
-50,417	79,167	1665,679	1262,105
-49,403	22,742	1539,335	890,179
-48,388	16,731	1462,360	816,557
-47,373	17,828	1452,617	816,370
-46,359	17,205	1442,763	807,823
-45,344	15,027	1438,219	794,851
-44,330	14,910	1436,189	793,140
-43,315	14,909	1434,674	792,265
-42,300	14,947	1433,146	791,571
-41,286	14,961	1431,907	790,919
-40,271	14,978	1430,385	790,128
-39,257	14,938	1429,207	789,259
-38,242	14,976	1427,964	788,722
-37,227	15,019	1426,718	788,205
-36,213	14,995	1425,343	787,300
-35,198	14,975	1424,399	786,653
-34,184	14,990	1423,538	786,218
-33,169	14,931	1422,210	785,173
-32,154	14,992	1421,078	784,804
-31,140	14,989	1419,785	784,047
-30,125	15,018	1418,723	783,566
-29,111	15,015	1417,490	782,838
-28,096	14,955	1416,591	782,028
-27,082	14,938	1415,391	781,255
-26,067	14,878	1414,244	780,307
-25,052	14,905	1413,203	779,831
-24,038	14,874	1412,260	779,135
-23,023	14,895	1411,278	778,661
-22,009	14,883	1410,243	778,001
-20,994	14,871	1409,375	777,435
-19,979	14,831	1408,456	776,712
-18,965	14,823	1407,329	776,023
-17,950	14,833	1406,444	775,550
-16,936	14,860	1405,478	775,111
-15,921	14,808	1404,367	774,225
-14,906	14,793	1403,692	773,755
-13,892	14,871	1402,642	773,508
-12,877	14,779	1401,706	772,532
-11,863	14,822	1400,813	772,211
-10,848	14,776	1399,993	771,514
-9,833	14,765	1399,194	770,991
-8,819	14,748	1398,064	770,259
-7,804	14,680	1397,439	769,570
-6,790	14,681	1396,258	768,890
-5,775	14,685	1395,138	768,266
-4,760	14,681	1394,337	767,772
-3,746	14,674	1393,669	767,343
-2,731	14,709	1392,592	766,879
-1,717	14,694	1391,797	766,343
-0,702	14,705	1390,061	765,406
0,313	18,515	1308,846	738,318
1,327	34,701	706,696	436,143
2,342	53,319	124,556	84,310
3,356	4,802	16,629	8,618
4,371	6,627	3,042	1,595
5,386	18,450	0,534	0,301
6,400	800,000	0,065	0,162
7,415	-1,417	-0,282	-0,140
8,429	307,155	-0,182	-0,240
9,444	5,778	-0,367	-0,191
10,459	163,840	-0,131	-0,131
11,473	-20,804	-0,435	-0,188
12,488	25,297	-0,240	-0,140
13,502	-50,211	-0,341	-0,113
14,517	-19,701	-0,331	-0,144
15,531	242,155	-0,345	-0,409
16,546	2,440	-0,507	-0,259
17,561	129,511	-0,376	-0,339
18,575	-36,632	-0,349	-0,132
19,590	367,484	-0,090	-0,128
20,604	-39,471	-0,250	0,092
21,619	28,606	-0,440	-0,262
22,634	-200,000	-0,133	-0,423
23,648	27,399	-0,468	-0,277
24,663	98,427	-0,428	-0,348
25,677	43,342	-0,406	-0,262
26,692	-69,590	-0,374	-0,100
27,707	30,079	-0,296	-0,178
28,721	-7,301	-0,417	-0,199
29,736	238,979	-0,349	-0,410
30,750	100,025	-0,461	-0,377
31,765	39,764	-0,389	-0,246
32,780	6,999	-0,445	-0,233
33,794	220,929	-0,277	-0,314
34,809	97,043	-0,413	-0,334
35,823	166,394	-0,384	-0,384
36,838	-12,011	-0,493	-0,227
37,853	221,333	-0,374	-0,424
38,867	252,790	-0,293	-0,353
39,882	29,098	-0,441	-0,263
40,896	420,753	-0,236	-0,358
41,911	407,680	-0,225	-0,336
42,926	73,531	-0,406	-0,299
43,940	161,274	-0,308	-0,303
44,955	311,351	-0,238	-0,315
45,969	56,758	-0,395	-0,270
46,984	-49,628	-0,303	-0,101
47,999	414,843	-0,252	-0,379
49,013	-18,318	-0,263	-0,115
50,028	26,161	-0,311	-0,183
51,042	69,238	-0,352	-0,255
52,057	55,126	-0,324	-0,220
53,071	49,934	-0,368	-0,244
54,086	263,010	-0,228	-0,279
55,101	35,723	-0,332	-0,205
56,115	-33,741	-0,301	-0,116
57,130	282,860	-0,233	-0,295
58,144	45,008	-0,233	-0,151
59,159	51,774	-0,380	-0,254
60,174	90,154	-0,308	-0,243
61,188	23,824	-0,466	-0,270
62,203	45,064	-0,389	-0,252
63,217	3,883	-0,414	-0,212
64,232	27,229	-0,317	-0,187
65,247	2,916	-0,304	-0,155
66,261	-55,843	-0,500	-0,156
67,276	73,381	-0,319	-0,235
68,290	21,895	-0,460	-0,263
69,305	0,275	-0,315	-0,157
70,320	101,166	-0,250	-0,205
71,334	76,432	-0,320	-0,238
72,349	139,875	-0,367	-0,340
73,363	205,999	-0,305	-0,334
74,378	14,658	-0,420	-0,230
75,393	167,360	-0,368	-0,368
76,407	16,649	-0,379	-0,210
77,422	-14,906	-0,245	-0,110
78,436	-26,928	-0,250	-0,102
79,451	61,075	-0,361	-0,251
80,466	11,084	-0,348	-0,186
81,480	-11,190	-0,356	-0,164
82,495	15,265	-0,317	-0,174
83,509	274,359	-0,209	-0,261
84,524	-36,092	-0,223	-0,084
85,539	137,620	-0,239	-0,220
86,553	74,108	-0,226	-0,167
87,568	13,772	-0,276	-0,150
88,582	221,493	-0,186	-0,210
89,597	132,643	-0,300	-0,271
90,611	113,500	-0,281	-0,240
91,626	-183,532	-0,367	-0,004
92,641	90,582	-0,396	-0,311
93,655	-47,686	-0,173	-0,058
94,670	115,218	-0,289	-0,247
95,684	-24,991	-0,429	-0,178
96,699	94,137	-0,279	-0,222
97,714	195,789	-0,280	-0,299
98,728	365,825	-0,157	-0,223
99,743	172,574	-0,253	-0,256
100,757	57,544	-0,194	-0,133
101,772	18,175	-0,428	-0,239
102,787	116,883	-0,348	-0,300
103,801	38,878	-0,323	-0,202
104,816	-36,241	-0,291	-0,109
105,830	153,411	-0,219	-0,210
106,845	-86,870	-0,298	-0,063
107,860	165,977	-0,259	-0,257
108,874	84,388	-0,245	-0,187
109,889	19,435	-0,303	-0,170
110,903	295,912	-0,223	-0,287
111,918	-18,212	-0,341	-0,149
112,933	88,471	-0,225	-0,175
113,947	24,763	-0,189	-0,110
114,962	115,233	-0,280	-0,240
115,976	234,261	-0,259	-0,300
116,991	191,307	-0,288	-0,304
118,006	-152,595	-0,336	-0,017
119,020	33,742	-0,094	0,057
120,035	394,121	-0,176	-0,258
121,049	63,501	-0,237	-0,167
122,064	105,033	-0,273	-0,226
123,079	-121,894	-0,368	-0,042
124,093	50,084	-0,384	-0,253
125,108	-13,322	-0,280	-0,127
126,122	7,869	-0,314	-0,164
127,137	69,136	-0,319	-0,229
128,151	-77,460	-0,230	-0,055
129,166	-24,051	-0,403	-0,168
130,181	50,676	-0,176	-0,116
131,195	222,476	-0,111	-0,126
132,210	-33,130	-0,373	-0,144
133,224	150,119	-0,169	-0,160
134,239	-24,787	-0,238	-0,098
135,254	12,501	-0,287	-0,154
136,268	800,000	-0,081	-0,237
137,283	-28,026	-0,158	-0,064
138,297	-57,782	-0,182	-0,055
139,312	114,023	-0,250	-0,212
140,327	216,376	-0,227	-0,253
141,341	618,488	-0,110	-0,194
142,356	638,793	-0,157	-0,280
143,370	27,361	-0,244	-0,143
144,385	52,412	-0,263	-0,175
145,400	161,957	-0,283	-0,277
146,414	92,562	-0,332	-0,261
147,429	104,615	-0,157	-0,129
148,443	175,332	-0,341	-0,345
149,458	257,812	-0,182	-0,219
150,473	519,643	-0,108	-0,178
151,487	-11,810	-0,299	-0,136
152,502	137,778	-0,262	-0,240
153,516	38,201	-0,305	-0,189
154,531	271,981	-0,264	-0,325
155,546	-1,454	-0,255	-0,125
156,560	-36,517	-0,233	-0,087
157,575	13,381	-0,154	-0,083
158,589	800,000	-0,200	-0,403
159,604	69,181	-0,279	-0,200
160,619	54,745	-0,270	-0,181
161,633	26,005	-0,299	-0,173
162,648	89,275	-0,330	-0,256
163,662	52,081	-0,240	-0,159
164,677	-75,641	-0,178	-0,044
165,692	176,107	-0,182	-0,184
166,706	97,207	-0,232	-0,185
167,721	242,401	-0,187	-0,218
168,735	17,486	-0,182	-0,100
169,750	68,586	-0,244	-0,174
170,764	5,142	-0,241	-0,123
171,779	259,122	-0,116	-0,139
172,794	-165,498	-0,145	-0,004
173,808	88,073	-0,242	-0,187
174,823	287,940	-0,135	-0,171
175,837	482,450	-0,195	-0,310
176,852	-55,119	-0,192	-0,060
177,867	12,628	-0,311	-0,167
178,881	69,277	-0,142	-0,102
179,896	143,208	-0,171	-0,158
180,910	-17,463	-0,249	-0,109
181,925	-21,822	-0,355	-0,150
182,940	130,070	-0,239	-0,213
183,954	48,565	-0,242	-0,158
184,969	342,075	-0,187	-0,255
185,983	-83,658	-0,238	-0,052
186,998	-61,371	-0,217	-0,063
188,013	132,282	-0,287	-0,257
189,027	3,250	-0,248	-0,125
190,042	133,204	-0,111	-0,100
191,056	-22,888	-0,228	-0,095
192,071	800,000	-0,105	-0,248
193,086	191,622	-0,149	-0,156
194,100	41,771	-0,310	-0,195
195,115	800,000	-0,113	-0,243
196,129	-81,610	-0,216	-0,049
197,144	23,575	-0,288	-0,165
198,159	161,380	-0,242	-0,235
199,173	800,000	-0,137	-0,270
200,188	-200,000	-0,069	-0,213
201,202	-200,000	-0,047	-0,146
202,217	159,350	-0,255	-0,247
203,232	140,279	-0,177	-0,162
204,246	139,723	-0,164	-0,150
205,261	-118,357	-0,210	-0,026
206,275	18,711	-0,068	-0,037
207,290	198,950	-0,174	-0,186
208,304	202,054	-0,160	-0,172
209,319	200,942	-0,188	-0,201
210,334	215,256	-0,167	-0,184
211,348	-70,987	-0,318	-0,083
212,363	-14,773	-0,219	-0,097
213,377	111,230	-0,266	-0,223
214,392	-24,828	-0,182	-0,075
215,407	176,851	-0,124	-0,126
216,421	118,005	-0,136	-0,117
217,436	-33,297	-0,180	-0,069
218,450	225,315	-0,162	-0,182
219,465	245,257	-0,244	-0,285
220,480	78,802	-0,100	-0,074
221,494	5,901	-0,259	-0,133
222,509	235,402	-0,149	-0,171
223,523	245,276	-0,197	-0,231
224,538	140,472	-0,201	-0,184
225,553	19,821	-0,172	-0,096
226,567	20,062	-0,205	-0,114
227,582	50,174	-0,279	-0,183
228,596	-170,412	-0,206	0,005
229,611	-21,721	-0,304	-0,128
230,626	125,778	-0,231	-0,202
231,640	71,202	-0,259	-0,186
232,655	125,475	-0,218	-0,191
233,669	371,598	-0,146	-0,207
234,684	173,861	-0,135	-0,135
235,699	-29,432	-0,105	-0,041
236,713	5,041	-0,157	-0,080
237,728	-200,000	-0,052	-0,202
238,742	24,311	-0,202	-0,116
239,757	86,005	-0,129	-0,098
240,772	275,985	-0,159	-0,196
241,786	-57,880	-0,160	-0,048
242,801	-200,000	0,004	-0,198
243,815	357,811	-0,156	-0,216
244,830	499,132	-0,080	-0,129
245,844	159,316	-0,154	-0,148
246,859	179,410	-0,206	-0,209
247,874	114,429	-0,209	-0,176
248,888	59,415	-0,101	-0,069
249,903	-42,317	-0,229	-0,081
250,917	84,109	-0,118	-0,089
251,932	99,809	-0,217	-0,174
252,947	-142,264	-0,135	0,009
253,961	445,730	-0,120	-0,183
254,976	-101,227	-0,214	-0,036
255,990	113,609	-0,176	-0,148
257,005	-5,934	-0,245	-0,115
258,020	198,472	0,089	-0,094
259,034	-200,000	-0,033	-0,185
260,049	69,080	-0,292	-0,207
261,063	-121,967	-0,359	-0,040
262,078	60,148	-0,161	-0,110
263,093	38,800	-0,092	-0,057
264,107	-145,888	-0,370	-0,022
265,122	132,489	-0,179	-0,160
266,136	226,871	-0,125	-0,141
267,151	-25,143	-0,179	-0,073
268,166	-105,664	-0,183	0,028
269,180	-85,905	-0,098	0,021
270,195	435,198	-0,169	-0,254
271,209	-55,841	-0,238	-0,073
272,224	800,000	-0,098	-0,210
273,239	-120,770	-0,213	-0,025
274,253	234,550	-0,198	-0,226
275,268	-108,395	-0,255	0,038
276,282	12,000	-0,228	-0,121
277,297	203,178	-0,190	-0,203
278,312	-53,853	-0,245	-0,077
279,326	160,812	-0,147	-0,142
280,341	800,000	-0,112	-0,305
281,355	87,287	-0,214	-0,164
282,370	4,479	-0,280	-0,141
283,384	628,228	-0,169	-0,297
284,399	31,668	-0,238	-0,141
285,414	295,615	-0,169	-0,214
286,428	800,000	-0,125	-0,257
287,443	100,757	-0,112	-0,090
288,457	-121,858	-0,124	-0,014
289,472	42,378	-0,140	-0,088
290,487	-15,307	-0,291	-0,128
291,501	39,373	-0,241	-0,148
292,516	-82,094	-0,162	-0,036
293,530	26,861	-0,085	-0,049
294,545	86,635	-0,084	-0,064
295,560	800,000	-0,039	-0,098
296,574	-98,772	-0,206	-0,036
297,589	121,355	-0,137	-0,118
298,603	543,797	-0,116	-0,191
299,618	55,012	-0,201	-0,133
300,633	-200,000	0,019	-0,079
301,647	-200,000	-0,024	-0,077
302,662	10,382	-0,147	-0,077
303,676	-97,973	-0,216	0,038
304,691	430,031	-0,136	-0,203
305,706	-100,587	-0,165	-0,028
306,720	-113,403	-0,258	0,034
307,735	-122,867	-0,166	-0,018
308,749	320,545	-0,114	-0,150
309,764	370,993	-0,143	-0,200
310,779	-49,283	-0,176	-0,058
311,793	92,293	-0,227	-0,176
312,808	335,335	-0,195	-0,261
313,822	-42,470	-0,139	-0,049
314,837	-200,000	-0,010	-0,213
315,852	13,417	-0,140	-0,074
316,866	-200,000	0,014	0,047
317,881	-52,796	-0,092	0,029
318,895	67,373	-0,163	-0,114
319,910	31,813	-0,213	-0,126
320,925	125,090	-0,117	-0,101
321,939	-163,359	-0,197	-0,006
322,954	48,699	-0,185	-0,119
323,968	-200,000	-0,022	-0,111
324,983	-26,786	-0,235	-0,094
325,997	-155,762	-0,192	-0,008
327,012	-29,858	-0,254	-0,099
328,027	-86,303	-0,217	-0,045
329,041	-27,948	-0,170	-0,068
330,056	-140,356	-0,220	0,016
331,070	99,834	-0,100	-0,080
332,085	175,865	-0,087	0,087
333,100	192,572	-0,047	-0,049
334,114	800,000	-0,068	-0,189
335,129	73,146	-0,165	-0,118
336,143	108,626	-0,099	-0,081
337,158	-200,000	-0,014	-0,075
338,173	-58,390	-0,135	0,040
339,187	-200,000	-0,016	-0,061
340,202	77,486	-0,203	-0,148
341,216	244,469	-0,136	-0,157
342,231	539,993	-0,110	-0,180
343,246	400,177	-0,086	-0,124
344,260	213,819	-0,166	-0,181
345,275	175,379	-0,134	-0,134
346,289	116,659	-0,092	0,078
347,304	256,157	-0,131	-0,154
348,319	-200,000	-0,028	-0,150
349,333	-39,426	-0,180	-0,065
350,348	380,252	-0,077	-0,109
351,362	32,465	-0,146	-0,087
352,377	58,774	-0,185	-0,125
353,392	-19,829	-0,145	-0,061
354,406	60,986	-0,181	-0,123
355,421	208,668	1315,981	1413,804
356,435	160,565	1476,882	1414,303
