DTS Sentinel unit serial number:	SN410029Multiplexer serial number:	ORYXHardware model number:	OX2-SRSoftware version number:	ORYX F/W v4,00 Oryx Data Collector v3.7.2.0data status	okinstallation	B3 Nyhavnadifferential loss correction	single-endedforward channel	channel 1reverse channel	N/Adate	2023/12/05time	06:02:30forward acquisition time	300,00reverse acquisition time	0,00gamma	499,1914k internal	0,3201k external	0,3201temperature offset calibration	1,0000default loss term (dB/km)	0,3820temperature slope calibration	1,0000multiplexer offset coefficient	1,0000multiplexer slope coefficient	1,0000fibre end	0,00T internal ref (°C)	14,00T ext. ref 1 (°C)	-1,04T ext. ref 2 (°C)	-1,08length (m)	temperature (°C)	Stokes	anti-Stokes-744,400	521,324	-0,113	-0,194
-743,385	-200,000	0,038	0,363
-742,371	199,454	-0,095	-0,106
-741,356	-200,000	0,037	0,335
-740,342	307,863	-0,165	-0,224
-739,327	-200,000	0,061	0,225
-738,312	-18,199	-0,285	-0,129
-737,298	-200,000	0,009	0,396
-736,283	129,181	-0,199	-0,185
-735,269	-200,000	0,003	0,334
-734,254	26,883	-0,197	-0,120
-733,239	800,000	-0,116	0,290
-732,225	298,623	-0,232	-0,311
-731,210	-200,000	0,010	0,182
-730,196	66,697	-0,123	0,091
-729,181	-19,990	-0,076	0,034
-728,167	113,660	-0,070	0,062
-727,152	519,183	-0,087	-0,149
-726,137	65,257	-0,047	0,035
-725,123	-117,591	-0,101	0,013
-724,108	6,001	-0,160	-0,086
-723,094	-81,036	-0,121	-0,029
-722,079	800,000	-0,018	-0,057
-721,064	-127,924	0,071	-0,007
-720,050	329,178	-0,080	-0,112
-719,035	-36,705	0,058	0,023
-718,021	-101,240	-0,113	-0,020
-717,006	66,333	0,062	-0,045
-715,991	800,000	-0,060	-0,130
-714,977	800,000	-0,052	-0,143
-713,962	697,823	0,065	-0,125
-712,948	106,056	0,018	-0,016
-711,933	332,719	-0,030	-0,043
-710,918	290,466	-0,025	-0,033
-709,904	-76,618	0,071	-0,018
-708,889	-200,000	0,011	0,054
-707,875	-126,150	-0,054	-0,006
-706,860	-55,132	-0,081	-0,026
-705,845	-200,000	0,006	0,041
-704,831	-30,760	-0,092	-0,038
-703,816	182,846	0,030	0,032
-702,802	77,303	-0,100	0,077
-701,787	136,255	-0,057	-0,054
-700,772	-111,361	-0,044	0,006
-699,758	800,000	-0,047	0,126
-698,743	194,437	-0,082	0,091
-697,729	146,602	0,027	-0,027
-696,714	-59,342	0,103	0,032
-695,699	-161,087	-0,061	0,002
-694,685	251,297	-0,036	-0,045
-693,670	800,000	0,019	-0,049
-692,656	-26,741	-0,100	0,042
-691,641	194,556	-0,127	0,140
-690,627	800,000	-0,022	-0,057
-689,612	-32,109	-0,140	-0,056
-688,597	-3,117	-0,190	-0,096
-687,583	24,087	-0,099	-0,059
-686,568	51,865	-0,032	-0,022
-685,554	800,000	-0,023	-0,050
-684,539	-200,000	-0,014	-0,195
-683,524	17,593	0,207	-0,119
-682,510	800,000	0,017	0,038
-681,495	-45,949	-0,071	-0,025
-680,481	800,000	0,017	-0,052
-679,466	-200,000	0,009	-0,067
-678,451	800,000	0,051	-0,103
-677,437	-200,000	-0,009	-0,050
-676,422	-95,093	0,058	-0,011
-675,408	-200,000	-0,019	0,117
-674,393	144,843	0,043	-0,042
-673,378	355,410	-0,091	-0,132
-672,364	-200,000	0,008	0,049
-671,349	800,000	-0,066	-0,152
-670,335	418,041	-0,023	-0,035
-669,320	46,399	0,021	-0,014
-668,305	-200,000	-0,024	0,095
-667,291	-132,177	-0,143	0,013
-666,276	95,489	-0,036	-0,030
-665,262	800,000	-0,066	-0,137
-664,247	314,668	0,019	0,026
-663,232	200,363	-0,056	0,063
-662,218	297,896	-0,084	0,112
-661,203	52,831	0,129	-0,089
-660,189	-40,352	0,045	-0,017
-659,174	627,997	-0,014	0,026
-658,159	-66,089	-0,092	0,026
-657,145	608,192	-0,067	-0,121
-656,130	-200,000	0,044	-0,162
-655,116	-200,000	0,015	0,126
-654,101	-158,347	-0,072	-0,003
-653,086	200,393	0,047	0,052
-652,072	-25,849	-0,165	-0,070
-651,057	735,270	0,042	-0,082
-650,043	107,461	-0,076	-0,065
-649,028	800,000	-0,032	0,074
-648,014	135,650	0,111	-0,104
-646,999	800,000	0,041	0,117
-645,984	16,882	0,071	-0,041
-644,970	-54,640	-0,075	0,024
-643,955	-172,328	-0,151	-0,003
-642,941	37,223	-0,095	-0,061
-641,926	111,225	0,034	0,030
-640,911	-200,000	0,014	-0,117
-639,897	28,366	0,105	-0,064
-638,882	-7,384	-0,054	-0,026
-637,868	-105,231	0,048	0,008
-636,853	-48,586	-0,072	-0,025
-635,838	800,000	-0,034	-0,103
-634,824	257,348	-0,087	0,108
-633,809	61,057	0,113	0,081
-632,795	117,093	-0,091	-0,081
-631,780	231,368	-0,033	0,039
-630,765	-132,958	-0,109	-0,010
-629,751	-200,000	0,044	-0,197
-628,736	-200,000	0,006	-0,214
-627,722	800,000	-0,050	-0,103
-626,707	800,000	0,013	-0,041
-625,692	187,878	-0,093	0,100
-624,678	198,839	0,060	0,066
-623,663	-200,000	-0,010	0,052
-622,649	-200,000	-0,019	-0,128
-621,634	-58,651	-0,282	0,088
-620,619	-129,538	-0,023	0,002
-619,605	235,643	-0,064	-0,077
-618,590	7,817	0,048	-0,026
-617,576	-57,012	-0,157	0,050
-616,561	800,000	0,042	0,111
-615,546	-200,000	-0,035	-0,130
-614,532	-87,235	-0,123	0,027
-613,517	-5,118	-0,084	-0,042
-612,503	-93,623	0,060	-0,012
-611,488	-102,831	0,071	0,012
-610,474	800,000	0,063	0,132
-609,459	8,968	-0,021	-0,011
-608,444	187,490	0,040	0,043
-607,430	140,744	-0,118	-0,113
-606,415	-41,393	-0,109	-0,040
-605,401	451,306	0,045	-0,072
-604,386	-64,997	0,068	0,020
-603,371	233,517	-0,066	0,078
-602,357	-200,000	0,006	0,131
-601,342	17,147	0,118	0,068
-600,328	254,712	-0,141	-0,175
-599,313	508,467	0,011	-0,019
-598,298	172,586	-0,005	0,006
-597,284	-117,010	0,135	0,018
-596,269	153,526	0,048	0,048
-595,255	-113,997	-0,105	0,015
-594,240	800,000	0,012	0,025
-593,225	800,000	0,031	-0,096
-592,211	-55,477	-0,009	0,003
-591,196	74,981	-0,098	0,075
-590,182	800,000	0,063	0,158
-589,167	32,284	0,007	-0,005
-588,152	800,000	0,043	-0,127
-587,138	193,069	0,044	0,049
-586,123	443,976	0,010	0,016
-585,109	131,396	0,049	-0,045
-584,094	220,286	-0,079	-0,091
-583,079	-67,164	-0,047	0,013
-582,065	765,135	-0,003	0,007
-581,050	-192,909	0,064	-0,000
-580,036	69,362	-0,139	-0,103
-579,021	-200,000	-0,010	0,067
-578,006	-58,630	-0,090	0,028
-576,992	0,025	-0,115	0,059
-575,977	37,267	-0,174	-0,111
-574,963	31,879	-0,020	-0,012
-573,948	-85,143	0,140	-0,031
-572,934	-193,124	-0,047	-0,000
-571,919	-107,747	-0,044	-0,007
-570,904	279,088	-0,040	-0,052
-569,890	112,871	0,104	0,091
-568,875	800,000	-0,015	-0,032
-567,861	138,176	0,132	0,125
-566,846	29,126	0,110	0,067
-565,831	370,420	-0,068	0,100
-564,817	-31,843	-0,063	0,025
-563,802	59,092	-0,019	0,013
-562,788	-200,000	0,067	-0,257
-561,773	-73,861	-0,036	-0,009
-560,758	0,645	0,021	0,011
-559,744	800,000	-0,029	0,072
-558,729	-111,881	0,088	0,013
-557,715	-132,481	0,054	-0,005
-556,700	800,000	-0,055	-0,130
-555,685	-114,820	-0,059	0,008
-554,671	28,951	0,091	0,056
-553,656	-200,000	0,002	0,086
-552,642	-200,000	0,000	-0,012
-551,627	-200,000	-0,010	-0,062
-550,612	68,481	-0,086	0,064
-549,598	-200,000	0,005	-0,026
-548,583	83,402	-0,155	0,122
-547,569	-200,000	0,017	0,085
-546,554	-52,981	0,144	0,048
-545,539	467,410	-0,043	0,069
-544,525	800,000	0,040	0,091
-543,510	51,957	0,055	-0,038
-542,496	800,000	0,011	0,032
-541,481	800,000	-0,038	-0,092
-540,466	800,000	-0,073	-0,208
-539,452	-200,000	0,039	0,125
-538,437	800,000	0,039	0,101
-537,423	463,765	-0,047	0,076
-536,408	13,895	-0,084	-0,047
-535,393	-33,745	-0,083	0,033
-534,379	-91,896	0,078	-0,016
-533,364	191,843	-0,075	-0,082
-532,350	652,590	0,064	0,118
-531,335	800,000	0,032	-0,066
-530,321	350,590	-0,047	0,067
-529,306	-54,103	-0,029	0,009
-528,291	648,319	-0,030	0,056
-527,277	1,796	-0,057	0,029
-526,262	-140,664	0,127	0,009
-525,248	-200,000	-0,021	-0,114
-524,233	800,000	0,029	-0,058
-523,218	-200,000	-0,014	0,199
-522,204	241,634	-0,034	-0,041
-521,189	-129,265	0,082	-0,008
-520,175	-200,000	-0,007	-0,042
-519,160	7,934	0,073	-0,039
-518,145	-8,599	-0,027	-0,013
-517,131	-100,055	0,104	-0,019
-516,116	-53,121	0,122	0,040
-515,102	-79,763	-0,038	0,009
-514,087	-91,634	-0,134	-0,027
-513,072	159,557	-0,003	0,003
-512,058	800,000	-0,048	-0,120
-511,043	-17,433	0,085	0,038
-510,029	-200,000	0,026	-0,100
-509,014	127,351	0,063	0,058
-507,999	44,202	0,060	-0,040
-506,985	81,691	0,063	-0,049
-505,970	-200,000	0,032	-0,114
-504,956	-200,000	-0,010	-0,084
-503,941	-6,001	0,061	0,030
-502,926	418,595	0,082	0,127
-501,912	363,712	0,106	0,153
-500,897	-71,077	-0,090	0,024
-499,883	-200,000	-0,024	-0,113
-498,868	-102,972	0,128	-0,022
-497,853	-169,423	-0,064	0,002
-496,839	418,251	0,038	-0,059
-495,824	-26,211	0,176	0,074
-494,810	785,789	0,072	0,143
-493,795	352,612	-0,043	0,061
-492,781	198,044	-0,044	-0,049
-491,766	34,236	-0,069	0,043
-490,751	-200,000	0,007	0,160
-489,737	800,000	-0,051	0,122
-488,722	29,355	0,047	0,029
-487,708	-10,594	-0,146	0,069
-486,693	-86,517	-0,060	0,013
-485,678	-200,000	-0,041	0,144
-484,664	-200,000	-0,032	-0,154
-483,649	362,641	-0,051	-0,074
-482,635	-200,000	0,028	-0,124
-481,620	1,323	0,065	0,034
-480,605	632,847	-0,012	-0,022
-479,591	-127,248	0,085	0,009
-478,576	800,000	0,031	0,071
-477,562	-176,894	-0,093	0,002
-476,547	-175,419	-0,073	0,001
-475,532	197,758	0,060	-0,066
-474,518	-200,000	0,005	0,035
-473,503	800,000	-0,023	-0,052
-472,489	800,000	0,057	0,175
-471,474	-200,000	-0,039	0,237
-470,459	-123,714	-0,088	0,010
-469,445	-121,217	-0,045	-0,005
-468,430	76,286	0,061	-0,046
-467,416	-87,874	-0,061	0,013
-466,401	-200,000	0,005	-0,068
-465,386	129,463	0,118	0,109
-464,372	295,138	0,032	0,042
-463,357	177,544	0,046	-0,048
-462,343	-90,634	-0,096	0,020
-461,328	-136,481	-0,048	0,004
-460,313	-17,943	0,158	-0,071
-459,299	67,113	0,167	0,122
-458,284	727,852	-0,017	-0,032
-457,270	-200,000	0,030	0,126
-456,255	31,359	-0,008	0,005
-455,241	-88,466	-0,079	0,017
-454,226	-200,000	0,003	-0,103
-453,211	-121,603	0,011	-0,001
-452,197	-8,526	0,052	0,025
-451,182	-44,356	0,057	-0,020
-450,168	-200,000	-0,018	-0,124
-449,153	35,642	0,052	0,033
-448,138	-200,000	0,010	-0,125
-447,124	-67,329	-0,145	-0,041
-446,109	439,387	-0,024	-0,037
-445,095	499,845	0,111	-0,185
-444,080	86,929	0,061	-0,049
-443,065	235,820	-0,020	0,024
-442,051	170,141	-0,070	-0,072
-441,036	-166,785	0,114	-0,003
-440,022	-135,975	-0,065	-0,005
-439,007	52,112	0,045	0,031
-437,992	-176,278	-0,059	0,001
-436,978	-44,572	0,100	-0,036
-435,963	-200,000	-0,028	0,123
-434,949	338,727	-0,079	-0,111
-433,934	120,259	-0,011	-0,010
-432,919	-99,213	-0,156	-0,028
-431,905	603,131	0,065	-0,116
-430,890	-68,382	0,144	-0,040
-429,876	-21,961	0,051	-0,022
-428,861	-200,000	-0,018	-0,129
-427,846	149,740	0,084	-0,082
-426,832	70,613	0,057	0,042
-425,817	800,000	-0,030	0,070
-424,803	76,541	-0,074	-0,056
-423,788	185,039	-0,095	-0,102
-422,773	149,052	0,068	0,066
-421,759	-15,570	0,105	0,048
-420,744	-110,841	0,092	0,014
-419,730	113,392	-0,029	0,026
-418,715	68,903	0,041	0,030
-417,701	800,000	0,040	-0,090
-416,686	283,922	0,093	0,121
-415,671	559,709	0,052	0,091
-414,657	-97,794	0,031	-0,006
-413,642	493,033	0,033	0,055
-412,628	749,676	-0,066	-0,128
-411,613	-200,000	0,005	0,059
-410,598	112,544	-0,030	0,026
-409,584	680,925	0,077	-0,145
-408,569	46,978	0,106	0,070
-407,555	-200,000	-0,008	-0,043
-406,540	13,577	0,073	0,041
-405,525	-200,000	-0,003	0,076
-404,511	-200,000	-0,032	-0,151
-403,496	-200,000	-0,035	0,136
-402,482	-200,000	0,002	0,058
-401,467	297,149	0,023	0,030
-400,452	-132,401	0,124	0,011
-399,438	135,354	0,145	0,135
-398,423	95,626	-0,037	-0,030
-397,409	183,533	-0,080	0,085
-396,394	-200,000	-0,007	-0,034
-395,379	-2,561	0,139	-0,069
-394,365	-171,946	0,065	-0,001
-393,350	247,727	0,085	0,104
-392,336	-200,000	0,004	0,107
-391,321	800,000	-0,010	-0,031
-390,306	-6,667	-0,116	0,056
-389,292	800,000	0,043	-0,098
-388,277	-200,000	-0,005	-0,071
-387,263	383,024	0,055	-0,081
-386,248	385,223	0,064	0,095
-385,233	173,581	-0,051	0,053
-384,219	-200,000	-0,021	0,070
-383,204	796,081	0,052	0,103
-382,190	-200,000	-0,011	-0,051
-381,175	771,662	-0,017	0,034
-380,160	-49,655	0,113	-0,038
-379,146	-200,000	-0,004	0,068
-378,131	-28,775	0,114	-0,047
-377,117	98,719	-0,027	0,022
-376,102	800,000	-0,043	0,094
-375,088	-40,078	-0,068	-0,025
-374,073	490,409	0,043	0,071
-373,058	40,310	0,102	0,066
-372,044	-200,000	0,003	0,053
-371,029	25,015	0,054	0,032
-370,015	-200,000	-0,005	-0,090
-369,000	-200,000	-0,034	-0,156
-367,985	225,868	-0,146	-0,170
-366,971	-15,690	0,058	-0,026
-365,956	41,259	-0,083	0,054
-364,942	386,787	0,040	0,060
-363,927	56,606	-0,174	0,121
-362,912	-12,508	0,038	-0,018
-361,898	-200,000	-0,040	0,126
-360,883	-121,663	-0,265	-0,031
-359,869	-77,034	0,068	0,017
-358,854	-147,067	0,063	-0,004
-357,839	800,000	-0,019	0,039
-356,825	-47,671	-0,103	0,036
-355,810	-125,145	-0,105	0,011
-354,796	-78,198	0,071	0,017
-353,781	87,542	0,069	-0,055
-352,766	-103,645	0,083	-0,014
-351,752	-15,387	0,053	-0,024
-350,737	800,000	-0,034	0,077
-349,723	-30,899	0,254	0,102
-348,708	590,994	-0,077	-0,136
-347,693	461,011	-0,091	-0,145
-346,679	800,000	-0,016	0,042
-345,664	83,421	0,112	-0,087
-344,650	-200,000	-0,013	-0,063
-343,635	-66,138	-0,042	0,012
-342,620	-200,000	0,006	0,108
-341,606	-200,000	-0,005	-0,025
-340,591	-200,000	0,015	-0,049
-339,577	17,817	0,046	0,026
-338,562	-160,036	-0,119	0,005
-337,548	343,245	0,156	0,219
-336,533	-119,349	0,039	-0,005
-335,518	-80,462	0,084	0,020
-334,504	-178,182	-0,027	0,000
-333,489	-200,000	0,034	0,115
-332,475	6,509	-0,178	-0,094
-331,460	43,360	0,036	-0,024
-330,445	-200,000	-0,028	-0,116
-329,431	-111,981	-0,068	0,010
-328,416	468,114	0,017	0,027
-327,402	73,436	-0,069	-0,052
-326,387	-37,925	-0,054	-0,021
-325,372	-85,210	-0,262	-0,058
-324,358	-62,473	0,078	-0,023
-323,343	800,000	-0,031	0,071
-322,329	-17,829	-0,003	-0,001
-321,314	-200,000	0,005	0,163
-320,299	-200,000	-0,013	-0,079
-319,285	-81,035	0,080	-0,019
-318,270	763,179	0,044	0,086
-317,256	164,119	-0,094	-0,095
-316,241	92,014	0,020	-0,016
-315,226	-200,000	0,003	-0,184
-314,212	800,000	0,055	0,145
-313,197	800,000	-0,084	0,198
-312,183	-75,160	-0,143	-0,036
-311,168	448,289	0,086	0,136
-310,153	102,452	-0,091	-0,076
-309,139	81,071	0,115	-0,089
-308,124	-49,206	0,067	0,023
-307,110	-94,384	0,123	0,024
-306,095	-138,414	-0,037	-0,003
-305,080	-64,658	0,086	-0,025
-304,066	800,000	-0,021	-0,060
-303,051	431,345	-0,032	0,050
-302,037	-94,095	0,077	-0,015
-301,022	-151,623	-0,050	0,003
-300,008	-56,921	0,092	0,029
-298,993	362,924	-0,055	-0,080
-297,978	497,550	-0,037	-0,062
-296,964	125,565	-0,033	0,030
-295,949	37,940	-0,082	-0,052
-294,935	291,279	0,069	-0,091
-293,920	-200,000	-0,017	-0,176
-292,905	96,512	-0,140	-0,114
-291,891	800,000	0,046	0,106
-290,876	-58,130	0,159	0,049
-289,862	800,000	-0,033	-0,074
-288,847	726,882	0,050	-0,096
-287,832	-33,670	-0,078	0,031
-286,818	99,178	0,035	0,029
-285,803	4,873	0,082	0,043
-284,789	146,079	-0,029	0,028
-283,774	210,403	0,087	0,098
-282,759	56,456	-0,126	-0,087
-281,745	-157,271	0,089	-0,004
-280,730	73,252	0,113	0,084
-279,716	-200,000	-0,008	-0,095
-278,701	-200,000	-0,022	-0,073
-277,686	-73,190	0,086	0,022
-276,672	9,615	-0,087	-0,047
-275,657	-123,721	0,032	-0,004
-274,643	800,000	-0,046	0,110
-273,628	60,441	-0,053	0,038
-272,613	-186,785	0,053	-0,001
-271,599	42,418	-0,048	0,031
-270,584	-200,000	0,011	-0,086
-269,570	481,871	0,038	-0,062
-268,555	-17,786	0,032	-0,014
-267,540	-38,921	-0,087	0,032
-266,526	117,313	0,032	-0,028
-265,511	113,937	-0,097	-0,084
-264,497	-56,312	0,059	-0,019
-263,482	142,382	0,071	0,067
-262,467	-19,140	0,069	0,030
-261,453	-35,852	-0,039	-0,015
-260,438	-200,000	0,019	-0,121
-259,424	-126,592	0,039	0,004
-258,409	-171,423	0,008	-0,000
-257,395	155,801	-0,054	0,053
-256,380	64,236	0,102	0,073
-255,365	65,227	0,097	0,070
-254,351	-90,462	-0,110	-0,023
-253,336	-75,086	0,093	-0,024
-252,322	-200,000	-0,006	0,067
-251,307	-200,000	0,022	-0,122
-250,292	-200,000	0,011	-0,069
-249,278	55,364	-0,155	0,107
-248,263	-29,327	-0,082	-0,033
-247,249	82,388	0,077	0,059
-246,234	-136,213	-0,027	0,002
-245,219	-200,000	-0,006	-0,155
-244,205	10,605	-0,061	-0,033
-243,190	-35,540	-0,155	0,060
-242,176	227,794	0,053	-0,061
-241,161	-200,000	0,036	0,181
-240,146	800,000	0,059	0,167
-239,132	-136,310	0,072	-0,006
-238,117	172,263	-0,107	-0,110
-237,103	800,000	-0,093	-0,206
-236,088	568,545	-0,047	0,081
-235,073	-200,000	0,006	0,042
-234,059	-200,000	0,019	0,071
-233,044	42,668	-0,004	-0,003
-232,030	-121,349	-0,172	0,020
-231,015	800,000	-0,035	-0,087
-230,000	305,510	-0,060	-0,080
-228,986	-135,021	0,075	-0,006
-227,971	-82,266	0,088	0,020
-226,957	-200,000	-0,022	-0,080
-225,942	-127,492	0,038	-0,004
-224,927	162,288	0,023	0,023
-223,913	-120,720	-0,073	0,009
-222,898	-200,000	0,002	-0,007
-221,884	65,761	-0,078	0,056
-220,869	-200,000	0,022	-0,096
-219,855	83,685	-0,070	0,054
-218,840	800,000	0,020	-0,055
-217,825	-9,183	-0,177	0,084
-216,811	-189,082	0,092	0,001
-215,796	70,498	-0,021	0,016
-214,782	123,847	0,034	0,030
-213,767	-64,261	0,105	0,030
-212,752	-57,474	-0,048	0,015
-211,738	104,809	-0,025	-0,021
-210,723	-200,000	-0,013	-0,065
-209,709	-200,000	0,020	-0,121
-208,694	357,330	-0,086	-0,123
-207,679	-200,000	-0,005	-0,215
-206,665	450,271	0,055	0,087
-205,650	269,411	0,033	-0,041
-204,636	-0,997	0,049	0,024
-203,621	800,000	0,027	0,083
-202,606	73,429	0,081	0,060
-201,592	18,668	-0,102	0,058
-200,577	-131,733	-0,093	0,009
-199,563	800,000	-0,019	-0,041
-198,548	185,815	0,089	0,094
-197,533	-90,859	-0,081	-0,016
-196,519	800,000	-0,023	0,050
-195,504	353,083	-0,005	0,007
-194,490	56,038	0,105	-0,072
-193,475	258,327	0,103	-0,127
-192,460	160,781	0,023	-0,023
-191,446	31,001	-0,045	-0,028
-190,431	16,269	0,118	0,066
-189,417	-200,000	-0,018	0,086
-188,402	-29,832	0,067	0,027
-187,387	165,765	-0,069	0,069
-186,373	-17,829	-0,026	-0,012
-185,358	230,973	0,029	-0,034
-184,344	302,512	-0,086	0,114
-183,329	-80,736	0,010	-0,002
-182,315	92,902	0,068	-0,054
-181,300	800,000	-0,020	-0,056
-180,285	636,054	0,011	-0,020
-179,271	345,265	-0,065	-0,091
-178,256	-200,000	0,000	0,071
-177,242	-200,000	-0,002	0,026
-176,227	800,000	-0,014	0,037
-175,212	67,097	0,127	0,092
-174,198	0,174	-0,085	-0,043
-173,183	-200,000	-0,005	-0,058
-172,169	-0,596	-0,074	0,037
-171,154	419,419	-0,013	-0,019
-170,139	-200,000	0,014	-0,079
-169,125	800,000	-0,027	0,064
-168,110	-200,000	-0,007	0,114
-167,096	39,434	-0,109	0,069
-166,081	135,546	-0,033	0,031
-165,066	-12,659	-0,179	-0,083
-164,052	800,000	-0,052	-0,109
-163,037	325,858	0,048	0,065
-162,023	-200,000	0,039	0,128
-161,008	-154,726	0,074	-0,003
-159,993	-200,000	0,007	-0,116
-158,979	-101,129	-0,029	0,005
-157,964	23,882	-0,191	-0,112
-156,950	124,094	0,062	-0,055
-155,935	-200,000	0,019	0,181
-154,920	-200,000	0,019	-0,059
-153,906	-14,159	0,070	-0,032
-152,891	-32,436	0,086	0,034
-151,877	11,999	-0,063	0,034
-150,862	196,341	-0,037	-0,040
-149,847	125,762	0,095	0,085
-148,833	800,000	0,009	0,020
-147,818	-200,000	0,003	0,150
-146,804	657,135	-0,006	-0,011
-145,789	800,000	0,040	0,105
-144,775	-200,000	0,039	0,148
-143,760	800,000	0,048	0,128
-142,745	-200,000	0,005	-0,078
-141,731	-93,309	0,127	0,025
-140,716	800,000	0,017	0,044
-139,702	-112,133	0,072	-0,010
-138,687	-94,278	-0,089	0,017
-137,672	-200,000	-0,001	0,189
-136,658	-140,401	0,038	-0,003
-135,643	452,119	-0,044	-0,070
-134,629	-200,000	0,004	0,038
-133,614	-200,000	-0,000	0,075
-132,599	-80,915	0,100	-0,023
-131,585	-43,758	0,093	-0,033
-130,570	95,916	0,046	0,037
-129,556	-174,992	0,105	-0,002
-128,541	-10,148	0,038	-0,018
-127,526	800,000	-0,036	-0,071
-126,512	800,000	0,031	0,074
-125,497	494,523	0,045	-0,074
-124,483	433,122	-0,061	-0,095
-123,468	99,983	0,068	-0,056
-122,453	-200,000	0,006	-0,084
-121,439	35,232	-0,148	0,092
-120,424	-9,221	0,038	0,018
-119,410	-91,485	0,047	-0,009
-118,395	-200,000	0,032	-0,172
-117,380	-151,611	0,170	0,009
-116,366	342,537	-0,119	-0,165
-115,351	-17,678	-0,069	-0,030
-114,337	-48,025	-0,025	0,008
-113,322	117,797	0,143	-0,125
-112,307	-68,619	-0,042	0,011
-111,293	715,350	0,030	-0,056
-110,278	-200,000	-0,008	0,104
-109,264	-200,000	-0,012	0,121
-108,249	184,713	0,022	0,023
-107,234	249,715	-0,112	-0,135
-106,220	-90,729	-0,101	0,021
-105,205	701,879	0,023	0,043
-104,191	-103,368	0,146	0,024
-103,176	-118,326	0,155	-0,019
-102,162	357,861	0,095	0,134
-101,147	732,153	0,028	-0,053
-100,132	-137,461	0,045	0,004
-99,118	-129,981	-0,061	-0,006
-98,103	800,000	-0,085	-0,211
-97,089	-110,199	0,136	-0,020
-96,074	672,836	0,076	0,140
-95,059	465,890	0,076	0,121
-94,045	192,133	0,038	0,040
-93,030	-200,000	0,024	-0,082
-92,016	800,000	-0,049	0,098
-91,001	366,384	0,057	0,081
-89,986	800,000	0,020	0,044
-88,972	67,891	0,078	0,056
-87,957	408,093	-0,093	0,140
-86,943	-105,178	-0,038	0,006
-85,928	-200,000	0,007	-0,074
-84,913	578,871	-0,100	0,175
-83,899	1,980	-0,071	0,036
-82,884	-24,449	-0,089	0,037
-81,870	29,748	0,113	0,068
-80,855	-122,615	0,100	-0,011
-79,840	-64,690	-0,074	-0,021
-78,826	-130,361	0,170	-0,016
-77,811	70,423	-0,122	-0,089
-76,797	165,694	0,031	-0,031
-75,782	-125,956	0,079	-0,008
-74,767	-78,445	-0,059	0,014
-73,753	-156,466	0,133	0,006
-72,738	212,250	0,048	-0,054
-71,724	327,497	-0,049	-0,067
-70,709	-122,784	0,123	-0,014
-69,694	-200,000	0,017	0,114
-68,680	-42,707	0,087	-0,031
-67,665	-200,000	0,021	0,082
-66,651	-200,000	-0,006	0,037
-65,636	800,000	0,039	-0,117
-64,622	277,169	-0,016	0,020
-63,607	-200,000	0,050	-0,177
-62,592	-200,000	0,015	-0,075
-61,578	184,390	-0,056	0,058
-60,563	17,203	0,116	0,065
-59,549	-5,228	-0,123	0,060
-58,534	-44,488	-1,536	-0,541
-57,519	475,235	-1,277	-2,049
-56,505	-200,000	-0,644	-4,575
-55,490	206,666	0,996	1,100
-54,476	800,000	4,937	11,501
-53,461	-200,000	18,924	308,866
-52,446	-200,000	738,116	2309,082
-51,432	571,991	1654,379	2864,585
-50,417	79,048	1670,971	1265,750
-49,403	22,012	1543,678	889,140
-48,388	15,872	1466,468	814,826
-47,373	17,789	1456,444	818,489
-46,359	16,826	1446,714	808,370
-45,344	14,150	1442,045	792,910
-44,330	14,068	1440,040	791,385
-43,315	14,076	1438,394	790,486
-42,300	14,062	1436,788	789,507
-41,286	14,076	1435,557	788,864
-40,271	14,054	1434,175	787,970
-39,257	14,026	1433,060	787,194
-38,242	14,135	1431,661	786,909
-37,227	14,090	1430,553	786,056
-36,213	14,126	1429,172	785,440
-35,198	14,082	1427,963	784,534
-34,184	14,139	1427,384	784,455
-33,169	14,049	1425,765	783,105
-32,154	14,108	1424,650	782,742
-31,140	14,127	1423,326	782,073
-30,125	14,103	1422,402	781,424
-29,111	14,098	1421,230	780,722
-28,096	14,113	1419,935	780,053
-27,082	14,028	1418,929	779,067
-26,067	14,001	1417,892	778,342
-25,052	14,012	1416,821	777,775
-24,038	13,968	1415,992	777,079
-23,023	13,975	1414,823	776,442
-22,009	14,054	1413,890	776,269
-20,994	13,990	1413,034	775,467
-19,979	14,026	1411,962	775,018
-18,965	13,981	1411,040	774,269
-17,950	13,980	1410,271	773,813
-16,936	13,971	1409,393	773,257
-15,921	13,958	1408,148	772,483
-14,906	13,910	1407,520	771,884
-13,892	13,947	1406,251	771,331
-12,877	13,956	1405,390	770,868
-11,863	13,945	1404,565	770,336
-10,848	13,915	1403,908	769,804
-9,833	13,915	1402,613	769,064
-8,819	13,876	1401,956	768,491
-7,804	13,830	1401,095	767,773
-6,790	13,814	1399,851	766,988
-5,775	13,795	1398,948	766,375
-4,760	13,822	1398,074	765,990
-3,746	13,781	1397,433	765,418
-2,731	13,832	1396,387	765,050
-1,717	13,808	1395,513	764,431
-0,702	13,842	1393,413	763,408
0,313	17,630	1311,283	735,986
1,327	34,054	705,628	434,081
2,342	51,995	124,029	83,449
3,356	3,475	16,635	8,550
4,371	5,072	3,170	1,646
5,386	-7,465	0,486	0,232
6,400	-200,000	0,055	0,216
7,415	-0,275	-0,299	-0,150
8,429	28,104	-0,236	-0,141
9,444	145,166	-0,262	-0,248
10,459	636,101	-0,158	-0,284
11,473	258,158	-0,278	-0,339
12,488	90,731	-0,240	-0,190
13,502	-94,228	-0,430	-0,082
14,517	-92,718	-0,424	-0,083
15,531	17,845	-0,381	-0,214
16,546	40,383	-0,330	-0,209
17,561	147,630	-0,316	-0,301
18,575	-28,756	-0,184	-0,074
19,590	200,162	-0,277	-0,301
20,604	-54,866	-0,355	-0,113
21,619	75,245	-0,425	-0,316
22,634	126,739	-0,355	-0,317
23,648	2,765	-0,445	-0,227
24,663	-15,720	-0,396	-0,178
25,677	116,967	-0,290	-0,252
26,692	-100,469	-0,364	-0,063
27,707	69,718	-0,315	-0,229
28,721	-9,526	-0,311	-0,146
29,736	153,887	-0,416	-0,403
30,750	136,320	-0,469	-0,432
31,765	273,974	-0,255	-0,319
32,780	190,625	-0,435	-0,461
33,794	120,028	-0,309	-0,271
34,809	60,418	-0,256	-0,178
35,823	83,986	-0,330	-0,254
36,838	51,109	-0,394	-0,263
37,853	31,469	-0,452	-0,274
38,867	182,944	-0,346	-0,360
39,882	6,860	-0,354	-0,185
40,896	-35,097	-0,495	-0,189
41,911	58,781	-0,344	-0,238
42,926	31,545	-0,410	-0,248
43,940	117,325	-0,331	-0,287
44,955	98,590	-0,360	-0,293
45,969	-36,671	-0,406	-0,153
46,984	80,796	-0,346	-0,263
47,999	141,647	-0,194	-0,181
49,013	79,122	-0,318	-0,240
50,028	81,633	-0,377	-0,287
51,042	-12,336	-0,352	-0,162
52,057	30,749	-0,462	-0,278
53,071	276,805	-0,198	-0,248
54,086	123,780	-0,303	-0,268
55,101	91,234	-0,367	-0,290
56,115	38,753	-0,356	-0,223
57,130	41,936	-0,392	-0,250
58,144	76,315	-0,370	-0,276
59,159	211,137	-0,292	-0,324
60,174	112,734	-0,457	-0,389
61,188	203,169	-0,304	-0,331
62,203	264,312	-0,265	-0,325
63,217	32,552	-0,268	-0,163
64,232	-74,643	-0,321	-0,081
65,247	40,811	-0,330	-0,209
66,261	156,727	-0,394	-0,383
67,276	60,996	-0,269	-0,187
68,290	75,127	-0,346	-0,256
69,305	128,514	-0,285	-0,256
70,320	69,300	-0,288	-0,208
71,334	-50,140	-0,324	-0,107
72,349	-32,918	-0,344	-0,134
73,363	-24,608	-0,429	-0,179
74,378	124,399	-0,285	-0,252
75,393	64,522	-0,354	-0,251
76,407	51,175	-0,296	-0,197
77,422	-23,773	-0,362	-0,152
78,436	-63,194	-0,208	-0,060
79,451	77,321	-0,356	-0,266
80,466	132,196	-0,308	-0,279
81,480	5,260	-0,300	-0,155
82,495	198,829	-0,249	-0,268
83,509	164,572	-0,227	-0,225
84,524	40,868	-0,293	-0,185
85,539	-11,838	-0,270	-0,124
86,553	-56,393	-0,417	-0,129
87,568	651,642	-0,165	-0,298
88,582	-52,638	-0,313	-0,101
89,597	130,373	-0,308	-0,277
90,611	-158,539	-0,165	-0,007
91,626	28,479	-0,273	-0,162
92,641	112,148	-0,216	-0,183
93,655	34,115	-0,372	-0,227
94,670	53,643	-0,236	-0,159
95,684	158,191	-0,298	-0,290
96,699	22,886	-0,399	-0,229
97,714	-42,826	-0,221	-0,078
98,728	37,170	-0,268	-0,166
99,743	91,040	-0,213	-0,168
100,757	235,273	-0,145	-0,169
101,772	-5,801	-0,361	-0,173
102,787	-27,920	-0,397	-0,161
103,801	-5,490	-0,331	-0,159
104,816	-2,703	-0,231	-0,113
105,830	65,917	-0,204	-0,145
106,845	-89,082	-0,290	-0,060
107,860	-12,514	-0,393	-0,179
108,874	106,980	-0,204	-0,169
109,889	94,126	-0,354	-0,282
110,903	178,585	-0,363	-0,372
111,918	182,648	-0,197	-0,204
112,933	-77,923	-0,334	-0,080
113,947	105,196	-0,195	-0,162
114,962	474,968	-0,058	-0,093
115,976	57,163	-0,223	-0,152
116,991	-73,448	-0,388	-0,099
118,006	47,654	-0,333	-0,217
119,020	-21,111	-0,208	-0,089
120,035	51,050	-0,330	-0,219
121,049	7,485	-0,371	-0,193
122,064	412,095	-0,123	-0,183
123,079	-40,472	-0,333	-0,120
124,093	124,469	-0,172	-0,152
125,108	441,263	-0,174	-0,267
126,122	234,288	-0,155	-0,179
127,137	431,148	-0,154	-0,234
128,151	-145,266	-0,184	-0,011
129,166	-65,834	-0,138	-0,038
130,181	-6,877	-0,149	-0,071
131,195	-10,990	-0,156	-0,072
132,210	138,870	-0,224	-0,206
133,224	212,709	-0,272	-0,300
134,239	299,210	-0,259	-0,334
135,254	387,164	-0,129	-0,187
136,268	746,711	-0,149	-0,282
137,283	39,011	-0,362	-0,226
138,297	163,414	-0,216	-0,212
139,312	523,444	-0,156	-0,257
140,327	56,959	-0,280	-0,190
141,341	-51,012	-0,265	-0,086
142,356	-49,787	-0,160	-0,053
143,370	-60,871	-0,318	-0,093
144,385	112,032	-0,118	-0,100
145,400	98,330	-0,230	-0,185
146,414	71,751	-0,224	-0,162
147,429	-52,507	-0,435	-0,140
148,443	-2,888	-0,251	-0,122
149,458	82,814	-0,191	-0,145
150,473	-125,566	-0,249	-0,026
151,487	312,873	-0,252	-0,331
152,502	334,505	-0,226	-0,306
153,516	-34,474	-0,193	-0,074
154,531	345,163	-0,175	-0,240
155,546	-35,186	-0,357	-0,135
156,560	76,382	-0,177	-0,131
157,575	57,173	-0,203	-0,138
158,589	-13,226	-0,245	-0,111
159,604	119,955	-0,151	-0,131
160,619	296,091	-0,293	-0,375
161,633	44,403	-0,270	-0,173
162,648	168,140	-0,320	-0,318
163,662	132,047	-0,226	-0,203
164,677	152,057	-0,201	-0,192
165,692	67,354	-0,337	-0,239
166,706	83,901	-0,226	-0,172
167,721	-10,427	-0,202	-0,093
168,735	52,951	-0,352	-0,234
169,750	193,509	-0,130	-0,138
170,764	311,219	-0,073	-0,096
171,779	178,275	-0,206	-0,210
172,794	16,288	-0,262	-0,144
173,808	87,889	-0,248	-0,191
174,823	12,226	-0,381	-0,204
175,837	57,006	-0,261	-0,177
176,852	101,281	-0,157	-0,128
177,867	800,000	-0,042	-0,119
178,881	164,956	-0,174	-0,171
179,896	22,817	-0,220	-0,125
180,910	472,256	-0,200	-0,315
181,925	39,297	-0,242	-0,151
182,940	800,000	-0,111	-0,269
183,954	-45,788	-0,173	-0,059
184,969	115,824	-0,235	-0,200
185,983	43,234	-0,237	-0,150
186,998	53,743	-0,161	-0,107
188,013	-53,486	-0,138	-0,044
189,027	3,580	-0,254	-0,129
190,042	423,901	-0,231	-0,347
191,056	17,534	-0,219	-0,121
192,071	800,000	-0,056	-0,142
193,086	252,848	-0,201	-0,239
194,100	-161,781	-0,197	0,007
195,115	61,876	-0,278	-0,192
196,129	28,694	-0,264	-0,155
197,144	34,845	-0,169	-0,103
198,159	175,613	-0,206	-0,208
199,173	62,214	-0,173	-0,120
200,188	57,425	-0,265	-0,180
201,202	352,547	-0,101	-0,139
202,217	-19,374	-0,119	-0,051
203,232	-53,159	-0,260	-0,082
204,246	-28,112	-0,284	-0,113
205,261	161,505	-0,130	-0,127
206,275	137,321	-0,154	-0,140
207,290	28,616	-0,209	-0,123
208,304	243,880	-0,273	-0,318
209,319	153,520	-0,226	-0,215
210,334	130,499	-0,257	-0,229
211,348	205,357	-0,242	-0,261
212,363	299,736	-0,228	-0,293
213,377	39,664	-0,148	-0,092
214,392	161,211	-0,188	-0,182
215,407	30,038	-0,255	-0,151
216,421	-122,560	-0,188	0,021
217,436	250,229	-0,092	-0,108
218,450	102,061	-0,118	-0,095
219,465	125,849	-0,120	-0,105
220,480	-90,508	-0,206	-0,041
221,494	79,142	-0,255	-0,190
222,509	94,557	-0,148	-0,117
223,523	-26,683	-0,184	-0,074
224,538	-78,831	-0,316	-0,074
225,553	734,397	-0,156	-0,291
226,567	47,992	-0,297	-0,192
227,582	-64,254	-0,278	-0,078
228,596	88,711	-0,209	-0,161
229,611	-200,000	-0,046	-0,187
230,626	-10,002	-0,224	-0,103
231,640	-25,598	-0,269	-0,110
232,655	3,651	-0,177	-0,089
233,669	-200,000	-0,018	-0,215
234,684	800,000	-0,054	-0,127
235,699	39,155	-0,280	-0,173
236,713	109,835	-0,161	-0,134
237,728	494,966	-0,140	-0,224
238,742	454,044	-0,202	-0,310
239,757	-28,332	-0,246	-0,098
240,772	56,610	-0,201	-0,136
241,786	310,374	-0,145	-0,188
242,801	260,032	-0,144	-0,172
243,815	-28,630	-0,243	-0,096
244,830	-24,673	-0,091	-0,037
245,844	164,004	-0,174	-0,170
246,859	-23,092	-0,160	-0,066
247,874	456,742	-0,118	-0,183
248,888	523,588	-0,201	-0,328
249,903	-110,437	-0,147	0,021
250,917	-95,453	-0,167	-0,031
251,932	-31,458	-0,186	-0,072
252,947	0,660	-0,249	-0,123
253,961	205,743	-0,034	-0,037
254,976	103,243	-0,250	-0,203
255,990	7,138	-0,151	-0,078
257,005	258,456	-0,205	-0,245
258,020	10,332	-0,137	-0,072
259,034	-148,028	-0,133	-0,008
260,049	63,458	-0,215	-0,149
261,063	50,677	-0,242	-0,158
262,078	11,164	-0,237	-0,125
263,093	18,874	-0,175	-0,097
264,107	206,500	-0,156	-0,168
265,122	2,305	-0,308	-0,153
266,136	376,401	-0,136	-0,193
267,151	528,831	-0,059	-0,096
268,166	-59,532	-0,172	-0,051
269,180	164,197	-0,092	-0,090
270,195	-54,120	-0,226	-0,071
271,209	12,038	-0,135	0,072
272,224	-57,167	-0,157	0,048
273,239	115,738	-0,140	-0,118
274,253	-6,696	-0,221	0,103
275,268	237,377	-0,180	-0,207
276,282	-41,839	-0,184	-0,065
277,297	-200,000	-0,002	-0,108
278,312	800,000	-0,073	-0,181
279,326	-91,950	-0,132	-0,026
280,341	191,711	-0,116	-0,120
281,355	-40,032	-0,143	-0,051
282,370	97,476	-0,126	-0,100
283,384	169,347	-0,071	-0,070
284,399	1,154	-0,216	-0,107
285,414	312,005	-0,168	-0,218
286,428	-68,133	-0,227	-0,061
287,443	-24,681	-0,152	-0,062
288,457	-61,461	-0,166	-0,048
289,472	-110,734	-0,173	0,024
290,487	800,000	-0,100	-0,274
291,501	-163,944	-0,105	-0,003
292,516	64,057	-0,177	-0,123
293,530	-64,502	-0,221	0,061
294,545	-3,760	-0,109	-0,052
295,560	-122,042	-0,214	-0,024
296,574	48,465	-0,123	-0,079
297,589	-200,000	-0,163	0,000
298,603	142,402	-0,132	-0,121
299,618	12,926	-0,184	-0,098
300,633	83,837	-0,208	-0,157
301,647	-5,345	-0,139	-0,066
302,662	-31,230	-0,098	-0,038
303,676	-0,560	-0,131	-0,064
304,691	421,029	-0,157	-0,232
305,706	800,000	-0,042	-0,120
306,720	-76,812	-0,087	-0,021
307,735	-18,059	-0,174	-0,075
308,749	-34,261	-0,162	-0,061
309,764	171,023	-0,056	-0,055
310,779	-200,000	-0,026	-0,129
311,793	345,687	-0,078	-0,106
312,808	-29,640	-0,267	-0,105
313,822	-88,262	-0,117	-0,024
314,837	-200,000	-0,070	-0,228
315,852	-134,995	-0,105	-0,009
316,866	-200,000	0,008	-0,058
317,881	-22,912	-0,245	-0,101
318,895	116,864	-0,071	-0,060
319,910	-112,270	-0,220	-0,030
320,925	323,497	-0,153	-0,201
321,939	103,832	-0,115	-0,093
322,954	532,086	0,086	-0,141
323,968	177,179	-0,093	-0,093
324,983	-200,000	0,012	-0,153
325,997	233,132	-0,151	-0,171
327,012	800,000	-0,034	-0,090
328,027	138,715	-0,178	-0,160
329,041	338,342	-0,070	-0,094
330,056	129,998	-0,147	-0,130
331,070	-130,913	-0,162	-0,015
332,085	-33,381	-0,168	-0,063
333,100	146,745	-0,143	-0,132
334,114	-53,671	-0,124	-0,039
335,129	214,340	-0,095	-0,103
336,143	-200,000	-0,010	-0,047
337,158	-200,000	-0,049	-0,326
338,173	38,649	-0,139	-0,085
339,187	-76,300	-0,072	0,017
340,202	-7,215	-0,026	-0,012
341,216	-54,270	-0,172	-0,053
342,231	52,320	-0,174	-0,114
343,246	149,009	-0,178	-0,165
344,260	-36,057	-0,147	0,054
345,275	143,169	-0,135	-0,123
346,289	116,029	-0,151	-0,127
347,304	134,553	-0,157	-0,140
348,319	5,299	-0,221	-0,111
349,333	146,222	-0,141	-0,130
350,348	800,000	-0,076	-0,163
351,362	800,000	-0,036	-0,082
352,377	263,611	-0,061	-0,073
353,392	17,075	-0,050	-0,027
354,406	313,345	-0,030	-0,038
355,421	209,889	1314,149	1415,804
356,435	161,558	1474,794	1416,290
