DTS Sentinel unit serial number:	SN410029Multiplexer serial number:	ORYXHardware model number:	OX2-SRSoftware version number:	ORYX F/W v4,00 Oryx Data Collector v3.7.2.0data status	okinstallation	B3 Nyhavnadifferential loss correction	single-endedforward channel	channel 1reverse channel	N/Adate	2023/12/04time	19:47:30forward acquisition time	300,00reverse acquisition time	0,00gamma	499,1914k internal	0,3200k external	0,3200temperature offset calibration	1,0000default loss term (dB/km)	0,3820temperature slope calibration	1,0000multiplexer offset coefficient	1,0000multiplexer slope coefficient	1,0000fibre end	0,00T internal ref (°C)	14,55T ext. ref 1 (°C)	-0,65T ext. ref 2 (°C)	-0,68length (m)	temperature (°C)	Stokes	anti-Stokes-744,400	105,282	-0,306	-0,263
-743,385	-200,000	-0,061	0,235
-742,371	759,348	-0,101	-0,200
-741,356	-200,000	-0,002	0,247
-740,342	53,310	-0,158	-0,110
-739,327	800,000	-0,109	0,316
-738,312	800,000	-0,127	-0,266
-737,298	-200,000	-0,000	0,286
-736,283	142,893	-0,296	-0,286
-735,269	-200,000	-0,043	0,266
-734,254	60,889	-0,262	-0,189
-733,239	17,692	-0,207	0,119
-732,225	-200,000	-0,067	-0,258
-731,210	-200,000	0,037	0,156
-730,196	-47,788	0,072	-0,025
-729,181	-53,927	0,077	-0,025
-728,167	-51,237	-0,081	0,028
-727,152	-200,000	0,001	-0,086
-726,137	271,179	-0,109	-0,139
-725,123	376,908	-0,103	-0,154
-724,108	-129,777	-0,113	-0,011
-723,094	-200,000	0,032	-0,132
-722,079	1,601	-0,129	-0,067
-721,064	156,910	-0,022	-0,022
-720,050	-78,769	-0,054	-0,013
-719,035	-200,000	-0,024	0,082
-718,021	-78,412	0,090	0,022
-717,006	12,220	-0,136	-0,076
-715,991	624,108	-0,062	-0,114
-714,977	74,379	-0,046	0,035
-713,962	772,186	-0,034	-0,067
-712,948	432,804	-0,050	-0,080
-711,933	40,013	0,147	0,096
-710,918	-140,449	-0,160	-0,012
-709,904	80,426	-0,041	-0,032
-708,889	-200,000	-0,012	-0,233
-707,875	-200,000	0,015	-0,114
-706,860	586,086	-0,044	-0,079
-705,845	800,000	-0,038	0,121
-704,831	-200,000	-0,007	0,163
-703,816	-119,302	-0,058	-0,007
-702,802	-200,000	0,004	0,021
-701,787	-28,946	-0,126	-0,052
-700,772	44,683	-0,020	0,013
-699,758	-70,351	-0,045	0,012
-698,743	-49,080	-0,055	0,019
-697,729	179,137	-0,016	0,017
-696,714	-82,449	0,064	-0,015
-695,699	-115,362	0,149	-0,020
-694,685	-200,000	-0,011	-0,202
-693,670	-33,506	-0,098	-0,039
-692,656	800,000	-0,023	-0,072
-691,641	22,996	0,085	0,051
-690,627	-200,000	0,022	-0,087
-689,612	-200,000	0,002	-0,129
-688,597	-54,519	-0,015	-0,005
-687,583	-85,793	0,098	-0,022
-686,568	-93,171	-0,108	-0,022
-685,554	423,506	-0,042	-0,065
-684,539	618,835	-0,023	0,043
-683,524	130,622	-0,138	-0,128
-682,510	800,000	-0,030	-0,091
-681,495	36,565	-0,075	-0,048
-680,481	-19,151	-0,027	0,012
-679,466	35,701	0,069	-0,044
-678,451	-27,023	-0,137	-0,058
-677,437	30,657	0,026	0,016
-676,422	199,917	-0,067	-0,074
-675,408	-194,257	0,166	0,001
-674,393	334,260	-0,049	0,070
-673,378	10,937	-0,055	-0,030
-672,364	-95,881	0,056	-0,011
-671,349	556,103	-0,053	0,094
-670,335	711,948	0,021	0,040
-669,320	149,459	0,131	0,129
-668,305	120,103	-0,073	0,065
-667,291	800,000	-0,048	-0,140
-666,276	107,131	-0,123	-0,106
-665,262	-200,000	0,017	-0,120
-664,247	-11,498	-0,087	0,041
-663,232	-200,000	0,005	0,110
-662,218	-91,348	0,111	0,023
-661,203	71,388	0,081	-0,061
-660,189	-135,159	-0,058	0,005
-659,174	800,000	0,060	-0,124
-658,159	-72,964	-0,065	-0,017
-657,145	22,534	-0,062	-0,037
-656,130	-200,000	-0,047	-0,164
-655,116	-138,627	-0,095	0,007
-654,101	800,000	0,014	-0,033
-653,086	-200,000	0,004	0,019
-652,072	-133,119	0,039	0,003
-651,057	-200,000	-0,027	-0,114
-650,043	123,018	0,043	-0,039
-649,028	50,584	0,087	-0,060
-648,014	139,377	0,044	-0,042
-646,999	-157,062	-0,114	0,005
-645,984	11,851	0,066	0,037
-644,970	800,000	0,053	0,155
-643,955	800,000	-0,048	-0,105
-642,941	-200,000	0,027	-0,090
-641,926	-148,487	0,146	-0,008
-640,911	-200,000	0,020	0,090
-639,897	-63,660	0,069	0,020
-638,882	-109,106	0,172	0,026
-637,868	275,937	-0,098	-0,126
-636,853	62,760	-0,124	-0,090
-635,838	-88,948	-0,142	-0,030
-634,824	800,000	-0,002	0,007
-633,809	-200,000	-0,021	-0,069
-632,795	-200,000	0,003	0,063
-631,780	434,410	0,063	0,099
-630,765	-10,061	-0,170	-0,081
-629,751	800,000	0,053	-0,124
-628,736	-10,037	-0,112	-0,054
-627,722	240,387	0,032	-0,039
-626,707	800,000	0,005	0,017
-625,692	-96,545	-0,046	0,009
-624,678	-112,556	-0,060	0,009
-623,663	-200,000	-0,023	0,079
-622,649	-106,887	-0,129	-0,020
-621,634	-83,080	-0,022	0,005
-620,619	-50,255	-0,056	-0,019
-619,605	-200,000	0,023	-0,132
-618,590	-200,000	0,014	-0,083
-617,576	-200,000	-0,002	0,064
-616,561	-200,000	0,004	0,088
-615,546	-200,000	-0,010	-0,141
-614,532	-14,583	-0,098	0,045
-613,517	-158,691	0,105	-0,004
-612,503	28,040	-0,066	0,040
-611,488	-200,000	-0,005	0,018
-610,474	672,533	0,025	0,048
-609,459	-200,000	-0,015	0,068
-608,444	248,254	-0,042	0,051
-607,430	127,751	0,030	0,027
-606,415	458,835	0,028	0,045
-605,401	-80,836	-0,123	0,029
-604,386	86,122	0,014	-0,011
-603,371	-44,224	-0,027	-0,010
-602,357	585,839	0,113	-0,202
-601,342	536,606	-0,065	-0,112
-600,328	396,153	0,044	-0,066
-599,313	-44,693	0,130	-0,047
-598,298	238,011	-0,093	0,112
-597,284	-200,000	0,039	0,213
-596,269	800,000	-0,016	0,031
-595,255	800,000	0,025	0,055
-594,240	800,000	0,006	-0,014
-593,225	410,606	0,096	-0,147
-592,211	436,228	0,054	0,085
-591,196	-200,000	-0,007	0,025
-590,182	-200,000	-0,014	-0,102
-589,167	18,160	0,029	-0,017
-588,152	4,403	-0,059	0,031
-587,138	31,536	-0,037	-0,023
-586,123	-200,000	-0,060	-0,233
-585,109	-200,000	-0,065	-0,331
-584,094	14,770	0,036	-0,021
-583,079	185,743	0,070	-0,076
-582,065	96,433	0,141	0,116
-581,050	-200,000	-0,017	0,104
-580,036	215,412	0,032	-0,037
-579,021	800,000	-0,014	0,039
-578,006	800,000	-0,027	0,079
-576,992	-64,779	-0,034	-0,010
-575,977	372,632	0,059	0,088
-574,963	-200,000	-0,031	0,105
-573,948	-200,000	-0,037	-0,131
-572,934	-57,881	0,180	0,057
-571,919	-200,000	-0,003	0,017
-570,904	800,000	-0,035	-0,077
-569,890	-200,000	-0,002	-0,183
-568,875	42,806	-0,164	-0,108
-567,861	-200,000	-0,004	0,026
-566,846	-168,165	0,104	0,003
-565,831	800,000	0,048	0,138
-564,817	52,968	0,032	-0,022
-563,802	113,675	-0,116	-0,102
-562,788	-95,641	-0,045	-0,009
-561,773	-200,000	0,027	0,128
-560,758	-34,878	0,193	0,076
-559,744	83,890	0,119	0,094
-558,729	286,392	0,092	0,120
-557,715	69,125	-0,098	-0,073
-556,700	485,792	-0,109	-0,180
-555,685	-200,000	0,031	-0,104
-554,671	-200,000	0,034	0,137
-553,656	-200,000	0,015	0,063
-552,642	-62,335	0,074	-0,022
-551,627	-200,000	0,002	-0,068
-550,612	-200,000	0,007	-0,081
-549,598	800,000	-0,069	-0,147
-548,583	-13,324	-0,109	-0,051
-547,569	-17,019	-0,208	-0,094
-546,554	-62,996	0,029	0,008
-545,539	42,272	0,202	0,132
-544,525	159,894	-0,035	-0,035
-543,510	20,301	-0,067	0,039
-542,496	-8,793	0,104	-0,050
-541,481	-150,371	0,064	-0,003
-540,466	-200,000	0,017	0,161
-539,452	229,007	0,025	-0,030
-538,437	800,000	-0,049	0,123
-537,423	272,013	-0,092	-0,118
-536,408	-101,333	0,039	0,007
-535,393	199,270	-0,027	0,030
-534,379	-200,000	0,004	0,045
-533,364	-200,000	0,004	-0,045
-532,350	-92,847	-0,098	-0,020
-531,335	104,593	-0,034	0,029
-530,321	-87,360	0,060	-0,013
-529,306	-102,529	-0,092	0,016
-528,291	239,961	-0,021	-0,025
-527,277	-200,000	-0,022	-0,076
-526,262	223,234	0,051	-0,060
-525,248	168,619	-0,047	-0,049
-524,233	228,962	0,043	0,051
-523,218	366,659	0,014	-0,021
-522,204	-200,000	0,028	0,103
-521,189	-200,000	-0,001	0,069
-520,175	-200,000	-0,005	-0,033
-519,160	-200,000	-0,019	0,078
-518,145	249,579	0,076	0,093
-517,131	63,099	0,146	0,105
-516,116	-168,166	-0,080	0,002
-515,102	-200,000	0,012	-0,088
-514,087	431,776	-0,058	-0,090
-513,072	-200,000	0,011	-0,130
-512,058	-200,000	-0,011	0,131
-511,043	-152,539	-0,146	0,007
-510,029	-54,073	0,116	-0,038
-509,014	800,000	0,012	0,025
-507,999	61,696	-0,131	-0,094
-506,985	-70,272	-0,063	0,017
-505,970	-200,000	0,014	0,078
-504,956	474,670	-0,050	-0,082
-503,941	-15,810	0,043	-0,020
-502,926	27,480	0,104	0,063
-501,912	-200,000	-0,012	0,152
-500,897	800,000	0,003	-0,006
-499,883	-12,841	-0,037	-0,017
-498,868	800,000	-0,041	0,128
-497,853	32,591	-0,055	-0,034
-496,839	41,748	0,008	0,005
-495,824	-10,526	-0,133	-0,063
-494,810	181,895	0,074	0,078
-493,795	-200,000	-0,010	-0,055
-492,781	183,100	-0,111	-0,118
-491,766	800,000	0,030	-0,082
-490,751	800,000	0,026	0,078
-489,737	237,693	-0,075	0,090
-488,722	-70,684	0,029	0,008
-487,708	126,379	0,060	0,055
-486,693	510,712	-0,041	-0,069
-485,678	-200,000	-0,004	-0,035
-484,664	100,374	-0,093	0,077
-483,649	800,000	0,046	-0,097
-482,635	192,485	-0,124	-0,135
-481,620	-105,555	0,119	-0,019
-480,605	-104,691	0,137	0,022
-479,591	51,812	0,037	-0,025
-478,576	-200,000	0,015	-0,053
-477,562	-200,000	-0,034	-0,194
-476,547	-124,901	-0,215	-0,024
-475,532	-22,954	-0,095	-0,041
-474,518	-200,000	0,020	0,104
-473,503	-14,592	0,112	0,052
-472,489	223,099	-0,081	0,094
-471,474	-172,705	-0,184	-0,004
-470,459	-74,147	-0,175	-0,045
-469,445	-60,447	0,056	-0,017
-468,430	800,000	-0,015	0,039
-467,416	-200,000	-0,023	0,079
-466,401	744,567	0,027	-0,052
-465,386	506,281	-0,042	0,071
-464,372	-200,000	0,003	-0,056
-463,357	-200,000	-0,003	0,095
-462,343	-200,000	-0,009	-0,081
-461,328	355,386	-0,068	-0,098
-460,313	800,000	-0,077	-0,161
-459,299	-200,000	-0,022	-0,071
-458,284	-200,000	-0,039	0,125
-457,270	482,502	-0,066	0,108
-456,255	-118,059	0,162	0,021
-455,241	-81,775	-0,091	-0,021
-454,226	52,493	-0,114	0,078
-453,211	-122,966	-0,106	0,012
-452,197	47,987	0,095	0,064
-451,182	800,000	-0,042	0,098
-450,168	-200,000	0,031	0,100
-449,153	800,000	0,023	0,073
-448,138	-14,459	-0,074	0,034
-447,124	114,080	-0,111	0,097
-446,109	-200,000	-0,004	0,049
-445,095	593,101	0,065	0,116
-444,080	-200,000	0,005	0,026
-443,065	-8,997	0,132	0,063
-442,051	95,238	0,078	-0,064
-441,036	800,000	-0,072	-0,196
-440,022	-200,000	0,000	-0,035
-439,007	800,000	0,042	-0,094
-437,992	-200,000	0,025	-0,087
-436,978	98,618	-0,099	-0,082
-435,963	-73,593	0,210	0,055
-434,949	800,000	0,032	-0,098
-433,934	5,209	-0,105	-0,056
-432,919	20,475	0,093	-0,054
-431,905	800,000	-0,032	-0,070
-430,890	-147,928	-0,067	0,004
-429,876	159,645	0,120	0,120
-428,861	800,000	0,010	-0,020
-427,846	77,746	-0,120	-0,092
-426,832	-13,432	-0,059	-0,028
-425,817	800,000	0,034	-0,100
-424,803	-200,000	0,007	-0,026
-423,788	73,768	0,158	0,119
-422,773	-200,000	-0,002	-0,026
-421,759	176,418	0,044	0,046
-420,744	201,702	0,034	0,037
-419,730	800,000	-0,010	0,020
-418,715	-200,000	-0,002	-0,068
-417,701	-93,210	0,157	-0,031
-416,686	-200,000	-0,022	-0,088
-415,671	645,477	-0,059	-0,108
-414,657	30,517	0,021	0,013
-413,642	706,032	0,064	-0,122
-412,628	-200,000	-0,054	-0,224
-411,613	-200,000	-0,004	-0,100
-410,598	33,349	-0,039	0,025
-409,584	129,179	-0,043	0,039
-408,569	-200,000	-0,005	0,133
-407,555	-97,262	0,107	0,020
-406,540	800,000	-0,014	-0,043
-405,525	454,758	-0,078	-0,124
-404,511	-74,381	0,049	-0,012
-403,496	-157,813	0,046	0,002
-402,482	-50,961	0,052	0,018
-401,467	687,792	-0,019	-0,036
-400,452	142,335	0,106	0,101
-399,438	800,000	-0,008	0,017
-398,423	134,395	-0,041	0,038
-397,409	335,119	-0,080	-0,111
-396,394	-40,666	0,107	-0,040
-395,379	800,000	-0,026	0,066
-394,365	53,720	-0,099	0,068
-393,350	27,333	0,075	0,045
-392,336	316,748	-0,025	0,034
-391,321	28,860	-0,065	0,039
-390,306	231,651	-0,030	-0,036
-389,292	422,180	-0,053	-0,082
-388,277	-8,773	0,054	0,026
-387,263	-31,542	-0,065	-0,026
-386,248	-130,057	0,092	0,009
-385,233	-200,000	0,011	-0,111
-384,219	-200,000	0,007	-0,080
-383,204	-200,000	-0,014	0,086
-382,190	-200,000	0,042	0,148
-381,175	243,401	-0,032	-0,039
-380,160	332,689	0,028	-0,039
-379,146	114,389	0,172	-0,151
-378,131	-200,000	-0,014	-0,051
-377,117	147,287	0,054	-0,053
-376,102	129,240	0,106	-0,097
-375,088	-134,193	-0,063	0,005
-374,073	118,670	0,069	-0,061
-373,058	800,000	0,020	0,063
-372,044	-106,870	0,225	0,035
-371,029	-5,120	0,141	-0,069
-370,015	29,234	-0,042	-0,026
-369,000	-200,000	-0,001	0,023
-367,985	-23,753	-0,094	-0,040
-366,971	-103,663	0,053	0,009
-365,956	-73,384	-0,088	0,023
-364,942	666,973	0,006	0,012
-363,927	-171,660	0,138	-0,003
-362,912	-200,000	-0,047	0,162
-361,898	-183,327	-0,136	0,002
-360,883	99,204	-0,046	0,038
-359,869	-98,317	-0,140	-0,026
-358,854	134,222	-0,147	-0,137
-357,839	-200,000	0,010	0,031
-356,825	-52,640	0,047	-0,015
-355,810	-122,353	-0,087	0,010
-354,796	529,184	-0,057	-0,096
-353,781	-37,815	-0,105	0,040
-352,766	800,000	-0,010	0,023
-351,752	-23,098	-0,084	0,036
-350,737	91,430	0,041	0,033
-349,723	109,744	0,106	-0,091
-348,708	310,020	0,051	0,069
-347,693	496,749	-0,022	-0,036
-346,679	146,996	-0,067	-0,065
-345,664	175,571	0,098	-0,102
-344,650	254,557	0,037	-0,045
-343,635	-92,936	0,100	0,020
-342,620	-200,000	-0,010	0,052
-341,606	-24,219	0,083	0,035
-340,591	-200,000	0,007	0,065
-339,577	-90,669	0,062	-0,013
-338,562	-200,000	0,003	-0,128
-337,548	-96,712	0,071	0,013
-336,533	-200,000	-0,007	0,146
-335,518	800,000	0,012	0,026
-334,504	169,814	-0,054	0,055
-333,489	-183,928	-0,022	0,000
-332,475	66,115	0,044	-0,032
-331,460	-200,000	0,030	-0,147
-330,445	-200,000	0,004	0,062
-329,431	800,000	-0,011	-0,021
-328,416	-200,000	-0,002	0,007
-327,402	800,000	0,088	0,190
-326,387	198,433	0,050	0,055
-325,372	-102,800	-0,043	0,007
-324,358	-200,000	-0,033	-0,118
-323,343	-200,000	-0,028	-0,166
-322,329	-200,000	0,020	-0,069
-321,314	157,968	0,074	0,073
-320,299	800,000	0,037	-0,109
-319,285	669,594	0,058	0,109
-318,270	-60,849	-0,147	0,044
-317,256	45,381	-0,152	0,100
-316,241	123,627	0,079	0,071
-315,226	627,287	-0,116	0,211
-314,212	-200,000	0,007	0,048
-313,197	800,000	-0,005	0,013
-312,183	58,224	0,059	0,041
-311,168	12,578	-0,045	0,025
-310,153	-23,028	0,009	0,004
-309,139	527,710	-0,046	-0,078
-308,124	-104,685	0,102	-0,017
-307,110	91,988	0,116	-0,093
-306,095	175,470	-0,135	0,140
-305,080	-150,093	-0,215	-0,012
-304,066	800,000	-0,016	0,036
-303,051	-14,802	-0,058	-0,027
-302,037	-28,228	0,042	0,017
-301,022	-200,000	0,013	-0,087
-300,008	287,842	0,074	0,096
-298,993	-200,000	0,021	-0,106
-297,978	800,000	0,028	-0,075
-296,964	-61,199	-0,118	0,035
-295,949	800,000	0,041	-0,114
-294,935	325,156	0,020	-0,028
-293,920	796,109	0,038	-0,076
-292,905	86,670	-0,046	-0,036
-291,891	81,196	0,034	-0,026
-290,876	-200,000	0,013	0,089
-289,862	-25,367	0,031	-0,013
-288,847	104,993	-0,121	-0,102
-287,832	377,010	-0,023	0,034
-286,818	123,590	-0,075	-0,067
-285,803	389,899	0,014	0,021
-284,789	52,709	0,050	0,034
-283,774	800,000	-0,028	-0,070
-282,759	-200,000	-0,017	0,112
-281,745	-52,109	-0,122	0,040
-280,730	81,004	0,105	0,081
-279,716	-8,669	0,038	0,018
-278,701	83,718	-0,056	0,044
-277,686	800,000	0,026	0,057
-276,672	-200,000	-0,037	0,127
-275,657	-83,920	0,027	0,006
-274,643	-200,000	0,008	-0,077
-273,628	224,468	-0,064	-0,074
-272,613	800,000	-0,016	0,043
-271,599	218,597	0,112	0,128
-270,584	-58,870	-0,046	0,014
-269,570	2,807	-0,068	-0,035
-268,555	-45,927	-0,132	0,046
-267,540	-200,000	-0,011	-0,089
-266,526	-144,086	0,055	0,004
-265,511	-200,000	-0,051	0,161
-264,497	-200,000	-0,008	0,058
-263,482	-200,000	0,047	0,152
-262,467	406,974	0,032	-0,049
-261,453	-165,851	-0,037	-0,001
-260,438	-200,000	-0,036	-0,182
-259,424	87,785	-0,127	-0,100
-258,409	-84,491	-0,102	-0,023
-257,395	-84,840	0,114	0,025
-256,380	56,307	0,081	0,056
-255,365	-200,000	0,010	0,052
-254,351	56,235	-0,060	0,042
-253,336	-16,063	0,136	-0,062
-252,322	99,173	0,123	-0,101
-251,307	695,248	-0,057	-0,107
-250,292	-94,014	0,075	-0,015
-249,278	-43,075	0,049	0,018
-248,263	-200,000	0,016	0,098
-247,249	8,166	-0,080	0,043
-246,234	197,953	-0,122	0,133
-245,219	-200,000	0,022	-0,151
-244,205	-97,901	0,048	0,009
-243,190	-89,829	-0,117	0,024
-242,176	-131,306	0,145	-0,014
-241,161	-147,981	-0,046	0,003
-240,146	-200,000	-0,020	0,139
-239,132	-31,883	0,046	-0,018
-238,117	800,000	-0,062	0,162
-237,103	-11,328	-0,089	0,042
-236,088	221,052	0,038	-0,043
-235,073	-200,000	0,035	0,173
-234,059	517,042	0,086	0,145
-233,044	150,883	-0,088	-0,086
-232,030	24,122	0,065	0,038
-231,015	-200,000	-0,012	0,072
-230,000	-200,000	0,004	-0,055
-228,986	214,989	-0,037	0,042
-227,971	-33,327	-0,080	0,032
-226,957	-200,000	-0,000	0,027
-225,942	-200,000	-0,018	0,072
-224,927	-200,000	-0,015	0,148
-223,913	32,463	0,059	-0,036
-222,898	-24,991	0,096	-0,040
-221,884	226,973	-0,053	0,061
-220,869	-200,000	0,027	0,127
-219,855	-54,299	0,191	0,061
-218,840	-200,000	0,018	-0,071
-217,825	-44,143	-0,025	0,009
-216,811	800,000	0,075	0,234
-215,796	-200,000	-0,017	0,147
-214,782	2,660	-0,136	-0,070
-213,767	800,000	-0,016	-0,049
-212,752	-200,000	-0,028	0,117
-211,738	-200,000	-0,007	-0,030
-210,723	32,202	0,158	-0,097
-209,709	126,816	0,049	0,044
-208,694	-200,000	0,022	-0,197
-207,679	800,000	-0,042	0,133
-206,665	-12,977	-0,123	-0,057
-205,650	-103,292	0,065	-0,011
-204,636	27,857	0,044	-0,026
-203,621	62,705	0,052	0,037
-202,606	79,628	-0,072	-0,055
-201,592	98,183	0,058	0,047
-200,577	-200,000	0,002	-0,069
-199,563	-18,908	-0,137	-0,060
-198,548	800,000	0,034	0,104
-197,533	-200,000	0,011	0,076
-196,519	-169,498	0,042	0,001
-195,504	333,586	0,075	0,104
-194,490	-200,000	0,003	0,026
-193,475	106,048	-0,122	-0,102
-192,460	-200,000	0,026	-0,118
-191,446	568,340	-0,050	-0,087
-190,431	7,490	0,227	0,120
-189,417	241,057	-0,015	0,017
-188,402	112,992	0,060	0,052
-187,387	-112,572	-0,174	-0,024
-186,373	323,272	0,073	0,099
-185,358	-200,000	-0,034	0,193
-184,344	-10,390	0,108	0,051
-183,329	-59,402	-0,040	0,012
-182,315	-135,834	0,056	-0,005
-181,300	0,112	0,045	-0,023
-180,285	-92,778	-0,113	0,022
-179,271	-78,252	0,102	-0,025
-178,256	562,989	-0,043	-0,074
-177,242	-71,298	0,152	-0,040
-176,227	118,443	0,143	0,126
-175,212	800,000	-0,021	-0,061
-174,198	23,175	0,117	-0,068
-173,183	-27,235	-0,144	-0,059
-172,169	106,702	0,062	0,052
-171,154	-30,328	0,064	0,026
-170,139	-131,436	0,023	0,002
-169,125	-200,000	0,026	0,103
-168,110	342,730	-0,038	-0,053
-167,096	-200,000	-0,015	-0,164
-166,081	2,700	0,062	0,032
-165,066	-188,061	-0,223	0,002
-164,052	-200,000	-0,007	0,077
-163,037	46,556	0,135	-0,089
-162,023	175,205	-0,059	0,061
-161,008	-142,912	0,160	-0,011
-159,993	81,925	-0,107	0,083
-158,979	-200,000	-0,003	0,013
-157,964	-200,000	-0,016	-0,061
-156,950	-200,000	0,000	-0,020
-155,935	199,049	-0,032	0,035
-154,920	-118,373	0,086	-0,011
-153,906	-121,978	0,129	-0,015
-152,891	-71,865	-0,082	0,022
-151,877	-37,484	-0,086	0,033
-150,862	-62,822	0,066	-0,019
-149,847	-38,007	0,257	-0,096
-148,833	-134,262	0,077	-0,007
-147,818	-200,000	0,023	0,123
-146,804	-27,572	0,100	0,041
-145,789	-140,634	-0,064	-0,005
-144,775	-77,642	-0,135	-0,033
-143,760	800,000	0,048	0,109
-142,745	45,232	-0,054	0,036
-141,731	-200,000	-0,010	0,107
-140,716	698,394	-0,052	-0,098
-139,702	512,460	0,061	-0,102
-138,687	18,527	0,040	-0,022
-137,672	800,000	-0,009	-0,021
-136,658	800,000	0,031	-0,069
-135,643	221,463	-0,055	-0,063
-134,629	-31,410	0,066	-0,026
-133,614	193,743	0,079	0,086
-132,599	212,770	0,129	0,145
-131,585	-25,101	0,045	-0,019
-130,570	561,623	-0,008	0,013
-129,556	293,810	-0,096	-0,125
-128,541	800,000	-0,029	0,085
-127,526	-78,043	0,109	0,026
-126,512	18,894	0,186	0,105
-125,497	-99,899	0,034	0,006
-124,483	-200,000	-0,003	0,117
-123,468	21,826	0,013	0,008
-122,453	-200,000	0,002	-0,098
-121,439	-200,000	-0,001	-0,184
-120,424	-200,000	-0,058	-0,208
-119,410	-200,000	0,016	-0,125
-118,395	-200,000	-0,002	0,053
-117,380	68,693	-0,030	-0,022
-116,366	-102,105	-0,039	0,007
-115,351	800,000	0,060	-0,135
-114,337	167,054	-0,024	0,024
-113,322	-200,000	-0,011	-0,052
-112,307	-24,647	-0,132	0,056
-111,293	800,000	0,041	0,119
-110,278	16,574	0,084	-0,047
-109,264	119,643	-0,016	0,014
-108,249	55,961	-0,105	-0,072
-107,234	-200,000	0,005	0,038
-106,220	564,488	0,046	-0,079
-105,205	800,000	-0,010	0,024
-104,191	-13,205	0,085	-0,039
-103,176	160,181	0,034	-0,034
-102,162	286,788	0,104	0,134
-101,147	-86,214	-0,154	0,033
-100,132	-200,000	-0,001	-0,034
-99,118	67,628	-0,042	-0,031
-98,103	-200,000	0,012	-0,065
-97,089	-66,142	-0,063	-0,018
-96,074	43,431	0,044	-0,029
-95,059	96,791	0,027	-0,022
-94,045	-200,000	0,000	-0,086
-93,030	-200,000	0,002	0,020
-92,016	584,416	0,042	-0,074
-91,001	-39,184	0,076	0,028
-89,986	-25,285	-0,029	0,012
-88,972	67,538	0,023	0,017
-87,957	-96,476	0,157	0,029
-86,943	245,293	0,011	0,013
-85,928	800,000	0,070	-0,161
-84,913	153,250	-0,044	0,043
-83,899	-80,836	-0,034	0,008
-82,884	-10,565	-0,141	-0,066
-81,870	-200,000	0,064	0,259
-80,855	65,607	0,120	0,086
-79,840	200,068	0,055	-0,060
-78,826	123,661	0,035	-0,031
-77,811	800,000	0,046	-0,141
-76,797	-4,405	0,130	-0,064
-75,782	86,386	0,101	-0,079
-74,767	-151,110	0,091	-0,005
-73,753	159,144	-0,062	-0,061
-72,738	597,353	-0,039	-0,069
-71,724	800,000	-0,067	-0,150
-70,709	800,000	0,002	-0,006
-69,694	270,858	-0,028	-0,035
-68,680	-200,000	-0,009	0,103
-67,665	800,000	0,011	0,027
-66,651	-6,072	-0,078	0,037
-65,636	154,134	0,074	-0,072
-64,622	-35,525	0,119	0,045
-63,607	280,356	-0,050	0,064
-62,592	-200,000	-0,022	-0,086
-61,578	23,370	-0,023	-0,013
-60,563	-200,000	0,014	0,061
-59,549	800,000	0,026	0,059
-58,534	-50,902	-1,564	-0,518
-57,519	433,295	-1,365	-2,106
-56,505	-200,000	-0,596	-4,695
-55,490	202,271	0,878	0,961
-54,476	800,000	4,951	11,448
-53,461	-200,000	18,376	296,831
-52,446	800,000	731,708	2256,573
-51,432	558,107	1647,894	2825,939
-50,417	78,804	1668,018	1262,533
-49,403	22,478	1541,089	890,208
-48,388	16,406	1464,388	816,441
-47,373	17,802	1454,266	817,496
-46,359	17,040	1444,689	808,431
-45,344	14,635	1440,079	794,319
-44,330	14,599	1438,046	792,994
-43,315	14,617	1436,466	792,176
-42,300	14,592	1434,757	791,085
-41,286	14,646	1433,443	790,586
-40,271	14,630	1432,198	789,789
-39,257	14,632	1430,829	789,016
-38,242	14,670	1429,751	788,568
-37,227	14,703	1428,309	787,901
-36,213	14,659	1427,189	787,042
-35,198	14,663	1425,969	786,356
-34,184	14,663	1425,131	785,863
-33,169	14,642	1423,759	784,975
-32,154	14,671	1422,649	784,468
-31,140	14,672	1421,358	783,731
-30,125	14,676	1420,244	783,103
-29,111	14,683	1419,177	782,516
-28,096	14,634	1418,140	781,685
-27,082	14,588	1417,035	780,830
-26,067	14,525	1416,107	779,989
-25,052	14,578	1414,885	779,535
-24,038	14,564	1413,794	778,836
-23,023	14,604	1412,694	778,386
-22,009	14,526	1411,928	777,568
-20,994	14,461	1411,107	776,781
-19,979	14,542	1410,120	776,584
-18,965	14,541	1409,129	776,006
-17,950	14,546	1408,004	775,377
-16,936	14,508	1407,101	774,670
-15,921	14,438	1406,139	773,783
-14,906	14,508	1405,188	773,558
-13,892	14,496	1404,336	773,002
-12,877	14,458	1403,619	772,401
-11,863	14,466	1402,639	771,867
-10,848	14,459	1401,761	771,321
-9,833	14,455	1400,830	770,759
-8,819	14,406	1400,054	770,073
-7,804	14,400	1398,994	769,433
-6,790	14,417	1397,861	768,857
-5,775	14,385	1396,747	768,065
-4,760	14,402	1395,875	767,635
-3,746	14,364	1395,117	767,012
-2,731	14,385	1394,366	766,663
-1,717	14,358	1393,447	766,006
-0,702	14,394	1391,572	765,108
0,313	18,165	1309,945	737,711
1,327	34,435	705,850	435,184
2,342	52,890	124,106	83,870
3,356	3,465	16,634	8,550
4,371	12,736	3,071	1,673
5,386	53,893	0,662	0,449
6,400	-200,000	0,013	0,286
7,415	64,091	-0,353	-0,251
8,429	800,000	-0,159	-0,378
9,444	207,585	-0,258	-0,286
10,459	-67,574	-0,321	-0,088
11,473	85,374	-0,333	-0,258
12,488	68,360	-0,370	-0,267
13,502	114,100	-0,328	-0,283
14,517	82,561	-0,297	-0,228
15,531	213,723	-0,283	-0,317
16,546	30,649	-0,346	-0,209
17,561	14,006	-0,420	-0,230
18,575	216,693	-0,197	-0,221
19,590	43,465	-0,224	-0,144
20,604	109,274	-0,182	-0,154
21,619	22,864	-0,474	-0,274
22,634	105,007	-0,417	-0,348
23,648	265,425	-0,349	-0,431
24,663	71,591	-0,448	-0,328
25,677	78,300	-0,283	-0,213
26,692	58,997	-0,501	-0,348
27,707	261,190	-0,307	-0,377
28,721	-54,838	-0,320	-0,101
29,736	-60,172	-0,511	-0,153
30,750	38,505	-0,433	-0,272
31,765	33,311	-0,352	-0,215
32,780	6,486	-0,516	-0,270
33,794	79,166	-0,316	-0,239
34,809	11,681	-0,398	-0,215
35,823	1,237	-0,470	-0,238
36,838	-9,597	-0,398	-0,186
37,853	14,184	-0,329	-0,180
38,867	9,776	-0,397	-0,212
39,882	-29,058	-0,463	-0,187
40,896	151,468	-0,343	-0,330
41,911	141,587	-0,239	-0,223
42,926	33,918	-0,390	-0,239
43,940	325,876	-0,224	-0,302
44,955	74,316	-0,353	-0,261
45,969	70,120	-0,366	-0,266
46,984	232,886	-0,234	-0,271
47,999	222,735	-0,272	-0,310
49,013	187,264	-0,297	-0,313
50,028	57,907	-0,189	-0,130
51,042	61,467	-0,373	-0,261
52,057	-2,587	-0,400	-0,197
53,071	102,055	-0,319	-0,262
54,086	39,370	-0,193	-0,122
55,101	92,235	-0,287	-0,228
56,115	-2,287	-0,442	-0,218
57,130	32,346	-0,365	-0,222
58,144	58,693	-0,308	-0,212
59,159	-65,780	-0,284	-0,079
60,174	28,125	-0,487	-0,289
61,188	98,690	-0,329	-0,267
62,203	43,668	-0,386	-0,248
63,217	124,162	-0,298	-0,264
64,232	2,331	-0,366	-0,186
65,247	39,008	-0,285	-0,179
66,261	-2,210	-0,382	-0,188
67,276	66,756	-0,362	-0,259
68,290	1,624	-0,279	-0,141
69,305	86,738	-0,348	-0,270
70,320	13,672	-0,239	-0,130
71,334	-20,364	-0,357	-0,154
72,349	33,612	-0,326	-0,199
73,363	72,605	-0,304	-0,223
74,378	23,620	-0,255	-0,147
75,393	5,919	-0,290	-0,150
76,407	59,547	-0,321	-0,222
77,422	212,491	-0,266	-0,295
78,436	59,447	-0,297	-0,206
79,451	800,000	-0,136	-0,271
80,466	-70,938	-0,312	-0,082
81,480	156,827	-0,194	-0,189
82,495	-61,540	-0,370	-0,109
83,509	115,849	-0,288	-0,248
84,524	16,845	-0,267	-0,148
85,539	-62,359	-0,404	-0,117
86,553	4,499	-0,302	-0,155
87,568	800,000	-0,122	-0,255
88,582	-2,356	-0,364	-0,179
89,597	3,736	-0,383	-0,196
90,611	33,021	-0,259	-0,157
91,626	142,490	-0,288	-0,269
92,641	36,424	-0,277	-0,171
93,655	17,710	-0,307	-0,171
94,670	-68,366	-0,288	-0,078
95,684	122,457	-0,210	-0,184
96,699	-53,811	-0,330	-0,105
97,714	89,813	-0,222	-0,174
98,728	147,769	-0,235	-0,223
99,743	35,713	-0,370	-0,228
100,757	25,314	-0,333	-0,194
101,772	102,077	-0,236	-0,193
102,787	-24,693	-0,273	-0,113
103,801	163,120	-0,130	-0,128
104,816	31,150	-0,312	-0,187
105,830	12,833	-0,294	-0,159
106,845	-7,267	-0,266	-0,126
107,860	137,815	-0,204	-0,188
108,874	-11,252	-0,314	-0,144
109,889	423,072	-0,198	-0,299
110,903	2,055	-0,329	-0,166
111,918	-177,102	-0,226	0,004
112,933	184,744	-0,307	-0,320
113,947	267,149	-0,146	-0,179
114,962	274,439	-0,189	-0,235
115,976	104,246	-0,217	-0,179
116,991	242,193	-0,209	-0,246
118,006	-34,152	-0,292	-0,112
119,020	247,142	-0,099	-0,117
120,035	261,517	-0,207	-0,252
121,049	86,663	-0,282	-0,218
122,064	-4,645	-0,229	-0,110
123,079	-63,094	-0,263	-0,076
124,093	114,123	-0,198	-0,168
125,108	-16,677	-0,200	-0,088
126,122	25,667	-0,304	-0,177
127,137	260,636	-0,194	-0,235
128,151	41,403	-0,255	-0,161
129,166	22,627	-0,232	-0,133
130,181	188,229	-0,105	-0,110
131,195	-87,435	-0,268	-0,056
132,210	464,439	-0,165	-0,259
133,224	-79,288	-0,229	-0,054
134,239	-106,328	-0,296	-0,046
135,254	198,848	-0,149	-0,159
136,268	-7,217	-0,213	-0,101
137,283	800,000	-0,092	-0,234
138,297	299,796	-0,165	-0,213
139,312	22,801	-0,368	-0,210
140,327	-2,079	-0,181	-0,089
141,341	-48,028	-0,349	-0,117
142,356	148,712	-0,241	-0,228
143,370	-50,842	-0,179	-0,058
144,385	-15,130	-0,264	-0,118
145,400	122,520	-0,292	-0,255
146,414	302,277	-0,197	-0,255
147,429	-15,003	-0,311	-0,139
148,443	141,013	-0,148	-0,136
149,458	72,952	-0,195	-0,142
150,473	-26,279	-0,287	-0,117
151,487	54,080	-0,263	-0,176
152,502	97,074	-0,219	-0,175
153,516	177,476	-0,232	-0,236
154,531	67,516	-0,293	-0,209
155,546	586,975	-0,109	-0,188
156,560	726,130	-0,088	-0,165
157,575	4,344	-0,259	-0,132
158,589	-180,723	-0,247	0,003
159,604	82,380	-0,181	-0,137
160,619	102,318	-0,217	-0,177
161,633	-5,738	-0,312	-0,149
162,648	800,000	-0,151	-0,315
163,662	203,503	-0,166	-0,180
164,677	644,908	-0,180	-0,321
165,692	-17,922	-0,332	-0,145
166,706	36,868	-0,343	-0,211
167,721	53,063	-0,279	-0,186
168,735	-26,085	-0,186	-0,076
169,750	800,000	-0,084	-0,186
170,764	-54,162	-0,246	-0,078
171,779	97,079	-0,099	-0,079
172,794	121,379	-0,191	-0,166
173,808	-26,171	-0,100	0,041
174,823	401,103	-0,115	-0,168
175,837	-50,994	-0,255	-0,083
176,852	245,336	-0,229	-0,269
177,867	482,780	-0,168	-0,268
178,881	460,246	-0,102	-0,159
179,896	800,000	-0,093	-0,226
180,910	-41,752	-0,237	-0,084
181,925	74,941	-0,307	-0,225
182,940	499,229	-0,138	-0,222
183,954	151,389	-0,151	-0,143
184,969	658,629	-0,222	-0,399
185,983	31,634	-0,228	-0,136
186,998	49,680	-0,275	-0,180
188,013	-59,168	-0,262	-0,078
189,027	-60,421	-0,224	-0,066
190,042	413,113	-0,067	-0,099
191,056	18,671	-0,250	-0,139
192,071	151,099	-0,183	-0,174
193,086	-46,072	-0,134	-0,046
194,100	47,585	-0,106	0,069
195,115	-87,778	-0,361	-0,075
196,129	-87,560	-0,296	-0,062
197,144	800,000	-0,115	-0,310
198,159	584,822	-0,047	-0,080
199,173	251,837	-0,088	-0,104
200,188	149,738	-0,166	-0,157
201,202	-52,979	-0,179	-0,057
202,217	82,212	-0,211	-0,159
203,232	42,299	-0,220	-0,139
204,246	-10,921	-0,183	-0,084
205,261	-46,177	-0,335	-0,114
206,275	377,833	-0,160	-0,228
207,290	399,202	-0,070	-0,103
208,304	800,000	-0,072	-0,178
209,319	16,636	-0,194	-0,106
210,334	10,917	-0,259	-0,137
211,348	39,064	-0,302	-0,188
212,363	285,931	-0,167	-0,210
213,377	194,743	-0,133	-0,140
214,392	-33,920	-0,286	-0,109
215,407	6,513	-0,170	-0,088
216,421	-167,749	-0,230	0,006
217,436	-87,207	-0,182	-0,038
218,450	-170,164	-0,155	-0,004
219,465	18,178	-0,245	-0,135
220,480	0,966	-0,203	-0,101
221,494	3,205	-0,126	-0,063
222,509	-200,000	-0,035	-0,137
223,523	-110,078	-0,236	-0,034
224,538	-70,079	-0,283	-0,074
225,553	424,382	-0,181	-0,271
226,567	-11,835	-0,183	-0,083
227,582	138,564	-0,251	-0,229
228,596	-200,000	-0,079	-0,273
229,611	-117,441	-0,291	0,036
230,626	-122,253	-0,249	-0,028
231,640	-129,827	-0,200	-0,019
232,655	-123,777	-0,182	-0,020
233,669	116,297	-0,171	-0,145
234,684	29,727	-0,076	0,045
235,699	85,733	-0,103	-0,078
236,713	55,444	-0,088	-0,059
237,728	-60,258	-0,214	0,063
238,742	-71,853	-0,114	-0,029
239,757	10,411	-0,241	-0,127
240,772	40,522	-0,217	-0,135
241,786	800,000	-0,120	-0,341
242,801	152,972	-0,228	-0,216
243,815	-50,931	-0,190	-0,062
244,830	162,885	-0,146	-0,142
245,844	-167,837	-0,266	0,007
246,859	147,091	-0,080	-0,074
247,874	24,103	-0,246	-0,140
248,888	-109,430	-0,231	-0,033
249,903	-17,243	-0,177	-0,077
250,917	250,997	-0,114	-0,135
251,932	800,000	-0,145	-0,281
252,947	-46,632	-0,180	-0,061
253,961	5,581	-0,304	-0,155
254,976	-9,489	-0,242	-0,112
255,990	800,000	-0,065	-0,134
257,005	284,116	-0,199	-0,248
258,020	299,475	-0,107	-0,137
259,034	-24,502	-0,164	-0,067
260,049	37,434	-0,157	-0,096
261,063	42,596	-0,276	-0,174
262,078	160,329	-0,259	-0,250
263,093	-41,579	-0,277	-0,098
264,107	-152,133	-0,159	0,008
265,122	122,080	-0,120	-0,103
266,136	-105,015	-0,174	-0,027
267,151	309,403	-0,168	-0,218
268,166	-54,492	-0,216	-0,067
269,180	237,424	-0,104	-0,119
270,195	53,857	-0,197	-0,131
271,209	-127,593	-0,077	-0,008
272,224	800,000	-0,060	-0,172
273,239	774,899	-0,091	-0,172
274,253	35,642	-0,103	-0,062
275,268	800,000	-0,020	-0,046
276,282	87,328	-0,120	-0,092
277,297	73,064	-0,135	-0,097
278,312	152,000	-0,086	-0,081
279,326	96,436	-0,222	-0,175
280,341	-200,000	-0,048	-0,233
281,355	-70,952	-0,212	-0,055
282,370	41,989	-0,146	-0,091
283,384	49,635	-0,225	-0,146
284,399	9,656	-0,117	-0,061
285,414	131,950	-0,191	-0,170
286,428	-171,536	-0,329	-0,007
287,443	-115,975	-0,154	-0,020
288,457	-136,997	-0,195	0,015
289,472	96,981	-0,092	-0,073
290,487	189,870	-0,130	-0,135
291,501	163,721	-0,186	-0,181
292,516	800,000	-0,075	-0,144
293,530	-36,482	-0,083	-0,031
294,545	79,335	-0,091	-0,068
295,560	32,149	-0,115	-0,068
296,574	425,223	-0,114	-0,170
297,589	252,967	-0,149	-0,175
298,603	45,693	-0,267	-0,170
299,618	415,898	-0,140	-0,206
300,633	118,206	-0,154	-0,131
301,647	565,830	-0,129	-0,216
302,662	194,452	-0,122	-0,128
303,676	123,746	-0,166	-0,143
304,691	108,295	-0,206	-0,170
305,706	43,942	-0,176	-0,111
306,720	209,922	-0,235	-0,254
307,735	800,000	-0,045	-0,123
308,749	-200,000	-0,010	-0,156
309,764	-65,014	-0,251	-0,069
310,779	-89,984	-0,163	-0,032
311,793	-43,144	-0,206	-0,071
312,808	-108,258	-0,116	0,017
313,822	42,870	-0,117	-0,073
314,837	-166,182	-0,163	-0,005
315,852	342,837	-0,191	-0,258
316,866	125,871	-0,079	-0,069
317,881	800,000	-0,043	-0,097
318,895	166,616	-0,143	-0,140
319,910	331,114	-0,136	-0,181
320,925	-13,764	-0,116	-0,051
321,939	800,000	-0,044	-0,110
322,954	800,000	-0,052	-0,157
323,968	-34,452	-0,105	-0,039
324,983	-95,888	-0,183	-0,033
325,997	418,963	-0,132	-0,195
327,012	158,984	-0,144	-0,137
328,027	204,481	-0,177	-0,189
329,041	-159,669	-0,179	0,007
330,056	40,407	-0,060	0,037
331,070	-35,408	-0,174	0,065
332,085	-16,502	-0,154	-0,067
333,100	166,221	-0,152	-0,148
334,114	47,118	-0,152	-0,097
335,129	276,169	-0,129	-0,157
336,143	546,497	-0,083	-0,138
337,158	-2,181	-0,054	-0,026
338,173	411,046	-0,068	0,099
339,187	-58,396	-0,132	-0,039
340,202	696,652	0,011	-0,020
341,216	-13,435	-0,192	-0,085
342,231	38,727	-0,220	-0,135
343,246	-0,545	-0,095	-0,046
344,260	147,100	-0,203	-0,188
345,275	209,788	-0,117	-0,127
346,289	-52,852	-0,059	-0,019
347,304	-71,825	-0,258	-0,066
348,319	-113,470	-0,134	-0,018
349,333	-163,308	-0,192	-0,006
350,348	-38,438	-0,137	0,050
351,362	55,882	-0,139	-0,092
352,377	800,000	-0,061	-0,130
353,392	155,013	-0,077	-0,072
354,406	38,316	-0,154	-0,094
355,421	208,161	1317,199	1414,131
356,435	160,154	1478,243	1414,626
