DTS Sentinel unit serial number:	SN410029Multiplexer serial number:	ORYXHardware model number:	OX2-SRSoftware version number:	ORYX F/W v4,00 Oryx Data Collector v3.7.2.0data status	okinstallation	B3 Nyhavnadifferential loss correction	single-endedforward channel	channel 1reverse channel	N/Adate	2023/12/02time	13:37:30forward acquisition time	300,00reverse acquisition time	0,00gamma	499,1914k internal	0,3198k external	0,3198temperature offset calibration	1,0000default loss term (dB/km)	0,3820temperature slope calibration	1,0000multiplexer offset coefficient	1,0000multiplexer slope coefficient	1,0000fibre end	0,00T internal ref (°C)	14,59T ext. ref 1 (°C)	0,25T ext. ref 2 (°C)	0,24length (m)	temperature (°C)	Stokes	anti-Stokes-744,400	-200,000	-0,048	-0,312
-743,385	-200,000	0,056	0,278
-742,371	49,764	-0,270	-0,185
-741,356	-200,000	0,107	0,362
-740,342	17,870	-0,156	-0,090
-739,327	-200,000	-0,045	0,422
-738,312	269,226	-0,241	-0,309
-737,298	-200,000	0,002	0,416
-736,283	-200,000	-0,057	-0,223
-735,269	-200,000	0,034	0,376
-734,254	17,152	-0,174	-0,100
-733,239	534,666	-0,116	0,200
-732,225	281,597	-0,151	-0,197
-731,210	8,585	0,153	0,084
-730,196	-41,993	0,121	-0,045
-729,181	-200,000	0,003	0,040
-728,167	-200,000	-0,026	-0,102
-727,152	-131,603	-0,191	-0,018
-726,137	100,934	0,043	-0,037
-725,123	524,491	-0,033	-0,056
-724,108	-200,000	-0,009	-0,060
-723,094	-86,497	-0,105	-0,023
-722,079	360,321	-0,004	0,005
-721,064	-104,799	-0,116	-0,019
-720,050	335,500	-0,031	0,044
-719,035	-142,866	0,151	-0,010
-718,021	-66,331	-0,058	-0,017
-717,006	-8,915	-0,104	-0,050
-715,991	-97,948	-0,092	0,017
-714,977	800,000	0,025	0,079
-713,962	275,144	0,054	0,069
-712,948	471,647	-0,051	0,084
-711,933	105,820	0,084	-0,072
-710,918	1,018	-0,082	-0,043
-709,904	800,000	-0,052	-0,134
-708,889	800,000	-0,041	-0,091
-707,875	-71,241	-0,199	-0,054
-706,860	135,585	0,091	-0,086
-705,845	338,197	-0,063	0,089
-704,831	493,848	0,013	0,021
-703,816	-200,000	0,011	0,056
-702,802	-200,000	-0,003	-0,107
-701,787	-200,000	0,007	-0,101
-700,772	-68,529	0,020	0,005
-699,758	267,044	0,034	0,044
-698,743	142,962	0,103	0,100
-697,729	33,560	0,095	0,060
-696,714	-200,000	-0,025	0,095
-695,699	291,291	-0,110	0,145
-694,685	800,000	-0,033	0,074
-693,670	344,628	-0,128	-0,184
-692,656	39,287	-0,074	-0,048
-691,641	-118,184	-0,029	-0,004
-690,627	240,324	0,032	0,039
-689,612	198,510	0,088	-0,098
-688,597	-23,264	-0,129	-0,056
-687,583	800,000	0,021	-0,050
-686,568	-200,000	-0,015	0,059
-685,554	10,873	-0,059	0,032
-684,539	800,000	0,041	-0,083
-683,524	109,411	-0,008	-0,007
-682,510	-75,473	-0,059	-0,015
-681,495	-200,000	-0,031	-0,103
-680,481	364,805	-0,065	0,095
-679,466	75,937	-0,077	-0,059
-678,451	290,489	-0,046	-0,061
-677,437	-23,081	-0,056	0,025
-676,422	322,886	-0,032	0,045
-675,408	159,979	0,112	0,114
-674,393	169,088	-0,067	-0,069
-673,378	385,747	0,057	-0,086
-672,364	31,421	0,079	0,049
-671,349	151,293	0,058	0,057
-670,335	-200,000	0,006	-0,018
-669,320	-44,391	0,062	0,022
-668,305	93,915	0,054	-0,045
-667,291	127,375	-0,168	0,155
-666,276	64,994	0,081	0,059
-665,262	-123,346	0,063	0,007
-664,247	151,376	-0,050	-0,049
-663,232	-200,000	0,034	-0,196
-662,218	-79,872	-0,131	0,032
-661,203	-41,564	0,150	-0,056
-660,189	-200,000	0,006	0,032
-659,174	-95,240	-0,096	-0,019
-658,159	751,178	0,041	0,081
-657,145	-24,657	-0,070	-0,030
-656,130	258,174	-0,084	-0,106
-655,116	-200,000	0,033	0,109
-654,101	10,060	0,147	-0,081
-653,086	410,237	-0,042	-0,064
-652,072	-200,000	0,002	-0,066
-651,057	67,108	-0,158	-0,117
-650,043	-109,834	-0,022	0,003
-649,028	-84,923	-0,093	-0,021
-648,014	-200,000	-0,016	-0,118
-646,999	153,645	-0,042	0,042
-645,984	-200,000	-0,002	0,043
-644,970	-77,248	-0,129	0,032
-643,955	-102,907	-0,096	-0,016
-642,941	-56,786	-0,014	-0,004
-641,926	285,731	-0,016	-0,021
-640,911	-200,000	-0,002	0,017
-639,897	800,000	0,016	0,044
-638,882	94,776	-0,082	-0,067
-637,868	569,725	-0,035	0,062
-636,853	28,464	-0,079	-0,049
-635,838	-200,000	0,009	-0,088
-634,824	-57,582	-0,055	0,017
-633,809	800,000	0,015	0,044
-632,795	-200,000	-0,025	-0,105
-631,780	-200,000	0,015	0,119
-630,765	621,808	0,008	-0,015
-629,751	800,000	0,026	-0,076
-628,736	303,113	0,015	-0,020
-627,722	-66,813	-0,038	-0,011
-626,707	-200,000	-0,045	-0,146
-625,692	168,889	0,081	-0,084
-624,678	-200,000	-0,032	0,151
-623,663	-0,661	0,044	-0,022
-622,649	-200,000	-0,046	-0,157
-621,634	489,328	-0,067	-0,111
-620,619	22,597	0,060	-0,035
-619,605	52,300	-0,113	-0,078
-618,590	-200,000	0,023	-0,075
-617,576	39,385	0,031	-0,020
-616,561	-200,000	0,014	0,045
-615,546	763,662	-0,016	-0,033
-614,532	94,127	0,060	0,049
-613,517	-39,919	-0,089	-0,034
-612,503	800,000	-0,049	-0,101
-611,488	214,394	-0,043	-0,050
-610,474	800,000	-0,027	0,075
-609,459	-109,762	0,115	0,017
-608,444	-200,000	0,000	0,088
-607,430	-200,000	0,014	-0,050
-606,415	-200,000	0,002	-0,161
-605,401	-1,912	0,029	0,015
-604,386	-84,099	-0,029	0,007
-603,371	800,000	-0,061	0,126
-602,357	423,507	0,053	0,083
-601,342	800,000	-0,033	-0,104
-600,328	-200,000	0,002	-0,122
-599,313	-200,000	-0,011	0,112
-598,298	108,880	-0,151	-0,131
-597,284	-148,185	-0,047	0,003
-596,269	85,999	0,073	-0,058
-595,255	-136,739	-0,109	0,009
-594,240	144,116	-0,083	0,081
-593,225	122,506	-0,115	-0,104
-592,211	66,274	0,037	-0,027
-591,196	5,833	-0,120	0,064
-590,182	-117,956	0,217	-0,028
-589,167	800,000	0,013	0,036
-588,152	-148,627	0,093	0,005
-587,138	-126,877	-0,122	-0,013
-586,123	676,541	-0,014	0,026
-585,109	27,223	-0,048	0,029
-584,094	-200,000	0,017	-0,062
-583,079	79,972	-0,032	-0,025
-582,065	-200,000	0,018	0,100
-581,050	-200,000	-0,007	0,142
-580,036	800,000	-0,055	0,141
-579,021	430,159	-0,064	-0,100
-578,006	703,053	0,032	-0,062
-576,992	-32,440	0,044	-0,018
-575,977	422,567	0,020	-0,031
-574,963	-104,430	-0,076	-0,013
-573,948	800,000	0,039	0,086
-572,934	560,091	-0,056	-0,098
-571,919	-200,000	-0,022	-0,110
-570,904	7,010	-0,044	0,023
-569,890	-200,000	0,002	-0,102
-568,875	285,314	-0,075	0,098
-567,861	85,797	-0,048	0,039
-566,846	261,180	-0,027	0,034
-565,831	-200,000	0,009	-0,170
-564,817	-200,000	-0,019	-0,154
-563,802	59,674	-0,121	-0,086
-562,788	-48,336	-0,082	0,028
-561,773	-200,000	-0,010	-0,125
-560,758	-200,000	0,023	-0,161
-559,744	-119,200	0,093	0,012
-558,729	-200,000	-0,006	0,146
-557,715	-200,000	0,004	-0,012
-556,700	-200,000	-0,001	-0,172
-555,685	-27,686	-0,057	0,024
-554,671	29,987	0,087	0,054
-553,656	-123,079	0,115	0,013
-552,642	-4,759	0,051	-0,025
-551,627	-38,651	0,026	0,010
-550,612	800,000	0,029	-0,080
-549,598	215,731	-0,037	0,043
-548,583	-43,956	0,092	-0,033
-547,569	-38,607	0,084	-0,032
-546,554	154,092	0,060	0,060
-545,539	627,140	0,058	0,106
-544,525	585,597	-0,093	0,165
-543,510	-31,882	0,071	-0,029
-542,496	-111,263	-0,083	0,012
-541,481	-35,866	-0,030	-0,012
-540,466	-200,000	0,010	0,092
-539,452	301,078	0,052	0,069
-538,437	206,799	-0,026	0,029
-537,423	216,681	0,010	-0,012
-536,408	-47,864	-0,083	0,029
-535,393	-200,000	0,014	-0,060
-534,379	-73,982	-0,099	0,026
-533,364	18,523	0,112	0,065
-532,350	-200,000	0,003	-0,070
-531,335	133,619	-0,102	-0,095
-530,321	504,576	-0,041	0,068
-529,306	-59,133	0,075	-0,023
-528,291	800,000	-0,028	-0,070
-527,277	-200,000	-0,022	-0,101
-526,262	-200,000	-0,014	-0,110
-525,248	800,000	-0,055	-0,111
-524,233	-200,000	-0,015	0,241
-523,218	800,000	-0,057	0,133
-522,204	-10,664	0,098	0,047
-521,189	-200,000	0,020	-0,173
-520,175	800,000	-0,051	-0,132
-519,160	-49,225	0,010	-0,003
-518,145	-112,297	0,180	0,026
-517,131	24,370	-0,018	0,011
-516,116	-200,000	-0,009	-0,081
-515,102	-200,000	-0,012	0,066
-514,087	744,921	-0,008	-0,016
-513,072	161,441	-0,077	-0,078
-512,058	-78,914	-0,059	-0,014
-511,043	-200,000	-0,006	0,081
-510,029	54,358	0,027	0,019
-509,014	-200,000	-0,015	-0,091
-507,999	-59,141	-0,102	0,032
-506,985	-68,126	-0,054	0,015
-505,970	-51,967	-0,047	0,016
-504,956	73,278	-0,054	-0,041
-503,941	425,905	-0,070	0,109
-502,926	-200,000	-0,023	-0,088
-501,912	800,000	0,050	0,113
-500,897	-72,008	0,059	0,016
-499,883	87,625	-0,040	0,032
-498,868	8,845	0,078	0,042
-497,853	87,235	0,041	0,033
-496,839	461,337	-0,075	0,122
-495,824	-148,247	0,100	-0,006
-494,810	786,019	-0,036	0,071
-493,795	-111,431	0,102	0,015
-492,781	-200,000	-0,008	0,058
-491,766	-200,000	-0,001	0,060
-490,751	-200,000	0,000	0,076
-489,737	800,000	0,045	-0,105
-488,722	-103,103	0,125	0,021
-487,708	-200,000	-0,022	-0,090
-486,693	-200,000	-0,025	0,097
-485,678	77,710	-0,051	0,039
-484,664	-145,777	-0,068	0,004
-483,649	800,000	-0,041	-0,119
-482,635	155,839	0,087	0,086
-481,620	800,000	0,014	0,035
-480,605	-200,000	0,013	0,071
-479,591	-131,921	0,050	-0,005
-478,576	-83,991	-0,154	0,035
-477,562	-109,357	-0,146	0,022
-476,547	166,648	0,069	-0,071
-475,532	-69,429	0,085	0,023
-474,518	666,362	0,039	0,073
-473,503	390,154	0,043	-0,064
-472,489	117,067	-0,120	0,106
-471,474	-38,598	-0,039	-0,015
-470,459	131,519	-0,104	-0,096
-469,445	800,000	-0,026	-0,053
-468,430	-78,638	0,085	-0,021
-467,416	87,679	-0,021	0,016
-466,401	-123,209	-0,100	0,011
-465,386	261,970	0,080	0,100
-464,372	-166,276	-0,073	-0,002
-463,357	800,000	-0,038	-0,088
-462,343	275,053	-0,104	-0,133
-461,328	-139,781	-0,026	0,002
-460,313	-134,576	-0,023	0,002
-459,299	-200,000	-0,003	0,035
-458,284	749,187	-0,088	0,172
-457,270	215,558	-0,080	-0,091
-456,255	69,238	0,013	-0,009
-455,241	182,411	-0,131	-0,139
-454,226	8,357	-0,163	0,088
-453,211	800,000	0,035	0,071
-452,197	154,601	0,051	0,050
-451,182	274,428	0,039	0,050
-450,168	382,574	0,091	0,136
-449,153	-200,000	0,023	-0,120
-448,138	-29,265	0,070	-0,029
-447,124	-200,000	-0,018	0,092
-446,109	168,922	0,041	-0,042
-445,095	-159,818	-0,086	0,003
-444,080	-35,683	-0,042	0,016
-443,065	-35,493	0,037	0,014
-442,051	-95,556	-0,083	-0,016
-441,036	-200,000	-0,029	0,102
-440,022	228,270	0,059	-0,070
-439,007	-15,886	0,061	-0,028
-437,992	268,482	-0,042	-0,053
-436,978	22,528	0,087	-0,051
-435,963	267,859	0,162	0,205
-434,949	-59,594	0,134	0,041
-433,934	26,882	0,092	-0,056
-432,919	173,934	-0,013	-0,014
-431,905	64,409	-0,027	0,019
-430,890	-200,000	0,004	0,079
-429,876	800,000	-0,046	-0,125
-428,861	800,000	0,012	0,039
-427,846	-200,000	-0,004	0,103
-426,832	-130,449	-0,135	0,013
-425,817	14,636	-0,125	-0,070
-424,803	85,471	-0,009	-0,007
-423,788	-78,563	0,014	-0,003
-422,773	-200,000	-0,006	-0,030
-421,759	8,196	0,132	-0,071
-420,744	61,493	-0,110	-0,079
-419,730	-56,611	-0,080	-0,025
-418,715	463,119	-0,039	0,062
-417,701	207,266	-0,078	-0,087
-416,686	96,444	0,103	-0,085
-415,671	800,000	0,023	0,072
-414,657	-11,675	0,056	0,026
-413,642	6,214	0,022	0,012
-412,628	-200,000	-0,008	-0,059
-411,613	-200,000	-0,023	-0,120
-410,598	-132,659	-0,031	-0,003
-409,584	-52,872	0,036	-0,012
-408,569	-65,808	0,074	0,021
-407,555	30,009	0,037	0,023
-406,540	-200,000	0,005	-0,029
-405,525	-200,000	0,001	-0,115
-404,511	-200,000	-0,039	-0,129
-403,496	29,198	-0,142	-0,086
-402,482	-9,432	0,102	-0,049
-401,467	151,928	0,047	-0,046
-400,452	-17,686	0,034	0,015
-399,438	-200,000	0,040	0,146
-398,423	-200,000	0,022	0,082
-397,409	409,123	-0,053	-0,081
-396,394	800,000	0,078	0,165
-395,379	30,079	0,124	-0,076
-394,365	39,450	0,133	-0,085
-393,350	-200,000	0,010	-0,056
-392,336	-120,938	-0,145	0,017
-391,321	-132,271	-0,117	-0,011
-390,306	-112,859	-0,125	0,018
-389,292	443,869	-0,027	-0,043
-388,277	20,182	-0,040	0,023
-387,263	-91,631	-0,057	-0,011
-386,248	-100,103	0,081	-0,014
-385,233	-200,000	0,009	0,109
-384,219	-200,000	-0,004	-0,067
-383,204	266,861	-0,081	-0,102
-382,190	800,000	-0,059	-0,136
-381,175	180,979	0,053	-0,056
-380,160	118,028	0,114	0,101
-379,146	172,366	-0,038	0,039
-378,131	-200,000	-0,001	0,121
-377,117	381,590	0,057	-0,085
-376,102	51,125	0,007	-0,005
-375,088	-200,000	0,011	-0,130
-374,073	800,000	0,036	-0,083
-373,058	62,958	0,050	-0,036
-372,044	-200,000	-0,013	0,043
-371,029	-200,000	0,004	0,051
-370,015	-200,000	-0,015	0,051
-369,000	-3,997	-0,034	-0,017
-367,985	236,124	0,128	-0,152
-366,971	-200,000	0,017	-0,089
-365,956	107,939	0,198	-0,169
-364,942	800,000	0,082	0,188
-363,927	-123,268	0,062	-0,007
-362,912	58,140	0,117	0,082
-361,898	-200,000	-0,008	-0,132
-360,883	800,000	0,061	-0,134
-359,869	-76,202	-0,061	-0,015
-358,854	296,114	0,074	-0,097
-357,839	-200,000	0,005	0,168
-356,825	-200,000	0,014	0,087
-355,810	-200,000	0,030	0,117
-354,796	-68,405	0,107	-0,030
-353,781	-74,590	-0,082	0,021
-352,766	-18,747	-0,092	-0,041
-351,752	-9,152	0,185	-0,088
-350,737	-8,759	0,158	0,076
-349,723	338,019	-0,055	0,076
-348,708	-162,455	0,149	-0,005
-347,693	394,362	-0,020	0,030
-346,679	-47,081	-0,081	-0,028
-345,664	-12,952	0,059	0,028
-344,650	-63,933	-0,050	0,015
-343,635	-84,577	-0,039	0,009
-342,620	25,833	0,060	0,036
-341,606	-200,000	-0,002	0,128
-340,591	-200,000	0,020	0,135
-339,577	-8,612	-0,088	0,042
-338,562	51,291	0,037	-0,025
-337,548	38,822	0,102	-0,065
-336,533	-200,000	-0,034	0,139
-335,518	-200,000	0,034	0,197
-334,504	-14,487	-0,095	-0,044
-333,489	-200,000	-0,000	0,009
-332,475	147,258	-0,052	-0,050
-331,460	-200,000	0,010	0,151
-330,445	800,000	0,053	-0,124
-329,431	169,703	-0,012	-0,013
-328,416	-200,000	-0,010	-0,116
-327,402	343,287	0,084	-0,118
-326,387	-94,985	-0,070	0,013
-325,372	-118,196	0,069	0,009
-324,358	117,808	-0,062	0,055
-323,343	-200,000	-0,026	-0,113
-322,329	-200,000	-0,021	-0,166
-321,314	-184,155	0,123	-0,001
-320,299	800,000	0,049	0,144
-319,285	-30,945	-0,132	-0,053
-318,270	-4,211	-0,060	-0,030
-317,256	-153,162	-0,090	-0,004
-316,241	-48,218	-0,093	-0,032
-315,226	-112,336	0,046	-0,006
-314,212	-70,878	-0,058	0,015
-313,197	-200,000	-0,057	0,240
-312,183	144,127	-0,029	-0,028
-311,168	271,657	-0,128	-0,162
-310,153	85,688	-0,052	0,041
-309,139	347,063	0,049	-0,069
-308,124	-200,000	0,020	0,066
-307,110	-58,500	-0,099	-0,031
-306,095	800,000	0,051	0,104
-305,080	-200,000	-0,027	0,119
-304,066	800,000	-0,020	0,051
-303,051	107,028	-0,036	0,030
-302,037	-139,010	-0,116	-0,009
-301,022	-200,000	-0,019	-0,109
-300,008	800,000	-0,040	0,097
-298,993	-58,893	0,146	0,045
-297,978	-40,474	-0,192	0,071
-296,964	157,800	0,161	-0,160
-295,949	-200,000	-0,002	0,135
-294,935	161,141	-0,075	0,075
-293,920	8,841	0,144	-0,077
-292,905	-200,000	-0,015	-0,184
-291,891	-200,000	0,025	-0,144
-290,876	0,053	0,053	-0,027
-289,862	70,546	0,065	-0,048
-288,847	47,876	-0,138	0,092
-287,832	-200,000	-0,014	-0,081
-286,818	-200,000	0,075	-0,261
-285,803	-200,000	0,011	0,197
-284,789	-200,000	-0,023	0,167
-283,774	-8,372	0,086	0,041
-282,759	-200,000	0,014	-0,086
-281,745	174,469	-0,046	0,047
-280,730	176,530	-0,083	-0,086
-279,716	-200,000	-0,003	-0,070
-278,701	572,201	0,073	0,128
-277,686	-200,000	0,018	0,165
-276,672	-200,000	0,016	-0,088
-275,657	84,249	0,041	0,032
-274,643	-200,000	-0,002	-0,097
-273,628	-142,805	-0,065	-0,004
-272,613	213,827	0,075	0,085
-271,599	199,756	0,052	0,057
-270,584	-200,000	0,003	0,034
-269,570	19,087	0,136	0,078
-268,555	-98,068	0,165	0,030
-267,540	-200,000	-0,018	-0,082
-266,526	-200,000	-0,018	-0,147
-265,511	-5,726	0,086	-0,042
-264,497	-200,000	-0,000	0,111
-263,482	-95,343	0,135	-0,026
-262,467	2,550	0,181	0,093
-261,453	287,843	-0,076	0,098
-260,438	-62,665	-0,232	-0,068
-259,424	100,907	0,079	-0,066
-258,409	280,292	0,025	-0,031
-257,395	-72,560	-0,060	0,016
-256,380	-200,000	0,012	0,093
-255,365	-22,061	0,116	-0,050
-254,351	229,948	0,115	0,134
-253,336	800,000	0,042	-0,092
-252,322	101,423	-0,108	0,090
-251,307	455,877	0,067	-0,107
-250,292	340,489	-0,071	-0,099
-249,278	92,891	0,069	-0,056
-248,263	376,584	0,058	0,085
-247,249	548,075	0,080	0,137
-246,234	43,951	-0,040	-0,026
-245,219	800,000	-0,008	0,017
-244,205	-77,200	-0,076	0,019
-243,190	181,327	0,010	0,011
-242,176	800,000	0,013	-0,042
-241,161	-200,000	0,022	-0,149
-240,146	-181,467	0,070	0,001
-239,132	800,000	-0,027	0,079
-238,117	-200,000	0,075	-0,000
-237,103	800,000	0,037	0,099
-236,088	10,763	-0,192	-0,104
-235,073	712,559	0,050	0,095
-234,059	12,063	0,043	0,024
-233,044	-200,000	0,029	0,094
-232,030	177,540	-0,098	-0,102
-231,015	708,214	0,058	-0,109
-230,000	800,000	-0,019	0,058
-228,986	-92,126	-0,147	0,029
-227,971	-21,852	0,091	0,039
-226,957	-112,557	0,111	-0,016
-225,942	762,526	0,058	0,112
-224,927	-75,273	0,123	0,031
-223,913	-200,000	-0,002	-0,062
-222,898	-66,025	-0,069	-0,019
-221,884	-200,000	0,008	0,091
-220,869	800,000	-0,019	0,039
-219,855	-14,155	0,148	-0,068
-218,840	-200,000	-0,020	0,075
-217,825	-200,000	-0,013	0,170
-216,811	114,356	0,061	-0,053
-215,796	118,392	0,117	0,103
-214,782	228,726	-0,076	-0,088
-213,767	800,000	0,020	0,044
-212,752	139,443	-0,063	-0,060
-211,738	800,000	-0,029	-0,088
-210,723	-200,000	0,001	0,005
-209,709	-85,144	0,065	-0,014
-208,694	189,203	-0,031	-0,033
-207,679	180,982	-0,131	-0,137
-206,665	84,604	0,075	0,059
-205,650	27,088	0,045	0,027
-204,636	129,455	-0,070	-0,064
-203,621	603,817	0,077	-0,138
-202,606	-200,000	-0,038	-0,123
-201,592	-200,000	0,015	-0,077
-200,577	-80,695	-0,055	-0,013
-199,563	92,830	0,084	-0,067
-198,548	-69,927	0,082	-0,022
-197,533	-140,220	-0,080	-0,006
-196,519	-200,000	0,014	0,219
-195,504	-42,530	0,041	0,015
-194,490	206,318	-0,033	-0,037
-193,475	-49,341	0,074	0,025
-192,460	-63,811	-0,063	0,018
-191,446	-200,000	0,001	0,099
-190,431	-200,000	-0,019	0,169
-189,417	69,601	-0,063	-0,046
-188,402	-167,392	-0,089	-0,003
-187,387	67,011	-0,142	0,103
-186,373	-200,000	0,007	-0,129
-185,358	153,875	-0,090	-0,088
-184,344	-200,000	0,018	0,181
-183,329	33,068	0,071	0,044
-182,315	286,385	0,111	-0,142
-181,300	160,983	0,134	-0,133
-180,285	-133,569	-0,103	-0,009
-179,271	-44,696	0,032	0,011
-178,256	253,272	0,035	0,042
-177,242	-200,000	0,004	-0,022
-176,227	743,232	0,021	-0,040
-175,212	251,647	-0,089	0,108
-174,198	-200,000	-0,050	0,165
-173,183	-183,371	0,052	0,001
-172,169	-200,000	0,031	0,120
-171,154	-86,045	-0,131	-0,029
-170,139	-200,000	0,014	0,067
-169,125	-200,000	0,001	-0,007
-168,110	800,000	0,056	0,150
-167,096	-110,344	0,111	-0,016
-166,081	-112,425	-0,085	-0,012
-165,066	79,646	0,068	0,052
-164,052	475,919	0,037	0,059
-163,037	-200,000	-0,016	0,119
-162,023	31,666	0,054	-0,033
-161,008	120,495	-0,066	0,058
-159,993	762,598	-0,028	0,054
-158,979	308,580	0,067	0,090
-157,964	120,221	-0,030	0,026
-156,950	-73,451	0,105	0,027
-155,935	-200,000	-0,016	0,136
-154,920	800,000	-0,037	0,077
-153,906	794,549	0,042	-0,083
-152,891	-105,604	0,114	0,018
-151,877	40,157	0,074	0,047
-150,862	-200,000	-0,071	-0,000
-149,847	240,545	0,043	0,051
-148,833	-200,000	0,001	-0,006
-147,818	800,000	0,030	-0,076
-146,804	800,000	0,019	0,042
-145,789	-159,640	-0,145	0,006
-144,775	354,068	-0,128	-0,181
-143,760	338,886	0,035	0,049
-142,745	177,030	-0,078	-0,081
-141,731	114,561	-0,041	0,035
-140,716	298,126	-0,069	0,090
-139,702	-130,984	0,080	0,008
-138,687	185,975	-0,023	0,024
-137,672	-200,000	0,004	0,032
-136,658	233,182	-0,059	-0,069
-135,643	-200,000	0,020	-0,161
-134,629	-200,000	0,031	-0,183
-133,614	789,612	0,077	0,150
-132,599	-20,043	0,080	0,035
-131,585	-200,000	0,009	0,217
-130,570	17,369	0,079	-0,044
-129,556	-83,208	0,040	0,009
-128,541	-15,536	-0,179	0,081
-127,526	405,718	-0,059	0,089
-126,512	3,808	-0,078	-0,040
-125,497	22,927	0,050	-0,029
-124,483	-73,552	-0,139	-0,036
-123,468	800,000	0,054	0,148
-122,453	-32,243	-0,060	-0,024
-121,439	-15,112	-0,070	-0,032
-120,424	800,000	-0,075	-0,154
-119,410	253,506	-0,096	0,117
-118,395	2,996	-0,041	-0,021
-117,380	-200,000	0,031	-0,146
-116,366	-69,169	-0,062	0,017
-115,351	-200,000	-0,007	0,189
-114,337	-200,000	0,012	-0,080
-113,322	-200,000	0,003	-0,024
-112,307	1,143	-0,020	-0,010
-111,293	-41,177	0,203	0,074
-110,278	-200,000	-0,040	0,139
-109,264	-10,640	0,090	0,042
-108,249	116,648	-0,096	0,084
-107,234	666,141	0,027	0,051
-106,220	23,293	-0,043	-0,025
-105,205	72,243	0,061	0,045
-104,191	179,033	0,097	0,101
-103,176	800,000	0,015	-0,029
-102,162	14,106	-0,140	0,077
-101,147	528,903	-0,070	0,118
-100,132	-105,561	-0,092	-0,015
-99,118	457,689	-0,061	-0,096
-98,103	281,164	0,046	-0,059
-97,089	-200,000	-0,000	0,131
-96,074	-12,037	-0,079	0,037
-95,059	-82,275	0,070	-0,016
-94,045	-45,734	-0,040	-0,014
-93,030	-100,139	-0,122	-0,021
-92,016	-42,470	-0,107	0,039
-91,001	800,000	-0,010	0,031
-89,986	-42,091	0,102	-0,037
-88,972	-200,000	-0,028	0,112
-87,957	800,000	0,056	0,112
-86,943	-171,171	0,054	0,001
-85,928	-200,000	-0,018	-0,070
-84,913	-200,000	-0,005	0,023
-83,899	656,172	-0,022	-0,040
-82,884	491,542	-0,025	-0,041
-81,870	-200,000	0,010	0,092
-80,855	-41,903	-0,115	-0,042
-79,840	-73,456	0,012	-0,003
-78,826	-106,504	0,081	0,013
-77,811	-49,910	-0,162	0,054
-76,797	23,413	0,076	-0,044
-75,782	-3,693	-0,030	-0,015
-74,767	625,433	0,067	0,120
-73,753	90,400	0,064	0,050
-72,738	-50,651	0,098	-0,032
-71,724	362,129	-0,035	-0,049
-70,709	-200,000	0,022	0,105
-69,694	-74,388	-0,052	0,013
-68,680	800,000	-0,026	0,081
-67,665	7,746	0,079	0,042
-66,651	702,691	0,075	0,141
-65,636	129,356	-0,039	-0,035
-64,622	-200,000	0,012	0,091
-63,607	163,895	-0,053	0,053
-62,592	800,000	0,013	-0,039
-61,578	-200,000	0,003	-0,010
-60,563	66,605	0,057	0,041
-59,549	38,111	-0,097	-0,061
-58,534	-22,264	-1,485	-0,635
-57,519	302,459	-1,571	-2,065
-56,505	-200,000	-0,445	-4,335
-55,490	226,527	0,875	1,008
-54,476	800,000	5,099	11,308
-53,461	-200,000	18,381	294,423
-52,446	800,000	729,595	2249,635
-51,432	560,032	1646,094	2828,382
-50,417	78,942	1666,722	1262,976
-49,403	22,482	1539,792	889,984
-48,388	16,468	1462,724	816,275
-47,373	17,846	1452,658	817,271
-46,359	17,140	1443,069	808,466
-45,344	14,714	1438,315	794,174
-44,330	14,674	1436,438	792,917
-43,315	14,634	1434,771	791,776
-42,300	14,632	1433,236	790,889
-41,286	14,710	1432,028	790,559
-40,271	14,677	1430,705	789,640
-39,257	14,670	1429,282	788,790
-38,242	14,712	1427,968	788,232
-37,227	14,732	1426,770	787,638
-36,213	14,774	1425,436	787,070
-35,198	14,678	1424,372	785,993
-34,184	14,722	1423,577	785,731
-33,169	14,665	1422,066	784,597
-32,154	14,721	1421,266	784,391
-31,140	14,721	1419,893	783,600
-30,125	14,729	1418,742	782,971
-29,111	14,716	1417,695	782,301
-28,096	14,695	1416,464	781,492
-27,082	14,640	1415,559	780,703
-26,067	14,621	1414,361	779,921
-25,052	14,641	1413,228	779,360
-24,038	14,604	1412,404	778,702
-23,023	14,565	1411,501	777,990
-22,009	14,603	1410,384	777,521
-20,994	14,577	1409,493	776,876
-19,979	14,551	1408,507	776,183
-18,965	14,504	1407,709	775,493
-17,950	14,513	1406,603	774,893
-16,936	14,543	1405,536	774,415
-15,921	14,484	1404,350	773,454
-14,906	14,571	1403,584	773,409
-13,892	14,530	1402,751	772,728
-12,877	14,493	1401,837	772,021
-11,863	14,522	1400,882	771,599
-10,848	14,488	1400,037	770,947
-9,833	14,499	1399,048	770,420
-8,819	14,450	1398,219	769,708
-7,804	14,413	1397,378	769,040
-6,790	14,447	1396,175	768,506
-5,775	14,432	1395,212	767,875
-4,760	14,431	1394,206	767,286
-3,746	14,436	1393,401	766,838
-2,731	14,406	1392,590	766,223
-1,717	14,363	1392,062	765,702
-0,702	14,446	1389,796	764,810
0,313	18,320	1308,779	738,149
1,327	34,864	706,166	436,613
2,342	53,425	124,512	84,404
3,356	2,933	16,614	8,515
4,371	11,559	3,142	1,701
5,386	-43,654	0,721	0,256
6,400	800,000	0,050	0,102
7,415	-126,694	-0,155	0,016
8,429	-6,412	-0,408	-0,196
9,444	19,290	-0,426	-0,242
10,459	-8,357	-0,165	-0,078
11,473	58,518	-0,263	-0,182
12,488	2,276	-0,300	-0,153
13,502	28,387	-0,313	-0,187
14,517	-75,217	-0,399	-0,100
15,531	71,973	-0,357	-0,262
16,546	-53,585	-0,482	-0,155
17,561	152,013	-0,273	-0,263
18,575	48,754	-0,185	-0,122
19,590	179,858	-0,239	-0,248
20,604	-62,494	-0,363	-0,106
21,619	132,336	-0,449	-0,409
22,634	-19,896	-0,598	-0,260
23,648	110,937	-0,337	-0,287
24,663	359,866	-0,259	-0,367
25,677	-21,186	-0,315	-0,136
26,692	14,300	-0,483	-0,265
27,707	100,991	-0,297	-0,244
28,721	121,933	-0,356	-0,313
29,736	73,615	-0,341	-0,252
30,750	36,887	-0,419	-0,261
31,765	326,920	-0,283	-0,384
32,780	266,002	-0,263	-0,325
33,794	29,640	-0,345	-0,207
34,809	106,165	-0,395	-0,330
35,823	-52,718	-0,452	-0,146
36,838	-12,309	-0,383	-0,176
37,853	304,742	-0,290	-0,382
38,867	35,788	-0,399	-0,247
39,882	160,430	-0,327	-0,322
40,896	10,768	-0,440	-0,236
41,911	33,676	-0,307	-0,188
42,926	43,568	-0,346	-0,223
43,940	63,670	-0,389	-0,276
44,955	120,913	-0,345	-0,302
45,969	18,040	-0,406	-0,228
46,984	66,186	-0,406	-0,290
47,999	-65,754	-0,345	-0,097
49,013	-53,162	-0,296	-0,095
50,028	14,867	-0,475	-0,261
51,042	39,096	-0,327	-0,205
52,057	83,707	-0,393	-0,302
53,071	225,909	-0,215	-0,246
54,086	115,925	-0,261	-0,225
55,101	242,079	-0,271	-0,320
56,115	45,407	-0,405	-0,263
57,130	115,145	-0,295	-0,254
58,144	17,037	-0,403	-0,224
59,159	58,186	-0,422	-0,291
60,174	67,202	-0,400	-0,287
61,188	141,458	-0,330	-0,308
62,203	40,540	-0,408	-0,258
63,217	71,375	-0,336	-0,245
64,232	186,010	-0,325	-0,340
65,247	-4,591	-0,418	-0,203
66,261	-2,625	-0,254	-0,125
67,276	82,556	-0,361	-0,276
68,290	25,947	-0,355	-0,208
69,305	387,914	-0,211	-0,308
70,320	2,505	-0,322	-0,163
71,334	12,461	-0,326	-0,176
72,349	-67,486	-0,302	-0,083
73,363	12,994	-0,296	-0,161
74,378	93,429	-0,303	-0,241
75,393	99,502	-0,227	-0,185
76,407	32,914	-0,306	-0,186
77,422	25,957	-0,273	-0,160
78,436	-65,468	-0,382	-0,107
79,451	14,317	-0,362	-0,198
80,466	37,827	-0,395	-0,246
81,480	-48,465	-0,397	-0,134
82,495	88,815	-0,249	-0,194
83,509	-30,033	-0,226	-0,090
84,524	-100,177	-0,240	-0,042
85,539	-36,949	-0,343	-0,129
86,553	-1,395	-0,357	-0,176
87,568	140,768	-0,209	-0,194
88,582	32,877	-0,381	-0,231
89,597	146,106	-0,249	-0,235
90,611	382,745	-0,142	-0,206
91,626	-67,572	-0,278	-0,076
92,641	-22,706	-0,202	-0,086
93,655	-85,583	-0,287	-0,062
94,670	114,631	-0,267	-0,229
95,684	141,201	-0,206	-0,192
96,699	-22,254	-0,336	-0,142
97,714	108,254	-0,212	-0,177
98,728	160,187	-0,189	-0,186
99,743	-5,583	-0,165	-0,079
100,757	-136,999	-0,281	-0,022
101,772	10,932	-0,347	-0,185
102,787	-48,862	-0,271	-0,091
103,801	137,934	-0,275	-0,253
104,816	83,307	-0,171	-0,130
105,830	37,192	-0,354	-0,220
106,845	-54,988	-0,297	-0,093
107,860	290,574	-0,196	-0,250
108,874	221,121	-0,221	-0,249
109,889	48,163	-0,358	-0,234
110,903	143,558	-0,331	-0,310
111,918	-24,528	-0,163	-0,068
112,933	-41,415	-0,324	-0,116
113,947	780,114	-0,152	-0,293
114,962	233,679	-0,238	-0,275
115,976	10,588	-0,260	-0,138
116,991	63,761	-0,329	-0,231
118,006	69,543	-0,309	-0,223
119,020	74,965	-0,262	-0,193
120,035	213,321	-0,105	-0,116
121,049	-118,417	-0,239	-0,029
122,064	-84,516	-0,328	-0,072
123,079	157,307	-0,251	-0,244
124,093	-94,685	-0,275	-0,052
125,108	115,161	-0,369	-0,315
126,122	173,420	-0,252	-0,255
127,137	-91,996	-0,272	-0,053
128,151	129,870	-0,251	-0,225
129,166	3,719	-0,257	-0,131
130,181	-29,378	-0,223	-0,089
131,195	-24,965	-0,257	-0,106
132,210	250,536	-0,224	-0,267
133,224	-11,153	-0,244	-0,112
134,239	-25,690	-0,215	-0,089
135,254	178,038	-0,174	-0,178
136,268	-21,366	-0,222	-0,095
137,283	22,755	-0,291	-0,166
138,297	113,168	-0,322	-0,273
139,312	142,038	-0,212	-0,197
140,327	146,291	-0,292	-0,274
141,341	123,498	-0,102	-0,089
142,356	-14,318	-0,212	-0,095
143,370	221,042	-0,169	-0,190
144,385	49,349	-0,292	-0,192
145,400	-94,586	-0,302	-0,057
146,414	85,621	-0,178	-0,136
147,429	121,191	-0,173	-0,151
148,443	342,986	-0,171	-0,234
149,458	-34,135	-0,327	-0,125
150,473	800,000	-0,091	-0,213
151,487	296,135	-0,137	-0,176
152,502	-46,843	-0,203	-0,069
153,516	3,358	-0,277	-0,141
154,531	58,981	-0,241	-0,165
155,546	18,710	-0,197	-0,110
156,560	140,215	-0,169	-0,156
157,575	160,845	-0,210	-0,205
158,589	26,096	-0,192	-0,112
159,604	53,489	-0,320	-0,214
160,619	207,426	-0,215	-0,235
161,633	206,242	-0,207	-0,225
162,648	84,094	-0,190	-0,144
163,662	172,796	-0,277	-0,279
164,677	136,709	-0,195	-0,178
165,692	-62,882	-0,226	-0,065
166,706	105,266	-0,205	-0,169
167,721	127,806	-0,237	-0,210
168,735	-1,992	-0,213	-0,104
169,750	252,150	-0,238	-0,284
170,764	155,655	-0,083	-0,079
171,779	22,982	-0,292	-0,166
172,794	167,981	-0,172	-0,171
173,808	-168,720	-0,139	-0,004
174,823	-23,253	-0,275	-0,115
175,837	-6,891	-0,240	-0,113
176,852	43,640	-0,197	-0,125
177,867	376,991	-0,128	-0,183
178,881	-200,000	-0,012	-0,240
179,896	33,630	-0,114	0,069
180,910	-22,117	-0,325	-0,137
181,925	305,328	-0,235	-0,305
182,940	554,195	-0,154	-0,259
183,954	800,000	-0,112	-0,273
184,969	-9,076	-0,246	-0,114
185,983	800,000	-0,057	-0,124
186,998	145,589	-0,121	-0,113
188,013	49,552	-0,273	-0,179
189,027	60,157	-0,286	-0,197
190,042	36,187	-0,201	-0,123
191,056	-107,767	-0,155	-0,023
192,071	157,487	-0,174	-0,168
193,086	-80,767	-0,287	-0,066
194,100	-179,808	-0,205	0,003
195,115	-200,000	-0,020	-0,131
196,129	343,368	-0,169	-0,231
197,144	-14,374	-0,324	-0,144
198,159	196,237	-0,158	-0,167
199,173	47,937	-0,258	-0,167
200,188	54,122	-0,189	-0,127
201,202	12,208	-0,185	-0,099
202,217	-30,217	-0,183	-0,072
203,232	-175,903	-0,257	-0,005
204,246	-38,450	-0,166	0,061
205,261	129,347	-0,217	-0,193
206,275	-45,927	-0,289	-0,099
207,290	512,114	-0,022	-0,036
208,304	-148,878	-0,147	-0,008
209,319	225,574	-0,151	-0,171
210,334	-31,557	-0,222	-0,086
211,348	123,047	-0,200	-0,174
212,363	161,569	-0,185	-0,181
213,377	29,239	-0,194	-0,114
214,392	14,936	-0,183	-0,099
215,407	325,166	-0,133	-0,177
216,421	30,424	-0,130	-0,077
217,436	72,672	-0,189	-0,137
218,450	313,414	-0,169	-0,221
219,465	-43,723	-0,194	-0,068
220,480	-140,215	-0,141	0,010
221,494	93,611	-0,206	-0,162
222,509	7,375	-0,190	-0,098
223,523	-103,343	-0,310	-0,050
224,538	28,104	-0,302	-0,176
225,553	87,403	-0,137	-0,106
226,567	118,659	-0,175	-0,150
227,582	16,780	-0,169	-0,092
228,596	434,728	-0,087	-0,132
229,611	230,054	-0,093	-0,106
230,626	-87,316	-0,162	-0,034
231,640	57,538	-0,237	-0,160
232,655	253,326	-0,168	-0,200
233,669	354,850	-0,223	-0,308
234,684	800,000	-0,080	-0,190
235,699	800,000	-0,094	-0,200
236,713	31,190	-0,229	-0,136
237,728	121,406	-0,186	-0,161
238,742	481,265	-0,113	-0,179
239,757	-44,597	-0,283	-0,098
240,772	86,325	-0,301	-0,229
241,786	240,279	-0,207	-0,239
242,801	25,658	-0,068	-0,039
243,815	45,826	-0,045	-0,029
244,830	171,159	-0,170	-0,169
245,844	-48,060	-0,242	-0,080
246,859	164,215	-0,181	-0,177
247,874	49,145	-0,171	-0,111
248,888	428,536	-0,129	-0,194
249,903	288,625	-0,142	-0,179
250,917	190,305	-0,248	-0,258
251,932	-62,641	-0,351	-0,100
252,947	-51,085	-0,189	0,061
253,961	80,040	-0,208	-0,155
254,976	76,404	-0,174	-0,128
255,990	72,325	-0,205	-0,148
257,005	166,642	-0,130	-0,128
258,020	371,806	-0,141	-0,199
259,034	188,583	-0,203	-0,210
260,049	160,902	-0,144	-0,139
261,063	36,027	-0,267	-0,162
262,078	-43,603	-0,311	-0,108
263,093	56,953	-0,194	-0,130
264,107	800,000	-0,120	-0,241
265,122	-90,704	-0,233	-0,046
266,136	28,693	-0,110	-0,064
267,151	672,003	-0,062	-0,112
268,166	357,746	-0,171	-0,236
269,180	12,860	-0,190	-0,101
270,195	756,091	-0,117	-0,221
271,209	91,046	-0,130	-0,100
272,224	-15,960	-0,251	-0,110
273,239	263,871	-0,156	-0,188
274,253	246,965	-0,198	-0,231
275,268	23,446	-0,316	-0,179
276,282	-50,424	-0,206	-0,067
277,297	-51,852	-0,256	-0,082
278,312	103,388	-0,107	-0,086
279,326	30,738	-0,093	-0,055
280,341	9,555	-0,124	-0,064
281,355	-30,151	-0,119	-0,046
282,370	136,392	-0,233	-0,210
283,384	318,680	-0,215	-0,282
284,399	161,665	-0,173	-0,168
285,414	-128,176	-0,179	-0,017
286,428	167,800	-0,130	-0,128
287,443	-34,478	-0,213	-0,080
288,457	-109,961	-0,157	0,022
289,472	203,843	-0,122	-0,131
290,487	334,670	-0,157	-0,211
291,501	246,085	-0,165	-0,192
292,516	-33,311	-0,195	-0,074
293,530	164,692	-0,141	-0,137
294,545	-100,660	-0,088	-0,015
295,560	-90,315	-0,299	0,059
296,574	-72,369	-0,201	-0,051
297,589	-9,149	-0,256	-0,118
298,603	56,628	-0,246	-0,165
299,618	-196,120	-0,157	0,001
300,633	644,202	0,048	0,085
301,647	-70,515	-0,089	-0,023
302,662	303,858	-0,122	-0,156
303,676	-52,533	-0,203	-0,064
304,691	304,860	-0,074	-0,095
305,706	800,000	-0,102	-0,238
306,720	39,223	-0,146	-0,090
307,735	-45,311	-0,103	-0,035
308,749	297,693	-0,100	-0,126
309,764	-132,622	-0,231	0,020
310,779	294,830	-0,111	-0,140
311,793	91,727	-0,088	-0,068
312,808	186,015	-0,111	-0,113
313,822	48,467	-0,220	-0,142
314,837	-136,512	-0,250	-0,020
315,852	253,815	-0,102	-0,121
316,866	285,244	-0,051	-0,064
317,881	110,756	-0,147	-0,122
318,895	227,941	-0,094	-0,105
319,910	-200,000	0,031	-0,204
320,925	773,388	-0,124	-0,233
321,939	-200,000	-0,025	-0,130
322,954	499,473	-0,122	-0,194
323,968	791,052	-0,083	-0,159
324,983	242,304	-0,110	-0,127
325,997	-190,250	-0,149	-0,001
327,012	560,830	-0,120	-0,200
328,027	86,258	-0,141	-0,107
329,041	350,078	-0,117	-0,160
330,056	260,367	-0,091	-0,108
331,070	-65,604	-0,171	0,047
332,085	-200,000	0,027	-0,096
333,100	453,770	-0,080	-0,121
334,114	-60,519	-0,079	-0,023
335,129	21,120	-0,134	-0,075
336,143	184,895	-0,172	-0,176
337,158	800,000	-0,019	-0,055
338,173	-187,919	-0,052	-0,000
339,187	102,432	-0,113	-0,091
340,202	-46,550	-0,183	-0,061
341,216	91,415	-0,161	-0,124
342,231	-158,595	-0,240	-0,009
343,246	119,229	-0,099	-0,084
344,260	-166,965	-0,205	-0,006
345,275	387,700	-0,089	-0,126
346,289	225,719	-0,057	0,064
347,304	75,472	-0,268	-0,194
348,319	-74,327	-0,204	-0,050
349,333	-200,000	-0,023	-0,156
350,348	247,060	-0,107	-0,124
351,362	-190,040	-0,113	0,001
352,377	413,128	-0,076	-0,111
353,392	-65,120	-0,207	-0,057
354,406	-200,000	-0,008	-0,074
355,421	208,937	1312,003	1411,712
356,435	160,790	1472,398	1412,218
