DTS Sentinel unit serial number:	SN410029Multiplexer serial number:	ORYXHardware model number:	OX2-SRSoftware version number:	ORYX F/W v4,00 Oryx Data Collector v3.7.2.0data status	okinstallation	B3 Nyhavnadifferential loss correction	single-endedforward channel	channel 1reverse channel	N/Adate	2023/12/02time	03:52:30forward acquisition time	300,00reverse acquisition time	0,00gamma	499,1914k internal	0,3194k external	0,3194temperature offset calibration	1,0000default loss term (dB/km)	0,3820temperature slope calibration	1,0000multiplexer offset coefficient	1,0000multiplexer slope coefficient	1,0000fibre end	0,00T internal ref (°C)	16,62T ext. ref 1 (°C)	1,55T ext. ref 2 (°C)	1,54length (m)	temperature (°C)	Stokes	anti-Stokes-744,400	493,985	-0,140	-0,234
-743,385	-200,000	-0,056	0,248
-742,371	506,407	-0,163	-0,277
-741,356	-200,000	0,073	0,293
-740,342	125,514	-0,243	-0,223
-739,327	-200,000	0,040	0,322
-738,312	247,161	-0,233	-0,288
-737,298	-200,000	0,056	0,269
-736,283	76,926	-0,313	-0,242
-735,269	800,000	0,104	0,331
-734,254	800,000	-0,142	-0,394
-733,239	134,194	-0,178	0,168
-732,225	88,045	-0,128	-0,104
-731,210	8,611	-0,029	0,016
-730,196	-116,948	-0,124	0,016
-729,181	626,372	-0,032	-0,059
-728,167	708,243	-0,003	0,006
-727,152	-22,632	-0,078	0,034
-726,137	800,000	-0,003	-0,007
-725,123	-55,928	-0,116	0,038
-724,108	139,001	-0,210	-0,201
-723,094	57,949	-0,203	-0,145
-722,079	-81,743	-0,122	-0,029
-721,064	-100,737	0,057	0,010
-720,050	800,000	0,051	0,119
-719,035	-138,485	-0,150	-0,012
-718,021	114,143	-0,062	0,055
-717,006	387,712	-0,115	-0,174
-715,991	800,000	-0,082	-0,173
-714,977	195,129	0,090	0,100
-713,962	126,184	-0,146	-0,134
-712,948	800,000	-0,062	0,163
-711,933	-200,000	-0,008	0,056
-710,918	-200,000	0,006	0,082
-709,904	604,647	-0,035	-0,064
-708,889	15,984	-0,042	-0,024
-707,875	286,950	-0,044	-0,058
-706,860	149,257	-0,108	0,107
-705,845	-200,000	0,023	0,158
-704,831	-200,000	0,028	0,094
-703,816	461,201	0,026	0,042
-702,802	469,967	-0,059	-0,097
-701,787	-200,000	-0,059	-0,193
-700,772	13,654	0,119	-0,067
-699,758	-133,961	-0,102	-0,009
-698,743	-200,000	0,006	-0,058
-697,729	800,000	-0,005	0,015
-696,714	-200,000	-0,000	0,008
-695,699	800,000	-0,027	0,070
-694,685	-200,000	0,005	-0,101
-693,670	-200,000	-0,004	-0,216
-692,656	-200,000	0,012	-0,059
-691,641	647,985	0,050	0,093
-690,627	-100,459	-0,129	-0,023
-689,612	-17,775	-0,066	-0,030
-688,597	-200,000	-0,037	-0,183
-687,583	168,692	0,052	0,054
-686,568	-121,217	-0,155	0,019
-685,554	-200,000	-0,001	0,017
-684,539	170,841	-0,082	0,085
-683,524	-200,000	-0,015	0,109
-682,510	-200,000	0,016	0,072
-681,495	95,252	-0,081	0,067
-680,481	9,831	-0,145	-0,080
-679,466	-38,258	-0,107	-0,041
-678,451	194,561	0,122	-0,134
-677,437	-93,832	0,041	-0,008
-676,422	-61,576	0,106	0,032
-675,408	48,079	0,039	-0,026
-674,393	-200,000	-0,007	-0,066
-673,378	-35,843	-0,023	-0,009
-672,364	-19,613	-0,146	-0,066
-671,349	-159,809	-0,088	0,003
-670,335	206,132	0,034	-0,038
-669,320	-200,000	-0,001	-0,009
-668,305	-200,000	0,025	-0,089
-667,291	43,710	-0,050	0,033
-666,276	22,041	0,040	-0,024
-665,262	-179,863	-0,064	-0,001
-664,247	-100,934	-0,098	-0,017
-663,232	85,263	-0,189	-0,151
-662,218	800,000	0,021	-0,062
-661,203	-200,000	-0,002	0,058
-660,189	181,235	0,068	-0,072
-659,174	-101,845	-0,169	-0,029
-658,159	-196,731	-0,104	-0,000
-657,145	-53,739	-0,117	-0,039
-656,130	293,438	-0,162	-0,216
-655,116	53,534	0,099	0,069
-654,101	-200,000	-0,053	0,222
-653,086	-147,743	-0,119	-0,007
-652,072	800,000	0,060	0,124
-651,057	227,173	-0,018	-0,021
-650,043	-200,000	-0,010	0,073
-649,028	179,186	-0,036	-0,038
-648,014	-200,000	0,030	-0,099
-646,999	-97,683	-0,065	0,012
-645,984	-200,000	-0,016	0,108
-644,970	69,973	-0,046	-0,034
-643,955	-67,667	0,106	-0,030
-642,941	640,000	-0,041	-0,076
-641,926	121,018	0,028	-0,025
-640,911	-200,000	0,010	-0,036
-639,897	443,920	0,035	-0,056
-638,882	800,000	-0,019	0,048
-637,868	-2,685	0,007	-0,004
-636,853	-200,000	-0,035	-0,176
-635,838	420,968	-0,060	-0,094
-634,824	800,000	0,031	-0,068
-633,809	89,864	-0,130	-0,106
-632,795	800,000	-0,015	-0,031
-631,780	57,370	-0,057	0,040
-630,765	800,000	-0,027	0,071
-629,751	403,485	0,021	-0,032
-628,736	-48,213	0,075	-0,026
-627,722	182,156	-0,035	-0,037
-626,707	-200,000	0,018	0,095
-625,692	19,570	0,162	0,095
-624,678	-13,657	0,177	0,083
-623,663	-200,000	0,000	-0,132
-622,649	745,535	-0,040	0,078
-621,634	112,461	-0,157	-0,137
-620,619	800,000	0,019	-0,045
-619,605	-82,928	0,097	0,023
-618,590	800,000	0,018	0,040
-617,576	-129,423	0,064	0,006
-616,561	255,305	0,074	0,092
-615,546	-200,000	-0,033	-0,110
-614,532	399,207	-0,039	-0,059
-613,517	-99,431	0,053	-0,010
-612,503	15,276	0,092	-0,052
-611,488	800,000	0,056	-0,154
-610,474	204,339	0,077	0,087
-609,459	800,000	0,037	-0,115
-608,444	-200,000	-0,038	-0,165
-607,430	800,000	0,016	-0,050
-606,415	-150,781	-0,102	0,006
-605,401	-200,000	-0,011	0,065
-604,386	-107,421	0,088	0,014
-603,371	-130,999	0,015	-0,001
-602,357	-99,672	-0,028	-0,005
-601,342	800,000	-0,063	0,182
-600,328	423,215	-0,105	-0,165
-599,313	131,421	0,093	-0,086
-598,298	243,287	0,026	-0,031
-597,284	751,682	0,044	-0,086
-596,269	-4,790	-0,107	0,053
-595,255	-200,000	0,007	0,039
-594,240	45,774	-0,069	-0,046
-593,225	93,765	-0,095	-0,078
-592,211	-21,395	-0,101	-0,045
-591,196	-76,051	0,051	-0,013
-590,182	800,000	0,030	0,092
-589,167	-99,619	0,118	-0,021
-588,152	-11,883	0,116	-0,055
-587,138	53,813	-0,122	-0,085
-586,123	-200,000	-0,017	-0,137
-585,109	-200,000	0,033	-0,108
-584,094	354,875	-0,100	-0,144
-583,079	179,521	0,088	0,094
-582,065	800,000	0,037	0,114
-581,050	-200,000	0,023	-0,106
-580,036	-191,823	-0,125	0,001
-579,021	76,295	0,037	-0,029
-578,006	-107,267	0,002	0,000
-576,992	138,533	-0,067	-0,064
-575,977	-180,799	-0,030	-0,000
-574,963	800,000	0,037	0,095
-573,948	-200,000	-0,014	-0,056
-572,934	254,998	-0,072	-0,089
-571,919	-10,450	-0,135	-0,064
-570,904	104,624	-0,132	-0,112
-569,890	71,101	-0,173	-0,129
-568,875	355,870	-0,090	-0,130
-567,861	-101,849	0,083	0,014
-566,846	719,435	-0,028	-0,054
-565,831	-200,000	0,009	0,074
-564,817	54,417	0,077	-0,054
-563,802	-59,606	-0,081	0,025
-562,788	-46,969	-0,049	0,017
-561,773	36,254	-0,023	-0,014
-560,758	-200,000	0,019	-0,112
-559,744	-21,865	0,076	0,033
-558,729	800,000	-0,061	0,141
-557,715	-10,880	-0,075	0,036
-556,700	-200,000	-0,001	-0,062
-555,685	61,694	0,032	-0,023
-554,671	-200,000	0,008	0,061
-553,656	800,000	0,037	0,107
-552,642	336,569	-0,124	0,174
-551,627	800,000	0,035	0,073
-550,612	800,000	-0,016	0,033
-549,598	660,323	-0,074	-0,138
-548,583	-61,420	-0,087	-0,026
-547,569	349,172	-0,092	0,131
-546,554	268,057	0,121	0,154
-545,539	800,000	-0,058	0,153
-544,525	800,000	0,029	0,077
-543,510	-169,958	-0,055	0,001
-542,496	321,292	0,055	-0,076
-541,481	-200,000	-0,037	-0,154
-540,466	-32,207	-0,049	0,020
-539,452	263,111	0,065	-0,082
-538,437	-92,596	0,068	0,014
-537,423	-200,000	-0,068	0,289
-536,408	58,126	-0,069	0,049
-535,393	-133,562	-0,098	0,009
-534,379	449,217	-0,049	-0,079
-533,364	191,408	0,055	-0,060
-532,350	171,934	0,077	0,080
-531,335	179,556	0,034	0,036
-530,321	96,357	-0,086	0,071
-529,306	226,748	-0,035	0,041
-528,291	-200,000	-0,021	-0,287
-527,277	174,323	-0,066	-0,069
-526,262	-52,585	0,065	0,021
-525,248	800,000	0,068	0,180
-524,233	242,284	0,108	0,131
-523,218	131,842	0,009	-0,009
-522,204	98,395	0,075	-0,063
-521,189	800,000	-0,069	-0,140
-520,175	86,596	0,068	-0,054
-519,160	-200,000	0,001	-0,108
-518,145	-200,000	0,017	0,067
-517,131	-136,169	0,142	-0,012
-516,116	510,055	0,069	0,117
-515,102	-71,417	-0,118	-0,032
-514,087	189,883	-0,041	-0,045
-513,072	235,039	-0,043	-0,052
-512,058	-200,000	0,011	-0,075
-511,043	-149,887	0,029	0,002
-510,029	49,845	0,047	0,032
-509,014	34,840	-0,011	0,007
-507,999	-200,000	0,035	0,132
-506,985	800,000	0,008	-0,020
-505,970	247,608	-0,042	0,051
-504,956	800,000	0,023	-0,066
-503,941	-115,908	-0,083	-0,011
-502,926	-84,221	-0,138	-0,031
-501,912	96,053	0,118	0,097
-500,897	-200,000	-0,004	0,095
-499,883	82,072	-0,024	-0,019
-498,868	171,274	-0,050	0,052
-497,853	312,669	0,065	-0,088
-496,839	65,148	0,017	0,012
-495,824	-200,000	-0,033	0,122
-494,810	260,345	0,061	0,076
-493,795	466,713	-0,058	0,094
-492,781	-200,000	-0,018	-0,096
-491,766	-200,000	0,016	-0,058
-490,751	-163,225	-0,146	-0,005
-489,737	109,523	-0,141	0,122
-488,722	-58,544	-0,220	0,068
-487,708	-200,000	-0,001	-0,038
-486,693	-141,975	0,084	0,006
-485,678	381,577	0,029	0,043
-484,664	23,047	-0,078	-0,046
-483,649	54,094	-0,161	-0,112
-482,635	-61,584	0,092	0,028
-481,620	-88,199	0,140	0,030
-480,605	258,305	-0,108	0,135
-479,591	-200,000	0,004	0,021
-478,576	9,002	0,040	0,022
-477,562	407,046	-0,098	0,150
-476,547	122,120	-0,038	-0,034
-475,532	-49,021	0,091	-0,031
-474,518	-200,000	-0,005	0,091
-473,503	-200,000	0,007	0,080
-472,489	-49,628	0,045	-0,015
-471,474	-200,000	0,003	0,054
-470,459	66,739	0,161	0,118
-469,445	-200,000	-0,016	-0,203
-468,430	-11,353	0,122	0,058
-467,416	-122,695	0,080	-0,009
-466,401	332,610	0,075	-0,105
-465,386	-41,576	0,112	0,041
-464,372	231,387	0,075	-0,089
-463,357	800,000	0,055	-0,122
-462,343	-129,894	-0,054	-0,005
-461,328	61,392	0,070	-0,050
-460,313	125,755	-0,024	-0,022
-459,299	800,000	0,068	0,183
-458,284	318,167	0,133	0,182
-457,270	800,000	0,013	-0,030
-456,255	-9,447	-0,075	-0,036
-455,241	70,830	0,080	0,060
-454,226	-139,226	-0,040	0,003
-453,211	800,000	0,048	0,114
-452,197	46,412	0,129	-0,086
-451,182	800,000	-0,026	0,072
-450,168	61,962	-0,126	0,090
-449,153	-200,000	0,012	-0,153
-448,138	171,468	-0,065	-0,067
-447,124	11,441	0,069	0,038
-446,109	80,440	-0,044	0,034
-445,095	800,000	0,040	-0,118
-444,080	116,399	0,061	-0,054
-443,065	51,948	0,074	0,050
-442,051	-3,869	0,062	-0,031
-441,036	-187,325	-0,109	0,001
-440,022	330,278	0,140	-0,195
-439,007	261,495	0,093	-0,116
-437,992	-200,000	0,021	-0,116
-436,978	242,985	0,034	0,041
-435,963	-25,769	-0,047	-0,020
-434,949	-58,502	0,039	0,012
-433,934	152,601	-0,062	-0,061
-432,919	-8,632	-0,038	-0,018
-431,905	365,493	-0,079	0,115
-430,890	-132,102	-0,031	-0,003
-429,876	248,822	-0,022	0,027
-428,861	-200,000	0,006	0,072
-427,846	-65,646	0,119	-0,034
-426,832	800,000	-0,023	-0,069
-425,817	497,158	-0,023	0,038
-424,803	740,318	-0,055	0,106
-423,788	93,822	0,035	0,028
-422,773	-200,000	-0,002	0,014
-421,759	169,937	0,072	-0,074
-420,744	219,588	-0,120	0,139
-419,730	-101,477	-0,098	-0,017
-418,715	6,156	-0,110	-0,058
-417,701	-188,448	0,086	-0,001
-416,686	-63,742	0,101	0,030
-415,671	106,931	-0,053	-0,046
-414,657	7,388	-0,089	0,047
-413,642	-49,506	-0,096	0,033
-412,628	-200,000	0,013	-0,083
-411,613	320,071	-0,060	-0,082
-410,598	139,179	0,068	-0,064
-409,584	-10,165	-0,031	-0,015
-408,569	-27,342	0,130	-0,054
-407,555	-9,790	-0,040	0,019
-406,540	27,730	-0,087	-0,053
-405,525	-200,000	0,040	0,129
-404,511	-88,174	-0,179	0,038
-403,496	-122,659	-0,096	0,011
-402,482	430,610	0,047	-0,074
-401,467	103,380	0,075	-0,063
-400,452	800,000	0,049	0,136
-399,438	97,375	0,037	-0,031
-398,423	4,466	-0,094	-0,050
-397,409	800,000	-0,028	-0,080
-396,394	68,152	0,088	-0,064
-395,379	238,309	-0,044	-0,052
-394,365	492,626	0,118	0,195
-393,350	-28,063	0,043	0,018
-392,336	520,499	0,091	0,154
-391,321	165,825	0,090	0,091
-390,306	800,000	-0,037	-0,107
-389,292	295,985	0,037	-0,048
-388,277	180,679	-0,114	0,120
-387,263	800,000	0,038	0,095
-386,248	188,243	-0,025	-0,027
-385,233	-200,000	-0,018	0,084
-384,219	25,444	0,069	-0,041
-383,204	-67,477	0,089	-0,025
-382,190	-200,000	-0,019	-0,062
-381,175	353,750	0,041	0,058
-380,160	138,653	0,063	-0,059
-379,146	280,111	0,092	0,118
-378,131	-200,000	-0,011	-0,106
-377,117	-200,000	0,009	-0,050
-376,102	237,382	0,030	-0,036
-375,088	-143,447	-0,142	0,010
-374,073	291,757	0,029	-0,038
-373,058	344,095	-0,035	-0,049
-372,044	-200,000	-0,001	0,028
-371,029	-33,613	0,093	0,037
-370,015	-7,371	0,061	0,029
-369,000	20,245	-0,098	-0,057
-367,985	-27,385	0,066	-0,028
-366,971	-32,671	-0,068	0,027
-365,956	480,668	0,037	-0,060
-364,942	-92,329	0,078	0,016
-363,927	-200,000	0,017	-0,055
-362,912	12,144	0,117	-0,065
-361,898	241,213	-0,106	-0,127
-360,883	266,010	-0,028	-0,036
-359,869	-146,253	-0,154	0,010
-358,854	376,029	0,029	0,042
-357,839	361,846	0,061	0,089
-356,825	-200,000	0,014	0,073
-355,810	-71,975	0,012	0,003
-354,796	76,583	-0,059	-0,045
-353,781	-45,588	-0,154	0,054
-352,766	88,993	-0,042	-0,033
-351,752	800,000	0,020	0,047
-350,737	800,000	-0,016	0,036
-349,723	99,861	0,132	0,109
-348,708	-49,148	-0,105	0,036
-347,693	-92,554	-0,100	0,020
-346,679	457,264	-0,032	0,050
-345,664	69,651	0,084	-0,062
-344,650	-104,384	0,059	0,010
-343,635	-200,000	0,012	0,050
-342,620	-200,000	-0,048	0,157
-341,606	-200,000	0,008	0,040
-340,591	-53,457	0,175	0,057
-339,577	-200,000	0,028	-0,132
-338,562	-200,000	0,020	0,098
-337,548	94,865	0,074	0,060
-336,533	-200,000	0,017	0,129
-335,518	800,000	0,032	0,081
-334,504	500,616	0,064	-0,107
-333,489	-76,738	0,176	0,044
-332,475	-200,000	-0,021	0,107
-331,460	-200,000	0,016	-0,256
-330,445	-5,669	-0,037	0,018
-329,431	-163,345	-0,066	0,002
-328,416	-108,142	-0,107	0,016
-327,402	4,993	0,076	0,040
-326,387	800,000	-0,048	0,118
-325,372	800,000	0,015	-0,042
-324,358	-103,809	0,121	-0,020
-323,343	-101,744	-0,157	-0,027
-322,329	-116,826	-0,111	0,014
-321,314	136,020	0,060	0,056
-320,299	-31,732	0,061	0,025
-319,285	78,210	0,016	-0,012
-318,270	-97,867	-0,102	-0,019
-317,256	-77,800	-0,064	-0,016
-316,241	-116,629	-0,065	0,009
-315,226	800,000	-0,055	0,112
-314,212	449,107	-0,018	-0,029
-313,197	800,000	-0,070	0,196
-312,183	127,818	0,077	-0,070
-311,168	126,101	-0,064	-0,058
-310,153	-200,000	-0,012	0,117
-309,139	156,394	0,027	0,027
-308,124	131,679	-0,063	0,059
-307,110	-72,453	0,137	-0,036
-306,095	690,613	0,054	-0,103
-305,080	800,000	0,005	-0,013
-304,066	371,159	-0,070	0,102
-303,051	226,520	-0,050	-0,058
-302,037	264,839	0,028	0,036
-301,022	108,435	-0,032	0,028
-300,008	287,541	0,048	-0,062
-298,993	460,275	-0,080	0,128
-297,978	-200,000	-0,006	0,047
-296,964	-28,871	-0,094	-0,039
-295,949	800,000	0,028	0,074
-294,935	376,476	0,108	-0,159
-293,920	-200,000	0,003	-0,009
-292,905	-200,000	0,022	0,138
-291,891	206,675	0,104	0,116
-290,876	800,000	0,015	0,038
-289,862	138,105	0,092	-0,087
-288,847	-198,803	-0,127	0,000
-287,832	-200,000	0,010	0,090
-286,818	-105,803	0,025	-0,004
-285,803	737,862	-0,067	0,129
-284,789	-122,710	-0,042	0,005
-283,774	-200,000	-0,003	0,117
-282,759	266,871	0,063	0,079
-281,745	-176,314	-0,089	0,002
-280,730	800,000	0,064	-0,150
-279,716	752,256	-0,080	-0,156
-278,701	-129,616	0,157	-0,015
-277,686	648,808	0,056	0,104
-276,672	800,000	-0,031	0,062
-275,657	348,502	-0,068	0,096
-274,643	-9,483	-0,060	0,028
-273,628	518,378	-0,083	-0,139
-272,613	-200,000	-0,017	0,096
-271,599	-200,000	0,001	-0,054
-270,584	-200,000	-0,061	0,200
-269,570	-200,000	-0,009	0,116
-268,555	-150,677	-0,082	-0,004
-267,540	229,858	0,066	-0,077
-266,526	-33,428	-0,137	0,054
-265,511	-200,000	0,007	-0,094
-264,497	44,487	0,057	-0,037
-263,482	800,000	0,018	0,039
-262,467	-126,856	0,109	-0,011
-261,453	-11,474	-0,128	0,060
-260,438	428,843	-0,056	-0,086
-259,424	173,852	-0,055	-0,057
-258,409	-6,217	-0,056	0,027
-257,395	-8,814	-0,085	-0,040
-256,380	-86,603	0,079	-0,017
-255,365	126,098	0,059	-0,053
-254,351	123,057	-0,073	0,065
-253,336	564,212	-0,021	-0,037
-252,322	-94,753	-0,065	0,013
-251,307	635,686	0,038	-0,070
-250,292	3,487	-0,159	-0,082
-249,278	-200,000	-0,001	0,054
-248,263	426,585	-0,062	0,096
-247,249	131,039	-0,063	-0,058
-246,234	-7,080	-0,075	-0,036
-245,219	-49,659	0,067	0,023
-244,205	800,000	0,012	0,033
-243,190	-67,134	0,163	0,046
-242,176	72,514	0,037	-0,028
-241,161	-200,000	0,017	0,071
-240,146	-200,000	0,006	0,047
-239,132	183,994	0,042	-0,045
-238,117	209,383	-0,058	0,065
-237,103	77,925	-0,049	-0,037
-236,088	56,840	-0,120	-0,084
-235,073	425,598	0,017	0,026
-234,059	-40,445	0,069	0,025
-233,044	-157,418	-0,110	-0,005
-232,030	-108,072	-0,104	-0,016
-231,015	-15,411	0,093	0,042
-230,000	-200,000	0,022	-0,104
-228,986	-200,000	-0,027	-0,136
-227,971	749,502	0,003	0,006
-226,957	391,774	0,048	0,072
-225,942	-110,832	-0,109	-0,016
-224,927	24,377	0,073	-0,043
-223,913	464,580	-0,064	0,103
-222,898	1,312	-0,089	-0,046
-221,884	86,236	-0,003	-0,003
-220,869	-200,000	0,012	0,087
-219,855	98,053	-0,071	0,058
-218,840	-200,000	0,006	0,102
-217,825	-77,521	-0,081	0,020
-216,811	800,000	-0,023	-0,066
-215,796	-200,000	0,012	-0,145
-214,782	-116,049	0,046	-0,006
-213,767	23,171	-0,077	0,045
-212,752	-73,272	0,167	-0,043
-211,738	800,000	-0,030	0,077
-210,723	-200,000	-0,005	-0,091
-209,709	-168,847	-0,039	0,001
-208,694	290,857	0,060	0,078
-207,679	52,011	0,145	-0,099
-206,665	69,960	-0,080	0,059
-205,650	-14,943	0,141	0,064
-204,636	-200,000	0,058	-0,222
-203,621	63,237	-0,035	0,025
-202,606	85,841	-0,087	-0,068
-201,592	-6,825	-0,140	-0,068
-200,577	31,327	0,111	-0,068
-199,563	-117,778	0,076	0,010
-198,548	-65,382	0,025	0,007
-197,533	-157,342	0,139	-0,006
-196,519	-169,998	0,165	0,004
-195,504	-12,733	-0,047	0,022
-194,490	-200,000	0,037	-0,152
-193,475	-200,000	-0,042	-0,183
-192,460	151,271	-0,113	-0,110
-191,446	22,544	0,086	-0,050
-190,431	800,000	0,034	-0,102
-189,417	-200,000	0,007	0,062
-188,402	-200,000	-0,002	0,063
-187,387	77,138	-0,028	0,021
-186,373	-200,000	-0,012	-0,137
-185,358	-200,000	0,003	0,051
-184,344	42,403	0,080	0,052
-183,329	800,000	-0,010	0,029
-182,315	-113,371	0,199	-0,028
-181,300	-200,000	-0,015	-0,066
-180,285	-118,053	-0,028	-0,004
-179,271	-200,000	-0,189	-0,001
-178,256	11,022	0,092	-0,050
-177,242	-130,813	0,049	-0,005
-176,227	-162,318	-0,074	-0,003
-175,212	-200,000	0,021	0,159
-174,198	233,337	0,028	0,033
-173,183	32,580	-0,063	-0,039
-172,169	303,644	0,017	0,023
-171,154	-17,290	-0,063	-0,028
-170,139	800,000	-0,043	-0,090
-169,125	-200,000	-0,018	0,126
-168,110	-54,768	0,137	0,044
-167,096	-93,991	-0,055	-0,011
-166,081	-66,582	0,032	-0,009
-165,066	-123,758	0,087	0,010
-164,052	-43,505	0,138	0,049
-163,037	-200,000	0,019	0,135
-162,023	-65,205	-0,028	-0,008
-161,008	535,972	-0,031	0,052
-159,993	-200,000	0,007	0,142
-158,979	-3,240	0,044	-0,022
-157,964	-75,946	0,114	-0,029
-156,950	-180,870	0,142	0,002
-155,935	800,000	-0,041	0,100
-154,920	-200,000	0,010	-0,096
-153,906	-200,000	-0,006	0,028
-152,891	800,000	0,015	0,034
-151,877	33,085	-0,034	0,021
-150,862	-200,000	0,008	-0,027
-149,847	800,000	-0,016	-0,043
-148,833	82,739	-0,060	0,046
-147,818	30,741	0,136	0,082
-146,804	82,428	0,061	0,047
-145,789	800,000	0,021	0,055
-144,775	800,000	0,014	-0,039
-143,760	713,043	0,020	0,037
-142,745	-200,000	-0,027	-0,090
-141,731	-200,000	0,007	-0,123
-140,716	-95,114	0,102	0,019
-139,702	101,053	-0,055	0,046
-138,687	241,408	0,026	-0,031
-137,672	-200,000	0,022	0,000
-136,658	75,750	-0,060	-0,045
-135,643	181,686	-0,089	0,093
-134,629	-122,788	0,159	-0,018
-133,614	99,069	-0,106	0,087
-132,599	145,409	-0,054	0,052
-131,585	-19,012	-0,124	0,055
-130,570	-11,070	-0,115	0,054
-129,556	39,486	-0,131	-0,083
-128,541	-60,711	-0,079	0,024
-127,526	800,000	-0,041	0,100
-126,512	160,551	-0,109	0,108
-125,497	800,000	-0,039	0,092
-124,483	-53,249	0,080	0,026
-123,468	800,000	-0,074	-0,150
-122,453	56,080	-0,042	0,029
-121,439	-131,325	0,132	0,012
-120,424	-93,269	-0,105	-0,021
-119,410	-126,142	0,072	0,008
-118,395	281,840	0,132	0,169
-117,380	129,535	-0,046	0,042
-116,366	-3,162	0,114	0,056
-115,351	110,809	-0,110	-0,094
-114,337	-112,676	-0,071	-0,010
-113,322	-200,000	0,020	-0,116
-112,307	116,887	-0,057	-0,050
-111,293	-200,000	-0,007	0,189
-110,278	800,000	-0,016	0,039
-109,264	-64,234	-0,052	-0,015
-108,249	-79,959	-0,059	0,014
-107,234	-58,290	0,014	-0,004
-106,220	-13,949	-0,127	-0,058
-105,205	800,000	-0,045	-0,095
-104,191	328,572	-0,020	-0,027
-103,176	27,876	-0,085	0,051
-102,162	84,577	0,045	0,035
-101,147	-200,000	-0,009	0,104
-100,132	0,672	-0,048	-0,024
-99,118	331,941	-0,121	0,167
-98,103	800,000	-0,053	-0,140
-97,089	138,916	-0,043	-0,040
-96,074	21,737	0,078	-0,045
-95,059	-47,158	0,109	0,037
-94,045	800,000	0,006	-0,014
-93,030	63,728	-0,073	-0,052
-92,016	106,303	-0,133	-0,112
-91,001	-200,000	-0,024	-0,077
-89,986	-200,000	0,005	0,081
-88,972	-94,180	-0,030	0,006
-87,957	-200,000	-0,009	0,104
-86,943	800,000	-0,030	-0,077
-85,928	-200,000	0,012	-0,068
-84,913	-200,000	-0,035	-0,179
-83,899	-200,000	-0,006	-0,069
-82,884	-19,251	-0,073	0,032
-81,870	-4,360	0,068	-0,033
-80,855	402,797	0,007	0,010
-79,840	139,365	-0,039	0,036
-78,826	-160,708	-0,085	0,003
-77,811	-73,159	-0,023	0,006
-76,797	-200,000	0,006	0,028
-75,782	-200,000	-0,011	0,119
-74,767	800,000	-0,013	-0,041
-73,753	250,214	0,027	0,033
-72,738	114,045	0,037	-0,032
-71,724	133,078	0,062	-0,057
-70,709	-200,000	-0,011	-0,119
-69,694	104,883	-0,124	-0,104
-68,680	-25,844	0,016	-0,006
-67,665	-150,489	0,025	-0,001
-66,651	800,000	0,070	0,139
-65,636	800,000	-0,039	0,114
-64,622	47,220	-0,041	0,027
-63,607	538,372	0,014	0,024
-62,592	-200,000	-0,011	-0,083
-61,578	-3,110	-0,048	0,023
-60,563	36,142	-0,076	-0,048
-59,549	215,153	-0,043	-0,048
-58,534	-63,181	-1,302	-0,378
-57,519	326,955	-1,676	-2,285
-56,505	-200,000	-0,455	-4,527
-55,490	124,296	0,888	0,792
-54,476	800,000	4,764	11,309
-53,461	-200,000	17,369	269,798
-52,446	800,000	715,533	2182,658
-51,432	552,154	1629,667	2787,770
-50,417	81,398	1655,063	1268,145
-49,403	24,448	1529,560	895,137
-48,388	18,447	1453,045	821,473
-47,373	18,581	1442,568	816,159
-46,359	18,339	1433,309	809,735
-45,344	16,712	1428,611	799,332
-44,330	16,711	1426,644	798,192
-43,315	16,696	1425,096	797,225
-42,300	16,759	1423,286	796,478
-41,286	16,783	1422,318	796,019
-40,271	16,756	1420,908	795,071
-39,257	16,692	1419,672	794,047
-38,242	16,776	1418,340	793,663
-37,227	16,762	1417,020	792,827
-36,213	16,724	1415,983	792,037
-35,198	16,727	1414,789	791,354
-34,184	16,727	1413,642	790,681
-33,169	16,692	1412,366	789,770
-32,154	16,730	1411,703	789,545
-31,140	16,716	1410,161	788,587
-30,125	16,820	1408,958	788,370
-29,111	16,725	1407,821	787,256
-28,096	16,672	1407,120	786,588
-27,082	16,637	1405,763	785,635
-26,067	16,675	1404,518	785,084
-25,052	16,703	1403,509	784,621
-24,038	16,581	1402,710	783,575
-23,023	16,613	1401,583	783,063
-22,009	16,597	1400,529	782,367
-20,994	16,551	1399,781	781,705
-19,979	16,598	1398,633	781,251
-18,965	16,589	1397,678	780,643
-17,950	16,571	1396,760	780,017
-16,936	16,612	1395,785	779,633
-15,921	16,550	1394,643	778,677
-14,906	16,557	1393,648	778,121
-13,892	16,583	1392,682	777,670
-12,877	16,607	1391,785	777,252
-11,863	16,582	1390,889	776,607
-10,848	16,571	1390,140	776,105
-9,833	16,517	1389,170	775,282
-8,819	16,524	1388,028	774,648
-7,804	16,465	1387,393	773,989
-6,790	16,483	1386,103	773,321
-5,775	16,476	1385,176	772,742
-4,760	16,418	1384,509	772,076
-3,746	16,434	1383,798	771,720
-2,731	16,464	1382,662	771,195
-1,717	16,435	1381,706	770,498
-0,702	16,445	1379,844	769,475
0,313	20,203	1301,642	743,192
1,327	36,655	707,390	442,053
2,342	56,406	125,723	86,523
3,356	2,074	16,559	8,450
4,371	28,899	2,980	1,786
5,386	41,463	0,454	0,291
6,400	-200,000	0,008	0,108
7,415	-12,603	-0,274	-0,126
8,429	86,823	-0,276	-0,216
9,444	50,913	-0,341	-0,228
10,459	-80,046	-0,475	-0,112
11,473	-83,093	-0,363	-0,082
12,488	13,953	-0,212	-0,117
13,502	-102,367	-0,406	-0,068
14,517	123,305	-0,308	-0,274
15,531	152,703	-0,378	-0,366
16,546	-13,201	-0,278	-0,127
17,561	346,575	-0,270	-0,377
18,575	-36,710	-0,352	-0,133
19,590	112,649	-0,206	-0,176
20,604	-73,798	-0,200	0,051
21,619	93,085	-0,381	-0,304
22,634	97,553	-0,431	-0,351
23,648	5,789	-0,490	-0,256
24,663	10,226	-0,278	-0,149
25,677	152,890	-0,322	-0,312
26,692	176,334	-0,294	-0,303
27,707	30,985	-0,297	-0,180
28,721	95,044	-0,394	-0,317
29,736	-23,024	-0,486	-0,206
30,750	233,101	-0,343	-0,400
31,765	-39,744	-0,391	-0,144
32,780	-13,144	-0,411	-0,188
33,794	212,326	-0,330	-0,369
34,809	13,051	-0,319	-0,174
35,823	144,813	-0,284	-0,269
36,838	67,451	-0,391	-0,282
37,853	62,627	-0,437	-0,308
38,867	110,740	-0,337	-0,287
39,882	-2,174	-0,344	-0,170
40,896	60,288	-0,331	-0,231
41,911	37,611	-0,373	-0,233
42,926	91,067	-0,282	-0,223
43,940	56,843	-0,333	-0,229
44,955	37,659	-0,354	-0,222
45,969	51,495	-0,469	-0,314
46,984	-17,904	-0,432	-0,191
47,999	28,148	-0,265	-0,158
49,013	483,554	-0,171	-0,275
50,028	101,738	-0,290	-0,239
51,042	84,507	-0,305	-0,236
52,057	170,269	-0,333	-0,336
53,071	27,030	-0,398	-0,235
54,086	88,520	-0,477	-0,373
55,101	39,453	-0,419	-0,264
56,115	113,987	-0,378	-0,324
57,130	156,783	-0,344	-0,335
58,144	94,506	-0,352	-0,282
59,159	11,308	-0,369	-0,199
60,174	171,791	-0,253	-0,257
61,188	202,544	-0,314	-0,342
62,203	-7,904	-0,412	-0,195
63,217	23,103	-0,289	-0,167
64,232	264,635	-0,295	-0,363
65,247	60,345	-0,339	-0,236
66,261	196,612	-0,345	-0,371
67,276	165,372	-0,400	-0,399
68,290	23,379	-0,318	-0,184
69,305	291,941	-0,252	-0,324
70,320	59,911	-0,290	-0,202
71,334	40,611	-0,317	-0,201
72,349	275,444	-0,224	-0,280
73,363	65,894	-0,353	-0,252
74,378	45,481	-0,373	-0,242
75,393	0,912	-0,381	-0,192
76,407	-28,926	-0,286	-0,115
77,422	50,872	-0,333	-0,222
78,436	70,025	-0,195	-0,141
79,451	-68,740	-0,356	-0,096
80,466	62,449	-0,347	-0,244
81,480	71,112	-0,312	-0,228
82,495	-23,402	-0,370	-0,156
83,509	-26,232	-0,338	-0,139
84,524	85,377	-0,310	-0,240
85,539	122,879	-0,320	-0,282
86,553	296,976	-0,295	-0,381
87,568	-1,900	-0,203	-0,100
88,582	57,787	-0,353	-0,242
89,597	-16,259	-0,402	-0,179
90,611	147,763	-0,193	-0,183
91,626	-120,831	-0,277	-0,033
92,641	-76,415	-0,280	-0,069
93,655	-34,284	-0,394	-0,151
94,670	35,130	-0,245	-0,151
95,684	49,492	-0,358	-0,236
96,699	45,431	-0,299	-0,193
97,714	-12,819	-0,387	-0,176
98,728	108,865	-0,256	-0,215
99,743	760,678	-0,152	-0,292
100,757	73,349	-0,250	-0,184
101,772	15,913	-0,228	-0,126
102,787	31,500	-0,360	-0,217
103,801	32,893	-0,375	-0,228
104,816	-91,807	-0,190	-0,038
105,830	685,225	-0,154	-0,284
106,845	256,448	-0,162	-0,196
107,860	-57,634	-0,271	-0,083
108,874	309,054	-0,195	-0,257
109,889	6,317	-0,310	-0,161
110,903	351,896	-0,253	-0,353
111,918	15,580	-0,356	-0,196
112,933	469,803	-0,156	-0,247
113,947	-6,344	-0,270	-0,129
114,962	77,605	-0,294	-0,219
115,976	-32,038	-0,270	-0,105
116,991	147,278	-0,190	-0,180
118,006	135,402	-0,246	-0,224
119,020	38,669	-0,267	-0,167
120,035	-71,439	-0,248	-0,065
121,049	114,459	-0,266	-0,227
122,064	195,180	-0,220	-0,234
123,079	-59,037	-0,213	-0,064
124,093	14,891	-0,364	-0,199
125,108	13,248	-0,270	-0,146
126,122	-34,487	-0,330	-0,126
127,137	89,899	-0,242	-0,189
128,151	800,000	-0,159	-0,331
129,166	149,609	-0,254	-0,241
130,181	-16,610	-0,197	-0,087
131,195	163,736	-0,243	-0,240
132,210	375,078	-0,256	-0,366
133,224	-63,154	-0,249	-0,072
134,239	370,610	-0,203	-0,289
135,254	-78,458	-0,382	-0,091
136,268	269,736	-0,230	-0,283
137,283	51,580	-0,293	-0,195
138,297	78,407	-0,263	-0,196
139,312	110,916	-0,274	-0,231
140,327	397,780	-0,202	-0,297
141,341	57,746	-0,280	-0,192
142,356	800,000	-0,108	-0,255
143,370	800,000	-0,107	-0,215
144,385	48,306	-0,338	-0,221
145,400	21,909	-0,228	-0,130
146,414	80,027	-0,384	-0,289
147,429	56,503	-0,217	-0,147
148,443	140,003	-0,170	-0,157
149,458	177,602	-0,177	-0,180
150,473	58,326	-0,235	-0,161
151,487	-127,159	-0,261	0,026
152,502	130,014	-0,141	-0,126
153,516	89,861	-0,226	-0,176
154,531	129,637	-0,214	-0,191
155,546	193,503	-0,238	-0,253
156,560	530,660	-0,118	-0,195
157,575	32,429	-0,243	-0,147
158,589	-110,386	-0,210	0,030
159,604	19,790	-0,300	-0,169
160,619	24,602	-0,278	-0,160
161,633	800,000	-0,118	-0,333
162,648	12,201	-0,122	-0,065
163,662	-200,000	-0,293	0,000
164,677	-39,978	-0,255	-0,093
165,692	65,906	-0,140	-0,099
166,706	311,283	-0,148	-0,195
167,721	110,099	-0,290	-0,243
168,735	0,115	-0,199	-0,099
169,750	-3,416	-0,203	-0,098
170,764	95,227	-0,214	-0,170
171,779	12,896	-0,222	-0,120
172,794	111,736	-0,282	-0,238
173,808	-57,088	-0,252	-0,077
174,823	145,838	-0,222	-0,208
175,837	-16,730	-0,293	-0,129
176,852	40,888	-0,277	-0,174
177,867	473,460	-0,161	-0,255
178,881	-52,284	-0,233	-0,075
179,896	-83,934	-0,160	-0,035
180,910	123,101	-0,210	-0,184
181,925	-25,576	-0,295	-0,121
182,940	98,317	-0,255	-0,205
183,954	-43,088	-0,247	-0,087
184,969	-8,948	-0,215	-0,100
185,983	113,725	-0,140	-0,119
186,998	-63,744	-0,232	-0,066
188,013	800,000	-0,076	-0,170
189,027	78,361	-0,207	-0,154
190,042	290,123	-0,214	-0,272
191,056	244,160	-0,178	-0,209
192,071	45,468	-0,167	-0,108
193,086	16,078	-0,209	-0,114
194,100	72,165	-0,274	-0,199
195,115	134,358	-0,169	-0,152
196,129	22,743	-0,307	-0,175
197,144	-60,837	-0,189	-0,056
198,159	-98,225	-0,283	-0,050
199,173	71,756	-0,163	-0,118
200,188	569,339	-0,086	-0,147
201,202	37,894	-0,200	-0,124
202,217	-168,000	-0,156	-0,004
203,232	-88,606	-0,274	-0,056
204,246	357,009	-0,146	-0,203
205,261	167,863	-0,184	-0,183
206,275	248,033	-0,138	-0,162
207,290	93,558	-0,176	-0,139
208,304	-132,585	-0,170	0,015
209,319	53,151	-0,215	-0,143
210,334	131,510	-0,206	-0,185
211,348	11,857	-0,327	-0,174
212,363	101,855	-0,206	-0,167
213,377	92,806	-0,153	-0,120
214,392	401,697	-0,077	-0,113
215,407	246,284	-0,146	-0,171
216,421	-162,044	-0,165	-0,006
217,436	800,000	-0,062	-0,133
218,450	293,001	-0,134	-0,171
219,465	-33,780	-0,220	-0,084
220,480	158,574	-0,238	-0,230
221,494	1,867	-0,124	-0,062
222,509	-27,950	-0,211	-0,085
223,523	-90,162	-0,262	-0,052
224,538	-127,872	-0,268	-0,027
225,553	-10,430	-0,245	-0,112
226,567	177,833	-0,199	-0,202
227,582	51,520	-0,208	-0,137
228,596	-145,422	-0,159	-0,010
229,611	-94,974	-0,074	0,014
230,626	513,292	-0,106	-0,172
231,640	144,720	-0,159	-0,147
232,655	145,494	-0,216	-0,201
233,669	-200,000	-0,058	-0,263
234,684	97,592	-0,198	-0,158
235,699	40,762	-0,265	-0,165
236,713	205,795	-0,129	-0,139
237,728	28,622	-0,115	-0,067
238,742	-42,428	-0,156	-0,055
239,757	-118,884	-0,282	-0,034
240,772	336,112	-0,192	-0,259
241,786	219,089	-0,205	-0,228
242,801	257,405	-0,234	-0,280
243,815	140,340	-0,083	-0,076
244,830	-20,522	-0,227	-0,096
245,844	-124,639	-0,277	-0,029
246,859	70,875	-0,180	-0,129
247,874	130,625	-0,129	-0,115
248,888	34,439	-0,159	-0,096
249,903	800,000	-0,125	-0,287
250,917	225,794	-0,207	-0,234
251,932	345,158	-0,090	-0,123
252,947	192,812	-0,227	-0,238
253,961	-17,966	-0,254	-0,110
254,976	-84,433	-0,234	-0,051
255,990	20,329	-0,234	-0,131
257,005	-26,849	-0,169	-0,068
258,020	-10,789	-0,100	0,046
259,034	87,719	-0,174	-0,134
260,049	82,589	-0,146	0,109
261,063	-54,016	-0,216	-0,068
262,078	26,421	-0,182	-0,105
263,093	70,457	-0,276	-0,198
264,107	-20,209	-0,151	-0,064
265,122	800,000	-0,071	-0,196
266,136	130,153	-0,115	-0,102
267,151	-140,550	-0,213	-0,015
268,166	18,209	-0,152	-0,084
269,180	274,076	-0,238	-0,292
270,195	-31,724	-0,204	-0,079
271,209	-34,294	-0,092	0,035
272,224	-161,350	-0,221	0,008
273,239	197,751	-0,139	-0,148
274,253	800,000	-0,069	-0,204
275,268	-35,473	-0,079	-0,030
276,282	-43,776	-0,127	-0,044
277,297	714,661	-0,098	-0,181
278,312	800,000	-0,082	-0,238
279,326	-63,482	-0,137	-0,039
280,341	399,200	-0,050	0,072
281,355	-92,307	-0,147	-0,028
282,370	221,237	-0,200	-0,222
283,384	-93,955	-0,226	-0,042
284,399	22,181	-0,299	-0,168
285,414	213,578	-0,123	-0,134
286,428	297,047	-0,149	-0,189
287,443	578,362	-0,105	-0,178
288,457	-110,467	-0,078	0,011
289,472	800,000	-0,070	-0,140
290,487	701,344	-0,124	-0,226
291,501	367,719	-0,217	-0,303
292,516	46,690	-0,228	-0,146
293,530	166,261	-0,092	-0,090
294,545	501,460	-0,079	0,126
295,560	175,254	-0,117	-0,117
296,574	129,662	-0,213	-0,188
297,589	228,224	-0,202	-0,228
298,603	443,755	-0,113	-0,172
299,618	259,651	-0,139	-0,167
300,633	-69,579	-0,078	-0,020
301,647	-200,000	-0,045	-0,142
302,662	-9,152	-0,140	-0,065
303,676	-110,656	-0,072	-0,010
304,691	199,357	-0,124	-0,131
305,706	537,241	-0,131	-0,216
306,720	-200,000	0,016	-0,241
307,735	722,481	-0,113	-0,208
308,749	-200,000	-0,002	-0,115
309,764	-200,000	-0,035	-0,112
310,779	278,000	-0,103	-0,127
311,793	-200,000	-0,018	-0,167
312,808	-17,057	-0,255	-0,110
313,822	470,872	-0,059	-0,092
314,837	-165,852	-0,152	0,004
315,852	-73,871	-0,098	0,024
316,866	-20,787	-0,190	0,080
317,881	-18,903	-0,131	-0,056
318,895	76,208	-0,137	-0,100
319,910	160,762	-0,118	-0,114
320,925	273,222	-0,205	-0,250
321,939	380,575	-0,117	-0,166
322,954	77,287	-0,177	-0,130
323,968	-114,267	-0,094	-0,012
324,983	141,517	-0,120	-0,109
325,997	-200,000	-0,081	-0,252
327,012	64,084	-0,148	-0,102
328,027	138,950	-0,151	-0,137
329,041	398,071	-0,094	-0,135
330,056	139,548	-0,170	-0,154
331,070	-90,145	-0,141	-0,028
332,085	-53,372	-0,267	0,084
333,100	-79,601	-0,111	-0,025
334,114	-84,232	-0,228	-0,049
335,129	752,868	-0,047	-0,089
336,143	-200,000	-0,040	-0,283
337,158	376,604	-0,082	-0,116
338,173	-163,500	-0,190	-0,006
339,187	142,826	-0,086	-0,079
340,202	-33,458	-0,115	0,044
341,216	156,174	-0,136	-0,129
342,231	360,551	-0,171	-0,236
343,246	278,423	-0,146	-0,179
344,260	-18,670	-0,131	-0,056
345,275	1,588	-0,104	-0,051
346,289	300,948	-0,064	-0,081
347,304	178,931	-0,183	-0,184
348,319	-30,564	-0,239	-0,093
349,333	-4,032	-0,243	-0,116
350,348	199,796	-0,129	-0,137
351,362	-78,123	-0,103	0,024
352,377	-53,652	-0,109	-0,034
353,392	-10,317	-0,106	-0,048
354,406	800,000	-0,061	-0,131
355,421	209,663	1314,400	1418,317
356,435	161,373	1475,129	1418,847
