DTS Sentinel unit serial number:	SN410029Multiplexer serial number:	ORYXHardware model number:	OX2-SRSoftware version number:	ORYX F/W v4,00 Oryx Data Collector v3.7.2.0data status	okinstallation	B3 Nyhavnadifferential loss correction	single-endedforward channel	channel 1reverse channel	N/Adate	2023/12/03time	11:17:30forward acquisition time	300,00reverse acquisition time	0,00gamma	499,1914k internal	0,3201k external	0,3201temperature offset calibration	1,0000default loss term (dB/km)	0,3820temperature slope calibration	1,0000multiplexer offset coefficient	1,0000multiplexer slope coefficient	1,0000fibre end	0,00T internal ref (°C)	13,50T ext. ref 1 (°C)	-1,27T ext. ref 2 (°C)	-1,27length (m)	temperature (°C)	Stokes	anti-Stokes-744,400	274,613	-0,207	-0,267
-743,385	-200,000	-0,058	0,274
-742,371	39,245	-0,195	-0,127
-741,356	303,579	0,189	0,256
-740,342	29,917	-0,223	-0,138
-739,327	-200,000	0,073	0,320
-738,312	129,537	-0,218	-0,203
-737,298	-200,000	-0,046	0,247
-736,283	34,297	-0,279	-0,176
-735,269	800,000	0,087	0,228
-734,254	268,835	-0,170	-0,217
-733,239	37,343	-0,170	0,109
-732,225	103,743	-0,143	-0,122
-731,210	468,916	0,189	0,310
-730,196	320,006	-0,043	-0,060
-729,181	-117,613	0,087	-0,011
-728,167	-200,000	-0,017	0,154
-727,152	-200,000	-0,014	-0,066
-726,137	333,720	-0,089	-0,126
-725,123	-146,299	-0,196	-0,012
-724,108	246,993	0,076	-0,093
-723,094	-200,000	-0,005	-0,049
-722,079	31,055	-0,157	-0,097
-721,064	-34,058	0,072	-0,029
-720,050	800,000	-0,029	-0,062
-719,035	-104,312	0,130	-0,022
-718,021	72,208	-0,110	-0,083
-717,006	105,048	-0,143	-0,123
-715,991	-32,917	-0,106	-0,043
-714,977	64,617	0,051	-0,037
-713,962	206,891	0,055	0,063
-712,948	-200,000	0,002	-0,010
-711,933	136,489	-0,026	-0,025
-710,918	169,918	-0,059	-0,061
-709,904	692,070	0,007	-0,013
-708,889	167,436	-0,094	-0,097
-707,875	187,021	-0,113	-0,122
-706,860	800,000	-0,013	-0,039
-705,845	59,724	0,095	-0,068
-704,831	91,319	0,011	-0,009
-703,816	-200,000	0,041	-0,163
-702,802	-101,756	0,084	-0,015
-701,787	-1,964	-0,035	0,018
-700,772	-200,000	0,014	-0,138
-699,758	53,522	0,073	-0,051
-698,743	767,358	0,045	0,089
-697,729	-200,000	0,011	0,071
-696,714	800,000	0,033	0,074
-695,699	-37,120	-0,076	-0,030
-694,685	-200,000	-0,011	-0,049
-693,670	-66,252	-0,198	-0,057
-692,656	800,000	0,014	-0,040
-691,641	-79,189	0,113	0,028
-690,627	-200,000	0,008	0,028
-689,612	-200,000	-0,012	0,110
-688,597	-64,908	0,036	0,010
-687,583	-200,000	-0,029	-0,118
-686,568	525,196	-0,060	-0,104
-685,554	-179,071	-0,088	-0,001
-684,539	203,110	-0,064	-0,072
-683,524	10,113	0,032	-0,017
-682,510	169,079	-0,030	0,031
-681,495	227,256	-0,070	0,083
-680,481	115,858	0,039	-0,034
-679,466	71,857	-0,111	-0,084
-678,451	245,394	0,046	-0,057
-677,437	236,431	0,039	-0,047
-676,422	-119,331	-0,095	-0,012
-675,408	79,120	0,113	0,088
-674,393	-131,882	0,043	-0,004
-673,378	800,000	-0,027	-0,082
-672,364	325,122	-0,108	-0,151
-671,349	800,000	-0,052	0,107
-670,335	-170,219	0,065	0,002
-669,320	-200,000	-0,000	-0,021
-668,305	-106,208	0,088	-0,014
-667,291	111,961	0,055	0,048
-666,276	-200,000	0,009	-0,034
-665,262	51,361	-0,155	-0,107
-664,247	800,000	0,035	-0,111
-663,232	-138,048	-0,111	0,009
-662,218	222,125	0,011	0,013
-661,203	343,994	0,033	0,046
-660,189	-179,778	0,048	-0,001
-659,174	226,842	-0,006	-0,007
-658,159	-200,000	0,010	-0,124
-657,145	375,675	-0,051	-0,076
-656,130	-158,375	0,053	0,002
-655,116	258,843	0,019	-0,024
-654,101	34,701	-0,058	0,036
-653,086	800,000	-0,078	0,232
-652,072	1,207	-0,144	0,075
-651,057	-1,752	-0,136	-0,069
-650,043	57,505	0,019	0,014
-649,028	-120,281	0,057	-0,007
-648,014	92,523	-0,045	-0,037
-646,999	-28,345	-0,082	-0,034
-645,984	-200,000	-0,008	-0,063
-644,970	-90,656	-0,170	-0,035
-643,955	800,000	0,049	-0,143
-642,941	-200,000	-0,049	-0,162
-641,926	800,000	-0,059	0,180
-640,911	318,536	-0,036	0,050
-639,897	197,222	0,086	-0,095
-638,882	-200,000	-0,013	0,136
-637,868	-200,000	-0,012	-0,080
-636,853	-29,829	-0,191	-0,078
-635,838	-200,000	0,009	-0,092
-634,824	153,944	0,045	0,044
-633,809	326,901	-0,066	0,092
-632,795	800,000	-0,026	0,074
-631,780	578,029	0,081	0,145
-630,765	-99,328	-0,049	-0,009
-629,751	275,630	0,020	-0,025
-628,736	2,168	-0,126	-0,066
-627,722	260,160	-0,073	-0,092
-626,707	145,693	0,073	-0,071
-625,692	58,896	-0,095	0,067
-624,678	-200,000	0,011	0,054
-623,663	-200,000	-0,003	0,164
-622,649	-200,000	-0,022	0,109
-621,634	-105,908	-0,092	0,015
-620,619	-200,000	0,007	-0,026
-619,605	301,842	-0,066	-0,088
-618,590	91,018	-0,067	0,055
-617,576	-69,546	0,083	-0,023
-616,561	-105,448	0,180	-0,029
-615,546	-200,000	-0,021	-0,094
-614,532	-200,000	0,045	-0,174
-613,517	-200,000	0,013	-0,051
-612,503	446,069	-0,052	-0,082
-611,488	-138,497	-0,053	-0,004
-610,474	360,779	0,066	0,096
-609,459	-200,000	0,005	-0,055
-608,444	-200,000	-0,000	-0,036
-607,430	13,850	-0,075	0,042
-606,415	-200,000	-0,009	-0,053
-605,401	780,435	-0,040	0,080
-604,386	56,919	0,085	0,060
-603,371	63,847	0,052	0,038
-602,357	43,996	-0,049	0,032
-601,342	800,000	0,036	-0,092
-600,328	-100,345	-0,051	-0,009
-599,313	56,013	-0,127	0,089
-598,298	473,821	-0,052	0,085
-597,284	-17,218	0,189	0,086
-596,269	-65,884	-0,140	-0,040
-595,255	-174,830	-0,091	-0,002
-594,240	-200,000	-0,004	-0,061
-593,225	-200,000	-0,012	-0,095
-592,211	221,298	0,022	0,026
-591,196	-39,960	-0,083	-0,031
-590,182	399,092	-0,095	0,145
-589,167	-200,000	0,001	0,053
-588,152	534,087	-0,044	-0,075
-587,138	51,469	0,063	0,044
-586,123	492,205	-0,015	0,025
-585,109	-111,270	-0,148	-0,022
-584,094	-200,000	0,004	-0,053
-583,079	-200,000	0,011	-0,171
-582,065	51,398	-0,104	0,071
-581,050	-200,000	-0,022	-0,106
-580,036	174,166	-0,049	0,051
-579,021	167,146	-0,032	0,033
-578,006	106,751	-0,084	0,072
-576,992	-91,484	-0,132	-0,027
-575,977	-3,858	0,170	0,085
-574,963	449,257	0,130	0,208
-573,948	66,997	-0,042	0,031
-572,934	30,377	-0,053	0,033
-571,919	99,953	-0,183	-0,153
-570,904	-26,009	-0,103	-0,044
-569,890	59,070	0,052	0,037
-568,875	111,301	0,111	0,096
-567,861	79,117	0,042	0,033
-566,846	-55,574	0,108	-0,035
-565,831	800,000	-0,041	0,118
-564,817	-49,609	0,028	-0,010
-563,802	-167,947	-0,202	-0,006
-562,788	-155,398	-0,071	0,003
-561,773	74,806	0,036	-0,028
-560,758	508,382	0,075	0,127
-559,744	25,200	0,074	0,044
-558,729	800,000	-0,063	0,199
-557,715	191,623	-0,046	0,050
-556,700	-200,000	0,006	0,044
-555,685	-147,458	-0,034	-0,002
-554,671	43,901	0,057	0,038
-553,656	-133,611	0,022	0,002
-552,642	-10,186	0,052	0,025
-551,627	-200,000	0,025	-0,166
-550,612	-101,056	-0,077	0,014
-549,598	-81,806	0,044	-0,010
-548,583	-200,000	-0,003	0,036
-547,569	800,000	-0,039	-0,123
-546,554	-200,000	-0,005	0,052
-545,539	169,077	0,040	-0,041
-544,525	-123,201	0,112	-0,013
-543,510	800,000	-0,037	-0,106
-542,496	800,000	0,051	-0,142
-541,481	-51,689	-0,046	-0,016
-540,466	-200,000	-0,019	-0,192
-539,452	-88,398	0,088	-0,019
-538,437	270,412	0,090	0,114
-537,423	-200,000	0,027	0,091
-536,408	-10,457	-0,060	-0,029
-535,393	800,000	-0,026	0,061
-534,379	-200,000	0,004	-0,160
-533,364	800,000	-0,039	0,086
-532,350	-136,166	-0,174	-0,014
-531,335	-124,757	0,133	0,015
-530,321	-101,743	0,059	-0,010
-529,306	321,372	0,015	0,021
-528,291	155,698	0,038	-0,038
-527,277	447,184	0,047	-0,075
-526,262	-120,222	0,076	0,009
-525,248	312,971	0,018	0,024
-524,233	-122,300	0,084	0,010
-523,218	249,690	0,077	0,095
-522,204	-97,240	-0,101	0,019
-521,189	98,314	-0,064	-0,053
-520,175	-39,518	-0,165	-0,062
-519,160	560,913	0,030	0,053
-518,145	237,024	-0,058	0,070
-517,131	619,533	-0,020	0,036
-516,116	-31,028	0,195	0,079
-515,102	657,214	-0,017	0,031
-514,087	-148,991	-0,142	0,008
-513,072	-137,389	0,083	0,007
-512,058	12,137	-0,057	-0,032
-511,043	-200,000	-0,005	0,163
-510,029	-21,377	-0,106	-0,047
-509,014	800,000	-0,026	-0,052
-507,999	-200,000	0,018	-0,082
-506,985	-200,000	-0,026	-0,087
-505,970	-87,278	-0,068	-0,015
-504,956	158,233	0,127	-0,127
-503,941	49,742	0,009	0,006
-502,926	-101,059	0,091	0,016
-501,912	30,557	0,059	0,036
-500,897	800,000	-0,002	-0,004
-499,883	5,709	0,067	-0,036
-498,868	122,862	0,023	0,020
-497,853	-200,000	-0,012	-0,127
-496,839	-60,567	0,116	0,035
-495,824	-200,000	0,021	0,121
-494,810	-200,000	0,001	0,028
-493,795	-60,322	-0,180	0,055
-492,781	-200,000	-0,028	-0,096
-491,766	800,000	0,073	-0,146
-490,751	800,000	0,015	-0,030
-489,737	35,809	-0,070	0,045
-488,722	45,967	0,065	-0,044
-487,708	327,196	0,039	0,054
-486,693	142,168	0,014	-0,013
-485,678	74,188	0,069	-0,052
-484,664	-76,860	-0,092	0,023
-483,649	22,271	-0,102	0,060
-482,635	-200,000	-0,012	-0,048
-481,620	74,208	0,085	-0,064
-480,605	-89,870	0,038	-0,008
-479,591	800,000	0,012	0,036
-478,576	-132,438	-0,113	-0,010
-477,562	120,927	-0,185	0,166
-476,547	-200,000	-0,015	-0,104
-475,532	57,707	-0,134	0,094
-474,518	-200,000	0,028	-0,091
-473,503	422,047	0,068	0,105
-472,489	-88,358	-0,140	0,030
-471,474	514,453	-0,035	-0,059
-470,459	-0,805	-0,023	-0,012
-469,445	663,485	-0,014	0,027
-468,430	-160,788	-0,202	-0,008
-467,416	186,055	0,082	-0,088
-466,401	207,975	0,034	0,038
-465,386	-55,837	0,042	0,014
-464,372	-1,205	-0,126	0,064
-463,357	-200,000	0,011	-0,089
-462,343	800,000	-0,071	-0,190
-461,328	389,502	0,022	-0,033
-460,313	800,000	-0,031	0,068
-459,299	420,698	0,075	0,116
-458,284	162,049	0,030	0,031
-457,270	16,575	0,116	0,066
-456,255	800,000	0,013	-0,028
-455,241	-9,423	-0,156	-0,075
-454,226	-72,473	0,065	0,017
-453,211	396,438	0,042	-0,063
-452,197	112,522	0,077	0,067
-451,182	222,877	0,134	0,156
-450,168	102,402	-0,023	-0,019
-449,153	-200,000	-0,002	0,025
-448,138	71,166	-0,023	-0,017
-447,124	260,803	-0,041	-0,052
-446,109	-20,625	0,127	0,056
-445,095	-172,301	0,033	-0,001
-444,080	32,330	0,090	-0,056
-443,065	-92,291	0,107	-0,021
-442,051	-200,000	-0,017	-0,080
-441,036	12,831	-0,079	-0,044
-440,022	-156,612	0,025	0,001
-439,007	-200,000	0,014	-0,131
-437,992	63,507	0,112	-0,081
-436,978	-105,177	0,164	0,027
-435,963	139,464	-0,093	0,088
-434,949	263,312	-0,032	-0,040
-433,934	800,000	-0,075	0,166
-432,919	466,140	-0,077	-0,124
-431,905	345,810	0,124	0,175
-430,890	-131,271	0,101	-0,009
-429,876	-200,000	0,007	0,134
-428,861	22,773	0,094	0,055
-427,846	-120,432	-0,031	0,004
-426,832	-200,000	-0,010	-0,114
-425,817	120,637	-0,074	-0,066
-424,803	53,373	0,151	-0,104
-423,788	-84,609	0,097	-0,022
-422,773	-187,274	0,101	-0,001
-421,759	-200,000	-0,023	0,093
-420,744	92,407	-0,080	0,065
-419,730	-200,000	0,012	-0,136
-418,715	-200,000	0,004	-0,037
-417,701	375,857	0,049	0,072
-416,686	81,157	0,044	0,034
-415,671	-200,000	0,004	0,018
-414,657	19,496	0,100	0,058
-413,642	-200,000	0,006	-0,029
-412,628	-200,000	0,010	-0,069
-411,613	800,000	0,053	-0,147
-410,598	-26,610	0,101	-0,042
-409,584	800,000	0,019	0,044
-408,569	-200,000	-0,033	0,123
-407,555	-200,000	-0,009	0,134
-406,540	-47,588	0,094	0,033
-405,525	-51,543	-0,136	-0,045
-404,511	800,000	0,031	-0,068
-403,496	45,662	-0,110	-0,073
-402,482	-200,000	0,019	0,104
-401,467	-105,702	-0,055	0,009
-400,452	281,635	0,065	-0,084
-399,438	-68,233	0,109	-0,030
-398,423	759,897	0,039	0,076
-397,409	77,669	-0,064	0,049
-396,394	229,886	-0,078	-0,091
-395,379	-128,805	0,131	0,013
-394,365	99,252	-0,133	-0,110
-393,350	492,349	0,067	-0,110
-392,336	800,000	-0,030	-0,066
-391,321	-73,294	-0,035	0,009
-390,306	49,527	0,027	0,018
-389,292	-100,911	-0,044	-0,008
-388,277	276,820	0,082	0,104
-387,263	546,685	0,045	-0,078
-386,248	539,435	0,057	-0,098
-385,233	11,374	-0,079	0,043
-384,219	-200,000	-0,009	0,099
-383,204	495,771	0,063	-0,104
-382,190	70,248	-0,068	-0,051
-381,175	-200,000	-0,001	-0,067
-380,160	205,178	-0,045	-0,050
-379,146	-88,456	0,087	-0,018
-378,131	-200,000	-0,007	0,066
-377,117	-147,331	-0,016	-0,001
-376,102	-147,902	-0,141	-0,008
-375,088	148,763	-0,087	-0,084
-374,073	800,000	0,009	0,025
-373,058	650,301	-0,054	-0,099
-372,044	157,725	0,063	0,063
-371,029	499,639	0,071	0,118
-370,015	800,000	0,009	0,020
-369,000	137,417	-0,109	0,102
-367,985	-200,000	0,005	-0,114
-366,971	800,000	0,050	-0,104
-365,956	-96,815	-0,042	0,008
-364,942	-129,410	0,197	0,019
-363,927	388,187	0,030	-0,044
-362,912	800,000	0,089	0,187
-361,898	17,962	0,143	-0,082
-360,883	800,000	0,039	-0,081
-359,869	58,584	-0,103	0,073
-358,854	-200,000	-0,051	0,223
-357,839	-200,000	0,015	-0,145
-356,825	472,142	0,075	0,121
-355,810	-67,561	0,013	-0,004
-354,796	759,642	0,071	0,138
-353,781	-102,149	-0,101	0,017
-352,766	-127,739	-0,183	0,019
-351,752	-5,272	0,113	0,055
-350,737	39,105	0,069	0,044
-349,723	800,000	-0,033	0,085
-348,708	108,655	0,077	0,066
-347,693	-21,952	0,084	0,036
-346,679	-200,000	0,001	0,082
-345,664	-200,000	0,021	-0,124
-344,650	487,709	-0,062	0,101
-343,635	-179,171	0,070	0,001
-342,620	-101,856	0,081	0,014
-341,606	-2,793	-0,024	-0,012
-340,591	174,481	0,140	0,145
-339,577	651,922	0,005	0,010
-338,562	-200,000	-0,004	-0,124
-337,548	404,221	0,077	-0,116
-336,533	-128,754	0,064	-0,006
-335,518	-200,000	0,011	0,049
-334,504	800,000	0,016	0,043
-333,489	-200,000	-0,003	-0,045
-332,475	102,700	-0,166	0,139
-331,460	117,155	0,054	0,048
-330,445	-200,000	0,017	0,094
-329,431	123,449	0,106	-0,096
-328,416	-184,372	-0,180	0,002
-327,402	-200,000	0,020	0,152
-326,387	-69,867	-0,029	-0,008
-325,372	-1,483	-0,080	-0,040
-324,358	-200,000	0,040	-0,171
-323,343	-200,000	-0,010	-0,131
-322,329	-200,000	0,011	0,052
-321,314	800,000	-0,030	-0,064
-320,299	-118,939	0,089	-0,011
-319,285	-68,024	-0,068	0,019
-318,270	-200,000	-0,017	-0,070
-317,256	-65,347	-0,073	0,021
-316,241	-200,000	-0,016	-0,060
-315,226	320,697	-0,042	-0,057
-314,212	9,086	0,136	-0,073
-313,197	-200,000	-0,012	0,151
-312,183	335,251	0,063	-0,087
-311,168	507,333	0,028	0,046
-310,153	800,000	-0,034	-0,105
-309,139	223,943	0,079	-0,092
-308,124	-200,000	-0,014	0,097
-307,110	-200,000	-0,008	0,047
-306,095	-167,083	0,117	-0,003
-305,080	-19,017	-0,073	0,033
-304,066	162,822	-0,061	-0,061
-303,051	-200,000	0,041	-0,141
-302,037	194,577	-0,123	-0,133
-301,022	-76,221	0,060	-0,015
-300,008	47,311	0,078	0,052
-298,993	-173,240	0,001	0,000
-297,978	89,019	-0,075	0,060
-296,964	247,384	0,054	-0,065
-295,949	-105,249	-0,108	-0,017
-294,935	95,291	-0,105	-0,085
-293,920	-87,236	0,019	-0,004
-292,905	-63,310	0,027	0,008
-291,891	-200,000	-0,003	-0,122
-290,876	-200,000	-0,007	-0,059
-289,862	222,287	-0,010	-0,011
-288,847	-154,179	0,061	-0,003
-287,832	-200,000	-0,094	0,000
-286,818	406,315	0,028	0,042
-285,803	36,186	-0,019	0,012
-284,789	474,740	0,096	0,155
-283,774	87,200	0,096	0,076
-282,759	-3,667	-0,046	-0,023
-281,745	159,169	0,067	-0,067
-280,730	154,527	-0,072	-0,071
-279,716	768,906	0,024	-0,047
-278,701	-200,000	-0,008	0,079
-277,686	-55,063	0,236	0,075
-276,672	693,738	0,059	0,111
-275,657	-54,004	0,060	-0,019
-274,643	605,924	-0,036	0,064
-273,628	-200,000	0,002	-0,178
-272,613	-76,238	-0,202	-0,051
-271,599	-53,911	0,054	-0,017
-270,584	-113,670	0,104	-0,014
-269,570	104,744	0,115	0,097
-268,555	-200,000	0,008	-0,026
-267,540	-97,180	-0,129	-0,024
-266,526	-136,083	-0,075	0,006
-265,511	220,153	-0,034	-0,040
-264,497	800,000	0,057	-0,121
-263,482	-200,000	-0,006	0,042
-262,467	-4,287	-0,069	0,034
-261,453	-200,000	-0,026	0,095
-260,438	18,131	0,032	-0,018
-259,424	-200,000	-0,019	0,086
-258,409	-200,000	-0,020	0,106
-257,395	306,756	0,025	-0,034
-256,380	800,000	-0,003	-0,008
-255,365	222,278	0,077	-0,089
-254,351	-200,000	-0,019	-0,097
-253,336	-67,288	-0,148	0,041
-252,322	340,878	-0,008	-0,011
-251,307	-200,000	0,013	-0,047
-250,292	-200,000	-0,012	-0,082
-249,278	-71,118	0,077	0,021
-248,263	28,488	0,094	-0,057
-247,249	130,197	-0,047	0,043
-246,234	335,953	-0,089	-0,124
-245,219	-145,706	-0,065	-0,004
-244,205	519,538	-0,105	-0,177
-243,190	157,880	0,135	0,133
-242,176	-200,000	-0,028	0,116
-241,161	-93,812	0,097	-0,019
-240,146	75,081	-0,053	-0,040
-239,132	-66,659	-0,047	0,013
-238,117	-64,414	0,094	0,027
-237,103	513,547	0,036	-0,060
-236,088	545,053	-0,074	0,126
-235,073	275,801	0,088	0,112
-234,059	-200,000	-0,011	0,100
-233,044	800,000	0,030	-0,092
-232,030	-107,861	-0,040	0,006
-231,015	117,041	-0,082	0,072
-230,000	-200,000	0,000	-0,011
-228,986	34,765	-0,116	-0,072
-227,971	104,129	0,044	0,037
-226,957	-3,997	-0,016	0,008
-225,942	-144,800	-0,087	0,006
-224,927	-50,452	-0,106	-0,035
-223,913	-200,000	-0,062	-0,200
-222,898	-182,806	-0,086	-0,001
-221,884	175,625	0,053	-0,055
-220,869	603,665	-0,048	-0,085
-219,855	48,018	-0,039	0,026
-218,840	-200,000	0,015	0,121
-217,825	226,223	-0,068	0,078
-216,811	64,896	0,038	-0,027
-215,796	-73,502	0,088	-0,023
-214,782	-53,052	-0,101	-0,033
-213,767	-7,623	0,039	0,019
-212,752	-6,374	0,133	-0,064
-211,738	782,396	0,099	0,194
-210,723	81,971	-0,066	0,051
-209,709	800,000	0,057	-0,123
-208,694	223,041	-0,139	-0,159
-207,679	800,000	-0,072	-0,160
-206,665	199,284	0,071	-0,078
-205,650	273,224	0,095	0,120
-204,636	-66,098	0,095	0,027
-203,621	-200,000	-0,053	0,172
-202,606	-200,000	0,018	0,077
-201,592	479,387	0,047	0,077
-200,577	238,901	-0,071	-0,084
-199,563	225,755	0,077	0,089
-198,548	-200,000	0,024	0,087
-197,533	800,000	-0,089	0,196
-196,519	-23,833	-0,060	0,025
-195,504	11,421	-0,121	0,066
-194,490	800,000	-0,034	-0,072
-193,475	-200,000	0,001	0,061
-192,460	621,757	-0,018	-0,033
-191,446	191,788	-0,066	0,070
-190,431	-200,000	0,014	0,081
-189,417	142,719	0,086	0,081
-188,402	-200,000	-0,007	-0,052
-187,387	394,436	0,008	-0,012
-186,373	-109,759	0,039	-0,006
-185,358	800,000	-0,017	0,049
-184,344	80,734	0,077	0,059
-183,329	573,855	0,100	-0,174
-182,315	-140,341	-0,069	0,005
-181,300	-166,923	-0,087	0,003
-180,285	476,647	0,014	0,022
-179,271	141,905	-0,073	0,069
-178,256	-11,900	-0,034	0,016
-177,242	-88,514	0,127	0,027
-176,227	-200,000	-0,006	0,062
-175,212	-124,344	-0,014	0,002
-174,198	-200,000	0,000	-0,090
-173,183	61,101	-0,027	0,019
-172,169	800,000	0,081	-0,205
-171,154	482,296	-0,038	0,062
-170,139	275,229	0,092	-0,116
-169,125	-14,234	0,062	0,028
-168,110	127,697	0,097	0,088
-167,096	-8,542	0,027	-0,013
-166,081	28,271	-0,044	-0,027
-165,066	-200,000	0,010	-0,033
-164,052	-57,242	0,140	-0,044
-163,037	241,320	-0,040	0,048
-162,023	-108,205	0,090	0,014
-161,008	-32,516	-0,128	0,051
-159,993	-200,000	0,000	0,010
-158,979	-200,000	-0,002	-0,133
-157,964	-0,498	-0,097	-0,049
-156,950	267,684	-0,070	-0,087
-155,935	367,217	0,050	0,072
-154,920	800,000	0,105	0,231
-153,906	265,810	-0,052	0,065
-152,891	382,583	0,025	-0,037
-151,877	233,237	0,089	-0,104
-150,862	-200,000	0,004	0,038
-149,847	412,583	0,078	-0,118
-148,833	300,606	-0,037	-0,048
-147,818	422,483	-0,028	-0,042
-146,804	237,666	-0,089	0,105
-145,789	-48,641	-0,124	-0,042
-144,775	-19,235	-0,107	-0,047
-143,760	156,491	0,057	-0,056
-142,745	496,162	-0,041	-0,068
-141,731	-200,000	0,059	0,256
-140,716	-200,000	-0,039	0,123
-139,702	-95,341	0,055	0,010
-138,687	-9,845	-0,153	0,072
-137,672	467,267	-0,044	0,070
-136,658	-200,000	-0,001	-0,270
-135,643	-77,021	0,092	0,023
-134,629	354,729	-0,060	-0,086
-133,614	-91,674	0,108	0,022
-132,599	753,122	-0,008	-0,016
-131,585	-111,080	0,047	0,007
-130,570	-95,795	-0,020	0,004
-129,556	-200,000	-0,008	-0,169
-128,541	-200,000	0,006	-0,047
-127,526	544,958	-0,065	-0,111
-126,512	-55,901	-0,145	0,046
-125,497	-137,745	0,149	0,012
-124,483	-200,000	-0,001	-0,090
-123,468	-26,268	0,095	0,039
-122,453	800,000	-0,053	-0,106
-121,439	-200,000	0,008	-0,120
-120,424	-98,773	-0,114	0,020
-119,410	-135,544	0,070	-0,006
-118,395	800,000	-0,051	-0,104
-117,380	-69,438	-0,095	0,026
-116,366	57,992	0,123	0,086
-115,351	-25,226	-0,183	-0,077
-114,337	800,000	0,037	-0,115
-113,322	723,609	-0,068	-0,129
-112,307	800,000	0,029	0,081
-111,293	69,798	0,018	0,013
-110,278	800,000	-0,040	0,109
-109,264	-200,000	-0,030	0,114
-108,249	556,326	-0,048	-0,082
-107,234	-18,648	0,094	-0,042
-106,220	-200,000	-0,065	-0,252
-105,205	18,547	-0,065	-0,037
-104,191	-200,000	0,013	-0,069
-103,176	-148,933	-0,125	0,007
-102,162	-200,000	0,012	-0,083
-101,147	-181,117	0,047	-0,001
-100,132	-37,247	0,067	0,025
-99,118	459,352	-0,038	0,060
-98,103	-200,000	0,013	-0,053
-97,089	-200,000	-0,002	0,131
-96,074	-41,800	0,105	-0,038
-95,059	-200,000	-0,003	0,018
-94,045	199,287	0,051	-0,056
-93,030	283,779	0,059	-0,076
-92,016	-200,000	0,022	-0,094
-91,001	64,092	0,117	-0,084
-89,986	-108,155	-0,114	0,017
-88,972	268,976	-0,098	0,123
-87,957	-129,445	0,099	0,010
-86,943	-171,268	-0,121	0,003
-85,928	-120,682	-0,103	0,012
-84,913	133,399	-0,021	-0,020
-83,899	-200,000	-0,047	-0,160
-82,884	357,503	0,070	0,099
-81,870	127,385	0,051	-0,046
-80,855	-75,709	-0,147	-0,037
-79,840	542,697	-0,049	0,084
-78,826	598,683	-0,032	0,056
-77,811	-104,555	0,123	0,020
-76,797	655,114	0,031	-0,058
-75,782	93,858	-0,048	-0,039
-74,767	-107,461	0,210	0,032
-73,753	194,010	-0,053	-0,057
-72,738	293,846	-0,064	-0,083
-71,724	800,000	0,072	-0,161
-70,709	800,000	0,031	-0,072
-69,694	-200,000	0,002	-0,140
-68,680	800,000	0,040	-0,090
-67,665	222,434	0,073	0,083
-66,651	105,078	0,109	0,091
-65,636	-200,000	0,011	-0,096
-64,622	-200,000	-0,008	0,088
-63,607	-144,531	-0,049	0,003
-62,592	800,000	0,011	0,021
-61,578	-34,782	0,030	0,012
-60,563	-38,903	0,001	-0,000
-59,549	180,907	0,063	0,066
-58,534	-30,549	-1,702	-0,680
-57,519	498,346	-1,201	-1,966
-56,505	-200,000	-0,632	-4,530
-55,490	295,492	1,044	1,357
-54,476	800,000	4,997	11,152
-53,461	-200,000	19,104	317,686
-52,446	-200,000	739,272	2333,478
-51,432	575,976	1654,788	2873,375
-50,417	78,716	1670,875	1264,041
-49,403	21,533	1543,597	886,694
-48,388	15,381	1466,150	812,295
-47,373	17,889	1456,254	818,899
-46,359	16,719	1446,290	807,653
-45,344	13,644	1441,423	790,177
-44,330	13,533	1439,710	788,677
-43,315	13,522	1437,984	787,647
-42,300	13,529	1436,213	786,678
-41,286	13,558	1435,218	786,239
-40,271	13,572	1433,686	785,437
-39,257	13,551	1432,193	784,489
-38,242	13,569	1431,244	784,025
-37,227	13,579	1430,018	783,370
-36,213	13,590	1428,680	782,657
-35,198	13,597	1427,613	782,072
-34,184	13,613	1426,561	781,542
-33,169	13,546	1425,339	780,523
-32,154	13,602	1424,124	780,095
-31,140	13,613	1422,610	779,284
-30,125	13,651	1421,728	778,952
-29,111	13,615	1420,593	778,129
-28,096	13,608	1419,351	777,385
-27,082	13,556	1418,286	776,522
-26,067	13,500	1417,429	775,761
-25,052	13,577	1416,066	775,346
-24,038	13,512	1415,180	774,524
-23,023	13,469	1414,279	773,796
-22,009	13,503	1413,219	773,348
-20,994	13,478	1412,340	772,716
-19,979	13,475	1411,478	772,204
-18,965	13,481	1410,571	771,703
-17,950	13,483	1409,622	771,162
-16,936	13,521	1408,544	770,719
-15,921	13,490	1407,304	769,868
-14,906	13,478	1406,546	769,366
-13,892	13,472	1405,480	768,721
-12,877	13,454	1404,815	768,244
-11,863	13,425	1404,138	767,711
-10,848	13,456	1402,959	767,180
-9,833	13,429	1402,188	766,601
-8,819	13,366	1401,443	765,871
-7,804	13,317	1400,518	765,107
-6,790	13,346	1399,269	764,525
-5,775	13,333	1398,426	763,977
-4,760	13,355	1397,423	763,500
-3,746	13,368	1396,451	763,001
-2,731	13,316	1395,653	762,292
-1,717	13,268	1394,981	761,673
-0,702	13,347	1393,031	760,941
0,313	17,172	1310,381	733,525
1,327	33,500	704,493	432,132
2,342	51,901	123,529	83,079
3,356	4,881	16,624	8,622
4,371	-9,440	3,290	1,548
5,386	-22,876	0,508	0,216
6,400	-200,000	0,032	0,347
7,415	59,219	-0,237	-0,165
8,429	48,773	-0,293	-0,194
9,444	353,569	-0,270	-0,381
10,459	102,100	-0,274	-0,226
11,473	-55,026	-0,341	-0,108
12,488	35,624	-0,090	-0,056
13,502	-40,682	-0,259	-0,094
14,517	21,866	-0,370	-0,212
15,531	330,144	-0,199	-0,272
16,546	79,006	-0,362	-0,274
17,561	122,028	-0,410	-0,361
18,575	58,125	-0,142	-0,098
19,590	137,706	-0,284	-0,262
20,604	172,384	-0,125	-0,127
21,619	52,398	-0,435	-0,293
22,634	106,335	-0,432	-0,362
23,648	99,021	-0,375	-0,305
24,663	735,832	-0,226	-0,429
25,677	48,257	-0,373	-0,246
26,692	40,510	-0,340	-0,216
27,707	130,691	-0,214	-0,194
28,721	161,681	-0,394	-0,390
29,736	62,691	-0,501	-0,353
30,750	48,006	-0,358	-0,236
31,765	730,616	-0,195	-0,369
32,780	259,910	-0,174	-0,212
33,794	218,483	-0,326	-0,368
34,809	287,002	-0,249	-0,318
35,823	30,626	-0,322	-0,194
36,838	347,644	-0,301	-0,419
37,853	286,733	-0,281	-0,359
38,867	82,080	-0,373	-0,285
39,882	117,778	-0,241	-0,209
40,896	21,747	-0,291	-0,167
41,911	-33,635	-0,318	-0,123
42,926	95,993	-0,340	-0,274
43,940	81,814	-0,374	-0,285
44,955	128,181	-0,365	-0,328
45,969	128,768	-0,359	-0,323
46,984	618,010	-0,154	-0,274
47,999	-8,007	-0,424	-0,201
49,013	1,423	-0,308	-0,155
50,028	182,531	-0,273	-0,284
51,042	23,586	-0,356	-0,206
52,057	23,971	-0,325	-0,189
53,071	15,130	-0,394	-0,217
54,086	377,247	-0,267	-0,385
55,101	137,754	-0,321	-0,296
56,115	99,452	-0,219	-0,178
57,130	-10,107	-0,430	-0,200
58,144	38,430	-0,347	-0,218
59,159	26,039	-0,436	-0,255
60,174	170,093	-0,280	-0,282
61,188	79,317	-0,343	-0,258
62,203	279,751	-0,184	-0,232
63,217	224,110	-0,277	-0,315
64,232	-5,465	-0,307	-0,148
65,247	142,157	-0,252	-0,235
66,261	7,444	-0,357	-0,187
67,276	78,297	-0,332	-0,249
68,290	387,466	-0,310	-0,452
69,305	176,140	-0,207	-0,212
70,320	800,000	-0,085	-0,177
71,334	93,352	-0,330	-0,262
72,349	-1,956	-0,410	-0,202
73,363	243,499	-0,240	-0,284
74,378	-14,299	-0,467	-0,211
75,393	-29,052	-0,417	-0,167
76,407	34,523	-0,379	-0,232
77,422	-64,330	-0,240	-0,068
78,436	59,486	-0,211	-0,146
79,451	159,028	-0,205	-0,201
80,466	46,587	-0,373	-0,243
81,480	7,243	-0,247	-0,129
82,495	48,524	-0,289	-0,190
83,509	141,414	-0,208	-0,193
84,524	-57,342	-0,282	0,087
85,539	126,583	-0,288	-0,256
86,553	91,298	-0,323	-0,255
87,568	77,753	-0,242	-0,181
88,582	141,972	-0,172	-0,160
89,597	11,046	-0,319	-0,171
90,611	354,237	-0,194	-0,271
91,626	55,562	-0,255	-0,173
92,641	8,578	-0,261	-0,138
93,655	425,701	-0,179	-0,272
94,670	122,550	-0,243	-0,213
95,684	83,729	-0,283	-0,216
96,699	158,649	-0,256	-0,249
97,714	20,522	-0,315	-0,178
98,728	-115,697	-0,265	-0,034
99,743	-67,112	-0,301	-0,083
100,757	31,832	-0,212	-0,128
101,772	75,530	-0,282	-0,209
102,787	399,351	-0,233	-0,343
103,801	118,161	-0,317	-0,274
104,816	74,329	-0,285	-0,209
105,830	171,787	-0,222	-0,223
106,845	-19,104	-0,282	-0,122
107,860	2,751	-0,315	-0,159
108,874	0,130	-0,268	-0,133
109,889	43,464	-0,293	-0,187
110,903	-126,536	-0,301	-0,031
111,918	7,688	-0,186	-0,097
112,933	172,791	-0,151	-0,152
113,947	655,751	-0,106	-0,191
114,962	161,173	-0,206	-0,202
115,976	398,480	-0,185	-0,272
116,991	-17,140	-0,294	-0,130
118,006	53,638	-0,320	-0,215
119,020	-45,381	-0,218	-0,075
120,035	382,872	-0,088	-0,127
121,049	-129,572	-0,282	-0,027
122,064	374,290	-0,176	-0,251
123,079	192,760	-0,207	-0,219
124,093	1,006	-0,374	-0,187
125,108	-100,744	-0,318	-0,054
126,122	52,838	-0,337	-0,225
127,137	-65,377	-0,314	-0,088
128,151	213,495	-0,132	-0,146
129,166	46,967	-0,241	-0,156
130,181	800,000	-0,096	-0,235
131,195	166,893	-0,205	-0,204
132,210	101,930	-0,331	-0,270
133,224	13,835	-0,314	-0,170
134,239	19,100	-0,154	-0,086
135,254	-79,041	-0,234	-0,055
136,268	-156,675	-0,188	-0,008
137,283	-41,029	-0,291	-0,105
138,297	36,469	-0,262	-0,161
139,312	-9,627	-0,366	-0,170
140,327	63,001	-0,252	-0,176
141,341	800,000	-0,093	-0,244
142,356	89,734	-0,205	-0,160
143,370	3,671	-0,266	-0,135
144,385	-4,961	-0,224	-0,107
145,400	6,682	-0,327	-0,170
146,414	338,256	-0,228	-0,311
147,429	-24,476	-0,320	-0,133
148,443	14,313	-0,253	-0,138
149,458	50,049	-0,302	-0,199
150,473	156,410	-0,139	-0,134
151,487	545,466	-0,081	-0,136
152,502	-38,166	-0,333	-0,123
153,516	221,250	-0,132	-0,148
154,531	113,803	-0,313	-0,266
155,546	405,198	-0,171	-0,253
156,560	90,666	-0,205	-0,161
157,575	209,413	-0,179	-0,196
158,589	27,326	-0,305	-0,178
159,604	-88,756	-0,264	-0,054
160,619	43,049	-0,311	-0,198
161,633	231,770	-0,220	-0,252
162,648	59,623	-0,149	-0,102
163,662	800,000	-0,079	-0,237
164,677	127,032	-0,184	-0,163
165,692	-0,586	-0,212	-0,105
166,706	8,443	-0,249	-0,130
167,721	800,000	-0,143	-0,325
168,735	-141,705	-0,225	-0,016
169,750	100,515	-0,267	-0,216
170,764	358,620	-0,078	-0,109
171,779	144,418	-0,123	-0,114
172,794	169,027	-0,273	-0,272
173,808	-17,476	-0,270	-0,118
174,823	182,947	-0,218	-0,225
175,837	130,139	-0,262	-0,234
176,852	286,531	-0,192	-0,242
177,867	346,823	-0,259	-0,356
178,881	162,750	-0,283	-0,277
179,896	134,359	-0,148	-0,133
180,910	156,038	-0,213	-0,205
181,925	51,348	-0,245	-0,162
182,940	800,000	-0,101	-0,294
183,954	417,045	-0,123	-0,183
184,969	297,258	-0,130	-0,167
185,983	-71,048	-0,230	0,060
186,998	-109,261	-0,206	-0,030
188,013	102,109	-0,243	-0,197
189,027	99,223	-0,168	-0,135
190,042	-49,520	-0,308	-0,101
191,056	28,848	-0,220	-0,129
192,071	176,571	-0,241	-0,244
193,086	26,991	-0,275	-0,160
194,100	-35,794	-0,166	-0,062
195,115	52,375	-0,228	-0,151
196,129	100,225	-0,182	-0,147
197,144	-73,845	-0,245	-0,061
198,159	162,322	-0,228	-0,222
199,173	18,352	-0,132	-0,073
200,188	207,723	-0,106	-0,115
201,202	71,570	-0,258	-0,186
202,217	213,238	-0,120	-0,132
203,232	86,999	-0,163	-0,125
204,246	269,742	-0,169	-0,206
205,261	163,598	-0,164	-0,160
206,275	93,915	-0,180	-0,141
207,290	-200,000	-0,062	-0,205
208,304	98,617	-0,179	-0,143
209,319	350,924	-0,160	-0,221
210,334	800,000	-0,114	-0,228
211,348	64,954	-0,184	-0,129
212,363	40,051	-0,113	-0,070
213,377	32,496	-0,248	-0,148
214,392	80,847	-0,151	-0,113
215,407	587,390	-0,016	-0,028
216,421	49,810	-0,165	-0,108
217,436	-126,606	-0,256	0,026
218,450	95,355	-0,181	-0,143
219,465	13,383	-0,322	-0,173
220,480	148,916	-0,171	-0,161
221,494	800,000	-0,050	-0,144
222,509	423,169	-0,184	-0,275
223,523	51,041	-0,199	-0,131
224,538	146,649	-0,169	-0,157
225,553	322,025	-0,241	-0,318
226,567	12,260	-0,145	-0,077
227,582	-140,220	-0,134	-0,010
228,596	-11,458	-0,174	0,079
229,611	168,020	-0,172	-0,170
230,626	-84,693	-0,007	0,002
231,640	-107,117	-0,220	-0,033
232,655	-91,953	-0,315	-0,061
233,669	800,000	-0,095	-0,259
234,684	161,383	-0,127	-0,123
235,699	-41,730	-0,241	-0,085
236,713	15,562	-0,258	-0,140
237,728	79,725	-0,133	-0,099
238,742	-88,329	-0,222	-0,046
239,757	384,559	-0,198	-0,283
240,772	525,804	-0,138	-0,226
241,786	143,518	-0,184	-0,170
242,801	284,690	-0,118	-0,147
243,815	800,000	0,064	-0,158
244,830	-85,396	-0,239	-0,051
245,844	39,005	-0,197	-0,122
246,859	196,958	-0,140	-0,148
247,874	70,900	-0,157	-0,112
248,888	-64,315	-0,294	-0,082
249,903	145,988	-0,206	-0,191
250,917	127,559	-0,119	-0,104
251,932	-109,470	-0,145	-0,021
252,947	71,157	-0,156	-0,112
253,961	55,715	-0,303	-0,203
254,976	14,524	-0,279	-0,150
255,990	347,417	-0,153	-0,209
257,005	95,325	-0,168	-0,132
258,020	28,360	-0,108	-0,063
259,034	217,568	-0,245	-0,271
260,049	25,043	-0,120	-0,069
261,063	-200,000	-0,041	-0,163
262,078	-7,697	-0,177	-0,083
263,093	800,000	-0,125	-0,251
264,107	-192,854	-0,160	0,001
265,122	514,494	-0,096	-0,156
266,136	229,546	-0,081	-0,092
267,151	10,618	-0,207	-0,109
268,166	81,019	-0,126	-0,094
269,180	-65,562	-0,274	-0,076
270,195	258,780	-0,078	-0,093
271,209	-157,083	-0,248	-0,010
272,224	6,475	-0,139	-0,071
273,239	16,097	-0,113	0,062
274,253	139,825	-0,202	-0,184
275,268	679,549	-0,137	-0,247
276,282	1,232	-0,225	-0,111
277,297	323,894	-0,147	-0,194
278,312	-28,856	-0,233	-0,092
279,326	-66,806	-0,154	-0,042
280,341	115,260	-0,183	-0,155
281,355	63,810	-0,157	-0,109
282,370	-121,730	-0,174	-0,020
283,384	160,679	-0,121	-0,116
284,399	-68,558	-0,104	-0,028
285,414	232,178	-0,128	-0,146
286,428	14,537	-0,130	-0,070
287,443	800,000	-0,053	-0,145
288,457	63,017	-0,143	-0,099
289,472	236,706	-0,204	-0,233
290,487	11,895	-0,222	-0,117
291,501	309,479	-0,130	-0,169
292,516	533,504	-0,108	-0,177
293,530	129,537	-0,153	-0,135
294,545	778,455	-0,094	-0,177
295,560	131,720	-0,171	-0,151
296,574	147,354	0,009	-0,008
297,589	1,950	-0,243	-0,120
298,603	800,000	-0,135	-0,262
299,618	-78,423	-0,218	0,051
300,633	123,363	-0,132	-0,114
301,647	77,768	-0,140	-0,103
302,662	-108,376	-0,109	-0,016
303,676	181,262	-0,084	-0,085
304,691	-115,926	-0,213	-0,027
305,706	-64,584	-0,225	-0,063
306,720	310,654	-0,158	-0,205
307,735	-200,000	0,014	-0,139
308,749	745,029	-0,061	-0,114
309,764	-134,722	-0,162	0,013
310,779	-18,924	-0,092	-0,039
311,793	77,328	-0,160	-0,117
312,808	800,000	-0,068	-0,162
313,822	148,792	-0,113	-0,105
314,837	41,475	-0,202	-0,126
315,852	49,769	-0,129	-0,084
316,866	-75,498	-0,135	0,033
317,881	150,208	0,015	-0,014
318,895	19,959	-0,156	-0,086
319,910	79,295	-0,149	-0,110
320,925	310,197	-0,037	-0,048
321,939	373,383	-0,167	-0,234
322,954	-200,000	-0,030	-0,197
323,968	65,454	-0,171	-0,119
324,983	-129,920	-0,090	-0,008
325,997	35,554	-0,110	-0,066
327,012	-98,140	0,027	-0,005
328,027	168,554	-0,164	-0,161
329,041	205,940	-0,082	-0,087
330,056	375,512	-0,110	-0,155
331,070	-200,000	-0,011	-0,038
332,085	90,333	-0,117	-0,090
333,100	23,323	-0,141	-0,079
334,114	-200,000	0,001	-0,120
335,129	-188,650	-0,274	-0,002
336,143	242,225	-0,126	-0,145
337,158	-176,455	-0,192	-0,003
338,173	10,172	-0,082	0,043
339,187	-30,312	-0,137	-0,053
340,202	-146,838	-0,104	0,006
341,216	63,675	-0,219	-0,151
342,231	217,644	-0,212	-0,232
343,246	-147,278	-0,171	0,010
344,260	800,000	-0,063	-0,157
345,275	-200,000	-0,016	-0,150
346,289	800,000	-0,114	-0,265
347,304	669,730	-0,058	-0,103
348,319	800,000	-0,040	-0,106
349,333	68,895	-0,131	-0,092
350,348	472,888	-0,100	-0,155
351,362	669,063	-0,030	-0,053
352,377	-100,347	-0,055	-0,009
353,392	-70,481	-0,125	0,032
354,406	5,234	-0,151	-0,076
355,421	207,529	1315,078	1409,699
356,435	159,642	1475,849	1410,179
