DTS Sentinel unit serial number:	SN410029Multiplexer serial number:	ORYXHardware model number:	OX2-SRSoftware version number:	ORYX F/W v4,00 Oryx Data Collector v3.7.2.0data status	okinstallation	B3 Nyhavnadifferential loss correction	single-endedforward channel	channel 1reverse channel	N/Adate	2023/11/30time	02:37:30forward acquisition time	300,00reverse acquisition time	0,00gamma	499,1914k internal	0,3210k external	0,3210temperature offset calibration	1,0000default loss term (dB/km)	0,3820temperature slope calibration	1,0000multiplexer offset coefficient	1,0000multiplexer slope coefficient	1,0000fibre end	0,00T internal ref (°C)	10,37T ext. ref 1 (°C)	-5,31T ext. ref 2 (°C)	-5,44length (m)	temperature (°C)	Stokes	anti-Stokes-744,400	-200,000	-0,048	-0,265
-743,385	-200,000	0,040	0,245
-742,371	373,073	-0,160	-0,237
-741,356	-200,000	0,035	0,279
-740,342	181,112	-0,215	-0,229
-739,327	-200,000	0,013	0,379
-738,312	171,485	-0,186	-0,194
-737,298	525,584	0,099	0,170
-736,283	478,639	-0,195	-0,321
-735,269	-200,000	-0,043	0,376
-734,254	260,133	-0,184	-0,232
-733,239	-29,075	-0,294	0,122
-732,225	-200,000	0,019	-0,350
-731,210	-35,240	0,188	0,074
-730,196	800,000	0,025	-0,072
-729,181	-149,635	-0,164	-0,009
-728,167	-200,000	0,003	0,044
-727,152	-93,719	-0,032	-0,006
-726,137	-97,276	-0,130	-0,024
-725,123	-166,384	-0,024	0,001
-724,108	-200,000	-0,032	-0,139
-723,094	-200,000	0,001	-0,163
-722,079	135,253	0,065	-0,062
-721,064	1,325	0,030	-0,016
-720,050	69,930	0,022	-0,016
-719,035	-66,226	-0,117	0,034
-718,021	-148,630	-0,056	0,003
-717,006	379,860	0,032	0,048
-715,991	416,537	-0,076	0,118
-714,977	-105,856	-0,055	0,009
-713,962	-4,401	0,144	-0,072
-712,948	-77,373	-0,007	-0,002
-711,933	159,949	-0,030	0,030
-710,918	-33,695	0,210	-0,084
-709,904	-40,787	-0,047	-0,018
-708,889	146,635	-0,104	0,101
-707,875	238,385	-0,075	-0,090
-706,860	800,000	0,041	-0,097
-705,845	102,679	-0,059	-0,050
-704,831	11,182	-0,044	-0,024
-703,816	800,000	-0,042	-0,132
-702,802	-200,000	-0,005	-0,160
-701,787	447,549	0,072	-0,116
-700,772	800,000	-0,056	-0,117
-699,758	-200,000	-0,019	0,135
-698,743	247,151	-0,013	0,016
-697,729	2,348	-0,053	-0,028
-696,714	800,000	-0,060	0,125
-695,699	-20,831	0,143	-0,063
-694,685	326,704	-0,093	-0,130
-693,670	11,623	-0,060	-0,033
-692,656	-52,004	0,011	0,004
-691,641	-39,935	-0,100	0,037
-690,627	99,256	0,053	-0,044
-689,612	42,070	0,119	0,078
-688,597	-8,972	0,080	0,039
-687,583	-34,176	0,177	-0,070
-686,568	-200,000	-0,028	-0,091
-685,554	800,000	-0,023	-0,063
-684,539	38,780	0,056	-0,036
-683,524	800,000	0,010	-0,020
-682,510	-169,051	0,140	-0,004
-681,495	202,270	-0,085	-0,095
-680,481	-200,000	-0,010	-0,147
-679,466	-67,553	-0,139	-0,039
-678,451	-62,005	-0,072	0,022
-677,437	-175,829	0,093	0,002
-676,422	800,000	-0,056	0,121
-675,408	-7,764	0,159	0,077
-674,393	-200,000	-0,052	0,000
-673,378	73,290	-0,144	0,109
-672,364	479,322	-0,062	-0,103
-671,349	23,257	0,157	-0,093
-670,335	-105,517	-0,133	0,022
-669,320	-44,407	-0,089	-0,032
-668,305	569,899	0,083	-0,146
-667,291	-200,000	-0,025	0,083
-666,276	-200,000	-0,025	-0,122
-665,262	-59,788	0,033	0,010
-664,247	-25,620	-0,182	-0,077
-663,232	-200,000	-0,020	-0,105
-662,218	7,590	0,067	-0,036
-661,203	273,672	-0,046	-0,059
-660,189	-108,714	-0,094	-0,014
-659,174	76,468	0,084	0,064
-658,159	-47,321	-0,087	0,030
-657,145	800,000	0,009	0,025
-656,130	251,948	0,060	0,074
-655,116	103,297	0,102	-0,087
-654,101	-128,774	0,113	-0,011
-653,086	9,793	-0,121	-0,066
-652,072	67,796	0,092	0,068
-651,057	598,015	0,004	0,006
-650,043	47,257	-0,144	-0,097
-649,028	800,000	-0,044	-0,102
-648,014	800,000	-0,038	0,106
-646,999	-7,080	-0,109	0,053
-645,984	-33,139	-0,152	-0,061
-644,970	-200,000	0,000	-0,037
-643,955	-159,736	-0,211	-0,008
-642,941	-10,416	0,099	-0,047
-641,926	-60,705	-0,089	0,027
-640,911	311,654	0,032	-0,043
-639,897	-200,000	-0,009	0,074
-638,882	321,426	0,112	0,154
-637,868	-67,704	0,132	-0,037
-636,853	42,434	-0,046	-0,030
-635,838	-200,000	-0,033	-0,253
-634,824	-200,000	0,026	-0,120
-633,809	-87,843	0,110	-0,024
-632,795	-200,000	-0,016	-0,099
-631,780	-200,000	-0,001	-0,024
-630,765	-45,468	-0,093	-0,033
-629,751	-200,000	0,020	-0,103
-628,736	10,063	-0,101	0,055
-627,722	799,638	0,026	-0,053
-626,707	339,373	0,055	-0,078
-625,692	385,504	-0,095	0,142
-624,678	23,706	0,080	0,048
-623,663	74,169	-0,025	-0,019
-622,649	189,051	0,067	0,072
-621,634	260,486	-0,025	-0,032
-620,619	-200,000	-0,008	0,033
-619,605	-200,000	0,002	0,153
-618,590	-200,000	-0,014	0,075
-617,576	706,520	-0,040	0,076
-616,561	191,861	-0,106	0,116
-615,546	451,783	0,050	-0,081
-614,532	280,594	-0,064	-0,083
-613,517	-132,398	-0,104	-0,010
-612,503	61,683	-0,052	0,038
-611,488	-141,898	-0,010	-0,001
-610,474	138,932	-0,055	0,052
-609,459	800,000	-0,010	0,031
-608,444	-182,335	-0,061	0,001
-607,430	-200,000	-0,010	-0,096
-606,415	159,931	-0,088	0,088
-605,401	-125,223	0,088	0,010
-604,386	-200,000	-0,015	0,052
-603,371	-76,075	0,176	-0,044
-602,357	80,975	0,086	0,067
-601,342	335,515	0,048	0,068
-600,328	-2,216	-0,069	-0,035
-599,313	-84,601	-0,095	-0,021
-598,298	800,000	-0,023	-0,072
-597,284	800,000	-0,049	0,131
-596,269	166,032	0,021	-0,021
-595,255	372,837	0,130	-0,192
-594,240	248,287	0,047	-0,058
-593,225	210,214	-0,103	-0,117
-592,211	-200,000	0,002	-0,029
-591,196	-94,758	0,063	-0,012
-590,182	-200,000	0,019	-0,064
-589,167	-35,628	0,055	-0,021
-588,152	-200,000	-0,018	-0,067
-587,138	72,256	-0,126	0,094
-586,123	-200,000	0,014	-0,092
-585,109	615,519	-0,074	-0,134
-584,094	18,099	0,204	-0,117
-583,079	-200,000	0,029	0,140
-582,065	-200,000	-0,001	0,089
-581,050	81,906	-0,081	0,063
-580,036	-200,000	0,012	0,049
-579,021	-200,000	0,028	-0,132
-578,006	800,000	0,018	-0,046
-576,992	250,178	-0,078	-0,096
-575,977	77,306	0,087	0,066
-574,963	-85,247	-0,162	-0,036
-573,948	-90,306	-0,107	-0,022
-572,934	800,000	0,040	0,090
-571,919	-113,078	0,056	0,008
-570,904	54,906	-0,093	-0,064
-569,890	800,000	-0,008	0,019
-568,875	-200,000	0,002	0,047
-567,861	800,000	0,007	0,020
-566,846	-200,000	-0,010	0,039
-565,831	253,634	0,039	0,048
-564,817	197,886	0,063	-0,069
-563,802	-61,579	-0,046	0,014
-562,788	-15,950	0,091	0,042
-561,773	-200,000	-0,019	-0,075
-560,758	-200,000	-0,015	-0,070
-559,744	8,947	0,066	0,036
-558,729	60,852	0,035	0,025
-557,715	-200,000	-0,004	-0,150
-556,700	-200,000	-0,037	-0,150
-555,685	-85,163	-0,050	-0,011
-554,671	-104,529	-0,023	0,004
-553,656	429,731	0,108	0,169
-552,642	81,867	0,079	0,062
-551,627	-46,494	-0,115	-0,040
-550,612	83,106	0,068	0,053
-549,598	-89,520	-0,113	-0,024
-548,583	-200,000	0,024	-0,155
-547,569	132,935	-0,028	0,026
-546,554	62,807	0,055	-0,039
-545,539	8,923	0,123	0,067
-544,525	103,625	-0,037	-0,031
-543,510	10,377	0,014	0,008
-542,496	218,466	-0,016	0,019
-541,481	800,000	0,047	-0,096
-540,466	162,437	0,052	0,053
-539,452	-69,124	0,080	-0,022
-538,437	-128,847	0,179	0,018
-537,423	-200,000	-0,003	0,037
-536,408	83,600	-0,162	0,127
-535,393	-200,000	0,021	-0,107
-534,379	374,347	-0,115	-0,169
-533,364	-152,668	0,086	0,004
-532,350	800,000	0,051	0,159
-531,335	2,336	-0,035	0,018
-530,321	26,769	0,129	0,078
-529,306	61,519	-0,043	-0,031
-528,291	-175,652	0,084	0,002
-527,277	-200,000	-0,004	0,022
-526,262	800,000	0,110	0,223
-525,248	-200,000	-0,021	0,118
-524,233	-74,608	0,086	0,022
-523,218	403,878	0,040	-0,061
-522,204	800,000	-0,037	0,111
-521,189	206,257	-0,043	-0,048
-520,175	-2,011	-0,096	0,048
-519,160	166,812	-0,062	0,063
-518,145	-200,000	-0,008	0,143
-517,131	204,097	-0,033	-0,037
-516,116	-60,120	0,116	-0,035
-515,102	70,737	-0,054	0,040
-514,087	800,000	0,032	0,084
-513,072	-158,985	-0,101	0,004
-512,058	65,219	-0,079	-0,058
-511,043	-200,000	0,029	-0,105
-510,029	160,067	0,015	-0,015
-509,014	407,345	0,021	0,033
-507,999	800,000	0,050	-0,137
-506,985	172,282	-0,129	-0,133
-505,970	361,922	0,035	-0,051
-504,956	-200,000	0,027	-0,146
-503,941	-7,675	-0,076	-0,037
-502,926	-127,820	0,174	0,018
-501,912	800,000	-0,032	0,073
-500,897	800,000	-0,047	-0,103
-499,883	119,095	-0,086	-0,076
-498,868	91,627	0,077	-0,062
-497,853	-96,209	-0,143	-0,027
-496,839	417,604	0,063	-0,097
-495,824	-36,159	-0,041	0,016
-494,810	-200,000	0,017	0,199
-493,795	300,902	0,072	0,095
-492,781	102,726	-0,036	-0,031
-491,766	-200,000	0,003	-0,103
-490,751	-200,000	0,011	-0,063
-489,737	-200,000	0,006	-0,077
-488,722	441,404	-0,018	0,029
-487,708	-200,000	0,008	0,097
-486,693	321,891	-0,039	-0,053
-485,678	800,000	0,039	0,090
-484,664	81,044	0,050	0,039
-483,649	41,205	0,186	0,120
-482,635	-14,824	-0,035	0,016
-481,620	10,092	-0,039	-0,021
-480,605	-137,927	0,210	-0,017
-479,591	800,000	0,023	0,050
-478,576	79,944	0,073	0,056
-477,562	229,082	-0,046	-0,054
-476,547	313,116	-0,028	-0,037
-475,532	23,107	-0,080	0,047
-474,518	-61,479	-0,112	-0,034
-473,503	-153,800	0,082	0,004
-472,489	-173,094	-0,113	-0,002
-471,474	-200,000	-0,012	0,088
-470,459	-200,000	-0,008	0,091
-469,445	-200,000	-0,043	0,147
-468,430	-200,000	0,016	-0,088
-467,416	-200,000	-0,004	-0,049
-466,401	-200,000	0,017	-0,063
-465,386	263,578	-0,039	-0,049
-464,372	800,000	0,072	-0,161
-463,357	142,408	-0,093	-0,089
-462,343	-179,164	-0,060	-0,001
-461,328	-200,000	-0,012	0,091
-460,313	800,000	0,017	-0,044
-459,299	296,894	0,043	-0,057
-458,284	-200,000	0,013	0,142
-457,270	-200,000	0,018	0,079
-456,255	629,437	0,013	0,024
-455,241	58,525	0,044	0,031
-454,226	177,992	0,039	-0,041
-453,211	171,957	0,051	0,052
-452,197	-129,303	0,114	-0,011
-451,182	70,769	0,152	0,113
-450,168	-200,000	-0,001	0,136
-449,153	312,866	-0,025	0,034
-448,138	-15,070	-0,097	-0,044
-447,124	-135,976	0,113	0,009
-446,109	-200,000	-0,017	0,080
-445,095	-200,000	-0,002	0,087
-444,080	139,843	0,047	-0,044
-443,065	359,898	-0,030	-0,043
-442,051	776,570	0,038	0,074
-441,036	9,118	-0,064	-0,035
-440,022	-91,034	-0,153	0,031
-439,007	-1,383	-0,045	-0,022
-437,992	800,000	0,069	0,144
-436,978	-162,296	0,098	0,003
-435,963	20,437	-0,080	-0,046
-434,949	-131,544	0,114	0,011
-433,934	74,641	-0,076	0,057
-432,919	-200,000	-0,007	-0,081
-431,905	-98,852	-0,059	0,011
-430,890	-94,955	0,078	-0,015
-429,876	62,975	0,127	0,091
-428,861	800,000	-0,012	-0,030
-427,846	800,000	0,061	-0,130
-426,832	167,593	-0,080	-0,082
-425,817	-200,000	0,022	-0,124
-424,803	121,045	-0,038	0,034
-423,788	69,770	0,041	0,030
-422,773	-200,000	0,003	-0,045
-421,759	-12,900	0,082	0,038
-420,744	172,366	-0,020	0,020
-419,730	299,005	-0,065	-0,085
-418,715	-135,413	-0,107	0,009
-417,701	-183,545	0,066	0,001
-416,686	-62,622	0,097	-0,029
-415,671	-200,000	-0,011	0,138
-414,657	800,000	0,043	-0,107
-413,642	-59,465	-0,149	0,046
-412,628	324,876	0,100	0,138
-411,613	44,530	-0,029	0,019
-410,598	-34,376	-0,092	0,036
-409,584	3,463	0,078	-0,040
-408,569	392,225	0,031	0,046
-407,555	308,080	0,060	0,080
-406,540	203,620	0,092	0,102
-405,525	372,410	-0,055	0,080
-404,511	-200,000	0,033	-0,174
-403,496	-81,826	-0,064	0,015
-402,482	199,437	0,068	-0,075
-401,467	-200,000	0,019	0,066
-400,452	97,702	-0,098	0,081
-399,438	297,582	0,031	-0,041
-398,423	-200,000	0,004	0,069
-397,409	-163,327	0,017	0,001
-396,394	101,749	-0,123	-0,103
-395,379	477,307	0,064	-0,104
-394,365	-200,000	-0,009	-0,048
-393,350	524,001	0,062	0,105
-392,336	129,685	0,048	-0,044
-391,321	144,522	-0,035	0,033
-390,306	-53,509	-0,137	-0,045
-389,292	19,411	-0,082	0,047
-388,277	-5,768	0,071	0,035
-387,263	-39,465	0,097	0,036
-386,248	-32,607	0,045	-0,018
-385,233	-53,352	-0,046	-0,015
-384,219	-200,000	-0,006	-0,048
-383,204	-200,000	0,016	-0,122
-382,190	-200,000	-0,003	0,021
-381,175	-19,130	0,069	0,031
-380,160	410,706	0,017	0,026
-379,146	-200,000	0,022	0,172
-378,131	72,818	0,165	0,123
-377,117	-200,000	0,011	0,054
-376,102	420,020	-0,038	0,058
-375,088	-74,642	-0,061	-0,016
-374,073	-200,000	0,013	-0,079
-373,058	112,089	0,106	0,092
-372,044	16,408	0,044	0,025
-371,029	-200,000	0,015	-0,123
-370,015	-200,000	-0,004	-0,082
-369,000	-200,000	-0,055	0,000
-367,985	90,128	-0,060	-0,048
-366,971	-107,764	-0,049	-0,008
-365,956	800,000	0,016	0,040
-364,942	-67,112	0,131	-0,037
-363,927	-200,000	-0,020	0,090
-362,912	800,000	0,031	-0,096
-361,898	800,000	-0,039	0,097
-360,883	-172,511	-0,046	0,001
-359,869	800,000	0,009	0,027
-358,854	-200,000	-0,007	-0,084
-357,839	-200,000	-0,027	-0,107
-356,825	329,435	0,084	0,116
-355,810	222,873	-0,070	0,080
-354,796	-115,776	-0,188	-0,025
-353,781	-200,000	0,008	-0,194
-352,766	800,000	-0,059	-0,177
-351,752	450,612	-0,028	-0,045
-350,737	-200,000	-0,003	-0,044
-349,723	61,129	0,133	0,094
-348,708	800,000	0,047	-0,143
-347,693	-103,684	0,105	-0,017
-346,679	137,085	-0,060	-0,056
-345,664	-44,314	0,043	-0,015
-344,650	229,957	-0,065	-0,076
-343,635	-200,000	0,013	-0,083
-342,620	800,000	0,072	0,187
-341,606	38,246	-0,086	0,055
-340,591	-200,000	-0,001	0,012
-339,577	-108,067	-0,078	-0,012
-338,562	592,263	0,068	-0,121
-337,548	31,848	-0,098	-0,060
-336,533	800,000	-0,010	0,026
-335,518	-35,955	-0,052	0,020
-334,504	95,883	-0,101	-0,082
-333,489	-200,000	0,008	-0,109
-332,475	273,535	-0,102	-0,129
-331,460	417,992	-0,134	-0,205
-330,445	250,810	-0,071	0,086
-329,431	509,020	-0,089	-0,148
-328,416	64,300	0,092	-0,066
-327,402	-200,000	-0,021	0,185
-326,387	-200,000	-0,009	0,155
-325,372	364,050	0,007	0,011
-324,358	198,715	-0,111	-0,121
-323,343	52,597	0,079	0,054
-322,329	303,447	-0,046	-0,061
-321,314	-200,000	0,052	0,255
-320,299	114,612	0,104	-0,090
-319,285	359,457	-0,007	-0,010
-318,270	-22,694	-0,048	-0,021
-317,256	202,393	-0,094	-0,104
-316,241	-49,385	0,040	-0,013
-315,226	-82,765	0,076	0,017
-314,212	-200,000	0,025	0,097
-313,197	58,543	0,034	-0,024
-312,183	346,466	-0,014	-0,019
-311,168	86,596	-0,053	-0,042
-310,153	30,245	-0,042	-0,026
-309,139	-200,000	-0,002	-0,109
-308,124	119,575	0,059	0,052
-307,110	696,891	0,029	-0,054
-306,095	-200,000	-0,016	-0,109
-305,080	-94,560	0,085	0,016
-304,066	12,443	-0,183	-0,100
-303,051	-60,334	-0,183	-0,055
-302,037	-200,000	-0,000	0,050
-301,022	-200,000	0,006	0,087
-300,008	-200,000	-0,035	0,138
-298,993	800,000	0,020	0,048
-297,978	-4,256	0,102	0,050
-296,964	800,000	-0,050	-0,111
-295,949	800,000	-0,091	-0,238
-294,935	615,935	0,037	-0,066
-293,920	-200,000	0,013	-0,060
-292,905	-160,602	0,064	-0,002
-291,891	-45,929	0,219	0,077
-290,876	422,812	0,036	0,055
-289,862	117,486	-0,042	0,037
-288,847	272,774	-0,080	-0,100
-287,832	-93,189	-0,070	0,014
-286,818	-57,273	-0,077	0,024
-285,803	800,000	0,017	-0,053
-284,789	14,448	0,063	0,035
-283,774	-200,000	0,007	0,049
-282,759	-107,091	-0,091	0,014
-281,745	140,162	-0,129	-0,121
-280,730	800,000	-0,067	0,180
-279,716	800,000	-0,029	-0,087
-278,701	81,883	-0,166	0,128
-277,686	747,614	0,019	0,036
-276,672	121,103	-0,045	-0,040
-275,657	-179,648	-0,133	-0,002
-274,643	29,500	-0,023	0,014
-273,628	-200,000	0,006	0,028
-272,613	-133,828	-0,055	0,005
-271,599	38,523	0,137	-0,087
-270,584	177,687	-0,044	0,045
-269,570	800,000	0,081	0,226
-268,555	800,000	0,031	-0,065
-267,540	-200,000	-0,023	-0,146
-266,526	-47,813	0,109	0,038
-265,511	261,166	0,063	-0,078
-264,497	-200,000	-0,009	-0,079
-263,482	740,610	0,032	0,061
-262,467	18,390	0,080	0,045
-261,453	-136,928	0,126	-0,010
-260,438	-135,746	0,173	0,014
-259,424	231,420	-0,044	0,052
-258,409	118,634	0,150	-0,132
-257,395	-98,550	0,056	-0,010
-256,380	-14,615	-0,048	-0,022
-255,365	367,757	0,062	-0,090
-254,351	96,452	-0,076	-0,062
-253,336	238,379	-0,021	0,025
-252,322	-200,000	0,021	0,094
-251,307	-200,000	-0,005	0,160
-250,292	-10,786	-0,044	0,021
-249,278	167,026	0,050	0,051
-248,263	2,493	-0,022	0,011
-247,249	-133,245	-0,097	0,009
-246,234	-138,833	0,099	-0,008
-245,219	48,832	-0,018	-0,012
-244,205	-4,389	-0,173	-0,085
-243,190	-151,318	0,088	-0,005
-242,176	-200,000	-0,025	-0,112
-241,161	-44,381	0,103	-0,036
-240,146	-200,000	0,036	0,122
-239,132	106,984	0,045	0,038
-238,117	800,000	-0,015	-0,036
-237,103	56,532	0,068	-0,047
-236,088	-84,234	-0,081	0,018
-235,073	-41,328	0,109	0,040
-234,059	138,271	0,050	0,047
-233,044	-3,539	-0,077	-0,038
-232,030	-19,841	-0,051	-0,022
-231,015	-200,000	-0,003	0,013
-230,000	-200,000	-0,035	-0,119
-228,986	-200,000	0,003	-0,036
-227,971	431,298	0,111	0,172
-226,957	46,215	-0,055	0,036
-225,942	800,000	0,080	0,192
-224,927	-80,146	-0,077	0,018
-223,913	800,000	-0,031	0,095
-222,898	-39,944	-0,007	0,002
-221,884	-200,000	-0,012	-0,111
-220,869	-120,617	-0,068	0,008
-219,855	800,000	0,058	-0,127
-218,840	-22,387	-0,084	-0,036
-217,825	800,000	-0,054	0,140
-216,811	-16,925	0,043	0,019
-215,796	6,235	-0,031	0,016
-214,782	571,267	0,040	0,069
-213,767	74,151	0,093	0,069
-212,752	195,371	-0,071	-0,077
-211,738	-192,544	0,080	0,001
-210,723	800,000	-0,006	-0,016
-209,709	149,766	0,093	-0,090
-208,694	94,522	-0,039	-0,031
-207,679	-136,133	-0,127	-0,010
-206,665	-10,082	-0,038	0,018
-205,650	534,078	0,069	0,116
-204,636	-25,303	0,094	0,039
-203,621	381,079	-0,092	-0,134
-202,606	41,331	0,076	-0,049
-201,592	-134,674	-0,093	0,008
-200,577	252,256	-0,072	-0,087
-199,563	-200,000	0,005	0,095
-198,548	180,775	0,096	0,100
-197,533	-12,696	-0,062	-0,029
-196,519	-9,398	-0,046	0,022
-195,504	572,502	-0,018	0,031
-194,490	-200,000	-0,005	0,112
-193,475	414,920	0,100	-0,152
-192,460	450,763	-0,055	0,087
-191,446	800,000	0,052	0,105
-190,431	800,000	0,027	0,075
-189,417	-170,735	-0,033	-0,001
-188,402	800,000	0,027	-0,064
-187,387	-200,000	-0,010	0,138
-186,373	-171,851	0,046	-0,001
-185,358	-200,000	0,003	-0,073
-184,344	199,506	0,049	0,054
-183,329	-135,440	0,113	0,009
-182,315	26,538	0,180	0,107
-181,300	219,943	0,061	0,069
-180,285	-78,187	-0,184	0,045
-179,271	107,405	-0,038	0,032
-178,256	7,781	0,029	0,016
-177,242	685,514	0,072	-0,134
-176,227	-200,000	0,005	-0,079
-175,212	-200,000	-0,010	0,045
-174,198	126,698	-0,141	0,127
-173,183	50,466	0,053	0,036
-172,169	-106,898	-0,112	-0,017
-171,154	15,582	-0,078	0,043
-170,139	-200,000	-0,013	0,134
-169,125	-0,044	0,009	0,005
-168,110	800,000	0,036	0,079
-167,096	-83,107	-0,135	-0,031
-166,081	-31,676	-0,081	0,032
-165,066	-200,000	-0,018	-0,063
-164,052	233,442	0,019	0,022
-163,037	484,813	0,059	-0,095
-162,023	13,632	0,091	0,050
-161,008	-154,039	-0,070	0,003
-159,993	139,570	0,047	0,044
-158,979	-47,819	0,147	0,050
-157,964	-106,655	-0,171	0,027
-156,950	800,000	-0,029	-0,079
-155,935	137,247	-0,015	0,014
-154,920	418,277	0,013	-0,019
-153,906	-200,000	0,016	0,113
-152,891	440,048	0,088	-0,136
-151,877	-86,439	0,146	-0,032
-150,862	-200,000	0,010	-0,160
-149,847	-90,896	0,115	-0,023
-148,833	-3,041	0,064	-0,031
-147,818	92,320	0,025	0,020
-146,804	103,388	0,075	0,063
-145,789	-181,056	0,081	0,001
-144,775	-200,000	0,002	0,036
-143,760	-105,067	-0,127	0,020
-142,745	-12,998	0,057	0,026
-141,731	632,270	0,038	0,069
-140,716	39,047	0,012	0,008
-139,702	-200,000	0,032	0,222
-138,687	187,384	-0,080	0,084
-137,672	93,856	-0,034	-0,028
-136,658	31,060	-0,025	-0,015
-135,643	-200,000	-0,058	-0,204
-134,629	-200,000	0,002	-0,023
-133,614	7,750	-0,077	0,041
-132,599	-56,238	-0,042	0,013
-131,585	-120,039	-0,008	0,001
-130,570	5,930	-0,010	0,005
-129,556	-200,000	0,042	-0,144
-128,541	-200,000	0,006	-0,084
-127,526	83,088	0,053	-0,041
-126,512	-93,635	-0,037	-0,007
-125,497	187,154	-0,025	-0,026
-124,483	167,125	0,034	0,034
-123,468	-200,000	0,005	0,089
-122,453	-8,832	0,086	0,041
-121,439	-102,627	-0,121	-0,020
-120,424	-106,542	-0,114	-0,018
-119,410	-96,094	0,162	-0,030
-118,395	-116,903	0,041	-0,005
-117,380	-21,354	-0,128	0,055
-116,366	800,000	-0,004	0,008
-115,351	-200,000	0,018	-0,137
-114,337	296,423	-0,082	-0,107
-113,322	800,000	0,041	-0,093
-112,307	800,000	-0,026	0,060
-111,293	-80,596	0,036	-0,008
-110,278	800,000	0,023	0,067
-109,264	800,000	0,055	-0,137
-108,249	30,613	-0,161	-0,097
-107,234	28,625	-0,176	-0,105
-106,220	-161,126	-0,072	-0,003
-105,205	800,000	0,021	-0,050
-104,191	6,901	-0,029	0,015
-103,176	252,315	-0,062	0,075
-102,162	-200,000	-0,011	-0,042
-101,147	-110,298	0,017	0,002
-100,132	-200,000	0,041	-0,174
-99,118	800,000	0,013	-0,029
-98,103	-126,976	-0,022	-0,002
-97,089	-84,042	-0,092	0,020
-96,074	131,500	0,107	0,098
-95,059	-200,000	-0,001	0,101
-94,045	-200,000	-0,022	-0,177
-93,030	-200,000	-0,001	0,026
-92,016	425,219	-0,050	0,076
-91,001	-200,000	-0,021	0,093
-89,986	185,328	-0,059	0,062
-88,972	-156,004	0,134	-0,006
-87,957	-200,000	-0,038	0,125
-86,943	-200,000	-0,026	0,103
-85,928	-135,161	-0,016	0,001
-84,913	4,450	0,012	-0,006
-83,899	227,359	-0,057	-0,065
-82,884	800,000	-0,041	0,084
-81,870	-200,000	0,021	-0,070
-80,855	-200,000	-0,039	0,235
-79,840	193,272	-0,025	-0,027
-78,826	154,543	-0,033	-0,032
-77,811	5,933	0,067	-0,035
-76,797	-141,137	-0,081	-0,006
-75,782	-73,777	0,064	-0,016
-74,767	-54,883	0,315	0,100
-73,753	62,967	-0,063	0,045
-72,738	-81,461	-0,031	0,007
-71,724	75,058	-0,101	-0,075
-70,709	105,718	0,064	-0,054
-69,694	502,562	-0,073	-0,120
-68,680	800,000	0,037	0,075
-67,665	133,198	-0,051	-0,046
-66,651	183,583	0,088	-0,093
-65,636	-163,751	-0,142	0,005
-64,622	-60,784	0,053	-0,016
-63,607	94,561	-0,127	0,102
-62,592	202,906	-0,084	0,091
-61,578	-52,184	0,132	-0,043
-60,563	328,189	0,034	0,046
-59,549	-46,735	0,065	-0,022
-58,534	45,067	-1,816	-1,179
-57,519	427,950	-1,357	-2,076
-56,505	-200,000	-0,403	-4,386
-55,490	592,420	0,877	1,535
-54,476	800,000	5,110	11,331
-53,461	-200,000	21,042	337,550
-52,446	800,000	758,753	2348,026
-51,432	556,399	1661,640	2837,230
-50,417	73,612	1662,266	1227,954
-49,403	18,290	1535,541	863,075
-48,388	12,179	1459,133	790,554
-47,373	19,274	1449,710	819,476
-46,359	15,582	1439,394	796,046
-45,344	10,499	1435,137	769,445
-44,330	10,462	1433,214	768,208
-43,315	10,417	1431,359	766,968
-42,300	10,440	1429,582	766,096
-41,286	10,449	1428,244	765,394
-40,271	10,418	1427,070	764,586
-39,257	10,424	1426,007	764,012
-38,242	10,418	1425,095	763,468
-37,227	10,454	1423,822	762,923
-36,213	10,470	1422,463	762,243
-35,198	10,399	1421,538	761,379
-34,184	10,492	1420,294	761,121
-33,169	10,423	1418,962	760,052
-32,154	10,521	1417,917	759,927
-31,140	10,497	1416,792	759,178
-30,125	10,545	1415,695	758,785
-29,111	10,509	1414,582	757,990
-28,096	10,439	1413,538	757,073
-27,082	10,395	1412,321	756,182
-26,067	10,375	1411,220	755,471
-25,052	10,386	1410,147	754,920
-24,038	10,465	1409,074	754,683
-23,023	10,432	1408,297	754,081
-22,009	10,348	1407,183	753,062
-20,994	10,404	1405,917	752,618
-19,979	10,405	1405,424	752,328
-18,965	10,370	1404,475	751,626
-17,950	10,372	1403,266	750,962
-16,936	10,388	1402,481	750,583
-15,921	10,302	1401,719	749,744
-14,906	10,297	1400,630	749,110
-13,892	10,298	1399,708	748,594
-12,877	10,325	1398,894	748,253
-11,863	10,290	1398,215	747,699
-10,848	10,255	1397,131	746,928
-9,833	10,269	1396,089	746,405
-8,819	10,219	1395,356	745,750
-7,804	10,247	1394,464	745,373
-6,790	10,254	1393,447	744,835
-5,775	10,214	1392,664	744,199
-4,760	10,246	1391,531	743,711
-3,746	10,215	1390,501	742,990
-2,731	10,235	1389,587	742,565
-1,717	10,171	1388,959	741,904
-0,702	10,183	1387,145	740,963
0,313	14,191	1299,984	712,758
1,327	30,293	690,786	415,282
2,342	47,605	119,572	78,551
3,356	0,776	16,557	8,335
4,371	12,082	3,480	1,883
5,386	1,540	0,958	0,485
6,400	800,000	0,230	0,500
7,415	-83,673	-0,157	-0,035
8,429	44,490	-0,302	-0,195
9,444	-61,486	-0,316	-0,093
10,459	49,228	-0,305	-0,202
11,473	57,148	-0,342	-0,235
12,488	-3,428	-0,259	-0,127
13,502	-5,063	-0,341	-0,165
14,517	57,110	-0,315	-0,216
15,531	89,753	-0,396	-0,312
16,546	298,923	-0,238	-0,310
17,561	51,486	-0,306	-0,204
18,575	-47,042	-0,270	-0,092
19,590	23,800	-0,281	-0,162
20,604	64,879	-0,237	-0,169
21,619	139,074	-0,371	-0,343
22,634	171,215	-0,328	-0,331
23,648	149,304	-0,305	-0,291
24,663	93,427	-0,307	-0,244
25,677	60,504	-0,345	-0,240
26,692	68,891	-0,325	-0,235
27,707	17,190	-0,399	-0,222
28,721	7,209	-0,402	-0,211
29,736	104,511	-0,372	-0,308
30,750	183,585	-0,437	-0,455
31,765	68,810	-0,459	-0,331
32,780	24,273	-0,387	-0,224
33,794	118,554	-0,230	-0,200
34,809	27,068	-0,301	-0,177
35,823	85,216	-0,311	-0,240
36,838	18,308	-0,494	-0,277
37,853	226,648	-0,326	-0,373
38,867	553,384	-0,194	-0,330
39,882	31,603	-0,274	-0,165
40,896	34,370	-0,349	-0,214
41,911	-43,801	-0,436	-0,153
42,926	-60,853	-0,434	-0,128
43,940	187,391	-0,334	-0,351
44,955	59,109	-0,391	-0,270
45,969	-1,813	-0,317	-0,156
46,984	-6,073	-0,248	-0,119
47,999	107,922	-0,262	-0,219
49,013	95,908	-0,347	-0,279
50,028	127,454	-0,251	-0,224
51,042	66,888	-0,394	-0,282
52,057	44,143	-0,362	-0,233
53,071	156,155	-0,322	-0,312
54,086	34,702	-0,269	-0,165
55,101	147,262	-0,315	-0,298
56,115	-20,430	-0,373	-0,161
57,130	40,757	-0,427	-0,270
58,144	217,880	-0,234	-0,263
59,159	162,771	-0,360	-0,355
60,174	98,370	-0,298	-0,241
61,188	111,532	-0,262	-0,222
62,203	75,325	-0,360	-0,266
63,217	149,238	-0,241	-0,229
64,232	74,388	-0,354	-0,260
65,247	56,607	-0,363	-0,247
66,261	31,754	-0,413	-0,249
67,276	130,868	-0,342	-0,308
68,290	-55,216	-0,395	-0,124
69,305	78,923	-0,277	-0,208
70,320	-63,650	-0,385	-0,110
71,334	-145,348	-0,415	-0,026
72,349	-33,095	-0,405	-0,157
73,363	6,894	-0,305	-0,159
74,378	199,103	-0,207	-0,222
75,393	9,452	-0,428	-0,227
76,407	-145,741	-0,290	-0,018
77,422	288,572	-0,281	-0,358
78,436	185,866	-0,359	-0,375
79,451	60,031	-0,362	-0,250
80,466	36,305	-0,387	-0,239
81,480	-48,360	-0,367	-0,123
82,495	-42,148	-0,310	-0,111
83,509	102,119	-0,307	-0,251
84,524	148,147	-0,250	-0,236
85,539	22,749	-0,307	-0,176
86,553	48,888	-0,177	-0,116
87,568	86,818	-0,178	-0,137
88,582	45,137	-0,365	-0,235
89,597	-44,745	-0,384	-0,133
90,611	757,607	-0,142	-0,269
91,626	-192,751	-0,411	-0,003
92,641	-142,881	-0,169	0,011
93,655	-35,215	-0,302	-0,115
94,670	314,381	-0,210	-0,278
95,684	210,365	-0,226	-0,248
96,699	35,585	-0,207	-0,127
97,714	77,683	-0,245	-0,182
98,728	91,776	-0,178	-0,140
99,743	64,753	-0,248	-0,175
100,757	51,525	-0,219	-0,146
101,772	199,434	-0,216	-0,232
102,787	49,752	-0,299	-0,197
103,801	100,057	-0,287	-0,233
104,816	11,874	-0,402	-0,215
105,830	18,065	-0,238	-0,133
106,845	-76,778	-0,301	-0,073
107,860	32,937	-0,246	-0,149
108,874	40,595	-0,240	-0,151
109,889	-6,366	-0,261	-0,124
110,903	-93,056	-0,279	-0,054
111,918	263,978	-0,136	-0,166
112,933	-99,272	-0,242	-0,042
113,947	23,718	-0,253	-0,145
114,962	-69,281	-0,266	-0,071
115,976	141,788	-0,180	-0,167
116,991	140,116	-0,249	-0,229
118,006	213,126	-0,250	-0,277
119,020	205,344	-0,226	-0,246
120,035	62,305	-0,329	-0,229
121,049	81,247	-0,277	-0,209
122,064	297,154	-0,155	-0,199
123,079	140,208	-0,194	-0,179
124,093	584,631	-0,156	-0,269
125,108	-12,307	-0,292	-0,133
126,122	348,609	-0,161	-0,222
127,137	127,074	-0,228	-0,202
128,151	421,982	-0,139	-0,209
129,166	-4,254	-0,307	-0,148
130,181	146,101	-0,225	-0,211
131,195	93,859	-0,226	-0,179
132,210	96,591	-0,324	-0,259
133,224	129,798	-0,293	-0,261
134,239	155,664	-0,112	-0,108
135,254	82,878	-0,198	-0,150
136,268	378,836	-0,095	-0,137
137,283	50,141	-0,290	-0,191
138,297	-37,361	-0,310	-0,115
139,312	387,078	-0,215	-0,310
140,327	14,856	-0,171	-0,093
141,341	-152,500	-0,293	-0,014
142,356	-45,008	-0,271	-0,093
143,370	28,115	-0,310	-0,182
144,385	153,116	-0,093	-0,089
145,400	-8,344	-0,341	-0,159
146,414	162,108	-0,232	-0,227
147,429	74,962	-0,234	-0,171
148,443	71,253	-0,288	-0,208
149,458	-85,210	-0,237	-0,051
150,473	67,599	-0,239	-0,170
151,487	137,307	-0,176	-0,160
152,502	12,112	-0,345	-0,185
153,516	65,951	-0,189	-0,133
154,531	-34,508	-0,290	-0,110
155,546	31,005	-0,323	-0,192
156,560	80,692	-0,289	-0,216
157,575	128,630	-0,146	-0,129
158,589	-20,159	-0,245	-0,105
159,604	23,669	-0,231	-0,132
160,619	26,907	-0,262	-0,153
161,633	178,679	-0,178	-0,181
162,648	297,929	-0,178	-0,228
163,662	146,133	-0,281	-0,262
164,677	15,994	-0,184	-0,101
165,692	162,788	-0,173	-0,169
166,706	126,790	-0,136	-0,120
167,721	-0,846	-0,243	-0,119
168,735	30,694	-0,287	-0,170
169,750	204,514	-0,194	-0,209
170,764	664,186	-0,150	-0,270
171,779	-30,105	-0,202	-0,080
172,794	269,192	-0,131	-0,160
173,808	125,533	-0,275	-0,241
174,823	-24,307	-0,238	-0,098
175,837	19,675	-0,191	-0,107
176,852	800,000	-0,111	-0,216
177,867	-136,985	-0,238	0,019
178,881	456,751	-0,136	-0,211
179,896	33,409	-0,118	-0,071
180,910	-58,886	-0,289	-0,086
181,925	120,709	-0,339	-0,293
182,940	311,554	-0,192	-0,250
183,954	395,314	-0,226	-0,329
184,969	232,521	-0,188	-0,214
185,983	-91,154	-0,206	-0,041
186,998	100,293	-0,152	-0,122
188,013	148,086	-0,226	-0,212
189,027	110,856	-0,257	-0,215
190,042	-22,531	-0,256	-0,107
191,056	117,026	-0,313	-0,267
192,071	58,431	-0,170	-0,116
193,086	-14,537	-0,197	-0,087
194,100	33,416	-0,085	-0,051
195,115	76,154	-0,229	-0,168
196,129	115,543	-0,294	-0,249
197,144	124,070	-0,117	-0,102
198,159	158,045	-0,277	-0,267
199,173	72,147	-0,219	-0,158
200,188	427,557	-0,144	-0,217
201,202	-21,671	-0,200	-0,084
202,217	357,901	-0,171	-0,237
203,232	348,008	-0,082	-0,112
204,246	288,922	-0,168	-0,212
205,261	74,928	-0,253	-0,185
206,275	6,974	-0,225	-0,116
207,290	60,163	-0,061	0,042
208,304	-0,191	-0,274	-0,134
209,319	-12,710	-0,168	-0,076
210,334	-165,631	-0,289	0,009
211,348	-6,029	-0,283	-0,133
212,363	89,663	-0,218	-0,169
213,377	55,461	-0,224	-0,150
214,392	-37,549	-0,242	-0,089
215,407	74,815	-0,198	-0,144
216,421	145,789	-0,109	-0,102
217,436	800,000	-0,094	-0,181
218,450	38,226	-0,217	-0,133
219,465	181,437	-0,213	-0,217
220,480	675,097	-0,186	-0,335
221,494	-41,974	-0,279	-0,098
222,509	-102,703	-0,152	-0,025
223,523	-104,669	-0,084	0,013
224,538	125,559	-0,241	-0,211
225,553	164,559	-0,208	-0,203
226,567	-119,276	-0,224	-0,027
227,582	-144,910	-0,129	0,008
228,596	-114,986	-0,064	0,008
229,611	31,276	-0,166	-0,099
230,626	163,823	-0,123	-0,119
231,640	-12,834	-0,173	-0,078
232,655	55,582	-0,271	-0,181
233,669	420,286	-0,156	-0,232
234,684	-17,700	-0,287	-0,124
235,699	-29,961	-0,263	-0,103
236,713	-44,908	-0,141	-0,048
237,728	632,833	-0,022	0,039
238,742	235,372	-0,158	-0,180
239,757	24,892	-0,254	-0,145
240,772	93,853	-0,221	-0,173
241,786	142,248	-0,249	-0,229
242,801	152,033	-0,056	-0,053
243,815	800,000	-0,141	-0,291
244,830	43,021	-0,174	-0,109
245,844	335,134	-0,145	-0,195
246,859	150,028	-0,202	-0,190
247,874	271,521	-0,253	-0,308
248,888	-132,765	-0,186	0,016
249,903	67,764	-0,235	-0,165
250,917	601,183	-0,125	-0,215
251,932	42,929	-0,209	-0,131
252,947	-200,000	-0,020	-0,072
253,961	-200,000	0,001	-0,164
254,976	102,245	-0,136	-0,110
255,990	222,925	-0,148	-0,165
257,005	302,316	-0,122	-0,157
258,020	757,883	-0,108	-0,202
259,034	138,231	-0,230	-0,209
260,049	395,929	-0,070	-0,101
261,063	298,032	-0,110	-0,140
262,078	195,417	-0,187	-0,196
263,093	800,000	-0,040	-0,113
264,107	-200,000	-0,059	-0,185
265,122	139,942	-0,139	-0,127
266,136	604,733	-0,089	-0,154
267,151	-155,116	-0,163	0,007
268,166	52,527	-0,260	-0,171
269,180	146,015	-0,214	-0,198
270,195	581,125	-0,149	-0,252
271,209	736,903	0,057	-0,105
272,224	272,229	-0,151	-0,183
273,239	-200,000	0,023	-0,114
274,253	-200,000	-0,062	-0,217
275,268	722,521	-0,087	-0,160
276,282	144,050	-0,185	-0,170
277,297	-35,626	-0,174	-0,065
278,312	144,698	-0,175	-0,161
279,326	325,698	-0,090	0,118
280,341	-200,000	-0,050	-0,170
281,355	137,767	-0,197	-0,178
282,370	-23,145	-0,137	-0,057
283,384	-24,786	-0,233	-0,095
284,399	8,511	-0,216	-0,112
285,414	314,023	-0,107	-0,139
286,428	141,341	-0,120	-0,109
287,443	238,833	-0,161	-0,185
288,457	238,725	-0,124	-0,142
289,472	-30,311	-0,275	-0,107
290,487	44,064	-0,196	-0,124
291,501	341,503	-0,071	-0,096
292,516	13,641	-0,149	-0,079
293,530	-200,000	-0,065	-0,227
294,545	800,000	-0,118	-0,226
295,560	24,354	-0,191	-0,108
296,574	171,423	-0,161	-0,159
297,589	341,911	-0,131	-0,177
298,603	8,362	-0,209	-0,108
299,618	669,086	-0,150	-0,267
300,633	199,076	-0,195	-0,206
301,647	-13,598	-0,162	-0,072
302,662	225,049	-0,190	-0,211
303,676	-15,741	-0,158	-0,069
304,691	38,901	-0,128	-0,079
305,706	151,817	-0,153	-0,144
306,720	367,002	-0,147	-0,205
307,735	-60,863	-0,080	-0,023
308,749	-132,388	-0,197	-0,017
309,764	142,942	-0,071	-0,064
310,779	-90,536	-0,184	-0,036
311,793	231,127	-0,092	-0,104
312,808	-16,130	-0,167	-0,073
313,822	256,522	-0,143	-0,168
314,837	231,562	-0,119	-0,134
315,852	127,094	-0,084	-0,073
316,866	122,278	-0,099	-0,085
317,881	645,741	-0,058	-0,101
318,895	-200,000	-0,048	-0,260
319,910	199,443	-0,111	-0,117
320,925	23,038	-0,197	-0,110
321,939	176,948	-0,156	-0,156
322,954	-77,595	-0,117	-0,028
323,968	447,615	-0,168	-0,254
324,983	77,099	-0,134	-0,097
325,997	-81,882	-0,045	0,010
327,012	244,190	-0,094	-0,109
328,027	-11,981	-0,203	-0,091
329,041	282,824	-0,124	-0,152
330,056	578,255	-0,077	-0,129
331,070	22,689	-0,180	-0,101
332,085	85,764	0,032	-0,024
333,100	-109,684	-0,137	-0,020
334,114	-149,873	-0,142	-0,007
335,129	-108,483	-0,121	-0,018
336,143	-108,695	-0,226	-0,033
337,158	110,268	-0,121	-0,100
338,173	742,685	-0,047	-0,087
339,187	800,000	-0,100	-0,224
340,202	181,994	-0,115	-0,116
341,216	-23,141	-0,204	-0,084
342,231	130,232	-0,102	-0,089
343,246	-89,386	-0,092	0,018
344,260	155,852	-0,063	-0,059
345,275	316,233	-0,114	-0,148
346,289	-85,800	-0,106	0,022
347,304	-200,000	-0,012	-0,057
348,319	156,574	-0,149	-0,141
349,333	45,553	-0,109	-0,069
350,348	149,785	-0,128	-0,119
351,362	263,891	-0,170	-0,202
352,377	-38,644	-0,066	0,024
353,392	-200,000	0,004	-0,030
354,406	-7,599	-0,073	0,034
355,421	206,378	1309,640	1396,296
356,435	158,720	1469,711	1396,777
