DTS Sentinel unit serial number:	SN410029Multiplexer serial number:	ORYXHardware model number:	OX2-SRSoftware version number:	ORYX F/W v4,00 Oryx Data Collector v3.7.2.0data status	okinstallation	B3 Nyhavnadifferential loss correction	single-endedforward channel	channel 1reverse channel	N/Adate	2023/11/30time	06:07:30forward acquisition time	300,00reverse acquisition time	0,00gamma	499,1914k internal	0,3210k external	0,3210temperature offset calibration	1,0000default loss term (dB/km)	0,3820temperature slope calibration	1,0000multiplexer offset coefficient	1,0000multiplexer slope coefficient	1,0000fibre end	0,00T internal ref (°C)	10,27T ext. ref 1 (°C)	-5,07T ext. ref 2 (°C)	-5,16length (m)	temperature (°C)	Stokes	anti-Stokes-744,400	800,000	-0,139	-0,313
-743,385	-200,000	0,014	0,259
-742,371	615,647	-0,161	-0,293
-741,356	-200,000	0,039	0,267
-740,342	29,784	-0,270	-0,166
-739,327	-200,000	0,023	0,285
-738,312	800,000	-0,102	-0,280
-737,298	521,566	-0,123	0,210
-736,283	258,394	-0,212	-0,265
-735,269	-200,000	-0,045	0,281
-734,254	206,574	-0,139	-0,157
-733,239	-33,474	-0,156	0,062
-732,225	96,942	-0,161	-0,134
-731,210	184,495	0,045	0,049
-730,196	-62,007	-0,120	0,036
-729,181	-152,217	-0,166	-0,009
-728,167	190,376	-0,100	-0,109
-727,152	334,817	-0,093	-0,131
-726,137	67,404	-0,072	-0,053
-725,123	800,000	0,032	-0,099
-724,108	-31,132	0,026	0,011
-723,094	13,077	-0,088	0,049
-722,079	-91,169	-0,070	0,014
-721,064	153,145	0,048	-0,047
-720,050	-200,000	-0,011	-0,087
-719,035	783,824	-0,035	-0,070
-718,021	15,431	0,037	0,021
-717,006	-200,000	-0,011	0,057
-715,991	-100,782	-0,043	0,008
-714,977	-200,000	-0,006	-0,110
-713,962	-28,585	-0,031	-0,013
-712,948	-85,508	0,065	0,015
-711,933	-62,402	-0,026	-0,008
-710,918	-200,000	-0,039	0,174
-709,904	178,171	-0,012	0,012
-708,889	-200,000	-0,011	-0,234
-707,875	35,176	-0,128	-0,081
-706,860	152,650	-0,050	-0,050
-705,845	-200,000	-0,008	-0,044
-704,831	-90,651	0,059	0,012
-703,816	-68,518	-0,082	0,023
-702,802	408,473	0,091	0,140
-701,787	-74,534	0,023	-0,006
-700,772	-65,725	-0,069	-0,020
-699,758	-200,000	0,004	0,076
-698,743	-82,802	-0,091	0,021
-697,729	121,208	-0,083	0,075
-696,714	-43,405	-0,039	-0,014
-695,699	-92,568	-0,097	0,020
-694,685	-14,747	-0,116	-0,054
-693,670	-12,622	-0,057	-0,027
-692,656	-85,350	0,108	0,024
-691,641	546,309	-0,049	-0,085
-690,627	13,281	0,067	0,037
-689,612	124,229	0,064	0,058
-688,597	738,011	0,055	-0,108
-687,583	-18,488	0,106	0,047
-686,568	-85,772	-0,016	0,004
-685,554	633,281	-0,026	0,047
-684,539	-200,000	-0,002	-0,040
-683,524	46,260	0,105	-0,070
-682,510	5,330	-0,087	-0,046
-681,495	218,229	-0,110	-0,127
-680,481	118,460	-0,068	-0,061
-679,466	0,564	-0,069	0,036
-678,451	55,212	-0,115	-0,080
-677,437	-200,000	-0,006	-0,151
-676,422	-57,611	-0,049	-0,015
-675,408	433,598	0,011	-0,017
-674,393	-200,000	0,001	-0,168
-673,378	-96,539	-0,066	-0,013
-672,364	6,338	-0,067	-0,036
-671,349	426,567	-0,075	-0,118
-670,335	99,577	-0,055	-0,046
-669,320	800,000	0,072	0,186
-668,305	-155,442	-0,201	0,009
-667,291	771,951	0,049	0,097
-666,276	-200,000	0,001	-0,072
-665,262	322,508	-0,087	-0,120
-664,247	110,370	-0,051	-0,044
-663,232	-165,629	0,069	0,002
-662,218	-200,000	-0,004	-0,036
-661,203	19,579	0,111	0,065
-660,189	-30,430	0,099	0,040
-659,174	800,000	-0,047	-0,121
-658,159	800,000	0,023	-0,072
-657,145	-200,000	-0,005	-0,078
-656,130	209,546	0,025	0,028
-655,116	-144,181	0,034	0,002
-654,101	338,460	0,027	-0,038
-653,086	498,304	-0,050	0,083
-652,072	-60,398	0,050	-0,015
-651,057	157,700	-0,114	-0,114
-650,043	-96,662	0,021	-0,004
-649,028	-53,585	-0,141	0,046
-648,014	363,920	0,064	-0,094
-646,999	134,061	0,019	-0,018
-645,984	628,281	0,033	0,061
-644,970	800,000	-0,054	-0,123
-643,955	-120,698	-0,053	-0,006
-642,941	6,891	-0,026	-0,014
-641,926	111,923	-0,043	0,037
-640,911	-134,510	-0,106	-0,009
-639,897	163,452	0,089	0,091
-638,882	-200,000	-0,012	0,130
-637,868	331,626	0,025	0,035
-636,853	-101,871	-0,039	-0,007
-635,838	90,081	-0,118	-0,095
-634,824	420,208	0,053	-0,083
-633,809	-86,842	-0,105	0,023
-632,795	800,000	0,040	0,085
-631,780	-200,000	-0,013	0,147
-630,765	800,000	-0,061	-0,128
-629,751	800,000	-0,054	-0,123
-628,736	-99,042	0,076	-0,014
-627,722	34,368	0,048	0,030
-626,707	-200,000	-0,012	0,112
-625,692	356,383	0,071	0,102
-624,678	741,134	0,007	-0,015
-623,663	239,236	-0,041	-0,049
-622,649	-132,887	-0,116	-0,010
-621,634	152,387	-0,036	-0,035
-620,619	-200,000	-0,002	0,104
-619,605	-96,464	0,096	-0,018
-618,590	800,000	0,010	-0,024
-617,576	132,271	-0,045	0,042
-616,561	-200,000	-0,039	-0,157
-615,546	-200,000	-0,026	-0,135
-614,532	-30,647	-0,084	-0,034
-613,517	-200,000	-0,012	0,132
-612,503	-91,439	0,171	0,035
-611,488	-200,000	-0,005	-0,021
-610,474	-200,000	0,047	-0,227
-609,459	-16,176	-0,059	-0,027
-608,444	800,000	0,011	0,025
-607,430	800,000	0,018	-0,040
-606,415	-135,102	-0,136	0,012
-605,401	288,456	-0,063	-0,082
-604,386	605,933	0,068	0,123
-603,371	800,000	-0,031	-0,067
-602,357	149,962	-0,088	-0,086
-601,342	800,000	-0,026	-0,053
-600,328	-200,000	-0,003	-0,101
-599,313	330,607	-0,064	-0,089
-598,298	-149,495	-0,098	0,005
-597,284	-160,740	0,079	0,003
-596,269	-27,841	0,039	0,016
-595,255	96,520	0,036	-0,029
-594,240	361,462	0,020	-0,029
-593,225	317,138	-0,053	0,072
-592,211	-200,000	-0,011	-0,135
-591,196	33,040	-0,070	-0,044
-590,182	248,560	-0,053	-0,065
-589,167	-99,223	0,100	0,018
-588,152	115,694	-0,071	-0,063
-587,138	-176,044	-0,131	0,002
-586,123	501,803	-0,030	-0,050
-585,109	-200,000	-0,027	-0,096
-584,094	147,073	-0,019	-0,019
-583,079	521,641	0,043	0,072
-582,065	-200,000	0,030	0,095
-581,050	-200,000	0,011	0,094
-580,036	234,449	0,008	0,009
-579,021	55,118	0,069	-0,048
-578,006	71,196	-0,114	-0,085
-576,992	-53,055	0,096	-0,032
-575,977	-126,605	-0,067	0,007
-574,963	-200,000	-0,048	0,249
-573,948	233,195	0,079	-0,094
-572,934	96,870	0,061	0,050
-571,919	116,978	-0,074	0,065
-570,904	-200,000	0,025	-0,166
-569,890	-180,829	-0,077	-0,001
-568,875	88,504	0,113	-0,090
-567,861	-29,691	0,048	-0,019
-566,846	-200,000	-0,013	0,075
-565,831	-48,264	0,069	-0,024
-564,817	-200,000	-0,035	-0,139
-563,802	-200,000	0,007	-0,116
-562,788	221,608	-0,058	-0,067
-561,773	-104,815	0,158	0,026
-560,758	108,697	0,036	-0,031
-559,744	-200,000	0,009	0,061
-558,729	140,725	-0,079	0,075
-557,715	168,115	-0,043	0,044
-556,700	213,401	0,040	-0,045
-555,685	67,783	0,115	-0,084
-554,671	-161,383	0,141	0,005
-553,656	-36,804	-0,069	0,026
-552,642	-200,000	-0,000	0,058
-551,627	-200,000	-0,038	0,142
-550,612	334,788	0,063	0,089
-549,598	-151,700	-0,099	0,005
-548,583	-15,302	-0,106	0,049
-547,569	55,961	0,014	-0,010
-546,554	679,948	-0,059	-0,111
-545,539	-50,263	0,121	0,041
-544,525	94,555	-0,170	-0,139
-543,510	485,422	0,012	-0,020
-542,496	-200,000	0,019	-0,179
-541,481	-147,060	-0,022	-0,001
-540,466	-131,624	-0,071	0,007
-539,452	-104,412	0,128	0,021
-538,437	-20,962	0,080	-0,035
-537,423	91,501	-0,091	0,074
-536,408	-35,079	0,123	0,048
-535,393	98,747	-0,113	-0,094
-534,379	479,709	-0,058	-0,096
-533,364	-200,000	0,024	-0,083
-532,350	36,414	0,091	0,058
-531,335	-200,000	-0,008	0,072
-530,321	-56,702	0,079	0,025
-529,306	800,000	-0,003	-0,007
-528,291	17,982	-0,133	-0,076
-527,277	394,836	0,074	-0,111
-526,262	235,556	-0,113	-0,135
-525,248	-5,794	-0,135	-0,066
-524,233	-162,959	0,194	-0,007
-523,218	-200,000	-0,014	0,107
-522,204	492,180	-0,068	-0,113
-521,189	800,000	-0,043	-0,107
-520,175	67,083	-0,055	0,040
-519,160	-76,105	0,061	-0,015
-518,145	494,822	0,050	-0,083
-517,131	-200,000	0,009	0,095
-516,116	-200,000	0,007	-0,027
-515,102	-89,018	-0,048	0,010
-514,087	236,707	-0,064	-0,076
-513,072	800,000	-0,071	-0,173
-512,058	33,679	0,056	-0,035
-511,043	-200,000	-0,027	0,089
-510,029	219,744	-0,090	0,104
-509,014	-101,230	0,076	-0,013
-507,999	-58,176	-0,021	0,007
-506,985	584,605	-0,080	-0,142
-505,970	-176,764	-0,070	0,001
-504,956	800,000	-0,026	-0,053
-503,941	-200,000	-0,003	0,009
-502,926	-38,815	0,182	0,069
-501,912	-1,256	-0,077	0,039
-500,897	-29,807	0,101	-0,041
-499,883	-200,000	-0,001	-0,117
-498,868	800,000	0,054	-0,117
-497,853	324,312	-0,087	-0,119
-496,839	53,329	-0,098	-0,068
-495,824	-69,810	0,137	0,037
-494,810	-200,000	0,004	0,107
-493,795	-32,340	0,101	-0,040
-492,781	746,215	0,039	-0,076
-491,766	-57,549	-0,087	-0,027
-490,751	394,166	-0,066	-0,099
-489,737	-116,062	0,091	-0,012
-488,722	31,943	-0,092	0,057
-487,708	800,000	0,063	0,156
-486,693	-114,467	0,107	0,015
-485,678	-49,390	-0,049	0,017
-484,664	-165,766	0,136	-0,004
-483,649	24,986	0,120	-0,071
-482,635	-82,649	0,076	0,017
-481,620	-200,000	0,002	-0,083
-480,605	464,376	0,087	0,139
-479,591	172,640	0,027	0,028
-478,576	-200,000	-0,020	-0,110
-477,562	-26,951	0,049	-0,020
-476,547	-42,523	-0,129	-0,047
-475,532	-182,878	0,126	0,002
-474,518	800,000	0,038	0,077
-473,503	86,343	0,132	0,105
-472,489	-200,000	-0,005	0,080
-471,474	-200,000	0,011	-0,088
-470,459	312,412	0,014	0,019
-469,445	47,502	-0,097	-0,065
-468,430	270,520	-0,013	0,017
-467,416	-8,683	0,180	0,086
-466,401	-55,766	0,212	0,068
-465,386	451,698	0,090	0,143
-464,372	800,000	0,043	0,100
-463,357	-127,639	0,094	-0,010
-462,343	84,530	-0,067	0,053
-461,328	554,063	-0,018	-0,030
-460,313	-111,399	-0,051	0,007
-459,299	-200,000	0,006	0,045
-458,284	5,632	0,017	-0,009
-457,270	-200,000	-0,152	-0,000
-456,255	800,000	-0,024	0,052
-455,241	-19,684	-0,061	-0,027
-454,226	512,298	-0,059	-0,099
-453,211	-110,015	-0,131	0,019
-452,197	-200,000	-0,004	-0,051
-451,182	8,150	0,075	0,040
-450,168	-46,081	0,190	0,067
-449,153	-25,492	0,051	0,021
-448,138	-14,471	-0,076	0,035
-447,124	-52,312	-0,100	-0,033
-446,109	-200,000	-0,001	-0,183
-445,095	134,579	0,063	0,058
-444,080	-31,987	0,099	0,039
-443,065	460,928	-0,031	-0,050
-442,051	260,246	-0,074	-0,092
-441,036	196,996	0,024	0,026
-440,022	464,949	-0,039	-0,064
-439,007	80,083	-0,028	-0,021
-437,992	13,266	-0,026	0,014
-436,978	155,048	0,072	0,071
-435,963	-65,183	0,047	0,014
-434,949	-200,000	0,013	0,097
-433,934	-200,000	-0,012	-0,089
-432,919	-142,254	-0,089	-0,006
-431,905	406,872	-0,026	0,040
-430,890	-200,000	0,028	-0,148
-429,876	-200,000	-0,035	0,112
-428,861	-95,226	-0,118	0,023
-427,846	149,437	-0,097	-0,094
-426,832	800,000	0,074	-0,209
-425,817	-153,520	-0,111	-0,005
-424,803	80,620	-0,011	-0,008
-423,788	91,357	0,034	0,028
-422,773	-35,414	-0,114	0,044
-421,759	-39,554	0,108	0,040
-420,744	386,146	-0,045	-0,067
-419,730	112,245	0,066	0,058
-418,715	380,621	0,008	-0,012
-417,701	800,000	0,014	0,034
-416,686	-200,000	-0,021	0,094
-415,671	76,506	0,055	0,042
-414,657	18,286	0,082	-0,047
-413,642	800,000	0,023	0,049
-412,628	478,863	0,069	-0,113
-411,613	-5,253	0,061	-0,030
-410,598	779,748	0,037	0,073
-409,584	800,000	-0,019	-0,060
-408,569	7,858	0,041	0,022
-407,555	-140,549	0,028	0,002
-406,540	-0,753	0,085	-0,043
-405,525	-45,762	-0,029	0,010
-404,511	-125,430	0,078	0,008
-403,496	-200,000	-0,026	-0,086
-402,482	-200,000	-0,017	-0,064
-401,467	-200,000	0,013	0,163
-400,452	-200,000	0,012	-0,038
-399,438	800,000	-0,077	0,175
-398,423	190,761	-0,032	0,034
-397,409	48,538	-0,140	0,094
-396,394	800,000	0,031	-0,086
-395,379	-51,688	0,062	0,021
-394,365	33,784	-0,059	-0,037
-393,350	800,000	0,064	0,178
-392,336	234,390	0,047	-0,055
-391,321	800,000	-0,048	0,108
-390,306	-40,662	-0,076	0,028
-389,292	603,002	-0,026	0,046
-388,277	53,752	-0,058	0,040
-387,263	517,503	-0,027	-0,046
-386,248	-200,000	0,002	0,148
-385,233	800,000	0,022	-0,045
-384,219	-200,000	-0,017	0,152
-383,204	-200,000	-0,015	-0,056
-382,190	-200,000	-0,013	-0,053
-381,175	-140,726	-0,041	0,003
-380,160	-49,433	0,120	0,041
-379,146	-200,000	0,026	-0,091
-378,131	258,084	-0,042	0,052
-377,117	800,000	0,032	0,074
-376,102	6,528	-0,122	0,065
-375,088	56,955	-0,092	-0,064
-374,073	172,323	0,054	0,056
-373,058	-121,183	-0,176	-0,021
-372,044	-117,782	-0,082	-0,010
-371,029	-200,000	-0,022	0,091
-370,015	-200,000	-0,029	0,120
-369,000	-144,984	0,088	-0,006
-367,985	-200,000	-0,008	-0,028
-366,971	13,367	-0,091	-0,050
-365,956	-200,000	-0,004	-0,117
-364,942	7,247	-0,074	0,040
-363,927	-200,000	0,006	-0,047
-362,912	-22,628	-0,138	0,059
-361,898	305,916	0,059	0,079
-360,883	-90,466	0,123	-0,025
-359,869	329,431	0,091	-0,126
-358,854	-11,982	-0,055	-0,026
-357,839	-146,018	0,124	0,008
-356,825	800,000	0,067	0,198
-355,810	-200,000	-0,025	0,195
-354,796	800,000	-0,020	-0,060
-353,781	-144,832	-0,058	0,004
-352,766	800,000	0,044	0,101
-351,752	800,000	0,067	0,154
-350,737	167,056	-0,009	0,009
-349,723	-200,000	0,034	0,144
-348,708	433,080	0,101	0,158
-347,693	19,494	-0,028	0,016
-346,679	-200,000	-0,006	-0,113
-345,664	95,754	-0,042	-0,034
-344,650	-16,595	0,101	-0,046
-343,635	-200,000	0,023	-0,132
-342,620	800,000	0,022	0,054
-341,606	51,166	0,063	0,043
-340,591	29,599	0,050	-0,030
-339,577	-200,000	-0,014	0,112
-338,562	99,468	-0,083	0,069
-337,548	-200,000	0,019	-0,167
-336,533	-200,000	-0,004	0,015
-335,518	-94,695	-0,058	-0,011
-334,504	322,857	0,076	0,103
-333,489	97,353	-0,106	0,087
-332,475	-105,373	-0,082	0,013
-331,460	800,000	0,038	0,094
-330,445	-13,604	-0,019	-0,009
-329,431	-137,795	0,105	-0,008
-328,416	800,000	0,051	0,140
-327,402	96,587	0,133	0,109
-326,387	-43,221	-0,072	-0,026
-325,372	397,376	-0,084	0,125
-324,358	-108,821	-0,115	-0,017
-323,343	40,748	-0,053	-0,034
-322,329	800,000	0,017	0,038
-321,314	800,000	0,008	0,024
-320,299	-100,683	0,128	-0,022
-319,285	755,491	-0,048	0,093
-318,270	215,179	0,036	-0,040
-317,256	24,151	-0,158	0,093
-316,241	-56,955	-0,063	-0,020
-315,226	-110,299	-0,080	-0,012
-314,212	-57,981	0,159	-0,049
-313,197	-67,689	-0,150	0,042
-312,183	-200,000	-0,006	-0,092
-311,168	162,471	0,050	-0,050
-310,153	-111,841	0,054	0,008
-309,139	392,581	-0,025	0,037
-308,124	766,012	0,018	-0,034
-307,110	13,034	0,094	-0,051
-306,095	-200,000	0,031	0,102
-305,080	312,524	-0,090	-0,120
-304,066	-118,598	0,073	-0,009
-303,051	-25,575	-0,161	-0,067
-302,037	225,932	-0,118	-0,136
-301,022	299,901	0,099	0,130
-300,008	-200,000	-0,028	0,251
-298,993	-200,000	0,017	0,143
-297,978	260,398	-0,051	-0,063
-296,964	3,553	-0,110	-0,057
-295,949	95,111	-0,082	0,067
-294,935	-83,018	-0,059	0,013
-293,920	133,660	0,059	0,055
-292,905	133,351	0,095	0,088
-291,891	-10,373	0,037	-0,017
-290,876	75,239	0,068	-0,051
-289,862	580,844	-0,047	-0,083
-288,847	-82,778	-0,125	-0,029
-287,832	78,165	0,064	-0,049
-286,818	-56,452	-0,066	0,021
-285,803	12,889	-0,034	-0,019
-284,789	-200,000	0,027	0,136
-283,774	-169,709	-0,125	-0,003
-282,759	-200,000	-0,001	-0,137
-281,745	-92,561	0,030	0,006
-280,730	-131,385	0,052	0,005
-279,716	-47,615	0,066	-0,023
-278,701	-200,000	-0,031	0,110
-277,686	800,000	0,026	0,072
-276,672	-200,000	0,008	-0,126
-275,657	769,868	0,010	-0,019
-274,643	55,623	-0,119	0,082
-273,628	-56,434	0,142	-0,045
-272,613	222,889	-0,038	-0,044
-271,599	-21,732	0,088	-0,038
-270,584	-81,370	0,137	0,032
-269,570	-200,000	0,011	-0,075
-268,555	800,000	-0,055	0,145
-267,540	378,793	0,068	0,100
-266,526	-110,492	-0,122	0,018
-265,511	273,013	0,054	-0,068
-264,497	92,781	0,088	-0,071
-263,482	45,499	0,099	0,065
-262,467	-103,632	0,057	0,009
-261,453	310,015	-0,066	0,087
-260,438	-172,311	-0,021	-0,000
-259,424	-177,550	-0,065	-0,001
-258,409	319,767	0,020	-0,027
-257,395	800,000	0,010	-0,020
-256,380	-200,000	-0,017	0,106
-255,365	320,768	0,157	0,213
-254,351	287,565	0,046	0,059
-253,336	269,342	-0,054	0,067
-252,322	21,828	-0,055	0,032
-251,307	-130,120	-0,105	0,010
-250,292	-39,085	-0,088	-0,033
-249,278	88,294	0,148	-0,117
-248,263	174,482	0,119	0,123
-247,249	800,000	-0,016	-0,040
-246,234	56,290	-0,057	-0,039
-245,219	-64,009	-0,150	-0,043
-244,205	800,000	-0,058	-0,142
-243,190	-135,469	0,104	-0,009
-242,176	77,337	0,207	0,156
-241,161	-200,000	-0,027	-0,090
-240,146	714,706	-0,055	-0,104
-239,132	800,000	-0,008	-0,018
-238,117	-91,188	0,117	-0,024
-237,103	-200,000	0,020	-0,085
-236,088	32,722	-0,136	0,084
-235,073	-200,000	-0,003	0,091
-234,059	-67,518	0,044	0,012
-233,044	65,682	-0,026	0,019
-232,030	-200,000	-0,007	-0,053
-231,015	-44,298	-0,144	-0,051
-230,000	-200,000	0,002	0,022
-228,986	-200,000	0,015	-0,141
-227,971	175,383	0,092	-0,095
-226,957	614,780	-0,051	-0,091
-225,942	-100,873	-0,055	0,010
-224,927	101,356	0,048	-0,039
-223,913	329,622	0,017	0,024
-222,898	800,000	-0,049	-0,117
-221,884	51,046	-0,107	-0,072
-220,869	24,916	0,115	0,068
-219,855	85,021	-0,040	0,031
-218,840	142,795	-0,046	-0,043
-217,825	16,415	0,042	0,023
-216,811	222,693	-0,107	-0,122
-215,796	800,000	0,077	-0,227
-214,782	-159,560	-0,061	0,002
-213,767	144,473	0,028	0,027
-212,752	-200,000	0,013	0,063
-211,738	-200,000	-0,014	0,088
-210,723	99,295	0,028	-0,023
-209,709	-200,000	-0,003	-0,028
-208,694	-149,010	0,068	-0,004
-207,679	476,366	0,019	0,030
-206,665	28,477	0,028	-0,017
-205,650	-200,000	-0,026	0,121
-204,636	94,752	-0,112	0,091
-203,621	10,205	-0,129	-0,069
-202,606	-47,936	-0,035	-0,012
-201,592	50,783	-0,131	-0,088
-200,577	236,702	-0,026	0,030
-199,563	-82,451	0,134	0,031
-198,548	-4,398	0,104	0,051
-197,533	-70,865	-0,101	-0,027
-196,519	-35,512	0,069	0,027
-195,504	-10,201	0,082	-0,038
-194,490	-200,000	-0,017	0,132
-193,475	-200,000	-0,018	-0,097
-192,460	74,976	-0,068	0,051
-191,446	-50,801	0,020	-0,007
-190,431	-26,180	-0,026	-0,011
-189,417	235,414	0,147	0,173
-188,402	30,617	-0,080	-0,049
-187,387	8,845	0,071	-0,038
-186,373	741,376	-0,050	-0,095
-185,358	747,469	0,039	-0,075
-184,344	62,223	0,106	0,075
-183,329	-200,000	-0,017	0,183
-182,315	194,616	0,097	0,104
-181,300	114,228	-0,070	-0,061
-180,285	204,398	0,057	0,063
-179,271	-65,406	-0,111	-0,032
-178,256	272,369	0,037	-0,046
-177,242	48,577	0,009	-0,006
-176,227	-158,745	0,033	-0,001
-175,212	-44,338	0,174	0,061
-174,198	-200,000	0,000	0,013
-173,183	-200,000	-0,020	-0,135
-172,169	34,319	-0,068	-0,042
-171,154	-200,000	-0,004	-0,028
-170,139	-200,000	-0,001	-0,100
-169,125	-65,357	0,063	0,018
-168,110	-200,000	0,025	0,078
-167,096	-73,093	0,038	0,010
-166,081	-57,884	-0,139	-0,043
-165,066	242,007	-0,085	0,101
-164,052	283,410	0,120	-0,153
-163,037	-200,000	0,039	-0,177
-162,023	-200,000	-0,018	0,079
-161,008	16,323	0,129	-0,072
-159,993	-85,402	0,097	0,021
-158,979	72,952	-0,083	-0,062
-157,964	-200,000	-0,002	0,091
-156,950	269,525	0,111	0,139
-155,935	-10,017	0,058	0,027
-154,920	-200,000	0,006	0,038
-153,906	28,988	0,070	0,042
-152,891	-91,197	-0,132	0,027
-151,877	800,000	0,033	-0,069
-150,862	22,978	0,040	-0,023
-149,847	800,000	0,012	0,032
-148,833	166,082	0,066	-0,066
-147,818	742,113	0,043	-0,082
-146,804	469,047	0,047	0,075
-145,789	-200,000	0,003	0,017
-144,775	-93,872	-0,080	-0,015
-143,760	-27,513	0,090	-0,037
-142,745	-164,329	-0,110	-0,003
-141,731	800,000	-0,035	-0,075
-140,716	-200,000	0,028	-0,134
-139,702	180,458	0,097	0,101
-138,687	-200,000	-0,019	0,163
-137,672	168,465	0,015	0,015
-136,658	800,000	-0,098	-0,195
-135,643	-200,000	-0,010	0,155
-134,629	80,991	-0,048	-0,037
-133,614	800,000	-0,025	-0,060
-132,599	-200,000	0,007	-0,098
-131,585	160,790	0,037	0,037
-130,570	800,000	-0,036	-0,099
-129,556	-84,710	-0,085	-0,019
-128,541	-200,000	-0,011	-0,150
-127,526	-173,343	-0,011	-0,000
-126,512	23,930	-0,079	-0,046
-125,497	260,970	0,049	0,060
-124,483	112,196	0,046	0,039
-123,468	-139,348	-0,122	0,009
-122,453	-50,074	0,067	-0,022
-121,439	800,000	-0,013	0,030
-120,424	800,000	0,028	0,083
-119,410	89,003	-0,072	-0,057
-118,395	800,000	-0,043	0,117
-117,380	213,345	-0,076	0,085
-116,366	45,383	0,082	-0,053
-115,351	284,476	-0,052	-0,067
-114,337	-200,000	-0,032	-0,172
-113,322	47,216	-0,110	-0,072
-112,307	-200,000	-0,001	-0,133
-111,293	-200,000	0,003	-0,019
-110,278	581,965	0,085	0,148
-109,264	-200,000	0,006	0,168
-108,249	-0,262	-0,086	0,043
-107,234	102,966	0,121	-0,100
-106,220	-10,986	0,071	0,033
-105,205	-200,000	0,033	-0,106
-104,191	466,702	-0,021	0,033
-103,176	-6,948	0,153	-0,073
-102,162	800,000	-0,031	0,084
-101,147	-200,000	-0,012	0,134
-100,132	-170,573	-0,120	0,003
-99,118	642,608	-0,023	-0,041
-98,103	-51,172	-0,045	-0,015
-97,089	-96,575	0,029	0,005
-96,074	317,162	0,048	0,064
-95,059	310,534	0,042	-0,055
-94,045	800,000	-0,019	-0,042
-93,030	800,000	-0,024	0,067
-92,016	-200,000	-0,014	-0,102
-91,001	-55,896	0,056	-0,018
-89,986	-193,793	0,044	-0,000
-88,972	-200,000	-0,029	0,245
-87,957	501,421	-0,008	-0,013
-86,943	-58,827	-0,105	0,032
-85,928	437,747	-0,031	-0,048
-84,913	-7,144	-0,083	0,039
-83,899	-200,000	-0,002	-0,034
-82,884	43,894	-0,029	-0,019
-81,870	63,961	-0,037	0,026
-80,855	-81,470	0,023	0,005
-79,840	76,102	0,069	-0,052
-78,826	-90,564	0,159	0,032
-77,811	-130,354	-0,114	0,011
-76,797	154,309	0,068	0,066
-75,782	-173,100	-0,134	-0,003
-74,767	-200,000	-0,015	0,053
-73,753	-73,648	0,052	-0,013
-72,738	-200,000	-0,001	0,033
-71,724	-200,000	0,004	-0,014
-70,709	800,000	-0,016	-0,048
-69,694	-165,710	-0,092	-0,003
-68,680	-119,903	-0,131	0,016
-67,665	10,112	0,067	-0,036
-66,651	-200,000	-0,009	-0,046
-65,636	26,617	-0,112	-0,066
-64,622	212,400	-0,061	-0,068
-63,607	337,589	-0,055	-0,076
-62,592	163,737	0,052	0,051
-61,578	-147,751	-0,088	-0,005
-60,563	-200,000	-0,017	0,074
-59,549	-200,000	-0,008	0,146
-58,534	20,116	-1,899	-1,079
-57,519	519,445	-1,197	-1,988
-56,505	-200,000	-0,332	-4,247
-55,490	498,588	0,931	1,519
-54,476	800,000	5,089	11,176
-53,461	-200,000	21,198	338,168
-52,446	800,000	758,400	2350,401
-51,432	557,784	1661,606	2839,726
-50,417	73,635	1661,813	1227,610
-49,403	18,168	1535,303	862,233
-48,388	12,097	1458,473	789,718
-47,373	19,293	1449,518	819,375
-46,359	15,525	1438,808	795,366
-45,344	10,393	1434,630	768,591
-44,330	10,285	1433,045	767,194
-43,315	10,286	1430,967	766,056
-42,300	10,289	1429,277	765,137
-41,286	10,309	1427,972	764,502
-40,271	10,302	1426,892	763,860
-39,257	10,268	1425,756	763,059
-38,242	10,341	1424,501	762,705
-37,227	10,346	1423,410	762,113
-36,213	10,375	1422,085	761,510
-35,198	10,335	1420,885	760,652
-34,184	10,402	1419,998	760,463
-33,169	10,337	1418,622	759,387
-32,154	10,424	1417,545	759,189
-31,140	10,393	1416,290	758,345
-30,125	10,396	1415,240	757,764
-29,111	10,338	1414,219	756,913
-28,096	10,362	1412,942	756,312
-27,082	10,290	1411,897	755,388
-26,067	10,297	1410,837	754,824
-25,052	10,318	1409,860	754,371
-24,038	10,269	1408,847	753,569
-23,023	10,335	1407,777	753,275
-22,009	10,273	1406,631	752,342
-20,994	10,277	1405,796	751,881
-19,979	10,323	1404,853	751,565
-18,965	10,292	1404,009	750,935
-17,950	10,282	1402,865	750,248
-16,936	10,276	1402,237	749,855
-15,921	10,176	1401,306	748,861
-14,906	10,195	1400,419	748,448
-13,892	10,255	1399,251	748,071
-12,877	10,222	1398,291	747,374
-11,863	10,259	1397,607	747,151
-10,848	10,209	1396,713	746,412
-9,833	10,142	1395,974	745,677
-8,819	10,131	1395,169	745,168
-7,804	10,101	1394,289	744,528
-6,790	10,121	1392,923	743,860
-5,775	10,132	1392,073	743,431
-4,760	10,121	1391,081	742,821
-3,746	10,079	1390,183	742,118
-2,731	10,102	1389,211	741,675
-1,717	10,097	1388,507	741,247
-0,702	10,111	1386,667	740,297
0,313	14,087	1299,543	711,994
1,327	30,234	690,262	414,792
2,342	47,119	119,577	78,361
3,356	0,689	16,628	8,365
4,371	4,072	3,557	1,830
5,386	3,920	1,077	0,553
6,400	800,000	0,149	0,424
7,415	146,174	-0,146	-0,139
8,429	232,074	-0,214	-0,248
9,444	73,537	-0,312	-0,230
10,459	-43,243	-0,341	-0,121
11,473	71,122	-0,215	-0,157
12,488	-20,716	-0,271	-0,117
13,502	64,282	-0,289	-0,205
14,517	43,984	-0,322	-0,208
15,531	134,112	-0,297	-0,271
16,546	169,163	-0,386	-0,389
17,561	268,084	-0,267	-0,330
18,575	-42,417	-0,261	-0,093
19,590	74,011	-0,273	-0,201
20,604	0,026	-0,167	-0,083
21,619	3,450	-0,532	-0,272
22,634	23,635	-0,486	-0,281
23,648	37,702	-0,509	-0,318
24,663	100,221	-0,412	-0,336
25,677	137,797	-0,379	-0,350
26,692	137,650	-0,282	-0,260
27,707	800,000	-0,182	-0,357
28,721	62,378	-0,458	-0,322
29,736	173,265	-0,267	-0,271
30,750	-36,976	-0,382	-0,143
31,765	460,499	-0,329	-0,517
32,780	35,479	-0,534	-0,329
33,794	61,267	-0,328	-0,229
34,809	-36,056	-0,432	-0,164
35,823	69,998	-0,238	-0,172
36,838	106,714	-0,431	-0,359
37,853	37,457	-0,544	-0,339
38,867	344,286	-0,285	-0,394
39,882	50,295	-0,281	-0,186
40,896	101,395	-0,317	-0,259
41,911	84,152	-0,287	-0,220
42,926	20,301	-0,412	-0,234
43,940	-14,828	-0,520	-0,234
44,955	76,885	-0,388	-0,289
45,969	15,696	-0,247	-0,136
46,984	6,550	-0,394	-0,205
47,999	84,418	-0,238	-0,183
49,013	4,797	-0,421	-0,217
50,028	800,000	-0,139	-0,335
51,042	88,855	-0,380	-0,297
52,057	132,674	-0,304	-0,275
53,071	10,542	-0,324	-0,173
54,086	302,142	-0,216	-0,282
55,101	-25,489	-0,271	-0,112
56,115	-59,346	-0,379	-0,114
57,130	86,777	-0,263	-0,204
58,144	40,883	-0,534	-0,338
59,159	45,019	-0,342	-0,221
60,174	120,131	-0,307	-0,268
61,188	146,762	-0,411	-0,388
62,203	41,832	-0,368	-0,234
63,217	107,926	-0,359	-0,300
64,232	72,996	-0,276	-0,202
65,247	195,124	-0,207	-0,221
66,261	78,349	-0,347	-0,260
67,276	15,366	-0,428	-0,235
68,290	23,499	-0,296	-0,170
69,305	-10,219	-0,303	-0,141
70,320	79,175	-0,279	-0,210
71,334	-34,572	-0,387	-0,148
72,349	-12,127	-0,260	-0,119
73,363	-43,543	-0,204	-0,072
74,378	175,557	-0,326	-0,331
75,393	73,904	-0,402	-0,295
76,407	204,423	-0,279	-0,303
77,422	-22,438	-0,241	-0,102
78,436	28,305	-0,237	-0,140
79,451	-43,460	-0,265	-0,093
80,466	34,270	-0,327	-0,200
81,480	33,954	-0,385	-0,234
82,495	-27,372	-0,231	-0,094
83,509	23,619	-0,354	-0,204
84,524	174,759	-0,201	-0,204
85,539	12,881	-0,300	-0,162
86,553	94,896	-0,259	-0,206
87,568	65,146	-0,275	-0,194
88,582	206,275	-0,325	-0,355
89,597	177,193	-0,216	-0,221
90,611	-60,999	-0,259	-0,076
91,626	-20,133	-0,271	-0,117
92,641	-87,662	-0,282	-0,059
93,655	475,131	-0,185	-0,293
94,670	47,332	-0,274	-0,178
95,684	104,526	-0,329	-0,271
96,699	45,005	-0,286	-0,184
97,714	-11,474	-0,253	-0,116
98,728	136,751	-0,357	-0,326
99,743	15,585	-0,300	-0,164
100,757	28,597	-0,267	-0,158
101,772	321,989	-0,179	-0,239
102,787	-34,348	-0,257	-0,098
103,801	-62,695	-0,400	-0,115
104,816	800,000	-0,157	-0,318
105,830	514,694	-0,100	-0,163
106,845	7,514	-0,323	-0,168
107,860	32,645	-0,269	-0,162
108,874	107,863	-0,227	-0,189
109,889	58,628	-0,314	-0,215
110,903	479,731	-0,226	-0,359
111,918	24,331	-0,326	-0,188
112,933	-12,721	-0,287	-0,130
113,947	75,774	-0,316	-0,233
114,962	60,228	-0,283	-0,195
115,976	52,850	-0,288	-0,192
116,991	179,993	-0,232	-0,238
118,006	126,138	-0,271	-0,240
119,020	74,729	-0,306	-0,225
120,035	742,029	-0,140	-0,265
121,049	94,404	-0,159	-0,126
122,064	800,000	-0,139	-0,289
123,079	146,374	-0,222	-0,208
124,093	-10,722	-0,353	-0,162
125,108	20,606	-0,180	-0,101
126,122	118,453	-0,241	-0,207
127,137	175,688	-0,178	-0,180
128,151	102,830	-0,261	-0,213
129,166	390,568	-0,089	-0,130
130,181	104,128	-0,285	-0,233
131,195	141,815	-0,265	-0,245
132,210	87,273	-0,327	-0,252
133,224	54,875	-0,212	-0,143
134,239	-82,896	-0,205	-0,046
135,254	29,184	-0,133	-0,078
136,268	-113,970	-0,305	-0,041
137,283	-5,066	-0,218	-0,104
138,297	22,016	-0,352	-0,200
139,312	36,284	-0,366	-0,225
140,327	393,358	-0,175	-0,255
141,341	120,854	-0,178	-0,154
142,356	-108,510	-0,182	-0,027
143,370	27,640	-0,179	-0,105
144,385	39,846	-0,261	-0,163
145,400	167,415	-0,223	-0,221
146,414	105,926	-0,269	-0,222
147,429	94,387	-0,276	-0,219
148,443	-52,710	-0,225	-0,072
149,458	198,040	-0,139	-0,148
150,473	-110,858	-0,227	0,032
151,487	342,241	-0,162	-0,221
152,502	-19,285	-0,327	-0,141
153,516	35,128	-0,308	-0,188
154,531	25,683	-0,262	-0,152
155,546	328,365	-0,094	-0,127
156,560	-34,723	-0,308	-0,116
157,575	0,920	-0,249	-0,124
158,589	461,762	-0,208	-0,324
159,604	15,979	-0,195	-0,107
160,619	150,387	-0,199	-0,188
161,633	-66,355	-0,273	-0,075
162,648	8,519	-0,078	-0,041
163,662	142,627	-0,220	-0,203
164,677	62,675	-0,232	-0,161
165,692	179,412	-0,153	-0,155
166,706	213,561	-0,178	-0,196
167,721	122,690	-0,284	-0,247
168,735	25,911	-0,302	-0,175
169,750	22,642	-0,208	-0,118
170,764	348,312	-0,124	-0,170
171,779	-160,686	-0,257	-0,009
172,794	51,086	-0,245	-0,161
173,808	67,087	-0,292	-0,207
174,823	-129,094	-0,167	-0,016
175,837	228,989	-0,179	-0,203
176,852	164,235	-0,184	-0,180
177,867	19,462	-0,261	-0,145
178,881	-10,047	-0,204	-0,094
179,896	37,357	-0,209	-0,128
180,910	123,915	-0,205	-0,179
181,925	-27,349	-0,404	-0,163
182,940	109,945	-0,237	-0,198
183,954	57,281	-0,200	-0,135
184,969	22,831	-0,205	-0,117
185,983	503,674	-0,094	-0,152
186,998	103,637	-0,273	-0,223
188,013	25,180	-0,318	-0,183
189,027	55,575	-0,264	-0,177
190,042	202,852	-0,199	-0,214
191,056	8,940	-0,213	-0,111
192,071	47,333	-0,205	-0,132
193,086	333,657	-0,101	-0,136
194,100	64,575	-0,200	-0,140
195,115	55,082	-0,103	-0,069
196,129	160,684	-0,208	-0,202
197,144	128,795	-0,274	-0,243
198,159	102,538	-0,274	-0,222
199,173	103,557	-0,269	-0,219
200,188	143,143	-0,211	-0,194
201,202	-138,632	-0,184	-0,014
202,217	264,369	-0,198	-0,239
203,232	90,203	-0,202	-0,156
204,246	724,269	-0,087	-0,162
205,261	182,937	-0,120	-0,122
206,275	-68,846	-0,246	-0,065
207,290	92,767	-0,109	-0,086
208,304	-200,000	-0,048	-0,196
209,319	45,247	-0,175	-0,112
210,334	200,067	-0,133	-0,141
211,348	61,957	-0,170	-0,117
212,363	255,167	-0,183	-0,218
213,377	800,000	-0,078	-0,159
214,392	397,129	-0,132	-0,191
215,407	-43,326	-0,260	-0,091
216,421	800,000	-0,125	-0,294
217,436	454,667	-0,160	-0,247
218,450	148,913	-0,223	-0,209
219,465	268,709	-0,261	-0,317
220,480	-8,117	-0,318	-0,148
221,494	15,925	-0,176	-0,096
222,509	143,931	-0,184	-0,170
223,523	75,585	-0,162	-0,119
224,538	584,853	-0,119	-0,202
225,553	121,699	-0,185	-0,160
226,567	687,634	-0,144	-0,262
227,582	-200,000	-0,070	-0,243
228,596	-159,070	-0,240	-0,009
229,611	113,782	-0,208	-0,175
230,626	67,134	-0,133	-0,093
231,640	321,284	-0,130	-0,171
232,655	537,550	-0,155	-0,256
233,669	168,576	-0,229	-0,226
234,684	67,079	-0,174	-0,123
235,699	201,719	-0,159	-0,170
236,713	-117,983	-0,259	-0,032
237,728	-38,192	-0,205	-0,075
238,742	-200,000	0,013	-0,081
239,757	182,479	-0,231	-0,236
240,772	205,272	-0,223	-0,240
241,786	-51,039	-0,180	-0,058
242,801	-94,707	-0,211	-0,039
243,815	126,378	-0,130	-0,114
244,830	183,919	-0,176	-0,180
245,844	187,372	-0,157	-0,162
246,859	169,485	-0,209	-0,206
247,874	440,997	-0,117	-0,177
248,888	183,852	-0,262	-0,268
249,903	17,911	-0,239	-0,131
250,917	35,458	-0,187	-0,113
251,932	98,860	-0,128	-0,102
252,947	39,802	-0,295	-0,183
253,961	14,038	-0,276	-0,148
254,976	25,046	-0,313	-0,179
255,990	314,078	-0,189	-0,246
257,005	800,000	-0,046	-0,110
258,020	-50,046	-0,150	-0,049
259,034	27,731	-0,157	0,091
260,049	69,220	-0,182	-0,129
261,063	392,357	-0,132	-0,190
262,078	83,232	-0,148	-0,111
263,093	-83,939	-0,310	-0,068
264,107	61,983	-0,199	-0,137
265,122	333,111	-0,131	-0,175
266,136	101,194	-0,187	-0,150
267,151	16,292	-0,211	-0,114
268,166	-200,000	-0,051	-0,166
269,180	216,869	-0,194	-0,213
270,195	281,159	-0,155	-0,192
271,209	211,475	-0,202	-0,219
272,224	-200,000	-0,032	-0,207
273,239	177,825	-0,133	-0,134
274,253	102,579	-0,248	-0,200
275,268	16,577	-0,063	-0,034
276,282	34,988	-0,223	-0,134
277,297	8,971	-0,209	-0,108
278,312	361,431	-0,106	-0,147
279,326	12,169	-0,113	-0,060
280,341	27,394	-0,089	-0,052
281,355	9,380	-0,144	-0,075
282,370	204,840	-0,185	-0,198
283,384	-125,584	-0,066	0,007
284,399	308,918	-0,191	-0,246
285,414	-58,697	-0,234	-0,069
286,428	369,625	-0,133	-0,185
287,443	-200,000	-0,001	-0,180
288,457	-55,951	-0,151	-0,046
289,472	-35,668	-0,136	-0,051
290,487	41,205	-0,189	-0,117
291,501	54,788	-0,197	-0,130
292,516	-119,700	-0,192	0,023
293,530	-200,000	-0,040	-0,124
294,545	475,785	-0,097	-0,151
295,560	359,830	-0,168	-0,231
296,574	227,622	-0,144	-0,161
297,589	257,775	-0,227	-0,269
298,603	81,342	-0,238	-0,177
299,618	-8,599	-0,164	-0,075
300,633	-51,519	-0,148	-0,047
301,647	229,282	-0,112	-0,126
302,662	-154,909	-0,070	0,003
303,676	-141,368	-0,157	0,011
304,691	-13,127	-0,141	-0,063
305,706	347,865	-0,125	-0,170
306,720	-147,750	-0,118	0,007
307,735	800,000	-0,087	-0,180
308,749	219,846	-0,192	-0,211
309,764	146,919	-0,083	-0,077
310,779	64,602	-0,096	-0,066
311,793	-17,915	-0,121	-0,052
312,808	-75,880	-0,152	-0,037
313,822	-45,180	-0,221	-0,075
314,837	800,000	-0,049	-0,127
315,852	355,104	-0,141	-0,193
316,866	-41,795	-0,132	-0,046
317,881	-116,796	-0,111	-0,014
318,895	-23,147	-0,207	-0,085
319,910	-200,000	-0,055	-0,189
320,925	316,062	-0,152	-0,197
321,939	800,000	-0,053	-0,143
322,954	291,894	-0,120	-0,150
323,968	-136,724	-0,119	0,009
324,983	143,996	-0,203	-0,185
325,997	-82,484	-0,178	-0,039
327,012	356,943	-0,133	-0,182
328,027	113,834	-0,125	-0,104
329,041	84,787	-0,214	-0,161
330,056	35,639	-0,205	-0,123
331,070	117,859	-0,144	-0,121
332,085	-14,551	-0,036	0,016
333,100	97,648	-0,174	-0,137
334,114	-37,045	-0,132	-0,048
335,129	-103,749	-0,065	-0,010
336,143	152,447	-0,125	-0,117
337,158	800,000	-0,102	-0,244
338,173	417,260	-0,095	-0,140
339,187	108,577	-0,091	-0,074
340,202	800,000	-0,065	0,140
341,216	59,002	-0,106	-0,072
342,231	-45,157	-0,069	-0,023
343,246	-200,000	-0,048	-0,233
344,260	800,000	-0,052	-0,154
345,275	241,198	-0,096	-0,110
346,289	-200,000	-0,014	-0,088
347,304	-200,000	-0,052	-0,157
348,319	-42,589	-0,170	-0,059
349,333	800,000	-0,122	-0,286
350,348	-153,187	-0,253	-0,012
351,362	-190,476	-0,093	-0,001
352,377	-130,479	-0,102	0,009
353,392	-100,582	-0,059	0,010
354,406	-200,000	-0,007	-0,044
355,421	206,991	1310,436	1398,858
356,435	159,215	1470,600	1399,330
