DTS Sentinel unit serial number:	SN410029Multiplexer serial number:	ORYXHardware model number:	OX2-SRSoftware version number:	ORYX F/W v4,00 Oryx Data Collector v3.7.2.0data status	okinstallation	B3 Nyhavnadifferential loss correction	single-endedforward channel	channel 1reverse channel	N/Adate	2023/11/30time	00:12:30forward acquisition time	300,00reverse acquisition time	0,00gamma	499,1914k internal	0,3210k external	0,3210temperature offset calibration	1,0000default loss term (dB/km)	0,3820temperature slope calibration	1,0000multiplexer offset coefficient	1,0000multiplexer slope coefficient	1,0000fibre end	0,00T internal ref (°C)	10,87T ext. ref 1 (°C)	-4,37T ext. ref 2 (°C)	-4,49length (m)	temperature (°C)	Stokes	anti-Stokes-744,400	218,858	-0,281	-0,327
-743,385	-200,000	-0,041	0,338
-742,371	-15,240	-0,212	-0,098
-741,356	-200,000	-0,016	0,280
-740,342	-200,000	0,019	-0,113
-739,327	800,000	-0,070	0,215
-738,312	92,018	-0,289	-0,236
-737,298	598,813	0,124	0,223
-736,283	800,000	-0,130	-0,283
-735,269	-200,000	0,001	0,355
-734,254	68,907	-0,289	-0,215
-733,239	-53,485	-0,248	0,082
-732,225	57,636	-0,147	-0,104
-731,210	-72,092	0,172	0,046
-730,196	-42,068	-0,125	0,046
-729,181	800,000	-0,010	-0,028
-728,167	-21,474	-0,099	-0,044
-727,152	800,000	0,035	-0,079
-726,137	107,149	-0,070	0,060
-725,123	782,437	-0,056	-0,111
-724,108	-158,833	-0,083	-0,003
-723,094	-200,000	0,019	-0,096
-722,079	135,175	-0,089	-0,084
-721,064	45,209	-0,130	0,087
-720,050	-94,260	0,033	0,007
-719,035	-200,000	-0,023	0,085
-718,021	-200,000	0,011	-0,042
-717,006	800,000	-0,062	-0,133
-715,991	246,708	-0,093	0,114
-714,977	103,896	-0,070	0,059
-713,962	432,131	-0,021	-0,033
-712,948	753,332	-0,062	-0,121
-711,933	-58,818	0,129	0,040
-710,918	523,190	-0,052	-0,088
-709,904	-200,000	-0,008	-0,042
-708,889	-158,322	-0,105	-0,004
-707,875	800,000	-0,039	-0,080
-706,860	-39,983	0,002	-0,001
-705,845	-200,000	-0,021	-0,089
-704,831	322,142	0,090	0,124
-703,816	746,310	0,066	0,129
-702,802	-200,000	0,016	-0,101
-701,787	-12,298	-0,082	-0,039
-700,772	303,804	-0,064	-0,087
-699,758	-200,000	-0,013	0,124
-698,743	99,776	-0,125	0,105
-697,729	-200,000	-0,004	0,014
-696,714	-200,000	0,026	0,127
-695,699	68,441	-0,045	0,033
-694,685	-200,000	-0,020	-0,092
-693,670	-200,000	-0,014	-0,056
-692,656	6,436	-0,111	-0,060
-691,641	111,831	-0,080	0,070
-690,627	28,419	0,068	0,042
-689,612	-200,000	-0,039	0,229
-688,597	-200,000	-0,013	-0,063
-687,583	-158,710	-0,115	-0,005
-686,568	-200,000	0,008	-0,107
-685,554	148,852	-0,005	0,005
-684,539	749,168	0,024	-0,046
-683,524	54,350	0,121	0,084
-682,510	13,614	-0,120	-0,067
-681,495	-122,663	0,146	-0,017
-680,481	-200,000	0,005	0,085
-679,466	-93,557	-0,175	0,035
-678,451	-57,269	-0,191	-0,060
-677,437	-200,000	0,002	-0,094
-676,422	-2,156	0,188	0,095
-675,408	114,766	0,026	-0,023
-674,393	-30,892	-0,120	-0,049
-673,378	-200,000	0,024	-0,112
-672,364	-200,000	0,002	-0,133
-671,349	-200,000	0,022	-0,085
-670,335	800,000	0,060	-0,153
-669,320	800,000	-0,049	0,103
-668,305	-32,453	0,115	0,046
-667,291	-105,282	-0,100	0,016
-666,276	-53,965	0,125	0,041
-665,262	4,474	-0,062	-0,033
-664,247	-176,572	0,112	0,002
-663,232	791,008	-0,030	0,060
-662,218	-200,000	0,015	0,138
-661,203	-200,000	0,007	0,095
-660,189	800,000	0,030	-0,085
-659,174	64,835	0,099	-0,072
-658,159	800,000	0,037	0,081
-657,145	208,658	0,092	-0,104
-656,130	800,000	0,044	-0,119
-655,116	354,260	-0,093	-0,134
-654,101	-200,000	0,025	0,148
-653,086	-200,000	-0,017	-0,077
-652,072	-200,000	-0,028	-0,092
-651,057	-200,000	-0,016	-0,092
-650,043	-200,000	0,024	-0,109
-649,028	-200,000	-0,000	-0,057
-648,014	-110,828	0,105	0,016
-646,999	-56,288	-0,107	-0,034
-645,984	-13,195	0,082	-0,038
-644,970	523,960	-0,015	-0,025
-643,955	-200,000	-0,074	-0,310
-642,941	-200,000	-0,013	-0,092
-641,926	-55,452	-0,095	0,031
-640,911	54,925	-0,086	0,060
-639,897	506,328	0,021	-0,034
-638,882	-200,000	-0,022	0,116
-637,868	202,086	-0,057	-0,064
-636,853	-200,000	0,044	-0,184
-635,838	-200,000	0,026	-0,133
-634,824	800,000	-0,040	0,081
-633,809	250,057	0,083	0,102
-632,795	79,282	-0,092	0,071
-631,780	-18,048	-0,015	0,007
-630,765	66,863	0,038	0,028
-629,751	-200,000	0,031	-0,130
-628,736	151,007	-0,134	-0,132
-627,722	506,702	0,126	-0,211
-626,707	800,000	0,065	0,132
-625,692	66,546	-0,058	0,043
-624,678	67,690	-0,021	-0,016
-623,663	58,441	0,053	-0,037
-622,649	434,179	0,065	-0,103
-621,634	240,396	-0,074	-0,089
-620,619	21,121	-0,061	-0,035
-619,605	55,912	-0,016	-0,011
-618,590	498,327	-0,083	0,139
-617,576	486,249	0,097	0,160
-616,561	78,349	0,053	0,041
-615,546	-200,000	-0,014	-0,091
-614,532	-74,422	-0,065	-0,017
-613,517	110,194	0,033	0,029
-612,503	-119,177	-0,081	0,010
-611,488	800,000	-0,038	-0,112
-610,474	800,000	-0,006	-0,013
-609,459	-126,950	0,099	0,010
-608,444	-194,172	-0,070	0,000
-607,430	-116,977	-0,099	0,013
-606,415	34,625	-0,036	0,023
-605,401	-200,000	0,007	-0,075
-604,386	271,064	0,057	0,072
-603,371	305,112	0,071	0,095
-602,357	-149,402	-0,068	0,004
-601,342	322,676	0,028	-0,039
-600,328	-200,000	-0,001	-0,184
-599,313	800,000	-0,044	0,102
-598,298	-200,000	0,037	0,230
-597,284	-62,207	-0,105	0,031
-596,269	-200,000	0,016	-0,066
-595,255	183,150	0,103	0,109
-594,240	-100,443	-0,098	0,017
-593,225	-200,000	-0,006	-0,028
-592,211	620,591	0,080	-0,146
-591,196	-200,000	-0,004	0,042
-590,182	-129,064	0,103	0,010
-589,167	800,000	-0,027	0,078
-588,152	615,175	-0,010	0,018
-587,138	486,775	-0,075	0,123
-586,123	649,710	-0,035	-0,064
-585,109	800,000	-0,035	-0,104
-584,094	248,632	-0,073	0,089
-583,079	800,000	0,035	-0,085
-582,065	85,127	0,097	0,077
-581,050	-52,342	-0,056	-0,019
-580,036	800,000	0,034	-0,079
-579,021	28,497	-0,077	-0,047
-578,006	800,000	-0,044	-0,126
-576,992	29,158	0,033	-0,020
-575,977	-76,988	-0,158	-0,040
-574,963	-200,000	0,019	0,191
-573,948	-191,322	-0,110	-0,001
-572,934	339,787	-0,084	-0,118
-571,919	800,000	0,042	-0,121
-570,904	-116,201	-0,068	0,009
-569,890	414,721	0,056	0,086
-568,875	-200,000	0,016	-0,116
-567,861	-10,839	-0,101	0,048
-566,846	-24,407	0,102	0,044
-565,831	-104,987	-0,063	0,010
-564,817	-200,000	0,013	-0,081
-563,802	-200,000	-0,017	-0,058
-562,788	800,000	-0,020	-0,064
-561,773	-200,000	-0,035	-0,178
-560,758	-67,906	-0,084	0,023
-559,744	38,142	0,151	0,096
-558,729	17,763	-0,104	-0,060
-557,715	800,000	-0,021	-0,062
-556,700	676,300	0,057	-0,107
-555,685	133,172	-0,048	0,045
-554,671	-75,487	0,031	-0,008
-553,656	43,823	0,110	0,072
-552,642	-25,978	0,196	-0,083
-551,627	800,000	-0,055	-0,123
-550,612	37,898	0,139	0,089
-549,598	223,069	0,056	-0,065
-548,583	-200,000	-0,003	-0,081
-547,569	-74,042	-0,067	-0,017
-546,554	-49,243	0,024	-0,008
-545,539	455,886	-0,042	0,068
-544,525	402,382	0,051	-0,078
-543,510	-200,000	0,007	-0,116
-542,496	-122,140	-0,047	-0,005
-541,481	-200,000	0,030	-0,233
-540,466	-200,000	-0,045	0,180
-539,452	541,702	-0,047	-0,081
-538,437	212,638	-0,024	0,028
-537,423	-200,000	-0,026	0,095
-536,408	71,766	-0,049	0,037
-535,393	-28,980	-0,121	-0,050
-534,379	615,930	-0,067	0,121
-533,364	220,016	0,028	0,032
-532,350	121,622	0,057	-0,051
-531,335	280,237	-0,130	-0,167
-530,321	800,000	0,079	0,176
-529,306	398,371	0,037	-0,056
-528,291	326,883	-0,056	0,078
-527,277	713,165	0,047	-0,090
-526,262	455,353	-0,035	-0,055
-525,248	-200,000	0,018	0,085
-524,233	37,621	0,018	0,011
-523,218	-104,144	-0,104	0,017
-522,204	800,000	-0,009	-0,028
-521,189	267,538	-0,005	0,006
-520,175	-56,149	0,140	-0,045
-519,160	-200,000	-0,019	-0,151
-518,145	-90,680	0,156	-0,032
-517,131	17,663	0,082	0,047
-516,116	-200,000	-0,002	0,095
-515,102	-200,000	-0,024	-0,109
-514,087	-200,000	-0,020	-0,157
-513,072	-200,000	-0,009	-0,029
-512,058	-200,000	-0,006	-0,022
-511,043	-200,000	0,002	-0,120
-510,029	-16,497	0,131	-0,060
-509,014	-200,000	-0,008	0,030
-507,999	-200,000	-0,005	0,073
-506,985	62,793	-0,037	-0,027
-505,970	-122,334	-0,136	0,016
-504,956	-200,000	-0,008	-0,043
-503,941	-200,000	-0,009	-0,100
-502,926	-61,784	0,080	0,024
-501,912	601,702	-0,049	0,087
-500,897	800,000	0,079	-0,168
-499,883	-167,470	-0,057	0,002
-498,868	-173,157	-0,077	-0,002
-497,853	174,036	-0,076	-0,079
-496,839	800,000	-0,022	-0,045
-495,824	745,145	0,045	0,088
-494,810	-200,000	0,018	0,071
-493,795	379,641	-0,056	0,083
-492,781	800,000	0,017	-0,040
-491,766	-121,690	-0,066	0,008
-490,751	77,964	-0,085	-0,065
-489,737	92,635	0,044	0,036
-488,722	-200,000	0,038	0,185
-487,708	337,724	0,105	0,147
-486,693	800,000	-0,032	0,096
-485,678	195,468	-0,131	-0,143
-484,664	496,394	-0,052	0,085
-483,649	-196,113	-0,116	-0,001
-482,635	800,000	0,043	-0,085
-481,620	800,000	-0,054	0,162
-480,605	-5,935	0,060	-0,029
-479,591	-147,364	0,159	-0,010
-478,576	-200,000	-0,009	0,028
-477,562	-200,000	0,004	0,054
-476,547	-120,320	-0,065	-0,008
-475,532	-200,000	-0,011	0,042
-474,518	277,304	-0,058	-0,074
-473,503	-200,000	0,002	-0,011
-472,489	-164,914	0,035	-0,001
-471,474	661,964	0,043	-0,080
-470,459	-200,000	-0,011	-0,053
-469,445	800,000	0,038	-0,090
-468,430	-161,977	-0,141	-0,005
-467,416	23,938	0,094	-0,056
-466,401	-200,000	0,009	0,039
-465,386	9,972	-0,040	-0,022
-464,372	38,873	-0,143	-0,092
-463,357	-45,816	0,138	0,049
-462,343	-101,840	0,039	0,007
-461,328	109,133	0,049	-0,042
-460,313	-20,506	0,046	-0,020
-459,299	-200,000	-0,042	0,184
-458,284	800,000	0,023	0,054
-457,270	61,152	0,042	-0,030
-456,255	11,057	-0,087	0,048
-455,241	-200,000	0,016	-0,055
-454,226	800,000	-0,026	-0,073
-453,211	-200,000	0,127	0,000
-452,197	266,278	-0,039	-0,049
-451,182	-200,000	-0,005	0,065
-450,168	64,774	-0,070	0,051
-449,153	-5,328	-0,051	0,025
-448,138	-159,836	-0,050	0,002
-447,124	-200,000	0,004	0,049
-446,109	800,000	0,012	-0,034
-445,095	-18,921	0,033	-0,015
-444,080	18,470	0,037	-0,021
-443,065	32,284	-0,050	0,031
-442,051	-161,485	-0,090	-0,003
-441,036	-74,963	-0,037	-0,010
-440,022	542,909	-0,045	-0,077
-439,007	-200,000	0,006	-0,099
-437,992	-120,559	0,141	-0,017
-436,978	34,297	0,175	0,109
-435,963	-200,000	-0,027	-0,129
-434,949	800,000	0,029	-0,070
-433,934	46,667	-0,116	-0,077
-432,919	-200,000	0,039	-0,214
-431,905	-78,990	0,077	-0,019
-430,890	-200,000	-0,024	0,142
-429,876	-49,541	0,066	0,022
-428,861	-200,000	0,021	0,109
-427,846	-200,000	0,021	0,068
-426,832	306,148	0,053	-0,071
-425,817	-200,000	0,015	0,063
-424,803	-60,328	0,117	0,035
-423,788	83,313	0,073	-0,057
-422,773	-200,000	-0,015	0,070
-421,759	-200,000	0,032	0,154
-420,744	-24,084	-0,069	0,029
-419,730	192,156	-0,037	0,040
-418,715	328,723	-0,097	-0,134
-417,701	-200,000	-0,017	-0,074
-416,686	-200,000	-0,033	-0,130
-415,671	-120,822	0,069	-0,008
-414,657	505,477	0,098	0,163
-413,642	-200,000	-0,020	0,138
-412,628	115,682	-0,035	0,031
-411,613	-160,021	-0,140	0,005
-410,598	-200,000	-0,004	0,052
-409,584	-200,000	0,009	0,050
-408,569	206,214	-0,037	0,041
-407,555	83,551	-0,023	-0,018
-406,540	800,000	-0,042	0,101
-405,525	-77,974	0,070	0,017
-404,511	279,675	-0,083	0,107
-403,496	-35,095	0,051	0,020
-402,482	-3,525	-0,079	-0,039
-401,467	233,200	0,044	0,052
-400,452	92,497	-0,086	-0,069
-399,438	677,249	0,072	-0,134
-398,423	-63,834	-0,086	-0,025
-397,409	-200,000	0,003	0,096
-396,394	262,627	0,055	-0,068
-395,379	212,345	0,073	0,082
-394,365	359,924	0,076	0,109
-393,350	574,773	-0,071	0,124
-392,336	59,071	-0,087	0,061
-391,321	21,976	-0,035	-0,020
-390,306	-200,000	0,009	-0,054
-389,292	-200,000	-0,002	0,007
-388,277	-53,645	-0,032	-0,010
-387,263	-200,000	0,009	0,089
-386,248	-112,731	0,147	0,021
-385,233	-200,000	0,032	0,121
-384,219	-63,602	0,102	-0,030
-383,204	222,031	-0,016	0,019
-382,190	-129,842	-0,051	0,005
-381,175	112,128	0,095	-0,082
-380,160	397,551	0,100	-0,150
-379,146	16,438	0,140	0,079
-378,131	-78,761	0,085	-0,021
-377,117	722,544	-0,041	-0,078
-376,102	788,121	-0,017	0,034
-375,088	-200,000	0,027	-0,114
-374,073	-143,826	-0,111	-0,007
-373,058	-200,000	-0,009	0,077
-372,044	96,297	0,109	0,089
-371,029	86,790	0,087	0,069
-370,015	800,000	-0,059	0,163
-369,000	-56,406	0,034	0,011
-367,985	-200,000	0,007	-0,030
-366,971	-200,000	-0,027	0,144
-365,956	78,777	0,051	0,039
-364,942	10,631	0,136	0,074
-363,927	-15,268	-0,061	0,028
-362,912	-200,000	0,011	0,043
-361,898	551,820	0,058	0,101
-360,883	-200,000	-0,002	-0,041
-359,869	-200,000	-0,010	-0,129
-358,854	599,562	0,023	-0,040
-357,839	727,708	-0,050	0,097
-356,825	25,002	0,075	-0,044
-355,810	-200,000	-0,014	0,126
-354,796	609,779	-0,047	-0,085
-353,781	-35,430	0,125	-0,048
-352,766	800,000	-0,024	-0,070
-351,752	-200,000	-0,007	-0,028
-350,737	-20,775	0,043	0,019
-349,723	800,000	-0,042	0,118
-348,708	-200,000	0,037	0,176
-347,693	107,274	0,039	0,033
-346,679	-71,363	-0,102	-0,027
-345,664	-200,000	0,009	-0,041
-344,650	172,315	-0,094	-0,097
-343,635	800,000	0,041	0,094
-342,620	354,509	0,065	0,093
-341,606	-70,474	0,078	0,021
-340,591	-131,883	0,077	0,007
-339,577	-117,310	-0,113	-0,014
-338,562	800,000	-0,026	0,067
-337,548	-23,088	-0,135	-0,058
-336,533	-73,796	0,157	0,041
-335,518	761,086	0,007	-0,014
-334,504	-27,551	-0,117	-0,048
-333,489	-200,000	0,001	0,133
-332,475	288,115	0,059	-0,076
-331,460	619,194	-0,114	-0,206
-330,445	-200,000	-0,008	-0,028
-329,431	75,360	0,039	-0,029
-328,416	299,320	0,074	0,097
-327,402	-88,964	-0,065	0,014
-326,387	800,000	-0,047	-0,107
-325,372	30,503	-0,111	-0,068
-324,358	-200,000	-0,016	-0,129
-323,343	268,194	0,074	-0,093
-322,329	-200,000	-0,026	-0,111
-321,314	180,179	0,104	-0,108
-320,299	-200,000	0,015	0,143
-319,285	122,673	0,064	0,057
-318,270	800,000	-0,010	0,030
-317,256	99,697	-0,021	0,017
-316,241	238,519	0,054	-0,064
-315,226	-137,403	-0,101	-0,008
-314,212	-43,701	0,103	0,037
-313,197	-200,000	0,011	-0,065
-312,183	800,000	0,034	-0,105
-311,168	-39,075	0,081	-0,030
-310,153	-134,480	-0,084	-0,007
-309,139	-174,486	0,050	-0,001
-308,124	-200,000	-0,022	0,092
-307,110	-200,000	0,035	0,214
-306,095	-200,000	-0,045	0,154
-305,080	-74,543	-0,037	-0,010
-304,066	-200,000	-0,037	0,174
-303,051	800,000	-0,024	-0,056
-302,037	-49,287	-0,098	-0,033
-301,022	-200,000	-0,001	-0,049
-300,008	-153,650	0,096	0,005
-298,993	-58,385	0,256	0,079
-297,978	92,188	0,167	0,134
-296,964	184,213	-0,032	0,034
-295,949	141,782	0,141	-0,133
-294,935	121,777	-0,042	-0,037
-293,920	-200,000	0,004	0,065
-292,905	-115,445	0,055	-0,007
-291,891	-36,559	0,078	-0,030
-290,876	82,970	-0,024	-0,018
-289,862	800,000	0,030	0,059
-288,847	-200,000	0,039	0,158
-287,832	272,405	0,041	0,051
-286,818	13,542	-0,065	-0,036
-285,803	441,044	0,080	0,124
-284,789	-14,434	0,097	0,044
-283,774	60,037	-0,161	-0,113
-282,759	-111,724	0,091	0,013
-281,745	344,395	-0,138	-0,193
-280,730	-56,003	0,043	-0,014
-279,716	77,072	0,050	0,038
-278,701	-200,000	0,002	-0,061
-277,686	300,021	0,054	0,071
-276,672	381,102	-0,047	0,070
-275,657	154,746	0,034	0,033
-274,643	-200,000	-0,086	-0,328
-273,628	-200,000	0,004	-0,185
-272,613	-64,818	-0,056	0,016
-271,599	47,583	0,081	0,053
-270,584	800,000	0,021	-0,064
-269,570	296,829	-0,046	0,061
-268,555	800,000	-0,016	0,047
-267,540	-145,989	-0,021	-0,001
-266,526	-42,035	-0,121	0,044
-265,511	37,599	0,088	0,055
-264,497	-81,370	0,026	0,006
-263,482	171,800	0,099	0,101
-262,467	32,234	0,061	0,037
-261,453	257,547	-0,029	0,036
-260,438	800,000	-0,068	-0,152
-259,424	-200,000	0,005	-0,017
-258,409	800,000	-0,050	0,104
-257,395	179,885	-0,120	0,126
-256,380	182,060	-0,093	0,098
-255,365	60,694	0,062	0,044
-254,351	-200,000	0,006	-0,070
-253,336	-117,792	0,028	-0,004
-252,322	-200,000	-0,004	-0,111
-251,307	-76,378	-0,124	0,031
-250,292	-150,497	-0,176	-0,009
-249,278	800,000	0,048	0,150
-248,263	195,219	0,061	-0,066
-247,249	543,417	0,030	-0,052
-246,234	299,968	-0,114	-0,149
-245,219	201,092	0,027	-0,030
-244,205	94,285	-0,054	-0,043
-243,190	352,317	-0,106	-0,149
-242,176	-76,767	-0,124	0,031
-241,161	-7,465	0,156	-0,075
-240,146	28,138	0,049	-0,030
-239,132	67,565	0,057	0,041
-238,117	3,132	-0,117	0,060
-237,103	800,000	0,020	0,046
-236,088	-200,000	0,000	0,004
-235,073	216,276	0,071	-0,081
-234,059	-200,000	-0,027	0,138
-233,044	399,682	-0,071	0,106
-232,030	539,250	0,076	0,129
-231,015	800,000	0,023	-0,065
-230,000	-200,000	-0,006	0,033
-228,986	-200,000	-0,006	0,094
-227,971	-8,557	0,108	0,051
-226,957	451,986	0,116	0,183
-225,942	-89,159	-0,096	-0,020
-224,927	89,487	0,073	-0,058
-223,913	156,890	-0,069	-0,067
-222,898	800,000	0,042	-0,114
-221,884	-122,557	-0,123	0,014
-220,869	69,314	0,081	0,059
-219,855	-200,000	0,028	0,251
-218,840	188,714	0,032	-0,034
-217,825	-87,213	0,201	-0,043
-216,811	-9,022	-0,069	-0,033
-215,796	199,854	-0,099	-0,108
-214,782	223,827	0,062	-0,072
-213,767	198,383	-0,024	0,026
-212,752	-91,922	0,086	0,017
-211,738	-200,000	-0,001	-0,058
-210,723	800,000	-0,028	0,080
-209,709	-151,109	0,012	0,001
-208,694	-17,748	-0,073	-0,032
-207,679	-200,000	0,008	-0,031
-206,665	335,384	-0,072	0,100
-205,650	162,598	0,044	0,044
-204,636	123,164	-0,029	-0,026
-203,621	59,091	-0,086	0,060
-202,606	-54,857	0,024	0,008
-201,592	-104,805	-0,115	0,019
-200,577	176,217	-0,062	-0,064
-199,563	165,311	0,076	0,076
-198,548	186,512	-0,106	0,112
-197,533	-31,398	0,151	0,060
-196,519	800,000	-0,013	0,032
-195,504	302,546	-0,131	-0,173
-194,490	308,932	-0,031	-0,042
-193,475	19,209	-0,078	-0,044
-192,460	138,368	0,058	0,054
-191,446	-200,000	-0,019	0,079
-190,431	60,265	0,080	0,056
-189,417	48,180	-0,116	-0,077
-188,402	381,352	-0,066	-0,096
-187,387	308,029	-0,088	-0,117
-186,373	800,000	0,053	0,128
-185,358	-94,176	-0,007	0,001
-184,344	168,013	0,118	0,120
-183,329	-200,000	0,002	0,007
-182,315	800,000	-0,035	0,084
-181,300	-200,000	0,019	-0,067
-180,285	-31,434	0,093	-0,037
-179,271	-72,095	0,100	-0,026
-178,256	-200,000	0,018	-0,165
-177,242	206,254	0,009	0,010
-176,227	281,271	-0,054	-0,069
-175,212	217,305	0,118	-0,134
-174,198	800,000	-0,047	-0,107
-173,183	101,479	-0,037	0,031
-172,169	22,511	-0,141	0,082
-171,154	800,000	0,033	0,076
-170,139	-16,964	-0,122	-0,054
-169,125	-23,799	-0,138	-0,059
-168,110	800,000	0,037	0,075
-167,096	163,682	-0,025	0,025
-166,081	295,429	0,022	0,029
-165,066	-200,000	-0,016	0,096
-164,052	436,601	-0,009	-0,014
-163,037	255,324	-0,087	0,106
-162,023	-200,000	0,005	0,051
-161,008	-59,409	0,096	-0,029
-159,993	-200,000	0,004	-0,014
-158,979	800,000	-0,002	-0,006
-157,964	800,000	-0,022	-0,058
-156,950	-200,000	-0,060	0,195
-155,935	-43,339	0,069	-0,025
-154,920	88,620	0,088	-0,069
-153,906	-200,000	0,065	0,206
-152,891	78,987	0,097	0,074
-151,877	400,862	-0,026	0,039
-150,862	267,057	0,072	-0,089
-149,847	-59,294	-0,129	-0,039
-148,833	-110,407	0,054	-0,008
-147,818	164,468	-0,039	0,039
-146,804	-200,000	0,021	-0,130
-145,789	-200,000	-0,017	0,077
-144,775	-200,000	-0,001	-0,086
-143,760	-21,045	0,213	-0,092
-142,745	-200,000	0,003	0,052
-141,731	-200,000	0,008	0,137
-140,716	-73,149	0,097	-0,025
-139,702	800,000	0,027	-0,057
-138,687	-18,983	0,027	0,012
-137,672	322,637	-0,111	-0,150
-136,658	161,607	-0,004	0,004
-135,643	704,150	-0,076	-0,143
-134,629	584,676	0,054	0,095
-133,614	258,937	0,010	0,013
-132,599	83,117	0,083	-0,064
-131,585	-200,000	-0,015	-0,065
-130,570	800,000	-0,053	-0,123
-129,556	800,000	-0,055	-0,158
-128,541	359,527	0,093	-0,132
-127,526	-200,000	-0,015	-0,139
-126,512	-43,948	-0,069	-0,024
-125,497	147,130	0,098	0,093
-124,483	66,720	0,079	0,057
-123,468	-54,578	-0,101	0,032
-122,453	86,335	-0,071	-0,055
-121,439	-200,000	-0,026	-0,121
-120,424	73,132	-0,031	0,023
-119,410	59,237	0,073	-0,051
-118,395	-57,929	0,052	0,016
-117,380	7,532	0,078	-0,041
-116,366	-200,000	0,009	-0,080
-115,351	-200,000	-0,025	-0,169
-114,337	180,342	-0,109	0,113
-113,322	2,829	-0,080	0,041
-112,307	578,142	0,021	-0,037
-111,293	800,000	0,019	-0,053
-110,278	-31,474	-0,059	-0,023
-109,264	673,759	0,065	-0,120
-108,249	-200,000	0,003	0,073
-107,234	158,211	-0,081	-0,079
-106,220	-145,651	-0,098	-0,006
-105,205	-200,000	0,001	-0,046
-104,191	-11,526	-0,033	-0,015
-103,176	-200,000	-0,021	0,146
-102,162	185,650	0,065	-0,068
-101,147	-200,000	0,008	0,061
-100,132	-200,000	-0,019	0,077
-99,118	-45,964	-0,118	0,041
-98,103	-31,263	0,117	0,046
-97,089	-117,367	0,070	-0,009
-96,074	573,161	-0,046	0,080
-95,059	336,311	-0,023	0,031
-94,045	-200,000	-0,003	-0,125
-93,030	247,959	-0,079	0,094
-92,016	-114,743	-0,146	-0,019
-91,001	-77,913	-0,071	-0,017
-89,986	800,000	0,024	-0,063
-88,972	-200,000	0,009	0,145
-87,957	248,852	-0,034	0,041
-86,943	-88,665	-0,194	-0,040
-85,928	221,009	-0,090	-0,103
-84,913	42,930	-0,090	-0,058
-83,899	-200,000	0,045	0,180
-82,884	254,976	0,120	0,146
-81,870	-94,178	0,063	-0,012
-80,855	-77,627	0,096	0,023
-79,840	-200,000	-0,018	0,108
-78,826	-200,000	0,001	0,040
-77,811	-36,867	0,031	-0,012
-76,797	622,180	-0,048	0,087
-75,782	662,932	0,025	0,047
-74,767	-200,000	0,032	0,162
-73,753	-200,000	-0,021	0,197
-72,738	119,995	-0,059	0,051
-71,724	-200,000	0,018	-0,065
-70,709	-15,332	-0,055	-0,025
-69,694	800,000	0,012	0,026
-68,680	-200,000	-0,033	0,121
-67,665	-81,121	0,105	0,024
-66,651	-23,016	-0,034	0,014
-65,636	298,312	0,066	-0,086
-64,622	-200,000	0,001	-0,090
-63,607	-14,141	-0,042	0,019
-62,592	-126,527	-0,026	0,003
-61,578	-200,000	-0,023	-0,077
-60,563	57,452	0,108	-0,074
-59,549	-200,000	0,033	0,167
-58,534	34,276	-1,930	-1,186
-57,519	459,433	-1,293	-2,039
-56,505	-200,000	-0,239	-4,277
-55,490	381,858	0,981	1,427
-54,476	800,000	4,920	11,191
-53,461	-200,000	20,941	328,705
-52,446	800,000	757,150	2322,488
-51,432	550,477	1662,188	2825,937
-50,417	73,539	1663,969	1228,850
-49,403	18,731	1537,044	866,163
-48,388	12,660	1460,149	793,444
-47,373	18,925	1450,880	818,473
-46,359	15,820	1440,202	797,633
-45,344	10,990	1435,893	772,204
-44,330	10,890	1434,205	770,790
-43,315	10,891	1432,341	769,760
-42,300	10,882	1430,387	768,636
-41,286	10,926	1429,115	768,130
-40,271	10,873	1427,948	767,223
-39,257	10,917	1426,610	766,684
-38,242	10,910	1425,654	766,104
-37,227	10,936	1424,440	765,547
-36,213	10,961	1423,063	764,891
-35,198	10,944	1422,125	764,279
-34,184	10,937	1421,452	763,854
-33,169	10,935	1419,847	762,949
-32,154	10,994	1418,677	762,570
-31,140	11,015	1417,473	761,989
-30,125	11,064	1416,147	761,479
-29,111	11,012	1415,387	760,793
-28,096	10,944	1414,365	759,895
-27,082	10,901	1413,029	758,945
-26,067	10,886	1411,991	758,287
-25,052	10,917	1410,881	757,809
-24,038	10,976	1409,723	757,431
-23,023	10,890	1408,823	756,518
-22,009	10,937	1407,692	756,099
-20,994	10,929	1406,688	755,490
-19,979	10,824	1406,049	754,629
-18,965	10,867	1405,110	754,294
-17,950	10,875	1404,038	753,725
-16,936	10,846	1403,488	753,268
-15,921	10,758	1402,375	752,230
-14,906	10,808	1401,548	751,986
-13,892	10,805	1400,335	751,295
-12,877	10,808	1399,673	750,924
-11,863	10,839	1398,654	750,492
-10,848	10,780	1397,982	749,824
-9,833	10,736	1397,232	749,191
-8,819	10,727	1396,077	748,501
-7,804	10,718	1395,254	747,988
-6,790	10,717	1394,297	747,439
-5,775	10,678	1393,355	746,726
-4,760	10,714	1392,225	746,254
-3,746	10,698	1391,681	745,860
-2,731	10,699	1390,508	745,207
-1,717	10,700	1389,670	744,731
-0,702	10,694	1387,746	743,644
0,313	14,756	1301,621	716,097
1,327	31,150	693,009	418,558
2,342	48,126	120,345	79,259
3,356	-0,577	16,454	8,209
4,371	7,885	3,393	1,789
5,386	-43,165	1,063	0,378
6,400	-200,000	0,026	0,429
7,415	103,104	-0,129	-0,106
8,429	166,343	-0,203	-0,203
9,444	27,153	-0,314	-0,185
10,459	3,831	-0,257	-0,132
11,473	145,005	-0,280	-0,264
12,488	61,344	-0,308	-0,215
13,502	41,338	-0,375	-0,239
14,517	34,832	-0,359	-0,221
15,531	110,863	-0,390	-0,331
16,546	141,635	-0,284	-0,265
17,561	116,321	-0,299	-0,258
18,575	201,915	-0,098	-0,107
19,590	-13,045	-0,267	-0,122
20,604	42,870	-0,279	-0,179
21,619	96,408	-0,477	-0,384
22,634	343,595	-0,333	-0,461
23,648	52,906	-0,466	-0,313
24,663	140,952	-0,403	-0,376
25,677	212,080	-0,258	-0,287
26,692	114,867	-0,367	-0,315
27,707	94,262	-0,301	-0,240
28,721	-3,157	-0,317	-0,155
29,736	131,359	-0,388	-0,351
30,750	103,962	-0,365	-0,302
31,765	24,062	-0,368	-0,213
32,780	333,490	-0,170	-0,232
33,794	37,175	-0,314	-0,195
34,809	173,675	-0,279	-0,284
35,823	-7,076	-0,343	-0,163
36,838	96,709	-0,362	-0,292
37,853	85,333	-0,321	-0,248
38,867	138,541	-0,385	-0,355
39,882	74,477	-0,392	-0,290
40,896	-49,828	-0,274	-0,091
41,911	-3,196	-0,449	-0,219
42,926	58,887	-0,325	-0,224
43,940	152,110	-0,193	-0,185
44,955	128,734	-0,290	-0,260
45,969	-29,346	-0,466	-0,187
46,984	-71,138	-0,322	-0,084
47,999	58,485	-0,197	-0,135
49,013	35,388	-0,396	-0,244
50,028	102,988	-0,275	-0,226
51,042	102,689	-0,294	-0,242
52,057	67,340	-0,265	-0,190
53,071	133,152	-0,316	-0,287
54,086	32,207	-0,216	-0,130
55,101	276,904	-0,252	-0,315
56,115	171,506	-0,307	-0,309
57,130	57,744	-0,306	-0,210
58,144	39,762	-0,517	-0,325
59,159	38,066	-0,404	-0,252
60,174	108,658	-0,364	-0,305
61,188	114,334	-0,308	-0,263
62,203	154,292	-0,273	-0,263
63,217	100,873	-0,240	-0,196
64,232	32,630	-0,296	-0,179
65,247	98,336	-0,300	-0,242
66,261	95,514	-0,436	-0,349
67,276	-44,856	-0,297	-0,103
68,290	-100,805	-0,335	-0,057
69,305	64,449	-0,345	-0,244
70,320	179,885	-0,274	-0,282
71,334	800,000	-0,103	-0,246
72,349	-57,100	-0,490	-0,151
73,363	-54,728	-0,472	-0,149
74,378	224,122	-0,276	-0,313
75,393	2,109	-0,425	-0,215
76,407	226,279	-0,280	-0,319
77,422	-139,077	-0,223	-0,017
78,436	11,449	-0,277	-0,148
79,451	47,988	-0,232	-0,152
80,466	215,317	-0,266	-0,296
81,480	81,905	-0,201	-0,153
82,495	234,456	-0,117	-0,135
83,509	-48,631	-0,487	-0,163
84,524	116,497	-0,350	-0,300
85,539	279,801	-0,157	-0,197
86,553	161,649	-0,322	-0,316
87,568	22,613	-0,346	-0,198
88,582	142,933	-0,282	-0,263
89,597	-64,972	-0,428	-0,120
90,611	292,599	-0,157	-0,201
91,626	46,693	-0,314	-0,203
92,641	10,466	-0,254	-0,135
93,655	26,207	-0,177	-0,103
94,670	145,206	-0,304	-0,285
95,684	-37,507	-0,358	-0,133
96,699	-25,586	-0,370	-0,152
97,714	53,710	-0,196	-0,132
98,728	251,066	-0,189	-0,225
99,743	37,049	-0,217	-0,134
100,757	27,405	-0,240	-0,141
101,772	0,907	-0,251	-0,126
102,787	34,763	-0,350	-0,214
103,801	175,091	-0,222	-0,225
104,816	392,378	-0,260	-0,379
105,830	23,350	-0,300	-0,172
106,845	127,897	-0,163	-0,145
107,860	-45,667	-0,353	-0,121
108,874	116,070	-0,299	-0,256
109,889	-32,100	-0,286	-0,111
110,903	784,443	-0,092	-0,177
111,918	116,826	-0,231	-0,198
112,933	-117,807	-0,160	0,020
113,947	102,820	-0,141	-0,115
114,962	118,507	-0,134	-0,116
115,976	-48,259	-0,217	-0,073
116,991	-52,449	-0,402	-0,129
118,006	101,451	-0,252	-0,205
119,020	125,983	-0,131	-0,116
120,035	312,074	-0,232	-0,304
121,049	20,095	-0,201	-0,113
122,064	-70,128	-0,206	0,054
123,079	-45,135	-0,217	-0,075
124,093	378,681	-0,204	-0,293
125,108	83,214	-0,339	-0,258
126,122	76,322	-0,291	-0,215
127,137	-21,340	-0,322	-0,137
128,151	142,061	-0,198	-0,183
129,166	26,471	-0,212	-0,123
130,181	92,942	-0,244	-0,192
131,195	-45,994	-0,193	-0,066
132,210	-72,690	-0,232	-0,059
133,224	2,557	-0,319	-0,161
134,239	72,054	-0,217	-0,157
135,254	92,480	-0,244	-0,192
136,268	-93,226	-0,272	-0,052
137,283	800,000	-0,110	-0,264
138,297	30,571	-0,230	-0,137
139,312	14,619	-0,356	-0,193
140,327	106,213	-0,330	-0,272
141,341	41,714	-0,316	-0,199
142,356	-24,055	-0,176	-0,073
143,370	-103,677	-0,245	-0,040
144,385	553,478	-0,135	-0,228
145,400	195,137	-0,230	-0,243
146,414	205,240	-0,172	-0,186
147,429	-94,332	-0,390	-0,074
148,443	393,461	-0,072	-0,104
149,458	11,365	-0,246	-0,131
150,473	232,843	-0,200	-0,230
151,487	110,365	-0,244	-0,204
152,502	114,694	-0,345	-0,293
153,516	9,381	-0,285	-0,150
154,531	66,152	-0,225	-0,159
155,546	16,057	-0,289	-0,158
156,560	77,728	-0,252	-0,187
157,575	127,967	-0,078	-0,069
158,589	362,679	-0,156	-0,218
159,604	-9,029	-0,199	-0,092
160,619	155,323	-0,232	-0,223
161,633	483,428	-0,174	-0,276
162,648	299,459	-0,215	-0,277
163,662	57,184	-0,223	-0,151
164,677	173,589	-0,169	-0,170
165,692	203,071	-0,224	-0,242
166,706	122,798	-0,111	-0,097
167,721	-33,237	-0,456	-0,175
168,735	131,618	-0,135	-0,120
169,750	226,724	-0,181	-0,204
170,764	147,530	-0,148	-0,138
171,779	0,063	-0,255	-0,126
172,794	-125,611	-0,143	-0,015
173,808	387,528	-0,165	-0,238
174,823	30,716	-0,175	-0,104
175,837	-116,928	-0,213	-0,027
176,852	800,000	-0,068	-0,147
177,867	-67,537	-0,237	-0,064
178,881	-152,872	-0,235	-0,011
179,896	-35,784	-0,338	-0,126
180,910	89,839	-0,190	-0,147
181,925	197,594	-0,165	-0,175
182,940	-11,430	-0,313	-0,142
183,954	1,324	-0,227	-0,113
184,969	64,131	-0,244	-0,170
185,983	59,520	-0,146	-0,100
186,998	69,148	-0,225	-0,160
188,013	203,930	-0,135	-0,145
189,027	210,474	-0,142	-0,155
190,042	9,753	-0,286	-0,150
191,056	800,000	-0,104	-0,218
192,071	161,835	-0,138	-0,134
193,086	-126,767	-0,185	-0,019
194,100	39,589	-0,232	-0,144
195,115	103,127	-0,169	-0,138
196,129	594,814	-0,127	-0,219
197,144	80,638	-0,284	-0,212
198,159	8,384	-0,280	-0,146
199,173	-155,672	-0,151	-0,007
200,188	-112,876	-0,106	-0,014
201,202	228,524	-0,105	-0,118
202,217	7,369	-0,089	-0,046
203,232	-78,224	-0,301	-0,071
204,246	-39,534	-0,291	-0,105
205,261	15,085	-0,276	-0,149
206,275	800,000	-0,149	-0,288
207,290	23,345	-0,127	-0,072
208,304	-22,310	-0,257	-0,107
209,319	32,726	-0,210	-0,126
210,334	199,428	-0,158	-0,168
211,348	146,739	-0,202	-0,188
212,363	244,633	-0,299	-0,348
213,377	106,307	-0,221	-0,181
214,392	89,584	-0,098	-0,075
215,407	290,411	-0,178	-0,224
216,421	-24,372	-0,182	-0,075
217,436	-12,187	-0,226	-0,102
218,450	-25,993	-0,229	-0,093
219,465	-64,000	-0,189	-0,053
220,480	-172,246	-0,208	0,005
221,494	164,798	-0,188	-0,183
222,509	146,038	-0,159	-0,148
223,523	422,908	-0,126	-0,187
224,538	-39,065	-0,230	-0,083
225,553	-126,998	-0,177	-0,018
226,567	-93,197	-0,208	-0,040
227,582	117,492	-0,193	-0,164
228,596	120,803	-0,235	-0,202
229,611	106,395	-0,167	-0,137
230,626	-22,003	-0,108	-0,045
231,640	-118,494	-0,202	-0,024
232,655	68,670	-0,148	-0,105
233,669	84,585	-0,255	-0,193
234,684	-129,464	-0,226	0,021
235,699	-200,000	-0,064	-0,251
236,713	28,894	-0,155	-0,091
237,728	-32,275	-0,149	-0,057
238,742	-129,546	-0,206	0,019
239,757	49,477	-0,253	-0,164
240,772	421,592	-0,139	-0,207
241,786	7,145	-0,258	-0,132
242,801	166,016	-0,115	-0,112
243,815	105,688	-0,177	-0,145
244,830	110,283	-0,148	-0,123
245,844	-173,182	-0,132	-0,003
246,859	800,000	-0,130	-0,252
247,874	-200,000	-0,014	-0,148
248,888	-157,528	-0,274	-0,011
249,903	234,227	-0,208	-0,237
250,917	-82,109	-0,142	-0,032
251,932	45,872	-0,220	-0,140
252,947	-78,199	-0,147	-0,035
253,961	15,086	-0,238	-0,128
254,976	-76,588	-0,138	-0,033
255,990	42,851	-0,188	-0,118
257,005	-27,532	-0,213	-0,085
258,020	-200,000	-0,016	-0,110
259,034	563,258	-0,111	-0,187
260,049	54,834	-0,109	-0,072
261,063	180,518	-0,149	-0,151
262,078	-43,851	-0,217	-0,075
263,093	92,195	-0,180	-0,140
264,107	20,636	-0,126	-0,070
265,122	207,423	-0,060	-0,064
266,136	800,000	-0,137	-0,280
267,151	-200,000	-0,067	-0,234
268,166	800,000	-0,062	-0,154
269,180	325,952	-0,125	-0,165
270,195	166,543	-0,201	-0,197
271,209	76,897	-0,108	-0,079
272,224	-160,534	-0,171	-0,006
273,239	-18,194	-0,255	-0,109
274,253	223,394	-0,097	-0,108
275,268	-43,885	-0,166	-0,057
276,282	-200,000	0,007	-0,130
277,297	-114,888	-0,291	-0,038
278,312	602,739	-0,086	-0,148
279,326	-28,483	-0,138	-0,055
280,341	122,623	-0,204	-0,175
281,355	212,725	-0,101	-0,110
282,370	-103,652	-0,036	0,006
283,384	15,898	-0,165	-0,089
284,399	284,375	-0,162	-0,201
285,414	-75,186	-0,159	-0,039
286,428	346,561	0,029	0,039
287,443	-68,078	-0,191	-0,051
288,457	-200,000	-0,018	-0,078
289,472	-80,036	-0,153	-0,035
290,487	167,640	-0,185	-0,181
291,501	66,213	-0,148	-0,103
292,516	-200,000	-0,055	-0,197
293,530	708,389	-0,080	-0,146
294,545	-9,615	-0,078	-0,036
295,560	53,405	-0,139	-0,091
296,574	72,830	-0,161	-0,116
297,589	174,814	-0,175	-0,175
298,603	187,129	-0,133	-0,137
299,618	-121,824	0,020	-0,002
300,633	-82,832	-0,225	-0,049
301,647	-30,912	-0,160	-0,062
302,662	208,054	-0,053	-0,057
303,676	84,902	-0,175	-0,132
304,691	-48,413	-0,252	-0,083
305,706	-200,000	-0,018	-0,121
306,720	378,062	-0,101	-0,142
307,735	40,377	-0,103	-0,064
308,749	167,328	-0,154	0,150
309,764	-200,000	-0,026	-0,081
310,779	800,000	-0,047	-0,095
311,793	-113,510	-0,196	0,026
312,808	370,260	-0,136	-0,190
313,822	141,656	-0,157	-0,143
314,837	260,841	-0,063	-0,075
315,852	-166,046	-0,199	0,006
316,866	-16,690	-0,078	-0,034
317,881	153,706	0,075	-0,071
318,895	21,833	-0,181	-0,101
319,910	557,985	-0,165	-0,273
320,925	-84,517	-0,205	-0,044
321,939	-1,147	-0,135	-0,065
322,954	243,958	-0,150	-0,173
323,968	58,040	-0,145	-0,097
324,983	30,546	-0,145	-0,085
325,997	186,130	-0,087	0,089
327,012	-51,138	-0,212	-0,068
328,027	184,143	-0,144	-0,147
329,041	31,223	-0,114	-0,067
330,056	-99,761	-0,228	-0,039
331,070	-200,000	0,019	-0,094
332,085	-125,424	-0,185	0,019
333,100	-110,685	-0,256	0,036
334,114	-166,610	-0,189	0,005
335,129	-200,000	-0,044	-0,165
336,143	-66,176	-0,175	-0,047
337,158	387,090	-0,109	-0,155
338,173	-162,949	-0,060	-0,002
339,187	374,316	-0,081	-0,114
340,202	-69,337	-0,097	-0,025
341,216	131,666	-0,209	-0,184
342,231	-200,000	0,001	-0,054
343,246	272,320	-0,107	-0,129
344,260	800,000	-0,045	0,087
345,275	-200,000	-0,062	-0,221
346,289	-200,000	-0,207	0,000
347,304	-115,753	-0,208	-0,026
348,319	181,443	-0,131	-0,132
349,333	179,335	-0,102	-0,102
350,348	254,895	-0,155	-0,182
351,362	167,593	-0,138	-0,134
352,377	800,000	-0,041	-0,100
353,392	800,000	-0,060	-0,121
354,406	-200,000	-0,016	-0,148
355,421	206,721	1312,233	1400,114
356,435	158,999	1472,616	1400,596
