DTS Sentinel unit serial number:	SN410029Multiplexer serial number:	ORYXHardware model number:	OX2-SRSoftware version number:	ORYX F/W v4,00 Oryx Data Collector v3.7.2.0data status	okinstallation	B3 Nyhavnadifferential loss correction	single-endedforward channel	channel 1reverse channel	N/Adate	2023/12/01time	09:27:30forward acquisition time	300,00reverse acquisition time	0,00gamma	499,1914k internal	0,3213k external	0,3213temperature offset calibration	1,0000default loss term (dB/km)	0,3820temperature slope calibration	1,0000multiplexer offset coefficient	1,0000multiplexer slope coefficient	1,0000fibre end	0,00T internal ref (°C)	7,99T ext. ref 1 (°C)	-6,45T ext. ref 2 (°C)	-6,56length (m)	temperature (°C)	Stokes	anti-Stokes-744,400	150,524	-0,282	-0,278
-743,385	57,590	-0,069	0,049
-742,371	495,512	-0,146	-0,243
-741,356	-200,000	0,096	0,319
-740,342	-166,367	-0,178	0,005
-739,327	800,000	-0,086	0,174
-738,312	462,665	-0,122	-0,199
-737,298	800,000	-0,065	0,167
-736,283	173,985	-0,172	-0,180
-735,269	800,000	-0,153	0,392
-734,254	84,269	-0,197	-0,156
-733,239	-29,735	-0,248	0,102
-732,225	90,991	-0,135	-0,109
-731,210	331,331	0,102	0,143
-730,196	-200,000	0,017	-0,066
-729,181	-200,000	-0,003	-0,051
-728,167	135,700	-0,098	0,092
-727,152	209,211	-0,067	0,076
-726,137	403,825	-0,079	-0,120
-725,123	394,308	-0,078	-0,117
-724,108	-99,853	-0,052	-0,009
-723,094	159,372	-0,090	-0,090
-722,079	-200,000	-0,007	-0,128
-721,064	-104,274	-0,010	0,002
-720,050	800,000	0,060	-0,124
-719,035	303,429	-0,053	-0,071
-718,021	-200,000	-0,041	-0,157
-717,006	-76,101	-0,054	0,014
-715,991	-200,000	-0,018	-0,063
-714,977	6,083	-0,060	-0,032
-713,962	-200,000	0,034	0,121
-712,948	800,000	0,024	0,063
-711,933	218,285	-0,046	-0,053
-710,918	-200,000	-0,009	0,154
-709,904	57,102	-0,162	-0,114
-708,889	-2,143	-0,009	0,005
-707,875	-200,000	-0,003	-0,021
-706,860	231,699	-0,028	-0,034
-705,845	-6,306	0,083	-0,041
-704,831	138,606	-0,124	0,118
-703,816	800,000	0,049	0,140
-702,802	800,000	-0,035	-0,100
-701,787	283,925	-0,057	-0,074
-700,772	179,385	0,054	-0,058
-699,758	-79,091	-0,088	-0,021
-698,743	-129,773	-0,084	-0,008
-697,729	-28,641	0,028	0,012
-696,714	-137,548	-0,038	0,003
-695,699	4,319	-0,075	0,040
-694,685	64,841	0,104	-0,076
-693,670	-81,634	-0,027	0,006
-692,656	-21,236	0,035	0,015
-691,641	800,000	0,015	-0,040
-690,627	221,118	-0,068	0,079
-689,612	103,472	-0,037	0,032
-688,597	99,125	-0,091	-0,076
-687,583	259,114	-0,020	0,026
-686,568	13,635	-0,143	0,080
-685,554	-200,000	-0,007	-0,152
-684,539	-42,342	-0,072	0,026
-683,524	-57,235	-0,050	-0,016
-682,510	-81,791	-0,122	-0,029
-681,495	285,131	0,078	-0,102
-680,481	-12,458	-0,092	0,043
-679,466	-161,095	0,070	-0,003
-678,451	180,021	-0,026	-0,028
-677,437	55,773	0,078	-0,055
-676,422	-200,000	0,030	-0,224
-675,408	-1,780	-0,032	-0,016
-674,393	-200,000	0,034	0,136
-673,378	-25,841	-0,064	0,027
-672,364	112,104	0,084	-0,074
-671,349	-123,410	-0,130	-0,015
-670,335	-200,000	-0,010	0,088
-669,320	31,860	0,132	0,082
-668,305	50,081	-0,120	0,082
-667,291	91,900	-0,100	-0,081
-666,276	-114,888	0,075	-0,010
-665,262	800,000	0,022	-0,065
-664,247	175,766	-0,041	-0,043
-663,232	-136,020	0,147	-0,012
-662,218	-51,366	0,025	0,008
-661,203	-200,000	0,005	0,111
-660,189	-90,473	-0,128	-0,027
-659,174	-54,244	0,066	-0,022
-658,159	-88,457	0,122	-0,026
-657,145	45,148	-0,170	-0,113
-656,130	800,000	-0,018	0,042
-655,116	309,815	-0,061	0,083
-654,101	449,437	0,075	0,119
-653,086	98,836	0,127	0,106
-652,072	286,998	-0,079	-0,103
-651,057	-200,000	0,009	-0,124
-650,043	-200,000	-0,012	-0,175
-649,028	-200,000	-0,007	-0,119
-648,014	4,635	0,061	-0,032
-646,999	-15,187	0,130	0,060
-645,984	-39,229	-0,135	-0,051
-644,970	58,211	0,077	0,054
-643,955	800,000	-0,016	-0,038
-642,941	-53,158	-0,084	-0,028
-641,926	311,436	-0,078	0,106
-640,911	128,549	-0,037	0,034
-639,897	283,656	-0,025	0,033
-638,882	-135,441	-0,144	0,012
-637,868	800,000	0,005	0,012
-636,853	800,000	-0,048	-0,110
-635,838	-106,020	0,066	-0,011
-634,824	-200,000	0,001	-0,031
-633,809	-200,000	0,008	-0,111
-632,795	509,840	0,033	-0,055
-631,780	388,636	0,082	0,123
-630,765	-53,112	-0,158	-0,052
-629,751	593,964	0,068	-0,122
-628,736	-200,000	0,030	0,134
-627,722	-120,622	0,151	-0,018
-626,707	-36,975	-0,047	0,018
-625,692	687,938	-0,062	0,117
-624,678	-200,000	0,007	-0,051
-623,663	385,336	0,040	0,059
-622,649	-200,000	-0,001	0,025
-621,634	-200,000	-0,007	-0,033
-620,619	255,455	0,090	0,111
-619,605	323,723	0,052	0,072
-618,590	800,000	-0,052	0,119
-617,576	17,997	0,138	0,079
-616,561	34,498	-0,085	-0,053
-615,546	171,630	-0,068	-0,070
-614,532	-200,000	0,009	-0,129
-613,517	-200,000	-0,009	-0,132
-612,503	-96,482	-0,057	-0,011
-611,488	-74,699	0,103	-0,026
-610,474	-62,877	-0,074	0,022
-609,459	-106,464	0,172	-0,027
-608,444	800,000	-0,030	-0,090
-607,430	128,380	-0,100	-0,092
-606,415	72,256	0,056	-0,042
-605,401	360,494	-0,055	0,079
-604,386	1,547	0,086	0,044
-603,371	-17,609	-0,202	0,091
-602,357	-4,530	-0,035	0,018
-601,342	-114,186	0,028	0,004
-600,328	-4,384	-0,076	-0,038
-599,313	-94,038	-0,091	-0,018
-598,298	-128,953	0,080	0,008
-597,284	86,014	-0,096	0,076
-596,269	-45,128	0,055	0,020
-595,255	-116,636	-0,075	-0,010
-594,240	13,846	0,088	0,049
-593,225	-200,000	-0,004	0,033
-592,211	189,757	-0,101	-0,109
-591,196	-200,000	-0,014	-0,052
-590,182	335,023	-0,025	0,035
-589,167	-34,210	0,094	0,037
-588,152	800,000	0,004	-0,009
-587,138	417,036	-0,061	-0,094
-586,123	56,842	0,059	-0,041
-585,109	-51,218	0,086	0,029
-584,094	-106,037	0,048	0,008
-583,079	393,649	-0,009	0,014
-582,065	-32,196	-0,060	-0,024
-581,050	322,384	0,054	0,075
-580,036	138,977	-0,054	0,051
-579,021	-116,817	-0,315	-0,041
-578,006	-88,138	0,209	-0,045
-576,992	127,645	-0,043	0,039
-575,977	800,000	-0,032	0,092
-574,963	324,739	0,038	-0,053
-573,948	-200,000	-0,003	0,015
-572,934	-76,556	-0,069	-0,017
-571,919	113,401	-0,102	0,089
-570,904	-200,000	-0,041	-0,140
-569,890	466,662	0,075	-0,122
-568,875	105,490	-0,020	0,017
-567,861	-64,734	0,051	0,015
-566,846	109,016	0,017	0,014
-565,831	800,000	-0,048	-0,102
-564,817	-200,000	0,016	-0,073
-563,802	-200,000	-0,001	0,101
-562,788	58,566	-0,077	0,055
-561,773	800,000	0,023	0,068
-560,758	469,921	-0,070	0,114
-559,744	-200,000	0,011	0,133
-558,729	-200,000	-0,028	0,134
-557,715	800,000	0,019	-0,042
-556,700	-200,000	0,002	-0,110
-555,685	-200,000	-0,003	-0,028
-554,671	0,814	-0,069	0,035
-553,656	800,000	0,029	-0,064
-552,642	-37,381	-0,118	0,045
-551,627	134,322	0,079	0,074
-550,612	-73,821	-0,090	0,023
-549,598	-161,228	-0,130	0,005
-548,583	-104,141	0,093	0,015
-547,569	800,000	-0,021	-0,046
-546,554	-158,171	-0,079	0,003
-545,539	800,000	0,036	0,092
-544,525	492,872	-0,031	-0,051
-543,510	25,622	0,038	-0,022
-542,496	800,000	-0,061	-0,129
-541,481	680,217	0,091	-0,170
-540,466	183,243	-0,068	-0,072
-539,452	-200,000	0,011	0,094
-538,437	800,000	-0,040	0,095
-537,423	-47,936	0,092	0,032
-536,408	262,713	-0,113	-0,142
-535,393	800,000	0,026	-0,077
-534,379	800,000	-0,052	-0,127
-533,364	134,792	0,103	-0,096
-532,350	-200,000	-0,019	-0,082
-531,335	579,951	0,051	0,090
-530,321	88,424	0,084	0,067
-529,306	-8,852	-0,085	0,041
-528,291	-18,613	-0,223	0,100
-527,277	154,389	-0,064	-0,063
-526,262	386,575	0,100	-0,149
-525,248	222,612	-0,040	0,047
-524,233	-200,000	0,008	0,041
-523,218	603,321	0,019	-0,034
-522,204	469,933	-0,020	-0,032
-521,189	101,597	-0,048	0,040
-520,175	-200,000	-0,001	-0,061
-519,160	754,709	0,052	-0,102
-518,145	167,141	-0,093	-0,095
-517,131	800,000	0,085	-0,244
-516,116	-183,113	-0,208	-0,003
-515,102	-56,145	-0,065	-0,021
-514,087	-147,606	0,031	0,002
-513,072	-200,000	-0,020	-0,116
-512,058	306,899	0,041	0,055
-511,043	126,240	0,072	-0,066
-510,029	307,624	0,056	0,075
-509,014	-22,967	-0,116	0,050
-507,999	281,722	0,069	0,089
-506,985	-49,277	-0,186	-0,063
-505,970	475,059	-0,071	0,116
-504,956	-68,646	-0,081	0,022
-503,941	800,000	-0,021	0,064
-502,926	-52,772	0,150	0,049
-501,912	21,891	-0,080	-0,047
-500,897	33,102	0,088	-0,055
-499,883	-200,000	0,011	0,047
-498,868	-200,000	0,016	-0,119
-497,853	-200,000	0,018	-0,144
-496,839	800,000	-0,059	0,122
-495,824	800,000	-0,029	-0,066
-494,810	9,652	-0,081	0,044
-493,795	-94,115	0,028	-0,005
-492,781	397,074	-0,035	-0,053
-491,766	50,173	-0,067	-0,045
-490,751	156,667	-0,100	-0,099
-489,737	-200,000	0,000	0,107
-488,722	527,573	-0,089	0,151
-487,708	95,532	0,099	0,081
-486,693	-38,550	0,147	-0,055
-485,678	800,000	-0,051	-0,116
-484,664	-103,117	-0,048	-0,008
-483,649	-200,000	-0,012	-0,146
-482,635	-6,588	0,120	-0,058
-481,620	-200,000	-0,019	0,089
-480,605	50,103	0,223	-0,151
-479,591	-100,753	0,031	-0,005
-478,576	-200,000	-0,019	0,081
-477,562	416,270	0,005	0,007
-476,547	-200,000	-0,006	0,041
-475,532	-81,909	-0,098	-0,023
-474,518	643,731	-0,037	0,067
-473,503	177,599	-0,059	0,061
-472,489	-200,000	0,033	0,109
-471,474	201,404	-0,049	-0,054
-470,459	-121,574	0,066	0,008
-469,445	688,090	-0,043	0,080
-468,430	71,870	-0,112	0,083
-467,416	3,953	0,129	0,068
-466,401	9,361	-0,053	-0,029
-465,386	-49,604	0,029	0,010
-464,372	134,570	-0,023	0,021
-463,357	-200,000	-0,016	-0,128
-462,343	762,973	-0,013	0,025
-461,328	-109,633	-0,175	-0,026
-460,313	-200,000	0,019	-0,084
-459,299	71,963	0,056	-0,042
-458,284	-200,000	-0,012	0,068
-457,270	46,492	0,118	-0,078
-456,255	-200,000	-0,004	-0,064
-455,241	-88,593	-0,048	-0,010
-454,226	-200,000	-0,018	-0,177
-453,211	-200,000	-0,001	-0,044
-452,197	-58,317	0,054	-0,017
-451,182	-200,000	-0,010	0,077
-450,168	-200,000	-0,024	0,089
-449,153	-30,477	-0,105	-0,043
-448,138	-68,504	-0,067	-0,018
-447,124	-200,000	0,001	-0,031
-446,109	-28,879	0,084	0,035
-445,095	-77,126	-0,130	-0,032
-444,080	-200,000	0,006	0,042
-443,065	-132,771	0,152	0,014
-442,051	243,506	0,055	0,066
-441,036	597,353	0,022	-0,039
-440,022	-42,240	0,117	-0,043
-439,007	239,342	-0,071	0,085
-437,992	96,030	0,153	0,125
-436,978	800,000	0,046	-0,108
-435,963	-200,000	-0,012	-0,169
-434,949	-85,760	-0,090	-0,020
-433,934	-200,000	0,033	0,118
-432,919	-114,779	-0,028	0,004
-431,905	-59,407	0,079	-0,024
-430,890	548,946	0,057	0,098
-429,876	-200,000	-0,001	0,088
-428,861	-28,654	0,205	0,084
-427,846	312,758	0,082	0,111
-426,832	170,705	-0,049	0,051
-425,817	-200,000	-0,036	-0,153
-424,803	308,314	-0,036	0,048
-423,788	-54,374	-0,052	0,017
-422,773	301,813	0,123	0,164
-421,759	-200,000	0,007	0,119
-420,744	-69,713	0,077	-0,021
-419,730	-112,346	-0,094	-0,013
-418,715	-200,000	-0,005	-0,091
-417,701	-11,600	0,021	-0,010
-416,686	-200,000	-0,028	0,166
-415,671	-200,000	0,000	0,044
-414,657	-200,000	-0,010	0,074
-413,642	-3,516	0,123	-0,061
-412,628	-48,161	0,196	-0,067
-411,613	12,275	-0,175	-0,096
-410,598	-200,000	0,006	-0,045
-409,584	137,972	0,054	-0,051
-408,569	146,294	-0,049	0,047
-407,555	800,000	-0,019	0,043
-406,540	-61,628	-0,102	0,030
-405,525	-88,825	-0,034	0,007
-404,511	800,000	0,023	-0,051
-403,496	97,855	-0,137	-0,113
-402,482	800,000	-0,018	-0,037
-401,467	102,349	-0,135	0,113
-400,452	364,334	-0,033	0,048
-399,438	-200,000	-0,002	0,042
-398,423	675,964	-0,045	-0,085
-397,409	-48,856	-0,112	0,038
-396,394	800,000	-0,015	0,033
-395,379	-158,570	-0,165	-0,007
-394,365	800,000	-0,041	0,119
-393,350	734,362	0,034	0,066
-392,336	-190,278	-0,054	-0,000
-391,321	-116,413	0,020	-0,003
-390,306	800,000	-0,026	0,072
-389,292	-200,000	0,031	-0,188
-388,277	653,972	0,066	0,122
-387,263	-0,264	0,072	-0,037
-386,248	-93,751	0,093	-0,018
-385,233	-200,000	0,046	0,208
-384,219	-55,877	0,065	-0,020
-383,204	293,310	0,081	0,106
-382,190	235,112	0,080	-0,094
-381,175	-27,142	-0,049	-0,020
-380,160	-200,000	-0,009	0,123
-379,146	800,000	0,022	0,046
-378,131	-52,824	-0,087	0,028
-377,117	-200,000	0,018	0,092
-376,102	-200,000	0,011	-0,110
-375,088	-125,285	-0,159	0,017
-374,073	800,000	-0,040	0,122
-373,058	-124,124	0,076	-0,008
-372,044	-11,367	0,096	-0,045
-371,029	-75,889	-0,179	0,045
-370,015	800,000	-0,059	0,122
-369,000	800,000	-0,032	-0,096
-367,985	800,000	-0,024	0,056
-366,971	333,772	0,003	-0,005
-365,956	-200,000	0,007	0,074
-364,942	406,190	-0,083	0,126
-363,927	-200,000	-0,017	0,122
-362,912	-200,000	0,002	-0,031
-361,898	-200,000	0,006	-0,026
-360,883	-113,739	-0,176	-0,024
-359,869	-42,425	0,091	-0,033
-358,854	-200,000	-0,048	-0,208
-357,839	-26,396	0,026	0,011
-356,825	762,172	0,041	0,079
-355,810	30,940	-0,085	0,052
-354,796	800,000	-0,034	0,069
-353,781	276,393	0,058	-0,074
-352,766	-92,911	-0,173	-0,034
-351,752	-72,301	0,072	0,019
-350,737	-93,169	0,137	0,027
-349,723	-180,552	0,092	0,001
-348,708	157,344	-0,061	-0,060
-347,693	-48,381	0,067	0,023
-346,679	463,363	0,016	-0,026
-345,664	484,535	0,078	-0,128
-344,650	-89,282	0,095	-0,020
-343,635	81,302	-0,062	0,047
-342,620	-200,000	0,007	0,052
-341,606	344,047	0,096	0,135
-340,591	179,645	0,094	-0,098
-339,577	800,000	0,017	0,040
-338,562	-57,470	-0,063	-0,020
-337,548	-200,000	-0,039	0,176
-336,533	-71,935	0,125	0,033
-335,518	-30,199	0,042	-0,017
-334,504	583,553	-0,065	0,115
-333,489	-142,490	0,058	0,004
-332,475	-86,937	0,073	0,016
-331,460	-200,000	0,012	-0,047
-330,445	272,473	0,062	0,078
-329,431	-105,114	-0,102	0,017
-328,416	-162,520	0,178	-0,006
-327,402	-200,000	0,003	-0,029
-326,387	-25,701	0,035	0,014
-325,372	233,447	0,039	-0,046
-324,358	-200,000	-0,020	-0,112
-323,343	-198,716	0,145	0,001
-322,329	366,796	0,083	-0,120
-321,314	-140,813	0,094	0,007
-320,299	-200,000	-0,002	0,103
-319,285	800,000	-0,070	0,166
-318,270	111,689	0,072	0,062
-317,256	75,100	-0,054	-0,040
-316,241	95,383	-0,101	-0,082
-315,226	-200,000	0,005	0,105
-314,212	-200,000	0,014	0,065
-313,197	-200,000	0,022	0,094
-312,183	-95,964	0,167	-0,031
-311,168	800,000	-0,031	-0,064
-310,153	147,808	-0,057	-0,055
-309,139	4,263	0,099	-0,051
-308,124	-200,000	-0,003	0,104
-307,110	144,440	0,093	0,088
-306,095	254,934	-0,097	0,118
-305,080	-133,962	0,185	0,016
-304,066	14,626	-0,039	-0,022
-303,051	-50,684	-0,098	0,033
-302,037	104,015	0,031	-0,026
-301,022	-168,589	0,021	0,001
-300,008	320,795	0,035	-0,048
-298,993	-175,692	-0,039	-0,001
-297,978	228,241	0,048	0,056
-296,964	119,703	0,028	0,025
-295,949	796,739	-0,028	-0,056
-294,935	-119,345	-0,055	-0,007
-293,920	403,749	-0,046	0,069
-292,905	10,723	0,047	-0,025
-291,891	74,293	0,075	-0,056
-290,876	-200,000	0,003	-0,176
-289,862	800,000	0,094	-0,228
-288,847	800,000	-0,027	-0,064
-287,832	-200,000	0,020	-0,124
-286,818	-56,512	-0,121	0,038
-285,803	-46,813	0,142	0,049
-284,789	117,861	0,064	-0,056
-283,774	392,576	-0,087	0,129
-282,759	376,753	0,109	0,159
-281,745	310,522	-0,043	-0,057
-280,730	-200,000	0,004	-0,139
-279,716	2,360	-0,066	-0,034
-278,701	-72,108	0,149	-0,039
-277,686	800,000	-0,035	0,079
-276,672	172,975	0,097	0,100
-275,657	-36,325	0,101	0,039
-274,643	800,000	0,022	0,061
-273,628	-33,783	-0,101	-0,040
-272,613	-200,000	0,004	0,104
-271,599	-200,000	-0,003	0,031
-270,584	800,000	-0,027	0,053
-269,570	92,241	-0,060	-0,048
-268,555	126,778	0,148	-0,133
-267,540	67,876	-0,078	-0,057
-266,526	688,380	-0,018	0,034
-265,511	143,770	-0,016	0,015
-264,497	-10,279	0,108	-0,051
-263,482	-118,946	-0,066	-0,008
-262,467	-26,152	-0,057	0,024
-261,453	-167,070	0,045	-0,001
-260,438	107,871	0,113	0,096
-259,424	622,556	0,038	-0,069
-258,409	-62,194	0,035	0,010
-257,395	228,615	0,072	-0,084
-256,380	-13,370	0,132	-0,061
-255,365	277,440	0,087	-0,110
-254,351	11,796	0,057	-0,031
-253,336	581,831	0,029	0,050
-252,322	-200,000	-0,000	-0,092
-251,307	800,000	-0,064	-0,150
-250,292	-200,000	-0,035	0,133
-249,278	-175,165	0,078	-0,002
-248,263	-200,000	-0,013	-0,152
-247,249	-5,908	-0,037	0,018
-246,234	800,000	-0,015	-0,040
-245,219	-200,000	0,020	-0,189
-244,205	-5,882	0,112	-0,055
-243,190	12,273	-0,117	-0,064
-242,176	321,924	0,071	-0,097
-241,161	-200,000	0,016	0,084
-240,146	-200,000	-0,024	-0,093
-239,132	800,000	-0,021	-0,042
-238,117	-200,000	-0,007	0,042
-237,103	178,916	0,084	-0,087
-236,088	82,587	-0,106	-0,082
-235,073	-57,053	0,074	-0,023
-234,059	800,000	0,044	0,132
-233,044	-10,466	0,096	-0,045
-232,030	-200,000	-0,051	-0,170
-231,015	366,228	-0,041	0,058
-230,000	-111,183	-0,114	0,016
-228,986	-200,000	-0,025	0,100
-227,971	501,743	0,046	-0,076
-226,957	-200,000	-0,020	0,069
-225,942	800,000	-0,026	0,058
-224,927	26,437	-0,063	-0,037
-223,913	706,905	-0,089	-0,167
-222,898	49,880	-0,058	0,038
-221,884	375,563	0,061	-0,089
-220,869	44,508	0,033	0,022
-219,855	476,105	0,046	0,074
-218,840	-200,000	0,015	0,067
-217,825	-119,224	0,098	-0,012
-216,811	-200,000	0,010	0,110
-215,796	-200,000	0,017	-0,129
-214,782	74,030	0,057	0,042
-213,767	700,812	0,068	-0,128
-212,752	529,646	0,041	0,068
-211,738	260,364	-0,034	0,042
-210,723	145,193	0,026	0,025
-209,709	2,957	0,062	-0,032
-208,694	-200,000	-0,018	-0,072
-207,679	76,406	-0,088	-0,066
-206,665	-200,000	0,032	-0,140
-205,650	-44,305	0,118	-0,042
-204,636	-200,000	0,001	0,017
-203,621	-200,000	0,033	-0,128
-202,606	800,000	-0,029	0,060
-201,592	-73,061	-0,146	0,038
-200,577	268,256	-0,102	-0,127
-199,563	-200,000	0,023	-0,138
-198,548	288,902	-0,065	0,083
-197,533	25,176	-0,074	-0,043
-196,519	-109,624	0,083	0,012
-195,504	554,086	-0,086	-0,147
-194,490	729,354	-0,075	-0,143
-193,475	-169,163	-0,135	0,003
-192,460	5,325	-0,100	0,052
-191,446	580,211	0,056	-0,097
-190,431	-7,636	0,028	-0,013
-189,417	-200,000	-0,011	0,083
-188,402	687,482	0,027	0,050
-187,387	-200,000	-0,026	-0,083
-186,373	447,791	-0,013	0,020
-185,358	263,276	0,040	-0,050
-184,344	65,176	0,089	0,064
-183,329	-200,000	0,003	0,062
-182,315	800,000	0,056	0,143
-181,300	85,901	0,059	-0,046
-180,285	138,796	0,038	-0,036
-179,271	116,864	0,005	0,005
-178,256	204,455	0,076	0,084
-177,242	98,765	0,108	-0,088
-176,227	559,684	0,029	0,049
-175,212	800,000	0,056	0,164
-174,198	-101,740	-0,069	-0,012
-173,183	-51,172	-0,076	-0,025
-172,169	26,269	-0,105	0,062
-171,154	-81,796	-0,101	0,023
-170,139	-200,000	0,032	0,182
-169,125	-200,000	-0,017	0,067
-168,110	26,787	0,059	0,035
-167,096	-200,000	0,010	0,082
-166,081	34,939	-0,052	0,032
-165,066	-133,157	-0,076	-0,007
-164,052	800,000	-0,044	0,094
-163,037	-200,000	0,004	0,043
-162,023	508,838	-0,023	-0,039
-161,008	-200,000	0,027	0,249
-159,993	-200,000	0,002	-0,102
-158,979	-200,000	0,019	-0,059
-157,964	-6,063	-0,090	0,044
-156,950	-144,550	-0,042	-0,003
-155,935	236,848	-0,041	0,048
-154,920	800,000	-0,053	0,145
-153,906	37,316	0,059	0,037
-152,891	100,419	0,064	0,052
-151,877	-200,000	0,016	-0,085
-150,862	-40,645	-0,178	0,065
-149,847	-91,960	0,124	0,025
-148,833	-200,000	-0,009	-0,089
-147,818	-26,673	0,033	0,014
-146,804	149,996	-0,126	0,121
-145,789	-107,365	-0,150	0,023
-144,775	-26,436	0,076	0,031
-143,760	87,476	-0,061	0,048
-142,745	-200,000	-0,036	-0,142
-141,731	89,672	0,100	-0,079
-140,716	5,786	-0,050	0,026
-139,702	-200,000	0,017	-0,064
-138,687	0,507	0,113	0,057
-137,672	70,415	-0,016	-0,012
-136,658	-200,000	-0,018	-0,106
-135,643	-12,580	-0,180	-0,083
-134,629	68,914	-0,106	-0,077
-133,614	164,032	0,126	-0,126
-132,599	-188,999	0,102	-0,001
-131,585	-65,334	0,026	0,007
-130,570	-200,000	-0,003	0,099
-129,556	-200,000	0,020	0,094
-128,541	800,000	-0,030	-0,080
-127,526	208,954	0,033	-0,037
-126,512	-200,000	-0,024	0,168
-125,497	761,071	0,078	0,150
-124,483	60,878	-0,095	0,066
-123,468	-132,807	0,064	-0,006
-122,453	-18,871	-0,110	-0,048
-121,439	800,000	-0,034	-0,079
-120,424	214,810	0,094	-0,105
-119,410	784,573	-0,011	-0,022
-118,395	-200,000	0,016	0,059
-117,380	-200,000	0,015	0,060
-116,366	-200,000	-0,006	-0,031
-115,351	723,405	0,045	-0,086
-114,337	-115,545	0,226	-0,030
-113,322	-22,331	0,018	0,008
-112,307	730,570	-0,052	0,099
-111,293	428,652	0,068	-0,105
-110,278	-200,000	0,003	0,081
-109,264	-200,000	0,026	0,101
-108,249	112,481	-0,012	-0,010
-107,234	-146,298	0,143	-0,009
-106,220	-200,000	0,030	-0,166
-105,205	-129,675	0,059	-0,006
-104,191	0,895	0,124	-0,063
-103,176	455,749	-0,037	0,058
-102,162	-200,000	-0,021	0,145
-101,147	800,000	-0,036	-0,095
-100,132	-200,000	-0,029	-0,154
-99,118	-157,961	-0,148	-0,006
-98,103	-200,000	0,012	0,114
-97,089	184,424	0,031	-0,032
-96,074	10,252	0,084	-0,045
-95,059	282,970	-0,063	-0,080
-94,045	179,398	-0,096	0,099
-93,030	-80,649	-0,034	-0,008
-92,016	50,126	-0,038	0,025
-91,001	-200,000	-0,012	-0,108
-89,986	63,840	-0,024	-0,017
-88,972	2,374	0,044	-0,022
-87,957	-200,000	0,058	0,203
-86,943	80,636	-0,113	-0,086
-85,928	-200,000	-0,008	-0,060
-84,913	-35,115	-0,056	0,021
-83,899	-58,709	-0,056	-0,017
-82,884	45,724	0,087	-0,057
-81,870	119,376	0,073	0,064
-80,855	-139,440	-0,058	-0,004
-79,840	-200,000	-0,013	-0,074
-78,826	-69,722	-0,069	-0,019
-77,811	467,535	-0,035	-0,056
-76,797	60,998	0,100	0,070
-75,782	-91,046	0,200	0,040
-74,767	296,377	0,034	0,044
-73,753	89,162	0,130	0,102
-72,738	-200,000	-0,006	0,020
-71,724	-200,000	-0,022	0,096
-70,709	315,343	-0,015	0,020
-69,694	-200,000	0,007	0,095
-68,680	65,640	-0,044	0,031
-67,665	800,000	-0,068	0,156
-66,651	113,818	0,066	0,057
-65,636	-159,059	-0,102	0,004
-64,622	800,000	-0,021	-0,059
-63,607	225,355	-0,101	-0,116
-62,592	117,103	-0,152	0,132
-61,578	800,000	0,020	-0,059
-60,563	-5,840	0,156	0,075
-59,549	-32,563	-0,113	0,044
-58,534	69,183	-2,087	-1,512
-57,519	397,400	-1,208	-1,787
-56,505	-200,000	-0,349	-4,567
-55,490	719,344	0,894	1,683
-54,476	800,000	5,269	11,444
-53,461	-200,000	22,569	346,634
-52,446	800,000	757,264	2292,136
-51,432	533,599	1643,551	2756,177
-50,417	67,973	1642,325	1183,471
-49,403	15,617	1519,986	840,026
-48,388	9,840	1445,832	771,307
-47,373	19,311	1438,625	812,549
-46,359	13,405	1426,869	778,020
-45,344	8,184	1422,837	751,110
-44,330	8,139	1421,075	749,937
-43,315	8,037	1419,376	748,528
-42,300	8,079	1417,427	747,670
-41,286	8,115	1416,169	747,147
-40,271	8,089	1415,146	746,455
-39,257	8,087	1413,869	745,739
-38,242	8,125	1412,786	745,320
-37,227	8,112	1411,658	744,634
-36,213	8,124	1410,223	743,905
-35,198	8,133	1409,098	743,321
-34,184	8,107	1408,321	742,760
-33,169	8,016	1407,071	741,645
-32,154	8,040	1406,085	741,211
-31,140	8,077	1404,782	740,665
-30,125	8,087	1403,589	740,052
-29,111	8,042	1402,449	739,216
-28,096	8,033	1401,371	738,576
-27,082	8,015	1400,220	737,855
-26,067	8,033	1398,843	737,184
-25,052	8,057	1397,826	736,728
-24,038	8,039	1396,797	736,075
-23,023	8,015	1396,231	735,636
-22,009	8,041	1395,194	735,181
-20,994	8,006	1393,941	734,331
-19,979	8,015	1392,960	733,823
-18,965	7,960	1392,084	733,080
-17,950	7,973	1390,879	732,475
-16,936	7,939	1390,329	731,998
-15,921	7,910	1389,291	731,293
-14,906	7,933	1388,591	730,999
-13,892	7,978	1387,332	730,514
-12,877	7,942	1386,731	730,005
-11,863	7,939	1385,764	729,450
-10,848	7,922	1384,843	728,857
-9,833	7,890	1383,853	728,164
-8,819	7,841	1383,180	727,555
-7,804	7,827	1382,175	726,932
-6,790	7,852	1381,005	726,401
-5,775	7,819	1380,279	725,842
-4,760	7,869	1379,209	725,477
-3,746	7,917	1378,203	725,139
-2,731	7,867	1377,475	724,501
-1,717	7,840	1376,762	723,970
-0,702	7,838	1374,815	722,912
0,313	11,826	1284,981	693,730
1,327	27,379	677,161	400,237
2,342	42,147	116,518	74,433
3,356	-2,019	16,653	8,219
4,371	5,119	3,841	1,987
5,386	4,253	1,322	0,680
6,400	659,176	0,305	0,555
7,415	5,541	-0,261	-0,135
8,429	-91,703	-0,321	-0,064
9,444	276,790	-0,176	-0,221
10,459	36,094	-0,293	-0,181
11,473	-31,594	-0,293	-0,115
12,488	197,990	-0,194	-0,209
13,502	-173,377	-0,315	-0,007
14,517	-60,616	-0,303	-0,090
15,531	13,885	-0,402	-0,220
16,546	23,709	-0,374	-0,216
17,561	258,909	-0,280	-0,340
18,575	45,394	-0,094	-0,061
19,590	53,921	-0,233	-0,157
20,604	-4,834	-0,303	-0,147
21,619	113,207	-0,286	-0,244
22,634	132,538	-0,301	-0,273
23,648	43,967	-0,400	-0,257
24,663	-16,074	-0,395	-0,176
25,677	160,178	-0,241	-0,236
26,692	87,390	-0,350	-0,272
27,707	41,852	-0,316	-0,201
28,721	221,469	-0,312	-0,353
29,736	374,308	-0,325	-0,467
30,750	-31,457	-0,465	-0,183
31,765	15,766	-0,324	-0,179
32,780	34,780	-0,483	-0,296
33,794	177,016	-0,267	-0,273
34,809	35,596	-0,332	-0,205
35,823	47,352	-0,364	-0,238
36,838	158,302	-0,425	-0,415
37,853	37,454	-0,452	-0,281
38,867	60,916	-0,388	-0,270
39,882	55,343	-0,324	-0,220
40,896	403,801	-0,138	-0,205
41,911	56,257	-0,273	-0,186
42,926	134,409	-0,352	-0,321
43,940	31,762	-0,393	-0,237
44,955	28,312	-0,391	-0,231
45,969	-4,262	-0,334	-0,162
46,984	-21,081	-0,375	-0,160
47,999	-38,291	-0,318	-0,118
49,013	48,740	-0,204	-0,134
50,028	66,655	-0,256	-0,182
51,042	800,000	-0,136	-0,308
52,057	509,896	-0,259	-0,424
53,071	94,534	-0,435	-0,346
54,086	52,642	-0,378	-0,253
55,101	26,118	-0,326	-0,191
56,115	7,022	-0,258	-0,135
57,130	12,521	-0,364	-0,196
58,144	63,724	-0,326	-0,229
59,159	10,227	-0,295	-0,157
60,174	-34,316	-0,334	-0,128
61,188	21,279	-0,278	-0,158
62,203	14,601	-0,402	-0,220
63,217	70,842	-0,357	-0,259
64,232	6,359	-0,394	-0,205
65,247	14,393	-0,318	-0,174
66,261	70,714	-0,276	-0,200
67,276	70,470	-0,232	-0,168
68,290	192,364	-0,193	-0,205
69,305	65,149	-0,316	-0,224
70,320	-54,874	-0,273	-0,086
71,334	161,640	-0,193	-0,189
72,349	181,993	-0,185	-0,191
73,363	38,913	-0,376	-0,235
74,378	33,084	-0,345	-0,209
75,393	202,315	-0,296	-0,320
76,407	-8,304	-0,244	-0,114
77,422	62,331	-0,283	-0,197
78,436	-84,580	-0,329	-0,072
79,451	202,225	-0,230	-0,249
80,466	-107,826	-0,392	-0,059
81,480	61,512	-0,270	-0,188
82,495	66,794	-0,176	-0,125
83,509	-12,497	-0,180	-0,082
84,524	-89,337	-0,250	-0,051
85,539	-51,522	-0,229	-0,074
86,553	46,059	-0,311	-0,201
87,568	4,756	-0,292	-0,150
88,582	-28,280	-0,487	-0,196
89,597	476,560	-0,144	-0,229
90,611	-18,678	-0,382	-0,166
91,626	161,488	-0,255	-0,249
92,641	113,738	-0,160	-0,136
93,655	114,763	-0,234	-0,199
94,670	2,916	-0,296	-0,150
95,684	216,593	-0,272	-0,303
96,699	42,013	-0,232	-0,147
97,714	109,242	-0,236	-0,197
98,728	15,049	-0,227	-0,124
99,743	88,302	-0,298	-0,231
100,757	124,285	-0,307	-0,270
101,772	50,444	-0,302	-0,199
102,787	-10,076	-0,229	-0,106
103,801	8,799	-0,166	-0,087
104,816	35,985	-0,259	-0,159
105,830	525,726	-0,078	-0,129
106,845	126,429	-0,234	-0,207
107,860	216,773	-0,278	-0,309
108,874	-47,708	-0,273	-0,092
109,889	-78,699	-0,307	-0,073
110,903	18,201	-0,378	-0,210
111,918	531,864	-0,182	-0,302
112,933	83,370	-0,300	-0,228
113,947	-136,035	-0,290	0,023
114,962	-113,675	-0,181	-0,024
115,976	67,953	-0,261	-0,186
116,991	110,226	-0,254	-0,213
118,006	310,788	-0,250	-0,327
119,020	-47,431	-0,410	-0,138
120,035	-38,465	-0,164	-0,060
121,049	-34,491	-0,208	-0,079
122,064	-14,752	-0,279	-0,124
123,079	-30,359	-0,242	-0,095
124,093	-48,318	-0,284	-0,095
125,108	226,884	-0,175	-0,198
126,122	97,806	-0,254	-0,204
127,137	51,577	-0,260	-0,172
128,151	-37,540	-0,171	-0,063
129,166	-96,512	-0,230	-0,042
130,181	81,971	-0,278	-0,209
131,195	77,708	-0,225	-0,167
132,210	-103,951	-0,307	-0,049
133,224	215,230	-0,158	-0,175
134,239	289,336	-0,171	-0,216
135,254	-149,989	-0,163	-0,009
136,268	-27,754	-0,197	-0,079
137,283	-115,477	-0,236	-0,031
138,297	13,012	-0,322	-0,173
139,312	-11,918	-0,341	-0,155
140,327	-43,382	-0,229	-0,080
141,341	71,117	-0,261	-0,188
142,356	-97,607	-0,264	-0,047
143,370	-36,295	-0,227	-0,085
144,385	17,739	-0,266	-0,147
145,400	-98,999	-0,303	-0,053
146,414	100,909	-0,184	-0,148
147,429	126,947	-0,260	-0,230
148,443	88,565	-0,234	-0,181
149,458	-84,684	-0,272	-0,059
150,473	45,360	-0,248	-0,159
151,487	15,204	-0,227	-0,123
152,502	69,296	-0,304	-0,217
153,516	187,454	-0,243	-0,253
154,531	-92,956	-0,199	-0,038
155,546	-20,997	-0,201	-0,085
156,560	-73,628	-0,287	-0,072
157,575	125,927	-0,169	-0,148
158,589	800,000	-0,099	-0,222
159,604	-25,591	-0,248	-0,101
160,619	289,853	-0,117	-0,148
161,633	-150,482	-0,418	-0,022
162,648	138,875	-0,217	-0,198
163,662	-18,133	-0,199	-0,086
164,677	-14,613	-0,214	-0,095
165,692	-79,645	-0,328	-0,076
166,706	103,490	-0,154	-0,125
167,721	-109,921	-0,306	-0,044
168,735	18,187	-0,299	-0,165
169,750	800,000	-0,102	-0,250
170,764	440,620	-0,129	-0,196
171,779	-54,541	-0,279	-0,087
172,794	22,539	-0,214	-0,121
173,808	-30,668	-0,182	-0,071
174,823	259,153	-0,187	-0,224
175,837	87,469	-0,333	-0,255
176,852	273,943	-0,184	-0,227
177,867	-19,461	-0,272	-0,117
178,881	17,418	-0,319	-0,176
179,896	-98,079	-0,280	0,049
180,910	-8,041	-0,288	-0,134
181,925	160,359	-0,227	-0,220
182,940	-1,030	-0,380	-0,186
183,954	585,410	-0,100	-0,171
184,969	144,723	-0,186	-0,173
185,983	-176,821	-0,143	-0,002
186,998	-57,096	-0,247	-0,075
188,013	-96,232	-0,178	-0,032
189,027	13,073	-0,273	-0,146
190,042	177,263	-0,200	-0,202
191,056	23,709	-0,252	-0,144
192,071	179,566	-0,177	-0,179
193,086	147,654	-0,090	-0,084
194,100	-53,118	-0,192	-0,061
195,115	34,822	-0,171	-0,103
196,129	-200,000	-0,007	-0,182
197,144	762,873	-0,113	-0,214
198,159	9,414	-0,305	-0,160
199,173	-128,684	-0,112	0,011
200,188	-22,788	-0,243	-0,101
201,202	-8,018	-0,251	-0,117
202,217	185,136	-0,156	-0,160
203,232	547,405	-0,165	-0,275
204,246	114,214	-0,122	-0,103
205,261	121,234	-0,187	-0,161
206,275	230,329	-0,164	-0,186
207,290	111,807	-0,131	-0,109
208,304	-200,000	-0,041	-0,205
209,319	-44,524	-0,188	-0,065
210,334	-148,387	-0,141	-0,008
211,348	121,481	-0,294	-0,254
212,363	66,354	-0,197	-0,139
213,377	-4,695	-0,173	-0,082
214,392	513,962	-0,140	-0,227
215,407	229,409	-0,201	-0,227
216,421	455,434	-0,053	-0,082
217,436	182,215	-0,204	-0,209
218,450	67,949	-0,209	-0,148
219,465	-15,126	-0,129	-0,057
220,480	180,452	-0,120	-0,122
221,494	-23,735	-0,120	-0,050
222,509	26,755	-0,160	-0,093
223,523	-3,247	-0,223	-0,107
224,538	187,359	-0,159	-0,164
225,553	800,000	-0,162	-0,327
226,567	294,817	-0,202	-0,256
227,582	-14,175	-0,188	-0,084
228,596	345,856	-0,134	-0,182
229,611	85,164	-0,187	-0,142
230,626	-20,276	-0,214	-0,091
231,640	27,110	-0,202	-0,117
232,655	30,149	-0,145	-0,085
233,669	-174,511	-0,312	-0,006
234,684	120,329	-0,220	-0,188
235,699	220,947	-0,189	-0,210
236,713	-160,225	-0,074	0,003
237,728	523,368	-0,098	-0,160
238,742	-9,333	-0,188	-0,086
239,757	513,191	-0,160	-0,258
240,772	226,230	-0,179	-0,201
241,786	81,100	-0,146	-0,109
242,801	108,333	-0,105	-0,086
243,815	-71,079	-0,151	-0,039
244,830	-160,276	-0,242	-0,009
245,844	-27,553	-0,251	-0,100
246,859	800,000	-0,072	-0,156
247,874	-5,233	-0,191	-0,090
248,888	4,877	-0,271	-0,137
249,903	347,399	-0,107	-0,146
250,917	242,163	-0,108	-0,124
251,932	37,803	-0,162	-0,099
252,947	668,816	-0,158	-0,283
253,961	317,640	-0,162	-0,212
254,976	800,000	-0,064	-0,181
255,990	230,938	-0,120	-0,135
257,005	-108,765	-0,175	-0,026
258,020	-160,055	-0,044	-0,002
259,034	542,439	-0,086	-0,143
260,049	800,000	-0,061	-0,135
261,063	800,000	-0,128	-0,292
262,078	157,016	-0,191	-0,182
263,093	105,607	-0,139	-0,113
264,107	792,061	-0,128	-0,244
265,122	25,415	-0,217	-0,124
266,136	-61,627	-0,155	-0,045
267,151	288,513	-0,123	-0,153
268,166	-200,000	-0,040	-0,290
269,180	-53,474	-0,142	0,044
270,195	117,007	-0,116	-0,098
271,209	-19,596	-0,146	-0,062
272,224	55,876	-0,203	-0,135
273,239	310,284	-0,064	-0,083
274,253	-115,081	-0,232	-0,030
275,268	-117,692	-0,179	-0,022
276,282	659,789	-0,097	-0,172
277,297	9,087	-0,288	-0,149
278,312	106,374	-0,083	-0,068
279,326	-46,703	-0,086	-0,029
280,341	-82,790	-0,114	-0,025
281,355	800,000	-0,089	-0,182
282,370	-55,749	-0,193	-0,059
283,384	252,140	-0,150	-0,176
284,399	800,000	-0,048	-0,131
285,414	138,926	-0,138	-0,124
286,428	282,466	-0,104	-0,129
287,443	526,436	-0,111	-0,180
288,457	-21,548	-0,140	-0,058
289,472	2,581	-0,190	-0,094
290,487	-200,000	-0,040	-0,259
291,501	141,038	-0,233	-0,212
292,516	-108,853	-0,204	0,030
293,530	23,145	-0,048	-0,027
294,545	104,029	-0,119	-0,096
295,560	-20,717	-0,155	0,065
296,574	498,149	-0,060	-0,096
297,589	207,675	-0,126	-0,135
298,603	-99,798	-0,307	-0,052
299,618	800,000	-0,081	-0,170
300,633	-40,335	-0,176	-0,063
301,647	315,243	-0,077	-0,099
302,662	-37,735	-0,107	-0,039
303,676	-101,284	-0,080	-0,013
304,691	78,614	-0,149	-0,109
305,706	505,025	-0,035	-0,056
306,720	176,350	-0,218	-0,217
307,735	800,000	-0,027	-0,066
308,749	276,083	-0,085	-0,103
309,764	338,549	-0,066	-0,088
310,779	-91,938	-0,187	0,036
311,793	133,252	-0,202	-0,179
312,808	234,279	-0,094	-0,106
313,822	-69,875	-0,301	-0,078
314,837	795,679	-0,092	-0,174
315,852	100,021	-0,086	-0,069
316,866	-200,000	-0,046	-0,145
317,881	-200,000	-0,007	-0,118
318,895	-200,000	-0,042	-0,204
319,910	-200,000	-0,058	-0,188
320,925	800,000	-0,126	-0,249
321,939	83,792	-0,146	-0,109
322,954	778,624	-0,047	-0,088
323,968	7,493	-0,141	0,072
324,983	-200,000	-0,029	-0,165
325,997	209,110	-0,197	-0,212
327,012	467,069	-0,135	-0,207
328,027	-88,321	-0,212	-0,043
329,041	800,000	-0,093	-0,179
330,056	377,339	-0,088	-0,123
331,070	-58,088	-0,165	-0,049
332,085	141,173	-0,141	-0,128
333,100	-10,040	-0,138	-0,063
334,114	-18,730	-0,215	-0,091
335,129	218,001	-0,196	-0,215
336,143	22,479	-0,158	-0,088
337,158	-75,062	-0,194	-0,047
338,173	203,241	-0,110	0,117
339,187	-110,202	-0,187	-0,026
340,202	-102,462	-0,056	-0,009
341,216	103,767	-0,153	-0,123
342,231	239,798	-0,114	-0,130
343,246	800,000	-0,051	-0,140
344,260	69,763	-0,149	-0,105
345,275	-62,599	-0,190	-0,054
346,289	800,000	-0,056	0,150
347,304	-97,955	-0,127	-0,022
348,319	68,439	-0,126	-0,088
349,333	-200,000	-0,030	-0,111
350,348	-10,038	-0,098	-0,044
351,362	800,000	-0,060	-0,176
352,377	161,342	-0,140	-0,134
353,392	-105,682	-0,185	-0,028
354,406	66,232	-0,151	-0,105
355,421	207,528	1311,007	1399,794
356,435	159,650	1471,210	1400,237
