DTS Sentinel unit serial number:	SN410029Multiplexer serial number:	ORYXHardware model number:	OX2-SRSoftware version number:	ORYX F/W v4,00 Oryx Data Collector v3.7.2.0data status	okinstallation	B3 Nyhavnadifferential loss correction	single-endedforward channel	channel 1reverse channel	N/Adate	2023/12/01time	08:42:30forward acquisition time	300,00reverse acquisition time	0,00gamma	499,1914k internal	0,3213k external	0,3213temperature offset calibration	1,0000default loss term (dB/km)	0,3820temperature slope calibration	1,0000multiplexer offset coefficient	1,0000multiplexer slope coefficient	1,0000fibre end	0,00T internal ref (°C)	7,99T ext. ref 1 (°C)	-6,48T ext. ref 2 (°C)	-6,63length (m)	temperature (°C)	Stokes	anti-Stokes-744,400	55,485	-0,196	-0,137
-743,385	448,879	-0,096	0,154
-742,371	69,384	-0,234	-0,174
-741,356	-200,000	-0,033	0,163
-740,342	800,000	-0,054	-0,143
-739,327	-200,000	-0,020	0,313
-738,312	181,441	-0,286	-0,305
-737,298	-200,000	0,007	0,053
-736,283	-200,000	-0,058	-0,277
-735,269	37,003	-0,227	0,145
-734,254	294,153	-0,131	-0,173
-733,239	-57,715	-0,229	-0,072
-732,225	800,000	-0,147	-0,320
-731,210	800,000	0,031	0,094
-730,196	209,951	-0,092	0,105
-729,181	722,853	0,039	0,076
-728,167	34,010	-0,131	0,083
-727,152	-200,000	-0,002	-0,027
-726,137	331,832	-0,104	-0,145
-725,123	201,192	0,029	0,033
-724,108	-166,250	-0,157	-0,005
-723,094	800,000	-0,030	-0,088
-722,079	319,937	-0,089	-0,122
-721,064	0,557	-0,085	0,044
-720,050	-61,536	0,204	-0,061
-719,035	-77,063	-0,145	0,036
-718,021	126,984	0,048	0,044
-717,006	-166,008	-0,115	0,003
-715,991	-16,528	-0,087	-0,040
-714,977	-200,000	0,004	0,065
-713,962	-22,990	-0,074	-0,032
-712,948	-69,234	0,126	-0,035
-711,933	339,572	0,028	-0,040
-710,918	148,945	-0,084	0,082
-709,904	-133,283	-0,113	0,010
-708,889	565,709	0,110	-0,194
-707,875	-200,000	-0,011	-0,109
-706,860	294,708	0,054	0,072
-705,845	-20,394	0,100	0,044
-704,831	-167,933	0,121	0,003
-703,816	800,000	0,076	-0,172
-702,802	-66,148	-0,130	-0,037
-701,787	-200,000	0,010	-0,053
-700,772	161,361	-0,204	-0,207
-699,758	178,814	-0,088	0,094
-698,743	-200,000	0,019	-0,137
-697,729	12,826	-0,107	-0,060
-696,714	63,164	0,073	-0,053
-695,699	-200,000	-0,004	-0,043
-694,685	-3,618	0,096	0,048
-693,670	75,653	-0,101	-0,077
-692,656	-200,000	0,018	0,133
-691,641	-145,761	0,103	0,007
-690,627	230,544	0,124	0,147
-689,612	26,433	-0,179	0,108
-688,597	-25,756	-0,078	0,033
-687,583	269,239	-0,046	-0,058
-686,568	-172,941	-0,045	0,001
-685,554	-128,076	-0,156	0,016
-684,539	-83,498	0,215	0,049
-683,524	58,918	-0,005	0,004
-682,510	122,537	-0,075	-0,068
-681,495	-200,000	0,003	-0,047
-680,481	223,242	0,029	0,034
-679,466	800,000	-0,086	-0,178
-678,451	42,200	0,157	-0,103
-677,437	800,000	-0,004	0,012
-676,422	-55,358	-0,053	0,017
-675,408	29,086	-0,096	-0,059
-674,393	-45,504	-0,032	-0,011
-673,378	800,000	-0,031	-0,070
-672,364	137,503	-0,125	-0,118
-671,349	-200,000	-0,002	0,007
-670,335	259,867	-0,010	-0,012
-669,320	98,658	-0,075	-0,062
-668,305	-200,000	-0,025	0,107
-667,291	-89,698	-0,132	-0,028
-666,276	183,628	-0,060	-0,064
-665,262	800,000	-0,035	-0,081
-664,247	-200,000	0,048	-0,164
-663,232	-15,666	-0,022	0,010
-662,218	110,789	0,072	0,063
-661,203	-43,642	0,049	0,018
-660,189	15,102	-0,062	-0,035
-659,174	-106,849	-0,066	-0,010
-658,159	691,395	-0,018	0,034
-657,145	612,000	-0,090	-0,163
-656,130	-123,952	0,099	-0,011
-655,116	77,428	0,055	0,042
-654,101	-118,152	0,034	0,004
-653,086	684,717	-0,043	0,082
-652,072	226,731	0,029	-0,034
-651,057	27,699	-0,033	-0,020
-650,043	800,000	-0,059	-0,163
-649,028	234,398	0,061	-0,073
-648,014	-20,169	0,023	0,010
-646,999	-75,404	-0,098	0,025
-645,984	11,331	0,113	0,062
-644,970	-200,000	0,015	0,066
-643,955	440,229	-0,038	-0,060
-642,941	-95,878	-0,086	0,016
-641,926	-200,000	0,006	-0,090
-640,911	-200,000	-0,003	0,096
-639,897	49,288	-0,079	0,053
-638,882	322,340	-0,097	-0,134
-637,868	-37,027	-0,143	-0,055
-636,853	-60,651	-0,148	0,045
-635,838	-55,211	0,119	0,038
-634,824	-79,159	0,059	-0,014
-633,809	674,479	0,074	-0,139
-632,795	54,900	-0,049	0,034
-631,780	304,924	-0,103	0,139
-630,765	-200,000	0,005	-0,053
-629,751	800,000	-0,071	-0,175
-628,736	800,000	-0,036	-0,084
-627,722	240,319	-0,048	0,058
-626,707	-137,879	-0,116	0,009
-625,692	-108,691	0,094	-0,014
-624,678	-200,000	0,009	0,056
-623,663	-200,000	-0,014	0,056
-622,649	-98,312	0,136	0,025
-621,634	48,887	-0,150	-0,102
-620,619	800,000	0,045	-0,094
-619,605	304,999	-0,054	0,072
-618,590	-90,750	-0,058	0,012
-617,576	-200,000	0,032	0,111
-616,561	-200,000	-0,002	0,084
-615,546	281,536	-0,019	0,024
-614,532	-82,263	-0,061	0,014
-613,517	-200,000	-0,017	-0,105
-612,503	1,749	0,121	0,063
-611,488	-58,824	-0,061	0,019
-610,474	-200,000	0,008	0,102
-609,459	526,959	-0,116	-0,198
-608,444	-200,000	-0,003	-0,069
-607,430	161,579	0,030	0,031
-606,415	-22,327	-0,054	-0,023
-605,401	-200,000	-0,038	0,123
-604,386	-165,137	0,078	-0,002
-603,371	800,000	0,014	0,041
-602,357	-200,000	0,012	-0,099
-601,342	800,000	0,027	-0,061
-600,328	38,099	-0,087	-0,056
-599,313	-200,000	-0,013	-0,263
-598,298	36,058	-0,076	0,048
-597,284	-60,404	0,112	0,034
-596,269	-200,000	0,014	-0,101
-595,255	368,075	-0,019	0,028
-594,240	-200,000	0,001	-0,030
-593,225	-200,000	-0,027	-0,193
-592,211	-200,000	-0,013	-0,071
-591,196	800,000	-0,058	-0,129
-590,182	-104,652	0,202	0,033
-589,167	800,000	0,032	0,071
-588,152	-72,384	0,074	-0,019
-587,138	-149,543	-0,083	-0,005
-586,123	-138,032	-0,106	0,008
-585,109	-107,586	0,051	-0,008
-584,094	-28,263	-0,074	0,031
-583,079	-66,884	0,105	0,030
-582,065	385,121	-0,052	0,077
-581,050	-200,000	-0,001	0,107
-580,036	100,434	-0,111	0,093
-579,021	105,846	-0,053	0,045
-578,006	800,000	0,057	-0,148
-576,992	-56,434	0,043	-0,014
-575,977	125,223	0,094	0,086
-574,963	48,948	-0,016	0,011
-573,948	800,000	0,038	-0,098
-572,934	800,000	-0,012	-0,033
-571,919	800,000	-0,053	0,116
-570,904	81,773	-0,075	-0,058
-569,890	607,330	0,091	-0,163
-568,875	-49,913	0,133	0,045
-567,861	-200,000	-0,006	0,095
-566,846	-104,462	-0,079	-0,013
-565,831	80,729	0,063	-0,049
-564,817	-200,000	0,002	0,011
-563,802	-200,000	-0,006	-0,162
-562,788	163,371	-0,092	-0,093
-561,773	255,945	0,067	0,083
-560,758	-200,000	0,005	-0,047
-559,744	800,000	-0,043	0,117
-558,729	34,948	-0,057	0,036
-557,715	5,042	-0,057	0,030
-556,700	581,989	0,038	-0,068
-555,685	60,645	0,070	-0,050
-554,671	16,234	0,102	-0,058
-553,656	-200,000	-0,016	-0,061
-552,642	-200,000	0,024	0,143
-551,627	-47,415	0,165	-0,057
-550,612	215,762	-0,068	0,078
-549,598	-167,171	0,040	0,001
-548,583	800,000	0,030	-0,062
-547,569	17,081	-0,066	0,037
-546,554	-200,000	-0,021	0,158
-545,539	361,043	0,087	0,125
-544,525	-200,000	-0,012	-0,053
-543,510	-200,000	-0,009	-0,112
-542,496	-200,000	0,011	-0,119
-541,481	-200,000	-0,010	-0,091
-540,466	-95,991	0,086	-0,016
-539,452	800,000	-0,019	-0,057
-538,437	-28,981	-0,074	0,030
-537,423	84,053	-0,011	0,008
-536,408	-200,000	-0,044	-0,145
-535,393	292,950	-0,084	-0,111
-534,379	91,344	0,058	-0,047
-533,364	-200,000	0,037	0,120
-532,350	-200,000	-0,000	0,084
-531,335	197,070	0,087	-0,095
-530,321	94,575	0,037	0,030
-529,306	241,663	-0,071	0,085
-528,291	-141,245	0,081	0,006
-527,277	134,157	-0,046	-0,043
-526,262	-44,287	-0,134	0,048
-525,248	201,570	-0,033	-0,036
-524,233	-200,000	-0,014	0,160
-523,218	193,457	0,094	0,102
-522,204	51,785	0,117	0,080
-521,189	21,520	0,049	0,028
-520,175	314,346	-0,044	-0,060
-519,160	-200,000	0,018	-0,077
-518,145	-200,000	-0,013	0,045
-517,131	-200,000	0,007	0,152
-516,116	800,000	0,042	0,093
-515,102	85,885	0,059	0,047
-514,087	800,000	0,061	0,124
-513,072	-200,000	0,008	0,093
-512,058	-200,000	0,045	0,165
-511,043	-88,916	-0,135	0,028
-510,029	134,091	0,133	0,123
-509,014	-200,000	0,002	0,177
-507,999	134,810	-0,073	-0,068
-506,985	65,491	-0,139	-0,101
-505,970	-145,812	0,123	-0,008
-504,956	80,427	-0,142	-0,110
-503,941	-169,146	0,061	-0,002
-502,926	351,116	-0,022	-0,031
-501,912	274,871	0,053	0,068
-500,897	59,733	0,083	0,058
-499,883	-29,270	-0,139	0,057
-498,868	-200,000	-0,003	0,137
-497,853	-200,000	0,005	-0,039
-496,839	-200,000	-0,016	-0,103
-495,824	277,822	0,052	-0,067
-494,810	-176,602	-0,099	0,002
-493,795	-200,000	0,002	-0,099
-492,781	31,335	-0,077	-0,047
-491,766	-100,741	0,067	-0,012
-490,751	64,061	-0,117	-0,084
-489,737	289,295	-0,066	0,087
-488,722	-200,000	0,018	-0,093
-487,708	109,840	0,100	0,086
-486,693	116,785	-0,094	0,083
-485,678	-200,000	0,012	0,122
-484,664	134,139	-0,100	-0,093
-483,649	304,893	-0,073	0,097
-482,635	797,329	-0,048	0,096
-481,620	193,199	-0,064	0,069
-480,605	-200,000	-0,035	0,144
-479,591	-200,000	0,004	0,035
-478,576	61,071	0,052	0,037
-477,562	800,000	-0,102	-0,213
-476,547	-200,000	-0,026	-0,118
-475,532	472,454	-0,079	0,128
-474,518	-200,000	0,013	0,064
-473,503	761,687	0,024	-0,047
-472,489	175,703	0,046	0,048
-471,474	121,175	0,094	0,084
-470,459	-27,928	-0,071	-0,029
-469,445	-200,000	-0,020	-0,131
-468,430	668,578	-0,058	-0,109
-467,416	-109,238	-0,040	0,006
-466,401	127,061	0,020	0,018
-465,386	-117,770	-0,097	0,012
-464,372	35,726	-0,023	0,014
-463,357	695,344	0,057	-0,108
-462,343	-38,182	0,045	-0,017
-461,328	-17,127	-0,128	0,058
-460,313	-69,986	-0,022	0,006
-459,299	43,263	0,076	-0,050
-458,284	800,000	-0,065	0,179
-457,270	-200,000	0,015	0,057
-456,255	77,412	-0,134	-0,102
-455,241	-113,520	-0,087	-0,012
-454,226	317,882	-0,048	0,065
-453,211	-4,869	-0,046	-0,023
-452,197	242,047	0,056	0,068
-451,182	123,595	0,060	0,054
-450,168	505,767	0,028	-0,047
-449,153	78,641	-0,064	-0,049
-448,138	-67,395	-0,055	-0,015
-447,124	-184,896	0,031	0,000
-446,109	-180,155	-0,025	-0,000
-445,095	800,000	0,073	0,146
-444,080	-184,391	0,071	-0,001
-443,065	-71,927	-0,117	-0,031
-442,051	196,317	-0,095	-0,104
-441,036	249,047	-0,058	-0,071
-440,022	-200,000	0,032	-0,176
-439,007	87,796	-0,047	-0,037
-437,992	98,595	0,071	0,059
-436,978	57,830	0,091	0,064
-435,963	-132,881	-0,113	-0,010
-434,949	318,589	-0,049	-0,067
-433,934	800,000	0,041	-0,093
-432,919	-200,000	0,005	0,132
-431,905	368,658	0,068	-0,099
-430,890	800,000	0,026	0,069
-429,876	-200,000	0,051	0,219
-428,861	355,750	0,074	0,105
-427,846	237,996	0,031	0,037
-426,832	133,699	-0,046	0,042
-425,817	-113,784	-0,069	-0,009
-424,803	-100,990	0,083	-0,014
-423,788	-200,000	-0,042	0,154
-422,773	-108,142	0,124	-0,019
-421,759	311,622	0,045	0,060
-420,744	99,355	0,080	0,066
-419,730	62,526	0,054	0,039
-418,715	172,970	-0,155	-0,160
-417,701	-70,675	0,183	-0,049
-416,686	-200,000	0,018	0,083
-415,671	48,879	0,072	-0,048
-414,657	-60,946	0,087	-0,026
-413,642	121,368	-0,021	-0,019
-412,628	-200,000	0,000	0,033
-411,613	46,253	0,077	0,051
-410,598	72,873	-0,032	0,024
-409,584	445,388	-0,036	-0,057
-408,569	479,171	0,136	0,221
-407,555	362,207	0,067	-0,096
-406,540	-94,890	0,033	-0,006
-405,525	-28,816	0,101	-0,041
-404,511	140,363	0,113	-0,107
-403,496	6,970	-0,075	0,040
-402,482	-200,000	0,003	-0,089
-401,467	-200,000	-0,017	-0,087
-400,452	210,016	-0,018	-0,020
-399,438	-58,839	0,041	0,013
-398,423	-200,000	-0,026	-0,158
-397,409	184,295	-0,079	-0,084
-396,394	-129,729	0,153	-0,015
-395,379	-75,660	0,134	-0,034
-394,365	-200,000	-0,007	-0,080
-393,350	585,138	0,032	-0,057
-392,336	112,659	0,038	0,033
-391,321	-47,199	0,095	0,033
-390,306	-1,734	-0,045	-0,023
-389,292	-91,434	-0,034	-0,007
-388,277	202,627	0,109	-0,121
-387,263	-163,678	0,126	0,004
-386,248	-7,155	-0,139	-0,067
-385,233	-128,954	0,175	0,017
-384,219	-5,860	-0,043	0,021
-383,204	-42,429	0,082	0,030
-382,190	-200,000	-0,139	0,000
-381,175	94,979	0,064	0,052
-380,160	118,363	0,110	-0,097
-379,146	-162,585	0,111	0,004
-378,131	800,000	-0,026	0,079
-377,117	446,532	-0,035	-0,055
-376,102	-200,000	-0,021	-0,184
-375,088	1,420	0,026	-0,013
-374,073	343,358	0,044	-0,062
-373,058	-200,000	0,019	-0,117
-372,044	-54,121	0,123	0,040
-371,029	63,682	-0,092	0,066
-370,015	-105,602	-0,135	-0,022
-369,000	18,512	0,101	0,058
-367,985	-200,000	0,017	-0,117
-366,971	463,214	0,014	0,022
-365,956	-200,000	-0,011	-0,059
-364,942	-200,000	-0,032	0,168
-363,927	10,073	0,075	-0,041
-362,912	-200,000	-0,013	-0,138
-361,898	161,307	-0,059	-0,059
-360,883	800,000	-0,015	-0,035
-359,869	-181,854	-0,129	-0,002
-358,854	-200,000	0,033	0,113
-357,839	-46,617	0,030	0,010
-356,825	726,632	0,048	-0,092
-355,810	-87,569	-0,115	-0,024
-354,796	268,879	0,094	0,117
-353,781	-117,541	-0,102	-0,013
-352,766	-87,164	0,156	-0,034
-351,752	-102,883	-0,167	-0,028
-350,737	313,273	-0,086	0,116
-349,723	108,635	-0,007	0,006
-348,708	327,334	0,033	-0,046
-347,693	526,026	0,003	0,005
-346,679	639,037	0,041	-0,074
-345,664	357,571	-0,105	-0,150
-344,650	-115,730	0,092	-0,012
-343,635	800,000	0,043	0,089
-342,620	-200,000	-0,017	0,196
-341,606	553,786	0,064	0,110
-340,591	7,740	0,056	-0,030
-339,577	-200,000	-0,023	-0,159
-338,562	55,876	-0,006	-0,004
-337,548	50,666	-0,028	0,019
-336,533	318,160	0,032	0,043
-335,518	-200,000	0,009	-0,136
-334,504	130,346	-0,064	0,059
-333,489	594,906	0,066	0,116
-332,475	-200,000	-0,019	0,102
-331,460	-16,442	0,031	-0,014
-330,445	-200,000	0,002	-0,159
-329,431	-49,976	0,025	-0,008
-328,416	-0,860	0,132	0,066
-327,402	326,759	0,041	0,056
-326,387	800,000	-0,031	0,076
-325,372	-200,000	0,004	0,087
-324,358	96,271	0,066	0,054
-323,343	483,152	0,031	0,050
-322,329	604,057	-0,002	0,004
-321,314	-77,808	-0,034	-0,008
-320,299	-67,078	-0,037	0,010
-319,285	81,910	0,104	0,080
-318,270	65,891	-0,122	-0,088
-317,256	-200,000	-0,004	-0,058
-316,241	-200,000	0,010	-0,074
-315,226	210,152	-0,059	0,066
-314,212	-143,038	0,047	0,003
-313,197	390,587	0,045	0,067
-312,183	-200,000	0,001	0,059
-311,168	11,809	0,036	0,020
-310,153	-26,974	-0,095	-0,039
-309,139	800,000	-0,051	-0,129
-308,124	52,691	0,092	-0,062
-307,110	-200,000	0,022	0,170
-306,095	0,897	-0,143	-0,073
-305,080	-56,258	0,225	0,071
-304,066	-200,000	0,042	-0,136
-303,051	-200,000	0,011	-0,067
-302,037	3,996	-0,085	0,044
-301,022	-200,000	-0,000	0,006
-300,008	412,932	-0,048	0,073
-298,993	147,677	0,048	-0,046
-297,978	800,000	-0,018	0,049
-296,964	177,377	-0,100	-0,104
-295,949	-200,000	0,007	-0,096
-294,935	427,096	0,029	-0,045
-293,920	586,887	-0,034	0,059
-292,905	-187,402	0,044	-0,000
-291,891	194,917	0,078	0,085
-290,876	377,415	0,102	0,149
-289,862	-28,855	-0,106	-0,043
-288,847	184,546	0,082	-0,086
-287,832	800,000	0,009	0,022
-286,818	114,087	-0,033	0,029
-285,803	30,066	-0,103	0,063
-284,789	531,608	0,034	-0,057
-283,774	220,317	0,049	-0,057
-282,759	-32,352	-0,050	0,020
-281,745	-200,000	-0,012	0,083
-280,730	-151,876	-0,017	0,001
-279,716	68,528	0,107	-0,078
-278,701	-79,873	-0,111	-0,026
-277,686	33,239	0,103	0,064
-276,672	-19,567	-0,061	0,027
-275,657	582,949	-0,044	-0,078
-274,643	-93,513	0,063	-0,012
-273,628	-29,593	-0,100	-0,040
-272,613	-200,000	0,000	0,027
-271,599	-200,000	0,053	0,184
-270,584	137,892	-0,018	0,017
-269,570	800,000	-0,017	-0,043
-268,555	392,514	0,011	0,016
-267,540	169,244	0,070	-0,071
-266,526	-23,192	-0,144	-0,061
-265,511	83,341	-0,110	-0,085
-264,497	-102,211	0,203	0,034
-263,482	1,474	-0,034	0,017
-262,467	-200,000	0,031	0,111
-261,453	-200,000	0,002	0,042
-260,438	375,662	-0,036	-0,053
-259,424	-200,000	-0,024	-0,112
-258,409	608,575	-0,033	-0,059
-257,395	-9,308	0,057	0,027
-256,380	-200,000	-0,001	0,055
-255,365	-85,782	0,012	0,003
-254,351	-200,000	-0,018	-0,102
-253,336	160,376	-0,102	-0,101
-252,322	233,479	-0,048	-0,056
-251,307	219,937	-0,017	0,019
-250,292	-200,000	-0,019	0,089
-249,278	-200,000	0,013	0,136
-248,263	-200,000	-0,015	0,139
-247,249	-31,775	-0,168	0,066
-246,234	144,787	0,111	0,106
-245,219	-200,000	-0,050	-0,195
-244,205	264,615	0,055	-0,068
-243,190	-200,000	-0,003	-0,211
-242,176	-151,116	-0,133	-0,007
-241,161	287,686	0,080	-0,103
-240,146	-12,123	-0,084	-0,039
-239,132	156,463	-0,031	-0,030
-238,117	44,796	-0,069	0,045
-237,103	-200,000	0,007	-0,037
-236,088	800,000	-0,075	-0,185
-235,073	-200,000	-0,025	0,084
-234,059	679,318	0,047	-0,087
-233,044	-119,824	0,211	-0,026
-232,030	-110,165	0,114	0,017
-231,015	47,186	-0,076	-0,050
-230,000	-42,545	0,069	0,025
-228,986	-200,000	0,002	-0,055
-227,971	-200,000	0,029	0,134
-226,957	800,000	0,055	0,132
-225,942	466,563	0,033	0,053
-224,927	10,955	0,092	-0,050
-223,913	615,026	0,030	0,053
-222,898	241,856	-0,052	-0,062
-221,884	-98,231	0,048	-0,009
-220,869	44,973	0,071	0,046
-219,855	-156,486	0,073	0,003
-218,840	-200,000	0,015	-0,075
-217,825	-9,129	0,075	0,035
-216,811	-0,656	-0,099	-0,050
-215,796	-200,000	-0,014	0,045
-214,782	800,000	0,022	0,053
-213,767	-58,279	-0,094	0,029
-212,752	-44,172	0,141	0,050
-211,738	800,000	-0,012	0,037
-210,723	-26,893	-0,058	0,024
-209,709	-20,494	-0,053	0,023
-208,694	-127,332	-0,228	-0,023
-207,679	115,893	-0,117	-0,101
-206,665	25,548	-0,141	-0,083
-205,650	-50,598	0,084	-0,028
-204,636	-60,199	0,225	0,068
-203,621	-163,948	-0,067	0,002
-202,606	-78,076	-0,145	-0,035
-201,592	690,942	0,026	0,048
-200,577	186,874	0,053	0,056
-199,563	800,000	0,038	0,100
-198,548	-89,248	-0,133	0,028
-197,533	216,111	0,027	-0,031
-196,519	-200,000	0,023	0,133
-195,504	800,000	-0,017	0,040
-194,490	1,489	-0,084	0,043
-193,475	800,000	-0,094	-0,192
-192,460	-31,367	0,061	-0,024
-191,446	-200,000	-0,003	0,061
-190,431	224,519	-0,038	0,044
-189,417	-200,000	0,001	0,013
-188,402	30,549	-0,135	-0,082
-187,387	166,469	-0,105	-0,105
-186,373	382,280	0,074	-0,107
-185,358	-42,179	-0,105	-0,038
-184,344	800,000	-0,058	0,161
-183,329	64,386	0,055	-0,039
-182,315	-200,000	-0,016	0,146
-181,300	-200,000	-0,010	0,057
-180,285	-123,721	0,117	-0,013
-179,271	-55,148	0,158	-0,050
-178,256	-125,290	-0,116	0,012
-177,242	800,000	0,007	0,021
-176,227	20,620	0,136	0,078
-175,212	-3,850	0,083	0,041
-174,198	-200,000	0,011	0,065
-173,183	11,211	-0,088	0,047
-172,169	-90,547	-0,063	-0,013
-171,154	-168,488	0,074	0,002
-170,139	-200,000	0,012	-0,048
-169,125	355,040	-0,065	0,091
-168,110	292,578	-0,046	0,059
-167,096	-200,000	0,001	-0,022
-166,081	-22,824	-0,147	-0,063
-165,066	800,000	-0,018	-0,045
-164,052	-200,000	-0,006	0,106
-163,037	-200,000	0,026	-0,133
-162,023	-180,601	0,057	-0,001
-161,008	127,826	0,124	0,112
-159,993	-200,000	0,001	0,013
-158,979	-59,523	-0,090	-0,027
-157,964	525,794	0,058	-0,097
-156,950	101,722	-0,108	0,090
-155,935	-82,170	0,166	-0,038
-154,920	-115,413	0,030	0,004
-153,906	800,000	0,038	0,092
-152,891	-191,266	-0,028	-0,000
-151,877	-200,000	-0,033	0,116
-150,862	-148,984	-0,129	-0,007
-149,847	71,706	-0,049	-0,036
-148,833	117,907	-0,062	0,054
-147,818	-118,120	-0,069	0,009
-146,804	800,000	0,022	0,048
-145,789	-10,181	-0,068	-0,032
-144,775	-137,270	0,138	0,011
-143,760	800,000	-0,074	-0,164
-142,745	329,435	-0,073	-0,100
-141,731	567,679	0,060	-0,104
-140,716	-200,000	-0,034	0,142
-139,702	800,000	-0,039	0,101
-138,687	-66,579	0,007	-0,002
-137,672	209,060	-0,048	0,053
-136,658	60,575	0,056	0,039
-135,643	-49,040	0,055	-0,019
-134,629	-30,811	0,074	0,029
-133,614	480,421	-0,020	-0,033
-132,599	-136,724	-0,067	-0,005
-131,585	-7,870	-0,129	-0,061
-130,570	-200,000	-0,002	0,040
-129,556	-54,328	-0,172	-0,055
-128,541	80,238	0,077	-0,058
-127,526	549,519	-0,060	0,103
-126,512	448,632	0,142	0,222
-125,497	89,719	-0,048	0,038
-124,483	800,000	0,053	0,117
-123,468	-48,392	0,061	-0,021
-122,453	-69,468	-0,167	-0,045
-121,439	26,922	0,076	0,045
-120,424	-30,368	0,011	0,004
-119,410	-200,000	0,004	-0,147
-118,395	541,700	-0,049	0,083
-117,380	800,000	0,036	0,094
-116,366	102,632	0,083	-0,068
-115,351	192,587	0,033	-0,036
-114,337	198,149	0,027	-0,029
-113,322	-200,000	-0,019	-0,132
-112,307	192,417	-0,092	0,098
-111,293	1,770	0,019	-0,010
-110,278	133,738	0,088	0,081
-109,264	-134,633	0,085	0,007
-108,249	-7,701	-0,098	-0,047
-107,234	-200,000	0,003	-0,020
-106,220	800,000	0,029	-0,084
-105,205	25,091	0,093	-0,054
-104,191	26,465	0,182	0,108
-103,176	-200,000	0,028	0,114
-102,162	75,002	-0,110	0,082
-101,147	438,675	-0,049	-0,075
-100,132	579,852	0,085	-0,148
-99,118	69,586	-0,135	-0,098
-98,103	26,640	0,054	0,032
-97,089	61,710	-0,143	-0,100
-96,074	163,301	-0,028	-0,028
-95,059	2,248	0,064	-0,033
-94,045	-200,000	-0,024	0,106
-93,030	234,653	-0,011	-0,013
-92,016	-36,490	-0,082	-0,031
-91,001	-99,674	0,188	0,033
-89,986	705,715	-0,029	0,053
-88,972	-200,000	0,010	-0,081
-87,957	800,000	0,042	0,095
-86,943	192,654	0,029	0,031
-85,928	77,695	-0,074	-0,056
-84,913	592,635	-0,057	-0,100
-83,899	108,455	0,123	0,104
-82,884	599,448	0,075	0,132
-81,870	-200,000	0,033	-0,106
-80,855	-105,755	0,143	0,023
-79,840	204,574	-0,091	-0,100
-78,826	-200,000	-0,061	-0,252
-77,811	-200,000	0,004	-0,069
-76,797	68,438	0,024	-0,018
-75,782	-200,000	-0,011	0,098
-74,767	-200,000	-0,003	0,050
-73,753	201,066	-0,062	-0,068
-72,738	541,649	-0,045	-0,076
-71,724	-36,155	-0,146	0,055
-70,709	-200,000	0,018	0,074
-69,694	-102,560	-0,087	0,014
-68,680	120,425	-0,072	0,063
-67,665	72,876	0,084	0,062
-66,651	-67,564	-0,049	0,014
-65,636	609,673	0,031	-0,054
-64,622	426,192	-0,108	-0,165
-63,607	17,436	-0,152	-0,085
-62,592	-200,000	-0,009	-0,065
-61,578	-4,567	0,068	0,033
-60,563	43,443	0,062	-0,040
-59,549	42,283	0,087	0,056
-58,534	60,382	-2,044	-1,425
-57,519	541,449	-1,118	-1,887
-56,505	-200,000	-0,492	-4,665
-55,490	427,985	1,087	1,661
-54,476	800,000	5,258	11,461
-53,461	-200,000	22,416	346,817
-52,446	800,000	757,370	2291,438
-51,432	532,964	1643,232	2754,256
-50,417	67,858	1641,869	1182,540
-49,403	15,659	1519,344	839,866
-48,388	9,855	1445,595	771,238
-47,373	19,290	1438,246	812,221
-46,359	13,329	1426,889	777,655
-45,344	8,188	1422,842	751,122
-44,330	8,086	1420,760	749,506
-43,315	8,070	1418,998	748,471
-42,300	8,083	1417,102	747,505
-41,286	8,105	1415,928	746,961
-40,271	8,036	1414,707	745,961
-39,257	8,046	1413,735	745,465
-38,242	8,103	1412,398	744,999
-37,227	8,106	1411,177	744,339
-36,213	8,088	1410,016	743,614
-35,198	8,115	1408,732	743,033
-34,184	8,056	1408,001	742,343
-33,169	8,043	1406,358	741,383
-32,154	8,054	1405,665	741,042
-31,140	8,045	1404,419	740,315
-30,125	8,102	1403,158	739,887
-29,111	8,047	1402,068	739,024
-28,096	8,063	1401,030	738,523
-27,082	8,020	1399,516	737,497
-26,067	7,978	1398,748	736,864
-25,052	8,060	1397,396	736,504
-24,038	8,027	1396,551	735,877
-23,023	8,056	1395,615	735,489
-22,009	8,015	1394,655	734,764
-20,994	7,990	1393,658	734,094
-19,979	7,986	1392,564	733,469
-18,965	7,942	1391,844	732,859
-17,950	7,954	1390,737	732,302
-16,936	7,962	1389,904	731,869
-15,921	7,906	1388,789	730,997
-14,906	7,952	1387,971	730,747
-13,892	8,017	1386,827	730,418
-12,877	7,926	1386,170	729,623
-11,863	7,933	1385,404	729,223
-10,848	7,888	1384,677	728,603
-9,833	7,875	1383,769	728,037
-8,819	7,826	1382,799	727,275
-7,804	7,857	1381,856	726,891
-6,790	7,844	1380,913	726,306
-5,775	7,835	1379,663	725,580
-4,760	7,802	1379,078	725,091
-3,746	7,866	1377,903	724,736
-2,731	7,875	1376,999	724,276
-1,717	7,871	1376,353	723,886
-0,702	7,850	1374,440	722,758
0,313	11,767	1284,658	693,291
1,327	27,437	676,626	400,042
2,342	42,621	116,415	74,543
3,356	-0,490	16,523	8,239
4,371	9,405	3,850	2,047
5,386	57,955	1,352	0,931
6,400	333,852	0,402	0,550
7,415	-140,911	-0,123	0,009
8,429	77,997	-0,255	-0,192
9,444	-26,231	-0,243	-0,100
10,459	87,224	-0,282	-0,219
11,473	97,879	-0,165	-0,133
12,488	166,660	-0,234	-0,233
13,502	55,810	-0,314	-0,214
14,517	-76,038	-0,424	-0,105
15,531	132,283	-0,315	-0,286
16,546	107,000	-0,320	-0,267
17,561	150,792	-0,292	-0,279
18,575	-157,597	-0,213	-0,009
19,590	1,194	-0,366	-0,184
20,604	64,359	-0,241	-0,171
21,619	14,319	-0,452	-0,247
22,634	40,866	-0,447	-0,283
23,648	176,176	-0,404	-0,413
24,663	70,516	-0,435	-0,316
25,677	148,754	-0,261	-0,248
26,692	87,010	-0,357	-0,278
27,707	7,046	-0,368	-0,193
28,721	143,720	-0,407	-0,382
29,736	51,384	-0,365	-0,243
30,750	40,839	-0,475	-0,301
31,765	118,808	-0,377	-0,328
32,780	-1,899	-0,409	-0,202
33,794	44,629	-0,372	-0,240
34,809	-47,331	-0,327	-0,111
35,823	71,416	-0,489	-0,356
36,838	382,388	-0,236	-0,342
37,853	-6,102	-0,398	-0,190
38,867	110,220	-0,339	-0,286
39,882	3,789	-0,405	-0,207
40,896	17,260	-0,302	-0,168
41,911	145,262	-0,292	-0,275
42,926	31,054	-0,282	-0,169
43,940	7,336	-0,351	-0,184
44,955	81,914	-0,404	-0,307
45,969	67,436	-0,386	-0,276
46,984	122,510	-0,345	-0,303
47,999	125,974	-0,277	-0,245
49,013	1,830	-0,310	-0,156
50,028	76,382	-0,336	-0,250
51,042	8,670	-0,549	-0,290
52,057	129,715	-0,384	-0,344
53,071	65,134	-0,409	-0,290
54,086	-22,383	-0,400	-0,169
55,101	179,131	-0,249	-0,256
56,115	87,221	-0,401	-0,311
57,130	-5,033	-0,344	-0,165
58,144	62,650	-0,315	-0,220
59,159	179,201	-0,387	-0,397
60,174	301,366	-0,226	-0,293
61,188	33,814	-0,208	-0,126
62,203	109,862	-0,259	-0,217
63,217	36,272	-0,396	-0,244
64,232	31,228	-0,395	-0,237
65,247	111,367	-0,315	-0,266
66,261	13,831	-0,327	-0,178
67,276	125,022	-0,333	-0,294
68,290	-23,781	-0,367	-0,153
69,305	67,965	-0,271	-0,194
70,320	-20,514	-0,370	-0,158
71,334	95,397	-0,270	-0,216
72,349	47,639	-0,259	-0,169
73,363	82,784	-0,306	-0,233
74,378	18,667	-0,357	-0,200
75,393	-95,225	-0,272	-0,051
76,407	26,728	-0,138	-0,081
77,422	230,856	-0,173	-0,198
78,436	55,926	-0,294	-0,199
79,451	148,584	-0,283	-0,268
80,466	400,461	-0,255	-0,376
81,480	111,127	-0,315	-0,265
82,495	57,126	-0,278	-0,190
83,509	-124,448	-0,374	0,040
84,524	-31,630	-0,299	-0,117
85,539	12,908	-0,211	-0,114
86,553	309,775	-0,161	-0,211
87,568	29,648	-0,347	-0,206
88,582	50,764	-0,299	-0,198
89,597	326,901	-0,191	-0,256
90,611	364,552	-0,195	-0,275
91,626	-87,264	-0,295	-0,062
92,641	-146,266	-0,232	-0,014
93,655	-52,332	-0,318	-0,102
94,670	-33,061	-0,284	-0,110
95,684	182,613	-0,251	-0,260
96,699	-13,721	-0,339	-0,153
97,714	-18,935	-0,247	-0,107
98,728	-28,880	-0,264	-0,106
99,743	72,620	-0,212	-0,154
100,757	17,211	-0,303	-0,167
101,772	129,182	-0,250	-0,223
102,787	-8,158	-0,253	-0,118
103,801	-18,977	-0,246	-0,107
104,816	161,487	-0,204	-0,199
105,830	682,501	-0,197	-0,360
106,845	31,208	-0,184	-0,110
107,860	19,592	-0,334	-0,187
108,874	119,846	-0,216	-0,187
109,889	231,220	-0,129	-0,148
110,903	23,234	-0,367	-0,210
111,918	153,983	-0,245	-0,235
112,933	65,216	-0,180	-0,127
113,947	322,149	-0,148	-0,198
114,962	89,730	-0,257	-0,200
115,976	-110,489	-0,254	-0,036
116,991	41,589	-0,336	-0,212
118,006	11,945	-0,348	-0,186
119,020	144,979	-0,202	-0,188
120,035	111,144	-0,279	-0,234
121,049	-19,404	-0,252	-0,108
122,064	213,696	-0,190	-0,210
123,079	164,981	-0,246	-0,242
124,093	-71,014	-0,226	0,059
125,108	-29,554	-0,375	-0,149
126,122	107,308	-0,234	-0,194
127,137	165,598	-0,136	-0,134
128,151	52,487	-0,208	-0,138
129,166	-28,938	-0,260	-0,104
130,181	-25,813	-0,359	-0,147
131,195	10,050	-0,272	-0,143
132,210	-8,822	-0,290	-0,135
133,224	40,818	-0,295	-0,185
134,239	-200,000	-0,058	-0,221
135,254	-3,632	-0,242	-0,117
136,268	173,145	-0,171	-0,172
137,283	171,338	-0,199	-0,199
138,297	-64,885	-0,324	-0,091
139,312	60,216	-0,166	-0,114
140,327	149,191	-0,313	-0,295
141,341	112,390	-0,238	-0,201
142,356	-57,969	-0,343	-0,104
143,370	-114,238	-0,328	-0,044
144,385	-100,642	-0,187	-0,032
145,400	96,848	-0,184	-0,147
146,414	8,095	-0,329	-0,171
147,429	-43,782	-0,358	-0,125
148,443	152,833	-0,226	-0,215
149,458	72,076	-0,208	-0,151
150,473	247,022	-0,228	-0,268
151,487	356,492	-0,172	-0,239
152,502	498,692	-0,185	-0,297
153,516	11,573	-0,222	-0,118
154,531	213,321	-0,158	-0,173
155,546	67,596	-0,268	-0,190
156,560	82,467	-0,177	-0,133
157,575	-27,290	-0,358	-0,144
158,589	201,456	-0,279	-0,299
159,604	-36,356	-0,312	-0,116
160,619	-62,039	-0,247	-0,071
161,633	84,775	-0,192	-0,146
162,648	-60,769	-0,238	-0,069
163,662	83,977	-0,116	-0,088
164,677	333,497	-0,144	-0,194
165,692	53,056	-0,284	-0,189
166,706	233,958	-0,177	-0,203
167,721	330,799	-0,252	-0,338
168,735	12,442	-0,208	-0,111
169,750	122,471	-0,244	-0,212
170,764	38,639	-0,190	-0,118
171,779	405,956	-0,123	-0,181
172,794	24,698	-0,200	-0,115
173,808	338,507	-0,259	-0,351
174,823	404,757	-0,156	-0,229
175,837	31,647	-0,251	-0,150
176,852	77,441	-0,180	-0,133
177,867	800,000	-0,039	-0,077
178,881	-43,755	-0,211	-0,073
179,896	-125,549	-0,253	0,026
180,910	106,083	-0,267	-0,220
181,925	3,109	-0,206	-0,103
182,940	-6,328	-0,270	-0,127
183,954	84,262	-0,284	-0,216
184,969	58,677	-0,212	-0,144
185,983	26,481	-0,157	-0,091
186,998	57,936	-0,121	-0,082
188,013	18,169	-0,283	-0,156
189,027	546,425	-0,208	-0,347
190,042	125,130	-0,271	-0,237
191,056	121,684	-0,216	-0,186
192,071	800,000	-0,087	-0,253
193,086	322,355	-0,197	-0,260
194,100	31,557	-0,297	-0,176
195,115	-16,569	-0,140	-0,061
196,129	-23,107	-0,202	-0,084
197,144	-80,969	-0,386	-0,088
198,159	146,882	-0,192	-0,178
199,173	137,055	-0,202	-0,183
200,188	-57,504	-0,067	-0,020
201,202	299,926	-0,102	-0,130
202,217	160,495	-0,225	-0,217
203,232	34,952	-0,229	-0,138
204,246	346,731	-0,158	-0,216
205,261	-68,915	-0,317	-0,084
206,275	764,747	-0,104	-0,197
207,290	43,238	-0,063	-0,040
208,304	94,282	-0,123	-0,097
209,319	-106,087	-0,114	-0,018
210,334	212,656	-0,196	-0,214
211,348	21,975	-0,252	-0,142
212,363	133,753	-0,160	-0,143
213,377	300,832	-0,135	-0,173
214,392	81,341	-0,211	-0,157
215,407	78,629	-0,186	-0,138
216,421	-107,289	-0,194	0,029
217,436	-5,441	-0,268	-0,127
218,450	-28,879	-0,376	-0,149
219,465	106,901	-0,141	-0,116
220,480	359,422	-0,227	-0,315
221,494	83,136	-0,146	-0,110
222,509	-84,019	-0,175	-0,038
223,523	477,175	-0,124	-0,195
224,538	97,276	-0,193	-0,153
225,553	193,816	-0,122	-0,127
226,567	800,000	-0,083	-0,191
227,582	-0,467	-0,201	-0,099
228,596	83,391	-0,135	-0,101
229,611	14,053	-0,095	-0,051
230,626	209,016	-0,069	-0,074
231,640	-24,305	-0,115	0,047
232,655	65,200	-0,336	-0,235
233,669	636,856	-0,192	-0,337
234,684	800,000	-0,102	-0,200
235,699	-54,753	-0,160	0,050
236,713	-83,030	-0,225	-0,050
237,728	-200,000	0,011	-0,078
238,742	307,550	-0,167	-0,216
239,757	128,896	-0,198	-0,174
240,772	45,695	-0,211	-0,135
241,786	85,618	-0,184	-0,139
242,801	157,552	-0,144	-0,137
243,815	47,234	-0,273	-0,175
244,830	-47,886	-0,154	-0,051
245,844	187,984	-0,174	-0,180
246,859	-67,652	-0,185	-0,050
247,874	118,363	-0,319	-0,272
248,888	-39,059	-0,252	-0,091
249,903	39,157	-0,253	-0,156
250,917	86,391	-0,142	-0,108
251,932	440,776	-0,118	-0,178
252,947	56,647	-0,209	-0,140
253,961	262,596	-0,106	-0,127
254,976	-83,451	-0,215	-0,047
255,990	-21,033	-0,102	-0,043
257,005	102,231	-0,171	-0,138
258,020	155,311	-0,124	-0,118
259,034	-6,286	-0,156	-0,073
260,049	-122,864	-0,143	0,016
261,063	437,074	-0,149	-0,224
262,078	1,233	-0,281	-0,139
263,093	-39,648	-0,296	-0,106
264,107	-18,672	-0,079	-0,034
265,122	71,421	-0,172	-0,123
266,136	226,100	-0,126	-0,141
267,151	-160,008	-0,144	0,005
268,166	-9,255	-0,259	-0,119
269,180	17,458	-0,165	-0,090
270,195	-14,887	-0,176	-0,077
271,209	-75,789	-0,152	-0,037
272,224	-180,822	-0,083	0,001
273,239	-59,193	-0,257	-0,076
274,253	-200,000	-0,019	-0,121
275,268	-3,597	-0,087	-0,041
276,282	-15,962	-0,309	-0,135
277,297	-21,623	-0,217	-0,091
278,312	309,232	-0,164	-0,211
279,326	-175,547	-0,173	0,003
280,341	-89,655	-0,171	-0,034
281,355	800,000	-0,022	-0,057
282,370	-0,694	-0,297	-0,144
283,384	-28,850	-0,397	-0,156
284,399	147,934	-0,201	-0,186
285,414	533,355	-0,124	-0,203
286,428	122,631	-0,100	-0,086
287,443	461,777	-0,109	-0,168
288,457	523,055	-0,089	-0,145
289,472	65,734	-0,139	-0,097
290,487	760,604	-0,122	-0,228
291,501	-16,444	-0,127	-0,055
292,516	-104,497	-0,158	-0,025
293,530	-130,967	-0,180	0,016
294,545	76,454	-0,098	-0,072
295,560	-200,000	-0,016	-0,104
296,574	-200,000	-0,003	-0,206
297,589	7,501	-0,253	-0,129
298,603	401,029	-0,152	-0,220
299,618	263,460	-0,174	-0,209
300,633	800,000	-0,076	-0,154
301,647	364,439	-0,146	-0,202
302,662	240,645	-0,135	-0,155
303,676	-103,537	-0,159	-0,025
304,691	-63,603	-0,216	-0,060
305,706	800,000	-0,044	-0,086
306,720	-151,132	-0,287	-0,015
307,735	-85,525	-0,047	-0,010
308,749	103,757	-0,076	-0,061
309,764	64,359	-0,146	0,101
310,779	213,024	-0,058	-0,062
311,793	95,723	-0,213	-0,167
312,808	174,246	-0,121	-0,120
313,822	306,922	-0,204	-0,261
314,837	328,272	-0,120	-0,159
315,852	148,026	-0,052	-0,048
316,866	-103,400	-0,210	-0,034
317,881	-124,978	-0,108	0,011
318,895	304,234	-0,134	-0,171
319,910	256,760	-0,214	-0,253
320,925	-75,513	-0,199	-0,048
321,939	-200,000	-0,029	-0,120
322,954	117,116	-0,117	-0,098
323,968	427,337	0,024	-0,035
324,983	-200,000	0,029	-0,129
325,997	-96,941	-0,108	-0,019
327,012	-157,852	-0,164	-0,007
328,027	-114,547	-0,157	0,020
329,041	34,345	-0,231	-0,138
330,056	70,615	-0,148	-0,105
331,070	140,516	-0,126	-0,114
332,085	403,419	-0,074	-0,106
333,100	-19,400	-0,085	0,036
334,114	-98,907	-0,259	-0,045
335,129	40,242	-0,179	-0,110
336,143	88,073	-0,118	-0,090
337,158	505,448	-0,120	-0,191
338,173	280,588	-0,149	-0,183
339,187	433,420	-0,052	-0,078
340,202	-72,926	-0,179	-0,045
341,216	349,697	-0,105	-0,143
342,231	-48,279	-0,111	-0,036
343,246	800,000	-0,038	-0,097
344,260	-58,412	-0,130	0,038
345,275	-137,970	-0,153	0,012
346,289	138,131	-0,166	-0,148
347,304	800,000	-0,125	-0,245
348,319	198,267	-0,116	-0,121
349,333	800,000	-0,094	-0,214
350,348	800,000	-0,163	-0,313
351,362	-2,471	-0,211	-0,100
352,377	-70,075	-0,113	-0,029
353,392	242,962	-0,124	-0,142
354,406	42,929	-0,212	-0,132
355,421	207,477	1309,676	1398,198
356,435	159,606	1469,728	1398,639
