DTS Sentinel unit serial number:	SN410029Multiplexer serial number:	ORYXHardware model number:	OX2-SRSoftware version number:	ORYX F/W v4,00 Oryx Data Collector v3.7.2.0data status	okinstallation	B3 Nyhavnadifferential loss correction	single-endedforward channel	channel 1reverse channel	N/Adate	2023/11/29time	14:42:30forward acquisition time	300,00reverse acquisition time	0,00gamma	499,1914k internal	0,3211k external	0,3211temperature offset calibration	1,0000default loss term (dB/km)	0,3820temperature slope calibration	1,0000multiplexer offset coefficient	1,0000multiplexer slope coefficient	1,0000fibre end	0,00T internal ref (°C)	11,01T ext. ref 1 (°C)	-3,10T ext. ref 2 (°C)	-3,23length (m)	temperature (°C)	Stokes	anti-Stokes-744,400	94,525	-0,248	-0,204
-743,385	800,000	-0,062	0,183
-742,371	59,754	-0,186	-0,133
-741,356	800,000	0,139	0,423
-740,342	526,782	-0,118	-0,202
-739,327	-200,000	-0,009	0,415
-738,312	116,622	-0,198	-0,177
-737,298	800,000	-0,102	0,314
-736,283	110,375	-0,250	-0,218
-735,269	-200,000	0,029	0,292
-734,254	281,985	-0,189	-0,246
-733,239	187,566	-0,141	0,152
-732,225	213,114	-0,131	-0,150
-731,210	147,601	0,093	0,091
-730,196	-75,062	-0,070	0,018
-729,181	193,767	-0,068	0,075
-728,167	92,047	0,051	0,042
-727,152	166,811	-0,042	0,043
-726,137	-93,656	-0,195	-0,039
-725,123	116,896	-0,069	-0,061
-724,108	800,000	0,085	-0,173
-723,094	64,559	-0,097	-0,071
-722,079	22,918	-0,057	-0,034
-721,064	-200,000	0,019	0,088
-720,050	-200,000	0,034	0,194
-719,035	130,240	-0,027	0,025
-718,021	131,154	0,036	0,034
-717,006	179,328	-0,087	0,092
-715,991	-200,000	-0,013	-0,046
-714,977	0,829	-0,025	-0,013
-713,962	-47,984	0,020	-0,007
-712,948	-200,000	-0,019	-0,063
-711,933	-101,596	0,153	0,027
-710,918	-200,000	0,006	0,067
-709,904	188,484	0,042	-0,045
-708,889	135,142	-0,076	-0,071
-707,875	182,091	-0,117	-0,125
-706,860	86,204	0,095	-0,075
-705,845	-95,619	0,087	-0,017
-704,831	-87,537	-0,075	0,016
-703,816	-200,000	0,012	-0,104
-702,802	800,000	-0,048	0,102
-701,787	-200,000	0,032	-0,102
-700,772	-54,394	0,098	-0,032
-699,758	800,000	0,032	0,094
-698,743	27,477	-0,022	-0,013
-697,729	583,833	-0,067	-0,120
-696,714	-200,000	-0,026	0,117
-695,699	318,394	-0,038	0,052
-694,685	-149,709	-0,148	-0,008
-693,670	-200,000	-0,004	0,049
-692,656	-42,512	-0,162	-0,059
-691,641	-28,490	0,048	0,020
-690,627	-200,000	-0,026	0,087
-689,612	275,597	0,082	-0,106
-688,597	-53,676	-0,025	-0,008
-687,583	-125,098	-0,033	0,004
-686,568	-200,000	-0,023	-0,119
-685,554	-76,523	-0,083	-0,021
-684,539	-131,549	0,078	-0,007
-683,524	-48,841	0,024	0,008
-682,510	-32,164	-0,014	0,006
-681,495	264,199	0,054	-0,069
-680,481	-92,027	-0,100	-0,020
-679,466	800,000	-0,057	-0,140
-678,451	-104,853	0,152	-0,025
-677,437	-156,933	-0,214	-0,009
-676,422	-66,438	0,078	-0,022
-675,408	-85,969	-0,169	0,038
-674,393	457,170	0,027	0,043
-673,378	59,842	-0,025	0,018
-672,364	800,000	0,060	0,163
-671,349	301,321	0,050	0,067
-670,335	121,856	0,067	-0,061
-669,320	-89,490	0,121	0,025
-668,305	-0,555	0,096	0,049
-667,291	74,592	-0,098	-0,074
-666,276	-15,343	0,032	0,015
-665,262	313,111	-0,063	-0,086
-664,247	47,923	-0,090	-0,061
-663,232	-200,000	0,015	-0,109
-662,218	-140,293	0,149	0,011
-661,203	40,056	-0,025	-0,016
-660,189	491,213	0,040	0,067
-659,174	800,000	-0,039	-0,103
-658,159	-200,000	0,016	-0,114
-657,145	520,957	-0,065	-0,111
-656,130	-20,542	-0,027	0,012
-655,116	-125,916	-0,040	0,004
-654,101	159,744	0,064	0,064
-653,086	-45,918	-0,037	0,013
-652,072	-190,505	0,084	-0,001
-651,057	-44,120	-0,192	-0,069
-650,043	-46,303	0,064	0,023
-649,028	124,531	0,124	0,113
-648,014	-34,203	0,065	0,025
-646,999	-24,711	-0,078	-0,034
-645,984	-81,981	0,093	-0,022
-644,970	800,000	-0,064	0,138
-643,955	115,598	0,002	-0,002
-642,941	16,891	0,158	-0,090
-641,926	46,031	0,084	-0,056
-640,911	-174,881	-0,062	-0,001
-639,897	800,000	0,054	0,128
-638,882	488,356	0,058	0,096
-637,868	-0,343	0,051	-0,026
-636,853	-27,594	-0,118	0,049
-635,838	321,942	0,082	-0,113
-634,824	565,230	0,028	-0,049
-633,809	13,117	0,100	-0,055
-632,795	-109,327	0,085	-0,013
-631,780	213,187	0,030	-0,035
-630,765	13,438	0,140	-0,078
-629,751	-20,750	-0,171	-0,076
-628,736	-56,904	-0,084	-0,027
-627,722	-200,000	0,018	-0,062
-626,707	-200,000	0,009	0,075
-625,692	-71,204	0,005	0,001
-624,678	800,000	-0,009	-0,022
-623,663	120,937	-0,034	0,030
-622,649	-5,998	0,066	-0,033
-621,634	-200,000	-0,064	-0,216
-620,619	-200,000	-0,022	-0,149
-619,605	392,683	0,039	-0,058
-618,590	-195,164	-0,152	-0,001
-617,576	-200,000	0,000	0,161
-616,561	589,687	0,106	0,190
-615,546	445,564	-0,091	-0,145
-614,532	4,167	-0,135	0,071
-613,517	-200,000	0,006	0,041
-612,503	616,482	-0,040	-0,074
-611,488	176,859	-0,052	0,054
-610,474	12,900	0,084	0,047
-609,459	-200,000	-0,002	0,110
-608,444	-15,334	-0,137	-0,063
-607,430	22,598	-0,080	-0,047
-606,415	-0,130	-0,084	0,043
-605,401	-50,716	-0,080	0,027
-604,386	-16,039	0,128	-0,058
-603,371	-109,581	0,150	-0,023
-602,357	-200,000	0,037	-0,230
-601,342	-27,392	0,026	-0,011
-600,328	800,000	0,027	-0,069
-599,313	-153,926	-0,165	-0,008
-598,298	-200,000	-0,007	0,162
-597,284	705,395	0,018	-0,035
-596,269	431,654	0,053	0,083
-595,255	800,000	0,017	-0,038
-594,240	800,000	-0,032	0,073
-593,225	545,877	0,024	-0,041
-592,211	190,752	0,029	-0,031
-591,196	380,548	0,045	-0,066
-590,182	614,285	0,083	0,151
-589,167	-64,768	-0,059	-0,017
-588,152	97,308	0,083	-0,068
-587,138	-200,000	0,015	-0,086
-586,123	328,709	-0,114	-0,159
-585,109	-30,970	-0,028	-0,011
-584,094	-200,000	0,001	-0,050
-583,079	800,000	0,029	0,090
-582,065	302,414	0,044	0,058
-581,050	11,876	-0,129	-0,071
-580,036	96,603	0,064	-0,053
-579,021	800,000	-0,027	0,054
-578,006	168,094	-0,072	-0,074
-576,992	796,555	0,041	-0,082
-575,977	-14,193	-0,035	-0,016
-574,963	679,530	0,080	0,151
-573,948	-18,018	0,043	-0,019
-572,934	-200,000	0,000	-0,086
-571,919	-153,600	0,056	0,003
-570,904	334,517	0,006	0,009
-569,890	-168,433	0,094	0,003
-568,875	-12,290	-0,022	0,010
-567,861	-43,459	-0,022	-0,008
-566,846	-200,000	0,011	-0,096
-565,831	-200,000	0,000	0,125
-564,817	-200,000	0,016	0,065
-563,802	356,277	-0,109	-0,156
-562,788	44,888	-0,102	-0,067
-561,773	-125,585	0,068	0,007
-560,758	-200,000	-0,015	0,056
-559,744	137,212	0,119	0,112
-558,729	-116,199	0,061	0,008
-557,715	-88,434	0,030	-0,006
-556,700	-200,000	0,005	-0,050
-555,685	-200,000	-0,007	0,035
-554,671	-11,293	0,110	-0,052
-553,656	800,000	-0,034	0,096
-552,642	-200,000	0,047	0,230
-551,627	-200,000	-0,010	0,084
-550,612	42,715	-0,105	-0,068
-549,598	-116,299	-0,128	0,017
-548,583	-32,894	0,172	-0,068
-547,569	95,351	-0,163	-0,134
-546,554	92,422	0,108	0,088
-545,539	800,000	0,051	0,128
-544,525	348,658	-0,036	0,051
-543,510	-18,643	-0,077	0,034
-542,496	-171,243	0,032	0,001
-541,481	800,000	0,045	-0,106
-540,466	135,405	0,071	-0,066
-539,452	131,021	-0,092	0,085
-538,437	374,749	-0,058	0,086
-537,423	84,945	0,032	0,025
-536,408	-200,000	0,088	0,000
-535,393	-200,000	-0,040	-0,145
-534,379	157,190	-0,115	0,114
-533,364	-200,000	-0,016	0,079
-532,350	81,153	0,073	0,057
-531,335	123,324	0,136	0,123
-530,321	387,310	0,043	-0,064
-529,306	108,335	0,112	0,096
-528,291	114,991	0,037	-0,032
-527,277	-200,000	-0,012	-0,073
-526,262	-141,563	-0,112	-0,008
-525,248	-123,509	-0,118	0,013
-524,233	-16,364	-0,071	0,032
-523,218	318,456	0,013	-0,018
-522,204	275,401	0,037	-0,047
-521,189	465,701	-0,075	-0,121
-520,175	-200,000	0,017	0,210
-519,160	42,617	0,076	-0,050
-518,145	168,599	0,052	0,054
-517,131	800,000	-0,046	0,121
-516,116	-13,625	-0,117	0,054
-515,102	-200,000	0,000	-0,067
-514,087	473,986	0,028	-0,046
-513,072	-98,356	-0,049	0,009
-512,058	-33,514	0,086	-0,034
-511,043	-89,178	0,150	0,031
-510,029	279,480	-0,077	0,099
-509,014	-200,000	0,008	0,058
-507,999	485,514	-0,028	-0,045
-506,985	14,965	-0,082	0,046
-505,970	782,058	0,041	-0,082
-504,956	194,834	0,048	-0,052
-503,941	55,789	0,103	0,072
-502,926	-200,000	0,020	0,093
-501,912	800,000	-0,018	0,044
-500,897	9,174	0,125	0,068
-499,883	-200,000	-0,002	-0,096
-498,868	137,440	-0,053	-0,050
-497,853	800,000	-0,030	-0,077
-496,839	-200,000	-0,002	-0,076
-495,824	800,000	-0,044	-0,098
-494,810	119,336	0,055	-0,049
-493,795	-109,954	0,113	0,017
-492,781	800,000	0,043	-0,127
-491,766	526,989	-0,064	-0,108
-490,751	-77,369	-0,080	-0,020
-489,737	-200,000	-0,021	0,083
-488,722	341,939	-0,047	0,066
-487,708	-44,149	0,101	0,036
-486,693	78,063	0,123	-0,094
-485,678	-79,199	-0,130	-0,032
-484,664	-103,675	-0,103	-0,017
-483,649	233,859	-0,062	0,074
-482,635	-63,006	-0,085	0,025
-481,620	33,745	0,127	0,079
-480,605	213,599	-0,088	0,100
-479,591	-200,000	-0,026	0,198
-478,576	800,000	-0,063	-0,128
-477,562	-163,495	0,010	0,000
-476,547	-200,000	-0,010	0,094
-475,532	-200,000	-0,015	0,070
-474,518	-200,000	-0,020	0,083
-473,503	800,000	-0,058	0,153
-472,489	47,028	0,106	0,070
-471,474	-60,885	-0,140	0,042
-470,459	-19,217	0,027	-0,012
-469,445	43,985	-0,115	-0,075
-468,430	-70,408	0,085	0,023
-467,416	-6,393	-0,083	-0,040
-466,401	103,978	0,101	0,085
-465,386	204,076	-0,051	-0,056
-464,372	800,000	-0,026	0,069
-463,357	98,539	0,041	0,034
-462,343	60,496	-0,212	-0,150
-461,328	800,000	-0,047	-0,121
-460,313	98,082	0,061	0,050
-459,299	-128,108	0,081	0,008
-458,284	-200,000	0,003	0,082
-457,270	-130,586	-0,054	0,005
-456,255	427,806	-0,101	-0,157
-455,241	379,078	0,032	-0,047
-454,226	-200,000	0,011	0,077
-453,211	-73,930	-0,076	-0,020
-452,197	33,539	0,080	-0,050
-451,182	800,000	-0,043	0,120
-450,168	800,000	0,019	0,039
-449,153	-200,000	-0,018	-0,067
-448,138	800,000	0,018	0,037
-447,124	-200,000	-0,001	-0,035
-446,109	191,100	0,053	-0,058
-445,095	-200,000	0,003	0,097
-444,080	800,000	0,041	-0,083
-443,065	-64,028	0,087	-0,025
-442,051	-200,000	0,003	-0,031
-441,036	42,534	-0,103	-0,067
-440,022	-121,542	-0,086	-0,010
-439,007	-200,000	-0,017	-0,060
-437,992	800,000	-0,040	-0,096
-436,978	93,806	0,031	0,025
-435,963	-156,509	0,115	0,005
-434,949	-138,668	-0,057	0,004
-433,934	-200,000	0,003	0,065
-432,919	-200,000	-0,008	0,061
-431,905	-22,007	0,055	0,024
-430,890	-200,000	-0,004	0,127
-429,876	-116,931	0,098	-0,013
-428,861	101,423	-0,059	-0,049
-427,846	-56,386	-0,049	0,015
-426,832	-186,744	0,076	-0,001
-425,817	-200,000	-0,004	-0,027
-424,803	-137,445	0,075	0,006
-423,788	-200,000	-0,008	-0,063
-422,773	-135,507	0,085	0,007
-421,759	60,632	0,134	0,095
-420,744	-12,599	0,095	0,044
-419,730	-63,231	-0,131	-0,038
-418,715	-200,000	0,016	-0,203
-417,701	800,000	0,026	0,054
-416,686	-88,345	0,122	-0,026
-415,671	526,918	0,042	0,072
-414,657	209,233	-0,007	0,008
-413,642	-149,891	-0,097	-0,005
-412,628	-153,402	-0,084	-0,004
-411,613	-88,599	-0,088	-0,019
-410,598	-140,707	-0,024	-0,002
-409,584	159,911	-0,070	0,070
-408,569	-200,000	0,015	0,090
-407,555	-121,431	0,126	-0,015
-406,540	229,499	0,032	-0,037
-405,525	5,733	-0,100	0,053
-404,511	83,603	-0,052	0,041
-403,496	-58,977	-0,083	0,025
-402,482	-200,000	0,005	0,082
-401,467	800,000	0,034	0,069
-400,452	48,248	0,007	0,005
-399,438	-71,673	-0,109	-0,029
-398,423	-112,861	0,061	0,009
-397,409	800,000	-0,029	-0,065
-396,394	-200,000	0,012	-0,114
-395,379	800,000	0,020	0,043
-394,365	-200,000	-0,025	0,097
-393,350	303,665	0,081	-0,107
-392,336	423,014	-0,012	0,018
-391,321	48,368	-0,096	0,064
-390,306	15,559	-0,040	0,023
-389,292	159,660	-0,016	-0,016
-388,277	200,377	-0,071	0,078
-387,263	-30,930	0,030	0,012
-386,248	107,676	0,085	0,072
-385,233	800,000	-0,008	0,022
-384,219	-10,719	-0,077	-0,036
-383,204	700,479	0,058	-0,109
-382,190	750,395	0,060	-0,115
-381,175	312,214	-0,029	0,039
-380,160	-86,162	-0,171	-0,037
-379,146	-115,295	0,048	-0,006
-378,131	1,010	0,065	0,033
-377,117	126,048	-0,113	-0,102
-376,102	-140,592	0,050	-0,004
-375,088	-143,320	0,126	0,008
-374,073	-57,590	-0,167	0,052
-373,058	-200,000	0,004	0,117
-372,044	800,000	0,012	-0,031
-371,029	378,664	-0,054	0,079
-370,015	-66,894	-0,071	0,020
-369,000	-11,946	-0,052	-0,024
-367,985	-200,000	-0,002	-0,028
-366,971	346,806	0,010	0,014
-365,956	19,943	0,084	-0,048
-364,942	-200,000	0,006	-0,027
-363,927	492,454	-0,068	-0,112
-362,912	-20,307	0,148	0,065
-361,898	-200,000	0,020	-0,083
-360,883	211,361	-0,063	-0,071
-359,869	-135,066	0,139	-0,012
-358,854	-138,202	-0,099	0,008
-357,839	-200,000	0,020	0,075
-356,825	-38,555	-0,121	-0,045
-355,810	530,283	0,089	-0,151
-354,796	112,028	0,083	-0,072
-353,781	256,362	-0,050	-0,062
-352,766	800,000	0,029	0,057
-351,752	568,922	0,105	-0,182
-350,737	188,404	-0,057	-0,061
-349,723	172,783	0,018	-0,019
-348,708	800,000	0,038	-0,076
-347,693	-11,173	-0,168	0,079
-346,679	-200,000	0,010	0,082
-345,664	-200,000	-0,007	-0,025
-344,650	-200,000	-0,012	-0,048
-343,635	-99,019	0,088	0,016
-342,620	81,521	0,026	-0,020
-341,606	-200,000	-0,016	0,058
-340,591	-200,000	-0,022	0,104
-339,577	-200,000	0,022	0,077
-338,562	-101,927	-0,041	0,007
-337,548	-122,130	-0,145	0,017
-336,533	-66,477	0,073	0,021
-335,518	44,998	0,033	0,022
-334,504	419,210	-0,069	-0,106
-333,489	800,000	0,017	-0,037
-332,475	94,287	-0,151	0,122
-331,460	116,559	-0,083	-0,073
-330,445	-128,059	-0,119	-0,012
-329,431	612,134	0,035	0,062
-328,416	121,435	0,074	-0,066
-327,402	-26,481	-0,050	-0,021
-326,387	714,153	-0,059	-0,111
-325,372	497,084	-0,047	-0,077
-324,358	45,485	-0,103	-0,068
-323,343	-200,000	-0,009	-0,164
-322,329	379,427	-0,059	0,087
-321,314	-200,000	0,042	0,160
-320,299	-200,000	-0,004	0,136
-319,285	-64,925	-0,086	0,025
-318,270	34,054	0,028	-0,018
-317,256	-200,000	-0,010	-0,144
-316,241	370,692	0,070	0,101
-315,226	28,509	0,110	0,066
-314,212	149,368	-0,115	0,111
-313,197	-38,236	0,153	0,058
-312,183	-200,000	0,005	-0,029
-311,168	416,019	-0,033	-0,051
-310,153	-200,000	0,009	-0,263
-309,139	-64,908	-0,119	0,034
-308,124	-158,645	0,071	0,003
-307,110	52,114	0,107	0,072
-306,095	-123,776	-0,122	-0,014
-305,080	470,997	-0,009	0,014
-304,066	-163,118	-0,033	-0,001
-303,051	-108,038	0,025	-0,004
-302,037	152,707	0,057	-0,056
-301,022	800,000	-0,018	-0,050
-300,008	403,649	-0,024	0,037
-298,993	-41,605	-0,144	-0,052
-297,978	393,939	-0,032	0,048
-296,964	-198,874	0,082	-0,000
-295,949	-14,986	-0,097	-0,044
-294,935	34,653	0,117	0,072
-293,920	-200,000	0,012	-0,097
-292,905	-200,000	0,022	0,081
-291,891	462,788	-0,029	0,046
-290,876	79,541	-0,044	-0,034
-289,862	471,708	-0,031	0,050
-288,847	135,166	0,110	-0,102
-287,832	742,239	-0,050	-0,096
-286,818	800,000	-0,040	0,101
-285,803	277,785	0,083	-0,106
-284,789	800,000	0,009	-0,023
-283,774	-200,000	0,014	-0,051
-282,759	800,000	-0,042	0,113
-281,745	428,575	0,021	0,033
-280,730	22,246	0,066	-0,038
-279,716	-200,000	-0,005	-0,138
-278,701	127,593	-0,059	-0,053
-277,686	-42,796	0,168	0,061
-276,672	-200,000	-0,020	0,089
-275,657	-200,000	0,010	-0,129
-274,643	-117,215	-0,124	-0,016
-273,628	570,437	-0,045	-0,079
-272,613	679,572	-0,030	0,056
-271,599	-4,610	0,174	0,085
-270,584	139,852	0,026	-0,025
-269,570	36,232	-0,093	0,058
-268,555	175,638	0,110	-0,114
-267,540	-10,297	-0,047	0,022
-266,526	-111,000	-0,196	-0,028
-265,511	533,209	0,053	-0,090
-264,497	-85,009	0,124	0,027
-263,482	324,088	-0,064	0,087
-262,467	-116,413	0,105	0,014
-261,453	190,029	0,026	0,028
-260,438	9,489	-0,109	0,059
-259,424	527,079	-0,049	0,082
-258,409	165,992	0,095	-0,095
-257,395	-52,279	0,054	0,018
-256,380	-200,000	-0,039	0,136
-255,365	-60,247	0,129	-0,039
-254,351	-200,000	0,014	0,051
-253,336	-200,000	0,009	-0,075
-252,322	-200,000	0,016	-0,152
-251,307	-79,074	0,029	0,007
-250,292	311,154	-0,052	0,070
-249,278	-24,273	0,127	0,054
-248,263	-200,000	-0,016	-0,068
-247,249	694,154	-0,019	0,036
-246,234	-33,211	-0,099	0,039
-245,219	-93,947	0,113	0,022
-244,205	800,000	0,073	-0,173
-243,190	800,000	0,053	0,126
-242,176	2,001	-0,080	0,041
-241,161	-9,642	0,035	-0,017
-240,146	7,815	0,027	-0,015
-239,132	-170,036	-0,028	-0,001
-238,117	-80,628	-0,157	-0,037
-237,103	-200,000	0,010	-0,108
-236,088	-92,728	0,067	0,013
-235,073	176,259	0,040	-0,042
-234,059	641,266	0,075	0,137
-233,044	-114,696	-0,148	0,020
-232,030	-75,787	-0,088	0,022
-231,015	-200,000	-0,000	-0,086
-230,000	90,497	-0,033	-0,026
-228,986	-63,130	0,091	0,027
-227,971	-90,351	-0,017	-0,003
-226,957	-142,613	0,048	0,003
-225,942	98,483	-0,063	-0,051
-224,927	381,793	0,017	-0,024
-223,913	370,850	0,022	0,032
-222,898	-200,000	-0,034	-0,149
-221,884	-59,673	-0,037	-0,011
-220,869	89,045	0,100	0,079
-219,855	-44,286	0,047	0,017
-218,840	-29,403	0,084	0,034
-217,825	535,044	-0,061	0,103
-216,811	-200,000	-0,002	0,011
-215,796	426,783	-0,032	-0,049
-214,782	-200,000	-0,004	0,105
-213,767	-200,000	0,003	0,175
-212,752	-136,316	0,029	0,002
-211,738	330,636	-0,068	0,093
-210,723	110,897	-0,092	0,078
-209,709	-41,738	0,114	-0,041
-208,694	800,000	0,046	-0,123
-207,679	261,140	0,046	0,057
-206,665	282,954	0,064	0,082
-205,650	654,830	0,084	0,154
-204,636	-1,235	-0,049	-0,025
-203,621	-185,935	0,012	0,000
-202,606	-12,257	-0,109	0,051
-201,592	168,894	0,024	-0,024
-200,577	23,409	0,060	-0,035
-199,563	102,000	0,077	-0,064
-198,548	475,052	0,054	-0,087
-197,533	-121,753	-0,128	0,015
-196,519	800,000	0,036	-0,097
-195,504	114,851	0,071	-0,061
-194,490	-46,876	0,115	-0,040
-193,475	83,070	0,016	0,012
-192,460	-61,536	-0,068	0,020
-191,446	-67,324	0,063	0,018
-190,431	10,986	0,057	0,031
-189,417	-190,574	-0,191	0,001
-188,402	78,169	0,072	0,054
-187,387	727,765	-0,023	-0,044
-186,373	47,006	0,044	-0,029
-185,358	755,144	-0,019	0,037
-184,344	-200,000	-0,014	0,081
-183,329	800,000	-0,013	0,031
-182,315	-200,000	-0,012	-0,138
-181,300	-130,173	0,098	-0,009
-180,285	454,432	-0,095	-0,150
-179,271	-200,000	0,027	-0,108
-178,256	12,773	-0,074	-0,041
-177,242	-137,480	0,041	0,003
-176,227	10,079	-0,057	0,030
-175,212	-125,216	0,147	0,016
-174,198	-200,000	-0,001	-0,010
-173,183	-120,250	-0,155	0,019
-172,169	-111,396	-0,123	-0,018
-171,154	-200,000	0,030	-0,105
-170,139	-200,000	-0,045	0,194
-169,125	256,772	0,092	0,113
-168,110	24,484	0,056	-0,033
-167,096	800,000	0,028	0,079
-166,081	-35,210	-0,132	-0,051
-165,066	217,507	-0,057	-0,064
-164,052	-48,684	-0,142	0,048
-163,037	114,531	-0,098	-0,085
-162,023	109,033	0,117	0,099
-161,008	-200,000	0,024	0,210
-159,993	-200,000	0,033	0,148
-158,979	-200,000	-0,013	-0,094
-157,964	129,073	0,108	-0,098
-156,950	104,031	0,063	-0,053
-155,935	-93,839	0,051	-0,010
-154,920	-167,355	0,016	0,000
-153,906	87,416	-0,094	0,074
-152,891	-76,388	0,047	-0,012
-151,877	-200,000	-0,003	-0,018
-150,862	-164,228	-0,179	-0,006
-149,847	409,780	0,082	-0,123
-148,833	800,000	-0,097	-0,224
-147,818	-65,081	0,098	0,028
-146,804	-137,266	0,059	0,005
-145,789	104,348	0,053	0,045
-144,775	-132,621	0,090	0,008
-143,760	800,000	-0,040	-0,086
-142,745	800,000	-0,036	-0,089
-141,731	284,476	-0,040	-0,051
-140,716	-162,438	0,126	0,004
-139,702	-22,100	-0,033	0,014
-138,687	165,461	0,006	0,006
-137,672	1,001	0,045	0,023
-136,658	800,000	0,074	-0,185
-135,643	-125,253	0,086	-0,009
-134,629	125,900	-0,061	0,055
-133,614	316,486	0,026	-0,035
-132,599	143,307	0,117	0,110
-131,585	61,223	0,116	-0,082
-130,570	75,226	-0,106	0,079
-129,556	-178,179	0,077	0,001
-128,541	109,166	-0,098	0,083
-127,526	-115,618	0,123	0,016
-126,512	-160,229	0,060	-0,002
-125,497	-54,843	-0,052	-0,016
-124,483	274,958	0,062	-0,078
-123,468	19,527	0,081	-0,046
-122,453	-200,000	0,000	0,096
-121,439	-56,379	-0,134	0,042
-120,424	800,000	-0,062	-0,128
-119,410	-200,000	-0,002	-0,017
-118,395	-200,000	-0,021	0,153
-117,380	-200,000	-0,006	0,024
-116,366	576,180	0,008	-0,014
-115,351	-39,529	0,153	-0,056
-114,337	-200,000	-0,013	0,095
-113,322	-144,777	0,136	-0,009
-112,307	755,119	-0,061	0,117
-111,293	-57,927	0,164	0,050
-110,278	-200,000	-0,022	0,079
-109,264	272,009	-0,043	-0,054
-108,249	217,837	0,043	-0,049
-107,234	-5,677	-0,054	-0,026
-106,220	20,445	0,056	0,032
-105,205	-132,784	0,083	-0,007
-104,191	30,068	-0,076	-0,046
-103,176	437,877	0,103	0,160
-102,162	-200,000	0,042	0,290
-101,147	800,000	-0,021	0,058
-100,132	142,170	0,035	0,033
-99,118	800,000	-0,045	-0,095
-98,103	352,589	-0,021	-0,029
-97,089	350,747	0,081	0,113
-96,074	-200,000	0,030	-0,120
-95,059	82,830	-0,041	0,032
-94,045	123,502	-0,084	0,074
-93,030	-113,555	-0,065	-0,009
-92,016	176,744	-0,089	-0,092
-91,001	51,845	0,110	-0,074
-89,986	56,651	0,191	0,131
-88,972	-64,885	0,104	-0,030
-87,957	213,587	-0,090	-0,101
-86,943	122,233	0,037	-0,033
-85,928	800,000	-0,022	-0,055
-84,913	-200,000	-0,006	-0,130
-83,899	219,864	0,080	0,091
-82,884	66,282	-0,079	0,057
-81,870	-13,023	-0,021	-0,009
-80,855	457,268	0,045	-0,070
-79,840	416,380	-0,047	-0,072
-78,826	355,664	0,088	-0,124
-77,811	-18,235	-0,075	0,033
-76,797	440,299	-0,026	0,041
-75,782	-200,000	0,037	0,160
-74,767	74,396	0,041	0,031
-73,753	-200,000	-0,010	0,034
-72,738	-200,000	-0,026	0,148
-71,724	-200,000	-0,003	-0,024
-70,709	317,016	0,099	0,133
-69,694	-200,000	0,018	-0,059
-68,680	148,239	0,085	0,081
-67,665	-167,462	-0,090	0,002
-66,651	257,602	0,031	0,038
-65,636	36,715	-0,094	0,058
-64,622	62,496	0,085	-0,060
-63,607	-110,681	-0,086	-0,012
-62,592	21,229	-0,144	-0,082
-61,578	-73,306	0,218	-0,056
-60,563	-72,530	-0,124	-0,032
-59,549	-200,000	0,021	0,069
-58,534	24,968	-1,863	-1,088
-57,519	422,235	-1,237	-1,880
-56,505	-200,000	-0,354	-4,416
-55,490	417,160	0,899	1,360
-54,476	800,000	5,218	11,582
-53,461	-200,000	20,677	328,068
-52,446	800,000	755,369	2317,800
-51,432	551,172	1660,590	2823,747
-50,417	73,636	1663,411	1228,531
-49,403	18,895	1536,575	866,450
-48,388	12,864	1459,311	793,722
-47,373	18,897	1450,098	817,630
-46,359	15,912	1439,249	797,287
-45,344	11,078	1435,302	772,056
-44,330	11,030	1433,217	770,676
-43,315	11,034	1431,327	769,644
-42,300	11,079	1429,398	768,794
-41,286	11,052	1428,502	768,152
-40,271	11,030	1426,978	767,195
-39,257	11,080	1425,827	766,783
-38,242	11,099	1424,531	766,147
-37,227	11,076	1423,573	765,493
-36,213	11,104	1422,288	764,905
-35,198	11,086	1421,130	764,165
-34,184	11,097	1420,395	763,791
-33,169	11,083	1419,101	762,998
-32,154	11,153	1417,676	762,535
-31,140	11,128	1416,650	761,834
-30,125	11,128	1415,775	761,334
-29,111	11,147	1414,515	760,713
-28,096	11,166	1413,262	760,097
-27,082	11,059	1412,020	758,902
-26,067	11,012	1411,229	758,224
-25,052	11,032	1410,216	757,744
-24,038	11,073	1409,028	757,267
-23,023	11,020	1408,169	756,526
-22,009	11,068	1406,983	756,084
-20,994	11,041	1405,992	755,393
-19,979	11,003	1405,233	754,783
-18,965	10,974	1404,372	754,153
-17,950	10,970	1403,486	753,630
-16,936	10,975	1402,788	753,247
-15,921	10,921	1401,492	752,271
-14,906	10,934	1400,669	751,861
-13,892	10,964	1399,526	751,353
-12,877	10,931	1398,996	750,888
-11,863	10,941	1398,028	750,383
-10,848	10,927	1397,064	749,774
-9,833	10,897	1396,221	749,153
-8,819	10,861	1395,373	748,499
-7,804	10,874	1394,430	748,024
-6,790	10,828	1393,630	747,352
-5,775	10,919	1392,149	746,949
-4,760	10,847	1391,666	746,328
-3,746	10,870	1390,634	745,849
-2,731	10,830	1389,709	745,139
-1,717	10,809	1389,088	744,682
-0,702	10,812	1387,160	743,633
0,313	14,859	1301,142	716,044
1,327	31,095	693,035	418,313
2,342	48,252	120,213	79,195
3,356	1,592	16,427	8,312
4,371	2,258	3,347	1,701
5,386	1,321	0,829	0,418
6,400	800,000	0,200	0,466
7,415	-35,285	-0,192	-0,073
8,429	17,766	-0,154	-0,086
9,444	-1,968	-0,378	-0,187
10,459	41,708	-0,186	-0,119
11,473	-120,020	-0,198	-0,024
12,488	-106,009	-0,307	-0,048
13,502	-73,878	-0,355	-0,090
14,517	38,379	-0,203	-0,127
15,531	454,573	-0,194	-0,305
16,546	58,091	-0,306	-0,211
17,561	172,412	-0,211	-0,214
18,575	43,034	-0,212	-0,136
19,590	549,833	-0,139	-0,236
20,604	-73,321	-0,289	-0,074
21,619	94,980	-0,436	-0,349
22,634	231,238	-0,264	-0,305
23,648	51,356	-0,479	-0,320
24,663	194,643	-0,325	-0,347
25,677	152,940	-0,332	-0,320
26,692	50,150	-0,335	-0,222
27,707	74,070	-0,279	-0,206
28,721	132,514	-0,318	-0,289
29,736	455,680	-0,213	-0,333
30,750	106,748	-0,454	-0,379
31,765	306,632	-0,294	-0,386
32,780	95,161	-0,337	-0,270
33,794	9,529	-0,375	-0,199
34,809	96,286	-0,256	-0,206
35,823	-33,275	-0,331	-0,128
36,838	84,914	-0,394	-0,304
37,853	136,140	-0,421	-0,386
38,867	-43,325	-0,417	-0,147
39,882	392,694	-0,136	-0,200
40,896	90,402	-0,347	-0,273
41,911	405,471	-0,177	-0,263
42,926	86,763	-0,346	-0,268
43,940	-37,943	-0,490	-0,182
44,955	118,220	-0,360	-0,312
45,969	-15,842	-0,368	-0,164
46,984	38,568	-0,318	-0,199
47,999	37,686	-0,147	-0,092
49,013	45,459	-0,411	-0,266
50,028	136,667	-0,278	-0,255
51,042	-76,734	-0,315	-0,077
52,057	94,287	-0,315	-0,251
53,071	164,241	-0,267	-0,265
54,086	88,035	-0,224	-0,174
55,101	56,265	-0,379	-0,258
56,115	-16,686	-0,359	-0,159
57,130	-24,478	-0,390	-0,162
58,144	42,086	-0,276	-0,176
59,159	340,739	-0,281	-0,386
60,174	82,031	-0,322	-0,245
61,188	499,643	-0,195	-0,316
62,203	636,961	-0,241	-0,431
63,217	187,076	-0,252	-0,263
64,232	7,082	-0,245	-0,128
65,247	171,098	-0,210	-0,211
66,261	320,087	-0,248	-0,331
67,276	261,863	-0,286	-0,349
68,290	90,713	-0,376	-0,295
69,305	-37,252	-0,437	-0,163
70,320	7,931	-0,341	-0,179
71,334	56,282	-0,283	-0,192
72,349	86,627	-0,346	-0,268
73,363	244,660	-0,316	-0,373
74,378	55,887	-0,341	-0,231
75,393	119,559	-0,301	-0,261
76,407	-9,021	-0,386	-0,181
77,422	60,579	-0,309	-0,214
78,436	-12,084	-0,229	-0,105
79,451	31,128	-0,295	-0,177
80,466	216,674	-0,245	-0,273
81,480	236,365	-0,274	-0,318
82,495	63,494	-0,260	-0,183
83,509	182,026	-0,255	-0,263
84,524	-127,575	-0,164	0,016
85,539	-21,453	-0,229	-0,097
86,553	93,205	-0,263	-0,208
87,568	217,733	-0,247	-0,276
88,582	24,367	-0,329	-0,190
89,597	86,176	-0,261	-0,201
90,611	-52,674	-0,281	-0,090
91,626	113,240	-0,295	-0,250
92,641	55,857	-0,380	-0,258
93,655	121,491	-0,301	-0,262
94,670	129,254	-0,262	-0,234
95,684	93,382	-0,304	-0,240
96,699	218,425	-0,273	-0,305
97,714	435,475	-0,228	-0,348
98,728	6,255	-0,217	-0,112
99,743	-42,066	-0,302	-0,107
100,757	199,381	-0,280	-0,300
101,772	-74,600	-0,271	-0,068
102,787	-30,575	-0,333	-0,131
103,801	163,212	-0,277	-0,272
104,816	121,470	-0,234	-0,204
105,830	-110,047	-0,226	-0,033
106,845	-84,271	-0,129	-0,028
107,860	-88,272	-0,337	-0,070
108,874	264,444	-0,255	-0,311
109,889	175,142	-0,259	-0,263
110,903	42,037	-0,384	-0,243
111,918	188,909	-0,219	-0,229
112,933	147,872	-0,260	-0,245
113,947	100,925	-0,321	-0,261
114,962	69,779	-0,291	-0,209
115,976	158,570	-0,266	-0,258
116,991	227,135	-0,189	-0,215
118,006	6,120	-0,353	-0,182
119,020	429,799	-0,152	-0,230
120,035	800,000	-0,155	-0,336
121,049	265,365	-0,212	-0,258
122,064	-8,113	-0,189	-0,089
123,079	-27,739	-0,217	-0,087
124,093	-2,578	-0,345	-0,168
125,108	161,715	-0,200	-0,195
126,122	-61,024	-0,260	-0,076
127,137	84,785	-0,284	-0,217
128,151	-87,137	-0,217	-0,046
129,166	-50,186	-0,304	-0,100
130,181	88,719	-0,366	-0,283
131,195	67,155	-0,343	-0,243
132,210	31,463	-0,303	-0,181
133,224	55,806	-0,240	-0,162
134,239	50,380	-0,120	-0,079
135,254	202,859	-0,161	-0,174
136,268	158,984	-0,212	-0,205
137,283	-95,192	-0,251	-0,047
138,297	17,395	-0,246	-0,136
139,312	66,961	-0,276	-0,195
140,327	110,462	-0,169	-0,141
141,341	141,491	-0,120	-0,111
142,356	7,237	-0,222	-0,115
143,370	-128,989	-0,223	0,022
144,385	81,447	-0,198	-0,149
145,400	165,591	-0,272	-0,268
146,414	199,538	-0,196	-0,210
147,429	800,000	-0,096	-0,228
148,443	57,317	-0,131	-0,089
149,458	-6,861	-0,211	-0,100
150,473	271,654	-0,075	-0,093
151,487	71,176	-0,267	-0,193
152,502	92,572	-0,290	-0,227
153,516	326,195	-0,217	-0,290
154,531	-7,296	-0,332	-0,156
155,546	400,118	-0,141	-0,207
156,560	22,095	-0,239	-0,135
157,575	28,341	-0,219	-0,128
158,589	189,998	-0,243	-0,254
159,604	-14,394	-0,311	-0,139
160,619	98,399	-0,274	-0,219
161,633	42,366	-0,248	-0,157
162,648	80,413	-0,245	-0,184
163,662	42,571	-0,096	-0,060
164,677	728,668	-0,064	-0,119
165,692	157,995	-0,331	-0,319
166,706	204,318	-0,184	-0,199
167,721	9,550	-0,265	-0,139
168,735	537,537	-0,185	-0,306
169,750	128,020	-0,160	-0,141
170,764	-92,168	-0,240	-0,047
171,779	83,537	-0,283	-0,214
172,794	459,638	-0,130	-0,202
173,808	-40,291	-0,320	-0,115
174,823	-26,383	-0,277	-0,112
175,837	78,247	-0,235	-0,174
176,852	396,915	-0,155	-0,226
177,867	132,638	-0,196	-0,175
178,881	-34,271	-0,255	-0,097
179,896	189,334	-0,143	-0,149
180,910	-200,000	-0,054	-0,178
181,925	247,792	-0,232	-0,273
182,940	800,000	-0,113	-0,293
183,954	-44,250	-0,212	-0,074
184,969	-96,304	-0,300	-0,055
185,983	155,688	-0,163	-0,156
186,998	376,173	-0,166	-0,235
188,013	332,673	-0,086	-0,115
189,027	204,256	-0,273	-0,294
190,042	340,992	-0,168	-0,228
191,056	-29,947	-0,237	-0,093
192,071	36,628	-0,309	-0,189
193,086	-111,108	-0,126	0,018
194,100	615,636	-0,112	-0,196
195,115	274,282	-0,172	-0,211
196,129	66,493	-0,271	-0,191
197,144	-36,936	-0,212	-0,078
198,159	800,000	-0,072	-0,210
199,173	-29,997	-0,253	-0,099
200,188	453,979	-0,134	-0,206
201,202	2,356	-0,252	-0,126
202,217	-31,865	-0,158	-0,061
203,232	95,881	-0,251	-0,198
204,246	10,316	-0,259	-0,136
205,261	97,436	-0,239	-0,190
206,275	26,557	-0,260	-0,151
207,290	674,712	-0,106	-0,192
208,304	-139,803	-0,297	0,022
209,319	-87,273	-0,250	-0,052
210,334	-84,164	-0,297	-0,065
211,348	335,485	-0,170	-0,229
212,363	141,504	-0,210	-0,192
213,377	542,523	-0,099	-0,165
214,392	335,726	-0,132	-0,178
215,407	-18,973	-0,293	0,125
216,421	-200,000	0,014	-0,107
217,436	134,989	-0,216	-0,194
218,450	-6,579	-0,118	-0,055
219,465	218,352	-0,141	-0,156
220,480	502,773	-0,201	-0,323
221,494	148,297	-0,181	-0,169
222,509	76,029	-0,109	-0,080
223,523	-141,630	-0,097	0,007
224,538	287,891	-0,097	-0,122
225,553	517,975	-0,086	-0,139
226,567	800,000	-0,148	-0,311
227,582	800,000	-0,055	-0,109
228,596	62,260	-0,169	-0,117
229,611	-85,110	-0,220	-0,047
230,626	-31,306	-0,157	-0,061
231,640	775,427	-0,163	-0,310
232,655	47,564	-0,328	-0,211
233,669	800,000	-0,129	-0,256
234,684	34,514	-0,131	-0,079
235,699	-116,849	-0,145	0,018
236,713	-69,678	-0,233	0,061
237,728	-107,393	-0,165	0,025
238,742	-83,769	-0,253	-0,055
239,757	621,648	-0,182	-0,317
240,772	800,000	-0,072	-0,183
241,786	11,562	-0,237	-0,125
242,801	90,607	-0,155	-0,120
243,815	449,193	-0,191	-0,292
244,830	14,251	-0,165	-0,089
245,844	550,070	-0,128	-0,213
246,859	141,071	-0,147	-0,135
247,874	178,959	-0,210	-0,212
248,888	71,348	-0,247	-0,177
249,903	-44,814	-0,247	-0,085
250,917	800,000	-0,055	-0,125
251,932	470,383	-0,077	-0,120
252,947	-82,793	-0,256	-0,057
253,961	2,983	-0,151	-0,076
254,976	-31,537	-0,247	-0,095
255,990	0,305	-0,180	-0,088
257,005	397,525	-0,168	-0,243
258,020	12,982	-0,138	-0,073
259,034	-48,349	-0,199	-0,066
260,049	311,946	-0,135	-0,175
261,063	9,189	-0,156	-0,081
262,078	800,000	-0,078	-0,193
263,093	469,900	-0,136	-0,211
264,107	-130,093	-0,195	0,018
265,122	61,853	-0,257	-0,176
266,136	46,975	-0,062	0,040
267,151	297,756	-0,172	-0,218
268,166	252,396	-0,134	-0,158
269,180	152,843	-0,176	-0,166
270,195	-22,571	-0,254	-0,105
271,209	-200,000	0,032	-0,173
272,224	-152,453	-0,108	-0,005
273,239	44,548	-0,107	-0,068
274,253	9,213	-0,162	-0,084
275,268	137,384	-0,246	-0,222
276,282	258,448	-0,133	-0,158
277,297	75,974	-0,216	-0,157
278,312	528,387	-0,227	-0,371
279,326	34,132	-0,204	-0,122
280,341	-36,473	-0,257	-0,095
281,355	-78,406	-0,203	-0,048
282,370	110,918	-0,084	-0,070
283,384	43,776	-0,177	-0,112
284,399	10,318	-0,223	-0,116
285,414	-10,139	-0,138	-0,063
286,428	419,922	-0,124	-0,184
287,443	800,000	-0,047	-0,089
288,457	800,000	-0,062	-0,120
289,472	-113,667	-0,142	-0,019
290,487	611,474	-0,175	-0,302
291,501	280,109	-0,166	-0,204
292,516	302,860	-0,182	-0,232
293,530	-104,839	-0,250	-0,039
294,545	568,544	-0,120	-0,201
295,560	16,214	-0,187	-0,101
296,574	449,246	-0,066	-0,100
297,589	187,036	-0,182	-0,186
298,603	123,184	-0,105	-0,090
299,618	44,382	-0,166	-0,105
300,633	417,615	-0,134	-0,197
301,647	800,000	-0,054	-0,123
302,662	-69,227	-0,243	-0,064
303,676	36,334	-0,198	-0,120
304,691	51,536	-0,210	-0,137
305,706	800,000	-0,088	-0,230
306,720	800,000	-0,039	-0,092
307,735	219,148	-0,128	-0,141
308,749	189,348	-0,100	-0,103
309,764	329,273	-0,099	-0,131
310,779	185,259	-0,120	-0,122
311,793	-60,519	-0,208	-0,060
312,808	174,567	-0,202	-0,201
313,822	-22,305	-0,169	-0,070
314,837	62,593	-0,232	-0,159
315,852	-91,802	-0,123	-0,024
316,866	232,913	-0,064	-0,072
317,881	580,435	-0,076	0,128
318,895	-200,000	-0,054	-0,192
319,910	800,000	-0,090	-0,191
320,925	-3,468	-0,133	-0,063
321,939	152,546	-0,073	-0,069
322,954	221,500	-0,177	-0,195
323,968	800,000	0,002	-0,003
324,983	186,101	-0,042	0,043
325,997	-200,000	-0,027	-0,205
327,012	-88,955	-0,195	-0,039
328,027	800,000	-0,070	-0,194
329,041	-39,581	-0,095	-0,034
330,056	15,076	-0,111	-0,059
331,070	496,146	-0,079	-0,124
332,085	-200,000	0,012	-0,062
333,100	96,648	-0,072	-0,056
334,114	537,904	-0,101	-0,165
335,129	283,291	-0,141	-0,174
336,143	319,892	-0,134	-0,175
337,158	800,000	-0,079	-0,188
338,173	-200,000	-0,025	-0,099
339,187	120,398	-0,068	-0,058
340,202	800,000	-0,048	-0,118
341,216	-200,000	-0,040	-0,149
342,231	-200,000	-0,060	-0,241
343,246	800,000	-0,092	-0,230
344,260	-119,242	-0,127	0,015
345,275	800,000	-0,068	-0,143
346,289	14,427	-0,098	-0,052
347,304	25,009	-0,087	-0,049
348,319	157,354	-0,142	-0,134
349,333	-8,914	-0,151	-0,069
350,348	61,521	-0,204	-0,139
351,362	800,000	-0,113	-0,214
352,377	-102,890	0,007	-0,001
353,392	-65,841	-0,171	0,046
354,406	-157,517	-0,035	-0,001
355,421	208,764	1307,054	1400,298
356,435	160,658	1466,819	1400,807
